##NAMES=Clinozoisite
##RRUFFID=R060284
##IDEAL CHEMISTRY=Ca_2_Al_3_(Si_2_O_7_)(SiO_4_)O(OH)
##LOCALITY=near Zagi Mountain, Khaffor Dehri, North-West Frontier Province, Pakistan
##OWNER=RRUFF
##SOURCE=Herb Obodda
##DESCRIPTION=Greenish-brown fragment of a prismatic crystal
##STATUS=The identification of this mineral has been confirmed by X-ray diffraction and chemical analysis
##URL=rruff.info/R060284
##MEASURED CHEMISTRY=Ca_2.00_(Al_0.90_Fe^3+^_0.10_)_3_(Si_1.00_O_4_)(Si_2.00_O_7_)O(OH)
1.055681e+002, 1.755436e+002
1.060502e+002, 1.771669e+002
1.065323e+002, 1.801142e+002
1.070144e+002, 1.832137e+002
1.074965e+002, 1.861852e+002
1.079786e+002, 1.898768e+002
1.084608e+002, 1.919209e+002
1.089429e+002, 1.918178e+002
1.094250e+002, 1.898636e+002
1.099071e+002, 1.877107e+002
1.103892e+002, 1.840460e+002
1.108713e+002, 1.810347e+002
1.113535e+002, 1.798970e+002
1.118356e+002, 1.817144e+002
1.123177e+002, 1.843131e+002
1.127998e+002, 1.888916e+002
1.132819e+002, 1.956865e+002
1.137640e+002, 1.984419e+002
1.142462e+002, 1.911237e+002
1.147283e+002, 1.811565e+002
1.152104e+002, 1.760318e+002
1.156925e+002, 1.828003e+002
1.161746e+002, 1.903865e+002
1.166567e+002, 1.941601e+002
1.171389e+002, 1.923589e+002
1.176210e+002, 1.914485e+002
1.181031e+002, 1.953677e+002
1.185852e+002, 2.017676e+002
1.190673e+002, 2.060122e+002
1.195494e+002, 2.030965e+002
1.200316e+002, 1.990526e+002
1.205137e+002, 1.982542e+002
1.209958e+002, 2.025997e+002
1.214779e+002, 2.089455e+002
1.219600e+002, 2.171274e+002
1.224421e+002, 2.264192e+002
1.229243e+002, 2.333870e+002
1.234064e+002, 2.336956e+002
1.238885e+002, 2.309792e+002
1.243706e+002, 2.298916e+002
1.248527e+002, 2.317791e+002
1.253348e+002, 2.361380e+002
1.258170e+002, 2.431531e+002
1.262991e+002, 2.528579e+002
1.267812e+002, 2.631713e+002
1.272633e+002, 2.722019e+002
1.277454e+002, 2.804232e+002
1.282276e+002, 2.889262e+002
1.287097e+002, 2.984771e+002
1.291918e+002, 3.086739e+002
1.296739e+002, 3.180989e+002
1.301560e+002, 3.260910e+002
1.306381e+002, 3.353655e+002
1.311203e+002, 3.504522e+002
1.316024e+002, 3.707879e+002
1.320845e+002, 3.922914e+002
1.325666e+002, 4.111537e+002
1.330487e+002, 4.284496e+002
1.335308e+002, 4.496437e+002
1.340130e+002, 4.767369e+002
1.344951e+002, 5.068458e+002
1.349772e+002, 5.341415e+002
1.354593e+002, 5.585059e+002
1.359414e+002, 5.810505e+002
1.364235e+002, 6.005904e+002
1.369057e+002, 6.167926e+002
1.373878e+002, 6.379457e+002
1.378699e+002, 6.674636e+002
1.383520e+002, 7.038134e+002
1.388341e+002, 7.376094e+002
1.393162e+002, 7.687693e+002
1.397984e+002, 7.976729e+002
1.402805e+002, 8.251016e+002
1.407626e+002, 8.502384e+002
1.412447e+002, 8.750292e+002
1.417268e+002, 9.004789e+002
1.422089e+002, 9.267609e+002
1.426911e+002, 9.512306e+002
1.431732e+002, 9.751714e+002
1.436553e+002, 9.961346e+002
1.441374e+002, 1.008409e+003
1.446195e+002, 1.007516e+003
1.451016e+002, 1.005229e+003
1.455838e+002, 1.006688e+003
1.460659e+002, 1.015876e+003
1.465480e+002, 1.020306e+003
1.470301e+002, 1.016585e+003
1.475122e+002, 1.007673e+003
1.479943e+002, 1.005672e+003
1.484765e+002, 1.018033e+003
1.489586e+002, 1.030408e+003
1.494407e+002, 1.034931e+003
1.499228e+002, 1.021530e+003
1.504049e+002, 1.013351e+003
1.508870e+002, 1.014059e+003
1.513692e+002, 1.023529e+003
1.518513e+002, 1.031160e+003
1.523334e+002, 1.034690e+003
1.528155e+002, 1.037495e+003
1.532976e+002, 1.042194e+003
1.537797e+002, 1.047233e+003
1.542619e+002, 1.055739e+003
1.547440e+002, 1.070405e+003
1.552261e+002, 1.092941e+003
1.557082e+002, 1.110719e+003
1.561903e+002, 1.116845e+003
1.566724e+002, 1.119131e+003
1.571546e+002, 1.126650e+003
1.576367e+002, 1.148125e+003
1.581188e+002, 1.169095e+003
1.586009e+002, 1.183190e+003
1.590830e+002, 1.186073e+003
1.595652e+002, 1.193223e+003
1.600473e+002, 1.211162e+003
1.605294e+002, 1.235966e+003
1.610115e+002, 1.259699e+003
1.614936e+002, 1.280717e+003
1.619757e+002, 1.299715e+003
1.624579e+002, 1.317097e+003
1.629400e+002, 1.333071e+003
1.634221e+002, 1.347173e+003
1.639042e+002, 1.358793e+003
1.643863e+002, 1.368195e+003
1.648684e+002, 1.376304e+003
1.653506e+002, 1.383872e+003
1.658327e+002, 1.390070e+003
1.663148e+002, 1.394053e+003
1.667969e+002, 1.392903e+003
1.672790e+002, 1.392183e+003
1.677611e+002, 1.396604e+003
1.682433e+002, 1.405398e+003
1.687254e+002, 1.411810e+003
1.692075e+002, 1.412058e+003
1.696896e+002, 1.407760e+003
1.701717e+002, 1.400784e+003
1.706538e+002, 1.391568e+003
1.711360e+002, 1.380099e+003
1.716181e+002, 1.366068e+003
1.721002e+002, 1.349367e+003
1.725823e+002, 1.331219e+003
1.730644e+002, 1.311073e+003
1.735465e+002, 1.290099e+003
1.740287e+002, 1.269996e+003
1.745108e+002, 1.253576e+003
1.749929e+002, 1.237562e+003
1.754750e+002, 1.217853e+003
1.759571e+002, 1.193851e+003
1.764392e+002, 1.167987e+003
1.769214e+002, 1.142382e+003
1.774035e+002, 1.116989e+003
1.778856e+002, 1.091260e+003
1.783677e+002, 1.062365e+003
1.788498e+002, 1.033689e+003
1.793319e+002, 1.010944e+003
1.798141e+002, 9.962302e+002
1.802962e+002, 9.837891e+002
1.807783e+002, 9.663248e+002
1.812604e+002, 9.447882e+002
1.817425e+002, 9.224925e+002
1.822246e+002, 9.001201e+002
1.827068e+002, 8.787411e+002
1.831889e+002, 8.600424e+002
1.836710e+002, 8.441066e+002
1.841531e+002, 8.316046e+002
1.846352e+002, 8.261137e+002
1.851173e+002, 8.271932e+002
1.855995e+002, 8.276512e+002
1.860816e+002, 8.191888e+002
1.865637e+002, 8.047311e+002
1.870458e+002, 7.951304e+002
1.875279e+002, 7.944102e+002
1.880100e+002, 7.993262e+002
1.884922e+002, 8.047316e+002
1.889743e+002, 8.110061e+002
1.894564e+002, 8.127932e+002
1.899385e+002, 7.995660e+002
1.904206e+002, 7.740229e+002
1.909027e+002, 7.572897e+002
1.913849e+002, 7.590309e+002
1.918670e+002, 7.742690e+002
1.923491e+002, 7.842623e+002
1.928312e+002, 7.885172e+002
1.933133e+002, 7.904090e+002
1.937955e+002, 7.945029e+002
1.942776e+002, 8.007066e+002
1.947597e+002, 8.043926e+002
1.952418e+002, 8.027346e+002
1.957239e+002, 7.965127e+002
1.962060e+002, 7.914885e+002
1.966882e+002, 7.874518e+002
1.971703e+002, 7.852599e+002
1.976524e+002, 7.868821e+002
1.981345e+002, 7.925147e+002
1.986166e+002, 7.985664e+002
1.990987e+002, 8.033458e+002
1.995809e+002, 8.068516e+002
2.000630e+002, 8.108613e+002
2.005451e+002, 8.155040e+002
2.010272e+002, 8.204727e+002
2.015093e+002, 8.253000e+002
2.019914e+002, 8.299559e+002
2.024736e+002, 8.345782e+002
2.029557e+002, 8.390947e+002
2.034378e+002, 8.434324e+002
2.039199e+002, 8.484362e+002
2.044020e+002, 8.539313e+002
2.048841e+002, 8.603009e+002
2.053663e+002, 8.693807e+002
2.058484e+002, 8.824000e+002
2.063305e+002, 8.940165e+002
2.068126e+002, 9.001068e+002
2.072947e+002, 8.993589e+002
2.077768e+002, 9.013982e+002
2.082590e+002, 9.077145e+002
2.087411e+002, 9.171643e+002
2.092232e+002, 9.261258e+002
2.097053e+002, 9.350768e+002
2.101874e+002, 9.424612e+002
2.106695e+002, 9.472410e+002
2.111517e+002, 9.490727e+002
2.116338e+002, 9.495377e+002
2.121159e+002, 9.479722e+002
2.125980e+002, 9.450878e+002
2.130801e+002, 9.448624e+002
2.135622e+002, 9.470529e+002
2.140444e+002, 9.523776e+002
2.145265e+002, 9.628564e+002
2.150086e+002, 9.817022e+002
2.154907e+002, 9.953415e+002
2.159728e+002, 1.000187e+003
2.164549e+002, 9.970471e+002
2.169371e+002, 9.967301e+002
2.174192e+002, 9.998102e+002
2.179013e+002, 1.004880e+003
2.183834e+002, 1.010733e+003
2.188655e+002, 1.017477e+003
2.193476e+002, 1.024680e+003
2.198298e+002, 1.032610e+003
2.203119e+002, 1.041215e+003
2.207940e+002, 1.048588e+003
2.212761e+002, 1.054538e+003
2.217582e+002, 1.059471e+003
2.222403e+002, 1.063573e+003
2.227225e+002, 1.065732e+003
2.232046e+002, 1.069375e+003
2.236867e+002, 1.074867e+003
2.241688e+002, 1.082112e+003
2.246509e+002, 1.093356e+003
2.251330e+002, 1.110661e+003
2.256152e+002, 1.130182e+003
2.260973e+002, 1.146576e+003
2.265794e+002, 1.157731e+003
2.270615e+002, 1.169711e+003
2.275436e+002, 1.184375e+003
2.280257e+002, 1.202572e+003
2.285079e+002, 1.218439e+003
2.289900e+002, 1.228438e+003
2.294721e+002, 1.238967e+003
2.299542e+002, 1.260595e+003
2.304363e+002, 1.300164e+003
2.309185e+002, 1.338125e+003
2.314006e+002, 1.367191e+003
2.318827e+002, 1.382941e+003
2.323648e+002, 1.408417e+003
2.328469e+002, 1.449557e+003
2.333290e+002, 1.497187e+003
2.338112e+002, 1.534853e+003
2.342933e+002, 1.555287e+003
2.347754e+002, 1.577968e+003
2.352575e+002, 1.611456e+003
2.357396e+002, 1.662654e+003
2.362217e+002, 1.701722e+003
2.367039e+002, 1.724362e+003
2.371860e+002, 1.737121e+003
2.376681e+002, 1.753497e+003
2.381502e+002, 1.776745e+003
2.386323e+002, 1.798459e+003
2.391144e+002, 1.816165e+003
2.395966e+002, 1.829822e+003
2.400787e+002, 1.838522e+003
2.405608e+002, 1.838004e+003
2.410429e+002, 1.834094e+003
2.415250e+002, 1.840030e+003
2.420071e+002, 1.858928e+003
2.424893e+002, 1.883065e+003
2.429714e+002, 1.909319e+003
2.434535e+002, 1.938918e+003
2.439356e+002, 1.968651e+003
2.444177e+002, 1.997687e+003
2.448998e+002, 2.027067e+003
2.453820e+002, 2.059198e+003
2.458641e+002, 2.092827e+003
2.463462e+002, 2.131241e+003
2.468283e+002, 2.176631e+003
2.473104e+002, 2.233060e+003
2.477925e+002, 2.285616e+003
2.482747e+002, 2.329694e+003
2.487568e+002, 2.370759e+003
2.492389e+002, 2.425646e+003
2.497210e+002, 2.502598e+003
2.502031e+002, 2.580889e+003
2.506852e+002, 2.650122e+003
2.511674e+002, 2.703837e+003
2.516495e+002, 2.763686e+003
2.521316e+002, 2.836664e+003
2.526137e+002, 2.914741e+003
2.530958e+002, 2.970332e+003
2.535779e+002, 2.995022e+003
2.540601e+002, 3.010346e+003
2.545422e+002, 3.028102e+003
2.550243e+002, 3.053530e+003
2.555064e+002, 3.067964e+003
2.559885e+002, 3.071124e+003
2.564706e+002, 3.062669e+003
2.569528e+002, 3.040679e+003
2.574349e+002, 3.001956e+003
2.579170e+002, 2.954824e+003
2.583991e+002, 2.901840e+003
2.588812e+002, 2.840382e+003
2.593633e+002, 2.781611e+003
2.598455e+002, 2.726966e+003
2.603276e+002, 2.674722e+003
2.608097e+002, 2.618432e+003
2.612918e+002, 2.551733e+003
2.617739e+002, 2.491739e+003
2.622560e+002, 2.448437e+003
2.627382e+002, 2.425937e+003
2.632203e+002, 2.407529e+003
2.637024e+002, 2.392065e+003
2.641845e+002, 2.379793e+003
2.646666e+002, 2.370750e+003
2.651487e+002, 2.364278e+003
2.656309e+002, 2.362572e+003
2.661130e+002, 2.367877e+003
2.665951e+002, 2.382302e+003
2.670772e+002, 2.396443e+003
2.675593e+002, 2.409390e+003
2.680414e+002, 2.421811e+003
2.685236e+002, 2.435056e+003
2.690057e+002, 2.448580e+003
2.694878e+002, 2.464515e+003
2.699699e+002, 2.484920e+003
2.704520e+002, 2.510651e+003
2.709341e+002, 2.536991e+003
2.714163e+002, 2.564995e+003
2.718984e+002, 2.592670e+003
2.723805e+002, 2.612609e+003
2.728626e+002, 2.622630e+003
2.733447e+002, 2.631923e+003
2.738268e+002, 2.647953e+003
2.743090e+002, 2.672662e+003
2.747911e+002, 2.690964e+003
2.752732e+002, 2.702618e+003
2.757553e+002, 2.706002e+003
2.762374e+002, 2.695052e+003
2.767195e+002, 2.667782e+003
2.772017e+002, 2.633404e+003
2.776838e+002, 2.596155e+003
2.781659e+002, 2.555775e+003
2.786480e+002, 2.516347e+003
2.791301e+002, 2.479430e+003
2.796122e+002, 2.442708e+003
2.800944e+002, 2.396981e+003
2.805765e+002, 2.340751e+003
2.810586e+002, 2.285250e+003
2.815407e+002, 2.238225e+003
2.820229e+002, 2.199748e+003
2.825050e+002, 2.159913e+003
2.829871e+002, 2.116655e+003
2.834692e+002, 2.073106e+003
2.839513e+002, 2.035479e+003
2.844334e+002, 2.004108e+003
2.849156e+002, 1.974748e+003
2.853977e+002, 1.946208e+003
2.858798e+002, 1.918221e+003
2.863619e+002, 1.885735e+003
2.868440e+002, 1.845678e+003
2.873261e+002, 1.805333e+003
2.878083e+002, 1.779206e+003
2.882904e+002, 1.767407e+003
2.887725e+002, 1.758096e+003
2.892546e+002, 1.744245e+003
2.897367e+002, 1.726816e+003
2.902188e+002, 1.711043e+003
2.907010e+002, 1.698001e+003
2.911831e+002, 1.685230e+003
2.916652e+002, 1.666133e+003
2.921473e+002, 1.641342e+003
2.926294e+002, 1.622082e+003
2.931115e+002, 1.619489e+003
2.935937e+002, 1.628123e+003
2.940758e+002, 1.628977e+003
2.945579e+002, 1.619840e+003
2.950400e+002, 1.604711e+003
2.955221e+002, 1.584357e+003
2.960042e+002, 1.560488e+003
2.964864e+002, 1.544384e+003
2.969685e+002, 1.548433e+003
2.974506e+002, 1.564039e+003
2.979327e+002, 1.570055e+003
2.984148e+002, 1.563816e+003
2.988969e+002, 1.553494e+003
2.993791e+002, 1.550504e+003
2.998612e+002, 1.552294e+003
3.003433e+002, 1.550072e+003
3.008254e+002, 1.534064e+003
3.013075e+002, 1.512571e+003
3.017896e+002, 1.501686e+003
3.022718e+002, 1.503800e+003
3.027539e+002, 1.505860e+003
3.032360e+002, 1.490098e+003
3.037181e+002, 1.463779e+003
3.042002e+002, 1.444258e+003
3.046823e+002, 1.444248e+003
3.051645e+002, 1.453645e+003
3.056466e+002, 1.462077e+003
3.061287e+002, 1.469324e+003
3.066108e+002, 1.473266e+003
3.070929e+002, 1.469156e+003
3.075750e+002, 1.460792e+003
3.080572e+002, 1.454976e+003
3.085393e+002, 1.453838e+003
3.090214e+002, 1.457121e+003
3.095035e+002, 1.465627e+003
3.099856e+002, 1.479438e+003
3.104677e+002, 1.494849e+003
3.109499e+002, 1.511794e+003
3.114320e+002, 1.528352e+003
3.119141e+002, 1.542187e+003
3.123962e+002, 1.548264e+003
3.128783e+002, 1.554641e+003
3.133604e+002, 1.568210e+003
3.138426e+002, 1.588656e+003
3.143247e+002, 1.607290e+003
3.148068e+002, 1.617893e+003
3.152889e+002, 1.624672e+003
3.157710e+002, 1.632154e+003
3.162531e+002, 1.640912e+003
3.167353e+002, 1.651560e+003
3.172174e+002, 1.665479e+003
3.176995e+002, 1.682287e+003
3.181816e+002, 1.698164e+003
3.186637e+002, 1.707469e+003
3.191458e+002, 1.717326e+003
3.196280e+002, 1.733457e+003
3.201101e+002, 1.766554e+003
3.205922e+002, 1.796703e+003
3.210743e+002, 1.815234e+003
3.215564e+002, 1.824527e+003
3.220385e+002, 1.837967e+003
3.225207e+002, 1.864246e+003
3.230028e+002, 1.892539e+003
3.234849e+002, 1.915860e+003
3.239670e+002, 1.929037e+003
3.244491e+002, 1.942339e+003
3.249312e+002, 1.956975e+003
3.254134e+002, 1.972819e+003
3.258955e+002, 1.989395e+003
3.263776e+002, 2.007252e+003
3.268597e+002, 2.025375e+003
3.273418e+002, 2.043331e+003
3.278239e+002, 2.059942e+003
3.283061e+002, 2.077751e+003
3.287882e+002, 2.096454e+003
3.292703e+002, 2.116450e+003
3.297524e+002, 2.138994e+003
3.302345e+002, 2.170418e+003
3.307166e+002, 2.198125e+003
3.311988e+002, 2.215110e+003
3.316809e+002, 2.207129e+003
3.321630e+002, 2.220870e+003
3.326451e+002, 2.265744e+003
3.331272e+002, 2.329195e+003
3.336093e+002, 2.387777e+003
3.340915e+002, 2.442282e+003
3.345736e+002, 2.491238e+003
3.350557e+002, 2.532458e+003
3.355378e+002, 2.562673e+003
3.360199e+002, 2.599971e+003
3.365020e+002, 2.647802e+003
3.369842e+002, 2.699675e+003
3.374663e+002, 2.746862e+003
3.379484e+002, 2.787363e+003
3.384305e+002, 2.828927e+003
3.389126e+002, 2.874153e+003
3.393947e+002, 2.922875e+003
3.398769e+002, 2.973814e+003
3.403590e+002, 3.028975e+003
3.408411e+002, 3.083159e+003
3.413232e+002, 3.131667e+003
3.418053e+002, 3.173822e+003
3.422874e+002, 3.212130e+003
3.427696e+002, 3.245558e+003
3.432517e+002, 3.275646e+003
3.437338e+002, 3.308454e+003
3.442159e+002, 3.345100e+003
3.446980e+002, 3.380888e+003
3.451801e+002, 3.411725e+003
3.456623e+002, 3.437629e+003
3.461444e+002, 3.462884e+003
3.466265e+002, 3.488300e+003
3.471086e+002, 3.513289e+003
3.475907e+002, 3.534852e+003
3.480728e+002, 3.552670e+003
3.485550e+002, 3.574866e+003
3.490371e+002, 3.611692e+003
3.495192e+002, 3.658060e+003
3.500013e+002, 3.698366e+003
3.504834e+002, 3.729367e+003
3.509655e+002, 3.753947e+003
3.514477e+002, 3.780864e+003
3.519298e+002, 3.807344e+003
3.524119e+002, 3.817450e+003
3.528940e+002, 3.803425e+003
3.533762e+002, 3.766296e+003
3.538583e+002, 3.705881e+003
3.543404e+002, 3.620125e+003
3.548225e+002, 3.519014e+003
3.553046e+002, 3.411383e+003
3.557867e+002, 3.295764e+003
3.562689e+002, 3.168625e+003
3.567510e+002, 3.012670e+003
3.572331e+002, 2.853365e+003
3.577152e+002, 2.715553e+003
3.581973e+002, 2.602452e+003
3.586794e+002, 2.496672e+003
3.591616e+002, 2.384301e+003
3.596437e+002, 2.272954e+003
3.601258e+002, 2.173282e+003
3.606079e+002, 2.093887e+003
3.610900e+002, 2.023559e+003
3.615721e+002, 1.958286e+003
3.620543e+002, 1.897797e+003
3.625364e+002, 1.838219e+003
3.630185e+002, 1.770872e+003
3.635006e+002, 1.706767e+003
3.639827e+002, 1.656514e+003
3.644648e+002, 1.634275e+003
3.649470e+002, 1.613651e+003
3.654291e+002, 1.584818e+003
3.659112e+002, 1.549959e+003
3.663933e+002, 1.523160e+003
3.668754e+002, 1.512868e+003
3.673575e+002, 1.507483e+003
3.678397e+002, 1.500552e+003
3.683218e+002, 1.489156e+003
3.688039e+002, 1.478967e+003
3.692860e+002, 1.471885e+003
3.697681e+002, 1.466447e+003
3.702502e+002, 1.458042e+003
3.707324e+002, 1.444125e+003
3.712145e+002, 1.429708e+003
3.716966e+002, 1.416165e+003
3.721787e+002, 1.401655e+003
3.726608e+002, 1.393048e+003
3.731429e+002, 1.393581e+003
3.736251e+002, 1.398267e+003
3.741072e+002, 1.398973e+003
3.745893e+002, 1.394974e+003
3.750714e+002, 1.388271e+003
3.755535e+002, 1.378178e+003
3.760356e+002, 1.364191e+003
3.765178e+002, 1.355681e+003
3.769999e+002, 1.354560e+003
3.774820e+002, 1.355775e+003
3.779641e+002, 1.353304e+003
3.784462e+002, 1.346525e+003
3.789283e+002, 1.339757e+003
3.794105e+002, 1.332482e+003
3.798926e+002, 1.326236e+003
3.803747e+002, 1.329170e+003
3.808568e+002, 1.342209e+003
3.813389e+002, 1.358844e+003
3.818210e+002, 1.374194e+003
3.823032e+002, 1.388352e+003
3.827853e+002, 1.403318e+003
3.832674e+002, 1.419425e+003
3.837495e+002, 1.436414e+003
3.842316e+002, 1.453444e+003
3.847137e+002, 1.470670e+003
3.851959e+002, 1.487419e+003
3.856780e+002, 1.501724e+003
3.861601e+002, 1.515516e+003
3.866422e+002, 1.533654e+003
3.871243e+002, 1.558358e+003
3.876064e+002, 1.582343e+003
3.880886e+002, 1.598590e+003
3.885707e+002, 1.608437e+003
3.890528e+002, 1.614908e+003
3.895349e+002, 1.619918e+003
3.900170e+002, 1.622075e+003
3.904991e+002, 1.620857e+003
3.909813e+002, 1.616354e+003
3.914634e+002, 1.605801e+003
3.919455e+002, 1.585581e+003
3.924276e+002, 1.558776e+003
3.929097e+002, 1.529305e+003
3.933918e+002, 1.493778e+003
3.938740e+002, 1.460342e+003
3.943561e+002, 1.434072e+003
3.948382e+002, 1.414302e+003
3.953203e+002, 1.393140e+003
3.958024e+002, 1.363913e+003
3.962845e+002, 1.334800e+003
3.967667e+002, 1.311607e+003
3.972488e+002, 1.301410e+003
3.977309e+002, 1.289654e+003
3.982130e+002, 1.273528e+003
3.986951e+002, 1.253996e+003
3.991772e+002, 1.234010e+003
3.996594e+002, 1.214832e+003
4.001415e+002, 1.194641e+003
4.006236e+002, 1.172339e+003
4.011057e+002, 1.145710e+003
4.015878e+002, 1.122241e+003
4.020699e+002, 1.102141e+003
4.025521e+002, 1.085101e+003
4.030342e+002, 1.071546e+003
4.035163e+002, 1.066155e+003
4.039984e+002, 1.055568e+003
4.044805e+002, 1.033704e+003
4.049626e+002, 1.000441e+003
4.054448e+002, 9.758351e+002
4.059269e+002, 9.622567e+002
4.064090e+002, 9.529822e+002
4.068911e+002, 9.402969e+002
4.073732e+002, 9.226305e+002
4.078553e+002, 9.130014e+002
4.083375e+002, 9.170398e+002
4.088196e+002, 9.287320e+002
4.093017e+002, 9.273795e+002
4.097838e+002, 9.118038e+002
4.102659e+002, 8.964083e+002
4.107480e+002, 8.909534e+002
4.112302e+002, 8.943195e+002
4.117123e+002, 9.021710e+002
4.121944e+002, 9.150891e+002
4.126765e+002, 9.291971e+002
4.131586e+002, 9.395118e+002
4.136407e+002, 9.465605e+002
4.141229e+002, 9.524461e+002
4.146050e+002, 9.541772e+002
4.150871e+002, 9.570272e+002
4.155692e+002, 9.699910e+002
4.160513e+002, 9.938540e+002
4.165334e+002, 1.020539e+003
4.170156e+002, 1.045754e+003
4.174977e+002, 1.069563e+003
4.179798e+002, 1.091699e+003
4.184619e+002, 1.111012e+003
4.189440e+002, 1.129792e+003
4.194261e+002, 1.148091e+003
4.199083e+002, 1.166346e+003
4.203904e+002, 1.189081e+003
4.208725e+002, 1.219008e+003
4.213546e+002, 1.253554e+003
4.218367e+002, 1.291389e+003
4.223188e+002, 1.338230e+003
4.228010e+002, 1.378521e+003
4.232831e+002, 1.400543e+003
4.237652e+002, 1.413825e+003
4.242473e+002, 1.439400e+003
4.247295e+002, 1.492761e+003
4.252116e+002, 1.547468e+003
4.256937e+002, 1.596793e+003
4.261758e+002, 1.641026e+003
4.266579e+002, 1.677092e+003
4.271400e+002, 1.701682e+003
4.276222e+002, 1.720580e+003
4.281043e+002, 1.740604e+003
4.285864e+002, 1.765572e+003
4.290685e+002, 1.783915e+003
4.295506e+002, 1.792984e+003
4.300327e+002, 1.793429e+003
4.305149e+002, 1.790238e+003
4.309970e+002, 1.784079e+003
4.314791e+002, 1.772570e+003
4.319612e+002, 1.751021e+003
4.324433e+002, 1.718343e+003
4.329254e+002, 1.693437e+003
4.334076e+002, 1.678330e+003
4.338897e+002, 1.671633e+003
4.343718e+002, 1.673077e+003
4.348539e+002, 1.682450e+003
4.353360e+002, 1.692378e+003
4.358181e+002, 1.696133e+003
4.363003e+002, 1.697642e+003
4.367824e+002, 1.708697e+003
4.372645e+002, 1.729910e+003
4.377466e+002, 1.755871e+003
4.382287e+002, 1.780268e+003
4.387108e+002, 1.805449e+003
4.391930e+002, 1.836716e+003
4.396751e+002, 1.875767e+003
4.401572e+002, 1.921305e+003
4.406393e+002, 1.971872e+003
4.411214e+002, 2.027664e+003
4.416035e+002, 2.089635e+003
4.420857e+002, 2.160944e+003
4.425678e+002, 2.237094e+003
4.430499e+002, 2.315226e+003
4.435320e+002, 2.393218e+003
4.440141e+002, 2.474948e+003
4.444962e+002, 2.560356e+003
4.449784e+002, 2.650646e+003
4.454605e+002, 2.747838e+003
4.459426e+002, 2.856671e+003
4.464247e+002, 2.968534e+003
4.469068e+002, 3.080579e+003
4.473889e+002, 3.190681e+003
4.478711e+002, 3.308772e+003
4.483532e+002, 3.447467e+003
4.488353e+002, 3.586466e+003
4.493174e+002, 3.712314e+003
4.497995e+002, 3.821794e+003
4.502816e+002, 3.923431e+003
4.507638e+002, 4.014106e+003
4.512459e+002, 4.097525e+003
4.517280e+002, 4.188388e+003
4.522101e+002, 4.296123e+003
4.526922e+002, 4.388132e+003
4.531743e+002, 4.449645e+003
4.536565e+002, 4.479980e+003
4.541386e+002, 4.480209e+003
4.546207e+002, 4.447585e+003
4.551028e+002, 4.390487e+003
4.555849e+002, 4.319736e+003
4.560670e+002, 4.235573e+003
4.565492e+002, 4.133807e+003
4.570313e+002, 4.007396e+003
4.575134e+002, 3.865422e+003
4.579955e+002, 3.732388e+003
4.584776e+002, 3.606979e+003
4.589597e+002, 3.484195e+003
4.594419e+002, 3.353576e+003
4.599240e+002, 3.224395e+003
4.604061e+002, 3.111292e+003
4.608882e+002, 3.020658e+003
4.613703e+002, 2.941588e+003
4.618524e+002, 2.872129e+003
4.623346e+002, 2.807931e+003
4.628167e+002, 2.740234e+003
4.632988e+002, 2.653396e+003
4.637809e+002, 2.571093e+003
4.642630e+002, 2.511171e+003
4.647451e+002, 2.476733e+003
4.652273e+002, 2.445771e+003
4.657094e+002, 2.408595e+003
4.661915e+002, 2.373040e+003
4.666736e+002, 2.345746e+003
4.671557e+002, 2.334266e+003
4.676378e+002, 2.324332e+003
4.681200e+002, 2.313439e+003
4.686021e+002, 2.302145e+003
4.690842e+002, 2.293422e+003
4.695663e+002, 2.286384e+003
4.700484e+002, 2.282946e+003
4.705305e+002, 2.283863e+003
4.710127e+002, 2.289260e+003
4.714948e+002, 2.300175e+003
4.719769e+002, 2.321310e+003
4.724590e+002, 2.342229e+003
4.729411e+002, 2.346070e+003
4.734232e+002, 2.329846e+003
4.739054e+002, 2.315902e+003
4.743875e+002, 2.311097e+003
4.748696e+002, 2.313272e+003
4.753517e+002, 2.313511e+003
4.758338e+002, 2.311635e+003
4.763159e+002, 2.311157e+003
4.767981e+002, 2.316091e+003
4.772802e+002, 2.324710e+003
4.777623e+002, 2.331751e+003
4.782444e+002, 2.336352e+003
4.787265e+002, 2.339544e+003
4.792086e+002, 2.343106e+003
4.796908e+002, 2.346234e+003
4.801729e+002, 2.346849e+003
4.806550e+002, 2.339844e+003
4.811371e+002, 2.332696e+003
4.816192e+002, 2.334051e+003
4.821013e+002, 2.343718e+003
4.825835e+002, 2.349575e+003
4.830656e+002, 2.342126e+003
4.835477e+002, 2.329977e+003
4.840298e+002, 2.320704e+003
4.845119e+002, 2.325133e+003
4.849940e+002, 2.320270e+003
4.854762e+002, 2.297955e+003
4.859583e+002, 2.262656e+003
4.864404e+002, 2.225875e+003
4.869225e+002, 2.190765e+003
4.874046e+002, 2.152084e+003
4.878867e+002, 2.106853e+003
4.883689e+002, 2.053412e+003
4.888510e+002, 2.001989e+003
4.893331e+002, 1.951216e+003
4.898152e+002, 1.903604e+003
4.902973e+002, 1.863259e+003
4.907794e+002, 1.833363e+003
4.912616e+002, 1.796720e+003
4.917437e+002, 1.747061e+003
4.922258e+002, 1.691852e+003
4.927079e+002, 1.654941e+003
4.931900e+002, 1.637547e+003
4.936722e+002, 1.620176e+003
4.941543e+002, 1.590047e+003
4.946364e+002, 1.550885e+003
4.951185e+002, 1.513374e+003
4.956006e+002, 1.477994e+003
4.960828e+002, 1.449674e+003
4.965649e+002, 1.439083e+003
4.970470e+002, 1.439329e+003
4.975291e+002, 1.436185e+003
4.980112e+002, 1.419282e+003
4.984933e+002, 1.402718e+003
4.989755e+002, 1.400168e+003
4.994576e+002, 1.408608e+003
4.999397e+002, 1.416822e+003
5.004218e+002, 1.417069e+003
5.009039e+002, 1.417134e+003
5.013860e+002, 1.421423e+003
5.018682e+002, 1.430132e+003
5.023503e+002, 1.444484e+003
5.028324e+002, 1.469552e+003
5.033145e+002, 1.498641e+003
5.037966e+002, 1.523634e+003
5.042787e+002, 1.539819e+003
5.047609e+002, 1.557571e+003
5.052430e+002, 1.580126e+003
5.057251e+002, 1.606063e+003
5.062072e+002, 1.625539e+003
5.066893e+002, 1.634818e+003
5.071714e+002, 1.644117e+003
5.076536e+002, 1.660003e+003
5.081357e+002, 1.683580e+003
5.086178e+002, 1.705357e+003
5.090999e+002, 1.726723e+003
5.095820e+002, 1.742158e+003
5.100641e+002, 1.740680e+003
5.105463e+002, 1.723588e+003
5.110284e+002, 1.707674e+003
5.115105e+002, 1.698841e+003
5.119926e+002, 1.693797e+003
5.124747e+002, 1.685275e+003
5.129568e+002, 1.673898e+003
5.134390e+002, 1.664871e+003
5.139211e+002, 1.663509e+003
5.144032e+002, 1.665837e+003
5.148853e+002, 1.667135e+003
5.153674e+002, 1.666673e+003
5.158495e+002, 1.665373e+003
5.163317e+002, 1.663046e+003
5.168138e+002, 1.660423e+003
5.172959e+002, 1.658513e+003
5.177780e+002, 1.658037e+003
5.182601e+002, 1.657922e+003
5.187422e+002, 1.658029e+003
5.192244e+002, 1.658298e+003
5.197065e+002, 1.658204e+003
5.201886e+002, 1.653483e+003
5.206707e+002, 1.652071e+003
5.211528e+002, 1.658816e+003
5.216349e+002, 1.680528e+003
5.221171e+002, 1.692669e+003
5.225992e+002, 1.693262e+003
5.230813e+002, 1.686205e+003
5.235634e+002, 1.676154e+003
5.240455e+002, 1.662870e+003
5.245276e+002, 1.647276e+003
5.250098e+002, 1.627061e+003
5.254919e+002, 1.605834e+003
5.259740e+002, 1.596534e+003
5.264561e+002, 1.599385e+003
5.269382e+002, 1.605370e+003
5.274203e+002, 1.610300e+003
5.279025e+002, 1.613607e+003
5.283846e+002, 1.614822e+003
5.288667e+002, 1.614446e+003
5.293488e+002, 1.608549e+003
5.298309e+002, 1.589720e+003
5.303130e+002, 1.563664e+003
5.307952e+002, 1.539337e+003
5.312773e+002, 1.529196e+003
5.317594e+002, 1.513743e+003
5.322415e+002, 1.479852e+003
5.327236e+002, 1.430698e+003
5.332057e+002, 1.381422e+003
5.336879e+002, 1.335037e+003
5.341700e+002, 1.290525e+003
5.346521e+002, 1.246951e+003
5.351342e+002, 1.203324e+003
5.356163e+002, 1.163859e+003
5.360984e+002, 1.131482e+003
5.365806e+002, 1.101571e+003
5.370627e+002, 1.069214e+003
5.375448e+002, 1.030850e+003
5.380269e+002, 9.978289e+002
5.385090e+002, 9.725690e+002
5.389911e+002, 9.536822e+002
5.394733e+002, 9.383575e+002
5.399554e+002, 9.266262e+002
5.404375e+002, 9.172805e+002
5.409196e+002, 9.111460e+002
5.414017e+002, 9.071226e+002
5.418839e+002, 8.991563e+002
5.423660e+002, 8.865743e+002
5.428481e+002, 8.754133e+002
5.433302e+002, 8.722897e+002
5.438123e+002, 8.744777e+002
5.442944e+002, 8.766895e+002
5.447766e+002, 8.778636e+002
5.452587e+002, 8.779458e+002
5.457408e+002, 8.755355e+002
5.462229e+002, 8.719185e+002
5.467050e+002, 8.702110e+002
5.471871e+002, 8.735974e+002
5.476693e+002, 8.775506e+002
5.481514e+002, 8.809171e+002
5.486335e+002, 8.839214e+002
5.491156e+002, 8.825580e+002
5.495977e+002, 8.660801e+002
5.500798e+002, 8.519742e+002
5.505620e+002, 8.528292e+002
5.510441e+002, 8.787120e+002
5.515262e+002, 8.993650e+002
5.520083e+002, 9.107603e+002
5.524904e+002, 9.183680e+002
5.529725e+002, 9.330450e+002
5.534547e+002, 9.557109e+002
5.539368e+002, 9.806968e+002
5.544189e+002, 1.005453e+003
5.549010e+002, 1.030924e+003
5.553831e+002, 1.061948e+003
5.558652e+002, 1.098649e+003
5.563474e+002, 1.134510e+003
5.568295e+002, 1.161421e+003
5.573116e+002, 1.184411e+003
5.577937e+002, 1.213491e+003
5.582758e+002, 1.250718e+003
5.587579e+002, 1.292095e+003
5.592401e+002, 1.332839e+003
5.597222e+002, 1.375427e+003
5.602043e+002, 1.423464e+003
5.606864e+002, 1.477164e+003
5.611685e+002, 1.537954e+003
5.616506e+002, 1.607874e+003
5.621328e+002, 1.685511e+003
5.626149e+002, 1.765255e+003
5.630970e+002, 1.852545e+003
5.635791e+002, 1.935723e+003
5.640612e+002, 2.007668e+003
5.645433e+002, 2.060473e+003
5.650255e+002, 2.133403e+003
5.655076e+002, 2.233155e+003
5.659897e+002, 2.344104e+003
5.664718e+002, 2.450380e+003
5.669539e+002, 2.548578e+003
5.674360e+002, 2.659155e+003
5.679182e+002, 2.787205e+003
5.684003e+002, 2.925122e+003
5.688824e+002, 3.058046e+003
5.693645e+002, 3.184988e+003
5.698466e+002, 3.308724e+003
5.703287e+002, 3.424480e+003
5.708109e+002, 3.538156e+003
5.712930e+002, 3.670588e+003
5.717751e+002, 3.820542e+003
5.722572e+002, 3.933364e+003
5.727393e+002, 3.982396e+003
5.732214e+002, 3.970702e+003
5.737036e+002, 3.898610e+003
5.741857e+002, 3.755515e+003
5.746678e+002, 3.577936e+003
5.751499e+002, 3.365126e+003
5.756320e+002, 3.131355e+003
5.761141e+002, 2.894375e+003
5.765963e+002, 2.638092e+003
5.770784e+002, 2.402694e+003
5.775605e+002, 2.193909e+003
5.780426e+002, 2.014027e+003
5.785247e+002, 1.862500e+003
5.790068e+002, 1.745231e+003
5.794890e+002, 1.646815e+003
5.799711e+002, 1.559147e+003
5.804532e+002, 1.482544e+003
5.809353e+002, 1.420018e+003
5.814174e+002, 1.372448e+003
5.818995e+002, 1.335328e+003
5.823817e+002, 1.304429e+003
5.828638e+002, 1.279906e+003
5.833459e+002, 1.262799e+003
5.838280e+002, 1.254693e+003
5.843101e+002, 1.251530e+003
5.847922e+002, 1.248298e+003
5.852744e+002, 1.246435e+003
5.857565e+002, 1.249541e+003
5.862386e+002, 1.265817e+003
5.867207e+002, 1.282160e+003
5.872028e+002, 1.287311e+003
5.876849e+002, 1.281549e+003
5.881671e+002, 1.284600e+003
5.886492e+002, 1.307632e+003
5.891313e+002, 1.336860e+003
5.896134e+002, 1.364490e+003
5.900955e+002, 1.392792e+003
5.905776e+002, 1.413582e+003
5.910598e+002, 1.421000e+003
5.915419e+002, 1.426168e+003
5.920240e+002, 1.446430e+003
5.925061e+002, 1.486399e+003
5.929882e+002, 1.517118e+003
5.934703e+002, 1.527366e+003
5.939525e+002, 1.528636e+003
5.944346e+002, 1.551923e+003
5.949167e+002, 1.595673e+003
5.953988e+002, 1.638004e+003
5.958809e+002, 1.664461e+003
5.963630e+002, 1.682179e+003
5.968452e+002, 1.703332e+003
5.973273e+002, 1.727929e+003
5.978094e+002, 1.750374e+003
5.982915e+002, 1.760947e+003
5.987736e+002, 1.770472e+003
5.992557e+002, 1.790763e+003
5.997379e+002, 1.831437e+003
6.002200e+002, 1.867947e+003
6.007021e+002, 1.887431e+003
6.011843e+002, 1.899907e+003
6.016664e+002, 1.921675e+003
6.021485e+002, 1.963666e+003
6.026306e+002, 2.001212e+003
6.031127e+002, 2.029501e+003
6.035948e+002, 2.049972e+003
6.040770e+002, 2.069551e+003
6.045591e+002, 2.088921e+003
6.050412e+002, 2.104665e+003
6.055233e+002, 2.116948e+003
6.060054e+002, 2.124983e+003
6.064875e+002, 2.117281e+003
6.069697e+002, 2.092745e+003
6.074518e+002, 2.064068e+003
6.079339e+002, 2.048993e+003
6.084160e+002, 2.037913e+003
6.088981e+002, 2.010590e+003
6.093802e+002, 1.958540e+003
6.098624e+002, 1.900089e+003
6.103445e+002, 1.846400e+003
6.108266e+002, 1.795901e+003
6.113087e+002, 1.744776e+003
6.117908e+002, 1.685630e+003
6.122729e+002, 1.632228e+003
6.127551e+002, 1.594050e+003
6.132372e+002, 1.568673e+003
6.137193e+002, 1.537461e+003
6.142014e+002, 1.495951e+003
6.146835e+002, 1.453595e+003
6.151656e+002, 1.412901e+003
6.156478e+002, 1.373190e+003
6.161299e+002, 1.344672e+003
6.166120e+002, 1.331178e+003
6.170941e+002, 1.319181e+003
6.175762e+002, 1.293932e+003
6.180583e+002, 1.257072e+003
6.185405e+002, 1.224783e+003
6.190226e+002, 1.200444e+003
6.195047e+002, 1.178470e+003
6.199868e+002, 1.152940e+003
6.204689e+002, 1.124184e+003
6.209510e+002, 1.092198e+003
6.214332e+002, 1.056082e+003
6.219153e+002, 1.017727e+003
6.223974e+002, 9.744354e+002
6.228795e+002, 9.286894e+002
6.233616e+002, 8.899760e+002
6.238438e+002, 8.688287e+002
6.243259e+002, 8.488750e+002
6.248080e+002, 8.213990e+002
6.252901e+002, 7.837803e+002
6.257722e+002, 7.531792e+002
6.262543e+002, 7.303690e+002
6.267365e+002, 7.136184e+002
6.272186e+002, 7.034150e+002
6.277007e+002, 7.014629e+002
6.281828e+002, 6.945436e+002
6.286649e+002, 6.807630e+002
6.291470e+002, 6.643386e+002
6.296292e+002, 6.496465e+002
6.301113e+002, 6.371834e+002
6.305934e+002, 6.300886e+002
6.310755e+002, 6.329528e+002
6.315576e+002, 6.373505e+002
6.320397e+002, 6.323165e+002
6.325219e+002, 6.200041e+002
6.330040e+002, 6.071255e+002
6.334861e+002, 5.935062e+002
6.339682e+002, 5.834421e+002
6.344503e+002, 5.813650e+002
6.349324e+002, 5.876686e+002
6.354146e+002, 5.915142e+002
6.358967e+002, 5.871438e+002
6.363788e+002, 5.826360e+002
6.368609e+002, 5.829247e+002
6.373430e+002, 5.916860e+002
6.378251e+002, 5.946932e+002
6.383073e+002, 5.902572e+002
6.387894e+002, 5.826070e+002
6.392715e+002, 5.755419e+002
6.397536e+002, 5.690758e+002
6.402357e+002, 5.671790e+002
6.407178e+002, 5.714957e+002
6.412000e+002, 5.791110e+002
6.416821e+002, 5.874568e+002
6.421642e+002, 5.956357e+002
6.426463e+002, 6.003332e+002
6.431284e+002, 5.955449e+002
6.436105e+002, 5.900217e+002
6.440927e+002, 5.918266e+002
6.445748e+002, 5.999830e+002
6.450569e+002, 6.079001e+002
6.455390e+002, 6.122997e+002
6.460211e+002, 6.163953e+002
6.465032e+002, 6.216205e+002
6.469854e+002, 6.278027e+002
6.474675e+002, 6.365647e+002
6.479496e+002, 6.494624e+002
6.484317e+002, 6.631322e+002
6.489138e+002, 6.748575e+002
6.493959e+002, 6.840846e+002
6.498781e+002, 6.940458e+002
6.503602e+002, 7.049421e+002
6.508423e+002, 7.166249e+002
6.513244e+002, 7.292834e+002
6.518065e+002, 7.427317e+002
6.522886e+002, 7.563763e+002
6.527708e+002, 7.706345e+002
6.532529e+002, 7.842227e+002
6.537350e+002, 7.950004e+002
6.542171e+002, 8.038538e+002
6.546992e+002, 8.130775e+002
6.551813e+002, 8.248583e+002
6.556635e+002, 8.363552e+002
6.561456e+002, 8.473854e+002
6.566277e+002, 8.578621e+002
6.571098e+002, 8.627950e+002
6.575919e+002, 8.577205e+002
6.580740e+002, 8.507120e+002
6.585562e+002, 8.456459e+002
6.590383e+002, 8.432837e+002
6.595204e+002, 8.397620e+002
6.600025e+002, 8.356042e+002
6.604846e+002, 8.290439e+002
6.609667e+002, 8.170009e+002
6.614489e+002, 8.000605e+002
6.619310e+002, 7.844825e+002
6.624131e+002, 7.715524e+002
6.628952e+002, 7.595853e+002
6.633773e+002, 7.459941e+002
6.638594e+002, 7.318968e+002
6.643416e+002, 7.197918e+002
6.648237e+002, 7.100636e+002
6.653058e+002, 7.032299e+002
6.657879e+002, 7.020755e+002
6.662700e+002, 7.045113e+002
6.667521e+002, 7.034211e+002
6.672343e+002, 6.939631e+002
6.677164e+002, 6.838160e+002
6.681985e+002, 6.743926e+002
6.686806e+002, 6.657747e+002
6.691627e+002, 6.629250e+002
6.696448e+002, 6.694334e+002
6.701270e+002, 6.735406e+002
6.706091e+002, 6.646428e+002
6.710912e+002, 6.437163e+002
6.715733e+002, 6.321680e+002
6.720554e+002, 6.313255e+002
6.725375e+002, 6.347203e+002
6.730197e+002, 6.375334e+002
6.735018e+002, 6.396949e+002
6.739839e+002, 6.403884e+002
6.744660e+002, 6.378155e+002
6.749481e+002, 6.380692e+002
6.754302e+002, 6.490582e+002
6.759124e+002, 6.642426e+002
6.763945e+002, 6.742394e+002
6.768766e+002, 6.736872e+002
6.773587e+002, 6.710204e+002
6.778408e+002, 6.657734e+002
6.783229e+002, 6.597352e+002
6.788051e+002, 6.580790e+002
6.792872e+002, 6.616016e+002
6.797693e+002, 6.675973e+002
6.802514e+002, 6.756862e+002
6.807335e+002, 6.854960e+002
6.812156e+002, 6.951125e+002
6.816978e+002, 7.046284e+002
6.821799e+002, 7.130221e+002
6.826620e+002, 7.211263e+002
6.831441e+002, 7.271062e+002
6.836262e+002, 7.253433e+002
6.841083e+002, 7.154070e+002
6.845905e+002, 7.095092e+002
6.850726e+002, 7.201996e+002
6.855547e+002, 7.357949e+002
6.860368e+002, 7.459036e+002
6.865189e+002, 7.459398e+002
6.870010e+002, 7.465865e+002
6.874832e+002, 7.504447e+002
6.879653e+002, 7.550460e+002
6.884474e+002, 7.580945e+002
6.889295e+002, 7.598145e+002
6.894116e+002, 7.587374e+002
6.898937e+002, 7.530177e+002
6.903759e+002, 7.465941e+002
6.908580e+002, 7.495996e+002
6.913401e+002, 7.608800e+002
6.918222e+002, 7.665859e+002
6.923043e+002, 7.579969e+002
6.927864e+002, 7.447820e+002
6.932686e+002, 7.412075e+002
6.937507e+002, 7.450143e+002
6.942328e+002, 7.480224e+002
6.947149e+002, 7.417825e+002
6.951970e+002, 7.373218e+002
6.956791e+002, 7.431251e+002
6.961613e+002, 7.593506e+002
6.966434e+002, 7.714471e+002
6.971255e+002, 7.754091e+002
6.976076e+002, 7.768669e+002
6.980897e+002, 7.780364e+002
6.985718e+002, 7.789313e+002
6.990540e+002, 7.788396e+002
6.995361e+002, 7.770045e+002
7.000182e+002, 7.764792e+002
7.005003e+002, 7.837164e+002
7.009824e+002, 7.957198e+002
7.014645e+002, 7.965289e+002
7.019467e+002, 7.827764e+002
7.024288e+002, 7.652768e+002
7.029109e+002, 7.530421e+002
7.033930e+002, 7.444222e+002
7.038751e+002, 7.370693e+002
7.043572e+002, 7.311853e+002
7.048394e+002, 7.251026e+002
7.053215e+002, 7.192570e+002
7.058036e+002, 7.126017e+002
7.062857e+002, 7.030004e+002
7.067678e+002, 6.890366e+002
7.072499e+002, 6.742622e+002
7.077321e+002, 6.590287e+002
7.082142e+002, 6.434058e+002
7.086963e+002, 6.277659e+002
7.091784e+002, 6.119591e+002
7.096605e+002, 5.967748e+002
7.101426e+002, 5.818647e+002
7.106248e+002, 5.682084e+002
7.111069e+002, 5.607654e+002
7.115890e+002, 5.583145e+002
7.120711e+002, 5.526285e+002
7.125532e+002, 5.339277e+002
7.130353e+002, 5.129008e+002
7.135175e+002, 4.988147e+002
7.139996e+002, 4.925309e+002
7.144817e+002, 4.875527e+002
7.149638e+002, 4.834612e+002
7.154459e+002, 4.789346e+002
7.159280e+002, 4.726113e+002
7.164102e+002, 4.625794e+002
7.168923e+002, 4.580012e+002
7.173744e+002, 4.616377e+002
7.178565e+002, 4.654363e+002
7.183386e+002, 4.589529e+002
7.188207e+002, 4.436040e+002
7.193029e+002, 4.349287e+002
7.197850e+002, 4.362435e+002
7.202671e+002, 4.403165e+002
7.207492e+002, 4.391319e+002
7.212313e+002, 4.347259e+002
7.217134e+002, 4.308207e+002
7.221956e+002, 4.293998e+002
7.226777e+002, 4.275084e+002
7.231598e+002, 4.237707e+002
7.236419e+002, 4.186021e+002
7.241240e+002, 4.127711e+002
7.246061e+002, 4.039814e+002
7.250883e+002, 3.976897e+002
7.255704e+002, 3.952348e+002
7.260525e+002, 3.957662e+002
7.265346e+002, 3.970446e+002
7.270167e+002, 3.993421e+002
7.274988e+002, 4.001925e+002
7.279810e+002, 3.976992e+002
7.284631e+002, 3.934599e+002
7.289452e+002, 3.921598e+002
7.294273e+002, 3.931622e+002
7.299094e+002, 3.923772e+002
7.303915e+002, 3.845012e+002
7.308737e+002, 3.758455e+002
7.313558e+002, 3.716890e+002
7.318379e+002, 3.724005e+002
7.323200e+002, 3.735272e+002
7.328021e+002, 3.731626e+002
7.332842e+002, 3.735103e+002
7.337664e+002, 3.761100e+002
7.342485e+002, 3.819136e+002
7.347306e+002, 3.850281e+002
7.352127e+002, 3.848946e+002
7.356948e+002, 3.833880e+002
7.361769e+002, 3.827476e+002
7.366591e+002, 3.824676e+002
7.371412e+002, 3.777124e+002
7.376233e+002, 3.672123e+002
7.381054e+002, 3.581248e+002
7.385875e+002, 3.586895e+002
7.390696e+002, 3.647238e+002
7.395518e+002, 3.706840e+002
7.400339e+002, 3.765008e+002
7.405161e+002, 3.792423e+002
7.409982e+002, 3.753974e+002
7.414803e+002, 3.687189e+002
7.419624e+002, 3.645062e+002
7.424445e+002, 3.644812e+002
7.429266e+002, 3.641175e+002
7.434088e+002, 3.630656e+002
7.438909e+002, 3.613645e+002
7.443730e+002, 3.586181e+002
7.448551e+002, 3.548293e+002
7.453372e+002, 3.521181e+002
7.458193e+002, 3.509786e+002
7.463015e+002, 3.514117e+002
7.467836e+002, 3.552508e+002
7.472657e+002, 3.608833e+002
7.477478e+002, 3.636282e+002
7.482299e+002, 3.591161e+002
7.487120e+002, 3.530235e+002
7.491942e+002, 3.466639e+002
7.496763e+002, 3.407983e+002
7.501584e+002, 3.394687e+002
7.506405e+002, 3.486548e+002
7.511226e+002, 3.551688e+002
7.516047e+002, 3.538801e+002
7.520869e+002, 3.457531e+002
7.525690e+002, 3.406515e+002
7.530511e+002, 3.385355e+002
7.535332e+002, 3.397336e+002
7.540153e+002, 3.487288e+002
7.544974e+002, 3.602932e+002
7.549796e+002, 3.599326e+002
7.554617e+002, 3.480767e+002
7.559438e+002, 3.371226e+002
7.564259e+002, 3.376943e+002
7.569080e+002, 3.408660e+002
7.573901e+002, 3.379370e+002
7.578723e+002, 3.256907e+002
7.583544e+002, 3.211822e+002
7.588365e+002, 3.370401e+002
7.593186e+002, 3.526837e+002
7.598007e+002, 3.548268e+002
7.602828e+002, 3.391005e+002
7.607650e+002, 3.295473e+002
7.612471e+002, 3.267193e+002
7.617292e+002, 3.279921e+002
7.622113e+002, 3.329931e+002
7.626934e+002, 3.399427e+002
7.631755e+002, 3.420453e+002
7.636577e+002, 3.371692e+002
7.641398e+002, 3.329793e+002
7.646219e+002, 3.382239e+002
7.651040e+002, 3.464684e+002
7.655861e+002, 3.498756e+002
7.660682e+002, 3.417379e+002
7.665504e+002, 3.365241e+002
7.670325e+002, 3.388398e+002
7.675146e+002, 3.440260e+002
7.679967e+002, 3.470476e+002
7.684788e+002, 3.477741e+002
7.689609e+002, 3.463339e+002
7.694431e+002, 3.416562e+002
7.699252e+002, 3.368625e+002
7.704073e+002, 3.380277e+002
7.708894e+002, 3.439197e+002
7.713715e+002, 3.492043e+002
7.718536e+002, 3.515529e+002
7.723358e+002, 3.536063e+002
7.728179e+002, 3.601728e+002
7.733000e+002, 3.678051e+002
7.737821e+002, 3.696852e+002
7.742642e+002, 3.563124e+002
7.747463e+002, 3.454793e+002
7.752285e+002, 3.427635e+002
7.757106e+002, 3.453469e+002
7.761927e+002, 3.455131e+002
7.766748e+002, 3.417541e+002
7.771569e+002, 3.415887e+002
7.776390e+002, 3.493502e+002
7.781212e+002, 3.606638e+002
7.786033e+002, 3.628074e+002
7.790854e+002, 3.573155e+002
7.795675e+002, 3.530450e+002
7.800496e+002, 3.579893e+002
7.805317e+002, 3.636285e+002
7.810139e+002, 3.606450e+002
7.814960e+002, 3.511793e+002
7.819781e+002, 3.460983e+002
7.824602e+002, 3.551532e+002
7.829423e+002, 3.623716e+002
7.834244e+002, 3.601756e+002
7.839066e+002, 3.499378e+002
7.843887e+002, 3.491640e+002
7.848708e+002, 3.607211e+002
7.853529e+002, 3.707382e+002
7.858350e+002, 3.704996e+002
7.863171e+002, 3.629121e+002
7.867993e+002, 3.580392e+002
7.872814e+002, 3.556681e+002
7.877635e+002, 3.530251e+002
7.882456e+002, 3.447986e+002
7.887277e+002, 3.379154e+002
7.892098e+002, 3.400707e+002
7.896920e+002, 3.519852e+002
7.901741e+002, 3.614656e+002
7.906562e+002, 3.640761e+002
7.911383e+002, 3.649275e+002
7.916204e+002, 3.662343e+002
7.921025e+002, 3.680938e+002
7.925847e+002, 3.687206e+002
7.930668e+002, 3.676889e+002
7.935489e+002, 3.672646e+002
7.940310e+002, 3.699963e+002
7.945131e+002, 3.746560e+002
7.949952e+002, 3.777090e+002
7.954774e+002, 3.789440e+002
7.959595e+002, 3.801747e+002
7.964416e+002, 3.830207e+002
7.969237e+002, 3.862281e+002
7.974058e+002, 3.891638e+002
7.978879e+002, 3.925432e+002
7.983701e+002, 3.922754e+002
7.988522e+002, 3.836543e+002
7.993343e+002, 3.759585e+002
7.998164e+002, 3.766844e+002
8.002985e+002, 3.873736e+002
8.007806e+002, 3.939830e+002
8.012628e+002, 3.956214e+002
8.017449e+002, 3.963989e+002
8.022270e+002, 4.025470e+002
8.027091e+002, 4.103944e+002
8.031912e+002, 4.111042e+002
8.036733e+002, 4.018671e+002
8.041555e+002, 3.948094e+002
8.046376e+002, 3.987755e+002
8.051197e+002, 4.075436e+002
8.056018e+002, 4.156363e+002
8.060839e+002, 4.225672e+002
8.065660e+002, 4.277559e+002
8.070482e+002, 4.289547e+002
8.075303e+002, 4.312056e+002
8.080124e+002, 4.426503e+002
8.084945e+002, 4.632967e+002
8.089766e+002, 4.709686e+002
8.094587e+002, 4.609973e+002
8.099409e+002, 4.491989e+002
8.104230e+002, 4.540453e+002
8.109051e+002, 4.682929e+002
8.113872e+002, 4.808365e+002
8.118693e+002, 4.893476e+002
8.123514e+002, 4.952458e+002
8.128336e+002, 4.964781e+002
8.133157e+002, 4.967328e+002
8.137978e+002, 5.004481e+002
8.142799e+002, 5.112963e+002
8.147620e+002, 5.169637e+002
8.152441e+002, 5.147953e+002
8.157263e+002, 5.110500e+002
8.162084e+002, 5.139431e+002
8.166905e+002, 5.227285e+002
8.171726e+002, 5.336154e+002
8.176547e+002, 5.469147e+002
8.181368e+002, 5.579109e+002
8.186190e+002, 5.597571e+002
8.191011e+002, 5.574629e+002
8.195832e+002, 5.577007e+002
8.200653e+002, 5.625500e+002
8.205474e+002, 5.696553e+002
8.210295e+002, 5.806467e+002
8.215117e+002, 5.923767e+002
8.219938e+002, 6.014662e+002
8.224759e+002, 6.073430e+002
8.229580e+002, 6.131342e+002
8.234401e+002, 6.192051e+002
8.239222e+002, 6.251426e+002
8.244044e+002, 6.309324e+002
8.248865e+002, 6.360125e+002
8.253686e+002, 6.385792e+002
8.258507e+002, 6.371054e+002
8.263328e+002, 6.356256e+002
8.268149e+002, 6.369987e+002
8.272971e+002, 6.399034e+002
8.277792e+002, 6.426348e+002
8.282613e+002, 6.443190e+002
8.287434e+002, 6.466423e+002
8.292255e+002, 6.496962e+002
8.297076e+002, 6.534030e+002
8.301898e+002, 6.575125e+002
8.306719e+002, 6.619926e+002
8.311540e+002, 6.684604e+002
8.316361e+002, 6.778314e+002
8.321182e+002, 6.870973e+002
8.326003e+002, 6.916679e+002
8.330825e+002, 6.938397e+002
8.335646e+002, 6.977635e+002
8.340467e+002, 7.068879e+002
8.345288e+002, 7.139071e+002
8.350109e+002, 7.123196e+002
8.354930e+002, 7.090847e+002
8.359752e+002, 7.134808e+002
8.364573e+002, 7.276489e+002
8.369394e+002, 7.440922e+002
8.374215e+002, 7.638687e+002
8.379036e+002, 7.819158e+002
8.383857e+002, 7.873992e+002
8.388679e+002, 7.842429e+002
8.393500e+002, 7.889502e+002
8.398321e+002, 8.078287e+002
8.403142e+002, 8.275557e+002
8.407963e+002, 8.379929e+002
8.412784e+002, 8.427203e+002
8.417606e+002, 8.459471e+002
8.422427e+002, 8.454348e+002
8.427248e+002, 8.478277e+002
8.432069e+002, 8.503985e+002
8.436890e+002, 8.587208e+002
8.441711e+002, 8.839338e+002
8.446533e+002, 9.276725e+002
8.451354e+002, 9.564556e+002
8.456175e+002, 9.640189e+002
8.460996e+002, 9.628438e+002
8.465817e+002, 9.618655e+002
8.470638e+002, 9.641367e+002
8.475460e+002, 9.761249e+002
8.480281e+002, 1.003575e+003
8.485102e+002, 1.030069e+003
8.489923e+002, 1.048713e+003
8.494744e+002, 1.063181e+003
8.499565e+002, 1.076774e+003
8.504387e+002, 1.086174e+003
8.509208e+002, 1.104209e+003
8.514029e+002, 1.133342e+003
8.518850e+002, 1.166343e+003
8.523671e+002, 1.196518e+003
8.528492e+002, 1.223756e+003
8.533314e+002, 1.246500e+003
8.538135e+002, 1.263619e+003
8.542956e+002, 1.281770e+003
8.547777e+002, 1.308590e+003
8.552598e+002, 1.338085e+003
8.557419e+002, 1.364110e+003
8.562241e+002, 1.382028e+003
8.567062e+002, 1.403736e+003
8.571883e+002, 1.429267e+003
8.576704e+002, 1.459313e+003
8.581525e+002, 1.495276e+003
8.586346e+002, 1.537419e+003
8.591168e+002, 1.582725e+003
8.595989e+002, 1.631214e+003
8.600810e+002, 1.679947e+003
8.605631e+002, 1.722417e+003
8.610452e+002, 1.764216e+003
8.615273e+002, 1.813779e+003
8.620095e+002, 1.873025e+003
8.624916e+002, 1.933542e+003
8.629737e+002, 1.992381e+003
8.634558e+002, 2.049932e+003
8.639379e+002, 2.103860e+003
8.644200e+002, 2.151488e+003
8.649022e+002, 2.213690e+003
8.653843e+002, 2.294828e+003
8.658664e+002, 2.375999e+003
8.663485e+002, 2.436342e+003
8.668306e+002, 2.486020e+003
8.673127e+002, 2.555654e+003
8.677949e+002, 2.647456e+003
8.682770e+002, 2.738047e+003
8.687591e+002, 2.816756e+003
8.692412e+002, 2.887088e+003
8.697233e+002, 2.950449e+003
8.702054e+002, 3.006734e+003
8.706876e+002, 3.062165e+003
8.711697e+002, 3.120321e+003
8.716518e+002, 3.171231e+003
8.721339e+002, 3.207463e+003
8.726160e+002, 3.230605e+003
8.730981e+002, 3.252600e+003
8.735803e+002, 3.273396e+003
8.740624e+002, 3.286726e+003
8.745445e+002, 3.280379e+003
8.750266e+002, 3.270854e+003
8.755087e+002, 3.272725e+003
8.759908e+002, 3.286126e+003
8.764730e+002, 3.302215e+003
8.769551e+002, 3.318453e+003
8.774372e+002, 3.337992e+003
8.779193e+002, 3.363169e+003
8.784014e+002, 3.392647e+003
8.788835e+002, 3.419109e+003
8.793657e+002, 3.442410e+003
8.798478e+002, 3.464839e+003
8.803299e+002, 3.485308e+003
8.808120e+002, 3.506875e+003
8.812941e+002, 3.536850e+003
8.817763e+002, 3.572045e+003
8.822584e+002, 3.602317e+003
8.827405e+002, 3.621673e+003
8.832227e+002, 3.637281e+003
8.837048e+002, 3.648497e+003
8.841869e+002, 3.658140e+003
8.846690e+002, 3.675333e+003
8.851511e+002, 3.701357e+003
8.856332e+002, 3.728452e+003
8.861154e+002, 3.753731e+003
8.865975e+002, 3.779094e+003
8.870796e+002, 3.809223e+003
8.875617e+002, 3.842180e+003
8.880438e+002, 3.872602e+003
8.885259e+002, 3.880920e+003
8.890081e+002, 3.905651e+003
8.894902e+002, 3.981013e+003
8.899723e+002, 4.079734e+003
8.904544e+002, 4.148398e+003
8.909365e+002, 4.171542e+003
8.914186e+002, 4.200022e+003
8.919008e+002, 4.240283e+003
8.923829e+002, 4.289000e+003
8.928650e+002, 4.350208e+003
8.933471e+002, 4.416730e+003
8.938292e+002, 4.463498e+003
8.943113e+002, 4.479141e+003
8.947935e+002, 4.487763e+003
8.952756e+002, 4.508243e+003
8.957577e+002, 4.530037e+003
8.962398e+002, 4.541010e+003
8.967219e+002, 4.535420e+003
8.972040e+002, 4.526707e+003
8.976862e+002, 4.521953e+003
8.981683e+002, 4.502727e+003
8.986504e+002, 4.441361e+003
8.991325e+002, 4.344698e+003
8.996146e+002, 4.263885e+003
9.000967e+002, 4.205232e+003
9.005789e+002, 4.147333e+003
9.010610e+002, 4.069830e+003
9.015431e+002, 3.984681e+003
9.020252e+002, 3.900804e+003
9.025073e+002, 3.819336e+003
9.029894e+002, 3.743651e+003
9.034716e+002, 3.669080e+003
9.039537e+002, 3.607237e+003
9.044358e+002, 3.567846e+003
9.049179e+002, 3.550252e+003
9.054000e+002, 3.524409e+003
9.058821e+002, 3.490343e+003
9.063643e+002, 3.459712e+003
9.068464e+002, 3.440317e+003
9.073285e+002, 3.428611e+003
9.078106e+002, 3.424209e+003
9.082927e+002, 3.425729e+003
9.087748e+002, 3.421735e+003
9.092570e+002, 3.391860e+003
9.097391e+002, 3.376055e+003
9.102212e+002, 3.391642e+003
9.107033e+002, 3.431206e+003
9.111854e+002, 3.460255e+003
9.116675e+002, 3.478597e+003
9.121497e+002, 3.487307e+003
9.126318e+002, 3.488182e+003
9.131139e+002, 3.478196e+003
9.135960e+002, 3.446746e+003
9.140781e+002, 3.401556e+003
9.145602e+002, 3.360784e+003
9.150424e+002, 3.342552e+003
9.155245e+002, 3.315842e+003
9.160066e+002, 3.272785e+003
9.164887e+002, 3.217613e+003
9.169708e+002, 3.155592e+003
9.174529e+002, 3.085782e+003
9.179351e+002, 3.019204e+003
9.184172e+002, 2.958220e+003
9.188993e+002, 2.900636e+003
9.193814e+002, 2.845594e+003
9.198635e+002, 2.792030e+003
9.203456e+002, 2.738067e+003
9.208278e+002, 2.682355e+003
9.213099e+002, 2.629373e+003
9.217920e+002, 2.583552e+003
9.222741e+002, 2.538979e+003
9.227562e+002, 2.490252e+003
9.232383e+002, 2.436000e+003
9.237205e+002, 2.383865e+003
9.242026e+002, 2.334331e+003
9.246847e+002, 2.286634e+003
9.251668e+002, 2.240894e+003
9.256489e+002, 2.196375e+003
9.261310e+002, 2.150525e+003
9.266132e+002, 2.103131e+003
9.270953e+002, 2.060808e+003
9.275774e+002, 2.025601e+003
9.280595e+002, 1.996959e+003
9.285416e+002, 1.976994e+003
9.290237e+002, 1.965504e+003
9.295059e+002, 1.939373e+003
9.299880e+002, 1.896432e+003
9.304701e+002, 1.853375e+003
9.309522e+002, 1.822545e+003
9.314343e+002, 1.796961e+003
9.319164e+002, 1.763948e+003
9.323986e+002, 1.725216e+003
9.328807e+002, 1.686090e+003
9.333628e+002, 1.648106e+003
9.338449e+002, 1.611594e+003
9.343270e+002, 1.578782e+003
9.348091e+002, 1.547350e+003
9.352913e+002, 1.510872e+003
9.357734e+002, 1.467880e+003
9.362555e+002, 1.427368e+003
9.367376e+002, 1.390972e+003
9.372197e+002, 1.358550e+003
9.377018e+002, 1.333159e+003
9.381840e+002, 1.310367e+003
9.386661e+002, 1.281185e+003
9.391482e+002, 1.238866e+003
9.396303e+002, 1.196221e+003
9.401124e+002, 1.152012e+003
9.405945e+002, 1.112469e+003
9.410767e+002, 1.084967e+003
9.415588e+002, 1.071904e+003
9.420409e+002, 1.057329e+003
9.425230e+002, 1.040775e+003
9.430051e+002, 1.021360e+003
9.434872e+002, 9.953218e+002
9.439694e+002, 9.668682e+002
9.444515e+002, 9.434113e+002
9.449336e+002, 9.261879e+002
9.454157e+002, 9.070273e+002
9.458978e+002, 8.776563e+002
9.463799e+002, 8.509573e+002
9.468621e+002, 8.338907e+002
9.473442e+002, 8.261290e+002
9.478263e+002, 8.188957e+002
9.483084e+002, 8.123508e+002
9.487905e+002, 8.039027e+002
9.492726e+002, 7.899818e+002
9.497548e+002, 7.745807e+002
9.502369e+002, 7.634151e+002
9.507190e+002, 7.555828e+002
9.512011e+002, 7.481322e+002
9.516832e+002, 7.366228e+002
9.521653e+002, 7.296406e+002
9.526475e+002, 7.312127e+002
9.531296e+002, 7.375337e+002
9.536117e+002, 7.409587e+002
9.540938e+002, 7.414855e+002
9.545759e+002, 7.400227e+002
9.550580e+002, 7.370073e+002
9.555402e+002, 7.313745e+002
9.560223e+002, 7.171965e+002
9.565044e+002, 7.012403e+002
9.569865e+002, 6.940869e+002
9.574686e+002, 7.030242e+002
9.579507e+002, 7.109100e+002
9.584329e+002, 7.161428e+002
9.589150e+002, 7.183274e+002
9.593971e+002, 7.148570e+002
9.598792e+002, 7.054714e+002
9.603613e+002, 7.070624e+002
9.608434e+002, 7.205538e+002
9.613256e+002, 7.329077e+002
9.618077e+002, 7.315874e+002
9.622898e+002, 7.255034e+002
9.627719e+002, 7.238140e+002
9.632540e+002, 7.268710e+002
9.637361e+002, 7.280194e+002
9.642183e+002, 7.230338e+002
9.647004e+002, 7.200385e+002
9.651825e+002, 7.207499e+002
9.656646e+002, 7.257471e+002
9.661467e+002, 7.411688e+002
9.666288e+002, 7.650022e+002
9.671110e+002, 7.818858e+002
9.675931e+002, 7.817850e+002
9.680752e+002, 7.768074e+002
9.685573e+002, 7.746330e+002
9.690394e+002, 7.750889e+002
9.695215e+002, 7.778857e+002
9.700037e+002, 7.815598e+002
9.704858e+002, 7.907828e+002
9.709679e+002, 8.083997e+002
9.714500e+002, 8.271442e+002
9.719321e+002, 8.359473e+002
9.724142e+002, 8.375507e+002
9.728964e+002, 8.421465e+002
9.733785e+002, 8.508679e+002
9.738606e+002, 8.649783e+002
9.743427e+002, 8.869565e+002
9.748248e+002, 9.134121e+002
9.753069e+002, 9.424775e+002
9.757891e+002, 9.743949e+002
9.762712e+002, 1.003569e+003
9.767533e+002, 1.028012e+003
9.772354e+002, 1.055894e+003
9.777175e+002, 1.094277e+003
9.781996e+002, 1.138417e+003
9.786818e+002, 1.174516e+003
9.791639e+002, 1.205214e+003
9.796460e+002, 1.241048e+003
9.801281e+002, 1.295330e+003
9.806102e+002, 1.346924e+003
9.810923e+002, 1.386265e+003
9.815745e+002, 1.416775e+003
9.820566e+002, 1.443528e+003
9.825387e+002, 1.464126e+003
9.830208e+002, 1.495752e+003
9.835029e+002, 1.545715e+003
9.839850e+002, 1.594019e+003
9.844672e+002, 1.615575e+003
9.849493e+002, 1.618670e+003
9.854314e+002, 1.615958e+003
9.859135e+002, 1.609634e+003
9.863956e+002, 1.599157e+003
9.868777e+002, 1.584351e+003
9.873599e+002, 1.565137e+003
9.878420e+002, 1.543148e+003
9.883241e+002, 1.518434e+003
9.888062e+002, 1.474429e+003
9.892883e+002, 1.410963e+003
9.897704e+002, 1.344545e+003
9.902526e+002, 1.281894e+003
9.907347e+002, 1.224944e+003
9.912168e+002, 1.179803e+003
9.916989e+002, 1.143358e+003
9.921810e+002, 1.103089e+003
9.926631e+002, 1.050638e+003
9.931453e+002, 1.002427e+003
9.936274e+002, 9.616416e+002
9.941095e+002, 9.272084e+002
9.945916e+002, 9.001647e+002
9.950737e+002, 8.788201e+002
9.955558e+002, 8.521763e+002
9.960380e+002, 8.151885e+002
9.965201e+002, 7.807302e+002
9.970022e+002, 7.617753e+002
9.974843e+002, 7.480670e+002
9.979664e+002, 7.277191e+002
9.984485e+002, 6.947676e+002
9.989307e+002, 6.747467e+002
9.994128e+002, 6.710859e+002
9.998949e+002, 6.701363e+002
1.000377e+003, 6.622706e+002
1.000859e+003, 6.493300e+002
1.001341e+003, 6.351207e+002
1.001823e+003, 6.197516e+002
1.002305e+003, 6.029494e+002
1.002788e+003, 5.782327e+002
1.003270e+003, 5.588340e+002
1.003752e+003, 5.536392e+002
1.004234e+003, 5.569316e+002
1.004716e+003, 5.538004e+002
1.005198e+003, 5.437870e+002
1.005680e+003, 5.321823e+002
1.006162e+003, 5.195784e+002
1.006645e+003, 5.085943e+002
1.007127e+003, 5.034719e+002
1.007609e+003, 5.019089e+002
1.008091e+003, 5.009247e+002
1.008573e+003, 5.007392e+002
1.009055e+003, 4.986468e+002
1.009537e+003, 4.931302e+002
1.010019e+003, 4.874213e+002
1.010501e+003, 4.837272e+002
1.010984e+003, 4.819403e+002
1.011466e+003, 4.812878e+002
1.011948e+003, 4.816776e+002
1.012430e+003, 4.816038e+002
1.012912e+003, 4.783145e+002
1.013394e+003, 4.757993e+002
1.013876e+003, 4.759774e+002
1.014358e+003, 4.793615e+002
1.014841e+003, 4.874420e+002
1.015323e+003, 5.026661e+002
1.015805e+003, 5.158060e+002
1.016287e+003, 5.245578e+002
1.016769e+003, 5.309934e+002
1.017251e+003, 5.395422e+002
1.017733e+003, 5.481487e+002
1.018215e+003, 5.507051e+002
1.018697e+003, 5.414890e+002
1.019180e+003, 5.395215e+002
1.019662e+003, 5.584511e+002
1.020144e+003, 5.828127e+002
1.020626e+003, 6.014136e+002
1.021108e+003, 6.135599e+002
1.021590e+003, 6.299767e+002
1.022072e+003, 6.508467e+002
1.022554e+003, 6.716025e+002
1.023037e+003, 6.880884e+002
1.023519e+003, 7.036561e+002
1.024001e+003, 7.222428e+002
1.024483e+003, 7.430065e+002
1.024965e+003, 7.628774e+002
1.025447e+003, 7.756473e+002
1.025929e+003, 7.972532e+002
1.026411e+003, 8.337342e+002
1.026893e+003, 8.755000e+002
1.027376e+003, 9.080340e+002
1.027858e+003, 9.314309e+002
1.028340e+003, 9.430146e+002
1.028822e+003, 9.403576e+002
1.029304e+003, 9.368519e+002
1.029786e+003, 9.409832e+002
1.030268e+003, 9.477264e+002
1.030750e+003, 9.552327e+002
1.031233e+003, 9.644650e+002
1.031715e+003, 9.587240e+002
1.032197e+003, 9.359376e+002
1.032679e+003, 9.123339e+002
1.033161e+003, 8.985065e+002
1.033643e+003, 8.889713e+002
1.034125e+003, 8.759355e+002
1.034607e+003, 8.599832e+002
1.035089e+003, 8.430578e+002
1.035572e+003, 8.229545e+002
1.036054e+003, 8.057552e+002
1.036536e+003, 7.937375e+002
1.037018e+003, 7.833708e+002
1.037500e+003, 7.688074e+002
1.037982e+003, 7.509009e+002
1.038464e+003, 7.369306e+002
1.038946e+003, 7.277226e+002
1.039428e+003, 7.224074e+002
1.039911e+003, 7.249385e+002
1.040393e+003, 7.274695e+002
1.040875e+003, 7.220106e+002
1.041357e+003, 7.080910e+002
1.041839e+003, 7.003655e+002
1.042321e+003, 6.998446e+002
1.042803e+003, 7.021520e+002
1.043285e+003, 7.072916e+002
1.043768e+003, 7.119778e+002
1.044250e+003, 7.073619e+002
1.044732e+003, 6.978697e+002
1.045214e+003, 6.933450e+002
1.045696e+003, 7.048810e+002
1.046178e+003, 7.108513e+002
1.046660e+003, 7.044884e+002
1.047142e+003, 6.942337e+002
1.047625e+003, 6.887730e+002
1.048107e+003, 6.876303e+002
1.048589e+003, 6.805732e+002
1.049071e+003, 6.670620e+002
1.049553e+003, 6.573671e+002
1.050035e+003, 6.677645e+002
1.050517e+003, 6.776440e+002
1.050999e+003, 6.689737e+002
1.051481e+003, 6.431666e+002
1.051964e+003, 6.222943e+002
1.052446e+003, 6.065896e+002
1.052928e+003, 5.960174e+002
1.053410e+003, 5.915104e+002
1.053892e+003, 5.902194e+002
1.054374e+003, 5.892003e+002
1.054856e+003, 5.876425e+002
1.055338e+003, 5.839617e+002
1.055820e+003, 5.774896e+002
1.056303e+003, 5.696061e+002
1.056785e+003, 5.602760e+002
1.057267e+003, 5.499999e+002
1.057749e+003, 5.381890e+002
1.058231e+003, 5.252433e+002
1.058713e+003, 5.160839e+002
1.059195e+003, 5.105498e+002
1.059677e+003, 5.065422e+002
1.060160e+003, 5.044127e+002
1.060642e+003, 5.017727e+002
1.061124e+003, 4.961509e+002
1.061606e+003, 4.887962e+002
1.062088e+003, 4.831452e+002
1.062570e+003, 4.795376e+002
1.063052e+003, 4.767615e+002
1.063534e+003, 4.748506e+002
1.064016e+003, 4.730668e+002
1.064499e+003, 4.687614e+002
1.064981e+003, 4.646879e+002
1.065463e+003, 4.667897e+002
1.065945e+003, 4.763997e+002
1.066427e+003, 4.825088e+002
1.066909e+003, 4.804313e+002
1.067391e+003, 4.759590e+002
1.067873e+003, 4.696330e+002
1.068355e+003, 4.630577e+002
1.068838e+003, 4.625486e+002
1.069320e+003, 4.675385e+002
1.069802e+003, 4.753065e+002
1.070284e+003, 4.877820e+002
1.070766e+003, 4.975888e+002
1.071248e+003, 4.961259e+002
1.071730e+003, 4.919008e+002
1.072212e+003, 4.960858e+002
1.072695e+003, 5.131024e+002
1.073177e+003, 5.201069e+002
1.073659e+003, 5.154044e+002
1.074141e+003, 5.128861e+002
1.074623e+003, 5.267719e+002
1.075105e+003, 5.470099e+002
1.075587e+003, 5.623646e+002
1.076069e+003, 5.728762e+002
1.076552e+003, 5.811509e+002
1.077034e+003, 5.832195e+002
1.077516e+003, 5.911940e+002
1.077998e+003, 6.091646e+002
1.078480e+003, 6.310208e+002
1.078962e+003, 6.452166e+002
1.079444e+003, 6.548815e+002
1.079926e+003, 6.697239e+002
1.080408e+003, 6.918585e+002
1.080891e+003, 7.154036e+002
1.081373e+003, 7.385286e+002
1.081855e+003, 7.604622e+002
1.082337e+003, 7.794320e+002
1.082819e+003, 7.962777e+002
1.083301e+003, 8.223423e+002
1.083783e+003, 8.575464e+002
1.084265e+003, 8.948696e+002
1.084747e+003, 9.317928e+002
1.085230e+003, 9.686121e+002
1.085712e+003, 1.004036e+003
1.086194e+003, 1.040071e+003
1.086676e+003, 1.080000e+003
1.087158e+003, 1.126037e+003
1.087640e+003, 1.173073e+003
1.088122e+003, 1.221324e+003
1.088604e+003, 1.268254e+003
1.089087e+003, 1.309667e+003
1.089569e+003, 1.348922e+003
1.090051e+003, 1.391929e+003
1.090533e+003, 1.438660e+003
1.091015e+003, 1.487368e+003
1.091497e+003, 1.552204e+003
1.091979e+003, 1.597408e+003
1.092461e+003, 1.609406e+003
1.092943e+003, 1.603840e+003
1.093426e+003, 1.612596e+003
1.093908e+003, 1.631040e+003
1.094390e+003, 1.636867e+003
1.094872e+003, 1.626242e+003
1.095354e+003, 1.599501e+003
1.095836e+003, 1.545899e+003
1.096318e+003, 1.485347e+003
1.096800e+003, 1.432622e+003
1.097283e+003, 1.387035e+003
1.097765e+003, 1.332585e+003
1.098247e+003, 1.269080e+003
1.098729e+003, 1.198982e+003
1.099211e+003, 1.121259e+003
1.099693e+003, 1.043289e+003
1.100175e+003, 9.706334e+002
1.100657e+003, 9.041770e+002
1.101140e+003, 8.465101e+002
1.101622e+003, 7.986498e+002
1.102104e+003, 7.574395e+002
1.102586e+003, 7.242211e+002
1.103068e+003, 6.957872e+002
1.103550e+003, 6.694240e+002
1.104032e+003, 6.463945e+002
1.104514e+003, 6.308577e+002
1.104996e+003, 6.211606e+002
1.105479e+003, 6.095339e+002
1.105961e+003, 5.895236e+002
1.106443e+003, 5.715260e+002
1.106925e+003, 5.572979e+002
1.107407e+003, 5.461616e+002
1.107889e+003, 5.393113e+002
1.108371e+003, 5.351556e+002
1.108853e+003, 5.237486e+002
1.109335e+003, 5.027456e+002
1.109818e+003, 4.864428e+002
1.110300e+003, 4.905481e+002
1.110782e+003, 4.957115e+002
1.111264e+003, 4.885662e+002
1.111746e+003, 4.716747e+002
1.112228e+003, 4.601755e+002
1.112710e+003, 4.540842e+002
1.113192e+003, 4.494193e+002
1.113675e+003, 4.450220e+002
1.114157e+003, 4.412187e+002
1.114639e+003, 4.405647e+002
1.115121e+003, 4.396313e+002
1.115603e+003, 4.333569e+002
1.116085e+003, 4.185637e+002
1.116567e+003, 4.089910e+002
1.117049e+003, 4.057068e+002
1.117531e+003, 4.033840e+002
1.118014e+003, 3.987560e+002
1.118496e+003, 3.928329e+002
1.118978e+003, 3.868600e+002
1.119460e+003, 3.810159e+002
1.119942e+003, 3.756604e+002
1.120424e+003, 3.687472e+002
1.120906e+003, 3.664795e+002
1.121388e+003, 3.722150e+002
1.121870e+003, 3.775584e+002
1.122353e+003, 3.703547e+002
1.122835e+003, 3.555705e+002
1.123317e+003, 3.489958e+002
1.123799e+003, 3.511101e+002
1.124281e+003, 3.543337e+002
1.124763e+003, 3.560940e+002
1.125245e+003, 3.566223e+002
1.125727e+003, 3.554589e+002
1.126210e+003, 3.536207e+002
1.126692e+003, 3.539711e+002
1.127174e+003, 3.561201e+002
1.127656e+003, 3.561837e+002
1.128138e+003, 3.530894e+002
1.128620e+003, 3.496430e+002
1.129102e+003, 3.472263e+002
1.129584e+003, 3.457770e+002
1.130067e+003, 3.456188e+002
1.130549e+003, 3.465721e+002
1.131031e+003, 3.468358e+002
1.131513e+003, 3.464068e+002
1.131995e+003, 3.451649e+002
1.132477e+003, 3.425223e+002
1.132959e+003, 3.400472e+002
1.133441e+003, 3.393831e+002
1.133923e+003, 3.399139e+002
1.134406e+003, 3.413970e+002
1.134888e+003, 3.462601e+002
1.135370e+003, 3.432054e+002
1.135852e+003, 3.303167e+002
1.136334e+003, 3.171960e+002
1.136816e+003, 3.071122e+002
1.137298e+003, 3.027644e+002
1.137780e+003, 3.164023e+002
1.138262e+003, 3.396281e+002
1.138745e+003, 3.483323e+002
1.139227e+003, 3.150486e+002
1.139709e+003, 2.983755e+002
1.140191e+003, 3.077949e+002
1.140673e+003, 3.244964e+002
1.141155e+003, 3.281516e+002
1.141637e+003, 3.226198e+002
1.142119e+003, 3.152688e+002
1.142602e+003, 3.071500e+002
1.143084e+003, 3.034454e+002
1.143566e+003, 3.126760e+002
1.144048e+003, 3.183050e+002
1.144530e+003, 3.145935e+002
1.145012e+003, 3.059969e+002
1.145494e+003, 3.006092e+002
1.145976e+003, 2.980117e+002
1.146458e+003, 2.961319e+002
1.146941e+003, 2.945645e+002
1.147423e+003, 2.939564e+002
1.147905e+003, 2.935427e+002
1.148387e+003, 2.955502e+002
1.148869e+003, 3.021071e+002
1.149351e+003, 3.119760e+002
1.149833e+003, 3.191193e+002
1.150315e+003, 3.234246e+002
1.150797e+003, 3.225091e+002
1.151280e+003, 3.133445e+002
1.151762e+003, 3.044281e+002
1.152244e+003, 3.025405e+002
1.152726e+003, 3.038629e+002
1.153208e+003, 3.048477e+002
1.153690e+003, 3.053865e+002
1.154172e+003, 3.057817e+002
1.154654e+003, 3.061722e+002
1.155137e+003, 3.035151e+002
1.155619e+003, 2.920444e+002
1.156101e+003, 2.810326e+002
1.156583e+003, 2.813907e+002
1.157065e+003, 2.879985e+002
1.157547e+003, 2.914918e+002
1.158029e+003, 2.900585e+002
1.158511e+003, 2.886706e+002
1.158994e+003, 2.872592e+002
1.159476e+003, 2.868261e+002
1.159958e+003, 2.888936e+002
1.160440e+003, 2.919401e+002
1.160922e+003, 2.945154e+002
1.161404e+003, 2.964005e+002
1.161886e+003, 2.970041e+002
1.162368e+003, 2.956339e+002
1.162850e+003, 2.942609e+002
1.163333e+003, 2.928613e+002
1.163815e+003, 2.922381e+002
1.164297e+003, 2.955065e+002
1.164779e+003, 2.991931e+002
1.165261e+003, 2.955833e+002
1.165743e+003, 2.847029e+002
1.166225e+003, 2.781011e+002
1.166707e+003, 2.816879e+002
1.167189e+003, 2.842387e+002
1.167672e+003, 2.815948e+002
1.168154e+003, 2.791160e+002
1.168636e+003, 2.908492e+002
1.169118e+003, 3.092534e+002
1.169600e+003, 3.166886e+002
1.170082e+003, 3.087171e+002
1.170564e+003, 2.992341e+002
1.171046e+003, 2.892989e+002
1.171529e+003, 2.832778e+002
1.172011e+003, 2.846843e+002
1.172493e+003, 2.899880e+002
1.172975e+003, 2.887107e+002
1.173457e+003, 2.824236e+002
1.173939e+003, 2.750584e+002
1.174421e+003, 2.641380e+002
1.174903e+003, 2.625523e+002
1.175385e+003, 2.878102e+002
1.175868e+003, 3.120393e+002
1.176350e+003, 3.178453e+002
1.176832e+003, 3.080740e+002
1.177314e+003, 2.978141e+002
1.177796e+003, 2.874605e+002
1.178278e+003, 2.796309e+002
1.178760e+003, 2.760866e+002
1.179242e+003, 2.743887e+002
1.179724e+003, 2.729605e+002
1.180207e+003, 2.734261e+002
1.180689e+003, 2.793782e+002
1.181171e+003, 2.906558e+002
1.181653e+003, 2.904486e+002
1.182135e+003, 2.794419e+002
1.182617e+003, 2.687436e+002
1.183099e+003, 2.638757e+002
1.183581e+003, 2.625903e+002
1.184064e+003, 2.666399e+002
1.184546e+003, 2.719616e+002
1.185028e+003, 2.712419e+002
1.185510e+003, 2.640849e+002
1.185992e+003, 2.665351e+002
1.186474e+003, 2.799068e+002
1.186956e+003, 2.898419e+002
1.187438e+003, 2.809650e+002
1.187921e+003, 2.699651e+002
1.188403e+003, 2.679310e+002
1.188885e+003, 2.725219e+002
1.189367e+003, 2.785039e+002
1.189849e+003, 2.863088e+002
1.190331e+003, 2.869065e+002
1.190813e+003, 2.781335e+002
1.191295e+003, 2.700065e+002
1.191777e+003, 2.756295e+002
1.192260e+003, 2.816148e+002
1.192742e+003, 2.732697e+002
1.193224e+003, 2.543600e+002
1.193706e+003, 2.501251e+002
1.194188e+003, 2.623145e+002
1.194670e+003, 2.714530e+002
1.195152e+003, 2.724729e+002
1.195634e+003, 2.715756e+002
1.196116e+003, 2.752532e+002
1.196599e+003, 2.796791e+002
1.197081e+003, 2.809553e+002
1.197563e+003, 2.789076e+002
1.198045e+003, 2.763058e+002
1.198527e+003, 2.728329e+002
1.199009e+003, 2.722844e+002
1.199491e+003, 2.779796e+002
1.199973e+003, 2.823225e+002
1.200456e+003, 2.724172e+002
1.200938e+003, 2.592831e+002
1.201420e+003, 2.577800e+002
1.201902e+003, 2.709466e+002
1.202384e+003, 2.771368e+002
1.202866e+003, 2.752977e+002
1.203348e+003, 2.748356e+002
1.203830e+003, 2.824414e+002
1.204313e+003, 2.904489e+002
1.204795e+003, 2.889769e+002
1.205277e+003, 2.827863e+002
1.205759e+003, 2.794515e+002
1.206241e+003, 2.817205e+002
1.206723e+003, 2.780873e+002
1.207205e+003, 2.674448e+002
1.207687e+003, 2.581689e+002
1.208169e+003, 2.562368e+002
1.208651e+003, 2.576659e+002
1.209134e+003, 2.585598e+002
1.209616e+003, 2.593362e+002
1.210098e+003, 2.608903e+002
1.210580e+003, 2.637278e+002
1.211062e+003, 2.659698e+002
1.211544e+003, 2.675105e+002
1.212026e+003, 2.689939e+002
1.212508e+003, 2.715651e+002
1.212991e+003, 2.738135e+002
1.213473e+003, 2.739510e+002
1.213955e+003, 2.724770e+002
1.214437e+003, 2.703809e+002
1.214919e+003, 2.660209e+002
1.215401e+003, 2.677449e+002
1.215883e+003, 2.773958e+002
1.216365e+003, 2.862796e+002
1.216848e+003, 2.861866e+002
1.217330e+003, 2.817466e+002
1.217812e+003, 2.783049e+002
1.218294e+003, 2.750647e+002
1.218776e+003, 2.668645e+002
1.219258e+003, 2.495673e+002
1.219740e+003, 2.425090e+002
1.220222e+003, 2.494708e+002
1.220704e+003, 2.600240e+002
1.221187e+003, 2.657437e+002
1.221669e+003, 2.678763e+002
1.222151e+003, 2.662651e+002
1.222633e+003, 2.617710e+002
1.223115e+003, 2.603262e+002
1.223597e+003, 2.636367e+002
1.224079e+003, 2.631702e+002
1.224561e+003, 2.566668e+002
1.225043e+003, 2.492246e+002
1.225526e+003, 2.441894e+002
1.226008e+003, 2.427256e+002
1.226490e+003, 2.481249e+002
1.226972e+003, 2.600041e+002
1.227454e+003, 2.667126e+002
1.227936e+003, 2.677515e+002
1.228418e+003, 2.654944e+002
1.228900e+003, 2.595379e+002
1.229383e+003, 2.542307e+002
1.229865e+003, 2.564257e+002
1.230347e+003, 2.604773e+002
1.230829e+003, 2.594509e+002
1.231311e+003, 2.528931e+002
1.231793e+003, 2.508988e+002
1.232275e+003, 2.542544e+002
1.232757e+003, 2.556982e+002
1.233240e+003, 2.521367e+002
1.233722e+003, 2.483908e+002
1.234204e+003, 2.516405e+002
1.234686e+003, 2.561234e+002
1.235168e+003, 2.550310e+002
1.235650e+003, 2.479712e+002
1.236132e+003, 2.412920e+002
1.236614e+003, 2.346668e+002
1.237096e+003, 2.342271e+002
1.237579e+003, 2.455316e+002
1.238061e+003, 2.565024e+002
1.238543e+003, 2.531680e+002
1.239025e+003, 2.452047e+002
1.239507e+003, 2.439359e+002
1.239989e+003, 2.498568e+002
1.240471e+003, 2.533033e+002
1.240953e+003, 2.542518e+002
1.241436e+003, 2.522810e+002
1.241918e+003, 2.448042e+002
1.242400e+003, 2.388332e+002
1.242882e+003, 2.426286e+002
1.243364e+003, 2.493211e+002
1.243846e+003, 2.510083e+002
1.244328e+003, 2.472870e+002
1.244810e+003, 2.477418e+002
1.245292e+003, 2.522104e+002
1.245775e+003, 2.550089e+002
1.246257e+003, 2.499993e+002
1.246739e+003, 2.475650e+002
1.247221e+003, 2.603625e+002
1.247703e+003, 2.750180e+002
1.248185e+003, 2.770201e+002
1.248667e+003, 2.659784e+002
1.249149e+003, 2.565577e+002
1.249631e+003, 2.487745e+002
1.250114e+003, 2.429097e+002
1.250596e+003, 2.382437e+002
1.251078e+003, 2.367613e+002
1.251560e+003, 2.431434e+002
1.252042e+003, 2.504100e+002
1.252524e+003, 2.507416e+002
1.253006e+003, 2.446808e+002
1.253488e+003, 2.440443e+002
1.253971e+003, 2.482265e+002
1.254453e+003, 2.522363e+002
1.254935e+003, 2.541972e+002
1.255417e+003, 2.544127e+002
1.255899e+003, 2.516159e+002
1.256381e+003, 2.484681e+002
1.256863e+003, 2.481450e+002
1.257345e+003, 2.498368e+002
1.257828e+003, 2.482638e+002
1.258310e+003, 2.437157e+002
1.258792e+003, 2.385511e+002
1.259274e+003, 2.285260e+002
1.259756e+003, 2.263324e+002
1.260238e+003, 2.391375e+002
1.260720e+003, 2.537276e+002
1.261202e+003, 2.551417e+002
1.261684e+003, 2.474177e+002
1.262167e+003, 2.432602e+002
1.262649e+003, 2.426097e+002
1.263131e+003, 2.425746e+002
1.263613e+003, 2.423686e+002
1.264095e+003, 2.422436e+002
1.264577e+003, 2.425961e+002
1.265059e+003, 2.423241e+002
1.265541e+003, 2.388775e+002
1.266023e+003, 2.345170e+002
1.266506e+003, 2.354884e+002
1.266988e+003, 2.404908e+002
1.267470e+003, 2.420517e+002
1.267952e+003, 2.341311e+002
1.268434e+003, 2.294755e+002
1.268916e+003, 2.293150e+002
1.269398e+003, 2.326157e+002
1.269880e+003, 2.431429e+002
1.270363e+003, 2.534729e+002
1.270845e+003, 2.485398e+002
1.271327e+003, 2.321605e+002
1.271809e+003, 2.268792e+002
1.272291e+003, 2.401044e+002
1.272773e+003, 2.476683e+002
1.273255e+003, 2.461523e+002
1.273737e+003, 2.415396e+002
1.274219e+003, 2.390882e+002
1.274702e+003, 2.372143e+002
1.275184e+003, 2.332410e+002
1.275666e+003, 2.283955e+002
1.276148e+003, 2.273577e+002
1.276630e+003, 2.303952e+002
1.277112e+003, 2.374322e+002
1.277594e+003, 2.491621e+002
1.278076e+003, 2.576940e+002
1.278558e+003, 2.526272e+002
1.279041e+003, 2.448313e+002
1.279523e+003, 2.428788e+002
1.280005e+003, 2.451583e+002
1.280487e+003, 2.471690e+002
1.280969e+003, 2.489251e+002
1.281451e+003, 2.484904e+002
1.281933e+003, 2.455759e+002
1.282415e+003, 2.421003e+002
1.282898e+003, 2.375186e+002
1.283380e+003, 2.348680e+002
1.283862e+003, 2.370993e+002
1.284344e+003, 2.415387e+002
1.284826e+003, 2.427431e+002
1.285308e+003, 2.413888e+002
1.285790e+003, 2.427534e+002
1.286272e+003, 2.473744e+002
1.286755e+003, 2.503699e+002
1.287237e+003, 2.481399e+002
1.287719e+003, 2.446213e+002
1.288201e+003, 2.398208e+002
1.288683e+003, 2.363017e+002
1.289165e+003, 2.403973e+002
1.289647e+003, 2.490296e+002
1.290129e+003, 2.543434e+002
1.290611e+003, 2.554397e+002
1.291094e+003, 2.526227e+002
1.291576e+003, 2.401926e+002
1.292058e+003, 2.329538e+002
1.292540e+003, 2.348704e+002
1.293022e+003, 2.406342e+002
1.293504e+003, 2.456935e+002
1.293986e+003, 2.482117e+002
1.294468e+003, 2.424064e+002
1.294950e+003, 2.290137e+002
1.295433e+003, 2.240611e+002
1.295915e+003, 2.326887e+002
1.296397e+003, 2.375984e+002
1.296879e+003, 2.348521e+002
1.297361e+003, 2.309270e+002
1.297843e+003, 2.346776e+002
1.298325e+003, 2.399650e+002
1.298807e+003, 2.392382e+002
1.299290e+003, 2.331647e+002
1.299772e+003, 2.311639e+002
1.300254e+003, 2.338698e+002
1.300736e+003, 2.349156e+002
1.301218e+003, 2.330772e+002
1.301700e+003, 2.309003e+002
1.302182e+003, 2.286989e+002
1.302664e+003, 2.288002e+002
1.303146e+003, 2.364289e+002
1.303629e+003, 2.466253e+002
1.304111e+003, 2.474538e+002
1.304593e+003, 2.396811e+002
1.305075e+003, 2.328464e+002
1.305557e+003, 2.282839e+002
1.306039e+003, 2.244991e+002
1.306521e+003, 2.177329e+002
1.307003e+003, 2.156290e+002
1.307485e+003, 2.227398e+002
1.307968e+003, 2.335796e+002
1.308450e+003, 2.397634e+002
1.308932e+003, 2.412127e+002
1.309414e+003, 2.352518e+002
1.309896e+003, 2.221538e+002
1.310378e+003, 2.144585e+002
1.310860e+003, 2.208311e+002
1.311342e+003, 2.276705e+002
1.311825e+003, 2.328803e+002
1.312307e+003, 2.364980e+002
1.312789e+003, 2.387578e+002
1.313271e+003, 2.392746e+002
1.313753e+003, 2.366914e+002
1.314235e+003, 2.313077e+002
1.314717e+003, 2.262790e+002
1.315199e+003, 2.209268e+002
1.315682e+003, 2.195449e+002
1.316164e+003, 2.232602e+002
1.316646e+003, 2.290665e+002
1.317128e+003, 2.379440e+002
1.317610e+003, 2.440350e+002
1.318092e+003, 2.426743e+002
##END=



