##NAMES=Clinochlore
##RRUFFID=R150146
##IDEAL CHEMISTRY=Mg_5_Al(AlSi_3_O_10_)(OH)_8_
##LOCALITY=Kop Dağı, Erzurum, Turkey
##OWNER=RRUFF
##SOURCE=Leor Goldberg
##DESCRIPTION=Pink thick pseudohexagonal crystals, with tapering pyramidal faces. Crystals are twinned, with the twin axis along [310].
##STATUS=The identification of this mineral has been confirmed only by single crystal X-ray diffraction.
##URL=rruff.info/R150146
8.930109e+001, 0.000000e+000
8.978320e+001, 1.045935e+002
9.026532e+001, 1.045686e+002
9.074744e+001, 1.045305e+002
9.122955e+001, 1.041623e+002
9.171167e+001, 1.044130e+002
9.219379e+001, 1.071686e+002
9.267590e+001, 1.120416e+002
9.315802e+001, 1.160060e+002
9.364014e+001, 1.164738e+002
9.412225e+001, 1.142758e+002
9.460437e+001, 1.114776e+002
9.508649e+001, 1.080525e+002
9.556860e+001, 1.046456e+002
9.605072e+001, 1.032680e+002
9.653284e+001, 1.041804e+002
9.701495e+001, 1.052340e+002
9.749707e+001, 1.039484e+002
9.797919e+001, 1.004002e+002
9.846130e+001, 9.723733e+001
9.894342e+001, 9.511584e+001
9.942554e+001, 9.398308e+001
9.990765e+001, 9.380639e+001
1.003898e+002, 9.480923e+001
1.008719e+002, 9.624026e+001
1.013540e+002, 9.707011e+001
1.018361e+002, 9.727909e+001
1.023182e+002, 9.709732e+001
1.028004e+002, 9.646855e+001
1.032825e+002, 9.515524e+001
1.037646e+002, 9.447506e+001
1.042467e+002, 9.460583e+001
1.047288e+002, 9.525567e+001
1.052109e+002, 9.568482e+001
1.056931e+002, 9.545692e+001
1.061752e+002, 9.563389e+001
1.066573e+002, 9.665615e+001
1.071394e+002, 9.845817e+001
1.076215e+002, 1.011479e+002
1.081036e+002, 1.056709e+002
1.085858e+002, 1.114238e+002
1.090679e+002, 1.150225e+002
1.095500e+002, 1.155737e+002
1.100321e+002, 1.147674e+002
1.105142e+002, 1.135142e+002
1.109963e+002, 1.108115e+002
1.114785e+002, 1.087967e+002
1.119606e+002, 1.077489e+002
1.124427e+002, 1.076385e+002
1.129248e+002, 1.080276e+002
1.134069e+002, 1.091132e+002
1.138890e+002, 1.105237e+002
1.143712e+002, 1.119754e+002
1.148533e+002, 1.133899e+002
1.153354e+002, 1.148445e+002
1.158175e+002, 1.165391e+002
1.162996e+002, 1.185650e+002
1.167817e+002, 1.200555e+002
1.172639e+002, 1.207576e+002
1.177460e+002, 1.207701e+002
1.182281e+002, 1.202145e+002
1.187102e+002, 1.191101e+002
1.191923e+002, 1.174779e+002
1.196744e+002, 1.152177e+002
1.201566e+002, 1.122079e+002
1.206387e+002, 1.090707e+002
1.211208e+002, 1.059963e+002
1.216029e+002, 1.030758e+002
1.220850e+002, 1.005312e+002
1.225671e+002, 9.812576e+001
1.230493e+002, 9.629539e+001
1.235314e+002, 9.563456e+001
1.240135e+002, 9.651747e+001
1.244956e+002, 9.787550e+001
1.249777e+002, 9.934472e+001
1.254598e+002, 1.006495e+002
1.259420e+002, 1.007032e+002
1.264241e+002, 9.780368e+001
1.269062e+002, 9.327940e+001
1.273883e+002, 8.956621e+001
1.278704e+002, 8.727764e+001
1.283525e+002, 8.587080e+001
1.288347e+002, 8.450558e+001
1.293168e+002, 8.320174e+001
1.297989e+002, 8.238628e+001
1.302810e+002, 8.281536e+001
1.307631e+002, 8.414401e+001
1.312452e+002, 8.494665e+001
1.317274e+002, 8.471094e+001
1.322095e+002, 8.379119e+001
1.326916e+002, 8.321369e+001
1.331737e+002, 8.304099e+001
1.336558e+002, 8.274145e+001
1.341379e+002, 8.156704e+001
1.346201e+002, 7.953605e+001
1.351022e+002, 7.782108e+001
1.355843e+002, 7.685867e+001
1.360664e+002, 7.654766e+001
1.365485e+002, 7.615325e+001
1.370306e+002, 7.562736e+001
1.375128e+002, 7.512887e+001
1.379949e+002, 7.482134e+001
1.384770e+002, 7.470689e+001
1.389591e+002, 7.476456e+001
1.394412e+002, 7.489817e+001
1.399233e+002, 7.506475e+001
1.404055e+002, 7.604910e+001
1.408876e+002, 7.840744e+001
1.413697e+002, 8.101203e+001
1.418518e+002, 8.193840e+001
1.423339e+002, 8.068491e+001
1.428160e+002, 7.888212e+001
1.432982e+002, 7.697901e+001
1.437803e+002, 7.481266e+001
1.442624e+002, 7.313155e+001
1.447445e+002, 7.203750e+001
1.452266e+002, 7.140240e+001
1.457087e+002, 7.099486e+001
1.461909e+002, 7.096296e+001
1.466730e+002, 7.096205e+001
1.471551e+002, 7.083279e+001
1.476372e+002, 7.029980e+001
1.481193e+002, 7.012033e+001
1.486014e+002, 7.059940e+001
1.490836e+002, 7.147519e+001
1.495657e+002, 7.184933e+001
1.500478e+002, 7.127611e+001
1.505299e+002, 7.055416e+001
1.510120e+002, 7.002546e+001
1.514941e+002, 6.973087e+001
1.519763e+002, 6.958343e+001
1.524584e+002, 6.968830e+001
1.529405e+002, 6.998042e+001
1.534226e+002, 7.013482e+001
1.539047e+002, 7.001688e+001
1.543868e+002, 6.982590e+001
1.548690e+002, 6.967030e+001
1.553511e+002, 6.923168e+001
1.558332e+002, 6.918029e+001
1.563153e+002, 7.005131e+001
1.567974e+002, 7.166055e+001
1.572795e+002, 7.252171e+001
1.577617e+002, 7.178243e+001
1.582438e+002, 7.046312e+001
1.587259e+002, 6.930089e+001
1.592080e+002, 6.851712e+001
1.596901e+002, 6.786020e+001
1.601722e+002, 6.719038e+001
1.606544e+002, 6.652174e+001
1.611365e+002, 6.614200e+001
1.616186e+002, 6.644337e+001
1.621007e+002, 6.696028e+001
1.625828e+002, 6.726976e+001
1.630649e+002, 6.680724e+001
1.635471e+002, 6.646092e+001
1.640292e+002, 6.683031e+001
1.645113e+002, 6.793487e+001
1.649934e+002, 6.879386e+001
1.654755e+002, 6.879057e+001
1.659576e+002, 6.829290e+001
1.664398e+002, 6.775896e+001
1.669219e+002, 6.719836e+001
1.674040e+002, 6.676939e+001
1.678861e+002, 6.665707e+001
1.683682e+002, 6.688612e+001
1.688503e+002, 6.709653e+001
1.693325e+002, 6.700562e+001
1.698146e+002, 6.674887e+001
1.702967e+002, 6.654697e+001
1.707788e+002, 6.637167e+001
1.712609e+002, 6.636288e+001
1.717430e+002, 6.678026e+001
1.722252e+002, 6.769939e+001
1.727073e+002, 6.851320e+001
1.731894e+002, 6.870884e+001
1.736715e+002, 6.843056e+001
1.741536e+002, 6.800460e+001
1.746357e+002, 6.732791e+001
1.751179e+002, 6.669321e+001
1.756000e+002, 6.655342e+001
1.760821e+002, 6.702273e+001
1.765642e+002, 6.755827e+001
1.770463e+002, 6.758829e+001
1.775284e+002, 6.723750e+001
1.780106e+002, 6.688971e+001
1.784927e+002, 6.661073e+001
1.789748e+002, 6.649754e+001
1.794569e+002, 6.681743e+001
1.799390e+002, 6.769357e+001
1.804211e+002, 6.863760e+001
1.809033e+002, 6.895561e+001
1.813854e+002, 6.878340e+001
1.818675e+002, 6.875424e+001
1.823496e+002, 6.943018e+001
1.828317e+002, 7.050694e+001
1.833138e+002, 7.124585e+001
1.837960e+002, 7.149076e+001
1.842781e+002, 7.158992e+001
1.847602e+002, 7.206201e+001
1.852423e+002, 7.287109e+001
1.857244e+002, 7.367855e+001
1.862065e+002, 7.425639e+001
1.866887e+002, 7.466236e+001
1.871708e+002, 7.515624e+001
1.876529e+002, 7.581164e+001
1.881350e+002, 7.646374e+001
1.886171e+002, 7.671657e+001
1.890992e+002, 7.658475e+001
1.895814e+002, 7.654204e+001
1.900635e+002, 7.698811e+001
1.905456e+002, 7.784750e+001
1.910277e+002, 7.850951e+001
1.915098e+002, 7.881840e+001
1.919919e+002, 7.904276e+001
1.924741e+002, 7.976855e+001
1.929562e+002, 8.100880e+001
1.934383e+002, 8.238017e+001
1.939204e+002, 8.354350e+001
1.944025e+002, 8.452619e+001
1.948846e+002, 8.579782e+001
1.953668e+002, 8.740902e+001
1.958489e+002, 8.934234e+001
1.963310e+002, 9.157748e+001
1.968131e+002, 9.412284e+001
1.972952e+002, 9.689177e+001
1.977773e+002, 9.999976e+001
1.982595e+002, 1.034498e+002
1.987416e+002, 1.066736e+002
1.992237e+002, 1.096974e+002
1.997058e+002, 1.123458e+002
2.001879e+002, 1.142035e+002
2.006700e+002, 1.153570e+002
2.011522e+002, 1.154023e+002
2.016343e+002, 1.138982e+002
2.021164e+002, 1.107418e+002
2.025985e+002, 1.070034e+002
2.030806e+002, 1.026589e+002
2.035627e+002, 9.793076e+001
2.040449e+002, 9.350194e+001
2.045270e+002, 8.931449e+001
2.050091e+002, 8.561488e+001
2.054912e+002, 8.266964e+001
2.059733e+002, 8.058561e+001
2.064554e+002, 7.860217e+001
2.069376e+002, 7.658244e+001
2.074197e+002, 7.462242e+001
2.079018e+002, 7.302686e+001
2.083839e+002, 7.183955e+001
2.088660e+002, 7.090311e+001
2.093481e+002, 7.014338e+001
2.098303e+002, 6.957398e+001
2.103124e+002, 6.910649e+001
2.107945e+002, 6.874485e+001
2.112766e+002, 6.847860e+001
2.117587e+002, 6.825386e+001
2.122408e+002, 6.807599e+001
2.127230e+002, 6.792866e+001
2.132051e+002, 6.782285e+001
2.136872e+002, 6.780184e+001
2.141693e+002, 6.766221e+001
2.146514e+002, 6.735175e+001
2.151335e+002, 6.690387e+001
2.156157e+002, 6.645505e+001
2.160978e+002, 6.590841e+001
2.165799e+002, 6.552898e+001
2.170620e+002, 6.554924e+001
2.175441e+002, 6.616692e+001
2.180262e+002, 6.660214e+001
2.185084e+002, 6.674285e+001
2.189905e+002, 6.664300e+001
2.194726e+002, 6.657938e+001
2.199547e+002, 6.659782e+001
2.204368e+002, 6.657487e+001
2.209189e+002, 6.640059e+001
2.214011e+002, 6.595608e+001
2.218832e+002, 6.568169e+001
2.223653e+002, 6.566434e+001
2.228474e+002, 6.584583e+001
2.233295e+002, 6.596656e+001
2.238116e+002, 6.601624e+001
2.242938e+002, 6.601916e+001
2.247759e+002, 6.597497e+001
2.252580e+002, 6.583650e+001
2.257401e+002, 6.576729e+001
2.262222e+002, 6.579542e+001
2.267043e+002, 6.590036e+001
2.271865e+002, 6.601305e+001
2.276686e+002, 6.617960e+001
2.281507e+002, 6.628107e+001
2.286328e+002, 6.622731e+001
2.291149e+002, 6.591766e+001
2.295970e+002, 6.568935e+001
2.300792e+002, 6.557255e+001
2.305613e+002, 6.555247e+001
2.310434e+002, 6.559083e+001
2.315255e+002, 6.575713e+001
2.320076e+002, 6.588183e+001
2.324897e+002, 6.585332e+001
2.329719e+002, 6.555791e+001
2.334540e+002, 6.536803e+001
2.339361e+002, 6.530608e+001
2.344182e+002, 6.535950e+001
2.349003e+002, 6.550335e+001
2.353824e+002, 6.584692e+001
2.358646e+002, 6.612466e+001
2.363467e+002, 6.618242e+001
2.368288e+002, 6.587045e+001
2.373109e+002, 6.566589e+001
2.377930e+002, 6.557804e+001
2.382751e+002, 6.560390e+001
2.387573e+002, 6.577324e+001
2.392394e+002, 6.627995e+001
2.397215e+002, 6.664683e+001
2.402036e+002, 6.660905e+001
2.406857e+002, 6.584882e+001
2.411678e+002, 6.541670e+001
2.416500e+002, 6.546363e+001
2.421321e+002, 6.579697e+001
2.426142e+002, 6.590569e+001
2.430963e+002, 6.559518e+001
2.435784e+002, 6.534737e+001
2.440605e+002, 6.541492e+001
2.445427e+002, 6.604755e+001
2.450248e+002, 6.633933e+001
2.455069e+002, 6.614375e+001
2.459890e+002, 6.566615e+001
2.464711e+002, 6.537016e+001
2.469532e+002, 6.537177e+001
2.474354e+002, 6.535942e+001
2.479175e+002, 6.518128e+001
2.483996e+002, 6.471461e+001
2.488817e+002, 6.449070e+001
2.493638e+002, 6.459927e+001
2.498459e+002, 6.490092e+001
2.503281e+002, 6.515770e+001
2.508102e+002, 6.541759e+001
2.512923e+002, 6.554847e+001
2.517744e+002, 6.545962e+001
2.522565e+002, 6.505666e+001
2.527386e+002, 6.484615e+001
2.532208e+002, 6.489562e+001
2.537029e+002, 6.508813e+001
2.541850e+002, 6.524467e+001
2.546671e+002, 6.534833e+001
2.551492e+002, 6.544962e+001
2.556313e+002, 6.558246e+001
2.561135e+002, 6.576854e+001
2.565956e+002, 6.581760e+001
2.570777e+002, 6.566045e+001
2.575598e+002, 6.543007e+001
2.580419e+002, 6.530743e+001
2.585240e+002, 6.532942e+001
2.590062e+002, 6.537650e+001
2.594883e+002, 6.542359e+001
2.599704e+002, 6.547069e+001
2.604525e+002, 6.549420e+001
2.609346e+002, 6.546749e+001
2.614167e+002, 6.545013e+001
2.618989e+002, 6.553187e+001
2.623810e+002, 6.577544e+001
2.628631e+002, 6.594442e+001
2.633452e+002, 6.593662e+001
2.638273e+002, 6.575515e+001
2.643094e+002, 6.576404e+001
2.647916e+002, 6.599437e+001
2.652737e+002, 6.636605e+001
2.657558e+002, 6.682744e+001
2.662379e+002, 6.740671e+001
2.667200e+002, 6.798274e+001
2.672021e+002, 6.856792e+001
2.676843e+002, 6.914466e+001
2.681664e+002, 6.954294e+001
2.686485e+002, 6.970250e+001
2.691306e+002, 6.980637e+001
2.696127e+002, 6.997640e+001
2.700948e+002, 7.019001e+001
2.705770e+002, 7.058165e+001
2.710591e+002, 7.125083e+001
2.715412e+002, 7.210484e+001
2.720233e+002, 7.264982e+001
2.725054e+002, 7.274018e+001
2.729875e+002, 7.289213e+001
2.734697e+002, 7.356833e+001
2.739518e+002, 7.489039e+001
2.744339e+002, 7.594788e+001
2.749160e+002, 7.654932e+001
2.753981e+002, 7.686549e+001
2.758802e+002, 7.744841e+001
2.763624e+002, 7.834412e+001
2.768445e+002, 7.929548e+001
2.773266e+002, 8.009834e+001
2.778087e+002, 8.073122e+001
2.782908e+002, 8.156199e+001
2.787729e+002, 8.266206e+001
2.792551e+002, 8.392699e+001
2.797372e+002, 8.507706e+001
2.802193e+002, 8.609321e+001
2.807014e+002, 8.714974e+001
2.811835e+002, 8.841121e+001
2.816656e+002, 8.987247e+001
2.821478e+002, 9.116140e+001
2.826299e+002, 9.224793e+001
2.831120e+002, 9.318849e+001
2.835941e+002, 9.409220e+001
2.840762e+002, 9.496704e+001
2.845583e+002, 9.570061e+001
2.850405e+002, 9.626602e+001
2.855226e+002, 9.665960e+001
2.860047e+002, 9.684962e+001
2.864868e+002, 9.683630e+001
2.869689e+002, 9.661683e+001
2.874510e+002, 9.616446e+001
2.879332e+002, 9.548291e+001
2.884153e+002, 9.464473e+001
2.888974e+002, 9.361609e+001
2.893795e+002, 9.245749e+001
2.898616e+002, 9.140737e+001
2.903438e+002, 9.046154e+001
2.908259e+002, 8.965266e+001
2.913080e+002, 8.907951e+001
2.917901e+002, 8.870940e+001
2.922722e+002, 8.830592e+001
2.927543e+002, 8.773991e+001
2.932365e+002, 8.711947e+001
2.937186e+002, 8.672171e+001
2.942007e+002, 8.655235e+001
2.946828e+002, 8.646638e+001
2.951649e+002, 8.631433e+001
2.956470e+002, 8.613817e+001
2.961292e+002, 8.607665e+001
2.966113e+002, 8.619167e+001
2.970934e+002, 8.641182e+001
2.975755e+002, 8.674262e+001
2.980576e+002, 8.715552e+001
2.985397e+002, 8.733962e+001
2.990219e+002, 8.678239e+001
2.995040e+002, 8.585082e+001
2.999861e+002, 8.543344e+001
3.004682e+002, 8.592221e+001
3.009503e+002, 8.652483e+001
3.014324e+002, 8.611528e+001
3.019146e+002, 8.491835e+001
3.023967e+002, 8.385791e+001
3.028788e+002, 8.365039e+001
3.033609e+002, 8.389592e+001
3.038430e+002, 8.404990e+001
3.043251e+002, 8.404404e+001
3.048073e+002, 8.392088e+001
3.052894e+002, 8.368251e+001
3.057715e+002, 8.335350e+001
3.062536e+002, 8.298740e+001
3.067357e+002, 8.254967e+001
3.072178e+002, 8.212106e+001
3.077000e+002, 8.180432e+001
3.081821e+002, 8.161476e+001
3.086642e+002, 8.145012e+001
3.091463e+002, 8.121615e+001
3.096284e+002, 8.096036e+001
3.101105e+002, 8.075428e+001
3.105927e+002, 8.063515e+001
3.110748e+002, 8.057406e+001
3.115569e+002, 8.055830e+001
3.120390e+002, 8.058753e+001
3.125211e+002, 8.064220e+001
3.130032e+002, 8.066434e+001
3.134854e+002, 8.072483e+001
3.139675e+002, 8.089905e+001
3.144496e+002, 8.132980e+001
3.149317e+002, 8.177452e+001
3.154138e+002, 8.211190e+001
3.158959e+002, 8.235805e+001
3.163781e+002, 8.261869e+001
3.168602e+002, 8.297618e+001
3.173423e+002, 8.334322e+001
3.178244e+002, 8.364351e+001
3.183065e+002, 8.373106e+001
3.187886e+002, 8.393485e+001
3.192708e+002, 8.440823e+001
3.197529e+002, 8.508556e+001
3.202350e+002, 8.578526e+001
3.207171e+002, 8.650760e+001
3.211992e+002, 8.718925e+001
3.216813e+002, 8.779771e+001
3.221635e+002, 8.832384e+001
3.226456e+002, 8.878443e+001
3.231277e+002, 8.914159e+001
3.236098e+002, 8.943985e+001
3.240919e+002, 8.975565e+001
3.245740e+002, 9.018301e+001
3.250562e+002, 9.054922e+001
3.255383e+002, 9.078127e+001
3.260204e+002, 9.083695e+001
3.265025e+002, 9.091968e+001
3.269846e+002, 9.112492e+001
3.274667e+002, 9.133073e+001
3.279489e+002, 9.140971e+001
3.284310e+002, 9.125468e+001
3.289131e+002, 9.109440e+001
3.293952e+002, 9.094250e+001
3.298773e+002, 9.079808e+001
3.303594e+002, 9.073235e+001
3.308416e+002, 9.076497e+001
3.313237e+002, 9.086069e+001
3.318058e+002, 9.099421e+001
3.322879e+002, 9.115553e+001
3.327700e+002, 9.136803e+001
3.332521e+002, 9.160123e+001
3.337343e+002, 9.188235e+001
3.342164e+002, 9.235920e+001
3.346985e+002, 9.309374e+001
3.351806e+002, 9.391622e+001
3.356627e+002, 9.470786e+001
3.361448e+002, 9.535780e+001
3.366270e+002, 9.629903e+001
3.371091e+002, 9.756799e+001
3.375912e+002, 9.910194e+001
3.380733e+002, 1.008520e+002
3.385554e+002, 1.028796e+002
3.390375e+002, 1.048663e+002
3.395197e+002, 1.066060e+002
3.400018e+002, 1.080512e+002
3.404839e+002, 1.099120e+002
3.409660e+002, 1.122359e+002
3.414481e+002, 1.147948e+002
3.419302e+002, 1.172270e+002
3.424124e+002, 1.195359e+002
3.428945e+002, 1.219424e+002
3.433766e+002, 1.245331e+002
3.438587e+002, 1.272769e+002
3.443408e+002, 1.301064e+002
3.448229e+002, 1.329823e+002
3.453051e+002, 1.361237e+002
3.457872e+002, 1.397957e+002
3.462693e+002, 1.439281e+002
3.467514e+002, 1.481697e+002
3.472335e+002, 1.523193e+002
3.477156e+002, 1.566534e+002
3.481978e+002, 1.616073e+002
3.486799e+002, 1.671700e+002
3.491620e+002, 1.731945e+002
3.496441e+002, 1.798019e+002
3.501262e+002, 1.867881e+002
3.506083e+002, 1.936497e+002
3.510905e+002, 2.003864e+002
3.515726e+002, 2.070319e+002
3.520547e+002, 2.138282e+002
3.525368e+002, 2.206277e+002
3.530189e+002, 2.269813e+002
3.535010e+002, 2.333487e+002
3.539832e+002, 2.388228e+002
3.544653e+002, 2.424179e+002
3.549474e+002, 2.441261e+002
3.554295e+002, 2.438550e+002
3.559116e+002, 2.411051e+002
3.563937e+002, 2.364063e+002
3.568759e+002, 2.306141e+002
3.573580e+002, 2.239108e+002
3.578401e+002, 2.162809e+002
3.583222e+002, 2.072834e+002
3.588043e+002, 1.970749e+002
3.592864e+002, 1.870815e+002
3.597686e+002, 1.778594e+002
3.602507e+002, 1.692279e+002
3.607328e+002, 1.611298e+002
3.612149e+002, 1.534361e+002
3.616970e+002, 1.463370e+002
3.621791e+002, 1.399841e+002
3.626613e+002, 1.342829e+002
3.631434e+002, 1.290169e+002
3.636255e+002, 1.239816e+002
3.641076e+002, 1.194739e+002
3.645897e+002, 1.157068e+002
3.650718e+002, 1.129866e+002
3.655540e+002, 1.102863e+002
3.660361e+002, 1.072533e+002
3.665182e+002, 1.042093e+002
3.670003e+002, 1.015404e+002
3.674824e+002, 9.949112e+001
3.679645e+002, 9.761575e+001
3.684467e+002, 9.580898e+001
3.689288e+002, 9.409584e+001
3.694109e+002, 9.255566e+001
3.698930e+002, 9.122258e+001
3.703751e+002, 9.003871e+001
3.708572e+002, 8.897701e+001
3.713394e+002, 8.818875e+001
3.718215e+002, 8.727926e+001
3.723036e+002, 8.612004e+001
3.727857e+002, 8.482191e+001
3.732678e+002, 8.377204e+001
3.737499e+002, 8.302762e+001
3.742321e+002, 8.241138e+001
3.747142e+002, 8.188872e+001
3.751963e+002, 8.151641e+001
3.756784e+002, 8.094590e+001
3.761605e+002, 8.008443e+001
3.766426e+002, 7.914509e+001
3.771248e+002, 7.849870e+001
3.776069e+002, 7.817457e+001
3.780890e+002, 7.791722e+001
3.785711e+002, 7.764523e+001
3.790532e+002, 7.736813e+001
3.795353e+002, 7.719315e+001
3.800175e+002, 7.713660e+001
3.804996e+002, 7.709341e+001
3.809817e+002, 7.694151e+001
3.814638e+002, 7.669845e+001
3.819459e+002, 7.650713e+001
3.824280e+002, 7.640970e+001
3.829102e+002, 7.636361e+001
3.833923e+002, 7.633853e+001
3.838744e+002, 7.632189e+001
3.843565e+002, 7.619201e+001
3.848386e+002, 7.575578e+001
3.853207e+002, 7.516829e+001
3.858029e+002, 7.478616e+001
3.862850e+002, 7.466739e+001
3.867671e+002, 7.460951e+001
3.872492e+002, 7.442345e+001
3.877313e+002, 7.413824e+001
3.882134e+002, 7.382292e+001
3.886956e+002, 7.352544e+001
3.891777e+002, 7.320698e+001
3.896598e+002, 7.282251e+001
3.901419e+002, 7.237590e+001
3.906240e+002, 7.190995e+001
3.911061e+002, 7.144824e+001
3.915883e+002, 7.097858e+001
3.920704e+002, 7.047984e+001
3.925525e+002, 6.988225e+001
3.930346e+002, 6.934608e+001
3.935167e+002, 6.904830e+001
3.939988e+002, 6.887708e+001
3.944810e+002, 6.851504e+001
3.949631e+002, 6.763243e+001
3.954452e+002, 6.670199e+001
3.959273e+002, 6.595419e+001
3.964094e+002, 6.544014e+001
3.968915e+002, 6.502921e+001
3.973737e+002, 6.474386e+001
3.978558e+002, 6.453275e+001
3.983379e+002, 6.433269e+001
3.988200e+002, 6.405199e+001
3.993021e+002, 6.387170e+001
3.997842e+002, 6.383897e+001
4.002664e+002, 6.395262e+001
4.007485e+002, 6.411503e+001
4.012306e+002, 6.440138e+001
4.017127e+002, 6.465963e+001
4.021948e+002, 6.476647e+001
4.026769e+002, 6.455605e+001
4.031591e+002, 6.455933e+001
4.036412e+002, 6.485741e+001
4.041233e+002, 6.536256e+001
4.046054e+002, 6.589633e+001
4.050875e+002, 6.649325e+001
4.055696e+002, 6.700043e+001
4.060518e+002, 6.731165e+001
4.065339e+002, 6.741869e+001
4.070160e+002, 6.766225e+001
4.074981e+002, 6.806883e+001
4.079802e+002, 6.853336e+001
4.084623e+002, 6.889462e+001
4.089445e+002, 6.915971e+001
4.094266e+002, 6.956630e+001
4.099087e+002, 7.020010e+001
4.103908e+002, 7.099421e+001
4.108729e+002, 7.180195e+001
4.113550e+002, 7.262759e+001
4.118372e+002, 7.346536e+001
4.123193e+002, 7.432866e+001
4.128014e+002, 7.520812e+001
4.132835e+002, 7.607565e+001
4.137656e+002, 7.692117e+001
4.142477e+002, 7.780280e+001
4.147299e+002, 7.880180e+001
4.152120e+002, 7.988381e+001
4.156941e+002, 8.093886e+001
4.161762e+002, 8.186707e+001
4.166583e+002, 8.278820e+001
4.171404e+002, 8.384323e+001
4.176226e+002, 8.503493e+001
4.181047e+002, 8.617370e+001
4.185868e+002, 8.699972e+001
4.190689e+002, 8.779733e+001
4.195510e+002, 8.886761e+001
4.200331e+002, 9.050540e+001
4.205153e+002, 9.212701e+001
4.209974e+002, 9.346120e+001
4.214795e+002, 9.460018e+001
4.219616e+002, 9.572205e+001
4.224437e+002, 9.676414e+001
4.229258e+002, 9.790898e+001
4.234080e+002, 9.931290e+001
4.238901e+002, 1.011648e+002
4.243722e+002, 1.026753e+002
4.248543e+002, 1.035919e+002
4.253364e+002, 1.042353e+002
4.258185e+002, 1.049164e+002
4.263007e+002, 1.058009e+002
4.267828e+002, 1.064903e+002
4.272649e+002, 1.068693e+002
4.277470e+002, 1.069862e+002
4.282291e+002, 1.071979e+002
4.287112e+002, 1.076413e+002
4.291934e+002, 1.079348e+002
4.296755e+002, 1.078227e+002
4.301576e+002, 1.072097e+002
4.306397e+002, 1.066630e+002
4.311218e+002, 1.061983e+002
4.316039e+002, 1.058027e+002
4.320861e+002, 1.054331e+002
4.325682e+002, 1.050844e+002
4.330503e+002, 1.048539e+002
4.335324e+002, 1.047576e+002
4.340145e+002, 1.048066e+002
4.344966e+002, 1.050382e+002
4.349788e+002, 1.054533e+002
4.354609e+002, 1.060458e+002
4.359430e+002, 1.067898e+002
4.364251e+002, 1.077163e+002
4.369072e+002, 1.089317e+002
4.373893e+002, 1.105246e+002
4.378715e+002, 1.122519e+002
4.383536e+002, 1.139193e+002
4.388357e+002, 1.155071e+002
4.393178e+002, 1.169600e+002
4.397999e+002, 1.183869e+002
4.402820e+002, 1.195818e+002
4.407642e+002, 1.203341e+002
4.412463e+002, 1.206377e+002
4.417284e+002, 1.206211e+002
4.422105e+002, 1.205847e+002
4.426926e+002, 1.201588e+002
4.431747e+002, 1.189798e+002
4.436569e+002, 1.166358e+002
4.441390e+002, 1.138907e+002
4.446211e+002, 1.107209e+002
4.451032e+002, 1.072929e+002
4.455853e+002, 1.041910e+002
4.460674e+002, 1.016578e+002
4.465496e+002, 9.932266e+001
4.470317e+002, 9.704149e+001
4.475138e+002, 9.475127e+001
4.479959e+002, 9.269051e+001
4.484780e+002, 9.080659e+001
4.489601e+002, 8.917872e+001
4.494423e+002, 8.786022e+001
4.499244e+002, 8.688934e+001
4.504065e+002, 8.618554e+001
4.508886e+002, 8.578345e+001
4.513707e+002, 8.563912e+001
4.518528e+002, 8.555919e+001
4.523350e+002, 8.554554e+001
4.528171e+002, 8.558831e+001
4.532992e+002, 8.571905e+001
4.537813e+002, 8.593936e+001
4.542634e+002, 8.601318e+001
4.547455e+002, 8.589050e+001
4.552277e+002, 8.576183e+001
4.557098e+002, 8.596040e+001
4.561919e+002, 8.642156e+001
4.566740e+002, 8.671255e+001
4.571561e+002, 8.662285e+001
4.576382e+002, 8.633350e+001
4.581204e+002, 8.621587e+001
4.586025e+002, 8.622804e+001
4.590846e+002, 8.607261e+001
4.595667e+002, 8.546865e+001
4.600488e+002, 8.460799e+001
4.605309e+002, 8.377836e+001
4.610131e+002, 8.307448e+001
4.614952e+002, 8.216521e+001
4.619773e+002, 8.065273e+001
4.624594e+002, 7.883813e+001
4.629415e+002, 7.713961e+001
4.634236e+002, 7.583611e+001
4.639058e+002, 7.459209e+001
4.643879e+002, 7.318503e+001
4.648700e+002, 7.166303e+001
4.653521e+002, 7.033118e+001
4.658342e+002, 6.933450e+001
4.663163e+002, 6.848302e+001
4.667985e+002, 6.767473e+001
4.672806e+002, 6.691879e+001
4.677627e+002, 6.617724e+001
4.682448e+002, 6.545489e+001
4.687269e+002, 6.475056e+001
4.692090e+002, 6.404176e+001
4.696912e+002, 6.324485e+001
4.701733e+002, 6.259320e+001
4.706554e+002, 6.221134e+001
4.711375e+002, 6.205270e+001
4.716196e+002, 6.161372e+001
4.721017e+002, 6.077884e+001
4.725839e+002, 5.998581e+001
4.730660e+002, 5.960991e+001
4.735481e+002, 5.965886e+001
4.740302e+002, 5.941204e+001
4.745123e+002, 5.874660e+001
4.749944e+002, 5.795899e+001
4.754766e+002, 5.750681e+001
4.759587e+002, 5.734510e+001
4.764408e+002, 5.717895e+001
4.769229e+002, 5.682912e+001
4.774050e+002, 5.644462e+001
4.778871e+002, 5.634627e+001
4.783693e+002, 5.649895e+001
4.788514e+002, 5.657958e+001
4.793335e+002, 5.622765e+001
4.798156e+002, 5.573084e+001
4.802977e+002, 5.544349e+001
4.807798e+002, 5.546405e+001
4.812620e+002, 5.557154e+001
4.817441e+002, 5.568530e+001
4.822262e+002, 5.579338e+001
4.827083e+002, 5.587837e+001
4.831904e+002, 5.588757e+001
4.836725e+002, 5.591658e+001
4.841547e+002, 5.607162e+001
4.846368e+002, 5.632948e+001
4.851189e+002, 5.638826e+001
4.856010e+002, 5.591600e+001
4.860831e+002, 5.546079e+001
4.865652e+002, 5.530735e+001
4.870474e+002, 5.560968e+001
4.875295e+002, 5.588251e+001
4.880116e+002, 5.610623e+001
4.884937e+002, 5.631166e+001
4.889758e+002, 5.655785e+001
4.894579e+002, 5.688211e+001
4.899401e+002, 5.713374e+001
4.904222e+002, 5.727195e+001
4.909043e+002, 5.731129e+001
4.913864e+002, 5.727596e+001
4.918685e+002, 5.713926e+001
4.923506e+002, 5.711612e+001
4.928328e+002, 5.741058e+001
4.933149e+002, 5.795675e+001
4.937970e+002, 5.847271e+001
4.942791e+002, 5.894221e+001
4.947612e+002, 5.936422e+001
4.952433e+002, 5.975926e+001
4.957255e+002, 6.011225e+001
4.962076e+002, 6.038068e+001
4.966897e+002, 6.042944e+001
4.971718e+002, 6.050509e+001
4.976539e+002, 6.088793e+001
4.981360e+002, 6.151277e+001
4.986182e+002, 6.213740e+001
4.991003e+002, 6.270741e+001
4.995824e+002, 6.317892e+001
5.000645e+002, 6.347701e+001
5.005466e+002, 6.355642e+001
5.010287e+002, 6.366316e+001
5.015109e+002, 6.384711e+001
5.019930e+002, 6.410222e+001
5.024751e+002, 6.442067e+001
5.029572e+002, 6.488689e+001
5.034393e+002, 6.531169e+001
5.039214e+002, 6.562047e+001
5.044036e+002, 6.586543e+001
5.048857e+002, 6.625268e+001
5.053678e+002, 6.688335e+001
5.058499e+002, 6.748636e+001
5.063320e+002, 6.791024e+001
5.068141e+002, 6.812934e+001
5.072963e+002, 6.858643e+001
5.077784e+002, 6.935058e+001
5.082605e+002, 7.018656e+001
5.087426e+002, 7.080625e+001
5.092247e+002, 7.123484e+001
5.097068e+002, 7.189046e+001
5.101890e+002, 7.291776e+001
5.106711e+002, 7.407516e+001
5.111532e+002, 7.492290e+001
5.116353e+002, 7.551604e+001
5.121174e+002, 7.609935e+001
5.125995e+002, 7.676653e+001
5.130817e+002, 7.751807e+001
5.135638e+002, 7.831702e+001
5.140459e+002, 7.917003e+001
5.145280e+002, 8.021074e+001
5.150101e+002, 8.169937e+001
5.154922e+002, 8.333114e+001
5.159744e+002, 8.476679e+001
5.164565e+002, 8.572666e+001
5.169386e+002, 8.692509e+001
5.174207e+002, 8.867936e+001
5.179028e+002, 9.080416e+001
5.183849e+002, 9.299532e+001
5.188671e+002, 9.515720e+001
5.193492e+002, 9.743605e+001
5.198313e+002, 9.990565e+001
5.203134e+002, 1.025355e+002
5.207955e+002, 1.051565e+002
5.212776e+002, 1.074678e+002
5.217598e+002, 1.102264e+002
5.222419e+002, 1.139665e+002
5.227240e+002, 1.189508e+002
5.232061e+002, 1.235268e+002
5.236882e+002, 1.275196e+002
5.241703e+002, 1.314641e+002
5.246525e+002, 1.361022e+002
5.251346e+002, 1.414182e+002
5.256167e+002, 1.468736e+002
5.260988e+002, 1.521773e+002
5.265809e+002, 1.576263e+002
5.270630e+002, 1.637997e+002
5.275452e+002, 1.706110e+002
5.280273e+002, 1.776625e+002
5.285094e+002, 1.846875e+002
5.289915e+002, 1.918889e+002
5.294736e+002, 1.995480e+002
5.299557e+002, 2.077154e+002
5.304379e+002, 2.163784e+002
5.309200e+002, 2.256468e+002
5.314021e+002, 2.354574e+002
5.318842e+002, 2.457834e+002
5.323663e+002, 2.565934e+002
5.328484e+002, 2.679243e+002
5.333306e+002, 2.796317e+002
5.338127e+002, 2.918524e+002
5.342948e+002, 3.045842e+002
5.347769e+002, 3.184082e+002
5.352590e+002, 3.322686e+002
5.357411e+002, 3.459157e+002
5.362233e+002, 3.593055e+002
5.367054e+002, 3.730599e+002
5.371875e+002, 3.875168e+002
5.376696e+002, 4.014757e+002
5.381517e+002, 4.144757e+002
5.386339e+002, 4.264509e+002
5.391160e+002, 4.370968e+002
5.395981e+002, 4.464753e+002
5.400802e+002, 4.541371e+002
5.405623e+002, 4.598382e+002
5.410444e+002, 4.635192e+002
5.415266e+002, 4.650446e+002
5.420087e+002, 4.643873e+002
5.424908e+002, 4.615375e+002
5.429729e+002, 4.561923e+002
5.434550e+002, 4.485741e+002
5.439371e+002, 4.394352e+002
5.444193e+002, 4.286785e+002
5.449014e+002, 4.168229e+002
5.453835e+002, 4.040711e+002
5.458656e+002, 3.904085e+002
5.463477e+002, 3.766011e+002
5.468298e+002, 3.626582e+002
5.473120e+002, 3.486736e+002
5.477941e+002, 3.348286e+002
5.482762e+002, 3.207015e+002
5.487583e+002, 3.071826e+002
5.492404e+002, 2.944857e+002
5.497225e+002, 2.823749e+002
5.502047e+002, 2.704159e+002
5.506868e+002, 2.583552e+002
5.511689e+002, 2.469063e+002
5.516510e+002, 2.364163e+002
5.521331e+002, 2.267568e+002
5.526152e+002, 2.174287e+002
5.530974e+002, 2.084608e+002
5.535795e+002, 1.996990e+002
5.540616e+002, 1.909727e+002
5.545437e+002, 1.823424e+002
5.550258e+002, 1.741137e+002
5.555079e+002, 1.662597e+002
5.559901e+002, 1.589311e+002
5.564722e+002, 1.523427e+002
5.569543e+002, 1.462985e+002
5.574364e+002, 1.403677e+002
5.579185e+002, 1.342712e+002
5.584006e+002, 1.284846e+002
5.588828e+002, 1.233352e+002
5.593649e+002, 1.187495e+002
5.598470e+002, 1.144381e+002
5.603291e+002, 1.101758e+002
5.608112e+002, 1.062697e+002
5.612933e+002, 1.029431e+002
5.617755e+002, 1.002045e+002
5.622576e+002, 9.739028e+001
5.627397e+002, 9.423995e+001
5.632218e+002, 9.116647e+001
5.637039e+002, 8.834792e+001
5.641860e+002, 8.579340e+001
5.646682e+002, 8.345861e+001
5.651503e+002, 8.132879e+001
5.656324e+002, 7.940974e+001
5.661145e+002, 7.783120e+001
5.665966e+002, 7.663863e+001
5.670787e+002, 7.522158e+001
5.675609e+002, 7.339258e+001
5.680430e+002, 7.133973e+001
5.685251e+002, 6.946190e+001
5.690072e+002, 6.774208e+001
5.694893e+002, 6.617911e+001
5.699714e+002, 6.482970e+001
5.704536e+002, 6.358931e+001
5.709357e+002, 6.226616e+001
5.714178e+002, 6.087300e+001
5.718999e+002, 5.957716e+001
5.723820e+002, 5.857106e+001
5.728641e+002, 5.767549e+001
5.733463e+002, 5.674373e+001
5.738284e+002, 5.570931e+001
5.743105e+002, 5.471667e+001
5.747926e+002, 5.376357e+001
5.752747e+002, 5.289054e+001
5.757568e+002, 5.215487e+001
5.762390e+002, 5.162986e+001
5.767211e+002, 5.114152e+001
5.772032e+002, 5.072034e+001
5.776853e+002, 5.031585e+001
5.781674e+002, 4.972728e+001
5.786495e+002, 4.885121e+001
5.791317e+002, 4.809777e+001
5.796138e+002, 4.767449e+001
5.800959e+002, 4.754003e+001
5.805780e+002, 4.737059e+001
5.810601e+002, 4.716678e+001
5.815422e+002, 4.690740e+001
5.820244e+002, 4.650367e+001
5.825065e+002, 4.603426e+001
5.829886e+002, 4.570535e+001
5.834707e+002, 4.554714e+001
5.839528e+002, 4.548546e+001
5.844349e+002, 4.551792e+001
5.849171e+002, 4.558675e+001
5.853992e+002, 4.560583e+001
5.858813e+002, 4.551351e+001
5.863634e+002, 4.539881e+001
5.868455e+002, 4.528242e+001
5.873276e+002, 4.516977e+001
5.878098e+002, 4.508126e+001
5.882919e+002, 4.503334e+001
5.887740e+002, 4.499651e+001
5.892561e+002, 4.495284e+001
5.897382e+002, 4.490116e+001
5.902203e+002, 4.492543e+001
5.907025e+002, 4.512395e+001
5.911846e+002, 4.522185e+001
5.916667e+002, 4.494917e+001
5.921488e+002, 4.425906e+001
5.926309e+002, 4.390382e+001
5.931130e+002, 4.395465e+001
5.935952e+002, 4.416241e+001
5.940773e+002, 4.425690e+001
5.945594e+002, 4.425703e+001
5.950415e+002, 4.422361e+001
5.955236e+002, 4.414505e+001
5.960057e+002, 4.409282e+001
5.964879e+002, 4.417152e+001
5.969700e+002, 4.433924e+001
5.974521e+002, 4.449712e+001
5.979342e+002, 4.463408e+001
5.984163e+002, 4.471802e+001
5.988984e+002, 4.470964e+001
5.993806e+002, 4.461891e+001
5.998627e+002, 4.453651e+001
6.003448e+002, 4.440750e+001
6.008269e+002, 4.435804e+001
6.013090e+002, 4.448589e+001
6.017911e+002, 4.489116e+001
6.022733e+002, 4.505113e+001
6.027554e+002, 4.482487e+001
6.032375e+002, 4.455138e+001
6.037196e+002, 4.457951e+001
6.042017e+002, 4.494484e+001
6.046838e+002, 4.525318e+001
6.051660e+002, 4.546128e+001
6.056481e+002, 4.559483e+001
6.061302e+002, 4.569362e+001
6.066123e+002, 4.575317e+001
6.070944e+002, 4.574784e+001
6.075765e+002, 4.562240e+001
6.080587e+002, 4.547340e+001
6.085408e+002, 4.544536e+001
6.090229e+002, 4.549755e+001
6.095050e+002, 4.548343e+001
6.099871e+002, 4.522284e+001
6.104692e+002, 4.495629e+001
6.109514e+002, 4.484069e+001
6.114335e+002, 4.489262e+001
6.119156e+002, 4.494840e+001
6.123977e+002, 4.489574e+001
6.128798e+002, 4.489974e+001
6.133619e+002, 4.507467e+001
6.138441e+002, 4.556867e+001
6.143262e+002, 4.587576e+001
6.148083e+002, 4.594993e+001
6.152904e+002, 4.590462e+001
6.157725e+002, 4.586496e+001
6.162546e+002, 4.583089e+001
6.167368e+002, 4.581871e+001
6.172189e+002, 4.585044e+001
6.177010e+002, 4.587305e+001
6.181831e+002, 4.570745e+001
6.186652e+002, 4.542356e+001
6.191473e+002, 4.530560e+001
6.196295e+002, 4.568624e+001
6.201116e+002, 4.616877e+001
6.205937e+002, 4.628059e+001
6.210758e+002, 4.610202e+001
6.215579e+002, 4.604268e+001
6.220400e+002, 4.644225e+001
6.225222e+002, 4.691004e+001
6.230043e+002, 4.723975e+001
6.234864e+002, 4.740611e+001
6.239685e+002, 4.746273e+001
6.244506e+002, 4.735323e+001
6.249327e+002, 4.718894e+001
6.254149e+002, 4.701921e+001
6.258970e+002, 4.678822e+001
6.263791e+002, 4.674693e+001
6.268612e+002, 4.696598e+001
6.273433e+002, 4.727129e+001
6.278254e+002, 4.737758e+001
6.283076e+002, 4.729897e+001
6.287897e+002, 4.735294e+001
6.292718e+002, 4.765800e+001
6.297539e+002, 4.807019e+001
6.302360e+002, 4.836968e+001
6.307181e+002, 4.858231e+001
6.312003e+002, 4.878507e+001
6.316824e+002, 4.905586e+001
6.321645e+002, 4.930202e+001
6.326466e+002, 4.941702e+001
6.331287e+002, 4.942452e+001
6.336108e+002, 4.947539e+001
6.340930e+002, 4.956319e+001
6.345751e+002, 4.975773e+001
6.350572e+002, 5.015061e+001
6.355393e+002, 5.082414e+001
6.360214e+002, 5.127218e+001
6.365035e+002, 5.138871e+001
6.369857e+002, 5.140905e+001
6.374678e+002, 5.148624e+001
6.379499e+002, 5.161294e+001
6.384320e+002, 5.185097e+001
6.389141e+002, 5.221410e+001
6.393962e+002, 5.265296e+001
6.398784e+002, 5.316636e+001
6.403605e+002, 5.371237e+001
6.408426e+002, 5.409570e+001
6.413247e+002, 5.414359e+001
6.418068e+002, 5.421906e+001
6.422889e+002, 5.479817e+001
6.427711e+002, 5.570742e+001
6.432532e+002, 5.656759e+001
6.437353e+002, 5.711062e+001
6.442174e+002, 5.765086e+001
6.446995e+002, 5.843206e+001
6.451816e+002, 5.938893e+001
6.456638e+002, 6.008789e+001
6.461459e+002, 6.008889e+001
6.466280e+002, 6.020457e+001
6.471101e+002, 6.073076e+001
6.475922e+002, 6.168446e+001
6.480743e+002, 6.268154e+001
6.485565e+002, 6.374477e+001
6.490386e+002, 6.477279e+001
6.495207e+002, 6.555978e+001
6.500028e+002, 6.616222e+001
6.504849e+002, 6.714899e+001
6.509670e+002, 6.858617e+001
6.514492e+002, 7.016169e+001
6.519313e+002, 7.161269e+001
6.524134e+002, 7.294061e+001
6.528955e+002, 7.407553e+001
6.533776e+002, 7.486662e+001
6.538597e+002, 7.581714e+001
6.543419e+002, 7.737518e+001
6.548240e+002, 7.927224e+001
6.553061e+002, 8.107189e+001
6.557882e+002, 8.251257e+001
6.562703e+002, 8.401487e+001
6.567524e+002, 8.562931e+001
6.572346e+002, 8.737462e+001
6.577167e+002, 8.933656e+001
6.581988e+002, 9.159590e+001
6.586809e+002, 9.388966e+001
6.591630e+002, 9.610622e+001
6.596451e+002, 9.828188e+001
6.601273e+002, 1.006231e+002
6.606094e+002, 1.031625e+002
6.610915e+002, 1.057971e+002
6.615736e+002, 1.084697e+002
6.620557e+002, 1.112165e+002
6.625378e+002, 1.140620e+002
6.630200e+002, 1.170083e+002
6.635021e+002, 1.202194e+002
6.639842e+002, 1.239748e+002
6.644663e+002, 1.279712e+002
6.649484e+002, 1.318511e+002
6.654305e+002, 1.354663e+002
6.659127e+002, 1.392967e+002
6.663948e+002, 1.434918e+002
6.668769e+002, 1.479464e+002
6.673590e+002, 1.525788e+002
6.678411e+002, 1.574433e+002
6.683232e+002, 1.622903e+002
6.688054e+002, 1.670488e+002
6.692875e+002, 1.717751e+002
6.697696e+002, 1.765187e+002
6.702517e+002, 1.812787e+002
6.707338e+002, 1.861095e+002
6.712159e+002, 1.909720e+002
6.716981e+002, 1.959014e+002
6.721802e+002, 2.010082e+002
6.726623e+002, 2.061999e+002
6.731444e+002, 2.113372e+002
6.736265e+002, 2.162764e+002
6.741086e+002, 2.211121e+002
6.745908e+002, 2.260945e+002
6.750729e+002, 2.310867e+002
6.755550e+002, 2.354938e+002
6.760371e+002, 2.387328e+002
6.765192e+002, 2.416940e+002
6.770013e+002, 2.448958e+002
6.774835e+002, 2.484239e+002
6.779656e+002, 2.514913e+002
6.784477e+002, 2.541577e+002
6.789298e+002, 2.563051e+002
6.794119e+002, 2.577865e+002
6.798940e+002, 2.586128e+002
6.803762e+002, 2.591298e+002
6.808583e+002, 2.593917e+002
6.813404e+002, 2.591155e+002
6.818225e+002, 2.578495e+002
6.823046e+002, 2.558564e+002
6.827867e+002, 2.536976e+002
6.832689e+002, 2.515963e+002
6.837510e+002, 2.490182e+002
6.842331e+002, 2.452984e+002
6.847152e+002, 2.410135e+002
6.851973e+002, 2.369839e+002
6.856794e+002, 2.340643e+002
6.861616e+002, 2.305941e+002
6.866437e+002, 2.259370e+002
6.871258e+002, 2.206174e+002
6.876079e+002, 2.156059e+002
6.880900e+002, 2.110755e+002
6.885721e+002, 2.065766e+002
6.890543e+002, 2.021106e+002
6.895364e+002, 1.975993e+002
6.900185e+002, 1.925925e+002
6.905006e+002, 1.871295e+002
6.909827e+002, 1.818278e+002
6.914648e+002, 1.768350e+002
6.919470e+002, 1.722351e+002
6.924291e+002, 1.683001e+002
6.929112e+002, 1.648835e+002
6.933933e+002, 1.611869e+002
6.938754e+002, 1.562587e+002
6.943575e+002, 1.512590e+002
6.948397e+002, 1.469552e+002
6.953218e+002, 1.434364e+002
6.958039e+002, 1.400446e+002
6.962860e+002, 1.366237e+002
6.967681e+002, 1.333451e+002
6.972502e+002, 1.302895e+002
6.977324e+002, 1.275268e+002
6.982145e+002, 1.246952e+002
6.986966e+002, 1.217406e+002
6.991787e+002, 1.188701e+002
6.996608e+002, 1.163001e+002
7.001429e+002, 1.140089e+002
7.006251e+002, 1.117809e+002
7.011072e+002, 1.095869e+002
7.015893e+002, 1.074615e+002
7.020714e+002, 1.053591e+002
7.025535e+002, 1.033705e+002
7.030356e+002, 1.016463e+002
7.035178e+002, 1.004178e+002
7.039999e+002, 9.916169e+001
7.044820e+002, 9.763296e+001
7.049641e+002, 9.597239e+001
7.054462e+002, 9.436450e+001
7.059283e+002, 9.264808e+001
7.064105e+002, 9.126835e+001
7.068926e+002, 9.038083e+001
7.073747e+002, 8.980294e+001
7.078568e+002, 8.913557e+001
7.083389e+002, 8.838093e+001
7.088210e+002, 8.746624e+001
7.093032e+002, 8.628344e+001
7.097853e+002, 8.500198e+001
7.102674e+002, 8.402975e+001
7.107495e+002, 8.329057e+001
7.112316e+002, 8.250070e+001
7.117137e+002, 8.129457e+001
7.121959e+002, 8.015312e+001
7.126780e+002, 7.947456e+001
7.131601e+002, 7.921446e+001
7.136422e+002, 7.900223e+001
7.141243e+002, 7.887781e+001
7.146064e+002, 7.863223e+001
7.150886e+002, 7.815784e+001
7.155707e+002, 7.744367e+001
7.160528e+002, 7.676563e+001
7.165349e+002, 7.611535e+001
7.170170e+002, 7.550951e+001
7.174991e+002, 7.492688e+001
7.179813e+002, 7.438471e+001
7.184634e+002, 7.401687e+001
7.189455e+002, 7.383591e+001
7.194276e+002, 7.366462e+001
7.199097e+002, 7.329092e+001
7.203918e+002, 7.285954e+001
7.208740e+002, 7.260439e+001
7.213561e+002, 7.259343e+001
7.218382e+002, 7.252502e+001
7.223203e+002, 7.226229e+001
7.228024e+002, 7.187219e+001
7.232845e+002, 7.139469e+001
7.237667e+002, 7.058938e+001
7.242488e+002, 7.015431e+001
7.247309e+002, 7.029988e+001
7.252130e+002, 7.058620e+001
7.256951e+002, 7.047131e+001
7.261772e+002, 6.992760e+001
7.266594e+002, 6.939724e+001
7.271415e+002, 6.892653e+001
7.276236e+002, 6.857222e+001
7.281057e+002, 6.852143e+001
7.285878e+002, 6.865089e+001
7.290699e+002, 6.862574e+001
7.295521e+002, 6.822817e+001
7.300342e+002, 6.781867e+001
7.305163e+002, 6.771204e+001
7.309984e+002, 6.774926e+001
7.314805e+002, 6.764668e+001
7.319626e+002, 6.718217e+001
7.324448e+002, 6.675172e+001
7.329269e+002, 6.639088e+001
7.334090e+002, 6.611726e+001
7.338911e+002, 6.602512e+001
7.343732e+002, 6.617918e+001
7.348553e+002, 6.625565e+001
7.353375e+002, 6.616021e+001
7.358196e+002, 6.591515e+001
7.363017e+002, 6.549184e+001
7.367838e+002, 6.493206e+001
7.372659e+002, 6.449084e+001
7.377480e+002, 6.437465e+001
7.382302e+002, 6.439098e+001
7.387123e+002, 6.440058e+001
7.391944e+002, 6.439235e+001
7.396765e+002, 6.433070e+001
7.401586e+002, 6.409093e+001
7.406407e+002, 6.390020e+001
7.411229e+002, 6.392909e+001
7.416050e+002, 6.416033e+001
7.420871e+002, 6.413586e+001
7.425692e+002, 6.371416e+001
7.430513e+002, 6.337008e+001
7.435334e+002, 6.338437e+001
7.440156e+002, 6.371489e+001
7.444977e+002, 6.406681e+001
7.449798e+002, 6.444212e+001
7.454619e+002, 6.464478e+001
7.459440e+002, 6.440768e+001
7.464261e+002, 6.396798e+001
7.469083e+002, 6.360926e+001
7.473904e+002, 6.335775e+001
7.478725e+002, 6.312386e+001
7.483546e+002, 6.274570e+001
7.488367e+002, 6.246040e+001
7.493188e+002, 6.248636e+001
7.498010e+002, 6.298344e+001
7.502831e+002, 6.322233e+001
7.507652e+002, 6.311056e+001
7.512473e+002, 6.288060e+001
7.517294e+002, 6.268625e+001
7.522115e+002, 6.252945e+001
7.526937e+002, 6.246749e+001
7.531758e+002, 6.251918e+001
7.536579e+002, 6.256273e+001
7.541400e+002, 6.247306e+001
7.546221e+002, 6.229245e+001
7.551042e+002, 6.207427e+001
7.555864e+002, 6.181598e+001
7.560685e+002, 6.158621e+001
7.565506e+002, 6.138093e+001
7.570327e+002, 6.124548e+001
7.575148e+002, 6.123332e+001
7.579969e+002, 6.150026e+001
7.584791e+002, 6.164862e+001
7.589612e+002, 6.160380e+001
7.594433e+002, 6.152236e+001
7.599254e+002, 6.165891e+001
7.604075e+002, 6.203368e+001
7.608896e+002, 6.211644e+001
7.613718e+002, 6.175597e+001
7.618539e+002, 6.130608e+001
7.623360e+002, 6.125779e+001
7.628181e+002, 6.146669e+001
7.633002e+002, 6.163796e+001
7.637823e+002, 6.170076e+001
7.642645e+002, 6.167737e+001
7.647466e+002, 6.148440e+001
7.652287e+002, 6.124287e+001
7.657108e+002, 6.113130e+001
7.661929e+002, 6.124459e+001
7.666750e+002, 6.141438e+001
7.671572e+002, 6.171305e+001
7.676393e+002, 6.199746e+001
7.681214e+002, 6.191361e+001
7.686035e+002, 6.142225e+001
7.690856e+002, 6.117571e+001
7.695677e+002, 6.142510e+001
7.700499e+002, 6.182873e+001
7.705320e+002, 6.177034e+001
7.710141e+002, 6.143469e+001
7.714962e+002, 6.129784e+001
7.719783e+002, 6.184119e+001
7.724604e+002, 6.234211e+001
7.729426e+002, 6.238419e+001
7.734247e+002, 6.210785e+001
7.739068e+002, 6.182985e+001
7.743889e+002, 6.150605e+001
7.748710e+002, 6.130141e+001
7.753531e+002, 6.123228e+001
7.758353e+002, 6.130635e+001
7.763174e+002, 6.161658e+001
7.767995e+002, 6.217693e+001
7.772816e+002, 6.262851e+001
7.777637e+002, 6.284290e+001
7.782458e+002, 6.287063e+001
7.787280e+002, 6.266917e+001
7.792101e+002, 6.233304e+001
7.796922e+002, 6.216645e+001
7.801743e+002, 6.253446e+001
7.806564e+002, 6.289373e+001
7.811385e+002, 6.291769e+001
7.816207e+002, 6.268372e+001
7.821028e+002, 6.255081e+001
7.825849e+002, 6.256051e+001
7.830670e+002, 6.263918e+001
7.835491e+002, 6.276567e+001
7.840313e+002, 6.294689e+001
7.845134e+002, 6.329088e+001
7.849955e+002, 6.380530e+001
7.854776e+002, 6.410654e+001
7.859597e+002, 6.387571e+001
7.864418e+002, 6.342648e+001
7.869240e+002, 6.323781e+001
7.874061e+002, 6.326362e+001
7.878882e+002, 6.334032e+001
7.883703e+002, 6.336455e+001
7.888524e+002, 6.343963e+001
7.893345e+002, 6.370258e+001
7.898167e+002, 6.410457e+001
7.902988e+002, 6.424966e+001
7.907809e+002, 6.398929e+001
7.912630e+002, 6.373750e+001
7.917451e+002, 6.362181e+001
7.922272e+002, 6.362829e+001
7.927094e+002, 6.375037e+001
7.931915e+002, 6.397830e+001
7.936736e+002, 6.407893e+001
7.941557e+002, 6.372433e+001
7.946378e+002, 6.328604e+001
7.951199e+002, 6.331278e+001
7.956021e+002, 6.370943e+001
7.960842e+002, 6.403150e+001
7.965663e+002, 6.404244e+001
7.970484e+002, 6.397679e+001
7.975305e+002, 6.387862e+001
7.980126e+002, 6.376948e+001
7.984948e+002, 6.384417e+001
7.989769e+002, 6.421297e+001
7.994590e+002, 6.449068e+001
7.999411e+002, 6.448564e+001
8.004232e+002, 6.427097e+001
8.009053e+002, 6.402377e+001
8.013875e+002, 6.377248e+001
8.018696e+002, 6.379614e+001
8.023517e+002, 6.465694e+001
8.028338e+002, 6.559235e+001
8.033159e+002, 6.580997e+001
8.037980e+002, 6.538723e+001
8.042802e+002, 6.487646e+001
8.047623e+002, 6.409045e+001
8.052444e+002, 6.364289e+001
8.057265e+002, 6.394705e+001
8.062086e+002, 6.486471e+001
8.066907e+002, 6.507375e+001
8.071729e+002, 6.437466e+001
8.076550e+002, 6.382792e+001
8.081371e+002, 6.409108e+001
8.086192e+002, 6.480242e+001
8.091013e+002, 6.493775e+001
8.095834e+002, 6.459206e+001
8.100656e+002, 6.430688e+001
8.105477e+002, 6.453172e+001
8.110298e+002, 6.481943e+001
8.115119e+002, 6.475852e+001
8.119940e+002, 6.441782e+001
8.124761e+002, 6.441056e+001
8.129583e+002, 6.536720e+001
8.134404e+002, 6.596719e+001
8.139225e+002, 6.564993e+001
8.144046e+002, 6.462447e+001
8.148867e+002, 6.415838e+001
8.153688e+002, 6.427562e+001
8.158510e+002, 6.454263e+001
8.163331e+002, 6.482108e+001
8.168152e+002, 6.506091e+001
8.172973e+002, 6.521929e+001
8.177794e+002, 6.527422e+001
8.182615e+002, 6.513308e+001
8.187437e+002, 6.439232e+001
8.192258e+002, 6.379330e+001
8.197079e+002, 6.380531e+001
8.201900e+002, 6.433543e+001
8.206721e+002, 6.459136e+001
8.211542e+002, 6.444642e+001
8.216364e+002, 6.430946e+001
8.221185e+002, 6.432561e+001
8.226006e+002, 6.444228e+001
8.230827e+002, 6.449401e+001
8.235648e+002, 6.448457e+001
8.240469e+002, 6.444462e+001
8.245291e+002, 6.435969e+001
8.250112e+002, 6.427705e+001
8.254933e+002, 6.425684e+001
8.259754e+002, 6.427895e+001
8.264575e+002, 6.427722e+001
8.269396e+002, 6.425014e+001
8.274218e+002, 6.416970e+001
8.279039e+002, 6.396899e+001
8.283860e+002, 6.371911e+001
8.288681e+002, 6.370690e+001
8.293502e+002, 6.398874e+001
8.298323e+002, 6.416149e+001
8.303145e+002, 6.402517e+001
8.307966e+002, 6.377926e+001
8.312787e+002, 6.383158e+001
8.317608e+002, 6.410293e+001
8.322429e+002, 6.434658e+001
8.327250e+002, 6.438178e+001
8.332072e+002, 6.442839e+001
8.336893e+002, 6.472881e+001
8.341714e+002, 6.512797e+001
8.346535e+002, 6.518539e+001
8.351356e+002, 6.462279e+001
8.356177e+002, 6.419226e+001
8.360999e+002, 6.402501e+001
8.365820e+002, 6.405915e+001
8.370641e+002, 6.418822e+001
8.375462e+002, 6.440468e+001
8.380283e+002, 6.463496e+001
8.385104e+002, 6.489920e+001
8.389926e+002, 6.508656e+001
8.394747e+002, 6.507117e+001
8.399568e+002, 6.489277e+001
8.404389e+002, 6.461885e+001
8.409210e+002, 6.396227e+001
8.414031e+002, 6.359509e+001
8.418853e+002, 6.387234e+001
8.423674e+002, 6.441592e+001
8.428495e+002, 6.468497e+001
8.433316e+002, 6.460514e+001
8.438137e+002, 6.465643e+001
8.442958e+002, 6.498196e+001
8.447780e+002, 6.529089e+001
8.452601e+002, 6.502983e+001
8.457422e+002, 6.442488e+001
8.462243e+002, 6.401479e+001
8.467064e+002, 6.396476e+001
8.471885e+002, 6.408310e+001
8.476707e+002, 6.448570e+001
8.481528e+002, 6.489355e+001
8.486349e+002, 6.495950e+001
8.491170e+002, 6.437061e+001
8.495991e+002, 6.396140e+001
8.500812e+002, 6.375621e+001
8.505634e+002, 6.371803e+001
8.510455e+002, 6.390738e+001
8.515276e+002, 6.427138e+001
8.520097e+002, 6.436350e+001
8.524918e+002, 6.410105e+001
8.529739e+002, 6.375120e+001
8.534561e+002, 6.342929e+001
8.539382e+002, 6.322375e+001
8.544203e+002, 6.328901e+001
8.549024e+002, 6.378138e+001
8.553845e+002, 6.409667e+001
8.558666e+002, 6.402403e+001
8.563488e+002, 6.382111e+001
8.568309e+002, 6.362971e+001
8.573130e+002, 6.343782e+001
8.577951e+002, 6.331123e+001
8.582772e+002, 6.324314e+001
8.587593e+002, 6.328828e+001
8.592415e+002, 6.373473e+001
8.597236e+002, 6.423341e+001
8.602057e+002, 6.404266e+001
8.606878e+002, 6.310873e+001
8.611699e+002, 6.239401e+001
8.616520e+002, 6.266091e+001
8.621342e+002, 6.304247e+001
8.626163e+002, 6.291786e+001
8.630984e+002, 6.225228e+001
8.635805e+002, 6.200469e+001
8.640626e+002, 6.233801e+001
8.645447e+002, 6.261935e+001
8.650269e+002, 6.244165e+001
8.655090e+002, 6.193806e+001
8.659911e+002, 6.155579e+001
8.664732e+002, 6.128442e+001
8.669553e+002, 6.103680e+001
8.674374e+002, 6.077671e+001
8.679196e+002, 6.050924e+001
8.684017e+002, 6.020695e+001
8.688838e+002, 5.988784e+001
8.693659e+002, 5.968835e+001
8.698480e+002, 5.965496e+001
8.703301e+002, 5.967846e+001
8.708123e+002, 5.975820e+001
8.712944e+002, 5.985653e+001
8.717765e+002, 5.986771e+001
8.722586e+002, 5.978841e+001
8.727407e+002, 5.957455e+001
8.732228e+002, 5.911072e+001
8.737050e+002, 5.861383e+001
8.741871e+002, 5.831855e+001
8.746692e+002, 5.816156e+001
8.751513e+002, 5.800073e+001
8.756334e+002, 5.775218e+001
8.761155e+002, 5.755496e+001
8.765977e+002, 5.747404e+001
8.770798e+002, 5.743016e+001
8.775619e+002, 5.726573e+001
8.780440e+002, 5.697123e+001
8.785261e+002, 5.669535e+001
8.790082e+002, 5.645972e+001
8.794904e+002, 5.626936e+001
8.799725e+002, 5.620858e+001
8.804546e+002, 5.617290e+001
8.809367e+002, 5.593776e+001
8.814188e+002, 5.523979e+001
8.819009e+002, 5.478465e+001
8.823831e+002, 5.516084e+001
8.828652e+002, 5.568767e+001
8.833473e+002, 5.564481e+001
8.838294e+002, 5.483182e+001
8.843115e+002, 5.422865e+001
8.847936e+002, 5.388154e+001
8.852758e+002, 5.369507e+001
8.857579e+002, 5.371547e+001
8.862400e+002, 5.379493e+001
8.867221e+002, 5.352771e+001
8.872042e+002, 5.284652e+001
8.876863e+002, 5.222316e+001
8.881685e+002, 5.192048e+001
8.886506e+002, 5.177310e+001
8.891327e+002, 5.170474e+001
8.896148e+002, 5.172934e+001
8.900969e+002, 5.163285e+001
8.905790e+002, 5.137141e+001
8.910612e+002, 5.109509e+001
8.915433e+002, 5.085890e+001
8.920254e+002, 5.067957e+001
8.925075e+002, 5.073602e+001
8.929896e+002, 5.097734e+001
8.934717e+002, 5.100328e+001
8.939539e+002, 5.029620e+001
8.944360e+002, 4.953182e+001
8.949181e+002, 4.919253e+001
8.954002e+002, 4.922649e+001
8.958823e+002, 4.920848e+001
8.963644e+002, 4.910307e+001
8.968466e+002, 4.896100e+001
8.973287e+002, 4.880196e+001
8.978108e+002, 4.861096e+001
8.982929e+002, 4.829805e+001
8.987750e+002, 4.789215e+001
8.992571e+002, 4.756528e+001
8.997393e+002, 4.738470e+001
9.002214e+002, 4.730583e+001
9.007035e+002, 4.739466e+001
9.011856e+002, 4.753625e+001
9.016677e+002, 4.753582e+001
9.021498e+002, 4.720553e+001
9.026320e+002, 4.692276e+001
9.031141e+002, 4.670210e+001
9.035962e+002, 4.654426e+001
9.040783e+002, 4.650290e+001
9.045604e+002, 4.656002e+001
9.050425e+002, 4.642997e+001
9.055247e+002, 4.602892e+001
9.060068e+002, 4.570698e+001
9.064889e+002, 4.598003e+001
9.069710e+002, 4.641764e+001
9.074531e+002, 4.651055e+001
9.079352e+002, 4.606933e+001
9.084174e+002, 4.569465e+001
9.088995e+002, 4.549300e+001
9.093816e+002, 4.535579e+001
9.098637e+002, 4.523500e+001
9.103458e+002, 4.512919e+001
9.108279e+002, 4.496883e+001
9.113101e+002, 4.475148e+001
9.117922e+002, 4.459710e+001
9.122743e+002, 4.464270e+001
9.127564e+002, 4.476307e+001
9.132385e+002, 4.480625e+001
9.137206e+002, 4.478329e+001
9.142028e+002, 4.481993e+001
9.146849e+002, 4.515501e+001
9.151670e+002, 4.530875e+001
9.156491e+002, 4.505704e+001
9.161312e+002, 4.453624e+001
9.166133e+002, 4.429958e+001
9.170955e+002, 4.435168e+001
9.175776e+002, 4.439623e+001
9.180597e+002, 4.433392e+001
9.185418e+002, 4.419623e+001
9.190239e+002, 4.394481e+001
9.195060e+002, 4.365882e+001
9.199882e+002, 4.349428e+001
9.204703e+002, 4.370771e+001
9.209524e+002, 4.376499e+001
9.214345e+002, 4.343523e+001
9.219166e+002, 4.302800e+001
9.223987e+002, 4.298471e+001
9.228809e+002, 4.334019e+001
9.233630e+002, 4.344828e+001
9.238451e+002, 4.320374e+001
9.243272e+002, 4.289883e+001
9.248093e+002, 4.286937e+001
9.252914e+002, 4.295924e+001
9.257736e+002, 4.295774e+001
9.262557e+002, 4.281765e+001
9.267378e+002, 4.268944e+001
9.272199e+002, 4.260999e+001
9.277020e+002, 4.256379e+001
9.281841e+002, 4.255679e+001
9.286663e+002, 4.258922e+001
9.291484e+002, 4.257859e+001
9.296305e+002, 4.252428e+001
9.301126e+002, 4.244368e+001
9.305947e+002, 4.231927e+001
9.310768e+002, 4.219232e+001
9.315590e+002, 4.213580e+001
9.320411e+002, 4.212893e+001
9.325232e+002, 4.208773e+001
9.330053e+002, 4.203440e+001
9.334874e+002, 4.186686e+001
9.339695e+002, 4.146109e+001
9.344517e+002, 4.097767e+001
9.349338e+002, 4.086533e+001
9.354159e+002, 4.113469e+001
9.358980e+002, 4.126520e+001
9.363801e+002, 4.105876e+001
9.368622e+002, 4.081190e+001
9.373444e+002, 4.093695e+001
9.378265e+002, 4.123338e+001
9.383086e+002, 4.138700e+001
9.387907e+002, 4.112720e+001
9.392728e+002, 4.111061e+001
9.397549e+002, 4.174959e+001
9.402371e+002, 4.235544e+001
9.407192e+002, 4.229534e+001
9.412013e+002, 4.154312e+001
9.416834e+002, 4.096294e+001
9.421655e+002, 4.058362e+001
9.426476e+002, 4.038263e+001
9.431298e+002, 4.046518e+001
9.436119e+002, 4.064138e+001
9.440940e+002, 4.067491e+001
9.445761e+002, 4.056054e+001
9.450582e+002, 4.056087e+001
9.455403e+002, 4.091878e+001
9.460225e+002, 4.117785e+001
9.465046e+002, 4.118715e+001
9.469867e+002, 4.098971e+001
9.474688e+002, 4.068748e+001
9.479509e+002, 4.029945e+001
9.484330e+002, 4.006378e+001
9.489152e+002, 4.015052e+001
9.493973e+002, 4.033762e+001
9.498794e+002, 4.042736e+001
9.503615e+002, 4.046144e+001
9.508436e+002, 4.051412e+001
9.513257e+002, 4.065136e+001
9.518079e+002, 4.073572e+001
9.522900e+002, 4.074577e+001
9.527721e+002, 4.072045e+001
9.532542e+002, 4.070567e+001
9.537363e+002, 4.069865e+001
9.542184e+002, 4.065992e+001
9.547006e+002, 4.057872e+001
9.551827e+002, 4.054926e+001
9.556648e+002, 4.071804e+001
9.561469e+002, 4.092413e+001
9.566290e+002, 4.104561e+001
9.571111e+002, 4.107092e+001
9.575933e+002, 4.092981e+001
9.580754e+002, 4.045422e+001
9.585575e+002, 4.016001e+001
9.590396e+002, 4.039971e+001
9.595217e+002, 4.097023e+001
9.600038e+002, 4.113222e+001
9.604860e+002, 4.095445e+001
9.609681e+002, 4.079438e+001
9.614502e+002, 4.093614e+001
9.619323e+002, 4.105649e+001
9.624144e+002, 4.087176e+001
9.628965e+002, 4.054451e+001
9.633787e+002, 4.044530e+001
9.638608e+002, 4.066604e+001
9.643429e+002, 4.092290e+001
9.648250e+002, 4.122654e+001
9.653071e+002, 4.145434e+001
9.657892e+002, 4.133362e+001
9.662714e+002, 4.101705e+001
9.667535e+002, 4.091172e+001
9.672356e+002, 4.111723e+001
9.677177e+002, 4.131041e+001
9.681998e+002, 4.125169e+001
9.686819e+002, 4.116594e+001
9.691641e+002, 4.123610e+001
9.696462e+002, 4.148232e+001
9.701283e+002, 4.160588e+001
9.706104e+002, 4.159486e+001
9.710925e+002, 4.153637e+001
9.715746e+002, 4.142704e+001
9.720568e+002, 4.133360e+001
9.725389e+002, 4.144915e+001
9.730210e+002, 4.169571e+001
9.735031e+002, 4.181248e+001
9.739852e+002, 4.153504e+001
9.744673e+002, 4.129871e+001
9.749495e+002, 4.125879e+001
9.754316e+002, 4.131700e+001
9.759137e+002, 4.130405e+001
9.763958e+002, 4.121458e+001
9.768779e+002, 4.115678e+001
9.773600e+002, 4.114795e+001
9.778422e+002, 4.118330e+001
9.783243e+002, 4.134103e+001
9.788064e+002, 4.149860e+001
9.792885e+002, 4.146485e+001
9.797706e+002, 4.115041e+001
9.802527e+002, 4.094474e+001
9.807349e+002, 4.092906e+001
9.812170e+002, 4.100697e+001
9.816991e+002, 4.117405e+001
9.821812e+002, 4.140232e+001
9.826633e+002, 4.142680e+001
9.831454e+002, 4.126765e+001
9.836276e+002, 4.115716e+001
9.841097e+002, 4.128189e+001
9.845918e+002, 4.146156e+001
9.850739e+002, 4.159581e+001
9.855560e+002, 4.167526e+001
9.860381e+002, 4.166523e+001
9.865203e+002, 4.149390e+001
9.870024e+002, 4.140858e+001
9.874845e+002, 4.149083e+001
9.879666e+002, 4.157201e+001
9.884487e+002, 4.128598e+001
9.889308e+002, 4.080395e+001
9.894130e+002, 4.066713e+001
9.898951e+002, 4.100861e+001
9.903772e+002, 4.136541e+001
9.908593e+002, 4.149803e+001
9.913414e+002, 4.152008e+001
9.918235e+002, 4.149169e+001
9.923057e+002, 4.141338e+001
9.927878e+002, 4.138441e+001
9.932699e+002, 4.141339e+001
9.937520e+002, 4.143526e+001
9.942341e+002, 4.139561e+001
9.947162e+002, 4.134120e+001
9.951984e+002, 4.139520e+001
9.956805e+002, 4.150277e+001
9.961626e+002, 4.151304e+001
9.966447e+002, 4.117427e+001
9.971268e+002, 4.099174e+001
9.976089e+002, 4.119219e+001
9.980911e+002, 4.149830e+001
9.985732e+002, 4.144810e+001
9.990553e+002, 4.104702e+001
9.995374e+002, 4.098952e+001
1.000020e+003, 4.139988e+001
1.000502e+003, 4.180549e+001
1.000984e+003, 4.176647e+001
1.001466e+003, 4.150927e+001
1.001948e+003, 4.119606e+001
1.002430e+003, 4.083467e+001
1.002912e+003, 4.065614e+001
1.003394e+003, 4.078827e+001
1.003876e+003, 4.086924e+001
1.004359e+003, 4.071905e+001
1.004841e+003, 4.042933e+001
1.005323e+003, 4.028392e+001
1.005805e+003, 4.025412e+001
1.006287e+003, 4.022812e+001
1.006769e+003, 4.014928e+001
1.007251e+003, 4.007123e+001
1.007733e+003, 4.010154e+001
1.008216e+003, 4.010826e+001
1.008698e+003, 3.990636e+001
1.009180e+003, 3.942969e+001
1.009662e+003, 3.894527e+001
1.010144e+003, 3.843280e+001
1.010626e+003, 3.808253e+001
1.011108e+003, 3.828358e+001
1.011590e+003, 3.867836e+001
1.012072e+003, 3.874391e+001
1.012555e+003, 3.844867e+001
1.013037e+003, 3.798685e+001
1.013519e+003, 3.703690e+001
1.014001e+003, 3.640980e+001
1.014483e+003, 3.650509e+001
1.014965e+003, 3.705223e+001
1.015447e+003, 3.707974e+001
1.015929e+003, 3.664088e+001
1.016411e+003, 3.630286e+001
1.016894e+003, 3.629218e+001
1.017376e+003, 3.634529e+001
1.017858e+003, 3.623520e+001
1.018340e+003, 3.605311e+001
1.018822e+003, 3.591235e+001
1.019304e+003, 3.583415e+001
1.019786e+003, 3.579379e+001
1.020268e+003, 3.582320e+001
1.020751e+003, 3.580681e+001
1.021233e+003, 3.558663e+001
1.021715e+003, 3.526742e+001
1.022197e+003, 3.514855e+001
1.022679e+003, 3.520737e+001
1.023161e+003, 3.528181e+001
1.023643e+003, 3.537669e+001
1.024125e+003, 3.537363e+001
1.024607e+003, 3.515015e+001
1.025090e+003, 3.482519e+001
1.025572e+003, 3.462116e+001
1.026054e+003, 3.453631e+001
1.026536e+003, 3.464364e+001
1.027018e+003, 3.500765e+001
1.027500e+003, 3.532956e+001
1.027982e+003, 3.516985e+001
1.028464e+003, 3.485502e+001
1.028947e+003, 3.479747e+001
1.029429e+003, 3.513607e+001
1.029911e+003, 3.531890e+001
1.030393e+003, 3.520803e+001
1.030875e+003, 3.513318e+001
1.031357e+003, 3.527977e+001
1.031839e+003, 3.558210e+001
1.032321e+003, 3.585700e+001
1.032803e+003, 3.609082e+001
1.033286e+003, 3.623480e+001
1.033768e+003, 3.620338e+001
1.034250e+003, 3.614449e+001
1.034732e+003, 3.604468e+001
1.035214e+003, 3.599654e+001
1.035696e+003, 3.615069e+001
1.036178e+003, 3.656294e+001
1.036660e+003, 3.686599e+001
1.037143e+003, 3.702724e+001
1.037625e+003, 3.714848e+001
1.038107e+003, 3.731531e+001
1.038589e+003, 3.750816e+001
1.039071e+003, 3.768695e+001
1.039553e+003, 3.785488e+001
1.040035e+003, 3.808802e+001
1.040517e+003, 3.842434e+001
1.041000e+003, 3.879790e+001
1.041482e+003, 3.920066e+001
1.041964e+003, 3.961237e+001
1.042446e+003, 3.999146e+001
1.042928e+003, 4.033048e+001
1.043410e+003, 4.054889e+001
1.043892e+003, 4.053363e+001
1.044374e+003, 4.066275e+001
1.044856e+003, 4.131517e+001
1.045339e+003, 4.210734e+001
1.045821e+003, 4.270274e+001
1.046303e+003, 4.307374e+001
1.046785e+003, 4.337885e+001
1.047267e+003, 4.360703e+001
1.047749e+003, 4.385946e+001
1.048231e+003, 4.418393e+001
1.048713e+003, 4.457695e+001
1.049195e+003, 4.506226e+001
1.049677e+003, 4.561388e+001
1.050160e+003, 4.614618e+001
1.050642e+003, 4.678627e+001
1.051124e+003, 4.714806e+001
1.051606e+003, 4.704942e+001
1.052088e+003, 4.686896e+001
1.052570e+003, 4.718346e+001
1.053052e+003, 4.786034e+001
1.053534e+003, 4.835497e+001
1.054017e+003, 4.859850e+001
1.054499e+003, 4.882848e+001
1.054981e+003, 4.921574e+001
1.055463e+003, 4.961721e+001
1.055945e+003, 4.998048e+001
1.056427e+003, 5.028810e+001
1.056909e+003, 5.039026e+001
1.057391e+003, 5.027282e+001
1.057874e+003, 5.010926e+001
1.058356e+003, 4.993142e+001
1.058838e+003, 4.979313e+001
1.059320e+003, 4.982854e+001
1.059802e+003, 4.991912e+001
1.060284e+003, 4.988762e+001
1.060766e+003, 4.962111e+001
1.061248e+003, 4.941541e+001
1.061730e+003, 4.932183e+001
1.062213e+003, 4.921114e+001
1.062695e+003, 4.898677e+001
1.063177e+003, 4.867037e+001
1.063659e+003, 4.832434e+001
1.064141e+003, 4.795268e+001
1.064623e+003, 4.758117e+001
1.065105e+003, 4.728065e+001
1.065587e+003, 4.691404e+001
1.066070e+003, 4.632339e+001
1.066552e+003, 4.568205e+001
1.067034e+003, 4.528039e+001
1.067516e+003, 4.512897e+001
1.067998e+003, 4.492428e+001
1.068480e+003, 4.463691e+001
1.068962e+003, 4.425969e+001
1.069444e+003, 4.368650e+001
1.069927e+003, 4.309503e+001
1.070409e+003, 4.264156e+001
1.070891e+003, 4.235010e+001
1.071373e+003, 4.210697e+001
1.071855e+003, 4.196272e+001
1.072337e+003, 4.170324e+001
1.072819e+003, 4.122032e+001
1.073301e+003, 4.064996e+001
1.073783e+003, 4.012758e+001
1.074266e+003, 3.971893e+001
1.074748e+003, 3.961339e+001
1.075230e+003, 4.006658e+001
1.075712e+003, 4.023809e+001
1.076194e+003, 3.962874e+001
1.076676e+003, 3.898719e+001
1.077158e+003, 3.876029e+001
1.077640e+003, 3.891230e+001
1.078122e+003, 3.909135e+001
1.078604e+003, 3.929319e+001
1.079087e+003, 3.948221e+001
1.079569e+003, 3.964840e+001
1.080051e+003, 3.978485e+001
1.080533e+003, 3.986634e+001
1.081015e+003, 3.991936e+001
1.081497e+003, 3.997705e+001
1.081979e+003, 4.000835e+001
1.082461e+003, 4.021829e+001
1.082944e+003, 4.064594e+001
1.083426e+003, 4.108313e+001
1.083908e+003, 4.129149e+001
1.084390e+003, 4.141685e+001
1.084872e+003, 4.160935e+001
1.085354e+003, 4.188296e+001
1.085836e+003, 4.224417e+001
1.086318e+003, 4.273561e+001
1.086801e+003, 4.325463e+001
1.087283e+003, 4.382830e+001
1.087765e+003, 4.433801e+001
1.088247e+003, 4.449535e+001
1.088729e+003, 4.441976e+001
1.089211e+003, 4.446058e+001
1.089693e+003, 4.475103e+001
1.090175e+003, 4.484449e+001
1.090657e+003, 4.432882e+001
1.091140e+003, 4.378170e+001
1.091622e+003, 4.356144e+001
1.092104e+003, 4.360182e+001
1.092586e+003, 4.335779e+001
1.093068e+003, 4.284305e+001
1.093550e+003, 4.224712e+001
1.094032e+003, 4.165925e+001
1.094514e+003, 4.100520e+001
1.094997e+003, 4.021949e+001
1.095479e+003, 3.934011e+001
1.095961e+003, 3.840215e+001
1.096443e+003, 3.738851e+001
1.096925e+003, 3.633595e+001
1.097407e+003, 3.520315e+001
1.097889e+003, 3.426552e+001
1.098371e+003, 3.398498e+001
1.098854e+003, 3.386476e+001
1.099336e+003, 3.327301e+001
1.099818e+003, 3.227799e+001
1.100300e+003, 3.121095e+001
1.100782e+003, 2.994917e+001
1.101264e+003, 2.897128e+001
1.101746e+003, 2.838956e+001
1.102228e+003, 2.802287e+001
1.102710e+003, 2.772225e+001
1.103193e+003, 2.743374e+001
1.103675e+003, 2.694284e+001
1.104157e+003, 2.622836e+001
1.104639e+003, 2.570364e+001
1.105121e+003, 2.575079e+001
1.105603e+003, 2.579355e+001
1.106085e+003, 2.561338e+001
1.106567e+003, 2.526626e+001
1.107049e+003, 2.487105e+001
1.107531e+003, 2.444595e+001
1.108014e+003, 2.419152e+001
1.108496e+003, 2.420172e+001
1.108978e+003, 2.423203e+001
1.109460e+003, 2.416906e+001
1.109942e+003, 2.400136e+001
1.110424e+003, 2.366575e+001
1.110906e+003, 2.314832e+001
1.111388e+003, 2.290399e+001
1.111871e+003, 2.294953e+001
1.112353e+003, 2.303075e+001
1.112835e+003, 2.305927e+001
1.113317e+003, 2.301320e+001
1.113799e+003, 2.280179e+001
1.114281e+003, 2.252114e+001
1.114763e+003, 2.232983e+001
1.115245e+003, 2.229593e+001
1.115728e+003, 2.227495e+001
1.116210e+003, 2.227236e+001
1.116692e+003, 2.226508e+001
1.117174e+003, 2.226145e+001
1.117656e+003, 2.222697e+001
1.118138e+003, 2.205950e+001
1.118620e+003, 2.179501e+001
1.119102e+003, 2.158497e+001
1.119584e+003, 2.120657e+001
1.120067e+003, 2.136493e+001
1.120549e+003, 2.248287e+001
1.121031e+003, 2.367870e+001
1.121513e+003, 2.363007e+001
1.121995e+003, 2.266376e+001
1.122477e+003, 2.184373e+001
1.122959e+003, 2.126984e+001
1.123441e+003, 2.087035e+001
1.123924e+003, 2.066081e+001
1.124406e+003, 2.057053e+001
1.124888e+003, 2.062232e+001
1.125370e+003, 2.073315e+001
1.125852e+003, 2.064540e+001
1.126334e+003, 2.037885e+001
1.126816e+003, 2.015711e+001
1.127298e+003, 2.002971e+001
1.127781e+003, 1.997149e+001
1.128263e+003, 2.005596e+001
1.128745e+003, 2.013015e+001
1.129227e+003, 2.000277e+001
1.129709e+003, 1.969076e+001
1.130191e+003, 1.971107e+001
1.130673e+003, 2.009016e+001
1.131155e+003, 2.038491e+001
1.131637e+003, 2.039404e+001
1.132120e+003, 2.028489e+001
1.132602e+003, 2.019832e+001
1.133084e+003, 2.012007e+001
1.133566e+003, 2.003155e+001
1.134048e+003, 1.992425e+001
1.134530e+003, 1.983192e+001
1.135012e+003, 1.976704e+001
1.135494e+003, 1.966348e+001
1.135976e+003, 1.940025e+001
1.136458e+003, 1.912137e+001
1.136941e+003, 1.910196e+001
1.137423e+003, 1.925351e+001
1.137905e+003, 1.936003e+001
1.138387e+003, 1.936451e+001
1.138869e+003, 1.930865e+001
1.139351e+003, 1.918594e+001
1.139833e+003, 1.902303e+001
1.140315e+003, 1.879980e+001
1.140798e+003, 1.857157e+001
1.141280e+003, 1.848655e+001
1.141762e+003, 1.853261e+001
1.142244e+003, 1.860036e+001
1.142726e+003, 1.856651e+001
1.143208e+003, 1.867573e+001
1.143690e+003, 1.907392e+001
1.144172e+003, 1.951967e+001
1.144655e+003, 1.965334e+001
1.145137e+003, 1.951580e+001
1.145619e+003, 1.921755e+001
1.146101e+003, 1.877090e+001
1.146583e+003, 1.843231e+001
1.147065e+003, 1.817260e+001
1.147547e+003, 1.827760e+001
1.148029e+003, 1.910484e+001
1.148511e+003, 2.025020e+001
1.148994e+003, 2.047754e+001
1.149476e+003, 1.987860e+001
1.149958e+003, 1.924549e+001
1.150440e+003, 1.872667e+001
1.150922e+003, 1.834738e+001
1.151404e+003, 1.816326e+001
1.151886e+003, 1.809631e+001
1.152368e+003, 1.811600e+001
1.152851e+003, 1.820479e+001
1.153333e+003, 1.822809e+001
1.153815e+003, 1.818526e+001
1.154297e+003, 1.815270e+001
1.154779e+003, 1.816263e+001
1.155261e+003, 1.818394e+001
1.155743e+003, 1.814717e+001
1.156225e+003, 1.812907e+001
1.156708e+003, 1.826604e+001
1.157190e+003, 1.861321e+001
1.157672e+003, 1.867942e+001
1.158154e+003, 1.843344e+001
1.158636e+003, 1.817668e+001
1.159118e+003, 1.807502e+001
1.159600e+003, 1.805323e+001
1.160082e+003, 1.804823e+001
1.160564e+003, 1.805879e+001
1.161047e+003, 1.808526e+001
1.161529e+003, 1.814881e+001
1.162011e+003, 1.817292e+001
1.162493e+003, 1.814823e+001
1.162975e+003, 1.812325e+001
1.163457e+003, 1.818375e+001
1.163939e+003, 1.823406e+001
1.164421e+003, 1.808771e+001
1.164903e+003, 1.781529e+001
1.165385e+003, 1.763417e+001
1.165868e+003, 1.763563e+001
1.166350e+003, 1.764737e+001
1.166832e+003, 1.764474e+001
1.167314e+003, 1.768388e+001
1.167796e+003, 1.794150e+001
1.168278e+003, 1.822477e+001
1.168760e+003, 1.807488e+001
1.169242e+003, 1.756138e+001
1.169725e+003, 1.727706e+001
1.170207e+003, 1.767413e+001
1.170689e+003, 1.789857e+001
1.171171e+003, 1.777584e+001
1.171653e+003, 1.752121e+001
1.172135e+003, 1.741796e+001
1.172617e+003, 1.742242e+001
1.173099e+003, 1.744667e+001
1.173582e+003, 1.747987e+001
1.174064e+003, 1.750312e+001
1.174546e+003, 1.749601e+001
1.175028e+003, 1.749533e+001
1.175510e+003, 1.751140e+001
1.175992e+003, 1.753745e+001
1.176474e+003, 1.754612e+001
1.176956e+003, 1.755429e+001
1.177438e+003, 1.763901e+001
1.177921e+003, 1.783375e+001
1.178403e+003, 1.792924e+001
1.178885e+003, 1.769953e+001
1.179367e+003, 1.751806e+001
1.179849e+003, 1.756078e+001
1.180331e+003, 1.773778e+001
1.180813e+003, 1.775986e+001
1.181295e+003, 1.766944e+001
1.181778e+003, 1.763308e+001
1.182260e+003, 1.771676e+001
1.182742e+003, 1.778393e+001
1.183224e+003, 1.779909e+001
1.183706e+003, 1.774576e+001
1.184188e+003, 1.758076e+001
1.184670e+003, 1.734298e+001
1.185152e+003, 1.727196e+001
1.185635e+003, 1.734021e+001
1.186117e+003, 1.740701e+001
1.186599e+003, 1.743133e+001
1.187081e+003, 1.741853e+001
1.187563e+003, 1.728447e+001
1.188045e+003, 1.719404e+001
1.188527e+003, 1.731656e+001
1.189009e+003, 1.762113e+001
1.189491e+003, 1.767431e+001
1.189974e+003, 1.750900e+001
1.190456e+003, 1.736341e+001
1.190938e+003, 1.732993e+001
1.191420e+003, 1.737973e+001
1.191902e+003, 1.760426e+001
1.192384e+003, 1.782867e+001
1.192866e+003, 1.786259e+001
1.193348e+003, 1.770067e+001
1.193830e+003, 1.759704e+001
1.194313e+003, 1.755467e+001
1.194795e+003, 1.760083e+001
1.195277e+003, 1.795590e+001
1.195759e+003, 1.817589e+001
1.196241e+003, 1.782802e+001
1.196723e+003, 1.731655e+001
1.197205e+003, 1.717310e+001
1.197687e+003, 1.740875e+001
1.198169e+003, 1.759655e+001
1.198652e+003, 1.771683e+001
1.199134e+003, 1.778254e+001
1.199616e+003, 1.781459e+001
1.200098e+003, 1.778042e+001
1.200580e+003, 1.755956e+001
1.201062e+003, 1.730631e+001
1.201544e+003, 1.730079e+001
1.202026e+003, 1.755187e+001
1.202509e+003, 1.772123e+001
1.202991e+003, 1.777942e+001
1.203473e+003, 1.775623e+001
1.203955e+003, 1.757414e+001
1.204437e+003, 1.741621e+001
1.204919e+003, 1.744277e+001
1.205401e+003, 1.756837e+001
1.205883e+003, 1.760904e+001
1.206365e+003, 1.756367e+001
1.206848e+003, 1.746160e+001
1.207330e+003, 1.729913e+001
1.207812e+003, 1.720960e+001
1.208294e+003, 1.734950e+001
1.208776e+003, 1.754758e+001
1.209258e+003, 1.772132e+001
1.209740e+003, 1.785116e+001
1.210222e+003, 1.786872e+001
1.210705e+003, 1.777301e+001
1.211187e+003, 1.767496e+001
1.211669e+003, 1.759669e+001
1.212151e+003, 1.749873e+001
1.212633e+003, 1.725090e+001
1.213115e+003, 1.706200e+001
1.213597e+003, 1.719187e+001
1.214079e+003, 1.750947e+001
1.214562e+003, 1.748084e+001
1.215044e+003, 1.711754e+001
1.215526e+003, 1.696433e+001
1.216008e+003, 1.718108e+001
1.216490e+003, 1.742657e+001
1.216972e+003, 1.744388e+001
1.217454e+003, 1.737186e+001
1.217936e+003, 1.729312e+001
1.218418e+003, 1.721799e+001
1.218901e+003, 1.719173e+001
1.219383e+003, 1.721165e+001
1.219865e+003, 1.721701e+001
1.220347e+003, 1.717459e+001
1.220829e+003, 1.717794e+001
1.221311e+003, 1.740745e+001
1.221793e+003, 1.760691e+001
1.222275e+003, 1.751696e+001
1.222757e+003, 1.720999e+001
1.223240e+003, 1.730706e+001
1.223722e+003, 1.776688e+001
1.224204e+003, 1.804404e+001
1.224686e+003, 1.791686e+001
1.225168e+003, 1.768412e+001
1.225650e+003, 1.742999e+001
1.226132e+003, 1.725766e+001
1.226614e+003, 1.725495e+001
1.227096e+003, 1.740109e+001
1.227579e+003, 1.755314e+001
1.228061e+003, 1.769736e+001
1.228543e+003, 1.769504e+001
1.229025e+003, 1.741837e+001
1.229507e+003, 1.716195e+001
1.229989e+003, 1.707064e+001
1.230471e+003, 1.710248e+001
1.230953e+003, 1.725612e+001
1.231436e+003, 1.750596e+001
1.231918e+003, 1.759577e+001
1.232400e+003, 1.754128e+001
1.232882e+003, 1.743983e+001
1.233364e+003, 1.725737e+001
1.233846e+003, 1.717772e+001
1.234328e+003, 1.742275e+001
1.234810e+003, 1.768401e+001
1.235292e+003, 1.772465e+001
1.235775e+003, 1.757482e+001
1.236257e+003, 1.747460e+001
1.236739e+003, 1.741584e+001
1.237221e+003, 1.734833e+001
1.237703e+003, 1.717719e+001
1.238185e+003, 1.711223e+001
1.238667e+003, 1.734285e+001
1.239149e+003, 1.760087e+001
1.239632e+003, 1.768599e+001
1.240114e+003, 1.763000e+001
1.240596e+003, 1.761695e+001
1.241078e+003, 1.764378e+001
1.241560e+003, 1.769821e+001
1.242042e+003, 1.783457e+001
1.242524e+003, 1.790305e+001
1.243006e+003, 1.780390e+001
1.243489e+003, 1.771292e+001
1.243971e+003, 1.781483e+001
1.244453e+003, 1.803907e+001
1.244935e+003, 1.806405e+001
1.245417e+003, 1.793870e+001
1.245899e+003, 1.784575e+001
1.246381e+003, 1.794799e+001
1.246863e+003, 1.794699e+001
1.247345e+003, 1.774094e+001
1.247828e+003, 1.754221e+001
1.248310e+003, 1.758223e+001
1.248792e+003, 1.775501e+001
1.249274e+003, 1.775070e+001
1.249756e+003, 1.762209e+001
1.250238e+003, 1.756116e+001
1.250720e+003, 1.774485e+001
1.251202e+003, 1.782501e+001
1.251684e+003, 1.774418e+001
1.252167e+003, 1.763403e+001
1.252649e+003, 1.761963e+001
1.253131e+003, 1.764997e+001
1.253613e+003, 1.759756e+001
1.254095e+003, 1.750075e+001
1.254577e+003, 1.749296e+001
1.255059e+003, 1.773439e+001
1.255541e+003, 1.780171e+001
1.256023e+003, 1.762275e+001
1.256506e+003, 1.744171e+001
1.256988e+003, 1.753560e+001
1.257470e+003, 1.771504e+001
1.257952e+003, 1.767258e+001
1.258434e+003, 1.748962e+001
1.258916e+003, 1.744058e+001
1.259398e+003, 1.764235e+001
1.259880e+003, 1.770201e+001
1.260363e+003, 1.757276e+001
1.260845e+003, 1.745027e+001
1.261327e+003, 1.757915e+001
1.261809e+003, 1.773135e+001
1.262291e+003, 1.760961e+001
1.262773e+003, 1.733036e+001
1.263255e+003, 1.722117e+001
1.263737e+003, 1.732989e+001
1.264219e+003, 1.743682e+001
1.264702e+003, 1.752935e+001
1.265184e+003, 1.759315e+001
1.265666e+003, 1.759191e+001
1.266148e+003, 1.758306e+001
1.266630e+003, 1.762208e+001
1.267112e+003, 1.768209e+001
1.267594e+003, 1.771218e+001
1.268076e+003, 1.771402e+001
1.268559e+003, 1.764179e+001
1.269041e+003, 1.749393e+001
1.269523e+003, 1.738825e+001
1.270005e+003, 1.745809e+001
1.270487e+003, 1.753596e+001
1.270969e+003, 1.747781e+001
1.271451e+003, 1.739691e+001
1.271933e+003, 1.749039e+001
1.272416e+003, 1.773408e+001
1.272898e+003, 1.775495e+001
1.273380e+003, 1.755781e+001
1.273862e+003, 1.749234e+001
1.274344e+003, 1.805560e+001
1.274826e+003, 1.839571e+001
1.275308e+003, 1.806623e+001
1.275790e+003, 1.756334e+001
1.276272e+003, 1.758128e+001
1.276755e+003, 1.795483e+001
1.277237e+003, 1.802074e+001
1.277719e+003, 1.778835e+001
1.278201e+003, 1.761474e+001
1.278683e+003, 1.777441e+001
1.279165e+003, 1.783669e+001
1.279647e+003, 1.769903e+001
1.280129e+003, 1.749105e+001
1.280611e+003, 1.729524e+001
1.281094e+003, 1.715932e+001
1.281576e+003, 1.724595e+001
1.282058e+003, 1.750527e+001
1.282540e+003, 1.766266e+001
1.283022e+003, 1.763531e+001
1.283504e+003, 1.749710e+001
1.283986e+003, 1.721456e+001
1.284468e+003, 1.696185e+001
1.284950e+003, 1.695095e+001
1.285433e+003, 1.704726e+001
1.285915e+003, 1.707967e+001
1.286397e+003, 1.706183e+001
1.286879e+003, 1.707364e+001
1.287361e+003, 1.711405e+001
1.287843e+003, 1.722190e+001
1.288325e+003, 1.741212e+001
1.288807e+003, 1.757091e+001
1.289290e+003, 1.758513e+001
1.289772e+003, 1.753952e+001
1.290254e+003, 1.746300e+001
1.290736e+003, 1.739760e+001
1.291218e+003, 1.743010e+001
1.291700e+003, 1.756814e+001
1.292182e+003, 1.773388e+001
1.292664e+003, 1.792085e+001
1.293146e+003, 1.799335e+001
1.293629e+003, 1.767636e+001
1.294111e+003, 1.741564e+001
1.294593e+003, 1.754978e+001
1.295075e+003, 1.783492e+001
1.295557e+003, 1.801082e+001
1.296039e+003, 1.807732e+001
1.296521e+003, 1.797506e+001
1.297003e+003, 1.772848e+001
1.297486e+003, 1.756651e+001
1.297968e+003, 1.770682e+001
1.298450e+003, 1.782443e+001
1.298932e+003, 1.783290e+001
1.299414e+003, 1.779551e+001
1.299896e+003, 1.775181e+001
1.300378e+003, 1.772579e+001
1.300860e+003, 1.784802e+001
1.301343e+003, 1.806561e+001
1.301825e+003, 1.814074e+001
##END=



