##NAMES=Clintonite
##RRUFFID=R070197
##IDEAL CHEMISTRY=CaAlMg_2_(SiAl_3_)O_10_(OH)_2_
##LOCALITY=Crestmore Quarry, Riverside County, California, USA
##OWNER=RRUFF
##SOURCE=California Institute of Technology
##DESCRIPTION=Transparent green micaceous
##STATUS=The identification of this mineral is confirmed by single-crystal X-ray diffraction and chemical analysis.
##URL=rruff.info/R070197
##MEASURED CHEMISTRY=Ca_1.00_(Mg_2.19_Al_0.66_Fe^3+^_0.15_)_Σ=3_(Al_2.81_Si_1.19_)_Σ=4_O_10_(OH)_2_
146.8068, 2879.182
147.2889, 2899.828
147.7711, 2921.789
148.2532, 2949.195
148.7353, 2984.897
149.2174, 3022.905
149.6995, 3064.893
150.1816, 3110.300
150.6638, 3152.505
151.1459, 3188.155
151.6280, 3222.622
152.1101, 3259.050
152.5922, 3309.997
153.0743, 3349.991
153.5565, 3367.988
154.0386, 3363.370
154.5207, 3370.210
155.0028, 3406.639
155.4849, 3451.011
155.9670, 3484.001
156.4492, 3496.791
156.9313, 3502.375
157.4134, 3503.445
157.8955, 3499.602
158.3776, 3494.890
158.8597, 3485.069
159.3419, 3476.074
159.8240, 3476.250
160.3061, 3498.799
160.7882, 3523.138
161.2703, 3537.882
161.7524, 3538.061
162.2346, 3539.796
162.7167, 3551.687
163.1988, 3570.274
163.6809, 3587.808
164.1630, 3602.310
164.6451, 3613.889
165.1273, 3621.890
165.6094, 3623.378
166.0915, 3626.197
166.5736, 3635.366
167.0557, 3649.847
167.5379, 3666.288
168.0200, 3684.715
168.5021, 3703.273
168.9842, 3719.991
169.4663, 3734.327
169.9484, 3746.628
170.4306, 3758.749
170.9127, 3770.036
171.3948, 3776.030
171.8769, 3768.828
172.3590, 3755.073
172.8411, 3744.666
173.3233, 3745.424
173.8054, 3748.958
174.2875, 3743.309
174.7696, 3728.262
175.2517, 3717.312
175.7338, 3727.646
176.2160, 3751.060
176.6981, 3769.500
177.1802, 3773.740
177.6623, 3768.633
178.1444, 3758.658
178.6265, 3742.995
179.1087, 3729.884
179.5908, 3733.207
180.0729, 3748.314
180.5550, 3758.438
181.0371, 3746.762
181.5192, 3724.419
182.0014, 3719.859
182.4835, 3738.777
182.9656, 3763.100
183.4477, 3768.555
183.9298, 3756.709
184.4119, 3740.732
184.8941, 3726.045
185.3762, 3713.009
185.8583, 3703.805
186.3404, 3699.228
186.8225, 3697.374
187.3046, 3696.374
187.7868, 3696.190
188.2689, 3693.077
188.7510, 3680.583
189.2331, 3661.052
189.7152, 3650.239
190.1973, 3653.812
190.6795, 3664.677
191.1616, 3665.114
191.6437, 3654.219
192.1258, 3641.488
192.6079, 3634.551
193.0900, 3633.197
193.5722, 3633.463
194.0543, 3637.311
194.5364, 3641.350
195.0185, 3629.264
195.5006, 3597.717
195.9827, 3565.440
196.4649, 3553.549
196.9470, 3562.933
197.4291, 3567.933
197.9112, 3559.798
198.3933, 3541.162
198.8754, 3527.906
199.3576, 3493.274
199.8397, 3525.126
200.3218, 3544.190
200.8039, 3551.153
201.2860, 3509.772
201.7681, 3530.818
202.2503, 3526.846
202.7324, 3521.848
203.2145, 3551.680
203.6966, 3517.331
204.1787, 3546.610
204.6608, 3550.490
205.1430, 3565.995
205.6251, 3556.327
206.1072, 3554.434
206.5893, 3577.722
207.0714, 3587.066
207.5535, 3574.501
208.0357, 3553.865
208.5178, 3570.324
208.9999, 3592.243
209.4820, 3612.707
209.9641, 3631.403
210.4462, 3649.998
210.9284, 3667.392
211.4105, 3685.681
211.8926, 3708.918
212.3747, 3738.242
212.8568, 3770.236
213.3389, 3804.061
213.8211, 3839.662
214.3032, 3876.150
214.7853, 3913.772
215.2674, 3952.315
215.7495, 3989.549
216.2316, 4022.907
216.7138, 4060.854
217.1959, 4109.262
217.6780, 4174.270
218.1601, 4231.854
218.6422, 4278.286
219.1243, 4317.079
219.6065, 4357.990
220.0886, 4399.038
220.5707, 4445.172
221.0528, 4497.916
221.5349, 4558.394
222.0170, 4624.753
222.4992, 4699.195
222.9813, 4779.407
223.4634, 4859.592
223.9455, 4942.561
224.4276, 5022.231
224.9097, 5091.650
225.3919, 5141.813
225.8740, 5205.447
226.3561, 5288.412
226.8382, 5387.521
227.3203, 5491.378
227.8024, 5607.515
228.2846, 5717.115
228.7667, 5809.637
229.2488, 5882.068
229.7309, 5940.178
230.2130, 5983.656
230.6951, 6012.631
231.1773, 6029.595
231.6594, 6037.666
232.1415, 6029.708
232.6236, 6000.896
233.1057, 5951.293
233.5878, 5880.484
234.0700, 5786.864
234.5521, 5671.587
235.0342, 5539.583
235.5163, 5381.525
235.9984, 5218.093
236.4805, 5064.344
236.9627, 4923.792
237.4448, 4789.319
237.9269, 4658.167
238.4090, 4530.847
238.8911, 4424.184
239.3732, 4349.981
239.8554, 4283.961
240.3375, 4203.362
240.8196, 4091.595
241.3017, 3997.130
241.7838, 3929.298
242.2659, 3888.346
242.7481, 3847.516
243.2302, 3804.615
243.7123, 3764.059
244.1944, 3729.929
244.6765, 3703.570
245.1586, 3680.948
245.6408, 3661.213
246.1229, 3644.249
246.6050, 3632.989
247.0871, 3632.134
247.5692, 3632.096
248.0513, 3623.098
248.5335, 3599.515
249.0156, 3577.839
249.4977, 3561.497
249.9798, 3550.444
250.4619, 3540.025
250.9440, 3528.510
251.4262, 3519.384
251.9083, 3516.710
252.3904, 3524.058
252.8725, 3530.578
253.3546, 3533.554
253.8367, 3532.892
254.3189, 3535.248
254.8010, 3543.702
255.2831, 3551.633
255.7652, 3551.519
256.2473, 3539.232
256.7295, 3527.908
257.2116, 3518.653
257.6937, 3511.381
258.1758, 3515.062
258.6579, 3535.239
259.1400, 3559.624
259.6222, 3575.670
260.1043, 3580.382
260.5864, 3583.880
261.0685, 3588.114
261.5506, 3593.007
262.0327, 3597.632
262.5149, 3601.472
262.9970, 3605.709
263.4791, 3611.863
263.9612, 3621.031
264.4433, 3629.074
264.9254, 3634.956
265.4076, 3638.664
265.8897, 3642.824
266.3718, 3648.303
266.8539, 3652.869
267.3360, 3653.264
267.8181, 3647.465
268.3003, 3644.612
268.7824, 3646.518
269.2645, 3653.133
269.7466, 3664.827
270.2287, 3683.925
270.7108, 3703.420
271.1930, 3715.043
271.6751, 3716.180
272.1572, 3721.697
272.6393, 3737.744
273.1214, 3762.452
273.6035, 3773.487
274.0857, 3766.619
274.5678, 3757.222
275.0499, 3762.289
275.5320, 3784.614
276.0141, 3801.587
276.4962, 3805.242
276.9784, 3799.073
277.4605, 3805.888
277.9426, 3828.222
278.4247, 3854.273
278.9068, 3873.420
279.3889, 3885.411
279.8711, 3893.873
280.3532, 3897.897
280.8353, 3899.293
281.3174, 3906.862
281.7995, 3921.629
282.2816, 3936.993
282.7638, 3943.616
283.2459, 3941.794
283.7280, 3951.485
284.2101, 3981.666
284.6922, 4023.793
285.1743, 4049.592
285.6565, 4057.456
286.1386, 4061.799
286.6207, 4074.990
287.1028, 4096.069
287.5849, 4115.725
288.0670, 4132.110
288.5492, 4145.768
289.0313, 4156.196
289.5134, 4163.193
289.9955, 4172.096
290.4776, 4189.395
290.9597, 4212.860
291.4419, 4233.412
291.9240, 4250.602
292.4061, 4262.449
292.8882, 4260.497
293.3703, 4245.611
293.8524, 4234.589
294.3346, 4245.231
294.8167, 4269.608
295.2988, 4283.633
295.7809, 4280.082
296.2630, 4270.374
296.7451, 4274.204
297.2273, 4289.228
297.7094, 4299.260
298.1915, 4286.293
298.6736, 4261.705
299.1557, 4248.907
299.6378, 4252.146
300.1200, 4265.900
300.6021, 4291.435
301.0842, 4324.596
301.5663, 4349.068
302.0484, 4347.219
302.5305, 4333.273
303.0127, 4327.245
303.4948, 4332.213
303.9769, 4343.523
304.4590, 4362.237
304.9411, 4384.666
305.4232, 4400.977
305.9054, 4396.525
306.3875, 4387.844
306.8696, 4393.403
307.3517, 4416.837
307.8338, 4445.670
308.3159, 4473.358
308.7981, 4499.370
309.2802, 4522.676
309.7623, 4538.971
310.2444, 4554.760
310.7265, 4577.164
311.2086, 4607.928
311.6908, 4635.113
312.1729, 4648.293
312.6550, 4654.249
313.1371, 4662.509
313.6192, 4673.705
314.1013, 4690.592
314.5835, 4718.808
315.0656, 4759.504
315.5477, 4794.172
316.0298, 4803.767
316.5119, 4806.866
316.9940, 4823.958
317.4762, 4875.623
317.9583, 4929.135
318.4404, 4973.151
318.9225, 5007.276
319.4046, 5035.456
319.8867, 5048.631
320.3689, 5061.379
320.8510, 5085.804
321.3331, 5135.835
321.8152, 5186.063
322.2973, 5231.723
322.7794, 5272.880
323.2616, 5311.519
323.7437, 5340.881
324.2258, 5372.232
324.7079, 5412.577
325.1900, 5471.873
325.6721, 5529.667
326.1543, 5581.944
326.6364, 5630.035
327.1185, 5684.451
327.6006, 5753.492
328.0827, 5822.404
328.5648, 5884.640
329.0470, 5938.688
329.5291, 5988.102
330.0112, 6027.415
330.4933, 6062.258
330.9754, 6109.399
331.4576, 6181.904
331.9397, 6250.404
332.4218, 6302.178
332.9039, 6327.541
333.3860, 6362.219
333.8681, 6412.814
334.3503, 6468.297
334.8324, 6504.671
335.3145, 6511.479
335.7966, 6521.168
336.2787, 6546.136
336.7608, 6588.253
337.2430, 6632.816
337.7251, 6683.530
338.2072, 6729.969
338.6893, 6754.445
339.1714, 6752.499
339.6535, 6749.202
340.1357, 6752.816
340.6178, 6762.610
341.0999, 6766.838
341.5820, 6763.629
342.0641, 6760.878
342.5462, 6771.952
343.0284, 6796.700
343.5105, 6807.861
343.9926, 6793.004
344.4747, 6761.260
344.9568, 6744.649
345.4389, 6744.298
345.9211, 6744.124
346.4032, 6729.032
346.8853, 6701.612
347.3674, 6674.565
347.8495, 6650.942
348.3316, 6628.535
348.8138, 6603.660
349.2959, 6576.456
349.7780, 6549.658
350.2601, 6522.486
350.7422, 6496.927
351.2243, 6477.492
351.7065, 6466.025
352.1886, 6457.329
352.6707, 6447.701
353.1528, 6436.402
353.6349, 6421.415
354.1170, 6400.626
354.5992, 6375.763
355.0813, 6347.742
355.5634, 6316.072
356.0455, 6284.624
356.5276, 6257.378
357.0097, 6232.052
357.4919, 6205.240
357.9740, 6170.862
358.4561, 6137.346
358.9382, 6110.551
359.4203, 6090.960
359.9024, 6073.377
360.3846, 6058.985
360.8667, 6043.961
361.3488, 6024.195
361.8309, 5994.034
362.3130, 5963.452
362.7951, 5934.946
363.2773, 5908.676
363.7594, 5885.395
364.2415, 5867.584
364.7236, 5851.669
365.2057, 5835.315
365.6878, 5818.601
366.1700, 5801.192
366.6521, 5781.129
367.1342, 5759.796
367.6163, 5742.783
368.0984, 5733.422
368.5805, 5726.002
369.0627, 5718.085
369.5448, 5707.461
370.0269, 5701.130
370.5090, 5703.441
370.9911, 5708.613
371.4732, 5704.145
371.9554, 5680.466
372.4375, 5663.156
372.9196, 5661.247
373.4017, 5676.897
373.8838, 5695.815
374.3659, 5721.246
374.8481, 5746.040
375.3302, 5757.020
375.8123, 5747.754
376.2944, 5752.963
376.7765, 5785.107
377.2586, 5840.713
377.7408, 5889.378
378.2229, 5930.687
378.7050, 5969.655
379.1871, 6007.916
379.6692, 6045.672
380.1513, 6095.938
380.6335, 6164.027
381.1156, 6242.089
381.5977, 6309.375
382.0798, 6366.495
382.5619, 6428.090
383.0440, 6508.075
383.5262, 6600.502
384.0083, 6690.709
384.4904, 6778.602
384.9725, 6861.596
385.4546, 6927.079
385.9367, 6983.338
386.4189, 7055.861
386.9010, 7168.422
387.3831, 7299.812
387.8652, 7430.132
388.3473, 7558.250
388.8294, 7676.684
389.3116, 7761.681
389.7937, 7835.188
390.2758, 7927.966
390.7579, 8086.426
391.2400, 8237.502
391.7221, 8328.310
392.2043, 8365.383
392.6864, 8410.073
393.1685, 8501.425
393.6506, 8603.154
394.1327, 8688.516
394.6148, 8744.597
395.0970, 8793.301
395.5791, 8841.457
396.0612, 8886.620
396.5433, 8920.175
397.0254, 8938.966
397.5075, 8947.243
397.9897, 8946.139
398.4718, 8932.759
398.9539, 8916.481
399.4360, 8898.122
399.9181, 8876.634
400.4002, 8851.620
400.8824, 8832.979
401.3645, 8795.261
401.8466, 8726.168
402.3287, 8623.592
402.8108, 8538.956
403.2929, 8480.671
403.7751, 8429.043
404.2572, 8366.203
404.7393, 8289.252
405.2214, 8213.557
405.7035, 8142.307
406.1856, 8073.963
406.6678, 8007.909
407.1499, 7944.911
407.6320, 7876.893
408.1141, 7794.930
408.5962, 7700.581
409.0783, 7613.360
409.5605, 7536.135
410.0426, 7463.451
410.5247, 7387.653
411.0068, 7310.011
411.4889, 7233.814
411.9710, 7160.905
412.4532, 7090.769
412.9353, 7019.701
413.4174, 6947.810
413.8995, 6879.967
414.3816, 6819.886
414.8637, 6766.360
415.3459, 6716.796
415.8280, 6676.465
416.3101, 6633.549
416.7922, 6572.887
417.2743, 6499.672
417.7564, 6432.428
418.2386, 6386.636
418.7207, 6347.614
419.2028, 6303.475
419.6849, 6244.575
420.1670, 6196.163
420.6491, 6174.613
421.1313, 6167.940
421.6134, 6154.060
422.0955, 6120.835
422.5776, 6086.479
423.0597, 6056.303
423.5418, 6031.414
424.0240, 6007.845
424.5061, 5985.295
424.9882, 5964.224
425.4703, 5945.240
425.9524, 5930.559
426.4345, 5914.227
426.9167, 5894.406
427.3988, 5871.964
427.8809, 5853.617
428.3630, 5841.708
428.8451, 5829.271
429.3272, 5809.987
429.8094, 5780.974
430.2915, 5765.981
430.7736, 5771.181
431.2557, 5782.667
431.7378, 5773.598
432.2199, 5743.225
432.7021, 5713.563
433.1842, 5696.305
433.6663, 5687.222
434.1484, 5669.434
434.6305, 5642.709
435.1126, 5612.271
435.5948, 5578.780
436.0769, 5545.521
436.5590, 5522.060
437.0411, 5515.720
437.5232, 5514.201
438.0053, 5506.027
438.4875, 5491.283
438.9696, 5470.314
439.4517, 5433.102
439.9338, 5395.325
440.4159, 5374.481
440.8980, 5378.267
441.3802, 5379.335
441.8623, 5356.993
442.3444, 5324.898
442.8265, 5302.538
443.3086, 5311.081
443.7907, 5316.134
444.2729, 5301.464
444.7550, 5266.405
445.2371, 5238.017
445.7192, 5229.374
446.2013, 5222.578
446.6834, 5205.230
447.1656, 5155.693
447.6477, 5127.146
448.1298, 5130.412
448.6119, 5154.696
449.0940, 5172.092
449.5761, 5187.012
450.0583, 5186.791
450.5404, 5159.216
451.0225, 5098.939
451.5046, 5069.583
451.9867, 5080.974
452.4688, 5103.063
452.9510, 5095.423
453.4331, 5057.309
453.9152, 5031.282
454.3973, 5030.737
454.8794, 5047.571
455.3615, 5066.534
455.8437, 5087.376
456.3258, 5098.339
456.8079, 5084.771
457.2900, 5056.331
457.7721, 5032.030
458.2542, 5014.417
458.7364, 5001.812
459.2185, 4990.550
459.7006, 4983.237
460.1827, 4985.579
460.6648, 5016.750
461.1469, 5045.990
461.6291, 5048.784
462.1112, 5025.605
462.5933, 4999.615
463.0754, 4975.476
463.5575, 4955.972
464.0396, 4943.378
464.5218, 4934.734
465.0039, 4937.602
465.4860, 4972.689
465.9681, 5021.235
466.4502, 5034.162
466.9323, 4973.604
467.4145, 4912.513
467.8966, 4872.400
468.3787, 4857.217
468.8608, 4841.721
469.3429, 4825.053
469.8250, 4809.034
470.3072, 4797.796
470.7893, 4795.419
471.2714, 4780.239
471.7535, 4742.967
472.2356, 4693.042
472.7177, 4664.153
473.1999, 4657.918
473.6820, 4658.883
474.1641, 4662.203
474.6462, 4665.893
475.1284, 4659.581
475.6105, 4641.523
476.0926, 4619.239
476.5747, 4598.521
477.0568, 4580.373
477.5389, 4567.805
478.0211, 4566.050
478.5032, 4567.253
478.9853, 4562.137
479.4674, 4551.922
479.9495, 4544.605
480.4316, 4550.434
480.9138, 4557.692
481.3959, 4555.614
481.8780, 4536.993
482.3601, 4522.086
482.8422, 4519.455
483.3243, 4524.467
483.8065, 4529.770
484.2886, 4533.616
484.7707, 4538.047
485.2528, 4543.118
485.7349, 4548.752
486.2170, 4556.943
486.6992, 4566.677
487.1813, 4580.067
487.6634, 4600.876
488.1455, 4636.412
488.6276, 4656.719
489.1097, 4654.997
489.5919, 4642.342
490.0740, 4640.735
490.5561, 4650.941
491.0382, 4665.399
491.5203, 4683.916
492.0024, 4704.430
492.4846, 4715.695
492.9667, 4717.342
493.4488, 4716.208
493.9309, 4717.750
494.4130, 4721.210
494.8951, 4724.238
495.3773, 4725.037
495.8594, 4728.047
496.3415, 4738.004
496.8236, 4753.747
497.3057, 4772.246
497.7878, 4805.180
498.2700, 4830.606
498.7521, 4826.893
499.2342, 4790.538
499.7163, 4765.769
500.1984, 4783.459
500.6805, 4811.739
501.1627, 4825.083
501.6448, 4805.391
502.1269, 4787.143
502.6090, 4773.270
503.0911, 4762.998
503.5732, 4754.672
504.0554, 4751.674
504.5375, 4745.325
505.0196, 4730.743
505.5017, 4706.663
505.9838, 4690.924
506.4659, 4685.706
506.9481, 4683.853
507.4302, 4678.073
507.9123, 4668.318
508.3944, 4659.486
508.8765, 4651.833
509.3586, 4646.425
509.8408, 4646.803
510.3229, 4652.138
510.8050, 4656.466
511.2871, 4655.879
511.7692, 4652.410
512.2513, 4650.426
512.7335, 4650.243
513.2156, 4645.495
513.6977, 4620.235
514.1798, 4592.246
514.6619, 4583.148
515.1440, 4617.842
515.6262, 4648.116
516.1083, 4649.337
516.5904, 4631.293
517.0725, 4618.927
517.5546, 4619.121
518.0367, 4624.512
518.5189, 4632.335
519.0010, 4641.933
519.4831, 4658.097
519.9652, 4688.494
520.4473, 4717.560
520.9294, 4730.175
521.4116, 4719.963
521.8937, 4715.234
522.3758, 4721.363
522.8579, 4732.857
523.3400, 4733.999
523.8221, 4723.772
524.3043, 4719.226
524.7864, 4732.771
525.2685, 4758.267
525.7506, 4776.584
526.2327, 4787.687
526.7148, 4794.163
527.1970, 4792.322
527.6791, 4788.825
528.1612, 4796.052
528.6433, 4821.206
529.1254, 4848.804
529.6075, 4868.663
530.0897, 4882.467
530.5718, 4893.225
531.0539, 4898.428
531.5360, 4904.330
532.0181, 4914.797
532.5002, 4930.190
532.9824, 4943.239
533.4645, 4949.332
533.9466, 4955.220
534.4287, 4964.613
534.9108, 4976.814
535.3929, 4995.038
535.8751, 5024.745
536.3572, 5056.549
536.8393, 5070.391
537.3214, 5061.003
537.8035, 5058.443
538.2856, 5076.197
538.7678, 5108.012
539.2499, 5123.515
539.7320, 5122.049
540.2141, 5119.924
540.6962, 5134.550
541.1783, 5157.346
541.6605, 5165.433
542.1426, 5152.109
542.6247, 5140.168
543.1068, 5159.927
543.5889, 5194.295
544.0710, 5214.129
544.5532, 5193.705
545.0353, 5168.951
545.5174, 5156.340
545.9995, 5154.692
546.4816, 5157.471
546.9637, 5175.804
547.4459, 5187.608
547.9280, 5177.809
548.4101, 5130.161
548.8922, 5108.846
549.3743, 5137.471
549.8564, 5172.688
550.3386, 5163.845
550.8207, 5092.683
551.3028, 5037.905
551.7849, 5016.141
552.2670, 5016.032
552.7491, 5009.232
553.2313, 4995.626
553.7134, 4978.399
554.1955, 4958.750
554.6776, 4936.802
555.1597, 4910.651
555.6418, 4880.347
556.1240, 4853.764
556.6061, 4840.694
557.0882, 4834.602
557.5703, 4826.021
558.0524, 4811.051
558.5345, 4796.272
559.0167, 4787.553
559.4988, 4781.531
559.9809, 4772.133
560.4630, 4757.611
560.9451, 4739.356
561.4272, 4715.347
561.9094, 4685.676
562.3915, 4661.342
562.8736, 4642.910
563.3557, 4629.256
563.8378, 4620.761
564.3199, 4619.771
564.8021, 4615.114
565.2842, 4605.677
565.7663, 4594.369
566.2484, 4584.733
566.7305, 4576.710
567.2126, 4571.838
567.6948, 4572.621
568.1769, 4574.482
568.6590, 4564.363
569.1411, 4545.159
569.6232, 4533.941
570.1053, 4547.659
570.5875, 4571.035
571.0696, 4590.242
571.5517, 4604.349
572.0338, 4608.865
572.5159, 4593.356
572.9980, 4571.080
573.4802, 4553.976
573.9623, 4540.893
574.4444, 4538.030
574.9265, 4555.335
575.4086, 4582.309
575.8907, 4596.918
576.3729, 4585.884
576.8550, 4585.408
577.3371, 4610.979
577.8192, 4658.194
578.3013, 4681.115
578.7834, 4675.210
579.2656, 4661.704
579.7477, 4654.197
580.2298, 4651.734
580.7119, 4647.648
581.1940, 4640.724
581.6761, 4636.359
582.1583, 4644.389
582.6404, 4659.174
583.1225, 4668.724
583.6046, 4668.021
584.0867, 4662.116
584.5688, 4649.797
585.0510, 4634.694
585.5331, 4626.955
586.0152, 4632.227
586.4973, 4644.074
586.9794, 4660.387
587.4615, 4681.216
587.9437, 4705.112
588.4258, 4737.556
588.9079, 4767.739
589.3900, 4788.797
589.8721, 4799.371
590.3542, 4804.694
590.8364, 4804.453
591.3185, 4799.674
591.8006, 4789.088
592.2827, 4772.867
592.7648, 4762.924
593.2469, 4763.226
593.7291, 4771.634
594.2112, 4787.466
594.6933, 4809.136
595.1754, 4827.991
595.6575, 4840.397
596.1396, 4846.208
596.6218, 4842.891
597.1039, 4829.842
597.5860, 4817.673
598.0681, 4805.443
598.5502, 4799.886
599.0323, 4807.316
599.5145, 4850.935
599.9966, 4875.609
600.4787, 4866.984
600.9608, 4841.978
601.4429, 4827.813
601.9250, 4827.946
602.4072, 4830.757
602.8893, 4834.608
603.3714, 4838.816
603.8535, 4840.756
604.3356, 4840.522
604.8177, 4837.042
605.2999, 4823.292
605.7820, 4806.114
606.2641, 4809.166
606.7462, 4834.283
607.2283, 4858.724
607.7104, 4860.781
608.1926, 4852.093
608.6747, 4848.587
609.1568, 4859.810
609.6389, 4865.712
610.1210, 4846.670
610.6031, 4818.450
611.0853, 4807.261
611.5674, 4836.812
612.0495, 4862.701
612.5316, 4874.928
613.0137, 4875.647
613.4958, 4878.677
613.9780, 4885.640
614.4601, 4891.110
614.9422, 4890.924
615.4243, 4885.307
615.9064, 4884.399
616.3885, 4888.391
616.8707, 4895.853
617.3528, 4902.357
617.8349, 4911.244
618.3170, 4935.136
618.7991, 4982.740
619.2813, 5026.337
619.7634, 5032.645
620.2455, 5019.378
620.7276, 5016.538
621.2097, 5051.941
621.6918, 5083.492
622.1740, 5089.822
622.6561, 5076.440
623.1382, 5073.255
623.6203, 5088.156
624.1024, 5108.178
624.5845, 5129.482
625.0667, 5152.093
625.5488, 5176.009
626.0309, 5199.770
626.5130, 5228.916
626.9951, 5271.913
627.4772, 5327.040
627.9594, 5374.201
628.4415, 5410.452
628.9236, 5442.054
629.4057, 5467.386
629.8878, 5493.934
630.3699, 5539.521
630.8521, 5626.335
631.3342, 5715.543
631.8163, 5774.006
632.2984, 5812.342
632.7805, 5858.209
633.2626, 5917.057
633.7448, 5988.354
634.2269, 6075.458
634.7090, 6179.087
635.1911, 6277.129
635.6732, 6362.511
636.1553, 6452.463
636.6375, 6555.393
637.1196, 6670.871
637.6017, 6800.133
638.0838, 6943.161
638.5659, 7095.870
639.0480, 7256.831
639.5302, 7422.987
640.0123, 7585.233
640.4944, 7736.237
640.9765, 7896.242
641.4586, 8097.552
641.9407, 8325.872
642.4229, 8556.631
642.9050, 8766.425
643.3871, 8985.200
643.8692, 9234.765
644.3513, 9509.091
644.8334, 9772.508
645.3156, 9996.777
645.7977, 10231.95
646.2798, 10500.90
646.7619, 10805.10
647.2440, 11104.43
647.7261, 11396.33
648.2083, 11684.75
648.6904, 11967.02
649.1725, 12242.97
649.6546, 12514.76
650.1367, 12782.05
650.6188, 13036.45
651.1010, 13271.36
651.5831, 13482.44
652.0652, 13662.39
652.5473, 13822.29
653.0294, 13931.21
653.5115, 13974.19
653.9937, 13951.92
654.4758, 13864.50
654.9579, 13714.43
655.4400, 13495.92
655.9221, 13188.22
656.4042, 12801.07
656.8864, 12410.29
657.3685, 12016.85
657.8506, 11617.64
658.3327, 11202.98
658.8148, 10773.39
659.2969, 10379.00
659.7791, 10017.38
660.2612, 9682.796
660.7433, 9372.238
661.2254, 9085.697
661.7075, 8830.558
662.1896, 8613.225
662.6718, 8406.438
663.1539, 8182.014
663.6360, 7955.789
664.1181, 7752.623
664.6002, 7578.779
665.0823, 7427.680
665.5645, 7304.554
666.0466, 7203.632
666.5287, 7107.746
667.0108, 7020.229
667.4929, 6932.864
667.9750, 6841.177
668.4572, 6748.174
668.9393, 6673.780
669.4214, 6618.842
669.9035, 6574.490
670.3856, 6544.942
670.8677, 6520.914
671.3499, 6473.604
671.8320, 6402.738
672.3141, 6334.656
672.7962, 6297.365
673.2783, 6269.731
673.7604, 6227.419
674.2426, 6158.096
674.7247, 6100.335
675.2068, 6077.714
675.6889, 6067.698
676.1710, 6043.476
676.6531, 5985.845
677.1353, 5947.291
677.6174, 5936.822
678.0995, 5942.977
678.5816, 5945.249
679.0637, 5943.908
679.5458, 5935.463
680.0280, 5918.875
680.5101, 5894.562
680.9922, 5855.487
681.4743, 5806.404
681.9564, 5768.768
682.4385, 5769.956
682.9207, 5777.705
683.4028, 5758.512
683.8849, 5713.219
684.3670, 5682.374
684.8491, 5700.767
685.3312, 5720.812
685.8134, 5712.112
686.2955, 5663.911
686.7776, 5627.645
687.2597, 5606.537
687.7418, 5593.014
688.2239, 5584.696
688.7061, 5582.063
689.1882, 5563.173
689.6703, 5521.275
690.1524, 5478.678
690.6345, 5475.700
691.1166, 5494.465
691.5988, 5486.658
692.0809, 5418.504
692.5630, 5349.006
693.0451, 5320.555
693.5272, 5321.015
694.0093, 5324.742
694.4915, 5335.646
694.9736, 5336.238
695.4557, 5316.436
695.9378, 5281.417
696.4199, 5254.498
696.9020, 5240.436
697.3842, 5223.796
697.8663, 5196.405
698.3484, 5160.351
698.8305, 5130.387
699.3126, 5106.808
699.7947, 5087.357
700.2769, 5072.138
700.7590, 5059.379
701.2411, 5046.111
701.7232, 5031.983
702.2053, 5018.839
702.6874, 5006.178
703.1696, 4996.093
703.6517, 4991.832
704.1338, 5004.525
704.6159, 5001.566
705.0980, 4970.725
705.5801, 4931.016
706.0623, 4903.249
706.5444, 4890.147
707.0265, 4880.055
707.5086, 4874.353
707.9907, 4865.617
708.4728, 4833.768
708.9550, 4784.137
709.4371, 4747.143
709.9192, 4737.770
710.4013, 4740.894
710.8834, 4747.230
711.3655, 4753.526
711.8477, 4750.929
712.3298, 4724.521
712.8119, 4699.347
713.2940, 4687.709
713.7761, 4689.116
714.2582, 4685.507
714.7404, 4677.963
715.2225, 4663.142
715.7046, 4634.895
716.1867, 4594.567
716.6688, 4573.949
717.1509, 4574.913
717.6331, 4580.097
718.1152, 4575.653
718.5973, 4565.517
719.0794, 4558.374
719.5615, 4555.215
720.0436, 4550.750
720.5258, 4538.018
721.0079, 4523.997
721.4900, 4515.332
721.9721, 4516.053
722.4542, 4516.919
722.9363, 4515.882
723.4185, 4514.940
723.9006, 4518.157
724.3827, 4530.916
724.8648, 4527.399
725.3469, 4500.105
725.8290, 4463.506
726.3112, 4441.335
726.7933, 4431.737
727.2754, 4424.422
727.7575, 4415.740
728.2396, 4408.417
728.7217, 4407.424
729.2039, 4410.052
729.6860, 4409.907
730.1681, 4397.236
730.6502, 4388.703
731.1323, 4397.853
731.6144, 4419.295
732.0966, 4420.201
732.5787, 4388.409
733.0608, 4357.450
733.5429, 4339.530
734.0250, 4332.827
734.5071, 4327.248
734.9893, 4322.960
735.4714, 4315.148
735.9535, 4293.579
736.4356, 4269.056
736.9177, 4263.061
737.3998, 4275.865
737.8820, 4287.266
738.3641, 4282.239
738.8462, 4273.542
739.3283, 4271.205
739.8104, 4279.443
740.2925, 4282.972
740.7747, 4280.506
741.2568, 4273.672
741.7389, 4260.428
742.2210, 4237.537
742.7031, 4232.274
743.1852, 4249.377
743.6674, 4272.566
744.1495, 4286.521
744.6316, 4291.293
745.1137, 4285.643
745.5958, 4266.155
746.0779, 4245.990
746.5601, 4234.826
747.0422, 4229.271
747.5243, 4224.790
748.0064, 4219.616
748.4885, 4216.020
748.9706, 4213.350
749.4528, 4212.857
749.9349, 4219.568
750.4170, 4238.930
750.8991, 4243.037
751.3812, 4220.259
751.8633, 4185.337
752.3455, 4170.654
752.8276, 4173.596
753.3097, 4179.142
753.7918, 4179.798
754.2739, 4180.492
754.7560, 4189.091
755.2382, 4202.120
755.7203, 4207.859
756.2024, 4195.255
756.6845, 4181.683
757.1666, 4171.247
757.6487, 4164.517
758.1309, 4167.207
758.6130, 4183.559
759.0951, 4198.128
759.5772, 4200.867
760.0593, 4195.567
760.5414, 4207.405
761.0236, 4235.435
761.5057, 4255.004
761.9878, 4236.256
762.4699, 4207.146
762.9520, 4200.817
763.4341, 4219.814
763.9163, 4236.637
764.3984, 4237.737
764.8805, 4235.628
765.3626, 4237.451
765.8447, 4243.533
766.3268, 4253.061
766.8090, 4267.710
767.2911, 4282.351
767.7732, 4289.842
768.2553, 4291.778
768.7374, 4306.234
769.2195, 4335.622
769.7017, 4364.876
770.1838, 4377.490
770.6659, 4382.245
771.1480, 4390.526
771.6301, 4404.669
772.1122, 4421.855
772.5944, 4446.679
773.0765, 4470.853
773.5586, 4485.705
774.0407, 4484.153
774.5228, 4489.074
775.0049, 4503.786
775.4871, 4521.148
775.9692, 4530.216
776.4513, 4532.152
776.9334, 4534.008
777.4155, 4532.444
777.8976, 4545.834
778.3798, 4620.712
778.8619, 4719.403
779.3440, 4777.133
779.8261, 4735.362
780.3082, 4698.929
780.7903, 4706.137
781.2725, 4738.491
781.7546, 4761.231
782.2367, 4767.854
782.7188, 4780.594
783.2009, 4806.310
783.6830, 4835.771
784.1652, 4846.284
784.6473, 4840.292
785.1294, 4839.006
785.6115, 4852.112
786.0936, 4870.719
786.5757, 4886.853
787.0579, 4900.782
787.5400, 4913.280
788.0221, 4918.565
788.5042, 4929.154
788.9863, 4953.635
789.4684, 4986.760
789.9506, 5014.407
790.4327, 5038.997
790.9148, 5050.006
791.3969, 5040.043
791.8790, 5017.214
792.3611, 5004.674
792.8433, 5001.434
793.3254, 5000.981
793.8075, 5002.372
794.2896, 5002.961
794.7717, 5000.177
795.2538, 4994.354
795.7360, 4987.067
796.2181, 4977.711
796.7002, 4967.931
797.1823, 4956.071
797.6644, 4943.319
798.1465, 4941.480
798.6287, 4953.697
799.1108, 4964.795
799.5929, 4969.082
800.0750, 4966.560
800.5571, 4953.655
801.0392, 4932.115
801.5214, 4914.096
802.0035, 4911.610
802.4856, 4912.855
802.9677, 4906.186
803.4498, 4892.111
803.9319, 4886.940
804.4141, 4905.339
804.8962, 4921.792
805.3783, 4926.487
805.8604, 4919.710
806.3425, 4913.740
806.8246, 4908.494
807.3068, 4904.398
807.7889, 4899.013
808.2710, 4895.727
808.7531, 4904.471
809.2352, 4924.513
809.7173, 4943.628
810.1995, 4961.477
810.6816, 4970.496
811.1637, 4963.200
811.6458, 4937.354
812.1279, 4911.363
812.6100, 4875.240
813.0922, 4855.145
813.5743, 4871.654
814.0564, 4922.565
814.5385, 4956.852
815.0206, 4974.438
815.5027, 4976.922
815.9849, 4954.324
816.4670, 4922.817
816.9491, 4905.241
817.4312, 4903.284
817.9133, 4903.499
818.3954, 4897.039
818.8776, 4893.203
819.3597, 4900.260
819.8418, 4920.483
820.3239, 4930.939
820.8060, 4929.377
821.2881, 4923.347
821.7703, 4916.742
822.2524, 4909.836
822.7345, 4903.238
823.2166, 4896.990
823.6987, 4895.250
824.1808, 4908.026
824.6630, 4922.582
825.1451, 4925.276
825.6272, 4913.807
826.1093, 4902.790
826.5914, 4894.374
827.0735, 4888.356
827.5557, 4885.612
828.0378, 4886.777
828.5199, 4882.809
829.0020, 4872.763
829.4841, 4863.551
829.9662, 4868.929
830.4484, 4876.878
830.9305, 4853.974
831.4126, 4799.183
831.8947, 4757.768
832.3768, 4772.738
832.8589, 4800.027
833.3411, 4809.015
833.8232, 4791.829
834.3053, 4782.742
834.7874, 4788.456
835.2695, 4790.772
835.7516, 4773.389
836.2338, 4738.480
836.7159, 4726.388
837.1980, 4737.255
837.6801, 4742.830
838.1622, 4705.096
838.6443, 4659.729
839.1265, 4654.332
839.6086, 4694.141
840.0907, 4717.014
840.5728, 4688.010
841.0549, 4650.127
841.5370, 4622.469
842.0192, 4604.969
842.5013, 4603.108
842.9834, 4621.371
843.4655, 4634.344
843.9476, 4621.143
844.4298, 4590.206
844.9119, 4557.306
845.3940, 4523.696
845.8762, 4498.127
846.3583, 4490.175
846.8404, 4488.710
847.3225, 4489.384
847.8046, 4492.245
848.2867, 4484.907
848.7689, 4463.075
849.2510, 4437.950
849.7331, 4412.611
850.2152, 4388.183
850.6973, 4378.547
851.1794, 4383.016
851.6616, 4380.398
852.1437, 4350.513
852.6258, 4310.562
853.1079, 4273.524
853.5900, 4240.996
854.0721, 4219.631
854.5543, 4226.571
855.0364, 4229.509
855.5185, 4212.145
856.0006, 4178.348
856.4827, 4164.493
856.9648, 4173.066
857.4470, 4185.209
857.9291, 4197.543
858.4112, 4203.877
858.8933, 4181.517
859.3754, 4138.470
859.8575, 4109.928
860.3397, 4128.646
860.8218, 4153.152
861.3039, 4164.810
861.7860, 4163.444
862.2681, 4154.858
862.7502, 4131.808
863.2324, 4117.986
863.7145, 4121.767
864.1966, 4139.059
864.6787, 4161.752
865.1608, 4188.453
865.6429, 4211.243
866.1251, 4222.546
866.6072, 4231.867
867.0893, 4246.250
867.5714, 4264.700
868.0535, 4284.481
868.5356, 4296.410
869.0178, 4321.770
869.4999, 4367.661
869.9820, 4427.431
870.4641, 4484.330
870.9462, 4538.569
871.4283, 4585.968
871.9105, 4620.985
872.3926, 4656.944
872.8747, 4713.213
873.3568, 4782.872
873.8389, 4852.426
874.3210, 4907.901
874.8032, 4973.725
875.2853, 5061.475
875.7674, 5160.631
876.2495, 5259.142
876.7316, 5358.440
877.2137, 5447.302
877.6959, 5519.650
878.1780, 5592.536
878.6601, 5698.929
879.1422, 5823.655
879.6243, 5929.947
880.1064, 5997.361
880.5886, 6071.223
881.0707, 6184.354
881.5528, 6311.657
882.0349, 6423.271
882.5170, 6513.451
882.9991, 6597.177
883.4813, 6671.401
883.9634, 6746.789
884.4455, 6843.942
884.9276, 6953.542
885.4097, 7034.260
885.8918, 7078.966
886.3740, 7119.758
886.8561, 7183.035
887.3382, 7251.379
887.8203, 7309.313
888.3024, 7352.471
888.7845, 7391.904
889.2667, 7426.351
889.7488, 7458.638
890.2309, 7495.143
890.7130, 7533.556
891.1951, 7549.531
891.6772, 7542.709
892.1594, 7520.811
892.6415, 7485.655
893.1236, 7441.233
893.6057, 7388.585
894.0878, 7327.931
894.5699, 7270.888
895.0521, 7236.906
895.5342, 7186.608
896.0163, 7098.875
896.4984, 6979.063
896.9805, 6888.599
897.4626, 6826.801
897.9448, 6757.706
898.4269, 6648.485
898.9090, 6529.663
899.3911, 6442.229
899.8732, 6378.048
900.3553, 6303.777
900.8375, 6186.890
901.3196, 6084.547
901.8017, 6019.885
902.2838, 5979.489
902.7659, 5923.761
903.2480, 5851.985
903.7302, 5775.313
904.2123, 5693.195
904.6944, 5615.939
905.1765, 5556.702
905.6586, 5512.295
906.1407, 5475.509
906.6229, 5458.299
907.1050, 5429.905
907.5871, 5365.388
908.0692, 5292.464
908.5513, 5249.825
909.0334, 5246.726
909.5156, 5228.449
909.9977, 5186.081
910.4798, 5135.675
910.9619, 5093.808
911.4440, 5059.578
911.9261, 5034.808
912.4083, 5023.801
912.8904, 5003.599
913.3725, 4951.532
913.8546, 4894.211
914.3367, 4851.319
914.8188, 4820.932
915.3010, 4820.257
915.7831, 4858.944
916.2652, 4891.189
916.7473, 4868.004
917.2294, 4813.098
917.7115, 4783.554
918.1937, 4781.115
918.6758, 4779.082
919.1579, 4757.022
919.6400, 4735.361
920.1221, 4728.837
920.6042, 4736.568
921.0864, 4734.770
921.5685, 4719.258
922.0506, 4708.859
922.5327, 4719.889
923.0148, 4736.607
923.4969, 4708.613
923.9791, 4648.752
924.4612, 4606.429
924.9433, 4625.767
925.4254, 4649.403
925.9075, 4646.527
926.3896, 4626.869
926.8718, 4620.310
927.3539, 4636.957
927.8360, 4637.061
928.3181, 4609.032
928.8002, 4569.701
929.2823, 4549.603
929.7645, 4541.972
930.2466, 4526.210
930.7287, 4491.534
931.2108, 4462.220
931.6929, 4456.648
932.1750, 4461.493
932.6572, 4462.683
933.1393, 4458.782
933.6214, 4453.004
934.1035, 4445.085
934.5856, 4435.818
935.0677, 4427.655
935.5499, 4418.388
936.0320, 4398.264
936.5141, 4366.649
936.9962, 4340.799
937.4783, 4334.587
937.9604, 4334.589
938.4426, 4334.157
938.9247, 4332.903
939.4068, 4323.360
939.8889, 4303.483
940.3710, 4281.315
940.8531, 4259.301
941.3353, 4238.467
941.8174, 4219.249
942.2995, 4203.009
942.7816, 4195.220
943.2637, 4211.708
943.7458, 4223.519
944.2280, 4212.933
944.7101, 4187.647
945.1922, 4169.142
945.6743, 4160.597
946.1564, 4147.608
946.6385, 4125.537
947.1207, 4102.251
947.6028, 4090.223
948.0849, 4086.432
948.5670, 4084.449
949.0491, 4083.790
949.5313, 4081.360
950.0134, 4076.278
950.4955, 4068.240
950.9776, 4056.024
951.4597, 4036.315
951.9418, 4026.141
952.4240, 4026.798
952.9061, 4031.280
953.3882, 4036.196
953.8703, 4039.690
954.3524, 4037.870
954.8345, 4030.721
955.3167, 4021.352
955.7988, 4004.990
956.2809, 3993.311
956.7630, 3994.047
957.2451, 4004.582
957.7272, 4009.258
958.2094, 4007.318
958.6915, 4006.098
959.1736, 4010.885
959.6557, 4015.044
960.1378, 4008.215
960.6199, 3992.819
961.1021, 3974.082
961.5842, 3936.851
962.0663, 3918.716
962.5484, 3941.055
963.0305, 3977.218
963.5126, 3992.391
963.9948, 3985.315
964.4769, 3979.773
964.9590, 3978.632
965.4411, 3979.266
965.9232, 3979.867
966.4053, 3980.208
966.8875, 3978.299
967.3696, 3972.167
967.8517, 3975.212
968.3338, 3999.977
968.8159, 4022.312
969.2980, 4029.286
969.7802, 4022.196
970.2623, 4011.947
970.7444, 3998.971
971.2265, 3994.748
971.7086, 4020.880
972.1907, 4046.596
972.6729, 4035.510
973.1550, 4000.049
973.6371, 3984.828
974.1192, 4013.885
974.6013, 4035.161
975.0834, 4037.213
975.5656, 4030.286
976.0477, 4033.974
976.5298, 4045.992
977.0119, 4056.225
977.4940, 4062.977
977.9761, 4064.674
978.4583, 4052.549
978.9404, 4038.985
979.4225, 4038.105
979.9046, 4054.991
980.3867, 4071.521
980.8688, 4090.704
981.3510, 4100.989
981.8331, 4082.950
982.3152, 4050.956
982.7973, 4052.559
983.2794, 4083.661
983.7615, 4103.033
984.2437, 4077.559
984.7258, 4045.766
985.2079, 4025.698
985.6900, 4014.790
986.1721, 4006.199
986.6542, 4001.813
987.1364, 3986.909
987.6185, 3953.465
988.1006, 3915.419
988.5827, 3895.680
989.0648, 3885.594
989.5469, 3868.943
990.0291, 3836.452
990.5112, 3805.489
990.9933, 3774.246
991.4754, 3750.934
991.9575, 3749.715
992.4396, 3772.078
992.9218, 3760.038
993.4039, 3710.112
993.8860, 3660.956
994.3681, 3643.241
994.8502, 3641.580
995.3323, 3646.520
995.8145, 3656.172
996.2966, 3657.134
996.7787, 3646.956
997.2608, 3629.044
997.7429, 3600.793
998.2250, 3568.725
998.7072, 3551.803
999.1893, 3546.729
999.6714, 3537.047
1000.154, 3511.365
1000.636, 3490.352
1001.118, 3492.187
1001.600, 3503.920
1002.082, 3508.811
1002.564, 3504.515
1003.046, 3497.043
1003.528, 3485.052
1004.010, 3475.195
1004.493, 3477.041
1004.975, 3484.422
1005.457, 3484.050
1005.939, 3475.676
1006.421, 3468.231
1006.903, 3467.971
1007.385, 3466.922
1007.867, 3460.625
1008.349, 3451.060
1008.832, 3447.013
1009.314, 3448.561
1009.796, 3452.743
1010.278, 3463.389
1010.760, 3466.759
1011.242, 3431.773
1011.724, 3384.680
1012.206, 3366.351
1012.689, 3419.753
1013.171, 3444.778
1013.653, 3428.628
1014.135, 3399.616
1014.617, 3379.019
1015.099, 3367.159
1015.581, 3369.476
1016.063, 3385.368
1016.545, 3398.923
1017.028, 3394.330
1017.510, 3389.071
1017.992, 3397.995
1018.474, 3417.497
1018.956, 3423.441
1019.438, 3413.190
1019.920, 3400.091
1020.402, 3387.073
1020.885, 3375.165
1021.367, 3364.858
1021.849, 3357.175
1022.331, 3354.828
1022.813, 3363.128
1023.295, 3366.672
1023.777, 3352.618
1024.259, 3341.382
1024.741, 3352.522
1025.224, 3386.197
1025.706, 3400.546
1026.188, 3395.465
1026.670, 3387.006
1027.152, 3386.333
1027.634, 3387.442
1028.116, 3385.595
1028.598, 3381.045
1029.080, 3376.301
1029.563, 3371.216
1030.045, 3366.478
1030.527, 3361.648
1031.009, 3358.389
1031.491, 3363.496
1031.973, 3372.025
1032.455, 3370.408
1032.937, 3351.118
1033.420, 3336.288
1033.902, 3336.106
1034.384, 3343.770
1034.866, 3356.124
1035.348, 3373.695
1035.830, 3380.963
1036.312, 3377.609
1036.794, 3375.434
1037.276, 3388.905
1037.759, 3401.897
1038.241, 3393.786
1038.723, 3370.853
1039.205, 3352.970
1039.687, 3341.996
1040.169, 3340.520
1040.651, 3352.961
1041.133, 3368.169
1041.615, 3366.791
1042.098, 3354.198
1042.580, 3346.702
1043.062, 3346.624
1043.544, 3353.946
1044.026, 3380.495
1044.508, 3403.764
1044.990, 3408.387
1045.472, 3395.288
1045.955, 3381.781
1046.437, 3367.597
1046.919, 3359.956
1047.401, 3365.848
1047.883, 3376.094
1048.365, 3379.330
1048.847, 3378.953
1049.329, 3381.402
1049.812, 3402.063
1050.294, 3402.291
1050.776, 3370.812
1051.258, 3335.896
1051.740, 3326.817
1052.222, 3339.272
1052.704, 3364.876
1053.186, 3402.091
1053.668, 3425.925
1054.151, 3412.938
1054.633, 3391.577
1055.115, 3372.073
1055.597, 3356.782
1056.079, 3358.539
1056.561, 3379.309
1057.043, 3390.539
1057.525, 3380.750
1058.007, 3365.401
1058.490, 3361.716
1058.972, 3363.941
1059.454, 3363.697
1059.936, 3355.286
1060.418, 3356.809
1060.900, 3377.042
1061.382, 3390.923
1061.864, 3372.339
1062.347, 3334.392
1062.829, 3324.199
1063.311, 3337.624
1063.793, 3352.698
1064.275, 3358.969
1064.757, 3363.757
1065.239, 3371.768
1065.721, 3379.427
1066.203, 3378.973
1066.686, 3369.903
1067.168, 3367.694
1067.650, 3375.991
1068.132, 3381.362
1068.614, 3364.584
1069.096, 3343.225
1069.578, 3335.169
1070.060, 3343.612
1070.542, 3349.755
1071.025, 3351.639
1071.507, 3354.950
1071.989, 3363.142
1072.471, 3372.821
1072.953, 3378.441
1073.435, 3380.017
1073.917, 3377.292
1074.399, 3365.042
1074.882, 3357.356
1075.364, 3360.439
1075.846, 3366.983
1076.328, 3372.637
1076.810, 3377.249
1077.292, 3376.492
1077.774, 3370.403
1078.256, 3362.376
1078.739, 3350.101
1079.221, 3340.990
1079.703, 3342.198
1080.185, 3351.384
1080.667, 3359.255
1081.149, 3366.187
1081.631, 3369.116
1082.113, 3366.118
1082.595, 3363.783
1083.078, 3375.223
1083.560, 3390.448
1084.042, 3392.815
1084.524, 3377.221
1085.006, 3370.496
1085.488, 3384.545
1085.970, 3394.784
1086.452, 3387.516
1086.934, 3370.738
1087.417, 3373.897
1087.899, 3390.505
1088.381, 3395.849
1088.863, 3369.874
1089.345, 3347.000
1089.827, 3345.846
1090.309, 3352.458
1090.791, 3351.324
1091.274, 3340.695
1091.756, 3346.980
1092.238, 3371.120
1092.720, 3394.043
1093.202, 3402.209
1093.684, 3402.466
1094.166, 3398.895
1094.648, 3392.256
1095.130, 3383.385
1095.613, 3367.142
1096.095, 3367.068
1096.577, 3393.120
1097.059, 3419.525
1097.541, 3401.096
1098.023, 3363.307
1098.505, 3350.565
1098.987, 3372.619
1099.470, 3386.496
1099.952, 3377.511
1100.434, 3363.947
1100.916, 3349.650
1101.398, 3337.541
1101.880, 3341.701
1102.362, 3357.765
1102.844, 3368.255
1103.327, 3363.569
1103.809, 3357.943
1104.291, 3355.218
1104.773, 3357.139
1105.255, 3366.691
1105.737, 3385.458
1106.219, 3397.253
1106.701, 3402.186
1107.183, 3397.888
1107.666, 3370.383
1108.148, 3344.049
1108.630, 3343.229
1109.112, 3359.854
1109.594, 3368.805
1110.076, 3365.411
1110.558, 3366.063
1111.040, 3373.790
1111.522, 3381.849
1112.005, 3380.606
1112.487, 3375.819
1112.969, 3377.476
1113.451, 3386.347
1113.933, 3389.129
1114.415, 3375.162
1114.897, 3369.354
1115.379, 3384.939
1115.862, 3405.880
1116.344, 3384.976
1116.826, 3339.522
1117.308, 3321.604
1117.790, 3354.897
1118.272, 3384.055
1118.754, 3383.310
1119.236, 3372.864
1119.719, 3361.346
1120.201, 3350.060
1120.683, 3358.511
1121.165, 3383.946
1121.647, 3400.014
1122.129, 3384.718
1122.611, 3365.198
1123.093, 3358.540
1123.575, 3358.055
1124.057, 3351.683
1124.540, 3335.907
1125.022, 3335.256
1125.504, 3352.284
1125.986, 3368.649
1126.468, 3366.472
1126.950, 3357.970
1127.432, 3353.951
1127.914, 3354.496
1128.397, 3357.521
1128.879, 3363.789
1129.361, 3369.168
1129.843, 3372.322
1130.325, 3376.218
1130.807, 3387.606
1131.289, 3401.115
1131.771, 3406.556
1132.254, 3401.830
1132.736, 3402.217
1133.218, 3421.346
1133.700, 3427.677
1134.182, 3403.797
1134.664, 3366.302
1135.146, 3358.207
1135.628, 3371.161
1136.110, 3381.947
1136.593, 3384.345
1137.075, 3382.397
1137.557, 3375.107
1138.039, 3366.040
1138.521, 3356.564
1139.003, 3346.987
1139.485, 3339.564
1139.967, 3334.886
1140.449, 3337.558
1140.932, 3355.001
1141.414, 3374.767
1141.896, 3395.925
1142.378, 3412.413
1142.860, 3415.056
1143.342, 3402.015
1143.824, 3397.690
1144.306, 3403.458
1144.789, 3405.818
1145.271, 3384.465
1145.753, 3364.458
1146.235, 3372.523
1146.717, 3398.800
1147.199, 3402.959
1147.681, 3378.098
1148.163, 3360.760
1148.646, 3356.795
1149.128, 3359.378
1149.610, 3366.654
1150.092, 3372.885
1150.574, 3367.851
1151.056, 3351.106
1151.538, 3348.683
1152.020, 3369.014
1152.502, 3382.470
1152.984, 3377.632
1153.467, 3366.863
1153.949, 3369.511
1154.431, 3379.816
1154.913, 3388.342
1155.395, 3392.903
1155.877, 3396.261
1156.359, 3397.077
1156.841, 3400.586
1157.324, 3412.559
1157.806, 3426.705
1158.288, 3423.623
1158.770, 3409.111
1159.252, 3399.083
1159.734, 3405.423
1160.216, 3405.564
1160.698, 3391.360
1161.181, 3374.995
1161.663, 3364.457
1162.145, 3359.779
1162.627, 3361.575
1163.109, 3369.300
1163.591, 3380.024
1164.073, 3404.178
1164.555, 3415.565
1165.037, 3395.759
1165.520, 3367.195
1166.002, 3356.337
1166.484, 3361.780
1166.966, 3369.336
1167.448, 3377.848
1167.930, 3384.523
1168.412, 3384.384
1168.894, 3385.210
1169.376, 3393.399
1169.859, 3404.816
1170.341, 3409.772
1170.823, 3408.450
1171.305, 3410.973
1171.787, 3419.656
1172.269, 3425.929
1172.751, 3418.826
1173.233, 3410.000
1173.716, 3408.679
1174.198, 3413.771
1174.680, 3420.418
1175.162, 3428.866
1175.644, 3431.994
1176.126, 3425.151
1176.608, 3421.337
1177.090, 3442.905
1177.573, 3467.150
1178.055, 3467.358
1178.537, 3441.187
1179.019, 3422.144
1179.501, 3410.359
1179.983, 3403.798
1180.465, 3404.224
1180.947, 3404.879
1181.429, 3392.683
1181.911, 3378.260
1182.394, 3379.027
1182.876, 3403.688
1183.358, 3415.766
1183.840, 3413.619
1184.322, 3408.202
1184.804, 3405.815
1185.286, 3404.653
1185.768, 3398.603
1186.251, 3392.743
1186.733, 3398.912
1187.215, 3426.676
1187.697, 3449.689
1188.179, 3468.443
1188.661, 3477.656
1189.143, 3465.063
1189.625, 3445.230
1190.108, 3440.419
1190.590, 3446.551
1191.072, 3446.097
1191.554, 3427.453
1192.036, 3420.827
1192.518, 3432.366
1193.000, 3447.436
1193.482, 3446.697
1193.964, 3440.667
1194.447, 3451.437
1194.929, 3476.584
1195.411, 3480.942
1195.893, 3440.489
1196.375, 3414.435
1196.857, 3416.431
1197.339, 3431.624
1197.821, 3443.143
1198.303, 3451.256
1198.786, 3455.515
1199.268, 3455.818
1199.750, 3456.488
1200.232, 3459.134
1200.714, 3460.905
1201.196, 3461.370
1201.678, 3459.883
1202.160, 3452.995
1202.643, 3444.041
1203.125, 3439.303
1203.607, 3440.240
1204.089, 3445.128
1204.571, 3460.517
1205.053, 3465.540
1205.535, 3446.182
1206.017, 3418.064
1206.500, 3416.498
1206.982, 3431.971
1207.464, 3443.511
1207.946, 3444.244
1208.428, 3446.093
1208.910, 3453.745
1209.392, 3457.279
1209.874, 3448.651
1210.356, 3434.020
1210.839, 3427.096
1211.321, 3427.545
1211.803, 3435.493
1212.285, 3463.140
1212.767, 3472.231
1213.249, 3447.638
1213.731, 3426.583
1214.213, 3443.551
1214.695, 3481.520
1215.178, 3491.750
1215.660, 3481.745
1216.142, 3474.073
1216.624, 3485.067
1217.106, 3485.527
1217.588, 3467.676
1218.070, 3448.742
1218.552, 3446.107
1219.035, 3453.260
1219.517, 3450.878
1219.999, 3442.066
1220.481, 3440.990
1220.963, 3462.147
1221.445, 3478.035
1221.927, 3484.507
1222.409, 3486.091
1222.891, 3486.593
1223.374, 3486.360
1223.856, 3486.442
1224.338, 3486.667
1224.820, 3485.722
1225.302, 3478.729
1225.784, 3477.637
1226.266, 3485.782
1226.748, 3496.797
1227.230, 3504.159
1227.713, 3507.779
1228.195, 3504.244
1228.677, 3494.611
1229.159, 3493.457
1229.641, 3514.395
1230.123, 3528.674
1230.605, 3532.244
1231.087, 3524.604
1231.570, 3490.360
1232.052, 3450.467
1232.534, 3450.577
1233.016, 3494.984
1233.498, 3520.247
1233.980, 3508.790
1234.462, 3490.825
1234.944, 3470.500
1235.427, 3454.876
1235.909, 3460.507
1236.391, 3475.844
1236.873, 3481.000
1237.355, 3472.427
1237.837, 3469.122
1238.319, 3474.084
1238.801, 3480.995
1239.283, 3488.316
1239.766, 3495.642
1240.248, 3505.998
1240.730, 3513.990
1241.212, 3508.256
1241.694, 3483.564
1242.176, 3474.956
1242.658, 3489.563
1243.140, 3498.832
1243.622, 3489.153
1244.105, 3475.115
1244.587, 3471.527
1245.069, 3478.906
1245.551, 3503.404
1246.033, 3553.656
1246.515, 3570.639
1246.997, 3548.195
1247.479, 3522.296
1247.962, 3504.895
1248.444, 3498.490
1248.926, 3518.582
1249.408, 3545.535
1249.890, 3549.186
1250.372, 3520.264
1250.854, 3517.810
1251.336, 3544.841
1251.818, 3566.608
1252.301, 3563.396
1252.783, 3551.346
1253.265, 3545.743
1253.747, 3541.088
1254.229, 3527.538
1254.711, 3501.543
1255.193, 3498.543
1255.675, 3518.957
1256.157, 3533.208
1256.640, 3522.647
1257.122, 3503.936
1257.604, 3481.125
1258.086, 3463.013
1258.568, 3460.795
1259.050, 3475.642
1259.532, 3488.464
1260.014, 3499.192
1260.497, 3506.549
1260.979, 3504.039
1261.461, 3504.952
1261.943, 3520.924
1262.425, 3541.094
1262.907, 3556.852
1263.389, 3568.029
1263.871, 3558.028
1264.354, 3530.418
1264.836, 3513.308
1265.318, 3535.828
1265.800, 3554.560
1266.282, 3552.541
1266.764, 3540.025
1267.246, 3518.433
1267.728, 3492.569
1268.210, 3498.061
1268.693, 3530.196
1269.175, 3558.850
1269.657, 3572.035
1270.139, 3576.796
1270.621, 3575.948
1271.103, 3567.469
1271.585, 3536.996
1272.067, 3499.957
1272.549, 3515.612
1273.032, 3571.161
1273.514, 3607.266
1273.996, 3583.347
1274.478, 3563.927
1274.960, 3555.059
1275.442, 3554.214
1275.924, 3566.038
1276.406, 3580.529
1276.889, 3575.558
1277.371, 3556.308
1277.853, 3545.577
1278.335, 3549.026
1278.817, 3561.439
1279.299, 3586.421
1279.781, 3603.431
1280.263, 3580.108
1280.745, 3547.165
1281.228, 3544.743
1281.710, 3564.075
1282.192, 3568.251
1282.674, 3549.637
1283.156, 3540.427
1283.638, 3544.221
1284.120, 3549.611
1284.602, 3546.335
1285.084, 3541.312
1285.567, 3537.768
1286.049, 3537.871
1286.531, 3547.147
1287.013, 3566.791
1287.495, 3579.716
1287.977, 3584.544
1288.459, 3584.178
1288.941, 3576.007
1289.424, 3568.316
1289.906, 3566.972
1290.388, 3568.391
1290.870, 3566.910
1291.352, 3563.150
1291.834, 3560.502
1292.316, 3559.591
1292.798, 3564.983
1293.281, 3590.294
1293.763, 3607.233
1294.245, 3605.095
1294.727, 3594.974
1295.209, 3592.096
1295.691, 3593.660
1296.173, 3589.354
1296.655, 3579.912
1297.137, 3577.895
1297.620, 3602.651
1298.102, 3611.503
1298.584, 3593.926
1299.066, 3571.199
1299.548, 3570.529
1300.030, 3580.458
1300.512, 3582.341
##END=



