##NAMES=Clinoatacamite
##RRUFFID=R100198
##IDEAL CHEMISTRY=Cu^2+^_2_Cl(OH)_3_
##LOCALITY=La Vendida mine, Caracoles, Sierra Gorda District, Tocopilla Province, Antofagasta Region, Chile
##OWNER=RRUFF
##SOURCE=Bob Jenkins
##DESCRIPTION=Lighter green thin tabular crystals forming v-twins perched on darker green blocky atacamite, associated with black paratacamite. Twinned by 120 deg rotation around [2 0 1]
##STATUS=The identification of this mineral is confirmed by single-crystal X-ray diffraction and chemical analysis.
##URL=rruff.info/R100198
##MEASURED CHEMISTRY=(Cu_1.95_Ni_0.02_Co_0.01_)Cl_1.04_(OH)_3_
185.1003, 10.74487
185.5824, 10.50034
186.0645, 10.37925
186.5466, 10.55457
187.0287, 10.64531
187.5108, 10.50564
187.9930, 10.27971
188.4751, 10.16012
188.9572, 10.25962
189.4393, 10.53342
189.9214, 10.73238
190.4035, 10.89587
190.8857, 10.94143
191.3678, 10.78248
191.8499, 10.49875
192.3320, 10.20194
192.8141, 9.944005
193.2962, 9.741533
193.7784, 9.741015
194.2605, 10.22223
194.7426, 10.56190
195.2247, 10.42036
195.7068, 9.940962
196.1889, 9.551203
196.6711, 9.534597
197.1532, 9.812654
197.6353, 9.938204
198.1174, 9.819153
198.5995, 9.650590
199.0816, 9.501868
199.5638, 9.379735
200.0459, 9.331575
200.5280, 9.409868
201.0101, 9.581751
201.4922, 9.736787
201.9743, 9.940192
202.4565, 10.05740
202.9386, 9.870883
203.4207, 9.367477
203.9028, 9.019922
204.3849, 9.251534
204.8670, 9.746417
205.3492, 10.05648
205.8313, 10.07427
206.3134, 9.915133
206.7955, 9.666517
207.2776, 9.290547
207.7597, 9.002869
208.2419, 8.906127
208.7240, 8.947068
209.2061, 9.130908
209.6882, 9.511606
210.1703, 9.928509
210.6524, 10.06439
211.1346, 9.779276
211.6167, 9.572053
212.0988, 9.721563
212.5809, 9.965906
213.0630, 10.03113
213.5451, 9.789518
214.0273, 9.390613
214.5094, 9.175695
214.9915, 9.237208
215.4736, 9.330298
215.9557, 9.411611
216.4378, 9.490402
216.9200, 9.614364
217.4021, 9.810132
217.8842, 9.987046
218.3663, 9.862020
218.8484, 9.049494
219.3305, 8.492835
219.8127, 8.282454
220.2948, 8.362618
220.7769, 8.768144
221.2590, 9.515679
221.7411, 10.41191
222.2232, 10.88178
222.7054, 10.49197
223.1875, 10.15294
223.6696, 9.972568
224.1517, 9.851040
224.6338, 9.650156
225.1159, 9.306544
225.5980, 8.893976
226.0802, 8.628054
226.5623, 8.425545
227.0444, 8.484678
227.5265, 9.114945
228.0086, 9.933537
228.4907, 10.44490
228.9729, 10.43847
229.4550, 10.04987
229.9371, 9.594155
230.4192, 8.832504
230.9013, 8.370098
231.3834, 8.501426
231.8656, 8.946176
232.3477, 9.305226
232.8298, 9.428916
233.3119, 9.391618
233.7940, 9.338511
234.2761, 9.277330
234.7583, 9.189229
235.2404, 8.897182
235.7225, 8.600430
236.2046, 8.741731
236.6867, 9.578796
237.1688, 10.62471
237.6510, 11.01497
238.1331, 10.74313
238.6152, 10.25362
239.0973, 9.498037
239.5794, 8.638013
240.0615, 8.003232
240.5437, 7.658418
241.0258, 7.618477
241.5079, 8.048074
241.9900, 8.950979
242.4721, 9.645267
242.9542, 9.674320
243.4364, 9.275686
243.9185, 9.069848
244.4006, 9.228443
244.8827, 9.510937
245.3648, 9.703748
245.8469, 9.813764
246.3290, 9.849703
246.8112, 9.831035
247.2933, 9.743505
247.7754, 9.512197
248.2575, 9.035550
248.7396, 8.570560
249.2217, 8.295732
249.7039, 8.186040
250.1860, 8.177899
250.6681, 8.330749
251.1502, 8.574482
251.6323, 8.620071
252.1144, 8.317225
252.5966, 8.041513
253.0787, 8.009428
253.5608, 8.164792
254.0429, 8.388958
254.5250, 8.650959
255.0071, 8.930879
255.4893, 9.183057
255.9714, 9.536749
256.4535, 9.622498
256.9356, 9.069282
257.4177, 8.214886
257.8998, 7.613798
258.3820, 7.612212
258.8641, 8.064414
259.3462, 8.485219
259.8283, 8.951484
260.3104, 9.239031
260.7925, 9.184330
261.2747, 8.968467
261.7568, 8.835771
262.2389, 8.920114
262.7210, 9.138006
263.2031, 9.254148
263.6852, 9.264363
264.1674, 9.162399
264.6495, 8.829252
265.1316, 8.450841
265.6137, 8.253659
266.0958, 8.343894
266.5779, 8.583063
267.0601, 8.620444
267.5422, 8.251151
268.0243, 8.053729
268.5064, 8.240352
268.9885, 8.538913
269.4706, 8.719782
269.9528, 8.700870
270.4349, 8.540578
270.9170, 8.321040
271.3991, 7.915750
271.8812, 7.718150
272.3633, 7.889190
272.8455, 8.154296
273.3276, 8.318653
273.8097, 8.330522
274.2918, 8.248417
274.7739, 8.143788
275.2560, 7.952403
275.7382, 7.884886
276.2202, 8.059386
276.7024, 8.242865
277.1845, 8.259061
277.6666, 8.101827
278.1487, 7.917630
278.6308, 7.899367
279.1129, 8.137318
279.5951, 8.224240
280.0772, 7.979479
280.5593, 7.765654
281.0414, 7.837200
281.5235, 8.151302
282.0056, 8.455009
282.4878, 8.495271
282.9699, 8.225549
283.4520, 8.024779
283.9341, 7.896657
284.4162, 7.820374
284.8983, 7.860563
285.3805, 7.955698
285.8626, 7.944870
286.3447, 7.680075
286.8268, 7.169823
287.3089, 6.886880
287.7910, 6.890258
288.2732, 7.033727
288.7553, 7.439309
289.2374, 7.948435
289.7195, 8.254663
290.2016, 8.155309
290.6837, 7.743124
291.1659, 7.534410
291.6480, 7.719840
292.1301, 7.885433
292.6122, 7.983439
293.0943, 8.017019
293.5764, 7.996448
294.0586, 7.926254
294.5407, 7.804738
295.0228, 7.626220
295.5049, 7.259269
295.9870, 6.997306
296.4691, 6.851562
296.9513, 6.815502
297.4334, 6.936905
297.9155, 7.221943
298.3976, 7.529213
298.8797, 7.605709
299.3618, 7.182554
299.8440, 7.044586
300.3261, 7.484207
300.8082, 8.020515
301.2903, 8.236132
301.7724, 8.066403
302.2545, 7.771492
302.7367, 7.657175
303.2188, 7.790564
303.7009, 7.858088
304.1830, 7.878749
304.6651, 7.826903
305.1472, 7.599123
305.6294, 7.245969
306.1115, 7.007297
306.5936, 7.128654
307.0757, 7.643646
307.5578, 7.818254
308.0399, 7.224366
308.5221, 6.774762
309.0042, 7.045304
309.4863, 7.808276
309.9684, 8.421370
310.4505, 8.456984
310.9326, 8.006501
311.4148, 7.699761
311.8969, 7.634898
312.3790, 7.574214
312.8611, 7.458237
313.3432, 7.310610
313.8253, 7.148705
314.3075, 6.973964
314.7896, 6.836443
315.2717, 6.874757
315.7538, 7.328160
316.2359, 7.611305
316.7180, 7.590545
317.2001, 7.415756
317.6823, 7.198415
318.1644, 6.977812
318.6465, 6.840534
319.1286, 6.935531
319.6107, 7.437499
320.0928, 7.749825
320.5750, 7.710518
321.0571, 7.600354
321.5392, 7.648034
322.0213, 7.869779
322.5034, 8.122837
322.9855, 8.268894
323.4677, 8.297673
323.9498, 8.269428
324.4319, 8.101191
324.9140, 7.961143
325.3961, 7.969660
325.8782, 8.086592
326.3604, 8.185865
326.8425, 8.186128
327.3246, 8.087764
327.8067, 7.886571
328.2888, 7.453105
328.7709, 7.078473
329.2531, 6.757016
329.7352, 6.558469
330.2173, 6.651411
330.6994, 7.132663
331.1815, 7.811372
331.6636, 8.172098
332.1458, 7.732142
332.6279, 7.564658
333.1100, 7.987982
333.5921, 8.556568
334.0742, 8.817969
334.5563, 8.649638
335.0385, 8.262997
335.5206, 7.961606
336.0027, 7.793757
336.4848, 7.587981
336.9669, 7.128807
337.4490, 6.799057
337.9312, 6.977133
338.4133, 7.593646
338.8954, 7.808866
339.3775, 8.223670
339.8596, 8.471483
340.3417, 8.561283
340.8239, 8.019800
341.3060, 8.293488
341.7881, 8.240489
342.2702, 8.174096
342.7523, 8.562517
343.2344, 8.112848
343.7166, 8.494065
344.1987, 8.543601
344.6808, 8.744936
345.1629, 8.639782
345.6450, 8.145744
346.1271, 7.469993
346.6093, 7.120964
347.0914, 7.282987
347.5735, 7.751964
348.0556, 8.167742
348.5377, 8.649938
349.0198, 8.835763
349.5020, 8.576138
349.9841, 8.178054
350.4662, 7.773283
350.9483, 7.421565
351.4304, 7.193926
351.9125, 7.185504
352.3947, 7.430050
352.8768, 7.669485
353.3589, 8.078024
353.8410, 8.309731
354.3231, 8.063429
354.8052, 7.544869
355.2874, 7.197549
355.7695, 7.351852
356.2516, 7.895525
356.7337, 8.187711
357.2158, 8.065846
357.6979, 7.891068
358.1800, 7.608262
358.6621, 7.361164
359.1443, 7.385922
359.6264, 7.770182
360.1085, 8.216770
360.5906, 8.100218
361.0727, 7.038564
361.5548, 6.421174
362.0370, 6.698328
362.5191, 7.194598
363.0012, 7.574555
363.4833, 7.773403
363.9654, 7.828667
364.4475, 7.739008
364.9297, 7.492352
365.4118, 7.305336
365.8939, 7.232784
366.3760, 7.163080
366.8581, 7.031398
367.3402, 6.870084
367.8224, 6.752900
368.3045, 6.741232
368.7866, 6.789053
369.2687, 6.744182
369.7508, 6.540206
370.2329, 6.392578
370.7151, 6.396917
371.1972, 6.476903
371.6793, 6.581209
372.1614, 6.702319
372.6435, 6.787502
373.1256, 6.747465
373.6078, 6.571451
374.0899, 6.417365
374.5720, 6.199532
375.0541, 6.135938
375.5362, 6.547947
376.0183, 7.365608
376.5005, 7.955449
376.9826, 7.687155
377.4647, 6.827043
377.9468, 6.390066
378.4289, 6.568010
378.9110, 6.880527
379.3932, 7.005437
379.8753, 7.029994
380.3574, 7.131838
380.8395, 7.487773
381.3216, 7.832954
381.8037, 7.744988
382.2859, 7.212120
382.7680, 6.823901
383.2501, 6.921326
383.7322, 7.264068
384.2143, 7.473717
384.6964, 7.544894
385.1786, 7.473627
385.6607, 7.127788
386.1428, 6.634267
386.6249, 6.351797
387.1070, 6.401402
387.5891, 6.573128
388.0713, 6.625587
388.5534, 6.571372
389.0355, 6.550422
389.5176, 6.694146
389.9997, 6.819677
390.4818, 6.652277
390.9640, 6.205123
391.4461, 5.879776
391.9282, 5.976227
392.4103, 6.426702
392.8924, 6.800766
393.3745, 7.199086
393.8567, 7.421298
394.3388, 7.255724
394.8209, 6.872325
395.3030, 6.625680
395.7851, 6.658862
396.2672, 6.797245
396.7494, 6.711155
397.2315, 6.218393
397.7136, 5.944202
398.1957, 6.027341
398.6778, 6.261695
399.1599, 6.587316
399.6420, 6.938452
400.1241, 7.075202
400.6063, 6.721642
401.0884, 5.848082
401.5705, 5.482506
402.0526, 6.108581
402.5347, 6.630912
403.0168, 6.586121
403.4990, 6.242441
403.9811, 6.092782
404.4632, 6.377830
404.9453, 6.875576
405.4274, 7.037518
405.9095, 6.622431
406.3917, 6.260802
406.8738, 5.933695
407.3559, 5.689248
407.8380, 5.576529
408.3201, 5.590661
408.8022, 5.672425
409.2844, 5.765000
409.7665, 5.866214
410.2486, 6.013894
410.7307, 6.372116
411.2128, 6.590384
411.6949, 6.438919
412.1771, 6.106196
412.6592, 5.915995
413.1413, 6.051166
413.6234, 6.334901
414.1055, 6.333044
414.5876, 5.878685
415.0698, 5.650537
415.5519, 6.142113
416.0340, 6.692729
416.5161, 6.798060
416.9982, 6.417897
417.4803, 5.968740
417.9625, 5.811398
418.4446, 5.903650
418.9267, 5.941926
419.4088, 5.864377
419.8909, 5.808504
420.3730, 5.879027
420.8552, 6.032157
421.3373, 6.180748
421.8194, 6.275674
422.3015, 6.373867
422.7836, 6.587342
423.2657, 6.912877
423.7479, 7.128363
424.2300, 7.103780
424.7121, 6.954511
425.1942, 6.888183
425.6763, 6.936429
426.1584, 6.908103
426.6406, 6.569938
427.1227, 6.144620
427.6048, 6.069736
428.0869, 6.438168
428.5690, 6.876691
429.0511, 7.053368
429.5333, 6.957611
430.0154, 6.861487
430.4975, 6.774208
430.9796, 6.678675
431.4617, 6.591914
431.9438, 6.491033
432.4260, 6.285672
432.9081, 5.913846
433.3902, 5.494173
433.8723, 5.312114
434.3544, 5.492500
434.8365, 5.720747
435.3187, 6.193343
435.8008, 6.573454
436.2829, 6.418719
436.7650, 5.785125
437.2471, 5.247856
437.7292, 5.384137
438.2114, 6.218580
438.6935, 6.766689
439.1756, 6.920853
439.6577, 6.901132
440.1398, 6.525014
440.6219, 6.075919
441.1040, 6.032435
441.5862, 6.592478
442.0683, 7.289007
442.5504, 7.128875
443.0325, 5.623790
443.5146, 4.765916
443.9967, 5.328862
444.4789, 6.076786
444.9610, 6.429453
445.4431, 6.389223
445.9252, 6.219242
446.4073, 6.079463
446.8894, 5.961298
447.3716, 5.807088
447.8537, 5.552352
448.3358, 5.424743
448.8179, 5.696460
449.3000, 6.073470
449.7821, 6.176813
450.2643, 5.857087
450.7464, 5.604998
451.2285, 6.036641
451.7106, 6.970490
452.1927, 7.436812
452.6748, 7.121008
453.1570, 6.548979
453.6391, 6.224007
454.1212, 6.095262
454.6033, 5.955564
455.0854, 5.675467
455.5675, 5.426027
456.0497, 5.410718
456.5318, 5.593078
457.0139, 5.728553
457.4960, 5.674234
457.9781, 5.516605
458.4602, 5.503906
458.9424, 5.731139
459.4245, 5.879771
459.9066, 5.767153
460.3887, 5.620438
460.8708, 5.730691
461.3529, 6.110143
461.8351, 6.489492
462.3172, 6.620267
462.7993, 6.496056
463.2814, 6.287647
463.7635, 5.792789
464.2456, 5.450694
464.7278, 5.420072
465.2099, 5.591044
465.6920, 5.857963
466.1741, 6.172920
466.6562, 6.434778
467.1383, 6.431150
467.6205, 6.017869
468.1026, 5.789117
468.5847, 5.910395
469.0668, 6.090487
469.5489, 6.238792
470.0310, 6.339951
470.5132, 6.375413
470.9953, 6.288396
471.4774, 6.171646
471.9595, 6.309938
472.4416, 6.795364
472.9237, 7.194894
473.4059, 7.410527
473.8880, 7.425941
474.3701, 7.140509
474.8522, 6.532184
475.3343, 5.957505
475.8164, 5.589913
476.2986, 5.434784
476.7807, 5.616623
477.2628, 6.238626
477.7449, 6.693848
478.2270, 6.306770
478.7091, 5.351664
479.1913, 4.998824
479.6734, 5.875909
480.1555, 6.732547
480.6376, 6.806943
481.1197, 6.406927
481.6018, 6.202821
482.0839, 6.421190
482.5660, 6.777199
483.0482, 6.871061
483.5303, 6.609218
484.0124, 6.402339
484.4945, 6.167991
484.9766, 6.061318
485.4587, 6.285804
485.9409, 6.705244
486.4230, 6.989233
486.9051, 6.946436
487.3872, 6.690267
487.8693, 6.549238
488.3514, 6.584618
488.8336, 6.622785
489.3157, 6.675319
489.7978, 6.707232
490.2799, 6.652806
490.7620, 6.540212
491.2441, 6.499309
491.7263, 6.695559
492.2084, 7.046337
492.6905, 7.113970
493.1726, 6.761493
493.6547, 6.455602
494.1368, 6.345228
494.6190, 6.400473
495.1011, 6.691290
495.5832, 7.276132
496.0653, 7.724289
496.5474, 7.605100
497.0295, 7.085075
497.5117, 6.656541
497.9938, 6.391920
498.4759, 6.211999
498.9580, 6.019714
499.4401, 5.853419
499.9222, 5.888423
500.4044, 6.342741
500.8865, 6.786589
501.3686, 7.044540
501.8507, 7.127614
502.3328, 7.034375
502.8149, 6.759290
503.2971, 6.398293
503.7792, 6.073009
504.2613, 5.754454
504.7434, 5.589926
505.2255, 5.662143
505.7076, 5.788483
506.1898, 5.911856
506.6719, 6.019081
507.1540, 6.106939
507.6361, 6.175003
508.1182, 6.211136
508.6003, 6.182183
509.0825, 6.067397
509.5646, 5.942743
510.0467, 5.648011
510.5288, 5.488677
511.0109, 5.762743
511.4930, 6.354220
511.9752, 6.833884
512.4573, 6.919710
512.9394, 6.724195
513.4215, 6.432076
513.9036, 5.994140
514.3857, 5.776605
514.8679, 6.056148
515.3500, 6.534042
515.8321, 6.830331
516.3142, 6.926575
516.7963, 6.942793
517.2784, 6.938025
517.7606, 6.880295
518.2427, 6.669082
518.7248, 6.309772
519.2069, 6.031274
519.6890, 6.009828
520.1711, 6.183737
520.6533, 6.245578
521.1354, 6.152657
521.6175, 6.025321
522.0996, 5.786401
522.5817, 5.577599
523.0638, 5.620818
523.5460, 5.903785
524.0281, 6.134999
524.5102, 6.005177
524.9923, 5.529909
525.4744, 5.256096
525.9565, 5.407025
526.4387, 5.474648
526.9208, 5.275308
527.4029, 4.988341
527.8850, 4.771769
528.3671, 4.672462
528.8492, 4.710819
529.3314, 4.979414
529.8135, 5.445313
530.2956, 5.797269
530.7777, 6.029904
531.2598, 6.120529
531.7419, 5.924893
532.2241, 5.605516
532.7062, 5.433524
533.1883, 5.518205
533.6704, 5.634881
534.1525, 5.584027
534.6346, 5.454741
535.1168, 5.490957
535.5989, 5.761233
536.0810, 6.051203
536.5631, 6.126297
537.0452, 5.973778
537.5273, 5.945211
538.0095, 6.277296
538.4916, 6.458409
538.9737, 6.150717
539.4558, 5.622794
539.9379, 5.286080
540.4200, 5.270558
540.9022, 5.394398
541.3843, 5.426784
541.8664, 5.374413
542.3485, 5.184722
542.8306, 4.406707
543.3127, 3.997498
543.7948, 4.623921
544.2769, 5.704770
544.7590, 6.322601
545.2411, 6.109746
545.7233, 5.602361
546.2054, 5.498983
546.6875, 5.761261
547.1696, 5.804249
547.6517, 5.460968
548.1339, 5.034262
548.6160, 4.652954
549.0981, 4.374322
549.5802, 4.429327
550.0623, 5.289831
550.5444, 6.039160
551.0266, 5.975320
551.5087, 5.365118
551.9908, 4.732202
552.4729, 4.221160
552.9550, 3.995411
553.4371, 4.335324
553.9193, 5.412883
554.4014, 6.003202
554.8835, 5.769885
555.3656, 5.497088
555.8477, 5.466331
556.3298, 5.577798
556.8120, 5.637572
557.2941, 5.579368
557.7762, 5.535203
558.2583, 5.762307
558.7404, 6.325197
559.2225, 6.603568
559.7047, 6.451056
560.1868, 6.165809
560.6689, 5.760745
561.1510, 5.362992
561.6331, 5.216790
562.1152, 5.470865
562.5974, 5.780670
563.0795, 5.807689
563.5616, 5.622279
564.0437, 5.467929
564.5258, 5.385320
565.0079, 5.376302
565.4901, 5.482862
565.9722, 5.691076
566.4543, 5.762367
566.9364, 5.568669
567.4185, 5.385884
567.9006, 5.290999
568.3828, 5.281543
568.8649, 5.399308
569.3470, 5.634360
569.8291, 5.834162
570.3112, 5.798972
570.7933, 5.508597
571.2755, 5.344986
571.7576, 5.351195
572.2397, 5.440053
572.7218, 5.708026
573.2039, 5.986083
573.6860, 6.053446
574.1682, 5.860987
574.6503, 5.629440
575.1324, 5.616378
575.6145, 5.751398
576.0966, 5.675096
576.5787, 5.295796
577.0609, 4.982535
577.5430, 4.991471
578.0251, 5.219793
578.5072, 5.416377
578.9893, 5.611919
579.4714, 5.695356
579.9536, 5.562203
580.4357, 5.326144
580.9178, 5.074816
581.3999, 4.844891
581.8820, 4.737020
582.3641, 4.841347
582.8463, 5.122524
583.3284, 5.385205
583.8105, 5.862366
584.2926, 5.961436
584.7747, 5.105813
585.2568, 4.278113
585.7390, 4.425896
586.2211, 5.417515
586.7032, 6.264524
587.1853, 6.178161
587.6674, 5.505092
588.1495, 5.190715
588.6317, 5.286674
589.1138, 5.426385
589.5959, 5.527890
590.0780, 5.588597
590.5601, 5.586332
591.0422, 5.522500
591.5244, 5.507126
592.0065, 5.595569
592.4886, 5.729497
592.9707, 5.917344
593.4528, 6.112400
593.9349, 6.125214
594.4171, 5.851123
594.8992, 5.520348
595.3813, 5.573629
595.8634, 6.278321
596.3455, 6.566174
596.8276, 6.077963
597.3098, 5.611235
597.7919, 5.509314
598.2740, 5.655822
598.7561, 5.829906
599.2382, 5.943890
599.7203, 6.025000
600.2025, 6.108397
600.6846, 6.194059
601.1667, 6.289207
601.6488, 6.456312
602.1309, 6.507822
602.6130, 6.200955
603.0952, 5.699868
603.5773, 5.338284
604.0594, 5.187463
604.5415, 5.122742
605.0236, 5.096444
605.5057, 5.108614
605.9879, 5.186845
606.4700, 5.324513
606.9521, 5.426550
607.4342, 5.406794
607.9163, 5.284014
608.3984, 5.200545
608.8806, 5.198308
609.3627, 5.179088
609.8448, 5.113803
610.3269, 5.044587
610.8090, 4.977096
611.2911, 4.931283
611.7733, 4.971507
612.2554, 5.190223
612.7375, 5.481912
613.2196, 5.576971
613.7017, 5.454827
614.1838, 5.366990
614.6660, 5.437019
615.1481, 5.512656
615.6302, 5.341438
616.1123, 4.946167
616.5944, 4.754178
617.0765, 4.992586
617.5587, 5.327802
618.0408, 5.634931
618.5229, 5.853742
619.0050, 5.823419
619.4871, 5.494147
619.9692, 5.097440
620.4514, 4.948000
620.9335, 5.075691
621.4156, 5.222048
621.8977, 5.497117
622.3798, 5.654985
622.8619, 5.479879
623.3441, 5.231401
623.8262, 5.301248
624.3083, 5.766651
624.7904, 6.106607
625.2725, 5.656232
625.7546, 4.764017
626.2367, 4.459551
626.7188, 4.837456
627.2009, 5.282794
627.6830, 5.490076
628.1652, 5.554087
628.6473, 5.732118
629.1294, 6.154592
629.6115, 6.269825
630.0936, 5.564345
630.5757, 4.895221
631.0579, 5.096464
631.5400, 5.863388
632.0221, 6.257873
632.5042, 5.793056
632.9863, 4.943437
633.4684, 4.578349
633.9506, 4.759448
634.4327, 5.145268
634.9148, 6.048603
635.3969, 6.725977
635.8790, 6.736847
636.3611, 6.318789
636.8433, 5.845993
637.3254, 5.363872
637.8075, 4.998671
638.2896, 4.888115
638.7717, 4.947690
639.2538, 5.026370
639.7360, 5.101883
640.2181, 5.191331
640.7002, 5.314844
641.1823, 5.454653
641.6644, 5.538785
642.1465, 5.487054
642.6287, 5.489694
643.1108, 5.676138
643.5929, 5.808602
644.0750, 5.633407
644.5571, 5.261910
645.0392, 5.042983
645.5214, 5.200222
646.0035, 5.506795
646.4856, 5.528722
646.9677, 5.267865
647.4498, 5.207587
647.9319, 5.507136
648.4141, 5.869113
648.8962, 6.109747
649.3783, 6.216294
649.8604, 6.120496
650.3425, 5.554032
650.8246, 5.142340
651.3068, 5.341752
651.7889, 5.721830
652.2710, 5.642454
652.7531, 5.102248
653.2352, 4.707098
653.7173, 4.967763
654.1995, 5.688882
654.6816, 6.050148
655.1637, 5.943823
655.6458, 5.731774
656.1279, 5.237524
656.6100, 4.849325
657.0922, 4.930769
657.5743, 5.332694
658.0564, 5.512059
658.5385, 5.073773
659.0206, 4.594859
659.5027, 4.670613
659.9849, 5.147691
660.4670, 5.674238
660.9491, 6.178195
661.4312, 6.408696
661.9133, 6.029742
662.3954, 5.121799
662.8776, 4.839258
663.3597, 5.904871
663.8418, 6.654135
664.3239, 6.822912
664.8060, 6.698431
665.2881, 6.417515
665.7703, 6.059116
666.2524, 5.759732
666.7345, 5.615353
667.2166, 5.562164
667.6987, 5.415406
668.1808, 5.184690
668.6630, 5.322874
669.1451, 6.132033
669.6272, 6.861298
670.1093, 6.642496
670.5914, 5.568033
671.0735, 4.931289
671.5557, 4.986148
672.0378, 5.193799
672.5199, 5.504303
673.0020, 5.809309
673.4841, 5.995245
673.9662, 6.049644
674.4484, 6.007116
674.9305, 5.858396
675.4126, 5.689903
675.8947, 5.869536
676.3768, 6.545187
676.8589, 6.902938
677.3411, 6.624923
677.8232, 6.149349
678.3053, 5.774997
678.7874, 5.496934
679.2695, 5.302469
679.7516, 5.136157
680.2338, 5.119195
680.7159, 5.512209
681.1980, 6.028329
681.6801, 6.161399
682.1622, 5.858401
682.6443, 5.482129
683.1265, 5.313745
683.6086, 5.337302
684.0907, 5.494760
684.5728, 5.898630
685.0549, 6.188964
685.5370, 6.435188
686.0192, 6.445552
686.5013, 5.864110
686.9834, 4.942343
687.4655, 4.389789
687.9476, 4.552946
688.4297, 5.021888
688.9119, 5.596507
689.3940, 6.173467
689.8761, 6.494214
690.3582, 6.516873
690.8403, 6.369588
691.3224, 6.116646
691.8046, 5.804964
692.2867, 5.662171
692.7688, 5.910261
693.2509, 5.967838
693.7330, 5.491130
694.2151, 5.125318
694.6973, 5.480774
695.1794, 6.244584
695.6615, 6.570645
696.1436, 5.990534
696.6257, 5.225507
697.1078, 5.107645
697.5900, 5.469026
698.0721, 5.737419
698.5542, 5.831604
699.0363, 5.823117
699.5184, 5.704120
700.0005, 5.558253
700.4827, 5.690386
700.9648, 6.460654
701.4469, 6.916468
701.9290, 6.958620
702.4111, 6.765631
702.8932, 6.213424
703.3754, 5.552488
703.8575, 5.290937
704.3396, 5.662064
704.8217, 6.173684
705.3038, 6.184825
705.7859, 5.808577
706.2681, 5.583627
706.7502, 5.560430
707.2323, 5.654774
707.7144, 5.895178
708.1965, 6.161537
708.6786, 6.153011
709.1607, 5.757003
709.6428, 5.433244
710.1249, 5.184402
710.6071, 5.040968
711.0892, 5.053429
711.5713, 5.173133
712.0534, 5.348129
712.5355, 5.555390
713.0176, 5.724988
713.4998, 5.736704
713.9819, 5.632774
714.4640, 5.669672
714.9461, 5.879422
715.4282, 6.046989
715.9103, 6.107023
716.3925, 6.048785
716.8746, 5.771841
717.3567, 5.218682
717.8388, 4.964729
718.3209, 5.350306
718.8030, 5.726840
719.2852, 5.761864
719.7673, 5.613401
720.2494, 5.480579
720.7315, 5.426651
721.2136, 5.461963
721.6957, 5.634773
722.1779, 5.886627
722.6600, 5.964543
723.1421, 5.833881
723.6242, 5.863493
724.1063, 6.269684
724.5884, 6.697148
725.0706, 6.744819
725.5527, 6.437656
726.0348, 6.119799
726.5169, 5.648551
726.9990, 5.365496
727.4811, 5.511660
727.9633, 5.822762
728.4454, 6.076521
728.9275, 6.212393
729.4096, 6.181039
729.8917, 5.906773
730.3738, 5.555245
730.8560, 5.523598
731.3381, 5.823555
731.8202, 6.026818
732.3023, 6.046154
732.7844, 6.001921
733.2665, 5.930420
733.7487, 5.870237
734.2308, 5.969671
734.7129, 6.421320
735.1950, 6.667056
735.6771, 6.566220
736.1592, 6.242581
736.6414, 5.506689
737.1235, 4.658057
737.6056, 4.418694
738.0877, 5.125805
738.5698, 6.160440
739.0519, 6.753475
739.5341, 6.919456
740.0162, 6.667854
740.4983, 5.853312
740.9804, 5.347735
741.4625, 5.776120
741.9446, 6.592444
742.4268, 6.717798
742.9089, 5.976257
743.3910, 5.527366
743.8731, 5.730978
744.3552, 5.958316
744.8373, 5.843179
745.3195, 5.591230
745.8016, 5.519848
746.2837, 5.693507
746.7658, 5.928813
747.2479, 6.065485
747.7300, 6.141347
748.2122, 6.241445
748.6943, 6.365417
749.1764, 6.625331
749.6585, 7.166713
750.1406, 7.542826
750.6227, 7.186521
751.1049, 6.128704
751.5870, 5.474689
752.0691, 5.369130
752.5512, 5.435461
753.0333, 5.766489
753.5154, 6.118864
753.9976, 6.282308
754.4797, 6.280515
754.9618, 6.262268
755.4439, 6.302800
755.9260, 6.360414
756.4081, 6.355270
756.8903, 6.316472
757.3724, 6.404171
757.8545, 6.649308
758.3366, 6.811610
758.8187, 6.728023
759.3008, 6.481614
759.7830, 6.272917
760.2651, 6.083426
760.7472, 5.978641
761.2293, 5.988916
761.7114, 6.043824
762.1935, 6.203994
762.6757, 6.350502
763.1578, 6.231084
763.6399, 5.811843
764.1220, 5.595575
764.6041, 6.294096
765.0862, 7.211075
765.5684, 7.146379
766.0505, 6.281396
766.5326, 5.548079
767.0147, 5.238145
767.4968, 5.222472
767.9789, 5.388464
768.4611, 5.728286
768.9432, 6.022914
769.4253, 6.229321
769.9074, 6.466451
770.3895, 6.948110
770.8716, 7.294895
771.3538, 7.115623
771.8359, 6.573730
772.3180, 6.226968
772.8001, 6.356720
773.2822, 6.506434
773.7643, 6.286873
774.2465, 5.934668
774.7286, 5.786064
775.2107, 5.862474
775.6928, 6.064013
776.1749, 6.346234
776.6570, 6.627528
777.1392, 6.740941
777.6213, 6.666044
778.1034, 6.558125
778.5855, 6.346314
779.0676, 6.246503
779.5497, 6.502855
780.0319, 6.833872
780.5140, 6.821136
780.9961, 6.425763
781.4782, 6.178405
781.9603, 6.439121
782.4424, 6.634909
782.9246, 6.303617
783.4067, 5.754216
783.8888, 5.404978
784.3709, 5.357840
784.8530, 5.570635
785.3351, 6.092284
785.8173, 6.719676
786.2994, 6.902202
786.7815, 6.638389
787.2636, 6.330261
787.7457, 5.973911
788.2278, 5.857985
788.7100, 6.359891
789.1921, 7.243784
789.6742, 7.547720
790.1563, 6.880369
790.6384, 6.383320
791.1205, 6.186867
791.6026, 6.104285
792.0847, 6.052768
792.5668, 6.034029
793.0490, 6.090428
793.5311, 6.231607
794.0132, 6.340150
794.4953, 6.284082
794.9774, 6.149149
795.4595, 6.098856
795.9417, 6.118301
796.4238, 6.058454
796.9059, 5.858208
797.3880, 5.769057
797.8701, 6.123347
798.3522, 6.873945
798.8344, 7.208474
799.3165, 6.909397
799.7986, 6.614750
800.2807, 6.258532
800.7628, 6.087583
801.2449, 6.452913
801.7271, 7.118028
802.2092, 7.419778
802.6913, 7.063651
803.1734, 6.685021
803.6555, 6.612003
804.1376, 6.679014
804.6198, 6.690049
805.1019, 6.677567
805.5840, 6.848464
806.0661, 7.284347
806.5482, 7.673070
807.0303, 7.500323
807.5125, 6.851591
807.9946, 6.579541
808.4767, 6.749732
808.9588, 6.927953
809.4409, 6.981506
809.9230, 6.970561
810.4052, 6.999393
810.8873, 7.063293
811.3694, 6.879137
811.8515, 6.144456
812.3336, 5.577523
812.8157, 5.259884
813.2979, 5.212806
813.7800, 5.596801
814.2621, 6.258969
814.7442, 6.845875
815.2263, 7.223952
815.7084, 7.408711
816.1906, 7.408112
816.6727, 7.222023
817.1548, 6.656260
817.6369, 5.811233
818.1190, 5.512747
818.6011, 6.171952
819.0833, 7.078315
819.5654, 7.151299
820.0475, 6.346947
820.5296, 5.978707
821.0117, 6.208377
821.4938, 6.544122
821.9760, 7.042033
822.4581, 7.437136
822.9402, 7.498609
823.4223, 7.264369
823.9044, 6.904456
824.3865, 6.188987
824.8687, 5.749600
825.3508, 6.128141
825.8329, 6.667056
826.3150, 6.657286
826.7971, 6.233011
827.2792, 5.942959
827.7614, 6.029824
828.2435, 6.265907
828.7256, 6.417891
829.2077, 6.485785
829.6898, 6.422149
830.1719, 6.227434
830.6541, 6.160570
831.1362, 6.351888
831.6183, 6.573352
832.1004, 6.525090
832.5825, 6.213633
833.0646, 6.122993
833.5468, 6.506566
834.0289, 6.716003
834.5110, 6.477139
834.9931, 6.235785
835.4752, 6.319519
835.9573, 6.619510
836.4395, 6.824628
836.9216, 6.827382
837.4037, 6.827154
837.8858, 6.974617
838.3679, 7.136687
838.8500, 7.225072
839.3322, 7.202341
839.8143, 6.916138
840.2964, 6.348065
840.7785, 5.892252
841.2606, 6.079628
841.7427, 6.698138
842.2249, 6.846466
842.7070, 6.499057
843.1891, 6.286376
843.6712, 6.374583
844.1533, 6.603484
844.6354, 6.917499
845.1176, 7.244234
845.5997, 7.216337
846.0818, 6.389456
846.5639, 5.915421
847.0460, 5.949526
847.5281, 6.154025
848.0103, 6.505149
848.4924, 6.866755
848.9745, 7.057541
849.4566, 7.042005
849.9387, 6.922352
850.4208, 6.646299
850.9030, 6.384754
851.3851, 6.270192
851.8672, 6.291733
852.3493, 6.509201
852.8314, 6.875000
853.3135, 7.079181
853.7957, 6.854429
854.2778, 6.412631
854.7599, 6.274214
855.2420, 6.429650
855.7241, 6.362201
856.2062, 5.947307
856.6884, 5.678972
857.1705, 5.894423
857.6526, 6.321611
858.1347, 6.429919
858.6168, 6.088229
859.0989, 6.021962
859.5811, 6.522866
860.0632, 6.914330
860.5453, 7.036293
861.0274, 6.990925
861.5095, 6.837111
861.9916, 6.599647
862.4738, 6.318753
862.9559, 5.898530
863.4380, 5.646489
863.9201, 5.899153
864.4022, 6.338536
864.8843, 6.616168
865.3665, 6.716664
865.8486, 6.704463
866.3307, 6.610994
866.8128, 6.498498
867.2949, 6.388686
867.7770, 6.325970
868.2592, 6.659557
868.7413, 7.400529
869.2234, 7.584693
869.7055, 6.830881
870.1876, 5.937118
870.6697, 5.660416
871.1519, 5.882575
871.6340, 5.929391
872.1161, 5.551253
872.5981, 5.477744
873.0803, 6.053294
873.5624, 6.601647
874.0445, 6.846169
874.5266, 6.890240
875.0087, 6.884634
875.4908, 6.847631
875.9730, 6.753969
876.4551, 6.463607
876.9372, 6.257484
877.4193, 6.427130
877.9014, 6.721337
878.3835, 6.808111
878.8657, 6.659270
879.3478, 6.403231
879.8299, 6.078916
880.3120, 5.830750
880.7941, 5.942172
881.2762, 6.287191
881.7584, 6.477979
882.2405, 6.485266
882.7226, 6.300866
883.2047, 5.885308
883.6868, 5.572614
884.1689, 5.901987
884.6511, 6.838104
885.1332, 7.152476
885.6153, 6.567908
886.0974, 6.131666
886.5795, 6.144705
887.0616, 6.235201
887.5438, 6.063829
888.0259, 5.751148
888.5080, 5.669792
888.9901, 5.927269
889.4722, 6.177840
889.9543, 6.520375
890.4365, 6.685013
890.9186, 6.397353
891.4007, 5.913663
891.8828, 5.523099
892.3649, 5.296038
892.8470, 5.270360
893.3292, 5.572615
893.8113, 5.951989
894.2934, 6.187770
894.7755, 6.323874
895.2576, 6.454019
895.7397, 6.567270
896.2219, 6.553741
896.7040, 6.354349
897.1861, 6.047452
897.6682, 5.646249
898.1503, 5.205445
898.6324, 5.207690
899.1146, 5.680038
899.5967, 6.280127
900.0788, 7.008733
900.5609, 7.434697
901.0430, 7.021649
901.5251, 5.958423
902.0073, 5.449936
902.4894, 5.881330
902.9715, 6.070593
903.4536, 5.712923
903.9357, 5.393934
904.4178, 5.494132
904.9000, 5.724752
905.3821, 5.607267
905.8642, 5.076591
906.3463, 4.829047
906.8284, 5.332837
907.3105, 5.792570
907.7927, 5.769600
908.2748, 5.571246
908.7569, 5.504838
909.2390, 5.577458
909.7211, 5.688222
910.2032, 5.817061
910.6854, 5.820695
911.1675, 5.406702
911.6496, 4.871728
912.1317, 4.736802
912.6138, 4.929044
913.0959, 5.132775
913.5781, 5.243992
914.0602, 5.244018
914.5423, 5.041293
915.0244, 4.838930
915.5065, 5.518151
915.9886, 7.093550
916.4708, 7.521540
916.9529, 6.335707
917.4350, 5.187715
917.9171, 4.984105
918.3992, 5.337311
918.8813, 5.614986
919.3635, 5.846220
919.8456, 5.768386
920.3277, 5.020211
920.8098, 4.557273
921.2919, 4.849520
921.7740, 5.252569
922.2562, 5.203670
922.7383, 4.907163
923.2204, 5.064543
923.7025, 6.145067
924.1846, 6.671713
924.6667, 5.658466
925.1489, 4.644176
925.6310, 4.651680
926.1131, 5.186198
926.5952, 5.533182
927.0773, 5.586939
927.5594, 5.668973
928.0416, 6.040829
928.5237, 6.368300
929.0058, 6.323841
929.4879, 6.048215
929.9700, 5.660566
930.4521, 5.253083
930.9343, 5.064248
931.4164, 5.189985
931.8985, 5.453428
932.3806, 5.721023
932.8627, 5.932950
933.3448, 5.789639
933.8270, 5.340609
934.3091, 5.183075
934.7912, 5.459834
935.2733, 5.791097
935.7554, 5.922699
936.2375, 5.888893
936.7197, 5.720915
937.2018, 5.338472
937.6839, 5.317719
938.1660, 5.826494
938.6481, 6.284170
939.1302, 6.571726
939.6124, 6.643589
940.0945, 6.348787
940.5766, 5.748102
941.0587, 5.414498
941.5408, 5.386046
942.0229, 5.552723
942.5051, 6.368602
942.9872, 6.874472
943.4693, 6.241572
943.9514, 5.204939
944.4335, 4.832373
944.9156, 5.231818
945.3978, 5.574589
945.8799, 5.560781
946.3620, 5.442301
946.8441, 5.172396
947.3262, 4.994376
947.8083, 5.316582
948.2905, 5.928743
948.7726, 6.253879
949.2547, 6.078365
949.7368, 5.709239
950.2189, 5.204179
950.7010, 4.800082
951.1832, 4.976107
951.6653, 5.477117
952.1474, 5.639041
952.6295, 5.384216
953.1116, 5.130705
953.5938, 5.148204
954.0759, 5.297566
954.5580, 5.349948
955.0400, 5.327087
955.5222, 5.368461
956.0043, 5.475224
956.4864, 5.466439
956.9685, 5.267799
957.4506, 5.086805
957.9327, 5.135869
958.4149, 5.357423
958.8970, 5.553389
959.3791, 5.791922
959.8612, 5.599737
960.3433, 4.725002
960.8254, 4.009932
961.3076, 3.890489
961.7897, 4.073520
962.2718, 4.179101
962.7539, 4.204762
963.2360, 4.275117
963.7181, 4.363028
964.2003, 4.538931
964.6824, 4.901011
965.1645, 5.252208
965.6466, 5.564697
966.1287, 5.768518
966.6108, 5.684116
967.0930, 5.252858
967.5751, 5.002687
968.0572, 5.161121
968.5393, 5.373361
969.0214, 5.623885
969.5035, 5.765200
969.9857, 5.561016
970.4678, 5.149658
970.9499, 4.908723
971.4320, 4.974070
971.9141, 5.074294
972.3962, 4.975800
972.8784, 4.916543
973.3605, 5.297118
973.8426, 5.765663
974.3247, 5.607840
974.8068, 4.903669
975.2889, 4.491354
975.7711, 4.881172
976.2532, 5.448215
976.7353, 5.545769
977.2174, 5.314206
977.6995, 4.852880
978.1816, 4.296641
978.6638, 4.089726
979.1459, 4.329669
979.6280, 4.722139
980.1101, 5.054884
980.5922, 5.304785
981.0743, 5.421257
981.5565, 5.406654
982.0386, 5.237027
982.5207, 4.916994
983.0028, 4.613987
983.4849, 4.387286
983.9670, 4.272417
984.4492, 4.334150
984.9313, 4.515895
985.4134, 4.528397
985.8955, 4.338864
986.3776, 4.217773
986.8597, 4.182042
987.3419, 4.271045
987.8240, 4.566068
988.3061, 4.878385
988.7882, 4.919785
989.2703, 4.692021
989.7524, 4.563410
990.2346, 4.590548
990.7167, 4.589477
991.1988, 4.505943
991.6809, 4.435470
992.1630, 4.438734
992.6451, 4.485688
993.1273, 4.560808
993.6094, 4.698105
994.0915, 4.614262
994.5736, 3.947580
995.0557, 3.557592
995.5378, 3.765596
996.0200, 4.144319
996.5021, 4.481131
996.9842, 4.758680
997.4663, 4.959984
997.9484, 5.072047
998.4305, 5.183660
998.9127, 5.403762
999.3948, 5.518281
999.8769, 5.267751
1000.359, 5.005284
1000.841, 5.223903
1001.323, 5.691823
1001.805, 5.676303
1002.287, 4.885544
1002.770, 4.249768
1003.252, 4.322875
1003.734, 4.639376
1004.216, 5.044291
1004.698, 5.372092
1005.180, 5.344960
1005.662, 5.046330
1006.144, 4.869352
1006.627, 5.002429
1007.109, 5.138444
1007.591, 4.946739
1008.073, 4.684927
1008.555, 4.655457
1009.037, 4.789649
1009.519, 5.014234
1010.001, 5.250186
1010.483, 5.238619
1010.966, 4.793130
1011.448, 4.319281
1011.930, 4.389521
1012.412, 4.727242
1012.894, 4.774170
1013.376, 4.597244
1013.858, 4.486743
1014.340, 4.506861
1014.823, 4.549293
1015.305, 4.535295
1015.787, 4.518484
1016.269, 4.636429
1016.751, 4.824660
1017.233, 4.785637
1017.715, 4.548243
1018.197, 4.444997
1018.679, 4.566105
1019.162, 4.660428
1019.644, 4.503524
1020.126, 4.254282
1020.608, 4.354882
1021.090, 4.196685
1021.572, 4.068007
1022.054, 4.217093
1022.536, 3.953735
1023.018, 4.194999
1023.501, 4.511154
1023.983, 4.502965
1024.465, 4.686933
1024.947, 4.809785
1025.429, 4.742920
1025.911, 4.877028
1026.393, 4.721017
1026.875, 4.438130
1027.358, 3.973648
1027.840, 3.798829
1028.322, 4.517012
1028.804, 5.781367
1029.286, 6.056519
1029.768, 5.001472
1030.250, 4.401334
1030.732, 4.447709
1031.214, 4.519588
1031.697, 4.345226
1032.179, 4.220564
1032.661, 4.522005
1033.143, 5.115806
1033.625, 5.306043
1034.107, 4.902089
1034.589, 4.564119
1035.071, 4.247107
1035.553, 4.088120
1036.036, 4.163276
1036.518, 4.394560
1037.000, 4.839211
1037.482, 5.394368
1037.964, 5.431429
1038.446, 4.403779
1038.928, 3.940432
1039.410, 4.523548
1039.893, 5.018767
1040.375, 4.933389
1040.857, 4.686107
1041.339, 4.735572
1041.821, 4.999253
1042.303, 5.009873
1042.785, 4.447351
1043.267, 4.241156
1043.750, 4.790847
1044.232, 5.251234
1044.714, 5.372500
1045.196, 5.233347
1045.678, 4.711488
1046.160, 3.967383
1046.642, 3.720752
1047.124, 4.366466
1047.606, 4.765772
1048.089, 4.531813
1048.571, 4.319037
1049.053, 4.419774
1049.535, 4.641346
1050.017, 4.886511
1050.499, 5.082281
1050.981, 4.983861
1051.463, 4.382830
1051.945, 3.949211
1052.428, 3.821792
1052.910, 3.893056
1053.392, 4.323069
1053.874, 4.765221
1054.356, 4.879646
1054.838, 4.702834
1055.320, 4.419221
1055.802, 3.986996
1056.285, 3.726478
1056.767, 3.866759
1057.249, 4.032396
1057.731, 4.064650
1058.213, 4.015135
1058.695, 3.872541
1059.177, 3.707654
1059.659, 3.713114
1060.141, 3.968542
1060.624, 4.225940
1061.106, 4.572967
1061.588, 4.691748
1062.070, 4.071909
1062.552, 3.425646
1063.034, 3.597745
1063.516, 4.336545
1063.998, 4.819880
1064.480, 4.829758
1064.963, 4.762658
1065.445, 4.709666
1065.927, 4.700041
1066.409, 4.897923
1066.891, 5.023172
1067.373, 4.584318
1067.855, 3.899487
1068.337, 3.808707
1068.820, 4.545651
1069.302, 5.188634
1069.784, 5.349875
1070.266, 5.313889
1070.748, 5.133355
1071.230, 4.909495
1071.712, 4.673714
1072.194, 4.483294
1072.677, 4.427561
1073.159, 4.525609
1073.641, 4.726993
1074.123, 5.284764
1074.605, 5.589263
1075.087, 5.099549
1075.569, 4.434633
1076.051, 4.068660
1076.533, 3.961217
1077.016, 3.971387
1077.498, 4.062873
1077.980, 4.201797
1078.462, 4.494932
1078.944, 4.657161
1079.426, 4.494669
1079.908, 4.202039
1080.390, 3.765574
1080.872, 3.394533
1081.354, 3.462053
1081.837, 3.958035
1082.319, 4.399563
1082.801, 4.700620
1083.283, 4.728942
1083.765, 4.071034
1084.247, 3.482106
1084.729, 3.593015
1085.211, 4.069703
1085.694, 4.553824
1086.176, 4.924957
1086.658, 4.959902
1087.140, 4.414158
1087.622, 4.013239
1088.104, 4.269748
1088.586, 4.532716
1089.068, 4.174577
1089.551, 3.745764
1090.033, 4.121565
1090.515, 5.040406
1090.997, 5.335227
1091.479, 4.533956
1091.961, 3.845894
1092.443, 3.744488
1092.925, 3.848697
1093.407, 4.128296
1093.890, 4.383675
1094.372, 4.419815
1094.854, 4.280530
1095.336, 4.093118
1095.818, 3.875575
1096.300, 3.693190
1096.782, 3.470886
1097.264, 3.413969
1097.746, 3.787307
1098.229, 4.181826
1098.711, 4.306163
1099.193, 4.200631
1099.675, 3.907421
1100.157, 3.435043
1100.639, 3.171690
1101.121, 3.287278
1101.603, 3.519412
1102.086, 3.979598
1102.568, 4.340976
1103.050, 4.354354
1103.532, 4.170084
1104.014, 3.977055
1104.496, 3.796100
1104.978, 3.639628
1105.460, 3.458318
1105.943, 3.389358
1106.425, 3.645686
1106.907, 3.787356
1107.389, 3.365273
1107.871, 2.920884
1108.353, 3.154773
1108.835, 3.906747
1109.317, 4.339729
1109.799, 4.282606
1110.281, 4.178397
1110.764, 3.963524
1111.246, 3.830649
1111.728, 3.842193
1112.210, 3.948445
1112.692, 4.190985
1113.174, 4.482866
1113.656, 4.595490
1114.138, 4.490448
1114.621, 4.376862
1115.103, 4.209990
1115.585, 4.108747
1116.067, 4.104060
1116.549, 4.156928
1117.031, 4.305974
1117.513, 4.451276
1117.995, 4.409491
1118.478, 4.178049
1118.960, 4.019739
1119.442, 3.905974
1119.924, 3.959806
1120.406, 4.357148
1120.888, 4.566444
1121.370, 4.255414
1121.852, 3.811026
1122.334, 3.651208
1122.817, 3.754495
1123.299, 4.088995
1123.781, 4.886817
1124.263, 4.829088
1124.745, 3.530369
1125.227, 2.695739
1125.709, 2.937792
1126.191, 3.507257
1126.673, 3.828268
1127.156, 3.959971
1127.638, 4.018686
1128.120, 3.997989
1128.602, 4.146222
1129.084, 4.505532
1129.566, 4.512100
1130.048, 3.999005
1130.530, 3.668193
1131.013, 3.966804
1131.495, 4.433793
1131.977, 4.343108
1132.459, 3.851109
1132.941, 3.749223
1133.423, 4.008878
1133.905, 4.281482
1134.387, 4.519981
1134.870, 4.613342
1135.352, 4.517794
1135.834, 4.340606
1136.316, 4.157554
1136.798, 4.035542
1137.280, 4.212044
1137.762, 4.558487
1138.244, 4.574582
1138.726, 4.306795
1139.208, 4.111712
1139.691, 4.063583
1140.173, 3.945843
1140.655, 3.596880
1141.137, 3.350383
1141.619, 3.819551
1142.101, 4.549775
1142.583, 4.768090
1143.065, 4.586007
1143.548, 4.150072
1144.030, 3.601113
1144.512, 3.248333
1144.994, 3.212296
1145.476, 3.422741
1145.958, 3.979158
1146.440, 4.553861
1146.922, 4.856812
1147.405, 4.951934
1147.887, 4.870027
1148.369, 4.664629
1148.851, 4.355609
1149.333, 3.994663
1149.815, 3.814158
1150.297, 3.986805
1150.779, 4.185869
1151.261, 4.321151
1151.744, 4.301637
1152.226, 3.821407
1152.708, 3.321364
1153.190, 3.424400
1153.672, 3.971708
1154.154, 4.348806
1154.636, 4.422041
1155.118, 4.314254
1155.600, 3.804183
1156.083, 3.471607
1156.565, 3.678977
1157.047, 3.965419
1157.529, 4.038250
1158.011, 3.958299
1158.493, 3.805258
1158.975, 3.588032
1159.457, 3.479508
1159.940, 3.529060
1160.422, 3.625329
1160.904, 3.816096
1161.386, 3.979326
1161.868, 4.082294
1162.350, 4.128467
1162.832, 4.098727
1163.314, 4.025016
1163.796, 4.015569
1164.279, 4.096426
1164.761, 4.072447
1165.243, 3.865112
1165.725, 3.887342
1166.207, 4.360919
1166.689, 4.508236
1167.171, 3.734153
1167.653, 2.860854
1168.135, 3.160481
1168.618, 4.345894
1169.100, 4.716122
1169.582, 4.284678
1170.064, 4.236561
1170.546, 4.657974
1171.028, 4.704580
1171.510, 4.095606
1171.992, 3.544900
1172.474, 3.642053
1172.957, 4.053973
1173.439, 4.267675
1173.921, 4.307128
1174.403, 4.191326
1174.885, 3.972237
1175.367, 3.792662
1175.849, 3.684319
1176.331, 3.665012
1176.814, 3.739671
1177.296, 3.848298
1177.778, 3.940237
1178.260, 4.035562
1178.742, 4.251002
1179.224, 4.414651
1179.706, 4.154013
1180.188, 3.707646
1180.671, 3.675829
1181.153, 4.057340
1181.635, 4.176936
1182.117, 3.633837
1182.599, 3.187221
1183.081, 3.389251
1183.563, 3.644295
1184.045, 3.455508
1184.527, 3.245444
1185.010, 3.567801
1185.492, 4.179604
1185.974, 4.453019
1186.456, 4.287528
1186.938, 4.081555
1187.420, 3.785889
1187.902, 3.626915
1188.384, 3.650250
1188.866, 3.812017
1189.349, 4.268201
1189.831, 4.678814
1190.313, 4.607263
1190.795, 4.208135
1191.277, 4.111702
1191.759, 4.411174
1192.241, 4.621214
1192.723, 4.777000
1193.206, 4.652537
1193.688, 4.077693
1194.170, 3.736978
1194.652, 4.082807
1195.134, 4.682895
1195.616, 4.951840
1196.098, 4.929304
1196.580, 4.732502
1197.063, 4.381456
1197.545, 4.035791
1198.027, 3.722854
1198.509, 3.513242
1198.991, 3.440738
1199.473, 3.704689
1199.955, 4.493337
1200.437, 5.254198
1200.919, 5.128877
1201.401, 4.589054
1201.884, 4.410391
1202.366, 4.471117
1202.848, 4.599991
1203.330, 4.701150
1203.812, 4.563432
1204.294, 4.155806
1204.776, 3.834492
1205.258, 3.898320
1205.741, 3.925096
1206.223, 3.315667
1206.705, 2.920378
1207.187, 3.837374
1207.669, 5.026198
1208.151, 5.041632
1208.633, 4.170035
1209.115, 3.723969
1209.598, 3.981647
1210.080, 4.299906
1210.562, 4.787320
1211.044, 5.024861
1211.526, 4.615553
1212.008, 4.338158
1212.490, 4.730784
1212.972, 5.243282
1213.454, 5.204761
1213.937, 4.730663
1214.419, 4.352829
1214.901, 4.040324
1215.383, 4.036364
1215.865, 4.422030
1216.347, 4.592613
1216.829, 4.384402
1217.311, 4.217424
1217.793, 4.352715
1218.276, 4.508827
1218.758, 4.248656
1219.240, 4.407933
1219.722, 4.445973
1220.204, 4.378244
1220.686, 4.547297
1221.168, 4.428225
1221.650, 4.282979
1222.133, 4.184880
1222.615, 4.073007
1223.097, 3.891162
1223.579, 3.891494
1224.061, 4.558027
1224.543, 5.244704
1225.025, 5.308921
1225.507, 5.036471
1225.990, 4.636725
1226.472, 4.241656
1226.954, 4.005047
1227.436, 3.953377
1227.918, 4.043785
1228.400, 4.460757
1228.882, 4.599205
1229.364, 4.127574
1229.846, 3.602372
1230.328, 2.998879
1230.811, 2.672315
1231.293, 3.016429
1231.775, 3.719873
1232.257, 4.226548
1232.739, 4.536991
1233.221, 4.740326
1233.703, 4.847415
1234.185, 4.753844
1234.668, 4.386258
1235.150, 4.224975
1235.632, 4.449198
1236.114, 4.744464
1236.596, 4.880953
1237.078, 4.863305
1237.560, 4.592512
1238.042, 4.721898
1238.525, 4.309542
1239.007, 4.702462
1239.489, 4.900798
1239.971, 4.853348
1240.453, 4.544524
1240.935, 4.034564
1241.417, 3.760127
1241.899, 4.064087
1242.381, 4.423469
1242.864, 4.435552
1243.346, 4.315477
1243.828, 4.182727
1244.310, 4.066621
1244.792, 3.934870
1245.274, 3.857373
1245.756, 4.054537
1246.238, 4.551906
1246.720, 4.792644
1247.203, 4.449105
1247.685, 4.238185
1248.167, 4.278017
1248.649, 4.355782
1249.131, 4.412325
1249.613, 4.490208
1250.095, 4.537640
1250.577, 4.817804
1251.059, 4.587323
1251.542, 4.644558
1252.024, 4.574905
1252.506, 4.357255
1252.988, 4.430775
1253.470, 4.138287
1253.952, 4.029588
1254.434, 4.265112
1254.916, 4.553046
1255.399, 4.701545
1255.881, 4.701957
1256.363, 4.521232
1256.845, 4.203817
1257.327, 3.605925
1257.809, 3.059929
1258.291, 2.921326
1258.773, 3.314703
1259.255, 3.991916
1259.738, 4.369974
1260.220, 4.581050
1260.702, 4.634110
1261.184, 4.055882
1261.666, 4.292831
1262.148, 4.203095
1262.630, 4.099962
1263.112, 4.451645
1263.594, 3.965236
1264.077, 4.210788
1264.559, 4.479709
1265.041, 4.868197
1265.523, 4.863213
1266.005, 4.391868
1266.487, 3.885867
1266.969, 3.311140
1267.451, 3.255184
1267.934, 3.874101
1268.416, 4.429134
1268.898, 4.511220
1269.380, 4.264984
1269.862, 3.723837
1270.344, 3.202586
1270.826, 3.406346
1271.308, 3.333619
1271.791, 4.128715
1272.273, 4.105717
1272.755, 4.637778
1273.237, 5.591131
1273.719, 5.974606
1274.201, 5.419921
1274.683, 4.876420
1275.165, 4.754546
1275.647, 4.742776
1276.130, 4.827551
1276.612, 4.866834
1277.094, 4.793752
1277.576, 4.617833
1278.058, 4.309282
1278.540, 3.928548
1279.022, 3.603677
1279.504, 3.307985
1279.986, 3.563211
1280.469, 4.532454
1280.951, 4.795656
1281.433, 4.132696
1281.915, 3.656226
1282.397, 3.766101
1282.879, 4.157316
1283.361, 4.633452
1283.843, 4.969223
1284.326, 4.896355
1284.808, 4.412580
##END=



