##NAMES=Clinohumite
##RRUFFID=R060559
##IDEAL CHEMISTRY=Mg_9_(SiO_4_)_4_F_2_
##LOCALITY=Tadjikistan
##OWNER=RRUFF
##SOURCE=Gemological Institute of America
##DESCRIPTION=Yellowish-brown fragment
##STATUS=The identification of this mineral has been confirmed by X-ray diffraction and chemical analysis
##URL=rruff.info/R060559
##MEASURED CHEMISTRY=(Mg_8.51_Ti_0.24_[box]_0.24_Fe_0.01_)_Σ=9_(Si_1.00_O_4_)_4_(F_1.30_(OH)_0.70_)_Σ=2_ ; OH by difference and stoichiometry
8.930109e+001, 0.000000e+000
8.978320e+001, 3.880472e+002
9.026532e+001, 3.874276e+002
9.074744e+001, 3.874417e+002
9.122955e+001, 3.877036e+002
9.171167e+001, 3.897345e+002
9.219379e+001, 3.978746e+002
9.267590e+001, 4.110298e+002
9.315802e+001, 4.199813e+002
9.364014e+001, 4.145294e+002
9.412225e+001, 3.992297e+002
9.460437e+001, 3.867741e+002
9.508649e+001, 3.811925e+002
9.556860e+001, 3.797598e+002
9.605072e+001, 3.767504e+002
9.653284e+001, 3.725233e+002
9.701495e+001, 3.673200e+002
9.749707e+001, 3.607088e+002
9.797919e+001, 3.526998e+002
9.846130e+001, 3.453176e+002
9.894342e+001, 3.384801e+002
9.942554e+001, 3.322879e+002
9.990765e+001, 3.300398e+002
1.003898e+002, 3.328643e+002
1.008719e+002, 3.370773e+002
1.013540e+002, 3.371262e+002
1.018361e+002, 3.321772e+002
1.023182e+002, 3.266422e+002
1.028004e+002, 3.218844e+002
1.032825e+002, 3.178076e+002
1.037646e+002, 3.149294e+002
1.042467e+002, 3.133193e+002
1.047288e+002, 3.128152e+002
1.052109e+002, 3.129536e+002
1.056931e+002, 3.129912e+002
1.061752e+002, 3.146093e+002
1.066573e+002, 3.186260e+002
1.071394e+002, 3.260842e+002
1.076215e+002, 3.340959e+002
1.081036e+002, 3.450974e+002
1.085858e+002, 3.575969e+002
1.090679e+002, 3.628975e+002
1.095500e+002, 3.557575e+002
1.100321e+002, 3.455827e+002
1.105142e+002, 3.374388e+002
1.109963e+002, 3.313298e+002
1.114785e+002, 3.271382e+002
1.119606e+002, 3.254375e+002
1.124427e+002, 3.261106e+002
1.129248e+002, 3.267996e+002
1.134069e+002, 3.267359e+002
1.138890e+002, 3.267649e+002
1.143712e+002, 3.275689e+002
1.148533e+002, 3.288377e+002
1.153354e+002, 3.312752e+002
1.158175e+002, 3.360759e+002
1.162996e+002, 3.436773e+002
1.167817e+002, 3.492681e+002
1.172639e+002, 3.492045e+002
1.177460e+002, 3.467223e+002
1.182281e+002, 3.459218e+002
1.187102e+002, 3.511494e+002
1.191923e+002, 3.565241e+002
1.196744e+002, 3.578554e+002
1.201566e+002, 3.538444e+002
1.206387e+002, 3.498243e+002
1.211208e+002, 3.495210e+002
1.216029e+002, 3.516136e+002
1.220850e+002, 3.534631e+002
1.225671e+002, 3.521884e+002
1.230493e+002, 3.506604e+002
1.235314e+002, 3.526626e+002
1.240135e+002, 3.604353e+002
1.244956e+002, 3.677143e+002
1.249777e+002, 3.675796e+002
1.254598e+002, 3.614224e+002
1.259420e+002, 3.544682e+002
1.264241e+002, 3.494463e+002
1.269062e+002, 3.460079e+002
1.273883e+002, 3.435518e+002
1.278704e+002, 3.420110e+002
1.283525e+002, 3.413144e+002
1.288347e+002, 3.415431e+002
1.293168e+002, 3.426717e+002
1.297989e+002, 3.441802e+002
1.302810e+002, 3.457772e+002
1.307631e+002, 3.474379e+002
1.312452e+002, 3.492204e+002
1.317274e+002, 3.515545e+002
1.322095e+002, 3.538257e+002
1.326916e+002, 3.540542e+002
1.331737e+002, 3.520264e+002
1.336558e+002, 3.494252e+002
1.341379e+002, 3.477689e+002
1.346201e+002, 3.470505e+002
1.351022e+002, 3.466678e+002
1.355843e+002, 3.465342e+002
1.360664e+002, 3.466181e+002
1.365485e+002, 3.465387e+002
1.370306e+002, 3.460965e+002
1.375128e+002, 3.459770e+002
1.379949e+002, 3.468860e+002
1.384770e+002, 3.487975e+002
1.389591e+002, 3.519781e+002
1.394412e+002, 3.571809e+002
1.399233e+002, 3.646467e+002
1.404055e+002, 3.702261e+002
1.408876e+002, 3.739568e+002
1.413697e+002, 3.757343e+002
1.418518e+002, 3.750818e+002
1.423339e+002, 3.710587e+002
1.428160e+002, 3.667283e+002
1.432982e+002, 3.630521e+002
1.437803e+002, 3.600090e+002
1.442624e+002, 3.578128e+002
1.447445e+002, 3.566188e+002
1.452266e+002, 3.562354e+002
1.457087e+002, 3.562216e+002
1.461909e+002, 3.562964e+002
1.466730e+002, 3.570980e+002
1.471551e+002, 3.590486e+002
1.476372e+002, 3.637289e+002
1.481193e+002, 3.668498e+002
1.486014e+002, 3.677385e+002
1.490836e+002, 3.669837e+002
1.495657e+002, 3.666334e+002
1.500478e+002, 3.669035e+002
1.505299e+002, 3.674116e+002
1.510120e+002, 3.679969e+002
1.514941e+002, 3.681345e+002
1.519763e+002, 3.689472e+002
1.524584e+002, 3.710452e+002
1.529405e+002, 3.740664e+002
1.534226e+002, 3.762385e+002
1.539047e+002, 3.758448e+002
1.543868e+002, 3.755912e+002
1.548690e+002, 3.769503e+002
1.553511e+002, 3.824147e+002
1.558332e+002, 3.870164e+002
1.563153e+002, 3.898904e+002
1.567974e+002, 3.911386e+002
1.572795e+002, 3.916518e+002
1.577617e+002, 3.904943e+002
1.582438e+002, 3.892711e+002
1.587259e+002, 3.891425e+002
1.592080e+002, 3.917105e+002
1.596901e+002, 3.941354e+002
1.601722e+002, 3.950080e+002
1.606544e+002, 3.944534e+002
1.611365e+002, 3.951153e+002
1.616186e+002, 3.994122e+002
1.621007e+002, 4.047230e+002
1.625828e+002, 4.087297e+002
1.630649e+002, 4.094147e+002
1.635471e+002, 4.096400e+002
1.640292e+002, 4.107414e+002
1.645113e+002, 4.127644e+002
1.649934e+002, 4.147938e+002
1.654755e+002, 4.160851e+002
1.659576e+002, 4.171959e+002
1.664398e+002, 4.187963e+002
1.669219e+002, 4.211590e+002
1.674040e+002, 4.241018e+002
1.678861e+002, 4.276398e+002
1.683682e+002, 4.318164e+002
1.688503e+002, 4.360275e+002
1.693325e+002, 4.400670e+002
1.698146e+002, 4.438842e+002
1.702967e+002, 4.473392e+002
1.707788e+002, 4.510180e+002
1.712609e+002, 4.540051e+002
1.717430e+002, 4.554211e+002
1.722252e+002, 4.551923e+002
1.727073e+002, 4.537562e+002
1.731894e+002, 4.504373e+002
1.736715e+002, 4.460765e+002
1.741536e+002, 4.426656e+002
1.746357e+002, 4.414471e+002
1.751179e+002, 4.415106e+002
1.756000e+002, 4.418672e+002
1.760821e+002, 4.424632e+002
1.765642e+002, 4.431893e+002
1.770463e+002, 4.437585e+002
1.775284e+002, 4.443294e+002
1.780106e+002, 4.453742e+002
1.784927e+002, 4.475570e+002
1.789748e+002, 4.502930e+002
1.794569e+002, 4.524859e+002
1.799390e+002, 4.539654e+002
1.804211e+002, 4.552526e+002
1.809033e+002, 4.566902e+002
1.813854e+002, 4.583852e+002
1.818675e+002, 4.607708e+002
1.823496e+002, 4.644923e+002
1.828317e+002, 4.690656e+002
1.833138e+002, 4.735532e+002
1.837960e+002, 4.778107e+002
1.842781e+002, 4.819765e+002
1.847602e+002, 4.862878e+002
1.852423e+002, 4.907254e+002
1.857244e+002, 4.947982e+002
1.862065e+002, 4.985384e+002
1.866887e+002, 5.017557e+002
1.871708e+002, 5.039190e+002
1.876529e+002, 5.050818e+002
1.881350e+002, 5.049258e+002
1.886171e+002, 5.026426e+002
1.890992e+002, 4.982390e+002
1.895814e+002, 4.928426e+002
1.900635e+002, 4.866725e+002
1.905456e+002, 4.798450e+002
1.910277e+002, 4.736592e+002
1.915098e+002, 4.681062e+002
1.919919e+002, 4.634207e+002
1.924741e+002, 4.603114e+002
1.929562e+002, 4.588143e+002
1.934383e+002, 4.582635e+002
1.939204e+002, 4.582125e+002
1.944025e+002, 4.586831e+002
1.948846e+002, 4.601696e+002
1.953668e+002, 4.629580e+002
1.958489e+002, 4.665369e+002
1.963310e+002, 4.695545e+002
1.968131e+002, 4.718936e+002
1.972952e+002, 4.745383e+002
1.977773e+002, 4.782626e+002
1.982595e+002, 4.830762e+002
1.987416e+002, 4.881241e+002
1.992237e+002, 4.932008e+002
1.997058e+002, 4.984790e+002
2.001879e+002, 5.043521e+002
2.006700e+002, 5.108998e+002
2.011522e+002, 5.179604e+002
2.016343e+002, 5.257097e+002
2.021164e+002, 5.342764e+002
2.025985e+002, 5.423094e+002
2.030806e+002, 5.496497e+002
2.035627e+002, 5.562806e+002
2.040449e+002, 5.619366e+002
2.045270e+002, 5.664774e+002
2.050091e+002, 5.704905e+002
2.054912e+002, 5.746170e+002
2.059733e+002, 5.791156e+002
2.064554e+002, 5.820568e+002
2.069376e+002, 5.828893e+002
2.074197e+002, 5.820940e+002
2.079018e+002, 5.814462e+002
2.083839e+002, 5.809445e+002
2.088660e+002, 5.806023e+002
2.093481e+002, 5.803100e+002
2.098303e+002, 5.799039e+002
2.103124e+002, 5.804319e+002
2.107945e+002, 5.825236e+002
2.112766e+002, 5.855585e+002
2.117587e+002, 5.871875e+002
2.122408e+002, 5.875275e+002
2.127230e+002, 5.862067e+002
2.132051e+002, 5.828368e+002
2.136872e+002, 5.770967e+002
2.141693e+002, 5.702479e+002
2.146514e+002, 5.620922e+002
2.151335e+002, 5.529121e+002
2.156157e+002, 5.442770e+002
2.160978e+002, 5.357759e+002
2.165799e+002, 5.284132e+002
2.170620e+002, 5.229073e+002
2.175441e+002, 5.197300e+002
2.180262e+002, 5.169774e+002
2.185084e+002, 5.143165e+002
2.189905e+002, 5.119029e+002
2.194726e+002, 5.107015e+002
2.199547e+002, 5.111190e+002
2.204368e+002, 5.120289e+002
2.209189e+002, 5.126526e+002
2.214011e+002, 5.126716e+002
2.218832e+002, 5.132909e+002
2.223653e+002, 5.146758e+002
2.228474e+002, 5.167419e+002
2.233295e+002, 5.191861e+002
2.238116e+002, 5.219591e+002
2.242938e+002, 5.251036e+002
2.247759e+002, 5.286426e+002
2.252580e+002, 5.325411e+002
2.257401e+002, 5.368538e+002
2.262222e+002, 5.416747e+002
2.267043e+002, 5.469039e+002
2.271865e+002, 5.523347e+002
2.276686e+002, 5.576591e+002
2.281507e+002, 5.634694e+002
2.286328e+002, 5.701439e+002
2.291149e+002, 5.781447e+002
2.295970e+002, 5.858350e+002
2.300792e+002, 5.927474e+002
2.305613e+002, 5.992802e+002
2.310434e+002, 6.068297e+002
2.315255e+002, 6.157980e+002
2.320076e+002, 6.250646e+002
2.324897e+002, 6.339912e+002
2.329719e+002, 6.426342e+002
2.334540e+002, 6.508018e+002
2.339361e+002, 6.585046e+002
2.344182e+002, 6.657777e+002
2.349003e+002, 6.729138e+002
2.353824e+002, 6.802870e+002
2.358646e+002, 6.869930e+002
2.363467e+002, 6.924670e+002
2.368288e+002, 6.960165e+002
2.373109e+002, 6.999462e+002
2.377930e+002, 7.049435e+002
2.382751e+002, 7.102589e+002
2.387573e+002, 7.134708e+002
2.392394e+002, 7.141028e+002
2.397215e+002, 7.132762e+002
2.402036e+002, 7.113642e+002
2.406857e+002, 7.079147e+002
2.411678e+002, 7.044498e+002
2.416500e+002, 7.015089e+002
2.421321e+002, 6.984174e+002
2.426142e+002, 6.932289e+002
2.430963e+002, 6.849347e+002
2.435784e+002, 6.760411e+002
2.440605e+002, 6.674714e+002
2.445427e+002, 6.586695e+002
2.450248e+002, 6.515409e+002
2.455069e+002, 6.465065e+002
2.459890e+002, 6.429707e+002
2.464711e+002, 6.396077e+002
2.469532e+002, 6.358156e+002
2.474354e+002, 6.331526e+002
2.479175e+002, 6.322964e+002
2.483996e+002, 6.335623e+002
2.488817e+002, 6.355914e+002
2.493638e+002, 6.383126e+002
2.498459e+002, 6.418495e+002
2.503281e+002, 6.465684e+002
2.508102e+002, 6.531833e+002
2.512923e+002, 6.597676e+002
2.517744e+002, 6.655656e+002
2.522565e+002, 6.700853e+002
2.527386e+002, 6.758036e+002
2.532208e+002, 6.834552e+002
2.537029e+002, 6.917622e+002
2.541850e+002, 6.988243e+002
2.546671e+002, 7.042258e+002
2.551492e+002, 7.092002e+002
2.556313e+002, 7.141072e+002
2.561135e+002, 7.189910e+002
2.565956e+002, 7.233651e+002
2.570777e+002, 7.272792e+002
2.575598e+002, 7.305577e+002
2.580419e+002, 7.329352e+002
2.585240e+002, 7.343005e+002
2.590062e+002, 7.349278e+002
2.594883e+002, 7.348108e+002
2.599704e+002, 7.339273e+002
2.604525e+002, 7.326627e+002
2.609346e+002, 7.310142e+002
2.614167e+002, 7.290145e+002
2.618989e+002, 7.266549e+002
2.623810e+002, 7.238588e+002
2.628631e+002, 7.210040e+002
2.633452e+002, 7.182892e+002
2.638273e+002, 7.156850e+002
2.643094e+002, 7.126735e+002
2.647916e+002, 7.091757e+002
2.652737e+002, 7.053629e+002
2.657558e+002, 7.012474e+002
2.662379e+002, 6.966963e+002
2.667200e+002, 6.924357e+002
2.672021e+002, 6.887701e+002
2.676843e+002, 6.855842e+002
2.681664e+002, 6.814716e+002
2.686485e+002, 6.760985e+002
2.691306e+002, 6.704952e+002
2.696127e+002, 6.656031e+002
2.700948e+002, 6.615673e+002
2.705770e+002, 6.576127e+002
2.710591e+002, 6.536495e+002
2.715412e+002, 6.496925e+002
2.720233e+002, 6.456670e+002
2.725054e+002, 6.415416e+002
2.729875e+002, 6.375796e+002
2.734697e+002, 6.340831e+002
2.739518e+002, 6.311118e+002
2.744339e+002, 6.279108e+002
2.749160e+002, 6.241707e+002
2.753981e+002, 6.202884e+002
2.758802e+002, 6.174337e+002
2.763624e+002, 6.157703e+002
2.768445e+002, 6.146930e+002
2.773266e+002, 6.138605e+002
2.778087e+002, 6.132687e+002
2.782908e+002, 6.131005e+002
2.787729e+002, 6.134974e+002
2.792551e+002, 6.141872e+002
2.797372e+002, 6.144060e+002
2.802193e+002, 6.140398e+002
2.807014e+002, 6.139807e+002
2.811835e+002, 6.149127e+002
2.816656e+002, 6.168171e+002
2.821478e+002, 6.183690e+002
2.826299e+002, 6.195142e+002
2.831120e+002, 6.202938e+002
2.835941e+002, 6.205563e+002
2.840762e+002, 6.202619e+002
2.845583e+002, 6.202933e+002
2.850405e+002, 6.213135e+002
2.855226e+002, 6.231746e+002
2.860047e+002, 6.244611e+002
2.864868e+002, 6.250868e+002
2.869689e+002, 6.253946e+002
2.874510e+002, 6.256769e+002
2.879332e+002, 6.259498e+002
2.884153e+002, 6.265853e+002
2.888974e+002, 6.278150e+002
2.893795e+002, 6.295156e+002
2.898616e+002, 6.311853e+002
2.903438e+002, 6.328018e+002
2.908259e+002, 6.345296e+002
2.913080e+002, 6.367985e+002
2.917901e+002, 6.394457e+002
2.922722e+002, 6.416295e+002
2.927543e+002, 6.430164e+002
2.932365e+002, 6.437668e+002
2.937186e+002, 6.441894e+002
2.942007e+002, 6.442797e+002
2.946828e+002, 6.440952e+002
2.951649e+002, 6.437560e+002
2.956470e+002, 6.431975e+002
2.961292e+002, 6.421547e+002
2.966113e+002, 6.404292e+002
2.970934e+002, 6.383495e+002
2.975755e+002, 6.362355e+002
2.980576e+002, 6.341143e+002
2.985397e+002, 6.323505e+002
2.990219e+002, 6.313315e+002
2.995040e+002, 6.308400e+002
2.999861e+002, 6.304007e+002
3.004682e+002, 6.298788e+002
3.009503e+002, 6.294850e+002
3.014324e+002, 6.292424e+002
3.019146e+002, 6.292676e+002
3.023967e+002, 6.300284e+002
3.028788e+002, 6.321905e+002
3.033609e+002, 6.351592e+002
3.038430e+002, 6.381277e+002
3.043251e+002, 6.410440e+002
3.048073e+002, 6.437281e+002
3.052894e+002, 6.459816e+002
3.057715e+002, 6.478702e+002
3.062536e+002, 6.496234e+002
3.067357e+002, 6.516345e+002
3.072178e+002, 6.533909e+002
3.077000e+002, 6.543231e+002
3.081821e+002, 6.543546e+002
3.086642e+002, 6.537828e+002
3.091463e+002, 6.525363e+002
3.096284e+002, 6.508710e+002
3.101105e+002, 6.491702e+002
3.105927e+002, 6.473690e+002
3.110748e+002, 6.457725e+002
3.115569e+002, 6.447515e+002
3.120390e+002, 6.443043e+002
3.125211e+002, 6.436993e+002
3.130032e+002, 6.420126e+002
3.134854e+002, 6.401427e+002
3.139675e+002, 6.390674e+002
3.144496e+002, 6.388317e+002
3.149317e+002, 6.397279e+002
3.154138e+002, 6.421713e+002
3.158959e+002, 6.460195e+002
3.163781e+002, 6.504158e+002
3.168602e+002, 6.550262e+002
3.173423e+002, 6.599877e+002
3.178244e+002, 6.654145e+002
3.183065e+002, 6.715787e+002
3.187886e+002, 6.778521e+002
3.192708e+002, 6.840267e+002
3.197529e+002, 6.901205e+002
3.202350e+002, 6.962092e+002
3.207171e+002, 7.031622e+002
3.211992e+002, 7.093973e+002
3.216813e+002, 7.141013e+002
3.221635e+002, 7.169445e+002
3.226456e+002, 7.187415e+002
3.231277e+002, 7.197797e+002
3.236098e+002, 7.198349e+002
3.240919e+002, 7.185308e+002
3.245740e+002, 7.145210e+002
3.250562e+002, 7.103257e+002
3.255383e+002, 7.068859e+002
3.260204e+002, 7.046387e+002
3.265025e+002, 7.015330e+002
3.269846e+002, 6.963402e+002
3.274667e+002, 6.906961e+002
3.279489e+002, 6.862826e+002
3.284310e+002, 6.845480e+002
3.289131e+002, 6.824545e+002
3.293952e+002, 6.795607e+002
3.298773e+002, 6.758631e+002
3.303594e+002, 6.717020e+002
3.308416e+002, 6.666877e+002
3.313237e+002, 6.615925e+002
3.318058e+002, 6.569604e+002
3.322879e+002, 6.528222e+002
3.327700e+002, 6.491008e+002
3.332521e+002, 6.460077e+002
3.337343e+002, 6.433220e+002
3.342164e+002, 6.399347e+002
3.346985e+002, 6.355995e+002
3.351806e+002, 6.309919e+002
3.356627e+002, 6.263746e+002
3.361448e+002, 6.216445e+002
3.366270e+002, 6.173692e+002
3.371091e+002, 6.137541e+002
3.375912e+002, 6.105057e+002
3.380733e+002, 6.067765e+002
3.385554e+002, 6.022319e+002
3.390375e+002, 5.984264e+002
3.395197e+002, 5.962984e+002
3.400018e+002, 5.959976e+002
3.404839e+002, 5.948603e+002
3.409660e+002, 5.927096e+002
3.414481e+002, 5.901558e+002
3.419302e+002, 5.879447e+002
3.424124e+002, 5.860580e+002
3.428945e+002, 5.844756e+002
3.433766e+002, 5.831500e+002
3.438587e+002, 5.821146e+002
3.443408e+002, 5.816833e+002
3.448229e+002, 5.819697e+002
3.453051e+002, 5.820813e+002
3.457872e+002, 5.808473e+002
3.462693e+002, 5.785326e+002
3.467514e+002, 5.769370e+002
3.472335e+002, 5.766541e+002
3.477156e+002, 5.770148e+002
3.481978e+002, 5.766793e+002
3.486799e+002, 5.757084e+002
3.491620e+002, 5.748100e+002
3.496441e+002, 5.747064e+002
3.501262e+002, 5.750201e+002
3.506083e+002, 5.747740e+002
3.510905e+002, 5.737479e+002
3.515726e+002, 5.725345e+002
3.520547e+002, 5.717838e+002
3.525368e+002, 5.714049e+002
3.530189e+002, 5.711243e+002
3.535010e+002, 5.705932e+002
3.539832e+002, 5.701801e+002
3.544653e+002, 5.705698e+002
3.549474e+002, 5.718282e+002
3.554295e+002, 5.728592e+002
3.559116e+002, 5.728069e+002
3.563937e+002, 5.719689e+002
3.568759e+002, 5.707957e+002
3.573580e+002, 5.689288e+002
3.578401e+002, 5.672065e+002
3.583222e+002, 5.663289e+002
3.588043e+002, 5.661757e+002
3.592864e+002, 5.660756e+002
3.597686e+002, 5.657922e+002
3.602507e+002, 5.653427e+002
3.607328e+002, 5.646837e+002
3.612149e+002, 5.634369e+002
3.616970e+002, 5.625897e+002
3.621791e+002, 5.628664e+002
3.626613e+002, 5.638351e+002
3.631434e+002, 5.645082e+002
3.636255e+002, 5.641171e+002
3.641076e+002, 5.637125e+002
3.645897e+002, 5.637594e+002
3.650718e+002, 5.643430e+002
3.655540e+002, 5.652512e+002
3.660361e+002, 5.667520e+002
3.665182e+002, 5.684568e+002
3.670003e+002, 5.699011e+002
3.674824e+002, 5.715123e+002
3.679645e+002, 5.723773e+002
3.684467e+002, 5.719424e+002
3.689288e+002, 5.701409e+002
3.694109e+002, 5.689857e+002
3.698930e+002, 5.688895e+002
3.703751e+002, 5.691398e+002
3.708572e+002, 5.692368e+002
3.713394e+002, 5.687658e+002
3.718215e+002, 5.688858e+002
3.723036e+002, 5.700211e+002
3.727857e+002, 5.717985e+002
3.732678e+002, 5.728754e+002
3.737499e+002, 5.730096e+002
3.742321e+002, 5.728732e+002
3.747142e+002, 5.727335e+002
3.751963e+002, 5.725658e+002
3.756784e+002, 5.724332e+002
3.761605e+002, 5.722397e+002
3.766426e+002, 5.721959e+002
3.771248e+002, 5.729381e+002
3.776069e+002, 5.747596e+002
3.780890e+002, 5.756116e+002
3.785711e+002, 5.744849e+002
3.790532e+002, 5.716979e+002
3.795353e+002, 5.698082e+002
3.800175e+002, 5.689867e+002
3.804996e+002, 5.681253e+002
3.809817e+002, 5.659722e+002
3.814638e+002, 5.627006e+002
3.819459e+002, 5.596434e+002
3.824280e+002, 5.571215e+002
3.829102e+002, 5.549240e+002
3.833923e+002, 5.526447e+002
3.838744e+002, 5.502950e+002
3.843565e+002, 5.482280e+002
3.848386e+002, 5.467931e+002
3.853207e+002, 5.457815e+002
3.858029e+002, 5.447922e+002
3.862850e+002, 5.437443e+002
3.867671e+002, 5.428781e+002
3.872492e+002, 5.424943e+002
3.877313e+002, 5.424774e+002
3.882134e+002, 5.425759e+002
3.886956e+002, 5.428337e+002
3.891777e+002, 5.430574e+002
3.896598e+002, 5.430016e+002
3.901419e+002, 5.426884e+002
3.906240e+002, 5.424485e+002
3.911061e+002, 5.426355e+002
3.915883e+002, 5.429464e+002
3.920704e+002, 5.430402e+002
3.925525e+002, 5.425545e+002
3.930346e+002, 5.422223e+002
3.935167e+002, 5.427372e+002
3.939988e+002, 5.437142e+002
3.944810e+002, 5.440739e+002
3.949631e+002, 5.431805e+002
3.954452e+002, 5.417796e+002
3.959273e+002, 5.401653e+002
3.964094e+002, 5.382655e+002
3.968915e+002, 5.364879e+002
3.973737e+002, 5.351120e+002
3.978558e+002, 5.338219e+002
3.983379e+002, 5.322278e+002
3.988200e+002, 5.301613e+002
3.993021e+002, 5.279071e+002
3.997842e+002, 5.254919e+002
4.002664e+002, 5.229125e+002
4.007485e+002, 5.201832e+002
4.012306e+002, 5.171497e+002
4.017127e+002, 5.141373e+002
4.021948e+002, 5.113064e+002
4.026769e+002, 5.084421e+002
4.031591e+002, 5.062604e+002
4.036412e+002, 5.050409e+002
4.041233e+002, 5.044221e+002
4.046054e+002, 5.034642e+002
4.050875e+002, 5.020815e+002
4.055696e+002, 5.006367e+002
4.060518e+002, 4.990814e+002
4.065339e+002, 4.973893e+002
4.070160e+002, 4.968047e+002
4.074981e+002, 4.975280e+002
4.079802e+002, 4.988298e+002
4.084623e+002, 4.999528e+002
4.089445e+002, 5.009092e+002
4.094266e+002, 5.017894e+002
4.099087e+002, 5.025312e+002
4.103908e+002, 5.032940e+002
4.108729e+002, 5.044381e+002
4.113550e+002, 5.059708e+002
4.118372e+002, 5.077616e+002
4.123193e+002, 5.099089e+002
4.128014e+002, 5.122474e+002
4.132835e+002, 5.143584e+002
4.137656e+002, 5.161458e+002
4.142477e+002, 5.179129e+002
4.147299e+002, 5.199963e+002
4.152120e+002, 5.223016e+002
4.156941e+002, 5.245508e+002
4.161762e+002, 5.265637e+002
4.166583e+002, 5.285055e+002
4.171404e+002, 5.303505e+002
4.176226e+002, 5.321329e+002
4.181047e+002, 5.343654e+002
4.185868e+002, 5.378480e+002
4.190689e+002, 5.416896e+002
4.195510e+002, 5.450886e+002
4.200331e+002, 5.475784e+002
4.205153e+002, 5.498898e+002
4.209974e+002, 5.521569e+002
4.214795e+002, 5.544305e+002
4.219616e+002, 5.567452e+002
4.224437e+002, 5.588153e+002
4.229258e+002, 5.612268e+002
4.234080e+002, 5.643441e+002
4.238901e+002, 5.684962e+002
4.243722e+002, 5.723851e+002
4.248543e+002, 5.755253e+002
4.253364e+002, 5.785657e+002
4.258185e+002, 5.821478e+002
4.263007e+002, 5.869672e+002
4.267828e+002, 5.913745e+002
4.272649e+002, 5.949757e+002
4.277470e+002, 5.979047e+002
4.282291e+002, 6.012146e+002
4.287112e+002, 6.051693e+002
4.291934e+002, 6.089901e+002
4.296755e+002, 6.123631e+002
4.301576e+002, 6.152752e+002
4.306397e+002, 6.176214e+002
4.311218e+002, 6.192888e+002
4.316039e+002, 6.205491e+002
4.320861e+002, 6.221475e+002
4.325682e+002, 6.241747e+002
4.330503e+002, 6.249738e+002
4.335324e+002, 6.237079e+002
4.340145e+002, 6.208425e+002
4.344966e+002, 6.179046e+002
4.349788e+002, 6.149023e+002
4.354609e+002, 6.117748e+002
4.359430e+002, 6.079324e+002
4.364251e+002, 6.038760e+002
4.369072e+002, 6.012728e+002
4.373893e+002, 6.009070e+002
4.378715e+002, 6.007699e+002
4.383536e+002, 5.979518e+002
4.388357e+002, 5.934000e+002
4.393178e+002, 5.897567e+002
4.397999e+002, 5.894030e+002
4.402820e+002, 5.899164e+002
4.407642e+002, 5.891810e+002
4.412463e+002, 5.870607e+002
4.417284e+002, 5.843466e+002
4.422105e+002, 5.809139e+002
4.426926e+002, 5.773236e+002
4.431747e+002, 5.741244e+002
4.436569e+002, 5.718444e+002
4.441390e+002, 5.694933e+002
4.446211e+002, 5.666061e+002
4.451032e+002, 5.633921e+002
4.455853e+002, 5.605541e+002
4.460674e+002, 5.589757e+002
4.465496e+002, 5.571172e+002
4.470317e+002, 5.542641e+002
4.475138e+002, 5.499240e+002
4.479959e+002, 5.461660e+002
4.484780e+002, 5.433962e+002
4.489601e+002, 5.409275e+002
4.494423e+002, 5.380411e+002
4.499244e+002, 5.346127e+002
4.504065e+002, 5.310510e+002
4.508886e+002, 5.270797e+002
4.513707e+002, 5.230606e+002
4.518528e+002, 5.204986e+002
4.523350e+002, 5.196595e+002
4.528171e+002, 5.194352e+002
4.532992e+002, 5.190690e+002
4.537813e+002, 5.185419e+002
4.542634e+002, 5.194005e+002
4.547455e+002, 5.221049e+002
4.552277e+002, 5.247960e+002
4.557098e+002, 5.246329e+002
4.561919e+002, 5.220309e+002
4.566740e+002, 5.198582e+002
4.571561e+002, 5.192197e+002
4.576382e+002, 5.194520e+002
4.581204e+002, 5.196730e+002
4.586025e+002, 5.198513e+002
4.590846e+002, 5.197278e+002
4.595667e+002, 5.192306e+002
4.600488e+002, 5.182944e+002
4.605309e+002, 5.166648e+002
4.610131e+002, 5.141483e+002
4.614952e+002, 5.117442e+002
4.619773e+002, 5.102777e+002
4.624594e+002, 5.093714e+002
4.629415e+002, 5.084538e+002
4.634236e+002, 5.075171e+002
4.639058e+002, 5.063471e+002
4.643879e+002, 5.045696e+002
4.648700e+002, 5.023127e+002
4.653521e+002, 5.005453e+002
4.658342e+002, 5.000082e+002
4.663163e+002, 4.996349e+002
4.667985e+002, 4.987514e+002
4.672806e+002, 4.964670e+002
4.677627e+002, 4.952389e+002
4.682448e+002, 4.956429e+002
4.687269e+002, 4.968978e+002
4.692090e+002, 4.979628e+002
4.696912e+002, 4.989899e+002
4.701733e+002, 4.995483e+002
4.706554e+002, 4.994283e+002
4.711375e+002, 4.987029e+002
4.716196e+002, 4.979623e+002
4.721017e+002, 4.970199e+002
4.725839e+002, 4.965798e+002
4.730660e+002, 4.976280e+002
4.735481e+002, 5.001855e+002
4.740302e+002, 5.010782e+002
4.745123e+002, 4.997585e+002
4.749944e+002, 4.975641e+002
4.754766e+002, 4.962514e+002
4.759587e+002, 4.957752e+002
4.764408e+002, 4.958436e+002
4.769229e+002, 4.966498e+002
4.774050e+002, 4.977543e+002
4.778871e+002, 4.983466e+002
4.783693e+002, 4.984893e+002
4.788514e+002, 4.987113e+002
4.793335e+002, 4.991464e+002
4.798156e+002, 4.999787e+002
4.802977e+002, 5.015933e+002
4.807798e+002, 5.043327e+002
4.812620e+002, 5.068647e+002
4.817441e+002, 5.082000e+002
4.822262e+002, 5.088704e+002
4.827083e+002, 5.096620e+002
4.831904e+002, 5.116074e+002
4.836725e+002, 5.129543e+002
4.841547e+002, 5.130997e+002
4.846368e+002, 5.120434e+002
4.851189e+002, 5.100947e+002
4.856010e+002, 5.066303e+002
4.860831e+002, 5.027699e+002
4.865652e+002, 4.990635e+002
4.870474e+002, 4.953460e+002
4.875295e+002, 4.921104e+002
4.880116e+002, 4.896517e+002
4.884937e+002, 4.874928e+002
4.889758e+002, 4.848515e+002
4.894579e+002, 4.814324e+002
4.899401e+002, 4.784153e+002
4.904222e+002, 4.760667e+002
4.909043e+002, 4.743313e+002
4.913864e+002, 4.730001e+002
4.918685e+002, 4.721456e+002
4.923506e+002, 4.711569e+002
4.928328e+002, 4.694213e+002
4.933149e+002, 4.671526e+002
4.937970e+002, 4.652929e+002
4.942791e+002, 4.639298e+002
4.947612e+002, 4.628861e+002
4.952433e+002, 4.620401e+002
4.957255e+002, 4.613476e+002
4.962076e+002, 4.606950e+002
4.966897e+002, 4.602215e+002
4.971718e+002, 4.596026e+002
4.976539e+002, 4.581251e+002
4.981360e+002, 4.561209e+002
4.986182e+002, 4.548463e+002
4.991003e+002, 4.556774e+002
4.995824e+002, 4.569973e+002
5.000645e+002, 4.576461e+002
5.005466e+002, 4.573570e+002
5.010287e+002, 4.570336e+002
5.015109e+002, 4.566842e+002
5.019930e+002, 4.565345e+002
5.024751e+002, 4.568163e+002
5.029572e+002, 4.583248e+002
5.034393e+002, 4.593341e+002
5.039214e+002, 4.593935e+002
5.044036e+002, 4.587961e+002
5.048857e+002, 4.585309e+002
5.053678e+002, 4.585267e+002
5.058499e+002, 4.589956e+002
5.063320e+002, 4.602514e+002
5.068141e+002, 4.624037e+002
5.072963e+002, 4.636650e+002
5.077784e+002, 4.638941e+002
5.082605e+002, 4.636449e+002
5.087426e+002, 4.632840e+002
5.092247e+002, 4.628451e+002
5.097068e+002, 4.629046e+002
5.101890e+002, 4.636910e+002
5.106711e+002, 4.647851e+002
5.111532e+002, 4.655089e+002
5.116353e+002, 4.659112e+002
5.121174e+002, 4.662225e+002
5.125995e+002, 4.660848e+002
5.130817e+002, 4.661768e+002
5.135638e+002, 4.676342e+002
5.140459e+002, 4.704044e+002
5.145280e+002, 4.730095e+002
5.150101e+002, 4.744649e+002
5.154922e+002, 4.753495e+002
5.159744e+002, 4.761637e+002
5.164565e+002, 4.769710e+002
5.169386e+002, 4.778293e+002
5.174207e+002, 4.784671e+002
5.179028e+002, 4.792298e+002
5.183849e+002, 4.806812e+002
5.188671e+002, 4.836492e+002
5.193492e+002, 4.865181e+002
5.198313e+002, 4.885816e+002
5.203134e+002, 4.899559e+002
5.207955e+002, 4.929424e+002
5.212776e+002, 4.990036e+002
5.217598e+002, 5.045206e+002
5.222419e+002, 5.070839e+002
5.227240e+002, 5.059781e+002
5.232061e+002, 5.058175e+002
5.236882e+002, 5.068074e+002
5.241703e+002, 5.084472e+002
5.246525e+002, 5.102101e+002
5.251346e+002, 5.120931e+002
5.256167e+002, 5.138725e+002
5.260988e+002, 5.153570e+002
5.265809e+002, 5.168412e+002
5.270630e+002, 5.191254e+002
5.275452e+002, 5.220253e+002
5.280273e+002, 5.245138e+002
5.285094e+002, 5.254702e+002
5.289915e+002, 5.259739e+002
5.294736e+002, 5.272819e+002
5.299557e+002, 5.295077e+002
5.304379e+002, 5.320198e+002
5.309200e+002, 5.347715e+002
5.314021e+002, 5.374830e+002
5.318842e+002, 5.399009e+002
5.323663e+002, 5.420438e+002
5.328484e+002, 5.437529e+002
5.333306e+002, 5.447706e+002
5.338127e+002, 5.453273e+002
5.342948e+002, 5.458890e+002
5.347769e+002, 5.469200e+002
5.352590e+002, 5.474717e+002
5.357411e+002, 5.472316e+002
5.362233e+002, 5.462299e+002
5.367054e+002, 5.452269e+002
5.371875e+002, 5.441821e+002
5.376696e+002, 5.432535e+002
5.381517e+002, 5.424948e+002
5.386339e+002, 5.419037e+002
5.391160e+002, 5.418176e+002
5.395981e+002, 5.424593e+002
5.400802e+002, 5.430447e+002
5.405623e+002, 5.423783e+002
5.410444e+002, 5.406519e+002
5.415266e+002, 5.389130e+002
5.420087e+002, 5.373436e+002
5.424908e+002, 5.360856e+002
5.429729e+002, 5.354265e+002
5.434550e+002, 5.353007e+002
5.439371e+002, 5.354280e+002
5.444193e+002, 5.352265e+002
5.449014e+002, 5.354911e+002
5.453835e+002, 5.372690e+002
5.458656e+002, 5.407377e+002
5.463477e+002, 5.436697e+002
5.468298e+002, 5.446985e+002
5.473120e+002, 5.450853e+002
5.477941e+002, 5.458671e+002
5.482762e+002, 5.477750e+002
5.487583e+002, 5.493201e+002
5.492404e+002, 5.508568e+002
5.497225e+002, 5.518322e+002
5.502047e+002, 5.512076e+002
5.506868e+002, 5.483860e+002
5.511689e+002, 5.451146e+002
5.516510e+002, 5.419431e+002
5.521331e+002, 5.387241e+002
5.526152e+002, 5.343580e+002
5.530974e+002, 5.286445e+002
5.535795e+002, 5.228170e+002
5.540616e+002, 5.174681e+002
5.545437e+002, 5.126506e+002
5.550258e+002, 5.086838e+002
5.555079e+002, 5.056065e+002
5.559901e+002, 5.032008e+002
5.564722e+002, 5.014005e+002
5.569543e+002, 5.000526e+002
5.574364e+002, 4.988024e+002
5.579185e+002, 4.973738e+002
5.584006e+002, 4.962902e+002
5.588828e+002, 4.958731e+002
5.593649e+002, 4.961002e+002
5.598470e+002, 4.969111e+002
5.603291e+002, 4.985351e+002
5.608112e+002, 5.004892e+002
5.612933e+002, 5.026353e+002
5.617755e+002, 5.049559e+002
5.622576e+002, 5.072863e+002
5.627397e+002, 5.094863e+002
5.632218e+002, 5.117469e+002
5.637039e+002, 5.142161e+002
5.641860e+002, 5.171212e+002
5.646682e+002, 5.196201e+002
5.651503e+002, 5.215357e+002
5.656324e+002, 5.233134e+002
5.661145e+002, 5.255623e+002
5.665966e+002, 5.283760e+002
5.670787e+002, 5.310319e+002
5.675609e+002, 5.333131e+002
5.680430e+002, 5.354537e+002
5.685251e+002, 5.378726e+002
5.690072e+002, 5.405770e+002
5.694893e+002, 5.434046e+002
5.699714e+002, 5.460317e+002
5.704536e+002, 5.488741e+002
5.709357e+002, 5.524713e+002
5.714178e+002, 5.568179e+002
5.718999e+002, 5.619459e+002
5.723820e+002, 5.685566e+002
5.728641e+002, 5.755224e+002
5.733463e+002, 5.815736e+002
5.738284e+002, 5.859410e+002
5.743105e+002, 5.910518e+002
5.747926e+002, 5.980933e+002
5.752747e+002, 6.061089e+002
5.757568e+002, 6.138619e+002
5.762390e+002, 6.208481e+002
5.767211e+002, 6.282204e+002
5.772032e+002, 6.360763e+002
5.776853e+002, 6.444434e+002
5.781674e+002, 6.531809e+002
5.786495e+002, 6.623273e+002
5.791317e+002, 6.717330e+002
5.796138e+002, 6.812853e+002
5.800959e+002, 6.910253e+002
5.805780e+002, 7.012252e+002
5.810601e+002, 7.119740e+002
5.815422e+002, 7.232178e+002
5.820244e+002, 7.355434e+002
5.825065e+002, 7.483663e+002
5.829886e+002, 7.597902e+002
5.834707e+002, 7.695508e+002
5.839528e+002, 7.789882e+002
5.844349e+002, 7.896122e+002
5.849171e+002, 8.006483e+002
5.853992e+002, 8.109560e+002
5.858813e+002, 8.206922e+002
5.863634e+002, 8.290408e+002
5.868455e+002, 8.345506e+002
5.873276e+002, 8.383053e+002
5.878098e+002, 8.430601e+002
5.882919e+002, 8.510233e+002
5.887740e+002, 8.583254e+002
5.892561e+002, 8.638505e+002
5.897382e+002, 8.675768e+002
5.902203e+002, 8.704474e+002
5.907025e+002, 8.720040e+002
5.911846e+002, 8.734699e+002
5.916667e+002, 8.754974e+002
5.921488e+002, 8.780858e+002
5.926309e+002, 8.814206e+002
5.931130e+002, 8.854857e+002
5.935952e+002, 8.904539e+002
5.940773e+002, 8.965477e+002
5.945594e+002, 9.037661e+002
5.950415e+002, 9.118674e+002
5.955236e+002, 9.207179e+002
5.960057e+002, 9.307495e+002
5.964879e+002, 9.421035e+002
5.969700e+002, 9.549288e+002
5.974521e+002, 9.694834e+002
5.979342e+002, 9.866903e+002
5.984163e+002, 1.005020e+003
5.988984e+002, 1.023243e+003
5.993806e+002, 1.041602e+003
5.998627e+002, 1.061878e+003
6.003448e+002, 1.086244e+003
6.008269e+002, 1.111094e+003
6.013090e+002, 1.134733e+003
6.017911e+002, 1.156521e+003
6.022733e+002, 1.180035e+003
6.027554e+002, 1.205990e+003
6.032375e+002, 1.232615e+003
6.037196e+002, 1.258042e+003
6.042017e+002, 1.282481e+003
6.046838e+002, 1.305857e+003
6.051660e+002, 1.328514e+003
6.056481e+002, 1.349786e+003
6.061302e+002, 1.369349e+003
6.066123e+002, 1.386692e+003
6.070944e+002, 1.399467e+003
6.075765e+002, 1.407515e+003
6.080587e+002, 1.409995e+003
6.085408e+002, 1.406644e+003
6.090229e+002, 1.397133e+003
6.095050e+002, 1.380177e+003
6.099871e+002, 1.352615e+003
6.104692e+002, 1.319474e+003
6.109514e+002, 1.283307e+003
6.114335e+002, 1.243965e+003
6.119156e+002, 1.202524e+003
6.123977e+002, 1.157292e+003
6.128798e+002, 1.111379e+003
6.133619e+002, 1.067051e+003
6.138441e+002, 1.023408e+003
6.143262e+002, 9.822316e+002
6.148083e+002, 9.433690e+002
6.152904e+002, 9.068255e+002
6.157725e+002, 8.732057e+002
6.162546e+002, 8.425438e+002
6.167368e+002, 8.145016e+002
6.172189e+002, 7.888359e+002
6.177010e+002, 7.654390e+002
6.181831e+002, 7.446234e+002
6.186652e+002, 7.261376e+002
6.191473e+002, 7.088859e+002
6.196295e+002, 6.926367e+002
6.201116e+002, 6.773790e+002
6.205937e+002, 6.630409e+002
6.210758e+002, 6.497106e+002
6.215579e+002, 6.374126e+002
6.220400e+002, 6.265082e+002
6.225222e+002, 6.166757e+002
6.230043e+002, 6.079235e+002
6.234864e+002, 6.004001e+002
6.239685e+002, 5.930800e+002
6.244506e+002, 5.856683e+002
6.249327e+002, 5.785690e+002
6.254149e+002, 5.719500e+002
6.258970e+002, 5.656827e+002
6.263791e+002, 5.605729e+002
6.268612e+002, 5.569411e+002
6.273433e+002, 5.539779e+002
6.278254e+002, 5.505333e+002
6.283076e+002, 5.466375e+002
6.287897e+002, 5.429656e+002
6.292718e+002, 5.397309e+002
6.297539e+002, 5.367155e+002
6.302360e+002, 5.335227e+002
6.307181e+002, 5.302689e+002
6.312003e+002, 5.273646e+002
6.316824e+002, 5.253481e+002
6.321645e+002, 5.234943e+002
6.326466e+002, 5.212814e+002
6.331287e+002, 5.187261e+002
6.336108e+002, 5.161423e+002
6.340930e+002, 5.134747e+002
6.345751e+002, 5.109068e+002
6.350572e+002, 5.084368e+002
6.355393e+002, 5.059029e+002
6.360214e+002, 5.043246e+002
6.365035e+002, 5.044576e+002
6.369857e+002, 5.046143e+002
6.374678e+002, 5.032272e+002
6.379499e+002, 4.999218e+002
6.384320e+002, 4.980389e+002
6.389141e+002, 4.981782e+002
6.393962e+002, 4.986869e+002
6.398784e+002, 4.971226e+002
6.403605e+002, 4.939444e+002
6.408426e+002, 4.910497e+002
6.413247e+002, 4.889645e+002
6.418068e+002, 4.874216e+002
6.422889e+002, 4.863317e+002
6.427711e+002, 4.855527e+002
6.432532e+002, 4.847282e+002
6.437353e+002, 4.833534e+002
6.442174e+002, 4.822479e+002
6.446995e+002, 4.821723e+002
6.451816e+002, 4.828985e+002
6.456638e+002, 4.828549e+002
6.461459e+002, 4.807744e+002
6.466280e+002, 4.789393e+002
6.471101e+002, 4.781202e+002
6.475922e+002, 4.783680e+002
6.480743e+002, 4.788773e+002
6.485565e+002, 4.797952e+002
6.490386e+002, 4.805681e+002
6.495207e+002, 4.806020e+002
6.500028e+002, 4.800009e+002
6.504849e+002, 4.797084e+002
6.509670e+002, 4.798040e+002
6.514492e+002, 4.800954e+002
6.519313e+002, 4.802964e+002
6.524134e+002, 4.805636e+002
6.528955e+002, 4.813320e+002
6.533776e+002, 4.832104e+002
6.538597e+002, 4.845115e+002
6.543419e+002, 4.836678e+002
6.548240e+002, 4.816942e+002
6.553061e+002, 4.801564e+002
6.557882e+002, 4.794715e+002
6.562703e+002, 4.792794e+002
6.567524e+002, 4.797125e+002
6.572346e+002, 4.805886e+002
6.577167e+002, 4.813871e+002
6.581988e+002, 4.820787e+002
6.586809e+002, 4.827820e+002
6.591630e+002, 4.835833e+002
6.596451e+002, 4.844322e+002
6.601273e+002, 4.850922e+002
6.606094e+002, 4.855726e+002
6.610915e+002, 4.856923e+002
6.615736e+002, 4.846502e+002
6.620557e+002, 4.833457e+002
6.625378e+002, 4.837946e+002
6.630200e+002, 4.860848e+002
6.635021e+002, 4.886435e+002
6.639842e+002, 4.908657e+002
6.644663e+002, 4.925497e+002
6.649484e+002, 4.933363e+002
6.654305e+002, 4.927609e+002
6.659127e+002, 4.925194e+002
6.663948e+002, 4.935403e+002
6.668769e+002, 4.948157e+002
6.673590e+002, 4.952513e+002
6.678411e+002, 4.940152e+002
6.683232e+002, 4.937487e+002
6.688054e+002, 4.949632e+002
6.692875e+002, 4.968864e+002
6.697696e+002, 4.981801e+002
6.702517e+002, 4.988325e+002
6.707338e+002, 4.993849e+002
6.712159e+002, 4.999324e+002
6.716981e+002, 5.005313e+002
6.721802e+002, 5.015220e+002
6.726623e+002, 5.027002e+002
6.731444e+002, 5.033712e+002
6.736265e+002, 5.022987e+002
6.741086e+002, 5.012860e+002
6.745908e+002, 5.020058e+002
6.750729e+002, 5.041829e+002
6.755550e+002, 5.058715e+002
6.760371e+002, 5.057714e+002
6.765192e+002, 5.056915e+002
6.770013e+002, 5.065554e+002
6.774835e+002, 5.084927e+002
6.779656e+002, 5.100727e+002
6.784477e+002, 5.112698e+002
6.789298e+002, 5.121833e+002
6.794119e+002, 5.126588e+002
6.798940e+002, 5.126941e+002
6.803762e+002, 5.134843e+002
6.808583e+002, 5.151266e+002
6.813404e+002, 5.171706e+002
6.818225e+002, 5.196559e+002
6.823046e+002, 5.221263e+002
6.827867e+002, 5.236029e+002
6.832689e+002, 5.236913e+002
6.837510e+002, 5.233686e+002
6.842331e+002, 5.229554e+002
6.847152e+002, 5.226791e+002
6.851973e+002, 5.228400e+002
6.856794e+002, 5.238402e+002
6.861616e+002, 5.249076e+002
6.866437e+002, 5.256454e+002
6.871258e+002, 5.264431e+002
6.876079e+002, 5.281075e+002
6.880900e+002, 5.310482e+002
6.885721e+002, 5.337249e+002
6.890543e+002, 5.357108e+002
6.895364e+002, 5.371893e+002
6.900185e+002, 5.387538e+002
6.905006e+002, 5.403842e+002
6.909827e+002, 5.418118e+002
6.914648e+002, 5.427780e+002
6.919470e+002, 5.435253e+002
6.924291e+002, 5.444480e+002
6.929112e+002, 5.455219e+002
6.933933e+002, 5.466118e+002
6.938754e+002, 5.472734e+002
6.943575e+002, 5.482388e+002
6.948397e+002, 5.503009e+002
6.953218e+002, 5.536588e+002
6.958039e+002, 5.561808e+002
6.962860e+002, 5.568873e+002
6.967681e+002, 5.573888e+002
6.972502e+002, 5.585095e+002
6.977324e+002, 5.603939e+002
6.982145e+002, 5.621738e+002
6.986966e+002, 5.637936e+002
6.991787e+002, 5.654764e+002
6.996608e+002, 5.675346e+002
7.001429e+002, 5.698619e+002
7.006251e+002, 5.719747e+002
7.011072e+002, 5.737614e+002
7.015893e+002, 5.755767e+002
7.020714e+002, 5.778814e+002
7.025535e+002, 5.804006e+002
7.030356e+002, 5.827159e+002
7.035178e+002, 5.844615e+002
7.039999e+002, 5.863597e+002
7.044820e+002, 5.890679e+002
7.049641e+002, 5.919755e+002
7.054462e+002, 5.941215e+002
7.059283e+002, 5.946005e+002
7.064105e+002, 5.957153e+002
7.068926e+002, 5.978984e+002
7.073747e+002, 6.008072e+002
7.078568e+002, 6.036851e+002
7.083389e+002, 6.065455e+002
7.088210e+002, 6.094156e+002
7.093032e+002, 6.123633e+002
7.097853e+002, 6.152877e+002
7.102674e+002, 6.176070e+002
7.107495e+002, 6.195924e+002
7.112316e+002, 6.222911e+002
7.117137e+002, 6.272025e+002
7.121959e+002, 6.322673e+002
7.126780e+002, 6.357780e+002
7.131601e+002, 6.379292e+002
7.136422e+002, 6.403119e+002
7.141243e+002, 6.429288e+002
7.146064e+002, 6.463694e+002
7.150886e+002, 6.511266e+002
7.155707e+002, 6.572936e+002
7.160528e+002, 6.626219e+002
7.165349e+002, 6.670308e+002
7.170170e+002, 6.709243e+002
7.174991e+002, 6.742661e+002
7.179813e+002, 6.771978e+002
7.184634e+002, 6.810590e+002
7.189455e+002, 6.858727e+002
7.194276e+002, 6.914865e+002
7.199097e+002, 6.981529e+002
7.203918e+002, 7.053884e+002
7.208740e+002, 7.123517e+002
7.213561e+002, 7.188956e+002
7.218382e+002, 7.257161e+002
7.223203e+002, 7.334517e+002
7.228024e+002, 7.414986e+002
7.232845e+002, 7.493700e+002
7.237667e+002, 7.565305e+002
7.242488e+002, 7.645131e+002
7.247309e+002, 7.735817e+002
7.252130e+002, 7.832863e+002
7.256951e+002, 7.929003e+002
7.261772e+002, 8.022717e+002
7.266594e+002, 8.134427e+002
7.271415e+002, 8.268356e+002
7.276236e+002, 8.412118e+002
7.281057e+002, 8.550490e+002
7.285878e+002, 8.685700e+002
7.290699e+002, 8.823884e+002
7.295521e+002, 8.960883e+002
7.300342e+002, 9.111473e+002
7.305163e+002, 9.290667e+002
7.309984e+002, 9.489507e+002
7.314805e+002, 9.691993e+002
7.319626e+002, 9.879778e+002
7.324448e+002, 1.008931e+003
7.329269e+002, 1.033115e+003
7.334090e+002, 1.059782e+003
7.338911e+002, 1.086127e+003
7.343732e+002, 1.111383e+003
7.348553e+002, 1.138475e+003
7.353375e+002, 1.168255e+003
7.358196e+002, 1.200485e+003
7.363017e+002, 1.235158e+003
7.367838e+002, 1.271995e+003
7.372659e+002, 1.309286e+003
7.377480e+002, 1.346093e+003
7.382302e+002, 1.382891e+003
7.387123e+002, 1.421149e+003
7.391944e+002, 1.460406e+003
7.396765e+002, 1.498415e+003
7.401586e+002, 1.533696e+003
7.406407e+002, 1.568294e+003
7.411229e+002, 1.603866e+003
7.416050e+002, 1.640493e+003
7.420871e+002, 1.671826e+003
7.425692e+002, 1.697882e+003
7.430513e+002, 1.719096e+003
7.435334e+002, 1.735313e+003
7.440156e+002, 1.746780e+003
7.444977e+002, 1.755148e+003
7.449798e+002, 1.760471e+003
7.454619e+002, 1.762327e+003
7.459440e+002, 1.759353e+003
7.464261e+002, 1.753236e+003
7.469083e+002, 1.746260e+003
7.473904e+002, 1.738645e+003
7.478725e+002, 1.728404e+003
7.483546e+002, 1.712997e+003
7.488367e+002, 1.695912e+003
7.493188e+002, 1.679131e+003
7.498010e+002, 1.662847e+003
7.502831e+002, 1.647970e+003
7.507652e+002, 1.635643e+003
7.512473e+002, 1.622896e+003
7.517294e+002, 1.606854e+003
7.522115e+002, 1.587693e+003
7.526937e+002, 1.568575e+003
7.531758e+002, 1.549588e+003
7.536579e+002, 1.530876e+003
7.541400e+002, 1.512238e+003
7.546221e+002, 1.494103e+003
7.551042e+002, 1.477205e+003
7.555864e+002, 1.462305e+003
7.560685e+002, 1.446839e+003
7.565506e+002, 1.428136e+003
7.570327e+002, 1.408943e+003
7.575148e+002, 1.392547e+003
7.579969e+002, 1.380758e+003
7.584791e+002, 1.369175e+003
7.589612e+002, 1.357927e+003
7.594433e+002, 1.346729e+003
7.599254e+002, 1.335068e+003
7.604075e+002, 1.322744e+003
7.608896e+002, 1.311939e+003
7.613718e+002, 1.302858e+003
7.618539e+002, 1.295717e+003
7.623360e+002, 1.291349e+003
7.628181e+002, 1.289064e+003
7.633002e+002, 1.287409e+003
7.637823e+002, 1.285747e+003
7.642645e+002, 1.284967e+003
7.647466e+002, 1.284873e+003
7.652287e+002, 1.286174e+003
7.657108e+002, 1.289972e+003
7.661929e+002, 1.297061e+003
7.666750e+002, 1.305761e+003
7.671572e+002, 1.315212e+003
7.676393e+002, 1.326712e+003
7.681214e+002, 1.343218e+003
7.686035e+002, 1.364953e+003
7.690856e+002, 1.388703e+003
7.695677e+002, 1.413394e+003
7.700499e+002, 1.440522e+003
7.705320e+002, 1.472286e+003
7.710141e+002, 1.508352e+003
7.714962e+002, 1.547882e+003
7.719783e+002, 1.590124e+003
7.724604e+002, 1.636314e+003
7.729426e+002, 1.685932e+003
7.734247e+002, 1.739734e+003
7.739068e+002, 1.799209e+003
7.743889e+002, 1.864946e+003
7.748710e+002, 1.935762e+003
7.753531e+002, 2.011702e+003
7.758353e+002, 2.092510e+003
7.763174e+002, 2.177154e+003
7.767995e+002, 2.264797e+003
7.772816e+002, 2.359519e+003
7.777637e+002, 2.463529e+003
7.782458e+002, 2.574518e+003
7.787280e+002, 2.689446e+003
7.792101e+002, 2.808672e+003
7.796922e+002, 2.930799e+003
7.801743e+002, 3.059415e+003
7.806564e+002, 3.188135e+003
7.811385e+002, 3.318102e+003
7.816207e+002, 3.447692e+003
7.821028e+002, 3.566927e+003
7.825849e+002, 3.679307e+003
7.830670e+002, 3.778099e+003
7.835491e+002, 3.864225e+003
7.840313e+002, 3.934677e+003
7.845134e+002, 3.980972e+003
7.849955e+002, 4.003472e+003
7.854776e+002, 3.997054e+003
7.859597e+002, 3.956323e+003
7.864418e+002, 3.887312e+003
7.869240e+002, 3.797590e+003
7.874061e+002, 3.687963e+003
7.878882e+002, 3.561320e+003
7.883703e+002, 3.412624e+003
7.888524e+002, 3.256429e+003
7.893345e+002, 3.097156e+003
7.898167e+002, 2.935704e+003
7.902988e+002, 2.784620e+003
7.907809e+002, 2.641747e+003
7.912630e+002, 2.511343e+003
7.917451e+002, 2.393191e+003
7.922272e+002, 2.288735e+003
7.927094e+002, 2.194770e+003
7.931915e+002, 2.112070e+003
7.936736e+002, 2.040763e+003
7.941557e+002, 1.984018e+003
7.946378e+002, 1.937670e+003
7.951199e+002, 1.897578e+003
7.956021e+002, 1.864330e+003
7.960842e+002, 1.838293e+003
7.965663e+002, 1.820225e+003
7.970484e+002, 1.809315e+003
7.975305e+002, 1.806163e+003
7.980126e+002, 1.810319e+003
7.984948e+002, 1.820022e+003
7.989769e+002, 1.835741e+003
7.994590e+002, 1.855867e+003
7.999411e+002, 1.879219e+003
8.004232e+002, 1.906488e+003
8.009053e+002, 1.939573e+003
8.013875e+002, 1.978305e+003
8.018696e+002, 2.020741e+003
8.023517e+002, 2.067341e+003
8.028338e+002, 2.116653e+003
8.033159e+002, 2.167567e+003
8.037980e+002, 2.219948e+003
8.042802e+002, 2.272211e+003
8.047623e+002, 2.327283e+003
8.052444e+002, 2.378379e+003
8.057265e+002, 2.422923e+003
8.062086e+002, 2.461153e+003
8.066907e+002, 2.495617e+003
8.071729e+002, 2.526685e+003
8.076550e+002, 2.552629e+003
8.081371e+002, 2.574000e+003
8.086192e+002, 2.589364e+003
8.091013e+002, 2.593568e+003
8.095834e+002, 2.587620e+003
8.100656e+002, 2.577256e+003
8.105477e+002, 2.564019e+003
8.110298e+002, 2.549179e+003
8.115119e+002, 2.532238e+003
8.119940e+002, 2.513816e+003
8.124761e+002, 2.498103e+003
8.129583e+002, 2.486779e+003
8.134404e+002, 2.476826e+003
8.139225e+002, 2.466255e+003
8.144046e+002, 2.456250e+003
8.148867e+002, 2.453128e+003
8.153688e+002, 2.456940e+003
8.158510e+002, 2.467105e+003
8.163331e+002, 2.483150e+003
8.168152e+002, 2.505550e+003
8.172973e+002, 2.534442e+003
8.177794e+002, 2.570037e+003
8.182615e+002, 2.613133e+003
8.187437e+002, 2.664060e+003
8.192258e+002, 2.722004e+003
8.197079e+002, 2.786810e+003
8.201900e+002, 2.859222e+003
8.206721e+002, 2.938345e+003
8.211542e+002, 3.023398e+003
8.216364e+002, 3.117452e+003
8.221185e+002, 3.221350e+003
8.226006e+002, 3.334657e+003
8.230827e+002, 3.462917e+003
8.235648e+002, 3.604915e+003
8.240469e+002, 3.759626e+003
8.245291e+002, 3.928023e+003
8.250112e+002, 4.107332e+003
8.254933e+002, 4.300462e+003
8.259754e+002, 4.504467e+003
8.264575e+002, 4.712233e+003
8.269396e+002, 4.927027e+003
8.274218e+002, 5.139058e+003
8.279039e+002, 5.347646e+003
8.283860e+002, 5.551188e+003
8.288681e+002, 5.741356e+003
8.293502e+002, 5.923079e+003
8.298323e+002, 6.072909e+003
8.303145e+002, 6.186409e+003
8.307966e+002, 6.259761e+003
8.312787e+002, 6.286268e+003
8.317608e+002, 6.266647e+003
8.322429e+002, 6.202571e+003
8.327250e+002, 6.080437e+003
8.332072e+002, 5.927771e+003
8.336893e+002, 5.746914e+003
8.341714e+002, 5.546720e+003
8.346535e+002, 5.349247e+003
8.351356e+002, 5.148604e+003
8.356177e+002, 4.963329e+003
8.360999e+002, 4.791553e+003
8.365820e+002, 4.639448e+003
8.370641e+002, 4.519048e+003
8.375462e+002, 4.429925e+003
8.380283e+002, 4.368014e+003
8.385104e+002, 4.334906e+003
8.389926e+002, 4.323133e+003
8.394747e+002, 4.324409e+003
8.399568e+002, 4.341066e+003
8.404389e+002, 4.377460e+003
8.409210e+002, 4.445109e+003
8.414031e+002, 4.520712e+003
8.418853e+002, 4.600259e+003
8.423674e+002, 4.683844e+003
8.428495e+002, 4.773344e+003
8.433316e+002, 4.871301e+003
8.438137e+002, 4.963637e+003
8.442958e+002, 5.050362e+003
8.447780e+002, 5.124817e+003
8.452601e+002, 5.179710e+003
8.457422e+002, 5.214185e+003
8.462243e+002, 5.227584e+003
8.467064e+002, 5.219821e+003
8.471885e+002, 5.190565e+003
8.476707e+002, 5.134479e+003
8.481528e+002, 5.059216e+003
8.486349e+002, 4.972250e+003
8.491170e+002, 4.865589e+003
8.495991e+002, 4.765436e+003
8.500812e+002, 4.671277e+003
8.505634e+002, 4.585190e+003
8.510455e+002, 4.506392e+003
8.515276e+002, 4.435846e+003
8.520097e+002, 4.379899e+003
8.524918e+002, 4.338817e+003
8.529739e+002, 4.315718e+003
8.534561e+002, 4.312491e+003
8.539382e+002, 4.328932e+003
8.544203e+002, 4.365012e+003
8.549024e+002, 4.421034e+003
8.553845e+002, 4.496417e+003
8.558666e+002, 4.588947e+003
8.563488e+002, 4.704416e+003
8.568309e+002, 4.845401e+003
8.573130e+002, 5.013946e+003
8.577951e+002, 5.202706e+003
8.582772e+002, 5.411223e+003
8.587593e+002, 5.630970e+003
8.592415e+002, 5.863771e+003
8.597236e+002, 6.097852e+003
8.602057e+002, 6.328207e+003
8.606878e+002, 6.552604e+003
8.611699e+002, 6.733519e+003
8.616520e+002, 6.875790e+003
8.621342e+002, 6.951615e+003
8.626163e+002, 6.939045e+003
8.630984e+002, 6.841694e+003
8.635805e+002, 6.677016e+003
8.640626e+002, 6.434644e+003
8.645447e+002, 6.157498e+003
8.650269e+002, 5.859943e+003
8.655090e+002, 5.546962e+003
8.659911e+002, 5.238447e+003
8.664732e+002, 4.937583e+003
8.669553e+002, 4.656261e+003
8.674374e+002, 4.405540e+003
8.679196e+002, 4.176543e+003
8.684017e+002, 3.968642e+003
8.688838e+002, 3.781469e+003
8.693659e+002, 3.615862e+003
8.698480e+002, 3.476030e+003
8.703301e+002, 3.350190e+003
8.708123e+002, 3.233984e+003
8.712944e+002, 3.128609e+003
8.717765e+002, 3.037457e+003
8.722586e+002, 2.960980e+003
8.727407e+002, 2.892315e+003
8.732228e+002, 2.829024e+003
8.737050e+002, 2.772910e+003
8.741871e+002, 2.727244e+003
8.746692e+002, 2.690232e+003
8.751513e+002, 2.657292e+003
8.756334e+002, 2.630129e+003
8.761155e+002, 2.603795e+003
8.765977e+002, 2.578502e+003
8.770798e+002, 2.552650e+003
8.775619e+002, 2.523632e+003
8.780440e+002, 2.491500e+003
8.785261e+002, 2.456072e+003
8.790082e+002, 2.417106e+003
8.794904e+002, 2.374054e+003
8.799725e+002, 2.324394e+003
8.804546e+002, 2.269842e+003
8.809367e+002, 2.213031e+003
8.814188e+002, 2.153234e+003
8.819009e+002, 2.094443e+003
8.823831e+002, 2.037410e+003
8.828652e+002, 1.982077e+003
8.833473e+002, 1.929461e+003
8.838294e+002, 1.878898e+003
8.843115e+002, 1.831578e+003
8.847936e+002, 1.787663e+003
8.852758e+002, 1.746587e+003
8.857579e+002, 1.707966e+003
8.862400e+002, 1.671717e+003
8.867221e+002, 1.637701e+003
8.872042e+002, 1.606111e+003
8.876863e+002, 1.576146e+003
8.881685e+002, 1.547123e+003
8.886506e+002, 1.519414e+003
8.891327e+002, 1.493376e+003
8.896148e+002, 1.468907e+003
8.900969e+002, 1.445705e+003
8.905790e+002, 1.423428e+003
8.910612e+002, 1.402662e+003
8.915433e+002, 1.384007e+003
8.920254e+002, 1.367048e+003
8.925075e+002, 1.350526e+003
8.929896e+002, 1.334441e+003
8.934717e+002, 1.319505e+003
8.939539e+002, 1.306699e+003
8.944360e+002, 1.294453e+003
8.949181e+002, 1.281261e+003
8.954002e+002, 1.267411e+003
8.958823e+002, 1.255566e+003
8.963644e+002, 1.245884e+003
8.968466e+002, 1.238062e+003
8.973287e+002, 1.232613e+003
8.978108e+002, 1.228435e+003
8.982929e+002, 1.221903e+003
8.987750e+002, 1.213527e+003
8.992571e+002, 1.206324e+003
8.997393e+002, 1.201706e+003
9.002214e+002, 1.198316e+003
9.007035e+002, 1.195432e+003
9.011856e+002, 1.192935e+003
9.016677e+002, 1.190683e+003
9.021498e+002, 1.187682e+003
9.026320e+002, 1.186373e+003
9.031141e+002, 1.187544e+003
9.035962e+002, 1.189612e+003
9.040783e+002, 1.190339e+003
9.045604e+002, 1.189839e+003
9.050425e+002, 1.189400e+003
9.055247e+002, 1.189024e+003
9.060068e+002, 1.189896e+003
9.064889e+002, 1.193956e+003
9.069710e+002, 1.199460e+003
9.074531e+002, 1.204373e+003
9.079352e+002, 1.208060e+003
9.084174e+002, 1.212557e+003
9.088995e+002, 1.218238e+003
9.093816e+002, 1.224738e+003
9.098637e+002, 1.231993e+003
9.103458e+002, 1.240088e+003
9.108279e+002, 1.247629e+003
9.113101e+002, 1.254609e+003
9.117922e+002, 1.261166e+003
9.122743e+002, 1.268322e+003
9.127564e+002, 1.274466e+003
9.132385e+002, 1.277919e+003
9.137206e+002, 1.278677e+003
9.142028e+002, 1.277344e+003
9.146849e+002, 1.273962e+003
9.151670e+002, 1.268456e+003
9.156491e+002, 1.260298e+003
9.161312e+002, 1.250164e+003
9.166133e+002, 1.240680e+003
9.170955e+002, 1.231835e+003
9.175776e+002, 1.222597e+003
9.180597e+002, 1.211994e+003
9.185418e+002, 1.201590e+003
9.190239e+002, 1.193666e+003
9.195060e+002, 1.187294e+003
9.199882e+002, 1.180793e+003
9.204703e+002, 1.172384e+003
9.209524e+002, 1.165318e+003
9.214345e+002, 1.160484e+003
9.219166e+002, 1.156904e+003
9.223987e+002, 1.153651e+003
9.228809e+002, 1.150740e+003
9.233630e+002, 1.146919e+003
9.238451e+002, 1.141637e+003
9.243272e+002, 1.137656e+003
9.248093e+002, 1.138824e+003
9.252914e+002, 1.142691e+003
9.257736e+002, 1.145802e+003
9.262557e+002, 1.147300e+003
9.267378e+002, 1.150409e+003
9.272199e+002, 1.156209e+003
9.277020e+002, 1.163800e+003
9.281841e+002, 1.172911e+003
9.286663e+002, 1.183521e+003
9.291484e+002, 1.195389e+003
9.296305e+002, 1.208657e+003
9.301126e+002, 1.222214e+003
9.305947e+002, 1.235605e+003
9.310768e+002, 1.248930e+003
9.315590e+002, 1.264117e+003
9.320411e+002, 1.279822e+003
9.325232e+002, 1.289757e+003
9.330053e+002, 1.293237e+003
9.334874e+002, 1.288745e+003
9.339695e+002, 1.274844e+003
9.344517e+002, 1.253915e+003
9.349338e+002, 1.230435e+003
9.354159e+002, 1.204543e+003
9.358980e+002, 1.178434e+003
9.363801e+002, 1.152810e+003
9.368622e+002, 1.128332e+003
9.373444e+002, 1.105561e+003
9.378265e+002, 1.085113e+003
9.383086e+002, 1.067659e+003
9.387907e+002, 1.054015e+003
9.392728e+002, 1.042630e+003
9.397549e+002, 1.033835e+003
9.402371e+002, 1.026646e+003
9.407192e+002, 1.020128e+003
9.412013e+002, 1.014287e+003
9.416834e+002, 1.009912e+003
9.421655e+002, 1.007089e+003
9.426476e+002, 1.004651e+003
9.431298e+002, 1.001542e+003
9.436119e+002, 9.983957e+002
9.440940e+002, 9.956772e+002
9.445761e+002, 9.934294e+002
9.450582e+002, 9.921526e+002
9.455403e+002, 9.934466e+002
9.460225e+002, 9.938289e+002
9.465046e+002, 9.916268e+002
9.469867e+002, 9.878169e+002
9.474688e+002, 9.865470e+002
9.479509e+002, 9.877062e+002
9.484330e+002, 9.892783e+002
9.489152e+002, 9.905243e+002
9.493973e+002, 9.916730e+002
9.498794e+002, 9.929481e+002
9.503615e+002, 9.942811e+002
9.508436e+002, 9.955565e+002
9.513257e+002, 9.964997e+002
9.518079e+002, 9.977328e+002
9.522900e+002, 9.993361e+002
9.527721e+002, 1.001177e+003
9.532542e+002, 1.002697e+003
9.537363e+002, 1.004138e+003
9.542184e+002, 1.007519e+003
9.547006e+002, 1.013184e+003
9.551827e+002, 1.019585e+003
9.556648e+002, 1.025533e+003
9.561469e+002, 1.031709e+003
9.566290e+002, 1.038640e+003
9.571111e+002, 1.046474e+003
9.575933e+002, 1.054668e+003
9.580754e+002, 1.062632e+003
9.585575e+002, 1.072077e+003
9.590396e+002, 1.083840e+003
9.595217e+002, 1.097576e+003
9.600038e+002, 1.112847e+003
9.604860e+002, 1.129389e+003
9.609681e+002, 1.145892e+003
9.614502e+002, 1.160542e+003
9.619323e+002, 1.175905e+003
9.624144e+002, 1.194457e+003
9.628965e+002, 1.214544e+003
9.633787e+002, 1.232135e+003
9.638608e+002, 1.246950e+003
9.643429e+002, 1.259723e+003
9.648250e+002, 1.269939e+003
9.653071e+002, 1.279813e+003
9.657892e+002, 1.292412e+003
9.662714e+002, 1.306900e+003
9.667535e+002, 1.322207e+003
9.672356e+002, 1.338481e+003
9.677177e+002, 1.351851e+003
9.681998e+002, 1.360136e+003
9.686819e+002, 1.364534e+003
9.691641e+002, 1.366711e+003
9.696462e+002, 1.367280e+003
9.701283e+002, 1.357806e+003
9.706104e+002, 1.336880e+003
9.710925e+002, 1.313191e+003
9.715746e+002, 1.290562e+003
9.720568e+002, 1.268888e+003
9.725389e+002, 1.247530e+003
9.730210e+002, 1.226675e+003
9.735031e+002, 1.207599e+003
9.739852e+002, 1.190964e+003
9.744673e+002, 1.176055e+003
9.749495e+002, 1.162693e+003
9.754316e+002, 1.150804e+003
9.759137e+002, 1.140945e+003
9.763958e+002, 1.133287e+003
9.768779e+002, 1.125154e+003
9.773600e+002, 1.115885e+003
9.778422e+002, 1.107184e+003
9.783243e+002, 1.101538e+003
9.788064e+002, 1.097090e+003
9.792885e+002, 1.091447e+003
9.797706e+002, 1.083864e+003
9.802527e+002, 1.076893e+003
9.807349e+002, 1.071442e+003
9.812170e+002, 1.065942e+003
9.816991e+002, 1.059333e+003
9.821812e+002, 1.051915e+003
9.826633e+002, 1.046551e+003
9.831454e+002, 1.043068e+003
9.836276e+002, 1.039640e+003
9.841097e+002, 1.034900e+003
9.845918e+002, 1.030024e+003
9.850739e+002, 1.025843e+003
9.855560e+002, 1.022251e+003
9.860381e+002, 1.019031e+003
9.865203e+002, 1.016083e+003
9.870024e+002, 1.013586e+003
9.874845e+002, 1.011569e+003
9.879666e+002, 1.010020e+003
9.884487e+002, 1.009099e+003
9.889308e+002, 1.008642e+003
9.894130e+002, 1.008101e+003
9.898951e+002, 1.007370e+003
9.903772e+002, 1.006756e+003
9.908593e+002, 1.006579e+003
9.913414e+002, 1.006485e+003
9.918235e+002, 1.006074e+003
9.923057e+002, 1.005292e+003
9.927878e+002, 1.005424e+003
9.932699e+002, 1.006598e+003
9.937520e+002, 1.007860e+003
9.942341e+002, 1.008612e+003
9.947162e+002, 1.009187e+003
9.951984e+002, 1.010350e+003
9.956805e+002, 1.011811e+003
9.961626e+002, 1.012746e+003
9.966447e+002, 1.012038e+003
9.971268e+002, 1.011829e+003
9.976089e+002, 1.012751e+003
9.980911e+002, 1.014236e+003
9.985732e+002, 1.015546e+003
9.990553e+002, 1.016683e+003
9.995374e+002, 1.017701e+003
1.000020e+003, 1.018573e+003
1.000502e+003, 1.019447e+003
1.000984e+003, 1.020569e+003
1.001466e+003, 1.021662e+003
1.001948e+003, 1.022145e+003
1.002430e+003, 1.021819e+003
1.002912e+003, 1.022987e+003
1.003394e+003, 1.026568e+003
1.003876e+003, 1.030062e+003
1.004359e+003, 1.032510e+003
1.004841e+003, 1.034094e+003
1.005323e+003, 1.035037e+003
1.005805e+003, 1.035501e+003
1.006287e+003, 1.036101e+003
1.006769e+003, 1.037415e+003
1.007251e+003, 1.038565e+003
1.007733e+003, 1.038544e+003
1.008216e+003, 1.038365e+003
1.008698e+003, 1.039505e+003
1.009180e+003, 1.042517e+003
1.009662e+003, 1.044858e+003
1.010144e+003, 1.046411e+003
1.010626e+003, 1.047183e+003
1.011108e+003, 1.046647e+003
1.011590e+003, 1.045560e+003
1.012072e+003, 1.044824e+003
1.012555e+003, 1.044540e+003
1.013037e+003, 1.045204e+003
1.013519e+003, 1.048223e+003
1.014001e+003, 1.050766e+003
1.014483e+003, 1.051838e+003
1.014965e+003, 1.051813e+003
1.015447e+003, 1.051885e+003
1.015929e+003, 1.052051e+003
1.016411e+003, 1.052306e+003
1.016894e+003, 1.052807e+003
1.017376e+003, 1.053029e+003
1.017858e+003, 1.052339e+003
1.018340e+003, 1.051175e+003
1.018822e+003, 1.050057e+003
1.019304e+003, 1.048953e+003
1.019786e+003, 1.048153e+003
1.020268e+003, 1.047645e+003
1.020751e+003, 1.047506e+003
1.021233e+003, 1.048279e+003
1.021715e+003, 1.049367e+003
1.022197e+003, 1.048707e+003
1.022679e+003, 1.046631e+003
1.023161e+003, 1.045253e+003
1.023643e+003, 1.046513e+003
1.024125e+003, 1.047668e+003
1.024607e+003, 1.046910e+003
1.025090e+003, 1.045548e+003
1.025572e+003, 1.046657e+003
1.026054e+003, 1.050445e+003
1.026536e+003, 1.053714e+003
1.027018e+003, 1.055904e+003
1.027500e+003, 1.057388e+003
1.027982e+003, 1.058503e+003
1.028464e+003, 1.059161e+003
1.028947e+003, 1.059012e+003
1.029429e+003, 1.057670e+003
1.029911e+003, 1.057489e+003
1.030393e+003, 1.059026e+003
1.030875e+003, 1.060953e+003
1.031357e+003, 1.062642e+003
1.031839e+003, 1.064206e+003
1.032321e+003, 1.065959e+003
1.032803e+003, 1.067885e+003
1.033286e+003, 1.069936e+003
1.033768e+003, 1.072578e+003
1.034250e+003, 1.074760e+003
1.034732e+003, 1.075409e+003
1.035214e+003, 1.075626e+003
1.035696e+003, 1.077172e+003
1.036178e+003, 1.080519e+003
1.036660e+003, 1.082497e+003
1.037143e+003, 1.082795e+003
1.037625e+003, 1.082357e+003
1.038107e+003, 1.081621e+003
1.038589e+003, 1.080916e+003
1.039071e+003, 1.080488e+003
1.039553e+003, 1.080385e+003
1.040035e+003, 1.081193e+003
1.040517e+003, 1.084330e+003
1.041000e+003, 1.086316e+003
1.041482e+003, 1.085835e+003
1.041964e+003, 1.083952e+003
1.042446e+003, 1.083040e+003
1.042928e+003, 1.082964e+003
1.043410e+003, 1.083198e+003
1.043892e+003, 1.083609e+003
1.044374e+003, 1.084281e+003
1.044856e+003, 1.085680e+003
1.045339e+003, 1.087072e+003
1.045821e+003, 1.087763e+003
1.046303e+003, 1.087640e+003
1.046785e+003, 1.087658e+003
1.047267e+003, 1.087828e+003
1.047749e+003, 1.088062e+003
1.048231e+003, 1.088370e+003
1.048713e+003, 1.088651e+003
1.049195e+003, 1.088749e+003
1.049677e+003, 1.088702e+003
1.050160e+003, 1.088624e+003
1.050642e+003, 1.088280e+003
1.051124e+003, 1.088322e+003
1.051606e+003, 1.089015e+003
1.052088e+003, 1.089812e+003
1.052570e+003, 1.089887e+003
1.053052e+003, 1.089419e+003
1.053534e+003, 1.089261e+003
1.054017e+003, 1.089535e+003
1.054499e+003, 1.089248e+003
1.054981e+003, 1.086495e+003
1.055463e+003, 1.084172e+003
1.055945e+003, 1.084811e+003
1.056427e+003, 1.087681e+003
1.056909e+003, 1.088306e+003
1.057391e+003, 1.086473e+003
1.057874e+003, 1.085047e+003
1.058356e+003, 1.085336e+003
1.058838e+003, 1.085780e+003
1.059320e+003, 1.083834e+003
1.059802e+003, 1.081082e+003
1.060284e+003, 1.079777e+003
1.060766e+003, 1.081008e+003
1.061248e+003, 1.082441e+003
1.061730e+003, 1.084205e+003
1.062213e+003, 1.085710e+003
1.062695e+003, 1.086278e+003
1.063177e+003, 1.086258e+003
1.063659e+003, 1.087357e+003
1.064141e+003, 1.089193e+003
1.064623e+003, 1.089954e+003
1.065105e+003, 1.086766e+003
1.065587e+003, 1.084549e+003
1.066070e+003, 1.086408e+003
1.066552e+003, 1.089744e+003
1.067034e+003, 1.090364e+003
1.067516e+003, 1.088124e+003
1.067998e+003, 1.087704e+003
1.068480e+003, 1.089794e+003
1.068962e+003, 1.092213e+003
1.069444e+003, 1.092810e+003
1.069927e+003, 1.092958e+003
1.070409e+003, 1.094199e+003
1.070891e+003, 1.096597e+003
1.071373e+003, 1.097792e+003
1.071855e+003, 1.097270e+003
1.072337e+003, 1.096848e+003
1.072819e+003, 1.097031e+003
1.073301e+003, 1.097748e+003
1.073783e+003, 1.099487e+003
1.074266e+003, 1.101546e+003
1.074748e+003, 1.102258e+003
1.075230e+003, 1.100360e+003
1.075712e+003, 1.099415e+003
1.076194e+003, 1.100885e+003
1.076676e+003, 1.102972e+003
1.077158e+003, 1.104765e+003
1.077640e+003, 1.106261e+003
1.078122e+003, 1.107540e+003
1.078604e+003, 1.108605e+003
1.079087e+003, 1.109497e+003
1.079569e+003, 1.109749e+003
1.080051e+003, 1.110349e+003
1.080533e+003, 1.112558e+003
1.081015e+003, 1.115239e+003
1.081497e+003, 1.116260e+003
1.081979e+003, 1.115078e+003
1.082461e+003, 1.114505e+003
1.082944e+003, 1.114675e+003
1.083426e+003, 1.115923e+003
1.083908e+003, 1.120031e+003
1.084390e+003, 1.124464e+003
1.084872e+003, 1.125560e+003
1.085354e+003, 1.123488e+003
1.085836e+003, 1.122793e+003
1.086318e+003, 1.124901e+003
1.086801e+003, 1.126986e+003
1.087283e+003, 1.128452e+003
1.087765e+003, 1.129471e+003
1.088247e+003, 1.130405e+003
1.088729e+003, 1.131148e+003
1.089211e+003, 1.131190e+003
1.089693e+003, 1.130146e+003
1.090175e+003, 1.129871e+003
1.090657e+003, 1.131856e+003
1.091140e+003, 1.134135e+003
1.091622e+003, 1.135499e+003
1.092104e+003, 1.136152e+003
1.092586e+003, 1.138109e+003
1.093068e+003, 1.141229e+003
1.093550e+003, 1.143724e+003
1.094032e+003, 1.144503e+003
1.094514e+003, 1.144867e+003
1.094997e+003, 1.145613e+003
1.095479e+003, 1.146585e+003
1.095961e+003, 1.147502e+003
1.096443e+003, 1.148025e+003
1.096925e+003, 1.149787e+003
1.097407e+003, 1.152975e+003
1.097889e+003, 1.156293e+003
1.098371e+003, 1.159296e+003
1.098854e+003, 1.161427e+003
1.099336e+003, 1.161064e+003
1.099818e+003, 1.159037e+003
1.100300e+003, 1.158601e+003
1.100782e+003, 1.161904e+003
1.101264e+003, 1.164330e+003
1.101746e+003, 1.165119e+003
1.102228e+003, 1.165232e+003
1.102710e+003, 1.165566e+003
1.103193e+003, 1.166306e+003
1.103675e+003, 1.168191e+003
1.104157e+003, 1.171301e+003
1.104639e+003, 1.174103e+003
1.105121e+003, 1.176355e+003
1.105603e+003, 1.177593e+003
1.106085e+003, 1.177177e+003
1.106567e+003, 1.175948e+003
1.107049e+003, 1.176759e+003
1.107531e+003, 1.179343e+003
1.108014e+003, 1.181436e+003
1.108496e+003, 1.182299e+003
1.108978e+003, 1.183079e+003
1.109460e+003, 1.183786e+003
1.109942e+003, 1.185378e+003
1.110424e+003, 1.189310e+003
1.110906e+003, 1.195761e+003
1.111388e+003, 1.198915e+003
1.111871e+003, 1.198557e+003
1.112353e+003, 1.197941e+003
1.112835e+003, 1.198552e+003
1.113317e+003, 1.199892e+003
1.113799e+003, 1.201890e+003
1.114281e+003, 1.204089e+003
1.114763e+003, 1.205718e+003
1.115245e+003, 1.206034e+003
1.115728e+003, 1.207290e+003
1.116210e+003, 1.209934e+003
1.116692e+003, 1.212093e+003
1.117174e+003, 1.211183e+003
1.117656e+003, 1.209219e+003
1.118138e+003, 1.210007e+003
1.118620e+003, 1.213129e+003
1.119102e+003, 1.216483e+003
1.119584e+003, 1.219954e+003
1.120067e+003, 1.222639e+003
1.120549e+003, 1.224154e+003
1.121031e+003, 1.225187e+003
1.121513e+003, 1.226709e+003
1.121995e+003, 1.228521e+003
1.122477e+003, 1.229916e+003
1.122959e+003, 1.230840e+003
1.123441e+003, 1.231643e+003
1.123924e+003, 1.232518e+003
1.124406e+003, 1.233286e+003
1.124888e+003, 1.233819e+003
1.125370e+003, 1.234241e+003
1.125852e+003, 1.234784e+003
1.126334e+003, 1.235496e+003
1.126816e+003, 1.236916e+003
1.127298e+003, 1.239399e+003
1.127781e+003, 1.241513e+003
1.128263e+003, 1.241961e+003
1.128745e+003, 1.241783e+003
1.129227e+003, 1.241370e+003
1.129709e+003, 1.240826e+003
1.130191e+003, 1.242973e+003
1.130673e+003, 1.248068e+003
1.131155e+003, 1.252026e+003
1.131637e+003, 1.252837e+003
1.132120e+003, 1.252496e+003
1.132602e+003, 1.252481e+003
1.133084e+003, 1.252912e+003
1.133566e+003, 1.253962e+003
1.134048e+003, 1.255624e+003
1.134530e+003, 1.258082e+003
1.135012e+003, 1.261613e+003
1.135494e+003, 1.264796e+003
1.135976e+003, 1.266366e+003
1.136458e+003, 1.267281e+003
1.136941e+003, 1.269302e+003
1.137423e+003, 1.271887e+003
1.137905e+003, 1.273702e+003
1.138387e+003, 1.273172e+003
1.138869e+003, 1.273796e+003
1.139351e+003, 1.276047e+003
1.139833e+003, 1.278790e+003
1.140315e+003, 1.281124e+003
1.140798e+003, 1.283013e+003
1.141280e+003, 1.283984e+003
1.141762e+003, 1.284268e+003
1.142244e+003, 1.285292e+003
1.142726e+003, 1.288431e+003
1.143208e+003, 1.291362e+003
1.143690e+003, 1.293638e+003
1.144172e+003, 1.295399e+003
1.144655e+003, 1.296900e+003
1.145137e+003, 1.298100e+003
1.145619e+003, 1.298670e+003
1.146101e+003, 1.298568e+003
1.146583e+003, 1.299066e+003
1.147065e+003, 1.301573e+003
1.147547e+003, 1.304124e+003
1.148029e+003, 1.305702e+003
1.148511e+003, 1.306730e+003
1.148994e+003, 1.308698e+003
1.149476e+003, 1.311412e+003
1.149958e+003, 1.312742e+003
1.150440e+003, 1.311777e+003
1.150922e+003, 1.311589e+003
1.151404e+003, 1.315523e+003
1.151886e+003, 1.320128e+003
1.152368e+003, 1.322615e+003
1.152851e+003, 1.323209e+003
1.153333e+003, 1.324529e+003
1.153815e+003, 1.326563e+003
1.154297e+003, 1.328390e+003
1.154779e+003, 1.329405e+003
1.155261e+003, 1.330631e+003
1.155743e+003, 1.333446e+003
1.156225e+003, 1.336689e+003
1.156708e+003, 1.338833e+003
1.157190e+003, 1.339584e+003
1.157672e+003, 1.341409e+003
1.158154e+003, 1.344526e+003
1.158636e+003, 1.346881e+003
1.159118e+003, 1.346703e+003
1.159600e+003, 1.345892e+003
1.160082e+003, 1.346738e+003
1.160564e+003, 1.348417e+003
1.161047e+003, 1.349443e+003
1.161529e+003, 1.349238e+003
1.162011e+003, 1.349248e+003
1.162493e+003, 1.349360e+003
1.162975e+003, 1.350252e+003
1.163457e+003, 1.352788e+003
1.163939e+003, 1.356169e+003
1.164421e+003, 1.359536e+003
1.164903e+003, 1.362775e+003
1.165385e+003, 1.365645e+003
1.165868e+003, 1.368341e+003
1.166350e+003, 1.369897e+003
1.166832e+003, 1.369794e+003
1.167314e+003, 1.369677e+003
1.167796e+003, 1.371626e+003
1.168278e+003, 1.374557e+003
1.168760e+003, 1.376421e+003
1.169242e+003, 1.377324e+003
1.169725e+003, 1.378668e+003
1.170207e+003, 1.381965e+003
1.170689e+003, 1.384044e+003
1.171171e+003, 1.384032e+003
1.171653e+003, 1.383407e+003
1.172135e+003, 1.384087e+003
1.172617e+003, 1.385801e+003
1.173099e+003, 1.388036e+003
1.173582e+003, 1.390721e+003
1.174064e+003, 1.393712e+003
1.174546e+003, 1.397800e+003
1.175028e+003, 1.401000e+003
1.175510e+003, 1.402521e+003
1.175992e+003, 1.403156e+003
1.176474e+003, 1.404593e+003
1.176956e+003, 1.406427e+003
1.177438e+003, 1.407222e+003
1.177921e+003, 1.406518e+003
1.178403e+003, 1.406523e+003
1.178885e+003, 1.408552e+003
1.179367e+003, 1.411150e+003
1.179849e+003, 1.414111e+003
1.180331e+003, 1.416986e+003
1.180813e+003, 1.417721e+003
1.181295e+003, 1.417005e+003
1.181778e+003, 1.417389e+003
1.182260e+003, 1.419608e+003
1.182742e+003, 1.422877e+003
1.183224e+003, 1.428784e+003
1.183706e+003, 1.433628e+003
1.184188e+003, 1.434930e+003
1.184670e+003, 1.433492e+003
1.185152e+003, 1.433370e+003
1.185635e+003, 1.434482e+003
1.186117e+003, 1.436508e+003
1.186599e+003, 1.439729e+003
1.187081e+003, 1.442959e+003
1.187563e+003, 1.445927e+003
1.188045e+003, 1.448326e+003
1.188527e+003, 1.449746e+003
1.189009e+003, 1.450293e+003
1.189491e+003, 1.451445e+003
1.189974e+003, 1.453169e+003
1.190456e+003, 1.455244e+003
1.190938e+003, 1.458443e+003
1.191420e+003, 1.460770e+003
1.191902e+003, 1.460000e+003
1.192384e+003, 1.458802e+003
1.192866e+003, 1.460268e+003
1.193348e+003, 1.464504e+003
1.193830e+003, 1.465529e+003
1.194313e+003, 1.463670e+003
1.194795e+003, 1.463077e+003
1.195277e+003, 1.467516e+003
1.195759e+003, 1.472450e+003
1.196241e+003, 1.475437e+003
1.196723e+003, 1.477442e+003
1.197205e+003, 1.479827e+003
1.197687e+003, 1.482641e+003
1.198169e+003, 1.483813e+003
1.198652e+003, 1.483332e+003
1.199134e+003, 1.483457e+003
1.199616e+003, 1.486431e+003
1.200098e+003, 1.489727e+003
1.200580e+003, 1.491633e+003
1.201062e+003, 1.492984e+003
1.201544e+003, 1.495429e+003
1.202026e+003, 1.499027e+003
1.202509e+003, 1.501399e+003
1.202991e+003, 1.502315e+003
1.203473e+003, 1.503231e+003
1.203955e+003, 1.505353e+003
1.204437e+003, 1.507667e+003
1.204919e+003, 1.509497e+003
1.205401e+003, 1.511038e+003
1.205883e+003, 1.512518e+003
1.206365e+003, 1.513910e+003
1.206848e+003, 1.516510e+003
1.207330e+003, 1.520523e+003
1.207812e+003, 1.524955e+003
1.208294e+003, 1.530213e+003
1.208776e+003, 1.534578e+003
1.209258e+003, 1.535963e+003
1.209740e+003, 1.535599e+003
1.210222e+003, 1.536973e+003
1.210705e+003, 1.540140e+003
1.211187e+003, 1.542101e+003
1.211669e+003, 1.542212e+003
1.212151e+003, 1.542352e+003
1.212633e+003, 1.544137e+003
1.213115e+003, 1.546435e+003
1.213597e+003, 1.548358e+003
1.214079e+003, 1.550096e+003
1.214562e+003, 1.552453e+003
1.215044e+003, 1.555425e+003
1.215526e+003, 1.558668e+003
1.216008e+003, 1.562295e+003
1.216490e+003, 1.565241e+003
1.216972e+003, 1.565920e+003
1.217454e+003, 1.566225e+003
1.217936e+003, 1.567496e+003
1.218418e+003, 1.569611e+003
1.218901e+003, 1.572220e+003
1.219383e+003, 1.575274e+003
1.219865e+003, 1.577415e+003
1.220347e+003, 1.577880e+003
1.220829e+003, 1.578833e+003
1.221311e+003, 1.582832e+003
1.221793e+003, 1.587098e+003
1.222275e+003, 1.589497e+003
1.222757e+003, 1.590290e+003
1.223240e+003, 1.591553e+003
1.223722e+003, 1.593246e+003
1.224204e+003, 1.594591e+003
1.224686e+003, 1.595183e+003
1.225168e+003, 1.595888e+003
1.225650e+003, 1.596908e+003
1.226132e+003, 1.598740e+003
1.226614e+003, 1.602153e+003
1.227096e+003, 1.606787e+003
1.227579e+003, 1.608923e+003
1.228061e+003, 1.608872e+003
1.228543e+003, 1.609316e+003
1.229025e+003, 1.611210e+003
1.229507e+003, 1.613917e+003
1.229989e+003, 1.617700e+003
1.230471e+003, 1.621588e+003
1.230953e+003, 1.624838e+003
1.231436e+003, 1.627478e+003
1.231918e+003, 1.629430e+003
1.232400e+003, 1.630868e+003
1.232882e+003, 1.633101e+003
1.233364e+003, 1.637627e+003
1.233846e+003, 1.641269e+003
1.234328e+003, 1.641915e+003
1.234810e+003, 1.641568e+003
1.235292e+003, 1.641170e+003
1.235775e+003, 1.640982e+003
1.236257e+003, 1.643814e+003
1.236739e+003, 1.649040e+003
1.237221e+003, 1.653273e+003
1.237703e+003, 1.653987e+003
1.238185e+003, 1.655231e+003
1.238667e+003, 1.659637e+003
1.239149e+003, 1.663974e+003
1.239632e+003, 1.665371e+003
1.240114e+003, 1.664580e+003
1.240596e+003, 1.666939e+003
1.241078e+003, 1.671562e+003
1.241560e+003, 1.674783e+003
1.242042e+003, 1.672700e+003
1.242524e+003, 1.672317e+003
1.243006e+003, 1.676098e+003
1.243489e+003, 1.680949e+003
1.243971e+003, 1.684650e+003
1.244453e+003, 1.687414e+003
1.244935e+003, 1.689837e+003
1.245417e+003, 1.691998e+003
1.245899e+003, 1.694106e+003
1.246381e+003, 1.695939e+003
1.246863e+003, 1.698344e+003
1.247345e+003, 1.701843e+003
1.247828e+003, 1.705109e+003
1.248310e+003, 1.706468e+003
1.248792e+003, 1.706851e+003
1.249274e+003, 1.708951e+003
1.249756e+003, 1.712350e+003
1.250238e+003, 1.715514e+003
1.250720e+003, 1.718010e+003
1.251202e+003, 1.720076e+003
1.251684e+003, 1.721870e+003
1.252167e+003, 1.722938e+003
1.252649e+003, 1.721570e+003
1.253131e+003, 1.719841e+003
1.253613e+003, 1.722856e+003
1.254095e+003, 1.729101e+003
1.254577e+003, 1.733452e+003
1.255059e+003, 1.732916e+003
1.255541e+003, 1.733696e+003
1.256023e+003, 1.736327e+003
1.256506e+003, 1.739461e+003
1.256988e+003, 1.742281e+003
1.257470e+003, 1.744664e+003
1.257952e+003, 1.746254e+003
1.258434e+003, 1.747270e+003
1.258916e+003, 1.748276e+003
1.259398e+003, 1.749210e+003
1.259880e+003, 1.750653e+003
1.260363e+003, 1.752705e+003
1.260845e+003, 1.754976e+003
1.261327e+003, 1.757058e+003
1.261809e+003, 1.759268e+003
1.262291e+003, 1.762397e+003
1.262773e+003, 1.765848e+003
1.263255e+003, 1.768044e+003
1.263737e+003, 1.768704e+003
1.264219e+003, 1.769107e+003
1.264702e+003, 1.769280e+003
1.265184e+003, 1.769800e+003
1.265666e+003, 1.771121e+003
1.266148e+003, 1.772968e+003
1.266630e+003, 1.775278e+003
1.267112e+003, 1.777963e+003
1.267594e+003, 1.780980e+003
1.268076e+003, 1.784451e+003
1.268559e+003, 1.786294e+003
1.269041e+003, 1.786397e+003
1.269523e+003, 1.787189e+003
1.270005e+003, 1.791070e+003
1.270487e+003, 1.795361e+003
1.270969e+003, 1.799149e+003
1.271451e+003, 1.801944e+003
1.271933e+003, 1.801876e+003
1.272416e+003, 1.799439e+003
1.272898e+003, 1.802318e+003
1.273380e+003, 1.810426e+003
1.273862e+003, 1.817002e+003
1.274344e+003, 1.816298e+003
1.274826e+003, 1.815646e+003
1.275308e+003, 1.817900e+003
1.275790e+003, 1.821155e+003
1.276272e+003, 1.822834e+003
1.276755e+003, 1.823477e+003
1.277237e+003, 1.825299e+003
1.277719e+003, 1.828247e+003
1.278201e+003, 1.831072e+003
1.278683e+003, 1.833327e+003
1.279165e+003, 1.835134e+003
1.279647e+003, 1.836310e+003
1.280129e+003, 1.837532e+003
1.280611e+003, 1.839375e+003
1.281094e+003, 1.841944e+003
1.281576e+003, 1.846267e+003
1.282058e+003, 1.851773e+003
1.282540e+003, 1.855303e+003
1.283022e+003, 1.853429e+003
1.283504e+003, 1.854923e+003
1.283986e+003, 1.861458e+003
1.284468e+003, 1.868607e+003
1.284950e+003, 1.871994e+003
1.285433e+003, 1.873326e+003
1.285915e+003, 1.874240e+003
1.286397e+003, 1.875014e+003
1.286879e+003, 1.876316e+003
1.287361e+003, 1.878218e+003
1.287843e+003, 1.880329e+003
1.288325e+003, 1.882573e+003
1.288807e+003, 1.885385e+003
1.289290e+003, 1.890291e+003
1.289772e+003, 1.894873e+003
1.290254e+003, 1.896696e+003
1.290736e+003, 1.896584e+003
1.291218e+003, 1.896711e+003
1.291700e+003, 1.897041e+003
1.292182e+003, 1.897779e+003
1.292664e+003, 1.898930e+003
1.293146e+003, 1.901515e+003
1.293629e+003, 1.907587e+003
1.294111e+003, 1.913831e+003
1.294593e+003, 1.919205e+003
1.295075e+003, 1.922954e+003
1.295557e+003, 1.922995e+003
1.296039e+003, 1.920005e+003
1.296521e+003, 1.919745e+003
1.297003e+003, 1.922228e+003
1.297486e+003, 1.925045e+003
1.297968e+003, 1.928034e+003
1.298450e+003, 1.929840e+003
1.298932e+003, 1.929642e+003
1.299414e+003, 1.929226e+003
1.299896e+003, 1.930802e+003
1.300378e+003, 1.933710e+003
1.300860e+003, 1.935986e+003
1.301343e+003, 1.937869e+003
1.301825e+003, 1.940751e+003
##END=



