##NAMES=Clinohedrite
##RRUFFID=R120105
##IDEAL CHEMISTRY=CaZn^2+^SiO_4_&#183;H_2_O
##LOCALITY=Christmas mine, Christmas, Gila County, Arizona, USA
##OWNER=RRUFF
##SOURCE=Bob Jenkins
##DESCRIPTION=Transparent colorless prismatic crystals, associated with blue kinoite and colorless platy junitoite, R120100.
##STATUS=The identification of this mineral has been confirmed by single-crystal X-ray diffraction.
##URL=rruff.info/R120105
8.975323e+001, 0.000000e+000
9.023535e+001, 1.233932e+003
9.071747e+001, 1.252180e+003
9.119958e+001, 1.253982e+003
9.168170e+001, 1.250966e+003
9.216382e+001, 1.233701e+003
9.264594e+001, 1.204044e+003
9.312805e+001, 1.168490e+003
9.361017e+001, 1.132594e+003
9.409229e+001, 1.098245e+003
9.457440e+001, 1.068150e+003
9.505651e+001, 1.034632e+003
9.553863e+001, 9.993539e+002
9.602074e+001, 9.616687e+002
9.650286e+001, 9.193995e+002
9.698498e+001, 8.708487e+002
9.746709e+001, 8.178091e+002
9.794921e+001, 7.742062e+002
9.843133e+001, 7.396168e+002
9.891344e+001, 7.112197e+002
9.939556e+001, 6.897967e+002
9.987768e+001, 6.738466e+002
1.003598e+002, 6.601296e+002
1.008419e+002, 6.471609e+002
1.013240e+002, 6.348196e+002
1.018061e+002, 6.225660e+002
1.022883e+002, 6.091934e+002
1.027704e+002, 5.964899e+002
1.032525e+002, 5.861683e+002
1.037346e+002, 5.782549e+002
1.042167e+002, 5.720226e+002
1.046988e+002, 5.689578e+002
1.051810e+002, 5.669178e+002
1.056631e+002, 5.624316e+002
1.061452e+002, 5.531014e+002
1.066273e+002, 5.399667e+002
1.071094e+002, 5.271216e+002
1.075915e+002, 5.138036e+002
1.080737e+002, 5.018343e+002
1.085558e+002, 4.915723e+002
1.090379e+002, 4.830285e+002
1.095200e+002, 4.762410e+002
1.100021e+002, 4.710285e+002
1.104842e+002, 4.671298e+002
1.109664e+002, 4.664750e+002
1.114485e+002, 4.695736e+002
1.119306e+002, 4.750920e+002
1.124127e+002, 4.836705e+002
1.128948e+002, 4.947697e+002
1.133769e+002, 5.064547e+002
1.138591e+002, 5.158870e+002
1.143412e+002, 5.224012e+002
1.148233e+002, 5.274394e+002
1.153054e+002, 5.323411e+002
1.157875e+002, 5.353245e+002
1.162696e+002, 5.346159e+002
1.167517e+002, 5.295574e+002
1.172339e+002, 5.208082e+002
1.177160e+002, 5.091177e+002
1.181981e+002, 4.931235e+002
1.186802e+002, 4.776982e+002
1.191623e+002, 4.636783e+002
1.196444e+002, 4.512187e+002
1.201266e+002, 4.406283e+002
1.206087e+002, 4.320386e+002
1.210908e+002, 4.258627e+002
1.215729e+002, 4.218539e+002
1.220550e+002, 4.203369e+002
1.225371e+002, 4.203983e+002
1.230193e+002, 4.214864e+002
1.235014e+002, 4.236507e+002
1.239835e+002, 4.264207e+002
1.244656e+002, 4.307495e+002
1.249477e+002, 4.351520e+002
1.254298e+002, 4.379686e+002
1.259120e+002, 4.380465e+002
1.263941e+002, 4.369117e+002
1.268762e+002, 4.378675e+002
1.273583e+002, 4.411212e+002
1.278404e+002, 4.465353e+002
1.283225e+002, 4.540161e+002
1.288047e+002, 4.632119e+002
1.292868e+002, 4.738536e+002
1.297689e+002, 4.860521e+002
1.302510e+002, 4.996194e+002
1.307331e+002, 5.117297e+002
1.312152e+002, 5.260199e+002
1.316974e+002, 5.352216e+002
1.321795e+002, 5.375510e+002
1.326616e+002, 5.331146e+002
1.331437e+002, 5.224084e+002
1.336258e+002, 5.053229e+002
1.341079e+002, 4.805123e+002
1.345901e+002, 4.572061e+002
1.350722e+002, 4.337235e+002
1.355543e+002, 4.126105e+002
1.360364e+002, 3.954877e+002
1.365185e+002, 3.824458e+002
1.370006e+002, 3.725287e+002
1.374828e+002, 3.651774e+002
1.379649e+002, 3.608539e+002
1.384470e+002, 3.573606e+002
1.389291e+002, 3.549771e+002
1.394112e+002, 3.532029e+002
1.398933e+002, 3.512992e+002
1.403755e+002, 3.489789e+002
1.408576e+002, 3.470682e+002
1.413397e+002, 3.466994e+002
1.418218e+002, 3.476738e+002
1.423039e+002, 3.495178e+002
1.427860e+002, 3.525677e+002
1.432681e+002, 3.564605e+002
1.437503e+002, 3.599804e+002
1.442324e+002, 3.631444e+002
1.447145e+002, 3.653998e+002
1.451966e+002, 3.664164e+002
1.456787e+002, 3.661895e+002
1.461608e+002, 3.652420e+002
1.466430e+002, 3.635279e+002
1.471251e+002, 3.608476e+002
1.476072e+002, 3.593442e+002
1.480893e+002, 3.597984e+002
1.485714e+002, 3.613956e+002
1.490535e+002, 3.636587e+002
1.495357e+002, 3.665128e+002
1.500178e+002, 3.704928e+002
1.504999e+002, 3.764766e+002
1.509820e+002, 3.852466e+002
1.514641e+002, 3.946252e+002
1.519462e+002, 4.053571e+002
1.524284e+002, 4.159820e+002
1.529105e+002, 4.263200e+002
1.533926e+002, 4.361015e+002
1.538747e+002, 4.439159e+002
1.543568e+002, 4.461649e+002
1.548389e+002, 4.405804e+002
1.553211e+002, 4.310384e+002
1.558032e+002, 4.157131e+002
1.562853e+002, 3.972108e+002
1.567674e+002, 3.780514e+002
1.572495e+002, 3.593244e+002
1.577316e+002, 3.415302e+002
1.582138e+002, 3.271088e+002
1.586959e+002, 3.167921e+002
1.591780e+002, 3.083739e+002
1.596601e+002, 3.017896e+002
1.601422e+002, 2.968005e+002
1.606243e+002, 2.930008e+002
1.611065e+002, 2.903560e+002
1.615886e+002, 2.886959e+002
1.620707e+002, 2.870729e+002
1.625528e+002, 2.853385e+002
1.630349e+002, 2.837763e+002
1.635170e+002, 2.825276e+002
1.639991e+002, 2.815883e+002
1.644813e+002, 2.809488e+002
1.649634e+002, 2.806218e+002
1.654455e+002, 2.806288e+002
1.659276e+002, 2.809426e+002
1.664097e+002, 2.815403e+002
1.668918e+002, 2.824644e+002
1.673740e+002, 2.838571e+002
1.678561e+002, 2.858019e+002
1.683382e+002, 2.878045e+002
1.688203e+002, 2.895482e+002
1.693024e+002, 2.911730e+002
1.697845e+002, 2.928083e+002
1.702667e+002, 2.942895e+002
1.707488e+002, 2.959268e+002
1.712309e+002, 2.984385e+002
1.717130e+002, 3.019584e+002
1.721951e+002, 3.062254e+002
1.726772e+002, 3.114225e+002
1.731594e+002, 3.171248e+002
1.736415e+002, 3.228226e+002
1.741236e+002, 3.283133e+002
1.746057e+002, 3.335288e+002
1.750878e+002, 3.379633e+002
1.755699e+002, 3.413307e+002
1.760521e+002, 3.441174e+002
1.765342e+002, 3.463129e+002
1.770163e+002, 3.480512e+002
1.774984e+002, 3.495054e+002
1.779805e+002, 3.508081e+002
1.784626e+002, 3.519621e+002
1.789448e+002, 3.528490e+002
1.794269e+002, 3.553592e+002
1.799090e+002, 3.557838e+002
1.803911e+002, 3.527997e+002
1.808732e+002, 3.466887e+002
1.813553e+002, 3.382624e+002
1.818375e+002, 3.279268e+002
1.823196e+002, 3.153374e+002
1.828017e+002, 3.043385e+002
1.832838e+002, 2.945762e+002
1.837659e+002, 2.862620e+002
1.842480e+002, 2.797981e+002
1.847301e+002, 2.750432e+002
1.852123e+002, 2.713917e+002
1.856944e+002, 2.684254e+002
1.861765e+002, 2.662601e+002
1.866586e+002, 2.640895e+002
1.871407e+002, 2.614995e+002
1.876228e+002, 2.592026e+002
1.881050e+002, 2.578649e+002
1.885871e+002, 2.575356e+002
1.890692e+002, 2.575356e+002
1.895513e+002, 2.572491e+002
1.900334e+002, 2.566845e+002
1.905155e+002, 2.562026e+002
1.909977e+002, 2.558611e+002
1.914798e+002, 2.556147e+002
1.919619e+002, 2.553464e+002
1.924440e+002, 2.550007e+002
1.929261e+002, 2.548641e+002
1.934082e+002, 2.555346e+002
1.938904e+002, 2.567354e+002
1.943725e+002, 2.575588e+002
1.948546e+002, 2.573095e+002
1.953367e+002, 2.565660e+002
1.958188e+002, 2.564694e+002
1.963009e+002, 2.571996e+002
1.967831e+002, 2.584146e+002
1.972652e+002, 2.599743e+002
1.977473e+002, 2.617945e+002
1.982294e+002, 2.636493e+002
1.987115e+002, 2.653303e+002
1.991936e+002, 2.669356e+002
1.996758e+002, 2.688883e+002
2.001579e+002, 2.713776e+002
2.006400e+002, 2.740026e+002
2.011221e+002, 2.765187e+002
2.016042e+002, 2.789689e+002
2.020863e+002, 2.814396e+002
2.025685e+002, 2.840146e+002
2.030506e+002, 2.866877e+002
2.035327e+002, 2.892691e+002
2.040148e+002, 2.915165e+002
2.044969e+002, 2.939215e+002
2.049790e+002, 2.965398e+002
2.054612e+002, 2.994308e+002
2.059433e+002, 3.027286e+002
2.064254e+002, 3.065948e+002
2.069075e+002, 3.110601e+002
2.073896e+002, 3.154870e+002
2.078717e+002, 3.192073e+002
2.083539e+002, 3.235186e+002
2.088360e+002, 3.288716e+002
2.093181e+002, 3.351905e+002
2.098002e+002, 3.421305e+002
2.102823e+002, 3.493582e+002
2.107644e+002, 3.567405e+002
2.112466e+002, 3.652667e+002
2.117287e+002, 3.743125e+002
2.122108e+002, 3.848885e+002
2.126929e+002, 3.970468e+002
2.131750e+002, 4.110375e+002
2.136571e+002, 4.274717e+002
2.141393e+002, 4.468825e+002
2.146214e+002, 4.693963e+002
2.151035e+002, 4.949149e+002
2.155856e+002, 5.219794e+002
2.160677e+002, 5.525320e+002
2.165498e+002, 5.883494e+002
2.170320e+002, 6.288815e+002
2.175141e+002, 6.730658e+002
2.179962e+002, 7.212478e+002
2.184783e+002, 7.746979e+002
2.189604e+002, 8.148010e+002
2.194425e+002, 8.482050e+002
2.199247e+002, 8.652590e+002
2.204068e+002, 8.571809e+002
2.208889e+002, 8.251041e+002
2.213710e+002, 7.789290e+002
2.218531e+002, 7.239631e+002
2.223352e+002, 6.597216e+002
2.228174e+002, 6.038495e+002
2.232995e+002, 5.575465e+002
2.237816e+002, 5.184029e+002
2.242637e+002, 4.859901e+002
2.247458e+002, 4.599505e+002
2.252279e+002, 4.378464e+002
2.257100e+002, 4.181322e+002
2.261922e+002, 4.011185e+002
2.266743e+002, 3.865412e+002
2.271564e+002, 3.751496e+002
2.276385e+002, 3.657681e+002
2.281206e+002, 3.576302e+002
2.286027e+002, 3.507149e+002
2.290849e+002, 3.449172e+002
2.295670e+002, 3.407764e+002
2.300491e+002, 3.377801e+002
2.305312e+002, 3.344533e+002
2.310133e+002, 3.302720e+002
2.314954e+002, 3.258304e+002
2.319776e+002, 3.217155e+002
2.324597e+002, 3.179206e+002
2.329418e+002, 3.145118e+002
2.334239e+002, 3.119251e+002
2.339060e+002, 3.096782e+002
2.343881e+002, 3.069626e+002
2.348703e+002, 3.030884e+002
2.353524e+002, 2.990724e+002
2.358345e+002, 2.963969e+002
2.363166e+002, 2.953076e+002
2.367987e+002, 2.944857e+002
2.372808e+002, 2.932172e+002
2.377630e+002, 2.918404e+002
2.382451e+002, 2.907075e+002
2.387272e+002, 2.898945e+002
2.392093e+002, 2.894182e+002
2.396914e+002, 2.891824e+002
2.401735e+002, 2.889838e+002
2.406557e+002, 2.897231e+002
2.411378e+002, 2.920189e+002
2.416199e+002, 2.952561e+002
2.421020e+002, 2.989812e+002
2.425841e+002, 3.030553e+002
2.430662e+002, 3.074833e+002
2.435484e+002, 3.124136e+002
2.440305e+002, 3.181590e+002
2.445126e+002, 3.235229e+002
2.449947e+002, 3.285766e+002
2.454768e+002, 3.329451e+002
2.459589e+002, 3.361401e+002
2.464410e+002, 3.379712e+002
2.469232e+002, 3.389360e+002
2.474053e+002, 3.399175e+002
2.478874e+002, 3.410714e+002
2.483695e+002, 3.418290e+002
2.488516e+002, 3.418384e+002
2.493337e+002, 3.416148e+002
2.498159e+002, 3.414323e+002
2.502980e+002, 3.413928e+002
2.507801e+002, 3.416389e+002
2.512622e+002, 3.425179e+002
2.517443e+002, 3.444845e+002
2.522264e+002, 3.460346e+002
2.527086e+002, 3.471588e+002
2.531907e+002, 3.478203e+002
2.536728e+002, 3.476906e+002
2.541549e+002, 3.467997e+002
2.546370e+002, 3.458745e+002
2.551191e+002, 3.462397e+002
2.556013e+002, 3.491976e+002
2.560834e+002, 3.505618e+002
2.565655e+002, 3.500648e+002
2.570476e+002, 3.484460e+002
2.575297e+002, 3.459615e+002
2.580118e+002, 3.427672e+002
2.584940e+002, 3.391168e+002
2.589761e+002, 3.353309e+002
2.594582e+002, 3.313861e+002
2.599403e+002, 3.273451e+002
2.604224e+002, 3.227381e+002
2.609045e+002, 3.183702e+002
2.613867e+002, 3.146522e+002
2.618688e+002, 3.116621e+002
2.623509e+002, 3.093996e+002
2.628330e+002, 3.079475e+002
2.633151e+002, 3.076881e+002
2.637972e+002, 3.068360e+002
2.642794e+002, 3.057453e+002
2.647615e+002, 3.039200e+002
2.652436e+002, 3.007771e+002
2.657257e+002, 2.965108e+002
2.662078e+002, 2.919426e+002
2.666899e+002, 2.878617e+002
2.671721e+002, 2.843612e+002
2.676542e+002, 2.808564e+002
2.681363e+002, 2.769296e+002
2.686184e+002, 2.733653e+002
2.691005e+002, 2.706490e+002
2.695826e+002, 2.686910e+002
2.700648e+002, 2.670732e+002
2.705469e+002, 2.654655e+002
2.710290e+002, 2.638723e+002
2.715111e+002, 2.624699e+002
2.719932e+002, 2.609667e+002
2.724753e+002, 2.598849e+002
2.729575e+002, 2.596790e+002
2.734396e+002, 2.601154e+002
2.739217e+002, 2.605815e+002
2.744038e+002, 2.606756e+002
2.748859e+002, 2.604232e+002
2.753680e+002, 2.601188e+002
2.758501e+002, 2.597630e+002
2.763322e+002, 2.593693e+002
2.768144e+002, 2.589140e+002
2.772965e+002, 2.584217e+002
2.777786e+002, 2.579312e+002
2.782607e+002, 2.574500e+002
2.787428e+002, 2.570049e+002
2.792249e+002, 2.567256e+002
2.797071e+002, 2.565152e+002
2.801892e+002, 2.565367e+002
2.806713e+002, 2.567429e+002
2.811534e+002, 2.572185e+002
2.816355e+002, 2.581345e+002
2.821176e+002, 2.595764e+002
2.825998e+002, 2.614570e+002
2.830819e+002, 2.635631e+002
2.835640e+002, 2.659179e+002
2.840461e+002, 2.684163e+002
2.845282e+002, 2.709346e+002
2.850103e+002, 2.736122e+002
2.854925e+002, 2.767274e+002
2.859746e+002, 2.804120e+002
2.864567e+002, 2.843502e+002
2.869388e+002, 2.880797e+002
2.874209e+002, 2.916050e+002
2.879030e+002, 2.948976e+002
2.883852e+002, 2.981627e+002
2.888673e+002, 3.010860e+002
2.893494e+002, 3.032100e+002
2.898315e+002, 3.044218e+002
2.903136e+002, 3.050543e+002
2.907957e+002, 3.055072e+002
2.912779e+002, 3.058091e+002
2.917600e+002, 3.055793e+002
2.922421e+002, 3.046113e+002
2.927242e+002, 3.031856e+002
2.932063e+002, 3.015600e+002
2.936884e+002, 2.997617e+002
2.941706e+002, 2.977334e+002
2.946527e+002, 2.954522e+002
2.951348e+002, 2.928752e+002
2.956169e+002, 2.898610e+002
2.960990e+002, 2.860917e+002
2.965811e+002, 2.821092e+002
2.970633e+002, 2.783018e+002
2.975454e+002, 2.746963e+002
2.980275e+002, 2.711036e+002
2.985096e+002, 2.672924e+002
2.989917e+002, 2.634016e+002
2.994738e+002, 2.600917e+002
2.999560e+002, 2.579215e+002
3.004381e+002, 2.558362e+002
3.009202e+002, 2.530573e+002
3.014023e+002, 2.497560e+002
3.018844e+002, 2.466816e+002
3.023665e+002, 2.441957e+002
3.028487e+002, 2.422304e+002
3.033308e+002, 2.404777e+002
3.038129e+002, 2.388877e+002
3.042950e+002, 2.375359e+002
3.047771e+002, 2.365933e+002
3.052592e+002, 2.359234e+002
3.057414e+002, 2.351387e+002
3.062235e+002, 2.340403e+002
3.067056e+002, 2.328622e+002
3.071877e+002, 2.320233e+002
3.076698e+002, 2.314401e+002
3.081519e+002, 2.312972e+002
3.086341e+002, 2.319405e+002
3.091162e+002, 2.330063e+002
3.095983e+002, 2.338111e+002
3.100804e+002, 2.341267e+002
3.105625e+002, 2.343797e+002
3.110446e+002, 2.351054e+002
3.115268e+002, 2.362772e+002
3.120089e+002, 2.377940e+002
3.124910e+002, 2.398919e+002
3.129731e+002, 2.422067e+002
3.134552e+002, 2.445362e+002
3.139373e+002, 2.468712e+002
3.144195e+002, 2.486260e+002
3.149016e+002, 2.492690e+002
3.153837e+002, 2.487642e+002
3.158658e+002, 2.474276e+002
3.163479e+002, 2.450363e+002
3.168300e+002, 2.419911e+002
3.173121e+002, 2.382755e+002
3.177943e+002, 2.339750e+002
3.182764e+002, 2.300323e+002
3.187585e+002, 2.270758e+002
3.192406e+002, 2.250479e+002
3.197227e+002, 2.232295e+002
3.202048e+002, 2.218746e+002
3.206870e+002, 2.204637e+002
3.211691e+002, 2.185184e+002
3.216512e+002, 2.162339e+002
3.221333e+002, 2.142757e+002
3.226154e+002, 2.129876e+002
3.230975e+002, 2.121993e+002
3.235797e+002, 2.114998e+002
3.240618e+002, 2.108601e+002
3.245439e+002, 2.103378e+002
3.250260e+002, 2.100736e+002
3.255081e+002, 2.099236e+002
3.259902e+002, 2.096104e+002
3.264724e+002, 2.090400e+002
3.269545e+002, 2.083033e+002
3.274366e+002, 2.074670e+002
3.279187e+002, 2.064678e+002
3.284008e+002, 2.057125e+002
3.288829e+002, 2.054602e+002
3.293651e+002, 2.054081e+002
3.298472e+002, 2.052251e+002
3.303293e+002, 2.048537e+002
3.308114e+002, 2.043640e+002
3.312935e+002, 2.037671e+002
3.317756e+002, 2.030538e+002
3.322578e+002, 2.025534e+002
3.327399e+002, 2.024454e+002
3.332220e+002, 2.024268e+002
3.337041e+002, 2.022751e+002
3.341862e+002, 2.019934e+002
3.346683e+002, 2.017008e+002
3.351505e+002, 2.014710e+002
3.356326e+002, 2.013048e+002
3.361147e+002, 2.011877e+002
3.365968e+002, 2.010563e+002
3.370789e+002, 2.010312e+002
3.375610e+002, 2.012706e+002
3.380432e+002, 2.016598e+002
3.385253e+002, 2.019417e+002
3.390074e+002, 2.020087e+002
3.394895e+002, 2.018732e+002
3.399716e+002, 2.015112e+002
3.404537e+002, 2.006496e+002
3.409359e+002, 2.000858e+002
3.414180e+002, 2.001611e+002
3.419001e+002, 2.005486e+002
3.423822e+002, 2.008104e+002
3.428643e+002, 2.008204e+002
3.433464e+002, 2.007892e+002
3.438286e+002, 2.010348e+002
3.443107e+002, 2.017382e+002
3.447928e+002, 2.021735e+002
3.452749e+002, 2.020593e+002
3.457570e+002, 2.018644e+002
3.462391e+002, 2.020019e+002
3.467213e+002, 2.024705e+002
3.472034e+002, 2.029620e+002
3.476855e+002, 2.032282e+002
3.481676e+002, 2.032645e+002
3.486497e+002, 2.029868e+002
3.491318e+002, 2.019016e+002
3.496140e+002, 2.010506e+002
3.500961e+002, 2.012042e+002
3.505782e+002, 2.019579e+002
3.510603e+002, 2.022835e+002
3.515424e+002, 2.015230e+002
3.520245e+002, 2.000072e+002
3.525067e+002, 1.991594e+002
3.529888e+002, 1.996833e+002
3.534709e+002, 2.000010e+002
3.539530e+002, 1.996673e+002
3.544351e+002, 1.991294e+002
3.549172e+002, 1.989574e+002
3.553994e+002, 1.993423e+002
3.558815e+002, 1.999805e+002
3.563636e+002, 2.003734e+002
3.568457e+002, 2.004825e+002
3.573278e+002, 2.003729e+002
3.578099e+002, 1.996702e+002
3.582920e+002, 1.990448e+002
3.587741e+002, 1.990757e+002
3.592563e+002, 1.997269e+002
3.597384e+002, 2.004488e+002
3.602205e+002, 2.006620e+002
3.607026e+002, 2.002648e+002
3.611847e+002, 2.003552e+002
3.616668e+002, 2.014260e+002
3.621490e+002, 2.024386e+002
3.626311e+002, 2.030043e+002
3.631132e+002, 2.032619e+002
3.635953e+002, 2.034808e+002
3.640774e+002, 2.038117e+002
3.645595e+002, 2.042722e+002
3.650417e+002, 2.049396e+002
3.655238e+002, 2.058629e+002
3.660059e+002, 2.069546e+002
3.664880e+002, 2.082374e+002
3.669701e+002, 2.096501e+002
3.674522e+002, 2.111525e+002
3.679344e+002, 2.127212e+002
3.684165e+002, 2.143372e+002
3.688986e+002, 2.159718e+002
3.693807e+002, 2.176013e+002
3.698628e+002, 2.193143e+002
3.703449e+002, 2.209375e+002
3.708271e+002, 2.227877e+002
3.713092e+002, 2.251983e+002
3.717913e+002, 2.280619e+002
3.722734e+002, 2.309755e+002
3.727555e+002, 2.336348e+002
3.732376e+002, 2.360339e+002
3.737198e+002, 2.380798e+002
3.742019e+002, 2.398149e+002
3.746840e+002, 2.410862e+002
3.751661e+002, 2.420071e+002
3.756482e+002, 2.424420e+002
3.761303e+002, 2.421251e+002
3.766125e+002, 2.408541e+002
3.770946e+002, 2.389312e+002
3.775767e+002, 2.369117e+002
3.780588e+002, 2.346163e+002
3.785409e+002, 2.327426e+002
3.790230e+002, 2.314465e+002
3.795052e+002, 2.306556e+002
3.799873e+002, 2.303930e+002
3.804694e+002, 2.306597e+002
3.809515e+002, 2.313172e+002
3.814336e+002, 2.322267e+002
3.819157e+002, 2.333901e+002
3.823979e+002, 2.348637e+002
3.828800e+002, 2.364982e+002
3.833621e+002, 2.386973e+002
3.838442e+002, 2.417366e+002
3.843263e+002, 2.454931e+002
3.848084e+002, 2.496086e+002
3.852906e+002, 2.538276e+002
3.857727e+002, 2.582462e+002
3.862548e+002, 2.631375e+002
3.867369e+002, 2.685275e+002
3.872190e+002, 2.742374e+002
3.877011e+002, 2.798615e+002
3.881833e+002, 2.858755e+002
3.886654e+002, 2.931094e+002
3.891475e+002, 3.019723e+002
3.896296e+002, 3.116250e+002
3.901117e+002, 3.214824e+002
3.905938e+002, 3.315645e+002
3.910760e+002, 3.417005e+002
3.915581e+002, 3.518048e+002
3.920402e+002, 3.619964e+002
3.925223e+002, 3.726507e+002
3.930044e+002, 3.838627e+002
3.934865e+002, 3.944604e+002
3.939687e+002, 4.043412e+002
3.944508e+002, 4.131935e+002
3.949329e+002, 4.205449e+002
3.954150e+002, 4.264210e+002
3.958971e+002, 4.304591e+002
3.963792e+002, 4.321706e+002
3.968614e+002, 4.315114e+002
3.973435e+002, 4.297255e+002
3.978256e+002, 4.270262e+002
3.983077e+002, 4.230468e+002
3.987898e+002, 4.171456e+002
3.992719e+002, 4.096590e+002
3.997540e+002, 4.017712e+002
4.002361e+002, 3.940960e+002
4.007183e+002, 3.863737e+002
4.012004e+002, 3.779232e+002
4.016825e+002, 3.687341e+002
4.021646e+002, 3.589760e+002
4.026467e+002, 3.485225e+002
4.031288e+002, 3.375754e+002
4.036110e+002, 3.261434e+002
4.040931e+002, 3.143442e+002
4.045752e+002, 3.028148e+002
4.050573e+002, 2.923112e+002
4.055394e+002, 2.830458e+002
4.060215e+002, 2.742431e+002
4.065037e+002, 2.656388e+002
4.069858e+002, 2.577096e+002
4.074679e+002, 2.508156e+002
4.079500e+002, 2.447716e+002
4.084321e+002, 2.390602e+002
4.089142e+002, 2.332765e+002
4.093964e+002, 2.275974e+002
4.098785e+002, 2.227358e+002
4.103606e+002, 2.191632e+002
4.108427e+002, 2.158914e+002
4.113248e+002, 2.128622e+002
4.118069e+002, 2.100720e+002
4.122891e+002, 2.075383e+002
4.127712e+002, 2.052561e+002
4.132533e+002, 2.031700e+002
4.137354e+002, 2.012285e+002
4.142175e+002, 1.994502e+002
4.146996e+002, 1.977073e+002
4.151818e+002, 1.959666e+002
4.156639e+002, 1.943032e+002
4.161460e+002, 1.927222e+002
4.166281e+002, 1.912393e+002
4.171102e+002, 1.898991e+002
4.175923e+002, 1.887010e+002
4.180745e+002, 1.876784e+002
4.185566e+002, 1.869590e+002
4.190387e+002, 1.866667e+002
4.195208e+002, 1.864172e+002
4.200029e+002, 1.862957e+002
4.204850e+002, 1.860571e+002
4.209672e+002, 1.853732e+002
4.214493e+002, 1.841535e+002
4.219314e+002, 1.828759e+002
4.224135e+002, 1.819848e+002
4.228956e+002, 1.814749e+002
4.233777e+002, 1.812370e+002
4.238599e+002, 1.814681e+002
4.243420e+002, 1.816759e+002
4.248241e+002, 1.814796e+002
4.253062e+002, 1.809519e+002
4.257883e+002, 1.803438e+002
4.262704e+002, 1.796403e+002
4.267526e+002, 1.789706e+002
4.272347e+002, 1.785666e+002
4.277168e+002, 1.784400e+002
4.281989e+002, 1.783486e+002
4.286810e+002, 1.781340e+002
4.291631e+002, 1.778961e+002
4.296453e+002, 1.778785e+002
4.301274e+002, 1.782533e+002
4.306095e+002, 1.784580e+002
4.310916e+002, 1.780047e+002
4.315737e+002, 1.772153e+002
4.320558e+002, 1.767512e+002
4.325380e+002, 1.767939e+002
4.330201e+002, 1.770666e+002
4.335022e+002, 1.773124e+002
4.339843e+002, 1.775410e+002
4.344664e+002, 1.775423e+002
4.349485e+002, 1.770534e+002
4.354307e+002, 1.765503e+002
4.359128e+002, 1.763932e+002
4.363949e+002, 1.765099e+002
4.368770e+002, 1.766138e+002
4.373591e+002, 1.765476e+002
4.378412e+002, 1.763266e+002
4.383234e+002, 1.760075e+002
4.388055e+002, 1.753971e+002
4.392876e+002, 1.749380e+002
4.397697e+002, 1.747482e+002
4.402518e+002, 1.746753e+002
4.407339e+002, 1.745507e+002
4.412160e+002, 1.743564e+002
4.416982e+002, 1.742412e+002
4.421803e+002, 1.744202e+002
4.426624e+002, 1.749770e+002
4.431445e+002, 1.752219e+002
4.436266e+002, 1.748126e+002
4.441087e+002, 1.744429e+002
4.445909e+002, 1.744093e+002
4.450730e+002, 1.745432e+002
4.455551e+002, 1.745100e+002
4.460372e+002, 1.741156e+002
4.465193e+002, 1.735851e+002
4.470014e+002, 1.735061e+002
4.474836e+002, 1.741583e+002
4.479657e+002, 1.744234e+002
4.484478e+002, 1.735567e+002
4.489299e+002, 1.726320e+002
4.494120e+002, 1.723808e+002
4.498941e+002, 1.728083e+002
4.503763e+002, 1.733569e+002
4.508584e+002, 1.736614e+002
4.513405e+002, 1.737455e+002
4.518226e+002, 1.736488e+002
4.523047e+002, 1.732663e+002
4.527868e+002, 1.729682e+002
4.532690e+002, 1.730560e+002
4.537511e+002, 1.733465e+002
4.542332e+002, 1.736174e+002
4.547153e+002, 1.738832e+002
4.551974e+002, 1.739978e+002
4.556795e+002, 1.737356e+002
4.561617e+002, 1.731885e+002
4.566438e+002, 1.727504e+002
4.571259e+002, 1.725304e+002
4.576080e+002, 1.724604e+002
4.580901e+002, 1.724692e+002
4.585722e+002, 1.725500e+002
4.590544e+002, 1.727175e+002
4.595365e+002, 1.731092e+002
4.600186e+002, 1.734930e+002
4.605007e+002, 1.735871e+002
4.609828e+002, 1.734444e+002
4.614649e+002, 1.734308e+002
4.619471e+002, 1.738136e+002
4.624292e+002, 1.744544e+002
4.629113e+002, 1.747777e+002
4.633934e+002, 1.745650e+002
4.638755e+002, 1.743458e+002
4.643576e+002, 1.738988e+002
4.648398e+002, 1.736223e+002
4.653219e+002, 1.740264e+002
4.658040e+002, 1.751556e+002
4.662861e+002, 1.765644e+002
4.667682e+002, 1.778348e+002
4.672503e+002, 1.790232e+002
4.677325e+002, 1.795906e+002
4.682146e+002, 1.788609e+002
4.686967e+002, 1.782210e+002
4.691788e+002, 1.779607e+002
4.696609e+002, 1.780461e+002
4.701430e+002, 1.784412e+002
4.706252e+002, 1.791404e+002
4.711073e+002, 1.799816e+002
4.715894e+002, 1.806866e+002
4.720715e+002, 1.812353e+002
4.725536e+002, 1.817336e+002
4.730357e+002, 1.821026e+002
4.735179e+002, 1.825053e+002
4.740000e+002, 1.830288e+002
4.744821e+002, 1.836673e+002
4.749642e+002, 1.843920e+002
4.754463e+002, 1.853652e+002
4.759284e+002, 1.863463e+002
4.764106e+002, 1.867682e+002
4.768927e+002, 1.865659e+002
4.773748e+002, 1.862065e+002
4.778569e+002, 1.859435e+002
4.783390e+002, 1.856119e+002
4.788211e+002, 1.849882e+002
4.793033e+002, 1.840537e+002
4.797854e+002, 1.828663e+002
4.802675e+002, 1.812087e+002
4.807496e+002, 1.793775e+002
4.812317e+002, 1.779084e+002
4.817138e+002, 1.768986e+002
4.821959e+002, 1.761571e+002
4.826780e+002, 1.755466e+002
4.831602e+002, 1.750721e+002
4.836423e+002, 1.746319e+002
4.841244e+002, 1.743831e+002
4.846065e+002, 1.739989e+002
4.850886e+002, 1.732435e+002
4.855707e+002, 1.722808e+002
4.860529e+002, 1.713596e+002
4.865350e+002, 1.705721e+002
4.870171e+002, 1.699540e+002
4.874992e+002, 1.695915e+002
4.879813e+002, 1.696209e+002
4.884634e+002, 1.695286e+002
4.889456e+002, 1.691280e+002
4.894277e+002, 1.688050e+002
4.899098e+002, 1.687977e+002
4.903919e+002, 1.690200e+002
4.908740e+002, 1.692657e+002
4.913561e+002, 1.694214e+002
4.918383e+002, 1.694872e+002
4.923204e+002, 1.694002e+002
4.928025e+002, 1.689888e+002
4.932846e+002, 1.689019e+002
4.937667e+002, 1.696677e+002
4.942488e+002, 1.705221e+002
4.947310e+002, 1.709437e+002
4.952131e+002, 1.709182e+002
4.956952e+002, 1.707931e+002
4.961773e+002, 1.706179e+002
4.966594e+002, 1.705386e+002
4.971415e+002, 1.710546e+002
4.976237e+002, 1.722936e+002
4.981058e+002, 1.735688e+002
4.985879e+002, 1.744700e+002
4.990700e+002, 1.751933e+002
4.995521e+002, 1.760983e+002
5.000342e+002, 1.772088e+002
5.005164e+002, 1.784926e+002
5.009985e+002, 1.801004e+002
5.014806e+002, 1.818348e+002
5.019627e+002, 1.833630e+002
5.024448e+002, 1.846125e+002
5.029269e+002, 1.857114e+002
5.034091e+002, 1.867590e+002
5.038912e+002, 1.877609e+002
5.043733e+002, 1.887677e+002
5.048554e+002, 1.899476e+002
5.053375e+002, 1.909464e+002
5.058196e+002, 1.917701e+002
5.063018e+002, 1.922942e+002
5.067839e+002, 1.922935e+002
5.072660e+002, 1.916977e+002
5.077481e+002, 1.907031e+002
5.082302e+002, 1.895783e+002
5.087123e+002, 1.882595e+002
5.091945e+002, 1.870368e+002
5.096766e+002, 1.857539e+002
5.101587e+002, 1.847287e+002
5.106408e+002, 1.842606e+002
5.111229e+002, 1.841151e+002
5.116050e+002, 1.838318e+002
5.120872e+002, 1.831510e+002
5.125693e+002, 1.823228e+002
5.130514e+002, 1.818236e+002
5.135335e+002, 1.816983e+002
5.140156e+002, 1.815375e+002
5.144977e+002, 1.811866e+002
5.149799e+002, 1.808410e+002
5.154620e+002, 1.806334e+002
5.159441e+002, 1.805643e+002
5.164262e+002, 1.806226e+002
5.169083e+002, 1.809786e+002
5.173904e+002, 1.813587e+002
5.178726e+002, 1.812970e+002
5.183547e+002, 1.808327e+002
5.188368e+002, 1.805453e+002
5.193189e+002, 1.806965e+002
5.198010e+002, 1.812016e+002
5.202831e+002, 1.819719e+002
5.207653e+002, 1.832452e+002
5.212474e+002, 1.840645e+002
5.217295e+002, 1.842447e+002
5.222116e+002, 1.839224e+002
5.226937e+002, 1.829963e+002
5.231758e+002, 1.816130e+002
5.236580e+002, 1.802622e+002
5.241401e+002, 1.792927e+002
5.246222e+002, 1.786665e+002
5.251043e+002, 1.781887e+002
5.255864e+002, 1.782076e+002
5.260685e+002, 1.778662e+002
5.265507e+002, 1.767672e+002
5.270328e+002, 1.755224e+002
5.275149e+002, 1.746045e+002
5.279970e+002, 1.740777e+002
5.284791e+002, 1.737591e+002
5.289612e+002, 1.735805e+002
5.294434e+002, 1.734866e+002
5.299255e+002, 1.730735e+002
5.304076e+002, 1.721453e+002
5.308897e+002, 1.713587e+002
5.313718e+002, 1.711059e+002
5.318539e+002, 1.710901e+002
5.323361e+002, 1.710330e+002
5.328182e+002, 1.708939e+002
5.333003e+002, 1.707171e+002
5.337824e+002, 1.705396e+002
5.342645e+002, 1.703437e+002
5.347466e+002, 1.700155e+002
5.352288e+002, 1.695176e+002
5.357109e+002, 1.691968e+002
5.361930e+002, 1.693388e+002
5.366751e+002, 1.698951e+002
5.371572e+002, 1.704848e+002
5.376393e+002, 1.711902e+002
5.381215e+002, 1.718278e+002
5.386036e+002, 1.723875e+002
5.390857e+002, 1.728343e+002
5.395678e+002, 1.730332e+002
5.400499e+002, 1.729991e+002
5.405320e+002, 1.730307e+002
5.410142e+002, 1.734630e+002
5.414963e+002, 1.743097e+002
5.419784e+002, 1.750573e+002
5.424604e+002, 1.753304e+002
5.429426e+002, 1.759610e+002
5.434247e+002, 1.772968e+002
5.439068e+002, 1.789847e+002
5.443889e+002, 1.806295e+002
5.448710e+002, 1.821244e+002
5.453531e+002, 1.836152e+002
5.458353e+002, 1.852272e+002
5.463174e+002, 1.869634e+002
5.467995e+002, 1.887392e+002
5.472816e+002, 1.904104e+002
5.477637e+002, 1.924079e+002
5.482458e+002, 1.952546e+002
5.487280e+002, 1.985514e+002
5.492101e+002, 2.016914e+002
5.496922e+002, 2.044568e+002
5.501743e+002, 2.072813e+002
5.506564e+002, 2.104660e+002
5.511385e+002, 2.139121e+002
5.516207e+002, 2.175425e+002
5.521028e+002, 2.213527e+002
5.525849e+002, 2.249237e+002
5.530670e+002, 2.277774e+002
5.535491e+002, 2.299198e+002
5.540313e+002, 2.324358e+002
5.545134e+002, 2.362682e+002
5.549955e+002, 2.392983e+002
5.554776e+002, 2.408021e+002
5.559597e+002, 2.412668e+002
5.564418e+002, 2.412765e+002
5.569240e+002, 2.409896e+002
5.574061e+002, 2.401928e+002
5.578882e+002, 2.385671e+002
5.583703e+002, 2.360973e+002
5.588524e+002, 2.335025e+002
5.593345e+002, 2.308752e+002
5.598167e+002, 2.279929e+002
5.602988e+002, 2.245864e+002
5.607809e+002, 2.209984e+002
5.612630e+002, 2.176156e+002
5.617451e+002, 2.145512e+002
5.622272e+002, 2.116198e+002
5.627094e+002, 2.086256e+002
5.631915e+002, 2.056313e+002
5.636736e+002, 2.028504e+002
5.641557e+002, 2.002994e+002
5.646378e+002, 1.979431e+002
5.651199e+002, 1.957480e+002
5.656021e+002, 1.937424e+002
5.660842e+002, 1.919614e+002
5.665663e+002, 1.905151e+002
5.670484e+002, 1.891374e+002
5.675305e+002, 1.876655e+002
5.680126e+002, 1.862499e+002
5.684948e+002, 1.851394e+002
5.689769e+002, 1.843465e+002
5.694590e+002, 1.835486e+002
5.699411e+002, 1.824166e+002
5.704232e+002, 1.809845e+002
5.709053e+002, 1.799815e+002
5.713875e+002, 1.798091e+002
5.718696e+002, 1.795365e+002
5.723517e+002, 1.789235e+002
5.728338e+002, 1.782097e+002
5.733159e+002, 1.774806e+002
5.737980e+002, 1.768147e+002
5.742802e+002, 1.765290e+002
5.747623e+002, 1.771088e+002
5.752444e+002, 1.783237e+002
5.757265e+002, 1.792013e+002
5.762086e+002, 1.796804e+002
5.766907e+002, 1.800784e+002
5.771729e+002, 1.805690e+002
5.776550e+002, 1.810392e+002
5.781371e+002, 1.812478e+002
5.786192e+002, 1.810801e+002
5.791013e+002, 1.811543e+002
5.795834e+002, 1.820569e+002
5.800656e+002, 1.831142e+002
5.805477e+002, 1.835537e+002
5.810298e+002, 1.833510e+002
5.815119e+002, 1.828697e+002
5.819940e+002, 1.823177e+002
5.824761e+002, 1.816926e+002
5.829583e+002, 1.809882e+002
5.834404e+002, 1.802530e+002
5.839225e+002, 1.793430e+002
5.844046e+002, 1.781787e+002
5.848867e+002, 1.769097e+002
5.853688e+002, 1.754829e+002
5.858510e+002, 1.740255e+002
5.863331e+002, 1.728660e+002
5.868152e+002, 1.722630e+002
5.872973e+002, 1.719857e+002
5.877794e+002, 1.715003e+002
5.882615e+002, 1.707636e+002
5.887437e+002, 1.701287e+002
5.892258e+002, 1.698607e+002
5.897079e+002, 1.695124e+002
5.901900e+002, 1.685878e+002
5.906721e+002, 1.671808e+002
5.911542e+002, 1.658992e+002
5.916364e+002, 1.649440e+002
5.921185e+002, 1.641776e+002
5.926006e+002, 1.635420e+002
5.930827e+002, 1.630133e+002
5.935648e+002, 1.624839e+002
5.940469e+002, 1.619050e+002
5.945291e+002, 1.614561e+002
5.950112e+002, 1.614296e+002
5.954933e+002, 1.619801e+002
5.959754e+002, 1.622524e+002
5.964575e+002, 1.622171e+002
5.969396e+002, 1.619846e+002
5.974218e+002, 1.614238e+002
5.979039e+002, 1.607514e+002
5.983860e+002, 1.602855e+002
5.988681e+002, 1.601276e+002
5.993502e+002, 1.600580e+002
5.998323e+002, 1.597501e+002
6.003145e+002, 1.592188e+002
6.007966e+002, 1.590007e+002
6.012787e+002, 1.593536e+002
6.017608e+002, 1.595137e+002
6.022429e+002, 1.585524e+002
6.027250e+002, 1.572688e+002
6.032072e+002, 1.570327e+002
6.036893e+002, 1.583808e+002
6.041714e+002, 1.596474e+002
6.046535e+002, 1.598664e+002
6.051356e+002, 1.595444e+002
6.056177e+002, 1.595073e+002
6.060999e+002, 1.598026e+002
6.065820e+002, 1.597486e+002
6.070641e+002, 1.587475e+002
6.075462e+002, 1.571214e+002
6.080283e+002, 1.563369e+002
6.085104e+002, 1.572884e+002
6.089926e+002, 1.578320e+002
6.094747e+002, 1.576301e+002
6.099568e+002, 1.572193e+002
6.104389e+002, 1.569143e+002
6.109210e+002, 1.567492e+002
6.114031e+002, 1.566621e+002
6.118853e+002, 1.566358e+002
6.123674e+002, 1.566287e+002
6.128495e+002, 1.565605e+002
6.133316e+002, 1.564310e+002
6.138137e+002, 1.561598e+002
6.142958e+002, 1.553497e+002
6.147780e+002, 1.548952e+002
6.152601e+002, 1.563257e+002
6.157422e+002, 1.592060e+002
6.162243e+002, 1.607087e+002
6.167064e+002, 1.592197e+002
6.171885e+002, 1.572182e+002
6.176707e+002, 1.560653e+002
6.181528e+002, 1.555900e+002
6.186349e+002, 1.555093e+002
6.191170e+002, 1.557159e+002
6.195991e+002, 1.558921e+002
6.200812e+002, 1.556070e+002
6.205634e+002, 1.547992e+002
6.210455e+002, 1.544552e+002
6.215276e+002, 1.552055e+002
6.220097e+002, 1.556486e+002
6.224918e+002, 1.552266e+002
6.229739e+002, 1.545153e+002
6.234561e+002, 1.540954e+002
6.239382e+002, 1.540816e+002
6.244203e+002, 1.542262e+002
6.249023e+002, 1.544061e+002
6.253845e+002, 1.545819e+002
6.258666e+002, 1.546523e+002
6.263487e+002, 1.546155e+002
6.268308e+002, 1.544488e+002
6.273129e+002, 1.540550e+002
6.277950e+002, 1.536075e+002
6.282772e+002, 1.534786e+002
6.287593e+002, 1.537403e+002
6.292414e+002, 1.539051e+002
6.297235e+002, 1.536151e+002
6.302056e+002, 1.534605e+002
6.306877e+002, 1.541987e+002
6.311699e+002, 1.553807e+002
6.316520e+002, 1.557876e+002
6.321341e+002, 1.548573e+002
6.326162e+002, 1.534855e+002
6.330983e+002, 1.533809e+002
6.335804e+002, 1.549762e+002
6.340626e+002, 1.555630e+002
6.345447e+002, 1.542744e+002
6.350268e+002, 1.530499e+002
6.355089e+002, 1.528739e+002
6.359910e+002, 1.532500e+002
6.364731e+002, 1.534371e+002
6.369553e+002, 1.532527e+002
6.374374e+002, 1.529068e+002
6.379195e+002, 1.522992e+002
6.384016e+002, 1.517101e+002
6.388837e+002, 1.518545e+002
6.393658e+002, 1.527758e+002
6.398480e+002, 1.535123e+002
6.403301e+002, 1.533931e+002
6.408122e+002, 1.526788e+002
6.412943e+002, 1.522401e+002
6.417764e+002, 1.522049e+002
6.422585e+002, 1.522802e+002
6.427407e+002, 1.524915e+002
6.432228e+002, 1.527879e+002
6.437049e+002, 1.533017e+002
6.441870e+002, 1.538670e+002
6.446691e+002, 1.540715e+002
6.451512e+002, 1.536527e+002
6.456334e+002, 1.529961e+002
6.461155e+002, 1.527900e+002
6.465976e+002, 1.530292e+002
6.470797e+002, 1.529844e+002
6.475618e+002, 1.523824e+002
6.480439e+002, 1.518373e+002
6.485261e+002, 1.518979e+002
6.490082e+002, 1.523962e+002
6.494903e+002, 1.528177e+002
6.499724e+002, 1.532247e+002
6.504545e+002, 1.533957e+002
6.509366e+002, 1.530648e+002
6.514188e+002, 1.525470e+002
6.519009e+002, 1.522157e+002
6.523830e+002, 1.521068e+002
6.528651e+002, 1.520365e+002
6.533472e+002, 1.518527e+002
6.538293e+002, 1.516355e+002
6.543115e+002, 1.517064e+002
6.547936e+002, 1.521855e+002
6.552757e+002, 1.526584e+002
6.557578e+002, 1.532193e+002
6.562399e+002, 1.536245e+002
6.567220e+002, 1.536750e+002
6.572042e+002, 1.534477e+002
6.576863e+002, 1.531751e+002
6.581684e+002, 1.528846e+002
6.586505e+002, 1.526765e+002
6.591326e+002, 1.527322e+002
6.596147e+002, 1.529442e+002
6.600969e+002, 1.530123e+002
6.605790e+002, 1.528713e+002
6.610611e+002, 1.525985e+002
6.615432e+002, 1.522100e+002
6.620253e+002, 1.517405e+002
6.625074e+002, 1.515680e+002
6.629896e+002, 1.519545e+002
6.634717e+002, 1.522979e+002
6.639538e+002, 1.525433e+002
6.644359e+002, 1.527326e+002
6.649180e+002, 1.529268e+002
6.654001e+002, 1.531042e+002
6.658823e+002, 1.531845e+002
6.663644e+002, 1.531408e+002
6.668465e+002, 1.529343e+002
6.673286e+002, 1.523598e+002
6.678107e+002, 1.514365e+002
6.682928e+002, 1.508214e+002
6.687750e+002, 1.506362e+002
6.692571e+002, 1.508732e+002
6.697392e+002, 1.518283e+002
6.702213e+002, 1.533488e+002
6.707034e+002, 1.539727e+002
6.711855e+002, 1.527432e+002
6.716677e+002, 1.517638e+002
6.721498e+002, 1.519936e+002
6.726319e+002, 1.526349e+002
6.731140e+002, 1.527705e+002
6.735961e+002, 1.523441e+002
6.740782e+002, 1.519214e+002
6.745604e+002, 1.519369e+002
6.750425e+002, 1.522671e+002
6.755246e+002, 1.525275e+002
6.760067e+002, 1.527220e+002
6.764888e+002, 1.528264e+002
6.769709e+002, 1.527822e+002
6.774531e+002, 1.527075e+002
6.779352e+002, 1.526736e+002
6.784173e+002, 1.526856e+002
6.788994e+002, 1.527740e+002
6.793815e+002, 1.531724e+002
6.798636e+002, 1.533601e+002
6.803458e+002, 1.527030e+002
6.808279e+002, 1.517640e+002
6.813100e+002, 1.515361e+002
6.817921e+002, 1.521234e+002
6.822742e+002, 1.527905e+002
6.827563e+002, 1.529345e+002
6.832385e+002, 1.526601e+002
6.837206e+002, 1.524789e+002
6.842027e+002, 1.524135e+002
6.846848e+002, 1.523908e+002
6.851669e+002, 1.523339e+002
6.856490e+002, 1.523770e+002
6.861312e+002, 1.526367e+002
6.866133e+002, 1.530645e+002
6.870954e+002, 1.535473e+002
6.875775e+002, 1.541903e+002
6.880596e+002, 1.546090e+002
6.885417e+002, 1.543177e+002
6.890239e+002, 1.535646e+002
6.895060e+002, 1.528605e+002
6.899881e+002, 1.523028e+002
6.904702e+002, 1.519737e+002
6.909523e+002, 1.519648e+002
6.914344e+002, 1.522134e+002
6.919166e+002, 1.523988e+002
6.923987e+002, 1.523913e+002
6.928808e+002, 1.525336e+002
6.933629e+002, 1.530427e+002
6.938450e+002, 1.535116e+002
6.943271e+002, 1.537264e+002
6.948093e+002, 1.536947e+002
6.952914e+002, 1.534430e+002
6.957735e+002, 1.528951e+002
6.962556e+002, 1.524070e+002
6.967377e+002, 1.525103e+002
6.972198e+002, 1.530132e+002
6.977020e+002, 1.531507e+002
6.981841e+002, 1.527747e+002
6.986662e+002, 1.525580e+002
6.991483e+002, 1.530806e+002
6.996304e+002, 1.540603e+002
7.001125e+002, 1.544071e+002
7.005947e+002, 1.533738e+002
7.010768e+002, 1.528514e+002
7.015589e+002, 1.533948e+002
7.020410e+002, 1.539638e+002
7.025231e+002, 1.537945e+002
7.030052e+002, 1.531700e+002
7.034874e+002, 1.528270e+002
7.039695e+002, 1.531067e+002
7.044516e+002, 1.535315e+002
7.049337e+002, 1.533779e+002
7.054158e+002, 1.528237e+002
7.058979e+002, 1.528188e+002
7.063801e+002, 1.535244e+002
7.068622e+002, 1.542872e+002
7.073442e+002, 1.548155e+002
7.078264e+002, 1.550829e+002
7.083085e+002, 1.549657e+002
7.087906e+002, 1.542066e+002
7.092727e+002, 1.537369e+002
7.097548e+002, 1.537820e+002
7.102369e+002, 1.539680e+002
7.107191e+002, 1.541953e+002
7.112012e+002, 1.543705e+002
7.116833e+002, 1.543111e+002
7.121654e+002, 1.539592e+002
7.126475e+002, 1.536130e+002
7.131296e+002, 1.536676e+002
7.136118e+002, 1.540452e+002
7.140939e+002, 1.543275e+002
7.145760e+002, 1.545027e+002
7.150581e+002, 1.545783e+002
7.155402e+002, 1.545346e+002
7.160223e+002, 1.544147e+002
7.165045e+002, 1.541981e+002
7.169866e+002, 1.537799e+002
7.174687e+002, 1.538788e+002
7.179508e+002, 1.554339e+002
7.184329e+002, 1.565813e+002
7.189150e+002, 1.559163e+002
7.193972e+002, 1.544566e+002
7.198793e+002, 1.537169e+002
7.203614e+002, 1.540688e+002
7.208435e+002, 1.547823e+002
7.213256e+002, 1.552352e+002
7.218077e+002, 1.554525e+002
7.222899e+002, 1.554440e+002
7.227720e+002, 1.551515e+002
7.232541e+002, 1.551774e+002
7.237362e+002, 1.559750e+002
7.242183e+002, 1.567698e+002
7.247004e+002, 1.564528e+002
7.251826e+002, 1.550534e+002
7.256647e+002, 1.542542e+002
7.261468e+002, 1.544125e+002
7.266289e+002, 1.548607e+002
7.271110e+002, 1.556342e+002
7.275931e+002, 1.564095e+002
7.280753e+002, 1.567814e+002
7.285574e+002, 1.567458e+002
7.290395e+002, 1.566024e+002
7.295216e+002, 1.565295e+002
7.300037e+002, 1.565652e+002
7.304858e+002, 1.568527e+002
7.309680e+002, 1.574029e+002
7.314501e+002, 1.578632e+002
7.319322e+002, 1.581462e+002
7.324143e+002, 1.583785e+002
7.328964e+002, 1.587454e+002
7.333785e+002, 1.591547e+002
7.338607e+002, 1.591601e+002
7.343428e+002, 1.583333e+002
7.348249e+002, 1.577667e+002
7.353070e+002, 1.578512e+002
7.357891e+002, 1.581410e+002
7.362712e+002, 1.583136e+002
7.367534e+002, 1.583597e+002
7.372355e+002, 1.583703e+002
7.377176e+002, 1.583856e+002
7.381997e+002, 1.584362e+002
7.386818e+002, 1.586172e+002
7.391639e+002, 1.589019e+002
7.396461e+002, 1.590025e+002
7.401282e+002, 1.588488e+002
7.406103e+002, 1.587134e+002
7.410924e+002, 1.586841e+002
7.415745e+002, 1.588153e+002
7.420566e+002, 1.593112e+002
7.425388e+002, 1.603800e+002
7.430209e+002, 1.610727e+002
7.435030e+002, 1.611448e+002
7.439851e+002, 1.609988e+002
7.444672e+002, 1.607136e+002
7.449493e+002, 1.604013e+002
7.454315e+002, 1.601444e+002
7.459136e+002, 1.599883e+002
7.463957e+002, 1.600709e+002
7.468778e+002, 1.607223e+002
7.473599e+002, 1.616834e+002
7.478420e+002, 1.621188e+002
7.483242e+002, 1.620181e+002
7.488063e+002, 1.618086e+002
7.492884e+002, 1.616290e+002
7.497705e+002, 1.613908e+002
7.502526e+002, 1.609030e+002
7.507347e+002, 1.601335e+002
7.512169e+002, 1.598468e+002
7.516990e+002, 1.606118e+002
7.521811e+002, 1.610793e+002
7.526632e+002, 1.606868e+002
7.531453e+002, 1.600671e+002
7.536274e+002, 1.597341e+002
7.541096e+002, 1.597409e+002
7.545917e+002, 1.599537e+002
7.550738e+002, 1.603631e+002
7.555559e+002, 1.608059e+002
7.560380e+002, 1.610897e+002
7.565201e+002, 1.612137e+002
7.570023e+002, 1.610845e+002
7.574844e+002, 1.606629e+002
7.579665e+002, 1.603702e+002
7.584486e+002, 1.605142e+002
7.589307e+002, 1.610034e+002
7.594128e+002, 1.615498e+002
7.598950e+002, 1.624358e+002
7.603771e+002, 1.628526e+002
7.608592e+002, 1.622956e+002
7.613413e+002, 1.618308e+002
7.618234e+002, 1.621511e+002
7.623055e+002, 1.628293e+002
7.627877e+002, 1.631392e+002
7.632698e+002, 1.628714e+002
7.637519e+002, 1.624746e+002
7.642340e+002, 1.622745e+002
7.647161e+002, 1.621588e+002
7.651982e+002, 1.618384e+002
7.656804e+002, 1.613931e+002
7.661625e+002, 1.613949e+002
7.666446e+002, 1.620965e+002
7.671267e+002, 1.628911e+002
7.676088e+002, 1.629405e+002
7.680909e+002, 1.622060e+002
7.685731e+002, 1.617338e+002
7.690552e+002, 1.616538e+002
7.695373e+002, 1.616247e+002
7.700194e+002, 1.616149e+002
7.705015e+002, 1.615909e+002
7.709836e+002, 1.615466e+002
7.714658e+002, 1.614688e+002
7.719479e+002, 1.613013e+002
7.724300e+002, 1.609367e+002
7.729121e+002, 1.605951e+002
7.733942e+002, 1.603030e+002
7.738763e+002, 1.601906e+002
7.743585e+002, 1.605982e+002
7.748406e+002, 1.614686e+002
7.753227e+002, 1.622933e+002
7.758048e+002, 1.627520e+002
7.762869e+002, 1.628974e+002
7.767690e+002, 1.627390e+002
7.772512e+002, 1.621594e+002
7.777333e+002, 1.621168e+002
7.782154e+002, 1.629762e+002
7.786975e+002, 1.638167e+002
7.791796e+002, 1.640876e+002
7.796617e+002, 1.640474e+002
7.801439e+002, 1.641485e+002
7.806260e+002, 1.644654e+002
7.811081e+002, 1.646153e+002
7.815902e+002, 1.642368e+002
7.820723e+002, 1.639292e+002
7.825544e+002, 1.642156e+002
7.830366e+002, 1.647884e+002
7.835187e+002, 1.651145e+002
7.840008e+002, 1.650599e+002
7.844829e+002, 1.648526e+002
7.849650e+002, 1.646336e+002
7.854471e+002, 1.644639e+002
7.859293e+002, 1.646032e+002
7.864114e+002, 1.650577e+002
7.868935e+002, 1.653501e+002
7.873756e+002, 1.653273e+002
7.878577e+002, 1.652223e+002
7.883398e+002, 1.652631e+002
7.888220e+002, 1.654196e+002
7.893040e+002, 1.654302e+002
7.897861e+002, 1.652705e+002
7.902682e+002, 1.650096e+002
7.907504e+002, 1.644553e+002
7.912325e+002, 1.639848e+002
7.917146e+002, 1.640350e+002
7.921967e+002, 1.643211e+002
7.926788e+002, 1.641278e+002
7.931609e+002, 1.631314e+002
7.936431e+002, 1.622254e+002
7.941252e+002, 1.624007e+002
7.946073e+002, 1.631131e+002
7.950894e+002, 1.633568e+002
7.955715e+002, 1.631217e+002
7.960536e+002, 1.626807e+002
7.965358e+002, 1.621061e+002
7.970179e+002, 1.618151e+002
7.975000e+002, 1.625359e+002
7.979821e+002, 1.643553e+002
7.984642e+002, 1.650517e+002
7.989464e+002, 1.639422e+002
7.994285e+002, 1.629508e+002
7.999106e+002, 1.626793e+002
8.003927e+002, 1.625942e+002
8.008748e+002, 1.622481e+002
8.013569e+002, 1.617219e+002
8.018391e+002, 1.614830e+002
8.023212e+002, 1.618969e+002
8.028033e+002, 1.622675e+002
8.032854e+002, 1.620558e+002
8.037675e+002, 1.617167e+002
8.042496e+002, 1.618462e+002
8.047318e+002, 1.623892e+002
8.052139e+002, 1.629125e+002
8.056960e+002, 1.631801e+002
8.061781e+002, 1.633168e+002
8.066602e+002, 1.635631e+002
8.071423e+002, 1.638956e+002
8.076245e+002, 1.639145e+002
8.081066e+002, 1.635249e+002
8.085887e+002, 1.632246e+002
8.090708e+002, 1.632283e+002
8.095529e+002, 1.634440e+002
8.100350e+002, 1.637913e+002
8.105172e+002, 1.643246e+002
8.109993e+002, 1.646051e+002
8.114814e+002, 1.643981e+002
8.119635e+002, 1.642401e+002
8.124456e+002, 1.643334e+002
8.129277e+002, 1.644996e+002
8.134099e+002, 1.645190e+002
8.138920e+002, 1.644312e+002
8.143741e+002, 1.644900e+002
8.148562e+002, 1.648576e+002
8.153383e+002, 1.653415e+002
8.158204e+002, 1.657473e+002
8.163026e+002, 1.661132e+002
8.167847e+002, 1.665600e+002
8.172668e+002, 1.670812e+002
8.177489e+002, 1.674929e+002
8.182310e+002, 1.676798e+002
8.187131e+002, 1.677502e+002
8.191953e+002, 1.678571e+002
8.196774e+002, 1.679354e+002
8.201595e+002, 1.685246e+002
8.206416e+002, 1.700332e+002
8.211237e+002, 1.712847e+002
8.216058e+002, 1.716233e+002
8.220880e+002, 1.716349e+002
8.225701e+002, 1.719463e+002
8.230522e+002, 1.725569e+002
8.235343e+002, 1.731802e+002
8.240164e+002, 1.736900e+002
8.244985e+002, 1.742823e+002
8.249807e+002, 1.751123e+002
8.254628e+002, 1.760284e+002
8.259449e+002, 1.768220e+002
8.264270e+002, 1.775225e+002
8.269091e+002, 1.783249e+002
8.273912e+002, 1.793427e+002
8.278734e+002, 1.805102e+002
8.283555e+002, 1.817509e+002
8.288376e+002, 1.830641e+002
8.293197e+002, 1.844992e+002
8.298018e+002, 1.860537e+002
8.302839e+002, 1.874711e+002
8.307661e+002, 1.885905e+002
8.312482e+002, 1.895794e+002
8.317303e+002, 1.906915e+002
8.322124e+002, 1.918903e+002
8.326945e+002, 1.934313e+002
8.331766e+002, 1.954196e+002
8.336588e+002, 1.975942e+002
8.341409e+002, 2.001210e+002
8.346230e+002, 2.026030e+002
8.351051e+002, 2.047075e+002
8.355872e+002, 2.064701e+002
8.360693e+002, 2.081890e+002
8.365515e+002, 2.098698e+002
8.370336e+002, 2.116549e+002
8.375157e+002, 2.139331e+002
8.379978e+002, 2.161609e+002
8.384799e+002, 2.175270e+002
8.389620e+002, 2.182338e+002
8.394442e+002, 2.191053e+002
8.399263e+002, 2.205279e+002
8.404084e+002, 2.222843e+002
8.408905e+002, 2.240910e+002
8.413726e+002, 2.259612e+002
8.418547e+002, 2.278842e+002
8.423369e+002, 2.298263e+002
8.428190e+002, 2.321882e+002
8.433011e+002, 2.350776e+002
8.437832e+002, 2.384728e+002
8.442653e+002, 2.422715e+002
8.447474e+002, 2.464892e+002
8.452296e+002, 2.515999e+002
8.457117e+002, 2.580375e+002
8.461938e+002, 2.647235e+002
8.466759e+002, 2.710834e+002
8.471580e+002, 2.781219e+002
8.476401e+002, 2.864290e+002
8.481223e+002, 2.959394e+002
8.486044e+002, 3.066002e+002
8.490865e+002, 3.186284e+002
8.495686e+002, 3.307450e+002
8.500507e+002, 3.429102e+002
8.505328e+002, 3.543705e+002
8.510150e+002, 3.648618e+002
8.514971e+002, 3.740158e+002
8.519792e+002, 3.815247e+002
8.524613e+002, 3.870971e+002
8.529434e+002, 3.897010e+002
8.534255e+002, 3.881678e+002
8.539077e+002, 3.829301e+002
8.543898e+002, 3.748332e+002
8.548719e+002, 3.638666e+002
8.553540e+002, 3.523304e+002
8.558361e+002, 3.405596e+002
8.563182e+002, 3.289393e+002
8.568004e+002, 3.176918e+002
8.572825e+002, 3.069517e+002
8.577646e+002, 2.970206e+002
8.582467e+002, 2.875356e+002
8.587288e+002, 2.797452e+002
8.592109e+002, 2.738183e+002
8.596931e+002, 2.693341e+002
8.601752e+002, 2.666696e+002
8.606573e+002, 2.650561e+002
8.611394e+002, 2.636290e+002
8.616215e+002, 2.622856e+002
8.621036e+002, 2.613349e+002
8.625858e+002, 2.608871e+002
8.630679e+002, 2.608766e+002
8.635500e+002, 2.613883e+002
8.640321e+002, 2.622430e+002
8.645142e+002, 2.634440e+002
8.649963e+002, 2.647843e+002
8.654785e+002, 2.655887e+002
8.659606e+002, 2.654574e+002
8.664427e+002, 2.646879e+002
8.669248e+002, 2.636995e+002
8.674069e+002, 2.624738e+002
8.678890e+002, 2.609313e+002
8.683712e+002, 2.590730e+002
8.688533e+002, 2.567320e+002
8.693354e+002, 2.538128e+002
8.698175e+002, 2.504104e+002
8.702996e+002, 2.465877e+002
8.707817e+002, 2.423301e+002
8.712639e+002, 2.385462e+002
8.717459e+002, 2.354262e+002
8.722280e+002, 2.324449e+002
8.727101e+002, 2.295352e+002
8.731923e+002, 2.267554e+002
8.736744e+002, 2.242417e+002
8.741565e+002, 2.218859e+002
8.746386e+002, 2.193166e+002
8.751207e+002, 2.163046e+002
8.756028e+002, 2.136632e+002
8.760850e+002, 2.120028e+002
8.765671e+002, 2.105166e+002
8.770492e+002, 2.083127e+002
8.775313e+002, 2.059751e+002
8.780134e+002, 2.047646e+002
8.784955e+002, 2.048120e+002
8.789777e+002, 2.047205e+002
8.794598e+002, 2.032519e+002
8.799419e+002, 2.011994e+002
8.804240e+002, 1.997945e+002
8.809061e+002, 1.989277e+002
8.813882e+002, 1.982818e+002
8.818704e+002, 1.977870e+002
8.823525e+002, 1.972147e+002
8.828346e+002, 1.963879e+002
8.833167e+002, 1.955494e+002
8.837988e+002, 1.952394e+002
8.842809e+002, 1.955264e+002
8.847631e+002, 1.958453e+002
8.852452e+002, 1.962681e+002
8.857273e+002, 1.965491e+002
8.862094e+002, 1.966428e+002
8.866915e+002, 1.965141e+002
8.871736e+002, 1.958613e+002
8.876558e+002, 1.947693e+002
8.881379e+002, 1.945293e+002
8.886200e+002, 1.958791e+002
8.891021e+002, 1.970893e+002
8.895842e+002, 1.978399e+002
8.900663e+002, 1.983853e+002
8.905485e+002, 1.988655e+002
8.910306e+002, 1.992841e+002
8.915127e+002, 1.996055e+002
8.919948e+002, 1.998216e+002
8.924769e+002, 1.999736e+002
8.929590e+002, 2.000218e+002
8.934412e+002, 2.000759e+002
8.939233e+002, 2.003564e+002
8.944054e+002, 2.007058e+002
8.948875e+002, 2.007624e+002
8.953696e+002, 2.004762e+002
8.958517e+002, 2.000773e+002
8.963339e+002, 1.997228e+002
8.968160e+002, 1.994137e+002
8.972981e+002, 1.992328e+002
8.977802e+002, 1.991423e+002
8.982623e+002, 1.986863e+002
8.987444e+002, 1.977899e+002
8.992266e+002, 1.969652e+002
8.997087e+002, 1.964691e+002
9.001908e+002, 1.961045e+002
9.006729e+002, 1.955544e+002
9.011550e+002, 1.947992e+002
9.016371e+002, 1.943208e+002
9.021193e+002, 1.944814e+002
9.026014e+002, 1.942316e+002
9.030835e+002, 1.928588e+002
9.035656e+002, 1.915251e+002
9.040477e+002, 1.911208e+002
9.045298e+002, 1.913497e+002
9.050120e+002, 1.915008e+002
9.054941e+002, 1.916107e+002
9.059762e+002, 1.913268e+002
9.064583e+002, 1.899495e+002
9.069404e+002, 1.888085e+002
9.074225e+002, 1.889708e+002
9.079047e+002, 1.897312e+002
9.083868e+002, 1.900923e+002
9.088689e+002, 1.899118e+002
9.093510e+002, 1.897039e+002
9.098331e+002, 1.899079e+002
9.103152e+002, 1.899925e+002
9.107974e+002, 1.891315e+002
9.112795e+002, 1.878794e+002
9.117616e+002, 1.872682e+002
9.122437e+002, 1.873330e+002
9.127258e+002, 1.876591e+002
9.132079e+002, 1.880510e+002
9.136901e+002, 1.883476e+002
9.141722e+002, 1.881702e+002
9.146543e+002, 1.876938e+002
9.151364e+002, 1.881776e+002
9.156185e+002, 1.896779e+002
9.161006e+002, 1.903626e+002
9.165828e+002, 1.896223e+002
9.170649e+002, 1.886887e+002
9.175470e+002, 1.886168e+002
9.180291e+002, 1.891236e+002
9.185112e+002, 1.891311e+002
9.189933e+002, 1.882534e+002
9.194755e+002, 1.878795e+002
9.199576e+002, 1.883547e+002
9.204397e+002, 1.888456e+002
9.209218e+002, 1.890143e+002
9.214039e+002, 1.890449e+002
9.218860e+002, 1.890849e+002
9.223682e+002, 1.891451e+002
9.228503e+002, 1.893438e+002
9.233324e+002, 1.899051e+002
9.238145e+002, 1.903257e+002
9.242966e+002, 1.903811e+002
9.247787e+002, 1.903164e+002
9.252609e+002, 1.902788e+002
9.257430e+002, 1.902853e+002
9.262251e+002, 1.903407e+002
9.267072e+002, 1.904474e+002
9.271893e+002, 1.905352e+002
9.276714e+002, 1.905321e+002
9.281536e+002, 1.905084e+002
9.286357e+002, 1.906497e+002
9.291178e+002, 1.907827e+002
9.295999e+002, 1.905219e+002
9.300820e+002, 1.898585e+002
9.305641e+002, 1.891059e+002
9.310463e+002, 1.884369e+002
9.315284e+002, 1.879361e+002
9.320105e+002, 1.879063e+002
9.324926e+002, 1.881727e+002
9.329747e+002, 1.879442e+002
9.334568e+002, 1.872082e+002
9.339390e+002, 1.864284e+002
9.344211e+002, 1.857607e+002
9.349032e+002, 1.853469e+002
9.353853e+002, 1.854218e+002
9.358674e+002, 1.858387e+002
9.363495e+002, 1.856197e+002
9.368317e+002, 1.844934e+002
9.373138e+002, 1.839755e+002
9.377959e+002, 1.845024e+002
9.382780e+002, 1.850446e+002
9.387601e+002, 1.849208e+002
9.392422e+002, 1.845629e+002
9.397244e+002, 1.847745e+002
9.402065e+002, 1.856702e+002
9.406886e+002, 1.864465e+002
9.411707e+002, 1.871827e+002
9.416528e+002, 1.876961e+002
9.421349e+002, 1.876215e+002
9.426171e+002, 1.876083e+002
9.430992e+002, 1.882367e+002
9.435813e+002, 1.892966e+002
9.440634e+002, 1.902103e+002
9.445455e+002, 1.908716e+002
9.450276e+002, 1.913729e+002
9.455098e+002, 1.915437e+002
9.459919e+002, 1.917874e+002
9.464740e+002, 1.925234e+002
9.469561e+002, 1.934109e+002
9.474382e+002, 1.939323e+002
9.479203e+002, 1.940798e+002
9.484025e+002, 1.942708e+002
9.488846e+002, 1.947333e+002
9.493667e+002, 1.953022e+002
9.498488e+002, 1.958798e+002
9.503309e+002, 1.964289e+002
9.508130e+002, 1.967351e+002
9.512952e+002, 1.969624e+002
9.517773e+002, 1.977927e+002
9.522594e+002, 1.993892e+002
9.527415e+002, 2.008558e+002
9.532236e+002, 2.012339e+002
9.537057e+002, 2.010050e+002
9.541878e+002, 2.013075e+002
9.546699e+002, 2.020879e+002
9.551520e+002, 2.030996e+002
9.556342e+002, 2.043098e+002
9.561163e+002, 2.051492e+002
9.565984e+002, 2.052165e+002
9.570805e+002, 2.053166e+002
9.575626e+002, 2.068149e+002
9.580447e+002, 2.096947e+002
9.585269e+002, 2.123205e+002
9.590090e+002, 2.146762e+002
9.594911e+002, 2.168709e+002
9.599732e+002, 2.188387e+002
9.604553e+002, 2.208510e+002
9.609374e+002, 2.231081e+002
9.614196e+002, 2.255396e+002
9.619017e+002, 2.280189e+002
9.623838e+002, 2.308763e+002
9.628659e+002, 2.327462e+002
9.633480e+002, 2.332311e+002
9.638301e+002, 2.332381e+002
9.643123e+002, 2.329233e+002
9.647944e+002, 2.323126e+002
9.652765e+002, 2.315364e+002
9.657586e+002, 2.304994e+002
9.662407e+002, 2.287760e+002
9.667228e+002, 2.260774e+002
9.672050e+002, 2.231669e+002
9.676871e+002, 2.199253e+002
9.681692e+002, 2.168147e+002
9.686513e+002, 2.141665e+002
9.691334e+002, 2.117841e+002
9.696155e+002, 2.093904e+002
9.700977e+002, 2.069702e+002
9.705798e+002, 2.047499e+002
9.710619e+002, 2.027522e+002
9.715440e+002, 2.011220e+002
9.720261e+002, 2.001962e+002
9.725082e+002, 1.994925e+002
9.729904e+002, 1.984481e+002
9.734725e+002, 1.972077e+002
9.739546e+002, 1.961741e+002
9.744367e+002, 1.954743e+002
9.749188e+002, 1.949996e+002
9.754009e+002, 1.946484e+002
9.758831e+002, 1.944967e+002
9.763652e+002, 1.949309e+002
9.768473e+002, 1.955476e+002
9.773294e+002, 1.952220e+002
9.778115e+002, 1.940875e+002
9.782936e+002, 1.934682e+002
9.787758e+002, 1.939893e+002
9.792579e+002, 1.950501e+002
9.797400e+002, 1.960083e+002
9.802221e+002, 1.968706e+002
9.807042e+002, 1.976286e+002
9.811863e+002, 1.982851e+002
9.816685e+002, 1.988013e+002
9.821506e+002, 1.991699e+002
9.826327e+002, 1.996968e+002
9.831148e+002, 2.005778e+002
9.835969e+002, 2.017460e+002
9.840790e+002, 2.031049e+002
9.845612e+002, 2.046539e+002
9.850433e+002, 2.062176e+002
9.855254e+002, 2.077901e+002
9.860075e+002, 2.094062e+002
9.864896e+002, 2.110768e+002
9.869717e+002, 2.127963e+002
9.874539e+002, 2.145457e+002
9.879360e+002, 2.163542e+002
9.884181e+002, 2.183825e+002
9.889002e+002, 2.208735e+002
9.893823e+002, 2.226363e+002
9.898644e+002, 2.231879e+002
9.903466e+002, 2.239549e+002
9.908287e+002, 2.255932e+002
9.913108e+002, 2.273988e+002
9.917929e+002, 2.287501e+002
9.922750e+002, 2.296871e+002
9.927571e+002, 2.304346e+002
9.932393e+002, 2.312090e+002
9.937214e+002, 2.314079e+002
9.942035e+002, 2.306065e+002
9.946856e+002, 2.297309e+002
9.951677e+002, 2.293095e+002
9.956498e+002, 2.288750e+002
9.961320e+002, 2.279679e+002
9.966141e+002, 2.265687e+002
9.970962e+002, 2.247628e+002
9.975783e+002, 2.218966e+002
9.980604e+002, 2.197472e+002
9.985425e+002, 2.193564e+002
9.990247e+002, 2.191993e+002
9.995068e+002, 2.185017e+002
9.999889e+002, 2.173427e+002
1.000471e+003, 2.158098e+002
1.000953e+003, 2.139806e+002
1.001435e+003, 2.122581e+002
1.001917e+003, 2.107492e+002
1.002399e+003, 2.094837e+002
1.002882e+003, 2.087133e+002
1.003364e+003, 2.079937e+002
1.003846e+003, 2.067823e+002
1.004328e+003, 2.053296e+002
1.004810e+003, 2.042508e+002
1.005292e+003, 2.036446e+002
1.005774e+003, 2.028575e+002
1.006256e+003, 2.011259e+002
1.006739e+003, 1.995100e+002
1.007221e+003, 1.993746e+002
1.007703e+003, 1.997518e+002
1.008185e+003, 1.992193e+002
1.008667e+003, 1.979248e+002
1.009149e+003, 1.966461e+002
1.009631e+003, 1.956870e+002
1.010113e+003, 1.950613e+002
1.010595e+003, 1.949733e+002
1.011078e+003, 1.950207e+002
1.011560e+003, 1.945543e+002
1.012042e+003, 1.937596e+002
1.012524e+003, 1.929853e+002
1.013006e+003, 1.923167e+002
1.013488e+003, 1.919474e+002
1.013970e+003, 1.919472e+002
1.014452e+003, 1.918425e+002
1.014935e+003, 1.909545e+002
1.015417e+003, 1.896842e+002
1.015899e+003, 1.890807e+002
1.016381e+003, 1.890177e+002
1.016863e+003, 1.889389e+002
1.017345e+003, 1.887607e+002
1.017827e+003, 1.885751e+002
1.018309e+003, 1.884287e+002
1.018791e+003, 1.883231e+002
1.019274e+003, 1.882730e+002
1.019756e+003, 1.882627e+002
1.020238e+003, 1.881910e+002
1.020720e+003, 1.880638e+002
1.021202e+003, 1.880614e+002
1.021684e+003, 1.882304e+002
1.022166e+003, 1.882107e+002
1.022648e+003, 1.877658e+002
1.023130e+003, 1.871589e+002
1.023613e+003, 1.867903e+002
1.024095e+003, 1.866558e+002
1.024577e+003, 1.867579e+002
1.025059e+003, 1.871446e+002
1.025541e+003, 1.873383e+002
1.026023e+003, 1.872295e+002
1.026505e+003, 1.869711e+002
1.026987e+003, 1.865737e+002
1.027469e+003, 1.862767e+002
1.027952e+003, 1.866137e+002
1.028434e+003, 1.876351e+002
1.028916e+003, 1.880219e+002
1.029398e+003, 1.876042e+002
1.029880e+003, 1.871177e+002
1.030362e+003, 1.865876e+002
1.030844e+003, 1.862998e+002
1.031326e+003, 1.865596e+002
1.031809e+003, 1.870551e+002
1.032291e+003, 1.871252e+002
1.032773e+003, 1.866981e+002
1.033255e+003, 1.864718e+002
1.033737e+003, 1.865112e+002
1.034219e+003, 1.866331e+002
1.034701e+003, 1.869596e+002
1.035183e+003, 1.871223e+002
1.035666e+003, 1.868057e+002
1.036148e+003, 1.861979e+002
1.036630e+003, 1.856062e+002
1.037112e+003, 1.849053e+002
1.037594e+003, 1.849440e+002
1.038076e+003, 1.865933e+002
1.038558e+003, 1.875723e+002
1.039040e+003, 1.871285e+002
1.039522e+003, 1.862928e+002
1.040005e+003, 1.855254e+002
1.040487e+003, 1.848866e+002
1.040969e+003, 1.845564e+002
1.041451e+003, 1.846192e+002
1.041933e+003, 1.845314e+002
1.042415e+003, 1.839769e+002
1.042897e+003, 1.837010e+002
1.043379e+003, 1.841516e+002
1.043861e+003, 1.846139e+002
1.044344e+003, 1.845463e+002
1.044826e+003, 1.841933e+002
1.045308e+003, 1.840108e+002
1.045790e+003, 1.840224e+002
1.046272e+003, 1.842611e+002
1.046754e+003, 1.852081e+002
1.047236e+003, 1.857267e+002
1.047718e+003, 1.851707e+002
1.048201e+003, 1.844578e+002
1.048683e+003, 1.841719e+002
1.049165e+003, 1.841996e+002
1.049647e+003, 1.842794e+002
1.050129e+003, 1.843818e+002
1.050611e+003, 1.845373e+002
1.051093e+003, 1.849414e+002
1.051575e+003, 1.851349e+002
1.052057e+003, 1.847154e+002
1.052540e+003, 1.842905e+002
1.053022e+003, 1.842408e+002
1.053504e+003, 1.845249e+002
1.053986e+003, 1.851447e+002
1.054468e+003, 1.861164e+002
1.054950e+003, 1.867071e+002
1.055432e+003, 1.864638e+002
1.055914e+003, 1.861624e+002
1.056396e+003, 1.860650e+002
1.056879e+003, 1.860098e+002
1.057361e+003, 1.859457e+002
1.057843e+003, 1.858063e+002
1.058325e+003, 1.853647e+002
1.058807e+003, 1.846097e+002
1.059289e+003, 1.843031e+002
1.059771e+003, 1.849686e+002
1.060253e+003, 1.857535e+002
1.060736e+003, 1.865571e+002
1.061218e+003, 1.871449e+002
1.061700e+003, 1.871876e+002
1.062182e+003, 1.869660e+002
1.062664e+003, 1.870479e+002
1.063146e+003, 1.874713e+002
1.063628e+003, 1.874998e+002
1.064110e+003, 1.864491e+002
1.064593e+003, 1.855486e+002
1.065075e+003, 1.853032e+002
1.065557e+003, 1.853988e+002
1.066039e+003, 1.857867e+002
1.066521e+003, 1.862560e+002
1.067003e+003, 1.864824e+002
1.067485e+003, 1.864526e+002
1.067967e+003, 1.865111e+002
1.068449e+003, 1.868966e+002
1.068932e+003, 1.871985e+002
1.069414e+003, 1.870722e+002
1.069896e+003, 1.869562e+002
1.070378e+003, 1.873794e+002
1.070860e+003, 1.879116e+002
1.071342e+003, 1.877193e+002
1.071824e+003, 1.868910e+002
1.072306e+003, 1.866180e+002
1.072788e+003, 1.876103e+002
1.073271e+003, 1.885814e+002
1.073753e+003, 1.890080e+002
1.074235e+003, 1.891181e+002
1.074717e+003, 1.888230e+002
1.075199e+003, 1.884727e+002
1.075681e+003, 1.886836e+002
1.076163e+003, 1.893137e+002
1.076645e+003, 1.893899e+002
1.077127e+003, 1.883268e+002
1.077610e+003, 1.875054e+002
1.078092e+003, 1.876829e+002
1.078574e+003, 1.881917e+002
1.079056e+003, 1.888040e+002
1.079538e+003, 1.893331e+002
1.080020e+003, 1.895995e+002
1.080502e+003, 1.896084e+002
1.080984e+003, 1.893963e+002
1.081467e+003, 1.888857e+002
1.081949e+003, 1.886113e+002
1.082431e+003, 1.891567e+002
1.082913e+003, 1.896108e+002
1.083395e+003, 1.891778e+002
1.083877e+003, 1.885479e+002
1.084359e+003, 1.885776e+002
1.084841e+003, 1.890610e+002
1.085323e+003, 1.891876e+002
1.085806e+003, 1.886909e+002
1.086288e+003, 1.884030e+002
1.086770e+003, 1.888799e+002
1.087252e+003, 1.893984e+002
1.087734e+003, 1.895306e+002
1.088216e+003, 1.895789e+002
1.088698e+003, 1.899423e+002
1.089180e+003, 1.904209e+002
1.089662e+003, 1.905158e+002
1.090145e+003, 1.901242e+002
1.090627e+003, 1.897218e+002
1.091109e+003, 1.893127e+002
1.091591e+003, 1.891593e+002
1.092073e+003, 1.894391e+002
1.092555e+003, 1.899543e+002
1.093037e+003, 1.908487e+002
1.093519e+003, 1.917272e+002
1.094002e+003, 1.919656e+002
1.094484e+003, 1.914945e+002
1.094966e+003, 1.907364e+002
1.095448e+003, 1.893351e+002
1.095930e+003, 1.883925e+002
1.096412e+003, 1.881884e+002
1.096894e+003, 1.886411e+002
1.097376e+003, 1.905124e+002
1.097859e+003, 1.925087e+002
1.098341e+003, 1.926707e+002
1.098823e+003, 1.911425e+002
1.099305e+003, 1.901407e+002
1.099787e+003, 1.905374e+002
1.100269e+003, 1.907218e+002
1.100751e+003, 1.899263e+002
1.101233e+003, 1.892473e+002
1.101715e+003, 1.893445e+002
1.102198e+003, 1.897356e+002
1.102680e+003, 1.899283e+002
1.103162e+003, 1.899388e+002
1.103644e+003, 1.900115e+002
1.104126e+003, 1.902937e+002
1.104608e+003, 1.902816e+002
1.105090e+003, 1.894818e+002
1.105572e+003, 1.889030e+002
1.106054e+003, 1.889157e+002
1.106537e+003, 1.892640e+002
1.107019e+003, 1.900683e+002
1.107501e+003, 1.909675e+002
1.107983e+003, 1.909824e+002
1.108465e+003, 1.897750e+002
1.108947e+003, 1.892425e+002
1.109429e+003, 1.901650e+002
1.109911e+003, 1.908979e+002
1.110394e+003, 1.909006e+002
1.110876e+003, 1.908452e+002
1.111358e+003, 1.912512e+002
1.111840e+003, 1.918063e+002
1.112322e+003, 1.919239e+002
1.112804e+003, 1.915648e+002
1.113286e+003, 1.914642e+002
1.113768e+003, 1.918662e+002
1.114250e+003, 1.921257e+002
1.114733e+003, 1.922886e+002
1.115215e+003, 1.921745e+002
1.115697e+003, 1.914864e+002
1.116179e+003, 1.906857e+002
1.116661e+003, 1.902953e+002
1.117143e+003, 1.902774e+002
1.117625e+003, 1.903500e+002
1.118107e+003, 1.905325e+002
1.118589e+003, 1.907577e+002
1.119072e+003, 1.909926e+002
1.119554e+003, 1.913675e+002
1.120036e+003, 1.921166e+002
1.120518e+003, 1.926958e+002
1.121000e+003, 1.925533e+002
1.121482e+003, 1.919439e+002
1.121964e+003, 1.916010e+002
1.122446e+003, 1.915309e+002
1.122929e+003, 1.917486e+002
1.123411e+003, 1.924517e+002
1.123893e+003, 1.927007e+002
1.124375e+003, 1.921084e+002
1.124857e+003, 1.916127e+002
1.125339e+003, 1.918633e+002
1.125821e+003, 1.924341e+002
1.126303e+003, 1.925434e+002
1.126786e+003, 1.922396e+002
1.127268e+003, 1.925803e+002
1.127750e+003, 1.937113e+002
1.128232e+003, 1.940389e+002
1.128714e+003, 1.932390e+002
1.129196e+003, 1.925147e+002
1.129678e+003, 1.924070e+002
1.130160e+003, 1.926364e+002
1.130642e+003, 1.929234e+002
1.131125e+003, 1.932346e+002
1.131607e+003, 1.934621e+002
1.132089e+003, 1.936051e+002
1.132571e+003, 1.935583e+002
1.133053e+003, 1.933292e+002
1.133535e+003, 1.934361e+002
1.134017e+003, 1.940363e+002
1.134499e+003, 1.945124e+002
1.134981e+003, 1.943509e+002
1.135464e+003, 1.939614e+002
1.135946e+003, 1.941672e+002
1.136428e+003, 1.947718e+002
1.136910e+003, 1.949706e+002
1.137392e+003, 1.948454e+002
1.137874e+003, 1.948459e+002
1.138356e+003, 1.950461e+002
1.138838e+003, 1.952931e+002
1.139321e+003, 1.955086e+002
1.139803e+003, 1.957530e+002
1.140285e+003, 1.961389e+002
1.140767e+003, 1.965606e+002
1.141249e+003, 1.968693e+002
1.141731e+003, 1.970479e+002
1.142213e+003, 1.968428e+002
1.142695e+003, 1.964749e+002
1.143177e+003, 1.969139e+002
1.143660e+003, 1.983106e+002
1.144142e+003, 1.992177e+002
1.144624e+003, 1.983797e+002
1.145106e+003, 1.972018e+002
1.145588e+003, 1.972256e+002
1.146070e+003, 1.977047e+002
1.146552e+003, 1.977270e+002
1.147034e+003, 1.974675e+002
1.147516e+003, 1.973108e+002
1.147999e+003, 1.973357e+002
1.148481e+003, 1.975279e+002
1.148963e+003, 1.979275e+002
1.149445e+003, 1.982003e+002
1.149927e+003, 1.979626e+002
1.150409e+003, 1.977160e+002
1.150891e+003, 1.977840e+002
1.151373e+003, 1.980639e+002
1.151856e+003, 1.985539e+002
1.152338e+003, 1.991162e+002
1.152820e+003, 1.995327e+002
1.153302e+003, 1.997555e+002
1.153784e+003, 1.997034e+002
1.154266e+003, 1.990015e+002
1.154748e+003, 1.985149e+002
1.155230e+003, 1.985572e+002
1.155713e+003, 1.988696e+002
1.156195e+003, 1.994157e+002
1.156677e+003, 2.000569e+002
1.157159e+003, 2.007339e+002
1.157641e+003, 2.013878e+002
1.158123e+003, 2.016946e+002
1.158605e+003, 2.015955e+002
1.159087e+003, 2.012225e+002
1.159569e+003, 2.002228e+002
1.160052e+003, 1.994456e+002
1.160534e+003, 1.990622e+002
1.161016e+003, 1.990428e+002
1.161498e+003, 1.996406e+002
1.161980e+003, 2.004267e+002
1.162462e+003, 2.003327e+002
1.162944e+003, 1.991906e+002
1.163426e+003, 1.990440e+002
1.163908e+003, 2.003506e+002
1.164391e+003, 2.013182e+002
1.164873e+003, 2.016799e+002
1.165355e+003, 2.017141e+002
1.165837e+003, 2.013916e+002
1.166319e+003, 2.012487e+002
1.166801e+003, 2.020452e+002
1.167283e+003, 2.034209e+002
1.167765e+003, 2.037851e+002
1.168247e+003, 2.030918e+002
1.168730e+003, 2.028706e+002
1.169212e+003, 2.032046e+002
1.169694e+003, 2.032591e+002
1.170176e+003, 2.027998e+002
1.170658e+003, 2.023605e+002
1.171140e+003, 2.022962e+002
1.171622e+003, 2.025524e+002
1.172104e+003, 2.031480e+002
1.172587e+003, 2.039512e+002
1.173069e+003, 2.046535e+002
1.173551e+003, 2.051672e+002
1.174033e+003, 2.050104e+002
1.174515e+003, 2.042777e+002
1.174997e+003, 2.037141e+002
1.175479e+003, 2.035925e+002
1.175961e+003, 2.035982e+002
1.176443e+003, 2.034748e+002
1.176926e+003, 2.033362e+002
1.177408e+003, 2.033482e+002
1.177890e+003, 2.034171e+002
1.178372e+003, 2.032850e+002
1.178854e+003, 2.031542e+002
1.179336e+003, 2.034863e+002
1.179818e+003, 2.042630e+002
1.180300e+003, 2.051396e+002
1.180782e+003, 2.060351e+002
1.181265e+003, 2.065181e+002
1.181747e+003, 2.060175e+002
1.182229e+003, 2.053891e+002
1.182711e+003, 2.050699e+002
1.183193e+003, 2.050004e+002
1.183675e+003, 2.053303e+002
1.184157e+003, 2.057601e+002
1.184639e+003, 2.057000e+002
1.185122e+003, 2.050987e+002
1.185604e+003, 2.046404e+002
1.186086e+003, 2.045417e+002
1.186568e+003, 2.044939e+002
1.187050e+003, 2.043224e+002
1.187532e+003, 2.043451e+002
1.188014e+003, 2.049730e+002
1.188496e+003, 2.056074e+002
1.188979e+003, 2.055689e+002
1.189461e+003, 2.051380e+002
1.189943e+003, 2.051679e+002
1.190425e+003, 2.057980e+002
1.190907e+003, 2.060188e+002
1.191389e+003, 2.055546e+002
1.191871e+003, 2.054932e+002
1.192353e+003, 2.061556e+002
1.192835e+003, 2.068010e+002
1.193318e+003, 2.070702e+002
1.193800e+003, 2.070943e+002
1.194282e+003, 2.069635e+002
1.194764e+003, 2.068020e+002
1.195246e+003, 2.072341e+002
1.195728e+003, 2.082202e+002
1.196210e+003, 2.086653e+002
1.196692e+003, 2.085312e+002
1.197174e+003, 2.080628e+002
1.197657e+003, 2.073518e+002
1.198139e+003, 2.068100e+002
1.198621e+003, 2.066859e+002
1.199103e+003, 2.069680e+002
1.199585e+003, 2.080087e+002
1.200067e+003, 2.091595e+002
1.200549e+003, 2.087755e+002
1.201031e+003, 2.076313e+002
1.201514e+003, 2.075661e+002
1.201996e+003, 2.083586e+002
1.202478e+003, 2.086569e+002
1.202960e+003, 2.081813e+002
1.203442e+003, 2.079322e+002
1.203924e+003, 2.086401e+002
1.204406e+003, 2.092946e+002
1.204888e+003, 2.089489e+002
1.205370e+003, 2.084308e+002
1.205853e+003, 2.084098e+002
1.206335e+003, 2.086353e+002
1.206817e+003, 2.087842e+002
1.207299e+003, 2.088760e+002
1.207781e+003, 2.091086e+002
1.208263e+003, 2.095384e+002
1.208745e+003, 2.097785e+002
1.209227e+003, 2.096184e+002
1.209709e+003, 2.094342e+002
1.210192e+003, 2.092071e+002
1.210674e+003, 2.090843e+002
1.211156e+003, 2.091797e+002
1.211638e+003, 2.093740e+002
1.212120e+003, 2.095069e+002
1.212602e+003, 2.096494e+002
1.213084e+003, 2.101306e+002
1.213566e+003, 2.111256e+002
1.214049e+003, 2.115121e+002
1.214531e+003, 2.110945e+002
1.215013e+003, 2.108994e+002
1.215495e+003, 2.112166e+002
1.215977e+003, 2.112226e+002
1.216459e+003, 2.103984e+002
1.216941e+003, 2.095117e+002
1.217423e+003, 2.095199e+002
1.217906e+003, 2.101851e+002
1.218388e+003, 2.108217e+002
1.218870e+003, 2.114424e+002
1.219352e+003, 2.123065e+002
1.219834e+003, 2.132581e+002
1.220316e+003, 2.133197e+002
1.220798e+003, 2.124056e+002
1.221280e+003, 2.114916e+002
1.221762e+003, 2.110990e+002
1.222245e+003, 2.109101e+002
1.222727e+003, 2.104249e+002
1.223209e+003, 2.101526e+002
1.223691e+003, 2.109303e+002
1.224173e+003, 2.120805e+002
1.224655e+003, 2.128475e+002
1.225137e+003, 2.132090e+002
1.225619e+003, 2.131725e+002
1.226101e+003, 2.128435e+002
1.226584e+003, 2.127043e+002
1.227066e+003, 2.130000e+002
1.227548e+003, 2.132682e+002
1.228030e+003, 2.133850e+002
1.228512e+003, 2.134012e+002
1.228994e+003, 2.133446e+002
1.229476e+003, 2.131913e+002
1.229958e+003, 2.128029e+002
1.230441e+003, 2.123641e+002
1.230923e+003, 2.121835e+002
1.231405e+003, 2.122573e+002
1.231887e+003, 2.124897e+002
1.232369e+003, 2.129529e+002
1.232851e+003, 2.133464e+002
1.233333e+003, 2.136444e+002
1.233815e+003, 2.139291e+002
1.234297e+003, 2.142447e+002
1.234780e+003, 2.144264e+002
1.235262e+003, 2.143106e+002
1.235744e+003, 2.141807e+002
1.236226e+003, 2.146134e+002
1.236708e+003, 2.154030e+002
1.237190e+003, 2.156628e+002
1.237672e+003, 2.154963e+002
1.238154e+003, 2.153314e+002
1.238636e+003, 2.152181e+002
1.239119e+003, 2.151108e+002
1.239601e+003, 2.150078e+002
1.240083e+003, 2.150081e+002
1.240565e+003, 2.151988e+002
1.241047e+003, 2.153907e+002
1.241529e+003, 2.153612e+002
1.242011e+003, 2.152910e+002
1.242493e+003, 2.154139e+002
1.242975e+003, 2.155605e+002
1.243458e+003, 2.153156e+002
1.243940e+003, 2.149970e+002
1.244422e+003, 2.154973e+002
1.244904e+003, 2.168576e+002
1.245386e+003, 2.176045e+002
1.245868e+003, 2.169013e+002
1.246350e+003, 2.164061e+002
1.246832e+003, 2.165031e+002
1.247315e+003, 2.167114e+002
1.247797e+003, 2.170791e+002
1.248279e+003, 2.172185e+002
1.248761e+003, 2.165712e+002
1.249243e+003, 2.158031e+002
1.249725e+003, 2.162261e+002
1.250207e+003, 2.177441e+002
1.250689e+003, 2.187415e+002
1.251172e+003, 2.192001e+002
1.251654e+003, 2.192078e+002
1.252136e+003, 2.187495e+002
1.252618e+003, 2.184013e+002
1.253100e+003, 2.183359e+002
1.253582e+003, 2.185151e+002
1.254064e+003, 2.189413e+002
1.254546e+003, 2.192922e+002
1.255028e+003, 2.190011e+002
1.255510e+003, 2.184151e+002
1.255993e+003, 2.180955e+002
1.256475e+003, 2.180201e+002
1.256957e+003, 2.181457e+002
1.257439e+003, 2.184850e+002
1.257921e+003, 2.192483e+002
1.258403e+003, 2.203330e+002
1.258885e+003, 2.209940e+002
1.259367e+003, 2.207897e+002
1.259850e+003, 2.206110e+002
1.260332e+003, 2.209851e+002
1.260814e+003, 2.213340e+002
1.261296e+003, 2.213707e+002
1.261778e+003, 2.212910e+002
1.262260e+003, 2.211133e+002
1.262742e+003, 2.210016e+002
1.263224e+003, 2.212542e+002
1.263707e+003, 2.218186e+002
1.264189e+003, 2.222583e+002
1.264671e+003, 2.225939e+002
1.265153e+003, 2.227016e+002
1.265635e+003, 2.225023e+002
1.266117e+003, 2.224417e+002
1.266599e+003, 2.226409e+002
1.267081e+003, 2.228038e+002
1.267563e+003, 2.227475e+002
1.268046e+003, 2.227597e+002
1.268528e+003, 2.232770e+002
1.269010e+003, 2.239357e+002
1.269492e+003, 2.235896e+002
1.269974e+003, 2.228431e+002
1.270456e+003, 2.235128e+002
1.270938e+003, 2.250639e+002
1.271420e+003, 2.258403e+002
1.271902e+003, 2.257008e+002
1.272385e+003, 2.253568e+002
1.272867e+003, 2.250787e+002
1.273349e+003, 2.250803e+002
1.273831e+003, 2.257159e+002
1.274313e+003, 2.263459e+002
1.274795e+003, 2.267300e+002
1.275277e+003, 2.269174e+002
1.275759e+003, 2.268322e+002
1.276242e+003, 2.266596e+002
1.276724e+003, 2.265043e+002
1.277206e+003, 2.264548e+002
1.277688e+003, 2.268119e+002
1.278170e+003, 2.276677e+002
1.278652e+003, 2.280208e+002
1.279134e+003, 2.276418e+002
1.279616e+003, 2.276304e+002
1.280099e+003, 2.281752e+002
1.280581e+003, 2.287016e+002
1.281063e+003, 2.290094e+002
1.281545e+003, 2.291404e+002
1.282027e+003, 2.291053e+002
1.282509e+003, 2.290506e+002
1.282991e+003, 2.292568e+002
1.283473e+003, 2.296096e+002
1.283955e+003, 2.299128e+002
##END=



