##NAMES=Clinoatacamite
##RRUFFID=R061066
##IDEAL CHEMISTRY=Cu^2+^_2_Cl(OH)_3_
##LOCALITY=Esperanza mine, Diego de Almagro, Chile
##OWNER=RRUFF
##SOURCE=Bob Jenkins
##DESCRIPTION=Aggregates of dark green pseudo-octahedral crystals associated with malachite
##STATUS=The identification of this mineral is confirmed by single-crystal X-ray diffraction and chemical analysis.
##URL=rruff.info/R061066
##MEASURED CHEMISTRY=Cu_2.00_Cl_1.00_(OH)_3_
109.4752, 1073.880
109.9573, 1074.049
110.4395, 1079.671
110.9216, 1090.277
111.4037, 1105.503
111.8858, 1135.468
112.3679, 1190.696
112.8500, 1261.411
113.3322, 1336.611
113.8143, 1411.961
114.2964, 1494.679
114.7785, 1604.260
115.2606, 1757.235
115.7427, 1881.614
116.2249, 1939.093
116.7070, 1956.166
117.1891, 1956.074
117.6712, 1944.942
118.1533, 1925.325
118.6354, 1904.567
119.1175, 1888.041
119.5997, 1859.602
120.0818, 1794.985
120.5639, 1719.887
121.0460, 1672.097
121.5281, 1676.339
122.0102, 1726.071
122.4924, 1781.791
122.9745, 1829.249
123.4566, 1901.915
123.9387, 2004.297
124.4208, 2137.735
124.9029, 2303.206
125.3851, 2501.497
125.8672, 2733.169
126.3493, 2996.689
126.8314, 3319.314
127.3135, 3652.441
127.7956, 3951.487
128.2778, 4242.391
128.7599, 4603.794
129.2420, 5125.143
129.7241, 5847.158
130.2062, 6486.611
130.6884, 7115.795
131.1705, 7615.870
131.6526, 7920.653
132.1347, 8033.829
132.6168, 8006.956
133.0989, 7897.291
133.5811, 7714.968
134.0632, 7389.967
134.5453, 6843.171
135.0274, 6241.437
135.5095, 5649.205
135.9916, 5093.822
136.4738, 4603.425
136.9559, 4221.190
137.4380, 3987.664
137.9201, 3798.941
138.4022, 3665.943
138.8843, 3567.240
139.3665, 3481.143
139.8486, 3403.628
140.3307, 3352.258
140.8128, 3356.460
141.2949, 3447.488
141.7770, 3546.249
142.2592, 3645.960
142.7413, 3754.677
143.2234, 3875.244
143.7055, 4007.641
144.1876, 4164.659
144.6697, 4371.708
145.1519, 4615.043
145.6340, 4932.415
146.1161, 5385.449
146.5982, 5824.047
147.0803, 6151.318
147.5624, 6422.444
148.0446, 6602.296
148.5267, 6590.143
149.0088, 6378.723
149.4909, 6093.334
149.9730, 5713.019
150.4551, 5281.979
150.9372, 4883.105
151.4194, 4541.645
151.9015, 4245.486
152.3836, 3967.375
152.8657, 3695.973
153.3478, 3450.349
153.8299, 3235.363
154.3121, 3050.516
154.7942, 2894.882
155.2763, 2768.383
155.7584, 2672.962
156.2405, 2610.081
156.7226, 2584.625
157.2048, 2574.454
157.6869, 2571.717
158.1690, 2575.621
158.6511, 2584.947
159.1332, 2603.520
159.6153, 2623.080
160.0975, 2629.354
160.5796, 2621.200
161.0617, 2604.221
161.5438, 2584.350
162.0259, 2560.798
162.5080, 2524.622
162.9902, 2471.252
163.4723, 2403.411
163.9544, 2327.127
164.4365, 2237.706
164.9186, 2150.354
165.4007, 2077.709
165.8829, 2018.951
166.3650, 1964.385
166.8471, 1910.745
167.3292, 1859.347
167.8113, 1809.938
168.2934, 1758.869
168.7756, 1716.436
169.2577, 1698.401
169.7398, 1705.195
170.2219, 1705.037
170.7040, 1677.747
171.1861, 1639.294
171.6683, 1610.092
172.1504, 1596.043
172.6325, 1585.907
173.1146, 1568.734
173.5967, 1544.042
174.0788, 1516.373
174.5610, 1482.347
175.0431, 1448.164
175.5252, 1420.960
176.0073, 1402.350
176.4894, 1390.013
176.9715, 1385.168
177.4537, 1389.919
177.9358, 1386.321
178.4179, 1358.451
178.9000, 1321.695
179.3821, 1290.718
179.8642, 1269.579
180.3464, 1253.157
180.8285, 1237.121
181.3106, 1222.512
181.7927, 1202.387
182.2748, 1150.933
182.7569, 1153.573
183.2391, 1149.739
183.7212, 1139.784
184.2033, 1105.365
184.6854, 1102.536
185.1675, 1087.048
185.6496, 1071.040
186.1318, 1072.655
186.6139, 1041.794
187.0960, 1043.133
187.5781, 1031.618
188.0602, 1025.985
188.5423, 1007.614
189.0245, 993.1755
189.5066, 991.4815
189.9887, 982.7324
190.4708, 962.8954
190.9529, 942.3917
191.4350, 956.0443
191.9172, 961.3753
192.3993, 958.8345
192.8814, 924.8398
193.3635, 931.4612
193.8456, 921.8055
194.3277, 911.4824
194.8099, 923.8192
195.2920, 894.3993
195.7741, 906.3781
196.2562, 901.8312
196.7383, 904.8477
197.2204, 891.4864
197.7026, 883.1826
198.1847, 891.2629
198.6668, 890.2719
199.1489, 875.0253
199.6310, 878.5225
200.1131, 848.5305
200.5953, 847.9246
201.0774, 859.9993
201.5595, 845.5762
202.0416, 849.3729
202.5237, 846.2305
203.0058, 811.5527
203.4880, 831.7169
203.9701, 828.1646
204.4522, 800.2591
204.9343, 818.5453
205.4164, 792.4942
205.8985, 792.0630
206.3807, 795.0206
206.8628, 800.4319
207.3449, 802.4349
207.8270, 792.2298
208.3091, 768.2334
208.7912, 748.5207
209.2734, 737.6271
209.7555, 732.0175
210.2376, 730.5264
210.7197, 732.9021
211.2018, 737.0790
211.6839, 741.9569
212.1661, 747.6392
212.6482, 751.4448
213.1303, 753.0856
213.6124, 752.2720
214.0945, 747.9383
214.5766, 740.3032
215.0588, 732.4034
215.5409, 726.9401
216.0230, 723.8635
216.5051, 720.8240
216.9872, 716.3492
217.4693, 713.1910
217.9515, 715.1444
218.4336, 721.3565
218.9157, 724.6225
219.3978, 717.8740
219.8799, 702.2623
220.3620, 688.1324
220.8442, 674.4450
221.3263, 665.3267
221.8084, 664.2224
222.2905, 669.9943
222.7726, 676.8880
223.2547, 683.4935
223.7369, 688.8986
224.2190, 687.4731
224.7011, 674.0458
225.1832, 660.9391
225.6653, 658.3961
226.1474, 663.2230
226.6296, 665.1647
227.1117, 654.0208
227.5938, 635.5804
228.0759, 628.5939
228.5580, 638.6256
229.0401, 650.2916
229.5223, 653.5844
230.0044, 650.9736
230.4865, 647.5268
230.9686, 644.2064
231.4507, 641.7334
231.9328, 642.6678
232.4150, 648.8701
232.8971, 653.0283
233.3792, 647.6857
233.8613, 637.4741
234.3434, 630.0023
234.8255, 628.6326
235.3077, 630.6975
235.7898, 633.5266
236.2719, 637.6944
236.7540, 639.2988
237.2361, 633.4789
237.7182, 624.1802
238.2004, 617.6809
238.6825, 616.3970
239.1646, 617.0698
239.6467, 615.2886
240.1288, 610.9272
240.6109, 610.5990
241.0931, 622.0504
241.5752, 637.4717
242.0573, 642.6115
242.5394, 630.9964
243.0215, 617.9028
243.5036, 617.1792
243.9858, 626.9189
244.4679, 632.2513
244.9500, 625.4473
245.4321, 612.2397
245.9142, 603.2745
246.3963, 599.0319
246.8785, 597.6183
247.3606, 598.2761
247.8427, 600.9908
248.3248, 606.7742
248.8069, 617.9039
249.2890, 629.0894
249.7712, 630.2189
250.2533, 618.9181
250.7354, 610.5991
251.2175, 613.2167
251.6996, 622.0474
252.1817, 628.8121
252.6639, 631.3770
253.1460, 631.6696
253.6281, 632.2413
254.1102, 633.3525
254.5923, 632.9886
255.0744, 629.7170
255.5566, 625.2627
256.0387, 621.1398
256.5208, 617.6188
257.0029, 615.5964
257.4850, 616.2556
257.9671, 620.0579
258.4492, 624.0884
258.9314, 631.7219
259.4135, 637.1473
259.8956, 634.2142
260.3777, 623.3539
260.8598, 611.7172
261.3419, 605.3321
261.8241, 604.4960
262.3062, 600.4996
262.7883, 589.8264
263.2704, 579.6982
263.7525, 573.8508
264.2346, 571.6331
264.7168, 569.9797
265.1989, 566.5773
265.6810, 562.0930
266.1631, 562.8120
266.6452, 576.0634
267.1273, 585.5275
267.6095, 586.1318
268.0916, 580.2463
268.5737, 570.5298
269.0558, 557.8622
269.5379, 544.8335
270.0201, 539.8481
270.5022, 553.8060
270.9843, 563.3672
271.4664, 566.5297
271.9485, 565.2802
272.4306, 560.4875
272.9128, 552.7231
273.3949, 544.3463
273.8770, 539.8621
274.3591, 542.3032
274.8412, 543.2681
275.3233, 541.2728
275.8055, 539.0170
276.2876, 539.0710
276.7697, 541.4340
277.2518, 543.4725
277.7339, 541.6396
278.2160, 534.5035
278.6982, 529.5126
279.1803, 527.8996
279.6624, 527.2866
280.1445, 527.5999
280.6266, 528.2208
281.1087, 527.7343
281.5909, 524.4758
282.0730, 518.6410
282.5551, 515.0267
283.0372, 515.6095
283.5193, 516.1404
284.0014, 514.7682
284.4836, 512.4360
284.9657, 510.7356
285.4478, 510.4333
285.9299, 511.4646
286.4120, 514.9178
286.8941, 524.6898
287.3763, 527.9003
287.8584, 512.3889
288.3405, 491.6663
288.8226, 480.6172
289.3047, 485.1741
289.7868, 496.9757
290.2690, 506.8411
290.7511, 515.0943
291.2332, 518.1053
291.7153, 509.6548
292.1974, 498.7219
292.6795, 493.3422
293.1617, 494.5264
293.6438, 498.7238
294.1259, 504.5282
294.6080, 511.4872
295.0901, 517.7630
295.5722, 524.2125
296.0544, 527.8168
296.5365, 524.0381
297.0186, 513.5108
297.5007, 504.5915
297.9828, 502.0207
298.4649, 502.6253
298.9471, 500.9651
299.4292, 496.1489
299.9113, 490.8896
300.3934, 486.4684
300.8755, 483.2927
301.3576, 484.0255
301.8398, 493.0113
302.3219, 502.9750
302.8040, 507.9427
303.2861, 508.2950
303.7682, 507.7818
304.2503, 508.4709
304.7325, 510.1879
305.2146, 511.9194
305.6967, 516.8394
306.1788, 518.3215
306.6609, 509.4957
307.1430, 496.3384
307.6252, 491.2704
308.1073, 500.1127
308.5894, 515.4167
309.0715, 520.7344
309.5536, 504.9521
310.0357, 495.4964
310.5179, 498.7929
311.0000, 505.4299
311.4821, 506.4872
311.9642, 500.3689
312.4463, 491.6712
312.9284, 485.8696
313.4106, 483.1433
313.8927, 482.9308
314.3748, 488.2567
314.8569, 492.9372
315.3390, 492.1079
315.8211, 487.6364
316.3033, 486.0197
316.7854, 493.5169
317.2675, 508.7383
317.7496, 514.5851
318.2317, 504.0412
318.7138, 491.9398
319.1960, 479.1455
319.6781, 467.9114
320.1602, 461.3042
320.6423, 461.0020
321.1244, 464.8280
321.6065, 468.9145
322.0887, 473.8450
322.5708, 477.1837
323.0529, 478.8185
323.5350, 478.3217
324.0171, 472.9351
324.4992, 462.1570
324.9814, 454.6169
325.4635, 461.3415
325.9456, 480.9443
326.4277, 495.1379
326.9098, 500.3292
327.3919, 500.2678
327.8741, 496.9135
328.3562, 490.9102
328.8383, 486.0173
329.3204, 482.5637
329.8025, 481.6553
330.2846, 487.2986
330.7668, 500.7972
331.2489, 511.7908
331.7310, 511.1108
332.2131, 501.6502
332.6952, 495.4698
333.1773, 494.4060
333.6595, 495.9294
334.1416, 501.4189
334.6237, 508.8771
335.1058, 509.9862
335.5879, 499.1927
336.0700, 482.7089
336.5522, 477.8780
337.0343, 493.7979
337.5164, 503.5186
337.9985, 495.0300
338.4806, 481.3689
338.9627, 478.8702
339.4449, 490.9992
339.9270, 507.0402
340.4091, 513.2510
340.8912, 505.7943
341.3733, 502.0786
341.8554, 503.4091
342.3376, 506.6464
342.8197, 512.1799
343.3018, 518.4360
343.7839, 521.5886
344.2660, 518.0865
344.7481, 509.3206
345.2303, 506.4547
345.7124, 510.6021
346.1945, 519.9774
346.6766, 541.0415
347.1587, 564.0793
347.6408, 576.8210
348.1230, 574.4164
348.6051, 565.6100
349.0872, 564.8688
349.5693, 574.4264
350.0514, 581.3788
350.5335, 579.6737
351.0157, 577.5958
351.4978, 581.1760
351.9799, 590.3210
352.4620, 599.4818
352.9441, 605.1525
353.4262, 607.7737
353.9084, 607.3809
354.3905, 601.2073
354.8726, 599.0090
355.3547, 615.8770
355.8368, 642.7073
356.3189, 657.8776
356.8011, 646.4587
357.2832, 629.1682
357.7653, 625.2702
358.2474, 633.0756
358.7295, 640.1509
359.2116, 639.3405
359.6938, 635.4308
360.1759, 642.0813
360.6580, 666.4397
361.1401, 685.3498
361.6222, 688.5353
362.1043, 684.5875
362.5865, 685.2272
363.0686, 693.0876
363.5507, 701.5217
364.0328, 702.0360
364.5149, 691.8397
364.9970, 685.5966
365.4792, 687.3181
365.9613, 688.6221
366.4434, 685.2376
366.9255, 677.9291
367.4076, 668.9205
367.8897, 659.0918
368.3719, 649.5980
368.8540, 646.5688
369.3361, 657.4568
369.8182, 663.3230
370.3003, 660.3174
370.7824, 651.8221
371.2646, 640.2462
371.7467, 626.3890
372.2288, 611.3704
372.7109, 594.9676
373.1930, 576.7738
373.6751, 564.9882
374.1573, 565.9100
374.6394, 567.6916
375.1215, 561.5201
375.6036, 549.1859
376.0857, 538.1895
376.5678, 532.5182
377.0500, 530.4406
377.5321, 529.9894
378.0142, 531.4686
378.4963, 531.0650
378.9784, 525.8835
379.4605, 517.3179
379.9427, 509.4842
380.4248, 500.7119
380.9069, 495.2691
381.3890, 498.1859
381.8711, 505.4926
382.3532, 509.2964
382.8354, 507.1904
383.3175, 500.9008
383.7996, 492.0593
384.2817, 477.8988
384.7638, 470.0143
385.2459, 474.7209
385.7281, 480.3265
386.2102, 479.5523
386.6923, 472.7859
387.1744, 463.2054
387.6565, 452.2080
388.1386, 441.0315
388.6208, 439.0855
389.1029, 460.2944
389.5850, 471.9179
390.0671, 459.6107
390.5492, 440.3231
391.0313, 432.4674
391.5135, 441.3508
391.9956, 455.7769
392.4777, 461.1598
392.9598, 456.5540
393.4419, 454.2153
393.9240, 457.3600
394.4062, 460.7833
394.8883, 460.0208
395.3704, 456.4727
395.8525, 455.2790
396.3346, 462.6340
396.8167, 472.1898
397.2989, 471.8579
397.7810, 461.0630
398.2631, 452.8293
398.7452, 454.9046
399.2273, 463.4245
399.7094, 468.5757
400.1916, 469.1991
400.6737, 468.8687
401.1558, 468.4904
401.6379, 468.1617
402.1200, 468.1241
402.6021, 468.4258
403.0843, 468.5915
403.5664, 467.6587
404.0485, 464.6889
404.5306, 465.9619
405.0127, 477.9903
405.4948, 487.2535
405.9770, 484.8211
406.4591, 475.0712
406.9412, 466.9429
407.4233, 465.1629
407.9054, 469.2819
408.3875, 479.8128
408.8697, 505.0546
409.3518, 518.8413
409.8339, 506.5894
410.3160, 490.3960
410.7981, 486.7569
411.2802, 496.9697
411.7624, 509.7634
412.2445, 516.8013
412.7266, 518.6644
413.2087, 517.8187
413.6908, 513.2552
414.1729, 508.6147
414.6551, 506.7813
415.1372, 506.4329
415.6193, 505.0310
416.1014, 500.6218
416.5835, 496.9823
417.0656, 498.3734
417.5478, 503.0052
418.0299, 504.6138
418.5120, 500.4675
418.9941, 494.8205
419.4762, 494.5815
419.9583, 502.4518
420.4405, 507.3872
420.9226, 506.9149
421.4047, 505.1140
421.8868, 504.8631
422.3689, 505.9506
422.8510, 506.6053
423.3332, 505.5807
423.8153, 503.1455
424.2974, 500.7115
424.7795, 498.2899
425.2616, 495.8743
425.7437, 492.6113
426.2259, 489.8556
426.7080, 489.3734
427.1901, 491.3453
427.6722, 493.3673
428.1543, 491.7422
428.6364, 487.0218
429.1186, 487.5710
429.6007, 498.0280
430.0828, 506.3878
430.5649, 501.2410
431.0470, 488.7086
431.5291, 481.7301
432.0113, 487.3410
432.4934, 495.3713
432.9755, 497.7296
433.4576, 495.2073
433.9397, 490.3895
434.4218, 483.5498
434.9040, 476.4252
435.3861, 471.4643
435.8682, 467.9873
436.3503, 469.1729
436.8324, 482.0634
437.3145, 494.2413
437.7967, 494.4893
438.2788, 485.2542
438.7609, 462.1524
439.2430, 478.2289
439.7251, 487.0253
440.2072, 488.9326
440.6894, 463.3177
441.1715, 473.2420
441.6536, 468.9239
442.1357, 464.0218
442.6178, 478.9482
443.0999, 457.3363
443.5821, 471.9482
444.0642, 472.1003
444.5463, 478.8703
445.0284, 471.3098
445.5105, 468.1755
445.9926, 479.3764
446.4748, 482.6396
446.9569, 473.4295
447.4390, 480.6202
447.9211, 458.5078
448.4032, 462.1092
448.8853, 476.8051
449.3675, 468.3153
449.8496, 475.7680
450.3317, 477.1490
450.8138, 450.9366
451.2959, 472.7119
451.7780, 473.7340
452.2602, 453.4472
452.7423, 473.5782
453.2244, 456.2291
453.7065, 452.2581
454.1886, 458.3551
454.6707, 442.3267
455.1529, 456.0717
455.6350, 463.3456
456.1171, 464.4961
456.5992, 441.1822
457.0813, 449.4589
457.5634, 445.0756
458.0455, 440.1730
458.5276, 452.8959
459.0098, 433.1401
459.4919, 445.5835
459.9740, 445.1736
460.4561, 450.6464
460.9382, 441.2914
461.4203, 430.1425
461.9025, 421.6606
462.3846, 438.4310
462.8667, 447.9212
463.3488, 450.5224
463.8309, 425.6014
464.3130, 436.2196
464.7952, 432.5954
465.2773, 428.3871
465.7594, 444.0074
466.2415, 423.0894
466.7236, 438.3952
467.2057, 439.2411
467.6879, 446.7050
468.1700, 433.6203
468.6521, 428.6964
469.1342, 427.4523
469.6163, 435.1864
470.0984, 444.7966
470.5806, 448.0733
471.0627, 443.0618
471.5448, 436.2610
472.0269, 435.9704
472.5090, 441.2978
472.9911, 440.4513
473.4733, 428.4363
473.9554, 418.6808
474.4375, 423.1878
474.9196, 436.2339
475.4017, 447.1311
475.8839, 455.9671
476.3660, 459.6757
476.8481, 450.7866
477.3302, 435.8006
477.8123, 430.9685
478.2944, 441.2766
478.7766, 456.2017
479.2587, 462.5389
479.7408, 458.4143
480.2229, 455.1689
480.7050, 453.1125
481.1871, 451.4687
481.6693, 447.6211
482.1514, 444.5449
482.6335, 448.1682
483.1156, 461.2851
483.5977, 477.8923
484.0798, 487.6557
484.5620, 489.5108
485.0441, 492.4217
485.5262, 501.0893
486.0083, 506.5791
486.4904, 499.1076
486.9725, 483.1099
487.4547, 474.0802
487.9368, 483.6883
488.4189, 497.6211
488.9010, 498.4670
489.3831, 489.9509
489.8652, 490.4706
490.3474, 508.5960
490.8295, 533.1978
491.3116, 547.0050
491.7937, 545.7303
492.2758, 544.2675
492.7579, 541.6991
493.2401, 539.7844
493.7222, 540.1622
494.2043, 541.9692
494.6864, 542.2820
495.1685, 539.0342
495.6506, 535.8962
496.1328, 543.0237
496.6149, 564.9810
497.0970, 580.3394
497.5791, 577.4279
498.0612, 574.4371
498.5433, 585.7167
499.0255, 608.6653
499.5076, 628.2023
499.9897, 635.5746
500.4718, 637.2057
500.9539, 639.4357
501.4360, 642.4904
501.9182, 648.1243
502.4003, 657.7047
502.8824, 668.8345
503.3645, 677.1451
503.8466, 681.4097
504.3287, 685.6206
504.8109, 690.0514
505.2930, 694.2699
505.7751, 697.2485
506.2572, 699.7825
506.7393, 703.7269
507.2214, 710.0822
507.7036, 718.7192
508.1857, 732.0765
508.6678, 755.5238
509.1499, 763.4472
509.6320, 736.8755
510.1141, 705.9068
510.5963, 688.6134
511.0784, 684.8853
511.5605, 689.4930
512.0426, 712.3815
512.5247, 734.3715
513.0068, 727.2219
513.4890, 696.2621
513.9711, 673.8788
514.4532, 675.0811
514.9353, 686.2682
515.4174, 682.8275
515.8995, 655.2244
516.3817, 636.4064
516.8638, 636.7084
517.3459, 636.1268
517.8280, 619.1733
518.3101, 592.5458
518.7922, 573.6544
519.2744, 572.2858
519.7565, 579.8079
520.2386, 578.8398
520.7207, 567.9354
521.2028, 557.4091
521.6849, 547.8436
522.1671, 540.4245
522.6492, 538.1786
523.1313, 539.2961
523.6134, 535.7038
524.0955, 520.0054
524.5776, 502.7260
525.0598, 491.2768
525.5419, 485.3972
526.0240, 485.3402
526.5061, 491.6295
526.9882, 499.6437
527.4703, 502.7353
527.9525, 500.0766
528.4346, 495.5236
528.9167, 484.9413
529.3988, 477.1188
529.8809, 479.2713
530.3630, 485.4142
530.8452, 485.5071
531.3273, 475.3160
531.8094, 460.6714
532.2915, 447.5492
532.7736, 436.0726
533.2557, 429.5855
533.7379, 429.7180
534.2200, 432.3516
534.7021, 435.8886
535.1842, 439.5631
535.6663, 440.6034
536.1484, 435.9626
536.6306, 431.8232
537.1127, 429.8921
537.5948, 430.6989
538.0769, 436.7240
538.5590, 447.9695
539.0411, 458.9783
539.5233, 464.3413
540.0054, 464.0306
540.4875, 459.5826
540.9696, 446.7499
541.4517, 435.6011
541.9338, 427.3595
542.4160, 422.5385
542.8981, 422.7365
543.3802, 428.2369
543.8623, 433.9434
544.3444, 435.4182
544.8265, 434.3409
545.3087, 434.0389
545.7908, 434.6780
546.2729, 438.0836
546.7550, 446.8396
547.2371, 458.1543
547.7192, 462.9531
548.2014, 458.2988
548.6835, 453.0084
549.1656, 446.7494
549.6477, 441.2046
550.1298, 437.2127
550.6119, 435.1374
551.0941, 435.8096
551.5762, 440.2796
552.0583, 446.8257
552.5404, 450.0504
553.0225, 448.7353
553.5046, 450.1293
553.9868, 459.6543
554.4689, 468.5174
554.9510, 467.6777
555.4331, 458.4677
555.9152, 451.4809
556.3973, 452.7677
556.8795, 455.0836
557.3616, 450.5376
557.8437, 442.2986
558.3258, 439.6636
558.8079, 446.1181
559.2900, 456.2217
559.7722, 462.7083
560.2543, 465.7288
560.7364, 464.3511
561.2185, 449.0403
561.7006, 439.6425
562.1827, 448.4616
562.6649, 464.2869
563.1470, 471.2435
563.6291, 464.3474
564.1112, 452.0103
564.5933, 439.2701
565.0754, 427.3784
565.5576, 420.4779
566.0397, 419.0776
566.5218, 422.6001
567.0039, 433.4530
567.4860, 448.3828
567.9681, 452.4123
568.4503, 434.1139
568.9324, 422.6808
569.4145, 425.3679
569.8966, 433.9332
570.3787, 442.7090
570.8608, 450.7216
571.3430, 459.3711
571.8251, 470.6853
572.3072, 481.4676
572.7893, 480.9581
573.2714, 466.6792
573.7535, 456.4065
574.2357, 456.3560
574.7178, 459.8978
575.1999, 461.1131
575.6820, 460.1578
576.1641, 457.9487
576.6462, 454.6220
577.1284, 450.1806
577.6105, 440.5186
578.0926, 430.5100
578.5747, 431.4902
579.0568, 446.7464
579.5389, 466.7000
580.0211, 480.1172
580.5032, 487.0804
580.9853, 485.8847
581.4674, 469.7447
581.9495, 455.0013
582.4316, 446.2540
582.9138, 441.9604
583.3959, 441.2703
583.8780, 444.3562
584.3601, 446.8073
584.8422, 443.6510
585.3243, 439.0696
585.8065, 441.1160
586.2886, 449.5131
586.7707, 456.3615
587.2528, 457.0309
587.7349, 453.5919
588.2170, 451.6086
588.6992, 454.7571
589.1813, 452.3716
589.6634, 437.3197
590.1455, 424.1079
590.6276, 422.6752
591.1097, 428.8937
591.5919, 432.4550
592.0740, 427.9466
592.5561, 421.7829
593.0382, 423.5450
593.5203, 431.1826
594.0024, 433.8158
594.4846, 429.1075
594.9667, 420.8630
595.4488, 409.0922
595.9309, 395.5043
596.4130, 396.7447
596.8951, 432.8350
597.3773, 455.6837
597.8594, 445.4261
598.3415, 425.5159
598.8236, 417.9515
599.3057, 423.5843
599.7878, 429.0252
600.2700, 424.0553
600.7521, 412.3557
601.2342, 401.9317
601.7163, 392.4463
602.1984, 388.8839
602.6805, 394.8164
603.1627, 404.1326
603.6448, 411.3110
604.1269, 416.4193
604.6090, 416.8838
605.0911, 406.1630
605.5732, 397.4969
606.0554, 399.3884
606.5375, 406.6421
607.0196, 411.0763
607.5017, 410.7335
607.9838, 410.1901
608.4659, 415.5612
608.9481, 425.7169
609.4302, 428.9037
609.9123, 423.1921
610.3944, 415.9592
610.8765, 408.1142
611.3586, 401.4227
611.8408, 398.2169
612.3229, 398.7508
612.8050, 400.0852
613.2871, 400.7735
613.7692, 402.4478
614.2513, 409.9948
614.7335, 419.3421
615.2156, 418.5096
615.6977, 402.8480
616.1798, 383.9474
616.6619, 380.4003
617.1440, 394.2262
617.6262, 404.0148
618.1083, 408.7966
618.5904, 410.9329
619.0725, 408.2774
619.5546, 404.9812
620.0367, 407.9913
620.5189, 420.2080
621.0010, 427.7699
621.4831, 417.4600
621.9652, 403.9764
622.4473, 407.3518
622.9294, 423.9330
623.4116, 433.8434
623.8937, 426.4655
624.3758, 410.2993
624.8579, 401.3165
625.3400, 399.6448
625.8221, 405.7287
626.3043, 431.5371
626.7864, 450.0917
627.2685, 445.0907
627.7506, 426.4914
628.2327, 409.9962
628.7148, 397.9584
629.1970, 391.6522
629.6791, 395.1760
630.1612, 403.2234
630.6433, 409.0414
631.1254, 411.9139
631.6075, 412.8622
632.0897, 412.3618
632.5718, 410.8942
633.0539, 409.2871
633.5360, 406.1181
634.0181, 407.0303
634.5002, 420.0546
634.9824, 428.9212
635.4645, 421.2821
635.9466, 404.5988
636.4287, 394.7845
636.9108, 398.1735
637.3929, 403.3894
637.8751, 403.1482
638.3572, 399.8050
638.8393, 396.6215
639.3214, 394.1321
639.8035, 392.0340
640.2856, 389.8403
640.7678, 388.6584
641.2499, 392.7348
641.7320, 406.1033
642.2141, 414.2625
642.6962, 410.8696
643.1783, 407.1160
643.6605, 408.6752
644.1426, 414.1648
644.6247, 420.5044
645.1068, 428.6033
645.5889, 433.5907
646.0710, 430.6325
646.5532, 423.1154
647.0353, 416.2484
647.5174, 410.6521
647.9995, 403.6600
648.4816, 392.5515
648.9637, 380.9690
649.4459, 381.8423
649.9280, 401.8086
650.4101, 415.9935
650.8922, 419.9092
651.3743, 419.6342
651.8564, 416.5135
652.3386, 412.0359
652.8207, 410.1050
653.3028, 414.6491
653.7849, 415.8086
654.2670, 399.9516
654.7491, 380.7113
655.2313, 382.1354
655.7134, 403.3257
656.1955, 420.3400
656.6776, 416.5461
657.1597, 399.4218
657.6418, 390.3899
658.1240, 392.3077
658.6061, 391.7880
659.0882, 384.5182
659.5703, 378.2435
660.0524, 376.1044
660.5345, 378.4286
661.0167, 387.2403
661.4988, 408.7241
661.9809, 424.7139
662.4630, 422.2635
662.9451, 412.3192
663.4272, 407.4861
663.9094, 408.3433
664.3915, 409.2172
664.8736, 406.5096
665.3557, 402.6505
665.8378, 404.5189
666.3199, 413.8216
666.8021, 416.3937
667.2842, 407.5341
667.7663, 397.5114
668.2484, 394.1892
668.7305, 394.1863
669.2126, 389.5401
669.6948, 375.1653
670.1769, 366.2860
670.6590, 370.7216
671.1411, 380.4315
671.6232, 390.7644
672.1053, 399.8519
672.5875, 404.9347
673.0696, 404.4785
673.5517, 400.8568
674.0338, 397.8773
674.5159, 395.4770
674.9980, 389.9474
675.4802, 377.7587
675.9623, 373.6669
676.4444, 392.5687
676.9265, 422.6748
677.4086, 432.8816
677.8907, 414.4616
678.3729, 401.3814
678.8550, 401.8229
679.3371, 405.1963
679.8192, 402.2888
680.3013, 397.9062
680.7834, 405.8095
681.2656, 431.2298
681.7477, 453.0619
682.2298, 439.6161
682.7119, 402.6380
683.1940, 387.7099
683.6761, 398.3200
684.1583, 410.4066
684.6404, 413.3883
685.1225, 410.0453
685.6046, 404.4069
686.0867, 393.5016
686.5688, 390.3359
687.0510, 405.8842
687.5331, 415.9923
688.0152, 406.0290
688.4973, 388.6136
688.9794, 380.9001
689.4615, 386.3943
689.9437, 393.6534
690.4258, 393.2062
690.9079, 390.2332
691.3900, 392.8300
691.8721, 400.4218
692.3542, 410.0099
692.8364, 420.8295
693.3185, 429.6845
693.8006, 432.3615
694.2827, 428.7221
694.7648, 421.6175
695.2469, 404.0043
695.7291, 394.3546
696.2112, 404.3707
696.6933, 418.6367
697.1754, 422.7653
697.6575, 417.1905
698.1396, 414.8836
698.6218, 425.6601
699.1039, 436.3550
699.5860, 435.2409
700.0681, 428.1081
700.5502, 426.4889
701.0323, 431.8547
701.5145, 434.5725
701.9966, 417.4285
702.4787, 433.9061
702.9608, 443.1035
703.4429, 445.4120
703.9250, 420.1982
704.4072, 430.5236
704.8893, 426.6065
705.3714, 422.1054
705.8535, 437.4329
706.3356, 416.2222
706.8177, 431.2352
707.2999, 431.7884
707.7820, 425.1689
708.2641, 423.0897
708.7462, 418.4560
709.2283, 413.7779
709.7104, 415.8398
710.1926, 429.7747
710.6747, 443.2449
711.1568, 436.6030
711.6389, 414.5673
712.1210, 396.5504
712.6031, 384.4132
713.0853, 380.5370
713.5674, 387.9481
714.0495, 402.1246
714.5316, 412.4645
715.0137, 419.6949
715.4958, 421.2386
715.9780, 410.6355
716.4601, 401.7137
716.9422, 401.8045
717.4243, 405.8011
717.9064, 404.3924
718.3885, 395.1792
718.8707, 392.6632
719.3528, 414.7770
719.8349, 440.8382
720.3170, 444.7115
720.7991, 432.1760
721.2813, 422.2012
721.7634, 421.4499
722.2455, 427.0999
722.7276, 437.8160
723.2097, 452.4863
723.6918, 456.3710
724.1740, 445.9756
724.6561, 436.2400
725.1382, 431.2984
725.6203, 428.7414
726.1024, 425.3171
726.5845, 421.4250
727.0667, 422.0542
727.5488, 433.3545
728.0309, 442.1021
728.5130, 443.2064
728.9951, 440.2281
729.4772, 435.1136
729.9594, 429.3347
730.4415, 426.1667
730.9236, 428.7769
731.4057, 431.7557
731.8878, 425.6062
732.3699, 412.9309
732.8521, 404.0194
733.3342, 400.3050
733.8163, 400.2173
734.2984, 402.5637
734.7805, 408.0758
735.2626, 419.8767
735.7448, 445.2668
736.2269, 459.5477
736.7090, 454.9507
737.1911, 447.6327
737.6732, 442.0282
738.1553, 438.2759
738.6375, 435.9794
739.1196, 434.8082
739.6017, 437.4261
740.0838, 453.6715
740.5659, 466.5634
741.0480, 455.2906
741.5302, 430.4783
742.0123, 415.2499
742.4944, 416.3036
742.9765, 423.7046
743.4586, 428.6296
743.9407, 431.1352
744.4229, 430.0330
744.9050, 424.8094
745.3871, 425.6954
745.8692, 439.0807
746.3513, 449.4798
746.8334, 437.3098
747.3156, 405.0132
747.7977, 393.9386
748.2798, 426.6718
748.7619, 448.7981
749.2440, 449.3876
749.7261, 443.1402
750.2083, 436.7180
750.6904, 432.2526
751.1725, 433.7890
751.6546, 445.8828
752.1367, 454.2226
752.6188, 440.0047
753.1010, 420.0290
753.5831, 424.7245
754.0652, 449.1405
754.5473, 460.9600
755.0294, 444.4370
755.5115, 418.3085
755.9937, 413.2324
756.4758, 429.3383
756.9579, 438.1285
757.4400, 437.5895
757.9221, 437.2112
758.4042, 441.5275
758.8864, 446.5899
759.3685, 446.0557
759.8506, 438.7956
760.3327, 437.2101
760.8148, 448.0916
761.2969, 456.1444
761.7791, 454.2523
762.2612, 449.8004
762.7433, 451.0354
763.2254, 456.9368
763.7075, 459.0445
764.1896, 451.3946
764.6718, 441.6856
765.1539, 437.4370
765.6360, 436.4738
766.1181, 434.7747
766.6002, 431.8484
767.0823, 427.9841
767.5645, 422.9777
768.0466, 419.6824
768.5287, 426.5812
769.0108, 445.4276
769.4929, 451.1058
769.9750, 435.4522
770.4572, 427.5082
770.9393, 445.4019
771.4214, 474.7503
771.9035, 492.8800
772.3856, 498.8123
772.8677, 499.9359
773.3499, 493.7316
773.8320, 486.0678
774.3141, 480.3972
774.7962, 473.3661
775.2783, 455.7508
775.7604, 430.8543
776.2426, 420.3103
776.7247, 446.0211
777.2068, 476.5869
777.6889, 476.1110
778.1710, 459.7995
778.6531, 461.8400
779.1353, 483.6294
779.6174, 497.0042
780.0995, 482.4557
780.5816, 456.4059
781.0637, 456.9282
781.5458, 485.9149
782.0280, 498.3231
782.5101, 486.7603
782.9922, 475.1757
783.4743, 475.8902
783.9564, 482.5504
784.4385, 483.9729
784.9207, 478.0728
785.4028, 476.0659
785.8849, 483.4496
786.3670, 487.8427
786.8491, 481.0608
787.3312, 472.7440
787.8134, 474.0915
788.2955, 484.4076
788.7776, 492.3382
789.2597, 491.9471
789.7418, 488.6693
790.2239, 485.8503
790.7061, 483.2126
791.1882, 477.8472
791.6703, 471.5403
792.1524, 474.8770
792.6345, 495.4326
793.1166, 517.1266
793.5988, 505.8256
794.0809, 467.0204
794.5630, 455.5285
795.0451, 477.7831
795.5272, 495.1280
796.0093, 488.7861
796.4915, 472.4511
796.9736, 467.0248
797.4557, 474.2552
797.9378, 477.2057
798.4199, 471.9901
798.9020, 468.0759
799.3842, 470.3215
799.8663, 472.1419
800.3484, 466.9196
800.8305, 456.1362
801.3126, 447.3309
801.7947, 436.9995
802.2769, 437.4012
802.7590, 468.1459
803.2411, 501.2483
803.7232, 505.7701
804.2053, 488.5981
804.6874, 473.0274
805.1696, 468.8907
805.6517, 472.7538
806.1338, 487.9361
806.6159, 506.1851
807.0980, 504.1522
807.5801, 484.3716
808.0623, 469.2593
808.5444, 466.3880
809.0265, 472.5180
809.5086, 486.0006
809.9907, 504.9427
810.4728, 512.1941
810.9550, 503.8503
811.4371, 498.1188
811.9192, 500.6555
812.4013, 502.6642
812.8834, 496.7157
813.3655, 484.9269
813.8477, 475.4012
814.3298, 467.7015
814.8119, 463.0469
815.2940, 464.0461
815.7761, 465.4654
816.2582, 462.4284
816.7404, 459.0821
817.2225, 463.7126
817.7046, 477.5555
818.1867, 487.0260
818.6688, 477.8749
819.1509, 467.5388
819.6331, 474.0429
820.1152, 489.3493
820.5973, 500.1468
821.0794, 503.5567
821.5615, 500.5156
822.0436, 490.2599
822.5258, 478.6383
823.0079, 478.0508
823.4900, 486.4340
823.9721, 490.9440
824.4542, 490.2511
824.9363, 486.1073
825.4185, 478.5445
825.9006, 470.9411
826.3827, 469.4934
826.8648, 475.0252
827.3469, 479.3546
827.8290, 483.8863
828.3111, 484.1117
828.7932, 475.4649
829.2753, 465.1099
829.7574, 457.3029
830.2396, 452.9006
830.7217, 458.0935
831.2038, 489.0681
831.6859, 507.5655
832.1680, 496.2583
832.6501, 479.7582
833.1323, 475.6790
833.6144, 479.5997
834.0965, 479.0253
834.5786, 469.7538
835.0607, 462.9134
835.5428, 469.3806
836.0250, 478.7252
836.5071, 479.6616
836.9892, 474.8049
837.4713, 469.8896
837.9534, 466.6872
838.4355, 465.5117
838.9177, 466.8979
839.3998, 469.9401
839.8819, 473.3269
840.3640, 476.8288
840.8461, 479.3345
841.3282, 480.7126
841.8104, 479.0780
842.2925, 472.8058
842.7746, 464.4366
843.2567, 458.4339
843.7388, 454.4779
844.2209, 456.0401
844.7031, 466.5662
845.1852, 474.2397
845.6673, 472.6096
846.1494, 469.5568
846.6315, 475.2366
847.1136, 488.9384
847.5958, 495.1975
848.0779, 481.9574
848.5600, 478.5232
849.0421, 503.9645
849.5242, 525.4579
850.0063, 516.1781
850.4885, 489.3049
850.9706, 471.8028
851.4527, 470.2982
851.9348, 473.6202
852.4169, 479.8966
852.8990, 485.6429
853.3812, 487.2622
853.8633, 486.8679
854.3454, 488.0908
854.8275, 491.3887
855.3096, 494.6305
855.7917, 496.5776
856.2739, 497.4116
856.7560, 494.7442
857.2381, 491.6879
857.7202, 501.4717
858.2023, 522.0336
858.6844, 527.9020
859.1666, 505.7200
859.6487, 475.9315
860.1308, 470.1918
860.6129, 486.1252
861.0950, 494.9615
861.5771, 495.6490
862.0593, 500.0529
862.5414, 512.6226
863.0235, 525.6942
863.5056, 531.9449
863.9877, 532.8775
864.4698, 536.8090
864.9520, 547.8308
865.4341, 552.2476
865.9162, 544.9914
866.3983, 537.0065
866.8804, 533.4849
867.3625, 532.3538
867.8447, 530.2399
868.3268, 526.6070
868.8089, 526.5551
869.2910, 538.3246
869.7731, 544.0766
870.2552, 531.4813
870.7374, 515.5112
871.2195, 509.3933
871.7016, 512.1961
872.1837, 515.9778
872.6658, 517.5965
873.1479, 521.3949
873.6301, 534.2304
874.1122, 546.8127
874.5943, 549.6476
875.0764, 545.2072
875.5585, 537.2324
876.0406, 527.9293
876.5228, 524.5824
877.0049, 537.4064
877.4870, 554.1660
877.9691, 550.6723
878.4512, 537.0920
878.9333, 545.7198
879.4155, 577.5421
879.8976, 603.6710
880.3797, 607.4232
880.8618, 600.9986
881.3439, 605.0986
881.8260, 617.8907
882.3082, 620.0350
882.7903, 610.8417
883.2724, 604.0345
883.7545, 603.7739
884.2366, 607.3846
884.7188, 612.0131
885.2009, 618.4812
885.6830, 632.7790
886.1651, 660.8606
886.6472, 675.8661
887.1293, 670.8922
887.6115, 661.9275
888.0936, 654.3896
888.5757, 649.5043
889.0578, 650.1260
889.5399, 657.5497
890.0220, 662.1249
890.5042, 663.3447
890.9863, 662.5432
891.4684, 654.8253
891.9505, 649.7371
892.4326, 658.1882
892.9147, 674.7527
893.3969, 683.3866
893.8790, 679.2805
894.3611, 673.1378
894.8432, 669.7917
895.3253, 663.4443
895.8074, 644.1496
896.2896, 623.2449
896.7717, 619.4054
897.2538, 632.4502
897.7359, 641.0121
898.2180, 632.5974
898.7001, 619.1052
899.1823, 605.4846
899.6644, 594.5919
900.1465, 592.9561
900.6286, 597.0283
901.1107, 596.1513
901.5928, 586.4123
902.0750, 573.6526
902.5571, 557.9246
903.0392, 546.0941
903.5213, 555.1945
904.0034, 577.2745
904.4855, 588.4922
904.9677, 585.4154
905.4498, 580.2872
905.9319, 581.2967
906.4140, 583.2042
906.8961, 573.3712
907.3782, 555.4555
907.8604, 552.0463
908.3425, 563.7083
908.8246, 579.7352
909.3067, 597.3899
909.7888, 608.3281
910.2709, 602.7105
910.7531, 584.6973
911.2352, 571.9010
911.7173, 564.1027
912.1994, 564.5847
912.6815, 576.2826
913.1636, 586.6686
913.6458, 588.4374
914.1279, 586.8738
914.6100, 591.0806
915.0921, 601.8694
915.5742, 606.3414
916.0563, 600.6240
916.5385, 596.6736
917.0206, 596.1118
917.5027, 598.6780
917.9848, 604.9747
918.4669, 614.1433
918.9490, 624.0003
919.4312, 636.4069
919.9133, 644.6591
920.3954, 645.5068
920.8775, 646.1121
921.3596, 649.8458
921.8417, 653.4615
922.3239, 653.5523
922.8060, 650.4832
923.2881, 646.7432
923.7702, 638.1154
924.2523, 637.1995
924.7344, 656.6777
925.2166, 674.9619
925.6987, 675.4912
926.1808, 667.6835
926.6629, 668.3633
927.1450, 679.0967
927.6271, 682.8569
928.1093, 668.7883
928.5914, 650.2018
929.0735, 626.9031
929.5556, 608.3589
930.0377, 609.4457
930.5198, 622.5875
931.0020, 628.9144
931.4841, 622.2603
931.9662, 609.6803
932.4483, 586.1910
932.9304, 568.4184
933.4125, 580.8397
933.8947, 606.9382
934.3768, 620.2287
934.8589, 618.0978
935.3410, 609.5496
935.8231, 598.3731
936.3052, 589.3561
936.7874, 590.9308
937.2695, 596.3840
937.7516, 591.5352
938.2337, 580.4512
938.7158, 578.3572
939.1979, 587.4616
939.6801, 594.4293
940.1622, 589.0490
940.6443, 577.1869
941.1264, 564.4807
941.6085, 553.9854
942.0906, 560.6612
942.5728, 582.2911
943.0549, 597.2473
943.5370, 597.8066
944.0191, 592.1272
944.5012, 587.6080
944.9833, 584.4661
945.4655, 582.4733
945.9476, 581.9924
946.4297, 590.7959
946.9118, 609.9248
947.3939, 617.4403
947.8760, 601.1960
948.3582, 578.8585
948.8403, 574.8204
949.3224, 586.8865
949.8045, 596.4904
950.2866, 603.1968
950.7687, 614.7117
951.2509, 634.8000
951.7330, 645.6183
952.2151, 633.4608
952.6972, 611.6880
953.1793, 606.5049
953.6614, 619.1983
954.1436, 627.3962
954.6257, 630.8701
955.1078, 630.2356
955.5899, 624.0047
956.0720, 617.4315
956.5541, 613.3984
957.0363, 613.0855
957.5184, 620.5668
958.0005, 638.5109
958.4826, 653.4291
958.9647, 665.2683
959.4468, 673.8222
959.9290, 677.2354
960.4111, 680.1348
960.8932, 690.2498
961.3753, 703.3535
961.8574, 697.7141
962.3395, 655.6728
962.8217, 633.8027
963.3038, 640.6974
963.7859, 655.3824
964.2680, 674.2968
964.7501, 694.2809
965.2322, 716.6623
965.7144, 739.5532
966.1965, 742.1942
966.6786, 699.0392
967.1607, 675.4789
967.6428, 690.6686
968.1249, 704.5905
968.6071, 696.8610
969.0892, 680.7742
969.5713, 675.0547
970.0534, 679.6818
970.5355, 673.7888
971.0176, 642.3107
971.4998, 620.2587
971.9819, 617.1808
972.4640, 619.4416
972.9461, 619.2923
973.4282, 619.9310
973.9103, 630.6216
974.3925, 652.6696
974.8746, 658.9672
975.3567, 624.9960
975.8388, 603.0945
976.3209, 619.5883
976.8030, 638.5967
977.2852, 633.1056
977.7673, 614.0030
978.2494, 604.2404
978.7315, 607.8743
979.2136, 606.2365
979.6957, 589.8954
980.1779, 574.3605
980.6600, 562.2441
981.1421, 555.5338
981.6242, 560.5709
982.1063, 570.8397
982.5884, 571.5529
983.0706, 558.6843
983.5527, 548.2712
984.0348, 544.7101
984.5169, 545.1826
984.9990, 549.4744
985.4811, 556.4158
985.9633, 567.0808
986.4454, 579.1571
986.9275, 588.9063
987.4096, 596.4936
987.8917, 594.5748
988.3738, 576.8840
988.8560, 553.3561
989.3381, 519.0735
989.8202, 489.1985
990.3023, 482.6327
990.7844, 493.4174
991.2665, 500.5396
991.7487, 497.4167
992.2308, 495.9679
992.7129, 505.0591
993.1950, 512.6633
993.6771, 505.7309
994.1592, 497.9922
994.6414, 508.0959
995.1235, 531.6244
995.6056, 548.3447
996.0877, 550.8359
996.5698, 552.7662
997.0519, 565.0699
997.5341, 573.2855
998.0162, 562.7953
998.4983, 546.9489
998.9804, 541.1971
999.4625, 545.1990
999.9446, 549.9768
1000.427, 552.4074
1000.909, 556.4567
1001.391, 571.4742
1001.873, 580.4752
1002.355, 563.9932
1002.837, 540.6054
1003.319, 534.8879
1003.802, 544.6701
1004.284, 549.4525
1004.766, 539.4922
1005.248, 534.4689
1005.730, 551.6626
1006.212, 567.9261
1006.694, 566.7805
1007.176, 556.2936
1007.659, 541.7772
1008.141, 527.9921
1008.623, 528.3721
1009.105, 553.5278
1009.587, 572.5665
1010.069, 566.4890
1010.551, 555.4016
1011.033, 550.2560
1011.515, 549.0281
1011.998, 547.2089
1012.480, 545.9359
1012.962, 552.5988
1013.444, 574.0926
1013.926, 588.8953
1014.408, 583.0993
1014.890, 573.4246
1015.372, 568.2695
1015.854, 566.3105
1016.337, 566.6271
1016.819, 568.1063
1017.301, 567.9966
1017.783, 565.6924
1018.265, 561.1937
1018.747, 554.4825
1019.229, 545.5594
1019.711, 526.0049
1020.194, 510.3842
1020.676, 520.8041
1021.158, 550.2940
1021.640, 569.2708
1022.122, 570.5466
1022.604, 561.2108
1023.086, 530.7152
1023.568, 505.3517
1024.051, 499.5527
1024.533, 504.1171
1025.015, 511.0656
1025.497, 519.5052
1025.979, 530.3525
1026.461, 545.5538
1026.943, 557.1642
1027.425, 561.1861
1027.907, 564.0201
1028.390, 572.1881
1028.872, 577.2211
1029.354, 565.4822
1029.836, 544.2878
1030.318, 539.4598
1030.800, 563.3213
1031.282, 571.4055
1031.764, 534.3782
1032.246, 509.2301
1032.729, 528.2474
1033.211, 555.1116
1033.693, 558.7311
1034.175, 546.3735
1034.657, 540.6764
1035.139, 545.0336
1035.621, 549.1183
1036.103, 554.8065
1036.586, 556.4919
1037.068, 544.9819
1037.550, 536.6072
1038.032, 548.6430
1038.514, 571.0529
1038.996, 579.5742
1039.478, 570.3924
1039.960, 565.1141
1040.443, 570.5233
1040.925, 568.9143
1041.407, 551.3950
1041.889, 533.4547
1042.371, 522.0258
1042.853, 518.1395
1043.335, 524.9379
1043.817, 543.8021
1044.299, 560.5717
1044.781, 576.3046
1045.264, 587.5000
1045.746, 593.7745
1046.228, 594.9803
1046.710, 589.9894
1047.192, 580.8311
1047.674, 569.0660
1048.156, 554.9158
1048.638, 552.7797
1049.121, 569.6963
1049.603, 572.0117
1050.085, 549.4351
1050.567, 532.2741
1051.049, 537.1880
1051.531, 548.8812
1052.013, 546.3972
1052.495, 532.8990
1052.978, 531.3440
1053.460, 543.4274
1053.942, 554.9677
1054.424, 565.6073
1054.906, 569.1969
1055.388, 562.2538
1055.870, 552.9188
1056.352, 550.0491
1056.834, 551.5303
1057.317, 550.0244
1057.799, 545.6980
1058.281, 541.2382
1058.763, 536.9069
1059.245, 544.5767
1059.727, 568.4905
1060.209, 583.5508
1060.691, 566.3193
1061.173, 534.6683
1061.656, 527.4766
1062.138, 538.8827
1062.620, 542.7827
1063.102, 539.2619
1063.584, 533.2747
1064.066, 526.9633
1064.548, 528.0449
1065.030, 542.5627
1065.513, 559.4614
1065.995, 562.1435
1066.477, 556.2402
1066.959, 552.7467
1067.441, 551.4761
1067.923, 552.0918
1068.405, 553.7099
1068.887, 552.2739
1069.370, 545.6454
1069.852, 541.0150
1070.334, 548.5159
1070.816, 559.2297
1071.298, 562.8494
1071.780, 561.4450
1072.262, 557.0004
1072.744, 551.0797
1073.226, 545.5079
1073.708, 541.0641
1074.191, 541.4981
1074.673, 556.8708
1075.155, 569.1321
1075.637, 555.5884
1076.119, 540.0874
1076.601, 553.6218
1077.083, 581.8926
1077.565, 593.3144
1078.047, 583.1799
1078.530, 574.6269
1079.012, 580.4912
1079.494, 583.4426
1079.976, 571.1884
1080.458, 559.8280
1080.940, 561.0860
1081.422, 568.6406
1081.904, 576.6967
1082.387, 583.2876
1082.869, 581.4066
1083.351, 561.8656
1083.833, 551.1856
1084.315, 559.0843
1084.797, 568.4750
1085.279, 578.3058
1085.761, 582.6058
1086.244, 568.4878
1086.726, 545.9312
1087.208, 547.6752
1087.690, 584.8684
1088.172, 600.7576
1088.654, 585.9291
1089.136, 568.2891
1089.618, 545.8686
1090.100, 537.9340
1090.583, 563.9697
1091.065, 601.4921
1091.547, 608.6059
1092.029, 586.3343
1092.511, 574.1899
1092.993, 573.3079
1093.475, 575.2169
1093.957, 579.2261
1094.439, 585.2023
1094.922, 594.5941
1095.404, 595.2485
1095.886, 569.0344
1096.368, 529.7572
1096.850, 524.6091
1097.332, 548.9254
1097.814, 572.1053
1098.296, 590.6685
1098.779, 592.4680
1099.261, 575.1631
1099.743, 558.0675
1100.225, 555.9937
1100.707, 559.6231
1101.189, 554.8350
1101.671, 545.9443
1102.153, 539.7333
1102.635, 537.3120
1103.118, 542.4262
1103.600, 553.6610
1104.082, 561.9409
1104.564, 562.7989
1105.046, 566.9460
1105.528, 593.8457
1106.010, 616.6633
1106.492, 603.4201
1106.974, 577.2422
1107.457, 562.0236
1107.939, 559.3134
1108.421, 567.5814
1108.903, 585.6467
1109.385, 599.9996
1109.867, 603.4006
1110.349, 604.6010
1110.831, 607.7038
1111.314, 608.6932
1111.796, 602.5590
1112.278, 594.4028
1112.760, 593.6522
1113.242, 598.3646
1113.724, 590.9577
1114.206, 550.7266
1114.688, 539.7728
1115.171, 592.3619
1115.653, 622.2856
1116.135, 591.2639
1116.617, 552.6027
1117.099, 547.0024
1117.581, 560.4144
1118.063, 559.2800
1118.545, 541.7216
1119.027, 544.2365
1119.510, 572.7732
1119.992, 587.7004
1120.474, 580.7059
1120.956, 574.3798
1121.438, 580.1167
1121.920, 590.1108
1122.402, 595.8244
1122.884, 596.8500
1123.366, 587.5187
1123.849, 571.7021
1124.331, 574.1556
1124.813, 593.1762
1125.295, 607.7944
1125.777, 611.9614
1126.259, 609.7806
1126.741, 602.8981
1127.223, 597.3003
1127.706, 602.5345
1128.188, 611.9160
1128.670, 617.3954
1129.152, 618.7681
1129.634, 617.4930
1130.116, 612.4116
1130.598, 596.5818
1131.080, 567.3364
1131.563, 546.1349
1132.045, 553.2734
1132.527, 561.1772
1133.009, 549.2953
1133.491, 537.1899
1133.973, 539.1835
1134.455, 552.9156
1134.937, 582.1392
1135.419, 622.4360
1135.901, 633.0096
1136.384, 577.6854
1136.866, 547.5066
1137.348, 571.1528
1137.830, 589.8480
1138.312, 582.6490
1138.794, 570.7424
1139.276, 572.3040
1139.758, 579.6699
1140.241, 572.5037
1140.723, 548.8445
1141.205, 547.9452
1141.687, 575.7622
1142.169, 580.7366
1142.651, 551.5883
1143.133, 533.9857
1143.615, 550.4211
1144.098, 578.2753
1144.580, 593.9926
1145.062, 599.4554
1145.544, 594.8952
1146.026, 584.5602
1146.508, 584.3461
1146.990, 592.2200
1147.472, 596.5408
1147.954, 595.3951
1148.437, 597.1400
1148.919, 607.4581
1149.401, 612.5912
1149.883, 591.9526
1150.365, 568.3388
1150.847, 563.0456
1151.329, 569.0024
1151.811, 582.1343
1152.293, 596.8312
1152.776, 604.3018
1153.258, 602.7430
1153.740, 594.6472
1154.222, 570.5628
1154.704, 555.4739
1155.186, 559.2281
1155.668, 568.8610
1156.150, 582.3295
1156.633, 595.1030
1157.115, 601.8237
1157.597, 604.4486
1158.079, 609.7851
1158.561, 618.9202
1159.043, 626.3571
1159.525, 635.6337
1160.007, 624.4874
1160.490, 581.7873
1160.972, 556.3594
1161.454, 576.3095
1161.936, 610.9623
1162.418, 622.5485
1162.900, 617.1408
1163.382, 610.9530
1163.864, 603.8729
1164.346, 591.9146
1164.828, 578.3710
1165.311, 581.7536
1165.793, 602.5734
1166.275, 613.7390
1166.757, 598.1615
1167.239, 581.0954
1167.721, 590.1866
1168.203, 604.1124
1168.685, 599.2763
1169.168, 589.3577
1169.650, 593.8077
1170.132, 606.1410
1170.614, 608.2060
1171.096, 597.3210
1171.578, 588.2964
1172.060, 586.3171
1172.542, 584.6163
1173.025, 581.3134
1173.507, 579.1215
1173.989, 580.7173
1174.471, 581.6467
1174.953, 574.8042
1175.435, 567.2003
1175.917, 580.1266
1176.399, 616.2334
1176.881, 618.0127
1177.364, 579.9727
1177.846, 556.1273
1178.328, 554.5491
1178.810, 556.0621
1179.292, 552.3872
1179.774, 555.2966
1180.256, 578.6570
1180.738, 608.1447
1181.220, 616.9064
1181.703, 612.7919
1182.185, 609.4716
1182.667, 608.5641
1183.149, 614.2031
1183.631, 624.0416
1184.113, 628.9490
1184.595, 625.5089
1185.077, 614.8659
1185.560, 588.0370
1186.042, 567.1365
1186.524, 564.7428
1187.006, 571.1833
1187.488, 584.8019
1187.970, 599.2252
1188.452, 608.5739
1188.934, 611.7088
1189.417, 603.2125
1189.899, 572.9194
1190.381, 565.1600
1190.863, 589.0505
1191.345, 610.9046
1191.827, 625.4653
1192.309, 630.2375
1192.791, 621.9275
1193.273, 611.5224
1193.755, 614.7996
1194.238, 624.5829
1194.720, 613.6704
1195.202, 589.7754
1195.684, 585.9814
1196.166, 599.3901
1196.648, 613.9127
1197.130, 623.9045
1197.612, 621.7650
1198.095, 602.5184
1198.577, 586.6483
1199.059, 596.2973
1199.541, 608.2967
1200.023, 602.7442
1200.505, 593.6702
1200.987, 594.5986
1201.469, 601.3589
1201.952, 609.1302
1202.434, 615.6899
1202.916, 609.1553
1203.398, 574.9722
1203.880, 558.0117
1204.362, 566.4827
1204.844, 575.4027
1205.326, 580.5427
1205.808, 581.3111
1206.291, 575.2795
1206.773, 571.1793
1207.255, 582.3207
1207.737, 604.2490
1208.219, 622.0469
1208.701, 635.2740
1209.183, 640.5314
1209.665, 638.7549
1210.147, 633.7906
1210.630, 627.2006
1211.112, 620.5744
1211.594, 614.5101
1212.076, 611.8634
1212.558, 619.5753
1213.040, 625.9645
1213.522, 618.5743
1214.004, 609.1042
1214.487, 608.7498
1214.969, 613.5516
1215.451, 617.0319
1215.933, 618.5950
1216.415, 618.7121
1216.897, 614.2214
1217.379, 617.7805
1217.861, 633.6600
1218.344, 648.3725
1218.826, 662.3473
1219.308, 662.9460
1219.790, 640.0628
1220.272, 615.9457
1220.754, 620.0172
1221.236, 638.3955
1221.718, 629.0607
1222.200, 602.2894
1222.682, 592.5445
1223.165, 598.1835
1223.647, 612.7536
1224.129, 631.0753
1224.611, 640.2427
1225.093, 635.1174
1225.575, 626.5648
1226.057, 616.8870
1226.539, 612.0436
1227.022, 619.2985
1227.504, 627.9750
1227.986, 630.9845
1228.468, 631.1708
1228.950, 633.5389
1229.432, 636.0549
1229.914, 630.4007
1230.396, 614.0093
1230.879, 610.5244
1231.361, 623.1126
1231.843, 633.9775
1232.325, 641.4545
1232.807, 641.0935
1233.289, 630.9379
1233.771, 616.3946
1234.253, 600.5187
1234.735, 590.2014
1235.218, 603.2671
1235.700, 623.8107
1236.182, 626.1827
1236.664, 614.8102
1237.146, 585.6022
1237.628, 554.2632
1238.110, 564.4518
1238.592, 619.6198
1239.074, 649.8116
1239.557, 608.5002
1240.039, 588.1523
1240.521, 633.2529
1241.003, 668.1959
1241.485, 663.5688
1241.967, 651.6583
1242.449, 651.8604
1242.931, 658.4855
1243.414, 664.0782
1243.896, 667.6379
1244.378, 659.3832
1244.860, 642.2164
1245.342, 653.5584
1245.824, 687.9124
1246.306, 696.6370
1246.788, 675.0219
1247.271, 666.6589
1247.753, 692.3082
1248.235, 710.1813
1248.717, 668.2650
1249.199, 630.5136
1249.681, 656.9531
1250.163, 690.8371
1250.645, 682.5570
1251.127, 658.1017
1251.609, 652.3895
1252.092, 662.0369
1252.574, 667.8041
1253.056, 670.2225
1253.538, 659.5287
1254.020, 629.3747
1254.502, 613.7997
1254.984, 616.9060
1255.466, 633.0406
1255.949, 660.7158
1256.431, 683.0432
1256.913, 687.3730
1257.395, 678.7485
1257.877, 656.4294
1258.359, 632.1203
1258.841, 621.4967
1259.323, 622.7919
1259.806, 637.3479
1260.288, 659.6432
1260.770, 684.9962
1261.252, 709.0493
1261.734, 714.7682
1262.216, 691.6537
1262.698, 670.5568
1263.180, 650.2852
1263.662, 641.1990
1264.145, 647.5007
1264.627, 660.7283
1265.109, 679.9989
1265.591, 693.5942
1266.073, 687.4980
1266.555, 672.1276
1267.037, 673.6436
##END=



