##NAMES=Clinoclase
##RRUFFID=R050659
##IDEAL CHEMISTRY=Cu^2+^_3_As^5+^O_4_(OH)_3_
##LOCALITY=Carissa mine, Tintic District, Utah, USA
##OWNER=RRUFF
##SOURCE=University of Arizona Mineral Museum
##DESCRIPTION=Dark blue prismatic single crystal associated with cornwallite
##STATUS=The identification of this mineral has been confirmed by single-crystal X-ray diffraction.
##URL=rruff.info/R050659
92.02539, 27.21469
92.50751, 25.19738
92.98962, 24.44036
93.47174, 26.14133
93.95386, 28.57498
94.43597, 29.70963
94.91809, 28.51423
95.40021, 25.73319
95.88232, 23.64610
96.36444, 22.15775
96.84656, 21.49784
97.32867, 22.21088
97.81078, 23.66443
98.29290, 24.86307
98.77502, 24.99386
99.25713, 23.93651
99.73925, 22.82618
100.2214, 21.27184
100.7035, 19.99472
101.1856, 19.50102
101.6677, 19.72235
102.1498, 20.10000
102.6320, 19.97521
103.1141, 19.18466
103.5962, 18.15062
104.0783, 16.11510
104.5604, 14.11473
105.0425, 13.53137
105.5247, 14.94359
106.0068, 17.21461
106.4889, 18.36717
106.9710, 18.34151
107.4531, 18.15516
107.9352, 18.46248
108.4173, 19.09808
108.8995, 19.09378
109.3816, 17.62546
109.8637, 15.68792
110.3458, 14.25605
110.8279, 13.40980
111.3100, 13.11520
111.7922, 13.47528
112.2743, 14.72609
112.7564, 15.87049
113.2385, 16.85881
113.7206, 17.53002
114.2027, 17.54699
114.6849, 16.66661
115.1670, 15.30865
115.6491, 15.01658
116.1312, 17.41065
116.6133, 19.01327
117.0954, 18.82917
117.5776, 17.54762
118.0597, 16.23242
118.5418, 15.62108
119.0239, 15.72487
119.5060, 15.70434
119.9881, 15.31015
120.4703, 15.04405
120.9524, 15.18528
121.4345, 15.68541
121.9166, 16.25579
122.3987, 16.61149
122.8808, 16.70591
123.3630, 16.98889
123.8451, 17.82485
124.3272, 18.66599
124.8093, 18.91804
125.2914, 18.44411
125.7735, 17.66541
126.2557, 16.91468
126.7378, 16.19801
127.2199, 15.68823
127.7020, 15.68947
128.1841, 15.99083
128.6662, 15.87072
129.1483, 14.92565
129.6305, 13.87639
130.1126, 13.23675
130.5947, 12.99544
131.0768, 12.97655
131.5589, 13.09571
132.0410, 13.37932
132.5232, 13.58466
133.0053, 13.80626
133.4874, 13.85137
133.9695, 13.41334
134.4516, 12.50039
134.9337, 11.59558
135.4159, 11.52719
135.8980, 13.05777
136.3801, 13.98803
136.8622, 13.70907
137.3443, 13.14744
137.8264, 13.28474
138.3086, 14.46577
138.7907, 16.05662
139.2728, 16.28101
139.7549, 12.90474
140.2370, 10.69013
140.7191, 10.67265
141.2013, 11.91899
141.6834, 13.10485
142.1655, 13.56360
142.6476, 13.40540
143.1297, 13.12081
143.6118, 12.68240
144.0939, 12.18134
144.5761, 11.56220
145.0582, 10.87233
145.5403, 10.31015
146.0224, 9.944200
146.5045, 9.846354
146.9866, 10.10647
147.4688, 11.25959
147.9509, 12.33373
148.4330, 12.14376
148.9151, 10.46269
149.3972, 8.937778
149.8793, 8.722620
150.3615, 9.238604
150.8436, 9.880356
151.3257, 10.46632
151.8078, 11.02867
152.2899, 11.72659
152.7720, 12.94507
153.2542, 13.56337
153.7363, 12.77356
154.2184, 11.25571
154.7005, 10.06286
155.1826, 9.965943
155.6647, 10.82318
156.1469, 11.16312
156.6290, 10.38129
157.1111, 9.628396
157.5932, 9.059093
158.0753, 8.748121
158.5574, 8.802865
159.0396, 9.368529
159.5217, 10.53103
160.0038, 11.41137
160.4859, 11.99044
160.9680, 12.35657
161.4501, 12.36381
161.9323, 12.11803
162.4144, 12.00352
162.8965, 12.50141
163.3786, 13.94012
163.8607, 14.39283
164.3428, 13.08148
164.8250, 11.41464
165.3071, 10.31659
165.7892, 9.946216
166.2713, 10.06975
166.7534, 10.57330
167.2355, 11.55686
167.7177, 12.11525
168.1998, 11.77701
168.6819, 11.09378
169.1640, 10.74028
169.6461, 10.85043
170.1282, 11.30981
170.6104, 12.33464
171.0925, 13.85572
171.5746, 14.72054
172.0567, 13.90207
172.5388, 12.01258
173.0209, 10.92991
173.5031, 11.39620
173.9852, 12.20868
174.4673, 12.30994
174.9494, 11.75072
175.4315, 10.98658
175.9136, 10.24894
176.3958, 9.540131
176.8779, 8.977935
177.3600, 8.461426
177.8421, 8.234250
178.3242, 8.512325
178.8063, 9.270188
179.2885, 10.21981
179.7706, 11.13549
180.2527, 12.06509
180.7348, 12.74411
181.2169, 13.31281
181.6990, 13.52317
182.1812, 13.07430
182.6633, 11.98688
183.1454, 10.65388
183.6275, 9.546229
184.1096, 8.450160
184.5917, 8.130722
185.0738, 9.318418
185.5560, 10.64723
186.0381, 11.08853
186.5202, 10.41291
187.0023, 9.187375
187.4844, 8.354122
187.9665, 7.917700
188.4487, 7.973260
188.9308, 8.893660
189.4129, 10.09678
189.8950, 11.23290
190.3771, 12.16808
190.8592, 12.63346
191.3414, 11.93319
191.8235, 8.758358
192.3056, 6.915735
192.7877, 7.659277
193.2698, 8.030782
193.7519, 10.15419
194.2341, 11.35417
194.7162, 11.68035
195.1983, 8.515575
195.6804, 9.858639
196.1625, 9.395165
196.6446, 8.857615
197.1268, 10.83514
197.6089, 8.178117
198.0910, 10.11575
198.5731, 10.21929
199.0552, 11.16224
199.5373, 10.28750
200.0195, 9.974197
200.5016, 11.47916
200.9837, 11.97734
201.4658, 10.89335
201.9479, 11.88967
202.4300, 9.169150
202.9122, 9.710208
203.3943, 11.65848
203.8764, 10.66589
204.3585, 9.935506
204.8406, 9.439621
205.3227, 9.221258
205.8048, 9.653958
206.2870, 10.27932
206.7691, 10.81997
207.2512, 11.23984
207.7333, 11.54372
208.2154, 11.71928
208.6975, 11.75427
209.1797, 11.73217
209.6618, 11.70817
210.1439, 11.59866
210.6260, 11.28072
211.1081, 10.75774
211.5902, 10.22861
212.0724, 9.954780
212.5545, 9.999664
213.0366, 10.12368
213.5187, 10.37346
214.0008, 10.64265
214.4829, 10.85304
214.9651, 10.99525
215.4472, 11.13433
215.9293, 11.41051
216.4114, 12.08425
216.8935, 12.32019
217.3756, 11.81560
217.8578, 11.16720
218.3399, 10.83743
218.8220, 10.90325
219.3041, 11.04766
219.7862, 10.74258
220.2683, 9.433980
220.7505, 8.790236
221.2326, 9.558311
221.7147, 10.45302
222.1968, 10.15438
222.6789, 8.465609
223.1610, 6.614452
223.6432, 6.498509
224.1253, 9.532636
224.6074, 11.44401
225.0895, 11.45445
225.5716, 10.79625
226.0537, 10.57081
226.5358, 11.03594
227.0180, 11.72993
227.5001, 11.99924
227.9822, 11.67154
228.4643, 11.43995
228.9464, 11.53485
229.4285, 11.65702
229.9107, 11.37970
230.3928, 10.59309
230.8749, 9.777435
231.3570, 9.645889
231.8391, 10.27588
232.3212, 10.69769
232.8034, 10.52423
233.2855, 10.15336
233.7676, 10.16313
234.2497, 10.71122
234.7318, 11.31322
235.2139, 11.26799
235.6961, 10.67089
236.1782, 10.38109
236.6603, 10.86222
237.1424, 11.70516
237.6245, 12.38932
238.1066, 12.93037
238.5888, 13.04232
239.0709, 12.06844
239.5530, 10.35172
240.0351, 8.954465
240.5172, 8.187424
240.9993, 7.981851
241.4815, 8.352942
241.9636, 9.537444
242.4457, 10.68566
242.9278, 11.19263
243.4099, 11.21807
243.8920, 11.00998
244.3742, 10.36029
244.8563, 9.593662
245.3384, 9.616698
245.8205, 10.88630
246.3026, 11.90684
246.7847, 11.64009
247.2668, 10.62187
247.7490, 9.666631
248.2311, 9.119391
248.7132, 8.884690
249.1953, 8.741572
249.6774, 8.731191
250.1595, 8.733122
250.6417, 8.543356
251.1238, 8.370223
251.6059, 8.570995
252.0880, 9.470743
252.5701, 10.63845
253.0522, 10.89938
253.5344, 9.685416
254.0165, 8.664048
254.4986, 8.257442
254.9807, 8.304091
255.4628, 8.733460
255.9449, 9.575726
256.4271, 10.56149
256.9092, 11.01471
257.3913, 10.56754
257.8734, 10.27230
258.3555, 10.39548
258.8376, 10.71483
259.3198, 11.13346
259.8019, 11.61849
260.2840, 11.94819
260.7661, 11.52510
261.2482, 9.523047
261.7303, 8.382236
262.2125, 9.058267
262.6946, 10.16319
263.1767, 10.39261
263.6588, 9.375486
264.1409, 7.925360
264.6230, 7.556313
265.1052, 9.105023
265.5873, 10.12276
266.0694, 10.55499
266.5515, 10.48241
267.0336, 9.651912
267.5157, 8.143328
267.9979, 6.639036
268.4800, 6.221513
268.9621, 7.552320
269.4442, 8.580246
269.9263, 9.474748
270.4084, 10.01462
270.8906, 9.771784
271.3727, 8.844392
271.8548, 7.956797
272.3369, 8.061712
272.8190, 9.627447
273.3011, 10.62586
273.7833, 11.22412
274.2654, 11.25381
274.7475, 10.23764
275.2296, 8.405050
275.7117, 6.642447
276.1938, 5.832954
276.6760, 6.104638
277.1581, 6.612608
277.6402, 7.700090
278.1223, 8.655405
278.6044, 9.122985
279.0865, 9.152297
279.5686, 9.017744
280.0508, 8.957052
280.5329, 8.980089
281.0150, 8.609482
281.4971, 7.223756
281.9792, 6.150391
282.4613, 6.063318
282.9435, 6.697645
283.4256, 7.371551
283.9077, 7.637194
284.3898, 7.560222
284.8719, 7.718099
285.3540, 8.437971
285.8362, 8.990142
286.3183, 9.089955
286.8004, 8.898670
287.2825, 8.683677
287.7646, 8.567413
288.2467, 8.565335
288.7289, 8.745062
289.2110, 9.674113
289.6931, 10.08117
290.1752, 9.152271
290.6573, 7.742411
291.1394, 7.298680
291.6216, 8.441781
292.1037, 10.12641
292.5858, 10.05280
293.0679, 6.573380
293.5500, 4.530637
294.0321, 5.477624
294.5143, 7.625581
294.9964, 9.059529
295.4785, 9.265736
295.9606, 8.752789
296.4427, 8.118771
296.9248, 7.132214
297.4070, 6.845467
297.8891, 8.026429
298.3712, 9.486255
298.8533, 10.15971
299.3354, 9.894352
299.8175, 9.196650
300.2997, 8.478641
300.7818, 7.710838
301.2639, 7.385975
301.7460, 8.005209
302.2281, 8.667994
302.7102, 8.638200
303.1924, 7.969781
303.6745, 7.356005
304.1566, 7.334355
304.6387, 7.891210
305.1208, 8.381227
305.6029, 8.760801
306.0851, 9.125442
306.5672, 9.522182
307.0493, 9.944273
307.5314, 10.41456
308.0135, 11.01767
308.4956, 11.61699
308.9778, 11.59442
309.4599, 10.41804
309.9420, 9.398497
310.4241, 9.058695
310.9062, 9.158517
311.3883, 9.283415
311.8705, 9.290287
312.3526, 9.152529
312.8347, 8.728546
313.3168, 7.720003
313.7989, 7.149042
314.2810, 7.398913
314.7632, 8.135995
315.2453, 9.086207
315.7274, 10.20048
316.2095, 11.08319
316.6916, 11.06234
317.1737, 9.833510
317.6559, 9.059443
318.1380, 9.069270
318.6201, 9.471115
319.1022, 10.15769
319.5843, 11.05450
320.0664, 11.54330
320.5485, 10.94038
321.0306, 9.131246
321.5128, 7.643845
321.9949, 6.303180
322.4770, 5.406249
322.9591, 5.443200
323.4412, 6.219111
323.9233, 6.787169
324.4055, 6.414866
324.8876, 5.308541
325.3697, 4.974524
325.8518, 6.216368
326.3339, 7.234299
326.8160, 7.021368
327.2982, 6.094782
327.7803, 5.653814
328.2624, 6.319056
328.7445, 7.637862
329.2266, 8.376665
329.7087, 8.157140
330.1909, 8.129680
330.6730, 8.784627
331.1551, 9.649261
331.6372, 10.14329
332.1193, 10.09887
332.6014, 9.615342
333.0836, 8.724250
333.5657, 7.090513
334.0478, 6.128278
334.5299, 6.301245
335.0120, 6.892170
335.4941, 7.526248
335.9763, 8.073354
336.4584, 8.186916
336.9405, 7.376650
337.4226, 5.504206
337.9047, 4.737201
338.3868, 5.982608
338.8690, 7.338211
339.3511, 7.647320
339.8332, 7.194447
340.3153, 7.032416
340.7974, 7.875265
341.2795, 9.526860
341.7617, 10.72053
342.2438, 11.62576
342.7259, 11.95957
343.2080, 11.27509
343.6901, 10.06925
344.1722, 8.992650
344.6544, 8.307863
345.1365, 8.037167
345.6186, 8.260364
346.1007, 9.780560
346.5828, 10.54735
347.0649, 9.868983
347.5471, 8.824687
348.0292, 8.510217
348.5113, 9.063768
348.9934, 9.628981
349.4755, 9.074560
349.9576, 6.873318
350.4398, 5.787626
350.9219, 6.542284
351.4040, 7.563890
351.8861, 8.170921
352.3682, 8.327137
352.8503, 8.180209
353.3325, 7.781548
353.8146, 7.175117
354.2967, 7.076957
354.7788, 8.124423
355.2609, 8.949377
355.7430, 9.223028
356.2252, 9.110926
356.7073, 8.866223
357.1894, 8.607723
357.6715, 8.282484
358.1536, 7.717658
358.6357, 6.368495
359.1179, 5.647386
359.5999, 5.955152
360.0821, 6.631363
360.5642, 7.157797
361.0463, 7.427136
361.5284, 7.653955
362.0105, 8.163250
362.4926, 9.142504
362.9748, 9.663450
363.4569, 9.318390
363.9390, 8.927924
364.4211, 8.782372
364.9032, 8.890754
365.3853, 9.202213
365.8675, 9.743465
366.3496, 10.45034
366.8317, 10.69951
367.3138, 10.25795
367.7959, 9.605622
368.2780, 8.544054
368.7602, 7.450445
369.2423, 6.789048
369.7244, 6.768502
370.2065, 7.181101
370.6886, 7.675612
371.1707, 8.352637
371.6529, 8.846298
372.1350, 8.982389
372.6171, 9.021588
373.0992, 9.225647
373.5813, 9.584455
374.0634, 9.762143
374.5456, 9.340064
375.0277, 8.290277
375.5098, 7.244458
375.9919, 5.754249
376.4740, 4.841090
376.9561, 5.347021
377.4383, 6.761443
377.9204, 7.899008
378.4025, 7.962416
378.8846, 7.357416
379.3667, 7.295770
379.8488, 8.073236
380.3310, 8.623821
380.8131, 8.193160
381.2952, 7.464925
381.7773, 7.156929
382.2594, 7.498100
382.7415, 8.062675
383.2237, 8.492753
383.7058, 8.788802
384.1879, 8.724874
384.6700, 7.903737
385.1521, 7.057837
385.6342, 6.759504
386.1164, 7.006279
386.5985, 7.642488
387.0806, 8.983582
387.5627, 10.61152
388.0448, 11.51924
388.5269, 11.55884
389.0091, 11.09043
389.4912, 9.836157
389.9733, 8.269230
390.4554, 7.534554
390.9375, 8.605809
391.4196, 9.910579
391.9018, 9.887974
392.3839, 8.672563
392.8660, 7.446925
393.3481, 6.572211
393.8302, 6.149344
394.3123, 6.459762
394.7945, 7.837332
395.2766, 8.813690
395.7587, 8.426157
396.2408, 7.358409
396.7229, 6.736082
397.2050, 6.806413
397.6872, 7.324291
398.1693, 8.232525
398.6514, 9.593976
399.1335, 10.15104
399.6156, 8.804049
400.0977, 7.482022
400.5798, 7.964951
401.0620, 9.881689
401.5441, 11.27710
402.0262, 10.81835
402.5083, 8.976465
402.9904, 8.148456
403.4725, 9.242817
403.9547, 10.06204
404.4368, 10.05129
404.9189, 9.595237
405.4010, 9.054574
405.8831, 8.566067
406.3652, 8.322987
406.8474, 8.686835
407.3295, 10.09816
407.8116, 10.79868
408.2937, 10.31177
408.7758, 9.626956
409.2579, 9.356913
409.7401, 9.407792
410.2222, 9.202963
410.7043, 8.194681
411.1864, 6.606387
411.6685, 6.402648
412.1506, 9.761049
412.6328, 11.82629
413.1149, 11.05972
413.5970, 9.033942
414.0791, 7.457180
414.5612, 6.919095
415.0433, 6.864173
415.5255, 6.316541
416.0076, 4.900892
416.4897, 4.294019
416.9718, 5.524910
417.4539, 6.804748
417.9360, 7.122602
418.4182, 6.690672
418.9003, 6.466998
419.3824, 7.342846
419.8645, 8.962101
420.3466, 9.670020
420.8287, 9.060671
421.3109, 8.364367
421.7930, 8.053239
422.2751, 7.939095
422.7572, 7.860048
423.2393, 7.797627
423.7214, 7.643334
424.2036, 7.190575
424.6857, 6.457552
425.1678, 5.859498
425.6499, 5.314143
426.1320, 5.181649
426.6141, 6.059201
427.0963, 7.781432
427.5784, 9.031161
428.0605, 8.801116
428.5426, 7.948763
429.0247, 7.981691
429.5068, 9.046551
429.9890, 9.766288
430.4711, 9.008422
430.9532, 7.302039
431.4353, 6.446581
431.9174, 6.925303
432.3995, 7.544662
432.8817, 7.746161
433.3638, 7.654317
433.8459, 7.535071
434.3280, 7.474546
434.8101, 7.375644
435.2922, 7.050797
435.7744, 6.372866
436.2565, 6.034689
436.7386, 6.217481
437.2207, 6.620300
437.7028, 7.215075
438.1849, 7.879013
438.6671, 8.220181
439.1492, 7.915083
439.6313, 7.132164
440.1134, 6.871384
440.5955, 7.676489
441.0776, 8.340519
441.5598, 8.750851
442.0418, 8.949733
442.5240, 8.916160
443.0061, 8.673768
443.4882, 8.376810
443.9703, 8.193052
444.4524, 8.080245
444.9345, 8.281283
445.4167, 9.532544
445.8988, 10.36794
446.3809, 9.847334
446.8630, 8.556507
447.3451, 7.693939
447.8272, 8.021125
448.3094, 9.003683
448.7915, 9.229889
449.2736, 8.377684
449.7557, 7.688760
450.2378, 7.635400
450.7199, 7.740539
451.2021, 7.551589
451.6842, 7.057545
452.1663, 6.838826
452.6484, 7.686583
453.1305, 9.272647
453.6126, 10.04393
454.0948, 9.658977
454.5769, 9.042561
455.0590, 8.670735
455.5411, 8.516505
456.0232, 8.616126
456.5053, 9.242791
456.9875, 9.758793
457.4696, 9.466866
457.9517, 8.545514
458.4338, 7.813982
458.9159, 7.562319
459.3980, 7.573257
459.8802, 7.511115
460.3623, 7.344107
460.8444, 7.368731
461.3265, 7.872460
461.8086, 8.429795
462.2907, 8.750909
462.7729, 8.781933
463.2550, 8.372836
463.7371, 7.291280
464.2192, 5.759288
464.7013, 5.048118
465.1834, 5.848965
465.6656, 6.527826
466.1477, 6.910957
466.6298, 7.034793
467.1119, 6.815218
467.5940, 6.291631
468.0761, 5.822451
468.5583, 5.903193
469.0404, 6.693696
469.5225, 6.998011
470.0046, 5.768696
470.4867, 5.144486
470.9688, 6.429385
471.4510, 8.624695
471.9331, 10.03840
472.4152, 9.828757
472.8973, 8.736431
473.3794, 8.149007
473.8615, 8.190414
474.3437, 8.213666
474.8258, 8.189281
475.3079, 8.035201
475.7900, 7.615080
476.2721, 6.982124
476.7542, 6.404573
477.2364, 5.887423
477.7185, 5.575355
478.2006, 6.010561
478.6827, 7.375401
479.1648, 8.363598
479.6469, 7.984642
480.1291, 6.941271
480.6112, 6.553289
481.0933, 7.100857
481.5754, 7.670282
482.0575, 7.832621
482.5396, 7.696332
483.0217, 7.364664
483.5038, 6.841474
483.9860, 6.463737
484.4681, 6.641896
484.9502, 7.400224
485.4323, 7.724791
485.9144, 7.158319
486.3965, 6.671379
486.8787, 6.751802
487.3608, 7.186449
487.8429, 7.628853
488.3250, 7.940434
488.8071, 8.038953
489.2892, 7.706794
489.7714, 6.464122
490.2535, 5.993089
490.7356, 7.107015
491.2177, 8.105159
491.6998, 7.730011
492.1819, 6.507158
492.6641, 5.941505
493.1462, 7.124945
493.6283, 9.294078
494.1104, 10.10210
494.5925, 8.981532
495.0746, 8.037447
495.5568, 8.053952
496.0389, 8.217372
496.5210, 7.812490
497.0031, 6.854758
497.4852, 6.154147
497.9673, 6.517151
498.4495, 7.556297
498.9316, 8.252263
499.4137, 8.577860
499.8958, 8.501968
500.3779, 7.642678
500.8600, 6.485393
501.3422, 6.073720
501.8243, 6.799536
502.3064, 7.525827
502.7885, 7.556494
503.2706, 7.239435
503.7527, 7.270488
504.2349, 7.804838
504.7170, 8.351885
505.1991, 8.389795
505.6812, 7.879455
506.1633, 7.657794
506.6454, 7.947764
507.1276, 8.244122
507.6097, 8.333898
508.0918, 8.318018
508.5739, 8.398122
509.0560, 8.642581
509.5381, 8.886934
510.0203, 8.848063
510.5024, 8.420794
510.9845, 8.070530
511.4666, 7.951563
511.9487, 7.757237
512.4308, 7.181943
512.9130, 6.463082
513.3951, 6.108062
513.8772, 6.438758
514.3593, 7.061705
514.8414, 7.201714
515.3235, 6.774251
515.8057, 6.513272
516.2878, 6.630385
516.7699, 6.931145
517.2520, 7.231092
517.7341, 7.542242
518.2162, 7.964478
518.6984, 8.875035
519.1805, 9.730380
519.6626, 9.737224
520.1447, 8.933237
520.6268, 7.952068
521.1089, 7.001145
521.5911, 6.160950
522.0732, 5.628236
522.5553, 5.327711
523.0374, 5.437070
523.5195, 6.678869
524.0016, 7.861413
524.4838, 7.465841
524.9659, 5.782097
525.4480, 4.731834
525.9301, 5.841445
526.4122, 8.534546
526.8943, 9.829304
527.3765, 8.633534
527.8586, 7.511105
528.3407, 6.453224
528.8228, 5.704336
529.3049, 5.533539
529.7870, 5.918340
530.2692, 6.558815
530.7513, 7.268332
531.2334, 8.015233
531.7155, 8.682229
532.1976, 9.439963
532.6797, 9.709147
533.1619, 8.682253
533.6440, 7.313474
534.1261, 6.562175
534.6082, 6.607471
535.0903, 6.963345
535.5724, 7.625391
536.0546, 8.310510
536.5367, 8.178689
537.0188, 7.048483
537.5009, 6.248988
537.9830, 7.007461
538.4651, 8.928987
538.9473, 9.759518
539.4294, 8.728097
539.9115, 7.688265
540.3936, 6.975246
540.8757, 6.617652
541.3578, 6.905839
541.8400, 7.773463
542.3221, 8.383091
542.8042, 7.709934
543.2863, 5.712268
543.7684, 5.041261
544.2505, 7.372775
544.7326, 9.048327
545.2147, 9.200663
545.6968, 8.443628
546.1790, 7.205660
546.6611, 5.674997
547.1432, 4.438190
547.6253, 4.233853
548.1074, 4.985765
548.5895, 5.945403
549.0717, 7.408037
549.5538, 8.375248
550.0359, 7.797104
550.5180, 6.449641
551.0001, 5.384784
551.4822, 4.662925
551.9644, 4.512679
552.4465, 5.452405
552.9286, 6.994308
553.4107, 8.216437
553.8928, 8.944009
554.3749, 9.173458
554.8571, 8.755675
555.3392, 7.722567
555.8213, 7.312505
556.3034, 8.259458
556.7855, 8.840400
557.2676, 8.118793
557.7498, 7.028681
558.2319, 6.839621
558.7140, 7.762411
559.1961, 8.831319
559.6782, 8.875347
560.1603, 7.874047
560.6425, 7.682675
561.1246, 9.194214
561.6067, 10.20005
562.0888, 9.646583
562.5709, 8.475359
563.0530, 7.775607
563.5352, 7.819158
564.0173, 7.991420
564.4994, 7.712111
564.9815, 7.137804
565.4636, 6.833526
565.9457, 6.909469
566.4279, 6.932866
566.9100, 6.490518
567.3921, 5.792147
567.8742, 5.570088
568.3563, 6.078203
568.8384, 6.633226
569.3206, 7.046682
569.8027, 7.359283
570.2848, 7.674263
570.7669, 7.977937
571.2490, 8.061043
571.7311, 7.680907
572.2133, 6.912537
572.6954, 6.592081
573.1775, 6.844052
573.6596, 7.414054
574.1417, 8.689104
574.6238, 9.975281
575.1060, 10.67887
575.5881, 10.73848
576.0702, 10.46561
576.5523, 10.00764
577.0344, 9.433799
577.5165, 8.991683
577.9987, 8.682703
578.4808, 8.519328
578.9629, 8.722705
579.4450, 8.926923
579.9271, 8.606348
580.4092, 7.690864
580.8914, 6.695356
581.3735, 5.472627
581.8556, 4.481105
582.3377, 4.533113
582.8198, 5.448793
583.3019, 5.937612
583.7841, 5.149346
584.2662, 3.703973
584.7483, 3.331376
585.2304, 5.065282
585.7125, 6.194361
586.1946, 6.185266
586.6768, 6.086436
587.1589, 6.620547
587.6410, 7.627623
588.1231, 8.573382
588.6052, 9.190238
589.0873, 9.441926
589.5695, 9.078799
590.0516, 7.960487
590.5337, 7.235204
591.0158, 7.110148
591.4979, 7.478686
591.9800, 8.593872
592.4622, 10.18163
592.9443, 11.08675
593.4264, 10.77712
593.9085, 9.818814
594.3906, 8.202797
594.8727, 6.301008
595.3549, 5.264817
595.8370, 5.502327
596.3191, 6.150627
596.8012, 6.091194
597.2833, 5.119159
597.7654, 4.918488
598.2476, 6.089427
598.7297, 7.215144
599.2118, 7.873567
599.6939, 8.231171
600.1760, 8.659643
600.6581, 9.221460
601.1403, 9.412793
601.6224, 8.253376
602.1045, 5.845589
602.5866, 4.801704
603.0687, 5.588912
603.5508, 6.725342
604.0330, 7.806969
604.5151, 8.688318
604.9972, 9.101140
605.4793, 8.951858
605.9614, 8.668691
606.4435, 8.431554
606.9257, 8.204264
607.4078, 7.766174
607.8899, 7.181060
608.3720, 7.184916
608.8541, 8.425035
609.3362, 10.27824
609.8184, 10.74098
610.3005, 8.345893
610.7826, 6.719950
611.2647, 6.120416
611.7468, 6.031790
612.2289, 6.346513
612.7111, 6.887892
613.1932, 7.340184
613.6753, 7.513707
614.1574, 7.537948
614.6395, 7.674582
615.1216, 7.939890
615.6038, 8.102292
616.0859, 8.088139
616.5680, 8.005651
617.0501, 7.813048
617.5322, 7.602304
618.0143, 7.737028
618.4965, 8.800014
618.9786, 9.657137
619.4607, 9.395705
619.9428, 8.509364
620.4249, 7.798690
620.9070, 7.481902
621.3892, 7.675461
621.8713, 8.642452
622.3534, 10.36255
622.8355, 11.06944
623.3176, 10.11410
623.7997, 8.919797
624.2819, 7.093931
624.7640, 5.519058
625.2461, 5.193453
625.7282, 6.104175
626.2103, 7.179301
626.6924, 7.602416
627.1745, 7.602859
627.6566, 7.718766
628.1387, 7.954321
628.6208, 8.265718
629.1030, 8.685649
629.5851, 9.117857
630.0672, 9.491804
630.5493, 9.843770
631.0314, 9.812163
631.5135, 8.924554
631.9957, 8.037621
632.4778, 7.796316
632.9599, 7.950205
633.4420, 7.908790
633.9241, 7.454890
634.4063, 6.872686
634.8884, 6.506170
635.3705, 6.324029
635.8526, 6.667506
636.3347, 8.204692
636.8168, 9.316547
637.2990, 9.252924
637.7811, 8.597332
638.2632, 7.992177
638.7453, 7.565316
639.2274, 7.249383
639.7095, 7.029431
640.1917, 6.881167
640.6738, 6.745333
641.1559, 6.622410
641.6380, 6.522430
642.1201, 6.349297
642.6022, 6.384222
643.0844, 7.376920
643.5665, 10.48149
644.0486, 12.07216
644.5307, 11.02684
645.0128, 9.562716
645.4949, 8.911188
645.9771, 8.773376
646.4592, 8.239817
646.9413, 6.893966
647.4234, 5.487210
647.9055, 5.207901
648.3876, 6.031343
648.8698, 6.726522
649.3519, 7.206906
649.8340, 7.528242
650.3161, 7.631547
650.7982, 7.618827
651.2803, 7.693092
651.7625, 7.895784
652.2446, 8.112890
652.7267, 8.477719
653.2088, 8.722774
653.6909, 8.161222
654.1730, 7.062979
654.6552, 6.884296
655.1373, 8.626082
655.6194, 11.31415
656.1015, 12.33721
656.5836, 10.91676
657.0657, 9.836668
657.5479, 9.617101
658.0300, 9.396296
658.5121, 8.542586
658.9942, 7.462711
659.4763, 7.068380
659.9584, 7.832354
660.4406, 8.769290
660.9227, 8.961811
661.4048, 8.646633
661.8869, 8.398147
662.3690, 8.299165
662.8511, 8.339643
663.3333, 8.542094
663.8154, 8.861450
664.2975, 9.106952
664.7796, 9.425125
665.2617, 9.453402
665.7438, 8.909305
666.2260, 8.310328
666.7081, 7.937633
667.1902, 7.814020
667.6723, 7.895289
668.1544, 8.169721
668.6365, 8.590875
669.1187, 9.267246
669.6008, 10.16331
670.0829, 10.37846
670.5650, 9.602604
671.0471, 8.612177
671.5292, 7.825743
672.0114, 7.295494
672.4935, 7.185522
672.9756, 7.941383
673.4577, 8.341713
673.9398, 7.404983
674.4219, 6.376123
674.9041, 6.796155
675.3862, 8.390996
675.8683, 9.555589
676.3504, 9.260381
676.8325, 8.135809
677.3146, 7.785947
677.7968, 8.503633
678.2789, 8.496426
678.7610, 6.700264
679.2431, 5.292274
679.7252, 6.020572
680.2073, 7.951474
680.6895, 9.195374
681.1716, 9.249022
681.6537, 8.884180
682.1358, 8.212712
682.6179, 7.550282
683.1000, 7.573188
683.5822, 8.201049
684.0643, 8.407302
684.5464, 7.445229
685.0285, 5.862212
685.5106, 5.262134
685.9927, 6.130402
686.4749, 6.842897
686.9570, 7.166830
687.4391, 7.497902
687.9212, 8.163220
688.4033, 8.921412
688.8854, 9.281481
689.3676, 9.015127
689.8497, 8.647572
690.3318, 8.849944
690.8139, 9.215228
691.2960, 8.562595
691.7781, 6.829676
692.2603, 5.689420
692.7424, 6.296193
693.2245, 7.908866
693.7066, 8.559185
694.1887, 7.532207
694.6708, 6.968986
695.1530, 6.974854
695.6351, 7.298764
696.1172, 8.032974
696.5993, 8.941576
697.0814, 9.718944
697.5635, 10.26936
698.0457, 10.46526
698.5278, 9.911303
699.0099, 8.905760
699.4920, 8.443130
699.9741, 8.617243
700.4562, 8.996744
700.9384, 9.463162
701.4205, 9.860880
701.9026, 9.817865
702.3847, 9.075466
702.8668, 8.586776
703.3489, 8.634286
703.8311, 8.656800
704.3132, 8.279669
704.7953, 7.726480
705.2774, 7.327330
705.7595, 7.196830
706.2416, 7.309044
706.7238, 7.815312
707.2059, 8.565905
707.6880, 8.897444
708.1701, 8.779099
708.6522, 8.303385
709.1343, 7.151744
709.6164, 6.090195
710.0985, 6.717324
710.5806, 9.482974
711.0627, 10.57729
711.5449, 7.847269
712.0270, 5.460009
712.5091, 5.719450
712.9912, 7.404329
713.4733, 8.971350
713.9554, 9.932392
714.4376, 10.21730
714.9197, 9.536119
715.4018, 8.201947
715.8839, 7.438032
716.3660, 7.297345
716.8481, 7.375061
717.3303, 7.621942
717.8124, 7.941332
718.2945, 8.241489
718.7766, 8.521851
719.2587, 8.777445
719.7408, 9.260165
720.2230, 9.418740
720.7051, 8.627799
721.1872, 7.627923
721.6693, 7.364145
722.1514, 7.883382
722.6335, 8.532069
723.1157, 8.860841
723.5978, 8.891680
724.0799, 8.564733
724.5620, 7.811407
725.0441, 7.434411
725.5262, 7.789302
726.0084, 8.188470
726.4905, 7.966621
726.9726, 7.308876
727.4547, 6.952793
727.9368, 7.181496
728.4189, 7.326766
728.9011, 6.945374
729.3832, 6.571192
729.8653, 6.943072
730.3474, 7.826560
730.8295, 8.234452
731.3116, 7.575569
731.7938, 6.556008
732.2759, 6.551562
732.7580, 7.584275
733.2401, 8.041187
733.7222, 7.606521
734.2043, 7.072866
734.6865, 6.738402
735.1686, 6.682269
735.6507, 7.132509
736.1328, 8.350008
736.6149, 9.161595
737.0970, 9.129415
737.5792, 8.804151
738.0613, 8.478730
738.5434, 8.173099
739.0255, 7.788956
739.5076, 7.308801
739.9897, 7.000462
740.4719, 7.329454
740.9540, 8.162235
741.4361, 8.478651
741.9182, 8.167307
742.4003, 7.895589
742.8824, 7.895507
743.3646, 8.063370
743.8467, 8.330793
744.3288, 8.703678
744.8109, 8.894397
745.2930, 8.656314
745.7751, 8.492759
746.2573, 8.843089
746.7394, 9.246847
747.2215, 9.025357
747.7036, 8.195194
748.1857, 7.469833
748.6678, 7.496400
749.1500, 7.801794
749.6321, 6.939839
750.1142, 4.912560
750.5963, 4.448572
751.0784, 6.560547
751.5605, 8.935592
752.0427, 9.731766
752.5248, 9.201466
753.0069, 8.819484
753.4890, 8.913104
753.9711, 8.637287
754.4532, 7.403713
754.9354, 6.189407
755.4175, 5.594444
755.8996, 5.610211
756.3817, 6.121348
756.8638, 7.106251
757.3459, 8.216691
757.8281, 9.202866
758.3102, 9.977980
758.7923, 10.14296
759.2744, 9.659308
759.7565, 8.820945
760.2386, 7.606298
760.7208, 6.414642
761.2029, 5.986390
761.6850, 6.579496
762.1671, 6.887451
762.6492, 6.546237
763.1313, 6.376868
763.6135, 6.554481
764.0956, 7.083906
764.5777, 8.342411
765.0598, 10.14791
765.5419, 11.15800
766.0240, 9.837737
766.5062, 7.825196
766.9883, 7.691027
767.4704, 8.964909
767.9525, 9.694277
768.4346, 9.407247
768.9167, 8.645191
769.3989, 7.774258
769.8810, 6.897515
770.3631, 6.715820
770.8452, 7.759317
771.3273, 8.537170
771.8094, 8.593921
772.2916, 8.715827
772.7737, 9.567699
773.2558, 10.74655
773.7379, 11.38436
774.2200, 11.18814
774.7021, 10.66163
775.1843, 9.925959
775.6664, 9.176418
776.1485, 8.628032
776.6306, 8.313779
777.1127, 8.369157
777.5948, 8.867725
778.0770, 9.352197
778.5591, 8.971786
779.0412, 7.634761
779.5233, 7.485321
780.0054, 9.218766
780.4875, 10.68025
780.9697, 11.01266
781.4518, 10.87730
781.9339, 10.83571
782.4160, 10.89969
782.8981, 11.05504
783.3802, 11.53110
783.8624, 11.83104
784.3445, 11.49615
784.8266, 10.95161
785.3087, 10.91201
785.7908, 11.30372
786.2729, 11.26481
786.7551, 10.13713
787.2372, 8.600905
787.7193, 8.223829
788.2014, 8.987727
788.6835, 9.039813
789.1656, 7.931046
789.6478, 6.998087
790.1299, 7.151322
790.6120, 7.967702
791.0941, 8.471011
791.5762, 8.683157
792.0583, 8.543210
792.5404, 7.666259
793.0225, 6.852827
793.5046, 6.517593
793.9868, 6.450348
794.4689, 6.161384
794.9510, 5.643085
795.4331, 5.718844
795.9152, 7.649259
796.3973, 10.10596
796.8795, 10.64333
797.3616, 9.633984
797.8437, 8.865907
798.3258, 8.778495
798.8079, 8.990984
799.2900, 9.232670
799.7722, 9.446624
800.2543, 9.286469
800.7364, 8.493507
801.2185, 7.854991
801.7006, 7.250386
802.1827, 7.002081
802.6649, 7.581281
803.1470, 8.543690
803.6291, 9.070978
804.1112, 8.952284
804.5933, 8.663820
805.0754, 8.291213
805.5576, 7.980597
806.0397, 7.803767
806.5218, 7.820314
807.0039, 8.254605
807.4860, 9.145380
807.9681, 10.04093
808.4503, 10.45027
808.9324, 10.42828
809.4145, 10.13457
809.8966, 9.446160
810.3787, 9.348397
810.8608, 10.48903
811.3430, 11.53471
811.8251, 11.00613
812.3072, 9.220012
812.7893, 8.425885
813.2714, 9.721933
813.7535, 10.35984
814.2357, 9.422051
814.7178, 8.197110
815.1999, 7.500642
815.6820, 7.230395
816.1641, 6.887881
816.6462, 6.286989
817.1284, 6.162580
817.6105, 7.652422
818.0926, 9.887220
818.5747, 11.30471
819.0568, 11.87466
819.5389, 11.70168
820.0211, 10.78656
820.5032, 9.652157
820.9853, 8.843551
821.4674, 8.368147
821.9495, 8.444267
822.4316, 9.686033
822.9138, 10.11271
823.3959, 8.216142
823.8780, 6.576999
824.3601, 7.321986
824.8422, 9.599593
825.3243, 11.15403
825.8065, 11.48709
826.2886, 11.36752
826.7707, 10.90094
827.2528, 10.26593
827.7349, 9.350588
828.2170, 8.449683
828.6992, 8.282755
829.1813, 9.053910
829.6634, 9.945812
830.1455, 10.04494
830.6276, 9.568513
831.1097, 9.096025
831.5919, 8.637612
832.0740, 8.849989
832.5561, 10.07474
833.0382, 11.39313
833.5203, 11.96103
834.0024, 11.84062
834.4846, 11.49442
834.9667, 10.47051
835.4488, 9.977096
835.9309, 10.63739
836.4130, 11.22654
836.8951, 10.85892
837.3773, 10.06076
837.8594, 9.873610
838.3415, 10.59627
838.8236, 11.28810
839.3057, 11.51258
839.7878, 11.44461
840.2700, 11.35706
840.7521, 11.08957
841.2342, 9.900742
841.7163, 7.802770
842.1984, 6.429124
842.6805, 7.594574
843.1627, 10.19284
843.6448, 10.66427
844.1269, 8.935690
844.6090, 7.658133
845.0911, 7.232514
845.5732, 7.563607
846.0554, 8.913576
846.5375, 10.76727
847.0196, 11.60777
847.5017, 10.87848
847.9838, 10.38215
848.4659, 10.38606
848.9481, 10.30265
849.4302, 9.760771
849.9123, 9.091876
850.3944, 8.667734
850.8765, 8.544055
851.3586, 8.615895
851.8408, 9.068156
852.3229, 9.459738
852.8050, 9.323793
853.2871, 8.908213
853.7692, 8.539713
854.2513, 8.323001
854.7335, 8.392705
855.2156, 8.843934
855.6977, 9.560398
856.1798, 10.46239
856.6619, 11.53058
857.1440, 12.08874
857.6262, 12.08640
858.1083, 11.59664
858.5904, 10.42537
859.0725, 9.143647
859.5546, 8.543045
860.0367, 8.670346
860.5189, 8.957575
861.0010, 9.826715
861.4831, 10.27577
861.9652, 9.417004
862.4473, 8.715701
862.9294, 9.917428
863.4116, 12.17636
863.8937, 12.79655
864.3758, 10.37936
864.8579, 8.224589
865.3400, 8.996013
865.8221, 10.67249
866.3043, 10.93793
866.7864, 10.11126
867.2685, 9.465379
867.7506, 9.429259
868.2327, 9.542982
868.7148, 9.341419
869.1970, 8.906396
869.6791, 8.463150
870.1612, 8.012663
870.6433, 7.790700
871.1254, 7.939518
871.6075, 7.803012
872.0897, 6.618672
872.5718, 4.994986
873.0539, 5.016192
873.5360, 7.904088
874.0181, 9.632876
874.5002, 9.582810
874.9823, 9.046632
875.4644, 8.081979
875.9465, 7.057415
876.4286, 6.156066
876.9108, 5.462703
877.3929, 5.677083
877.8750, 7.983880
878.3571, 10.15962
878.8392, 10.90901
879.3214, 10.88333
879.8035, 10.85280
880.2856, 10.83396
880.7677, 10.37566
881.2498, 9.213288
881.7319, 7.977465
882.2141, 7.436799
882.6962, 7.454135
883.1783, 7.682223
883.6604, 8.089330
884.1425, 8.645315
884.6246, 9.386401
885.1068, 9.753345
885.5889, 9.032203
886.0710, 7.402388
886.5531, 6.249469
887.0352, 5.553129
887.5173, 5.424721
887.9995, 6.164022
888.4816, 7.074853
888.9637, 8.087542
889.4458, 8.866593
889.9279, 8.509496
890.4100, 6.468126
890.8922, 5.505160
891.3743, 7.098739
891.8564, 8.581232
892.3385, 8.523624
892.8206, 7.846377
893.3027, 7.660391
893.7849, 8.008356
894.2670, 8.243734
894.7491, 8.033003
895.2312, 7.621420
895.7133, 6.976873
896.1954, 6.410583
896.6776, 6.664711
897.1597, 7.544480
897.6418, 7.981124
898.1239, 7.526582
898.6060, 6.993296
899.0881, 7.599476
899.5703, 8.985545
900.0524, 9.045414
900.5345, 7.688040
901.0166, 6.797050
901.4987, 6.851077
901.9808, 7.333281
902.4630, 7.973045
902.9451, 8.613363
903.4272, 8.654589
903.9093, 7.618936
904.3914, 7.093271
904.8735, 7.229753
905.3557, 7.699486
905.8378, 8.984480
906.3199, 10.15277
906.8020, 10.04852
907.2841, 8.684073
907.7662, 7.259026
908.2484, 5.496764
908.7305, 4.445100
909.2126, 5.037773
909.6947, 6.130298
910.1768, 6.833057
910.6589, 7.081428
911.1411, 6.928018
911.6232, 6.375404
912.1053, 6.040130
912.5874, 6.692487
913.0695, 7.743095
913.5516, 8.287274
914.0338, 8.434196
914.5159, 8.649701
914.9980, 9.016615
915.4801, 9.141298
915.9622, 8.673444
916.4443, 7.893912
916.9265, 7.401709
917.4086, 7.197300
917.8907, 7.502861
918.3728, 8.487193
918.8549, 9.071636
919.3370, 8.690234
919.8192, 7.845899
920.3013, 7.170220
920.7834, 6.655791
921.2655, 6.463506
921.7476, 6.843785
922.2297, 7.113730
922.7119, 7.248085
923.1940, 7.176683
923.6761, 6.557154
924.1582, 5.777638
924.6403, 5.710070
925.1224, 6.629004
925.6046, 7.384184
926.0867, 7.499738
926.5688, 7.600611
927.0509, 8.235446
927.5330, 8.899088
928.0151, 8.847118
928.4973, 8.168509
928.9794, 7.660830
929.4615, 7.763696
929.9436, 8.013738
930.4257, 8.066725
930.9078, 7.978037
931.3900, 7.787354
931.8721, 7.532930
932.3542, 7.313927
932.8363, 7.160495
933.3184, 6.974699
933.8005, 6.548947
934.2827, 6.144479
934.7648, 6.714910
935.2469, 8.106236
935.7290, 8.779524
936.2111, 8.467657
936.6932, 7.890150
937.1754, 7.434428
937.6575, 7.071722
938.1396, 6.772727
938.6217, 6.554189
939.1038, 6.133253
939.5859, 5.315794
940.0681, 4.829967
940.5502, 5.025784
941.0323, 5.368586
941.5144, 5.314206
941.9965, 5.787645
942.4786, 5.253039
942.9608, 6.454114
943.4429, 7.186699
943.9250, 7.297019
944.4071, 7.045217
944.8892, 6.041680
945.3713, 5.050485
945.8535, 5.073514
946.3356, 6.054488
946.8177, 6.897279
947.2998, 7.263852
947.7819, 7.404435
948.2640, 7.388357
948.7462, 7.238589
949.2283, 6.739226
949.7104, 6.187339
950.1925, 6.279250
950.6746, 7.173180
951.1567, 8.048807
951.6389, 8.220159
952.1210, 8.073857
952.6031, 8.124965
953.0852, 8.238501
953.5673, 8.090208
954.0494, 7.670618
954.5316, 7.241308
955.0137, 6.947350
955.4958, 6.567972
955.9779, 5.438661
956.4600, 3.906954
956.9421, 4.078627
957.4242, 5.871016
957.9063, 6.705461
958.3884, 5.837805
958.8705, 4.859794
959.3527, 5.073106
959.8348, 6.088379
960.3169, 6.756024
960.7990, 6.984443
961.2811, 7.456094
961.7632, 8.476495
962.2454, 8.863542
962.7275, 7.841162
963.2096, 6.480520
963.6917, 5.973523
964.1738, 6.237397
964.6559, 6.345667
965.1381, 6.250773
965.6202, 6.074450
966.1023, 5.644321
966.5844, 5.336545
967.0665, 5.383633
967.5486, 5.608665
968.0308, 5.922930
968.5129, 6.303320
968.9950, 6.106438
969.4771, 4.379798
969.9592, 3.143764
970.4413, 3.392420
970.9235, 4.116892
971.4056, 4.586480
971.8877, 4.865158
972.3698, 5.270298
972.8519, 5.886101
973.3340, 6.415827
973.8162, 6.535028
974.2983, 6.662776
974.7804, 7.289621
975.2625, 8.054991
975.7446, 8.619164
976.2267, 8.811482
976.7089, 8.123534
977.1910, 6.250343
977.6731, 4.697241
978.1552, 5.622695
978.6373, 7.553028
979.1194, 7.742201
979.6016, 6.700078
980.0837, 6.342674
980.5658, 6.963630
981.0479, 7.204758
981.5300, 6.081526
982.0121, 4.488992
982.4943, 4.098463
982.9764, 4.690202
983.4585, 4.946392
983.9406, 4.845507
984.4227, 5.241925
984.9048, 6.452685
985.3870, 7.578966
985.8691, 7.782991
986.3512, 7.303169
986.8333, 6.881960
987.3154, 6.520538
987.7975, 6.179750
988.2797, 5.795703
988.7618, 5.737487
989.2439, 6.345833
989.7260, 6.912999
990.2081, 6.494354
990.6902, 5.250236
991.1724, 4.752288
991.6545, 5.547392
992.1366, 5.786774
992.6187, 4.867101
993.1008, 4.125900
993.5829, 4.449044
994.0651, 5.097551
994.5472, 4.800237
995.0293, 5.406447
995.5114, 6.138936
995.9935, 5.788454
996.4756, 6.176814
996.9578, 6.848414
997.4399, 5.980927
997.9220, 5.203067
998.4041, 4.680521
998.8862, 4.685353
999.3683, 5.254333
999.8505, 5.831769
1000.333, 6.467109
1000.815, 6.841967
1001.297, 6.533720
1001.779, 6.186203
1002.261, 6.518389
1002.743, 7.170239
1003.225, 7.289701
1003.707, 6.661495
1004.190, 6.060679
1004.672, 6.056555
1005.154, 6.001139
1005.636, 5.152311
1006.118, 4.222253
1006.600, 4.158378
1007.082, 4.786962
1007.564, 5.308671
1008.046, 5.429766
1008.529, 5.697432
1009.011, 7.049799
1009.493, 8.311288
1009.975, 7.774196
1010.457, 6.381499
1010.939, 6.032774
1011.421, 6.653512
1011.903, 6.601779
1012.385, 5.054598
1012.868, 3.413623
1013.350, 3.284897
1013.832, 4.066814
1014.314, 4.719831
1014.796, 5.300073
1015.278, 6.243041
1015.760, 7.478384
1016.242, 7.960333
1016.725, 7.024694
1017.207, 5.701807
1017.689, 5.580130
1018.171, 6.301817
1018.653, 6.575317
1019.135, 6.457512
1019.617, 6.496027
1020.099, 6.800542
1020.581, 6.947583
1021.064, 6.634238
1021.546, 6.067878
1022.028, 5.443174
1022.510, 4.833299
1022.992, 5.412146
1023.474, 7.222127
1023.956, 8.007158
1024.438, 7.109704
1024.921, 5.955891
1025.403, 5.586328
1025.885, 5.765980
1026.367, 5.995020
1026.849, 6.281516
1027.331, 6.540084
1027.813, 6.851763
1028.295, 6.504944
1028.777, 4.981343
1029.260, 3.968386
1029.742, 5.094914
1030.224, 7.390797
1030.706, 7.986625
1031.188, 6.447042
1031.670, 5.574008
1032.152, 5.555930
1032.634, 5.658516
1033.116, 5.716570
1033.599, 5.747913
1034.081, 5.682070
1034.563, 5.657823
1035.045, 6.260341
1035.527, 5.542316
1036.009, 8.179363
1036.491, 4.734300
1036.973, 2.305502
1037.456, 2.412003
1037.938, 3.609299
1038.420, 5.082072
1038.902, 6.624542
1039.384, 7.572067
1039.866, 7.979478
1040.348, 7.601929
1040.830, 5.637024
1041.313, 4.038206
1041.795, 3.185994
1042.277, 2.992958
1042.759, 3.768935
1043.241, 5.133076
1043.723, 5.850717
1044.205, 5.634056
1044.687, 5.536814
1045.169, 5.727880
1045.651, 5.876961
1046.134, 5.806155
1046.616, 5.732769
1047.098, 5.787290
1047.580, 5.988470
1048.062, 6.453790
1048.544, 7.438230
1049.026, 7.829078
1049.508, 6.800593
1049.991, 6.036994
1050.473, 6.353623
1050.955, 6.934705
1051.437, 7.181663
1051.919, 7.110681
1052.401, 6.867829
1052.883, 6.438353
1053.365, 5.999198
1053.848, 5.723741
1054.330, 5.269487
1054.812, 3.817899
1055.294, 2.731082
1055.776, 3.691104
1056.258, 5.863095
1056.740, 7.059636
1057.222, 6.784493
1057.704, 6.277306
1058.187, 5.689269
1058.669, 5.188473
1059.151, 4.890891
1059.633, 4.674724
1060.115, 4.361096
1060.597, 4.058577
1061.079, 4.110818
1061.561, 4.638944
1062.043, 4.869514
1062.526, 3.818330
1063.008, 3.333806
1063.490, 4.954684
1063.972, 6.871026
1064.454, 7.526472
1064.936, 7.200780
1065.418, 6.774297
1065.900, 6.431088
1066.383, 5.660163
1066.865, 3.302109
1067.347, 1.711826
1067.829, 2.528644
1068.311, 4.084252
1068.793, 5.273641
1069.275, 5.968438
1069.757, 6.028144
1070.240, 5.477521
1070.722, 5.274137
1071.204, 6.210582
1071.686, 7.063553
1072.168, 7.133790
1072.650, 7.009902
1073.132, 7.182201
1073.614, 7.516507
1074.096, 7.909336
1074.578, 8.247056
1075.061, 7.810863
1075.543, 5.423035
1076.025, 3.600966
1076.507, 3.958516
1076.989, 4.956136
1077.471, 5.689994
1077.953, 6.077598
1078.435, 6.050040
1078.918, 5.676385
1079.400, 5.336313
1079.882, 5.085394
1080.364, 5.076647
1080.846, 5.880450
1081.328, 6.432500
1081.810, 5.410171
1082.292, 3.988347
1082.774, 4.044282
1083.257, 5.411315
1083.739, 6.116470
1084.221, 5.172867
1084.703, 4.494857
1085.185, 5.744764
1085.667, 6.676614
1086.149, 4.983263
1086.631, 2.729342
1087.114, 2.676157
1087.596, 4.396063
1088.078, 5.387479
1088.560, 4.750750
1089.042, 4.260283
1089.524, 4.889033
1090.006, 5.587854
1090.488, 5.880051
1090.970, 5.848033
1091.453, 5.234380
1091.935, 4.457728
1092.417, 4.741035
1092.899, 6.541141
1093.381, 7.460670
1093.863, 5.786067
1094.345, 4.100783
1094.827, 3.382184
1095.309, 3.352425
1095.792, 4.124990
1096.274, 5.244284
1096.756, 5.945024
1097.238, 6.092694
1097.720, 6.067203
1098.202, 5.767510
1098.684, 5.617001
1099.166, 6.183192
1099.649, 6.509604
1100.131, 5.474419
1100.613, 4.014686
1101.095, 3.688466
1101.577, 4.545794
1102.059, 5.106032
1102.541, 4.553653
1103.023, 4.434030
1103.505, 5.789636
1103.988, 6.888287
1104.470, 6.715020
1104.952, 5.838690
1105.434, 4.645830
1105.916, 3.350071
1106.398, 2.734766
1106.880, 3.210853
1107.362, 3.672955
1107.844, 3.992548
1108.327, 4.215636
1108.809, 4.431403
1109.291, 4.497546
1109.773, 4.059365
1110.255, 3.391437
1110.737, 3.357511
1111.219, 4.247430
1111.701, 4.864621
1112.184, 4.749953
1112.666, 4.877496
1113.148, 5.956870
1113.630, 6.839366
1114.112, 6.727749
1114.594, 5.922077
1115.076, 4.783537
1115.558, 3.194129
1116.041, 2.505599
1116.523, 3.400987
1117.005, 4.025558
1117.487, 3.910613
1117.969, 3.917402
1118.451, 4.734863
1118.933, 5.619903
1119.415, 5.476329
1119.897, 4.437658
1120.380, 4.030437
1120.862, 4.734466
1121.344, 4.830638
1121.826, 3.830941
1122.308, 3.145230
1122.790, 3.284119
1123.272, 3.922958
1123.754, 4.971522
1124.236, 6.126001
1124.719, 6.257442
1125.201, 5.078742
1125.683, 4.386682
1126.165, 4.240033
1126.647, 4.407835
1127.129, 4.944199
1127.611, 5.430389
1128.093, 5.616858
1128.576, 5.474921
1129.058, 4.852514
1129.540, 3.795701
1130.022, 3.250336
1130.504, 3.231587
1130.986, 3.687390
1131.468, 4.666804
1131.950, 5.560540
1132.432, 6.096515
1132.915, 6.234429
1133.397, 5.804442
1133.879, 5.099921
1134.361, 5.321165
1134.843, 6.361907
1135.325, 7.073468
1135.807, 7.342132
1136.289, 6.598169
1136.771, 4.686386
1137.254, 2.958084
1137.736, 2.482286
1138.218, 2.943748
1138.700, 4.225145
1139.182, 5.875344
1139.664, 6.159392
1140.146, 5.379567
1140.628, 4.991188
1141.111, 5.230853
1141.593, 5.555460
1142.075, 5.683320
1142.557, 5.618976
1143.039, 5.313725
1143.521, 4.866171
1144.003, 4.414079
1144.485, 3.958319
1144.968, 3.349163
1145.450, 2.745785
1145.932, 2.680408
1146.414, 3.285637
1146.896, 4.126668
1147.378, 5.045372
1147.860, 5.769971
1148.342, 5.824311
1148.824, 5.719157
1149.307, 6.252129
1149.789, 6.983784
1150.271, 7.073987
1150.753, 6.465123
1151.235, 5.566794
1151.717, 4.440975
1152.199, 3.551822
1152.681, 3.139439
1153.163, 3.077789
1153.646, 3.589236
1154.128, 4.160225
1154.610, 4.228365
1155.092, 3.928842
1155.574, 3.653484
1156.056, 3.475587
1156.538, 3.355339
1157.020, 3.213912
1157.503, 3.225199
1157.985, 3.344021
1158.467, 3.735353
1158.949, 5.171022
1159.431, 6.505341
1159.913, 5.736589
1160.395, 3.199121
1160.877, 2.207088
1161.359, 3.972704
1161.842, 5.214758
1162.324, 5.660563
1162.806, 5.962564
1163.288, 6.575252
1163.770, 6.684247
1164.252, 5.219035
1164.734, 3.174441
1165.216, 2.916575
1165.698, 4.649546
1166.181, 5.382090
1166.663, 4.767928
1167.145, 4.477832
1167.627, 4.875162
1168.109, 5.070330
1168.591, 4.563866
1169.073, 3.933509
1169.555, 3.835300
1170.037, 4.177366
1170.520, 4.828192
1171.002, 5.755472
1171.484, 5.429687
1171.966, 3.833076
1172.448, 2.949628
1172.930, 3.296699
1173.412, 3.774977
1173.894, 3.626200
1174.377, 3.418763
1174.859, 4.228479
1175.341, 5.545075
1175.823, 5.924211
1176.305, 5.610693
1176.787, 5.161890
1177.269, 4.764703
1177.751, 4.913202
1178.234, 5.699759
1178.716, 6.181597
1179.198, 5.538394
1179.680, 4.473991
1180.162, 3.386075
1180.644, 2.631289
1181.126, 2.881560
1181.608, 3.691144
1182.090, 4.347430
1182.573, 4.714556
1183.055, 4.918574
1183.537, 5.026185
1184.019, 4.814771
1184.501, 3.513925
1184.983, 2.685200
1185.465, 3.880198
1185.947, 5.278643
1186.429, 5.124693
1186.912, 4.105142
1187.394, 3.611518
1187.876, 3.779599
1188.358, 3.935571
1188.840, 4.061285
1189.322, 4.028037
1189.804, 3.423509
1190.286, 3.188870
1190.769, 3.895250
1191.251, 4.828147
1191.733, 5.463695
1192.215, 5.828769
1192.697, 5.987115
1193.179, 5.930766
1193.661, 5.668145
1194.143, 5.011088
1194.625, 4.910962
1195.108, 5.623607
1195.590, 6.460917
1196.072, 7.157237
1196.554, 7.575473
1197.036, 7.574930
1197.518, 7.142090
1198.000, 6.009280
1198.482, 4.315911
1198.964, 3.241393
1199.447, 2.816321
1199.929, 2.871584
1200.411, 3.332252
1200.893, 3.958269
1201.375, 4.614964
1201.857, 5.249861
1202.339, 5.852338
1202.821, 6.357121
1203.304, 6.799065
1203.786, 6.990668
1204.268, 6.397990
1204.750, 5.303979
1205.232, 4.316073
1205.714, 3.680422
1206.196, 3.829427
1206.678, 5.397353
1207.161, 6.468589
1207.643, 5.162566
1208.125, 3.733518
1208.607, 3.806609
1209.089, 4.522245
1209.571, 5.083146
1210.053, 5.431380
1210.535, 5.669303
1211.017, 5.810144
1211.500, 5.845708
1211.982, 5.800790
1212.464, 5.610431
1212.946, 5.198607
1213.428, 4.728625
1213.910, 4.296962
1214.392, 3.768578
1214.874, 2.855816
1215.356, 1.846894
1215.839, 1.674015
1216.321, 2.436554
1216.803, 3.054778
1217.285, 3.471383
1217.767, 4.338593
1218.249, 5.909269
1218.731, 6.284492
1219.213, 4.426310
1219.696, 2.377587
1220.178, 2.482107
1220.660, 3.762278
1221.142, 3.850060
1221.624, 3.211533
1222.106, 3.414997
1222.588, 4.341846
1223.070, 5.533329
1223.552, 6.713217
1224.035, 7.170952
1224.517, 6.573543
1224.999, 5.569951
1225.481, 4.343943
1225.963, 3.369729
1226.445, 3.100898
1226.927, 3.302618
1227.409, 4.109662
1227.891, 4.998061
1228.374, 5.037909
1228.856, 4.307557
1229.338, 3.908925
1229.820, 4.303754
1230.302, 4.426779
1230.784, 3.618251
1231.266, 3.079638
1231.748, 3.358926
1232.231, 3.830506
1232.713, 4.074324
1233.195, 4.309478
1233.677, 4.970835
1234.159, 5.941911
1234.641, 6.136983
1235.123, 5.395573
1235.605, 4.532622
1236.088, 3.455421
1236.570, 3.114455
1237.052, 3.842195
1237.534, 4.421629
1238.016, 4.034289
1238.498, 3.414237
1238.980, 3.665887
1239.462, 4.405146
1239.944, 4.705082
1240.427, 4.591749
1240.909, 3.680736
1241.391, 2.483789
1241.873, 3.041695
1242.355, 5.397133
1242.837, 6.854405
1243.319, 5.877197
1243.801, 4.582686
1244.283, 4.695529
1244.766, 4.958755
1245.248, 4.168862
1245.730, 3.276250
1246.212, 3.557567
1246.694, 4.284789
1247.176, 3.972938
1247.658, 2.586837
1248.140, 1.530707
1248.622, 0.8102181
1249.105, 0.8625816
1249.587, 2.378699
1250.069, 3.551944
1250.551, 3.751114
1251.033, 3.932617
1251.515, 4.816179
1251.997, 5.785029
1252.479, 5.828746
1252.962, 5.182844
1253.444, 5.242698
1253.926, 5.992031
1254.408, 6.625899
1254.890, 7.081233
1255.372, 7.212051
1255.854, 6.965716
1256.336, 5.976109
1256.818, 4.004778
1257.301, 2.468165
1257.783, 3.518888
1258.265, 2.271560
1258.747, 4.370961
1259.229, 2.887108
1259.711, 3.944730
1260.193, 6.133095
1260.675, 6.104328
1261.157, 3.975011
1261.640, 2.926899
1262.122, 4.203332
1262.604, 5.206866
1263.086, 4.966201
1263.568, 4.550360
1264.050, 4.119613
1264.532, 3.817326
1265.014, 3.626499
1265.497, 3.701765
1265.979, 4.340224
1266.461, 5.364228
1266.943, 6.061711
1267.425, 6.454524
1267.907, 6.228542
1268.389, 5.302502
1268.871, 4.620996
1269.354, 4.349864
1269.836, 4.436579
1270.318, 4.862964
1270.800, 5.187066
1271.282, 4.875404
1271.764, 4.527596
1272.246, 5.605540
1272.728, 6.975751
1273.210, 6.158667
1273.693, 4.355292
1274.175, 4.048951
1274.657, 5.051651
1275.139, 5.658566
1275.621, 5.421049
1276.103, 5.349856
1276.585, 6.423113
1277.067, 6.807952
1277.549, 5.063897
1278.032, 3.549942
1278.514, 3.404753
1278.996, 3.998447
1279.478, 5.244916
1279.960, 6.484271
1280.442, 6.269974
1280.924, 4.669866
1281.406, 3.937771
1281.889, 4.207452
1282.371, 4.230871
1282.853, 3.881788
1283.335, 4.352882
1283.817, 5.967578
1284.299, 6.863197
1284.781, 5.806112
1285.263, 4.138337
1285.745, 3.230085
1286.228, 3.082669
##END=



