##NAMES=Cohenite
##RRUFFID=R100076
##IDEAL CHEMISTRY=Fe_3_C
##LOCALITY=Asuk, Disko, West Greenland, Greenland
##OWNER=RRUFF
##SOURCE=Michael Scott
##DESCRIPTION=Polished thick section associated with native iron
##STATUS=The identification of this mineral is confirmed by single-crystal X-ray diffraction and chemical analysis.
##URL=rruff.info/R100076
##MEASURED CHEMISTRY=Fe_2.96_Ni_.02_C, normalized to 1 carbon
106.4788, 303.1173
106.9609, 299.3339
107.4431, 285.8624
107.9252, 267.1224
108.4073, 248.5836
108.8894, 231.5782
109.3715, 216.4254
109.8536, 203.8855
110.3358, 193.9938
110.8179, 185.0410
111.3000, 175.6789
111.7821, 166.1044
112.2642, 158.3486
112.7463, 153.7784
113.2285, 151.2500
113.7106, 149.6924
114.1927, 149.0535
114.6748, 149.0823
115.1569, 149.8432
115.6390, 152.2165
116.1212, 152.9476
116.6033, 150.0258
117.0854, 145.6412
117.5675, 141.7292
118.0496, 139.1349
118.5317, 137.8556
119.0139, 137.9484
119.4960, 141.5438
119.9781, 144.3155
120.4602, 144.6593
120.9423, 143.6448
121.4244, 143.2410
121.9066, 145.0635
122.3887, 149.3447
122.8708, 152.6387
123.3529, 155.0869
123.8350, 156.7368
124.3171, 157.7086
124.7993, 157.9520
125.2814, 157.1919
125.7635, 155.0937
126.2456, 151.3536
126.7277, 146.9936
127.2098, 140.7807
127.6920, 134.5122
128.1741, 130.3983
128.6562, 129.1734
129.1383, 128.7478
129.6204, 126.2944
130.1025, 122.0555
130.5847, 118.0981
131.0668, 115.6492
131.5489, 114.2275
132.0310, 112.0331
132.5131, 107.8958
132.9952, 103.7489
133.4774, 101.3545
133.9595, 100.7290
134.4416, 100.5052
134.9237, 99.22240
135.4058, 96.58233
135.8879, 94.94422
136.3701, 96.04324
136.8522, 97.47666
137.3343, 97.81955
137.8164, 96.73032
138.2985, 94.95968
138.7806, 93.85042
139.2628, 94.15343
139.7449, 93.71272
140.2270, 91.70890
140.7091, 89.28254
141.1912, 87.54977
141.6733, 87.01878
142.1555, 87.24322
142.6376, 86.70183
143.1197, 84.91613
143.6018, 82.82596
144.0839, 79.95119
144.5660, 76.88898
145.0482, 74.64867
145.5303, 73.92049
146.0124, 74.43880
146.4945, 74.16547
146.9766, 72.68261
147.4587, 71.02143
147.9409, 69.59690
148.4230, 68.37124
148.9051, 67.09959
149.3872, 65.55003
149.8693, 63.80474
150.3514, 62.29596
150.8336, 60.91545
151.3157, 59.84558
151.7978, 59.46904
152.2799, 59.90888
152.7620, 60.18208
153.2441, 59.23338
153.7263, 57.60860
154.2084, 56.16773
154.6905, 55.20024
155.1726, 54.61491
155.6547, 54.27724
156.1368, 54.39067
156.6190, 54.37788
157.1011, 53.77589
157.5832, 52.83802
158.0653, 52.05788
158.5474, 51.85747
159.0295, 52.17657
159.5117, 52.20811
159.9938, 51.69713
160.4759, 51.11912
160.9580, 50.63131
161.4401, 50.22170
161.9222, 49.81751
162.4044, 49.33006
162.8865, 48.71144
163.3686, 48.28601
163.8507, 48.15595
164.3328, 48.11053
164.8149, 48.14565
165.2971, 48.21136
165.7792, 48.18728
166.2613, 47.92397
166.7434, 47.33457
167.2255, 46.72837
167.7076, 45.78440
168.1898, 45.03066
168.6719, 45.06472
169.1540, 45.93554
169.6361, 46.91527
170.1182, 46.89650
170.6003, 45.18016
171.0825, 44.25975
171.5646, 45.03969
172.0467, 46.36423
172.5288, 46.80637
173.0109, 45.89287
173.4930, 44.45855
173.9752, 43.89956
174.4573, 44.26399
174.9394, 44.67838
175.4215, 45.09591
175.9036, 45.38029
176.3857, 45.13450
176.8679, 44.02252
177.3500, 42.67482
177.8321, 41.99159
178.3142, 42.01788
178.7963, 42.04619
179.2784, 41.40617
179.7606, 40.23377
180.2427, 39.74063
180.7248, 40.82677
181.2069, 42.22791
181.6890, 42.85732
182.1711, 42.62423
182.6533, 41.96540
183.1354, 41.09211
183.6175, 39.91661
184.0996, 39.22466
184.5817, 39.90497
185.0638, 40.70409
185.5460, 40.89540
186.0281, 40.32380
186.5102, 39.31868
186.9923, 38.23618
187.4744, 36.89624
187.9565, 35.99113
188.4387, 35.77416
188.9208, 35.85125
189.4029, 36.00723
189.8850, 36.16348
190.3671, 36.29760
190.8492, 36.40641
191.3314, 36.76831
191.8135, 36.58089
192.2956, 35.13814
192.7777, 33.51997
193.2598, 32.80918
193.7419, 33.41198
194.2241, 34.74956
194.7062, 35.42629
195.1883, 34.62701
195.6704, 34.05496
196.1525, 33.93940
196.6346, 34.00776
197.1168, 33.90474
197.5989, 33.46802
198.0810, 32.85924
198.5631, 32.55856
199.0452, 32.88110
199.5273, 33.07370
200.0095, 32.81960
200.4916, 32.38561
200.9737, 32.29319
201.4558, 32.86010
201.9379, 33.73465
202.4200, 33.85340
202.9022, 32.89162
203.3843, 31.93438
203.8664, 31.25542
204.3485, 30.85739
204.8306, 30.84271
205.3127, 31.45864
205.7949, 32.25501
206.2770, 32.22824
206.7591, 31.05053
207.2412, 29.84447
207.7233, 29.23253
208.2054, 29.15338
208.6876, 29.24831
209.1697, 29.38333
209.6518, 29.63714
210.1339, 30.16837
210.6160, 31.12478
211.0981, 31.94288
211.5803, 32.12112
212.0624, 31.65909
212.5445, 31.00513
213.0266, 29.85515
213.5087, 28.89709
213.9908, 28.95800
214.4730, 30.30906
214.9551, 31.85576
215.4372, 32.24255
215.9193, 31.24217
216.4014, 30.50925
216.8836, 31.06683
217.3657, 31.75351
217.8478, 31.61703
218.3299, 30.41279
218.8120, 29.02384
219.2941, 28.84302
219.7763, 30.41035
220.2584, 31.39194
220.7405, 30.94556
221.2226, 30.07193
221.7047, 29.40767
222.1868, 29.12938
222.6690, 29.03817
223.1511, 28.79394
223.6332, 28.22872
224.1153, 27.90507
224.5974, 28.00372
225.0795, 28.23958
225.5617, 28.43377
226.0438, 28.52887
226.5259, 28.55250
227.0080, 28.54480
227.4901, 28.46884
227.9722, 28.43125
228.4544, 28.52336
228.9365, 28.59816
229.4186, 28.55437
229.9007, 28.36012
230.3828, 28.03186
230.8649, 27.58527
231.3471, 26.83247
231.8292, 26.26876
232.3113, 25.83347
232.7934, 25.59999
233.2755, 25.77053
233.7576, 26.35795
234.2398, 26.99921
234.7219, 27.06062
235.2040, 25.91147
235.6861, 25.31124
236.1682, 25.70637
236.6503, 26.39481
237.1325, 26.67768
237.6146, 26.38384
238.0967, 25.94828
238.5788, 26.05320
239.0609, 27.09417
239.5430, 27.75988
240.0252, 27.82763
240.5073, 27.58854
240.9894, 27.21042
241.4715, 26.73504
241.9536, 26.40482
242.4357, 26.63956
242.9179, 27.64204
243.4000, 28.29038
243.8821, 28.27644
244.3642, 27.95040
244.8463, 27.66481
245.3284, 27.48734
245.8106, 27.35833
246.2927, 27.24164
246.7748, 27.14411
247.2569, 26.91828
247.7390, 26.35546
248.2211, 25.73191
248.7033, 25.46331
249.1854, 25.65558
249.6675, 25.84438
250.1496, 25.38634
250.6317, 24.40490
251.1138, 23.82259
251.5960, 24.09246
252.0781, 24.75096
252.5602, 25.30599
253.0423, 25.75152
253.5244, 25.86775
254.0065, 25.16768
254.4887, 23.93551
254.9708, 22.94575
255.4529, 22.47341
255.9350, 22.31953
256.4171, 22.24739
256.8992, 22.26291
257.3813, 22.30117
257.8635, 22.42073
258.3456, 22.52506
258.8277, 22.41083
259.3098, 21.88360
259.7919, 21.18847
260.2740, 20.63343
260.7562, 20.20383
261.2383, 19.97847
261.7204, 20.16586
262.2025, 20.54824
262.6846, 20.87522
263.1667, 21.06403
263.6489, 21.18090
264.1310, 21.32037
264.6131, 21.49079
265.0952, 21.64731
265.5773, 21.73620
266.0594, 21.81388
266.5416, 21.96866
267.0237, 22.27066
267.5058, 22.53187
267.9879, 22.44086
268.4700, 21.90678
268.9521, 21.44293
269.4343, 21.25614
269.9164, 21.19516
270.3985, 21.14779
270.8806, 21.08178
271.3627, 21.07963
271.8448, 21.37001
272.3270, 22.09143
272.8091, 22.38485
273.2912, 21.50091
273.7733, 20.45645
274.2554, 19.93262
274.7375, 20.03052
275.2197, 20.26080
275.7018, 20.00660
276.1839, 19.16021
276.6660, 18.53792
277.1481, 18.42796
277.6302, 18.45722
278.1124, 18.44882
278.5945, 18.39467
279.0766, 18.40289
279.5587, 18.59722
280.0408, 18.99694
280.5229, 19.41359
281.0051, 20.02578
281.4872, 20.48304
281.9693, 20.54082
282.4514, 20.27984
282.9335, 19.99033
283.4156, 19.90653
283.8978, 20.03118
284.3799, 20.23879
284.8620, 20.83871
285.3441, 21.19381
285.8262, 21.03444
286.3083, 20.45973
286.7905, 19.66018
287.2726, 18.65384
287.7547, 17.51881
288.2368, 17.07468
288.7189, 18.06697
289.2010, 18.89756
289.6832, 19.03137
290.1653, 18.74812
290.6474, 18.51235
291.1295, 18.61361
291.6116, 18.92070
292.0938, 18.88525
292.5759, 18.25838
293.0580, 17.62024
293.5401, 16.89408
294.0222, 16.28890
294.5043, 16.10701
294.9865, 16.49606
295.4686, 17.19443
295.9507, 17.55190
296.4328, 17.32703
296.9149, 17.17816
297.3970, 17.42125
297.8792, 17.63697
298.3613, 17.29474
298.8434, 16.27895
299.3255, 15.16238
299.8076, 15.01677
300.2897, 16.56884
300.7719, 17.43710
301.2540, 17.00098
301.7361, 16.33004
302.2182, 16.07403
302.7003, 16.34713
303.1824, 16.87627
303.6646, 17.43369
304.1467, 18.18847
304.6288, 18.31736
305.1109, 16.99391
305.5930, 15.80172
306.0751, 15.62245
306.5573, 16.32509
307.0394, 17.16471
307.5215, 17.45486
308.0036, 17.15018
308.4857, 16.97850
308.9678, 16.99126
309.4500, 17.09427
309.9321, 17.40769
310.4142, 17.79074
310.8963, 17.97668
311.3784, 17.77011
311.8605, 17.21762
312.3427, 16.68646
312.8248, 15.98542
313.3069, 15.54782
313.7890, 15.50565
314.2711, 15.74781
314.7532, 16.21055
315.2354, 16.87929
315.7175, 17.58319
316.1996, 17.82186
316.6817, 17.44656
317.1638, 16.78035
317.6459, 15.41387
318.1281, 14.04657
318.6102, 13.39755
319.0923, 13.66558
319.5744, 14.37179
320.0565, 14.69827
320.5386, 14.35867
321.0208, 14.30497
321.5029, 14.82792
321.9850, 15.41038
322.4671, 15.73901
322.9492, 15.77776
323.4313, 15.68281
323.9135, 15.62502
324.3956, 15.62607
324.8777, 15.55099
325.3598, 15.29592
325.8419, 15.06044
326.3240, 14.84510
326.8062, 14.70626
327.2883, 14.77306
327.7704, 15.20538
328.2525, 15.96718
328.7346, 16.43635
329.2167, 16.69898
329.6989, 16.51348
330.1810, 15.39991
330.6631, 13.90454
331.1452, 12.79809
331.6273, 12.49281
332.1094, 12.84347
332.5916, 13.47514
333.0737, 14.81147
333.5558, 15.67569
334.0379, 15.53216
334.5200, 15.07627
335.0021, 14.99173
335.4843, 15.49352
335.9664, 16.22202
336.4485, 16.62082
336.9306, 16.64796
337.4127, 16.46018
337.8948, 15.82047
338.3770, 15.17138
338.8591, 14.68150
339.3412, 14.41160
339.8233, 14.44572
340.3055, 15.02355
340.7876, 16.23692
341.2697, 17.05362
341.7518, 17.62330
342.2339, 17.56975
342.7160, 16.15275
343.1982, 13.96457
343.6803, 12.38810
344.1624, 12.55409
344.6445, 14.05213
345.1266, 14.78813
345.6087, 14.31007
346.0909, 13.77068
346.5730, 13.64921
347.0551, 13.66888
347.5372, 13.42920
348.0193, 12.70918
348.5014, 11.85141
348.9836, 11.49987
349.4657, 11.78330
349.9478, 12.14929
350.4299, 12.39529
350.9120, 12.70766
351.3941, 13.41225
351.8763, 14.54484
352.3584, 15.42897
352.8405, 15.02159
353.3226, 13.26232
353.8047, 12.43528
354.2868, 13.82079
354.7690, 15.19394
355.2511, 14.90175
355.7332, 13.26831
356.2153, 11.81479
356.6974, 11.64175
357.1795, 12.46016
357.6617, 13.18037
358.1438, 13.81577
358.6259, 14.28742
359.1080, 14.63240
359.5901, 14.78516
360.0722, 14.57191
360.5544, 13.73423
361.0365, 12.73247
361.5186, 12.23847
362.0007, 12.30991
362.4828, 12.46011
362.9649, 12.47951
363.4471, 12.49117
363.9292, 12.69960
364.4113, 13.19909
364.8934, 13.55997
365.3755, 13.24756
365.8576, 12.42459
366.3398, 12.04942
366.8219, 12.55752
367.3040, 13.25624
367.7861, 13.26833
368.2682, 12.67571
368.7503, 12.40582
369.2325, 13.24715
369.7146, 14.52366
370.1967, 14.99638
370.6788, 14.46830
371.1609, 13.70494
371.6430, 13.21834
372.1252, 12.96373
372.6073, 12.79757
373.0894, 12.59546
373.5715, 12.56267
374.0536, 13.08588
374.5357, 14.03514
375.0179, 14.58522
375.5000, 14.18245
375.9821, 13.26453
376.4642, 12.89327
376.9463, 13.25906
377.4284, 13.64556
377.9106, 13.78584
378.3927, 13.77605
378.8748, 13.89603
379.3569, 14.26686
379.8390, 14.39232
380.3211, 13.42852
380.8033, 11.06358
381.2854, 9.499175
381.7675, 9.270193
382.2496, 9.629975
382.7317, 10.22432
383.2138, 10.92975
383.6960, 11.36026
384.1781, 11.11587
384.6602, 10.28853
385.1423, 10.24178
385.6244, 11.80838
386.1065, 13.07353
386.5887, 13.19735
387.0708, 12.63260
387.5529, 12.18344
388.0350, 12.20558
388.5171, 12.45543
388.9992, 12.38404
389.4814, 11.45456
389.9635, 11.04729
390.4456, 11.75548
390.9277, 12.58578
391.4098, 12.64617
391.8919, 11.87460
392.3741, 10.88680
392.8562, 10.30143
393.3383, 10.14214
393.8204, 10.20931
394.3025, 10.90273
394.7846, 11.39432
395.2668, 11.13201
395.7489, 10.48932
396.2310, 10.21172
396.7131, 10.76526
397.1952, 11.87447
397.6773, 12.59430
398.1595, 12.84030
398.6416, 12.79432
399.1237, 12.33280
399.6058, 11.72169
400.0879, 11.14622
400.5700, 10.66365
401.0522, 10.28118
401.5343, 10.03400
402.0164, 9.955276
402.4985, 9.815948
402.9806, 9.371779
403.4627, 9.101600
403.9449, 9.329649
404.4270, 9.909147
404.9091, 10.45267
405.3912, 10.72181
405.8733, 10.78138
406.3554, 10.82401
406.8376, 10.84815
407.3197, 10.85938
407.8018, 10.75579
408.2839, 10.68740
408.7660, 10.89192
409.2481, 11.48914
409.7303, 12.02354
410.2124, 11.95210
410.6945, 11.31665
411.1766, 10.74948
411.6587, 10.28854
412.1408, 10.07203
412.6230, 10.39305
413.1051, 11.15416
413.5872, 11.60298
414.0693, 11.10614
414.5514, 10.22090
415.0335, 9.857388
415.5157, 10.09670
415.9978, 10.51142
416.4799, 10.84312
416.9620, 11.14967
417.4441, 11.62921
417.9262, 12.70916
418.4084, 13.40352
418.8905, 12.77513
419.3726, 11.31339
419.8547, 10.36673
420.3368, 10.48326
420.8189, 10.98567
421.3011, 10.68199
421.7832, 9.249791
422.2653, 8.430376
422.7474, 8.962603
423.2295, 9.809124
423.7116, 9.982325
424.1938, 9.484252
424.6759, 9.049742
425.1580, 9.269985
425.6401, 10.10424
426.1222, 10.80438
426.6043, 11.45259
427.0865, 11.89576
427.5686, 12.08525
428.0507, 12.05075
428.5328, 11.78515
429.0149, 11.29136
429.4970, 10.70031
429.9792, 10.22912
430.4613, 9.864976
430.9434, 9.661621
431.4255, 9.830889
431.9076, 9.947927
432.3897, 9.588487
432.8719, 8.918629
433.3540, 8.554179
433.8361, 9.088923
434.3182, 10.32714
434.8003, 10.79957
435.2824, 9.890703
435.7646, 9.137178
436.2467, 8.831844
436.7288, 8.895237
437.2109, 9.383963
437.6930, 10.32346
438.1751, 11.23386
438.6573, 11.38517
439.1394, 10.70240
439.6215, 10.32533
440.1036, 10.63355
440.5857, 11.03430
441.0678, 11.06885
441.5500, 10.84154
442.0321, 10.76770
442.5142, 11.24309
442.9963, 11.93091
443.4784, 12.16557
443.9605, 11.88954
444.4427, 11.62912
444.9248, 11.86073
445.4069, 12.14321
445.8890, 11.64523
446.3711, 9.999686
446.8532, 8.503305
447.3354, 7.781221
447.8175, 7.736470
448.2996, 8.349832
448.7817, 9.717326
449.2638, 11.09460
449.7459, 11.66342
450.2281, 11.36219
450.7102, 10.94462
451.1923, 10.03534
451.6744, 9.373296
452.1565, 9.703734
452.6386, 10.71245
453.1208, 11.37105
453.6029, 11.09813
454.0850, 10.29420
454.5671, 10.07473
455.0492, 11.32410
455.5313, 11.95249
456.0135, 11.37648
456.4956, 10.54772
456.9777, 10.37477
457.4598, 10.86950
457.9419, 11.21778
458.4240, 10.49824
458.9062, 8.681991
459.3883, 8.042929
459.8704, 10.08389
460.3525, 11.64797
460.8346, 11.93663
461.3167, 11.40777
461.7989, 10.50785
462.2810, 9.390956
462.7631, 8.439986
463.2452, 8.380454
463.7273, 9.403832
464.2094, 10.17708
464.6916, 10.34813
465.1737, 10.39519
465.6558, 10.70291
466.1379, 11.15556
466.6200, 11.29710
467.1021, 10.53726
467.5843, 9.457444
468.0664, 9.418672
468.5485, 10.60135
469.0306, 11.50119
469.5127, 11.25663
469.9948, 10.42972
470.4770, 9.914200
470.9591, 9.787072
471.4412, 9.792009
471.9233, 9.848248
472.4054, 9.938560
472.8875, 10.00500
473.3697, 10.03105
473.8518, 10.15241
474.3339, 10.59098
474.8160, 11.32254
475.2981, 11.55282
475.7802, 10.78143
476.2624, 10.04907
476.7445, 9.895962
477.2266, 10.09995
477.7087, 10.21656
478.1908, 10.06876
478.6729, 9.794739
479.1551, 9.642000
479.6372, 9.655954
480.1193, 9.692937
480.6014, 9.660813
481.0835, 9.729653
481.5656, 10.13071
482.0478, 10.72418
482.5299, 11.11708
483.0120, 11.01479
483.4941, 10.58747
483.9762, 10.51548
484.4583, 11.06477
484.9405, 11.42419
485.4226, 11.44764
485.9047, 11.23214
486.3868, 10.67471
486.8689, 9.831129
487.3510, 9.201738
487.8332, 9.415511
488.3153, 10.25790
488.7974, 10.61990
489.2795, 10.27209
489.7616, 9.911466
490.2437, 10.01968
490.7259, 10.37757
491.2080, 10.69900
491.6901, 11.02302
492.1722, 11.12175
492.6543, 10.64674
493.1364, 9.804601
493.6186, 9.181849
494.1007, 8.921316
494.5828, 8.931684
495.0649, 9.214395
495.5470, 9.814971
496.0291, 10.04190
496.5113, 9.415236
496.9934, 8.836099
497.4755, 8.955781
497.9576, 9.545808
498.4397, 10.00276
498.9218, 10.03283
499.4040, 9.796968
499.8861, 9.654692
500.3682, 9.730653
500.8503, 9.667790
501.3324, 9.284918
501.8145, 8.933485
502.2967, 8.866992
502.7788, 9.034866
503.2609, 9.197546
503.7430, 9.164683
504.2251, 9.027324
504.7072, 9.190210
505.1894, 9.883968
505.6715, 10.34725
506.1536, 10.33517
506.6357, 10.05719
507.1178, 9.541281
507.5999, 8.824093
508.0821, 8.253069
508.5642, 8.123042
509.0463, 8.335657
509.5284, 8.673594
510.0105, 9.190152
510.4926, 9.524663
510.9748, 9.253886
511.4569, 8.693909
511.9390, 8.631454
512.4211, 9.472776
512.9032, 10.14191
513.3853, 9.847899
513.8674, 9.099867
514.3495, 8.823367
514.8317, 9.222383
515.3138, 9.826917
515.7959, 10.21860
516.2780, 10.40533
516.7601, 10.16235
517.2422, 9.032522
517.7244, 8.056171
518.2065, 7.570262
518.6886, 7.459744
519.1707, 7.611474
519.6528, 7.965749
520.1349, 8.354677
520.6171, 8.462279
521.0992, 8.134714
521.5813, 8.158380
522.0634, 9.187450
522.5455, 9.915300
523.0276, 9.534020
523.5098, 8.558498
523.9919, 8.002940
524.4740, 8.384142
524.9561, 9.162566
525.4382, 9.581911
525.9203, 9.634100
526.4025, 9.677218
526.8846, 9.981845
527.3667, 10.03767
527.8488, 8.932900
528.3309, 6.934018
528.8130, 5.855027
529.2952, 6.919572
529.7773, 8.596100
530.2594, 9.671320
530.7415, 10.14309
531.2236, 10.11202
531.7057, 9.536569
532.1879, 8.729845
532.6700, 8.292813
533.1521, 8.373289
533.6342, 8.517752
534.1163, 8.931760
534.5984, 9.226495
535.0806, 8.964640
535.5627, 8.345448
536.0448, 7.972674
536.5269, 8.238370
537.0090, 8.928407
537.4911, 9.395891
537.9733, 9.571860
538.4554, 9.679346
538.9375, 10.06369
539.4196, 10.13281
539.9017, 9.148891
540.3839, 7.385720
540.8660, 6.063830
541.3481, 6.115471
541.8302, 7.049982
542.3123, 7.849738
542.7944, 8.514418
543.2766, 9.043397
543.7587, 9.451430
544.2408, 9.694874
544.7229, 9.600730
545.2050, 9.081937
545.6871, 8.981488
546.1693, 10.02820
546.6514, 11.36440
547.1335, 12.02891
547.6156, 12.02200
548.0977, 11.84123
548.5798, 11.73210
549.0620, 11.75726
549.5441, 12.12695
550.0262, 13.49204
550.5083, 14.32413
550.9904, 14.39398
551.4725, 14.09722
551.9547, 13.62894
552.4368, 13.06734
552.9189, 12.48302
553.4010, 11.92050
553.8831, 11.39020
554.3652, 10.93818
554.8474, 10.55811
555.3295, 10.27821
555.8116, 10.30683
556.2937, 10.29867
556.7758, 9.902911
557.2579, 9.142321
557.7401, 8.502860
558.2222, 8.461112
558.7043, 8.649100
559.1864, 8.291663
559.6685, 7.368418
560.1506, 6.719404
560.6328, 6.847133
561.1149, 7.410725
561.5970, 7.654551
562.0791, 7.471062
562.5612, 7.379050
563.0433, 7.458322
563.5255, 7.676059
564.0076, 8.155372
564.4897, 8.782072
564.9718, 9.156147
565.4539, 9.000507
565.9360, 8.476463
566.4182, 8.121023
566.9003, 7.956209
567.3824, 7.925303
567.8645, 8.154386
568.3466, 8.388987
568.8287, 8.386559
569.3109, 8.226415
569.7930, 8.239290
570.2751, 8.733097
570.7572, 9.422013
571.2393, 9.705119
571.7214, 9.564940
572.2036, 9.191528
572.6857, 8.380922
573.1678, 7.655318
573.6499, 7.825257
574.1320, 8.861857
574.6141, 9.443442
575.0963, 8.727468
575.5784, 7.793620
576.0605, 7.637869
576.5426, 8.093990
577.0247, 8.515037
577.5068, 8.622113
577.9890, 8.441998
578.4711, 7.978796
578.9532, 6.946756
579.4353, 6.376697
579.9174, 6.508190
580.3995, 6.798714
580.8817, 7.096407
581.3638, 7.339987
581.8459, 7.433285
582.3280, 7.314972
582.8101, 7.160114
583.2922, 7.325150
583.7744, 7.847456
584.2565, 8.116941
584.7386, 7.930199
585.2207, 7.651631
585.7029, 7.551783
586.1850, 7.564036
586.6671, 7.519701
587.1492, 7.371234
587.6313, 7.164016
588.1135, 6.739414
588.5956, 6.299066
589.0777, 6.507981
589.5598, 7.556279
590.0419, 8.505819
590.5240, 8.247050
591.0062, 6.697465
591.4883, 5.893698
591.9704, 6.313486
592.4525, 6.801955
592.9346, 7.181571
593.4167, 7.425898
593.8989, 7.510534
594.3810, 7.438649
594.8631, 7.262469
595.3452, 6.972960
595.8273, 6.597754
596.3094, 6.515289
596.7916, 6.957060
597.2737, 7.161297
597.7558, 6.257119
598.2379, 5.221517
598.7200, 5.288058
599.2021, 6.719318
599.6843, 7.942057
600.1664, 7.827766
600.6485, 7.191134
601.1306, 7.359202
601.6127, 8.316222
602.0948, 8.897409
602.5770, 8.325661
603.0591, 7.111589
603.5412, 6.682199
604.0233, 7.955299
604.5054, 8.509073
604.9875, 7.696741
605.4697, 6.745852
605.9518, 6.422870
606.4339, 6.630721
606.9160, 6.969807
607.3981, 7.250884
607.8802, 7.385976
608.3624, 7.045858
608.8445, 6.106758
609.3266, 5.703052
609.8087, 6.212706
610.2908, 7.048608
610.7729, 8.077589
611.2551, 9.096923
611.7372, 9.448289
612.2193, 8.491640
612.7014, 7.411146
613.1835, 7.132987
613.6656, 7.345582
614.1478, 7.354229
614.6299, 6.988502
615.1120, 6.526013
615.5941, 6.219115
616.0762, 6.067653
616.5583, 6.137471
617.0405, 6.810507
617.5226, 7.225522
618.0047, 6.912504
618.4868, 6.479956
618.9689, 6.716479
619.4510, 7.610966
619.9332, 8.249889
620.4153, 7.637252
620.8974, 6.205568
621.3795, 5.553383
621.8616, 5.790228
622.3438, 6.238924
622.8259, 6.759595
623.3080, 7.280532
623.7901, 7.833475
624.2722, 8.455517
624.7543, 8.518907
625.2365, 7.161982
625.7186, 5.763670
626.2007, 5.590351
626.6828, 6.341501
627.1649, 7.120769
627.6470, 7.559805
628.1292, 7.680787
628.6113, 7.448218
629.0934, 6.665114
629.5755, 6.353741
630.0576, 7.112225
630.5397, 7.715563
631.0219, 7.552720
631.5040, 7.119072
631.9861, 7.227252
632.4682, 8.132957
632.9503, 8.969752
633.4324, 8.782594
633.9146, 7.890021
634.3967, 7.246295
634.8788, 6.917101
635.3609, 6.985343
635.8430, 7.718857
636.3251, 8.763940
636.8073, 9.024173
637.2894, 8.136819
637.7715, 7.468500
638.2536, 7.134438
638.7357, 7.164114
639.2178, 8.100361
639.7000, 9.436540
640.1821, 9.691408
640.6642, 7.981587
641.1463, 5.451954
641.6284, 4.508761
642.1105, 5.480268
642.5927, 6.308036
643.0748, 6.756780
643.5569, 7.114079
644.0390, 7.719320
644.5211, 8.332189
645.0032, 8.420305
645.4854, 7.694155
645.9675, 6.831285
646.4496, 6.115386
646.9317, 5.622922
647.4138, 5.556684
647.8959, 5.925152
648.3781, 6.479607
648.8602, 7.082971
649.3423, 7.675166
649.8244, 7.947816
650.3065, 7.700551
650.7886, 7.418820
651.2708, 6.977888
651.7529, 6.630759
652.2350, 6.627852
652.7171, 6.869439
653.1992, 7.040037
653.6813, 6.954025
654.1635, 6.766539
654.6456, 6.702993
655.1277, 6.757349
655.6098, 6.859404
656.0919, 7.004340
656.5740, 7.168287
657.0562, 7.308146
657.5383, 7.444445
658.0204, 7.693265
658.5025, 8.446509
658.9846, 8.820068
659.4667, 8.240734
659.9489, 7.347688
660.4310, 6.773988
660.9131, 6.600154
661.3952, 6.609739
661.8773, 6.658032
662.3594, 6.738404
662.8416, 6.838111
663.3237, 6.974425
663.8058, 7.069891
664.2879, 7.134116
664.7700, 7.125437
665.2521, 6.898028
665.7343, 6.562554
666.2164, 6.516462
666.6985, 7.199019
667.1806, 7.765029
667.6627, 7.391944
668.1448, 6.537575
668.6270, 6.039829
669.1091, 6.073344
669.5912, 6.493258
670.0733, 7.279517
670.5554, 8.296645
671.0375, 8.537282
671.5197, 7.262492
672.0018, 6.420207
672.4839, 6.410120
672.9660, 6.690867
673.4481, 7.025786
673.9302, 7.330923
674.4124, 7.480749
674.8945, 7.362611
675.3766, 7.136789
675.8587, 7.002645
676.3408, 6.938052
676.8229, 6.805365
677.3051, 6.549967
677.7872, 6.401361
678.2693, 6.634020
678.7514, 7.189656
679.2335, 7.385283
679.7156, 6.952789
680.1978, 6.560580
680.6799, 6.139476
681.1620, 5.915712
681.6441, 6.229962
682.1262, 6.949671
682.6083, 7.545816
683.0905, 7.658515
683.5726, 7.536232
684.0547, 7.746941
684.5368, 8.288650
685.0189, 8.381740
685.5010, 7.708640
685.9832, 6.944023
686.4653, 6.639116
686.9474, 6.732446
687.4295, 6.860986
687.9116, 7.084803
688.3937, 7.248340
688.8759, 7.266617
689.3580, 7.229926
689.8401, 7.225904
690.3222, 7.259317
690.8043, 7.283548
691.2864, 7.262449
691.7686, 7.234319
692.2507, 7.270851
692.7328, 7.356671
693.2149, 7.640915
693.6970, 8.371446
694.1791, 8.972427
694.6613, 8.898577
695.1434, 8.419427
695.6255, 8.136098
696.1076, 8.231737
696.5897, 8.339152
697.0718, 8.209492
697.5540, 8.047592
698.0361, 8.283359
698.5182, 8.798114
699.0003, 8.886673
699.4824, 8.089801
699.9645, 6.747745
700.4467, 5.577890
700.9288, 4.408340
701.4109, 4.111677
701.8930, 5.512444
702.3751, 6.850604
702.8572, 7.254943
703.3394, 7.027834
703.8215, 6.631856
704.3036, 6.113452
704.7857, 5.632311
705.2678, 5.151159
705.7499, 4.837285
706.2321, 5.067683
706.7142, 5.748627
707.1963, 6.332598
707.6784, 6.546089
708.1605, 6.439801
708.6426, 6.002756
709.1248, 4.887162
709.6069, 4.704713
710.0890, 6.543323
710.5711, 8.041455
711.0532, 8.212006
711.5353, 7.671103
712.0175, 7.119797
712.4996, 6.682197
712.9817, 6.543875
713.4638, 7.228694
713.9459, 8.042044
714.4280, 7.758501
714.9102, 6.595075
715.3923, 5.868456
715.8744, 6.160529
716.3565, 6.915132
716.8386, 7.356623
717.3207, 7.478485
717.8029, 7.319254
718.2850, 6.461059
718.7671, 5.844139
719.2492, 5.744741
719.7313, 5.940064
720.2134, 6.325674
720.6956, 6.834534
721.1777, 7.156062
721.6598, 6.899450
722.1419, 6.497588
722.6240, 6.635945
723.1061, 7.144960
723.5883, 7.240406
724.0704, 6.661109
724.5525, 6.128112
725.0346, 6.521478
725.5167, 7.791854
725.9988, 8.104436
726.4810, 6.251578
726.9631, 5.184573
727.4452, 5.905872
727.9273, 6.972177
728.4094, 7.247131
728.8915, 6.842683
729.3737, 6.563591
729.8558, 6.829741
730.3379, 7.290155
730.8200, 7.648261
731.3021, 7.896607
731.7842, 8.001737
732.2664, 7.959249
732.7485, 7.799860
733.2306, 7.497864
733.7127, 7.152847
734.1948, 7.195597
734.6769, 8.151605
735.1591, 8.527858
735.6412, 7.782215
736.1233, 6.999461
736.6054, 6.786573
737.0875, 6.919015
737.5696, 6.894780
738.0518, 6.520358
738.5339, 6.195641
739.0160, 6.342582
739.4981, 6.715264
739.9802, 6.866492
740.4623, 6.778046
740.9445, 6.599941
741.4266, 6.392844
741.9087, 6.203001
742.3908, 6.120656
742.8729, 6.175828
743.3550, 6.206265
743.8372, 6.098480
744.3193, 6.106270
744.8014, 6.469292
745.2835, 6.881750
745.7656, 6.907166
746.2477, 6.521760
746.7299, 6.326809
747.2120, 6.979234
747.6941, 7.748567
748.1762, 7.628406
748.6583, 6.900763
749.1404, 6.502753
749.6226, 6.698534
750.1047, 7.034394
750.5868, 7.020321
751.0689, 6.713412
751.5510, 6.772886
752.0331, 7.504848
752.5153, 8.012622
752.9974, 8.190624
753.4795, 8.068120
753.9616, 7.384277
754.4437, 6.394207
754.9258, 5.870950
755.4080, 6.170797
755.8901, 6.749093
756.3722, 7.644912
756.8543, 8.389937
757.3364, 7.934690
757.8185, 6.449295
758.3007, 5.423841
758.7828, 5.807765
759.2649, 6.898737
759.7470, 7.080403
760.2291, 6.034800
760.7112, 5.675455
761.1934, 6.587211
761.6755, 7.341392
762.1576, 6.947649
762.6397, 6.168659
763.1218, 6.026123
763.6039, 6.681148
764.0861, 7.228709
764.5682, 7.321815
765.0503, 7.224144
765.5324, 7.035364
766.0145, 6.837228
766.4966, 6.735742
766.9788, 6.770159
767.4609, 7.001486
767.9430, 7.635692
768.4251, 8.462045
768.9072, 8.148998
769.3893, 6.310889
769.8715, 5.440927
770.3536, 6.727401
770.8357, 8.341607
771.3178, 8.503928
771.7999, 7.476833
772.2820, 6.607338
772.7642, 5.767775
773.2463, 5.369066
773.7284, 5.931223
774.2105, 6.663238
774.6926, 6.778945
775.1747, 6.418175
775.6569, 6.201218
776.1390, 6.442878
776.6211, 6.896535
777.1032, 7.390129
777.5853, 7.839981
778.0674, 7.624656
778.5496, 6.607808
779.0317, 5.747030
779.5138, 5.545958
779.9959, 5.709807
780.4780, 5.743828
780.9601, 5.633574
781.4423, 5.437668
781.9244, 4.921700
782.4065, 4.607033
782.8886, 4.706196
783.3707, 5.062454
783.8528, 5.636945
784.3350, 6.337483
784.8171, 6.797534
785.2992, 6.669549
785.7813, 6.328163
786.2634, 6.202058
786.7455, 6.273134
787.2277, 6.590728
787.7098, 7.153221
788.1919, 7.507318
788.6740, 7.271936
789.1561, 6.588803
789.6382, 5.939286
790.1204, 5.191993
790.6025, 4.801531
791.0846, 4.797244
791.5667, 5.167159
792.0488, 6.498273
792.5309, 7.971656
793.0131, 8.151090
793.4952, 6.617101
793.9773, 5.183799
794.4594, 4.696075
794.9415, 4.682628
795.4236, 4.824698
795.9058, 5.064778
796.3879, 5.362508
796.8700, 5.697592
797.3521, 6.018539
797.8342, 6.276122
798.3163, 6.473701
798.7985, 6.567305
799.2806, 6.486147
799.7627, 6.808630
800.2448, 8.117827
800.7269, 9.102361
801.2090, 8.241779
801.6912, 5.981904
802.1733, 4.815829
802.6554, 5.465168
803.1375, 6.069656
803.6196, 6.161899
804.1017, 6.211479
804.5839, 6.728722
805.0660, 7.436861
805.5481, 7.655665
806.0302, 7.131927
806.5123, 6.450775
806.9944, 6.085998
807.4766, 6.032197
807.9587, 6.500330
808.4408, 7.411117
808.9229, 7.765853
809.4050, 7.146422
809.8871, 6.174675
810.3693, 5.547151
810.8514, 5.264143
811.3335, 5.242207
811.8156, 5.687734
812.2977, 6.050303
812.7798, 6.295105
813.2620, 6.394833
813.7441, 6.291055
814.2262, 6.026881
814.7083, 5.676991
815.1904, 5.118271
815.6725, 4.837991
816.1547, 5.402122
816.6368, 6.186221
817.1189, 6.416082
817.6010, 6.198541
818.0831, 6.031915
818.5652, 6.132791
819.0474, 6.449922
819.5295, 7.140555
820.0116, 8.071186
820.4937, 7.787179
820.9758, 6.015142
821.4579, 4.671923
821.9401, 4.410804
822.4222, 4.726968
822.9043, 5.260026
823.3864, 5.979316
823.8685, 6.234752
824.3506, 5.457983
824.8328, 5.034099
825.3149, 5.287284
825.7970, 5.857108
826.2791, 6.860650
826.7612, 7.905911
827.2433, 8.095782
827.7255, 7.008850
828.2076, 5.807205
828.6897, 5.571872
829.1718, 5.811744
829.6539, 5.650861
830.1360, 5.166114
830.6182, 4.953015
831.1003, 5.238817
831.5824, 5.760920
832.0645, 6.305220
832.5466, 6.812705
833.0287, 6.272023
833.5109, 3.928735
833.9930, 2.887668
834.4751, 4.645422
834.9572, 6.852932
835.4393, 7.521700
835.9214, 7.116717
836.4036, 6.984755
836.8857, 7.495525
837.3678, 7.729142
837.8499, 7.224853
838.3320, 6.587372
838.8141, 6.143344
839.2963, 5.928011
839.7784, 5.988072
840.2605, 6.319478
840.7426, 6.662046
841.2247, 6.776197
841.7068, 6.746896
842.1890, 6.781623
842.6711, 6.841170
843.1532, 6.604257
843.6353, 5.971732
844.1174, 5.521349
844.5995, 5.821396
845.0817, 6.665436
845.5638, 7.109326
846.0459, 7.037271
846.5280, 6.875172
847.0101, 6.494719
847.4922, 6.235303
847.9744, 6.446533
848.4565, 6.812192
848.9386, 6.817250
849.4207, 6.370296
849.9028, 5.949260
850.3849, 5.550042
850.8671, 5.355520
851.3492, 5.635850
851.8313, 6.102417
852.3134, 6.368192
852.7955, 6.383054
853.2776, 6.339257
853.7598, 6.339058
854.2419, 6.406106
854.7240, 6.684064
855.2061, 7.071101
855.6882, 7.046649
856.1703, 6.559544
856.6525, 6.294982
857.1346, 6.701281
857.6167, 7.303152
858.0988, 7.101036
858.5809, 5.859565
859.0630, 5.442542
859.5452, 6.514473
860.0273, 7.224443
860.5094, 6.588367
860.9915, 5.697221
861.4736, 5.637566
861.9557, 6.252663
862.4379, 6.496074
862.9200, 5.812525
863.4021, 5.256418
863.8842, 5.169687
864.3663, 5.381254
864.8484, 5.933562
865.3306, 6.626718
865.8127, 7.091902
866.2948, 7.186390
866.7769, 7.018713
867.2590, 6.567441
867.7411, 5.979622
868.2233, 5.544861
868.7054, 5.262163
869.1875, 5.083865
869.6696, 4.995432
870.1517, 5.039974
870.6339, 5.283165
871.1160, 5.663932
871.5981, 5.922868
872.0802, 6.082094
872.5623, 5.989014
873.0444, 5.269655
873.5266, 4.907268
874.0087, 5.921473
874.4908, 7.437323
874.9729, 7.714912
875.4550, 6.460649
875.9371, 5.657074
876.4193, 5.932147
876.9014, 6.271054
877.3835, 6.254887
877.8656, 6.086893
878.3477, 5.889925
878.8298, 5.761669
879.3120, 5.986413
879.7941, 6.912689
880.2762, 7.685163
880.7583, 7.051943
881.2404, 5.885545
881.7225, 5.970277
882.2047, 7.130311
882.6868, 7.798291
883.1689, 7.297919
883.6510, 6.412866
884.1331, 6.122172
884.6152, 6.349945
885.0974, 6.569209
885.5795, 6.799600
886.0616, 6.907868
886.5437, 6.948734
887.0258, 6.591042
887.5079, 5.208198
887.9901, 3.295840
888.4722, 2.884938
888.9543, 5.351412
889.4364, 6.696369
889.9185, 5.800808
890.4006, 5.101048
890.8828, 6.076304
891.3649, 7.476236
891.8470, 7.564635
892.3291, 6.249917
892.8112, 5.230574
893.2933, 5.402864
893.7755, 5.827309
894.2576, 6.041989
894.7397, 6.094780
895.2218, 6.042087
895.7039, 5.889273
896.1860, 5.514302
896.6682, 4.834210
897.1503, 4.389588
897.6324, 5.157623
898.1145, 6.624820
898.5966, 7.201680
899.0787, 6.930322
899.5609, 6.674319
900.0430, 6.708307
900.5251, 6.725713
901.0072, 6.406034
901.4893, 5.842777
901.9714, 5.486366
902.4536, 5.351290
902.9357, 5.367277
903.4178, 5.505982
903.8999, 5.857471
904.3820, 6.876904
904.8641, 7.909140
905.3463, 7.599220
905.8284, 5.707650
906.3105, 4.541111
906.7926, 4.720962
907.2747, 5.058414
907.7568, 5.146192
908.2390, 5.275283
908.7211, 5.914518
909.2032, 6.828587
909.6853, 7.259260
910.1674, 6.858454
910.6495, 6.263135
911.1317, 5.743544
911.6138, 5.365670
912.0959, 5.295591
912.5780, 5.413245
913.0601, 5.412512
913.5422, 5.228456
914.0244, 5.074264
914.5065, 5.097885
914.9886, 5.332148
915.4707, 6.114929
915.9528, 7.260375
916.4349, 7.484896
916.9171, 6.605788
917.3992, 5.378366
917.8813, 4.075895
918.3634, 3.203133
918.8455, 3.800430
919.3276, 6.016284
919.8098, 6.971470
920.2919, 6.053626
920.7740, 5.449966
921.2561, 5.774515
921.7382, 6.441610
922.2203, 7.178695
922.7025, 7.870524
923.1846, 8.081129
923.6667, 7.593588
924.1488, 7.104591
924.6309, 6.694459
925.1130, 6.277015
925.5952, 5.487929
926.0773, 4.862679
926.5594, 5.468376
927.0415, 7.123331
927.5236, 7.788050
928.0057, 5.739969
928.4879, 3.748093
928.9700, 3.747281
929.4521, 4.701039
929.9342, 5.718618
930.4163, 6.541533
930.8984, 6.836317
931.3806, 6.502138
931.8627, 6.087525
932.3448, 6.153443
932.8269, 6.514465
933.3090, 6.920553
933.7911, 7.295157
934.2733, 7.158612
934.7554, 6.459280
935.2375, 6.005685
935.7196, 6.383431
936.2017, 7.139938
936.6838, 7.264815
937.1660, 6.715587
937.6481, 6.448473
938.1302, 6.545901
938.6123, 6.547428
939.0944, 6.208200
939.5765, 5.923383
940.0587, 6.157824
940.5408, 6.814512
941.0229, 7.168921
941.5050, 6.974620
941.9871, 6.929962
942.4692, 7.326985
942.9514, 7.563937
943.4335, 7.345381
943.9156, 6.864918
944.3977, 6.299612
944.8798, 5.669525
945.3619, 5.194529
945.8441, 4.747545
946.3262, 4.692485
946.8083, 5.451694
947.2904, 6.400900
947.7725, 7.104434
948.2546, 7.548926
948.7368, 7.826094
949.2189, 7.964467
949.7010, 7.979371
950.1831, 7.772242
950.6652, 7.545925
951.1473, 7.715940
951.6295, 7.928868
952.1116, 7.348083
952.5937, 6.059492
953.0758, 5.038772
953.5579, 4.839985
954.0400, 5.139503
954.5222, 5.675822
955.0043, 6.319046
955.4864, 6.611852
955.9685, 6.600263
956.4506, 6.825776
956.9327, 7.447993
957.4149, 7.885759
957.8970, 7.584556
958.3791, 6.792912
958.8612, 6.212115
959.3433, 5.837497
959.8254, 5.811487
960.3076, 6.211523
960.7897, 6.659773
961.2718, 6.994589
961.7539, 7.316121
962.2360, 7.812110
962.7181, 8.456997
963.2003, 8.616308
963.6824, 8.158778
964.1645, 7.455968
964.6466, 5.914834
965.1287, 4.913849
965.6108, 5.689999
966.0930, 7.233946
966.5751, 8.184437
967.0572, 8.524440
967.5393, 8.124152
968.0214, 6.108768
968.5035, 4.500409
968.9857, 3.747190
969.4678, 3.685735
969.9499, 4.496913
970.4320, 5.810066
970.9141, 6.947106
971.3962, 7.762153
971.8784, 8.242072
972.3605, 8.263474
972.8426, 8.062370
973.3247, 7.572567
973.8068, 7.100722
974.2889, 7.174031
974.7711, 7.655602
975.2532, 7.800788
975.7353, 7.206769
976.2174, 6.621787
976.6995, 6.997673
977.1816, 7.600767
977.6638, 7.264117
978.1459, 6.308909
978.6280, 5.640471
979.1101, 5.436929
979.5922, 5.292923
980.0743, 4.887117
980.5565, 4.561372
981.0386, 5.104299
981.5207, 6.184189
982.0028, 6.547819
982.4849, 6.193921
982.9670, 5.746307
983.4492, 5.414191
983.9313, 5.204264
984.4134, 5.118243
984.8955, 5.166564
985.3776, 5.423235
985.8597, 5.897048
986.3419, 6.291223
986.8240, 6.580339
987.3061, 6.827629
987.7882, 7.085363
988.2703, 7.226873
988.7524, 7.051968
989.2346, 6.611000
989.7167, 6.488133
990.1988, 6.894578
990.6809, 6.954772
991.1630, 6.420163
991.6451, 5.850390
992.1273, 5.561333
992.6094, 5.357371
993.0915, 4.872072
993.5736, 4.068421
994.0557, 3.693242
994.5378, 4.032948
995.0200, 4.387790
995.5021, 4.646699
995.9842, 4.952226
996.4663, 5.492982
996.9484, 6.084642
997.4305, 6.414468
997.9127, 6.443358
998.3948, 6.414226
998.8769, 6.231991
999.3590, 6.176911
999.8411, 6.602068
1000.323, 6.940979
1000.805, 6.538517
1001.287, 5.773255
1001.770, 5.532335
1002.252, 6.039610
1002.734, 6.408368
1003.216, 6.126593
1003.698, 5.768881
1004.180, 5.443882
1004.662, 5.388239
1005.144, 6.309513
1005.627, 7.666445
1006.109, 7.805157
1006.591, 6.084605
1007.073, 4.570714
1007.555, 5.225340
1008.037, 6.246438
1008.519, 5.587559
1009.001, 4.265638
1009.483, 4.010747
1009.966, 4.817427
1010.448, 5.737465
1010.930, 6.339500
1011.412, 6.571114
1011.894, 6.038092
1012.376, 5.328687
1012.858, 5.620000
1013.340, 6.437694
1013.823, 6.402825
1014.305, 5.436986
1014.787, 4.575295
1015.269, 4.409862
1015.751, 4.641493
1016.233, 4.926062
1016.715, 5.273040
1017.197, 5.793267
1017.679, 6.415376
1018.162, 6.834371
1018.644, 6.976131
1019.126, 6.786435
1019.608, 6.190974
1020.090, 5.540528
1020.572, 5.491158
1021.054, 5.960140
1021.536, 6.401943
1022.018, 6.807513
1022.501, 7.058271
1022.983, 7.125125
1023.465, 7.042048
1023.947, 6.805254
1024.429, 6.542098
1024.911, 6.602839
1025.393, 7.002217
1025.875, 6.880147
1026.358, 6.125733
1026.840, 5.851357
1027.322, 6.464842
1027.804, 7.042938
1028.286, 6.803864
1028.768, 6.146533
1029.250, 6.136789
1029.732, 6.911202
1030.214, 7.245403
1030.697, 7.007151
1031.179, 6.788045
1031.661, 6.773892
1032.143, 6.748884
1032.625, 6.560211
1033.107, 6.214242
1033.589, 5.676903
1034.071, 4.786602
1034.553, 4.449805
1035.036, 4.835264
1035.518, 5.436911
1036.000, 6.376152
1036.482, 7.125563
1036.964, 7.221514
1037.446, 6.826144
1037.928, 6.381307
1038.410, 5.788135
1038.893, 5.493489
1039.375, 5.654471
1039.857, 5.863792
1040.339, 6.005989
1040.821, 6.190924
1041.303, 6.762988
1041.785, 7.406833
1042.267, 7.059225
1042.750, 5.111865
1043.232, 4.205959
1043.714, 5.576062
1044.196, 6.355464
1044.678, 5.005080
1045.160, 3.677248
1045.642, 4.434477
1046.124, 6.325916
1046.606, 6.801878
1047.089, 5.126839
1047.571, 4.565558
1048.053, 6.788068
1048.535, 8.364454
1049.017, 8.001696
1049.499, 7.000764
1049.981, 6.029452
1050.463, 5.275418
1050.945, 5.118720
1051.428, 5.727061
1051.910, 6.098917
1052.392, 5.814027
1052.874, 5.578102
1053.356, 5.705348
1053.838, 5.881254
1054.320, 5.690549
1054.802, 5.417091
1055.285, 5.847372
1055.767, 7.205054
1056.249, 7.799148
1056.731, 6.436075
1057.213, 5.232780
1057.695, 4.886061
1058.177, 5.063598
1058.659, 5.859582
1059.141, 6.843080
1059.624, 7.266969
1060.106, 7.001458
1060.588, 6.618223
1061.070, 5.951925
1061.552, 5.663708
1062.034, 6.490556
1062.516, 7.339574
1062.998, 7.247808
1063.480, 6.614944
1063.963, 6.191055
1064.445, 6.099426
1064.927, 6.033606
1065.409, 5.737317
1065.891, 5.640941
1066.373, 6.170584
1066.855, 6.721157
1067.337, 6.993631
1067.820, 6.884082
1068.302, 5.981338
1068.784, 4.417953
1069.266, 3.613711
1069.748, 4.512493
1070.230, 5.550451
1070.712, 6.125190
1071.194, 6.497365
1071.677, 6.780236
1072.159, 7.040254
1072.641, 7.381506
1073.123, 7.786521
1073.605, 8.100229
1074.087, 8.354598
1074.569, 8.299207
1075.051, 7.713875
1075.533, 6.884472
1076.016, 5.556595
1076.498, 4.401841
1076.980, 4.391666
1077.462, 5.403594
1077.944, 6.586400
1078.426, 7.893019
1078.908, 8.486742
1079.390, 7.253333
1079.873, 5.995631
1080.355, 6.085835
1080.837, 6.685400
1081.319, 6.794882
1081.801, 6.455576
1082.283, 6.188636
1082.765, 6.148179
1083.247, 6.166177
1083.729, 6.242634
1084.212, 6.264581
1084.694, 6.135137
1085.176, 5.943084
1085.658, 5.669937
1086.140, 5.438598
1086.622, 5.613647
1087.104, 6.310586
1087.586, 6.652165
1088.068, 6.084239
1088.551, 5.309258
1089.033, 4.284072
1089.515, 3.558848
1089.997, 3.856330
1090.479, 4.713905
1090.961, 5.197494
1091.443, 5.159737
1091.925, 5.246336
1092.408, 5.760557
1092.890, 6.361135
1093.372, 7.152722
1093.854, 7.734523
1094.336, 7.805217
1094.818, 7.485366
1095.300, 6.945113
1095.782, 6.220919
1096.265, 5.308617
1096.747, 3.749032
1097.229, 2.890376
1097.711, 3.748751
1098.193, 4.793055
1098.675, 5.175026
1099.157, 5.213922
1099.639, 5.174482
1100.121, 5.181826
1100.604, 5.585948
1101.086, 6.673903
1101.568, 7.491753
1102.050, 7.755425
1102.532, 7.743176
1103.014, 7.464829
1103.496, 7.061299
1103.978, 6.457670
1104.460, 5.864192
1104.943, 5.912766
1105.425, 6.902959
1105.907, 7.261711
1106.389, 5.888217
1106.871, 4.974226
1107.353, 5.563172
1107.835, 6.406401
1108.317, 6.694376
1108.800, 6.620968
1109.282, 6.547667
1109.764, 6.499936
1110.246, 6.453706
1110.728, 6.419369
1111.210, 6.366614
1111.692, 6.105477
1112.174, 6.039596
1112.656, 6.656723
1113.139, 7.381403
1113.621, 7.459877
1114.103, 6.943147
1114.585, 6.478980
1115.067, 6.080264
1115.549, 5.723613
1116.031, 5.442624
1116.513, 5.146941
1116.995, 4.517780
1117.478, 4.184277
1117.960, 5.020207
1118.442, 6.513050
1118.924, 6.959783
1119.406, 5.958745
1119.888, 5.507695
1120.370, 5.812551
1120.852, 6.264127
1121.335, 6.898797
1121.817, 7.362264
1122.299, 7.401166
1122.781, 7.136138
1123.263, 6.697724
1123.745, 6.072639
1124.227, 6.154142
1124.709, 7.365552
1125.192, 7.648567
1125.674, 6.325609
1126.156, 5.437674
1126.638, 6.128462
1127.120, 7.145700
1127.602, 6.927908
1128.084, 5.806449
1128.566, 5.457736
1129.048, 5.981071
1129.531, 6.428349
1130.013, 6.782844
1130.495, 6.834236
1130.977, 6.477617
1131.459, 6.042840
1131.941, 5.777547
1132.423, 5.684011
1132.905, 5.799613
1133.387, 6.111881
1133.870, 6.449917
1134.352, 6.810613
1134.834, 7.064330
1135.316, 7.187596
1135.798, 7.391500
1136.280, 7.810343
1136.762, 8.049487
1137.244, 7.510077
1137.727, 6.476472
1138.209, 5.669853
1138.691, 5.138855
1139.173, 5.230855
1139.655, 5.872002
1140.137, 6.507125
1140.619, 6.926140
1141.101, 7.091540
1141.583, 6.944563
1142.066, 6.629243
1142.548, 6.221939
1143.030, 5.884130
1143.512, 6.061748
1143.994, 6.575744
1144.476, 6.929275
1144.958, 7.034203
1145.440, 7.071234
1145.922, 7.139728
1146.405, 7.037062
1146.887, 6.333703
1147.369, 5.587567
1147.851, 5.494972
1148.333, 5.738441
1148.815, 5.903495
1149.297, 5.952393
1149.779, 5.965394
1150.262, 5.961103
1150.744, 5.870051
1151.226, 5.584061
1151.708, 5.315334
1152.190, 5.152584
1152.672, 5.113656
1153.154, 5.349906
1153.636, 5.637285
1154.119, 5.554710
1154.601, 5.190573
1155.083, 5.157026
1155.565, 5.745493
1156.047, 6.230633
1156.529, 6.299596
1157.011, 6.313148
1157.493, 6.666928
1157.975, 6.810510
1158.458, 5.824742
1158.940, 4.437202
1159.422, 4.261436
1159.904, 5.519516
1160.386, 6.637612
1160.868, 7.661143
1161.350, 8.262902
1161.832, 8.314074
1162.314, 8.055512
1162.797, 7.373584
1163.279, 6.630116
1163.761, 6.209692
1164.243, 6.058274
1164.725, 5.910577
1165.207, 5.664950
1165.689, 5.857553
1166.171, 6.819650
1166.654, 7.170877
1167.136, 6.399862
1167.618, 5.468573
1168.100, 4.921165
1168.582, 4.818830
1169.064, 5.377179
1169.546, 6.476842
1170.028, 6.937701
1170.510, 6.741017
1170.993, 6.744320
1171.475, 7.041829
1171.957, 7.393029
1172.439, 7.716593
1172.921, 7.844386
1173.403, 7.611957
1173.885, 7.138017
1174.367, 6.583327
1174.849, 6.000424
1175.332, 5.411607
1175.814, 4.968172
1176.296, 5.539031
1176.778, 6.995150
1177.260, 7.735788
1177.742, 6.995082
1178.224, 5.894433
1178.706, 5.195747
1179.189, 5.091915
1179.671, 6.505677
1180.153, 8.211055
1180.635, 8.105121
1181.117, 6.839850
1181.599, 6.162875
1182.081, 6.379073
1182.563, 6.640344
1183.046, 6.491392
1183.528, 6.522231
1184.010, 7.463836
1184.492, 8.260271
1184.974, 8.057069
1185.456, 7.452549
1185.938, 6.999652
1186.420, 6.715938
1186.902, 6.396300
1187.385, 5.985434
1187.867, 6.087291
1188.349, 7.829433
1188.831, 8.568353
1189.313, 6.689529
1189.795, 5.053017
1190.277, 5.212719
1190.759, 6.134601
1191.241, 7.060735
1191.724, 7.849625
1192.206, 7.888850
1192.688, 6.911070
1193.170, 6.305980
1193.652, 6.086086
1194.134, 6.261891
1194.616, 6.971845
1195.098, 7.608902
1195.581, 7.805400
1196.063, 7.851647
1196.545, 8.177857
1197.027, 8.665224
1197.509, 8.737532
1197.991, 8.430640
1198.473, 8.485332
1198.955, 8.867906
1199.438, 8.322195
1199.920, 6.592358
1200.402, 5.070140
1200.884, 4.681872
1201.366, 5.023472
1201.848, 5.872166
1202.330, 6.869288
1202.812, 7.408811
1203.294, 7.531197
1203.776, 7.101520
1204.259, 6.374729
1204.741, 5.989859
1205.223, 6.123320
1205.705, 6.595103
1206.187, 7.577817
1206.669, 8.140409
1207.151, 7.141067
1207.633, 6.010046
1208.116, 5.930736
1208.598, 6.311127
1209.080, 6.412092
1209.562, 6.317705
1210.044, 6.511785
1210.526, 7.114856
1211.008, 7.480607
1211.490, 7.196040
1211.973, 7.106521
1212.455, 7.794587
1212.937, 8.157955
1213.419, 7.219070
1213.901, 6.281444
1214.383, 6.913067
1214.865, 8.491759
1215.347, 8.845907
1215.829, 7.768137
1216.312, 6.787711
1216.794, 5.770489
1217.276, 5.710265
1217.758, 6.955862
1218.240, 7.986201
1218.722, 8.032210
1219.204, 7.793667
1219.686, 8.089258
1220.168, 8.611316
1220.651, 8.431180
1221.133, 7.801180
1221.615, 7.988262
1222.097, 8.706153
1222.579, 8.395763
1223.061, 6.984712
1223.543, 5.828701
1224.025, 5.572420
1224.508, 5.848199
1224.990, 6.671537
1225.472, 7.452466
1225.954, 7.589070
1226.436, 7.360626
1226.918, 6.963552
1227.400, 6.504427
1227.882, 5.986966
1228.365, 5.515753
1228.847, 5.475510
1229.329, 6.074679
1229.811, 6.675923
1230.293, 7.295344
1230.775, 7.625661
1231.257, 7.530343
1231.739, 7.155035
1232.221, 6.284170
1232.703, 5.405488
1233.186, 5.153565
1233.668, 5.464972
1234.150, 5.975207
1234.632, 6.853797
1235.114, 7.190954
1235.596, 6.830137
1236.078, 6.642666
1236.560, 6.835731
1237.043, 7.203763
1237.525, 7.661109
1238.007, 8.018598
1238.489, 8.013433
1238.971, 7.753823
1239.453, 7.553679
1239.935, 7.350118
1240.417, 6.717219
1240.900, 5.901019
1241.382, 5.951085
1241.864, 6.901677
1242.346, 7.756344
1242.828, 8.038985
1243.310, 7.970394
1243.792, 7.350111
1244.274, 6.900197
1244.756, 7.467277
1245.239, 8.223610
1245.721, 8.295346
1246.203, 8.047790
1246.685, 8.144875
1247.167, 8.577905
1247.649, 8.905934
1248.131, 9.123062
1248.613, 9.006333
1249.095, 7.766708
1249.578, 7.407708
1250.060, 9.125722
1250.542, 10.38862
1251.024, 9.659727
1251.506, 8.271228
1251.988, 7.803831
1252.470, 8.018577
1252.952, 8.021785
1253.435, 7.810960
1253.917, 7.392995
1254.399, 6.781908
1254.881, 6.411014
1255.363, 6.355768
1255.845, 6.407621
1256.327, 6.478086
1256.809, 6.994470
1257.292, 8.647178
1257.774, 10.26916
1258.256, 10.04834
1258.738, 8.943087
1259.220, 7.839957
1259.702, 7.142138
1260.184, 7.800456
1260.666, 9.302259
1261.148, 9.797346
1261.630, 8.775328
1262.113, 8.003056
1262.595, 8.624834
1263.077, 8.836529
1263.559, 7.682159
1264.041, 6.553409
1264.523, 5.737612
1265.005, 5.661077
1265.487, 7.325142
1265.970, 9.565965
1266.452, 9.470609
1266.934, 6.981807
1267.416, 6.156537
1267.898, 7.268430
1268.380, 7.963310
1268.862, 8.005444
1269.344, 7.740863
1269.827, 7.276032
1270.309, 7.288744
1270.791, 8.365118
1271.273, 9.327474
1271.755, 7.979319
1272.237, 5.768380
1272.719, 5.304790
1273.201, 5.975470
1273.683, 7.148674
1274.166, 8.336842
1274.648, 8.592940
1275.130, 7.932502
1275.612, 7.454461
1276.094, 7.602928
1276.576, 7.797100
1277.058, 7.851624
1277.540, 7.847212
1278.022, 7.690462
1278.505, 7.620753
1278.987, 7.975741
1279.469, 8.360082
1279.951, 8.313817
1280.433, 7.907292
1280.915, 7.361667
1281.397, 6.589464
1281.879, 6.498930
1282.362, 7.182601
1282.844, 7.371054
1283.326, 6.848700
1283.808, 6.855948
1284.290, 7.904558
1284.772, 8.893397
1285.254, 8.938064
1285.736, 8.042567
##END=



