##NAMES=Congolite
##RRUFFID=R110153
##IDEAL CHEMISTRY=Fe^2+^_3_B_7_O_13_Cl
##LOCALITY=Potash Corporation of Saskatchewan mine, Penobsquis, Kings County, New Brunswick, Canada
##OWNER=RRUFF
##SOURCE=Donald M Doell and Brian Roulston
##DESCRIPTION=Colorless cubes, extracted by dissolving the matrix of sylvite/halite, associated with strontioginorite R110149, howlite R110150, volkovskite R110151, ruitenbergite R110152, and hilgardite
##STATUS=The identification of this mineral has been confirmed by single-crystal X-ray diffraction.
##URL=rruff.info/R110153
157.1714, 720.7049
157.6535, 720.7578
158.1356, 719.5239
158.6177, 717.1790
159.0999, 714.9738
159.5820, 714.1425
160.0641, 714.9806
160.5462, 715.2186
161.0283, 714.5951
161.5104, 713.5927
161.9926, 712.4373
162.4747, 711.1736
162.9568, 710.0264
163.4389, 709.3444
163.9210, 709.0992
164.4031, 708.7207
164.8853, 708.0775
165.3674, 707.2601
165.8495, 706.3134
166.3316, 705.1190
166.8137, 704.1505
167.2958, 703.9758
167.7780, 704.4238
168.2601, 704.9473
168.7422, 705.6053
169.2243, 706.2130
169.7064, 705.9468
170.1885, 704.3019
170.6707, 702.2305
171.1528, 700.0268
171.6349, 697.8551
172.1170, 696.2898
172.5991, 696.2094
173.0812, 697.7255
173.5634, 698.3216
174.0455, 696.7463
174.5276, 695.0682
175.0097, 694.1192
175.4918, 693.9101
175.9739, 694.0120
176.4561, 693.9479
176.9382, 693.5887
177.4203, 693.5049
177.9024, 694.4872
178.3845, 695.1092
178.8666, 694.1005
179.3488, 691.5823
179.8309, 688.9904
180.3130, 688.4505
180.7951, 691.5685
181.2772, 693.1074
181.7593, 692.3876
182.2415, 690.7667
182.7236, 689.0017
183.2057, 687.3469
183.6878, 685.9244
184.1699, 684.9551
184.6520, 684.8506
185.1342, 684.4026
185.6163, 682.9494
186.0984, 681.4225
186.5805, 681.1348
187.0626, 682.5539
187.5447, 684.3705
188.0269, 684.1281
188.5090, 681.3187
188.9911, 678.9644
189.4732, 677.8873
189.9553, 677.6686
190.4374, 677.6274
190.9196, 677.5868
191.4017, 677.6249
191.8838, 677.9033
192.3659, 678.4338
192.8480, 678.8980
193.3301, 679.3111
193.8123, 679.5726
194.2944, 679.2540
194.7765, 677.9345
195.2586, 676.3495
195.7407, 675.2726
196.2228, 674.7118
196.7050, 674.3218
197.1871, 673.6548
197.6692, 672.7549
198.1513, 672.6962
198.6334, 674.9965
199.1155, 677.0719
199.5977, 676.8087
200.0798, 674.2001
200.5619, 671.3312
201.0440, 670.5257
201.5261, 672.2292
202.0082, 673.0026
202.4904, 671.1781
202.9725, 669.1942
203.4546, 668.2875
203.9367, 668.5851
204.4188, 669.3894
204.9009, 669.9036
205.3831, 670.0973
205.8652, 670.0673
206.3473, 669.2868
206.8294, 668.6885
207.3115, 669.2228
207.7936, 670.8339
208.2758, 672.3800
208.7579, 672.1292
209.2400, 668.8923
209.7221, 666.4072
210.2042, 664.3253
210.6863, 663.0709
211.1685, 663.4306
211.6506, 665.3337
212.1327, 667.5009
212.6148, 668.0221
213.0969, 665.6970
213.5790, 664.1472
214.0612, 663.8035
214.5433, 663.9034
215.0254, 663.8840
215.5075, 663.6042
215.9896, 663.2103
216.4717, 662.8840
216.9539, 662.5445
217.4360, 662.5378
217.9181, 663.7170
218.4002, 664.8120
218.8823, 664.1633
219.3644, 661.3564
219.8466, 658.1603
220.3287, 657.2197
220.8108, 659.0546
221.2929, 660.0753
221.7750, 659.1848
222.2571, 657.4688
222.7393, 656.2547
223.2214, 655.8423
223.7035, 655.7942
224.1856, 655.5436
224.6677, 655.1027
225.1498, 655.0117
225.6320, 655.9384
226.1141, 657.1750
226.5962, 657.4053
227.0783, 656.1711
227.5604, 654.6544
228.0425, 654.0912
228.5247, 654.2766
229.0068, 654.4658
229.4889, 654.4113
229.9710, 654.1596
230.4531, 653.7901
230.9352, 653.2684
231.4174, 652.7135
231.8995, 652.1060
232.3816, 651.5144
232.8637, 651.1648
233.3458, 651.5217
233.8279, 652.2402
234.3101, 652.0176
234.7922, 650.0573
235.2743, 648.4807
235.7564, 648.8659
236.2385, 650.4553
236.7206, 651.7177
237.2028, 651.6031
237.6849, 650.4573
238.1670, 649.7935
238.6491, 649.9769
239.1312, 650.1152
239.6133, 649.8868
240.0955, 649.3682
240.5776, 648.6310
241.0597, 647.5634
241.5418, 646.3520
242.0239, 645.9922
242.5060, 647.2674
242.9882, 648.3517
243.4703, 648.9057
243.9524, 648.9134
244.4345, 648.2095
244.9166, 646.5134
245.3987, 644.2449
245.8809, 643.4932
246.3630, 645.7491
246.8451, 647.6846
247.3272, 648.5294
247.8093, 648.6992
248.2914, 648.8870
248.7736, 649.5253
249.2557, 650.2317
249.7378, 649.3737
250.2199, 644.4822
250.7020, 641.0863
251.1841, 641.0129
251.6663, 642.4293
252.1484, 643.1369
252.6305, 642.0674
253.1126, 639.7936
253.5947, 638.0863
254.0768, 637.4641
254.5590, 636.8690
255.0411, 635.9133
255.5232, 635.0720
256.0053, 635.1211
256.4874, 636.3791
256.9695, 638.1071
257.4517, 638.5151
257.9338, 635.3652
258.4159, 633.5458
258.8980, 633.7672
259.3801, 635.0333
259.8622, 636.5021
260.3444, 637.8596
260.8265, 638.9575
261.3086, 639.5042
261.7907, 639.1036
262.2728, 638.7118
262.7549, 638.2932
263.2371, 637.9061
263.7192, 637.6718
264.2013, 637.6120
264.6834, 637.5334
265.1655, 637.1215
265.6476, 636.1375
266.1298, 635.4073
266.6119, 635.2900
267.0940, 635.2448
267.5761, 634.6511
268.0582, 633.4098
268.5403, 632.0930
269.0225, 631.3502
269.5046, 631.3088
269.9867, 631.4902
270.4688, 632.1672
270.9509, 632.8933
271.4330, 633.3230
271.9152, 633.4099
272.3973, 633.2256
272.8794, 632.7891
273.3615, 632.0720
273.8436, 631.3696
274.3257, 630.2219
274.8079, 629.4100
275.2900, 630.0416
275.7721, 632.0240
276.2542, 633.4612
276.7363, 632.5494
277.2184, 629.6496
277.7006, 628.2869
278.1827, 630.2349
278.6648, 632.3221
279.1469, 631.9871
279.6290, 629.4901
280.1111, 627.1404
280.5933, 626.3216
281.0754, 626.7325
281.5575, 626.9825
282.0396, 626.9832
282.5217, 626.9376
283.0038, 627.0967
283.4860, 627.3766
283.9681, 627.2706
284.4502, 626.3325
284.9323, 625.0544
285.4144, 624.4898
285.8965, 624.8938
286.3787, 625.3506
286.8608, 625.3369
287.3429, 624.9582
287.8250, 624.5830
288.3071, 624.3038
288.7892, 624.1182
289.2714, 624.0414
289.7535, 624.0898
290.2356, 624.0968
290.7177, 623.7947
291.1998, 623.3831
291.6819, 623.5416
292.1641, 624.7382
292.6462, 625.8957
293.1283, 625.6077
293.6104, 624.0616
294.0925, 622.6606
294.5746, 621.9531
295.0568, 621.7689
295.5389, 621.8064
296.0210, 622.0636
296.5031, 622.4489
296.9852, 623.3547
297.4673, 624.4313
297.9495, 624.5004
298.4316, 622.1028
298.9137, 618.8949
299.3958, 617.6293
299.8779, 618.7507
300.3600, 619.9344
300.8422, 619.4197
301.3243, 617.9434
301.8064, 616.7001
302.2885, 615.8492
302.7706, 615.4172
303.2527, 615.6641
303.7349, 616.6594
304.2170, 617.3163
304.6991, 616.6153
305.1812, 615.5311
305.6633, 615.5193
306.1454, 617.1563
306.6276, 618.8853
307.1097, 619.2483
307.5918, 618.3192
308.0739, 617.3503
308.5560, 616.7072
309.0381, 616.2425
309.5203, 615.9275
310.0024, 615.8132
310.4845, 615.2725
310.9666, 613.2032
311.4487, 610.1015
311.9308, 608.6195
312.4130, 609.9852
312.8951, 612.1055
313.3772, 612.9756
313.8593, 612.7721
314.3414, 612.5923
314.8235, 612.9965
315.3057, 613.8242
315.7878, 614.8405
316.2699, 616.3320
316.7520, 617.2468
317.2341, 616.3988
317.7162, 614.4135
318.1984, 612.5608
318.6805, 611.0969
319.1626, 610.1249
319.6447, 609.9777
320.1268, 610.8155
320.6089, 611.6880
321.0911, 612.1013
321.5732, 612.2053
322.0553, 612.0951
322.5374, 611.5305
323.0195, 611.1849
323.5016, 612.1861
323.9838, 614.5579
324.4659, 616.0368
324.9480, 615.3165
325.4301, 613.5147
325.9122, 611.9426
326.3943, 610.6238
326.8765, 609.7015
327.3586, 609.3687
327.8407, 609.5552
328.3228, 609.9176
328.8049, 610.4907
329.2870, 611.0599
329.7692, 611.4682
330.2513, 611.7166
330.7334, 611.7252
331.2155, 611.2545
331.6976, 610.5324
332.1797, 610.1807
332.6619, 610.4281
333.1440, 610.5799
333.6261, 609.6234
334.1082, 608.0833
334.5903, 607.2874
335.0724, 607.9714
335.5546, 609.4471
336.0367, 611.0803
336.5188, 612.9224
337.0009, 614.2551
337.4830, 614.4186
337.9651, 613.8422
338.4473, 613.3707
338.9294, 613.2289
339.4115, 612.9943
339.8936, 612.0754
340.3757, 610.6115
340.8578, 609.7672
341.3400, 610.3442
341.8221, 611.3661
342.3042, 611.2663
342.7863, 609.8598
343.2684, 608.4570
343.7505, 607.5107
344.2327, 607.0446
344.7148, 607.2590
345.1969, 608.3862
345.6790, 609.6843
346.1611, 610.2554
346.6432, 610.2137
347.1254, 610.1002
347.6075, 609.9217
348.0896, 609.8090
348.5717, 609.9866
349.0538, 610.4841
349.5359, 610.9900
350.0181, 611.2506
350.5002, 611.3259
350.9823, 611.5088
351.4644, 611.9628
351.9465, 612.4012
352.4286, 612.5528
352.9108, 612.4873
353.3929, 612.5165
353.8750, 612.7313
354.3571, 613.2029
354.8392, 614.1924
355.3214, 616.1322
355.8035, 617.5684
356.2856, 617.6411
356.7677, 616.9184
357.2498, 616.3292
357.7319, 616.1033
358.2141, 616.2615
358.6962, 617.0647
359.1783, 618.7496
359.6604, 619.5807
360.1425, 618.6657
360.6246, 617.2474
361.1068, 616.4828
361.5889, 616.4688
362.0710, 616.6747
362.5531, 616.7175
363.0352, 616.5819
363.5173, 616.2171
363.9995, 615.3385
364.4816, 614.5328
364.9637, 614.0323
365.4458, 613.8255
365.9279, 613.9109
366.4100, 614.3338
366.8922, 614.9366
367.3743, 615.1838
367.8564, 614.4850
368.3385, 614.2803
368.8206, 615.3768
369.3027, 616.7945
369.7849, 617.2923
370.2670, 616.5485
370.7491, 615.3273
371.2312, 614.7533
371.7133, 615.3734
372.1954, 614.8821
372.6776, 612.1251
373.1597, 609.3152
373.6418, 607.8109
374.1239, 607.5673
374.6060, 607.8288
375.0881, 608.0788
375.5703, 608.3012
376.0524, 607.9489
376.5345, 606.5891
377.0166, 605.1707
377.4987, 603.5457
377.9808, 602.0847
378.4630, 601.4697
378.9451, 602.0236
379.4272, 603.0936
379.9093, 603.0480
380.3914, 600.6383
380.8735, 599.2051
381.3557, 599.8748
381.8378, 600.7487
382.3199, 600.1187
382.8020, 597.9317
383.2841, 595.6786
383.7662, 595.1660
384.2484, 596.7352
384.7305, 597.6212
385.2126, 597.4156
385.6947, 596.8736
386.1768, 595.6031
386.6589, 594.2045
387.1411, 593.9529
387.6232, 595.9003
388.1053, 599.1038
388.5874, 599.9750
389.0695, 596.9586
389.5516, 594.5084
390.0338, 594.0472
390.5159, 594.3073
390.9980, 594.1075
391.4801, 593.1239
391.9622, 591.9844
392.4443, 591.5516
392.9265, 591.9299
393.4086, 592.0133
393.8907, 591.2242
394.3728, 590.5413
394.8549, 590.6340
395.3370, 591.3607
395.8192, 592.1019
396.3013, 592.5224
396.7834, 592.6560
397.2655, 592.5790
397.7476, 592.2338
398.2297, 591.8281
398.7119, 591.8297
399.1940, 591.7278
399.6761, 590.5923
400.1582, 587.6569
400.6403, 584.8172
401.1224, 584.3320
401.6046, 586.0512
402.0867, 587.5007
402.5688, 587.8767
403.0509, 587.7313
403.5330, 587.7559
404.0151, 587.9559
404.4973, 588.0709
404.9794, 588.0299
405.4615, 587.8182
405.9436, 587.3251
406.4257, 586.5013
406.9078, 585.7301
407.3900, 585.4153
407.8721, 585.4517
408.3542, 585.2504
408.8363, 584.4357
409.3184, 583.6805
409.8005, 583.4014
410.2827, 583.5467
410.7648, 584.0250
411.2469, 584.9124
411.7290, 585.8790
412.2111, 586.0978
412.6932, 585.3184
413.1754, 584.5560
413.6575, 584.0689
414.1396, 583.6336
414.6217, 582.8746
415.1038, 581.7791
415.5859, 580.8758
416.0681, 580.7516
416.5502, 581.5099
417.0323, 581.8989
417.5144, 581.5382
417.9965, 581.2635
418.4786, 581.5648
418.9608, 582.1835
419.4429, 582.6434
419.9250, 582.7079
420.4071, 582.3873
420.8892, 581.6581
421.3713, 579.7484
421.8535, 578.6480
422.3356, 578.9710
422.8177, 579.6726
423.2998, 580.0019
423.7819, 579.8405
424.2640, 579.4551
424.7462, 579.0212
425.2283, 578.4921
425.7104, 578.6129
426.1925, 580.9535
426.6746, 582.2009
427.1567, 580.4005
427.6389, 577.1273
428.1210, 574.9291
428.6031, 575.1262
429.0852, 576.5673
429.5673, 576.7867
430.0494, 575.2620
430.5316, 574.4094
431.0137, 575.8802
431.4958, 577.4724
431.9779, 577.6074
432.4600, 576.2617
432.9421, 574.7744
433.4243, 574.0474
433.9064, 574.0002
434.3885, 574.3601
434.8706, 575.3090
435.3527, 576.2139
435.8348, 576.6508
436.3170, 576.7741
436.7991, 576.8201
437.2812, 576.8942
437.7633, 576.8346
438.2454, 576.4305
438.7275, 575.7216
439.2097, 574.9442
439.6918, 574.0485
440.1739, 573.3195
440.6560, 573.3685
441.1381, 574.2719
441.6202, 574.8241
442.1024, 574.3486
442.5845, 573.5368
443.0666, 573.1617
443.5487, 573.2906
444.0308, 573.6407
444.5129, 574.0846
444.9951, 574.5740
445.4772, 574.6916
445.9593, 573.9755
446.4414, 573.4816
446.9235, 573.4859
447.4056, 573.9274
447.8878, 575.0482
448.3699, 576.8923
448.8520, 578.4244
449.3341, 577.8666
449.8162, 573.8610
450.2983, 571.6612
450.7805, 572.2770
451.2626, 573.4756
451.7447, 574.5539
452.2268, 575.2408
452.7089, 575.1805
453.1910, 574.0401
453.6732, 572.1597
454.1553, 570.9445
454.6374, 570.3685
455.1195, 570.5899
455.6016, 572.5982
456.0837, 574.6785
456.5659, 575.1586
457.0480, 573.8352
457.5301, 572.1042
458.0122, 571.5075
458.4943, 572.0129
458.9764, 571.9788
459.4586, 570.7591
459.9407, 569.9120
460.4228, 570.4639
460.9049, 571.8588
461.3870, 573.1678
461.8691, 574.1952
462.3513, 574.7951
462.8334, 574.7113
463.3155, 573.9596
463.7976, 572.8993
464.2797, 571.4774
464.7618, 569.9854
465.2440, 568.6960
465.7261, 567.5867
466.2082, 566.9005
466.6903, 567.0204
467.1724, 567.4422
467.6545, 567.5116
468.1367, 567.1981
468.6188, 566.9326
469.1009, 567.0395
469.5830, 567.4180
470.0651, 567.5541
470.5472, 566.9600
471.0294, 566.7650
471.5115, 567.6694
471.9936, 568.9554
472.4757, 569.6251
472.9578, 569.4535
473.4399, 569.1224
473.9221, 569.5651
474.4042, 571.1306
474.8863, 571.3867
475.3684, 569.1641
475.8505, 567.0345
476.3326, 565.8636
476.8148, 565.4552
477.2969, 565.4131
477.7790, 565.5540
478.2611, 565.8307
478.7432, 566.2205
479.2253, 566.9268
479.7075, 567.1591
480.1896, 566.1929
480.6717, 565.2617
481.1538, 565.3075
481.6359, 566.1061
482.1180, 566.5221
482.6002, 565.4246
483.0823, 563.5062
483.5644, 562.9562
484.0465, 564.2614
484.5286, 565.1503
485.0107, 564.2764
485.4929, 562.6091
485.9750, 561.1926
486.4571, 560.1136
486.9392, 559.4066
487.4213, 559.1846
487.9034, 559.3373
488.3856, 559.6711
488.8677, 560.1770
489.3498, 560.7051
489.8319, 561.1536
490.3140, 561.5089
490.7961, 561.7391
491.2783, 562.0956
491.7604, 562.0674
492.2425, 560.8261
492.7246, 559.1462
493.2067, 558.5988
493.6888, 559.7361
494.1710, 561.6260
494.6531, 562.8785
495.1352, 563.4523
495.6173, 563.4314
496.0994, 562.3207
496.5815, 561.1863
497.0637, 560.3351
497.5458, 559.8837
498.0279, 560.0803
498.5100, 561.1353
498.9921, 562.5491
499.4742, 563.0106
499.9564, 562.1301
500.4385, 561.2633
500.9206, 560.2013
501.4027, 559.5167
501.8848, 559.8898
502.3669, 561.1248
502.8491, 562.1454
503.3312, 561.9587
503.8133, 561.0827
504.2954, 561.0916
504.7775, 562.2478
505.2596, 563.0291
505.7418, 562.3328
506.2239, 561.0749
506.7060, 560.6201
507.1881, 561.2141
507.6702, 561.8698
508.1523, 562.2328
508.6345, 562.2941
509.1166, 561.9196
509.5987, 561.0866
510.0808, 560.2516
510.5629, 559.7604
511.0450, 559.6049
511.5272, 559.6027
512.0093, 560.1240
512.4914, 560.3367
512.9735, 559.7944
513.4556, 558.8876
513.9377, 558.0056
514.4199, 557.3015
514.9020, 556.9418
515.3841, 557.2464
515.8662, 558.3996
516.3483, 558.9548
516.8304, 558.6238
517.3126, 557.9744
517.7947, 556.8717
518.2768, 555.6326
518.7589, 554.7363
519.2410, 554.3873
519.7231, 554.2061
520.2053, 553.5246
520.6874, 552.2779
521.1695, 551.5458
521.6516, 551.8710
522.1337, 552.2250
522.6158, 551.8978
523.0980, 551.0455
523.5801, 550.0915
524.0622, 548.9647
524.5443, 548.0212
525.0264, 547.7713
525.5085, 548.1065
525.9907, 548.3753
526.4728, 548.3192
526.9549, 548.1851
527.4370, 548.4002
527.9191, 549.0654
528.4012, 549.4485
528.8834, 549.2182
529.3655, 548.9095
529.8476, 549.0142
530.3297, 549.3685
530.8118, 549.4427
531.2939, 548.9434
531.7761, 548.0349
532.2582, 547.0660
532.7403, 545.4622
533.2224, 544.9030
533.7045, 546.0744
534.1866, 547.5635
534.6688, 548.8529
535.1509, 549.7324
535.6330, 549.8973
536.1151, 548.9828
536.5972, 547.4383
537.0793, 546.4393
537.5615, 546.0557
538.0436, 545.9747
538.5257, 546.5045
539.0078, 547.0046
539.4899, 546.8404
539.9720, 546.0301
540.4542, 545.2217
540.9363, 544.8576
541.4184, 544.6246
541.9005, 543.9549
542.3826, 542.8658
542.8647, 542.0317
543.3469, 541.8749
543.8290, 542.1196
544.3111, 542.0591
544.7932, 541.6273
545.2753, 541.0975
545.7574, 540.1639
546.2396, 539.3837
546.7217, 539.4763
547.2038, 540.2649
547.6859, 540.7824
548.1680, 540.2761
548.6501, 539.1005
549.1323, 538.9089
549.6144, 540.6459
550.0965, 541.7271
550.5786, 541.2954
551.0607, 540.6411
551.5428, 540.8198
552.0250, 541.7839
552.5071, 542.6506
552.9892, 542.7746
553.4713, 542.3298
553.9534, 541.7465
554.4355, 540.9717
554.9177, 540.3038
555.3998, 539.6245
555.8819, 539.3129
556.3640, 540.0812
556.8461, 542.1468
557.3282, 543.5632
557.8104, 543.0958
558.2925, 541.8674
558.7746, 541.1980
559.2567, 541.1205
559.7388, 541.0405
560.2209, 540.5939
560.7031, 539.8962
561.1852, 539.3124
561.6673, 538.5991
562.1494, 538.3684
562.6315, 539.1350
563.1136, 539.9918
563.5958, 540.3318
564.0779, 540.1362
564.5600, 539.5989
565.0421, 538.7787
565.5242, 537.8546
566.0063, 537.5267
566.4885, 538.1120
566.9706, 538.3679
567.4527, 537.7326
567.9348, 536.8608
568.4169, 535.9207
568.8990, 535.0471
569.3812, 534.8510
569.8633, 536.3987
570.3454, 538.4234
570.8275, 538.9286
571.3096, 537.9980
571.7917, 537.0416
572.2739, 536.6122
572.7560, 536.5233
573.2381, 536.4691
573.7202, 536.4628
574.2023, 536.4437
574.6844, 536.3611
575.1666, 536.3059
575.6487, 536.3406
576.1308, 536.4552
576.6129, 536.6305
577.0950, 536.8614
577.5771, 537.0902
578.0593, 537.1530
578.5414, 536.8958
579.0235, 536.8888
579.5056, 537.4469
579.9877, 537.9893
580.4698, 538.4725
580.9520, 538.7185
581.4341, 538.3050
581.9162, 536.8107
582.3983, 535.0629
582.8804, 534.1146
583.3625, 533.9273
583.8447, 534.1414
584.3268, 534.6953
584.8089, 535.5965
585.2910, 537.3453
585.7731, 539.7410
586.2552, 540.5729
586.7374, 538.0899
587.2195, 535.6356
587.7016, 535.0705
588.1837, 535.6857
588.6658, 536.3387
589.1479, 536.6507
589.6301, 536.5928
590.1122, 536.0240
590.5943, 534.8236
591.0764, 534.2823
591.5585, 535.1086
592.0406, 535.7789
592.5228, 535.8229
593.0049, 535.5691
593.4870, 535.3508
593.9691, 535.2621
594.4512, 535.3689
594.9333, 535.7285
595.4155, 536.3359
595.8976, 537.3515
596.3797, 538.9945
596.8618, 540.0749
597.3439, 539.6157
597.8260, 538.2003
598.3082, 537.3484
598.7903, 537.3134
599.2724, 537.2061
599.7545, 536.4491
600.2366, 535.6608
600.7188, 535.5686
601.2009, 536.1627
601.6830, 536.8920
602.1651, 537.3500
602.6472, 537.7446
603.1293, 539.0012
603.6115, 542.6182
604.0936, 544.2671
604.5757, 542.0118
605.0578, 539.3687
605.5399, 538.6180
606.0220, 539.4219
606.5042, 540.0495
606.9863, 539.4066
607.4684, 538.2784
607.9505, 537.9355
608.4326, 538.3632
608.9147, 538.9359
609.3969, 539.4977
609.8790, 540.1531
610.3611, 541.2818
610.8432, 542.8024
611.3253, 543.4186
611.8074, 542.0018
612.2896, 540.6874
612.7717, 540.7661
613.2538, 541.6601
613.7359, 542.3218
614.2180, 542.4527
614.7001, 542.5602
615.1823, 543.3767
615.6644, 544.9869
616.1465, 545.4511
616.6286, 543.4617
617.1107, 542.1248
617.5928, 542.7969
618.0750, 544.1385
618.5571, 544.7417
619.0392, 544.3516
619.5213, 543.7828
620.0034, 543.6260
620.4855, 543.7382
620.9677, 543.7690
621.4498, 543.6994
621.9319, 543.7704
622.4140, 544.1025
622.8961, 544.6497
623.3782, 545.3707
623.8604, 546.3817
624.3425, 547.1862
624.8246, 547.6926
625.3067, 548.0031
625.7888, 547.9420
626.2709, 547.7553
626.7531, 548.0168
627.2352, 549.0129
627.7173, 550.3925
628.1994, 551.6033
628.6815, 552.7050
629.1636, 553.2537
629.6458, 552.5858
630.1279, 552.1849
630.6100, 553.0012
631.0921, 554.5014
631.5742, 555.7178
632.0563, 556.3143
632.5385, 556.8898
633.0206, 558.1284
633.5027, 559.5889
633.9848, 560.2155
634.4669, 559.8805
634.9490, 559.6716
635.4312, 560.4690
635.9133, 561.9849
636.3954, 562.8539
636.8775, 562.7232
637.3596, 562.3757
637.8417, 561.4489
638.3239, 560.6276
638.8060, 560.3428
639.2881, 560.6099
639.7702, 561.3466
640.2523, 562.6127
640.7344, 564.0313
641.2166, 564.8944
641.6987, 565.1942
642.1808, 565.0782
642.6629, 564.3304
643.1450, 563.5656
643.6271, 563.2821
644.1093, 563.4250
644.5914, 563.8973
645.0735, 565.2119
645.5556, 566.2503
646.0377, 566.2319
646.5198, 565.7280
647.0020, 565.6917
647.4841, 566.2229
647.9662, 566.4794
648.4483, 565.5995
648.9304, 563.8382
649.4125, 563.0416
649.8947, 563.8720
650.3768, 564.4372
650.8589, 564.3266
651.3410, 563.9198
651.8231, 563.5075
652.3052, 563.0549
652.7874, 562.2772
653.2695, 560.7838
653.7516, 559.1295
654.2337, 557.9662
654.7158, 557.2444
655.1979, 556.8324
655.6801, 556.7538
656.1622, 556.6009
656.6443, 555.8553
657.1264, 554.4690
657.6085, 553.4647
658.0906, 553.3605
658.5728, 552.9415
659.0549, 551.5840
659.5370, 549.9704
660.0191, 548.8318
660.5012, 548.2465
660.9833, 547.7850
661.4655, 547.1779
661.9476, 546.3796
662.4297, 545.1524
662.9118, 543.4161
663.3939, 541.9209
663.8760, 541.0090
664.3582, 540.3085
664.8403, 539.2969
665.3224, 538.0117
665.8045, 537.0880
666.2866, 536.7604
666.7687, 536.6774
667.2509, 536.9423
667.7330, 537.2262
668.2151, 536.9035
668.6972, 535.8621
669.1793, 534.7101
669.6614, 534.1608
670.1436, 534.1229
670.6257, 533.1581
671.1078, 530.4255
671.5899, 528.5007
672.0720, 528.8713
672.5541, 529.7769
673.0363, 529.8958
673.5184, 529.1857
674.0005, 528.2630
674.4826, 527.0315
674.9647, 525.9830
675.4468, 525.9456
675.9290, 526.5095
676.4111, 526.3156
676.8932, 524.9301
677.3753, 523.2477
677.8574, 522.3138
678.3395, 522.1555
678.8217, 522.0634
679.3038, 522.3295
679.7859, 522.2810
680.2680, 521.6708
680.7501, 520.7989
681.2322, 519.8234
681.7144, 518.8306
682.1965, 518.0251
682.6786, 517.6932
683.1607, 517.5344
683.6428, 516.8959
684.1249, 515.8738
684.6071, 515.4113
685.0892, 515.9045
685.5713, 516.6180
686.0534, 516.7008
686.5355, 516.1039
687.0176, 515.6575
687.4998, 515.7625
687.9819, 515.4990
688.4640, 514.1362
688.9461, 512.6075
689.4282, 511.8222
689.9103, 511.8961
690.3925, 512.4704
690.8746, 513.5519
691.3567, 514.6779
691.8388, 514.4719
692.3209, 512.8677
692.8030, 511.7245
693.2852, 511.5908
693.7673, 511.9777
694.2494, 512.6960
694.7315, 513.6628
695.2136, 513.6932
695.6957, 511.6241
696.1779, 509.9739
696.6600, 510.1474
697.1421, 510.8695
697.6242, 510.6289
698.1063, 509.3288
698.5884, 507.8398
699.0706, 506.6762
699.5527, 506.0513
700.0348, 506.9028
700.5169, 509.5786
700.9990, 511.4745
701.4811, 511.9692
701.9633, 511.7213
702.4454, 510.9326
702.9275, 509.8143
703.4096, 509.0962
703.8917, 509.3472
704.3738, 509.3594
704.8560, 507.8831
705.3381, 506.3154
705.8202, 506.8278
706.3023, 509.2045
706.7844, 511.0902
707.2665, 510.8227
707.7487, 509.1248
708.2308, 507.8858
708.7129, 507.1332
709.1950, 506.7191
709.6771, 506.7044
710.1592, 506.9323
710.6414, 507.5716
711.1235, 508.3333
711.6056, 508.5715
712.0877, 508.0616
712.5698, 507.3091
713.0519, 506.5423
713.5341, 505.6827
714.0162, 504.3088
714.4983, 502.6703
714.9804, 501.9073
715.4625, 502.7347
715.9446, 504.3337
716.4268, 504.8094
716.9089, 503.7054
717.3910, 503.6164
717.8731, 505.6694
718.3552, 507.2846
718.8373, 506.6000
719.3195, 505.0280
719.8016, 504.8290
720.2837, 506.6450
720.7658, 507.9112
721.2479, 506.7124
721.7300, 504.8391
722.2122, 504.2165
722.6943, 504.7007
723.1764, 505.3848
723.6585, 505.8802
724.1406, 506.1773
724.6227, 506.2911
725.1049, 506.2502
725.5870, 505.6864
726.0691, 503.9966
726.5512, 502.7714
727.0333, 502.8116
727.5154, 503.3990
727.9976, 503.9573
728.4797, 504.4185
728.9618, 504.6295
729.4439, 504.2070
729.9260, 503.7765
730.4081, 504.1089
730.8903, 504.8599
731.3724, 505.1957
731.8545, 504.8762
732.3366, 504.1629
732.8187, 503.2454
733.3008, 502.1789
733.7830, 501.6711
734.2651, 502.1571
734.7472, 502.2630
735.2293, 501.1317
735.7114, 499.9800
736.1935, 499.8394
736.6757, 500.4942
737.1578, 500.8317
737.6399, 500.0960
738.1220, 499.4950
738.6041, 500.3003
739.0862, 501.5785
739.5684, 501.7012
740.0505, 500.5466
740.5326, 499.1382
741.0147, 498.1589
741.4968, 497.6239
741.9789, 497.6678
742.4611, 498.5124
742.9432, 499.1281
743.4253, 499.5648
743.9074, 499.5526
744.3895, 498.3514
744.8716, 496.7700
745.3538, 496.4466
745.8359, 498.0358
746.3180, 499.5644
746.8001, 500.0810
747.2822, 500.1474
747.7643, 500.2334
748.2465, 500.3974
748.7286, 500.7083
749.2107, 501.1981
749.6928, 501.5578
750.1749, 501.2308
750.6570, 500.1718
751.1392, 499.4220
751.6213, 499.1956
752.1034, 498.7521
752.5855, 497.2407
753.0676, 495.7574
753.5497, 495.9755
754.0319, 497.9767
754.5140, 499.0774
754.9961, 497.8705
755.4782, 496.3810
755.9603, 495.7309
756.4424, 495.6349
756.9246, 495.6517
757.4067, 495.6516
757.8888, 495.6371
758.3709, 495.5999
758.8530, 495.5602
759.3351, 495.6848
759.8173, 496.0477
760.2994, 495.7705
760.7815, 493.9482
761.2636, 492.7893
761.7457, 495.2821
762.2278, 500.2313
762.7100, 501.8210
763.1921, 497.3040
763.6742, 493.5096
764.1563, 491.9836
764.6384, 491.8116
765.1205, 492.8536
765.6027, 494.5542
766.0848, 495.8593
766.5669, 496.2851
767.0490, 496.1595
767.5311, 495.7162
768.0132, 495.0517
768.4954, 494.8114
768.9775, 495.1040
769.4596, 495.1307
769.9417, 494.3294
770.4238, 493.3011
770.9059, 493.1376
771.3881, 494.1062
771.8702, 494.8929
772.3523, 495.9788
772.8344, 496.3227
773.3165, 494.5242
773.7986, 492.4063
774.2808, 492.4604
774.7629, 494.6941
775.2450, 496.3748
775.7271, 495.0711
776.2092, 492.7694
776.6913, 492.6483
777.1735, 494.1694
777.6556, 495.0113
778.1377, 494.6217
778.6198, 494.2074
779.1019, 494.9247
779.5840, 496.3961
780.0662, 496.6127
780.5483, 494.5845
781.0304, 493.1764
781.5125, 492.9855
781.9946, 493.0121
782.4767, 492.8831
782.9589, 492.5953
783.4410, 492.1058
783.9231, 491.3033
784.4052, 490.8180
784.8873, 491.3712
785.3694, 492.2215
785.8516, 492.3788
786.3337, 491.9893
786.8158, 491.7409
787.2979, 491.9100
787.7800, 492.3260
788.2621, 492.8251
788.7443, 493.3956
789.2264, 493.6460
789.7085, 493.3599
790.1906, 493.3674
790.6727, 494.0400
791.1548, 494.9831
791.6370, 495.9124
792.1191, 496.7993
792.6012, 497.3931
793.0833, 497.5054
793.5654, 497.5075
794.0475, 497.8358
794.5297, 497.9129
795.0118, 496.9279
795.4939, 495.0813
795.9760, 493.2020
796.4581, 491.6900
796.9402, 490.7101
797.4224, 490.7065
797.9045, 491.5307
798.3866, 492.2914
798.8687, 492.9521
799.3508, 493.1050
799.8329, 492.3167
800.3151, 491.2497
800.7972, 491.2007
801.2793, 492.5413
801.7614, 493.4369
802.2435, 494.2677
802.7256, 494.2451
803.2078, 492.0854
803.6899, 489.6472
804.1720, 488.9579
804.6541, 490.0788
805.1362, 491.5072
805.6183, 492.7603
806.1005, 493.5938
806.5826, 493.5099
807.0647, 492.8596
807.5468, 492.3560
808.0289, 492.1445
808.5110, 492.2513
808.9932, 492.7426
809.4753, 493.4044
809.9574, 493.6736
810.4395, 493.5057
810.9216, 493.0861
811.4037, 492.0435
811.8859, 491.3881
812.3680, 492.2364
812.8501, 493.4906
813.3322, 493.3765
813.8143, 491.5689
814.2964, 490.2652
814.7786, 490.0893
815.2607, 490.4175
815.7428, 491.3204
816.2249, 492.2945
816.7070, 492.4624
817.1891, 491.8259
817.6713, 491.4535
818.1534, 492.3798
818.6355, 493.7285
819.1176, 493.6920
819.5997, 492.4291
820.0818, 491.0462
820.5640, 489.6575
821.0461, 488.9008
821.5282, 489.3795
822.0103, 490.6465
822.4924, 491.3365
822.9745, 491.1672
823.4567, 491.0554
823.9388, 491.0744
824.4209, 491.0692
824.9030, 491.2397
825.3851, 491.2273
825.8672, 490.1682
826.3494, 488.0033
826.8315, 486.9473
827.3136, 489.3335
827.7957, 492.0237
828.2778, 492.2383
828.7599, 490.8850
829.2421, 489.3466
829.7242, 488.0917
830.2063, 487.7251
830.6884, 488.8989
831.1705, 490.7316
831.6526, 490.7434
832.1348, 488.8448
832.6169, 487.9344
833.0990, 488.6131
833.5811, 489.4212
834.0632, 489.5302
834.5453, 489.1714
835.0275, 488.7823
835.5096, 488.1572
835.9917, 488.1471
836.4738, 489.5671
836.9559, 490.6403
837.4380, 490.2501
837.9202, 489.4578
838.4023, 489.8557
838.8844, 491.3460
839.3665, 491.8378
839.8486, 489.2983
840.3307, 486.4157
840.8129, 486.1017
841.2950, 487.3961
841.7771, 488.6353
842.2592, 489.4717
842.7413, 489.7766
843.2234, 489.4443
843.7056, 488.6656
844.1877, 487.7231
844.6698, 486.5803
845.1519, 485.7771
845.6340, 485.3583
846.1161, 485.2011
846.5983, 485.2746
847.0804, 485.5606
847.5625, 486.2058
848.0446, 487.2691
848.5267, 487.6574
849.0089, 486.8153
849.4910, 485.9491
849.9731, 485.1493
850.4552, 484.6550
850.9373, 484.8675
851.4194, 485.5774
851.9016, 486.1130
852.3837, 486.1758
852.8658, 486.0253
853.3479, 485.9203
853.8300, 485.7560
854.3121, 485.0414
854.7943, 484.0040
855.2764, 484.0003
855.7585, 485.6291
856.2406, 487.4336
856.7227, 487.3727
857.2048, 485.6286
857.6870, 484.6245
858.1691, 484.5011
858.6512, 484.6510
859.1333, 485.2799
859.6154, 485.5503
860.0975, 484.2900
860.5797, 481.9366
861.0618, 480.9725
861.5439, 482.7207
862.0260, 483.6158
862.5081, 482.4749
862.9902, 481.2047
863.4724, 480.9284
863.9545, 481.3049
864.4366, 481.7103
864.9187, 481.9869
865.4008, 482.1764
865.8829, 482.2919
866.3651, 482.3516
866.8472, 482.4752
867.3293, 482.5429
867.8114, 482.2555
868.2935, 481.5612
868.7756, 480.5346
869.2578, 479.1285
869.7399, 477.7720
870.2220, 477.7928
870.7041, 479.2843
871.1862, 479.9518
871.6683, 479.2933
872.1505, 479.0205
872.6326, 480.4224
873.1147, 482.2254
873.5968, 482.1094
874.0789, 479.5277
874.5610, 477.9761
875.0432, 478.2452
875.5253, 478.4623
876.0074, 478.1712
876.4895, 477.6919
876.9716, 477.2838
877.4537, 476.9433
877.9359, 476.5305
878.4180, 475.9159
878.9001, 475.4267
879.3822, 475.4575
879.8643, 475.5804
880.3464, 475.3368
880.8286, 474.7492
881.3107, 473.7291
881.7928, 472.3327
882.2749, 471.6234
882.7570, 473.3306
883.2391, 476.3627
883.7213, 476.9737
884.2034, 475.3202
884.6855, 473.9704
885.1676, 473.5120
885.6497, 473.5045
886.1318, 473.6930
886.6140, 473.9590
887.0961, 473.8980
887.5782, 473.4429
888.0603, 472.8152
888.5424, 471.8639
889.0245, 470.9472
889.5067, 469.9196
889.9888, 469.1687
890.4709, 469.2798
890.9530, 470.2618
891.4351, 471.1680
891.9172, 472.6274
892.3994, 472.9507
892.8815, 470.4421
893.3636, 467.2408
893.8457, 465.1143
894.3278, 464.2461
894.8099, 464.5490
895.2921, 466.1364
895.7742, 467.6048
896.2563, 467.3794
896.7384, 466.2825
897.2205, 465.5446
897.7026, 465.2374
898.1848, 465.4661
898.6669, 466.2337
899.1490, 467.0171
899.6311, 467.3380
900.1132, 467.2310
900.5953, 466.6402
901.0775, 465.4625
901.5596, 465.2072
902.0417, 466.5719
902.5238, 467.1183
903.0059, 464.7672
903.4880, 461.3211
903.9702, 460.6665
904.4523, 463.7934
904.9344, 465.7173
905.4165, 465.7352
905.8986, 465.4536
906.3807, 464.9750
906.8629, 464.5362
907.3450, 464.3319
907.8271, 464.3454
908.3092, 464.5125
908.7913, 465.1315
909.2734, 465.2504
909.7556, 463.9586
910.2377, 462.4086
910.7198, 461.4707
911.2019, 461.1302
911.6840, 461.2812
912.1661, 461.8458
912.6483, 462.4767
913.1304, 462.9550
913.6125, 463.2635
914.0946, 463.3723
914.5767, 463.2840
915.0588, 462.9950
915.5410, 462.5093
916.0231, 461.7534
916.5052, 460.5997
916.9873, 459.6021
917.4694, 460.0680
917.9515, 462.0777
918.4337, 463.2388
918.9158, 463.3622
919.3979, 463.5131
919.8800, 464.2180
920.3621, 464.7490
920.8442, 464.3063
921.3264, 462.9601
921.8085, 461.4632
922.2906, 459.3873
922.7727, 457.8602
923.2548, 457.0829
923.7369, 456.6738
924.2191, 456.3145
924.7012, 456.2816
925.1833, 457.4132
925.6654, 459.8956
926.1475, 461.0431
926.6296, 458.6237
927.1118, 456.3627
927.5939, 456.4215
928.0760, 457.4227
928.5581, 457.9591
929.0402, 457.9404
929.5223, 457.8395
930.0045, 457.8676
930.4866, 457.8365
930.9687, 457.4779
931.4508, 457.0061
931.9329, 456.6447
932.4150, 456.4745
932.8972, 456.8841
933.3793, 457.8855
933.8614, 458.5589
934.3435, 457.9968
934.8256, 456.7929
935.3077, 456.4121
935.7899, 456.8080
936.2720, 457.4378
936.7541, 458.2992
937.2362, 458.6114
937.7183, 457.8318
938.2004, 456.8296
938.6826, 457.0535
939.1647, 458.5548
939.6468, 458.7774
940.1289, 456.9556
940.6110, 455.7432
941.0931, 456.0076
941.5753, 456.5316
942.0574, 456.6752
942.5395, 456.3956
943.0216, 455.4972
943.5037, 453.5825
943.9858, 452.2794
944.4680, 452.1433
944.9501, 452.1245
945.4322, 451.7270
945.9143, 451.3310
946.3964, 451.3774
946.8785, 451.8271
947.3607, 452.3237
947.8428, 452.8411
948.3249, 453.1898
948.8070, 452.9593
949.2891, 452.7723
949.7712, 453.6209
950.2534, 454.8485
950.7355, 454.8468
951.2176, 453.3626
951.6997, 452.0773
952.1818, 452.2583
952.6639, 453.3247
953.1461, 455.0687
953.6282, 456.9288
954.1103, 457.3502
954.5924, 456.3748
955.0745, 455.3849
955.5566, 455.0634
956.0388, 454.8801
956.5209, 453.9466
957.0030, 452.5286
957.4851, 452.1363
957.9672, 452.7620
958.4493, 453.1469
958.9315, 453.0217
959.4136, 452.4278
959.8957, 451.2257
960.3778, 449.9112
960.8599, 449.9207
961.3420, 451.6747
961.8242, 452.5406
962.3063, 452.1606
962.7884, 451.7990
963.2705, 452.1771
963.7526, 452.2885
964.2347, 450.6307
964.7169, 447.6369
965.1990, 446.4924
965.6811, 449.0458
966.1632, 450.6286
966.6453, 450.5936
967.1274, 450.3240
967.6096, 450.3596
968.0917, 450.5113
968.5738, 450.6368
969.0559, 450.6914
969.5380, 450.2760
970.0201, 448.4689
970.5023, 447.2739
970.9844, 447.9421
971.4665, 449.0034
971.9486, 449.3661
972.4307, 449.1578
972.9128, 448.6995
973.3950, 448.0983
973.8771, 447.9580
974.3592, 449.5207
974.8413, 450.8071
975.3234, 449.3795
975.8055, 446.9443
976.2877, 446.1263
976.7698, 446.8864
977.2519, 447.6967
977.7340, 447.8475
978.2161, 447.7713
978.6982, 448.0800
979.1804, 448.4039
979.6625, 447.6816
980.1446, 446.3466
980.6267, 445.8720
981.1088, 446.5605
981.5909, 448.0858
982.0731, 450.3638
982.5552, 452.5243
983.0373, 452.7846
983.5194, 451.4079
984.0015, 450.3264
984.4836, 449.5961
984.9658, 448.7140
985.4479, 447.5176
985.9300, 446.0454
986.4121, 444.1047
986.8942, 442.2677
987.3763, 443.0576
987.8585, 447.1429
988.3406, 449.3142
988.8227, 448.7981
989.3048, 448.1679
989.7869, 448.6026
990.2690, 449.1151
990.7512, 448.4234
991.2333, 446.6570
991.7154, 445.4848
992.1975, 445.2336
992.6796, 444.8517
993.1617, 443.7140
993.6439, 443.2142
994.1260, 444.6224
994.6081, 446.6953
995.0902, 447.7161
995.5723, 447.6681
996.0544, 447.1935
996.5366, 445.6035
997.0187, 444.6124
997.5008, 444.9026
997.9829, 445.4540
998.4650, 445.7203
998.9471, 445.7903
999.4293, 445.8705
999.9114, 445.9928
1000.393, 446.0175
1000.876, 445.9863
1001.358, 445.7460
1001.840, 444.9757
1002.322, 444.1883
1002.804, 443.8366
1003.286, 443.8446
1003.768, 443.9345
1004.250, 444.0292
1004.733, 444.2552
1005.215, 444.8959
1005.697, 445.4635
1006.179, 445.5818
1006.661, 445.4144
1007.143, 444.9896
1007.625, 444.4998
1008.107, 444.4830
1008.589, 445.2045
1009.072, 445.8672
1009.554, 445.9737
1010.036, 445.5113
1010.518, 443.6662
1011.000, 441.5263
1011.482, 441.5966
1011.964, 443.8006
1012.446, 445.7980
1012.929, 446.3468
1013.411, 445.9804
1013.893, 444.9712
1014.375, 443.6998
1014.857, 442.7939
1015.339, 442.3260
1015.821, 442.5089
1016.303, 443.3456
1016.785, 444.6506
1017.268, 446.4321
1017.750, 447.7717
1018.232, 446.4310
1018.714, 443.3600
1019.196, 442.9597
1019.678, 444.9884
1020.160, 445.9940
1020.642, 445.0299
1021.125, 443.5275
1021.607, 442.5376
1022.089, 442.1112
1022.571, 442.7276
1023.053, 444.2751
1023.535, 444.2665
1024.017, 442.5408
1024.499, 441.1390
1024.981, 440.7028
1025.464, 440.7245
1025.946, 440.7431
1026.428, 440.8729
1026.910, 441.6748
1027.392, 443.3301
1027.874, 443.7592
1028.356, 442.6078
1028.838, 441.5105
1029.321, 440.8268
1029.803, 441.0989
1030.285, 443.2936
1030.767, 446.6128
1031.249, 447.2696
1031.731, 444.3213
1032.213, 442.3712
1032.695, 441.9263
1033.177, 441.4443
1033.660, 440.1448
1034.142, 438.9292
1034.624, 438.6261
1035.106, 439.2361
1035.588, 440.9281
1036.070, 445.0070
1036.552, 446.9921
1037.034, 446.0952
1037.516, 444.2347
1037.999, 440.9490
1038.481, 438.2750
1038.963, 439.0104
1039.445, 442.5667
1039.927, 444.3610
1040.409, 443.4109
1040.891, 442.4285
1041.373, 441.1576
1041.855, 440.2079
1042.338, 439.3704
1042.820, 439.2856
1043.302, 441.5399
1043.784, 445.5582
1044.266, 446.9391
1044.748, 443.1575
1045.230, 440.7788
1045.712, 441.1476
1046.195, 441.7643
1046.677, 441.5594
1047.159, 441.1648
1047.641, 441.4736
1048.123, 442.3326
1048.605, 442.5110
1049.087, 441.0977
1049.569, 440.4191
1050.052, 441.4945
1050.534, 442.5553
1051.016, 443.0035
1051.498, 442.8683
1051.980, 441.7986
1052.462, 440.0906
1052.944, 439.3459
1053.426, 440.2866
1053.908, 441.2975
1054.391, 442.2066
1054.873, 442.8795
1055.355, 443.3233
1055.837, 443.4460
1056.319, 442.8835
1056.801, 441.8502
1057.283, 441.4367
1057.765, 442.3291
1058.248, 442.8339
1058.730, 442.2204
1059.212, 441.3654
1059.694, 440.4115
1060.176, 439.7260
1060.658, 439.8441
1061.140, 440.6141
1061.622, 441.3546
1062.104, 442.2051
1062.587, 442.0833
1063.069, 439.1371
1063.551, 436.7700
1064.033, 437.7084
1064.515, 439.7881
1064.997, 440.4488
1065.479, 439.7913
1065.961, 439.4318
1066.443, 440.0887
1066.926, 440.1288
1067.408, 437.8161
1067.890, 435.9144
1068.372, 436.1775
1068.854, 437.6682
1069.336, 440.0674
1069.818, 442.5923
1070.300, 443.1483
1070.782, 440.6493
1071.265, 438.5948
1071.747, 439.1058
1072.229, 439.8423
1072.711, 439.2024
1073.193, 438.1879
1073.675, 438.0447
1074.157, 438.5484
1074.639, 438.6786
1075.122, 438.0953
1075.604, 437.5849
1076.086, 437.7185
1076.568, 437.7808
1077.050, 437.4379
1077.532, 436.7464
1078.014, 435.2917
1078.496, 433.6517
1078.979, 433.3917
1079.461, 435.0016
1079.943, 436.1405
1080.425, 435.0970
1080.907, 434.0797
1081.389, 434.5538
1081.871, 435.4150
1082.353, 435.5385
1082.835, 435.2012
1083.318, 435.2037
1083.800, 435.7249
1084.282, 436.3041
1084.764, 436.9355
1085.246, 437.3327
1085.728, 437.4679
1086.210, 437.2036
1086.692, 435.6714
1087.175, 433.9654
1087.657, 434.4883
1088.139, 437.4363
1088.621, 439.2799
1089.103, 437.6763
1089.585, 436.0095
1090.067, 435.9466
1090.549, 436.1608
1091.031, 435.5749
1091.514, 434.6128
1091.996, 433.7509
1092.478, 433.1934
1092.960, 433.6919
1093.442, 436.4301
1093.924, 438.5067
1094.406, 438.6389
1094.888, 437.9970
1095.370, 437.0654
1095.853, 436.0035
1096.335, 434.6787
1096.817, 433.2953
1097.299, 432.8376
1097.781, 434.0754
1098.263, 434.9458
1098.745, 434.8091
1099.227, 434.1363
1099.709, 432.4782
1100.192, 430.9445
1100.674, 431.0143
1101.156, 432.2290
1101.638, 432.7233
1102.120, 431.8624
1102.602, 431.3517
1103.084, 431.3761
1103.566, 432.1075
1104.049, 435.1137
1104.531, 437.5070
1105.013, 435.9655
1105.495, 432.0895
1105.977, 429.8819
1106.459, 429.9885
1106.941, 430.5423
1107.423, 431.3283
1107.906, 432.3989
1108.388, 434.7629
1108.870, 436.4008
1109.352, 435.2758
1109.834, 432.8356
1110.316, 431.6346
1110.798, 431.8675
1111.280, 432.0531
1111.762, 432.3590
1112.245, 432.1937
1112.727, 430.8007
1113.209, 429.7111
1113.691, 430.0775
1114.173, 430.9019
1114.655, 430.8035
1115.137, 429.8724
1115.619, 429.3942
1116.102, 429.3347
1116.584, 429.8156
1117.066, 431.6631
1117.548, 432.8028
1118.030, 432.1135
1118.512, 430.8423
1118.994, 429.9487
1119.476, 429.4913
1119.958, 429.7766
1120.441, 431.1928
1120.923, 432.1183
1121.405, 432.4947
1121.887, 432.4891
1122.369, 432.0522
1122.851, 431.3743
1123.333, 430.3741
1123.815, 429.4688
1124.297, 429.6933
1124.780, 431.1832
1125.262, 432.0240
1125.744, 432.0462
1126.226, 432.0054
1126.708, 431.9767
1127.190, 432.0737
1127.672, 432.3659
1128.154, 432.8133
1128.636, 433.4339
1129.119, 434.1452
1129.601, 434.2426
1130.083, 433.6932
1130.565, 432.7027
1131.047, 431.1763
1131.529, 430.4547
1132.011, 431.2196
1132.493, 431.8748
1132.976, 430.6195
1133.458, 430.9746
1133.940, 430.9341
1134.422, 430.0865
1134.904, 430.8048
1135.386, 430.3802
1135.868, 429.6862
1136.350, 428.9790
1136.833, 428.8321
1137.315, 429.7182
1137.797, 430.9559
1138.279, 431.2826
1138.761, 432.0011
1139.243, 431.5265
1139.725, 432.5085
1140.207, 432.8044
1140.689, 432.2789
1141.172, 431.3441
1141.654, 430.2070
1142.136, 429.4836
1142.618, 430.2490
1143.100, 429.1640
1143.582, 430.5197
1144.064, 428.7664
1144.546, 428.3218
1145.029, 429.1632
1145.511, 430.7540
1145.993, 432.7339
1146.475, 433.8658
1146.957, 432.9150
1147.439, 431.8036
1147.921, 432.9087
1148.403, 434.5205
1148.885, 434.4724
1149.368, 433.4295
1149.850, 432.6233
1150.332, 432.2713
1150.814, 432.1157
1151.296, 432.0667
1151.778, 432.1418
1152.260, 432.8138
1152.742, 433.0820
1153.224, 431.6264
1153.707, 429.9360
1154.189, 429.9067
1154.671, 430.8807
1155.153, 430.9255
1155.635, 429.6395
1156.117, 428.8248
1156.599, 429.2591
1157.081, 429.9482
1157.563, 430.9356
1158.046, 431.7003
1158.528, 431.7296
1159.010, 431.4619
1159.492, 431.5702
1159.974, 432.0013
1160.456, 431.9940
1160.938, 430.7691
1161.420, 430.5067
1161.903, 432.4528
1162.385, 433.6964
1162.867, 433.0141
1163.349, 431.8548
1163.831, 431.3364
1164.313, 431.1554
1164.795, 430.4780
1165.277, 429.1255
1165.760, 428.8136
1166.242, 429.8283
1166.724, 431.0214
1167.206, 432.3186
1167.688, 433.4849
1168.170, 434.4771
1168.652, 435.0250
1169.134, 434.6862
1169.616, 433.6864
1170.099, 433.2375
1170.581, 433.3553
1171.063, 432.1661
1171.545, 429.5351
1172.027, 428.6071
1172.509, 430.3566
1172.991, 432.4929
1173.473, 433.3189
1173.956, 433.2426
1174.438, 432.8001
1174.920, 432.0746
1175.402, 431.2147
1175.884, 430.3307
1176.366, 429.7441
1176.848, 429.5330
1177.330, 429.8664
1177.813, 430.7936
1178.295, 431.7855
1178.777, 432.5294
1179.259, 432.8746
1179.741, 432.3711
1180.223, 431.5387
1180.705, 431.3531
1181.187, 431.3682
1181.669, 430.2637
1182.151, 428.1031
1182.634, 426.5778
1183.116, 426.5976
1183.598, 426.8328
1184.080, 425.8949
1184.562, 425.6233
1185.044, 428.1613
1185.526, 431.2313
1186.008, 432.3957
1186.490, 432.1307
1186.973, 432.1232
1187.455, 432.6888
1187.937, 432.6760
1188.419, 431.0695
1188.901, 430.0444
1189.383, 430.0821
1189.865, 430.7178
1190.347, 431.9963
1190.830, 433.5566
1191.312, 435.4392
1191.794, 437.2914
1192.276, 437.2730
1192.758, 434.6488
1193.240, 432.5939
1193.722, 431.0231
1194.204, 430.3944
1194.687, 431.0634
1195.169, 431.9315
1195.651, 432.3764
1196.133, 432.4169
1196.615, 432.0060
1197.097, 431.2516
1197.579, 430.8169
1198.061, 430.6849
1198.543, 430.6547
1199.026, 430.6748
1199.508, 430.1504
1199.990, 428.9277
1200.472, 428.0166
1200.954, 428.2580
1201.436, 429.0813
1201.918, 429.9765
1202.400, 430.6263
1202.883, 429.8892
1203.365, 428.5614
1203.847, 428.6177
1204.329, 429.9840
1204.811, 431.5562
1205.293, 432.8644
1205.775, 433.0218
1206.257, 430.2706
1206.740, 427.7587
1207.222, 428.2596
1207.704, 429.5512
1208.186, 429.6178
1208.668, 429.1164
1209.150, 429.2711
1209.632, 430.0619
1210.114, 430.6646
1210.596, 430.9938
1211.078, 430.8045
1211.561, 428.9740
1212.043, 428.0966
1212.525, 430.1406
1213.007, 432.0825
1213.489, 431.5716
1213.971, 430.0853
1214.453, 430.0562
1214.935, 431.3520
1215.417, 431.4852
1215.900, 429.9706
1216.382, 429.1717
1216.864, 429.3703
1217.346, 429.5888
1217.828, 429.5130
1218.310, 429.4587
1218.792, 429.6943
1219.274, 430.0034
1219.757, 430.0284
1220.239, 429.7709
1220.721, 428.9333
1221.203, 427.7768
1221.685, 427.7601
1222.167, 428.8578
1222.649, 430.0244
1223.131, 430.8313
1223.614, 430.9750
1224.096, 430.0340
1224.578, 428.9285
1225.060, 428.4741
1225.542, 428.5972
1226.024, 429.8306
1226.506, 431.2025
1226.988, 430.8853
1227.470, 429.3714
1227.953, 428.8146
1228.435, 429.8582
1228.917, 430.3629
1229.399, 428.6100
1229.881, 427.4808
1230.363, 428.9076
1230.845, 430.0874
1231.327, 429.1246
1231.810, 427.2052
1232.292, 425.5107
1232.774, 424.1187
1233.256, 423.2521
1233.738, 422.8540
1234.220, 423.2619
1234.702, 424.6264
1235.184, 426.4720
1235.667, 429.0742
1236.149, 430.6627
1236.631, 430.2212
1237.113, 428.7360
1237.595, 427.1509
1238.077, 425.8541
1238.559, 426.3993
1239.041, 428.2925
1239.523, 428.8878
1240.005, 428.3375
1240.488, 428.0403
1240.970, 428.2135
1241.452, 428.0833
1241.934, 427.2617
1242.416, 426.4198
1242.898, 426.3002
1243.380, 426.3120
1243.862, 425.4429
1244.344, 424.7390
1244.827, 425.8026
1245.309, 427.6773
1245.791, 428.6473
1246.273, 428.6232
1246.755, 428.6560
1247.237, 429.2306
1247.719, 429.1024
1248.201, 427.2047
1248.684, 425.6748
1249.166, 425.1717
1249.648, 425.1947
1250.130, 425.6144
1250.612, 426.2617
1251.094, 427.0077
1251.576, 427.7737
1252.058, 428.0143
1252.541, 427.6801
1253.023, 427.1082
1253.505, 426.2606
1253.987, 425.6809
1254.469, 425.4889
1254.951, 425.9063
1255.433, 427.1051
1255.915, 428.1559
1256.397, 427.8348
1256.880, 426.7335
1257.362, 425.6759
1257.844, 424.8925
1258.326, 425.0070
1258.808, 425.7465
1259.290, 426.3893
1259.772, 426.8610
1260.254, 427.7604
1260.737, 429.4946
1261.219, 430.3085
1261.701, 428.4902
1262.183, 426.5861
1262.665, 425.3100
1263.147, 424.9406
1263.629, 426.1663
1264.111, 428.0838
1264.594, 429.8927
1265.076, 431.3091
1265.558, 430.8173
1266.040, 431.0701
1266.522, 430.9441
1267.004, 428.7488
1267.486, 429.3483
1267.968, 426.4615
1268.450, 423.9243
1268.932, 423.6517
1269.415, 424.9425
1269.897, 427.4019
1270.379, 429.9615
1270.861, 429.6125
1271.343, 427.3810
1271.825, 426.1510
1272.307, 425.8888
1272.789, 426.3360
1273.271, 427.1743
1273.754, 427.4690
1274.236, 426.8909
1274.718, 426.4321
1275.200, 426.7729
1275.682, 427.3857
1276.164, 428.4118
1276.646, 429.0910
1277.128, 428.1966
1277.611, 427.1843
1278.093, 428.3357
1278.575, 427.8101
1279.057, 427.6595
1279.539, 428.6251
1280.021, 427.6182
1280.503, 428.3868
1280.985, 429.2785
1281.468, 430.4055
1281.950, 431.0386
1282.432, 430.8019
1282.914, 430.5564
1283.396, 431.0724
1283.878, 431.8358
1284.360, 431.7846
1284.842, 431.0500
1285.324, 430.0787
##END=



