##NAMES=Conichalcite
##RRUFFID=R050506
##IDEAL CHEMISTRY=CaCu^2+^As^5+^O_4_(OH)
##LOCALITY=Higgins mine, Bisbee, Arizona, USA
##OWNER=RRUFF
##SOURCE=University of Arizona Mineral Museum
##DESCRIPTION=Aggregate of green granules
##STATUS=The identification of this mineral has been confirmed by single-crystal X-ray diffraction.
##URL=rruff.info/R050506
9.001007e+001, 0.000000e+000
9.049219e+001, 8.168242e+000
9.097430e+001, 8.188897e+000
9.145642e+001, 8.198107e+000
9.193854e+001, 8.193386e+000
9.242065e+001, 8.154178e+000
9.290277e+001, 8.027728e+000
9.338489e+001, 7.852049e+000
9.386700e+001, 7.717639e+000
9.434912e+001, 7.679385e+000
9.483124e+001, 7.696286e+000
9.531335e+001, 7.723650e+000
9.579547e+001, 7.775052e+000
9.627759e+001, 7.735236e+000
9.675970e+001, 7.342505e+000
9.724182e+001, 6.634477e+000
9.772394e+001, 6.104890e+000
9.820605e+001, 6.067677e+000
9.868817e+001, 6.474788e+000
9.917029e+001, 6.719462e+000
9.965240e+001, 6.768509e+000
1.001345e+002, 6.698829e+000
1.006166e+002, 6.652101e+000
1.010988e+002, 6.634432e+000
1.015809e+002, 6.611003e+000
1.020630e+002, 6.540933e+000
1.025451e+002, 6.394862e+000
1.030272e+002, 6.361246e+000
1.035093e+002, 6.511608e+000
1.039915e+002, 6.776990e+000
1.044736e+002, 6.852729e+000
1.049557e+002, 6.637060e+000
1.054378e+002, 6.377576e+000
1.059199e+002, 6.266502e+000
1.064020e+002, 6.478999e+000
1.068842e+002, 6.503747e+000
1.073663e+002, 6.162825e+000
1.078484e+002, 5.450262e+000
1.083305e+002, 5.060303e+000
1.088126e+002, 5.238906e+000
1.092947e+002, 5.604232e+000
1.097769e+002, 5.805847e+000
1.102590e+002, 5.648682e+000
1.107411e+002, 5.525153e+000
1.112232e+002, 5.524305e+000
1.117053e+002, 5.689180e+000
1.121874e+002, 5.790399e+000
1.126696e+002, 5.771692e+000
1.131517e+002, 5.691408e+000
1.136338e+002, 5.625173e+000
1.141159e+002, 5.707620e+000
1.145980e+002, 5.705267e+000
1.150801e+002, 5.483902e+000
1.155623e+002, 4.871759e+000
1.160444e+002, 4.425837e+000
1.165265e+002, 4.409028e+000
1.170086e+002, 4.663282e+000
1.174907e+002, 4.861488e+000
1.179728e+002, 4.828768e+000
1.184550e+002, 4.740343e+000
1.189371e+002, 4.697982e+000
1.194192e+002, 4.695273e+000
1.199013e+002, 4.784503e+000
1.203834e+002, 5.158834e+000
1.208655e+002, 5.708212e+000
1.213477e+002, 6.002897e+000
1.218298e+002, 5.544538e+000
1.223119e+002, 4.798567e+000
1.227940e+002, 4.262150e+000
1.232761e+002, 4.212486e+000
1.237582e+002, 4.313920e+000
1.242404e+002, 4.309776e+000
1.247225e+002, 4.204459e+000
1.252046e+002, 4.051831e+000
1.256867e+002, 3.755019e+000
1.261688e+002, 3.446973e+000
1.266509e+002, 3.373363e+000
1.271331e+002, 3.890886e+000
1.276152e+002, 4.607954e+000
1.280973e+002, 4.934982e+000
1.285794e+002, 4.856513e+000
1.290615e+002, 4.574860e+000
1.295436e+002, 4.175068e+000
1.300258e+002, 3.704510e+000
1.305079e+002, 3.378233e+000
1.309900e+002, 3.355775e+000
1.314721e+002, 3.557361e+000
1.319542e+002, 3.778825e+000
1.324363e+002, 4.045244e+000
1.329185e+002, 4.230287e+000
1.334006e+002, 4.014742e+000
1.338827e+002, 3.398655e+000
1.343648e+002, 2.946913e+000
1.348469e+002, 3.082441e+000
1.353290e+002, 3.754105e+000
1.358112e+002, 4.210086e+000
1.362933e+002, 4.364204e+000
1.367754e+002, 4.310501e+000
1.372575e+002, 4.238865e+000
1.377396e+002, 4.145078e+000
1.382217e+002, 4.049980e+000
1.387039e+002, 3.985959e+000
1.391860e+002, 3.969059e+000
1.396681e+002, 3.845658e+000
1.401502e+002, 3.530627e+000
1.406323e+002, 3.106821e+000
1.411144e+002, 2.955747e+000
1.415966e+002, 3.180439e+000
1.420787e+002, 3.481984e+000
1.425608e+002, 3.625000e+000
1.430429e+002, 3.545784e+000
1.435250e+002, 3.484189e+000
1.440071e+002, 3.461183e+000
1.444893e+002, 3.478317e+000
1.449714e+002, 3.591915e+000
1.454535e+002, 3.891278e+000
1.459356e+002, 4.199475e+000
1.464177e+002, 4.339559e+000
1.468998e+002, 4.221188e+000
1.473820e+002, 4.082425e+000
1.478641e+002, 3.982951e+000
1.483462e+002, 3.944465e+000
1.488283e+002, 3.788604e+000
1.493104e+002, 3.355354e+000
1.497925e+002, 2.878953e+000
1.502747e+002, 2.627866e+000
1.507568e+002, 2.843566e+000
1.512389e+002, 3.040975e+000
1.517210e+002, 3.110672e+000
1.522031e+002, 3.010203e+000
1.526852e+002, 2.917158e+000
1.531674e+002, 2.770898e+000
1.536495e+002, 2.646350e+000
1.541316e+002, 2.650253e+000
1.546137e+002, 2.939216e+000
1.550958e+002, 3.230136e+000
1.555779e+002, 3.430184e+000
1.560601e+002, 3.493183e+000
1.565422e+002, 3.556760e+000
1.570243e+002, 3.709606e+000
1.575064e+002, 3.872393e+000
1.579885e+002, 3.891505e+000
1.584706e+002, 3.423155e+000
1.589528e+002, 3.031117e+000
1.594349e+002, 2.996326e+000
1.599170e+002, 3.528311e+000
1.603991e+002, 4.123408e+000
1.608812e+002, 4.761262e+000
1.613633e+002, 5.374053e+000
1.618455e+002, 5.783762e+000
1.623276e+002, 5.692700e+000
1.628097e+002, 5.521335e+000
1.632918e+002, 5.530284e+000
1.637739e+002, 5.796712e+000
1.642560e+002, 6.227536e+000
1.647382e+002, 6.869960e+000
1.652203e+002, 7.672607e+000
1.657024e+002, 8.438830e+000
1.661845e+002, 9.004355e+000
1.666666e+002, 9.525593e+000
1.671487e+002, 1.013617e+001
1.676309e+002, 1.092766e+001
1.681130e+002, 1.177104e+001
1.685951e+002, 1.255990e+001
1.690772e+002, 1.331353e+001
1.695593e+002, 1.412961e+001
1.700414e+002, 1.514080e+001
1.705236e+002, 1.622962e+001
1.710057e+002, 1.723919e+001
1.714878e+002, 1.802902e+001
1.719699e+002, 1.880357e+001
1.724520e+002, 1.973686e+001
1.729341e+002, 2.082276e+001
1.734163e+002, 2.193783e+001
1.738984e+002, 2.295345e+001
1.743805e+002, 2.395215e+001
1.748626e+002, 2.503757e+001
1.753447e+002, 2.634003e+001
1.758268e+002, 2.772035e+001
1.763090e+002, 2.901352e+001
1.767911e+002, 3.020745e+001
1.772732e+002, 3.141792e+001
1.777553e+002, 3.268069e+001
1.782374e+002, 3.388107e+001
1.787195e+002, 3.491140e+001
1.792017e+002, 3.547918e+001
1.796838e+002, 3.595554e+001
1.801659e+002, 3.691050e+001
1.806480e+002, 3.836574e+001
1.811301e+002, 4.006603e+001
1.816122e+002, 4.181857e+001
1.820944e+002, 4.364041e+001
1.825765e+002, 4.554583e+001
1.830586e+002, 4.776184e+001
1.835407e+002, 5.003764e+001
1.840228e+002, 5.193792e+001
1.845049e+002, 5.343056e+001
1.849871e+002, 5.463474e+001
1.854692e+002, 5.569471e+001
1.859513e+002, 5.659570e+001
1.864334e+002, 5.718121e+001
1.869155e+002, 5.724455e+001
1.873976e+002, 5.692729e+001
1.878798e+002, 5.667403e+001
1.883619e+002, 5.648995e+001
1.888440e+002, 5.640461e+001
1.893261e+002, 5.646594e+001
1.898082e+002, 5.666986e+001
1.902903e+002, 5.697908e+001
1.907725e+002, 5.735745e+001
1.912546e+002, 5.782050e+001
1.917367e+002, 5.845887e+001
1.922188e+002, 5.931363e+001
1.927009e+002, 6.024962e+001
1.931830e+002, 6.110714e+001
1.936652e+002, 6.188741e+001
1.941473e+002, 6.242490e+001
1.946294e+002, 6.251567e+001
1.951115e+002, 6.220049e+001
1.955936e+002, 6.201973e+001
1.960757e+002, 6.205120e+001
1.965579e+002, 6.214698e+001
1.970400e+002, 6.198417e+001
1.975221e+002, 6.153803e+001
1.980042e+002, 6.110425e+001
1.984863e+002, 6.080789e+001
1.989684e+002, 6.064931e+001
1.994506e+002, 6.067505e+001
1.999327e+002, 6.089849e+001
2.004148e+002, 6.129014e+001
2.008969e+002, 6.175317e+001
2.013790e+002, 6.226313e+001
2.018611e+002, 6.299334e+001
2.023433e+002, 6.410106e+001
2.028254e+002, 6.561645e+001
2.033075e+002, 6.717919e+001
2.037896e+002, 6.882038e+001
2.042717e+002, 7.042818e+001
2.047538e+002, 7.172228e+001
2.052360e+002, 7.271146e+001
2.057181e+002, 7.336259e+001
2.062002e+002, 7.370647e+001
2.066823e+002, 7.378585e+001
2.071644e+002, 7.327516e+001
2.076465e+002, 7.208617e+001
2.081287e+002, 7.033028e+001
2.086108e+002, 6.818667e+001
2.090929e+002, 6.549201e+001
2.095750e+002, 6.284921e+001
2.100571e+002, 6.070272e+001
2.105392e+002, 5.915804e+001
2.110214e+002, 5.753775e+001
2.115035e+002, 5.571983e+001
2.119856e+002, 5.381401e+001
2.124677e+002, 5.210798e+001
2.129498e+002, 5.055228e+001
2.134319e+002, 4.929779e+001
2.139140e+002, 4.847995e+001
2.143962e+002, 4.822369e+001
2.148783e+002, 4.796349e+001
2.153604e+002, 4.768104e+001
2.158425e+002, 4.735680e+001
2.163246e+002, 4.691737e+001
2.168067e+002, 4.633192e+001
2.172889e+002, 4.568362e+001
2.177710e+002, 4.501110e+001
2.182531e+002, 4.430410e+001
2.187352e+002, 4.357727e+001
2.192173e+002, 4.274925e+001
2.196994e+002, 4.189056e+001
2.201816e+002, 4.141805e+001
2.206637e+002, 4.152346e+001
2.211458e+002, 4.166659e+001
2.216279e+002, 4.145472e+001
2.221100e+002, 4.063720e+001
2.225921e+002, 4.013163e+001
2.230743e+002, 4.008047e+001
2.235564e+002, 4.039824e+001
2.240385e+002, 4.071898e+001
2.245206e+002, 4.111877e+001
2.250027e+002, 4.139524e+001
2.254848e+002, 4.138330e+001
2.259670e+002, 4.090962e+001
2.264491e+002, 4.057980e+001
2.269312e+002, 4.050938e+001
2.274133e+002, 4.062516e+001
2.278954e+002, 4.055395e+001
2.283775e+002, 4.020462e+001
2.288597e+002, 3.980485e+001
2.293418e+002, 3.953698e+001
2.298239e+002, 3.960588e+001
2.303060e+002, 3.930851e+001
2.307881e+002, 3.841784e+001
2.312702e+002, 3.709733e+001
2.317524e+002, 3.619110e+001
2.322345e+002, 3.594258e+001
2.327166e+002, 3.577478e+001
2.331987e+002, 3.532194e+001
2.336808e+002, 3.433404e+001
2.341629e+002, 3.362371e+001
2.346451e+002, 3.332433e+001
2.351272e+002, 3.334388e+001
2.356093e+002, 3.327845e+001
2.360914e+002, 3.311213e+001
2.365735e+002, 3.288346e+001
2.370556e+002, 3.259925e+001
2.375378e+002, 3.219629e+001
2.380199e+002, 3.188275e+001
2.385020e+002, 3.171494e+001
2.389841e+002, 3.164582e+001
2.394662e+002, 3.146663e+001
2.399483e+002, 3.102389e+001
2.404305e+002, 3.068200e+001
2.409126e+002, 3.068850e+001
2.413947e+002, 3.137521e+001
2.418768e+002, 3.165512e+001
2.423589e+002, 3.126752e+001
2.428410e+002, 3.045419e+001
2.433232e+002, 3.010021e+001
2.438053e+002, 3.050308e+001
2.442874e+002, 3.095897e+001
2.447695e+002, 3.107512e+001
2.452516e+002, 3.057673e+001
2.457337e+002, 3.036754e+001
2.462159e+002, 3.059768e+001
2.466980e+002, 3.111880e+001
2.471801e+002, 3.145649e+001
2.476622e+002, 3.157348e+001
2.481443e+002, 3.156786e+001
2.486264e+002, 3.144231e+001
2.491086e+002, 3.102646e+001
2.495907e+002, 3.090976e+001
2.500728e+002, 3.121042e+001
2.505549e+002, 3.178475e+001
2.510370e+002, 3.224860e+001
2.515191e+002, 3.254539e+001
2.520013e+002, 3.282378e+001
2.524834e+002, 3.316603e+001
2.529655e+002, 3.363411e+001
2.534476e+002, 3.398875e+001
2.539297e+002, 3.417519e+001
2.544118e+002, 3.427272e+001
2.548940e+002, 3.444379e+001
2.553761e+002, 3.463756e+001
2.558582e+002, 3.499727e+001
2.563403e+002, 3.562916e+001
2.568224e+002, 3.666738e+001
2.573046e+002, 3.750867e+001
2.577867e+002, 3.804772e+001
2.582688e+002, 3.844804e+001
2.587509e+002, 3.905446e+001
2.592330e+002, 3.999979e+001
2.597151e+002, 4.086311e+001
2.601973e+002, 4.143274e+001
2.606794e+002, 4.157787e+001
2.611615e+002, 4.196700e+001
2.616436e+002, 4.262449e+001
2.621257e+002, 4.349833e+001
2.626078e+002, 4.451611e+001
2.630900e+002, 4.569100e+001
2.635721e+002, 4.695982e+001
2.640542e+002, 4.829345e+001
2.645363e+002, 4.971363e+001
2.650184e+002, 5.116407e+001
2.655005e+002, 5.264130e+001
2.659827e+002, 5.418172e+001
2.664648e+002, 5.589783e+001
2.669469e+002, 5.785011e+001
2.674290e+002, 5.976496e+001
2.679111e+002, 6.152819e+001
2.683932e+002, 6.310877e+001
2.688754e+002, 6.492659e+001
2.693575e+002, 6.699367e+001
2.698396e+002, 6.927161e+001
2.703217e+002, 7.175943e+001
2.708038e+002, 7.455061e+001
2.712859e+002, 7.714207e+001
2.717681e+002, 7.928819e+001
2.722502e+002, 8.100149e+001
2.727323e+002, 8.303091e+001
2.732144e+002, 8.545015e+001
2.736965e+002, 8.796438e+001
2.741786e+002, 9.023215e+001
2.746608e+002, 9.223489e+001
2.751429e+002, 9.420455e+001
2.756250e+002, 9.620406e+001
2.761071e+002, 9.821401e+001
2.765892e+002, 1.001932e+002
2.770714e+002, 1.021385e+002
2.775535e+002, 1.039729e+002
2.780356e+002, 1.055772e+002
2.785177e+002, 1.069278e+002
2.789998e+002, 1.082751e+002
2.794819e+002, 1.096315e+002
2.799641e+002, 1.110339e+002
2.804462e+002, 1.126179e+002
2.809283e+002, 1.144222e+002
2.814104e+002, 1.162607e+002
2.818925e+002, 1.180290e+002
2.823746e+002, 1.197281e+002
2.828568e+002, 1.213570e+002
2.833389e+002, 1.229982e+002
2.838210e+002, 1.245101e+002
2.843031e+002, 1.254364e+002
2.847852e+002, 1.257430e+002
2.852673e+002, 1.258051e+002
2.857495e+002, 1.260630e+002
2.862316e+002, 1.264546e+002
2.867137e+002, 1.260638e+002
2.871958e+002, 1.246587e+002
2.876779e+002, 1.225953e+002
2.881600e+002, 1.206181e+002
2.886422e+002, 1.187321e+002
2.891243e+002, 1.165455e+002
2.896064e+002, 1.137361e+002
2.900885e+002, 1.103947e+002
2.905706e+002, 1.071125e+002
2.910527e+002, 1.039521e+002
2.915349e+002, 1.008341e+002
2.920170e+002, 9.754076e+001
2.924991e+002, 9.412611e+001
2.929812e+002, 9.087447e+001
2.934633e+002, 8.803458e+001
2.939454e+002, 8.550880e+001
2.944276e+002, 8.299140e+001
2.949097e+002, 8.046090e+001
2.953918e+002, 7.807172e+001
2.958739e+002, 7.602051e+001
2.963560e+002, 7.430334e+001
2.968381e+002, 7.280354e+001
2.973203e+002, 7.141051e+001
2.978024e+002, 7.022636e+001
2.982845e+002, 6.950510e+001
2.987666e+002, 6.927384e+001
2.992487e+002, 6.926560e+001
2.997308e+002, 6.921315e+001
3.002130e+002, 6.916332e+001
3.006951e+002, 6.924718e+001
3.011772e+002, 6.942294e+001
3.016593e+002, 6.980515e+001
3.021414e+002, 7.058047e+001
3.026235e+002, 7.173946e+001
3.031057e+002, 7.318317e+001
3.035878e+002, 7.475781e+001
3.040699e+002, 7.656019e+001
3.045520e+002, 7.875700e+001
3.050341e+002, 8.160201e+001
3.055162e+002, 8.467046e+001
3.059984e+002, 8.753673e+001
3.064805e+002, 9.021340e+001
3.069626e+002, 9.297626e+001
3.074447e+002, 9.595309e+001
3.079268e+002, 9.912537e+001
3.084089e+002, 1.024068e+002
3.088911e+002, 1.056951e+002
3.093732e+002, 1.092165e+002
3.098553e+002, 1.131718e+002
3.103374e+002, 1.174991e+002
3.108195e+002, 1.220866e+002
3.113016e+002, 1.268104e+002
3.117838e+002, 1.317286e+002
3.122659e+002, 1.369379e+002
3.127480e+002, 1.424208e+002
3.132301e+002, 1.482268e+002
3.137122e+002, 1.542972e+002
3.141943e+002, 1.607755e+002
3.146765e+002, 1.678344e+002
3.151586e+002, 1.755241e+002
3.156407e+002, 1.838112e+002
3.161228e+002, 1.928056e+002
3.166049e+002, 2.025243e+002
3.170870e+002, 2.127583e+002
3.175692e+002, 2.234919e+002
3.180513e+002, 2.345909e+002
3.185334e+002, 2.458074e+002
3.190155e+002, 2.571218e+002
3.194976e+002, 2.684926e+002
3.199797e+002, 2.800768e+002
3.204619e+002, 2.919739e+002
3.209440e+002, 3.029789e+002
3.214261e+002, 3.133447e+002
3.219082e+002, 3.222938e+002
3.223903e+002, 3.290353e+002
3.228724e+002, 3.327455e+002
3.233546e+002, 3.348909e+002
3.238367e+002, 3.360495e+002
3.243188e+002, 3.361897e+002
3.248009e+002, 3.341795e+002
3.252830e+002, 3.284002e+002
3.257651e+002, 3.213289e+002
3.262473e+002, 3.145804e+002
3.267294e+002, 3.084900e+002
3.272115e+002, 3.025265e+002
3.276936e+002, 2.962129e+002
3.281757e+002, 2.898723e+002
3.286578e+002, 2.848047e+002
3.291400e+002, 2.815051e+002
3.296221e+002, 2.790728e+002
3.301042e+002, 2.771282e+002
3.305863e+002, 2.758090e+002
3.310684e+002, 2.747550e+002
3.315505e+002, 2.740759e+002
3.320327e+002, 2.736413e+002
3.325148e+002, 2.732296e+002
3.329969e+002, 2.732852e+002
3.334790e+002, 2.727534e+002
3.339611e+002, 2.714235e+002
3.344432e+002, 2.695190e+002
3.349254e+002, 2.657874e+002
3.354075e+002, 2.598547e+002
3.358896e+002, 2.524463e+002
3.363717e+002, 2.444832e+002
3.368538e+002, 2.359816e+002
3.373359e+002, 2.270378e+002
3.378180e+002, 2.176664e+002
3.383001e+002, 2.079184e+002
3.387823e+002, 1.979690e+002
3.392644e+002, 1.876414e+002
3.397465e+002, 1.776820e+002
3.402286e+002, 1.688736e+002
3.407107e+002, 1.614068e+002
3.411928e+002, 1.543827e+002
3.416750e+002, 1.477474e+002
3.421571e+002, 1.414826e+002
3.426392e+002, 1.359125e+002
3.431213e+002, 1.310105e+002
3.436034e+002, 1.266886e+002
3.440855e+002, 1.229015e+002
3.445677e+002, 1.196679e+002
3.450498e+002, 1.166292e+002
3.455319e+002, 1.137055e+002
3.460140e+002, 1.110631e+002
3.464961e+002, 1.090537e+002
3.469782e+002, 1.076720e+002
3.474604e+002, 1.066476e+002
3.479425e+002, 1.058318e+002
3.484246e+002, 1.052549e+002
3.489067e+002, 1.050877e+002
3.493888e+002, 1.053637e+002
3.498709e+002, 1.059247e+002
3.503531e+002, 1.066315e+002
3.508352e+002, 1.074747e+002
3.513173e+002, 1.084161e+002
3.517994e+002, 1.093317e+002
3.522815e+002, 1.103787e+002
3.527636e+002, 1.119330e+002
3.532458e+002, 1.139926e+002
3.537279e+002, 1.160944e+002
3.542100e+002, 1.179470e+002
3.546921e+002, 1.195583e+002
3.551742e+002, 1.209560e+002
3.556563e+002, 1.223228e+002
3.561385e+002, 1.233107e+002
3.566206e+002, 1.234961e+002
3.571027e+002, 1.229673e+002
3.575848e+002, 1.221729e+002
3.580669e+002, 1.214566e+002
3.585490e+002, 1.205632e+002
3.590312e+002, 1.192377e+002
3.595133e+002, 1.173437e+002
3.599954e+002, 1.151816e+002
3.604775e+002, 1.125844e+002
3.609596e+002, 1.098347e+002
3.614417e+002, 1.075713e+002
3.619239e+002, 1.064202e+002
3.624060e+002, 1.055164e+002
3.628881e+002, 1.043165e+002
3.633702e+002, 1.026549e+002
3.638523e+002, 1.012895e+002
3.643344e+002, 1.005053e+002
3.648166e+002, 1.001326e+002
3.652987e+002, 9.997655e+001
3.657808e+002, 1.000948e+002
3.662629e+002, 1.003274e+002
3.667450e+002, 1.007378e+002
3.672271e+002, 1.013198e+002
3.677093e+002, 1.016620e+002
3.681914e+002, 1.018338e+002
3.686735e+002, 1.016768e+002
3.691556e+002, 1.010783e+002
3.696377e+002, 9.978609e+001
3.701198e+002, 9.838197e+001
3.706020e+002, 9.698488e+001
3.710841e+002, 9.550430e+001
3.715662e+002, 9.358360e+001
3.720483e+002, 9.096986e+001
3.725304e+002, 8.825072e+001
3.730125e+002, 8.564723e+001
3.734947e+002, 8.319182e+001
3.739768e+002, 8.080163e+001
3.744589e+002, 7.841160e+001
3.749410e+002, 7.611167e+001
3.754231e+002, 7.410558e+001
3.759052e+002, 7.246973e+001
3.763874e+002, 7.086440e+001
3.768695e+002, 6.911659e+001
3.773516e+002, 6.722254e+001
3.778337e+002, 6.588347e+001
3.783158e+002, 6.513896e+001
3.787979e+002, 6.478151e+001
3.792801e+002, 6.467183e+001
3.797622e+002, 6.481729e+001
3.802443e+002, 6.503568e+001
3.807264e+002, 6.527972e+001
3.812085e+002, 6.558713e+001
3.816906e+002, 6.607531e+001
3.821728e+002, 6.674275e+001
3.826549e+002, 6.750126e+001
3.831370e+002, 6.827567e+001
3.836191e+002, 6.908616e+001
3.841012e+002, 6.999683e+001
3.845833e+002, 7.103765e+001
3.850655e+002, 7.212923e+001
3.855476e+002, 7.317475e+001
3.860297e+002, 7.418604e+001
3.865118e+002, 7.515170e+001
3.869939e+002, 7.610847e+001
3.874760e+002, 7.701054e+001
3.879582e+002, 7.784975e+001
3.884403e+002, 7.863447e+001
3.889224e+002, 7.918603e+001
3.894045e+002, 7.943891e+001
3.898866e+002, 7.935054e+001
3.903687e+002, 7.883995e+001
3.908509e+002, 7.770135e+001
3.913330e+002, 7.633597e+001
3.918151e+002, 7.495322e+001
3.922972e+002, 7.355967e+001
3.927793e+002, 7.215713e+001
3.932614e+002, 7.071191e+001
3.937436e+002, 6.928765e+001
3.942257e+002, 6.792005e+001
3.947078e+002, 6.668861e+001
3.951899e+002, 6.535725e+001
3.956720e+002, 6.369850e+001
3.961541e+002, 6.191059e+001
3.966363e+002, 6.031271e+001
3.971184e+002, 5.912983e+001
3.976005e+002, 5.801080e+001
3.980826e+002, 5.678994e+001
3.985647e+002, 5.542110e+001
3.990468e+002, 5.428448e+001
3.995290e+002, 5.358494e+001
4.000111e+002, 5.303884e+001
4.004932e+002, 5.241318e+001
4.009753e+002, 5.150710e+001
4.014574e+002, 5.079538e+001
4.019395e+002, 5.044050e+001
4.024217e+002, 5.033978e+001
4.029038e+002, 5.000021e+001
4.033859e+002, 4.927806e+001
4.038680e+002, 4.852826e+001
4.043501e+002, 4.790474e+001
4.048322e+002, 4.741413e+001
4.053144e+002, 4.704778e+001
4.057965e+002, 4.681776e+001
4.062786e+002, 4.670185e+001
4.067607e+002, 4.669823e+001
4.072428e+002, 4.683356e+001
4.077249e+002, 4.693130e+001
4.082071e+002, 4.690372e+001
4.086892e+002, 4.678185e+001
4.091713e+002, 4.676228e+001
4.096534e+002, 4.684946e+001
4.101355e+002, 4.701474e+001
4.106176e+002, 4.726181e+001
4.110998e+002, 4.757601e+001
4.115819e+002, 4.785915e+001
4.120640e+002, 4.807390e+001
4.125461e+002, 4.828047e+001
4.130282e+002, 4.856945e+001
4.135103e+002, 4.893835e+001
4.139925e+002, 4.937600e+001
4.144746e+002, 4.997514e+001
4.149567e+002, 5.061141e+001
4.154388e+002, 5.103300e+001
4.159209e+002, 5.119762e+001
4.164030e+002, 5.139255e+001
4.168852e+002, 5.182937e+001
4.173673e+002, 5.246631e+001
4.178494e+002, 5.323315e+001
4.183315e+002, 5.408950e+001
4.188136e+002, 5.508360e+001
4.192957e+002, 5.627833e+001
4.197779e+002, 5.765229e+001
4.202600e+002, 5.913689e+001
4.207421e+002, 6.069169e+001
4.212242e+002, 6.234789e+001
4.217063e+002, 6.408956e+001
4.221884e+002, 6.595632e+001
4.226706e+002, 6.788517e+001
4.231527e+002, 6.997306e+001
4.236348e+002, 7.211392e+001
4.241169e+002, 7.411604e+001
4.245990e+002, 7.588252e+001
4.250811e+002, 7.759814e+001
4.255633e+002, 7.943921e+001
4.260454e+002, 8.151373e+001
4.265275e+002, 8.296242e+001
4.270096e+002, 8.363367e+001
4.274917e+002, 8.380839e+001
4.279738e+002, 8.370066e+001
4.284560e+002, 8.326298e+001
4.289381e+002, 8.264479e+001
4.294202e+002, 8.187823e+001
4.299023e+002, 8.094785e+001
4.303844e+002, 7.974448e+001
4.308665e+002, 7.825665e+001
4.313487e+002, 7.654475e+001
4.318308e+002, 7.446384e+001
4.323129e+002, 7.197543e+001
4.327950e+002, 7.011345e+001
4.332771e+002, 6.898015e+001
4.337592e+002, 6.825349e+001
4.342414e+002, 6.749019e+001
4.347235e+002, 6.671255e+001
4.352056e+002, 6.620797e+001
4.356877e+002, 6.618983e+001
4.361698e+002, 6.641740e+001
4.366519e+002, 6.629070e+001
4.371341e+002, 6.583697e+001
4.376162e+002, 6.552926e+001
4.380983e+002, 6.587578e+001
4.385804e+002, 6.656471e+001
4.390625e+002, 6.704290e+001
4.395446e+002, 6.717966e+001
4.400268e+002, 6.723264e+001
4.405089e+002, 6.740817e+001
4.409910e+002, 6.767076e+001
4.414731e+002, 6.794430e+001
4.419552e+002, 6.802972e+001
4.424373e+002, 6.824609e+001
4.429195e+002, 6.889041e+001
4.434016e+002, 6.995644e+001
4.438837e+002, 7.096342e+001
4.443658e+002, 7.159154e+001
4.448479e+002, 7.215016e+001
4.453300e+002, 7.287571e+001
4.458122e+002, 7.395444e+001
4.462943e+002, 7.502644e+001
4.467764e+002, 7.623952e+001
4.472585e+002, 7.741562e+001
4.477406e+002, 7.809791e+001
4.482227e+002, 7.798410e+001
4.487049e+002, 7.764306e+001
4.491870e+002, 7.729514e+001
4.496691e+002, 7.703915e+001
4.501512e+002, 7.617967e+001
4.506333e+002, 7.449573e+001
4.511154e+002, 7.246569e+001
4.515976e+002, 7.054366e+001
4.520797e+002, 6.882531e+001
4.525618e+002, 6.693858e+001
4.530439e+002, 6.472135e+001
4.535260e+002, 6.236443e+001
4.540081e+002, 6.031034e+001
4.544903e+002, 5.856157e+001
4.549724e+002, 5.706048e+001
4.554545e+002, 5.580571e+001
4.559366e+002, 5.478297e+001
4.564187e+002, 5.378850e+001
4.569008e+002, 5.280711e+001
4.573830e+002, 5.194408e+001
4.578651e+002, 5.131417e+001
4.583472e+002, 5.091200e+001
4.588293e+002, 5.075127e+001
4.593114e+002, 5.080942e+001
4.597935e+002, 5.113240e+001
4.602757e+002, 5.184901e+001
4.607578e+002, 5.291384e+001
4.612399e+002, 5.410852e+001
4.617220e+002, 5.529715e+001
4.622041e+002, 5.655336e+001
4.626862e+002, 5.789303e+001
4.631684e+002, 5.927205e+001
4.636505e+002, 6.092593e+001
4.641326e+002, 6.303448e+001
4.646147e+002, 6.544969e+001
4.650968e+002, 6.802205e+001
4.655789e+002, 7.063509e+001
4.660611e+002, 7.340173e+001
4.665432e+002, 7.627342e+001
4.670253e+002, 7.927610e+001
4.675074e+002, 8.277439e+001
4.679895e+002, 8.690926e+001
4.684716e+002, 9.148150e+001
4.689538e+002, 9.638886e+001
4.694359e+002, 1.016271e+002
4.699180e+002, 1.070643e+002
4.704001e+002, 1.126611e+002
4.708822e+002, 1.185391e+002
4.713643e+002, 1.249227e+002
4.718465e+002, 1.318608e+002
4.723286e+002, 1.391475e+002
4.728107e+002, 1.467047e+002
4.732928e+002, 1.544939e+002
4.737749e+002, 1.630078e+002
4.742570e+002, 1.722563e+002
4.747392e+002, 1.819620e+002
4.752213e+002, 1.918359e+002
4.757034e+002, 2.019423e+002
4.761855e+002, 2.127151e+002
4.766676e+002, 2.241940e+002
4.771497e+002, 2.364185e+002
4.776319e+002, 2.494408e+002
4.781140e+002, 2.631808e+002
4.785961e+002, 2.772105e+002
4.790782e+002, 2.915463e+002
4.795603e+002, 3.059538e+002
4.800424e+002, 3.204527e+002
4.805246e+002, 3.350024e+002
4.810067e+002, 3.487438e+002
4.814888e+002, 3.616264e+002
4.819709e+002, 3.732099e+002
4.824530e+002, 3.831134e+002
4.829352e+002, 3.913942e+002
4.834173e+002, 3.976521e+002
4.838994e+002, 4.020491e+002
4.843815e+002, 4.042563e+002
4.848636e+002, 4.037376e+002
4.853457e+002, 4.004438e+002
4.858279e+002, 3.943812e+002
4.863100e+002, 3.855053e+002
4.867921e+002, 3.737051e+002
4.872742e+002, 3.593157e+002
4.877563e+002, 3.415713e+002
4.882384e+002, 3.218585e+002
4.887206e+002, 3.007907e+002
4.892027e+002, 2.776032e+002
4.896848e+002, 2.552640e+002
4.901669e+002, 2.334590e+002
4.906490e+002, 2.128843e+002
4.911311e+002, 1.942164e+002
4.916133e+002, 1.776626e+002
4.920954e+002, 1.626819e+002
4.925775e+002, 1.491322e+002
4.930596e+002, 1.370403e+002
4.935417e+002, 1.264154e+002
4.940238e+002, 1.173003e+002
4.945060e+002, 1.091583e+002
4.949881e+002, 1.016643e+002
4.954702e+002, 9.489144e+001
4.959523e+002, 8.886034e+001
4.964344e+002, 8.365132e+001
4.969165e+002, 7.901901e+001
4.973987e+002, 7.493999e+001
4.978808e+002, 7.122649e+001
4.983629e+002, 6.760583e+001
4.988450e+002, 6.371035e+001
4.993271e+002, 6.007566e+001
4.998092e+002, 5.715778e+001
5.002914e+002, 5.484985e+001
5.007735e+002, 5.279111e+001
5.012556e+002, 5.096959e+001
5.017377e+002, 4.920270e+001
5.022198e+002, 4.734897e+001
5.027019e+002, 4.523605e+001
5.031841e+002, 4.339795e+001
5.036662e+002, 4.197307e+001
5.041483e+002, 4.082539e+001
5.046304e+002, 3.982496e+001
5.051125e+002, 3.909637e+001
5.055946e+002, 3.833632e+001
5.060768e+002, 3.750567e+001
5.065589e+002, 3.660496e+001
5.070410e+002, 3.556786e+001
5.075231e+002, 3.428579e+001
5.080052e+002, 3.317413e+001
5.084873e+002, 3.249889e+001
5.089695e+002, 3.227257e+001
5.094516e+002, 3.197867e+001
5.099337e+002, 3.159369e+001
5.104158e+002, 3.122485e+001
5.108979e+002, 3.101809e+001
5.113800e+002, 3.094073e+001
5.118622e+002, 3.084410e+001
5.123443e+002, 3.064550e+001
5.128264e+002, 3.047298e+001
5.133085e+002, 3.047891e+001
5.137906e+002, 3.065209e+001
5.142728e+002, 3.095251e+001
5.147549e+002, 3.144840e+001
5.152370e+002, 3.200298e+001
5.157191e+002, 3.244963e+001
5.162012e+002, 3.276626e+001
5.166833e+002, 3.324044e+001
5.171655e+002, 3.407593e+001
5.176476e+002, 3.509429e+001
5.181297e+002, 3.614249e+001
5.186118e+002, 3.710954e+001
5.190939e+002, 3.820419e+001
5.195760e+002, 3.951202e+001
5.200582e+002, 4.096376e+001
5.205403e+002, 4.242728e+001
5.210224e+002, 4.388029e+001
5.215045e+002, 4.534807e+001
5.219866e+002, 4.680164e+001
5.224688e+002, 4.824798e+001
5.229509e+002, 4.990912e+001
5.234330e+002, 5.186194e+001
5.239151e+002, 5.387144e+001
5.243972e+002, 5.568023e+001
5.248793e+002, 5.726991e+001
5.253615e+002, 5.921458e+001
5.258436e+002, 6.159547e+001
5.263257e+002, 6.429714e+001
5.268078e+002, 6.708869e+001
5.272899e+002, 7.001329e+001
5.277720e+002, 7.324950e+001
5.282542e+002, 7.692549e+001
5.287363e+002, 8.085929e+001
5.292184e+002, 8.497794e+001
5.297005e+002, 8.920164e+001
5.301826e+002, 9.330098e+001
5.306647e+002, 9.708308e+001
5.311469e+002, 1.006936e+002
5.316290e+002, 1.044161e+002
5.321111e+002, 1.083873e+002
5.325932e+002, 1.118652e+002
5.330753e+002, 1.146708e+002
5.335574e+002, 1.167999e+002
5.340396e+002, 1.182027e+002
5.345217e+002, 1.192839e+002
5.350038e+002, 1.191768e+002
5.354859e+002, 1.177002e+002
5.359680e+002, 1.149619e+002
5.364501e+002, 1.112033e+002
5.369323e+002, 1.062716e+002
5.374144e+002, 1.005760e+002
5.378965e+002, 9.408921e+001
5.383786e+002, 8.680897e+001
5.388607e+002, 7.991499e+001
5.393428e+002, 7.345840e+001
5.398250e+002, 6.739939e+001
5.403071e+002, 6.173730e+001
5.407892e+002, 5.654414e+001
5.412713e+002, 5.182454e+001
5.417534e+002, 4.762329e+001
5.422355e+002, 4.388622e+001
5.427177e+002, 4.056578e+001
5.431998e+002, 3.763447e+001
5.436819e+002, 3.509718e+001
5.441640e+002, 3.306505e+001
5.446461e+002, 3.138085e+001
5.451282e+002, 2.998126e+001
5.456104e+002, 2.883657e+001
5.460925e+002, 2.772547e+001
5.465746e+002, 2.640074e+001
5.470567e+002, 2.516766e+001
5.475388e+002, 2.425582e+001
5.480209e+002, 2.379994e+001
5.485031e+002, 2.333039e+001
5.489852e+002, 2.268227e+001
5.494673e+002, 2.200162e+001
5.499494e+002, 2.144212e+001
5.504315e+002, 2.106111e+001
5.509136e+002, 2.072139e+001
5.513958e+002, 2.045718e+001
5.518779e+002, 2.021169e+001
5.523600e+002, 1.977433e+001
5.528421e+002, 1.904849e+001
5.533242e+002, 1.846488e+001
5.538063e+002, 1.828234e+001
5.542885e+002, 1.843083e+001
5.547706e+002, 1.831285e+001
5.552527e+002, 1.790469e+001
5.557348e+002, 1.748212e+001
5.562169e+002, 1.730781e+001
5.566990e+002, 1.730571e+001
5.571812e+002, 1.728267e+001
5.576633e+002, 1.721241e+001
5.581454e+002, 1.710189e+001
5.586275e+002, 1.689213e+001
5.591096e+002, 1.665695e+001
5.595917e+002, 1.652202e+001
5.600739e+002, 1.667434e+001
5.605560e+002, 1.681236e+001
5.610381e+002, 1.675212e+001
5.615202e+002, 1.653847e+001
5.620023e+002, 1.637172e+001
5.624844e+002, 1.630826e+001
5.629666e+002, 1.629719e+001
5.634487e+002, 1.632668e+001
5.639308e+002, 1.640409e+001
5.644129e+002, 1.647354e+001
5.648950e+002, 1.651756e+001
5.653771e+002, 1.657245e+001
5.658593e+002, 1.669465e+001
5.663414e+002, 1.693155e+001
5.668235e+002, 1.700944e+001
5.673056e+002, 1.684598e+001
5.677877e+002, 1.659907e+001
5.682698e+002, 1.657911e+001
5.687520e+002, 1.677264e+001
5.692341e+002, 1.695808e+001
5.697162e+002, 1.708356e+001
5.701983e+002, 1.712881e+001
5.706804e+002, 1.701049e+001
5.711625e+002, 1.675251e+001
5.716447e+002, 1.651713e+001
5.721268e+002, 1.639178e+001
5.726089e+002, 1.635077e+001
5.730910e+002, 1.639941e+001
5.735731e+002, 1.655427e+001
5.740552e+002, 1.666918e+001
5.745374e+002, 1.665961e+001
5.750195e+002, 1.658850e+001
5.755016e+002, 1.651489e+001
5.759837e+002, 1.647746e+001
5.764658e+002, 1.640285e+001
5.769479e+002, 1.624919e+001
5.774301e+002, 1.606124e+001
5.779122e+002, 1.592580e+001
5.783943e+002, 1.585324e+001
5.788764e+002, 1.581499e+001
5.793585e+002, 1.583726e+001
5.798406e+002, 1.589414e+001
5.803228e+002, 1.577213e+001
5.808049e+002, 1.544397e+001
5.812870e+002, 1.511407e+001
5.817691e+002, 1.493343e+001
5.822512e+002, 1.486703e+001
5.827333e+002, 1.475500e+001
5.832155e+002, 1.458078e+001
5.836975e+002, 1.443506e+001
5.841796e+002, 1.445819e+001
5.846617e+002, 1.455270e+001
5.851439e+002, 1.454412e+001
5.856260e+002, 1.431517e+001
5.861081e+002, 1.410007e+001
5.865902e+002, 1.407723e+001
5.870723e+002, 1.416588e+001
5.875544e+002, 1.421031e+001
5.880366e+002, 1.415742e+001
5.885187e+002, 1.406218e+001
5.890008e+002, 1.393203e+001
5.894829e+002, 1.376807e+001
5.899650e+002, 1.359406e+001
5.904471e+002, 1.337830e+001
5.909293e+002, 1.319193e+001
5.914114e+002, 1.306190e+001
5.918935e+002, 1.298274e+001
5.923756e+002, 1.301374e+001
5.928577e+002, 1.319253e+001
5.933398e+002, 1.338003e+001
5.938220e+002, 1.342064e+001
5.943041e+002, 1.333132e+001
5.947862e+002, 1.324028e+001
5.952683e+002, 1.316643e+001
5.957504e+002, 1.311003e+001
5.962325e+002, 1.308649e+001
5.967147e+002, 1.308084e+001
5.971968e+002, 1.305445e+001
5.976789e+002, 1.296646e+001
5.981610e+002, 1.287153e+001
5.986431e+002, 1.282213e+001
5.991252e+002, 1.280508e+001
5.996074e+002, 1.275758e+001
6.000895e+002, 1.256738e+001
6.005716e+002, 1.241717e+001
6.010537e+002, 1.242776e+001
6.015358e+002, 1.266501e+001
6.020179e+002, 1.277670e+001
6.025001e+002, 1.266280e+001
6.029822e+002, 1.251822e+001
6.034643e+002, 1.250056e+001
6.039464e+002, 1.266045e+001
6.044285e+002, 1.274356e+001
6.049106e+002, 1.272200e+001
6.053928e+002, 1.264411e+001
6.058749e+002, 1.254295e+001
6.063570e+002, 1.242783e+001
6.068391e+002, 1.244216e+001
6.073212e+002, 1.271784e+001
6.078033e+002, 1.303199e+001
6.082855e+002, 1.299806e+001
6.087676e+002, 1.269433e+001
6.092497e+002, 1.240795e+001
6.097318e+002, 1.230726e+001
6.102139e+002, 1.228152e+001
6.106960e+002, 1.223751e+001
6.111782e+002, 1.217337e+001
6.116603e+002, 1.217440e+001
6.121424e+002, 1.235213e+001
6.126245e+002, 1.254513e+001
6.131066e+002, 1.264370e+001
6.135887e+002, 1.256575e+001
6.140709e+002, 1.257571e+001
6.145530e+002, 1.276158e+001
6.150351e+002, 1.295671e+001
6.155172e+002, 1.297236e+001
6.159993e+002, 1.276382e+001
6.164814e+002, 1.257447e+001
6.169636e+002, 1.243136e+001
6.174457e+002, 1.233536e+001
6.179278e+002, 1.231001e+001
6.184099e+002, 1.234713e+001
6.188920e+002, 1.236126e+001
6.193741e+002, 1.228615e+001
6.198563e+002, 1.218986e+001
6.203384e+002, 1.219672e+001
6.208205e+002, 1.228410e+001
6.213026e+002, 1.233927e+001
6.217847e+002, 1.227313e+001
6.222668e+002, 1.216702e+001
6.227490e+002, 1.205146e+001
6.232311e+002, 1.191946e+001
6.237132e+002, 1.189921e+001
6.241953e+002, 1.221946e+001
6.246774e+002, 1.253019e+001
6.251595e+002, 1.257616e+001
6.256417e+002, 1.215891e+001
6.261238e+002, 1.185726e+001
6.266059e+002, 1.167610e+001
6.270880e+002, 1.160823e+001
6.275701e+002, 1.167682e+001
6.280522e+002, 1.189916e+001
6.285344e+002, 1.209250e+001
6.290165e+002, 1.221854e+001
6.294986e+002, 1.229534e+001
6.299807e+002, 1.235623e+001
6.304628e+002, 1.239925e+001
6.309449e+002, 1.241336e+001
6.314271e+002, 1.236669e+001
6.319092e+002, 1.230552e+001
6.323913e+002, 1.229180e+001
6.328734e+002, 1.231577e+001
6.333555e+002, 1.231616e+001
6.338376e+002, 1.219191e+001
6.343198e+002, 1.208943e+001
6.348019e+002, 1.212876e+001
6.352840e+002, 1.236886e+001
6.357661e+002, 1.249499e+001
6.362482e+002, 1.237130e+001
6.367303e+002, 1.221159e+001
6.372125e+002, 1.217289e+001
6.376946e+002, 1.232967e+001
6.381767e+002, 1.238323e+001
6.386588e+002, 1.229697e+001
6.391409e+002, 1.215019e+001
6.396230e+002, 1.203916e+001
6.401052e+002, 1.196416e+001
6.405873e+002, 1.194712e+001
6.410694e+002, 1.201391e+001
6.415515e+002, 1.210652e+001
6.420336e+002, 1.211514e+001
6.425157e+002, 1.207315e+001
6.429979e+002, 1.207873e+001
6.434800e+002, 1.227086e+001
6.439621e+002, 1.245220e+001
6.444442e+002, 1.247168e+001
6.449263e+002, 1.234869e+001
6.454084e+002, 1.220770e+001
6.458906e+002, 1.206978e+001
6.463727e+002, 1.193962e+001
6.468548e+002, 1.180276e+001
6.473369e+002, 1.164460e+001
6.478190e+002, 1.159487e+001
6.483011e+002, 1.170629e+001
6.487833e+002, 1.184785e+001
6.492654e+002, 1.189643e+001
6.497475e+002, 1.183559e+001
6.502296e+002, 1.193271e+001
6.507117e+002, 1.223988e+001
6.511938e+002, 1.256176e+001
6.516760e+002, 1.267501e+001
6.521581e+002, 1.260352e+001
6.526402e+002, 1.238447e+001
6.531223e+002, 1.193323e+001
6.536044e+002, 1.153809e+001
6.540865e+002, 1.149141e+001
6.545687e+002, 1.167845e+001
6.550508e+002, 1.187591e+001
6.555329e+002, 1.208322e+001
6.560150e+002, 1.220335e+001
6.564971e+002, 1.213609e+001
6.569792e+002, 1.192881e+001
6.574614e+002, 1.183195e+001
6.579435e+002, 1.194125e+001
6.584256e+002, 1.203817e+001
6.589077e+002, 1.202898e+001
6.593898e+002, 1.192220e+001
6.598719e+002, 1.194963e+001
6.603541e+002, 1.213693e+001
6.608362e+002, 1.233735e+001
6.613183e+002, 1.248207e+001
6.618004e+002, 1.255847e+001
6.622825e+002, 1.247506e+001
6.627646e+002, 1.221533e+001
6.632468e+002, 1.200153e+001
6.637289e+002, 1.210925e+001
6.642110e+002, 1.234988e+001
6.646931e+002, 1.246712e+001
6.651752e+002, 1.235704e+001
6.656573e+002, 1.224828e+001
6.661395e+002, 1.228708e+001
6.666216e+002, 1.236553e+001
6.671037e+002, 1.235080e+001
6.675858e+002, 1.213058e+001
6.680679e+002, 1.192837e+001
6.685500e+002, 1.172187e+001
6.690322e+002, 1.156127e+001
6.695143e+002, 1.159697e+001
6.699964e+002, 1.188283e+001
6.704785e+002, 1.209132e+001
6.709606e+002, 1.207497e+001
6.714427e+002, 1.194722e+001
6.719249e+002, 1.207668e+001
6.724070e+002, 1.242670e+001
6.728891e+002, 1.269803e+001
6.733712e+002, 1.266537e+001
6.738533e+002, 1.248556e+001
6.743354e+002, 1.227615e+001
6.748176e+002, 1.205620e+001
6.752997e+002, 1.196579e+001
6.757818e+002, 1.222311e+001
6.762639e+002, 1.252061e+001
6.767460e+002, 1.265389e+001
6.772281e+002, 1.254142e+001
6.777103e+002, 1.249073e+001
6.781924e+002, 1.253119e+001
6.786745e+002, 1.261803e+001
6.791566e+002, 1.271823e+001
6.796387e+002, 1.282711e+001
6.801208e+002, 1.299182e+001
6.806030e+002, 1.324501e+001
6.810851e+002, 1.347866e+001
6.815672e+002, 1.353738e+001
6.820493e+002, 1.345633e+001
6.825314e+002, 1.339081e+001
6.830135e+002, 1.338675e+001
6.834957e+002, 1.339057e+001
6.839778e+002, 1.330430e+001
6.844599e+002, 1.319063e+001
6.849420e+002, 1.316980e+001
6.854241e+002, 1.334065e+001
6.859063e+002, 1.355388e+001
6.863884e+002, 1.375277e+001
6.868705e+002, 1.395013e+001
6.873526e+002, 1.420319e+001
6.878347e+002, 1.465750e+001
6.883168e+002, 1.495951e+001
6.887990e+002, 1.495744e+001
6.892811e+002, 1.471184e+001
6.897632e+002, 1.463264e+001
6.902453e+002, 1.473886e+001
6.907274e+002, 1.488013e+001
6.912095e+002, 1.498506e+001
6.916917e+002, 1.505598e+001
6.921738e+002, 1.512017e+001
6.926559e+002, 1.517350e+001
6.931380e+002, 1.514588e+001
6.936201e+002, 1.486482e+001
6.941022e+002, 1.454993e+001
6.945844e+002, 1.442641e+001
6.950665e+002, 1.454749e+001
6.955486e+002, 1.470171e+001
6.960307e+002, 1.485393e+001
6.965128e+002, 1.498620e+001
6.969949e+002, 1.508981e+001
6.974771e+002, 1.519442e+001
6.979592e+002, 1.520585e+001
6.984413e+002, 1.509775e+001
6.989234e+002, 1.493032e+001
6.994055e+002, 1.475798e+001
6.998876e+002, 1.457994e+001
7.003698e+002, 1.445412e+001
7.008519e+002, 1.439472e+001
7.013340e+002, 1.438336e+001
7.018161e+002, 1.443925e+001
7.022982e+002, 1.452393e+001
7.027803e+002, 1.453740e+001
7.032625e+002, 1.439017e+001
7.037446e+002, 1.422377e+001
7.042267e+002, 1.410688e+001
7.047088e+002, 1.404226e+001
7.051909e+002, 1.403792e+001
7.056730e+002, 1.420941e+001
7.061552e+002, 1.431021e+001
7.066373e+002, 1.420890e+001
7.071194e+002, 1.397898e+001
7.076015e+002, 1.399640e+001
7.080836e+002, 1.436003e+001
7.085657e+002, 1.466662e+001
7.090479e+002, 1.471939e+001
7.095300e+002, 1.458718e+001
7.100121e+002, 1.456827e+001
7.104942e+002, 1.465877e+001
7.109763e+002, 1.476218e+001
7.114584e+002, 1.482106e+001
7.119406e+002, 1.485219e+001
7.124227e+002, 1.485805e+001
7.129048e+002, 1.484182e+001
7.133869e+002, 1.487016e+001
7.138690e+002, 1.501114e+001
7.143511e+002, 1.518177e+001
7.148333e+002, 1.534950e+001
7.153154e+002, 1.555035e+001
7.157975e+002, 1.558738e+001
7.162796e+002, 1.532433e+001
7.167617e+002, 1.506451e+001
7.172438e+002, 1.507927e+001
7.177260e+002, 1.540287e+001
7.182081e+002, 1.562545e+001
7.186902e+002, 1.571158e+001
7.191723e+002, 1.573696e+001
7.196544e+002, 1.574591e+001
7.201365e+002, 1.576434e+001
7.206187e+002, 1.586839e+001
7.211008e+002, 1.609965e+001
7.215829e+002, 1.634553e+001
7.220650e+002, 1.656832e+001
7.225471e+002, 1.673964e+001
7.230292e+002, 1.682568e+001
7.235114e+002, 1.665974e+001
7.239935e+002, 1.659683e+001
7.244756e+002, 1.673791e+001
7.249577e+002, 1.699551e+001
7.254398e+002, 1.724079e+001
7.259219e+002, 1.748500e+001
7.264041e+002, 1.767580e+001
7.268862e+002, 1.779779e+001
7.273683e+002, 1.786403e+001
7.278504e+002, 1.789056e+001
7.283325e+002, 1.788154e+001
7.288146e+002, 1.786300e+001
7.292968e+002, 1.781975e+001
7.297789e+002, 1.779616e+001
7.302610e+002, 1.785658e+001
7.307431e+002, 1.798188e+001
7.312252e+002, 1.810866e+001
7.317073e+002, 1.819810e+001
7.321895e+002, 1.829445e+001
7.326716e+002, 1.839244e+001
7.331537e+002, 1.850186e+001
7.336358e+002, 1.872008e+001
7.341179e+002, 1.913242e+001
7.346000e+002, 1.951473e+001
7.350822e+002, 1.977575e+001
7.355643e+002, 1.992330e+001
7.360464e+002, 1.998504e+001
7.365285e+002, 1.995466e+001
7.370106e+002, 1.996646e+001
7.374927e+002, 2.013733e+001
7.379749e+002, 2.040595e+001
7.384570e+002, 2.068951e+001
7.389391e+002, 2.097918e+001
7.394212e+002, 2.123470e+001
7.399033e+002, 2.138775e+001
7.403854e+002, 2.152868e+001
7.408676e+002, 2.171376e+001
7.413497e+002, 2.194451e+001
7.418318e+002, 2.225591e+001
7.423139e+002, 2.276789e+001
7.427960e+002, 2.322849e+001
7.432781e+002, 2.342578e+001
7.437603e+002, 2.329748e+001
7.442424e+002, 2.336759e+001
7.447245e+002, 2.367843e+001
7.452066e+002, 2.407029e+001
7.456887e+002, 2.438280e+001
7.461708e+002, 2.464916e+001
7.466530e+002, 2.493589e+001
7.471351e+002, 2.524141e+001
7.476172e+002, 2.563067e+001
7.480993e+002, 2.625919e+001
7.485814e+002, 2.695127e+001
7.490635e+002, 2.749207e+001
7.495457e+002, 2.762589e+001
7.500278e+002, 2.795532e+001
7.505099e+002, 2.870485e+001
7.509920e+002, 2.957871e+001
7.514741e+002, 3.021013e+001
7.519562e+002, 3.050872e+001
7.524384e+002, 3.095262e+001
7.529205e+002, 3.166269e+001
7.534026e+002, 3.240654e+001
7.538847e+002, 3.270237e+001
7.543668e+002, 3.268114e+001
7.548489e+002, 3.290158e+001
7.553311e+002, 3.366919e+001
7.558132e+002, 3.447700e+001
7.562953e+002, 3.478748e+001
7.567774e+002, 3.483851e+001
7.572595e+002, 3.504072e+001
7.577416e+002, 3.560788e+001
7.582238e+002, 3.624454e+001
7.587059e+002, 3.701509e+001
7.591880e+002, 3.778797e+001
7.596701e+002, 3.823747e+001
7.601522e+002, 3.821387e+001
7.606343e+002, 3.836904e+001
7.611165e+002, 3.889398e+001
7.615986e+002, 3.967699e+001
7.620807e+002, 4.046183e+001
7.625628e+002, 4.125986e+001
7.630449e+002, 4.213656e+001
7.635270e+002, 4.314112e+001
7.640092e+002, 4.421697e+001
7.644913e+002, 4.538099e+001
7.649734e+002, 4.658702e+001
7.654555e+002, 4.771112e+001
7.659376e+002, 4.853121e+001
7.664197e+002, 4.943114e+001
7.669019e+002, 5.054131e+001
7.673840e+002, 5.183471e+001
7.678661e+002, 5.321519e+001
7.683482e+002, 5.469123e+001
7.688303e+002, 5.621553e+001
7.693124e+002, 5.775731e+001
7.697946e+002, 5.931980e+001
7.702767e+002, 6.092852e+001
7.707588e+002, 6.259481e+001
7.712409e+002, 6.442596e+001
7.717230e+002, 6.647488e+001
7.722051e+002, 6.872869e+001
7.726873e+002, 7.125871e+001
7.731694e+002, 7.403461e+001
7.736515e+002, 7.675297e+001
7.741336e+002, 7.935079e+001
7.746157e+002, 8.185275e+001
7.750978e+002, 8.422287e+001
7.755800e+002, 8.647086e+001
7.760621e+002, 8.887341e+001
7.765442e+002, 9.146998e+001
7.770263e+002, 9.412313e+001
7.775084e+002, 9.678719e+001
7.779905e+002, 9.943654e+001
7.784727e+002, 1.019923e+002
7.789548e+002, 1.044371e+002
7.794369e+002, 1.064708e+002
7.799190e+002, 1.078138e+002
7.804011e+002, 1.086789e+002
7.808832e+002, 1.093607e+002
7.813654e+002, 1.098642e+002
7.818475e+002, 1.097815e+002
7.823296e+002, 1.086256e+002
7.828117e+002, 1.071528e+002
7.832938e+002, 1.057350e+002
7.837759e+002, 1.043897e+002
7.842581e+002, 1.028930e+002
7.847402e+002, 1.012171e+002
7.852223e+002, 9.951247e+001
7.857044e+002, 9.787503e+001
7.861865e+002, 9.629398e+001
7.866686e+002, 9.461292e+001
7.871508e+002, 9.282555e+001
7.876329e+002, 9.117241e+001
7.881150e+002, 8.967066e+001
7.885971e+002, 8.845987e+001
7.890792e+002, 8.767525e+001
7.895613e+002, 8.730965e+001
7.900435e+002, 8.743066e+001
7.905256e+002, 8.831223e+001
7.910077e+002, 8.946451e+001
7.914898e+002, 9.058718e+001
7.919719e+002, 9.158045e+001
7.924540e+002, 9.321859e+001
7.929362e+002, 9.553635e+001
7.934183e+002, 9.823096e+001
7.939004e+002, 1.008708e+002
7.943825e+002, 1.036836e+002
7.948646e+002, 1.071681e+002
7.953467e+002, 1.113875e+002
7.958289e+002, 1.164173e+002
7.963110e+002, 1.223396e+002
7.967931e+002, 1.290293e+002
7.972752e+002, 1.362507e+002
7.977573e+002, 1.439787e+002
7.982394e+002, 1.525644e+002
7.987216e+002, 1.620646e+002
7.992037e+002, 1.723709e+002
7.996858e+002, 1.833160e+002
8.001679e+002, 1.949172e+002
8.006500e+002, 2.073694e+002
8.011321e+002, 2.208581e+002
8.016143e+002, 2.350759e+002
8.020964e+002, 2.497909e+002
8.025785e+002, 2.650084e+002
8.030606e+002, 2.807761e+002
8.035427e+002, 2.970473e+002
8.040248e+002, 3.146396e+002
8.045070e+002, 3.340395e+002
8.049891e+002, 3.551408e+002
8.054712e+002, 3.777953e+002
8.059533e+002, 4.022967e+002
8.064354e+002, 4.282661e+002
8.069175e+002, 4.556086e+002
8.073997e+002, 4.845076e+002
8.078818e+002, 5.150469e+002
8.083639e+002, 5.469960e+002
8.088460e+002, 5.819161e+002
8.093281e+002, 6.200509e+002
8.098102e+002, 6.586989e+002
8.102924e+002, 6.979662e+002
8.107745e+002, 7.351005e+002
8.112566e+002, 7.665868e+002
8.117387e+002, 7.916263e+002
8.122208e+002, 8.115529e+002
8.127029e+002, 8.261254e+002
8.131851e+002, 8.362034e+002
8.136672e+002, 8.416303e+002
8.141493e+002, 8.410019e+002
8.146314e+002, 8.420143e+002
8.151135e+002, 8.438718e+002
8.155956e+002, 8.493505e+002
8.160778e+002, 8.590964e+002
8.165599e+002, 8.740277e+002
8.170420e+002, 8.983308e+002
8.175241e+002, 9.323847e+002
8.180062e+002, 9.751038e+002
8.184883e+002, 1.026887e+003
8.189705e+002, 1.086782e+003
8.194526e+002, 1.154647e+003
8.199347e+002, 1.230948e+003
8.204168e+002, 1.308828e+003
8.208989e+002, 1.393408e+003
8.213810e+002, 1.473164e+003
8.218632e+002, 1.545298e+003
8.223453e+002, 1.611277e+003
8.228274e+002, 1.655987e+003
8.233095e+002, 1.678904e+003
8.237916e+002, 1.679797e+003
8.242737e+002, 1.653289e+003
8.247559e+002, 1.605935e+003
8.252380e+002, 1.545247e+003
8.257201e+002, 1.472940e+003
8.262022e+002, 1.405695e+003
8.266843e+002, 1.345240e+003
8.271664e+002, 1.300648e+003
8.276486e+002, 1.278367e+003
8.281307e+002, 1.280512e+003
8.286128e+002, 1.299390e+003
8.290949e+002, 1.336491e+003
8.295770e+002, 1.387774e+003
8.300591e+002, 1.453839e+003
8.305413e+002, 1.533548e+003
8.310234e+002, 1.620000e+003
8.315055e+002, 1.713032e+003
8.319876e+002, 1.801083e+003
8.324697e+002, 1.897424e+003
8.329518e+002, 1.971480e+003
8.334340e+002, 1.996770e+003
8.339161e+002, 1.970553e+003
8.343982e+002, 1.887769e+003
8.348803e+002, 1.712521e+003
8.353624e+002, 1.511502e+003
8.358445e+002, 1.305253e+003
8.363267e+002, 1.096022e+003
8.368088e+002, 9.162899e+002
8.372909e+002, 7.679880e+002
8.377730e+002, 6.450865e+002
8.382551e+002, 5.479592e+002
8.387372e+002, 4.726699e+002
8.392194e+002, 4.119956e+002
8.397015e+002, 3.650229e+002
8.401836e+002, 3.264834e+002
8.406657e+002, 2.955803e+002
8.411478e+002, 2.701121e+002
8.416299e+002, 2.500771e+002
8.421121e+002, 2.350204e+002
8.425942e+002, 2.219650e+002
8.430763e+002, 2.108888e+002
8.435584e+002, 2.010692e+002
8.440405e+002, 1.923165e+002
8.445226e+002, 1.846353e+002
8.450048e+002, 1.783629e+002
8.454869e+002, 1.734171e+002
8.459690e+002, 1.685288e+002
8.464511e+002, 1.632170e+002
8.469332e+002, 1.575825e+002
8.474153e+002, 1.519180e+002
8.478975e+002, 1.460514e+002
8.483796e+002, 1.394922e+002
8.488617e+002, 1.313469e+002
8.493438e+002, 1.232747e+002
8.498259e+002, 1.155401e+002
8.503080e+002, 1.082923e+002
8.507902e+002, 1.020405e+002
8.512723e+002, 9.690958e+001
8.517544e+002, 9.234795e+001
8.522365e+002, 8.823866e+001
8.527186e+002, 8.456888e+001
8.532007e+002, 8.139378e+001
8.536829e+002, 7.864465e+001
8.541650e+002, 7.609388e+001
8.546471e+002, 7.336520e+001
8.551292e+002, 7.114871e+001
8.556113e+002, 7.007856e+001
8.560934e+002, 6.967950e+001
8.565756e+002, 6.903548e+001
8.570577e+002, 6.785052e+001
8.575398e+002, 6.694638e+001
8.580219e+002, 6.647388e+001
8.585040e+002, 6.619759e+001
8.589861e+002, 6.577618e+001
8.594683e+002, 6.522243e+001
8.599504e+002, 6.459352e+001
8.604325e+002, 6.388212e+001
8.609146e+002, 6.318565e+001
8.613967e+002, 6.266585e+001
8.618788e+002, 6.219301e+001
8.623610e+002, 6.159413e+001
8.628431e+002, 6.074022e+001
8.633252e+002, 5.993092e+001
8.638073e+002, 5.924537e+001
8.642894e+002, 5.856581e+001
8.647715e+002, 5.779996e+001
8.652537e+002, 5.694962e+001
8.657358e+002, 5.599076e+001
8.662179e+002, 5.490920e+001
8.667000e+002, 5.375266e+001
8.671821e+002, 5.242421e+001
8.676642e+002, 5.110627e+001
8.681464e+002, 5.013745e+001
8.686285e+002, 4.960616e+001
8.691106e+002, 4.906279e+001
8.695927e+002, 4.835535e+001
8.700748e+002, 4.754718e+001
8.705569e+002, 4.667728e+001
8.710391e+002, 4.573671e+001
8.715212e+002, 4.483414e+001
8.720033e+002, 4.399962e+001
8.724854e+002, 4.308808e+001
8.729675e+002, 4.182808e+001
8.734496e+002, 4.044935e+001
8.739318e+002, 3.965967e+001
8.744139e+002, 3.942631e+001
8.748960e+002, 3.911565e+001
8.753781e+002, 3.831756e+001
8.758602e+002, 3.735641e+001
8.763423e+002, 3.639172e+001
8.768245e+002, 3.544552e+001
8.773066e+002, 3.456858e+001
8.777887e+002, 3.379396e+001
8.782708e+002, 3.301347e+001
8.787529e+002, 3.215452e+001
8.792350e+002, 3.127440e+001
8.797172e+002, 3.053732e+001
8.801993e+002, 2.994756e+001
8.806814e+002, 2.946609e+001
8.811635e+002, 2.914102e+001
8.816456e+002, 2.885628e+001
8.821277e+002, 2.850099e+001
8.826099e+002, 2.811389e+001
8.830920e+002, 2.781555e+001
8.835741e+002, 2.777773e+001
8.840562e+002, 2.760431e+001
8.845383e+002, 2.716152e+001
8.850204e+002, 2.660134e+001
8.855026e+002, 2.626353e+001
8.859847e+002, 2.613596e+001
8.864668e+002, 2.605778e+001
8.869489e+002, 2.601567e+001
8.874310e+002, 2.592800e+001
8.879131e+002, 2.563290e+001
8.883953e+002, 2.525742e+001
8.888774e+002, 2.499319e+001
8.893595e+002, 2.499133e+001
8.898416e+002, 2.495719e+001
8.903237e+002, 2.482378e+001
8.908058e+002, 2.466391e+001
8.912880e+002, 2.455401e+001
8.917701e+002, 2.449952e+001
8.922522e+002, 2.442698e+001
8.927343e+002, 2.432422e+001
8.932164e+002, 2.423813e+001
8.936985e+002, 2.419271e+001
8.941807e+002, 2.420581e+001
8.946628e+002, 2.433680e+001
8.951449e+002, 2.461966e+001
8.956270e+002, 2.482453e+001
8.961091e+002, 2.477430e+001
8.965912e+002, 2.470391e+001
8.970734e+002, 2.475993e+001
8.975555e+002, 2.495407e+001
8.980376e+002, 2.511913e+001
8.985197e+002, 2.524596e+001
8.990018e+002, 2.539367e+001
8.994839e+002, 2.560096e+001
8.999661e+002, 2.585718e+001
9.004482e+002, 2.613407e+001
9.009303e+002, 2.643853e+001
9.014124e+002, 2.679965e+001
9.018945e+002, 2.727380e+001
9.023766e+002, 2.777052e+001
9.028588e+002, 2.824577e+001
9.033409e+002, 2.870598e+001
9.038230e+002, 2.921539e+001
9.043051e+002, 2.978931e+001
9.047872e+002, 3.036443e+001
9.052693e+002, 3.091780e+001
9.057515e+002, 3.147205e+001
9.062336e+002, 3.210503e+001
9.067157e+002, 3.278297e+001
9.071978e+002, 3.340416e+001
9.076799e+002, 3.378395e+001
9.081620e+002, 3.427587e+001
9.086442e+002, 3.522248e+001
9.091263e+002, 3.632615e+001
9.096084e+002, 3.708035e+001
9.100905e+002, 3.730094e+001
9.105726e+002, 3.765865e+001
9.110547e+002, 3.824690e+001
9.115369e+002, 3.892453e+001
9.120190e+002, 3.951756e+001
9.125011e+002, 4.005042e+001
9.129832e+002, 4.058110e+001
9.134653e+002, 4.111314e+001
9.139474e+002, 4.168867e+001
9.144296e+002, 4.236366e+001
9.149117e+002, 4.307388e+001
9.153938e+002, 4.379850e+001
9.158759e+002, 4.459512e+001
9.163580e+002, 4.511613e+001
9.168401e+002, 4.529269e+001
9.173223e+002, 4.536175e+001
9.178044e+002, 4.552772e+001
9.182865e+002, 4.571898e+001
9.187686e+002, 4.570124e+001
9.192507e+002, 4.546956e+001
9.197328e+002, 4.500460e+001
9.202150e+002, 4.428216e+001
9.206971e+002, 4.333426e+001
9.211792e+002, 4.206725e+001
9.216613e+002, 4.053378e+001
9.221434e+002, 3.916367e+001
9.226255e+002, 3.801040e+001
9.231077e+002, 3.689805e+001
9.235898e+002, 3.576245e+001
9.240719e+002, 3.465114e+001
9.245540e+002, 3.365072e+001
9.250361e+002, 3.274709e+001
9.255182e+002, 3.191536e+001
9.260004e+002, 3.120057e+001
9.264825e+002, 3.044665e+001
9.269646e+002, 2.938368e+001
9.274467e+002, 2.826672e+001
9.279288e+002, 2.752203e+001
9.284109e+002, 2.741428e+001
9.288931e+002, 2.714562e+001
9.293752e+002, 2.664824e+001
9.298573e+002, 2.605294e+001
9.303394e+002, 2.547469e+001
9.308215e+002, 2.492043e+001
9.313036e+002, 2.437590e+001
9.317858e+002, 2.383278e+001
9.322679e+002, 2.339233e+001
9.327500e+002, 2.323432e+001
9.332321e+002, 2.312035e+001
9.337142e+002, 2.284912e+001
9.341964e+002, 2.238124e+001
9.346785e+002, 2.195801e+001
9.351606e+002, 2.160246e+001
9.356427e+002, 2.124175e+001
9.361248e+002, 2.081619e+001
9.366069e+002, 2.036341e+001
9.370891e+002, 2.004120e+001
9.375712e+002, 1.982987e+001
9.380533e+002, 1.965354e+001
9.385354e+002, 1.950504e+001
9.390175e+002, 1.934369e+001
9.394996e+002, 1.915698e+001
9.399818e+002, 1.893812e+001
9.404639e+002, 1.867423e+001
9.409460e+002, 1.835563e+001
9.414281e+002, 1.801794e+001
9.419102e+002, 1.764659e+001
9.423923e+002, 1.730351e+001
9.428745e+002, 1.712576e+001
9.433566e+002, 1.705817e+001
9.438387e+002, 1.695429e+001
9.443208e+002, 1.678965e+001
9.448029e+002, 1.654996e+001
9.452850e+002, 1.607030e+001
9.457672e+002, 1.560982e+001
9.462493e+002, 1.545623e+001
9.467314e+002, 1.574192e+001
9.472135e+002, 1.577964e+001
9.476956e+002, 1.551855e+001
9.481777e+002, 1.518456e+001
9.486599e+002, 1.495615e+001
9.491420e+002, 1.478869e+001
9.496241e+002, 1.453219e+001
9.501062e+002, 1.420855e+001
9.505883e+002, 1.401378e+001
9.510704e+002, 1.417160e+001
9.515526e+002, 1.436891e+001
9.520347e+002, 1.445355e+001
9.525168e+002, 1.444495e+001
9.529989e+002, 1.442362e+001
9.534810e+002, 1.439951e+001
9.539631e+002, 1.430705e+001
9.544453e+002, 1.410335e+001
9.549274e+002, 1.386584e+001
9.554095e+002, 1.372233e+001
9.558916e+002, 1.364409e+001
9.563737e+002, 1.356707e+001
9.568558e+002, 1.347202e+001
9.573380e+002, 1.337417e+001
9.578201e+002, 1.324389e+001
9.583022e+002, 1.313716e+001
9.587843e+002, 1.310817e+001
9.592664e+002, 1.316708e+001
9.597485e+002, 1.327855e+001
9.602307e+002, 1.345905e+001
9.607128e+002, 1.356076e+001
9.611949e+002, 1.335243e+001
9.616770e+002, 1.303374e+001
9.621591e+002, 1.295134e+001
9.626412e+002, 1.310458e+001
9.631234e+002, 1.309765e+001
9.636055e+002, 1.254988e+001
9.640876e+002, 1.208789e+001
9.645697e+002, 1.195074e+001
9.650518e+002, 1.207031e+001
9.655339e+002, 1.217493e+001
9.660161e+002, 1.226440e+001
9.664982e+002, 1.225651e+001
9.669803e+002, 1.207696e+001
9.674624e+002, 1.185702e+001
9.679445e+002, 1.176480e+001
9.684266e+002, 1.173047e+001
9.689088e+002, 1.164073e+001
9.693909e+002, 1.135501e+001
9.698730e+002, 1.117514e+001
9.703551e+002, 1.116457e+001
9.708372e+002, 1.120378e+001
9.713193e+002, 1.114427e+001
9.718015e+002, 1.100579e+001
9.722836e+002, 1.100883e+001
9.727657e+002, 1.117559e+001
9.732478e+002, 1.129595e+001
9.737299e+002, 1.116099e+001
9.742120e+002, 1.094419e+001
9.746942e+002, 1.076679e+001
9.751763e+002, 1.064196e+001
9.756584e+002, 1.059602e+001
9.761405e+002, 1.065242e+001
9.766226e+002, 1.074410e+001
9.771047e+002, 1.089946e+001
9.775869e+002, 1.103050e+001
9.780690e+002, 1.079367e+001
9.785511e+002, 1.029782e+001
9.790332e+002, 9.946173e+000
9.795153e+002, 9.938788e+000
9.799974e+002, 1.005554e+001
9.804796e+002, 1.026990e+001
9.809617e+002, 1.049744e+001
9.814438e+002, 1.061419e+001
9.819259e+002, 1.057108e+001
9.824080e+002, 1.058488e+001
9.828901e+002, 1.069203e+001
9.833723e+002, 1.075775e+001
9.838544e+002, 1.059288e+001
9.843365e+002, 1.030956e+001
9.848186e+002, 1.011103e+001
9.853007e+002, 1.001409e+001
9.857828e+002, 9.964419e+000
9.862650e+002, 9.896810e+000
9.867471e+002, 9.922578e+000
9.872292e+002, 1.015010e+001
9.877113e+002, 1.051085e+001
9.881934e+002, 1.062931e+001
9.886755e+002, 1.049774e+001
9.891577e+002, 1.028917e+001
9.896398e+002, 1.001515e+001
9.901219e+002, 9.788438e+000
9.906040e+002, 9.803094e+000
9.910861e+002, 9.946193e+000
9.915682e+002, 1.002528e+001
9.920504e+002, 9.872162e+000
9.925325e+002, 9.835446e+000
9.930146e+002, 9.992982e+000
9.934967e+002, 1.020097e+001
9.939788e+002, 1.031908e+001
9.944609e+002, 1.036102e+001
9.949431e+002, 1.049366e+001
9.954252e+002, 1.072452e+001
9.959073e+002, 1.082258e+001
9.963894e+002, 1.041965e+001
9.968715e+002, 9.987730e+000
9.973536e+002, 9.888640e+000
9.978358e+002, 1.012636e+001
9.983179e+002, 1.040017e+001
9.988000e+002, 1.077946e+001
9.992821e+002, 1.098716e+001
9.997642e+002, 1.091702e+001
1.000246e+003, 1.066993e+001
1.000728e+003, 1.035656e+001
1.001211e+003, 1.003929e+001
1.001693e+003, 9.906088e+000
1.002175e+003, 1.009739e+001
1.002657e+003, 1.029254e+001
1.003139e+003, 1.035153e+001
1.003621e+003, 1.035161e+001
1.004103e+003, 1.036725e+001
1.004585e+003, 1.041006e+001
1.005068e+003, 1.038057e+001
1.005550e+003, 1.026759e+001
1.006032e+003, 1.018847e+001
1.006514e+003, 1.027754e+001
1.006996e+003, 1.042135e+001
1.007478e+003, 1.049141e+001
1.007960e+003, 1.048716e+001
1.008442e+003, 1.044190e+001
1.008924e+003, 1.030381e+001
1.009407e+003, 1.020351e+001
1.009889e+003, 1.016638e+001
1.010371e+003, 1.018110e+001
1.010853e+003, 1.023975e+001
1.011335e+003, 1.033477e+001
1.011817e+003, 1.040568e+001
1.012299e+003, 1.043109e+001
1.012781e+003, 1.046568e+001
1.013263e+003, 1.060207e+001
1.013746e+003, 1.073596e+001
1.014228e+003, 1.074298e+001
1.014710e+003, 1.057513e+001
1.015192e+003, 1.052028e+001
1.015674e+003, 1.060835e+001
1.016156e+003, 1.071369e+001
1.016638e+003, 1.075385e+001
1.017120e+003, 1.076155e+001
1.017603e+003, 1.081142e+001
1.018085e+003, 1.089256e+001
1.018567e+003, 1.096528e+001
1.019049e+003, 1.097861e+001
1.019531e+003, 1.102192e+001
1.020013e+003, 1.113864e+001
1.020495e+003, 1.128794e+001
1.020977e+003, 1.145318e+001
1.021459e+003, 1.163894e+001
1.021942e+003, 1.156546e+001
1.022424e+003, 1.116036e+001
1.022906e+003, 1.078537e+001
1.023388e+003, 1.076400e+001
1.023870e+003, 1.094640e+001
1.024352e+003, 1.125225e+001
1.024834e+003, 1.168805e+001
1.025316e+003, 1.189758e+001
1.025799e+003, 1.174154e+001
1.026281e+003, 1.162062e+001
1.026763e+003, 1.173256e+001
1.027245e+003, 1.195378e+001
1.027727e+003, 1.193786e+001
1.028209e+003, 1.175039e+001
1.028691e+003, 1.160727e+001
1.029173e+003, 1.158076e+001
1.029656e+003, 1.163489e+001
1.030138e+003, 1.186951e+001
1.030620e+003, 1.210182e+001
1.031102e+003, 1.211370e+001
1.031584e+003, 1.183683e+001
1.032066e+003, 1.173390e+001
1.032548e+003, 1.182417e+001
1.033030e+003, 1.198644e+001
1.033512e+003, 1.213650e+001
1.033995e+003, 1.229069e+001
1.034477e+003, 1.250186e+001
1.034959e+003, 1.274774e+001
1.035441e+003, 1.288471e+001
1.035923e+003, 1.272998e+001
1.036405e+003, 1.270318e+001
1.036887e+003, 1.294829e+001
1.037369e+003, 1.329209e+001
1.037851e+003, 1.336921e+001
1.038334e+003, 1.324724e+001
1.038816e+003, 1.319107e+001
1.039298e+003, 1.326780e+001
1.039780e+003, 1.338046e+001
1.040262e+003, 1.346659e+001
1.040744e+003, 1.356877e+001
1.041226e+003, 1.373806e+001
1.041708e+003, 1.398408e+001
1.042191e+003, 1.414058e+001
1.042673e+003, 1.420292e+001
1.043155e+003, 1.423336e+001
1.043637e+003, 1.423950e+001
1.044119e+003, 1.425703e+001
1.044601e+003, 1.437146e+001
1.045083e+003, 1.453343e+001
1.045565e+003, 1.462576e+001
1.046047e+003, 1.449187e+001
1.046530e+003, 1.447338e+001
1.047012e+003, 1.464776e+001
1.047494e+003, 1.487071e+001
1.047976e+003, 1.496740e+001
1.048458e+003, 1.496925e+001
1.048940e+003, 1.505722e+001
1.049422e+003, 1.524009e+001
1.049904e+003, 1.531958e+001
1.050386e+003, 1.500540e+001
1.050869e+003, 1.470427e+001
1.051351e+003, 1.474277e+001
1.051833e+003, 1.501505e+001
1.052315e+003, 1.508224e+001
1.052797e+003, 1.492532e+001
1.053279e+003, 1.469165e+001
1.053761e+003, 1.439567e+001
1.054243e+003, 1.409781e+001
1.054726e+003, 1.385858e+001
1.055208e+003, 1.367173e+001
1.055690e+003, 1.352789e+001
1.056172e+003, 1.342310e+001
1.056654e+003, 1.338815e+001
1.057136e+003, 1.351484e+001
1.057618e+003, 1.354158e+001
1.058100e+003, 1.324247e+001
1.058583e+003, 1.272961e+001
1.059065e+003, 1.243735e+001
1.059547e+003, 1.233751e+001
1.060029e+003, 1.229931e+001
1.060511e+003, 1.228874e+001
1.060993e+003, 1.228975e+001
1.061475e+003, 1.234238e+001
1.061957e+003, 1.237761e+001
1.062439e+003, 1.228625e+001
1.062922e+003, 1.205000e+001
1.063404e+003, 1.185489e+001
1.063886e+003, 1.171987e+001
1.064368e+003, 1.159234e+001
1.064850e+003, 1.137941e+001
1.065332e+003, 1.118191e+001
1.065814e+003, 1.115349e+001
1.066296e+003, 1.128042e+001
1.066778e+003, 1.124804e+001
1.067261e+003, 1.094972e+001
1.067743e+003, 1.067411e+001
1.068225e+003, 1.048263e+001
1.068707e+003, 1.037231e+001
1.069189e+003, 1.043134e+001
1.069671e+003, 1.055695e+001
1.070153e+003, 1.048561e+001
1.070635e+003, 1.010254e+001
1.071118e+003, 9.714727e+000
1.071600e+003, 9.387210e+000
1.072082e+003, 9.161998e+000
1.072564e+003, 9.096548e+000
1.073046e+003, 9.173342e+000
1.073528e+003, 9.163164e+000
1.074010e+003, 9.070577e+000
1.074492e+003, 8.957541e+000
1.074974e+003, 8.875486e+000
1.075457e+003, 8.765031e+000
1.075939e+003, 8.540403e+000
1.076421e+003, 8.272429e+000
1.076903e+003, 8.091265e+000
1.077385e+003, 8.070585e+000
1.077867e+003, 7.900309e+000
1.078349e+003, 7.522512e+000
1.078831e+003, 7.189988e+000
1.079313e+003, 7.209457e+000
1.079796e+003, 7.383541e+000
1.080278e+003, 7.412517e+000
1.080760e+003, 7.301557e+000
1.081242e+003, 7.202788e+000
1.081724e+003, 7.177143e+000
1.082206e+003, 7.152949e+000
1.082688e+003, 7.128338e+000
1.083170e+003, 7.084403e+000
1.083652e+003, 6.970537e+000
1.084135e+003, 6.805322e+000
1.084617e+003, 6.647941e+000
1.085099e+003, 6.500518e+000
1.085581e+003, 6.431378e+000
1.086063e+003, 6.597304e+000
1.086545e+003, 6.745355e+000
1.087027e+003, 6.693460e+000
1.087509e+003, 6.467835e+000
1.087992e+003, 6.338738e+000
1.088474e+003, 6.306890e+000
1.088956e+003, 6.314730e+000
1.089438e+003, 6.369714e+000
1.089920e+003, 6.400787e+000
1.090402e+003, 6.255734e+000
1.090884e+003, 6.079391e+000
1.091366e+003, 6.093887e+000
1.091849e+003, 6.469504e+000
1.092331e+003, 6.632726e+000
1.092813e+003, 6.539414e+000
1.093295e+003, 6.383090e+000
1.093777e+003, 6.281760e+000
1.094259e+003, 6.225564e+000
1.094741e+003, 6.202929e+000
1.095223e+003, 6.208363e+000
1.095705e+003, 6.223993e+000
1.096188e+003, 6.254505e+000
1.096670e+003, 6.280426e+000
1.097152e+003, 6.305738e+000
1.097634e+003, 6.316095e+000
1.098116e+003, 6.284904e+000
1.098598e+003, 6.221089e+000
1.099080e+003, 6.169883e+000
1.099562e+003, 6.134995e+000
1.100044e+003, 6.093749e+000
1.100527e+003, 6.024200e+000
1.101009e+003, 5.951617e+000
1.101491e+003, 5.863020e+000
1.101973e+003, 5.786233e+000
1.102455e+003, 5.856345e+000
1.102937e+003, 6.076493e+000
1.103419e+003, 6.153588e+000
1.103901e+003, 5.981970e+000
1.104384e+003, 5.782457e+000
1.104866e+003, 5.795465e+000
1.105348e+003, 5.872269e+000
1.105830e+003, 5.839570e+000
1.106312e+003, 5.655324e+000
1.106794e+003, 5.625848e+000
1.107276e+003, 5.791439e+000
1.107758e+003, 5.958185e+000
1.108240e+003, 6.071092e+000
1.108723e+003, 6.094307e+000
1.109205e+003, 5.880391e+000
1.109687e+003, 5.557238e+000
1.110169e+003, 5.375801e+000
1.110651e+003, 5.528479e+000
1.111133e+003, 5.596622e+000
1.111615e+003, 5.531118e+000
1.112097e+003, 5.413869e+000
1.112579e+003, 5.245102e+000
1.113062e+003, 5.081738e+000
1.113544e+003, 5.211367e+000
1.114026e+003, 5.562470e+000
1.114508e+003, 5.777899e+000
1.114990e+003, 5.534879e+000
1.115472e+003, 5.313295e+000
1.115954e+003, 5.277159e+000
1.116436e+003, 5.330705e+000
1.116919e+003, 5.361196e+000
1.117401e+003, 5.370997e+000
1.117883e+003, 5.393021e+000
1.118365e+003, 5.430231e+000
1.118847e+003, 5.458560e+000
1.119329e+003, 5.477356e+000
1.119811e+003, 5.466086e+000
1.120293e+003, 5.378194e+000
1.120776e+003, 5.249204e+000
1.121258e+003, 5.193094e+000
1.121740e+003, 5.211251e+000
1.122222e+003, 5.315139e+000
1.122704e+003, 5.539652e+000
1.123186e+003, 5.707486e+000
1.123668e+003, 5.569837e+000
1.124150e+003, 5.324895e+000
1.124632e+003, 5.179853e+000
1.125115e+003, 5.169962e+000
1.125597e+003, 5.166680e+000
1.126079e+003, 5.178308e+000
1.126561e+003, 5.160104e+000
1.127043e+003, 5.083303e+000
1.127525e+003, 4.986606e+000
1.128007e+003, 4.954048e+000
1.128489e+003, 4.940728e+000
1.128971e+003, 4.857495e+000
1.129454e+003, 4.622429e+000
1.129936e+003, 4.491499e+000
1.130418e+003, 4.527489e+000
1.130900e+003, 4.587636e+000
1.131382e+003, 4.573191e+000
1.131864e+003, 4.521999e+000
1.132346e+003, 4.543509e+000
1.132828e+003, 4.629049e+000
1.133311e+003, 4.750015e+000
1.133793e+003, 4.996229e+000
1.134275e+003, 5.132683e+000
1.134757e+003, 5.020041e+000
1.135239e+003, 4.878859e+000
1.135721e+003, 4.951416e+000
1.136203e+003, 5.200624e+000
1.136685e+003, 5.287433e+000
1.137167e+003, 5.218796e+000
1.137650e+003, 5.172829e+000
1.138132e+003, 5.314525e+000
1.138614e+003, 5.441884e+000
1.139096e+003, 5.378671e+000
1.139578e+003, 5.275407e+000
1.140060e+003, 5.426218e+000
1.140542e+003, 5.841507e+000
1.141024e+003, 6.024033e+000
1.141506e+003, 5.912740e+000
1.141989e+003, 5.749788e+000
1.142471e+003, 5.739654e+000
1.142953e+003, 5.741945e+000
1.143435e+003, 5.588075e+000
1.143917e+003, 5.341608e+000
1.144399e+003, 5.347787e+000
1.144881e+003, 5.661461e+000
1.145363e+003, 5.834818e+000
1.145846e+003, 5.737576e+000
1.146328e+003, 5.604982e+000
1.146810e+003, 5.739187e+000
1.147292e+003, 5.946297e+000
1.147774e+003, 6.001145e+000
1.148256e+003, 5.861478e+000
1.148738e+003, 5.816933e+000
1.149220e+003, 5.895938e+000
1.149703e+003, 5.980345e+000
1.150185e+003, 6.020758e+000
1.150667e+003, 6.062297e+000
1.151149e+003, 6.218795e+000
1.151631e+003, 6.405299e+000
1.152113e+003, 6.476601e+000
1.152595e+003, 6.358374e+000
1.153077e+003, 6.281682e+000
1.153559e+003, 6.280374e+000
1.154042e+003, 6.280095e+000
1.154524e+003, 6.253287e+000
1.155006e+003, 6.191822e+000
1.155488e+003, 6.030059e+000
1.155970e+003, 5.822391e+000
1.156452e+003, 5.710990e+000
1.156934e+003, 5.827193e+000
1.157416e+003, 5.877103e+000
1.157898e+003, 5.771094e+000
1.158381e+003, 5.681335e+000
1.158863e+003, 5.777347e+000
1.159345e+003, 5.995737e+000
1.159827e+003, 6.092303e+000
1.160309e+003, 6.079163e+000
1.160791e+003, 6.002556e+000
1.161273e+003, 5.771839e+000
1.161755e+003, 5.632581e+000
1.162238e+003, 5.691025e+000
1.162720e+003, 5.810304e+000
1.163202e+003, 5.853281e+000
1.163684e+003, 5.828219e+000
1.164166e+003, 5.767732e+000
1.164648e+003, 5.681948e+000
1.165130e+003, 5.648639e+000
1.165612e+003, 5.779824e+000
1.166094e+003, 5.896208e+000
1.166577e+003, 5.943244e+000
1.167059e+003, 5.915244e+000
1.167541e+003, 5.742781e+000
1.168023e+003, 5.447728e+000
1.168505e+003, 5.369757e+000
1.168987e+003, 5.544619e+000
1.169469e+003, 5.684628e+000
1.169951e+003, 5.534157e+000
1.170433e+003, 5.342611e+000
1.170916e+003, 5.254030e+000
1.171398e+003, 5.239715e+000
1.171880e+003, 5.233892e+000
1.172362e+003, 5.236371e+000
1.172844e+003, 5.230825e+000
1.173326e+003, 5.210463e+000
1.173808e+003, 5.210849e+000
1.174290e+003, 5.308825e+000
1.174773e+003, 5.399802e+000
1.175255e+003, 5.344515e+000
1.175737e+003, 5.194943e+000
1.176219e+003, 5.290019e+000
1.176701e+003, 5.649869e+000
1.177183e+003, 5.822904e+000
1.177665e+003, 5.645983e+000
1.178147e+003, 5.397836e+000
1.178630e+003, 5.342023e+000
1.179112e+003, 5.348824e+000
1.179594e+003, 5.276232e+000
1.180076e+003, 5.117733e+000
1.180558e+003, 5.047202e+000
1.181040e+003, 5.070029e+000
1.181522e+003, 5.131500e+000
1.182004e+003, 5.235749e+000
1.182486e+003, 5.315568e+000
1.182969e+003, 5.271680e+000
1.183451e+003, 5.176229e+000
1.183933e+003, 5.111443e+000
1.184415e+003, 5.084921e+000
1.184897e+003, 5.113493e+000
1.185379e+003, 5.215460e+000
1.185861e+003, 5.247955e+000
1.186343e+003, 5.058261e+000
1.186825e+003, 4.869802e+000
1.187308e+003, 5.048971e+000
1.187790e+003, 5.371480e+000
1.188272e+003, 5.460925e+000
1.188754e+003, 5.135972e+000
1.189236e+003, 4.991144e+000
1.189718e+003, 5.054076e+000
1.190200e+003, 5.160505e+000
1.190682e+003, 5.224364e+000
1.191165e+003, 5.255954e+000
1.191647e+003, 5.228538e+000
1.192129e+003, 5.187758e+000
1.192611e+003, 5.235474e+000
1.193093e+003, 5.483005e+000
1.193575e+003, 5.597863e+000
1.194057e+003, 5.557536e+000
1.194539e+003, 5.458333e+000
1.195021e+003, 5.310043e+000
1.195504e+003, 5.193535e+000
1.195986e+003, 5.279647e+000
1.196468e+003, 5.490056e+000
1.196950e+003, 5.586230e+000
1.197432e+003, 5.453401e+000
1.197914e+003, 5.380311e+000
1.198396e+003, 5.395216e+000
1.198878e+003, 5.430886e+000
1.199360e+003, 5.441142e+000
1.199843e+003, 5.421305e+000
1.200325e+003, 5.342758e+000
1.200807e+003, 5.224226e+000
1.201289e+003, 5.138397e+000
1.201771e+003, 5.052574e+000
1.202253e+003, 5.131524e+000
1.202735e+003, 5.454643e+000
1.203217e+003, 5.746892e+000
1.203700e+003, 5.608600e+000
1.204182e+003, 5.301372e+000
1.204664e+003, 5.210969e+000
1.205146e+003, 5.329752e+000
1.205628e+003, 5.422646e+000
1.206110e+003, 5.446306e+000
1.206592e+003, 5.459222e+000
1.207074e+003, 5.475429e+000
1.207557e+003, 5.468758e+000
1.208039e+003, 5.379743e+000
1.208521e+003, 5.261912e+000
1.209003e+003, 5.169517e+000
1.209485e+003, 5.112978e+000
1.209967e+003, 5.173303e+000
1.210449e+003, 5.422561e+000
1.210931e+003, 5.627561e+000
1.211413e+003, 5.745893e+000
1.211896e+003, 5.790937e+000
1.212378e+003, 5.758819e+000
1.212860e+003, 5.680361e+000
1.213342e+003, 5.597531e+000
1.213824e+003, 5.514753e+000
1.214306e+003, 5.423902e+000
1.214788e+003, 5.316855e+000
1.215270e+003, 5.212285e+000
1.215752e+003, 5.093703e+000
1.216235e+003, 5.034096e+000
1.216717e+003, 5.237516e+000
1.217199e+003, 5.518076e+000
1.217681e+003, 5.566253e+000
1.218163e+003, 5.317775e+000
1.218645e+003, 5.224677e+000
1.219127e+003, 5.389717e+000
1.219609e+003, 5.484234e+000
1.220092e+003, 5.379291e+000
1.220574e+003, 5.213132e+000
1.221056e+003, 5.181853e+000
1.221538e+003, 5.227485e+000
1.222020e+003, 5.280024e+000
1.222502e+003, 5.332829e+000
1.222984e+003, 5.320518e+000
1.223466e+003, 5.199999e+000
1.223948e+003, 5.161870e+000
1.224431e+003, 5.307200e+000
1.224913e+003, 5.503523e+000
1.225395e+003, 5.570165e+000
1.225877e+003, 5.558046e+000
1.226359e+003, 5.540558e+000
1.226841e+003, 5.535384e+000
1.227323e+003, 5.472618e+000
1.227805e+003, 5.335466e+000
1.228287e+003, 5.205969e+000
1.228770e+003, 5.108795e+000
1.229252e+003, 5.053625e+000
1.229734e+003, 5.102501e+000
1.230216e+003, 5.178199e+000
1.230698e+003, 5.146848e+000
1.231180e+003, 4.936228e+000
1.231662e+003, 4.967542e+000
1.232144e+003, 5.303692e+000
1.232627e+003, 5.509043e+000
1.233109e+003, 5.307847e+000
1.233591e+003, 5.011571e+000
1.234073e+003, 5.000100e+000
1.234555e+003, 5.120496e+000
1.235037e+003, 5.163262e+000
1.235519e+003, 5.093472e+000
1.236001e+003, 5.038980e+000
1.236484e+003, 5.001178e+000
1.236966e+003, 4.970256e+000
1.237448e+003, 4.940721e+000
1.237930e+003, 4.917633e+000
1.238412e+003, 4.875160e+000
1.238894e+003, 4.858302e+000
1.239376e+003, 4.960481e+000
1.239858e+003, 5.220932e+000
1.240340e+003, 5.266106e+000
1.240823e+003, 5.083322e+000
1.241305e+003, 4.958620e+000
1.241787e+003, 5.120561e+000
1.242269e+003, 5.292264e+000
1.242751e+003, 5.174860e+000
1.243233e+003, 4.966786e+000
1.243715e+003, 4.920424e+000
1.244197e+003, 5.054354e+000
1.244679e+003, 5.219881e+000
1.245162e+003, 5.416036e+000
1.245644e+003, 5.537232e+000
1.246126e+003, 5.527871e+000
1.246608e+003, 5.425871e+000
1.247090e+003, 5.123439e+000
1.247572e+003, 4.835112e+000
1.248054e+003, 4.829736e+000
1.248536e+003, 5.122818e+000
1.249019e+003, 5.217106e+000
1.249501e+003, 5.131389e+000
1.249983e+003, 5.070977e+000
1.250465e+003, 5.181018e+000
1.250947e+003, 5.304988e+000
1.251429e+003, 5.379217e+000
1.251911e+003, 5.415067e+000
1.252393e+003, 5.434349e+000
1.252875e+003, 5.433270e+000
1.253358e+003, 5.258241e+000
1.253840e+003, 4.955123e+000
1.254322e+003, 4.823747e+000
1.254804e+003, 5.275084e+000
1.255286e+003, 5.592008e+000
1.255768e+003, 5.447359e+000
1.256250e+003, 5.155965e+000
1.256732e+003, 4.917287e+000
1.257214e+003, 4.748792e+000
1.257697e+003, 4.823123e+000
1.258179e+003, 5.085169e+000
1.258661e+003, 5.279136e+000
1.259143e+003, 5.241891e+000
1.259625e+003, 5.188986e+000
1.260107e+003, 5.137917e+000
1.260589e+003, 5.122727e+000
1.261071e+003, 5.202312e+000
1.261554e+003, 5.334870e+000
1.262036e+003, 5.377604e+000
1.262518e+003, 5.352986e+000
1.263000e+003, 5.342485e+000
1.263482e+003, 5.417247e+000
1.263964e+003, 5.436989e+000
1.264446e+003, 5.367727e+000
1.264928e+003, 5.295432e+000
1.265411e+003, 5.333629e+000
1.265893e+003, 5.396383e+000
1.266375e+003, 5.237999e+000
1.266857e+003, 4.968352e+000
1.267339e+003, 4.891967e+000
1.267821e+003, 5.303948e+000
1.268303e+003, 5.502097e+000
1.268785e+003, 5.430438e+000
1.269267e+003, 5.302617e+000
1.269750e+003, 5.262343e+000
1.270232e+003, 5.283576e+000
1.270714e+003, 5.375992e+000
1.271196e+003, 5.495502e+000
1.271678e+003, 5.526584e+000
1.272160e+003, 5.397459e+000
1.272642e+003, 5.414777e+000
1.273124e+003, 5.607229e+000
1.273606e+003, 5.758841e+000
1.274089e+003, 5.673778e+000
1.274571e+003, 5.517179e+000
1.275053e+003, 5.412674e+000
1.275535e+003, 5.350213e+000
1.276017e+003, 5.300989e+000
1.276499e+003, 5.259956e+000
1.276981e+003, 5.268731e+000
1.277463e+003, 5.327261e+000
1.277946e+003, 5.382339e+000
1.278428e+003, 5.427098e+000
1.278910e+003, 5.426091e+000
1.279392e+003, 5.325351e+000
1.279874e+003, 5.186033e+000
1.280356e+003, 5.064890e+000
1.280838e+003, 4.964656e+000
1.281320e+003, 4.933611e+000
1.281802e+003, 4.970734e+000
1.282285e+003, 5.056840e+000
1.282767e+003, 5.265162e+000
1.283249e+003, 5.412316e+000
1.283731e+003, 5.409074e+000
1.284213e+003, 5.343890e+000
1.284695e+003, 5.269687e+000
1.285177e+003, 5.196647e+000
1.285659e+003, 5.177775e+000
1.286141e+003, 5.206192e+000
1.286624e+003, 5.252882e+000
1.287106e+003, 5.372890e+000
1.287588e+003, 5.398825e+000
1.288070e+003, 5.282960e+000
1.288552e+003, 5.137768e+000
1.289034e+003, 5.022486e+000
1.289516e+003, 4.961360e+000
1.289998e+003, 5.071616e+000
1.290481e+003, 5.276617e+000
1.290963e+003, 5.379345e+000
1.291445e+003, 5.246837e+000
1.291927e+003, 5.134137e+000
1.292409e+003, 5.036993e+000
1.292891e+003, 4.980362e+000
1.293373e+003, 5.011918e+000
1.293855e+003, 5.069915e+000
1.294338e+003, 5.052675e+000
1.294820e+003, 5.011436e+000
1.295302e+003, 5.052244e+000
1.295784e+003, 5.204597e+000
1.296266e+003, 5.349172e+000
1.296748e+003, 5.489898e+000
1.297230e+003, 5.550608e+000
1.297712e+003, 5.417308e+000
1.298194e+003, 5.264681e+000
1.298677e+003, 5.267380e+000
1.299159e+003, 5.304509e+000
1.299641e+003, 5.224409e+000
1.300123e+003, 5.023345e+000
1.300605e+003, 4.827769e+000
1.301087e+003, 4.645050e+000
1.301569e+003, 4.543689e+000
1.302051e+003, 4.603017e+000
1.302533e+003, 4.681407e+000
1.303016e+003, 4.735585e+000
##END=



