##NAMES=Connellite
##RRUFFID=R060503
##IDEAL CHEMISTRY=Cu^2+^_36_(S^6+^O_4_)(OH)_62_Cl_8_&#183;6H_2_O
##LOCALITY=Shattuck mine, Bisbee, Cochise County, Arizona, USA
##OWNER=RRUFF
##SOURCE=University of Arizona Mineral Museum
##DESCRIPTION=Blue thin prismatic crystals
##STATUS=The identification of this mineral is confirmed by single-crystal X-ray diffraction and chemical analysis.
##URL=rruff.info/R060503
##MEASURED CHEMISTRY=Cu_33.68_(SO_4_)_1.83_(OH)_62_Cl_7.55_Â·6H_2_O
9.059570e+001, 1.136837e+003
9.107782e+001, 1.136546e+003
9.155994e+001, 1.136498e+003
9.204205e+001, 1.138363e+003
9.252417e+001, 1.139261e+003
9.300629e+001, 1.137360e+003
9.348840e+001, 1.126724e+003
9.397052e+001, 1.102229e+003
9.445264e+001, 1.064991e+003
9.493475e+001, 1.029904e+003
9.541687e+001, 9.979510e+002
9.589898e+001, 9.709562e+002
9.638110e+001, 9.465453e+002
9.686321e+001, 9.222764e+002
9.734533e+001, 8.964053e+002
9.782745e+001, 8.683852e+002
9.830956e+001, 8.448947e+002
9.879168e+001, 8.260917e+002
9.927380e+001, 8.100101e+002
9.975591e+001, 7.971848e+002
1.002380e+002, 7.865676e+002
1.007201e+002, 7.757098e+002
1.012023e+002, 7.629987e+002
1.016844e+002, 7.488109e+002
1.021665e+002, 7.353323e+002
1.026486e+002, 7.216561e+002
1.031307e+002, 7.090118e+002
1.036128e+002, 6.986614e+002
1.040950e+002, 6.906196e+002
1.045771e+002, 6.840980e+002
1.050592e+002, 6.788785e+002
1.055413e+002, 6.745161e+002
1.060234e+002, 6.705530e+002
1.065055e+002, 6.662911e+002
1.069877e+002, 6.621306e+002
1.074698e+002, 6.602690e+002
1.079519e+002, 6.647029e+002
1.084340e+002, 6.662341e+002
1.089161e+002, 6.609834e+002
1.093982e+002, 6.499615e+002
1.098804e+002, 6.358834e+002
1.103625e+002, 6.202275e+002
1.108446e+002, 6.021259e+002
1.113267e+002, 5.874075e+002
1.118088e+002, 5.772755e+002
1.122909e+002, 5.691131e+002
1.127731e+002, 5.625066e+002
1.132552e+002, 5.570397e+002
1.137373e+002, 5.517360e+002
1.142194e+002, 5.451039e+002
1.147015e+002, 5.345961e+002
1.151836e+002, 5.275685e+002
1.156658e+002, 5.268284e+002
1.161479e+002, 5.280815e+002
1.166300e+002, 5.270453e+002
1.171121e+002, 5.221317e+002
1.175942e+002, 5.149063e+002
1.180763e+002, 5.089948e+002
1.185584e+002, 5.048008e+002
1.190406e+002, 5.006787e+002
1.195227e+002, 4.959248e+002
1.200048e+002, 4.908468e+002
1.204869e+002, 4.862292e+002
1.209690e+002, 4.823768e+002
1.214511e+002, 4.793589e+002
1.219333e+002, 4.769365e+002
1.224154e+002, 4.751113e+002
1.228975e+002, 4.738583e+002
1.233796e+002, 4.734363e+002
1.238617e+002, 4.739633e+002
1.243438e+002, 4.742806e+002
1.248260e+002, 4.745744e+002
1.253081e+002, 4.740912e+002
1.257902e+002, 4.716798e+002
1.262723e+002, 4.664159e+002
1.267544e+002, 4.596759e+002
1.272365e+002, 4.545271e+002
1.277187e+002, 4.511960e+002
1.282008e+002, 4.493324e+002
1.286829e+002, 4.493187e+002
1.291650e+002, 4.503105e+002
1.296471e+002, 4.513399e+002
1.301292e+002, 4.519405e+002
1.306114e+002, 4.520549e+002
1.310935e+002, 4.507741e+002
1.315756e+002, 4.471232e+002
1.320577e+002, 4.429052e+002
1.325398e+002, 4.384350e+002
1.330219e+002, 4.337330e+002
1.335041e+002, 4.286786e+002
1.339862e+002, 4.230680e+002
1.344683e+002, 4.166831e+002
1.349504e+002, 4.111536e+002
1.354325e+002, 4.066111e+002
1.359146e+002, 4.026088e+002
1.363968e+002, 3.988991e+002
1.368789e+002, 3.954588e+002
1.373610e+002, 3.924585e+002
1.378431e+002, 3.902515e+002
1.383252e+002, 3.890459e+002
1.388073e+002, 3.875469e+002
1.392895e+002, 3.855199e+002
1.397716e+002, 3.832228e+002
1.402537e+002, 3.811305e+002
1.407358e+002, 3.794997e+002
1.412179e+002, 3.775011e+002
1.417000e+002, 3.736180e+002
1.421821e+002, 3.680350e+002
1.426643e+002, 3.628052e+002
1.431464e+002, 3.589404e+002
1.436285e+002, 3.561483e+002
1.441106e+002, 3.533149e+002
1.445927e+002, 3.500348e+002
1.450748e+002, 3.468759e+002
1.455570e+002, 3.442420e+002
1.460391e+002, 3.421469e+002
1.465212e+002, 3.404385e+002
1.470033e+002, 3.390980e+002
1.474854e+002, 3.381651e+002
1.479675e+002, 3.371898e+002
1.484497e+002, 3.365419e+002
1.489318e+002, 3.355061e+002
1.494139e+002, 3.334701e+002
1.498960e+002, 3.303551e+002
1.503781e+002, 3.267817e+002
1.508602e+002, 3.236758e+002
1.513424e+002, 3.211459e+002
1.518245e+002, 3.188398e+002
1.523066e+002, 3.164231e+002
1.527887e+002, 3.143079e+002
1.532708e+002, 3.130121e+002
1.537529e+002, 3.127028e+002
1.542351e+002, 3.128542e+002
1.547172e+002, 3.121443e+002
1.551993e+002, 3.095235e+002
1.556814e+002, 3.072303e+002
1.561635e+002, 3.057718e+002
1.566456e+002, 3.045782e+002
1.571278e+002, 3.029569e+002
1.576099e+002, 3.005501e+002
1.580920e+002, 2.975248e+002
1.585741e+002, 2.945683e+002
1.590562e+002, 2.914069e+002
1.595383e+002, 2.885895e+002
1.600205e+002, 2.862056e+002
1.605026e+002, 2.842691e+002
1.609847e+002, 2.829206e+002
1.614668e+002, 2.824445e+002
1.619489e+002, 2.825063e+002
1.624310e+002, 2.816655e+002
1.629131e+002, 2.789418e+002
1.633953e+002, 2.763247e+002
1.638774e+002, 2.753698e+002
1.643595e+002, 2.758832e+002
1.648416e+002, 2.759318e+002
1.653237e+002, 2.740258e+002
1.658058e+002, 2.708445e+002
1.662880e+002, 2.680518e+002
1.667701e+002, 2.658384e+002
1.672522e+002, 2.640523e+002
1.677343e+002, 2.626597e+002
1.682164e+002, 2.617590e+002
1.686985e+002, 2.607953e+002
1.691807e+002, 2.591323e+002
1.696628e+002, 2.572857e+002
1.701449e+002, 2.559624e+002
1.706270e+002, 2.557202e+002
1.711091e+002, 2.559971e+002
1.715912e+002, 2.553779e+002
1.720734e+002, 2.532044e+002
1.725555e+002, 2.513429e+002
1.730376e+002, 2.508618e+002
1.735197e+002, 2.510305e+002
1.740018e+002, 2.507749e+002
1.744839e+002, 2.493607e+002
1.749661e+002, 2.470228e+002
1.754482e+002, 2.452085e+002
1.759303e+002, 2.443175e+002
1.764124e+002, 2.435615e+002
1.768945e+002, 2.427141e+002
1.773766e+002, 2.418465e+002
1.778588e+002, 2.410991e+002
1.783409e+002, 2.405518e+002
1.788230e+002, 2.402036e+002
1.793051e+002, 2.402038e+002
1.797872e+002, 2.416197e+002
1.802693e+002, 2.423434e+002
1.807515e+002, 2.412783e+002
1.812336e+002, 2.388890e+002
1.817157e+002, 2.364196e+002
1.821978e+002, 2.349287e+002
1.826799e+002, 2.345251e+002
1.831620e+002, 2.341104e+002
1.836441e+002, 2.341037e+002
1.841263e+002, 2.337344e+002
1.846084e+002, 2.323223e+002
1.850905e+002, 2.300340e+002
1.855726e+002, 2.277651e+002
1.860547e+002, 2.263402e+002
1.865368e+002, 2.258971e+002
1.870190e+002, 2.255979e+002
1.875011e+002, 2.257573e+002
1.879832e+002, 2.258408e+002
1.884653e+002, 2.253479e+002
1.889474e+002, 2.242486e+002
1.894296e+002, 2.230656e+002
1.899117e+002, 2.223873e+002
1.903938e+002, 2.221907e+002
1.908759e+002, 2.216278e+002
1.913580e+002, 2.204223e+002
1.918401e+002, 2.188963e+002
1.923223e+002, 2.172740e+002
1.928044e+002, 2.155110e+002
1.932865e+002, 2.140085e+002
1.937686e+002, 2.134303e+002
1.942507e+002, 2.134996e+002
1.947328e+002, 2.134196e+002
1.952150e+002, 2.128123e+002
1.956971e+002, 2.119124e+002
1.961792e+002, 2.112747e+002
1.966613e+002, 2.111720e+002
1.971434e+002, 2.108030e+002
1.976255e+002, 2.093493e+002
1.981077e+002, 2.071529e+002
1.985898e+002, 2.050955e+002
1.990719e+002, 2.034939e+002
1.995540e+002, 2.023597e+002
2.000361e+002, 2.018616e+002
2.005182e+002, 2.025754e+002
2.010004e+002, 2.031244e+002
2.014825e+002, 2.025829e+002
2.019646e+002, 2.012955e+002
2.024467e+002, 2.001360e+002
2.029288e+002, 1.998798e+002
2.034109e+002, 2.004466e+002
2.038930e+002, 2.004270e+002
2.043752e+002, 1.991106e+002
2.048573e+002, 1.979209e+002
2.053394e+002, 1.976579e+002
2.058215e+002, 1.979967e+002
2.063036e+002, 1.980918e+002
2.067857e+002, 1.971320e+002
2.072679e+002, 1.950376e+002
2.077500e+002, 1.934566e+002
2.082321e+002, 1.924087e+002
2.087142e+002, 1.918999e+002
2.091963e+002, 1.924373e+002
2.096784e+002, 1.936238e+002
2.101606e+002, 1.944915e+002
2.106427e+002, 1.940650e+002
2.111248e+002, 1.921117e+002
2.116069e+002, 1.909666e+002
2.120890e+002, 1.913882e+002
2.125711e+002, 1.918301e+002
2.130533e+002, 1.917044e+002
2.135354e+002, 1.910363e+002
2.140175e+002, 1.901233e+002
2.144996e+002, 1.891908e+002
2.149817e+002, 1.881828e+002
2.154638e+002, 1.876064e+002
2.159460e+002, 1.879850e+002
2.164281e+002, 1.882354e+002
2.169102e+002, 1.876051e+002
2.173923e+002, 1.862383e+002
2.178744e+002, 1.849617e+002
2.183565e+002, 1.846009e+002
2.188387e+002, 1.853199e+002
2.193208e+002, 1.854277e+002
2.198029e+002, 1.842114e+002
2.202850e+002, 1.830352e+002
2.207671e+002, 1.829641e+002
2.212492e+002, 1.839153e+002
2.217314e+002, 1.847862e+002
2.222135e+002, 1.845608e+002
2.226956e+002, 1.831457e+002
2.231777e+002, 1.821517e+002
2.236598e+002, 1.820480e+002
2.241419e+002, 1.820164e+002
2.246240e+002, 1.813317e+002
2.251062e+002, 1.799862e+002
2.255883e+002, 1.786592e+002
2.260704e+002, 1.778772e+002
2.265525e+002, 1.776328e+002
2.270346e+002, 1.775491e+002
2.275167e+002, 1.777164e+002
2.279989e+002, 1.779685e+002
2.284810e+002, 1.782814e+002
2.289631e+002, 1.786665e+002
2.294452e+002, 1.787012e+002
2.299273e+002, 1.776281e+002
2.304094e+002, 1.759663e+002
2.308916e+002, 1.751664e+002
2.313737e+002, 1.763881e+002
2.318558e+002, 1.780692e+002
2.323379e+002, 1.782408e+002
2.328200e+002, 1.766861e+002
2.333021e+002, 1.751459e+002
2.337843e+002, 1.749655e+002
2.342664e+002, 1.754748e+002
2.347485e+002, 1.756409e+002
2.352306e+002, 1.748664e+002
2.357127e+002, 1.739261e+002
2.361948e+002, 1.740714e+002
2.366770e+002, 1.756210e+002
2.371591e+002, 1.769350e+002
2.376412e+002, 1.769680e+002
2.381233e+002, 1.763566e+002
2.386054e+002, 1.756972e+002
2.390875e+002, 1.750950e+002
2.395697e+002, 1.746356e+002
2.400518e+002, 1.745903e+002
2.405339e+002, 1.751959e+002
2.410160e+002, 1.754433e+002
2.414981e+002, 1.744937e+002
2.419802e+002, 1.731987e+002
2.424624e+002, 1.723579e+002
2.429445e+002, 1.722690e+002
2.434266e+002, 1.726645e+002
2.439087e+002, 1.733012e+002
2.443908e+002, 1.745987e+002
2.448729e+002, 1.749331e+002
2.453550e+002, 1.728327e+002
2.458372e+002, 1.701830e+002
2.463193e+002, 1.686859e+002
2.468014e+002, 1.689520e+002
2.472835e+002, 1.700750e+002
2.477656e+002, 1.704919e+002
2.482477e+002, 1.698986e+002
2.487299e+002, 1.692950e+002
2.492120e+002, 1.689533e+002
2.496941e+002, 1.686209e+002
2.501762e+002, 1.681370e+002
2.506583e+002, 1.674460e+002
2.511404e+002, 1.665426e+002
2.516226e+002, 1.652626e+002
2.521047e+002, 1.630457e+002
2.525868e+002, 1.618031e+002
2.530689e+002, 1.623724e+002
2.535510e+002, 1.633709e+002
2.540331e+002, 1.638692e+002
2.545153e+002, 1.636196e+002
2.549974e+002, 1.629426e+002
2.554795e+002, 1.623062e+002
2.559616e+002, 1.617593e+002
2.564437e+002, 1.611500e+002
2.569258e+002, 1.602808e+002
2.574080e+002, 1.594967e+002
2.578901e+002, 1.590915e+002
2.583722e+002, 1.590834e+002
2.588543e+002, 1.592021e+002
2.593364e+002, 1.590823e+002
2.598185e+002, 1.586293e+002
2.603007e+002, 1.581604e+002
2.607828e+002, 1.576673e+002
2.612649e+002, 1.571635e+002
2.617470e+002, 1.565601e+002
2.622291e+002, 1.559018e+002
2.627112e+002, 1.554309e+002
2.631934e+002, 1.554941e+002
2.636755e+002, 1.564126e+002
2.641576e+002, 1.566536e+002
2.646397e+002, 1.558411e+002
2.651218e+002, 1.548098e+002
2.656039e+002, 1.539314e+002
2.660861e+002, 1.532674e+002
2.665682e+002, 1.527442e+002
2.670503e+002, 1.522900e+002
2.675324e+002, 1.518965e+002
2.680145e+002, 1.516633e+002
2.684966e+002, 1.516947e+002
2.689788e+002, 1.517558e+002
2.694609e+002, 1.518423e+002
2.699430e+002, 1.518826e+002
2.704251e+002, 1.517046e+002
2.709072e+002, 1.511595e+002
2.713893e+002, 1.502417e+002
2.718715e+002, 1.491551e+002
2.723536e+002, 1.475101e+002
2.728357e+002, 1.461115e+002
2.733178e+002, 1.455506e+002
2.737999e+002, 1.455607e+002
2.742820e+002, 1.453353e+002
2.747642e+002, 1.442458e+002
2.752463e+002, 1.424185e+002
2.757284e+002, 1.414880e+002
2.762105e+002, 1.420376e+002
2.766926e+002, 1.426142e+002
2.771747e+002, 1.426832e+002
2.776568e+002, 1.424086e+002
2.781389e+002, 1.421765e+002
2.786211e+002, 1.421845e+002
2.791032e+002, 1.424096e+002
2.795853e+002, 1.427796e+002
2.800674e+002, 1.440934e+002
2.805495e+002, 1.446155e+002
2.810316e+002, 1.431298e+002
2.815138e+002, 1.406508e+002
2.819959e+002, 1.391546e+002
2.824780e+002, 1.396266e+002
2.829601e+002, 1.411150e+002
2.834422e+002, 1.410661e+002
2.839243e+002, 1.385561e+002
2.844065e+002, 1.365170e+002
2.848886e+002, 1.356781e+002
2.853707e+002, 1.356279e+002
2.858528e+002, 1.358490e+002
2.863349e+002, 1.362018e+002
2.868170e+002, 1.366056e+002
2.872992e+002, 1.369639e+002
2.877813e+002, 1.373593e+002
2.882634e+002, 1.374495e+002
2.887455e+002, 1.369602e+002
2.892276e+002, 1.362222e+002
2.897097e+002, 1.355343e+002
2.901919e+002, 1.349512e+002
2.906740e+002, 1.346817e+002
2.911561e+002, 1.352043e+002
2.916382e+002, 1.367074e+002
2.921203e+002, 1.374241e+002
2.926024e+002, 1.366189e+002
2.930846e+002, 1.352663e+002
2.935667e+002, 1.342343e+002
2.940488e+002, 1.336369e+002
2.945309e+002, 1.333040e+002
2.950130e+002, 1.331153e+002
2.954951e+002, 1.330821e+002
2.959773e+002, 1.331190e+002
2.964594e+002, 1.335169e+002
2.969415e+002, 1.337711e+002
2.974236e+002, 1.333910e+002
2.979057e+002, 1.324044e+002
2.983878e+002, 1.312815e+002
2.988700e+002, 1.302351e+002
2.993521e+002, 1.293480e+002
2.998342e+002, 1.288897e+002
3.003163e+002, 1.293400e+002
3.007984e+002, 1.297765e+002
3.012805e+002, 1.295339e+002
3.017627e+002, 1.287574e+002
3.022448e+002, 1.281762e+002
3.027269e+002, 1.282999e+002
3.032090e+002, 1.287752e+002
3.036911e+002, 1.285291e+002
3.041732e+002, 1.271410e+002
3.046554e+002, 1.257958e+002
3.051375e+002, 1.248903e+002
3.056196e+002, 1.244201e+002
3.061017e+002, 1.245703e+002
3.065838e+002, 1.256900e+002
3.070659e+002, 1.269428e+002
3.075481e+002, 1.263723e+002
3.080302e+002, 1.234139e+002
3.085123e+002, 1.212279e+002
3.089944e+002, 1.213168e+002
3.094765e+002, 1.227392e+002
3.099586e+002, 1.239914e+002
3.104408e+002, 1.247291e+002
3.109229e+002, 1.250692e+002
3.114050e+002, 1.250917e+002
3.118871e+002, 1.248125e+002
3.123692e+002, 1.243286e+002
3.128513e+002, 1.233959e+002
3.133335e+002, 1.223876e+002
3.138156e+002, 1.217350e+002
3.142977e+002, 1.215043e+002
3.147798e+002, 1.215551e+002
3.152619e+002, 1.219766e+002
3.157440e+002, 1.226919e+002
3.162262e+002, 1.227309e+002
3.167083e+002, 1.211989e+002
3.171904e+002, 1.195376e+002
3.176725e+002, 1.190555e+002
3.181546e+002, 1.197257e+002
3.186367e+002, 1.205829e+002
3.191188e+002, 1.211268e+002
3.196010e+002, 1.212966e+002
3.200831e+002, 1.210555e+002
3.205652e+002, 1.197947e+002
3.210473e+002, 1.187361e+002
3.215294e+002, 1.188873e+002
3.220115e+002, 1.198864e+002
3.224937e+002, 1.203409e+002
3.229758e+002, 1.193826e+002
3.234579e+002, 1.177504e+002
3.239400e+002, 1.174399e+002
3.244221e+002, 1.190993e+002
3.249042e+002, 1.204253e+002
3.253864e+002, 1.205473e+002
3.258685e+002, 1.197960e+002
3.263506e+002, 1.186317e+002
3.268327e+002, 1.170785e+002
3.273148e+002, 1.155867e+002
3.277969e+002, 1.148985e+002
3.282791e+002, 1.150396e+002
3.287612e+002, 1.155286e+002
3.292433e+002, 1.169111e+002
3.297254e+002, 1.183068e+002
3.302075e+002, 1.184361e+002
3.306896e+002, 1.170782e+002
3.311718e+002, 1.155278e+002
3.316539e+002, 1.151101e+002
3.321360e+002, 1.159394e+002
3.326181e+002, 1.165505e+002
3.331002e+002, 1.169165e+002
3.335823e+002, 1.170342e+002
3.340645e+002, 1.167329e+002
3.345466e+002, 1.160896e+002
3.350287e+002, 1.156110e+002
3.355108e+002, 1.157442e+002
3.359929e+002, 1.163466e+002
3.364750e+002, 1.163830e+002
3.369572e+002, 1.153032e+002
3.374393e+002, 1.143025e+002
3.379214e+002, 1.138806e+002
3.384035e+002, 1.139190e+002
3.388856e+002, 1.141831e+002
3.393677e+002, 1.146115e+002
3.398499e+002, 1.150872e+002
3.403320e+002, 1.152572e+002
3.408141e+002, 1.148971e+002
3.412962e+002, 1.146838e+002
3.417783e+002, 1.149944e+002
3.422604e+002, 1.154325e+002
3.427426e+002, 1.153979e+002
3.432247e+002, 1.147186e+002
3.437068e+002, 1.138459e+002
3.441889e+002, 1.134093e+002
3.446710e+002, 1.136016e+002
3.451531e+002, 1.137297e+002
3.456353e+002, 1.138973e+002
3.461174e+002, 1.139259e+002
3.465995e+002, 1.136848e+002
3.470816e+002, 1.131648e+002
3.475637e+002, 1.123350e+002
3.480458e+002, 1.110166e+002
3.485280e+002, 1.091444e+002
3.490101e+002, 1.086295e+002
3.494922e+002, 1.106320e+002
3.499743e+002, 1.125798e+002
3.504564e+002, 1.136154e+002
3.509385e+002, 1.137297e+002
3.514207e+002, 1.129282e+002
3.519028e+002, 1.111023e+002
3.523849e+002, 1.086110e+002
3.528670e+002, 1.069971e+002
3.533491e+002, 1.064208e+002
3.538312e+002, 1.065156e+002
3.543134e+002, 1.080574e+002
3.547955e+002, 1.099299e+002
3.552776e+002, 1.107295e+002
3.557597e+002, 1.099857e+002
3.562418e+002, 1.084710e+002
3.567239e+002, 1.074899e+002
3.572061e+002, 1.074187e+002
3.576882e+002, 1.071396e+002
3.581703e+002, 1.063573e+002
3.586524e+002, 1.056049e+002
3.591345e+002, 1.052710e+002
3.596166e+002, 1.053655e+002
3.600987e+002, 1.056613e+002
3.605808e+002, 1.059819e+002
3.610630e+002, 1.063667e+002
3.615451e+002, 1.063705e+002
3.620272e+002, 1.049997e+002
3.625093e+002, 1.042950e+002
3.629914e+002, 1.057853e+002
3.634735e+002, 1.083866e+002
3.639557e+002, 1.099103e+002
3.644378e+002, 1.089441e+002
3.649199e+002, 1.061565e+002
3.654020e+002, 1.044065e+002
3.658841e+002, 1.045428e+002
3.663662e+002, 1.046242e+002
3.668484e+002, 1.039874e+002
3.673305e+002, 1.034044e+002
3.678126e+002, 1.038431e+002
3.682947e+002, 1.055491e+002
3.687768e+002, 1.076663e+002
3.692589e+002, 1.088797e+002
3.697411e+002, 1.089578e+002
3.702232e+002, 1.087117e+002
3.707053e+002, 1.078588e+002
3.711874e+002, 1.069707e+002
3.716695e+002, 1.062585e+002
3.721516e+002, 1.057784e+002
3.726338e+002, 1.055548e+002
3.731159e+002, 1.057191e+002
3.735980e+002, 1.062491e+002
3.740801e+002, 1.063784e+002
3.745622e+002, 1.057639e+002
3.750443e+002, 1.051474e+002
3.755265e+002, 1.047290e+002
3.760086e+002, 1.044779e+002
3.764907e+002, 1.043249e+002
3.769728e+002, 1.042216e+002
3.774549e+002, 1.042296e+002
3.779370e+002, 1.045900e+002
3.784192e+002, 1.055651e+002
3.789013e+002, 1.061395e+002
3.793834e+002, 1.054724e+002
3.798655e+002, 1.046417e+002
3.803476e+002, 1.045657e+002
3.808297e+002, 1.054193e+002
3.813119e+002, 1.065038e+002
3.817940e+002, 1.072907e+002
3.822761e+002, 1.077773e+002
3.827582e+002, 1.075467e+002
3.832403e+002, 1.057389e+002
3.837224e+002, 1.041776e+002
3.842046e+002, 1.041596e+002
3.846867e+002, 1.054051e+002
3.851688e+002, 1.068700e+002
3.856509e+002, 1.084238e+002
3.861330e+002, 1.097286e+002
3.866151e+002, 1.097209e+002
3.870973e+002, 1.079558e+002
3.875794e+002, 1.064862e+002
3.880615e+002, 1.070874e+002
3.885436e+002, 1.085572e+002
3.890257e+002, 1.090946e+002
3.895078e+002, 1.078718e+002
3.899900e+002, 1.065472e+002
3.904721e+002, 1.067975e+002
3.909542e+002, 1.084139e+002
3.914363e+002, 1.097443e+002
3.919184e+002, 1.102031e+002
3.924005e+002, 1.101929e+002
3.928827e+002, 1.101853e+002
3.933648e+002, 1.101484e+002
3.938469e+002, 1.103972e+002
3.943290e+002, 1.113231e+002
3.948111e+002, 1.125264e+002
3.952932e+002, 1.132508e+002
3.957754e+002, 1.133452e+002
3.962575e+002, 1.135395e+002
3.967396e+002, 1.147503e+002
3.972217e+002, 1.168021e+002
3.977038e+002, 1.177972e+002
3.981859e+002, 1.163890e+002
3.986681e+002, 1.150208e+002
3.991501e+002, 1.155832e+002
3.996323e+002, 1.176298e+002
4.001144e+002, 1.195021e+002
4.005965e+002, 1.204286e+002
4.010786e+002, 1.205549e+002
4.015607e+002, 1.201953e+002
4.020428e+002, 1.190553e+002
4.025250e+002, 1.180280e+002
4.030071e+002, 1.171885e+002
4.034892e+002, 1.165757e+002
4.039713e+002, 1.162511e+002
4.044534e+002, 1.162262e+002
4.049355e+002, 1.164798e+002
4.054177e+002, 1.170882e+002
4.058998e+002, 1.182705e+002
4.063819e+002, 1.185865e+002
4.068640e+002, 1.175255e+002
4.073461e+002, 1.162066e+002
4.078282e+002, 1.152168e+002
4.083104e+002, 1.144285e+002
4.087925e+002, 1.133206e+002
4.092746e+002, 1.114953e+002
4.097567e+002, 1.092345e+002
4.102388e+002, 1.078166e+002
4.107209e+002, 1.081236e+002
4.112031e+002, 1.081786e+002
4.116852e+002, 1.080765e+002
4.121673e+002, 1.075192e+002
4.126494e+002, 1.058406e+002
4.131315e+002, 1.030352e+002
4.136136e+002, 1.002798e+002
4.140958e+002, 9.929858e+001
4.145779e+002, 1.006439e+002
4.150600e+002, 1.015348e+002
4.155421e+002, 1.019674e+002
4.160242e+002, 1.019231e+002
4.165063e+002, 1.011502e+002
4.169885e+002, 9.986987e+001
4.174706e+002, 9.854518e+001
4.179527e+002, 9.740018e+001
4.184348e+002, 9.648338e+001
4.189169e+002, 9.607985e+001
4.193990e+002, 9.667371e+001
4.198812e+002, 9.669335e+001
4.203633e+002, 9.472054e+001
4.208454e+002, 9.248982e+001
4.213275e+002, 9.184946e+001
4.218096e+002, 9.327966e+001
4.222917e+002, 9.510747e+001
4.227739e+002, 9.555527e+001
4.232560e+002, 9.469222e+001
4.237381e+002, 9.400462e+001
4.242202e+002, 9.374146e+001
4.247023e+002, 9.366486e+001
4.251844e+002, 9.364349e+001
4.256666e+002, 9.365113e+001
4.261487e+002, 9.358949e+001
4.266308e+002, 9.336349e+001
4.271129e+002, 9.306846e+001
4.275950e+002, 9.278945e+001
4.280771e+002, 9.251476e+001
4.285593e+002, 9.245211e+001
4.290414e+002, 9.276952e+001
4.295235e+002, 9.335878e+001
4.300056e+002, 9.402760e+001
4.304877e+002, 9.506867e+001
4.309698e+002, 9.552431e+001
4.314520e+002, 9.433376e+001
4.319341e+002, 9.231225e+001
4.324162e+002, 9.123704e+001
4.328983e+002, 9.164248e+001
4.333804e+002, 9.238132e+001
4.338625e+002, 9.203915e+001
4.343447e+002, 9.041396e+001
4.348268e+002, 8.936466e+001
4.353089e+002, 8.911143e+001
4.357910e+002, 8.931381e+001
4.362731e+002, 8.987129e+001
4.367552e+002, 9.071055e+001
4.372374e+002, 9.176206e+001
4.377195e+002, 9.306021e+001
4.382016e+002, 9.439023e+001
4.386837e+002, 9.489941e+001
4.391658e+002, 9.379014e+001
4.396479e+002, 9.286743e+001
4.401301e+002, 9.223701e+001
4.406122e+002, 9.185320e+001
4.410943e+002, 9.177977e+001
4.415764e+002, 9.197684e+001
4.420585e+002, 9.219679e+001
4.425406e+002, 9.217224e+001
4.430227e+002, 9.189930e+001
4.435049e+002, 9.141096e+001
4.439870e+002, 9.025020e+001
4.444691e+002, 8.935088e+001
4.449512e+002, 8.909565e+001
4.454333e+002, 8.928417e+001
4.459154e+002, 8.960078e+001
4.463976e+002, 8.990211e+001
4.468797e+002, 9.015251e+001
4.473618e+002, 9.025766e+001
4.478439e+002, 9.017002e+001
4.483260e+002, 9.007717e+001
4.488081e+002, 8.994373e+001
4.492903e+002, 8.986684e+001
4.497724e+002, 9.001872e+001
4.502545e+002, 9.035480e+001
4.507366e+002, 9.052291e+001
4.512187e+002, 8.997610e+001
4.517008e+002, 8.898231e+001
4.521830e+002, 8.881962e+001
4.526651e+002, 8.983608e+001
4.531472e+002, 9.086932e+001
4.536293e+002, 9.138079e+001
4.541114e+002, 9.143767e+001
4.545935e+002, 9.099403e+001
4.550757e+002, 8.981196e+001
4.555578e+002, 8.857487e+001
4.560399e+002, 8.766277e+001
4.565220e+002, 8.712791e+001
4.570041e+002, 8.733275e+001
4.574862e+002, 8.864463e+001
4.579684e+002, 9.017043e+001
4.584505e+002, 9.072726e+001
4.589326e+002, 9.035868e+001
4.594147e+002, 8.969417e+001
4.598968e+002, 8.846214e+001
4.603789e+002, 8.725427e+001
4.608611e+002, 8.652466e+001
4.613432e+002, 8.629509e+001
4.618253e+002, 8.652744e+001
4.623074e+002, 8.729525e+001
4.627895e+002, 8.841263e+001
4.632716e+002, 8.911555e+001
4.637538e+002, 8.934926e+001
4.642359e+002, 8.927671e+001
4.647180e+002, 8.856133e+001
4.652001e+002, 8.773830e+001
4.656822e+002, 8.742569e+001
4.661643e+002, 8.770298e+001
4.666465e+002, 8.811168e+001
4.671286e+002, 8.809924e+001
4.676107e+002, 8.756780e+001
4.680928e+002, 8.756699e+001
4.685749e+002, 8.915869e+001
4.690570e+002, 9.014050e+001
4.695392e+002, 8.933184e+001
4.700213e+002, 8.769250e+001
4.705034e+002, 8.669941e+001
4.709855e+002, 8.701565e+001
4.714676e+002, 8.799740e+001
4.719497e+002, 8.847485e+001
4.724319e+002, 8.827287e+001
4.729140e+002, 8.834836e+001
4.733961e+002, 8.950014e+001
4.738782e+002, 9.037948e+001
4.743603e+002, 9.000598e+001
4.748424e+002, 8.860021e+001
4.753246e+002, 8.719009e+001
4.758067e+002, 8.628419e+001
4.762888e+002, 8.582415e+001
4.767709e+002, 8.575091e+001
4.772530e+002, 8.611694e+001
4.777351e+002, 8.654918e+001
4.782173e+002, 8.694924e+001
4.786994e+002, 8.726975e+001
4.791815e+002, 8.750168e+001
4.796636e+002, 8.771802e+001
4.801457e+002, 8.757515e+001
4.806278e+002, 8.652317e+001
4.811100e+002, 8.508885e+001
4.815920e+002, 8.428953e+001
4.820742e+002, 8.431988e+001
4.825563e+002, 8.458238e+001
4.830384e+002, 8.452822e+001
4.835205e+002, 8.417216e+001
4.840026e+002, 8.413331e+001
4.844847e+002, 8.451603e+001
4.849669e+002, 8.507789e+001
4.854490e+002, 8.599728e+001
4.859311e+002, 8.697267e+001
4.864132e+002, 8.741354e+001
4.868953e+002, 8.710662e+001
4.873774e+002, 8.648576e+001
4.878596e+002, 8.630189e+001
4.883417e+002, 8.689568e+001
4.888238e+002, 8.697472e+001
4.893059e+002, 8.604045e+001
4.897880e+002, 8.515678e+001
4.902701e+002, 8.490480e+001
4.907523e+002, 8.512320e+001
4.912344e+002, 8.533562e+001
4.917165e+002, 8.523530e+001
4.921986e+002, 8.499992e+001
4.926807e+002, 8.520569e+001
4.931628e+002, 8.615371e+001
4.936450e+002, 8.670824e+001
4.941271e+002, 8.613911e+001
4.946092e+002, 8.544920e+001
4.950913e+002, 8.543712e+001
4.955734e+002, 8.607262e+001
4.960555e+002, 8.655018e+001
4.965377e+002, 8.622233e+001
4.970198e+002, 8.532056e+001
4.975019e+002, 8.438204e+001
4.979840e+002, 8.334835e+001
4.984661e+002, 8.260643e+001
4.989482e+002, 8.242667e+001
4.994304e+002, 8.266972e+001
4.999125e+002, 8.308046e+001
5.003946e+002, 8.377466e+001
5.008767e+002, 8.432336e+001
5.013588e+002, 8.435237e+001
5.018409e+002, 8.413831e+001
5.023231e+002, 8.434018e+001
5.028052e+002, 8.510149e+001
5.032873e+002, 8.558241e+001
5.037694e+002, 8.484951e+001
5.042515e+002, 8.284054e+001
5.047336e+002, 8.156335e+001
5.052158e+002, 8.122845e+001
5.056979e+002, 8.129564e+001
5.061800e+002, 8.213668e+001
5.066621e+002, 8.308822e+001
5.071442e+002, 8.291871e+001
5.076263e+002, 8.124385e+001
5.081085e+002, 7.921709e+001
5.085906e+002, 7.872648e+001
5.090727e+002, 8.035997e+001
5.095548e+002, 8.140041e+001
5.100369e+002, 8.144402e+001
5.105190e+002, 8.129165e+001
5.110012e+002, 8.103325e+001
5.114833e+002, 8.082909e+001
5.119654e+002, 8.100691e+001
5.124475e+002, 8.183274e+001
5.129296e+002, 8.277732e+001
5.134117e+002, 8.277480e+001
5.138939e+002, 8.168373e+001
5.143760e+002, 8.072984e+001
5.148581e+002, 8.017615e+001
5.153402e+002, 7.985152e+001
5.158223e+002, 7.951405e+001
5.163044e+002, 7.921391e+001
5.167866e+002, 7.928633e+001
5.172687e+002, 8.034010e+001
5.177508e+002, 8.157515e+001
5.182329e+002, 8.177525e+001
5.187150e+002, 8.101411e+001
5.191971e+002, 8.051012e+001
5.196793e+002, 8.093262e+001
5.201614e+002, 8.184268e+001
5.206435e+002, 8.225490e+001
5.211256e+002, 8.213718e+001
5.216077e+002, 8.176528e+001
5.220898e+002, 8.084321e+001
5.225720e+002, 7.992311e+001
5.230541e+002, 7.963731e+001
5.235362e+002, 7.990101e+001
5.240183e+002, 8.002331e+001
5.245004e+002, 7.945241e+001
5.249825e+002, 7.840514e+001
5.254647e+002, 7.802553e+001
5.259468e+002, 7.912046e+001
5.264289e+002, 7.974014e+001
5.269110e+002, 7.947588e+001
5.273931e+002, 7.886643e+001
5.278752e+002, 7.823113e+001
5.283574e+002, 7.767837e+001
5.288395e+002, 7.730439e+001
5.293216e+002, 7.721118e+001
5.298037e+002, 7.737278e+001
5.302858e+002, 7.773009e+001
5.307679e+002, 7.856026e+001
5.312501e+002, 7.893542e+001
5.317322e+002, 7.779563e+001
5.322143e+002, 7.630980e+001
5.326964e+002, 7.575744e+001
5.331785e+002, 7.643214e+001
5.336606e+002, 7.731044e+001
5.341428e+002, 7.788742e+001
5.346249e+002, 7.816032e+001
5.351070e+002, 7.807772e+001
5.355891e+002, 7.761736e+001
5.360712e+002, 7.698205e+001
5.365533e+002, 7.621593e+001
5.370355e+002, 7.540112e+001
5.375176e+002, 7.500855e+001
5.379997e+002, 7.500574e+001
5.384818e+002, 7.541673e+001
5.389639e+002, 7.666646e+001
5.394460e+002, 7.814372e+001
5.399282e+002, 7.902701e+001
5.404103e+002, 7.918027e+001
5.408924e+002, 7.915253e+001
5.413745e+002, 7.958951e+001
5.418566e+002, 8.052808e+001
5.423387e+002, 8.064120e+001
5.428209e+002, 7.893572e+001
5.433029e+002, 7.756592e+001
5.437850e+002, 7.707784e+001
5.442672e+002, 7.709138e+001
5.447493e+002, 7.726106e+001
5.452314e+002, 7.747105e+001
5.457135e+002, 7.758297e+001
5.461956e+002, 7.725060e+001
5.466777e+002, 7.655459e+001
5.471599e+002, 7.661422e+001
5.476420e+002, 7.795516e+001
5.481241e+002, 7.905904e+001
5.486062e+002, 7.851013e+001
5.490883e+002, 7.719539e+001
5.495704e+002, 7.656983e+001
5.500526e+002, 7.713364e+001
5.505347e+002, 7.785790e+001
5.510168e+002, 7.838527e+001
5.514989e+002, 7.855909e+001
5.519810e+002, 7.767708e+001
5.524631e+002, 7.555427e+001
5.529453e+002, 7.386901e+001
5.534274e+002, 7.443586e+001
5.539095e+002, 7.727001e+001
5.543916e+002, 7.871895e+001
5.548737e+002, 7.776621e+001
5.553558e+002, 7.686693e+001
5.558380e+002, 7.673244e+001
5.563201e+002, 7.700483e+001
5.568022e+002, 7.729030e+001
5.572843e+002, 7.745542e+001
5.577664e+002, 7.746618e+001
5.582485e+002, 7.719511e+001
5.587307e+002, 7.661705e+001
5.592128e+002, 7.652843e+001
5.596949e+002, 7.737210e+001
5.601770e+002, 7.807539e+001
5.606591e+002, 7.808322e+001
5.611412e+002, 7.785428e+001
5.616234e+002, 7.803684e+001
5.621055e+002, 7.883761e+001
5.625876e+002, 7.955496e+001
5.630697e+002, 7.950611e+001
5.635518e+002, 7.887586e+001
5.640339e+002, 7.826598e+001
5.645161e+002, 7.774257e+001
5.649982e+002, 7.723075e+001
5.654803e+002, 7.658873e+001
5.659624e+002, 7.592459e+001
5.664445e+002, 7.565420e+001
5.669266e+002, 7.606937e+001
5.674088e+002, 7.645885e+001
5.678909e+002, 7.659681e+001
5.683730e+002, 7.656763e+001
5.688551e+002, 7.632762e+001
5.693372e+002, 7.594531e+001
5.698193e+002, 7.587911e+001
5.703015e+002, 7.666321e+001
5.707836e+002, 7.821835e+001
5.712657e+002, 7.894019e+001
5.717478e+002, 7.793849e+001
5.722299e+002, 7.728144e+001
5.727120e+002, 7.744186e+001
5.731942e+002, 7.797363e+001
5.736763e+002, 7.869633e+001
5.741584e+002, 7.946601e+001
5.746405e+002, 7.975225e+001
5.751226e+002, 7.863781e+001
5.756047e+002, 7.659811e+001
5.760869e+002, 7.577349e+001
5.765690e+002, 7.645879e+001
5.770511e+002, 7.712556e+001
5.775332e+002, 7.703564e+001
5.780153e+002, 7.650594e+001
5.784974e+002, 7.592998e+001
5.789796e+002, 7.515582e+001
5.794617e+002, 7.505741e+001
5.799438e+002, 7.686586e+001
5.804259e+002, 7.898795e+001
5.809080e+002, 7.938634e+001
5.813901e+002, 7.812007e+001
5.818723e+002, 7.667599e+001
5.823544e+002, 7.594179e+001
5.828365e+002, 7.581912e+001
5.833186e+002, 7.598018e+001
5.838007e+002, 7.674143e+001
5.842828e+002, 7.731059e+001
5.847650e+002, 7.769109e+001
5.852471e+002, 7.787780e+001
5.857292e+002, 7.768352e+001
5.862113e+002, 7.727585e+001
5.866934e+002, 7.717083e+001
5.871755e+002, 7.781850e+001
5.876577e+002, 7.872921e+001
5.881398e+002, 7.866398e+001
5.886219e+002, 7.746073e+001
5.891040e+002, 7.637675e+001
5.895861e+002, 7.568107e+001
5.900682e+002, 7.524096e+001
5.905504e+002, 7.481358e+001
5.910325e+002, 7.445601e+001
5.915146e+002, 7.458900e+001
5.919967e+002, 7.589937e+001
5.924788e+002, 7.727882e+001
5.929609e+002, 7.775748e+001
5.934431e+002, 7.751412e+001
5.939252e+002, 7.705070e+001
5.944073e+002, 7.652824e+001
5.948894e+002, 7.605631e+001
5.953715e+002, 7.580367e+001
5.958536e+002, 7.583911e+001
5.963358e+002, 7.578240e+001
5.968179e+002, 7.527902e+001
5.973000e+002, 7.508793e+001
5.977821e+002, 7.582219e+001
5.982642e+002, 7.691058e+001
5.987463e+002, 7.755179e+001
5.992285e+002, 7.747317e+001
5.997106e+002, 7.698299e+001
6.001927e+002, 7.626979e+001
6.006748e+002, 7.535580e+001
6.011569e+002, 7.500914e+001
6.016390e+002, 7.550473e+001
6.021212e+002, 7.605187e+001
6.026033e+002, 7.601384e+001
6.030854e+002, 7.579909e+001
6.035675e+002, 7.616076e+001
6.040496e+002, 7.752746e+001
6.045317e+002, 7.845833e+001
6.050139e+002, 7.769930e+001
6.054960e+002, 7.629241e+001
6.059781e+002, 7.587286e+001
6.064602e+002, 7.655869e+001
6.069423e+002, 7.733379e+001
6.074244e+002, 7.747457e+001
6.079066e+002, 7.711236e+001
6.083887e+002, 7.684217e+001
6.088708e+002, 7.690594e+001
6.093529e+002, 7.670780e+001
6.098350e+002, 7.592942e+001
6.103171e+002, 7.513246e+001
6.107993e+002, 7.458451e+001
6.112814e+002, 7.437267e+001
6.117635e+002, 7.464909e+001
6.122456e+002, 7.568737e+001
6.127277e+002, 7.697847e+001
6.132098e+002, 7.741686e+001
6.136920e+002, 7.694495e+001
6.141741e+002, 7.625847e+001
6.146562e+002, 7.529328e+001
6.151383e+002, 7.447173e+001
6.156204e+002, 7.441159e+001
6.161025e+002, 7.495739e+001
6.165847e+002, 7.514896e+001
6.170668e+002, 7.422536e+001
6.175489e+002, 7.345017e+001
6.180310e+002, 7.402721e+001
6.185131e+002, 7.526833e+001
6.189952e+002, 7.566787e+001
6.194774e+002, 7.479871e+001
6.199595e+002, 7.353676e+001
6.204416e+002, 7.290270e+001
6.209237e+002, 7.293368e+001
6.214058e+002, 7.299605e+001
6.218879e+002, 7.308767e+001
6.223701e+002, 7.321764e+001
6.228522e+002, 7.352654e+001
6.233343e+002, 7.379587e+001
6.238164e+002, 7.374035e+001
6.242985e+002, 7.333029e+001
6.247806e+002, 7.289413e+001
6.252628e+002, 7.265421e+001
6.257448e+002, 7.259788e+001
6.262269e+002, 7.280920e+001
6.267090e+002, 7.333385e+001
6.271912e+002, 7.354918e+001
6.276733e+002, 7.302502e+001
6.281554e+002, 7.216801e+001
6.286375e+002, 7.171851e+001
6.291196e+002, 7.166776e+001
6.296017e+002, 7.191109e+001
6.300839e+002, 7.287998e+001
6.305660e+002, 7.374067e+001
6.310481e+002, 7.369328e+001
6.315302e+002, 7.308241e+001
6.320123e+002, 7.281999e+001
6.324944e+002, 7.332545e+001
6.329766e+002, 7.417998e+001
6.334587e+002, 7.473177e+001
6.339408e+002, 7.499317e+001
6.344229e+002, 7.487563e+001
6.349050e+002, 7.412899e+001
6.353871e+002, 7.331993e+001
6.358693e+002, 7.254734e+001
6.363514e+002, 7.192563e+001
6.368335e+002, 7.168343e+001
6.373156e+002, 7.194836e+001
6.377977e+002, 7.226138e+001
6.382798e+002, 7.221230e+001
6.387620e+002, 7.201150e+001
6.392441e+002, 7.221628e+001
6.397262e+002, 7.285677e+001
6.402083e+002, 7.307343e+001
6.406904e+002, 7.215296e+001
6.411725e+002, 7.057224e+001
6.416547e+002, 6.993299e+001
6.421368e+002, 7.131816e+001
6.426189e+002, 7.206870e+001
6.431010e+002, 7.187868e+001
6.435831e+002, 7.133066e+001
6.440652e+002, 7.040559e+001
6.445474e+002, 6.945187e+001
6.450295e+002, 6.922960e+001
6.455116e+002, 7.021970e+001
6.459937e+002, 7.172823e+001
6.464758e+002, 7.272165e+001
6.469579e+002, 7.320148e+001
6.474401e+002, 7.327605e+001
6.479222e+002, 7.278178e+001
6.484043e+002, 7.226467e+001
6.488864e+002, 7.224238e+001
6.493685e+002, 7.253202e+001
6.498506e+002, 7.254078e+001
6.503328e+002, 7.188225e+001
6.508149e+002, 7.146904e+001
6.512970e+002, 7.194347e+001
6.517791e+002, 7.270171e+001
6.522612e+002, 7.287086e+001
6.527433e+002, 7.247131e+001
6.532255e+002, 7.237793e+001
6.537076e+002, 7.333382e+001
6.541897e+002, 7.488972e+001
6.546718e+002, 7.527861e+001
6.551539e+002, 7.391188e+001
6.556360e+002, 7.280119e+001
6.561182e+002, 7.230924e+001
6.566003e+002, 7.207157e+001
6.570824e+002, 7.214145e+001
6.575645e+002, 7.232299e+001
6.580466e+002, 7.202755e+001
6.585287e+002, 7.065012e+001
6.590109e+002, 6.932751e+001
6.594930e+002, 6.928255e+001
6.599751e+002, 7.014780e+001
6.604572e+002, 7.092997e+001
6.609393e+002, 7.141615e+001
6.614214e+002, 7.179342e+001
6.619036e+002, 7.224757e+001
6.623857e+002, 7.275043e+001
6.628678e+002, 7.298828e+001
6.633499e+002, 7.309399e+001
6.638320e+002, 7.274308e+001
6.643141e+002, 7.116000e+001
6.647963e+002, 6.968017e+001
6.652784e+002, 6.953768e+001
6.657605e+002, 7.055266e+001
6.662426e+002, 7.159802e+001
6.667247e+002, 7.195035e+001
6.672068e+002, 7.199313e+001
6.676890e+002, 7.262126e+001
6.681711e+002, 7.379921e+001
6.686532e+002, 7.413485e+001
6.691353e+002, 7.300527e+001
6.696174e+002, 7.172310e+001
6.700995e+002, 7.166150e+001
6.705817e+002, 7.266957e+001
6.710638e+002, 7.309199e+001
6.715459e+002, 7.252288e+001
6.720280e+002, 7.183402e+001
6.725101e+002, 7.092941e+001
6.729922e+002, 7.026495e+001
6.734744e+002, 7.052744e+001
6.739565e+002, 7.163901e+001
6.744386e+002, 7.281821e+001
6.749207e+002, 7.351636e+001
6.754028e+002, 7.377026e+001
6.758849e+002, 7.361897e+001
6.763671e+002, 7.293345e+001
6.768492e+002, 7.244066e+001
6.773313e+002, 7.256116e+001
6.778134e+002, 7.259004e+001
6.782955e+002, 7.157339e+001
6.787776e+002, 6.994291e+001
6.792598e+002, 6.930985e+001
6.797419e+002, 7.083167e+001
6.802240e+002, 7.242082e+001
6.807061e+002, 7.276268e+001
6.811882e+002, 7.241192e+001
6.816703e+002, 7.226830e+001
6.821525e+002, 7.246507e+001
6.826346e+002, 7.251016e+001
6.831167e+002, 7.193403e+001
6.835988e+002, 7.095316e+001
6.840809e+002, 7.068610e+001
6.845630e+002, 7.156831e+001
6.850452e+002, 7.221238e+001
6.855273e+002, 7.259000e+001
6.860094e+002, 7.253439e+001
6.864915e+002, 7.140413e+001
6.869736e+002, 6.972504e+001
6.874557e+002, 6.905009e+001
6.879379e+002, 7.038754e+001
6.884200e+002, 7.215653e+001
6.889021e+002, 7.324003e+001
6.893842e+002, 7.363808e+001
6.898663e+002, 7.296988e+001
6.903484e+002, 7.121180e+001
6.908306e+002, 6.993426e+001
6.913127e+002, 7.051298e+001
6.917948e+002, 7.247854e+001
6.922769e+002, 7.345764e+001
6.927590e+002, 7.271497e+001
6.932411e+002, 7.213455e+001
6.937233e+002, 7.175123e+001
6.942054e+002, 7.159667e+001
6.946875e+002, 7.176244e+001
6.951696e+002, 7.216827e+001
6.956517e+002, 7.264418e+001
6.961339e+002, 7.314687e+001
6.966160e+002, 7.359750e+001
6.970981e+002, 7.400187e+001
6.975802e+002, 7.428862e+001
6.980623e+002, 7.412106e+001
6.985444e+002, 7.342054e+001
6.990266e+002, 7.265565e+001
6.995087e+002, 7.207515e+001
6.999908e+002, 7.173182e+001
7.004729e+002, 7.185032e+001
7.009550e+002, 7.316175e+001
7.014371e+002, 7.380388e+001
7.019193e+002, 7.331169e+001
7.024014e+002, 7.255302e+001
7.028835e+002, 7.182359e+001
7.033656e+002, 7.128551e+001
7.038477e+002, 7.122127e+001
7.043298e+002, 7.179679e+001
7.048120e+002, 7.247359e+001
7.052941e+002, 7.268935e+001
7.057762e+002, 7.244796e+001
7.062583e+002, 7.145934e+001
7.067404e+002, 6.948523e+001
7.072225e+002, 6.834155e+001
7.077046e+002, 6.941988e+001
7.081867e+002, 7.178927e+001
7.086688e+002, 7.307853e+001
7.091509e+002, 7.293870e+001
7.096331e+002, 7.268002e+001
7.101152e+002, 7.218214e+001
7.105973e+002, 7.178642e+001
7.110794e+002, 7.177908e+001
7.115615e+002, 7.199556e+001
7.120436e+002, 7.203866e+001
7.125258e+002, 7.177721e+001
7.130079e+002, 7.169031e+001
7.134900e+002, 7.266757e+001
7.139721e+002, 7.439522e+001
7.144542e+002, 7.499877e+001
7.149363e+002, 7.425050e+001
7.154185e+002, 7.348054e+001
7.159006e+002, 7.330866e+001
7.163827e+002, 7.343141e+001
7.168648e+002, 7.329463e+001
7.173469e+002, 7.280889e+001
7.178290e+002, 7.262231e+001
7.183112e+002, 7.328050e+001
7.187933e+002, 7.372530e+001
7.192754e+002, 7.289790e+001
7.197575e+002, 7.174694e+001
7.202396e+002, 7.196988e+001
7.207217e+002, 7.382602e+001
7.212039e+002, 7.555553e+001
7.216860e+002, 7.518713e+001
7.221681e+002, 7.335548e+001
7.226502e+002, 7.271850e+001
7.231323e+002, 7.345652e+001
7.236144e+002, 7.380987e+001
7.240966e+002, 7.301757e+001
7.245787e+002, 7.192954e+001
7.250608e+002, 7.159363e+001
7.255429e+002, 7.198978e+001
7.260250e+002, 7.217596e+001
7.265071e+002, 7.163811e+001
7.269893e+002, 7.144122e+001
7.274714e+002, 7.261888e+001
7.279535e+002, 7.395711e+001
7.284356e+002, 7.376539e+001
7.289177e+002, 7.211618e+001
7.293998e+002, 7.066750e+001
7.298820e+002, 7.069489e+001
7.303641e+002, 7.159634e+001
7.308462e+002, 7.195326e+001
7.313283e+002, 7.173746e+001
7.318104e+002, 7.179759e+001
7.322925e+002, 7.238928e+001
7.327747e+002, 7.307571e+001
7.332568e+002, 7.355981e+001
7.337389e+002, 7.383635e+001
7.342210e+002, 7.392297e+001
7.347031e+002, 7.335885e+001
7.351852e+002, 7.331300e+001
7.356674e+002, 7.488816e+001
7.361495e+002, 7.637630e+001
7.366316e+002, 7.599837e+001
7.371137e+002, 7.428313e+001
7.375958e+002, 7.304260e+001
7.380779e+002, 7.319125e+001
7.385601e+002, 7.394104e+001
7.390422e+002, 7.407529e+001
7.395243e+002, 7.368742e+001
7.400064e+002, 7.381429e+001
7.404885e+002, 7.471430e+001
7.409706e+002, 7.528556e+001
7.414528e+002, 7.475114e+001
7.419349e+002, 7.361445e+001
7.424170e+002, 7.298763e+001
7.428991e+002, 7.297654e+001
7.433812e+002, 7.304655e+001
7.438633e+002, 7.306735e+001
7.443455e+002, 7.325153e+001
7.448276e+002, 7.401707e+001
7.453097e+002, 7.490320e+001
7.457918e+002, 7.507239e+001
7.462739e+002, 7.435469e+001
7.467560e+002, 7.360545e+001
7.472382e+002, 7.378606e+001
7.477203e+002, 7.455671e+001
7.482024e+002, 7.491098e+001
7.486845e+002, 7.484547e+001
7.491666e+002, 7.443044e+001
7.496487e+002, 7.357044e+001
7.501309e+002, 7.264743e+001
7.506130e+002, 7.201539e+001
7.510951e+002, 7.166914e+001
7.515772e+002, 7.196277e+001
7.520593e+002, 7.354362e+001
7.525414e+002, 7.486610e+001
7.530236e+002, 7.558244e+001
7.535057e+002, 7.590681e+001
7.539878e+002, 7.592474e+001
7.544699e+002, 7.573425e+001
7.549520e+002, 7.556025e+001
7.554341e+002, 7.554897e+001
7.559163e+002, 7.557024e+001
7.563984e+002, 7.532577e+001
7.568805e+002, 7.493282e+001
7.573626e+002, 7.508764e+001
7.578447e+002, 7.595803e+001
7.583268e+002, 7.643340e+001
7.588090e+002, 7.554821e+001
7.592911e+002, 7.385217e+001
7.597732e+002, 7.319900e+001
7.602553e+002, 7.426888e+001
7.607374e+002, 7.516479e+001
7.612195e+002, 7.617592e+001
7.617017e+002, 7.672424e+001
7.621838e+002, 7.616943e+001
7.626659e+002, 7.510532e+001
7.631480e+002, 7.443890e+001
7.636301e+002, 7.442385e+001
7.641122e+002, 7.471522e+001
7.645944e+002, 7.533293e+001
7.650765e+002, 7.595261e+001
7.655586e+002, 7.599549e+001
7.660407e+002, 7.552239e+001
7.665228e+002, 7.492325e+001
7.670049e+002, 7.432803e+001
7.674871e+002, 7.388563e+001
7.679692e+002, 7.379905e+001
7.684513e+002, 7.407580e+001
7.689334e+002, 7.452984e+001
7.694155e+002, 7.546310e+001
7.698976e+002, 7.607584e+001
7.703798e+002, 7.571533e+001
7.708619e+002, 7.535927e+001
7.713440e+002, 7.615084e+001
7.718261e+002, 7.777461e+001
7.723082e+002, 7.845332e+001
7.727903e+002, 7.672091e+001
7.732725e+002, 7.500399e+001
7.737546e+002, 7.530315e+001
7.742367e+002, 7.657671e+001
7.747188e+002, 7.718415e+001
7.752009e+002, 7.697272e+001
7.756830e+002, 7.673306e+001
7.761652e+002, 7.699224e+001
7.766473e+002, 7.752787e+001
7.771294e+002, 7.784487e+001
7.776115e+002, 7.794579e+001
7.780936e+002, 7.777147e+001
7.785757e+002, 7.707291e+001
7.790579e+002, 7.655550e+001
7.795400e+002, 7.680381e+001
7.800221e+002, 7.738904e+001
7.805042e+002, 7.756601e+001
7.809863e+002, 7.722140e+001
7.814684e+002, 7.693905e+001
7.819506e+002, 7.678074e+001
7.824327e+002, 7.680611e+001
7.829148e+002, 7.731008e+001
7.833969e+002, 7.793201e+001
7.838790e+002, 7.795627e+001
7.843611e+002, 7.727631e+001
7.848433e+002, 7.662374e+001
7.853254e+002, 7.667320e+001
7.858075e+002, 7.726267e+001
7.862896e+002, 7.811848e+001
7.867717e+002, 7.925102e+001
7.872538e+002, 7.958620e+001
7.877360e+002, 7.862456e+001
7.882181e+002, 7.749550e+001
7.887002e+002, 7.721699e+001
7.891823e+002, 7.770508e+001
7.896644e+002, 7.825748e+001
7.901465e+002, 7.921024e+001
7.906286e+002, 7.974475e+001
7.911107e+002, 7.939017e+001
7.915928e+002, 7.897942e+001
7.920750e+002, 7.925169e+001
7.925571e+002, 7.985258e+001
7.930392e+002, 7.987148e+001
7.935213e+002, 7.891261e+001
7.940034e+002, 7.794604e+001
7.944855e+002, 7.803437e+001
7.949677e+002, 7.860654e+001
7.954498e+002, 7.864481e+001
7.959319e+002, 7.811675e+001
7.964140e+002, 7.715095e+001
7.968961e+002, 7.574725e+001
7.973782e+002, 7.446467e+001
7.978604e+002, 7.412756e+001
7.983425e+002, 7.478049e+001
7.988246e+002, 7.523524e+001
7.993067e+002, 7.507668e+001
7.997888e+002, 7.547313e+001
8.002709e+002, 7.747220e+001
8.007531e+002, 7.953153e+001
8.012352e+002, 8.037919e+001
8.017173e+002, 8.020561e+001
8.021994e+002, 8.010699e+001
8.026815e+002, 8.049965e+001
8.031636e+002, 8.083515e+001
8.036458e+002, 8.093819e+001
8.041279e+002, 8.075857e+001
8.046100e+002, 8.001206e+001
8.050921e+002, 7.890020e+001
8.055742e+002, 7.809510e+001
8.060563e+002, 7.797282e+001
8.065385e+002, 7.824069e+001
8.070206e+002, 7.840733e+001
8.075027e+002, 7.850159e+001
8.079848e+002, 7.903600e+001
8.084669e+002, 8.017298e+001
8.089490e+002, 8.101332e+001
8.094312e+002, 8.107932e+001
8.099133e+002, 8.075180e+001
8.103954e+002, 8.059825e+001
8.108775e+002, 8.067139e+001
8.113596e+002, 8.056019e+001
8.118417e+002, 7.994062e+001
8.123239e+002, 7.955177e+001
8.128060e+002, 7.985984e+001
8.132881e+002, 8.029838e+001
8.137702e+002, 8.024563e+001
8.142523e+002, 7.977380e+001
8.147344e+002, 7.946938e+001
8.152166e+002, 7.968356e+001
8.156987e+002, 8.004961e+001
8.161808e+002, 8.022495e+001
8.166629e+002, 8.025310e+001
8.171450e+002, 8.020786e+001
8.176271e+002, 8.010711e+001
8.181093e+002, 7.992129e+001
8.185914e+002, 7.958857e+001
8.190735e+002, 7.943260e+001
8.195556e+002, 8.026533e+001
8.200377e+002, 8.240472e+001
8.205198e+002, 8.347400e+001
8.210020e+002, 8.303515e+001
8.214841e+002, 8.235732e+001
8.219662e+002, 8.172298e+001
8.224483e+002, 8.121317e+001
8.229304e+002, 8.086256e+001
8.234125e+002, 8.067884e+001
8.238947e+002, 8.086317e+001
8.243768e+002, 8.179440e+001
8.248589e+002, 8.269523e+001
8.253410e+002, 8.338137e+001
8.258231e+002, 8.376490e+001
8.263052e+002, 8.361276e+001
8.267874e+002, 8.304784e+001
8.272695e+002, 8.253676e+001
8.277516e+002, 8.235362e+001
8.282337e+002, 8.226643e+001
8.287158e+002, 8.189168e+001
8.291979e+002, 8.132249e+001
8.296801e+002, 8.089400e+001
8.301622e+002, 8.063595e+001
8.306443e+002, 8.078800e+001
8.311264e+002, 8.160030e+001
8.316085e+002, 8.248660e+001
8.320906e+002, 8.238907e+001
8.325728e+002, 8.107994e+001
8.330549e+002, 8.045939e+001
8.335370e+002, 8.111840e+001
8.340191e+002, 8.162457e+001
8.345012e+002, 8.167022e+001
8.349833e+002, 8.143884e+001
8.354655e+002, 8.081630e+001
8.359476e+002, 7.999028e+001
8.364297e+002, 7.980185e+001
8.369118e+002, 8.122366e+001
8.373939e+002, 8.218544e+001
8.378760e+002, 8.089417e+001
8.383582e+002, 7.898116e+001
8.388403e+002, 7.831293e+001
8.393224e+002, 7.884368e+001
8.398045e+002, 7.975217e+001
8.402866e+002, 8.065340e+001
8.407687e+002, 8.146364e+001
8.412509e+002, 8.212104e+001
8.417330e+002, 8.259319e+001
8.422151e+002, 8.261662e+001
8.426972e+002, 8.216443e+001
8.431793e+002, 8.159093e+001
8.436614e+002, 8.092817e+001
8.441436e+002, 8.047518e+001
8.446257e+002, 8.065092e+001
8.451078e+002, 8.143569e+001
8.455899e+002, 8.198362e+001
8.460720e+002, 8.218931e+001
8.465541e+002, 8.229898e+001
8.470363e+002, 8.215743e+001
8.475184e+002, 8.209563e+001
8.480005e+002, 8.242249e+001
8.484826e+002, 8.297083e+001
8.489647e+002, 8.336562e+001
8.494468e+002, 8.351515e+001
8.499290e+002, 8.349270e+001
8.504111e+002, 8.356684e+001
8.508932e+002, 8.330478e+001
8.513753e+002, 8.166911e+001
8.518574e+002, 7.944041e+001
8.523395e+002, 7.859961e+001
8.528217e+002, 7.964616e+001
8.533038e+002, 8.114292e+001
8.537859e+002, 8.176330e+001
8.542680e+002, 8.167591e+001
8.547501e+002, 8.125562e+001
8.552322e+002, 8.050236e+001
8.557144e+002, 8.006248e+001
8.561965e+002, 8.013870e+001
8.566786e+002, 8.018181e+001
8.571607e+002, 7.963164e+001
8.576428e+002, 7.885014e+001
8.581249e+002, 7.906898e+001
8.586071e+002, 8.113564e+001
8.590892e+002, 8.235596e+001
8.595713e+002, 8.238064e+001
8.600534e+002, 8.199269e+001
8.605355e+002, 8.107280e+001
8.610176e+002, 8.011032e+001
8.614998e+002, 7.974329e+001
8.619819e+002, 8.001377e+001
8.624640e+002, 8.028003e+001
8.629461e+002, 8.013200e+001
8.634282e+002, 8.006007e+001
8.639103e+002, 8.066773e+001
8.643925e+002, 8.141755e+001
8.648746e+002, 8.149426e+001
8.653567e+002, 8.089863e+001
8.658388e+002, 8.015372e+001
8.663209e+002, 7.955030e+001
8.668030e+002, 7.905431e+001
8.672852e+002, 7.866293e+001
8.677673e+002, 7.834689e+001
8.682494e+002, 7.783995e+001
8.687315e+002, 7.711219e+001
8.692136e+002, 7.679150e+001
8.696957e+002, 7.718488e+001
8.701779e+002, 7.794494e+001
8.706600e+002, 7.865345e+001
8.711421e+002, 7.931347e+001
8.716242e+002, 7.975805e+001
8.721063e+002, 8.015431e+001
8.725884e+002, 8.003926e+001
8.730705e+002, 7.867074e+001
8.735526e+002, 7.738733e+001
8.740347e+002, 7.716383e+001
8.745168e+002, 7.762470e+001
8.749990e+002, 7.778443e+001
8.754811e+002, 7.735367e+001
8.759632e+002, 7.702779e+001
8.764453e+002, 7.759651e+001
8.769274e+002, 7.783113e+001
8.774095e+002, 7.596804e+001
8.778917e+002, 7.345168e+001
8.783738e+002, 7.319303e+001
8.788559e+002, 7.555067e+001
8.793380e+002, 7.763416e+001
8.798201e+002, 7.692105e+001
8.803022e+002, 7.496389e+001
8.807844e+002, 7.429897e+001
8.812665e+002, 7.460036e+001
8.817486e+002, 7.472257e+001
8.822307e+002, 7.447744e+001
8.827128e+002, 7.401962e+001
8.831949e+002, 7.340401e+001
8.836771e+002, 7.282431e+001
8.841592e+002, 7.277789e+001
8.846413e+002, 7.339702e+001
8.851234e+002, 7.347327e+001
8.856055e+002, 7.264931e+001
8.860876e+002, 7.219518e+001
8.865698e+002, 7.288074e+001
8.870519e+002, 7.378165e+001
8.875340e+002, 7.372437e+001
8.880161e+002, 7.279375e+001
8.884982e+002, 7.233627e+001
8.889803e+002, 7.288486e+001
8.894625e+002, 7.320790e+001
8.899446e+002, 7.301470e+001
8.904267e+002, 7.260655e+001
8.909088e+002, 7.218739e+001
8.913909e+002, 7.171307e+001
8.918730e+002, 7.089352e+001
8.923552e+002, 6.960681e+001
8.928373e+002, 6.888168e+001
8.933194e+002, 7.002409e+001
8.938015e+002, 7.150948e+001
8.942836e+002, 7.164373e+001
8.947657e+002, 7.087057e+001
8.952479e+002, 7.003160e+001
8.957300e+002, 6.940372e+001
8.962121e+002, 6.924458e+001
8.966942e+002, 6.983987e+001
8.971763e+002, 7.069971e+001
8.976584e+002, 7.075087e+001
8.981406e+002, 7.008343e+001
8.986227e+002, 6.964455e+001
8.991048e+002, 6.954459e+001
8.995869e+002, 6.930354e+001
9.000690e+002, 6.860445e+001
9.005511e+002, 6.791383e+001
9.010333e+002, 6.799976e+001
9.015154e+002, 6.891771e+001
9.019975e+002, 6.933761e+001
9.024796e+002, 6.893539e+001
9.029617e+002, 6.864122e+001
9.034438e+002, 6.879032e+001
9.039260e+002, 6.893800e+001
9.044081e+002, 6.873239e+001
9.048902e+002, 6.830001e+001
9.053723e+002, 6.801660e+001
9.058544e+002, 6.811179e+001
9.063365e+002, 6.781259e+001
9.068187e+002, 6.619324e+001
9.073008e+002, 6.491022e+001
9.077829e+002, 6.530779e+001
9.082650e+002, 6.648280e+001
9.087471e+002, 6.724643e+001
9.092292e+002, 6.736826e+001
9.097114e+002, 6.716713e+001
9.101935e+002, 6.676075e+001
9.106756e+002, 6.621853e+001
9.111577e+002, 6.544579e+001
9.116398e+002, 6.465294e+001
9.121219e+002, 6.428423e+001
9.126041e+002, 6.431524e+001
9.130862e+002, 6.445728e+001
9.135683e+002, 6.457498e+001
9.140504e+002, 6.449912e+001
9.145325e+002, 6.380884e+001
9.150146e+002, 6.271087e+001
9.154968e+002, 6.258549e+001
9.159789e+002, 6.348310e+001
9.164610e+002, 6.377455e+001
9.169431e+002, 6.292315e+001
9.174252e+002, 6.200979e+001
9.179073e+002, 6.202192e+001
9.183895e+002, 6.259257e+001
9.188716e+002, 6.228780e+001
9.193537e+002, 6.036440e+001
9.198358e+002, 5.948672e+001
9.203179e+002, 6.037859e+001
9.208000e+002, 6.128461e+001
9.212822e+002, 6.131297e+001
9.217643e+002, 6.114266e+001
9.222464e+002, 6.172712e+001
9.227285e+002, 6.301220e+001
9.232106e+002, 6.351686e+001
9.236927e+002, 6.233367e+001
9.241749e+002, 6.129950e+001
9.246570e+002, 6.067865e+001
9.251391e+002, 6.062035e+001
9.256212e+002, 6.181073e+001
9.261033e+002, 6.350172e+001
9.265854e+002, 6.408413e+001
9.270676e+002, 6.306023e+001
9.275497e+002, 6.196412e+001
9.280318e+002, 6.185443e+001
9.285139e+002, 6.211870e+001
9.289960e+002, 6.221811e+001
9.294781e+002, 6.219364e+001
9.299603e+002, 6.216198e+001
9.304424e+002, 6.213850e+001
9.309245e+002, 6.202483e+001
9.314066e+002, 6.172390e+001
9.318887e+002, 6.150008e+001
9.323708e+002, 6.202485e+001
9.328530e+002, 6.300014e+001
9.333351e+002, 6.291450e+001
9.338172e+002, 6.178260e+001
9.342993e+002, 6.138688e+001
9.347814e+002, 6.245417e+001
9.352635e+002, 6.378624e+001
9.357457e+002, 6.407877e+001
9.362278e+002, 6.349010e+001
9.367099e+002, 6.290255e+001
9.371920e+002, 6.226312e+001
9.376741e+002, 6.190889e+001
9.381563e+002, 6.210592e+001
9.386384e+002, 6.205482e+001
9.391205e+002, 6.107933e+001
9.396026e+002, 5.977377e+001
9.400847e+002, 5.920235e+001
9.405668e+002, 5.947099e+001
9.410490e+002, 5.985202e+001
9.415311e+002, 6.085434e+001
9.420132e+002, 6.127303e+001
9.424953e+002, 6.025822e+001
9.429774e+002, 5.914753e+001
9.434595e+002, 5.889745e+001
9.439417e+002, 5.934457e+001
9.444238e+002, 6.003954e+001
9.449059e+002, 6.108283e+001
9.453880e+002, 6.165195e+001
9.458701e+002, 6.120243e+001
9.463522e+002, 6.045820e+001
9.468344e+002, 5.960445e+001
9.473165e+002, 5.891862e+001
9.477986e+002, 5.883303e+001
9.482807e+002, 5.929937e+001
9.487628e+002, 5.978826e+001
9.492449e+002, 6.002114e+001
9.497271e+002, 6.017052e+001
9.502092e+002, 6.050435e+001
9.506913e+002, 6.080401e+001
9.511734e+002, 6.063171e+001
9.516555e+002, 6.010856e+001
9.521376e+002, 5.962536e+001
9.526198e+002, 5.934349e+001
9.531019e+002, 5.941560e+001
9.535840e+002, 6.007495e+001
9.540661e+002, 6.108482e+001
9.545482e+002, 6.203453e+001
9.550303e+002, 6.285441e+001
9.555124e+002, 6.301691e+001
9.559945e+002, 6.244881e+001
9.564766e+002, 6.148330e+001
9.569587e+002, 6.018910e+001
9.574409e+002, 5.921803e+001
9.579230e+002, 5.985830e+001
9.584051e+002, 6.206137e+001
9.588872e+002, 6.262635e+001
9.593693e+002, 6.106651e+001
9.598514e+002, 5.994648e+001
9.603336e+002, 5.982074e+001
9.608157e+002, 6.029597e+001
9.612978e+002, 6.142714e+001
9.617799e+002, 6.273051e+001
9.622620e+002, 6.271991e+001
9.627441e+002, 6.060760e+001
9.632263e+002, 5.963053e+001
9.637084e+002, 6.087310e+001
9.641905e+002, 6.178666e+001
9.646726e+002, 6.134578e+001
9.651547e+002, 6.059503e+001
9.656368e+002, 6.053909e+001
9.661190e+002, 6.098982e+001
9.666011e+002, 6.096275e+001
9.670832e+002, 5.995744e+001
9.675653e+002, 5.924411e+001
9.680474e+002, 5.922461e+001
9.685295e+002, 5.942483e+001
9.690117e+002, 5.956303e+001
9.694938e+002, 5.976328e+001
9.699759e+002, 6.025385e+001
9.704580e+002, 6.102745e+001
9.709401e+002, 6.181942e+001
9.714222e+002, 6.264628e+001
9.719044e+002, 6.324306e+001
9.723865e+002, 6.322936e+001
9.728686e+002, 6.306863e+001
9.733507e+002, 6.337552e+001
9.738328e+002, 6.392536e+001
9.743149e+002, 6.410207e+001
9.747971e+002, 6.374010e+001
9.752792e+002, 6.320097e+001
9.757613e+002, 6.241386e+001
9.762434e+002, 6.200277e+001
9.767255e+002, 6.306153e+001
9.772076e+002, 6.504910e+001
9.776898e+002, 6.719357e+001
9.781719e+002, 6.915498e+001
9.786540e+002, 6.982187e+001
9.791361e+002, 6.868004e+001
9.796182e+002, 6.734505e+001
9.801003e+002, 6.803786e+001
9.805825e+002, 7.007925e+001
9.810646e+002, 7.114880e+001
9.815467e+002, 7.136227e+001
9.820288e+002, 7.161662e+001
9.825109e+002, 7.208846e+001
9.829930e+002, 7.286867e+001
9.834752e+002, 7.409599e+001
9.839573e+002, 7.527917e+001
9.844394e+002, 7.539635e+001
9.849215e+002, 7.444023e+001
9.854036e+002, 7.360854e+001
9.858857e+002, 7.292111e+001
9.863679e+002, 7.227962e+001
9.868500e+002, 7.172454e+001
9.873321e+002, 7.095658e+001
9.878142e+002, 6.960537e+001
9.882963e+002, 6.797399e+001
9.887784e+002, 6.709643e+001
9.892606e+002, 6.738084e+001
9.897427e+002, 6.693525e+001
9.902248e+002, 6.526788e+001
9.907069e+002, 6.382243e+001
9.911890e+002, 6.316672e+001
9.916711e+002, 6.277150e+001
9.921533e+002, 6.212136e+001
9.926354e+002, 6.127824e+001
9.931175e+002, 6.060951e+001
9.935996e+002, 5.996790e+001
9.940817e+002, 5.976703e+001
9.945638e+002, 6.075462e+001
9.950460e+002, 6.129447e+001
9.955281e+002, 6.003956e+001
9.960102e+002, 5.852114e+001
9.964923e+002, 5.869199e+001
9.969744e+002, 6.033544e+001
9.974565e+002, 6.122381e+001
9.979387e+002, 6.035941e+001
9.984208e+002, 5.968097e+001
9.989029e+002, 5.999363e+001
9.993850e+002, 6.030306e+001
9.998671e+002, 5.974961e+001
1.000349e+003, 5.892350e+001
1.000831e+003, 5.875349e+001
1.001313e+003, 5.930994e+001
1.001796e+003, 5.988713e+001
1.002278e+003, 6.018193e+001
1.002760e+003, 6.044951e+001
1.003242e+003, 6.120681e+001
1.003724e+003, 6.167242e+001
1.004206e+003, 6.071165e+001
1.004688e+003, 5.901954e+001
1.005170e+003, 5.805595e+001
1.005653e+003, 5.813238e+001
1.006135e+003, 5.832702e+001
1.006617e+003, 5.789585e+001
1.007099e+003, 5.756037e+001
1.007581e+003, 5.830578e+001
1.008063e+003, 5.937875e+001
1.008545e+003, 5.973735e+001
1.009027e+003, 5.942255e+001
1.009509e+003, 5.876226e+001
1.009992e+003, 5.792824e+001
1.010474e+003, 5.738647e+001
1.010956e+003, 5.780180e+001
1.011438e+003, 5.846889e+001
1.011920e+003, 5.806148e+001
1.012402e+003, 5.714944e+001
1.012884e+003, 5.731433e+001
1.013366e+003, 5.843397e+001
1.013849e+003, 5.888805e+001
1.014331e+003, 5.799069e+001
1.014813e+003, 5.700739e+001
1.015295e+003, 5.753885e+001
1.015777e+003, 5.889210e+001
1.016259e+003, 5.926197e+001
1.016741e+003, 5.886028e+001
1.017223e+003, 5.864853e+001
1.017705e+003, 5.876631e+001
1.018188e+003, 5.901331e+001
1.018670e+003, 5.929486e+001
1.019152e+003, 5.950393e+001
1.019634e+003, 5.937771e+001
1.020116e+003, 5.908472e+001
1.020598e+003, 5.970698e+001
1.021080e+003, 6.118091e+001
1.021562e+003, 6.169147e+001
1.022044e+003, 6.087315e+001
1.022527e+003, 6.004681e+001
1.023009e+003, 5.995687e+001
1.023491e+003, 6.037077e+001
1.023973e+003, 6.105547e+001
1.024455e+003, 6.195045e+001
1.024937e+003, 6.187365e+001
1.025419e+003, 6.066393e+001
1.025901e+003, 5.987421e+001
1.026384e+003, 5.984060e+001
1.026866e+003, 6.000928e+001
1.027348e+003, 6.002276e+001
1.027830e+003, 6.006329e+001
1.028312e+003, 6.051270e+001
1.028794e+003, 6.140258e+001
1.029276e+003, 6.199125e+001
1.029758e+003, 6.223569e+001
1.030240e+003, 6.232261e+001
1.030723e+003, 6.223569e+001
1.031205e+003, 6.212067e+001
1.031687e+003, 6.207996e+001
1.032169e+003, 6.206193e+001
1.032651e+003, 6.193746e+001
1.033133e+003, 6.166787e+001
1.033615e+003, 6.157812e+001
1.034097e+003, 6.143419e+001
1.034579e+003, 6.207359e+001
1.035062e+003, 6.449633e+001
1.035544e+003, 6.644210e+001
1.036026e+003, 6.610738e+001
1.036508e+003, 6.445372e+001
1.036990e+003, 6.345784e+001
1.037472e+003, 6.321041e+001
1.037954e+003, 6.313092e+001
1.038436e+003, 6.364493e+001
1.038919e+003, 6.362846e+001
1.039401e+003, 6.220539e+001
1.039883e+003, 6.094740e+001
1.040365e+003, 6.104280e+001
1.040847e+003, 6.195751e+001
1.041329e+003, 6.264019e+001
1.041811e+003, 6.312847e+001
1.042293e+003, 6.320490e+001
1.042776e+003, 6.253352e+001
1.043258e+003, 6.191965e+001
1.043740e+003, 6.123638e+001
1.044222e+003, 6.092797e+001
1.044704e+003, 6.172480e+001
1.045186e+003, 6.295351e+001
1.045668e+003, 6.318277e+001
1.046150e+003, 6.212597e+001
1.046632e+003, 6.148901e+001
1.047115e+003, 6.200828e+001
1.047597e+003, 6.219883e+001
1.048079e+003, 6.133373e+001
1.048561e+003, 6.038032e+001
1.049043e+003, 5.992573e+001
1.049525e+003, 5.988980e+001
1.050007e+003, 6.021844e+001
1.050489e+003, 6.098374e+001
1.050971e+003, 6.113164e+001
1.051454e+003, 5.934716e+001
1.051936e+003, 5.843569e+001
1.052418e+003, 6.015728e+001
1.052900e+003, 6.214259e+001
1.053382e+003, 6.264252e+001
1.053864e+003, 6.217398e+001
1.054346e+003, 6.189029e+001
1.054828e+003, 6.196603e+001
1.055311e+003, 6.167195e+001
1.055793e+003, 6.036788e+001
1.056275e+003, 5.927147e+001
1.056757e+003, 5.878666e+001
1.057239e+003, 5.867147e+001
1.057721e+003, 5.892260e+001
1.058203e+003, 5.933728e+001
1.058685e+003, 5.965578e+001
1.059167e+003, 5.983114e+001
1.059650e+003, 5.979048e+001
1.060132e+003, 5.915939e+001
1.060614e+003, 5.878159e+001
1.061096e+003, 5.916555e+001
1.061578e+003, 5.973682e+001
1.062060e+003, 6.034754e+001
1.062542e+003, 6.070468e+001
1.063024e+003, 6.021184e+001
1.063506e+003, 5.886530e+001
1.063989e+003, 5.780467e+001
1.064471e+003, 5.765236e+001
1.064953e+003, 5.755626e+001
1.065435e+003, 5.680793e+001
1.065917e+003, 5.633627e+001
1.066399e+003, 5.740643e+001
1.066881e+003, 5.895493e+001
1.067363e+003, 5.904027e+001
1.067846e+003, 5.759610e+001
1.068328e+003, 5.673601e+001
1.068810e+003, 5.790286e+001
1.069292e+003, 5.864051e+001
1.069774e+003, 5.712263e+001
1.070256e+003, 5.550452e+001
1.070738e+003, 5.556791e+001
1.071220e+003, 5.647706e+001
1.071703e+003, 5.696709e+001
1.072185e+003, 5.689478e+001
1.072667e+003, 5.681219e+001
1.073149e+003, 5.707648e+001
1.073631e+003, 5.700135e+001
1.074113e+003, 5.550244e+001
1.074595e+003, 5.434962e+001
1.075077e+003, 5.538968e+001
1.075559e+003, 5.720518e+001
1.076042e+003, 5.785995e+001
1.076524e+003, 5.731531e+001
1.077006e+003, 5.672566e+001
1.077488e+003, 5.643867e+001
1.077970e+003, 5.629262e+001
1.078452e+003, 5.605965e+001
1.078934e+003, 5.610910e+001
1.079416e+003, 5.724686e+001
1.079898e+003, 5.842156e+001
1.080380e+003, 5.821429e+001
1.080863e+003, 5.685392e+001
1.081345e+003, 5.551656e+001
1.081827e+003, 5.444032e+001
1.082309e+003, 5.404331e+001
1.082791e+003, 5.529381e+001
1.083273e+003, 5.637056e+001
1.083755e+003, 5.581041e+001
1.084237e+003, 5.476511e+001
1.084720e+003, 5.431999e+001
1.085202e+003, 5.454119e+001
1.085684e+003, 5.537706e+001
1.086166e+003, 5.692931e+001
1.086648e+003, 5.789868e+001
1.087130e+003, 5.714998e+001
1.087612e+003, 5.640863e+001
1.088094e+003, 5.694047e+001
1.088577e+003, 5.756968e+001
1.089059e+003, 5.687040e+001
1.089541e+003, 5.547445e+001
1.090023e+003, 5.494004e+001
1.090505e+003, 5.558706e+001
1.090987e+003, 5.621935e+001
1.091469e+003, 5.644542e+001
1.091951e+003, 5.649448e+001
1.092433e+003, 5.639068e+001
1.092916e+003, 5.622135e+001
1.093398e+003, 5.601020e+001
1.093880e+003, 5.580238e+001
1.094362e+003, 5.569043e+001
1.094844e+003, 5.567387e+001
1.095326e+003, 5.557019e+001
1.095808e+003, 5.515701e+001
1.096290e+003, 5.489397e+001
1.096772e+003, 5.532428e+001
1.097255e+003, 5.552898e+001
1.097737e+003, 5.437408e+001
1.098219e+003, 5.297269e+001
1.098701e+003, 5.305873e+001
1.099183e+003, 5.451770e+001
1.099665e+003, 5.546238e+001
1.100147e+003, 5.517413e+001
1.100629e+003, 5.494586e+001
1.101112e+003, 5.527496e+001
1.101594e+003, 5.554103e+001
1.102076e+003, 5.533405e+001
1.102558e+003, 5.498994e+001
1.103040e+003, 5.478368e+001
1.103522e+003, 5.476696e+001
1.104004e+003, 5.512386e+001
1.104486e+003, 5.626954e+001
1.104969e+003, 5.654017e+001
1.105451e+003, 5.457354e+001
1.105933e+003, 5.307796e+001
1.106415e+003, 5.345789e+001
1.106897e+003, 5.424609e+001
1.107379e+003, 5.429283e+001
1.107861e+003, 5.379996e+001
1.108343e+003, 5.323795e+001
1.108825e+003, 5.247634e+001
1.109307e+003, 5.260594e+001
1.109790e+003, 5.516897e+001
1.110272e+003, 5.656717e+001
1.110754e+003, 5.516613e+001
1.111236e+003, 5.336861e+001
1.111718e+003, 5.223655e+001
1.112200e+003, 5.181004e+001
1.112682e+003, 5.254728e+001
1.113164e+003, 5.457380e+001
1.113647e+003, 5.501536e+001
1.114129e+003, 5.207668e+001
1.114611e+003, 5.055600e+001
1.115093e+003, 5.178763e+001
1.115575e+003, 5.309687e+001
1.116057e+003, 5.328582e+001
1.116539e+003, 5.305753e+001
1.117021e+003, 5.321302e+001
1.117504e+003, 5.369027e+001
1.117986e+003, 5.404436e+001
1.118468e+003, 5.437468e+001
1.118950e+003, 5.432624e+001
1.119432e+003, 5.373981e+001
1.119914e+003, 5.307859e+001
1.120396e+003, 5.244646e+001
1.120878e+003, 5.181592e+001
1.121360e+003, 5.096930e+001
1.121843e+003, 5.024659e+001
1.122325e+003, 5.080231e+001
1.122807e+003, 5.301412e+001
1.123289e+003, 5.414602e+001
1.123771e+003, 5.390290e+001
1.124253e+003, 5.359968e+001
1.124735e+003, 5.353831e+001
1.125217e+003, 5.335168e+001
1.125699e+003, 5.270326e+001
1.126182e+003, 5.203235e+001
1.126664e+003, 5.220480e+001
1.127146e+003, 5.313902e+001
1.127628e+003, 5.317793e+001
1.128110e+003, 5.215022e+001
1.128592e+003, 5.188230e+001
1.129074e+003, 5.272982e+001
1.129556e+003, 5.340349e+001
1.130039e+003, 5.328951e+001
1.130521e+003, 5.295142e+001
1.131003e+003, 5.306847e+001
1.131485e+003, 5.342058e+001
1.131967e+003, 5.296961e+001
1.132449e+003, 5.182136e+001
1.132931e+003, 5.224483e+001
1.133413e+003, 5.430340e+001
1.133896e+003, 5.525714e+001
1.134378e+003, 5.427130e+001
1.134860e+003, 5.286455e+001
1.135342e+003, 5.216221e+001
1.135824e+003, 5.201682e+001
1.136306e+003, 5.244574e+001
1.136788e+003, 5.317033e+001
1.137270e+003, 5.290387e+001
1.137752e+003, 5.188865e+001
1.138234e+003, 5.141620e+001
1.138717e+003, 5.165711e+001
1.139199e+003, 5.191792e+001
1.139681e+003, 5.184356e+001
1.140163e+003, 5.167382e+001
1.140645e+003, 5.169343e+001
1.141127e+003, 5.178123e+001
1.141609e+003, 5.146410e+001
1.142091e+003, 5.114048e+001
1.142574e+003, 5.207525e+001
1.143056e+003, 5.385773e+001
1.143538e+003, 5.470815e+001
1.144020e+003, 5.414771e+001
1.144502e+003, 5.331973e+001
1.144984e+003, 5.300051e+001
1.145466e+003, 5.282050e+001
1.145948e+003, 5.228180e+001
1.146431e+003, 5.174640e+001
1.146913e+003, 5.173409e+001
1.147395e+003, 5.204723e+001
1.147877e+003, 5.229138e+001
1.148359e+003, 5.242078e+001
1.148841e+003, 5.261467e+001
1.149323e+003, 5.296352e+001
1.149805e+003, 5.329498e+001
1.150287e+003, 5.330595e+001
1.150770e+003, 5.348272e+001
1.151252e+003, 5.478728e+001
1.151734e+003, 5.594975e+001
1.152216e+003, 5.525405e+001
1.152698e+003, 5.336184e+001
1.153180e+003, 5.189924e+001
1.153662e+003, 5.121251e+001
1.154144e+003, 5.117524e+001
1.154626e+003, 5.238416e+001
1.155109e+003, 5.332441e+001
1.155591e+003, 5.344661e+001
1.156073e+003, 5.320571e+001
1.156555e+003, 5.259097e+001
1.157037e+003, 5.197315e+001
1.157519e+003, 5.194683e+001
1.158001e+003, 5.240633e+001
1.158483e+003, 5.240706e+001
1.158966e+003, 5.142610e+001
1.159448e+003, 5.091792e+001
1.159930e+003, 5.137664e+001
1.160412e+003, 5.176189e+001
1.160894e+003, 5.176013e+001
1.161376e+003, 5.163631e+001
1.161858e+003, 5.155967e+001
1.162340e+003, 5.150783e+001
1.162822e+003, 5.138174e+001
1.163305e+003, 5.113047e+001
1.163787e+003, 5.140257e+001
1.164269e+003, 5.249153e+001
1.164751e+003, 5.326396e+001
1.165233e+003, 5.360611e+001
1.165715e+003, 5.342854e+001
1.166197e+003, 5.245017e+001
1.166679e+003, 5.158220e+001
1.167161e+003, 5.201981e+001
1.167644e+003, 5.334513e+001
1.168126e+003, 5.376082e+001
1.168608e+003, 5.322739e+001
1.169090e+003, 5.307245e+001
1.169572e+003, 5.336811e+001
1.170054e+003, 5.332722e+001
1.170536e+003, 5.272257e+001
1.171018e+003, 5.243651e+001
1.171500e+003, 5.314450e+001
1.171983e+003, 5.401961e+001
1.172465e+003, 5.356770e+001
1.172947e+003, 5.226262e+001
1.173429e+003, 5.171358e+001
1.173911e+003, 5.172422e+001
1.174393e+003, 5.149261e+001
1.174875e+003, 5.100458e+001
1.175357e+003, 5.079396e+001
1.175840e+003, 5.104976e+001
1.176322e+003, 5.146417e+001
1.176804e+003, 5.181726e+001
1.177286e+003, 5.212655e+001
1.177768e+003, 5.256207e+001
1.178250e+003, 5.285845e+001
1.178732e+003, 5.216629e+001
1.179214e+003, 5.122544e+001
1.179697e+003, 5.197805e+001
1.180179e+003, 5.412175e+001
1.180661e+003, 5.501203e+001
1.181143e+003, 5.340436e+001
1.181625e+003, 5.173034e+001
1.182107e+003, 5.140605e+001
1.182589e+003, 5.157937e+001
1.183071e+003, 5.185894e+001
1.183553e+003, 5.222795e+001
1.184036e+003, 5.304991e+001
1.184518e+003, 5.380567e+001
1.185000e+003, 5.329276e+001
1.185482e+003, 5.144889e+001
1.185964e+003, 5.029434e+001
1.186446e+003, 5.079869e+001
1.186928e+003, 5.118565e+001
1.187410e+003, 5.111059e+001
1.187892e+003, 5.092559e+001
1.188375e+003, 5.060206e+001
1.188857e+003, 5.039231e+001
1.189339e+003, 5.062853e+001
1.189821e+003, 5.112830e+001
1.190303e+003, 5.135075e+001
1.190785e+003, 5.124203e+001
1.191267e+003, 5.119787e+001
1.191749e+003, 5.135268e+001
1.192232e+003, 5.110601e+001
1.192714e+003, 5.007024e+001
1.193196e+003, 4.956607e+001
1.193678e+003, 5.043630e+001
1.194160e+003, 5.160174e+001
1.194642e+003, 5.169086e+001
1.195124e+003, 5.103421e+001
1.195606e+003, 5.097266e+001
1.196089e+003, 5.147808e+001
1.196571e+003, 5.185101e+001
1.197053e+003, 5.205355e+001
1.197535e+003, 5.196472e+001
1.198017e+003, 5.158073e+001
1.198499e+003, 5.145376e+001
1.198981e+003, 5.195400e+001
1.199463e+003, 5.247026e+001
1.199945e+003, 5.197625e+001
1.200427e+003, 5.109442e+001
1.200910e+003, 5.116395e+001
1.201392e+003, 5.178416e+001
1.201874e+003, 5.213189e+001
1.202356e+003, 5.217437e+001
1.202838e+003, 5.220130e+001
1.203320e+003, 5.225050e+001
1.203802e+003, 5.193082e+001
1.204284e+003, 5.082893e+001
1.204767e+003, 4.985985e+001
1.205249e+003, 4.947656e+001
1.205731e+003, 4.977140e+001
1.206213e+003, 5.183642e+001
1.206695e+003, 5.386455e+001
1.207177e+003, 5.299498e+001
1.207659e+003, 5.038064e+001
1.208141e+003, 4.973324e+001
1.208624e+003, 5.192686e+001
1.209106e+003, 5.337715e+001
1.209588e+003, 5.280871e+001
1.210070e+003, 5.204297e+001
1.210552e+003, 5.109028e+001
1.211034e+003, 5.046098e+001
1.211516e+003, 5.061221e+001
1.211998e+003, 5.103921e+001
1.212480e+003, 5.137724e+001
1.212963e+003, 5.154351e+001
1.213445e+003, 5.109985e+001
1.213927e+003, 4.968874e+001
1.214409e+003, 4.962719e+001
1.214891e+003, 5.141685e+001
1.215373e+003, 5.250745e+001
1.215855e+003, 5.231397e+001
1.216337e+003, 5.195705e+001
1.216819e+003, 5.207463e+001
1.217302e+003, 5.198754e+001
1.217784e+003, 5.063529e+001
1.218266e+003, 4.880581e+001
1.218748e+003, 4.945514e+001
1.219230e+003, 5.188520e+001
1.219712e+003, 5.221082e+001
1.220194e+003, 5.075684e+001
1.220676e+003, 5.059368e+001
1.221159e+003, 5.214418e+001
1.221641e+003, 5.300512e+001
1.222123e+003, 5.185174e+001
1.222605e+003, 5.040131e+001
1.223087e+003, 5.049817e+001
1.223569e+003, 5.109246e+001
1.224051e+003, 5.115664e+001
1.224533e+003, 5.085018e+001
1.225016e+003, 5.011662e+001
1.225498e+003, 4.929994e+001
1.225980e+003, 4.892339e+001
1.226462e+003, 4.910102e+001
1.226944e+003, 4.991474e+001
1.227426e+003, 5.195383e+001
1.227908e+003, 5.294883e+001
1.228390e+003, 5.097378e+001
1.228872e+003, 4.930144e+001
1.229354e+003, 4.964136e+001
1.229837e+003, 5.048533e+001
1.230319e+003, 5.065020e+001
1.230801e+003, 5.048701e+001
1.231283e+003, 5.074834e+001
1.231765e+003, 5.141167e+001
1.232247e+003, 5.164825e+001
1.232729e+003, 5.133834e+001
1.233211e+003, 5.089909e+001
1.233694e+003, 5.015835e+001
1.234176e+003, 5.012896e+001
1.234658e+003, 5.138890e+001
1.235140e+003, 5.205645e+001
1.235622e+003, 5.057273e+001
1.236104e+003, 4.853487e+001
1.236586e+003, 4.885816e+001
1.237068e+003, 5.088088e+001
1.237551e+003, 5.205361e+001
1.238033e+003, 5.239341e+001
1.238515e+003, 5.151875e+001
1.238997e+003, 4.982806e+001
1.239479e+003, 4.934481e+001
1.239961e+003, 5.050311e+001
1.240443e+003, 5.182587e+001
1.240925e+003, 5.247572e+001
1.241407e+003, 5.246423e+001
1.241890e+003, 5.135598e+001
1.242372e+003, 5.006322e+001
1.242854e+003, 4.946968e+001
1.243336e+003, 4.922386e+001
1.243818e+003, 4.856863e+001
1.244300e+003, 4.798521e+001
1.244782e+003, 4.901390e+001
1.245264e+003, 5.167984e+001
1.245746e+003, 5.295454e+001
1.246229e+003, 5.088537e+001
1.246711e+003, 4.953823e+001
1.247193e+003, 5.037525e+001
1.247675e+003, 5.097097e+001
1.248157e+003, 5.003801e+001
1.248639e+003, 4.918091e+001
1.249121e+003, 4.973114e+001
1.249603e+003, 5.086978e+001
1.250085e+003, 5.101413e+001
1.250568e+003, 5.026545e+001
1.251050e+003, 5.058489e+001
1.251532e+003, 5.215193e+001
1.252014e+003, 5.271404e+001
1.252496e+003, 5.206723e+001
1.252978e+003, 5.135238e+001
1.253460e+003, 5.091459e+001
1.253942e+003, 5.092659e+001
1.254425e+003, 5.154236e+001
1.254907e+003, 5.228762e+001
1.255389e+003, 5.262677e+001
1.255871e+003, 5.254119e+001
1.256353e+003, 5.161979e+001
1.256835e+003, 5.045415e+001
1.257317e+003, 5.035373e+001
1.257799e+003, 5.094854e+001
1.258281e+003, 5.102936e+001
1.258764e+003, 5.043553e+001
1.259246e+003, 4.996108e+001
1.259728e+003, 4.992651e+001
1.260210e+003, 5.011267e+001
1.260692e+003, 5.064036e+001
1.261174e+003, 5.107157e+001
1.261656e+003, 5.091060e+001
1.262138e+003, 5.086860e+001
1.262620e+003, 5.192687e+001
1.263103e+003, 5.320904e+001
1.263585e+003, 5.315741e+001
1.264067e+003, 5.195544e+001
1.264549e+003, 5.118290e+001
1.265031e+003, 5.092439e+001
1.265513e+003, 5.079083e+001
1.265995e+003, 5.075029e+001
1.266477e+003, 5.094962e+001
1.266960e+003, 5.140503e+001
1.267442e+003, 5.245232e+001
1.267924e+003, 5.442101e+001
1.268406e+003, 5.568948e+001
1.268888e+003, 5.392450e+001
1.269370e+003, 5.083895e+001
1.269852e+003, 5.056232e+001
1.270334e+003, 5.205087e+001
1.270817e+003, 5.289408e+001
1.271299e+003, 5.310217e+001
1.271781e+003, 5.313308e+001
1.272263e+003, 5.307145e+001
1.272745e+003, 5.277169e+001
1.273227e+003, 5.217755e+001
1.273709e+003, 5.166409e+001
1.274191e+003, 5.132807e+001
1.274673e+003, 5.130243e+001
1.275156e+003, 5.195807e+001
1.275638e+003, 5.259853e+001
1.276120e+003, 5.284349e+001
1.276602e+003, 5.275817e+001
1.277084e+003, 5.214861e+001
1.277566e+003, 5.134078e+001
1.278048e+003, 5.144016e+001
1.278530e+003, 5.261972e+001
1.279012e+003, 5.307190e+001
1.279495e+003, 5.253678e+001
1.279977e+003, 5.226813e+001
1.280459e+003, 5.251576e+001
1.280941e+003, 5.227103e+001
1.281423e+003, 5.107129e+001
1.281905e+003, 5.022904e+001
1.282387e+003, 5.084147e+001
1.282869e+003, 5.206699e+001
1.283352e+003, 5.241985e+001
1.283834e+003, 5.233179e+001
1.284316e+003, 5.272121e+001
1.284798e+003, 5.359122e+001
##END=



