##NAMES=Coquimbite
##RRUFFID=R110210
##IDEAL CHEMISTRY=AlFe^3+^_3_(S^6+^O_4_)_6_(H_2_O)_12_&#183;6H_2_O
##LOCALITY=Mina Alcaparrosa, Cerritos Bayos, Calama, Atacama, II Region, Chile
##OWNER=RRUFF
##SOURCE=Gunnar Farber
##DESCRIPTION=Purple hexagonal prisms with incomplete pyramidal terminations, associated with pertlikite R110209 and krausite R110211
##STATUS=The identification of this mineral has been confirmed by single-crystal X-ray diffraction.
##URL=rruff.info/R110210
9.001007e+001, 0.000000e+000
9.049219e+001, 1.322262e+001
9.097430e+001, 1.331097e+001
9.145642e+001, 1.330785e+001
9.193854e+001, 1.321636e+001
9.242065e+001, 1.306266e+001
9.290277e+001, 1.283791e+001
9.338489e+001, 1.256514e+001
9.386700e+001, 1.229429e+001
9.434912e+001, 1.197705e+001
9.483124e+001, 1.169391e+001
9.531335e+001, 1.169284e+001
9.579547e+001, 1.201158e+001
9.627759e+001, 1.234053e+001
9.675970e+001, 1.225526e+001
9.724182e+001, 1.178710e+001
9.772394e+001, 1.137065e+001
9.820605e+001, 1.123850e+001
9.868817e+001, 1.136216e+001
9.917029e+001, 1.139486e+001
9.965240e+001, 1.132561e+001
1.001345e+002, 1.117553e+001
1.006166e+002, 1.094265e+001
1.010988e+002, 1.058596e+001
1.015809e+002, 1.031680e+001
1.020630e+002, 1.030412e+001
1.025451e+002, 1.063025e+001
1.030272e+002, 1.079957e+001
1.035093e+002, 1.076449e+001
1.039915e+002, 1.055244e+001
1.044736e+002, 1.023616e+001
1.049557e+002, 9.688138e+000
1.054378e+002, 9.224729e+000
1.059199e+002, 9.109945e+000
1.064020e+002, 9.670062e+000
1.068842e+002, 9.963755e+000
1.073663e+002, 9.763497e+000
1.078484e+002, 9.061636e+000
1.083305e+002, 8.609969e+000
1.088126e+002, 8.565083e+000
1.092947e+002, 8.685608e+000
1.097769e+002, 8.750445e+000
1.102590e+002, 8.687510e+000
1.107411e+002, 8.641857e+000
1.112232e+002, 8.659960e+000
1.117053e+002, 8.775219e+000
1.121874e+002, 8.808899e+000
1.126696e+002, 8.642942e+000
1.131517e+002, 8.415280e+000
1.136338e+002, 8.304663e+000
1.141159e+002, 8.444344e+000
1.145980e+002, 8.617670e+000
1.150801e+002, 8.766783e+000
1.155623e+002, 8.916944e+000
1.160444e+002, 8.959514e+000
1.165265e+002, 8.792807e+000
1.170086e+002, 8.495481e+000
1.174907e+002, 8.237267e+000
1.179728e+002, 8.108112e+000
1.184550e+002, 8.016426e+000
1.189371e+002, 7.893092e+000
1.194192e+002, 7.654250e+000
1.199013e+002, 7.489001e+000
1.203834e+002, 7.584950e+000
1.208655e+002, 7.870275e+000
1.213477e+002, 8.064589e+000
1.218298e+002, 7.854648e+000
1.223119e+002, 7.527926e+000
1.227940e+002, 7.399005e+000
1.232761e+002, 7.736769e+000
1.237582e+002, 8.151467e+000
1.242404e+002, 8.321878e+000
1.247225e+002, 8.258672e+000
1.252046e+002, 8.093131e+000
1.256867e+002, 7.884889e+000
1.261688e+002, 7.647582e+000
1.266509e+002, 7.407266e+000
1.271331e+002, 7.099921e+000
1.276152e+002, 6.820868e+000
1.280973e+002, 6.766207e+000
1.285794e+002, 6.953386e+000
1.290615e+002, 7.153567e+000
1.295436e+002, 7.074527e+000
1.300258e+002, 6.778828e+000
1.305079e+002, 6.543015e+000
1.309900e+002, 6.531525e+000
1.314721e+002, 6.680479e+000
1.319542e+002, 6.826078e+000
1.324363e+002, 6.987905e+000
1.329185e+002, 7.066822e+000
1.334006e+002, 6.537278e+000
1.338827e+002, 5.405211e+000
1.343648e+002, 5.085329e+000
1.348469e+002, 7.221259e+000
1.353290e+002, 1.152667e+001
1.358112e+002, 1.361683e+001
1.362933e+002, 1.268838e+001
1.367754e+002, 9.963974e+000
1.372575e+002, 8.134416e+000
1.377396e+002, 7.305198e+000
1.382217e+002, 6.866551e+000
1.387039e+002, 6.418384e+000
1.391860e+002, 5.924558e+000
1.396681e+002, 5.697436e+000
1.401502e+002, 5.853237e+000
1.406323e+002, 6.286974e+000
1.411144e+002, 6.532776e+000
1.415966e+002, 6.521527e+000
1.420787e+002, 6.454833e+000
1.425608e+002, 6.503706e+000
1.430429e+002, 6.739443e+000
1.435250e+002, 6.887713e+000
1.440071e+002, 6.893362e+000
1.444893e+002, 6.761438e+000
1.449714e+002, 6.620040e+000
1.454535e+002, 6.492113e+000
1.459356e+002, 6.332300e+000
1.464177e+002, 6.072622e+000
1.468998e+002, 5.471533e+000
1.473820e+002, 5.148897e+000
1.478641e+002, 5.314054e+000
1.483462e+002, 6.068248e+000
1.488283e+002, 6.594713e+000
1.493104e+002, 6.771945e+000
1.497925e+002, 6.781263e+000
1.502747e+002, 6.835648e+000
1.507568e+002, 7.002841e+000
1.512389e+002, 7.143786e+000
1.517210e+002, 7.217690e+000
1.522031e+002, 7.191259e+000
1.526852e+002, 7.202452e+000
1.531674e+002, 7.203429e+000
1.536495e+002, 7.253788e+000
1.541316e+002, 7.438755e+000
1.546137e+002, 8.002314e+000
1.550958e+002, 8.497405e+000
1.555779e+002, 8.732128e+000
1.560601e+002, 8.482118e+000
1.565422e+002, 8.465732e+000
1.570243e+002, 8.874568e+000
1.575064e+002, 9.581028e+000
1.579885e+002, 1.033799e+001
1.584706e+002, 1.110724e+001
1.589528e+002, 1.190423e+001
1.594349e+002, 1.271356e+001
1.599170e+002, 1.341752e+001
1.603991e+002, 1.433944e+001
1.608812e+002, 1.575170e+001
1.613633e+002, 1.747359e+001
1.618455e+002, 1.903076e+001
1.623276e+002, 2.015681e+001
1.628097e+002, 2.111958e+001
1.632918e+002, 2.208746e+001
1.637739e+002, 2.292574e+001
1.642560e+002, 2.399726e+001
1.647382e+002, 2.551816e+001
1.652203e+002, 2.742299e+001
1.657024e+002, 2.946110e+001
1.661845e+002, 3.171435e+001
1.666666e+002, 3.396656e+001
1.671487e+002, 3.598624e+001
1.676309e+002, 3.750733e+001
1.681130e+002, 3.902374e+001
1.685951e+002, 4.086385e+001
1.690772e+002, 4.298661e+001
1.695593e+002, 4.509896e+001
1.700414e+002, 4.693463e+001
1.705236e+002, 4.869710e+001
1.710057e+002, 5.061538e+001
1.714878e+002, 5.314342e+001
1.719699e+002, 5.559224e+001
1.724520e+002, 5.723417e+001
1.729341e+002, 5.813078e+001
1.734163e+002, 5.895191e+001
1.738984e+002, 6.039174e+001
1.743805e+002, 6.206734e+001
1.748626e+002, 6.330265e+001
1.753447e+002, 6.348161e+001
1.758268e+002, 6.331481e+001
1.763090e+002, 6.342116e+001
1.767911e+002, 6.379758e+001
1.772732e+002, 6.472103e+001
1.777553e+002, 6.634721e+001
1.782374e+002, 6.840031e+001
1.787195e+002, 7.055935e+001
1.792017e+002, 7.269375e+001
1.796838e+002, 7.487902e+001
1.801659e+002, 7.708505e+001
1.806480e+002, 7.930723e+001
1.811301e+002, 8.184635e+001
1.816122e+002, 8.519595e+001
1.820944e+002, 8.918806e+001
1.825765e+002, 9.318961e+001
1.830586e+002, 9.708182e+001
1.835407e+002, 1.007814e+002
1.840228e+002, 1.042446e+002
1.845049e+002, 1.074189e+002
1.849871e+002, 1.105214e+002
1.854692e+002, 1.141013e+002
1.859513e+002, 1.179891e+002
1.864334e+002, 1.210348e+002
1.869155e+002, 1.224991e+002
1.873976e+002, 1.227070e+002
1.878798e+002, 1.227183e+002
1.883619e+002, 1.225758e+002
1.888440e+002, 1.222419e+002
1.893261e+002, 1.216361e+002
1.898082e+002, 1.207647e+002
1.902903e+002, 1.197678e+002
1.907725e+002, 1.185558e+002
1.912546e+002, 1.172029e+002
1.917367e+002, 1.162057e+002
1.922188e+002, 1.155405e+002
1.927009e+002, 1.153084e+002
1.931830e+002, 1.157290e+002
1.936652e+002, 1.167932e+002
1.941473e+002, 1.182737e+002
1.946294e+002, 1.199557e+002
1.951115e+002, 1.218670e+002
1.955936e+002, 1.244640e+002
1.960757e+002, 1.278272e+002
1.965579e+002, 1.317733e+002
1.970400e+002, 1.359867e+002
1.975221e+002, 1.404631e+002
1.980042e+002, 1.452037e+002
1.984863e+002, 1.504158e+002
1.989684e+002, 1.560870e+002
1.994506e+002, 1.615941e+002
1.999327e+002, 1.670388e+002
2.004148e+002, 1.720558e+002
2.008969e+002, 1.757132e+002
2.013790e+002, 1.779527e+002
2.018611e+002, 1.793863e+002
2.023433e+002, 1.803065e+002
2.028254e+002, 1.807078e+002
2.033075e+002, 1.806164e+002
2.037896e+002, 1.798018e+002
2.042717e+002, 1.786981e+002
2.047538e+002, 1.783786e+002
2.052360e+002, 1.788699e+002
2.057181e+002, 1.800110e+002
2.062002e+002, 1.817253e+002
2.066823e+002, 1.840165e+002
2.071644e+002, 1.868320e+002
2.076465e+002, 1.902317e+002
2.081287e+002, 1.941027e+002
2.086108e+002, 1.984735e+002
2.090929e+002, 2.037506e+002
2.095750e+002, 2.084268e+002
2.100571e+002, 2.116766e+002
2.105392e+002, 2.135802e+002
2.110214e+002, 2.138822e+002
2.115035e+002, 2.126198e+002
2.119856e+002, 2.097494e+002
2.124677e+002, 2.048952e+002
2.129498e+002, 1.977118e+002
2.134319e+002, 1.893176e+002
2.139140e+002, 1.800911e+002
2.143962e+002, 1.696985e+002
2.148783e+002, 1.595994e+002
2.153604e+002, 1.498970e+002
2.158425e+002, 1.405905e+002
2.163246e+002, 1.320292e+002
2.168067e+002, 1.239903e+002
2.172889e+002, 1.169547e+002
2.177710e+002, 1.112752e+002
2.182531e+002, 1.073213e+002
2.187352e+002, 1.035554e+002
2.192173e+002, 9.971641e+001
2.196994e+002, 9.591247e+001
2.201816e+002, 9.289164e+001
2.206637e+002, 9.084178e+001
2.211458e+002, 8.915128e+001
2.216279e+002, 8.743000e+001
2.221100e+002, 8.549271e+001
2.225921e+002, 8.398093e+001
2.230743e+002, 8.299984e+001
2.235564e+002, 8.248209e+001
2.240385e+002, 8.209087e+001
2.245206e+002, 8.187288e+001
2.250027e+002, 8.172287e+001
2.254848e+002, 8.155637e+001
2.259670e+002, 8.127939e+001
2.264491e+002, 8.122667e+001
2.269312e+002, 8.147245e+001
2.274133e+002, 8.196595e+001
2.278954e+002, 8.246519e+001
2.283775e+002, 8.288245e+001
2.288597e+002, 8.341904e+001
2.293418e+002, 8.423461e+001
2.298239e+002, 8.553113e+001
2.303060e+002, 8.662202e+001
2.307881e+002, 8.736701e+001
2.312702e+002, 8.785509e+001
2.317524e+002, 8.847591e+001
2.322345e+002, 8.923737e+001
2.327166e+002, 9.010218e+001
2.331987e+002, 9.104202e+001
2.336808e+002, 9.205978e+001
2.341629e+002, 9.314024e+001
2.346451e+002, 9.432503e+001
2.351272e+002, 9.557713e+001
2.356093e+002, 9.673564e+001
2.360914e+002, 9.765696e+001
2.365735e+002, 9.867999e+001
2.370556e+002, 1.000050e+002
2.375378e+002, 1.017445e+002
2.380199e+002, 1.035461e+002
2.385020e+002, 1.054070e+002
2.389841e+002, 1.073274e+002
2.394662e+002, 1.092262e+002
2.399483e+002, 1.110783e+002
2.404305e+002, 1.129533e+002
2.409126e+002, 1.148925e+002
2.413947e+002, 1.168520e+002
2.418768e+002, 1.189876e+002
2.423589e+002, 1.213698e+002
2.428410e+002, 1.239209e+002
2.433232e+002, 1.264333e+002
2.438053e+002, 1.289336e+002
2.442874e+002, 1.313426e+002
2.447695e+002, 1.335979e+002
2.452516e+002, 1.357083e+002
2.457337e+002, 1.376608e+002
2.462159e+002, 1.393742e+002
2.466980e+002, 1.409430e+002
2.471801e+002, 1.426436e+002
2.476622e+002, 1.445547e+002
2.481443e+002, 1.464978e+002
2.486264e+002, 1.483710e+002
2.491086e+002, 1.501676e+002
2.495907e+002, 1.519220e+002
2.500728e+002, 1.535569e+002
2.505549e+002, 1.551725e+002
2.510370e+002, 1.570730e+002
2.515191e+002, 1.594803e+002
2.520013e+002, 1.618313e+002
2.524834e+002, 1.638066e+002
2.529655e+002, 1.649636e+002
2.534476e+002, 1.668836e+002
2.539297e+002, 1.698065e+002
2.544118e+002, 1.733817e+002
2.548940e+002, 1.769132e+002
2.553761e+002, 1.803820e+002
2.558582e+002, 1.838564e+002
2.563403e+002, 1.873649e+002
2.568224e+002, 1.909525e+002
2.573046e+002, 1.944046e+002
2.577867e+002, 1.977683e+002
2.582688e+002, 2.009293e+002
2.587509e+002, 2.037014e+002
2.592330e+002, 2.062009e+002
2.597151e+002, 2.080136e+002
2.601973e+002, 2.089417e+002
2.606794e+002, 2.088798e+002
2.611615e+002, 2.083314e+002
2.616436e+002, 2.072691e+002
2.621257e+002, 2.057586e+002
2.626078e+002, 2.037220e+002
2.630900e+002, 2.007131e+002
2.635721e+002, 1.982966e+002
2.640542e+002, 1.970836e+002
2.645363e+002, 1.971944e+002
2.650184e+002, 1.976661e+002
2.655005e+002, 1.984892e+002
2.659827e+002, 1.996933e+002
2.664648e+002, 2.013359e+002
2.669469e+002, 2.034049e+002
2.674290e+002, 2.059259e+002
2.679111e+002, 2.089953e+002
2.683932e+002, 2.126260e+002
2.688754e+002, 2.162597e+002
2.693575e+002, 2.195944e+002
2.698396e+002, 2.233759e+002
2.703217e+002, 2.286322e+002
2.708038e+002, 2.356334e+002
2.712859e+002, 2.429597e+002
2.717681e+002, 2.501532e+002
2.722502e+002, 2.571964e+002
2.727323e+002, 2.646279e+002
2.732144e+002, 2.721879e+002
2.736965e+002, 2.804060e+002
2.741786e+002, 2.898764e+002
2.746608e+002, 3.008293e+002
2.751429e+002, 3.122516e+002
2.756250e+002, 3.238326e+002
2.761071e+002, 3.356031e+002
2.765892e+002, 3.484394e+002
2.770714e+002, 3.622946e+002
2.775535e+002, 3.767748e+002
2.780356e+002, 3.916357e+002
2.785177e+002, 4.069328e+002
2.789998e+002, 4.220238e+002
2.794819e+002, 4.368111e+002
2.799641e+002, 4.513309e+002
2.804462e+002, 4.653158e+002
2.809283e+002, 4.789518e+002
2.814104e+002, 4.914123e+002
2.818925e+002, 5.025616e+002
2.823746e+002, 5.124263e+002
2.828568e+002, 5.196044e+002
2.833389e+002, 5.238284e+002
2.838210e+002, 5.252936e+002
2.843031e+002, 5.245074e+002
2.847852e+002, 5.214840e+002
2.852673e+002, 5.161351e+002
2.857495e+002, 5.079972e+002
2.862316e+002, 4.972012e+002
2.867137e+002, 4.852028e+002
2.871958e+002, 4.720050e+002
2.876779e+002, 4.579699e+002
2.881600e+002, 4.437897e+002
2.886422e+002, 4.294609e+002
2.891243e+002, 4.147098e+002
2.896064e+002, 3.990587e+002
2.900885e+002, 3.827816e+002
2.905706e+002, 3.682427e+002
2.910527e+002, 3.559120e+002
2.915349e+002, 3.447123e+002
2.920170e+002, 3.328613e+002
2.924991e+002, 3.205335e+002
2.929812e+002, 3.085258e+002
2.934633e+002, 2.974550e+002
2.939454e+002, 2.871390e+002
2.944276e+002, 2.771343e+002
2.949097e+002, 2.675047e+002
2.953918e+002, 2.582326e+002
2.958739e+002, 2.492899e+002
2.963560e+002, 2.407637e+002
2.968381e+002, 2.326317e+002
2.973203e+002, 2.248554e+002
2.978024e+002, 2.175750e+002
2.982845e+002, 2.111667e+002
2.987666e+002, 2.056788e+002
2.992487e+002, 2.004209e+002
2.997308e+002, 1.943301e+002
3.002130e+002, 1.877717e+002
3.006951e+002, 1.818932e+002
3.011772e+002, 1.773509e+002
3.016593e+002, 1.736576e+002
3.021414e+002, 1.702045e+002
3.026235e+002, 1.670146e+002
3.031057e+002, 1.638256e+002
3.035878e+002, 1.604306e+002
3.040699e+002, 1.569027e+002
3.045520e+002, 1.534444e+002
3.050341e+002, 1.501277e+002
3.055162e+002, 1.469116e+002
3.059984e+002, 1.437032e+002
3.064805e+002, 1.405371e+002
3.069626e+002, 1.374361e+002
3.074447e+002, 1.344457e+002
3.079268e+002, 1.315457e+002
3.084089e+002, 1.287682e+002
3.088911e+002, 1.261723e+002
3.093732e+002, 1.236165e+002
3.098553e+002, 1.209983e+002
3.103374e+002, 1.183393e+002
3.108195e+002, 1.156523e+002
3.113016e+002, 1.128661e+002
3.117838e+002, 1.101354e+002
3.122659e+002, 1.075755e+002
3.127480e+002, 1.052492e+002
3.132301e+002, 1.030314e+002
3.137122e+002, 1.009222e+002
3.141943e+002, 9.884002e+001
3.146765e+002, 9.666006e+001
3.151586e+002, 9.418459e+001
3.156407e+002, 9.169919e+001
3.161228e+002, 8.932166e+001
3.166049e+002, 8.705596e+001
3.170870e+002, 8.500901e+001
3.175692e+002, 8.344688e+001
3.180513e+002, 8.209939e+001
3.185334e+002, 8.059813e+001
3.190155e+002, 7.851920e+001
3.194976e+002, 7.652213e+001
3.199797e+002, 7.493012e+001
3.204619e+002, 7.378735e+001
3.209440e+002, 7.275064e+001
3.214261e+002, 7.181062e+001
3.219082e+002, 7.089843e+001
3.223903e+002, 6.995261e+001
3.228724e+002, 6.886039e+001
3.233546e+002, 6.783220e+001
3.238367e+002, 6.699327e+001
3.243188e+002, 6.633204e+001
3.248009e+002, 6.551447e+001
3.252830e+002, 6.441006e+001
3.257651e+002, 6.319024e+001
3.262473e+002, 6.196881e+001
3.267294e+002, 6.061550e+001
3.272115e+002, 5.942591e+001
3.276936e+002, 5.853721e+001
3.281757e+002, 5.788165e+001
3.286578e+002, 5.707457e+001
3.291400e+002, 5.586922e+001
3.296221e+002, 5.471570e+001
3.301042e+002, 5.382680e+001
3.305863e+002, 5.367228e+001
3.310684e+002, 5.297979e+001
3.315505e+002, 5.133574e+001
3.320327e+002, 4.923312e+001
3.325148e+002, 4.780147e+001
3.329969e+002, 4.744724e+001
3.334790e+002, 4.721765e+001
3.339611e+002, 4.678459e+001
3.344432e+002, 4.608098e+001
3.349254e+002, 4.543991e+001
3.354075e+002, 4.491912e+001
3.358896e+002, 4.441724e+001
3.363717e+002, 4.378299e+001
3.368538e+002, 4.296419e+001
3.373359e+002, 4.214735e+001
3.378180e+002, 4.136617e+001
3.383001e+002, 4.062488e+001
3.387823e+002, 3.999801e+001
3.392644e+002, 3.949231e+001
3.397465e+002, 3.910168e+001
3.402286e+002, 3.890087e+001
3.407107e+002, 3.896442e+001
3.411928e+002, 3.875715e+001
3.416750e+002, 3.806663e+001
3.421571e+002, 3.706738e+001
3.426392e+002, 3.655920e+001
3.431213e+002, 3.663184e+001
3.436034e+002, 3.669646e+001
3.440855e+002, 3.616610e+001
3.445677e+002, 3.508421e+001
3.450498e+002, 3.448982e+001
3.455319e+002, 3.463139e+001
3.460140e+002, 3.511586e+001
3.464961e+002, 3.523525e+001
3.469782e+002, 3.499780e+001
3.474604e+002, 3.458056e+001
3.479425e+002, 3.394687e+001
3.484246e+002, 3.319258e+001
3.489067e+002, 3.273285e+001
3.493888e+002, 3.262830e+001
3.498709e+002, 3.262357e+001
3.503531e+002, 3.243403e+001
3.508352e+002, 3.208743e+001
3.513173e+002, 3.168880e+001
3.517994e+002, 3.116741e+001
3.522815e+002, 3.065733e+001
3.527636e+002, 3.042199e+001
3.532458e+002, 3.046084e+001
3.537279e+002, 3.055055e+001
3.542100e+002, 3.051749e+001
3.546921e+002, 3.040395e+001
3.551742e+002, 3.027980e+001
3.556563e+002, 3.013674e+001
3.561385e+002, 3.002181e+001
3.566206e+002, 3.003913e+001
3.571027e+002, 3.015019e+001
3.575848e+002, 3.016507e+001
3.580669e+002, 2.983377e+001
3.585490e+002, 2.942094e+001
3.590312e+002, 2.922021e+001
3.595133e+002, 2.942438e+001
3.599954e+002, 2.953227e+001
3.604775e+002, 2.909692e+001
3.609596e+002, 2.835355e+001
3.614417e+002, 2.780795e+001
3.619239e+002, 2.783588e+001
3.624060e+002, 2.798013e+001
3.628881e+002, 2.799782e+001
3.633702e+002, 2.784777e+001
3.638523e+002, 2.765540e+001
3.643344e+002, 2.744055e+001
3.648166e+002, 2.721222e+001
3.652987e+002, 2.697872e+001
3.657808e+002, 2.663543e+001
3.662629e+002, 2.640013e+001
3.667450e+002, 2.639029e+001
3.672271e+002, 2.660447e+001
3.677093e+002, 2.673809e+001
3.681914e+002, 2.672947e+001
3.686735e+002, 2.664587e+001
3.691556e+002, 2.652871e+001
3.696377e+002, 2.629394e+001
3.701198e+002, 2.613814e+001
3.706020e+002, 2.613265e+001
3.710841e+002, 2.622024e+001
3.715662e+002, 2.619127e+001
3.720483e+002, 2.598840e+001
3.725304e+002, 2.573845e+001
3.730125e+002, 2.547367e+001
3.734947e+002, 2.514575e+001
3.739768e+002, 2.495389e+001
3.744589e+002, 2.494027e+001
3.749410e+002, 2.502670e+001
3.754231e+002, 2.508935e+001
3.759052e+002, 2.511665e+001
3.763874e+002, 2.515909e+001
3.768695e+002, 2.526096e+001
3.773516e+002, 2.541886e+001
3.778337e+002, 2.541012e+001
3.783158e+002, 2.519499e+001
3.787979e+002, 2.492675e+001
3.792801e+002, 2.476694e+001
3.797622e+002, 2.472032e+001
3.802443e+002, 2.465170e+001
3.807264e+002, 2.453123e+001
3.812085e+002, 2.437401e+001
3.816906e+002, 2.417386e+001
3.821728e+002, 2.392773e+001
3.826549e+002, 2.379144e+001
3.831370e+002, 2.400254e+001
3.836191e+002, 2.444049e+001
3.841012e+002, 2.457319e+001
3.845833e+002, 2.428472e+001
3.850655e+002, 2.389862e+001
3.855476e+002, 2.388525e+001
3.860297e+002, 2.415401e+001
3.865118e+002, 2.437786e+001
3.869939e+002, 2.435495e+001
3.874760e+002, 2.421273e+001
3.879582e+002, 2.414737e+001
3.884403e+002, 2.416354e+001
3.889224e+002, 2.415837e+001
3.894045e+002, 2.396316e+001
3.898866e+002, 2.371667e+001
3.903687e+002, 2.362399e+001
3.908509e+002, 2.389539e+001
3.913330e+002, 2.418859e+001
3.918151e+002, 2.426767e+001
3.922972e+002, 2.416341e+001
3.927793e+002, 2.400423e+001
3.932614e+002, 2.375466e+001
3.937436e+002, 2.353763e+001
3.942257e+002, 2.344419e+001
3.947078e+002, 2.352599e+001
3.951899e+002, 2.364697e+001
3.956720e+002, 2.377991e+001
3.961541e+002, 2.391761e+001
3.966363e+002, 2.404862e+001
3.971184e+002, 2.422343e+001
3.976005e+002, 2.434125e+001
3.980826e+002, 2.432627e+001
3.985647e+002, 2.414792e+001
3.990468e+002, 2.407710e+001
3.995290e+002, 2.424055e+001
4.000111e+002, 2.446527e+001
4.004932e+002, 2.461306e+001
4.009753e+002, 2.464281e+001
4.014574e+002, 2.464991e+001
4.019395e+002, 2.464198e+001
4.024217e+002, 2.461787e+001
4.029038e+002, 2.454811e+001
4.033859e+002, 2.429832e+001
4.038680e+002, 2.420039e+001
4.043501e+002, 2.447552e+001
4.048322e+002, 2.529638e+001
4.053144e+002, 2.585819e+001
4.057965e+002, 2.607149e+001
4.062786e+002, 2.612496e+001
4.067607e+002, 2.632402e+001
4.072428e+002, 2.669736e+001
4.077249e+002, 2.706367e+001
4.082071e+002, 2.737726e+001
4.086892e+002, 2.763473e+001
4.091713e+002, 2.776411e+001
4.096534e+002, 2.773952e+001
4.101355e+002, 2.774058e+001
4.106176e+002, 2.800172e+001
4.110998e+002, 2.846525e+001
4.115819e+002, 2.877980e+001
4.120640e+002, 2.885256e+001
4.125461e+002, 2.878801e+001
4.130282e+002, 2.867359e+001
4.135103e+002, 2.853843e+001
4.139925e+002, 2.854785e+001
4.144746e+002, 2.905299e+001
4.149567e+002, 2.968139e+001
4.154388e+002, 2.975287e+001
4.159209e+002, 2.915961e+001
4.164030e+002, 2.852492e+001
4.168852e+002, 2.839167e+001
4.173673e+002, 2.855983e+001
4.178494e+002, 2.870065e+001
4.183315e+002, 2.873348e+001
4.188136e+002, 2.866117e+001
4.192957e+002, 2.837613e+001
4.197779e+002, 2.793288e+001
4.202600e+002, 2.766588e+001
4.207421e+002, 2.788013e+001
4.212242e+002, 2.823914e+001
4.217063e+002, 2.850206e+001
4.221884e+002, 2.862583e+001
4.226706e+002, 2.866136e+001
4.231527e+002, 2.848893e+001
4.236348e+002, 2.825203e+001
4.241169e+002, 2.821836e+001
4.245990e+002, 2.875214e+001
4.250811e+002, 2.918241e+001
4.255633e+002, 2.920400e+001
4.260454e+002, 2.870775e+001
4.265275e+002, 2.857516e+001
4.270096e+002, 2.904315e+001
4.274917e+002, 2.968618e+001
4.279738e+002, 3.017052e+001
4.284560e+002, 3.048561e+001
4.289381e+002, 3.063992e+001
4.294202e+002, 3.051370e+001
4.299023e+002, 3.024958e+001
4.303844e+002, 3.037945e+001
4.308665e+002, 3.102006e+001
4.313487e+002, 3.172206e+001
4.318308e+002, 3.226558e+001
4.323129e+002, 3.264198e+001
4.327950e+002, 3.299202e+001
4.332771e+002, 3.330136e+001
4.337592e+002, 3.362400e+001
4.342414e+002, 3.401165e+001
4.347235e+002, 3.446812e+001
4.352056e+002, 3.504528e+001
4.356877e+002, 3.579795e+001
4.361698e+002, 3.665201e+001
4.366519e+002, 3.743558e+001
4.371341e+002, 3.815762e+001
4.376162e+002, 3.895697e+001
4.380983e+002, 3.990776e+001
4.385804e+002, 4.101965e+001
4.390625e+002, 4.237263e+001
4.395446e+002, 4.406463e+001
4.400268e+002, 4.570966e+001
4.405089e+002, 4.682617e+001
4.409910e+002, 4.765046e+001
4.414731e+002, 4.864661e+001
4.419552e+002, 5.009694e+001
4.424373e+002, 5.173865e+001
4.429195e+002, 5.334218e+001
4.434016e+002, 5.491188e+001
4.438837e+002, 5.682925e+001
4.443658e+002, 5.949300e+001
4.448479e+002, 6.244265e+001
4.453300e+002, 6.528078e+001
4.458122e+002, 6.770155e+001
4.462943e+002, 7.033756e+001
4.467764e+002, 7.356718e+001
4.472585e+002, 7.711049e+001
4.477406e+002, 8.025025e+001
4.482227e+002, 8.267578e+001
4.487049e+002, 8.495602e+001
4.491870e+002, 8.732240e+001
4.496691e+002, 8.983107e+001
4.501512e+002, 9.200011e+001
4.506333e+002, 9.391862e+001
4.511154e+002, 9.537899e+001
4.515976e+002, 9.612105e+001
4.520797e+002, 9.598929e+001
4.525618e+002, 9.565646e+001
4.530439e+002, 9.525846e+001
4.535260e+002, 9.471133e+001
4.540081e+002, 9.357919e+001
4.544903e+002, 9.174755e+001
4.549724e+002, 9.005369e+001
4.554545e+002, 8.896280e+001
4.559366e+002, 8.842561e+001
4.564187e+002, 8.805874e+001
4.569008e+002, 8.786716e+001
4.573830e+002, 8.776733e+001
4.578651e+002, 8.755615e+001
4.583472e+002, 8.733772e+001
4.588293e+002, 8.750030e+001
4.593114e+002, 8.844461e+001
4.597935e+002, 8.954475e+001
4.602757e+002, 8.996874e+001
4.607578e+002, 8.981686e+001
4.612399e+002, 8.961656e+001
4.617220e+002, 8.970440e+001
4.622041e+002, 8.989229e+001
4.626862e+002, 9.001286e+001
4.631684e+002, 9.004314e+001
4.636505e+002, 9.000408e+001
4.641326e+002, 8.995859e+001
4.646147e+002, 8.983692e+001
4.650968e+002, 8.954497e+001
4.655789e+002, 8.908707e+001
4.660611e+002, 8.843337e+001
4.665432e+002, 8.743872e+001
4.670253e+002, 8.615380e+001
4.675074e+002, 8.507510e+001
4.679895e+002, 8.449828e+001
4.684716e+002, 8.394820e+001
4.689538e+002, 8.319346e+001
4.694359e+002, 8.210398e+001
4.699180e+002, 8.112206e+001
4.704001e+002, 8.031504e+001
4.708822e+002, 7.955739e+001
4.713643e+002, 7.859631e+001
4.718465e+002, 7.726214e+001
4.723286e+002, 7.622530e+001
4.728107e+002, 7.572416e+001
4.732928e+002, 7.567151e+001
4.737749e+002, 7.552140e+001
4.742570e+002, 7.525079e+001
4.747392e+002, 7.500548e+001
4.752213e+002, 7.492773e+001
4.757034e+002, 7.498837e+001
4.761855e+002, 7.493162e+001
4.766676e+002, 7.466875e+001
4.771497e+002, 7.450065e+001
4.776319e+002, 7.485343e+001
4.781140e+002, 7.564371e+001
4.785961e+002, 7.660117e+001
4.790782e+002, 7.774049e+001
4.795603e+002, 7.890499e+001
4.800424e+002, 7.980985e+001
4.805246e+002, 8.050919e+001
4.810067e+002, 8.140476e+001
4.814888e+002, 8.278018e+001
4.819709e+002, 8.444324e+001
4.824530e+002, 8.621114e+001
4.829352e+002, 8.800307e+001
4.834173e+002, 9.001055e+001
4.838994e+002, 9.241357e+001
4.843815e+002, 9.506555e+001
4.848636e+002, 9.771813e+001
4.853457e+002, 1.002561e+002
4.858279e+002, 1.028385e+002
4.863100e+002, 1.054222e+002
4.867921e+002, 1.080255e+002
4.872742e+002, 1.109741e+002
4.877563e+002, 1.144227e+002
4.882384e+002, 1.180974e+002
4.887206e+002, 1.218619e+002
4.892027e+002, 1.258052e+002
4.896848e+002, 1.295199e+002
4.901669e+002, 1.328471e+002
4.906490e+002, 1.361169e+002
4.911311e+002, 1.399997e+002
4.916133e+002, 1.445508e+002
4.920954e+002, 1.491016e+002
4.925775e+002, 1.534608e+002
4.930596e+002, 1.576588e+002
4.935417e+002, 1.618592e+002
4.940238e+002, 1.660426e+002
4.945060e+002, 1.702478e+002
4.949881e+002, 1.745290e+002
4.954702e+002, 1.788213e+002
4.959523e+002, 1.831013e+002
4.964344e+002, 1.873495e+002
4.969165e+002, 1.915223e+002
4.973987e+002, 1.955408e+002
4.978808e+002, 1.994698e+002
4.983629e+002, 2.033534e+002
4.988450e+002, 2.072517e+002
4.993271e+002, 2.110871e+002
4.998092e+002, 2.147634e+002
5.002914e+002, 2.183321e+002
5.007735e+002, 2.217611e+002
5.012556e+002, 2.251548e+002
5.017377e+002, 2.284111e+002
5.022198e+002, 2.314715e+002
5.027019e+002, 2.343620e+002
5.031841e+002, 2.370680e+002
5.036662e+002, 2.397996e+002
5.041483e+002, 2.422645e+002
5.046304e+002, 2.441082e+002
5.051125e+002, 2.453164e+002
5.055946e+002, 2.459101e+002
5.060768e+002, 2.459422e+002
5.065589e+002, 2.453653e+002
5.070410e+002, 2.439433e+002
5.075231e+002, 2.416261e+002
5.080052e+002, 2.386126e+002
5.084873e+002, 2.350307e+002
5.089695e+002, 2.309238e+002
5.094516e+002, 2.256757e+002
5.099337e+002, 2.191665e+002
5.104158e+002, 2.119961e+002
5.108979e+002, 2.047866e+002
5.113800e+002, 1.974581e+002
5.118622e+002, 1.899335e+002
5.123443e+002, 1.820868e+002
5.128264e+002, 1.741619e+002
5.133085e+002, 1.661612e+002
5.137906e+002, 1.582034e+002
5.142728e+002, 1.507107e+002
5.147549e+002, 1.441785e+002
5.152370e+002, 1.380487e+002
5.157191e+002, 1.316730e+002
5.162012e+002, 1.249361e+002
5.166833e+002, 1.189323e+002
5.171655e+002, 1.144383e+002
5.176476e+002, 1.106914e+002
5.181297e+002, 1.070406e+002
5.186118e+002, 1.032192e+002
5.190939e+002, 9.964975e+001
5.195760e+002, 9.647100e+001
5.200582e+002, 9.360299e+001
5.205403e+002, 9.074105e+001
5.210224e+002, 8.780783e+001
5.215045e+002, 8.503316e+001
5.219866e+002, 8.248258e+001
5.224688e+002, 8.014597e+001
5.229509e+002, 7.794917e+001
5.234330e+002, 7.584184e+001
5.239151e+002, 7.395483e+001
5.243972e+002, 7.249446e+001
5.248793e+002, 7.147935e+001
5.253615e+002, 7.022979e+001
5.258436e+002, 6.863869e+001
5.263257e+002, 6.689940e+001
5.268078e+002, 6.528004e+001
5.272899e+002, 6.376820e+001
5.277720e+002, 6.234003e+001
5.282542e+002, 6.106860e+001
5.287363e+002, 5.983077e+001
5.292184e+002, 5.835815e+001
5.297005e+002, 5.672248e+001
5.301826e+002, 5.524150e+001
5.306647e+002, 5.434346e+001
5.311469e+002, 5.355038e+001
5.316290e+002, 5.234562e+001
5.321111e+002, 5.053832e+001
5.325932e+002, 4.895737e+001
5.330753e+002, 4.806496e+001
5.335574e+002, 4.750182e+001
5.340396e+002, 4.691000e+001
5.345217e+002, 4.618298e+001
5.350038e+002, 4.546944e+001
5.354859e+002, 4.480730e+001
5.359680e+002, 4.417185e+001
5.364501e+002, 4.346373e+001
5.369323e+002, 4.261318e+001
5.374144e+002, 4.181077e+001
5.378965e+002, 4.114389e+001
5.383786e+002, 4.061811e+001
5.388607e+002, 4.006099e+001
5.393428e+002, 3.945702e+001
5.398250e+002, 3.888184e+001
5.403071e+002, 3.842048e+001
5.407892e+002, 3.806885e+001
5.412713e+002, 3.775312e+001
5.417534e+002, 3.748888e+001
5.422355e+002, 3.719039e+001
5.427177e+002, 3.662555e+001
5.431998e+002, 3.590244e+001
5.436819e+002, 3.538158e+001
5.441640e+002, 3.552455e+001
5.446461e+002, 3.574359e+001
5.451282e+002, 3.537755e+001
5.456104e+002, 3.452609e+001
5.460925e+002, 3.380604e+001
5.465746e+002, 3.364989e+001
5.470567e+002, 3.365675e+001
5.475388e+002, 3.353704e+001
5.480209e+002, 3.317822e+001
5.485031e+002, 3.294366e+001
5.489852e+002, 3.309302e+001
5.494673e+002, 3.331384e+001
5.499494e+002, 3.326545e+001
5.504315e+002, 3.266110e+001
5.509136e+002, 3.223661e+001
5.513958e+002, 3.215659e+001
5.518779e+002, 3.228168e+001
5.523600e+002, 3.216832e+001
5.528421e+002, 3.173257e+001
5.533242e+002, 3.135309e+001
5.538063e+002, 3.123773e+001
5.542885e+002, 3.133741e+001
5.547706e+002, 3.123050e+001
5.552527e+002, 3.089943e+001
5.557348e+002, 3.054909e+001
5.562169e+002, 3.041241e+001
5.566990e+002, 3.039421e+001
5.571812e+002, 3.020116e+001
5.576633e+002, 2.973196e+001
5.581454e+002, 2.930039e+001
5.586275e+002, 2.929617e+001
5.591096e+002, 2.952945e+001
5.595917e+002, 2.966529e+001
5.600739e+002, 2.943136e+001
5.605560e+002, 2.919646e+001
5.610381e+002, 2.921169e+001
5.615202e+002, 2.940447e+001
5.620023e+002, 2.945143e+001
5.624844e+002, 2.907843e+001
5.629666e+002, 2.870635e+001
5.634487e+002, 2.856482e+001
5.639308e+002, 2.873943e+001
5.644129e+002, 2.870966e+001
5.648950e+002, 2.827134e+001
5.653771e+002, 2.785148e+001
5.658593e+002, 2.784994e+001
5.663414e+002, 2.839843e+001
5.668235e+002, 2.879201e+001
5.673056e+002, 2.893041e+001
5.677877e+002, 2.894005e+001
5.682698e+002, 2.907710e+001
5.687520e+002, 2.933080e+001
5.692341e+002, 2.948974e+001
5.697162e+002, 2.939438e+001
5.701983e+002, 2.921012e+001
5.706804e+002, 2.927354e+001
5.711625e+002, 2.955263e+001
5.716447e+002, 2.982232e+001
5.721268e+002, 2.989156e+001
5.726089e+002, 2.990669e+001
5.730910e+002, 3.000937e+001
5.735731e+002, 3.022393e+001
5.740552e+002, 3.046890e+001
5.745374e+002, 3.064060e+001
5.750195e+002, 3.086082e+001
5.755016e+002, 3.124345e+001
5.759837e+002, 3.197494e+001
5.764658e+002, 3.266288e+001
5.769479e+002, 3.324158e+001
5.774301e+002, 3.376465e+001
5.779122e+002, 3.431785e+001
5.783943e+002, 3.481226e+001
5.788764e+002, 3.554162e+001
5.793585e+002, 3.668960e+001
5.798406e+002, 3.816248e+001
5.803228e+002, 3.925421e+001
5.808049e+002, 3.991119e+001
5.812870e+002, 4.052770e+001
5.817691e+002, 4.134705e+001
5.822512e+002, 4.234770e+001
5.827333e+002, 4.344862e+001
5.832155e+002, 4.464829e+001
5.836975e+002, 4.596382e+001
5.841796e+002, 4.745490e+001
5.846617e+002, 4.909100e+001
5.851439e+002, 5.084710e+001
5.856260e+002, 5.279202e+001
5.861081e+002, 5.471973e+001
5.865902e+002, 5.638055e+001
5.870723e+002, 5.795601e+001
5.875544e+002, 5.975941e+001
5.880366e+002, 6.214165e+001
5.885187e+002, 6.454439e+001
5.890008e+002, 6.670946e+001
5.894829e+002, 6.866330e+001
5.899650e+002, 7.093408e+001
5.904471e+002, 7.378748e+001
5.909293e+002, 7.661819e+001
5.914114e+002, 7.907459e+001
5.918935e+002, 8.109270e+001
5.923756e+002, 8.332381e+001
5.928577e+002, 8.588020e+001
5.933398e+002, 8.835745e+001
5.938220e+002, 9.019925e+001
5.943041e+002, 9.151665e+001
5.947862e+002, 9.329125e+001
5.952683e+002, 9.590089e+001
5.957504e+002, 9.850603e+001
5.962325e+002, 9.994894e+001
5.967147e+002, 1.005397e+002
5.971968e+002, 1.010618e+002
5.976789e+002, 1.022052e+002
5.981610e+002, 1.031338e+002
5.986431e+002, 1.031416e+002
5.991252e+002, 1.023675e+002
5.996074e+002, 1.014806e+002
6.000895e+002, 1.006943e+002
6.005716e+002, 9.986928e+001
6.010537e+002, 9.895368e+001
6.015358e+002, 9.796387e+001
6.020179e+002, 9.680427e+001
6.025001e+002, 9.543185e+001
6.029822e+002, 9.392738e+001
6.034643e+002, 9.233375e+001
6.039464e+002, 9.060639e+001
6.044285e+002, 8.892030e+001
6.049106e+002, 8.728793e+001
6.053928e+002, 8.566902e+001
6.058749e+002, 8.393575e+001
6.063570e+002, 8.209581e+001
6.068391e+002, 8.038049e+001
6.073212e+002, 7.898631e+001
6.078033e+002, 7.759420e+001
6.082855e+002, 7.549568e+001
6.087676e+002, 7.291383e+001
6.092497e+002, 7.059253e+001
6.097318e+002, 6.939573e+001
6.102139e+002, 6.831396e+001
6.106960e+002, 6.642069e+001
6.111782e+002, 6.370979e+001
6.116603e+002, 6.128421e+001
6.121424e+002, 5.952349e+001
6.126245e+002, 5.814896e+001
6.131066e+002, 5.703858e+001
6.135887e+002, 5.637992e+001
6.140709e+002, 5.548871e+001
6.145530e+002, 5.420585e+001
6.150351e+002, 5.282479e+001
6.155172e+002, 5.163159e+001
6.159993e+002, 5.064112e+001
6.164814e+002, 4.970990e+001
6.169636e+002, 4.878165e+001
6.174457e+002, 4.795751e+001
6.179278e+002, 4.751320e+001
6.184099e+002, 4.740833e+001
6.188920e+002, 4.722468e+001
6.193741e+002, 4.671539e+001
6.198563e+002, 4.607722e+001
6.203384e+002, 4.564420e+001
6.208205e+002, 4.536824e+001
6.213026e+002, 4.501026e+001
6.217847e+002, 4.431047e+001
6.222668e+002, 4.356066e+001
6.227490e+002, 4.296981e+001
6.232311e+002, 4.255548e+001
6.237132e+002, 4.228345e+001
6.241953e+002, 4.223066e+001
6.246774e+002, 4.226105e+001
6.251595e+002, 4.228343e+001
6.256417e+002, 4.231049e+001
6.261238e+002, 4.230924e+001
6.266059e+002, 4.230755e+001
6.270880e+002, 4.224952e+001
6.275701e+002, 4.202491e+001
6.280522e+002, 4.160999e+001
6.285344e+002, 4.125187e+001
6.290165e+002, 4.098309e+001
6.294986e+002, 4.082692e+001
6.299807e+002, 4.092953e+001
6.304628e+002, 4.122936e+001
6.309449e+002, 4.139414e+001
6.314271e+002, 4.118187e+001
6.319092e+002, 4.080209e+001
6.323913e+002, 4.044395e+001
6.328734e+002, 4.010941e+001
6.333555e+002, 3.981266e+001
6.338376e+002, 3.943495e+001
6.343198e+002, 3.919073e+001
6.348019e+002, 3.927903e+001
6.352840e+002, 3.981750e+001
6.357661e+002, 4.016192e+001
6.362482e+002, 4.024788e+001
6.367303e+002, 4.012461e+001
6.372125e+002, 3.976146e+001
6.376946e+002, 3.894961e+001
6.381767e+002, 3.855785e+001
6.386588e+002, 3.876562e+001
6.391409e+002, 3.914537e+001
6.396230e+002, 3.902128e+001
6.401052e+002, 3.843312e+001
6.405873e+002, 3.798922e+001
6.410694e+002, 3.787394e+001
6.415515e+002, 3.792950e+001
6.420336e+002, 3.800576e+001
6.425157e+002, 3.806921e+001
6.429979e+002, 3.802131e+001
6.434800e+002, 3.769947e+001
6.439621e+002, 3.734330e+001
6.444442e+002, 3.714161e+001
6.449263e+002, 3.706805e+001
6.454084e+002, 3.695710e+001
6.458906e+002, 3.667312e+001
6.463727e+002, 3.641368e+001
6.468548e+002, 3.631910e+001
6.473369e+002, 3.643815e+001
6.478190e+002, 3.632716e+001
6.483011e+002, 3.581887e+001
6.487833e+002, 3.533294e+001
6.492654e+002, 3.526128e+001
6.497475e+002, 3.565711e+001
6.502296e+002, 3.575782e+001
6.507117e+002, 3.547798e+001
6.511938e+002, 3.507143e+001
6.516760e+002, 3.481346e+001
6.521581e+002, 3.468468e+001
6.526402e+002, 3.466619e+001
6.531223e+002, 3.484631e+001
6.536044e+002, 3.493532e+001
6.540865e+002, 3.451550e+001
6.545687e+002, 3.383477e+001
6.550508e+002, 3.336877e+001
6.555329e+002, 3.351683e+001
6.560150e+002, 3.367700e+001
6.564971e+002, 3.357399e+001
6.569792e+002, 3.327281e+001
6.574614e+002, 3.314248e+001
6.579435e+002, 3.338407e+001
6.584256e+002, 3.353152e+001
6.589077e+002, 3.338540e+001
6.593898e+002, 3.296376e+001
6.598719e+002, 3.273654e+001
6.603541e+002, 3.273736e+001
6.608362e+002, 3.277491e+001
6.613183e+002, 3.264737e+001
6.618004e+002, 3.243647e+001
6.622825e+002, 3.254581e+001
6.627646e+002, 3.301955e+001
6.632468e+002, 3.341947e+001
6.637289e+002, 3.327074e+001
6.642110e+002, 3.285038e+001
6.646931e+002, 3.251227e+001
6.651752e+002, 3.234298e+001
6.656573e+002, 3.223703e+001
6.661395e+002, 3.216784e+001
6.666216e+002, 3.212711e+001
6.671037e+002, 3.210456e+001
6.675858e+002, 3.213665e+001
6.680679e+002, 3.213715e+001
6.685500e+002, 3.208675e+001
6.690322e+002, 3.200663e+001
6.695143e+002, 3.196462e+001
6.699964e+002, 3.198902e+001
6.704785e+002, 3.189679e+001
6.709606e+002, 3.156163e+001
6.714427e+002, 3.112012e+001
6.719249e+002, 3.101997e+001
6.724070e+002, 3.121622e+001
6.728891e+002, 3.135162e+001
6.733712e+002, 3.113649e+001
6.738533e+002, 3.079273e+001
6.743354e+002, 3.057016e+001
6.748176e+002, 3.046744e+001
6.752997e+002, 3.039658e+001
6.757818e+002, 3.040903e+001
6.762639e+002, 3.036826e+001
6.767460e+002, 3.016223e+001
6.772281e+002, 2.972183e+001
6.777103e+002, 2.936053e+001
6.781924e+002, 2.913489e+001
6.786745e+002, 2.894561e+001
6.791566e+002, 2.873214e+001
6.796387e+002, 2.850654e+001
6.801208e+002, 2.815891e+001
6.806030e+002, 2.762403e+001
6.810851e+002, 2.711390e+001
6.815672e+002, 2.693201e+001
6.820493e+002, 2.700970e+001
6.825314e+002, 2.706945e+001
6.830135e+002, 2.708995e+001
6.834957e+002, 2.696036e+001
6.839778e+002, 2.640785e+001
6.844599e+002, 2.563760e+001
6.849420e+002, 2.505626e+001
6.854241e+002, 2.495503e+001
6.859063e+002, 2.490913e+001
6.863884e+002, 2.477123e+001
6.868705e+002, 2.456274e+001
6.873526e+002, 2.436524e+001
6.878347e+002, 2.422376e+001
6.883168e+002, 2.402827e+001
6.887990e+002, 2.371466e+001
6.892811e+002, 2.331455e+001
6.897632e+002, 2.306615e+001
6.902453e+002, 2.297869e+001
6.907274e+002, 2.298133e+001
6.912095e+002, 2.311679e+001
6.916917e+002, 2.330563e+001
6.921738e+002, 2.327559e+001
6.926559e+002, 2.303235e+001
6.931380e+002, 2.277194e+001
6.936201e+002, 2.257641e+001
6.941022e+002, 2.247006e+001
6.945844e+002, 2.250399e+001
6.950665e+002, 2.270747e+001
6.955486e+002, 2.289014e+001
6.960307e+002, 2.307117e+001
6.965128e+002, 2.314910e+001
6.969949e+002, 2.302448e+001
6.974771e+002, 2.249716e+001
6.979592e+002, 2.220800e+001
6.984413e+002, 2.225575e+001
6.989234e+002, 2.241854e+001
6.994055e+002, 2.243653e+001
6.998876e+002, 2.230830e+001
7.003698e+002, 2.210947e+001
7.008519e+002, 2.181296e+001
7.013340e+002, 2.156521e+001
7.018161e+002, 2.169681e+001
7.022982e+002, 2.204367e+001
7.027803e+002, 2.218289e+001
7.032625e+002, 2.177255e+001
7.037446e+002, 2.133009e+001
7.042267e+002, 2.123719e+001
7.047088e+002, 2.136639e+001
7.051909e+002, 2.143952e+001
7.056730e+002, 2.137732e+001
7.061552e+002, 2.125028e+001
7.066373e+002, 2.096244e+001
7.071194e+002, 2.060635e+001
7.076015e+002, 2.070191e+001
7.080836e+002, 2.147261e+001
7.085657e+002, 2.199079e+001
7.090479e+002, 2.168460e+001
7.095300e+002, 2.084387e+001
7.100121e+002, 2.088735e+001
7.104942e+002, 2.177401e+001
7.109763e+002, 2.248784e+001
7.114584e+002, 2.211703e+001
7.119406e+002, 2.130739e+001
7.124227e+002, 2.082110e+001
7.129048e+002, 2.069835e+001
7.133869e+002, 2.075227e+001
7.138690e+002, 2.107992e+001
7.143511e+002, 2.141507e+001
7.148333e+002, 2.157296e+001
7.153154e+002, 2.146467e+001
7.157975e+002, 2.140119e+001
7.162796e+002, 2.143462e+001
7.167617e+002, 2.145205e+001
7.172438e+002, 2.131055e+001
7.177260e+002, 2.097477e+001
7.182081e+002, 2.091632e+001
7.186902e+002, 2.120831e+001
7.191723e+002, 2.159398e+001
7.196544e+002, 2.184239e+001
7.201365e+002, 2.194292e+001
7.206187e+002, 2.182111e+001
7.211008e+002, 2.136879e+001
7.215829e+002, 2.097156e+001
7.220650e+002, 2.101850e+001
7.225471e+002, 2.126047e+001
7.230292e+002, 2.136419e+001
7.235114e+002, 2.107502e+001
7.239935e+002, 2.083475e+001
7.244756e+002, 2.069885e+001
7.249577e+002, 2.065395e+001
7.254398e+002, 2.069100e+001
7.259219e+002, 2.083672e+001
7.264041e+002, 2.098232e+001
7.268862e+002, 2.110393e+001
7.273683e+002, 2.121207e+001
7.278504e+002, 2.132796e+001
7.283325e+002, 2.144984e+001
7.288146e+002, 2.157064e+001
7.292968e+002, 2.176685e+001
7.297789e+002, 2.188984e+001
7.302610e+002, 2.167199e+001
7.307431e+002, 2.122012e+001
7.312252e+002, 2.088846e+001
7.317073e+002, 2.086327e+001
7.321895e+002, 2.095771e+001
7.326716e+002, 2.115087e+001
7.331537e+002, 2.142541e+001
7.336358e+002, 2.158935e+001
7.341179e+002, 2.160315e+001
7.346000e+002, 2.157844e+001
7.350822e+002, 2.158127e+001
7.355643e+002, 2.159673e+001
7.360464e+002, 2.141442e+001
7.365285e+002, 2.102109e+001
7.370106e+002, 2.069563e+001
7.374927e+002, 2.066359e+001
7.379749e+002, 2.082098e+001
7.384570e+002, 2.104356e+001
7.389391e+002, 2.131671e+001
7.394212e+002, 2.150320e+001
7.399033e+002, 2.143092e+001
7.403854e+002, 2.130592e+001
7.408676e+002, 2.128915e+001
7.413497e+002, 2.144309e+001
7.418318e+002, 2.152073e+001
7.423139e+002, 2.143215e+001
7.427960e+002, 2.134820e+001
7.432781e+002, 2.138628e+001
7.437603e+002, 2.156011e+001
7.442424e+002, 2.179742e+001
7.447245e+002, 2.213489e+001
7.452066e+002, 2.237864e+001
7.456887e+002, 2.223710e+001
7.461708e+002, 2.185026e+001
7.466530e+002, 2.159845e+001
7.471351e+002, 2.156860e+001
7.476172e+002, 2.156060e+001
7.480993e+002, 2.134067e+001
7.485814e+002, 2.110098e+001
7.490635e+002, 2.106538e+001
7.495457e+002, 2.144245e+001
7.500278e+002, 2.177406e+001
7.505099e+002, 2.199429e+001
7.509920e+002, 2.214178e+001
7.514741e+002, 2.226556e+001
7.519562e+002, 2.238480e+001
7.524384e+002, 2.236550e+001
7.529205e+002, 2.213774e+001
7.534026e+002, 2.187419e+001
7.538847e+002, 2.189567e+001
7.543668e+002, 2.213216e+001
7.548489e+002, 2.230367e+001
7.553311e+002, 2.231021e+001
7.558132e+002, 2.225061e+001
7.562953e+002, 2.214709e+001
7.567774e+002, 2.204924e+001
7.572595e+002, 2.204622e+001
7.577416e+002, 2.230549e+001
7.582238e+002, 2.249844e+001
7.587059e+002, 2.249436e+001
7.591880e+002, 2.239051e+001
7.596701e+002, 2.240367e+001
7.601522e+002, 2.259320e+001
7.606343e+002, 2.269836e+001
7.611165e+002, 2.261218e+001
7.615986e+002, 2.244472e+001
7.620807e+002, 2.251597e+001
7.625628e+002, 2.277781e+001
7.630449e+002, 2.294565e+001
7.635270e+002, 2.276124e+001
7.640092e+002, 2.253620e+001
7.644913e+002, 2.257128e+001
7.649734e+002, 2.280949e+001
7.654555e+002, 2.307303e+001
7.659376e+002, 2.344787e+001
7.664197e+002, 2.367622e+001
7.669019e+002, 2.361207e+001
7.673840e+002, 2.331389e+001
7.678661e+002, 2.300014e+001
7.683482e+002, 2.260697e+001
7.688303e+002, 2.239585e+001
7.693124e+002, 2.255112e+001
7.697946e+002, 2.294264e+001
7.702767e+002, 2.311082e+001
7.707588e+002, 2.307362e+001
7.712409e+002, 2.299885e+001
7.717230e+002, 2.298982e+001
7.722051e+002, 2.299147e+001
7.726873e+002, 2.293882e+001
7.731694e+002, 2.283938e+001
7.736515e+002, 2.276011e+001
7.741336e+002, 2.270448e+001
7.746157e+002, 2.269445e+001
7.750978e+002, 2.276838e+001
7.755800e+002, 2.292019e+001
7.760621e+002, 2.295992e+001
7.765442e+002, 2.282540e+001
7.770263e+002, 2.275727e+001
7.775084e+002, 2.294163e+001
7.779905e+002, 2.330793e+001
7.784727e+002, 2.352701e+001
7.789548e+002, 2.360245e+001
7.794369e+002, 2.360038e+001
7.799190e+002, 2.355551e+001
7.804011e+002, 2.346365e+001
7.808832e+002, 2.326513e+001
7.813654e+002, 2.296329e+001
7.818475e+002, 2.280036e+001
7.823296e+002, 2.299269e+001
7.828117e+002, 2.322050e+001
7.832938e+002, 2.333710e+001
7.837759e+002, 2.333896e+001
7.842581e+002, 2.324969e+001
7.847402e+002, 2.303572e+001
7.852223e+002, 2.283892e+001
7.857044e+002, 2.275544e+001
7.861865e+002, 2.277024e+001
7.866686e+002, 2.282196e+001
7.871508e+002, 2.290952e+001
7.876329e+002, 2.304131e+001
7.881150e+002, 2.331083e+001
7.885971e+002, 2.357519e+001
7.890792e+002, 2.366024e+001
7.895613e+002, 2.352441e+001
7.900435e+002, 2.345350e+001
7.905256e+002, 2.366165e+001
7.910077e+002, 2.381966e+001
7.914898e+002, 2.370357e+001
7.919719e+002, 2.323592e+001
7.924540e+002, 2.307983e+001
7.929362e+002, 2.329421e+001
7.934183e+002, 2.358560e+001
7.939004e+002, 2.372912e+001
7.943825e+002, 2.375449e+001
7.948646e+002, 2.370029e+001
7.953467e+002, 2.356724e+001
7.958289e+002, 2.350969e+001
7.963110e+002, 2.375827e+001
7.967931e+002, 2.405270e+001
7.972752e+002, 2.414910e+001
7.977573e+002, 2.395779e+001
7.982394e+002, 2.384257e+001
7.987216e+002, 2.384880e+001
7.992037e+002, 2.393504e+001
7.996858e+002, 2.413807e+001
8.001679e+002, 2.451432e+001
8.006500e+002, 2.448739e+001
8.011321e+002, 2.399039e+001
8.016143e+002, 2.351000e+001
8.020964e+002, 2.354004e+001
8.025785e+002, 2.388508e+001
8.030606e+002, 2.410398e+001
8.035427e+002, 2.412547e+001
8.040248e+002, 2.442551e+001
8.045070e+002, 2.600621e+001
8.049891e+002, 2.748205e+001
8.054712e+002, 2.753580e+001
8.059533e+002, 2.510954e+001
8.064354e+002, 2.438328e+001
8.069175e+002, 2.627457e+001
8.073997e+002, 2.855373e+001
8.078818e+002, 2.953381e+001
8.083639e+002, 2.923789e+001
8.088460e+002, 2.911927e+001
8.093281e+002, 2.924094e+001
8.098102e+002, 2.935344e+001
8.102924e+002, 2.925056e+001
8.107745e+002, 2.899236e+001
8.112566e+002, 2.864088e+001
8.117387e+002, 2.820113e+001
8.122208e+002, 2.773626e+001
8.127029e+002, 2.722669e+001
8.131851e+002, 2.673672e+001
8.136672e+002, 2.630402e+001
8.141493e+002, 2.592102e+001
8.146314e+002, 2.563569e+001
8.151135e+002, 2.547758e+001
8.155956e+002, 2.534903e+001
8.160778e+002, 2.514075e+001
8.165599e+002, 2.488959e+001
8.170420e+002, 2.477908e+001
8.175241e+002, 2.482007e+001
8.180062e+002, 2.493614e+001
8.184883e+002, 2.518760e+001
8.189705e+002, 2.540995e+001
8.194526e+002, 2.541110e+001
8.199347e+002, 2.513655e+001
8.204168e+002, 2.488843e+001
8.208989e+002, 2.464461e+001
8.213810e+002, 2.452725e+001
8.218632e+002, 2.466851e+001
8.223453e+002, 2.512664e+001
8.228274e+002, 2.520410e+001
8.233095e+002, 2.483982e+001
8.237916e+002, 2.446448e+001
8.242737e+002, 2.443258e+001
8.247559e+002, 2.463326e+001
8.252380e+002, 2.489951e+001
8.257201e+002, 2.521255e+001
8.262022e+002, 2.543885e+001
8.266843e+002, 2.549148e+001
8.271664e+002, 2.543140e+001
8.276486e+002, 2.523948e+001
8.281307e+002, 2.486880e+001
8.286128e+002, 2.475890e+001
8.290949e+002, 2.507830e+001
8.295770e+002, 2.536468e+001
8.300591e+002, 2.529816e+001
8.305413e+002, 2.492885e+001
8.310234e+002, 2.487685e+001
8.315055e+002, 2.513749e+001
8.319876e+002, 2.537201e+001
8.324697e+002, 2.527311e+001
8.329518e+002, 2.506301e+001
8.334340e+002, 2.497328e+001
8.339161e+002, 2.501392e+001
8.343982e+002, 2.509812e+001
8.348803e+002, 2.529486e+001
8.353624e+002, 2.542695e+001
8.358445e+002, 2.537503e+001
8.363267e+002, 2.515357e+001
8.368088e+002, 2.514528e+001
8.372909e+002, 2.540974e+001
8.377730e+002, 2.561286e+001
8.382551e+002, 2.549938e+001
8.387372e+002, 2.521186e+001
8.392194e+002, 2.511630e+001
8.397015e+002, 2.518775e+001
8.401836e+002, 2.528149e+001
8.406657e+002, 2.536825e+001
8.411478e+002, 2.540275e+001
8.416299e+002, 2.531695e+001
8.421121e+002, 2.512983e+001
8.425942e+002, 2.501599e+001
8.430763e+002, 2.497685e+001
8.435584e+002, 2.502779e+001
8.440405e+002, 2.522019e+001
8.445226e+002, 2.549140e+001
8.450048e+002, 2.555730e+001
8.454869e+002, 2.543260e+001
8.459690e+002, 2.534788e+001
8.464511e+002, 2.551596e+001
8.469332e+002, 2.570074e+001
8.474153e+002, 2.560592e+001
8.478975e+002, 2.531443e+001
8.483796e+002, 2.506060e+001
8.488617e+002, 2.477768e+001
8.493438e+002, 2.472697e+001
8.498259e+002, 2.513212e+001
8.503080e+002, 2.577540e+001
8.507902e+002, 2.606290e+001
8.512723e+002, 2.592722e+001
8.517544e+002, 2.584252e+001
8.522365e+002, 2.598480e+001
8.527186e+002, 2.618320e+001
8.532007e+002, 2.607452e+001
8.536829e+002, 2.576962e+001
8.541650e+002, 2.557239e+001
8.546471e+002, 2.566866e+001
8.551292e+002, 2.581133e+001
8.556113e+002, 2.590418e+001
8.560934e+002, 2.595840e+001
8.565756e+002, 2.599393e+001
8.570577e+002, 2.599039e+001
8.575398e+002, 2.602098e+001
8.580219e+002, 2.611650e+001
8.585040e+002, 2.621436e+001
8.589861e+002, 2.622745e+001
8.594683e+002, 2.615612e+001
8.599504e+002, 2.596394e+001
8.604325e+002, 2.558600e+001
8.609146e+002, 2.527908e+001
8.613967e+002, 2.537119e+001
8.618788e+002, 2.563491e+001
8.623610e+002, 2.578721e+001
8.628431e+002, 2.567298e+001
8.633252e+002, 2.560736e+001
8.638073e+002, 2.568140e+001
8.642894e+002, 2.574933e+001
8.647715e+002, 2.564440e+001
8.652537e+002, 2.535531e+001
8.657358e+002, 2.511389e+001
8.662179e+002, 2.492692e+001
8.667000e+002, 2.484709e+001
8.671821e+002, 2.507875e+001
8.676642e+002, 2.538774e+001
8.681464e+002, 2.537014e+001
8.686285e+002, 2.490440e+001
8.691106e+002, 2.455342e+001
8.695927e+002, 2.468399e+001
8.700748e+002, 2.487666e+001
8.705569e+002, 2.482609e+001
8.710391e+002, 2.446790e+001
8.715212e+002, 2.434367e+001
8.720033e+002, 2.451521e+001
8.724854e+002, 2.467328e+001
8.729675e+002, 2.451279e+001
8.734496e+002, 2.417979e+001
8.739318e+002, 2.403986e+001
8.744139e+002, 2.409138e+001
8.748960e+002, 2.416749e+001
8.753781e+002, 2.415038e+001
8.758602e+002, 2.414346e+001
8.763423e+002, 2.426182e+001
8.768245e+002, 2.450116e+001
8.773066e+002, 2.453024e+001
8.777887e+002, 2.423984e+001
8.782708e+002, 2.399401e+001
8.787529e+002, 2.397300e+001
8.792350e+002, 2.409388e+001
8.797172e+002, 2.405667e+001
8.801993e+002, 2.388648e+001
8.806814e+002, 2.374033e+001
8.811635e+002, 2.374847e+001
8.816456e+002, 2.377220e+001
8.821277e+002, 2.371168e+001
8.826099e+002, 2.358291e+001
8.830920e+002, 2.343389e+001
8.835741e+002, 2.314990e+001
8.840562e+002, 2.303643e+001
8.845383e+002, 2.322624e+001
8.850204e+002, 2.354025e+001
8.855026e+002, 2.353489e+001
8.859847e+002, 2.323640e+001
8.864668e+002, 2.306567e+001
8.869489e+002, 2.320614e+001
8.874310e+002, 2.337277e+001
8.879131e+002, 2.319509e+001
8.883953e+002, 2.285357e+001
8.888774e+002, 2.261847e+001
8.893595e+002, 2.260311e+001
8.898416e+002, 2.264764e+001
8.903237e+002, 2.277641e+001
8.908058e+002, 2.291390e+001
8.912880e+002, 2.300913e+001
8.917701e+002, 2.307089e+001
8.922522e+002, 2.291749e+001
8.927343e+002, 2.249669e+001
8.932164e+002, 2.209005e+001
8.936985e+002, 2.204719e+001
8.941807e+002, 2.218298e+001
8.946628e+002, 2.223647e+001
8.951449e+002, 2.216304e+001
8.956270e+002, 2.203543e+001
8.961091e+002, 2.173147e+001
8.965912e+002, 2.151492e+001
8.970734e+002, 2.158338e+001
8.975555e+002, 2.197558e+001
8.980376e+002, 2.216174e+001
8.985197e+002, 2.212478e+001
8.990018e+002, 2.197962e+001
8.994839e+002, 2.173268e+001
8.999661e+002, 2.146264e+001
9.004482e+002, 2.132465e+001
9.009303e+002, 2.130751e+001
9.014124e+002, 2.132639e+001
9.018945e+002, 2.132030e+001
9.023766e+002, 2.135860e+001
9.028588e+002, 2.154377e+001
9.033409e+002, 2.181533e+001
9.038230e+002, 2.187296e+001
9.043051e+002, 2.164292e+001
9.047872e+002, 2.150323e+001
9.052693e+002, 2.163891e+001
9.057515e+002, 2.186175e+001
9.062336e+002, 2.172736e+001
9.067157e+002, 2.135450e+001
9.071978e+002, 2.108901e+001
9.076799e+002, 2.114444e+001
9.081620e+002, 2.124884e+001
9.086442e+002, 2.127832e+001
9.091263e+002, 2.128039e+001
9.096084e+002, 2.134853e+001
9.100905e+002, 2.156340e+001
9.105726e+002, 2.161782e+001
9.110547e+002, 2.145027e+001
9.115369e+002, 2.120022e+001
9.120190e+002, 2.101470e+001
9.125011e+002, 2.089754e+001
9.129832e+002, 2.087721e+001
9.134653e+002, 2.097222e+001
9.139474e+002, 2.107057e+001
9.144296e+002, 2.105256e+001
9.149117e+002, 2.103953e+001
9.153938e+002, 2.117351e+001
9.158759e+002, 2.154624e+001
9.163580e+002, 2.167178e+001
9.168401e+002, 2.148210e+001
9.173223e+002, 2.121248e+001
9.178044e+002, 2.095495e+001
9.182865e+002, 2.075066e+001
9.187686e+002, 2.079283e+001
9.192507e+002, 2.105935e+001
9.197328e+002, 2.133697e+001
9.202150e+002, 2.156127e+001
9.206971e+002, 2.169270e+001
9.211792e+002, 2.168363e+001
9.216613e+002, 2.154634e+001
9.221434e+002, 2.138274e+001
9.226255e+002, 2.112083e+001
9.231077e+002, 2.101208e+001
9.235898e+002, 2.115662e+001
9.240719e+002, 2.146888e+001
9.245540e+002, 2.185552e+001
9.250361e+002, 2.225798e+001
9.255182e+002, 2.241121e+001
9.260004e+002, 2.204224e+001
9.264825e+002, 2.168850e+001
9.269646e+002, 2.172037e+001
9.274467e+002, 2.196775e+001
9.279288e+002, 2.218573e+001
9.284109e+002, 2.242155e+001
9.288931e+002, 2.246722e+001
9.293752e+002, 2.224680e+001
9.298573e+002, 2.197015e+001
9.303394e+002, 2.186505e+001
9.308215e+002, 2.190295e+001
9.313036e+002, 2.200007e+001
9.317858e+002, 2.215249e+001
9.322679e+002, 2.227681e+001
9.327500e+002, 2.232632e+001
9.332321e+002, 2.231814e+001
9.337142e+002, 2.223975e+001
9.341964e+002, 2.207324e+001
9.346785e+002, 2.201913e+001
9.351606e+002, 2.213017e+001
9.356427e+002, 2.222703e+001
9.361248e+002, 2.222184e+001
9.366069e+002, 2.212820e+001
9.370891e+002, 2.196956e+001
9.375712e+002, 2.175684e+001
9.380533e+002, 2.155527e+001
9.385354e+002, 2.132854e+001
9.390175e+002, 2.119414e+001
9.394996e+002, 2.128188e+001
9.399818e+002, 2.151518e+001
9.404639e+002, 2.166763e+001
9.409460e+002, 2.169567e+001
9.414281e+002, 2.172333e+001
9.419102e+002, 2.174750e+001
9.423923e+002, 2.182638e+001
9.428745e+002, 2.215384e+001
9.433566e+002, 2.261451e+001
9.438387e+002, 2.284764e+001
9.443208e+002, 2.272166e+001
9.448029e+002, 2.252205e+001
9.452850e+002, 2.231964e+001
9.457672e+002, 2.217647e+001
9.462493e+002, 2.216302e+001
9.467314e+002, 2.230846e+001
9.472135e+002, 2.246527e+001
9.476956e+002, 2.265157e+001
9.481777e+002, 2.278788e+001
9.486599e+002, 2.275781e+001
9.491420e+002, 2.264309e+001
9.496241e+002, 2.267861e+001
9.501062e+002, 2.284410e+001
9.505883e+002, 2.293516e+001
9.510704e+002, 2.268258e+001
9.515526e+002, 2.248333e+001
9.520347e+002, 2.263346e+001
9.525168e+002, 2.301505e+001
9.529989e+002, 2.318489e+001
9.534810e+002, 2.311727e+001
9.539631e+002, 2.292820e+001
9.544453e+002, 2.256779e+001
9.549274e+002, 2.225376e+001
9.554095e+002, 2.244987e+001
9.558916e+002, 2.295448e+001
9.563737e+002, 2.333429e+001
9.568558e+002, 2.339314e+001
9.573380e+002, 2.342361e+001
9.578201e+002, 2.358540e+001
9.583022e+002, 2.372283e+001
9.587843e+002, 2.363938e+001
9.592664e+002, 2.324065e+001
9.597485e+002, 2.323802e+001
9.602307e+002, 2.371049e+001
9.607128e+002, 2.414357e+001
9.611949e+002, 2.395441e+001
9.616770e+002, 2.350534e+001
9.621591e+002, 2.326051e+001
9.626412e+002, 2.325385e+001
9.631234e+002, 2.345670e+001
9.636055e+002, 2.420292e+001
9.640876e+002, 2.476355e+001
9.645697e+002, 2.478692e+001
9.650518e+002, 2.443597e+001
9.655339e+002, 2.450705e+001
9.660161e+002, 2.500000e+001
9.664982e+002, 2.532029e+001
9.669803e+002, 2.512149e+001
9.674624e+002, 2.484472e+001
9.679445e+002, 2.506861e+001
9.684266e+002, 2.553716e+001
9.689088e+002, 2.582313e+001
9.693909e+002, 2.549146e+001
9.698730e+002, 2.545317e+001
9.703551e+002, 2.591875e+001
9.708372e+002, 2.649209e+001
9.713193e+002, 2.676398e+001
9.718015e+002, 2.676202e+001
9.722836e+002, 2.674161e+001
9.727657e+002, 2.672056e+001
9.732478e+002, 2.674859e+001
9.737299e+002, 2.686358e+001
9.742120e+002, 2.704595e+001
9.746942e+002, 2.731316e+001
9.751763e+002, 2.766449e+001
9.756584e+002, 2.791668e+001
9.761405e+002, 2.798250e+001
9.766226e+002, 2.813724e+001
9.771047e+002, 2.853846e+001
9.775869e+002, 2.905032e+001
9.780690e+002, 2.920826e+001
9.785511e+002, 2.912125e+001
9.790332e+002, 2.921690e+001
9.795153e+002, 2.985987e+001
9.799974e+002, 3.044736e+001
9.804796e+002, 3.049385e+001
9.809617e+002, 3.036434e+001
9.814438e+002, 3.058566e+001
9.819259e+002, 3.131001e+001
9.824080e+002, 3.196968e+001
9.828901e+002, 3.255233e+001
9.833723e+002, 3.302898e+001
9.838544e+002, 3.330816e+001
9.843365e+002, 3.348318e+001
9.848186e+002, 3.371580e+001
9.853007e+002, 3.402232e+001
9.857828e+002, 3.438707e+001
9.862650e+002, 3.482003e+001
9.867471e+002, 3.529811e+001
9.872292e+002, 3.579616e+001
9.877113e+002, 3.632581e+001
9.881934e+002, 3.696981e+001
9.886755e+002, 3.773285e+001
9.891577e+002, 3.850378e+001
9.896398e+002, 3.926348e+001
9.901219e+002, 3.995667e+001
9.906040e+002, 4.050677e+001
9.910861e+002, 4.094204e+001
9.915682e+002, 4.130622e+001
9.920504e+002, 4.140432e+001
9.925325e+002, 4.176324e+001
9.930146e+002, 4.249171e+001
9.934967e+002, 4.338365e+001
9.939788e+002, 4.435532e+001
9.944609e+002, 4.536931e+001
9.949431e+002, 4.599573e+001
9.954252e+002, 4.621773e+001
9.959073e+002, 4.653975e+001
9.963894e+002, 4.737580e+001
9.968715e+002, 4.842247e+001
9.973536e+002, 4.941588e+001
9.978358e+002, 5.037574e+001
9.983179e+002, 5.172395e+001
9.988000e+002, 5.365642e+001
9.992821e+002, 5.546141e+001
9.997642e+002, 5.686320e+001
1.000246e+003, 5.815758e+001
1.000728e+003, 5.979961e+001
1.001211e+003, 6.179892e+001
1.001693e+003, 6.415556e+001
1.002175e+003, 6.704013e+001
1.002657e+003, 6.994945e+001
1.003139e+003, 7.229140e+001
1.003621e+003, 7.482243e+001
1.004103e+003, 7.821790e+001
1.004585e+003, 8.263296e+001
1.005068e+003, 8.695604e+001
1.005550e+003, 9.118636e+001
1.006032e+003, 9.566228e+001
1.006514e+003, 1.005258e+002
1.006996e+003, 1.059085e+002
1.007478e+003, 1.121242e+002
1.007960e+003, 1.191286e+002
1.008442e+003, 1.265216e+002
1.008924e+003, 1.339298e+002
1.009407e+003, 1.422530e+002
1.009889e+003, 1.517027e+002
1.010371e+003, 1.622415e+002
1.010853e+003, 1.738159e+002
1.011335e+003, 1.865666e+002
1.011817e+003, 2.002945e+002
1.012299e+003, 2.149671e+002
1.012781e+003, 2.308929e+002
1.013263e+003, 2.487401e+002
1.013746e+003, 2.678810e+002
1.014228e+003, 2.878824e+002
1.014710e+003, 3.086956e+002
1.015192e+003, 3.301578e+002
1.015674e+003, 3.524341e+002
1.016156e+003, 3.746932e+002
1.016638e+003, 3.961146e+002
1.017120e+003, 4.175710e+002
1.017603e+003, 4.400973e+002
1.018085e+003, 4.642901e+002
1.018567e+003, 4.915505e+002
1.019049e+003, 5.210002e+002
1.019531e+003, 5.556097e+002
1.020013e+003, 5.959862e+002
1.020495e+003, 6.422795e+002
1.020977e+003, 6.959384e+002
1.021459e+003, 7.570662e+002
1.021942e+003, 8.207451e+002
1.022424e+003, 8.868602e+002
1.022906e+003, 9.530701e+002
1.023388e+003, 1.022035e+003
1.023870e+003, 1.087774e+003
1.024352e+003, 1.149864e+003
1.024834e+003, 1.209342e+003
1.025316e+003, 1.234432e+003
1.025799e+003, 1.221064e+003
1.026281e+003, 1.181004e+003
1.026763e+003, 1.114406e+003
1.027245e+003, 1.027997e+003
1.027727e+003, 9.284728e+002
1.028209e+003, 8.206981e+002
1.028691e+003, 7.206202e+002
1.029173e+003, 6.323356e+002
1.029656e+003, 5.560546e+002
1.030138e+003, 4.946440e+002
1.030620e+003, 4.451985e+002
1.031102e+003, 4.040797e+002
1.031584e+003, 3.719128e+002
1.032066e+003, 3.442798e+002
1.032548e+003, 3.210421e+002
1.033030e+003, 3.012780e+002
1.033512e+003, 2.852387e+002
1.033995e+003, 2.717762e+002
1.034477e+003, 2.602619e+002
1.034959e+003, 2.504806e+002
1.035441e+003, 2.412331e+002
1.035923e+003, 2.326801e+002
1.036405e+003, 2.239994e+002
1.036887e+003, 2.149662e+002
1.037369e+003, 2.056917e+002
1.037851e+003, 1.962433e+002
1.038334e+003, 1.866747e+002
1.038816e+003, 1.764493e+002
1.039298e+003, 1.652858e+002
1.039780e+003, 1.541435e+002
1.040262e+003, 1.431770e+002
1.040744e+003, 1.326565e+002
1.041226e+003, 1.227229e+002
1.041708e+003, 1.132315e+002
1.042191e+003, 1.046004e+002
1.042673e+003, 9.669662e+001
1.043155e+003, 8.985715e+001
1.043637e+003, 8.444036e+001
1.044119e+003, 7.991927e+001
1.044601e+003, 7.563904e+001
1.045083e+003, 7.160997e+001
1.045565e+003, 6.801742e+001
1.046047e+003, 6.491722e+001
1.046530e+003, 6.225658e+001
1.047012e+003, 6.013121e+001
1.047494e+003, 5.830453e+001
1.047976e+003, 5.654029e+001
1.048458e+003, 5.483252e+001
1.048940e+003, 5.327553e+001
1.049422e+003, 5.186698e+001
1.049904e+003, 5.056507e+001
1.050386e+003, 4.938398e+001
1.050869e+003, 4.824483e+001
1.051351e+003, 4.702890e+001
1.051833e+003, 4.580318e+001
1.052315e+003, 4.488776e+001
1.052797e+003, 4.431138e+001
1.053279e+003, 4.383215e+001
1.053761e+003, 4.341507e+001
1.054243e+003, 4.296012e+001
1.054726e+003, 4.218238e+001
1.055208e+003, 4.135191e+001
1.055690e+003, 4.089373e+001
1.056172e+003, 4.107141e+001
1.056654e+003, 4.102834e+001
1.057136e+003, 4.056613e+001
1.057618e+003, 4.011130e+001
1.058100e+003, 3.995782e+001
1.058583e+003, 4.001023e+001
1.059065e+003, 3.981817e+001
1.059547e+003, 3.946144e+001
1.060029e+003, 3.930859e+001
1.060511e+003, 3.977245e+001
1.060993e+003, 4.022578e+001
1.061475e+003, 4.039627e+001
1.061957e+003, 4.040680e+001
1.062439e+003, 4.041568e+001
1.062922e+003, 4.042419e+001
1.063404e+003, 4.041830e+001
1.063886e+003, 4.039565e+001
1.064368e+003, 4.037279e+001
1.064850e+003, 4.032671e+001
1.065332e+003, 4.031457e+001
1.065814e+003, 4.047845e+001
1.066296e+003, 4.079114e+001
1.066778e+003, 4.081617e+001
1.067261e+003, 4.041785e+001
1.067743e+003, 3.995267e+001
1.068225e+003, 3.944110e+001
1.068707e+003, 3.902821e+001
1.069189e+003, 3.910396e+001
1.069671e+003, 3.947937e+001
1.070153e+003, 3.969635e+001
1.070635e+003, 3.958918e+001
1.071118e+003, 3.951960e+001
1.071600e+003, 3.960955e+001
1.072082e+003, 3.980961e+001
1.072564e+003, 4.012487e+001
1.073046e+003, 4.053878e+001
1.073528e+003, 4.083886e+001
1.074010e+003, 4.103576e+001
1.074492e+003, 4.131293e+001
1.074974e+003, 4.183045e+001
1.075457e+003, 4.238984e+001
1.075939e+003, 4.278250e+001
1.076421e+003, 4.313756e+001
1.076903e+003, 4.367601e+001
1.077385e+003, 4.438243e+001
1.077867e+003, 4.535071e+001
1.078349e+003, 4.663431e+001
1.078831e+003, 4.794746e+001
1.079313e+003, 4.896246e+001
1.079796e+003, 4.987202e+001
1.080278e+003, 5.090194e+001
1.080760e+003, 5.208839e+001
1.081242e+003, 5.350948e+001
1.081724e+003, 5.540009e+001
1.082206e+003, 5.725087e+001
1.082688e+003, 5.886471e+001
1.083170e+003, 6.046051e+001
1.083652e+003, 6.245556e+001
1.084135e+003, 6.478299e+001
1.084617e+003, 6.709488e+001
1.085099e+003, 6.930241e+001
1.085581e+003, 7.169080e+001
1.086063e+003, 7.442757e+001
1.086545e+003, 7.740451e+001
1.087027e+003, 8.070615e+001
1.087509e+003, 8.425645e+001
1.087992e+003, 8.737969e+001
1.088474e+003, 9.007061e+001
1.088956e+003, 9.282617e+001
1.089438e+003, 9.587089e+001
1.089920e+003, 9.903178e+001
1.090402e+003, 1.022011e+002
1.090884e+003, 1.053940e+002
1.091366e+003, 1.086648e+002
1.091849e+003, 1.122255e+002
1.092331e+003, 1.153013e+002
1.092813e+003, 1.178377e+002
1.093295e+003, 1.200746e+002
1.093777e+003, 1.221986e+002
1.094259e+003, 1.241313e+002
1.094741e+003, 1.257954e+002
1.095223e+003, 1.271762e+002
1.095705e+003, 1.282354e+002
1.096188e+003, 1.289621e+002
1.096670e+003, 1.293204e+002
1.097152e+003, 1.294025e+002
1.097634e+003, 1.290210e+002
1.098116e+003, 1.277969e+002
1.098598e+003, 1.258659e+002
1.099080e+003, 1.238612e+002
1.099562e+003, 1.218362e+002
1.100044e+003, 1.198139e+002
1.100527e+003, 1.179150e+002
1.101009e+003, 1.159073e+002
1.101491e+003, 1.136033e+002
1.101973e+003, 1.110956e+002
1.102455e+003, 1.086324e+002
1.102937e+003, 1.061996e+002
1.103419e+003, 1.042388e+002
1.103901e+003, 1.029173e+002
1.104384e+003, 1.019307e+002
1.104866e+003, 1.009480e+002
1.105348e+003, 1.002005e+002
1.105830e+003, 9.998299e+001
1.106312e+003, 1.003891e+002
1.106794e+003, 1.007294e+002
1.107276e+003, 1.009268e+002
1.107758e+003, 1.013833e+002
1.108240e+003, 1.023957e+002
1.108723e+003, 1.036376e+002
1.109205e+003, 1.047236e+002
1.109687e+003, 1.056478e+002
1.110169e+003, 1.064100e+002
1.110651e+003, 1.070638e+002
1.111133e+003, 1.074454e+002
1.111615e+003, 1.075513e+002
1.112097e+003, 1.074058e+002
1.112579e+003, 1.070432e+002
1.113062e+003, 1.064434e+002
1.113544e+003, 1.056005e+002
1.114026e+003, 1.044712e+002
1.114508e+003, 1.028855e+002
1.114990e+003, 1.005084e+002
1.115472e+003, 9.795760e+001
1.115954e+003, 9.545073e+001
1.116436e+003, 9.290848e+001
1.116919e+003, 9.020009e+001
1.117401e+003, 8.732597e+001
1.117883e+003, 8.462673e+001
1.118365e+003, 8.213222e+001
1.118847e+003, 7.958060e+001
1.119329e+003, 7.670336e+001
1.119811e+003, 7.378222e+001
1.120293e+003, 7.092271e+001
1.120776e+003, 6.817706e+001
1.121258e+003, 6.573664e+001
1.121740e+003, 6.362364e+001
1.122222e+003, 6.159454e+001
1.122704e+003, 5.959410e+001
1.123186e+003, 5.766130e+001
1.123668e+003, 5.561304e+001
1.124150e+003, 5.373954e+001
1.124632e+003, 5.245287e+001
1.125115e+003, 5.187337e+001
1.125597e+003, 5.093430e+001
1.126079e+003, 4.948678e+001
1.126561e+003, 4.814799e+001
1.127043e+003, 4.718647e+001
1.127525e+003, 4.639616e+001
1.128007e+003, 4.537840e+001
1.128489e+003, 4.430096e+001
1.128971e+003, 4.346679e+001
1.129454e+003, 4.301794e+001
1.129936e+003, 4.265747e+001
1.130418e+003, 4.242245e+001
1.130900e+003, 4.212588e+001
1.131382e+003, 4.154461e+001
1.131864e+003, 4.085691e+001
1.132346e+003, 4.070416e+001
1.132828e+003, 4.092197e+001
1.133311e+003, 4.096846e+001
1.133793e+003, 4.020528e+001
1.134275e+003, 3.980138e+001
1.134757e+003, 4.028355e+001
1.135239e+003, 4.091760e+001
1.135721e+003, 4.094231e+001
1.136203e+003, 4.045315e+001
1.136685e+003, 4.028092e+001
1.137167e+003, 4.043050e+001
1.137650e+003, 4.069031e+001
1.138132e+003, 4.106004e+001
1.138614e+003, 4.136793e+001
1.139096e+003, 4.146120e+001
1.139578e+003, 4.147264e+001
1.140060e+003, 4.161497e+001
1.140542e+003, 4.189282e+001
1.141024e+003, 4.214302e+001
1.141506e+003, 4.234551e+001
1.141989e+003, 4.259208e+001
1.142471e+003, 4.288592e+001
1.142953e+003, 4.331721e+001
1.143435e+003, 4.409542e+001
1.143917e+003, 4.509777e+001
1.144399e+003, 4.573434e+001
1.144881e+003, 4.593486e+001
1.145363e+003, 4.619545e+001
1.145846e+003, 4.659829e+001
1.146328e+003, 4.717298e+001
1.146810e+003, 4.814351e+001
1.147292e+003, 4.916774e+001
1.147774e+003, 4.980735e+001
1.148256e+003, 4.996642e+001
1.148738e+003, 5.049660e+001
1.149220e+003, 5.149733e+001
1.149703e+003, 5.256063e+001
1.150185e+003, 5.357829e+001
1.150667e+003, 5.451716e+001
1.151149e+003, 5.520100e+001
1.151631e+003, 5.583298e+001
1.152113e+003, 5.678706e+001
1.152595e+003, 5.829967e+001
1.153077e+003, 5.953485e+001
1.153559e+003, 6.030109e+001
1.154042e+003, 6.112365e+001
1.154524e+003, 6.231536e+001
1.155006e+003, 6.371687e+001
1.155488e+003, 6.501006e+001
1.155970e+003, 6.622916e+001
1.156452e+003, 6.739790e+001
1.156934e+003, 6.841953e+001
1.157416e+003, 6.963317e+001
1.157898e+003, 7.122335e+001
1.158381e+003, 7.276405e+001
1.158863e+003, 7.385787e+001
1.159345e+003, 7.464449e+001
1.159827e+003, 7.564304e+001
1.160309e+003, 7.682473e+001
1.160791e+003, 7.805889e+001
1.161273e+003, 7.934752e+001
1.161755e+003, 8.060398e+001
1.162238e+003, 8.190061e+001
1.162720e+003, 8.305847e+001
1.163202e+003, 8.383735e+001
1.163684e+003, 8.428548e+001
1.164166e+003, 8.475325e+001
1.164648e+003, 8.524532e+001
1.165130e+003, 8.562952e+001
1.165612e+003, 8.594434e+001
1.166094e+003, 8.598975e+001
1.166577e+003, 8.547151e+001
1.167059e+003, 8.478152e+001
1.167541e+003, 8.458949e+001
1.168023e+003, 8.484566e+001
1.168505e+003, 8.498488e+001
1.168987e+003, 8.495200e+001
1.169469e+003, 8.460995e+001
1.169951e+003, 8.357129e+001
1.170433e+003, 8.248280e+001
1.170916e+003, 8.177522e+001
1.171398e+003, 8.129534e+001
1.171880e+003, 8.065588e+001
1.172362e+003, 7.985631e+001
1.172844e+003, 7.903737e+001
1.173326e+003, 7.822294e+001
1.173808e+003, 7.745512e+001
1.174290e+003, 7.682893e+001
1.174773e+003, 7.622376e+001
1.175255e+003, 7.553754e+001
1.175737e+003, 7.478037e+001
1.176219e+003, 7.402549e+001
1.176701e+003, 7.326149e+001
1.177183e+003, 7.260815e+001
1.177665e+003, 7.206966e+001
1.178147e+003, 7.173103e+001
1.178630e+003, 7.186925e+001
1.179112e+003, 7.210791e+001
1.179594e+003, 7.205588e+001
1.180076e+003, 7.169690e+001
1.180558e+003, 7.132402e+001
1.181040e+003, 7.090907e+001
1.181522e+003, 7.075059e+001
1.182004e+003, 7.103165e+001
1.182486e+003, 7.146457e+001
1.182969e+003, 7.162430e+001
1.183451e+003, 7.181704e+001
1.183933e+003, 7.244425e+001
1.184415e+003, 7.357651e+001
1.184897e+003, 7.492517e+001
1.185379e+003, 7.654929e+001
1.185861e+003, 7.806153e+001
1.186343e+003, 7.904262e+001
1.186825e+003, 8.008871e+001
1.187308e+003, 8.189187e+001
1.187790e+003, 8.424353e+001
1.188272e+003, 8.682447e+001
1.188754e+003, 8.964932e+001
1.189236e+003, 9.242749e+001
1.189718e+003, 9.503226e+001
1.190200e+003, 9.812144e+001
1.190682e+003, 1.022426e+002
1.191165e+003, 1.069780e+002
1.191647e+003, 1.118456e+002
1.192129e+003, 1.168858e+002
1.192611e+003, 1.222772e+002
1.193093e+003, 1.278248e+002
1.193575e+003, 1.340397e+002
1.194057e+003, 1.409835e+002
1.194539e+003, 1.484634e+002
1.195021e+003, 1.564914e+002
1.195504e+003, 1.649494e+002
1.195986e+003, 1.735681e+002
1.196468e+003, 1.825169e+002
1.196950e+003, 1.921680e+002
1.197432e+003, 2.029187e+002
1.197914e+003, 2.138576e+002
1.198396e+003, 2.251066e+002
1.198878e+003, 2.359282e+002
1.199360e+003, 2.457266e+002
1.199843e+003, 2.544950e+002
1.200325e+003, 2.623754e+002
1.200807e+003, 2.691469e+002
1.201289e+003, 2.737188e+002
1.201771e+003, 2.761362e+002
1.202253e+003, 2.759899e+002
1.202735e+003, 2.731391e+002
1.203217e+003, 2.679880e+002
1.203700e+003, 2.606729e+002
1.204182e+003, 2.516006e+002
1.204664e+003, 2.409006e+002
1.205146e+003, 2.288378e+002
1.205628e+003, 2.163331e+002
1.206110e+003, 2.031549e+002
1.206592e+003, 1.902981e+002
1.207074e+003, 1.777253e+002
1.207557e+003, 1.656895e+002
1.208039e+003, 1.543797e+002
1.208521e+003, 1.438462e+002
1.209003e+003, 1.339873e+002
1.209485e+003, 1.247895e+002
1.209967e+003, 1.167842e+002
1.210449e+003, 1.101693e+002
1.210931e+003, 1.040265e+002
1.211413e+003, 9.811004e+001
1.211896e+003, 9.253319e+001
1.212378e+003, 8.721490e+001
1.212860e+003, 8.230402e+001
1.213342e+003, 7.824878e+001
1.213824e+003, 7.506243e+001
1.214306e+003, 7.182887e+001
1.214788e+003, 6.828683e+001
1.215270e+003, 6.509844e+001
1.215752e+003, 6.246426e+001
1.216235e+003, 6.019940e+001
1.216717e+003, 5.810067e+001
1.217199e+003, 5.613556e+001
1.217681e+003, 5.427042e+001
1.218163e+003, 5.248531e+001
1.218645e+003, 5.067540e+001
1.219127e+003, 4.870539e+001
1.219609e+003, 4.706350e+001
1.220092e+003, 4.592996e+001
1.220574e+003, 4.509962e+001
1.221056e+003, 4.442559e+001
1.221538e+003, 4.376889e+001
1.222020e+003, 4.288688e+001
1.222502e+003, 4.170759e+001
1.222984e+003, 4.067680e+001
1.223466e+003, 3.983448e+001
1.223948e+003, 3.907537e+001
1.224431e+003, 3.835365e+001
1.224913e+003, 3.771076e+001
1.225395e+003, 3.735183e+001
1.225877e+003, 3.704055e+001
1.226359e+003, 3.638718e+001
1.226841e+003, 3.521044e+001
1.227323e+003, 3.436223e+001
1.227805e+003, 3.394534e+001
1.228287e+003, 3.345419e+001
1.228770e+003, 3.264379e+001
1.229252e+003, 3.171583e+001
1.229734e+003, 3.087774e+001
1.230216e+003, 3.014046e+001
1.230698e+003, 2.953885e+001
1.231180e+003, 2.910013e+001
1.231662e+003, 2.867950e+001
1.232144e+003, 2.827265e+001
1.232627e+003, 2.789933e+001
1.233109e+003, 2.757489e+001
1.233591e+003, 2.727737e+001
1.234073e+003, 2.698751e+001
1.234555e+003, 2.670036e+001
1.235037e+003, 2.640703e+001
1.235519e+003, 2.610945e+001
1.236001e+003, 2.579779e+001
1.236484e+003, 2.547974e+001
1.236966e+003, 2.509267e+001
1.237448e+003, 2.452430e+001
1.237930e+003, 2.400569e+001
1.238412e+003, 2.384273e+001
1.238894e+003, 2.383090e+001
1.239376e+003, 2.369310e+001
1.239858e+003, 2.340178e+001
1.240340e+003, 2.309549e+001
1.240823e+003, 2.277841e+001
1.241305e+003, 2.244322e+001
1.241787e+003, 2.204730e+001
1.242269e+003, 2.169309e+001
1.242751e+003, 2.149601e+001
1.243233e+003, 2.138147e+001
1.243715e+003, 2.125490e+001
1.244197e+003, 2.110804e+001
1.244679e+003, 2.101948e+001
1.245162e+003, 2.098658e+001
1.245644e+003, 2.091084e+001
1.246126e+003, 2.072237e+001
1.246608e+003, 2.049547e+001
1.247090e+003, 2.023010e+001
1.247572e+003, 1.998652e+001
1.248054e+003, 1.984498e+001
1.248536e+003, 1.981021e+001
1.249019e+003, 1.971972e+001
1.249501e+003, 1.957169e+001
1.249983e+003, 1.933050e+001
1.250465e+003, 1.880330e+001
1.250947e+003, 1.839845e+001
1.251429e+003, 1.845016e+001
1.251911e+003, 1.863099e+001
1.252393e+003, 1.865037e+001
1.252875e+003, 1.851482e+001
1.253358e+003, 1.829065e+001
1.253840e+003, 1.800622e+001
1.254322e+003, 1.784501e+001
1.254804e+003, 1.804853e+001
1.255286e+003, 1.820222e+001
1.255768e+003, 1.815854e+001
1.256250e+003, 1.801331e+001
1.256732e+003, 1.781002e+001
1.257214e+003, 1.756578e+001
1.257697e+003, 1.738329e+001
1.258179e+003, 1.725692e+001
1.258661e+003, 1.716112e+001
1.259143e+003, 1.709957e+001
1.259625e+003, 1.704564e+001
1.260107e+003, 1.699318e+001
1.260589e+003, 1.694746e+001
1.261071e+003, 1.689337e+001
1.261554e+003, 1.685373e+001
1.262036e+003, 1.696605e+001
1.262518e+003, 1.716309e+001
1.263000e+003, 1.721999e+001
1.263482e+003, 1.692875e+001
1.263964e+003, 1.667313e+001
1.264446e+003, 1.648509e+001
1.264928e+003, 1.634064e+001
1.265411e+003, 1.618026e+001
1.265893e+003, 1.607243e+001
1.266375e+003, 1.625068e+001
1.266857e+003, 1.658696e+001
1.267339e+003, 1.673091e+001
1.267821e+003, 1.643789e+001
1.268303e+003, 1.621776e+001
1.268785e+003, 1.607915e+001
1.269267e+003, 1.602211e+001
1.269750e+003, 1.617565e+001
1.270232e+003, 1.631287e+001
1.270714e+003, 1.598877e+001
1.271196e+003, 1.544213e+001
1.271678e+003, 1.527782e+001
1.272160e+003, 1.574524e+001
1.272642e+003, 1.588586e+001
1.273124e+003, 1.563996e+001
1.273606e+003, 1.538266e+001
1.274089e+003, 1.543094e+001
1.274571e+003, 1.554335e+001
1.275053e+003, 1.546478e+001
1.275535e+003, 1.531692e+001
1.276017e+003, 1.533795e+001
1.276499e+003, 1.558012e+001
1.276981e+003, 1.564608e+001
1.277463e+003, 1.553032e+001
1.277946e+003, 1.538330e+001
1.278428e+003, 1.525025e+001
1.278910e+003, 1.517717e+001
1.279392e+003, 1.528830e+001
1.279874e+003, 1.541228e+001
1.280356e+003, 1.531259e+001
1.280838e+003, 1.499922e+001
1.281320e+003, 1.486573e+001
1.281802e+003, 1.490264e+001
1.282285e+003, 1.496722e+001
1.282767e+003, 1.501896e+001
1.283249e+003, 1.503617e+001
1.283731e+003, 1.500965e+001
1.284213e+003, 1.494694e+001
1.284695e+003, 1.482874e+001
1.285177e+003, 1.467688e+001
1.285659e+003, 1.459532e+001
1.286141e+003, 1.457706e+001
1.286624e+003, 1.459262e+001
1.287106e+003, 1.468689e+001
1.287588e+003, 1.472226e+001
1.288070e+003, 1.466356e+001
1.288552e+003, 1.458644e+001
1.289034e+003, 1.453671e+001
1.289516e+003, 1.452174e+001
1.289998e+003, 1.460505e+001
1.290481e+003, 1.473314e+001
1.290963e+003, 1.476682e+001
1.291445e+003, 1.449045e+001
1.291927e+003, 1.446890e+001
1.292409e+003, 1.476860e+001
1.292891e+003, 1.506946e+001
1.293373e+003, 1.517431e+001
1.293855e+003, 1.512364e+001
1.294338e+003, 1.487134e+001
1.294820e+003, 1.453025e+001
1.295302e+003, 1.432479e+001
1.295784e+003, 1.428940e+001
1.296266e+003, 1.429049e+001
1.296748e+003, 1.433008e+001
1.297230e+003, 1.437058e+001
1.297712e+003, 1.442172e+001
1.298194e+003, 1.442623e+001
1.298677e+003, 1.428859e+001
1.299159e+003, 1.410925e+001
1.299641e+003, 1.400976e+001
1.300123e+003, 1.399093e+001
1.300605e+003, 1.401615e+001
1.301087e+003, 1.407520e+001
1.301569e+003, 1.406964e+001
1.302051e+003, 1.382944e+001
1.302533e+003, 1.370234e+001
1.303016e+003, 1.381093e+001
##END=



