##NAMES=Coquimbite
##RRUFFID=R110210
##IDEAL CHEMISTRY=AlFe^3+^_3_(S^6+^O_4_)_6_(H_2_O)_12_&#183;6H_2_O
##LOCALITY=Mina Alcaparrosa, Cerritos Bayos, Calama, Atacama, II Region, Chile
##OWNER=RRUFF
##SOURCE=Gunnar Farber
##DESCRIPTION=Purple hexagonal prisms with incomplete pyramidal terminations, associated with pertlikite R110209 and krausite R110211
##STATUS=The identification of this mineral has been confirmed by single-crystal X-ray diffraction.
##URL=rruff.info/R110210
9.112140e+001, 0.000000e+000
9.160352e+001, 2.841603e+002
9.208563e+001, 2.799336e+002
9.256775e+001, 2.793661e+002
9.304987e+001, 2.841250e+002
9.353198e+001, 2.905027e+002
9.401410e+001, 2.936980e+002
9.449622e+001, 2.941151e+002
9.497833e+001, 2.934994e+002
9.546045e+001, 2.931390e+002
9.594257e+001, 2.929321e+002
9.642468e+001, 2.937090e+002
9.690680e+001, 2.952483e+002
9.738892e+001, 2.980215e+002
9.787103e+001, 3.027646e+002
9.835315e+001, 3.087054e+002
9.883527e+001, 3.145237e+002
9.931738e+001, 3.198618e+002
9.979950e+001, 3.250226e+002
1.002816e+002, 3.289453e+002
1.007637e+002, 3.315750e+002
1.012458e+002, 3.330940e+002
1.017280e+002, 3.333629e+002
1.022101e+002, 3.322700e+002
1.026922e+002, 3.306431e+002
1.031743e+002, 3.294688e+002
1.036564e+002, 3.284422e+002
1.041385e+002, 3.286007e+002
1.046207e+002, 3.305241e+002
1.051028e+002, 3.339295e+002
1.055849e+002, 3.382888e+002
1.060670e+002, 3.450824e+002
1.065491e+002, 3.508794e+002
1.070313e+002, 3.525769e+002
1.075134e+002, 3.499128e+002
1.079955e+002, 3.440014e+002
1.084776e+002, 3.352865e+002
1.089597e+002, 3.231274e+002
1.094418e+002, 3.108812e+002
1.099240e+002, 2.995666e+002
1.104061e+002, 2.885027e+002
1.108882e+002, 2.772082e+002
1.113703e+002, 2.654637e+002
1.118524e+002, 2.535390e+002
1.123345e+002, 2.421103e+002
1.128167e+002, 2.307818e+002
1.132988e+002, 2.206557e+002
1.137809e+002, 2.120091e+002
1.142630e+002, 2.045381e+002
1.147451e+002, 1.977625e+002
1.152272e+002, 1.914250e+002
1.157094e+002, 1.855034e+002
1.161915e+002, 1.807300e+002
1.166736e+002, 1.778952e+002
1.171557e+002, 1.751862e+002
1.176378e+002, 1.719057e+002
1.181199e+002, 1.681668e+002
1.186021e+002, 1.645085e+002
1.190842e+002, 1.613283e+002
1.195663e+002, 1.587119e+002
1.200484e+002, 1.566875e+002
1.205305e+002, 1.553288e+002
1.210126e+002, 1.544782e+002
1.214948e+002, 1.542033e+002
1.219769e+002, 1.545769e+002
1.224590e+002, 1.549521e+002
1.229411e+002, 1.542110e+002
1.234232e+002, 1.527418e+002
1.239053e+002, 1.520889e+002
1.243875e+002, 1.535525e+002
1.248696e+002, 1.562812e+002
1.253517e+002, 1.578377e+002
1.258338e+002, 1.574467e+002
1.263159e+002, 1.564531e+002
1.267980e+002, 1.556152e+002
1.272802e+002, 1.549957e+002
1.277623e+002, 1.548513e+002
1.282444e+002, 1.553441e+002
1.287265e+002, 1.564678e+002
1.292086e+002, 1.582745e+002
1.296907e+002, 1.615901e+002
1.301729e+002, 1.650325e+002
1.306550e+002, 1.680044e+002
1.311371e+002, 1.704207e+002
1.316192e+002, 1.725426e+002
1.321013e+002, 1.747029e+002
1.325834e+002, 1.769300e+002
1.330656e+002, 1.791908e+002
1.335477e+002, 1.818626e+002
1.340298e+002, 1.843539e+002
1.345119e+002, 1.860526e+002
1.349940e+002, 1.867900e+002
1.354761e+002, 1.870547e+002
1.359583e+002, 1.879452e+002
1.364404e+002, 1.895375e+002
1.369225e+002, 1.917272e+002
1.374046e+002, 1.945611e+002
1.378867e+002, 1.979933e+002
1.383688e+002, 2.019491e+002
1.388510e+002, 2.064328e+002
1.393331e+002, 2.114018e+002
1.398152e+002, 2.166774e+002
1.402973e+002, 2.221767e+002
1.407794e+002, 2.280051e+002
1.412615e+002, 2.342773e+002
1.417437e+002, 2.409276e+002
1.422258e+002, 2.477868e+002
1.427079e+002, 2.546821e+002
1.431900e+002, 2.617726e+002
1.436721e+002, 2.692849e+002
1.441542e+002, 2.772206e+002
1.446364e+002, 2.856135e+002
1.451185e+002, 2.943820e+002
1.456006e+002, 3.034438e+002
1.460827e+002, 3.133711e+002
1.465648e+002, 3.242997e+002
1.470469e+002, 3.363651e+002
1.475291e+002, 3.500676e+002
1.480112e+002, 3.658531e+002
1.484933e+002, 3.830957e+002
1.489754e+002, 4.011870e+002
1.494575e+002, 4.236871e+002
1.499396e+002, 4.403939e+002
1.504218e+002, 4.508080e+002
1.509039e+002, 4.542524e+002
1.513860e+002, 4.493808e+002
1.518681e+002, 4.348391e+002
1.523502e+002, 4.113236e+002
1.528323e+002, 3.859208e+002
1.533145e+002, 3.544781e+002
1.537966e+002, 3.251025e+002
1.542787e+002, 2.985471e+002
1.547608e+002, 2.752063e+002
1.552429e+002, 2.553103e+002
1.557250e+002, 2.390976e+002
1.562072e+002, 2.267813e+002
1.566893e+002, 2.159050e+002
1.571714e+002, 2.056828e+002
1.576535e+002, 1.971931e+002
1.581356e+002, 1.911857e+002
1.586177e+002, 1.874670e+002
1.590999e+002, 1.851153e+002
1.595820e+002, 1.833948e+002
1.600641e+002, 1.824099e+002
1.605462e+002, 1.816517e+002
1.610283e+002, 1.808536e+002
1.615104e+002, 1.804399e+002
1.619926e+002, 1.809239e+002
1.624747e+002, 1.823562e+002
1.629568e+002, 1.840234e+002
1.634389e+002, 1.851776e+002
1.639210e+002, 1.858471e+002
1.644031e+002, 1.864710e+002
1.648853e+002, 1.866780e+002
1.653674e+002, 1.870102e+002
1.658495e+002, 1.882460e+002
1.663316e+002, 1.905382e+002
1.668137e+002, 1.936837e+002
1.672958e+002, 1.979484e+002
1.677780e+002, 2.030334e+002
1.682601e+002, 2.077497e+002
1.687422e+002, 2.111007e+002
1.692243e+002, 2.135136e+002
1.697064e+002, 2.168476e+002
1.701885e+002, 2.224918e+002
1.706707e+002, 2.274712e+002
1.711528e+002, 2.300816e+002
1.716349e+002, 2.305113e+002
1.721170e+002, 2.297176e+002
1.725991e+002, 2.281936e+002
1.730812e+002, 2.259116e+002
1.735634e+002, 2.234981e+002
1.740455e+002, 2.209256e+002
1.745276e+002, 2.182321e+002
1.750097e+002, 2.153452e+002
1.754918e+002, 2.123128e+002
1.759739e+002, 2.093183e+002
1.764561e+002, 2.065213e+002
1.769382e+002, 2.038083e+002
1.774203e+002, 2.016518e+002
1.779024e+002, 1.994125e+002
1.783845e+002, 1.981264e+002
1.788666e+002, 1.986572e+002
1.793488e+002, 2.009515e+002
1.798309e+002, 2.041724e+002
1.803130e+002, 2.072052e+002
1.807951e+002, 2.100009e+002
1.812772e+002, 2.126704e+002
1.817593e+002, 2.146607e+002
1.822415e+002, 2.168768e+002
1.827236e+002, 2.202816e+002
1.832057e+002, 2.250028e+002
1.836878e+002, 2.300487e+002
1.841699e+002, 2.339492e+002
1.846520e+002, 2.363764e+002
1.851342e+002, 2.380105e+002
1.856163e+002, 2.384615e+002
1.860984e+002, 2.382834e+002
1.865805e+002, 2.381548e+002
1.870626e+002, 2.383013e+002
1.875447e+002, 2.382375e+002
1.880269e+002, 2.368975e+002
1.885090e+002, 2.339118e+002
1.889911e+002, 2.313907e+002
1.894732e+002, 2.300394e+002
1.899553e+002, 2.294182e+002
1.904374e+002, 2.287278e+002
1.909196e+002, 2.276314e+002
1.914017e+002, 2.266333e+002
1.918838e+002, 2.264107e+002
1.923659e+002, 2.269090e+002
1.928480e+002, 2.279256e+002
1.933301e+002, 2.293919e+002
1.938123e+002, 2.313074e+002
1.942944e+002, 2.336441e+002
1.947765e+002, 2.362545e+002
1.952586e+002, 2.395473e+002
1.957407e+002, 2.437405e+002
1.962228e+002, 2.488271e+002
1.967050e+002, 2.545857e+002
1.971871e+002, 2.610543e+002
1.976692e+002, 2.682038e+002
1.981513e+002, 2.753993e+002
1.986334e+002, 2.827008e+002
1.991155e+002, 2.898445e+002
1.995977e+002, 2.971220e+002
2.000798e+002, 3.044436e+002
2.005619e+002, 3.105909e+002
2.010440e+002, 3.143503e+002
2.015261e+002, 3.155649e+002
2.020082e+002, 3.155274e+002
2.024904e+002, 3.132939e+002
2.029725e+002, 3.105774e+002
2.034546e+002, 3.077940e+002
2.039367e+002, 3.051687e+002
2.044188e+002, 3.031977e+002
2.049009e+002, 3.023208e+002
2.053831e+002, 3.022409e+002
2.058652e+002, 3.043432e+002
2.063473e+002, 3.098174e+002
2.068294e+002, 3.163706e+002
2.073115e+002, 3.229947e+002
2.077936e+002, 3.293772e+002
2.082758e+002, 3.355807e+002
2.087579e+002, 3.418575e+002
2.092400e+002, 3.493373e+002
2.097221e+002, 3.541005e+002
2.102042e+002, 3.570506e+002
2.106863e+002, 3.572551e+002
2.111685e+002, 3.538132e+002
2.116506e+002, 3.466757e+002
2.121327e+002, 3.367661e+002
2.126148e+002, 3.252098e+002
2.130969e+002, 3.113846e+002
2.135790e+002, 2.971371e+002
2.140612e+002, 2.816183e+002
2.145433e+002, 2.662696e+002
2.150254e+002, 2.519559e+002
2.155075e+002, 2.390132e+002
2.159896e+002, 2.271349e+002
2.164717e+002, 2.160015e+002
2.169539e+002, 2.054946e+002
2.174360e+002, 1.962538e+002
2.179181e+002, 1.883126e+002
2.184002e+002, 1.816072e+002
2.188823e+002, 1.762863e+002
2.193644e+002, 1.724135e+002
2.198466e+002, 1.692239e+002
2.203287e+002, 1.656196e+002
2.208108e+002, 1.613524e+002
2.212929e+002, 1.579995e+002
2.217750e+002, 1.564131e+002
2.222571e+002, 1.556106e+002
2.227393e+002, 1.541626e+002
2.232214e+002, 1.516419e+002
2.237035e+002, 1.492754e+002
2.241856e+002, 1.490874e+002
2.246677e+002, 1.508923e+002
2.251498e+002, 1.521228e+002
2.256320e+002, 1.513617e+002
2.261141e+002, 1.498074e+002
2.265962e+002, 1.496204e+002
2.270783e+002, 1.514849e+002
2.275604e+002, 1.537313e+002
2.280425e+002, 1.545326e+002
2.285247e+002, 1.542207e+002
2.290068e+002, 1.540909e+002
2.294889e+002, 1.546719e+002
2.299710e+002, 1.557745e+002
2.304531e+002, 1.570158e+002
2.309352e+002, 1.583960e+002
2.314174e+002, 1.598338e+002
2.318995e+002, 1.612901e+002
2.323816e+002, 1.627507e+002
2.328637e+002, 1.641714e+002
2.333458e+002, 1.654993e+002
2.338279e+002, 1.667678e+002
2.343101e+002, 1.680488e+002
2.347922e+002, 1.691248e+002
2.352743e+002, 1.706100e+002
2.357564e+002, 1.731627e+002
2.362385e+002, 1.763141e+002
2.367206e+002, 1.791068e+002
2.372028e+002, 1.806799e+002
2.376849e+002, 1.814281e+002
2.381670e+002, 1.831626e+002
2.386491e+002, 1.865985e+002
2.391312e+002, 1.899924e+002
2.396133e+002, 1.926091e+002
2.400955e+002, 1.947140e+002
2.405776e+002, 1.967751e+002
2.410597e+002, 1.989988e+002
2.415418e+002, 2.014068e+002
2.420239e+002, 2.040824e+002
2.425060e+002, 2.073059e+002
2.429882e+002, 2.104337e+002
2.434703e+002, 2.133033e+002
2.439524e+002, 2.159710e+002
2.444345e+002, 2.185000e+002
2.449166e+002, 2.208852e+002
2.453987e+002, 2.232052e+002
2.458809e+002, 2.258392e+002
2.463630e+002, 2.296153e+002
2.468451e+002, 2.325732e+002
2.473272e+002, 2.339137e+002
2.478093e+002, 2.343731e+002
2.482914e+002, 2.347754e+002
2.487736e+002, 2.355319e+002
2.492557e+002, 2.366991e+002
2.497378e+002, 2.385311e+002
2.502199e+002, 2.421252e+002
2.507020e+002, 2.450275e+002
2.511841e+002, 2.465382e+002
2.516663e+002, 2.473199e+002
2.521484e+002, 2.480389e+002
2.526305e+002, 2.490143e+002
2.531126e+002, 2.502952e+002
2.535947e+002, 2.520752e+002
2.540768e+002, 2.545820e+002
2.545590e+002, 2.573755e+002
2.550411e+002, 2.605235e+002
2.555232e+002, 2.639033e+002
2.560053e+002, 2.675635e+002
2.564874e+002, 2.715058e+002
2.569695e+002, 2.754179e+002
2.574517e+002, 2.785390e+002
2.579338e+002, 2.801842e+002
2.584159e+002, 2.817812e+002
2.588980e+002, 2.836015e+002
2.593801e+002, 2.852689e+002
2.598622e+002, 2.863715e+002
2.603444e+002, 2.867695e+002
2.608265e+002, 2.866772e+002
2.613086e+002, 2.864981e+002
2.617907e+002, 2.863816e+002
2.622728e+002, 2.858804e+002
2.627549e+002, 2.844028e+002
2.632371e+002, 2.828181e+002
2.637192e+002, 2.818703e+002
2.642013e+002, 2.817717e+002
2.646834e+002, 2.825048e+002
2.651655e+002, 2.840952e+002
2.656476e+002, 2.868300e+002
2.661298e+002, 2.898933e+002
2.666119e+002, 2.934497e+002
2.670940e+002, 2.972452e+002
2.675761e+002, 3.009239e+002
2.680582e+002, 3.044522e+002
2.685403e+002, 3.082227e+002
2.690225e+002, 3.127258e+002
2.695046e+002, 3.181329e+002
2.699867e+002, 3.237107e+002
2.704688e+002, 3.288056e+002
2.709509e+002, 3.344499e+002
2.714330e+002, 3.416348e+002
2.719152e+002, 3.504311e+002
2.723973e+002, 3.601584e+002
2.728794e+002, 3.703024e+002
2.733615e+002, 3.809300e+002
2.738436e+002, 3.913271e+002
2.743257e+002, 4.003759e+002
2.748079e+002, 4.100285e+002
2.752900e+002, 4.219503e+002
2.757721e+002, 4.361834e+002
2.762542e+002, 4.512051e+002
2.767363e+002, 4.661621e+002
2.772184e+002, 4.809525e+002
2.777006e+002, 4.957502e+002
2.781827e+002, 5.104164e+002
2.786648e+002, 5.250893e+002
2.791469e+002, 5.402700e+002
2.796290e+002, 5.557385e+002
2.801111e+002, 5.701257e+002
2.805933e+002, 5.827689e+002
2.810754e+002, 5.934348e+002
2.815575e+002, 6.025626e+002
2.820396e+002, 6.109916e+002
2.825217e+002, 6.169301e+002
2.830038e+002, 6.193516e+002
2.834860e+002, 6.183510e+002
2.839681e+002, 6.143453e+002
2.844502e+002, 6.070704e+002
2.849323e+002, 5.970170e+002
2.854144e+002, 5.857362e+002
2.858965e+002, 5.731617e+002
2.863787e+002, 5.596737e+002
2.868608e+002, 5.451804e+002
2.873429e+002, 5.299053e+002
2.878250e+002, 5.144332e+002
2.883071e+002, 4.989867e+002
2.887892e+002, 4.833723e+002
2.892714e+002, 4.671274e+002
2.897535e+002, 4.501778e+002
2.902356e+002, 4.335839e+002
2.907177e+002, 4.174927e+002
2.911998e+002, 4.021058e+002
2.916819e+002, 3.877542e+002
2.921641e+002, 3.744903e+002
2.926462e+002, 3.623534e+002
2.931283e+002, 3.515749e+002
2.936104e+002, 3.420194e+002
2.940925e+002, 3.327270e+002
2.945746e+002, 3.232914e+002
2.950568e+002, 3.139042e+002
2.955389e+002, 3.048965e+002
2.960210e+002, 2.962582e+002
2.965031e+002, 2.881709e+002
2.969852e+002, 2.808206e+002
2.974673e+002, 2.741023e+002
2.979495e+002, 2.678690e+002
2.984316e+002, 2.622788e+002
2.989137e+002, 2.570934e+002
2.993958e+002, 2.520001e+002
2.998779e+002, 2.469919e+002
3.003600e+002, 2.420639e+002
3.008422e+002, 2.371505e+002
3.013243e+002, 2.323365e+002
3.018064e+002, 2.278613e+002
3.022885e+002, 2.236719e+002
3.027706e+002, 2.198861e+002
3.032527e+002, 2.169316e+002
3.037349e+002, 2.148894e+002
3.042170e+002, 2.123023e+002
3.046991e+002, 2.078015e+002
3.051812e+002, 2.026847e+002
3.056633e+002, 1.988083e+002
3.061454e+002, 1.967535e+002
3.066276e+002, 1.950972e+002
3.071097e+002, 1.926948e+002
3.075918e+002, 1.895781e+002
3.080739e+002, 1.861430e+002
3.085560e+002, 1.823277e+002
3.090381e+002, 1.784411e+002
3.095203e+002, 1.748725e+002
3.100024e+002, 1.716431e+002
3.104845e+002, 1.684447e+002
3.109666e+002, 1.649306e+002
3.114487e+002, 1.612209e+002
3.119308e+002, 1.579581e+002
3.124130e+002, 1.553753e+002
3.128951e+002, 1.531657e+002
3.133772e+002, 1.512150e+002
3.138593e+002, 1.494535e+002
3.143414e+002, 1.474434e+002
3.148235e+002, 1.446372e+002
3.153057e+002, 1.414304e+002
3.157878e+002, 1.388271e+002
3.162699e+002, 1.370150e+002
3.167520e+002, 1.355919e+002
3.172341e+002, 1.345366e+002
3.177162e+002, 1.336529e+002
3.181984e+002, 1.324763e+002
3.186805e+002, 1.309179e+002
3.191626e+002, 1.289418e+002
3.196447e+002, 1.262134e+002
3.201268e+002, 1.224896e+002
3.206089e+002, 1.192463e+002
3.210911e+002, 1.177600e+002
3.215732e+002, 1.171575e+002
3.220553e+002, 1.162803e+002
3.225374e+002, 1.147991e+002
3.230195e+002, 1.131354e+002
3.235016e+002, 1.117573e+002
3.239838e+002, 1.106594e+002
3.244659e+002, 1.094766e+002
3.249480e+002, 1.079839e+002
3.254301e+002, 1.064009e+002
3.259122e+002, 1.050436e+002
3.263943e+002, 1.039634e+002
3.268765e+002, 1.028610e+002
3.273586e+002, 1.015633e+002
3.278407e+002, 1.000674e+002
3.283228e+002, 9.831416e+001
3.288049e+002, 9.603945e+001
3.292870e+002, 9.386640e+001
3.297692e+002, 9.238490e+001
3.302513e+002, 9.155549e+001
3.307334e+002, 9.109429e+001
3.312155e+002, 9.168941e+001
3.316976e+002, 9.248640e+001
3.321797e+002, 9.099939e+001
3.326619e+002, 8.612097e+001
3.331440e+002, 8.135267e+001
3.336261e+002, 8.016191e+001
3.341082e+002, 8.133206e+001
3.345903e+002, 8.215807e+001
3.350724e+002, 8.147798e+001
3.355546e+002, 8.020295e+001
3.360367e+002, 7.961446e+001
3.365188e+002, 7.980273e+001
3.370009e+002, 7.976542e+001
3.374830e+002, 7.858727e+001
3.379651e+002, 7.691093e+001
3.384473e+002, 7.598615e+001
3.389294e+002, 7.628548e+001
3.394115e+002, 7.682203e+001
3.398936e+002, 7.686684e+001
3.403757e+002, 7.646128e+001
3.408578e+002, 7.592834e+001
3.413400e+002, 7.544338e+001
3.418221e+002, 7.480289e+001
3.423042e+002, 7.356105e+001
3.427863e+002, 7.151826e+001
3.432684e+002, 6.994536e+001
3.437505e+002, 6.995292e+001
3.442327e+002, 7.087231e+001
3.447148e+002, 7.095492e+001
3.451969e+002, 6.959978e+001
3.456790e+002, 6.797404e+001
3.461611e+002, 6.754721e+001
3.466432e+002, 6.812164e+001
3.471254e+002, 6.863422e+001
3.476075e+002, 6.903577e+001
3.480896e+002, 6.911925e+001
3.485717e+002, 6.837312e+001
3.490538e+002, 6.671489e+001
3.495359e+002, 6.524822e+001
3.500181e+002, 6.491596e+001
3.505002e+002, 6.548908e+001
3.509823e+002, 6.577254e+001
3.514644e+002, 6.567240e+001
3.519465e+002, 6.529124e+001
3.524286e+002, 6.447894e+001
3.529108e+002, 6.336098e+001
3.533929e+002, 6.255392e+001
3.538750e+002, 6.244638e+001
3.543571e+002, 6.275327e+001
3.548392e+002, 6.273528e+001
3.553214e+002, 6.223004e+001
3.558035e+002, 6.181522e+001
3.562856e+002, 6.172692e+001
3.567677e+002, 6.186284e+001
3.572498e+002, 6.211988e+001
3.577319e+002, 6.250988e+001
3.582141e+002, 6.277938e+001
3.586962e+002, 6.242863e+001
3.591783e+002, 6.127103e+001
3.596604e+002, 6.068868e+001
3.601425e+002, 6.165884e+001
3.606246e+002, 6.276331e+001
3.611068e+002, 6.233895e+001
3.615889e+002, 6.035011e+001
3.620710e+002, 5.852172e+001
3.625531e+002, 5.841541e+001
3.630352e+002, 6.000794e+001
3.635173e+002, 6.079527e+001
3.639995e+002, 6.027003e+001
3.644816e+002, 5.953239e+001
3.649637e+002, 5.906439e+001
3.654458e+002, 5.879997e+001
3.659279e+002, 5.845210e+001
3.664100e+002, 5.782401e+001
3.668922e+002, 5.712314e+001
3.673743e+002, 5.706905e+001
3.678564e+002, 5.832049e+001
3.683385e+002, 5.923986e+001
3.688206e+002, 5.945190e+001
3.693027e+002, 5.929635e+001
3.697849e+002, 5.916659e+001
3.702670e+002, 5.917076e+001
3.707491e+002, 5.913409e+001
3.712312e+002, 5.878397e+001
3.717133e+002, 5.792641e+001
3.721954e+002, 5.736395e+001
3.726776e+002, 5.744067e+001
3.731597e+002, 5.750434e+001
3.736418e+002, 5.694658e+001
3.741239e+002, 5.592799e+001
3.746060e+002, 5.521003e+001
3.750881e+002, 5.545844e+001
3.755703e+002, 5.663252e+001
3.760524e+002, 5.730453e+001
3.765345e+002, 5.692056e+001
3.770166e+002, 5.668518e+001
3.774987e+002, 5.712758e+001
3.779808e+002, 5.781975e+001
3.784630e+002, 5.811383e+001
3.789451e+002, 5.771014e+001
3.794272e+002, 5.683794e+001
3.799093e+002, 5.601386e+001
3.803914e+002, 5.509206e+001
3.808735e+002, 5.448756e+001
3.813557e+002, 5.432206e+001
3.818378e+002, 5.436207e+001
3.823199e+002, 5.446041e+001
3.828020e+002, 5.458275e+001
3.832841e+002, 5.476398e+001
3.837662e+002, 5.510577e+001
3.842484e+002, 5.569146e+001
3.847305e+002, 5.585503e+001
3.852126e+002, 5.492740e+001
3.856947e+002, 5.421251e+001
3.861768e+002, 5.427262e+001
3.866589e+002, 5.485632e+001
3.871411e+002, 5.545453e+001
3.876232e+002, 5.580492e+001
3.881053e+002, 5.588279e+001
3.885874e+002, 5.553528e+001
3.890695e+002, 5.441542e+001
3.895516e+002, 5.352895e+001
3.900338e+002, 5.300498e+001
3.905159e+002, 5.282918e+001
3.909980e+002, 5.316829e+001
3.914801e+002, 5.405466e+001
3.919622e+002, 5.491906e+001
3.924443e+002, 5.491912e+001
3.929265e+002, 5.392970e+001
3.934086e+002, 5.329299e+001
3.938907e+002, 5.333545e+001
3.943728e+002, 5.364507e+001
3.948549e+002, 5.421130e+001
3.953370e+002, 5.489054e+001
3.958192e+002, 5.521535e+001
3.963013e+002, 5.456324e+001
3.967834e+002, 5.333513e+001
3.972655e+002, 5.299446e+001
3.977476e+002, 5.393669e+001
3.982297e+002, 5.473883e+001
3.987119e+002, 5.424598e+001
3.991940e+002, 5.328849e+001
3.996761e+002, 5.302234e+001
4.001582e+002, 5.399713e+001
4.006403e+002, 5.515257e+001
4.011224e+002, 5.525829e+001
4.016046e+002, 5.438844e+001
4.020867e+002, 5.383344e+001
4.025688e+002, 5.417531e+001
4.030509e+002, 5.477394e+001
4.035330e+002, 5.473999e+001
4.040151e+002, 5.405220e+001
4.044973e+002, 5.366066e+001
4.049794e+002, 5.422094e+001
4.054615e+002, 5.527902e+001
4.059436e+002, 5.601891e+001
4.064257e+002, 5.631050e+001
4.069078e+002, 5.655524e+001
4.073900e+002, 5.710108e+001
4.078721e+002, 5.788454e+001
4.083542e+002, 5.855855e+001
4.088363e+002, 5.918482e+001
4.093184e+002, 5.961755e+001
4.098005e+002, 5.953664e+001
4.102827e+002, 5.913059e+001
4.107648e+002, 5.911906e+001
4.112469e+002, 5.991675e+001
4.117290e+002, 6.109127e+001
4.122111e+002, 6.161720e+001
4.126932e+002, 6.125701e+001
4.131754e+002, 6.096043e+001
4.136575e+002, 6.089035e+001
4.141396e+002, 6.095979e+001
4.146217e+002, 6.114702e+001
4.151038e+002, 6.142413e+001
4.155859e+002, 6.162735e+001
4.160681e+002, 6.158935e+001
4.165502e+002, 6.128956e+001
4.170323e+002, 6.093311e+001
4.175144e+002, 6.039813e+001
4.179965e+002, 5.994144e+001
4.184786e+002, 5.981096e+001
4.189608e+002, 5.982006e+001
4.194429e+002, 5.948647e+001
4.199250e+002, 5.852947e+001
4.204071e+002, 5.736433e+001
4.208892e+002, 5.718335e+001
4.213713e+002, 5.901686e+001
4.218535e+002, 6.030107e+001
4.223356e+002, 6.091796e+001
4.228177e+002, 6.104005e+001
4.232998e+002, 6.047725e+001
4.237819e+002, 5.940059e+001
4.242640e+002, 5.858177e+001
4.247462e+002, 5.898465e+001
4.252283e+002, 6.075113e+001
4.257104e+002, 6.162729e+001
4.261925e+002, 6.036984e+001
4.266746e+002, 5.954749e+001
4.271567e+002, 6.031971e+001
4.276389e+002, 6.190564e+001
4.281210e+002, 6.304447e+001
4.286031e+002, 6.310372e+001
4.290852e+002, 6.254680e+001
4.295673e+002, 6.224680e+001
4.300494e+002, 6.220490e+001
4.305316e+002, 6.240901e+001
4.310137e+002, 6.298982e+001
4.314958e+002, 6.374003e+001
4.319779e+002, 6.460577e+001
4.324600e+002, 6.555867e+001
4.329421e+002, 6.645316e+001
4.334243e+002, 6.712872e+001
4.339064e+002, 6.764309e+001
4.343885e+002, 6.820634e+001
4.348706e+002, 6.873961e+001
4.353527e+002, 6.953794e+001
4.358348e+002, 7.103578e+001
4.363170e+002, 7.288802e+001
4.367991e+002, 7.452725e+001
4.372812e+002, 7.568554e+001
4.377633e+002, 7.676273e+001
4.382454e+002, 7.807719e+001
4.387275e+002, 7.962782e+001
4.392097e+002, 8.139795e+001
4.396918e+002, 8.343092e+001
4.401739e+002, 8.559647e+001
4.406560e+002, 8.776648e+001
4.411381e+002, 8.998595e+001
4.416202e+002, 9.193751e+001
4.421024e+002, 9.314861e+001
4.425845e+002, 9.425196e+001
4.430666e+002, 9.583647e+001
4.435487e+002, 9.798753e+001
4.440308e+002, 1.007903e+002
4.445129e+002, 1.043975e+002
4.449951e+002, 1.087363e+002
4.454772e+002, 1.131804e+002
4.459593e+002, 1.177430e+002
4.464414e+002, 1.223480e+002
4.469235e+002, 1.274071e+002
4.474056e+002, 1.323689e+002
4.478878e+002, 1.362601e+002
4.483699e+002, 1.387696e+002
4.488520e+002, 1.407027e+002
4.493341e+002, 1.433860e+002
4.498162e+002, 1.474826e+002
4.502983e+002, 1.503589e+002
4.507805e+002, 1.516719e+002
4.512626e+002, 1.522822e+002
4.517447e+002, 1.525764e+002
4.522268e+002, 1.525525e+002
4.527089e+002, 1.520054e+002
4.531910e+002, 1.507486e+002
4.536732e+002, 1.489695e+002
4.541553e+002, 1.474458e+002
4.546374e+002, 1.461576e+002
4.551195e+002, 1.451919e+002
4.556016e+002, 1.446172e+002
4.560837e+002, 1.442830e+002
4.565659e+002, 1.440159e+002
4.570480e+002, 1.438028e+002
4.575301e+002, 1.438611e+002
4.580122e+002, 1.445229e+002
4.584943e+002, 1.457770e+002
4.589764e+002, 1.469186e+002
4.594586e+002, 1.479527e+002
4.599407e+002, 1.488194e+002
4.604228e+002, 1.493512e+002
4.609049e+002, 1.497353e+002
4.613870e+002, 1.503675e+002
4.618691e+002, 1.515954e+002
4.623513e+002, 1.527779e+002
4.628334e+002, 1.530458e+002
4.633155e+002, 1.524291e+002
4.637976e+002, 1.517338e+002
4.642797e+002, 1.513004e+002
4.647618e+002, 1.507684e+002
4.652440e+002, 1.496311e+002
4.657261e+002, 1.478859e+002
4.662082e+002, 1.461223e+002
4.666903e+002, 1.443308e+002
4.671724e+002, 1.427304e+002
4.676545e+002, 1.417536e+002
4.681367e+002, 1.413899e+002
4.686188e+002, 1.409472e+002
4.691009e+002, 1.399870e+002
4.695830e+002, 1.385708e+002
4.700651e+002, 1.369869e+002
4.705472e+002, 1.348881e+002
4.710294e+002, 1.330928e+002
4.715115e+002, 1.319804e+002
4.719936e+002, 1.312153e+002
4.724757e+002, 1.302885e+002
4.729578e+002, 1.290987e+002
4.734399e+002, 1.280735e+002
4.739221e+002, 1.278014e+002
4.744042e+002, 1.285095e+002
4.748863e+002, 1.286418e+002
4.753684e+002, 1.275058e+002
4.758505e+002, 1.265970e+002
4.763326e+002, 1.265620e+002
4.768148e+002, 1.271153e+002
4.772969e+002, 1.277238e+002
4.777790e+002, 1.281241e+002
4.782611e+002, 1.284721e+002
4.787432e+002, 1.290755e+002
4.792253e+002, 1.299289e+002
4.797075e+002, 1.310545e+002
4.801896e+002, 1.326651e+002
4.806717e+002, 1.343725e+002
4.811538e+002, 1.359078e+002
4.816359e+002, 1.373249e+002
4.821180e+002, 1.389124e+002
4.826002e+002, 1.408150e+002
4.830823e+002, 1.430352e+002
4.835644e+002, 1.457243e+002
4.840465e+002, 1.490225e+002
4.845286e+002, 1.522185e+002
4.850107e+002, 1.546882e+002
4.854929e+002, 1.570507e+002
4.859750e+002, 1.600790e+002
4.864571e+002, 1.638974e+002
4.869392e+002, 1.680325e+002
4.874213e+002, 1.723713e+002
4.879034e+002, 1.768011e+002
4.883856e+002, 1.810629e+002
4.888677e+002, 1.851544e+002
4.893498e+002, 1.889892e+002
4.898319e+002, 1.922939e+002
4.903140e+002, 1.951785e+002
4.907961e+002, 1.987180e+002
4.912783e+002, 2.036143e+002
4.917604e+002, 2.084485e+002
4.922425e+002, 2.125507e+002
4.927246e+002, 2.161623e+002
4.932067e+002, 2.197465e+002
4.936888e+002, 2.234529e+002
4.941710e+002, 2.272198e+002
4.946531e+002, 2.309018e+002
4.951352e+002, 2.344982e+002
4.956173e+002, 2.379976e+002
4.960994e+002, 2.413522e+002
4.965815e+002, 2.446695e+002
4.970637e+002, 2.481569e+002
4.975458e+002, 2.516242e+002
4.980279e+002, 2.546237e+002
4.985100e+002, 2.568718e+002
4.989921e+002, 2.586777e+002
4.994742e+002, 2.607879e+002
4.999564e+002, 2.630433e+002
5.004385e+002, 2.660247e+002
5.009206e+002, 2.706987e+002
5.014027e+002, 2.754369e+002
5.018848e+002, 2.793702e+002
5.023669e+002, 2.824250e+002
5.028491e+002, 2.847560e+002
5.033312e+002, 2.863597e+002
5.038133e+002, 2.873493e+002
5.042954e+002, 2.881915e+002
5.047775e+002, 2.890854e+002
5.052596e+002, 2.888615e+002
5.057418e+002, 2.866500e+002
5.062239e+002, 2.831170e+002
5.067060e+002, 2.792238e+002
5.071881e+002, 2.750014e+002
5.076702e+002, 2.705161e+002
5.081523e+002, 2.661263e+002
5.086345e+002, 2.613911e+002
5.091166e+002, 2.554505e+002
5.095987e+002, 2.481507e+002
5.100808e+002, 2.402829e+002
5.105629e+002, 2.323982e+002
5.110450e+002, 2.245154e+002
5.115272e+002, 2.164959e+002
5.120093e+002, 2.078930e+002
5.124914e+002, 1.996526e+002
5.129735e+002, 1.922869e+002
5.134556e+002, 1.853186e+002
5.139377e+002, 1.779497e+002
5.144199e+002, 1.700559e+002
5.149020e+002, 1.621340e+002
5.153841e+002, 1.548161e+002
5.158662e+002, 1.480361e+002
5.163483e+002, 1.423881e+002
5.168304e+002, 1.388659e+002
5.173126e+002, 1.354753e+002
5.177947e+002, 1.317009e+002
5.182768e+002, 1.277191e+002
5.187589e+002, 1.237785e+002
5.192410e+002, 1.199660e+002
5.197231e+002, 1.164058e+002
5.202053e+002, 1.133435e+002
5.206874e+002, 1.108241e+002
5.211695e+002, 1.082152e+002
5.216516e+002, 1.052899e+002
5.221337e+002, 1.024524e+002
5.226158e+002, 9.985425e+001
5.230980e+002, 9.753421e+001
5.235801e+002, 9.562476e+001
5.240622e+002, 9.440972e+001
5.245443e+002, 9.340089e+001
5.250264e+002, 9.209576e+001
5.255085e+002, 9.053296e+001
5.259907e+002, 8.896674e+001
5.264728e+002, 8.742088e+001
5.269549e+002, 8.604189e+001
5.274370e+002, 8.527073e+001
5.279191e+002, 8.535751e+001
5.284012e+002, 8.439445e+001
5.288834e+002, 8.093137e+001
5.293655e+002, 7.744102e+001
5.298476e+002, 7.598768e+001
5.303297e+002, 7.600682e+001
5.308118e+002, 7.551579e+001
5.312939e+002, 7.339490e+001
5.317761e+002, 7.045393e+001
5.322582e+002, 6.882503e+001
5.327403e+002, 6.965559e+001
5.332224e+002, 6.969626e+001
5.337045e+002, 6.820124e+001
5.341866e+002, 6.661356e+001
5.346688e+002, 6.589938e+001
5.351509e+002, 6.587608e+001
5.356330e+002, 6.574223e+001
5.361151e+002, 6.495100e+001
5.365972e+002, 6.372747e+001
5.370793e+002, 6.263380e+001
5.375615e+002, 6.167699e+001
5.380436e+002, 6.084733e+001
5.385257e+002, 6.022126e+001
5.390078e+002, 5.967623e+001
5.394899e+002, 5.900688e+001
5.399720e+002, 5.823338e+001
5.404542e+002, 5.778889e+001
5.409363e+002, 5.843753e+001
5.414184e+002, 5.926715e+001
5.419005e+002, 5.851598e+001
5.423826e+002, 5.625330e+001
5.428647e+002, 5.492955e+001
5.433469e+002, 5.621059e+001
5.438290e+002, 5.884316e+001
5.443111e+002, 5.944720e+001
5.447932e+002, 5.704788e+001
5.452753e+002, 5.524287e+001
5.457574e+002, 5.517577e+001
5.462396e+002, 5.543435e+001
5.467217e+002, 5.448664e+001
5.472038e+002, 5.256297e+001
5.476859e+002, 5.128831e+001
5.481680e+002, 5.191802e+001
5.486501e+002, 5.387398e+001
5.491323e+002, 5.450238e+001
5.496144e+002, 5.258396e+001
5.500965e+002, 5.144590e+001
5.505786e+002, 5.185080e+001
5.510607e+002, 5.274696e+001
5.515428e+002, 5.361006e+001
5.520250e+002, 5.427037e+001
5.525071e+002, 5.451259e+001
5.529892e+002, 5.406528e+001
5.534713e+002, 5.312375e+001
5.539534e+002, 5.212775e+001
5.544355e+002, 5.097995e+001
5.549177e+002, 5.033958e+001
5.553998e+002, 5.103752e+001
5.558819e+002, 5.195612e+001
5.563640e+002, 5.129546e+001
5.568461e+002, 4.873808e+001
5.573282e+002, 4.704793e+001
5.578104e+002, 4.796153e+001
5.582925e+002, 4.991213e+001
5.587746e+002, 5.116470e+001
5.592567e+002, 5.162502e+001
5.597388e+002, 5.176532e+001
5.602209e+002, 5.186530e+001
5.607031e+002, 5.186037e+001
5.611852e+002, 5.154095e+001
5.616673e+002, 5.020028e+001
5.621494e+002, 4.955644e+001
5.626315e+002, 5.044859e+001
5.631136e+002, 5.140559e+001
5.635958e+002, 5.112894e+001
5.640779e+002, 4.984349e+001
5.645600e+002, 4.874495e+001
5.650421e+002, 4.869420e+001
5.655242e+002, 4.941798e+001
5.660063e+002, 5.000171e+001
5.664885e+002, 5.034746e+001
5.669706e+002, 5.083186e+001
5.674527e+002, 5.192311e+001
5.679348e+002, 5.288790e+001
5.684169e+002, 5.305421e+001
5.688990e+002, 5.250975e+001
5.693812e+002, 5.208069e+001
5.698633e+002, 5.241081e+001
5.703454e+002, 5.299635e+001
5.708275e+002, 5.289113e+001
5.713096e+002, 5.217162e+001
5.717917e+002, 5.201910e+001
5.722739e+002, 5.300055e+001
5.727560e+002, 5.471119e+001
5.732381e+002, 5.661591e+001
5.737202e+002, 5.901955e+001
5.742023e+002, 6.046548e+001
5.746844e+002, 6.003968e+001
5.751666e+002, 5.929826e+001
5.756487e+002, 5.908366e+001
5.761308e+002, 5.945892e+001
5.766129e+002, 6.026657e+001
5.770950e+002, 6.142062e+001
5.775771e+002, 6.305775e+001
5.780593e+002, 6.580551e+001
5.785414e+002, 7.084518e+001
5.790235e+002, 7.375037e+001
5.795056e+002, 7.210973e+001
5.799877e+002, 7.031606e+001
5.804698e+002, 7.022314e+001
5.809520e+002, 7.153061e+001
5.814341e+002, 7.327817e+001
5.819162e+002, 7.512150e+001
5.823983e+002, 7.704618e+001
5.828804e+002, 7.908515e+001
5.833625e+002, 8.122274e+001
5.838447e+002, 8.318043e+001
5.843268e+002, 8.482725e+001
5.848089e+002, 8.641824e+001
5.852910e+002, 8.809103e+001
5.857731e+002, 8.987422e+001
5.862552e+002, 9.207999e+001
5.867374e+002, 9.501086e+001
5.872195e+002, 9.808320e+001
5.877016e+002, 1.010501e+002
5.881837e+002, 1.039281e+002
5.886658e+002, 1.066530e+002
5.891479e+002, 1.092324e+002
5.896301e+002, 1.120187e+002
5.901122e+002, 1.155567e+002
5.905943e+002, 1.199831e+002
5.910764e+002, 1.238319e+002
5.915585e+002, 1.267761e+002
5.920406e+002, 1.295023e+002
5.925228e+002, 1.318586e+002
5.930049e+002, 1.342354e+002
5.934870e+002, 1.373653e+002
5.939691e+002, 1.414011e+002
5.944512e+002, 1.449444e+002
5.949333e+002, 1.461786e+002
5.954155e+002, 1.457250e+002
5.958976e+002, 1.465330e+002
5.963797e+002, 1.491293e+002
5.968618e+002, 1.513413e+002
5.973439e+002, 1.518662e+002
5.978260e+002, 1.511061e+002
5.983082e+002, 1.502069e+002
5.987903e+002, 1.491791e+002
5.992724e+002, 1.479910e+002
5.997545e+002, 1.463991e+002
6.002366e+002, 1.447856e+002
6.007188e+002, 1.438015e+002
6.012009e+002, 1.433189e+002
6.016830e+002, 1.424230e+002
6.021651e+002, 1.404530e+002
6.026472e+002, 1.376907e+002
6.031293e+002, 1.352009e+002
6.036115e+002, 1.333551e+002
6.040936e+002, 1.310806e+002
6.045757e+002, 1.276521e+002
6.050578e+002, 1.243987e+002
6.055399e+002, 1.224615e+002
6.060220e+002, 1.214699e+002
6.065042e+002, 1.200538e+002
6.069863e+002, 1.173517e+002
6.074684e+002, 1.139924e+002
6.079505e+002, 1.109602e+002
6.084326e+002, 1.082398e+002
6.089147e+002, 1.053529e+002
6.093969e+002, 1.019534e+002
6.098790e+002, 9.875723e+001
6.103611e+002, 9.670642e+001
6.108432e+002, 9.569405e+001
6.113253e+002, 9.460637e+001
6.118074e+002, 9.343262e+001
6.122896e+002, 9.204741e+001
6.127717e+002, 9.020878e+001
6.132538e+002, 8.816333e+001
6.137359e+002, 8.638335e+001
6.142180e+002, 8.498519e+001
6.147001e+002, 8.359158e+001
6.151823e+002, 8.164207e+001
6.156644e+002, 7.906833e+001
6.161465e+002, 7.739199e+001
6.166286e+002, 7.742472e+001
6.171107e+002, 7.726218e+001
6.175928e+002, 7.607347e+001
6.180750e+002, 7.466380e+001
6.185571e+002, 7.396056e+001
6.190392e+002, 7.411582e+001
6.195213e+002, 7.433257e+001
6.200034e+002, 7.414465e+001
6.204855e+002, 7.355753e+001
6.209677e+002, 7.239648e+001
6.214498e+002, 7.063267e+001
6.219319e+002, 6.909511e+001
6.224140e+002, 6.818795e+001
6.228961e+002, 6.775739e+001
6.233782e+002, 6.745777e+001
6.238604e+002, 6.713332e+001
6.243425e+002, 6.739291e+001
6.248246e+002, 6.933250e+001
6.253067e+002, 7.096745e+001
6.257888e+002, 7.045976e+001
6.262709e+002, 6.856263e+001
6.267531e+002, 6.730419e+001
6.272352e+002, 6.769472e+001
6.277173e+002, 6.892071e+001
6.281994e+002, 6.951306e+001
6.286815e+002, 6.934882e+001
6.291636e+002, 6.924671e+001
6.296458e+002, 6.938607e+001
6.301279e+002, 6.940605e+001
6.306100e+002, 6.906501e+001
6.310921e+002, 6.851156e+001
6.315742e+002, 6.795408e+001
6.320563e+002, 6.734371e+001
6.325385e+002, 6.704298e+001
6.330206e+002, 6.756091e+001
6.335027e+002, 6.851020e+001
6.339848e+002, 6.920999e+001
6.344669e+002, 6.955048e+001
6.349490e+002, 6.941024e+001
6.354312e+002, 6.856438e+001
6.359133e+002, 6.725300e+001
6.363954e+002, 6.661079e+001
6.368775e+002, 6.771133e+001
6.373596e+002, 6.804084e+001
6.378417e+002, 6.673928e+001
6.383239e+002, 6.528115e+001
6.388060e+002, 6.472864e+001
6.392881e+002, 6.499227e+001
6.397702e+002, 6.545322e+001
6.402523e+002, 6.581116e+001
6.407344e+002, 6.597691e+001
6.412166e+002, 6.568552e+001
6.416987e+002, 6.491105e+001
6.421808e+002, 6.425717e+001
6.426629e+002, 6.389593e+001
6.431450e+002, 6.358870e+001
6.436271e+002, 6.300947e+001
6.441093e+002, 6.227784e+001
6.445914e+002, 6.188313e+001
6.450735e+002, 6.240668e+001
6.455556e+002, 6.269273e+001
6.460377e+002, 6.174435e+001
6.465198e+002, 6.041899e+001
6.470020e+002, 6.011110e+001
6.474841e+002, 6.098577e+001
6.479662e+002, 6.200874e+001
6.484483e+002, 6.225786e+001
6.489304e+002, 6.184175e+001
6.494125e+002, 6.153688e+001
6.498947e+002, 6.142639e+001
6.503768e+002, 6.127488e+001
6.508589e+002, 6.104731e+001
6.513410e+002, 6.076366e+001
6.518231e+002, 6.037939e+001
6.523052e+002, 5.993342e+001
6.527874e+002, 5.957457e+001
6.532695e+002, 5.920335e+001
6.537516e+002, 5.912145e+001
6.542337e+002, 6.021355e+001
6.547158e+002, 6.206907e+001
6.551979e+002, 6.261818e+001
6.556801e+002, 6.114108e+001
6.561622e+002, 5.895695e+001
6.566443e+002, 5.737855e+001
6.571264e+002, 5.641164e+001
6.576085e+002, 5.607337e+001
6.580906e+002, 5.701330e+001
6.585728e+002, 5.767803e+001
6.590549e+002, 5.738380e+001
6.595370e+002, 5.682714e+001
6.600191e+002, 5.684584e+001
6.605012e+002, 5.748169e+001
6.609833e+002, 5.803441e+001
6.614655e+002, 5.790897e+001
6.619476e+002, 5.727838e+001
6.624297e+002, 5.660969e+001
6.629118e+002, 5.587288e+001
6.633939e+002, 5.533675e+001
6.638760e+002, 5.507556e+001
6.643582e+002, 5.506445e+001
6.648403e+002, 5.536885e+001
6.653224e+002, 5.595910e+001
6.658045e+002, 5.646531e+001
6.662866e+002, 5.703000e+001
6.667687e+002, 5.728740e+001
6.672509e+002, 5.684233e+001
6.677330e+002, 5.601445e+001
6.682151e+002, 5.521035e+001
6.686972e+002, 5.458305e+001
6.691793e+002, 5.433208e+001
6.696614e+002, 5.479207e+001
6.701436e+002, 5.586878e+001
6.706257e+002, 5.614164e+001
6.711078e+002, 5.511521e+001
6.715899e+002, 5.431139e+001
6.720720e+002, 5.426473e+001
6.725541e+002, 5.452367e+001
6.730363e+002, 5.487646e+001
6.735184e+002, 5.526474e+001
6.740005e+002, 5.539986e+001
6.744826e+002, 5.497342e+001
6.749647e+002, 5.438721e+001
6.754468e+002, 5.395535e+001
6.759290e+002, 5.369470e+001
6.764111e+002, 5.376142e+001
6.768932e+002, 5.421486e+001
6.773753e+002, 5.453617e+001
6.778574e+002, 5.403871e+001
6.783395e+002, 5.267199e+001
6.788217e+002, 5.180300e+001
6.793038e+002, 5.189123e+001
6.797859e+002, 5.190642e+001
6.802680e+002, 5.179287e+001
6.807501e+002, 5.145887e+001
6.812322e+002, 5.067711e+001
6.817144e+002, 4.952575e+001
6.821965e+002, 4.851074e+001
6.826786e+002, 4.791851e+001
6.831607e+002, 4.770326e+001
6.836428e+002, 4.805672e+001
6.841249e+002, 4.886486e+001
6.846071e+002, 4.906684e+001
6.850892e+002, 4.825335e+001
6.855713e+002, 4.703917e+001
6.860534e+002, 4.599229e+001
6.865355e+002, 4.509557e+001
6.870176e+002, 4.488161e+001
6.874998e+002, 4.608453e+001
6.879819e+002, 4.698176e+001
6.884640e+002, 4.696866e+001
6.889461e+002, 4.655185e+001
6.894282e+002, 4.623699e+001
6.899103e+002, 4.609077e+001
6.903925e+002, 4.586168e+001
6.908746e+002, 4.523295e+001
6.913567e+002, 4.451434e+001
6.918388e+002, 4.453640e+001
6.923209e+002, 4.532743e+001
6.928030e+002, 4.619056e+001
6.932852e+002, 4.711252e+001
6.937673e+002, 4.772957e+001
6.942494e+002, 4.749274e+001
6.947315e+002, 4.646998e+001
6.952136e+002, 4.580885e+001
6.956957e+002, 4.599992e+001
6.961779e+002, 4.601147e+001
6.966600e+002, 4.526367e+001
6.971421e+002, 4.428591e+001
6.976242e+002, 4.344855e+001
6.981063e+002, 4.295330e+001
6.985884e+002, 4.323215e+001
6.990706e+002, 4.477885e+001
6.995527e+002, 4.704594e+001
7.000348e+002, 4.841627e+001
7.005169e+002, 4.874339e+001
7.009990e+002, 4.911924e+001
7.014811e+002, 4.989676e+001
7.019633e+002, 5.058126e+001
7.024454e+002, 5.075072e+001
7.029275e+002, 5.048591e+001
7.034096e+002, 4.998681e+001
7.038917e+002, 4.883399e+001
7.043738e+002, 4.806425e+001
7.048560e+002, 4.867448e+001
7.053381e+002, 4.957474e+001
7.058202e+002, 4.916431e+001
7.063023e+002, 4.754597e+001
7.067844e+002, 4.634858e+001
7.072665e+002, 4.678809e+001
7.077487e+002, 4.806168e+001
7.082308e+002, 4.777256e+001
7.087129e+002, 4.542014e+001
7.091950e+002, 4.382782e+001
7.096771e+002, 4.329388e+001
7.101592e+002, 4.364518e+001
7.106414e+002, 4.545553e+001
7.111235e+002, 4.792780e+001
7.116056e+002, 4.925897e+001
7.120877e+002, 4.866844e+001
7.125698e+002, 4.806607e+001
7.130519e+002, 4.855713e+001
7.135341e+002, 4.942719e+001
7.140162e+002, 4.979856e+001
7.144983e+002, 4.968678e+001
7.149804e+002, 4.959893e+001
7.154625e+002, 4.982261e+001
7.159446e+002, 5.025349e+001
7.164268e+002, 5.076278e+001
7.169089e+002, 5.149941e+001
7.173910e+002, 5.160889e+001
7.178731e+002, 5.051719e+001
7.183552e+002, 4.955196e+001
7.188373e+002, 4.955183e+001
7.193195e+002, 4.996258e+001
7.198016e+002, 5.009013e+001
7.202837e+002, 4.989303e+001
7.207658e+002, 4.906609e+001
7.212479e+002, 4.659881e+001
7.217300e+002, 4.404291e+001
7.222122e+002, 4.336380e+001
7.226943e+002, 4.416968e+001
7.231764e+002, 4.471395e+001
7.236585e+002, 4.423210e+001
7.241406e+002, 4.339506e+001
7.246227e+002, 4.323032e+001
7.251049e+002, 4.380372e+001
7.255870e+002, 4.447117e+001
7.260691e+002, 4.567376e+001
7.265512e+002, 4.623628e+001
7.270333e+002, 4.509782e+001
7.275154e+002, 4.355448e+001
7.279976e+002, 4.286576e+001
7.284797e+002, 4.314000e+001
7.289618e+002, 4.381029e+001
7.294439e+002, 4.514812e+001
7.299260e+002, 4.634385e+001
7.304081e+002, 4.639175e+001
7.308903e+002, 4.574215e+001
7.313724e+002, 4.563590e+001
7.318545e+002, 4.639155e+001
7.323366e+002, 4.704438e+001
7.328187e+002, 4.646977e+001
7.333008e+002, 4.481934e+001
7.337830e+002, 4.395544e+001
7.342651e+002, 4.424341e+001
7.347472e+002, 4.452821e+001
7.352293e+002, 4.440352e+001
7.357114e+002, 4.432317e+001
7.361935e+002, 4.476183e+001
7.366757e+002, 4.557058e+001
7.371578e+002, 4.604950e+001
7.376399e+002, 4.575518e+001
7.381220e+002, 4.537161e+001
7.386041e+002, 4.534226e+001
7.390862e+002, 4.552626e+001
7.395684e+002, 4.566851e+001
7.400505e+002, 4.575528e+001
7.405326e+002, 4.606532e+001
7.410147e+002, 4.687602e+001
7.414968e+002, 4.783794e+001
7.419789e+002, 4.773725e+001
7.424611e+002, 4.611188e+001
7.429432e+002, 4.516513e+001
7.434253e+002, 4.566304e+001
7.439074e+002, 4.616919e+001
7.443895e+002, 4.558788e+001
7.448716e+002, 4.452334e+001
7.453538e+002, 4.412762e+001
7.458359e+002, 4.472662e+001
7.463180e+002, 4.550839e+001
7.468001e+002, 4.621888e+001
7.472822e+002, 4.684986e+001
7.477643e+002, 4.751917e+001
7.482465e+002, 4.810666e+001
7.487286e+002, 4.818865e+001
7.492107e+002, 4.757037e+001
7.496928e+002, 4.672717e+001
7.501749e+002, 4.641930e+001
7.506570e+002, 4.668374e+001
7.511392e+002, 4.665807e+001
7.516213e+002, 4.616600e+001
7.521034e+002, 4.578994e+001
7.525855e+002, 4.581997e+001
7.530676e+002, 4.604459e+001
7.535497e+002, 4.623388e+001
7.540319e+002, 4.638502e+001
7.545140e+002, 4.646075e+001
7.549961e+002, 4.640985e+001
7.554782e+002, 4.632471e+001
7.559603e+002, 4.617950e+001
7.564424e+002, 4.606933e+001
7.569246e+002, 4.614956e+001
7.574067e+002, 4.644080e+001
7.578888e+002, 4.684259e+001
7.583709e+002, 4.732194e+001
7.588530e+002, 4.779071e+001
7.593351e+002, 4.788509e+001
7.598173e+002, 4.754529e+001
7.602994e+002, 4.732280e+001
7.607815e+002, 4.727411e+001
7.612636e+002, 4.748865e+001
7.617457e+002, 4.831441e+001
7.622278e+002, 4.951360e+001
7.627100e+002, 4.995443e+001
7.631921e+002, 4.911959e+001
7.636742e+002, 4.829171e+001
7.641563e+002, 4.755178e+001
7.646384e+002, 4.710791e+001
7.651205e+002, 4.728851e+001
7.656027e+002, 4.790601e+001
7.660848e+002, 4.848400e+001
7.665669e+002, 4.880709e+001
7.670490e+002, 4.895760e+001
7.675311e+002, 4.908094e+001
7.680132e+002, 4.913801e+001
7.684954e+002, 4.878535e+001
7.689775e+002, 4.792275e+001
7.694596e+002, 4.738175e+001
7.699417e+002, 4.768126e+001
7.704238e+002, 4.835110e+001
7.709059e+002, 4.856923e+001
7.713881e+002, 4.820448e+001
7.718702e+002, 4.788807e+001
7.723523e+002, 4.743530e+001
7.728344e+002, 4.724470e+001
7.733165e+002, 4.760693e+001
7.737986e+002, 4.821321e+001
7.742808e+002, 4.878080e+001
7.747629e+002, 4.923510e+001
7.752450e+002, 4.956460e+001
7.757271e+002, 4.981001e+001
7.762092e+002, 4.987526e+001
7.766913e+002, 4.938226e+001
7.771735e+002, 4.854229e+001
7.776556e+002, 4.837405e+001
7.781377e+002, 4.913639e+001
7.786198e+002, 4.988815e+001
7.791019e+002, 4.977565e+001
7.795840e+002, 4.901026e+001
7.800662e+002, 4.870869e+001
7.805483e+002, 4.938010e+001
7.810304e+002, 4.954340e+001
7.815125e+002, 4.860765e+001
7.819946e+002, 4.766259e+001
7.824767e+002, 4.699222e+001
7.829589e+002, 4.675150e+001
7.834410e+002, 4.737312e+001
7.839231e+002, 4.920433e+001
7.844052e+002, 5.065002e+001
7.848873e+002, 5.039177e+001
7.853694e+002, 4.946593e+001
7.858516e+002, 4.915072e+001
7.863337e+002, 4.933864e+001
7.868158e+002, 4.925579e+001
7.872979e+002, 4.859992e+001
7.877800e+002, 4.797688e+001
7.882621e+002, 4.824751e+001
7.887443e+002, 4.937669e+001
7.892264e+002, 5.031112e+001
7.897085e+002, 5.113437e+001
7.901906e+002, 5.149574e+001
7.906727e+002, 5.085745e+001
7.911548e+002, 5.013794e+001
7.916370e+002, 5.047029e+001
7.921191e+002, 5.165902e+001
7.926012e+002, 5.230077e+001
7.930833e+002, 5.182683e+001
7.935654e+002, 5.122963e+001
7.940475e+002, 5.055932e+001
7.945297e+002, 5.016998e+001
7.950118e+002, 5.080286e+001
7.954939e+002, 5.210982e+001
7.959760e+002, 5.272255e+001
7.964581e+002, 5.180251e+001
7.969402e+002, 5.040876e+001
7.974224e+002, 5.017614e+001
7.979045e+002, 5.093888e+001
7.983866e+002, 5.167913e+001
7.988687e+002, 5.234484e+001
7.993508e+002, 5.266790e+001
7.998329e+002, 5.244495e+001
8.003151e+002, 5.188905e+001
8.007972e+002, 5.130009e+001
8.012793e+002, 5.044035e+001
8.017614e+002, 5.050926e+001
8.022435e+002, 5.229543e+001
8.027256e+002, 5.395084e+001
8.032078e+002, 5.538802e+001
8.036899e+002, 5.614296e+001
8.041720e+002, 5.528979e+001
8.046541e+002, 5.307725e+001
8.051362e+002, 5.143566e+001
8.056183e+002, 5.174580e+001
8.061005e+002, 5.268382e+001
8.065826e+002, 5.288936e+001
8.070647e+002, 5.266947e+001
8.075468e+002, 5.272280e+001
8.080289e+002, 5.315718e+001
8.085110e+002, 5.372154e+001
8.089932e+002, 5.427660e+001
8.094753e+002, 5.471478e+001
8.099574e+002, 5.473206e+001
8.104395e+002, 5.425926e+001
8.109216e+002, 5.363436e+001
8.114037e+002, 5.262661e+001
8.118859e+002, 5.188209e+001
8.123680e+002, 5.185188e+001
8.128501e+002, 5.222616e+001
8.133322e+002, 5.265102e+001
8.138143e+002, 5.315995e+001
8.142964e+002, 5.335894e+001
8.147786e+002, 5.288705e+001
8.152607e+002, 5.237012e+001
8.157428e+002, 5.211974e+001
8.162249e+002, 5.207851e+001
8.167070e+002, 5.220932e+001
8.171891e+002, 5.245863e+001
8.176713e+002, 5.265603e+001
8.181534e+002, 5.266307e+001
8.186355e+002, 5.254959e+001
8.191176e+002, 5.230714e+001
8.195997e+002, 5.200496e+001
8.200818e+002, 5.234992e+001
8.205640e+002, 5.355708e+001
8.210461e+002, 5.458391e+001
8.215282e+002, 5.465950e+001
8.220103e+002, 5.405523e+001
8.224924e+002, 5.356047e+001
8.229745e+002, 5.295815e+001
8.234567e+002, 5.294974e+001
8.239388e+002, 5.440987e+001
8.244209e+002, 5.545881e+001
8.249030e+002, 5.506220e+001
8.253851e+002, 5.406900e+001
8.258672e+002, 5.359111e+001
8.263494e+002, 5.378294e+001
8.268315e+002, 5.398646e+001
8.273136e+002, 5.379878e+001
8.277957e+002, 5.358921e+001
8.282778e+002, 5.367827e+001
8.287599e+002, 5.396871e+001
8.292421e+002, 5.436363e+001
8.297242e+002, 5.478875e+001
8.302063e+002, 5.499247e+001
8.306884e+002, 5.474878e+001
8.311705e+002, 5.424982e+001
8.316526e+002, 5.400763e+001
8.321348e+002, 5.403672e+001
8.326169e+002, 5.381974e+001
8.330990e+002, 5.312877e+001
8.335811e+002, 5.275834e+001
8.340632e+002, 5.330485e+001
8.345453e+002, 5.438432e+001
8.350275e+002, 5.521894e+001
8.355096e+002, 5.588197e+001
8.359917e+002, 5.601900e+001
8.364738e+002, 5.506097e+001
8.369559e+002, 5.424617e+001
8.374380e+002, 5.421848e+001
8.379202e+002, 5.445520e+001
8.384023e+002, 5.428063e+001
8.388844e+002, 5.367975e+001
8.393665e+002, 5.325470e+001
8.398486e+002, 5.346901e+001
8.403307e+002, 5.382427e+001
8.408129e+002, 5.378967e+001
8.412950e+002, 5.353292e+001
8.417771e+002, 5.343880e+001
8.422592e+002, 5.352252e+001
8.427413e+002, 5.339156e+001
8.432234e+002, 5.275510e+001
8.437056e+002, 5.204943e+001
8.441877e+002, 5.232478e+001
8.446698e+002, 5.370362e+001
8.451519e+002, 5.443559e+001
8.456340e+002, 5.418822e+001
8.461161e+002, 5.412197e+001
8.465983e+002, 5.496373e+001
8.470804e+002, 5.601027e+001
8.475625e+002, 5.622438e+001
8.480446e+002, 5.555814e+001
8.485267e+002, 5.492403e+001
8.490089e+002, 5.401751e+001
8.494910e+002, 5.358599e+001
8.499731e+002, 5.433816e+001
8.504552e+002, 5.526548e+001
8.509373e+002, 5.536873e+001
8.514194e+002, 5.480481e+001
8.519016e+002, 5.439186e+001
8.523837e+002, 5.450783e+001
8.528658e+002, 5.478192e+001
8.533479e+002, 5.500960e+001
8.538300e+002, 5.510377e+001
8.543121e+002, 5.470211e+001
8.547943e+002, 5.395985e+001
8.552764e+002, 5.375876e+001
8.557585e+002, 5.448684e+001
8.562406e+002, 5.537315e+001
8.567227e+002, 5.534844e+001
8.572048e+002, 5.450294e+001
8.576870e+002, 5.407172e+001
8.581691e+002, 5.420446e+001
8.586512e+002, 5.412740e+001
8.591333e+002, 5.343877e+001
8.596154e+002, 5.281871e+001
8.600975e+002, 5.287386e+001
8.605797e+002, 5.352586e+001
8.610618e+002, 5.431025e+001
8.615439e+002, 5.591744e+001
8.620260e+002, 5.650631e+001
8.625081e+002, 5.495885e+001
8.629902e+002, 5.327813e+001
8.634724e+002, 5.263428e+001
8.639545e+002, 5.267948e+001
8.644366e+002, 5.271440e+001
8.649187e+002, 5.256931e+001
8.654008e+002, 5.255667e+001
8.658829e+002, 5.313017e+001
8.663651e+002, 5.374644e+001
8.668472e+002, 5.369723e+001
8.673293e+002, 5.320518e+001
8.678114e+002, 5.278741e+001
8.682935e+002, 5.256844e+001
8.687756e+002, 5.247713e+001
8.692578e+002, 5.247087e+001
8.697399e+002, 5.251657e+001
8.702220e+002, 5.257326e+001
8.707041e+002, 5.265042e+001
8.711862e+002, 5.247724e+001
8.716683e+002, 5.195374e+001
8.721505e+002, 5.144590e+001
8.726326e+002, 5.107148e+001
8.731147e+002, 5.090567e+001
8.735968e+002, 5.114566e+001
8.740789e+002, 5.193191e+001
8.745610e+002, 5.235785e+001
8.750432e+002, 5.237847e+001
8.755253e+002, 5.211577e+001
8.760074e+002, 5.117581e+001
8.764895e+002, 5.029975e+001
8.769716e+002, 5.028883e+001
8.774537e+002, 5.092329e+001
8.779359e+002, 5.123994e+001
8.784180e+002, 5.084945e+001
8.789001e+002, 5.025565e+001
8.793822e+002, 4.937500e+001
8.798643e+002, 4.873816e+001
8.803464e+002, 4.935066e+001
8.808286e+002, 5.070606e+001
8.813107e+002, 5.133263e+001
8.817928e+002, 5.071814e+001
8.822749e+002, 4.961670e+001
8.827570e+002, 4.869405e+001
8.832391e+002, 4.798735e+001
8.837213e+002, 4.764013e+001
8.842034e+002, 4.764252e+001
8.846855e+002, 4.794031e+001
8.851676e+002, 4.858392e+001
8.856497e+002, 4.905505e+001
8.861318e+002, 4.891267e+001
8.866140e+002, 4.833048e+001
8.870961e+002, 4.788320e+001
8.875782e+002, 4.755486e+001
8.880603e+002, 4.741867e+001
8.885424e+002, 4.776250e+001
8.890245e+002, 4.790046e+001
8.895067e+002, 4.723456e+001
8.899888e+002, 4.641386e+001
8.904709e+002, 4.629806e+001
8.909530e+002, 4.690969e+001
8.914351e+002, 4.724750e+001
8.919172e+002, 4.691470e+001
8.923994e+002, 4.650950e+001
8.928815e+002, 4.582537e+001
8.933636e+002, 4.552164e+001
8.938457e+002, 4.695433e+001
8.943278e+002, 4.932048e+001
8.948099e+002, 5.002719e+001
8.952921e+002, 4.778066e+001
8.957742e+002, 4.529906e+001
8.962563e+002, 4.550166e+001
8.967384e+002, 4.699837e+001
8.972205e+002, 4.737099e+001
8.977026e+002, 4.679781e+001
8.981848e+002, 4.653835e+001
8.986669e+002, 4.696291e+001
8.991490e+002, 4.725348e+001
8.996311e+002, 4.653525e+001
9.001132e+002, 4.514789e+001
9.005953e+002, 4.440947e+001
9.010775e+002, 4.437270e+001
9.015596e+002, 4.437957e+001
9.020417e+002, 4.431765e+001
9.025238e+002, 4.440583e+001
9.030059e+002, 4.492221e+001
9.034880e+002, 4.551925e+001
9.039702e+002, 4.544172e+001
9.044523e+002, 4.448185e+001
9.049344e+002, 4.368044e+001
9.054165e+002, 4.302165e+001
9.058986e+002, 4.254176e+001
9.063807e+002, 4.225288e+001
9.068629e+002, 4.213763e+001
9.073450e+002, 4.222094e+001
9.078271e+002, 4.246984e+001
9.083092e+002, 4.279163e+001
9.087913e+002, 4.332851e+001
9.092734e+002, 4.359585e+001
9.097556e+002, 4.315790e+001
9.102377e+002, 4.255003e+001
9.107198e+002, 4.219607e+001
9.112019e+002, 4.206375e+001
9.116840e+002, 4.200647e+001
9.121661e+002, 4.198156e+001
9.126483e+002, 4.205104e+001
9.131304e+002, 4.237330e+001
9.136125e+002, 4.272692e+001
9.140946e+002, 4.269801e+001
9.145767e+002, 4.239332e+001
9.150588e+002, 4.211572e+001
9.155410e+002, 4.192944e+001
9.160231e+002, 4.187673e+001
9.165052e+002, 4.198711e+001
9.169873e+002, 4.223132e+001
9.174694e+002, 4.267387e+001
9.179515e+002, 4.334270e+001
9.184337e+002, 4.328081e+001
9.189158e+002, 4.224495e+001
9.193979e+002, 4.161432e+001
9.198800e+002, 4.199138e+001
9.203621e+002, 4.269663e+001
9.208442e+002, 4.309748e+001
9.213264e+002, 4.319110e+001
9.218085e+002, 4.292208e+001
9.222906e+002, 4.174570e+001
9.227727e+002, 4.110049e+001
9.232548e+002, 4.129533e+001
9.237369e+002, 4.174003e+001
9.242191e+002, 4.241367e+001
9.247012e+002, 4.304991e+001
9.251833e+002, 4.317042e+001
9.256654e+002, 4.269665e+001
9.261475e+002, 4.240387e+001
9.266296e+002, 4.275451e+001
9.271118e+002, 4.306801e+001
9.275939e+002, 4.292192e+001
9.280760e+002, 4.261428e+001
9.285581e+002, 4.249336e+001
9.290402e+002, 4.253318e+001
9.295223e+002, 4.249888e+001
9.300045e+002, 4.228231e+001
9.304866e+002, 4.199827e+001
9.309687e+002, 4.164510e+001
9.314508e+002, 4.135310e+001
9.319329e+002, 4.137298e+001
9.324150e+002, 4.163599e+001
9.328972e+002, 4.193657e+001
9.333793e+002, 4.220328e+001
9.338614e+002, 4.241062e+001
9.343435e+002, 4.256099e+001
9.348256e+002, 4.257727e+001
9.353077e+002, 4.206152e+001
9.357899e+002, 4.109281e+001
9.362720e+002, 4.098880e+001
9.367541e+002, 4.197558e+001
9.372362e+002, 4.279176e+001
9.377183e+002, 4.277969e+001
9.382004e+002, 4.239136e+001
9.386826e+002, 4.228286e+001
9.391647e+002, 4.245872e+001
9.396468e+002, 4.275587e+001
9.401289e+002, 4.335321e+001
9.406110e+002, 4.362260e+001
9.410931e+002, 4.325155e+001
9.415753e+002, 4.277513e+001
9.420574e+002, 4.255738e+001
9.425395e+002, 4.251891e+001
9.430216e+002, 4.241764e+001
9.435037e+002, 4.216891e+001
9.439858e+002, 4.211841e+001
9.444680e+002, 4.269266e+001
9.449501e+002, 4.298436e+001
9.454322e+002, 4.245879e+001
9.459143e+002, 4.162654e+001
9.463964e+002, 4.075857e+001
9.468785e+002, 4.005055e+001
9.473607e+002, 4.012323e+001
9.478428e+002, 4.163926e+001
9.483249e+002, 4.297325e+001
9.488070e+002, 4.308075e+001
9.492891e+002, 4.274923e+001
9.497712e+002, 4.267986e+001
9.502534e+002, 4.276674e+001
9.507355e+002, 4.258974e+001
9.512176e+002, 4.209213e+001
9.516997e+002, 4.179802e+001
9.521818e+002, 4.232198e+001
9.526639e+002, 4.297969e+001
9.531461e+002, 4.271957e+001
9.536282e+002, 4.189543e+001
9.541103e+002, 4.116806e+001
9.545924e+002, 4.070617e+001
9.550745e+002, 4.093401e+001
9.555566e+002, 4.208023e+001
9.560388e+002, 4.325944e+001
9.565209e+002, 4.304787e+001
9.570030e+002, 4.183841e+001
9.574851e+002, 4.191824e+001
9.579672e+002, 4.327418e+001
9.584493e+002, 4.349242e+001
9.589315e+002, 4.184436e+001
9.594136e+002, 4.055199e+001
9.598957e+002, 4.139472e+001
9.603778e+002, 4.344790e+001
9.608599e+002, 4.426419e+001
9.613420e+002, 4.351184e+001
9.618242e+002, 4.323777e+001
9.623063e+002, 4.367886e+001
9.627884e+002, 4.401063e+001
9.632705e+002, 4.389417e+001
9.637526e+002, 4.366117e+001
9.642347e+002, 4.368151e+001
9.647169e+002, 4.389809e+001
9.651990e+002, 4.388862e+001
9.656811e+002, 4.319820e+001
9.661632e+002, 4.298500e+001
9.666453e+002, 4.385802e+001
9.671274e+002, 4.451099e+001
9.676096e+002, 4.402921e+001
9.680917e+002, 4.323589e+001
9.685738e+002, 4.324929e+001
9.690559e+002, 4.410577e+001
9.695380e+002, 4.484321e+001
9.700201e+002, 4.515052e+001
9.705023e+002, 4.541476e+001
9.709844e+002, 4.594753e+001
9.714665e+002, 4.633586e+001
9.719486e+002, 4.601938e+001
9.724307e+002, 4.536855e+001
9.729128e+002, 4.520102e+001
9.733950e+002, 4.572042e+001
9.738771e+002, 4.623001e+001
9.743592e+002, 4.616893e+001
9.748413e+002, 4.607388e+001
9.753234e+002, 4.661895e+001
9.758055e+002, 4.732297e+001
9.762877e+002, 4.737444e+001
9.767698e+002, 4.685036e+001
9.772519e+002, 4.639070e+001
9.777340e+002, 4.629235e+001
9.782161e+002, 4.638031e+001
9.786982e+002, 4.625637e+001
9.791804e+002, 4.629824e+001
9.796625e+002, 4.753170e+001
9.801446e+002, 4.957008e+001
9.806267e+002, 5.103198e+001
9.811088e+002, 5.166564e+001
9.815909e+002, 5.225865e+001
9.820731e+002, 5.337819e+001
9.825552e+002, 5.459713e+001
9.830373e+002, 5.500771e+001
9.835194e+002, 5.476139e+001
9.840015e+002, 5.500191e+001
9.844836e+002, 5.576397e+001
9.849658e+002, 5.669179e+001
9.854479e+002, 5.773975e+001
9.859300e+002, 5.825766e+001
9.864121e+002, 5.750958e+001
9.868942e+002, 5.596722e+001
9.873763e+002, 5.533064e+001
9.878585e+002, 5.568360e+001
9.883406e+002, 5.649744e+001
9.888227e+002, 5.794891e+001
9.893048e+002, 5.915678e+001
9.897869e+002, 5.970267e+001
9.902690e+002, 5.993015e+001
9.907512e+002, 6.019232e+001
9.912333e+002, 6.049700e+001
9.917154e+002, 6.094139e+001
9.921975e+002, 6.154822e+001
9.926796e+002, 6.226615e+001
9.931617e+002, 6.337476e+001
9.936439e+002, 6.419302e+001
9.941260e+002, 6.397937e+001
9.946081e+002, 6.354026e+001
9.950902e+002, 6.411842e+001
9.955723e+002, 6.575116e+001
9.960544e+002, 6.722702e+001
9.965366e+002, 6.845818e+001
9.970187e+002, 6.960059e+001
9.975008e+002, 7.040801e+001
9.979829e+002, 7.141066e+001
9.984650e+002, 7.296833e+001
9.989471e+002, 7.493447e+001
9.994293e+002, 7.704240e+001
9.999114e+002, 7.926278e+001
1.000393e+003, 8.159103e+001
1.000876e+003, 8.389296e+001
1.001358e+003, 8.645879e+001
1.001840e+003, 8.930219e+001
1.002322e+003, 9.252441e+001
1.002804e+003, 9.636873e+001
1.003286e+003, 1.006343e+002
1.003768e+003, 1.049347e+002
1.004250e+003, 1.091468e+002
1.004733e+003, 1.133841e+002
1.005215e+003, 1.172042e+002
1.005697e+003, 1.215854e+002
1.006179e+003, 1.272806e+002
1.006661e+003, 1.339383e+002
1.007143e+003, 1.411083e+002
1.007625e+003, 1.487490e+002
1.008107e+003, 1.570934e+002
1.008589e+003, 1.662007e+002
1.009072e+003, 1.761593e+002
1.009554e+003, 1.859870e+002
1.010036e+003, 1.974842e+002
1.010518e+003, 2.135848e+002
1.011000e+003, 2.327763e+002
1.011482e+003, 2.527602e+002
1.011964e+003, 2.727757e+002
1.012446e+003, 2.919746e+002
1.012929e+003, 3.099236e+002
1.013411e+003, 3.283179e+002
1.013893e+003, 3.497854e+002
1.014375e+003, 3.729253e+002
1.014857e+003, 3.954550e+002
1.015339e+003, 4.171473e+002
1.015821e+003, 4.374546e+002
1.016303e+003, 4.564633e+002
1.016785e+003, 4.756790e+002
1.017268e+003, 4.958980e+002
1.017750e+003, 5.185066e+002
1.018232e+003, 5.464664e+002
1.018714e+003, 5.790215e+002
1.019196e+003, 6.145413e+002
1.019678e+003, 6.522687e+002
1.020160e+003, 6.843368e+002
1.020642e+003, 7.089478e+002
1.021125e+003, 7.432369e+002
1.021607e+003, 8.015645e+002
1.022089e+003, 8.776624e+002
1.022571e+003, 9.631609e+002
1.023053e+003, 1.057175e+003
1.023535e+003, 1.132621e+003
1.024017e+003, 1.188744e+003
1.024499e+003, 1.223578e+003
1.024981e+003, 1.237839e+003
1.025464e+003, 1.219591e+003
1.025946e+003, 1.153665e+003
1.026428e+003, 1.054817e+003
1.026910e+003, 9.704108e+002
1.027392e+003, 9.030720e+002
1.027874e+003, 8.221191e+002
1.028356e+003, 7.216887e+002
1.028838e+003, 6.308178e+002
1.029321e+003, 5.589070e+002
1.029803e+003, 5.019395e+002
1.030285e+003, 4.566893e+002
1.030767e+003, 4.216922e+002
1.031249e+003, 3.905913e+002
1.031731e+003, 3.634623e+002
1.032213e+003, 3.395911e+002
1.032695e+003, 3.190861e+002
1.033177e+003, 3.013488e+002
1.033660e+003, 2.863979e+002
1.034142e+003, 2.739352e+002
1.034624e+003, 2.641471e+002
1.035106e+003, 2.565405e+002
1.035588e+003, 2.485364e+002
1.036070e+003, 2.402032e+002
1.036552e+003, 2.313208e+002
1.037034e+003, 2.219753e+002
1.037516e+003, 2.119093e+002
1.037999e+003, 2.008752e+002
1.038481e+003, 1.893384e+002
1.038963e+003, 1.775236e+002
1.039445e+003, 1.655771e+002
1.039927e+003, 1.546375e+002
1.040409e+003, 1.451028e+002
1.040891e+003, 1.358534e+002
1.041373e+003, 1.264985e+002
1.041855e+003, 1.179695e+002
1.042338e+003, 1.106064e+002
1.042820e+003, 1.043163e+002
1.043302e+003, 9.912560e+001
1.043784e+003, 9.497423e+001
1.044266e+003, 9.124931e+001
1.044748e+003, 8.801746e+001
1.045230e+003, 8.509518e+001
1.045712e+003, 8.283256e+001
1.046195e+003, 8.046436e+001
1.046677e+003, 7.718130e+001
1.047159e+003, 7.398736e+001
1.047641e+003, 7.219254e+001
1.048123e+003, 7.160225e+001
1.048605e+003, 7.057682e+001
1.049087e+003, 6.855082e+001
1.049569e+003, 6.678330e+001
1.050052e+003, 6.528699e+001
1.050534e+003, 6.428658e+001
1.051016e+003, 6.426517e+001
1.051498e+003, 6.452872e+001
1.051980e+003, 6.443994e+001
1.052462e+003, 6.393311e+001
1.052944e+003, 6.297995e+001
1.053426e+003, 6.129430e+001
1.053908e+003, 5.973041e+001
1.054391e+003, 5.812889e+001
1.054873e+003, 5.710582e+001
1.055355e+003, 5.751417e+001
1.055837e+003, 5.828810e+001
1.056319e+003, 5.820910e+001
1.056801e+003, 5.731419e+001
1.057283e+003, 5.631032e+001
1.057765e+003, 5.495274e+001
1.058248e+003, 5.448188e+001
1.058730e+003, 5.631713e+001
1.059212e+003, 5.792896e+001
1.059694e+003, 5.758474e+001
1.060176e+003, 5.647740e+001
1.060658e+003, 5.577037e+001
1.061140e+003, 5.566027e+001
1.061622e+003, 5.629694e+001
1.062104e+003, 5.808090e+001
1.062587e+003, 5.957463e+001
1.063069e+003, 6.046487e+001
1.063551e+003, 6.068172e+001
1.064033e+003, 5.962828e+001
1.064515e+003, 5.826612e+001
1.064997e+003, 5.784312e+001
1.065479e+003, 5.815574e+001
1.065961e+003, 5.786441e+001
1.066443e+003, 5.618427e+001
1.066926e+003, 5.534698e+001
1.067408e+003, 5.727267e+001
1.067890e+003, 5.914841e+001
1.068372e+003, 5.909933e+001
1.068854e+003, 5.823075e+001
1.069336e+003, 5.765996e+001
1.069818e+003, 5.752580e+001
1.070300e+003, 5.776831e+001
1.070782e+003, 5.850978e+001
1.071265e+003, 5.893100e+001
1.071747e+003, 5.823653e+001
1.072229e+003, 5.762040e+001
1.072711e+003, 5.793292e+001
1.073193e+003, 5.860392e+001
1.073675e+003, 5.892653e+001
1.074157e+003, 5.903181e+001
1.074639e+003, 5.960619e+001
1.075122e+003, 6.095269e+001
1.075604e+003, 6.188324e+001
1.076086e+003, 6.128741e+001
1.076568e+003, 6.079389e+001
1.077050e+003, 6.143027e+001
1.077532e+003, 6.259090e+001
1.078014e+003, 6.371760e+001
1.078496e+003, 6.478458e+001
1.078979e+003, 6.587563e+001
1.079461e+003, 6.700153e+001
1.079943e+003, 6.838503e+001
1.080425e+003, 7.045810e+001
1.080907e+003, 7.239637e+001
1.081389e+003, 7.336843e+001
1.081871e+003, 7.430244e+001
1.082353e+003, 7.624869e+001
1.082835e+003, 7.882445e+001
1.083318e+003, 8.101879e+001
1.083800e+003, 8.260641e+001
1.084282e+003, 8.433192e+001
1.084764e+003, 8.658764e+001
1.085246e+003, 8.896992e+001
1.085728e+003, 9.117509e+001
1.086210e+003, 9.351733e+001
1.086692e+003, 9.615446e+001
1.087175e+003, 9.918293e+001
1.087657e+003, 1.029471e+002
1.088139e+003, 1.074105e+002
1.088621e+003, 1.113440e+002
1.089103e+003, 1.137959e+002
1.089585e+003, 1.162711e+002
1.090067e+003, 1.197531e+002
1.090549e+003, 1.231757e+002
1.091031e+003, 1.256706e+002
1.091514e+003, 1.275682e+002
1.091996e+003, 1.294722e+002
1.092478e+003, 1.314230e+002
1.092960e+003, 1.329273e+002
1.093442e+003, 1.334030e+002
1.093924e+003, 1.341875e+002
1.094406e+003, 1.361585e+002
1.094888e+003, 1.382025e+002
1.095370e+003, 1.397766e+002
1.095853e+003, 1.408782e+002
1.096335e+003, 1.416502e+002
1.096817e+003, 1.420320e+002
1.097299e+003, 1.416481e+002
1.097781e+003, 1.402123e+002
1.098263e+003, 1.384951e+002
1.098745e+003, 1.363482e+002
1.099227e+003, 1.344451e+002
1.099709e+003, 1.337830e+002
1.100192e+003, 1.330508e+002
1.100674e+003, 1.305735e+002
1.101156e+003, 1.267909e+002
1.101638e+003, 1.234361e+002
1.102120e+003, 1.207269e+002
1.102602e+003, 1.188603e+002
1.103084e+003, 1.181965e+002
1.103566e+003, 1.179665e+002
1.104049e+003, 1.183274e+002
1.104531e+003, 1.185785e+002
1.105013e+003, 1.177430e+002
1.105495e+003, 1.164297e+002
1.105977e+003, 1.161552e+002
1.106459e+003, 1.172233e+002
1.106941e+003, 1.184674e+002
1.107423e+003, 1.199729e+002
1.107906e+003, 1.212471e+002
1.108388e+003, 1.220984e+002
1.108870e+003, 1.227363e+002
1.109352e+003, 1.233065e+002
1.109834e+003, 1.237496e+002
1.110316e+003, 1.239455e+002
1.110798e+003, 1.238866e+002
1.111280e+003, 1.236762e+002
1.111762e+003, 1.236801e+002
1.112245e+003, 1.229967e+002
1.112727e+003, 1.211179e+002
1.113209e+003, 1.189843e+002
1.113691e+003, 1.171200e+002
1.114173e+003, 1.152184e+002
1.114655e+003, 1.128376e+002
1.115137e+003, 1.100164e+002
1.115619e+003, 1.071391e+002
1.116102e+003, 1.038605e+002
1.116584e+003, 1.011725e+002
1.117066e+003, 9.977670e+001
1.117548e+003, 9.793287e+001
1.118030e+003, 9.458315e+001
1.118512e+003, 9.100966e+001
1.118994e+003, 8.831547e+001
1.119476e+003, 8.641638e+001
1.119958e+003, 8.510669e+001
1.120441e+003, 8.507442e+001
1.120923e+003, 8.324833e+001
1.121405e+003, 7.817657e+001
1.121887e+003, 7.463356e+001
1.122369e+003, 7.462516e+001
1.122851e+003, 7.499978e+001
1.123333e+003, 7.331794e+001
1.123815e+003, 7.053731e+001
1.124297e+003, 6.880617e+001
1.124780e+003, 6.823157e+001
1.125262e+003, 6.735603e+001
1.125744e+003, 6.605901e+001
1.126226e+003, 6.494801e+001
1.126708e+003, 6.419701e+001
1.127190e+003, 6.337837e+001
1.127672e+003, 6.219297e+001
1.128154e+003, 6.096783e+001
1.128636e+003, 6.016582e+001
1.129119e+003, 5.976760e+001
1.129601e+003, 5.961669e+001
1.130083e+003, 5.970877e+001
1.130565e+003, 6.025817e+001
1.131047e+003, 6.140743e+001
1.131529e+003, 6.175597e+001
1.132011e+003, 6.064056e+001
1.132493e+003, 5.924636e+001
1.132976e+003, 5.877607e+001
1.133458e+003, 5.893530e+001
1.133940e+003, 5.894544e+001
1.134422e+003, 5.880287e+001
1.134904e+003, 5.827119e+001
1.135386e+003, 5.739178e+001
1.135868e+003, 5.723369e+001
1.136350e+003, 5.807621e+001
1.136833e+003, 5.923262e+001
1.137315e+003, 6.026162e+001
1.137797e+003, 6.106044e+001
1.138279e+003, 6.129929e+001
1.138761e+003, 6.119625e+001
1.139243e+003, 6.163650e+001
1.139725e+003, 6.243566e+001
1.140207e+003, 6.277387e+001
1.140689e+003, 6.255381e+001
1.141172e+003, 6.196980e+001
1.141654e+003, 6.112861e+001
1.142136e+003, 6.088007e+001
1.142618e+003, 6.254498e+001
1.143100e+003, 6.491007e+001
1.143582e+003, 6.585964e+001
1.144064e+003, 6.597104e+001
1.144546e+003, 6.626029e+001
1.145029e+003, 6.688622e+001
1.145511e+003, 6.803039e+001
1.145993e+003, 6.965166e+001
1.146475e+003, 7.105544e+001
1.146957e+003, 7.173672e+001
1.147439e+003, 7.210305e+001
1.147921e+003, 7.222169e+001
1.148403e+003, 7.253191e+001
1.148885e+003, 7.371238e+001
1.149368e+003, 7.540413e+001
1.149850e+003, 7.710046e+001
1.150332e+003, 7.861030e+001
1.150814e+003, 7.962446e+001
1.151296e+003, 7.984598e+001
1.151778e+003, 8.054636e+001
1.152260e+003, 8.318530e+001
1.152742e+003, 8.574382e+001
1.153224e+003, 8.649580e+001
1.153707e+003, 8.676219e+001
1.154189e+003, 8.788281e+001
1.154671e+003, 8.975980e+001
1.155153e+003, 9.201249e+001
1.155635e+003, 9.458090e+001
1.156117e+003, 9.654789e+001
1.156599e+003, 9.734740e+001
1.157081e+003, 9.790240e+001
1.157563e+003, 9.792370e+001
1.158046e+003, 9.841511e+001
1.158528e+003, 1.004348e+002
1.159010e+003, 1.030134e+002
1.159492e+003, 1.049581e+002
1.159974e+003, 1.062245e+002
1.160456e+003, 1.071745e+002
1.160938e+003, 1.072234e+002
1.161420e+003, 1.081487e+002
1.161903e+003, 1.111910e+002
1.162385e+003, 1.134325e+002
1.162867e+003, 1.137205e+002
1.163349e+003, 1.133360e+002
1.163831e+003, 1.130716e+002
1.164313e+003, 1.129761e+002
1.164795e+003, 1.132121e+002
1.165277e+003, 1.138433e+002
1.165760e+003, 1.142989e+002
1.166242e+003, 1.146437e+002
1.166724e+003, 1.145358e+002
1.167206e+003, 1.137306e+002
1.167688e+003, 1.131249e+002
1.168170e+003, 1.132633e+002
1.168652e+003, 1.136182e+002
1.169134e+003, 1.136002e+002
1.169616e+003, 1.131396e+002
1.170099e+003, 1.117456e+002
1.170581e+003, 1.094015e+002
1.171063e+003, 1.072654e+002
1.171545e+003, 1.054005e+002
1.172027e+003, 1.039642e+002
1.172509e+003, 1.029951e+002
1.172991e+003, 1.023119e+002
1.173473e+003, 1.017951e+002
1.173956e+003, 1.013496e+002
1.174438e+003, 1.009619e+002
1.174920e+003, 1.004710e+002
1.175402e+003, 9.915295e+001
1.175884e+003, 9.727920e+001
1.176366e+003, 9.589351e+001
1.176848e+003, 9.504583e+001
1.177330e+003, 9.402719e+001
1.177813e+003, 9.255039e+001
1.178295e+003, 9.122723e+001
1.178777e+003, 9.042968e+001
1.179259e+003, 9.030479e+001
1.179741e+003, 9.183556e+001
1.180223e+003, 9.358104e+001
1.180705e+003, 9.309532e+001
1.181187e+003, 9.125233e+001
1.181669e+003, 9.024606e+001
1.182151e+003, 9.033642e+001
1.182634e+003, 9.006815e+001
1.183116e+003, 8.848209e+001
1.183598e+003, 8.760281e+001
1.184080e+003, 8.920774e+001
1.184562e+003, 9.123477e+001
1.185044e+003, 9.225607e+001
1.185526e+003, 9.303271e+001
1.186008e+003, 9.459770e+001
1.186490e+003, 9.657286e+001
1.186973e+003, 9.766310e+001
1.187455e+003, 9.754766e+001
1.187937e+003, 9.857573e+001
1.188419e+003, 1.021366e+002
1.188901e+003, 1.055002e+002
1.189383e+003, 1.078690e+002
1.189865e+003, 1.102552e+002
1.190347e+003, 1.130043e+002
1.190830e+003, 1.161491e+002
1.191312e+003, 1.198683e+002
1.191794e+003, 1.240213e+002
1.192276e+003, 1.278867e+002
1.192758e+003, 1.311690e+002
1.193240e+003, 1.352013e+002
1.193722e+003, 1.400424e+002
1.194204e+003, 1.454604e+002
1.194687e+003, 1.514646e+002
1.195169e+003, 1.578701e+002
1.195651e+003, 1.646738e+002
1.196133e+003, 1.715867e+002
1.196615e+003, 1.781631e+002
1.197097e+003, 1.844420e+002
1.197579e+003, 1.907749e+002
1.198061e+003, 1.971935e+002
1.198543e+003, 2.037290e+002
1.199026e+003, 2.103718e+002
1.199508e+003, 2.171201e+002
1.199990e+003, 2.238511e+002
1.200472e+003, 2.289927e+002
1.200954e+003, 2.312888e+002
1.201436e+003, 2.310653e+002
1.201918e+003, 2.284648e+002
1.202400e+003, 2.239009e+002
1.202883e+003, 2.179570e+002
1.203365e+003, 2.108505e+002
1.203847e+003, 2.029017e+002
1.204329e+003, 1.942372e+002
1.204811e+003, 1.846907e+002
1.205293e+003, 1.742837e+002
1.205775e+003, 1.643175e+002
1.206257e+003, 1.558576e+002
1.206740e+003, 1.479103e+002
1.207222e+003, 1.394900e+002
1.207704e+003, 1.315155e+002
1.208186e+003, 1.251441e+002
1.208668e+003, 1.195913e+002
1.209150e+003, 1.133008e+002
1.209632e+003, 1.065045e+002
1.210114e+003, 1.012182e+002
1.210596e+003, 9.853422e+001
1.211078e+003, 9.527373e+001
1.211561e+003, 8.969678e+001
1.212043e+003, 8.494607e+001
1.212525e+003, 8.242404e+001
1.213007e+003, 8.053872e+001
1.213489e+003, 7.848324e+001
1.213971e+003, 7.624311e+001
1.214453e+003, 7.370718e+001
1.214935e+003, 7.091689e+001
1.215417e+003, 6.864787e+001
1.215900e+003, 6.697021e+001
1.216382e+003, 6.557378e+001
1.216864e+003, 6.448428e+001
1.217346e+003, 6.354002e+001
1.217828e+003, 6.269719e+001
1.218310e+003, 6.198547e+001
1.218792e+003, 6.146102e+001
1.219274e+003, 6.091064e+001
1.219757e+003, 5.978916e+001
1.220239e+003, 5.831703e+001
1.220721e+003, 5.776220e+001
1.221203e+003, 5.784726e+001
1.221685e+003, 5.697615e+001
1.222167e+003, 5.520713e+001
1.222649e+003, 5.409655e+001
1.223131e+003, 5.412465e+001
1.223614e+003, 5.417649e+001
1.224096e+003, 5.336255e+001
1.224578e+003, 5.234809e+001
1.225060e+003, 5.195301e+001
1.225542e+003, 5.169019e+001
1.226024e+003, 5.094090e+001
1.226506e+003, 4.994170e+001
1.226988e+003, 4.900744e+001
1.227470e+003, 4.822824e+001
1.227953e+003, 4.760320e+001
1.228435e+003, 4.712499e+001
1.228917e+003, 4.716220e+001
1.229399e+003, 4.856875e+001
1.229881e+003, 4.948554e+001
1.230363e+003, 4.922282e+001
1.230845e+003, 4.839544e+001
1.231327e+003, 4.687882e+001
1.231810e+003, 4.535465e+001
1.232292e+003, 4.463527e+001
1.232774e+003, 4.458316e+001
1.233256e+003, 4.473701e+001
1.233738e+003, 4.534607e+001
1.234220e+003, 4.493757e+001
1.234702e+003, 4.288383e+001
1.235184e+003, 4.201045e+001
1.235667e+003, 4.319962e+001
1.236149e+003, 4.414107e+001
1.236631e+003, 4.359031e+001
1.237113e+003, 4.247691e+001
1.237595e+003, 4.183285e+001
1.238077e+003, 4.162958e+001
1.238559e+003, 4.190577e+001
1.239041e+003, 4.254234e+001
1.239523e+003, 4.304834e+001
1.240005e+003, 4.333496e+001
1.240488e+003, 4.287568e+001
1.240970e+003, 4.177090e+001
1.241452e+003, 4.132617e+001
1.241934e+003, 4.219313e+001
1.242416e+003, 4.294907e+001
1.242898e+003, 4.183737e+001
1.243380e+003, 4.049669e+001
1.243862e+003, 4.081450e+001
1.244344e+003, 4.159113e+001
1.244827e+003, 4.127409e+001
1.245309e+003, 4.050948e+001
1.245791e+003, 4.071157e+001
1.246273e+003, 4.181322e+001
1.246755e+003, 4.245739e+001
1.247237e+003, 4.223026e+001
1.247719e+003, 4.177951e+001
1.248201e+003, 4.098001e+001
1.248684e+003, 4.035624e+001
1.249166e+003, 4.004466e+001
1.249648e+003, 3.999173e+001
1.250130e+003, 4.039022e+001
1.250612e+003, 4.079883e+001
1.251094e+003, 4.053584e+001
1.251576e+003, 3.975465e+001
1.252058e+003, 3.948940e+001
1.252541e+003, 3.983225e+001
1.253023e+003, 4.004858e+001
1.253505e+003, 4.012508e+001
1.253987e+003, 3.989079e+001
1.254469e+003, 3.929234e+001
1.254951e+003, 3.910404e+001
1.255433e+003, 3.979572e+001
1.255915e+003, 4.067029e+001
1.256397e+003, 4.093551e+001
1.256880e+003, 4.073426e+001
1.257362e+003, 4.018307e+001
1.257844e+003, 3.946533e+001
1.258326e+003, 3.880122e+001
1.258808e+003, 3.833686e+001
1.259290e+003, 3.840142e+001
1.259772e+003, 3.895422e+001
1.260254e+003, 3.964755e+001
1.260737e+003, 4.040923e+001
1.261219e+003, 4.073124e+001
1.261701e+003, 3.968371e+001
1.262183e+003, 3.901984e+001
1.262665e+003, 4.018434e+001
1.263147e+003, 4.140998e+001
1.263629e+003, 4.128815e+001
1.264111e+003, 4.050212e+001
1.264594e+003, 3.978900e+001
1.265076e+003, 3.932264e+001
1.265558e+003, 3.999677e+001
1.266040e+003, 4.256385e+001
1.266522e+003, 4.342168e+001
1.267004e+003, 4.203324e+001
1.267486e+003, 4.080275e+001
1.267968e+003, 4.016844e+001
1.268450e+003, 3.980897e+001
1.268932e+003, 3.955801e+001
1.269415e+003, 3.954534e+001
1.269897e+003, 3.997042e+001
1.270379e+003, 4.061971e+001
1.270861e+003, 4.112674e+001
1.271343e+003, 4.138665e+001
1.271825e+003, 4.071323e+001
1.272307e+003, 3.958213e+001
1.272789e+003, 3.963134e+001
1.273271e+003, 4.079115e+001
1.273754e+003, 4.146275e+001
1.274236e+003, 4.107572e+001
1.274718e+003, 4.106421e+001
1.275200e+003, 4.302789e+001
1.275682e+003, 4.463273e+001
1.276164e+003, 4.419886e+001
1.276646e+003, 4.323959e+001
1.277128e+003, 4.258260e+001
1.277611e+003, 4.220785e+001
1.278093e+003, 4.212349e+001
1.278575e+003, 4.222721e+001
1.279057e+003, 4.218950e+001
1.279539e+003, 4.194746e+001
1.280021e+003, 4.205170e+001
1.280503e+003, 4.276658e+001
1.280985e+003, 4.304792e+001
1.281468e+003, 4.277030e+001
1.281950e+003, 4.204656e+001
1.282432e+003, 4.075175e+001
1.282914e+003, 4.002789e+001
1.283396e+003, 4.093546e+001
1.283878e+003, 4.252523e+001
1.284360e+003, 4.304265e+001
1.284842e+003, 4.280946e+001
1.285324e+003, 4.273821e+001
##END=



