##NAMES=Cornwallite
##RRUFFID=R050469
##IDEAL CHEMISTRY=Cu^2+^_5_(As^5+^O_4_)_2_(OH)_4_
##LOCALITY=Carissa mine, Tintic District, Utah, USA
##OWNER=RRUFF
##SOURCE=University of Arizona Mineral Museum
##DESCRIPTION=Dark green botryoidal crust
##STATUS=The identification of this mineral has been confirmed by X-ray diffraction and chemical analysis
##URL=rruff.info/R050469
##MEASURED CHEMISTRY=(Cu_4.98_Ca_0.02_)_Î£=5_(As_1.00_O_4_)_2_(OH)_4_ ; OH estimated by difference and charge balance
93.78320, 28.98970
94.26532, 30.79180
94.74744, 30.80912
95.22955, 28.95082
95.71167, 26.40357
96.19379, 24.90471
96.67590, 24.77098
97.15802, 24.66635
97.64014, 24.58026
98.12225, 24.38181
98.60437, 23.79197
99.08649, 22.63543
99.56860, 21.19313
100.0507, 19.88373
100.5328, 18.64832
101.0150, 17.55838
101.4971, 16.70950
101.9792, 16.09970
102.4613, 15.54884
102.9434, 14.85814
103.4255, 14.25447
103.9077, 13.99103
104.3898, 14.20664
104.8719, 14.60385
105.3540, 14.53022
105.8361, 13.56767
106.3182, 12.84991
106.8004, 12.79112
107.2825, 13.03443
107.7646, 13.16004
108.2467, 12.90807
108.7288, 12.30610
109.2109, 11.71369
109.6931, 11.07440
110.1752, 10.49350
110.6573, 9.992969
111.1394, 9.573675
111.6215, 9.229445
112.1036, 8.959194
112.5858, 8.770554
113.0679, 8.636343
113.5500, 8.629091
114.0321, 8.622051
114.5142, 8.492184
114.9964, 8.220496
115.4785, 7.946118
115.9606, 7.854004
116.4427, 7.932019
116.9248, 8.006894
117.4069, 8.038324
117.8891, 8.039737
118.3712, 8.032508
118.8533, 8.003846
119.3354, 7.996556
119.8175, 8.041971
120.2996, 8.137584
120.7818, 8.269738
121.2639, 8.468012
121.7460, 8.738256
122.2281, 8.911953
122.7102, 8.886125
123.1923, 8.795753
123.6745, 8.697933
124.1566, 8.604300
124.6387, 8.503391
125.1208, 8.379395
125.6029, 8.233557
126.0850, 8.056834
126.5672, 7.800795
127.0493, 7.544845
127.5314, 7.354423
128.0135, 7.254408
128.4956, 7.225343
128.9777, 7.211821
129.4599, 7.302149
129.9420, 7.306335
130.4241, 7.149889
130.9062, 6.907840
131.3883, 6.694109
131.8705, 6.574553
132.3526, 6.527017
132.8347, 6.422371
133.3168, 6.183313
133.7989, 5.976194
134.2810, 5.892344
134.7632, 5.912873
135.2453, 5.934074
135.7274, 5.881281
136.2095, 5.777792
136.6916, 5.713631
137.1737, 5.733832
137.6559, 5.770395
138.1380, 5.734023
138.6201, 5.602700
139.1022, 5.503038
139.5843, 5.564435
140.0664, 5.704879
140.5486, 5.808873
141.0307, 5.808324
141.5128, 5.740967
141.9949, 5.732570
142.4770, 5.873998
142.9591, 5.930680
143.4413, 5.789144
143.9234, 5.505950
144.4055, 5.174098
144.8876, 4.823213
145.3697, 4.452239
145.8518, 4.269506
146.3340, 4.433389
146.8161, 4.662415
147.2982, 4.952079
147.7803, 5.251128
148.2624, 5.463003
148.7445, 5.480219
149.2267, 5.244787
149.7088, 5.046020
150.1909, 4.864398
150.6730, 4.723825
151.1551, 4.644825
151.6372, 4.626728
152.1194, 4.648291
152.6015, 4.687139
153.0836, 4.755650
153.5657, 4.805978
154.0478, 4.845960
154.5299, 4.864387
155.0121, 4.835542
155.4942, 4.749425
155.9763, 4.654187
156.4584, 4.630386
156.9405, 4.680198
157.4227, 4.735118
157.9048, 4.777074
158.3869, 4.811395
158.8690, 4.858684
159.3511, 4.946557
159.8332, 5.009949
160.3154, 4.962813
160.7975, 4.803869
161.2796, 4.635516
161.7617, 4.513237
162.2438, 4.435142
162.7259, 4.386659
163.2081, 4.384345
163.6902, 4.396635
164.1723, 4.408633
164.6544, 4.418412
165.1365, 4.409896
165.6186, 4.352616
166.1008, 4.228616
166.5829, 4.138818
167.0650, 4.123197
167.5471, 4.131091
168.0292, 4.123580
168.5113, 4.093225
168.9935, 4.075905
169.4756, 4.147429
169.9577, 4.410957
170.4398, 4.560325
170.9219, 4.488459
171.4040, 4.358363
171.8862, 4.320040
172.3683, 4.426085
172.8504, 4.599887
173.3325, 4.658717
173.8146, 4.447326
174.2967, 4.297494
174.7789, 4.251297
175.2610, 4.259905
175.7431, 4.267672
176.2252, 4.249396
176.7073, 4.215075
177.1894, 4.197847
177.6716, 4.170284
178.1537, 4.188957
178.6358, 4.342730
179.1179, 4.547898
179.6000, 4.617834
180.0821, 4.422063
180.5643, 4.082396
181.0464, 3.986617
181.5285, 4.290815
182.0106, 4.564395
182.4927, 4.566275
182.9749, 4.348133
183.4570, 4.139561
183.9391, 4.040604
184.4212, 4.032138
184.9033, 4.048504
185.3854, 4.093269
185.8676, 4.155658
186.3497, 4.257115
186.8318, 4.400796
187.3139, 4.470766
187.7960, 4.348594
188.2781, 4.150849
188.7603, 3.997188
189.2424, 3.907600
189.7245, 3.872684
190.2066, 3.903501
190.6887, 4.030745
191.1708, 4.110264
191.6530, 4.038322
192.1351, 3.921554
192.6172, 3.856609
193.0993, 3.884151
193.5814, 3.952691
194.0635, 3.944883
194.5457, 3.781628
195.0278, 3.704948
195.5099, 3.812467
195.9920, 3.994615
196.4741, 4.157006
196.9562, 4.259431
197.4384, 4.302747
197.9205, 4.283346
198.4026, 4.122537
198.8847, 4.005453
199.3668, 3.975529
199.8489, 3.991914
200.3311, 4.011802
200.8132, 4.013925
201.2953, 4.000814
201.7774, 3.982484
202.2595, 3.940639
202.7416, 3.914219
203.2238, 3.928780
203.7059, 3.956516
204.1880, 3.951449
204.6701, 3.885970
205.1522, 3.781229
205.6344, 3.734124
206.1165, 3.774208
206.5986, 3.829921
207.0807, 3.889352
207.5628, 3.954016
208.0449, 4.031991
208.5271, 4.131402
209.0092, 4.241436
209.4913, 4.316451
209.9734, 4.395640
210.4555, 4.406002
210.9376, 4.247252
211.4198, 3.987344
211.9019, 3.822467
212.3840, 3.874336
212.8661, 4.070532
213.3482, 4.196856
213.8303, 4.234464
214.3125, 4.240429
214.7946, 4.238650
215.2767, 4.229127
215.7588, 4.210495
216.2409, 4.175756
216.7230, 4.135977
217.2052, 4.105634
217.6873, 4.077424
218.1694, 4.075531
218.6515, 4.149340
219.1336, 4.294365
219.6157, 4.381873
220.0979, 4.338684
220.5800, 4.224052
221.0621, 4.092888
221.5442, 3.941502
222.0263, 3.811907
222.5084, 3.739204
222.9906, 3.723122
223.4727, 3.766049
223.9548, 3.956576
224.4369, 4.154659
224.9190, 4.254383
225.4011, 4.234830
225.8833, 4.150281
226.3654, 4.048488
226.8475, 3.919584
227.3296, 3.823638
227.8117, 3.805531
228.2938, 3.804182
228.7760, 3.765502
229.2581, 3.682289
229.7402, 3.620374
230.2223, 3.697840
230.7044, 3.995847
231.1866, 4.171210
231.6687, 4.080104
232.1508, 3.941081
232.6329, 3.894135
233.1150, 3.961797
233.5971, 4.062729
234.0793, 4.080522
234.5614, 3.977507
235.0435, 3.881247
235.5256, 3.750994
236.0077, 3.657667
236.4898, 3.657842
236.9720, 3.755153
237.4541, 3.902864
237.9362, 4.043690
238.4183, 4.189029
238.9004, 4.293147
239.3825, 4.395726
239.8647, 4.437503
240.3468, 4.341698
240.8289, 4.118058
241.3110, 3.871952
241.7931, 3.729001
242.2752, 3.711408
242.7574, 3.757343
243.2395, 3.933865
243.7216, 4.113878
244.2037, 4.208412
244.6858, 4.211525
245.1679, 4.186619
245.6501, 4.208572
246.1322, 4.303697
246.6143, 4.328763
247.0964, 4.212952
247.5785, 4.088075
248.0606, 4.060754
248.5428, 4.129737
249.0249, 4.197495
249.5070, 4.164595
249.9891, 4.009917
250.4712, 3.893561
250.9533, 3.823315
251.4355, 3.781969
251.9176, 3.767551
252.3997, 3.776011
252.8818, 3.789238
253.3639, 3.797932
253.8460, 3.799174
254.3282, 3.765954
254.8103, 3.619812
255.2924, 3.501125
255.7745, 3.550546
256.2566, 3.752243
256.7387, 3.919842
257.2209, 3.896054
257.7030, 3.716176
258.1851, 3.647991
258.6672, 3.806093
259.1493, 3.983051
259.6314, 4.016517
260.1136, 3.920839
260.5957, 3.841701
261.0778, 3.876042
261.5599, 3.988400
262.0420, 4.055030
262.5241, 4.055228
263.0063, 4.033011
263.4884, 4.019158
263.9705, 4.011530
264.4526, 3.990548
264.9347, 3.943067
265.4168, 3.877998
265.8990, 3.816360
266.3811, 3.760049
266.8632, 3.702451
267.3453, 3.591192
267.8275, 3.446355
268.3096, 3.446886
268.7917, 3.761645
269.2738, 4.162089
269.7559, 4.348128
270.2380, 4.293536
270.7202, 4.144358
271.2023, 3.946224
271.6844, 3.715778
272.1665, 3.567200
272.6486, 3.545618
273.1307, 3.608811
273.6129, 3.741373
274.0950, 3.941868
274.5771, 4.072658
275.0592, 3.971848
275.5413, 3.692966
276.0234, 3.560141
276.5056, 3.696356
276.9877, 3.895470
277.4698, 4.016291
277.9519, 4.061937
278.4340, 4.050352
278.9161, 3.953779
279.3983, 3.798562
279.8804, 3.709774
280.3625, 3.738068
280.8446, 3.766206
281.3267, 3.689135
281.8088, 3.555245
282.2910, 3.481102
282.7731, 3.572044
283.2552, 3.769225
283.7373, 3.871976
284.2194, 3.839351
284.7015, 3.785053
285.1837, 3.753520
285.6658, 3.739343
286.1479, 3.735415
286.6300, 3.739184
287.1121, 3.750626
287.5942, 3.770447
288.0764, 3.800551
288.5585, 3.835046
289.0406, 3.897051
289.5227, 3.952179
290.0048, 3.951149
290.4869, 3.865887
290.9691, 3.756309
291.4512, 3.733671
291.9333, 3.829737
292.4154, 3.911911
292.8975, 3.958351
293.3796, 3.970577
293.8618, 3.937840
294.3439, 3.857632
294.8260, 3.759207
295.3081, 3.672490
295.7902, 3.592828
296.2723, 3.547684
296.7545, 3.596486
297.2366, 3.642944
297.7187, 3.599934
298.2008, 3.474124
298.6829, 3.379158
299.1650, 3.476860
299.6472, 3.801464
300.1293, 3.995961
300.6114, 3.951463
301.0935, 3.841713
301.5756, 3.694783
302.0577, 3.538905
302.5399, 3.432995
303.0220, 3.443030
303.5041, 3.562583
303.9862, 3.646320
304.4683, 3.664577
304.9504, 3.678928
305.4326, 3.721822
305.9147, 3.776563
306.3968, 3.807280
306.8789, 3.782839
307.3610, 3.723256
307.8431, 3.728240
308.3253, 3.898627
308.8074, 3.968074
309.2895, 3.771662
309.7716, 3.479819
310.2537, 3.310858
310.7358, 3.369560
311.2180, 3.550014
311.7001, 3.610867
312.1822, 3.486373
312.6643, 3.386805
313.1464, 3.329084
313.6285, 3.321960
314.1107, 3.398496
314.5928, 3.563210
315.0749, 3.741796
315.5570, 3.820085
316.0392, 3.768112
316.5213, 3.724336
317.0034, 3.665904
317.4855, 3.647245
317.9676, 3.732852
318.4497, 3.909481
318.9319, 4.080732
319.4140, 4.152296
319.8961, 4.118182
320.3782, 4.042820
320.8603, 3.834345
321.3424, 3.672992
321.8246, 3.656713
322.3067, 3.746512
322.7888, 3.838733
323.2709, 3.854198
323.7530, 3.805987
324.2351, 3.795541
324.7173, 3.878825
325.1994, 3.919375
325.6815, 3.834687
326.1636, 3.696835
326.6457, 3.607615
327.1278, 3.621116
327.6100, 3.700836
328.0921, 3.761391
328.5742, 3.799403
329.0563, 3.824073
329.5384, 3.840390
330.0205, 3.844875
330.5027, 3.824334
330.9848, 3.775339
331.4669, 3.730107
331.9490, 3.750025
332.4311, 3.863328
332.9132, 3.917284
333.3954, 3.803459
333.8775, 3.686893
334.3596, 3.673306
334.8417, 3.759803
335.3238, 3.854948
335.8059, 3.888070
336.2881, 3.859527
336.7702, 3.755620
337.2523, 3.445357
337.7344, 3.210380
338.2165, 3.212739
338.6986, 3.385782
339.1808, 3.568685
339.6629, 3.665758
340.1450, 3.696950
340.6271, 3.738567
341.1092, 3.800460
341.5913, 3.853136
342.0735, 3.904296
342.5556, 3.935083
343.0377, 3.908132
343.5198, 3.794344
344.0019, 3.663843
344.4840, 3.642205
344.9662, 3.756901
345.4483, 3.858529
345.9304, 3.913947
346.4125, 3.931220
346.8946, 3.904727
347.3767, 3.834040
347.8589, 3.743677
348.3410, 3.634511
348.8231, 3.508228
349.3052, 3.451890
349.7873, 3.503567
350.2694, 3.604444
350.7516, 3.761566
351.2337, 3.945291
351.7158, 4.036391
352.1979, 3.882440
352.6800, 3.575343
353.1621, 3.430790
353.6443, 3.504469
354.1264, 3.626719
354.6085, 3.738544
355.0906, 3.824786
355.5727, 3.849162
356.0548, 3.773612
356.5370, 3.662831
357.0191, 3.591419
357.5012, 3.558658
357.9833, 3.581917
358.4654, 3.759231
358.9475, 3.940549
359.4297, 3.918267
359.9118, 3.631601
360.3939, 3.346030
360.8760, 3.278051
361.3581, 3.389031
361.8402, 3.476006
362.3224, 3.473866
362.8045, 3.465321
363.2866, 3.563146
363.7687, 3.753211
364.2508, 3.890044
364.7329, 3.904679
365.2151, 3.834047
365.6972, 3.710391
366.1793, 3.518833
366.6614, 3.381954
367.1436, 3.452502
367.6257, 3.654851
368.1078, 3.752534
368.5899, 3.631917
369.0720, 3.465987
369.5541, 3.399267
370.0363, 3.418167
370.5184, 3.431259
371.0005, 3.387981
371.4826, 3.320652
371.9647, 3.295097
372.4468, 3.300054
372.9290, 3.364960
373.4111, 3.578639
373.8932, 3.846454
374.3753, 3.975188
374.8574, 3.903902
375.3395, 3.754857
375.8217, 3.682790
376.3038, 3.699658
376.7859, 3.684518
377.2680, 3.581732
377.7501, 3.472645
378.2322, 3.447963
378.7144, 3.501220
379.1965, 3.524281
379.6786, 3.412827
380.1607, 3.192353
380.6428, 3.141692
381.1249, 3.434716
381.6071, 3.679944
382.0892, 3.705182
382.5713, 3.589529
383.0534, 3.493762
383.5355, 3.489245
384.0176, 3.518875
384.4998, 3.452416
384.9819, 3.120785
385.4640, 2.977439
385.9461, 3.204237
386.4282, 3.516651
386.9103, 3.680740
387.3925, 3.659291
387.8746, 3.537888
388.3567, 3.393960
388.8388, 3.213725
389.3209, 3.115968
389.8030, 3.112888
390.2852, 3.163913
390.7673, 3.316514
391.2494, 3.507301
391.7315, 3.612560
392.2136, 3.554410
392.6957, 3.378854
393.1779, 3.263504
393.6600, 3.250059
394.1421, 3.242805
394.6242, 3.203219
395.1063, 3.181872
395.5884, 3.263357
396.0706, 3.452472
396.5527, 3.625443
397.0348, 3.585284
397.5169, 3.243212
397.9990, 3.043704
398.4811, 3.090306
398.9633, 3.191920
399.4454, 3.311688
399.9275, 3.426848
400.4096, 3.505931
400.8917, 3.522525
401.3738, 3.488154
401.8560, 3.446873
402.3381, 3.379433
402.8202, 3.343693
403.3023, 3.377719
403.7844, 3.438121
404.2665, 3.487495
404.7487, 3.516232
405.2308, 3.516402
405.7129, 3.464825
406.1950, 3.357267
406.6771, 3.271280
407.1592, 3.223912
407.6414, 3.200864
408.1235, 3.185669
408.6056, 3.181203
409.0877, 3.204138
409.5698, 3.293344
410.0519, 3.412395
410.5341, 3.464653
411.0162, 3.429394
411.4983, 3.398328
411.9804, 3.444219
412.4625, 3.527021
412.9446, 3.583045
413.4268, 3.607756
413.9089, 3.594491
414.3910, 3.506560
414.8731, 3.364751
415.3553, 3.278501
415.8374, 3.303562
416.3195, 3.363771
416.8016, 3.324849
417.2837, 3.177263
417.7658, 3.095967
418.2480, 3.188221
418.7301, 3.338604
419.2122, 3.415379
419.6943, 3.405411
420.1764, 3.359049
420.6585, 3.294755
421.1407, 3.224690
421.6228, 3.256138
422.1049, 3.508460
422.5870, 3.721835
423.0691, 3.771594
423.5512, 3.715432
424.0334, 3.655974
424.5155, 3.633589
424.9976, 3.633540
425.4797, 3.631519
425.9618, 3.648018
426.4439, 3.615590
426.9261, 3.471805
427.4082, 3.328843
427.8903, 3.258687
428.3724, 3.266640
428.8545, 3.330650
429.3366, 3.441575
429.8188, 3.595458
430.3009, 3.691027
430.7830, 3.693679
431.2651, 3.671101
431.7472, 3.587160
432.2293, 3.501328
432.7115, 3.498864
433.1936, 3.608674
433.6757, 3.758097
434.1578, 3.829336
434.6399, 3.808485
435.1220, 3.758286
435.6042, 3.655159
436.0863, 3.546310
436.5684, 3.430820
437.0505, 3.325383
437.5326, 3.273816
438.0147, 3.329090
438.4969, 3.455009
438.9790, 3.518898
439.4611, 3.498267
439.9432, 3.472013
440.4253, 3.492188
440.9074, 3.514961
441.3896, 3.479435
441.8717, 3.360863
442.3538, 3.253478
442.8359, 3.257667
443.3180, 3.354536
443.8001, 3.433128
444.2823, 3.474802
444.7644, 3.489229
445.2465, 3.474294
445.7286, 3.436823
446.2107, 3.407120
446.6928, 3.406629
447.1750, 3.408741
447.6571, 3.391302
448.1392, 3.353297
448.6213, 3.283449
449.1034, 3.154864
449.5855, 3.009516
450.0677, 2.972862
450.5498, 3.088460
451.0319, 3.197211
451.5140, 3.276202
451.9961, 3.318865
452.4782, 3.300062
452.9604, 3.220396
453.4425, 3.136680
453.9246, 3.112517
454.4067, 3.158331
454.8888, 3.151095
455.3709, 2.982076
455.8531, 2.886420
456.3352, 3.011639
456.8173, 3.255314
457.2994, 3.456326
457.7815, 3.539855
458.2636, 3.522952
458.7458, 3.426280
459.2279, 3.168998
459.7100, 3.003165
460.1921, 2.997486
460.6742, 3.020567
461.1563, 2.992832
461.6385, 2.920135
462.1206, 2.858344
462.6027, 2.855639
463.0848, 2.898365
463.5669, 2.911973
464.0491, 2.875481
464.5312, 2.852533
465.0133, 2.869786
465.4954, 2.907507
465.9775, 2.953354
466.4597, 3.006387
466.9418, 3.045775
467.4239, 3.037704
467.9060, 2.992160
468.3881, 2.981748
468.8702, 3.033237
469.3524, 3.089497
469.8345, 3.106322
470.3166, 3.090386
470.7987, 3.053752
471.2808, 2.961686
471.7629, 2.879571
472.2451, 2.867214
472.7272, 2.917897
473.2093, 3.015957
473.6914, 3.184778
474.1735, 3.343330
474.6556, 3.299967
475.1378, 2.975427
475.6199, 2.750673
476.1020, 2.713926
476.5841, 2.777695
477.0662, 2.908420
477.5483, 3.078405
478.0305, 3.206760
478.5126, 3.226040
478.9947, 3.149666
479.4768, 3.095428
479.9589, 3.058654
480.4410, 3.050175
480.9232, 3.100808
481.4053, 3.165276
481.8874, 3.208036
482.3695, 3.215932
482.8516, 3.178468
483.3337, 3.068420
483.8159, 2.871551
484.2980, 2.720760
484.7801, 2.570792
485.2622, 2.528239
485.7443, 2.723539
486.2264, 3.024988
486.7086, 3.226635
487.1907, 3.239197
487.6728, 3.132156
488.1549, 2.951622
488.6370, 2.684777
489.1191, 2.576353
489.6013, 2.776103
490.0834, 3.047062
490.5655, 3.197476
491.0476, 3.234122
491.5297, 3.199511
492.0118, 3.019356
492.4940, 2.828371
492.9761, 2.820011
493.4582, 2.990184
493.9403, 3.196905
494.4224, 3.408280
494.9045, 3.573580
495.3867, 3.533726
495.8688, 3.188130
496.3509, 2.927000
496.8330, 2.899541
497.3151, 2.966680
497.7972, 2.990286
498.2794, 2.951373
498.7615, 2.888764
499.2436, 2.829347
499.7257, 2.775504
500.2078, 2.768776
500.6899, 2.882180
501.1721, 2.954217
501.6542, 2.910253
502.1363, 2.836314
502.6184, 2.847132
503.1005, 2.963203
503.5826, 3.081347
504.0648, 3.058716
504.5469, 2.876625
505.0290, 2.738889
505.5111, 2.624918
505.9932, 2.587538
506.4753, 2.692410
506.9575, 2.869530
507.4396, 3.019438
507.9217, 3.115772
508.4038, 3.140438
508.8859, 3.030936
509.3680, 2.797128
509.8502, 2.618294
510.3323, 2.525666
510.8144, 2.510984
511.2965, 2.607637
511.7786, 2.790848
512.2607, 2.923891
512.7429, 2.944430
513.2250, 2.923907
513.7071, 2.916814
514.1892, 2.921728
514.6713, 2.929397
515.1534, 2.939603
515.6356, 2.938442
516.1177, 2.892310
516.5998, 2.749961
517.0819, 2.680349
517.5640, 2.760095
518.0461, 2.854683
518.5283, 2.860488
519.0104, 2.794563
519.4925, 2.743446
519.9746, 2.768207
520.4567, 2.839156
520.9388, 2.833420
521.4210, 2.646274
521.9031, 2.582711
522.3852, 2.784406
522.8673, 3.024841
523.3494, 3.146219
523.8315, 3.141977
524.3137, 3.097213
524.7958, 3.075186
525.2779, 3.063774
525.7600, 3.004611
526.2421, 2.871125
526.7242, 2.791790
527.2064, 2.875150
527.6885, 3.016931
528.1706, 3.090844
528.6527, 3.084622
529.1348, 3.029183
529.6169, 2.912091
530.0991, 2.765719
530.5812, 2.621620
531.0633, 2.485336
531.5454, 2.427360
532.0275, 2.528182
532.5096, 2.752418
532.9918, 2.849753
533.4739, 2.720548
533.9560, 2.613751
534.4381, 2.578148
534.9202, 2.591093
535.4023, 2.645751
535.8845, 2.730776
536.3666, 2.806535
536.8487, 2.831139
537.3308, 2.804828
537.8129, 2.776927
538.2951, 2.768350
538.7772, 2.728341
539.2593, 2.572507
539.7415, 2.418354
540.2236, 2.418161
540.7057, 2.606300
541.1878, 2.822740
541.6699, 2.893743
542.1520, 2.841989
542.6342, 2.827498
543.1163, 2.867701
543.5984, 2.929706
544.0805, 3.023929
544.5626, 3.118815
545.0447, 3.146802
545.5269, 3.065837
546.0090, 2.980145
546.4911, 2.952447
546.9732, 2.961516
547.4553, 2.970399
547.9374, 2.971195
548.4196, 2.963401
548.9017, 2.945240
549.3838, 2.916371
549.8659, 2.890548
550.3480, 2.842034
550.8301, 2.826060
551.3123, 2.909587
551.7944, 3.010955
552.2765, 3.004217
552.7586, 2.868330
553.2407, 2.727683
553.7228, 2.756879
554.2050, 2.971934
554.6871, 3.057114
555.1692, 2.934351
555.6513, 2.787090
556.1334, 2.621670
556.6155, 2.497432
557.0977, 2.514483
557.5798, 2.715454
558.0619, 2.933960
558.5440, 3.024555
559.0261, 3.008433
559.5082, 2.957346
559.9904, 2.874285
560.4725, 2.784463
560.9546, 2.691519
561.4367, 2.608326
561.9188, 2.583409
562.4009, 2.684074
562.8831, 2.759246
563.3652, 2.750906
563.8473, 2.684593
564.3294, 2.564525
564.8115, 2.404281
565.2936, 2.288261
565.7758, 2.307028
566.2579, 2.461170
566.7400, 2.607498
567.2221, 2.779285
567.7042, 2.899892
568.1863, 2.969440
568.6685, 2.974637
569.1506, 2.854939
569.6327, 2.617661
570.1148, 2.418689
570.5969, 2.458210
571.0790, 2.688433
571.5612, 2.796183
572.0433, 2.740209
572.5254, 2.669209
573.0075, 2.649645
573.4896, 2.665489
573.9717, 2.701401
574.4539, 2.770209
574.9360, 2.808592
575.4181, 2.758937
575.9002, 2.673774
576.3823, 2.626939
576.8644, 2.625298
577.3466, 2.641468
577.8287, 2.663887
578.3108, 2.682242
578.7929, 2.645276
579.2750, 2.388024
579.7571, 2.296185
580.2393, 2.541515
580.7214, 2.847028
581.2035, 3.003851
581.6856, 3.001268
582.1677, 2.941512
582.6498, 2.890816
583.1320, 2.851359
583.6141, 2.849406
584.0962, 2.920917
584.5783, 2.903349
585.0604, 2.660928
585.5425, 2.381896
586.0247, 2.207799
586.5068, 2.142443
586.9889, 2.159483
587.4710, 2.314914
587.9531, 2.502355
588.4352, 2.597164
588.9174, 2.607144
589.3995, 2.586198
589.8816, 2.547677
590.3637, 2.519420
590.8458, 2.557696
591.3279, 2.711117
591.8101, 2.789254
592.2922, 2.717531
592.7743, 2.645358
593.2564, 2.683616
593.7385, 2.775166
594.2206, 2.792349
594.7028, 2.676260
595.1849, 2.506557
595.6670, 2.411589
596.1491, 2.396412
596.6312, 2.423034
597.1133, 2.532346
597.5955, 2.626649
598.0776, 2.644306
598.5597, 2.613628
599.0418, 2.585414
599.5239, 2.566993
600.0060, 2.567645
600.4882, 2.599493
600.9703, 2.655470
601.4524, 2.728325
601.9345, 2.818171
602.4166, 2.887927
602.8987, 2.898835
603.3809, 2.855974
603.8630, 2.833959
604.3451, 2.875463
604.8272, 2.880074
605.3093, 2.796332
605.7914, 2.687476
606.2736, 2.608641
606.7557, 2.570649
607.2378, 2.557204
607.7199, 2.548554
608.2020, 2.555368
608.6841, 2.650733
609.1663, 2.891363
609.6484, 3.056114
610.1305, 3.025794
610.6126, 2.928675
611.0947, 2.873154
611.5768, 2.861740
612.0590, 2.837482
612.5411, 2.768842
613.0232, 2.679699
613.5053, 2.558115
613.9874, 2.428994
614.4695, 2.424177
614.9517, 2.618729
615.4338, 2.873779
615.9159, 2.954709
616.3980, 2.785675
616.8801, 2.699039
617.3622, 2.778974
617.8444, 2.841483
618.3265, 2.758300
618.8086, 2.621676
619.2907, 2.602834
619.7728, 2.761411
620.2549, 2.950577
620.7371, 2.960127
621.2192, 2.799191
621.7013, 2.709882
622.1834, 2.730071
622.6655, 2.762195
623.1476, 2.741983
623.6298, 2.700557
624.1119, 2.688137
624.5940, 2.712122
625.0761, 2.755455
625.5582, 2.865558
626.0403, 2.960647
626.5225, 2.884760
627.0046, 2.660247
627.4867, 2.512189
627.9688, 2.597856
628.4509, 2.832680
628.9330, 2.939071
629.4152, 2.842876
629.8973, 2.748689
630.3794, 2.644656
630.8615, 2.560243
631.3436, 2.513185
631.8257, 2.499158
632.3079, 2.503819
632.7900, 2.520031
633.2721, 2.552712
633.7542, 2.634602
634.2363, 2.753840
634.7184, 2.787280
635.2006, 2.689508
635.6827, 2.566095
636.1648, 2.498322
636.6469, 2.486297
637.1291, 2.504897
637.6112, 2.600835
638.0933, 2.670336
638.5754, 2.650678
639.0576, 2.602708
639.5397, 2.599037
640.0218, 2.646757
640.5039, 2.702124
640.9860, 2.727356
641.4681, 2.732860
641.9503, 2.777194
642.4324, 2.889560
642.9145, 2.967411
643.3966, 2.976840
643.8787, 2.952876
644.3608, 2.909693
644.8430, 2.851264
645.3251, 2.788566
645.8072, 2.695084
646.2893, 2.627248
646.7714, 2.656751
647.2535, 2.761061
647.7357, 2.885986
648.2178, 3.020250
648.6999, 3.105447
649.1820, 3.064081
649.6641, 2.888108
650.1462, 2.750402
650.6284, 2.634274
651.1105, 2.574372
651.5926, 2.614041
652.0747, 2.691731
652.5568, 2.755994
653.0389, 2.794688
653.5211, 2.812260
654.0032, 2.819970
654.4853, 2.805892
654.9674, 2.706553
655.4495, 2.507296
655.9316, 2.396607
656.4138, 2.474539
656.8959, 2.623200
657.3780, 2.695658
657.8601, 2.695559
658.3422, 2.674493
658.8243, 2.603873
659.3065, 2.550180
659.7886, 2.554626
660.2707, 2.599049
660.7528, 2.669192
661.2349, 2.753754
661.7170, 2.805691
662.1992, 2.751439
662.6813, 2.599650
663.1634, 2.569664
663.6455, 2.737058
664.1276, 2.877089
664.6097, 2.906624
665.0919, 2.884355
665.5740, 2.845114
666.0561, 2.794084
666.5382, 2.761554
667.0203, 2.776481
667.5024, 2.805100
667.9846, 2.816304
668.4667, 2.810302
668.9488, 2.780157
669.4309, 2.720297
669.9130, 2.679097
670.3951, 2.731679
670.8773, 2.898591
671.3594, 2.991690
671.8415, 2.952293
672.3236, 2.905908
672.8057, 2.859612
673.2878, 2.830329
673.7700, 2.849424
674.2521, 2.914774
674.7342, 2.965038
675.2163, 2.939286
675.6984, 2.871789
676.1805, 2.823624
676.6627, 2.795393
677.1448, 2.809737
677.6269, 2.891318
678.1090, 2.980580
678.5911, 2.987726
679.0732, 2.890947
679.5554, 2.834514
680.0375, 2.855187
680.5196, 2.872541
681.0017, 2.842821
681.4838, 2.799137
681.9659, 2.787102
682.4481, 2.815228
682.9302, 2.856358
683.4123, 2.905576
683.8944, 2.943759
684.3765, 2.859016
684.8586, 2.615013
685.3408, 2.474944
685.8229, 2.574224
686.3050, 2.764919
686.7871, 2.865332
687.2692, 2.879272
687.7513, 2.885749
688.2335, 2.935327
688.7156, 2.939232
689.1977, 2.752801
689.6798, 2.525861
690.1619, 2.533944
690.6440, 2.817437
691.1262, 3.120299
691.6083, 3.173279
692.0904, 3.019219
692.5725, 2.971660
693.0546, 3.073654
693.5367, 3.157188
694.0189, 3.178310
694.5010, 3.159870
694.9831, 3.109796
695.4652, 3.034163
695.9473, 2.975813
696.4294, 2.979978
696.9116, 2.972665
697.3937, 2.880045
697.8758, 2.746421
698.3579, 2.643110
698.8400, 2.590372
699.3221, 2.595734
699.8043, 2.677623
700.2864, 2.820312
700.7685, 2.904094
701.2506, 2.916596
701.7327, 2.896150
702.2148, 2.786905
702.6970, 2.698817
703.1791, 2.715818
703.6612, 2.820170
704.1433, 2.934068
704.6254, 3.063820
705.1075, 3.146249
705.5897, 3.084603
706.0718, 2.947083
706.5539, 2.875853
707.0360, 2.896885
707.5181, 2.962672
708.0002, 3.043580
708.4824, 3.127860
708.9645, 3.156581
709.4466, 3.116500
709.9287, 3.044886
710.4108, 2.911489
710.8929, 2.780035
711.3751, 2.676257
711.8572, 2.603449
712.3393, 2.566267
712.8214, 2.570648
713.3035, 2.598621
713.7856, 2.645653
714.2678, 2.702094
714.7499, 2.743906
715.2320, 2.768999
715.7141, 2.805174
716.1962, 2.875111
716.6783, 2.960172
717.1605, 3.005070
717.6426, 3.005074
718.1247, 2.972254
718.6068, 2.832478
719.0889, 2.738926
719.5710, 2.806977
720.0532, 2.954946
720.5353, 3.036736
721.0174, 3.003604
721.4995, 2.945593
721.9816, 2.951214
722.4637, 2.977217
722.9459, 2.915303
723.4280, 2.768722
723.9101, 2.660290
724.3922, 2.650559
724.8743, 2.711658
725.3564, 2.798996
725.8386, 2.937104
726.3207, 3.013165
726.8028, 2.954316
727.2849, 2.920281
727.7670, 3.034642
728.2491, 3.161870
728.7313, 3.096358
729.2134, 2.812820
729.6955, 2.568952
730.1776, 2.568771
730.6597, 2.706203
731.1418, 2.849122
731.6240, 2.985483
732.1061, 3.053153
732.5882, 3.022423
733.0703, 2.978103
733.5524, 3.038011
734.0345, 3.211734
734.5167, 3.257447
734.9988, 3.006510
735.4809, 2.846812
735.9631, 2.939170
736.4452, 3.067407
736.9273, 3.005627
737.4094, 2.789284
737.8915, 2.676348
738.3737, 2.864015
738.8558, 3.126464
739.3379, 3.233137
739.8200, 3.207706
740.3021, 3.081027
740.7842, 2.861336
741.2664, 2.725920
741.7485, 2.846882
742.2306, 3.144462
742.7127, 3.215138
743.1948, 2.834358
743.6769, 2.636830
744.1591, 2.802938
744.6412, 3.004825
745.1233, 3.083469
745.6054, 3.067952
746.0875, 3.037703
746.5696, 3.017165
747.0518, 2.987259
747.5339, 2.901930
748.0160, 2.811341
748.4981, 2.836007
748.9802, 2.960557
749.4623, 3.013831
749.9445, 2.900494
750.4266, 2.716415
750.9087, 2.638026
751.3908, 2.683460
751.8729, 2.750542
752.3550, 2.874152
752.8372, 2.973565
753.3193, 3.035131
753.8014, 3.054617
754.2835, 3.000239
754.7656, 2.873008
755.2477, 2.797863
755.7299, 2.881266
756.2120, 3.001986
756.6941, 3.058979
757.1762, 3.059027
757.6583, 3.006844
758.1404, 2.909240
758.6226, 2.829180
759.1047, 2.832648
759.5868, 2.906866
760.0689, 2.963894
760.5510, 2.993118
761.0331, 3.033901
761.5153, 3.121581
761.9974, 3.194216
762.4795, 3.215021
762.9616, 3.186115
763.4437, 3.108188
763.9258, 2.925201
764.4080, 2.793425
764.8901, 2.828753
765.3722, 2.929664
765.8543, 2.985018
766.3364, 2.991225
766.8185, 2.994143
767.3007, 3.018959
767.7828, 3.049341
768.2649, 3.055834
768.7470, 3.037635
769.2291, 3.016808
769.7112, 2.996316
770.1934, 2.965412
770.6755, 2.901697
771.1576, 2.835824
771.6397, 2.817408
772.1218, 2.847439
772.6039, 2.908572
773.0861, 3.023680
773.5682, 3.141641
774.0503, 3.261090
774.5324, 3.354852
775.0145, 3.383597
775.4966, 3.342225
775.9788, 3.255705
776.4609, 3.119950
776.9430, 2.977155
777.4251, 2.950967
777.9072, 3.037706
778.3893, 3.073974
778.8715, 3.009280
779.3536, 2.936215
779.8357, 2.938789
780.3178, 3.004307
780.7999, 3.045745
781.2820, 3.030238
781.7642, 3.038872
782.2463, 3.113489
782.7284, 3.177844
783.2105, 3.174529
783.6926, 3.125736
784.1747, 3.091762
784.6569, 3.098330
785.1390, 3.076028
785.6211, 2.897191
786.1032, 2.671428
786.5853, 2.655368
787.0674, 2.829106
787.5496, 2.937016
788.0317, 2.863114
788.5138, 2.720029
788.9959, 2.668279
789.4780, 2.714964
789.9601, 2.752166
790.4423, 2.773714
790.9244, 2.795676
791.4065, 2.791545
791.8886, 2.812835
792.3707, 2.947262
792.8528, 3.161865
793.3350, 3.271469
793.8171, 3.145391
794.2992, 2.994105
794.7813, 2.936518
795.2634, 2.938887
795.7455, 2.960724
796.2277, 2.994362
796.7098, 3.048938
797.1919, 3.133710
797.6740, 3.217258
798.1561, 3.232262
798.6382, 3.176003
799.1204, 3.119202
799.6025, 3.055920
800.0846, 3.022520
800.5667, 3.058618
801.0488, 3.120006
801.5309, 3.117251
802.0131, 3.036849
802.4952, 2.989289
802.9773, 3.016532
803.4594, 3.041126
803.9415, 2.991273
804.4236, 2.942408
804.9058, 3.018292
805.3879, 3.210135
805.8700, 3.361075
806.3521, 3.355116
806.8342, 3.266810
807.3163, 3.185488
807.7985, 3.117878
808.2806, 3.094936
808.7627, 3.122495
809.2448, 3.186520
809.7269, 3.288646
810.2090, 3.402135
810.6912, 3.441931
811.1733, 3.377249
811.6554, 3.312410
812.1375, 3.235693
812.6196, 3.172986
813.1017, 3.121529
813.5839, 3.095699
814.0660, 3.133788
814.5481, 3.243772
815.0302, 3.312069
815.5123, 3.243185
815.9944, 3.158857
816.4766, 3.169555
816.9587, 3.231059
817.4408, 3.251469
817.9229, 3.216074
818.4050, 3.188261
818.8871, 3.099861
819.3693, 3.260823
819.8514, 3.352803
820.3335, 3.379508
820.8156, 3.145433
821.2977, 3.248102
821.7798, 3.215818
822.2620, 3.178002
822.7441, 3.328066
823.2262, 3.131921
823.7083, 3.279005
824.1904, 3.289078
824.6725, 3.361857
825.1547, 3.298853
825.6368, 3.277787
826.1189, 3.392550
826.6010, 3.432104
827.0831, 3.353468
827.5652, 3.430233
828.0474, 3.229346
828.5295, 3.272102
829.0116, 3.419981
829.4937, 3.348172
829.9758, 3.427421
830.4579, 3.449138
830.9401, 3.209402
831.4222, 3.424360
831.9043, 3.442677
832.3864, 3.259088
832.8685, 3.458466
833.3506, 3.302711
833.8328, 3.273719
834.3149, 3.340120
834.7971, 3.307077
835.2792, 3.430820
835.7613, 3.403519
836.2434, 3.362722
836.7255, 3.380819
837.2076, 3.232028
837.6898, 3.392848
838.1719, 3.342177
838.6540, 3.396634
839.1361, 3.354884
839.6182, 3.248200
840.1003, 3.165176
840.5825, 3.203080
841.0646, 3.264750
841.5467, 3.167384
842.0288, 2.983998
842.5109, 2.975927
842.9930, 3.171377
843.4752, 3.384044
843.9573, 3.503265
844.4394, 3.555737
844.9215, 3.595771
845.4036, 3.628241
845.8857, 3.620931
846.3679, 3.548908
846.8500, 3.480628
847.3321, 3.419122
847.8142, 3.389536
848.2963, 3.457918
848.7784, 3.613731
849.2606, 3.656304
849.7427, 3.398840
850.2248, 3.207050
850.7069, 3.254665
851.1890, 3.415552
851.6711, 3.622636
852.1533, 3.821236
852.6354, 3.902712
853.1175, 3.803992
853.5996, 3.649930
854.0817, 3.555999
854.5638, 3.523016
855.0460, 3.585435
855.5281, 3.731160
856.0102, 3.831486
856.4923, 3.834596
856.9744, 3.776454
857.4565, 3.695903
857.9387, 3.594287
858.4208, 3.518361
858.9029, 3.474073
859.3850, 3.442064
859.8671, 3.432430
860.3492, 3.419169
860.8314, 3.341268
861.3135, 3.246801
861.7956, 3.287811
862.2777, 3.586435
862.7598, 3.767199
863.2419, 3.650709
863.7241, 3.466563
864.2062, 3.340646
864.6883, 3.267650
865.1704, 3.214210
865.6525, 3.172412
866.1346, 3.161531
866.6168, 3.233102
867.0989, 3.315456
867.5810, 3.273119
868.0631, 3.143321
868.5452, 3.048352
869.0273, 3.013204
869.5095, 3.026023
869.9916, 3.086450
870.4737, 3.162084
870.9558, 3.157847
871.4379, 3.051754
871.9200, 2.994853
872.4022, 3.016640
872.8843, 3.030264
873.3664, 2.962449
873.8485, 2.892781
874.3306, 2.988872
874.8127, 3.263952
875.2949, 3.352370
875.7770, 3.041608
876.2591, 2.786488
876.7412, 2.753764
877.2233, 2.801400
877.7054, 2.828432
878.1876, 2.821525
878.6697, 2.782697
879.1518, 2.702979
879.6339, 2.636895
880.1160, 2.640260
880.5981, 2.675893
881.0803, 2.679320
881.5624, 2.666639
882.0445, 2.724188
882.5266, 2.874179
883.0087, 3.001219
883.4908, 2.978881
883.9730, 2.839785
884.4551, 2.677799
884.9372, 2.483582
885.4193, 2.475163
885.9014, 2.754126
886.3835, 2.996381
886.8657, 2.948815
887.3478, 2.724020
887.8299, 2.636960
888.3120, 2.767742
888.7941, 2.822605
889.2762, 2.738169
889.7584, 2.655585
890.2405, 2.609792
890.7226, 2.590652
891.2047, 2.606895
891.6868, 2.647754
892.1689, 2.639878
892.6511, 2.503491
893.1332, 2.388250
893.6153, 2.401420
894.0974, 2.450703
894.5795, 2.417779
895.0616, 2.331325
895.5438, 2.302046
896.0259, 2.375388
896.5080, 2.491515
896.9901, 2.657087
897.4722, 2.792549
897.9543, 2.636596
898.4365, 2.250231
898.9186, 1.982211
899.4007, 1.930834
899.8828, 2.035729
900.3649, 2.272653
900.8470, 2.576515
901.3292, 2.699352
901.8113, 2.599652
902.2934, 2.521067
902.7755, 2.484074
903.2576, 2.463439
903.7397, 2.454622
904.2219, 2.449136
904.7040, 2.436206
905.1861, 2.417609
905.6682, 2.377108
906.1503, 2.240498
906.6324, 2.179836
907.1146, 2.302310
907.5967, 2.460828
908.0788, 2.563311
908.5609, 2.596653
909.0430, 2.542443
909.5251, 2.363615
910.0073, 2.223952
910.4894, 2.241230
910.9715, 2.324256
911.4536, 2.407841
911.9357, 2.477112
912.4178, 2.518317
912.9000, 2.527555
913.3821, 2.504414
913.8642, 2.440156
914.3463, 2.357570
914.8284, 2.275415
915.3105, 2.209303
915.7927, 2.263435
916.2748, 2.446024
916.7569, 2.576867
917.2390, 2.552641
917.7211, 2.447479
918.2032, 2.378415
918.6854, 2.346263
919.1675, 2.344222
919.6496, 2.386210
920.1317, 2.414404
920.6138, 2.406752
921.0959, 2.390933
921.5781, 2.379120
922.0602, 2.378265
922.5423, 2.424421
923.0244, 2.544296
923.5065, 2.659629
923.9886, 2.842948
924.4708, 2.935597
924.9529, 2.815753
925.4350, 2.595498
925.9171, 2.369106
926.3992, 2.166634
926.8813, 2.102816
927.3635, 2.374058
927.8456, 2.615199
928.3277, 2.534640
928.8098, 2.373008
929.2919, 2.449242
929.7740, 2.687923
930.2562, 2.784937
930.7383, 2.616584
931.2204, 2.407416
931.7025, 2.392673
932.1846, 2.479752
932.6667, 2.517826
933.1489, 2.504965
933.6310, 2.415175
934.1132, 2.252944
934.5953, 2.139917
935.0774, 2.171767
935.5595, 2.293310
936.0416, 2.384676
936.5237, 2.446013
937.0059, 2.483428
937.4880, 2.495737
937.9701, 2.499002
938.4522, 2.514803
938.9343, 2.483243
939.4164, 2.308074
939.8986, 2.004010
940.3807, 1.829269
940.8628, 1.803190
941.3449, 1.872900
941.8270, 2.133904
942.3091, 2.372636
942.7913, 2.479850
943.2734, 2.492169
943.7555, 2.456465
944.2376, 2.369657
944.7197, 2.283815
945.2018, 2.149064
945.6840, 2.090258
946.1661, 2.242391
946.6482, 2.420563
947.1303, 2.425660
947.6124, 2.306806
948.0945, 2.258072
948.5767, 2.355504
949.0588, 2.473636
949.5409, 2.558188
950.0230, 2.606128
950.5051, 2.601181
950.9872, 2.562838
951.4694, 2.531376
951.9515, 2.510472
952.4336, 2.460634
952.9157, 2.339859
953.3978, 2.219769
953.8799, 2.215139
954.3621, 2.291070
954.8442, 2.364567
955.3263, 2.425850
955.8084, 2.469496
956.2905, 2.493365
956.7726, 2.498215
957.2548, 2.481017
957.7369, 2.448586
958.2190, 2.438919
958.7011, 2.454905
959.1832, 2.424680
959.6653, 2.327748
960.1475, 2.225764
960.6296, 2.138221
961.1117, 2.100189
961.5938, 2.196989
962.0759, 2.457599
962.5580, 2.564108
963.0402, 2.426827
963.5223, 2.322224
964.0044, 2.307251
964.4865, 2.345141
964.9686, 2.458941
965.4507, 2.599567
965.9329, 2.606158
966.4150, 2.412833
966.8971, 2.264381
967.3792, 2.177822
967.8613, 2.137625
968.3434, 2.148089
968.8256, 2.194377
969.3077, 2.273339
969.7898, 2.376732
970.2719, 2.479912
970.7540, 2.602980
971.2361, 2.667143
971.7183, 2.605085
972.2004, 2.505512
972.6825, 2.416982
973.1646, 2.349038
973.6467, 2.315834
974.1288, 2.314001
974.6110, 2.304518
975.0931, 2.256368
975.5752, 2.205337
976.0573, 2.179207
976.5394, 2.174474
977.0215, 2.197086
977.5037, 2.235744
977.9858, 2.251474
978.4679, 2.233138
978.9500, 2.229072
979.4321, 2.302320
979.9142, 2.405822
980.3964, 2.457191
980.8785, 2.456619
981.3606, 2.374587
981.8427, 2.220790
982.3248, 2.119643
982.8069, 2.138494
983.2891, 2.230433
983.7712, 2.362070
984.2533, 2.509000
984.7354, 2.431571
985.2175, 2.117520
985.6996, 2.068797
986.1818, 2.440184
986.6639, 2.768676
987.1460, 2.714127
987.6281, 2.432029
988.1102, 2.277072
988.5923, 2.274240
989.0745, 2.181541
989.5566, 1.908475
990.0387, 1.836696
990.5208, 2.196392
991.0029, 2.567142
991.4850, 2.537857
991.9672, 2.231216
992.4493, 2.132564
992.9314, 2.395005
993.4135, 2.496499
993.8956, 2.288457
994.3777, 2.118819
994.8599, 2.135379
995.3420, 2.207298
995.8241, 2.215423
996.3062, 2.168829
996.7883, 2.129819
997.2704, 2.059728
997.7526, 2.075372
998.2347, 2.307127
998.7168, 2.498901
999.1989, 2.487541
999.6810, 2.387151
1000.163, 2.342023
1000.645, 2.358914
1001.127, 2.357143
1001.609, 2.289548
1002.092, 2.236470
1002.574, 2.224382
1003.056, 2.244388
1003.538, 2.300773
1004.020, 2.379710
1004.502, 2.482541
1004.984, 2.597640
1005.466, 2.643731
1005.949, 2.538381
1006.431, 2.405478
1006.913, 2.315122
1007.395, 2.262552
1007.877, 2.274146
1008.359, 2.312788
1008.841, 2.273356
1009.323, 2.135384
1009.805, 2.040583
1010.288, 2.128383
1010.770, 2.281335
1011.252, 2.362562
1011.734, 2.403595
1012.216, 2.475300
1012.698, 2.565584
1013.180, 2.592474
1013.662, 2.525056
1014.145, 2.442763
1014.627, 2.427779
1015.109, 2.451821
1015.591, 2.457885
1016.073, 2.454533
1016.555, 2.459404
1017.037, 2.346784
1017.519, 2.504217
1018.001, 2.592668
1018.484, 2.615845
1018.966, 2.378241
1019.448, 2.477381
1019.930, 2.441570
1020.412, 2.400224
1020.894, 2.546759
1021.376, 2.347086
1021.858, 2.490641
1022.341, 2.497186
1022.823, 2.566437
1023.305, 2.499903
1023.787, 2.475309
1024.269, 2.586544
1024.751, 2.622569
1025.233, 2.540404
1025.715, 2.613641
1026.198, 2.409224
1026.680, 2.448453
1027.162, 2.592803
1027.644, 2.517466
1028.126, 2.593185
1028.608, 2.611374
1029.090, 2.368109
1029.572, 2.579539
1030.054, 2.594327
1030.536, 2.407210
1031.019, 2.484403
1031.501, 2.535581
1031.983, 2.534930
1032.465, 2.469665
1032.947, 2.459640
1033.429, 2.542066
1033.911, 2.575795
1034.393, 2.488051
1034.876, 2.422623
1035.358, 2.505894
1035.840, 2.668287
1036.322, 2.748910
1036.804, 2.746322
1037.286, 2.661713
1037.768, 2.395632
1038.250, 2.228574
1038.733, 2.264701
1039.215, 2.363694
1039.697, 2.438285
1040.179, 2.497746
1040.661, 2.569696
1041.143, 2.670452
1041.625, 2.723809
1042.107, 2.691345
1042.589, 2.664287
1043.072, 2.697524
1043.554, 2.706540
1044.036, 2.586683
1044.518, 2.407176
1045.000, 2.352297
1045.482, 2.480864
1045.964, 2.519126
1046.446, 2.334047
1046.928, 2.211907
1047.411, 2.260933
1047.893, 2.364450
1048.375, 2.456610
1048.857, 2.531799
1049.339, 2.594613
1049.821, 2.657539
1050.303, 2.646423
1050.785, 2.443035
1051.268, 2.305140
1051.750, 2.385265
1052.232, 2.497682
1052.714, 2.451021
1053.196, 2.332337
1053.678, 2.383309
1054.160, 2.679946
1054.642, 2.854289
1055.125, 2.716154
1055.607, 2.578727
1056.089, 2.575486
1056.571, 2.602612
1057.053, 2.556001
1057.535, 2.475865
1058.017, 2.467569
1058.499, 2.556880
1058.981, 2.636609
1059.464, 2.692502
1059.946, 2.708809
1060.428, 2.625592
1060.910, 2.548340
1061.392, 2.569113
1061.874, 2.663387
1062.356, 2.803743
1062.838, 2.991049
1063.320, 3.032522
1063.803, 2.705976
1064.285, 2.418259
1064.767, 2.352921
1065.249, 2.400295
1065.731, 2.531109
1066.213, 2.677459
1066.695, 2.715940
1067.177, 2.624735
1067.660, 2.557992
1068.142, 2.582606
1068.624, 2.637505
1069.106, 2.744508
1069.588, 2.823215
1070.070, 2.783915
1070.552, 2.675680
1071.034, 2.588212
1071.516, 2.539365
1071.999, 2.504134
1072.481, 2.439322
1072.963, 2.429418
1073.445, 2.597159
1073.927, 2.756078
1074.409, 2.736220
1074.891, 2.606276
1075.373, 2.451802
1075.855, 2.308625
1076.338, 2.299032
1076.820, 2.589190
1077.302, 2.828488
1077.784, 2.813163
1078.266, 2.715492
1078.748, 2.631157
1079.230, 2.575268
1079.712, 2.561372
1080.195, 2.585068
1080.677, 2.615611
1081.159, 2.653571
1081.641, 2.670153
1082.123, 2.626537
1082.605, 2.582616
1083.087, 2.560853
1083.569, 2.578926
1084.052, 2.696129
1084.534, 2.880738
1085.016, 2.974696
1085.498, 2.906186
1085.980, 2.797675
1086.462, 2.668038
1086.944, 2.554283
1087.426, 2.474701
1087.908, 2.428470
1088.391, 2.417416
1088.873, 2.437299
1089.355, 2.482321
1089.837, 2.561030
1090.319, 2.619645
1090.801, 2.606137
1091.283, 2.603222
1091.765, 2.729325
1092.248, 2.831330
1092.730, 2.669687
1093.212, 2.362237
1093.694, 2.273616
1094.176, 2.522024
1094.658, 2.705101
1095.140, 2.628406
1095.622, 2.522346
1096.104, 2.468016
1096.587, 2.449143
1097.069, 2.483139
1097.551, 2.527907
1098.033, 2.473614
1098.515, 2.294620
1098.997, 2.230464
1099.479, 2.450238
1099.961, 2.658192
1100.443, 2.765471
1100.926, 2.816226
1101.408, 2.821994
1101.890, 2.802084
1102.372, 2.773563
1102.854, 2.740558
1103.336, 2.731342
1103.818, 2.776601
1104.300, 2.810310
1104.783, 2.819775
1105.265, 2.812323
1105.747, 2.765820
1106.229, 2.721673
1106.711, 2.735333
1107.193, 2.802867
1107.675, 2.874504
1108.157, 2.992803
1108.640, 3.020686
1109.122, 2.896719
1109.604, 2.734299
1110.086, 2.500424
1110.568, 2.310489
1111.050, 2.299130
1111.532, 2.426656
1112.014, 2.537565
1112.496, 2.640033
1112.979, 2.684285
1113.461, 2.624541
1113.943, 2.565830
1114.425, 2.524695
1114.907, 2.500966
1115.389, 2.491286
1115.871, 2.500535
1116.353, 2.553551
1116.835, 2.673202
1117.318, 2.695693
1117.800, 2.516334
1118.282, 2.438939
1118.764, 2.603238
1119.246, 2.729884
1119.728, 2.619180
1120.210, 2.426340
1120.692, 2.400667
1121.175, 2.537373
1121.657, 2.579072
1122.139, 2.429001
1122.621, 2.481130
1123.103, 2.908921
1123.585, 3.180769
1124.067, 3.008477
1124.549, 2.708719
1125.031, 2.630275
1125.514, 2.726459
1125.996, 2.789807
1126.478, 2.831111
1126.960, 2.758755
1127.442, 2.529269
1127.924, 2.371526
1128.406, 2.352651
1128.888, 2.450273
1129.370, 2.688052
1129.853, 2.935211
1130.335, 2.826138
1130.817, 2.362016
1131.299, 2.266619
1131.781, 2.563799
1132.263, 2.659062
1132.745, 2.418112
1133.227, 2.247640
1133.710, 2.390397
1134.192, 2.661989
1134.674, 2.815365
1135.156, 2.860357
1135.638, 2.804167
1136.120, 2.666021
1136.602, 2.584929
1137.084, 2.578834
1137.567, 2.673403
1138.049, 2.874884
1138.531, 3.042080
1139.013, 3.037013
1139.495, 2.920183
1139.977, 2.763885
1140.459, 2.604988
1140.941, 2.544560
1141.423, 2.580306
1141.906, 2.715523
1142.388, 2.924544
1142.870, 3.057678
1143.352, 3.018289
1143.834, 2.891538
1144.316, 2.714947
1144.798, 2.562966
1145.280, 2.599762
1145.762, 2.726708
1146.245, 2.698593
1146.727, 2.553622
1147.209, 2.578501
1147.691, 2.882269
1148.173, 3.153609
1148.655, 3.133060
1149.137, 3.007374
1149.619, 2.896968
1150.102, 2.806435
1150.584, 2.724606
1151.066, 2.673745
1151.548, 2.714804
1152.030, 2.845354
1152.512, 2.959018
1152.994, 3.035951
1153.476, 3.031502
1153.958, 2.818736
1154.441, 2.632905
1154.923, 2.713829
1155.405, 2.853835
1155.887, 2.745332
1156.369, 2.456258
1156.851, 2.325910
1157.333, 2.448321
1157.815, 2.610537
1158.297, 2.875089
1158.780, 3.025500
1159.262, 2.881455
1159.744, 2.710846
1160.226, 2.694572
1160.708, 2.789583
1161.190, 2.952035
1161.672, 3.195160
1162.154, 3.225554
1162.637, 2.831886
1163.119, 2.627635
1163.601, 2.748312
1164.083, 2.904009
1164.565, 2.999988
1165.047, 3.048330
1165.529, 3.059942
1166.011, 3.035702
1166.494, 2.966392
1166.976, 2.823718
1167.458, 2.789829
1167.940, 2.890828
1168.422, 2.971818
1168.904, 2.995092
1169.386, 2.998202
1169.868, 3.008704
1170.350, 3.001003
1170.833, 2.927471
1171.315, 2.799287
1171.797, 2.662011
1172.279, 2.523593
1172.761, 2.484508
1173.243, 2.549338
1173.725, 2.628796
1174.207, 2.687376
1174.689, 2.716448
1175.172, 2.696017
1175.654, 2.678898
1176.136, 2.791444
1176.618, 2.960567
1177.100, 3.014014
1177.582, 2.975589
1178.064, 2.933276
1178.546, 2.903621
1179.029, 2.856601
1179.511, 2.775592
1179.993, 2.703545
1180.475, 2.654873
1180.957, 2.655414
1181.439, 2.758450
1181.921, 2.904439
1182.403, 3.038726
1182.885, 3.146220
1183.368, 3.220926
1183.850, 3.258684
1184.332, 3.238948
1184.814, 3.135774
1185.296, 3.005984
1185.778, 2.810970
1186.260, 2.667514
1186.742, 2.673791
1187.225, 2.747436
1187.707, 2.819254
1188.189, 2.876471
1188.671, 2.893905
1189.153, 2.848180
1189.635, 2.845605
1190.117, 2.960686
1190.599, 3.014426
1191.082, 2.928441
1191.564, 2.849282
1192.046, 2.858742
1192.528, 2.913178
1193.010, 2.950038
1193.492, 2.976331
1193.974, 3.067732
1194.456, 3.259267
1194.938, 3.317664
1195.421, 3.208732
1195.903, 3.095491
1196.385, 3.021570
1196.867, 2.995976
1197.349, 3.032780
1197.831, 3.089465
1198.313, 3.074787
1198.795, 3.013855
1199.277, 3.052120
1199.760, 3.161007
1200.242, 3.187856
1200.724, 3.121159
1201.206, 3.012803
1201.688, 2.889228
1202.170, 2.806869
1202.652, 2.815460
1203.134, 2.880502
1203.617, 2.991929
1204.099, 3.106465
1204.581, 3.165149
1205.063, 3.177056
1205.545, 3.147071
1206.027, 3.094686
1206.509, 3.072318
1206.991, 3.100400
1207.474, 3.139133
1207.956, 3.192768
1208.438, 3.218337
1208.920, 3.189340
1209.402, 3.127632
1209.884, 3.010752
1210.366, 2.895490
1210.848, 2.854293
1211.330, 2.893891
1211.813, 3.019253
1212.295, 3.381313
1212.777, 3.519514
1213.259, 3.255714
1213.741, 3.044268
1214.223, 3.013871
1214.705, 3.044646
1215.187, 3.066087
1215.669, 3.082182
1216.152, 3.102506
1216.634, 3.125416
1217.116, 3.110596
1217.598, 3.050438
1218.080, 3.068887
1218.562, 3.185054
1219.044, 3.210221
1219.526, 3.075366
1220.009, 2.943494
1220.491, 2.945716
1220.973, 3.033609
1221.455, 3.163817
1221.937, 3.296628
1222.419, 3.291411
1222.901, 3.212663
1223.383, 3.289789
1223.865, 3.476268
1224.348, 3.444277
1224.830, 3.106122
1225.312, 2.863403
1225.794, 3.053491
1226.276, 3.307850
1226.758, 3.366976
1227.240, 3.342970
1227.722, 3.279741
1228.204, 3.232399
1228.687, 3.291020
1229.169, 3.420550
1229.651, 3.485744
1230.133, 3.450669
1230.615, 3.415516
1231.097, 3.389312
1231.579, 3.377390
1232.061, 3.420664
1232.544, 3.425442
1233.026, 3.316896
1233.508, 3.188947
1233.990, 3.162299
1234.472, 3.198428
1234.954, 3.106475
1235.436, 2.833886
1235.918, 2.839358
1236.401, 3.158590
1236.883, 3.362489
1237.365, 3.358969
1237.847, 3.324954
1238.329, 3.353639
1238.811, 3.385720
1239.293, 3.349409
1239.775, 3.276154
1240.257, 3.210995
1240.740, 3.169044
1241.222, 3.191693
1241.704, 3.267051
1242.186, 3.388030
1242.668, 3.525265
1243.150, 3.567849
1243.632, 3.459911
1244.114, 3.362545
1244.596, 3.418412
1245.079, 3.473953
1245.561, 3.402871
1246.043, 3.318692
1246.525, 3.345352
1247.007, 3.407935
1247.489, 3.380177
1247.971, 3.266000
1248.453, 3.162341
1248.936, 3.039445
1249.418, 3.033440
1249.900, 3.227226
1250.382, 3.375365
1250.864, 3.405767
1251.346, 3.438315
1251.828, 3.561098
1252.310, 3.667908
1252.792, 3.602486
1253.275, 3.417765
1253.757, 3.342189
1254.239, 3.364636
1254.721, 3.335160
1255.203, 3.257042
1255.685, 3.217002
1256.167, 3.233242
1256.649, 3.283715
1257.131, 3.357524
1257.614, 3.424373
1258.096, 3.454008
1258.578, 3.461998
1259.060, 3.466527
1259.542, 3.460267
1260.024, 3.424031
1260.506, 3.375559
1260.988, 3.340389
1261.471, 3.323960
1261.953, 3.330440
1262.435, 3.368931
1262.917, 3.392474
1263.399, 3.339541
1263.881, 3.342210
1264.363, 3.516031
1264.845, 3.655480
1265.328, 3.640413
1265.810, 3.556610
1266.292, 3.478351
1266.774, 3.425302
1267.256, 3.504886
1267.738, 3.744675
1268.220, 3.809993
1268.702, 3.695488
1269.184, 3.563458
1269.667, 3.444746
1270.149, 3.345183
1270.631, 3.267323
1271.113, 3.232903
1271.595, 3.275384
1272.077, 3.339107
1272.559, 3.301411
1273.041, 3.261949
1273.523, 3.450533
1274.006, 3.705643
1274.488, 3.698491
1274.970, 3.480975
1275.452, 3.344501
1275.934, 3.367557
1276.416, 3.376433
1276.898, 3.236686
1277.380, 3.180496
1277.863, 3.350505
1278.345, 3.518072
1278.827, 3.556059
1279.309, 3.565120
1279.791, 3.623150
1280.273, 3.714876
1280.755, 3.819658
1281.237, 3.935994
1281.719, 3.917976
1282.202, 3.754102
1282.684, 3.611124
1283.166, 3.505504
1283.648, 3.475532
1284.130, 3.530301
1284.612, 3.585459
1285.094, 3.581065
1285.576, 3.569222
1286.059, 3.640296
1286.541, 3.721483
1287.023, 3.731932
1287.505, 3.670961
##END=



