##NAMES=Corundum
##RRUFFID=R100131
##IDEAL CHEMISTRY=Al_2_O_3_
##LOCALITY=Madagascar
##OWNER=RRUFF
##SOURCE=William W. Pinch
##DESCRIPTION=Pale blue cut gemstone
##STATUS=The identification of this mineral has been confirmed by single-crystal X-ray diffraction.
##URL=rruff.info/R100131
91.03516, 29.02389
91.51727, 29.92267
91.99939, 29.08206
92.48151, 27.08045
92.96362, 25.55740
93.44574, 25.65927
93.92786, 26.79435
94.40997, 27.83379
94.89210, 28.78562
95.37421, 29.37978
95.85633, 28.86574
96.33845, 27.30331
96.82056, 25.98368
97.30268, 26.12344
97.78480, 27.52561
98.26691, 28.08520
98.74903, 27.30747
99.23115, 25.70699
99.71326, 24.82239
100.1954, 24.82075
100.6775, 24.92612
101.1596, 24.34989
101.6417, 22.83520
102.1239, 21.95635
102.6060, 22.17785
103.0881, 23.41808
103.5702, 24.21732
104.0523, 24.41573
104.5344, 24.37713
105.0166, 24.58413
105.4987, 25.57024
105.9808, 25.81853
106.4629, 24.70173
106.9450, 21.68525
107.4271, 19.69707
107.9093, 19.03851
108.3914, 19.29031
108.8735, 19.82900
109.3556, 21.00839
109.8377, 22.13957
110.3198, 23.11384
110.8020, 24.20722
111.2841, 24.60003
111.7662, 23.86443
112.2483, 22.40449
112.7304, 21.11794
113.2125, 20.06196
113.6947, 19.22553
114.1768, 18.61542
114.6589, 18.25457
115.1410, 18.06811
115.6231, 18.13260
116.1052, 18.38671
116.5874, 18.59969
117.0695, 18.44860
117.5516, 18.34584
118.0337, 18.61070
118.5158, 20.23957
118.9980, 21.44843
119.4801, 21.12910
119.9622, 19.40586
120.4443, 17.74489
120.9264, 17.04896
121.4085, 16.86144
121.8907, 16.61884
122.3728, 15.73572
122.8549, 14.93833
123.3370, 15.04818
123.8191, 16.12772
124.3012, 17.10276
124.7834, 17.06992
125.2655, 16.28897
125.7476, 15.31219
126.2297, 13.97873
126.7118, 12.74459
127.1939, 12.52656
127.6761, 13.56697
128.1582, 14.69205
128.6403, 14.20518
129.1224, 12.44448
129.6045, 11.04123
130.0867, 11.19923
130.5688, 12.49119
131.0509, 13.53893
131.5330, 14.23103
132.0151, 14.63035
132.4972, 14.69475
132.9794, 14.42340
133.4615, 14.27155
133.9436, 14.70680
134.4257, 15.67101
134.9078, 16.27330
135.3899, 16.27942
135.8721, 15.94280
136.3542, 15.99684
136.8363, 16.49226
137.3184, 17.15612
137.8005, 17.96491
138.2826, 19.04045
138.7648, 19.27509
139.2469, 17.98844
139.7290, 15.56729
140.2111, 15.22127
140.6932, 17.68400
141.1753, 20.85180
141.6575, 22.58755
142.1396, 22.27308
142.6217, 22.28186
143.1038, 23.30162
143.5859, 25.42895
144.0681, 26.66014
144.5502, 26.50163
145.0323, 25.89670
145.5144, 25.83254
145.9965, 25.91529
146.4786, 27.19508
146.9608, 30.30583
147.4429, 36.04107
147.9250, 40.39406
148.4071, 43.04782
148.8892, 44.44662
149.3713, 45.16284
149.8535, 43.75578
150.3356, 43.10017
150.8177, 44.14559
151.2998, 47.99690
151.7819, 51.16118
152.2640, 52.90325
152.7462, 54.04034
153.2283, 55.99919
153.7104, 59.29156
154.1925, 63.07026
154.6746, 67.15471
155.1567, 72.14751
155.6389, 76.25727
156.1210, 78.74087
156.6031, 80.16533
157.0852, 81.95982
157.5673, 85.11985
158.0495, 88.21027
158.5316, 90.51070
159.0137, 91.29382
159.4958, 92.11251
159.9779, 93.98876
160.4600, 96.37279
160.9422, 97.46920
161.4243, 95.07361
161.9064, 92.10672
162.3885, 90.58158
162.8706, 92.15870
163.3527, 93.85206
163.8349, 94.38168
164.3170, 93.94442
164.7991, 93.48154
165.2812, 92.37144
165.7633, 91.89307
166.2454, 93.24529
166.7276, 98.45615
167.2097, 104.0849
167.6918, 108.1319
168.1739, 110.7139
168.6560, 113.1177
169.1381, 115.8041
169.6203, 118.7684
170.1024, 121.2407
170.5845, 124.5708
171.0666, 127.6379
171.5487, 128.7808
172.0309, 128.1530
172.5130, 127.6863
172.9951, 129.3862
173.4772, 132.0205
173.9593, 133.6662
174.4414, 132.7558
174.9236, 130.9457
175.4057, 130.0708
175.8878, 130.1336
176.3699, 130.3306
176.8520, 129.6920
177.3341, 128.6658
177.8163, 128.2354
178.2984, 129.7959
178.7805, 131.8612
179.2626, 131.9707
179.7447, 129.9808
180.2268, 127.3897
180.7090, 125.5416
181.1911, 124.2983
181.6732, 123.2735
182.1553, 122.0643
182.6374, 120.9787
183.1195, 120.8187
183.6017, 121.6843
184.0838, 122.9618
184.5659, 124.1614
185.0480, 125.2407
185.5301, 126.0319
186.0123, 126.2551
186.4944, 126.1052
186.9765, 126.2211
187.4586, 126.6696
187.9407, 127.2115
188.4228, 127.4534
188.9050, 127.4280
189.3871, 127.5082
189.8692, 127.9873
190.3513, 128.7653
190.8334, 129.3328
191.3155, 129.6284
191.7977, 129.8023
192.2798, 130.1219
192.7619, 130.5880
193.2440, 130.9731
193.7261, 131.2655
194.2082, 131.4395
194.6904, 131.0649
195.1725, 129.9535
195.6546, 128.6146
196.1367, 128.1861
196.6188, 128.7432
197.1009, 129.1671
197.5831, 128.5618
198.0652, 126.9285
198.5473, 126.3036
199.0294, 127.0784
199.5115, 128.5075
199.9937, 128.9555
200.4758, 128.2613
200.9579, 127.5835
201.4400, 127.7056
201.9221, 128.7152
202.4042, 129.2334
202.8864, 129.0663
203.3685, 128.4845
203.8506, 128.0980
204.3327, 127.9278
204.8148, 127.8735
205.2969, 127.8659
205.7791, 127.8873
206.2612, 128.0768
206.7433, 128.4426
207.2254, 128.9783
207.7075, 129.8092
208.1896, 131.1667
208.6718, 132.1553
209.1539, 132.1633
209.6360, 130.9645
210.1181, 129.9133
210.6002, 128.9944
211.0823, 128.3133
211.5645, 128.2650
212.0466, 129.0869
212.5287, 129.9872
213.0108, 130.5709
213.4929, 130.8270
213.9750, 130.8078
214.4572, 130.3794
214.9393, 129.7341
215.4214, 129.4323
215.9035, 129.5401
216.3856, 129.8546
216.8678, 130.3463
217.3499, 131.1969
217.8320, 131.5973
218.3141, 131.2783
218.7962, 130.5453
219.2783, 130.4762
219.7605, 131.5395
220.2426, 132.4070
220.7247, 132.2072
221.2068, 130.3078
221.6889, 129.1878
222.1710, 129.2356
222.6532, 130.0661
223.1353, 130.4583
223.6174, 130.2123
224.0995, 129.8734
224.5816, 129.7382
225.0637, 129.9547
225.5459, 129.9670
226.0280, 129.5769
226.5101, 129.0122
226.9922, 129.0425
227.4743, 130.0532
227.9564, 131.0514
228.4386, 131.5326
228.9207, 131.2196
229.4028, 131.0361
229.8849, 131.0085
230.3670, 131.1135
230.8492, 131.3185
231.3313, 131.7531
231.8134, 132.0882
232.2955, 132.1323
232.7776, 131.6433
233.2597, 131.4552
233.7419, 131.7636
234.2240, 132.3269
234.7061, 132.4296
235.1882, 131.5983
235.6703, 131.0302
236.1524, 131.3009
236.6346, 132.8949
237.1167, 134.2515
237.5988, 135.4694
238.0809, 136.4258
238.5630, 136.7980
239.0451, 136.3017
239.5273, 135.6365
240.0094, 134.9904
240.4915, 134.0947
240.9736, 133.9798
241.4557, 135.1051
241.9378, 136.8014
242.4200, 137.6106
242.9021, 136.9403
243.3842, 136.3130
243.8663, 136.3325
244.3484, 137.2532
244.8306, 138.0879
245.3127, 138.9494
245.7948, 139.6605
246.2769, 139.8350
246.7590, 139.1757
247.2411, 138.4856
247.7233, 138.0510
248.2054, 137.9570
248.6875, 137.7831
249.1696, 137.3913
249.6517, 137.0151
250.1338, 137.1536
250.6160, 138.4021
251.0981, 139.0786
251.5802, 138.3973
252.0623, 135.8864
252.5444, 134.5051
253.0265, 134.7475
253.5087, 135.7246
253.9908, 136.1745
254.4729, 135.8900
254.9550, 135.5052
255.4371, 135.1483
255.9192, 134.8021
256.4014, 134.6419
256.8835, 134.6623
257.3656, 134.8747
257.8477, 135.3916
258.3298, 136.5346
258.8120, 137.2542
259.2941, 137.2293
259.7762, 136.4151
260.2583, 135.4413
260.7404, 133.8728
261.2225, 132.6682
261.7047, 133.1214
262.1868, 136.2029
262.6689, 138.3699
263.1510, 138.6492
263.6331, 137.0982
264.1152, 135.8903
264.5974, 135.1064
265.0795, 134.5537
265.5616, 134.0233
266.0437, 133.3946
266.5258, 133.1962
267.0079, 133.6976
267.4901, 134.7830
267.9722, 135.3587
268.4543, 135.3437
268.9364, 135.0009
269.4185, 134.4772
269.9006, 133.7051
270.3828, 133.0286
270.8649, 132.4025
271.3470, 131.9151
271.8291, 132.1045
272.3112, 133.2319
272.7933, 134.3491
273.2755, 134.7048
273.7576, 134.1900
274.2397, 133.6645
274.7218, 133.2057
275.2039, 132.8112
275.6860, 132.5198
276.1682, 132.3767
276.6503, 132.1567
277.1324, 131.6156
277.6145, 130.7130
278.0966, 130.1529
278.5787, 130.0717
279.0609, 130.2726
279.5430, 130.2431
280.0251, 129.9111
280.5072, 129.8231
280.9893, 130.4486
281.4715, 131.7787
281.9536, 132.8111
282.4357, 133.5610
282.9178, 133.8907
283.3999, 133.2664
283.8820, 131.6142
284.3642, 130.2929
284.8463, 130.1475
285.3284, 131.0551
285.8105, 131.5689
286.2926, 131.6069
286.7747, 131.4815
287.2569, 131.8066
287.7390, 132.5461
288.2211, 132.7648
288.7032, 131.6533
289.1853, 129.6433
289.6674, 128.8039
290.1496, 129.2632
290.6317, 130.0195
291.1138, 129.8686
291.5959, 128.9446
292.0780, 128.1728
292.5602, 127.8269
293.0423, 127.8460
293.5244, 128.2725
294.0065, 129.1319
294.4886, 129.7736
294.9707, 129.3405
295.4529, 128.1362
295.9350, 127.2725
296.4171, 127.0988
296.8992, 127.3559
297.3813, 127.7168
297.8634, 128.1618
298.3456, 128.4804
298.8277, 128.2636
299.3098, 127.8095
299.7919, 127.8500
300.2740, 128.7295
300.7561, 129.8158
301.2383, 130.2889
301.7204, 130.2332
302.2025, 129.9933
302.6846, 129.6032
303.1667, 129.2201
303.6488, 129.0725
304.1310, 129.2041
304.6131, 129.5510
305.0952, 130.2826
305.5773, 131.2138
306.0594, 131.8428
306.5415, 131.5219
307.0237, 130.9576
307.5058, 131.0607
307.9879, 132.0355
308.4700, 132.8323
308.9521, 132.4227
309.4343, 131.3091
309.9164, 130.3732
310.3985, 129.6577
310.8806, 129.4864
311.3627, 130.4983
311.8448, 132.7433
312.3270, 134.5343
312.8091, 134.4824
313.2912, 133.5327
313.7733, 132.8020
314.2554, 132.9003
314.7375, 133.1320
315.2197, 133.0163
315.7018, 132.6226
316.1839, 132.5630
316.6660, 133.7569
317.1481, 135.0703
317.6302, 135.5440
318.1124, 134.3318
318.5945, 133.0301
319.0766, 131.9896
319.5587, 131.2428
320.0408, 130.8780
320.5229, 131.2292
321.0051, 131.7548
321.4872, 132.1523
321.9693, 132.2865
322.4514, 132.4499
322.9335, 132.8956
323.4156, 133.3957
323.8978, 133.5108
324.3799, 132.7005
324.8620, 131.8982
325.3441, 131.4357
325.8262, 131.4164
326.3083, 131.4986
326.7905, 131.8892
327.2726, 132.2934
327.7547, 132.3448
328.2368, 131.1987
328.7189, 130.5726
329.2010, 131.1929
329.6832, 133.2778
330.1653, 134.0926
330.6474, 132.4591
331.1295, 130.4042
331.6116, 129.6054
332.0938, 131.0590
332.5759, 132.1880
333.0580, 132.6169
333.5401, 132.4291
334.0222, 132.1840
334.5043, 131.7101
334.9865, 131.4102
335.4686, 131.5956
335.9507, 132.5606
336.4328, 133.2167
336.9149, 133.5020
337.3970, 133.4497
337.8792, 132.9806
338.3613, 131.7564
338.8434, 131.0481
339.3255, 131.7198
339.8076, 134.0780
340.2898, 135.4186
340.7719, 135.5570
341.2540, 135.0243
341.7361, 134.3840
342.2182, 133.5778
342.7003, 133.3329
343.1825, 134.0651
343.6646, 135.6286
344.1467, 137.1659
344.6288, 138.7764
345.1109, 139.9233
345.5930, 139.9084
346.0752, 138.8213
346.5573, 137.5374
347.0394, 136.0532
347.5215, 134.6745
348.0036, 134.0560
348.4857, 134.1964
348.9679, 134.8355
349.4500, 135.9832
349.9321, 137.5008
350.4142, 139.0787
350.8963, 140.8189
351.3784, 142.2427
351.8606, 142.3279
352.3427, 141.4216
352.8248, 140.8076
353.3069, 141.6172
353.7890, 142.9963
354.2711, 143.7925
354.7533, 143.8871
355.2354, 143.6821
355.7175, 143.2209
356.1996, 142.7249
356.6817, 142.5798
357.1638, 143.1628
357.6460, 144.0013
358.1281, 144.6665
358.6102, 145.1844
359.0923, 145.9911
359.5744, 147.6996
360.0565, 149.6477
360.5387, 151.1761
361.0208, 151.7636
361.5029, 152.3273
361.9850, 153.1906
362.4671, 154.3329
362.9492, 155.6857
363.4314, 157.5534
363.9135, 159.3871
364.3956, 160.8341
364.8777, 161.6280
365.3598, 162.5769
365.8419, 163.9906
366.3241, 165.6311
366.8062, 167.1328
367.2883, 167.9955
367.7704, 169.1470
368.2526, 170.9615
368.7347, 173.6124
369.2168, 175.9809
369.6989, 177.7053
370.1810, 179.3623
370.6631, 181.4415
371.1453, 184.0623
371.6274, 186.9125
372.1095, 189.7453
372.5916, 192.7271
373.0737, 196.8424
373.5558, 202.3518
374.0380, 208.6530
374.5201, 215.3926
375.0022, 222.2087
375.4843, 230.5748
375.9664, 241.0929
376.4485, 252.6917
376.9307, 263.8845
377.4128, 274.8813
377.8949, 284.2583
378.3770, 292.2770
378.8591, 298.7201
379.3412, 298.9801
379.8234, 292.6789
380.3055, 281.5280
380.7876, 265.8154
381.2697, 245.7404
381.7518, 227.1018
382.2339, 210.9773
382.7161, 197.6196
383.1982, 188.0226
383.6803, 182.1873
384.1624, 177.7970
384.6445, 173.1841
385.1266, 168.7655
385.6088, 165.7007
386.0909, 164.3531
386.5730, 163.8022
387.0551, 163.2204
387.5372, 162.6203
388.0193, 162.0256
388.5015, 161.2259
388.9836, 160.5630
389.4657, 160.5545
389.9478, 161.2479
390.4299, 161.8777
390.9120, 161.7666
391.3942, 161.3366
391.8763, 161.1093
392.3584, 161.4355
392.8405, 161.8449
393.3226, 162.0296
393.8047, 162.0657
394.2869, 162.2991
394.7690, 163.0565
395.2511, 163.9230
395.7332, 164.6087
396.2154, 164.8650
396.6975, 165.3650
397.1796, 166.1615
397.6617, 167.3129
398.1438, 168.9018
398.6259, 170.9029
399.1081, 173.3842
399.5902, 176.4915
400.0723, 180.3272
400.5544, 184.0725
401.0365, 187.8356
401.5186, 191.4365
402.0008, 194.7253
402.4829, 197.9222
402.9650, 200.3333
403.4471, 201.2642
403.9292, 201.3607
404.4113, 203.4578
404.8935, 208.2142
405.3756, 213.4684
405.8577, 218.1262
406.3398, 222.0456
406.8219, 226.0010
407.3040, 229.8046
407.7862, 234.0414
408.2683, 239.6378
408.7504, 246.6097
409.2325, 254.4353
409.7146, 262.9650
410.1967, 272.1613
410.6789, 281.7938
411.1610, 291.7782
411.6431, 304.4634
412.1252, 321.6054
412.6073, 342.9458
413.0894, 367.9217
413.5716, 396.1289
414.0537, 427.3590
414.5358, 462.8752
415.0179, 501.2415
415.5000, 539.0203
415.9821, 579.4861
416.4643, 615.1309
416.9464, 640.6803
417.4285, 655.9659
417.9106, 653.1523
418.3927, 621.5243
418.8748, 570.7678
419.3570, 513.0157
419.8391, 438.7489
420.3212, 370.8995
420.8033, 317.8425
421.2854, 278.8650
421.7675, 249.0534
422.2497, 230.4678
422.7318, 217.9422
423.2139, 209.4050
423.6960, 206.0646
424.1781, 203.5106
424.6602, 201.3770
425.1424, 199.7757
425.6245, 198.8797
426.1066, 198.4074
426.5887, 199.0235
427.0709, 201.3495
427.5530, 205.3826
428.0351, 208.2170
428.5172, 209.4953
428.9993, 210.0991
429.4814, 210.8314
429.9636, 212.0947
430.4457, 211.8584
430.9278, 209.7343
431.4099, 206.2412
431.8920, 202.3159
432.3741, 197.8538
432.8563, 193.4995
433.3384, 189.5641
433.8205, 185.9814
434.3026, 182.2330
434.7847, 178.2033
435.2668, 174.7642
435.7490, 173.1747
436.2311, 172.9870
436.7132, 172.6428
437.1953, 171.6031
437.6774, 170.4009
438.1595, 169.7281
438.6417, 169.5131
439.1238, 169.4590
439.6059, 169.4492
440.0880, 169.4785
440.5701, 169.5379
441.0522, 169.6252
441.5344, 169.7614
442.0165, 170.0800
442.4986, 170.4172
442.9807, 170.5694
443.4628, 170.1824
443.9449, 169.8790
444.4271, 169.6855
444.9092, 169.6932
445.3913, 170.3995
445.8734, 172.7734
446.3555, 175.2106
446.8376, 176.9055
447.3198, 177.5317
447.8019, 177.9262
448.2840, 177.8577
448.7661, 177.6743
449.2482, 177.9980
449.7303, 179.9368
450.2125, 180.4257
450.6946, 178.2404
451.1767, 173.6407
451.6588, 170.6442
452.1409, 169.4992
452.6230, 169.3200
453.1052, 169.8597
453.5873, 171.2481
454.0694, 171.5776
454.5515, 170.5112
455.0337, 168.7305
455.5158, 167.2747
455.9979, 166.1222
456.4800, 165.1397
456.9621, 164.0600
457.4442, 163.1613
457.9264, 163.2811
458.4085, 164.3851
458.8906, 165.6095
459.3727, 166.4325
459.8548, 166.8656
460.3369, 166.8148
460.8191, 166.0384
461.3012, 165.3133
461.7833, 165.4133
462.2654, 166.0228
462.7475, 166.4829
463.2296, 166.3222
463.7118, 166.0906
464.1939, 166.1356
464.6760, 166.4816
465.1581, 166.7334
465.6402, 166.8262
466.1223, 166.7392
466.6045, 166.4524
467.0866, 164.9725
467.5687, 164.5194
468.0508, 165.8882
468.5329, 168.2895
469.0150, 170.0256
469.4972, 171.0275
469.9793, 171.4287
470.4614, 171.0982
470.9435, 169.9849
471.4256, 169.1718
471.9077, 168.6551
472.3899, 168.4513
472.8720, 168.7724
473.3541, 169.7121
473.8362, 169.9642
474.3183, 169.0576
474.8004, 167.8421
475.2826, 168.4135
475.7647, 170.6127
476.2468, 172.1864
476.7289, 171.2560
477.2110, 169.0258
477.6931, 168.2293
478.1753, 168.8798
478.6574, 170.0166
479.1395, 171.3137
479.6216, 172.4614
480.1037, 172.9258
480.5858, 172.2429
481.0680, 171.4648
481.5501, 171.4123
482.0322, 171.7928
482.5143, 171.9969
482.9964, 171.3960
483.4786, 170.9045
483.9607, 171.0460
484.4428, 171.8993
484.9249, 172.6753
485.4070, 173.2489
485.8892, 173.6729
486.3713, 173.9879
486.8534, 174.4723
487.3355, 174.4131
487.8176, 173.3738
488.2997, 171.9212
488.7819, 171.3016
489.2640, 171.8649
489.7461, 172.4697
490.2282, 172.7492
490.7103, 172.7234
491.1924, 172.7126
491.6746, 172.7162
492.1567, 172.7292
492.6388, 172.7654
493.1209, 172.8160
493.6030, 172.8692
494.0851, 173.0034
494.5673, 172.9168
495.0494, 171.8211
495.5315, 170.0361
496.0136, 168.7564
496.4957, 168.7848
496.9778, 169.4543
497.4600, 170.1602
497.9421, 170.8792
498.4242, 171.4703
498.9063, 172.0917
499.3884, 172.4176
499.8705, 172.0375
500.3527, 170.4479
500.8348, 169.2168
501.3169, 168.9283
501.7990, 169.3378
502.2811, 170.1101
502.7632, 172.2624
503.2454, 173.6119
503.7275, 173.3544
504.2096, 171.6612
504.6917, 170.2858
505.1738, 168.9750
505.6559, 168.3420
506.1381, 168.9727
506.6202, 171.4314
507.1023, 172.7854
507.5844, 172.7601
508.0665, 172.1305
508.5486, 171.9385
509.0308, 172.1964
509.5129, 172.2639
509.9950, 171.7782
510.4771, 171.1904
510.9592, 171.7741
511.4413, 173.3843
511.9235, 174.6782
512.4056, 174.5094
512.8877, 173.5951
513.3698, 172.9720
513.8519, 172.7247
514.3340, 172.6321
514.8162, 172.5363
515.2983, 172.5015
515.7804, 172.5946
516.2625, 172.6631
516.7446, 173.0895
517.2267, 174.7054
517.7089, 176.8193
518.1910, 177.7030
518.6731, 175.1939
519.1552, 173.0860
519.6373, 173.2069
520.1194, 175.9178
520.6016, 176.9263
521.0837, 174.8913
521.5658, 172.6365
522.0479, 172.3825
522.5300, 174.8775
523.0121, 176.6084
523.4943, 177.1801
523.9764, 177.1020
524.4585, 177.1662
524.9406, 177.3683
525.4227, 177.8590
525.9048, 178.9948
526.3870, 180.3068
526.8691, 180.4269
527.3513, 179.4298
527.8334, 178.4428
528.3155, 178.3291
528.7976, 178.7076
529.2797, 179.0847
529.7618, 179.4286
530.2440, 179.5951
530.7261, 179.3800
531.2082, 178.9558
531.6903, 178.5478
532.1724, 177.8697
532.6545, 177.5923
533.1367, 178.3504
533.6188, 179.7598
534.1009, 180.4761
534.5830, 179.6217
535.0651, 178.6837
535.5472, 178.0659
536.0294, 177.7434
536.5115, 177.9745
536.9936, 179.1282
537.4757, 180.3222
537.9578, 180.7490
538.4399, 180.2709
538.9221, 179.9154
539.4042, 179.7827
539.8863, 179.8158
540.3684, 180.0493
540.8505, 180.4449
541.3326, 180.5108
541.8148, 179.5962
542.2969, 178.4996
542.7790, 178.9693
543.2611, 180.8063
543.7432, 182.4286
544.2253, 182.6524
544.7075, 182.1787
545.1896, 181.6613
545.6717, 181.1667
546.1538, 180.7642
546.6359, 180.4929
547.1180, 180.3286
547.6002, 180.2494
548.0823, 179.9165
548.5644, 180.0526
549.0465, 181.2528
549.5286, 183.0388
550.0107, 183.9846
550.4929, 183.4534
550.9750, 183.0512
551.4571, 183.4574
551.9392, 184.6798
552.4213, 184.9188
552.9034, 183.8947
553.3856, 182.7664
553.8677, 182.5944
554.3498, 183.2821
554.8319, 183.6425
555.3140, 183.5221
555.7961, 183.1894
556.2783, 182.9292
556.7604, 182.7368
557.2425, 182.6066
557.7246, 182.5901
558.2067, 182.5818
558.6888, 182.3445
559.1710, 181.9989
559.6531, 181.9595
560.1352, 182.9089
560.6173, 183.8482
561.0994, 183.9894
561.5815, 183.1220
562.0637, 182.8104
562.5458, 184.0537
563.0279, 185.5084
563.5100, 186.1738
563.9921, 185.2715
564.4742, 184.9797
564.9564, 185.6369
565.4385, 186.6915
565.9206, 187.2375
566.4027, 187.2270
566.8848, 186.8281
567.3669, 185.7410
567.8491, 184.4782
568.3312, 185.0512
568.8133, 187.3870
569.2954, 189.6926
569.7775, 190.4337
570.2596, 190.4563
570.7418, 191.3535
571.2239, 193.2475
571.7060, 195.3277
572.1881, 196.9387
572.6702, 198.4148
573.1523, 200.1807
573.6345, 202.5532
574.1166, 204.8105
574.5987, 206.6232
575.0808, 208.1368
575.5629, 209.6248
576.0450, 212.3056
576.5272, 213.5576
577.0093, 212.5943
577.4914, 209.6960
577.9735, 206.5151
578.4556, 202.8534
578.9377, 199.3731
579.4199, 196.3405
579.9020, 193.7978
580.3841, 191.5583
580.8662, 189.6277
581.3483, 188.0076
581.8304, 186.7096
582.3126, 185.7432
582.7947, 185.2180
583.2768, 185.2728
583.7589, 185.4092
584.2410, 185.0453
584.7231, 184.3750
585.2053, 183.7830
585.6874, 183.5149
586.1696, 183.2846
586.6517, 182.9710
587.1338, 182.5688
587.6159, 182.0742
588.0980, 180.8636
588.5801, 180.1086
589.0623, 180.5376
589.5444, 182.4040
590.0265, 183.6923
590.5086, 184.2897
590.9907, 184.4561
591.4728, 184.3206
591.9550, 183.8327
592.4371, 183.3916
592.9192, 183.0277
593.4013, 182.7373
593.8834, 182.4342
594.3655, 182.1660
594.8477, 182.2700
595.3298, 183.1048
595.8119, 184.0486
596.2940, 184.0283
596.7761, 183.3451
597.2582, 183.0097
597.7404, 184.0738
598.2225, 185.2738
598.7046, 185.6721
599.1867, 185.2164
599.6688, 184.7181
600.1509, 184.2273
600.6331, 183.9005
601.1152, 183.8602
601.5973, 184.2187
602.0794, 184.5824
602.5615, 184.9055
603.0436, 185.2749
603.5258, 185.9137
604.0079, 186.9848
604.4900, 187.3662
604.9721, 186.6592
605.4542, 185.4986
605.9363, 185.2122
606.4185, 185.7180
606.9006, 186.2490
607.3827, 186.3698
607.8648, 186.3656
608.3469, 186.7162
608.8290, 187.3553
609.3112, 187.8877
609.7933, 187.9053
610.2754, 187.8513
610.7575, 188.1034
611.2396, 188.7422
611.7217, 189.3168
612.2039, 189.7384
612.6860, 190.0140
613.1681, 190.1475
613.6502, 190.0969
614.1323, 189.9353
614.6144, 189.4221
615.0966, 189.0074
615.5787, 189.6114
616.0608, 191.5210
616.5429, 192.4980
617.0250, 191.7184
617.5071, 190.0570
617.9893, 189.5396
618.4714, 190.0494
618.9535, 190.6642
619.4356, 191.0151
619.9177, 191.1451
620.3998, 190.9397
620.8820, 190.4648
621.3641, 190.2729
621.8462, 190.8341
622.3283, 191.6850
622.8104, 192.5005
623.2925, 193.2346
623.7747, 193.9611
624.2568, 195.0617
624.7389, 195.9142
625.2210, 195.9243
625.7031, 194.3321
626.1852, 193.6213
626.6674, 194.2110
627.1495, 195.4089
627.6316, 196.0262
628.1137, 196.0318
628.5958, 196.2599
629.0779, 197.0932
629.5601, 198.1267
630.0422, 198.3203
630.5243, 197.8985
631.0064, 197.9242
631.4885, 199.1723
631.9706, 201.0193
632.4528, 203.1917
632.9349, 205.5793
633.4170, 207.4100
633.8991, 207.8731
634.3812, 208.0287
634.8633, 208.3832
635.3455, 208.7553
635.8276, 210.1567
636.3097, 213.1755
636.7918, 216.6875
637.2739, 219.7624
637.7560, 222.2422
638.2382, 224.7773
638.7203, 227.3526
639.2024, 230.0700
639.6845, 233.0912
640.1666, 236.4261
640.6487, 240.1140
641.1309, 244.4919
641.6130, 248.8344
642.0951, 251.9494
642.5772, 254.1340
643.0594, 256.0944
643.5415, 259.1575
644.0236, 261.2739
644.5057, 261.0817
644.9879, 258.6910
645.4700, 255.5446
645.9521, 251.0164
646.4342, 246.6674
646.9163, 243.3722
647.3984, 241.4279
647.8806, 238.2318
648.3627, 233.1462
648.8448, 227.9707
649.3269, 224.1610
649.8090, 221.7233
650.2911, 219.3294
650.7733, 216.7929
651.2554, 214.5148
651.7375, 213.0060
652.2196, 212.0997
652.7017, 211.3845
653.1838, 210.7862
653.6660, 210.2590
654.1481, 209.7498
654.6302, 209.2872
655.1123, 208.9172
655.5944, 209.1016
656.0765, 208.9028
656.5587, 207.6345
657.0408, 205.6295
657.5229, 204.4590
658.0050, 204.5694
658.4871, 204.7824
658.9692, 204.6640
659.4514, 204.2619
659.9335, 204.1572
660.4156, 204.3820
660.8977, 204.6397
661.3798, 204.8332
661.8619, 204.8863
662.3441, 204.3813
662.8262, 203.2730
663.3083, 202.5069
663.7904, 203.3421
664.2725, 204.6847
664.7546, 205.2993
665.2368, 204.7331
665.7189, 203.9973
666.2010, 203.0625
666.6831, 202.2974
667.1652, 202.1672
667.6473, 203.2394
668.1295, 204.0021
668.6116, 204.2475
669.0937, 204.2145
669.5758, 204.4244
670.0579, 204.9306
670.5400, 205.1387
671.0222, 204.7290
671.5043, 204.0669
671.9864, 203.8553
672.4685, 204.0602
672.9506, 204.5253
673.4327, 205.7262
673.9149, 206.7291
674.3970, 206.2773
674.8791, 204.6143
675.3612, 203.6112
675.8433, 204.7246
676.3254, 206.0786
676.8076, 206.6996
677.2897, 206.4285
677.7718, 206.0427
678.2539, 205.2991
678.7360, 204.7942
679.2181, 205.1741
679.7003, 206.6139
680.1824, 206.8723
680.6645, 205.6298
681.1466, 204.2918
681.6287, 204.7359
682.1108, 206.3165
682.5930, 207.2592
683.0751, 207.2024
683.5572, 206.4954
684.0393, 204.5124
684.5214, 202.3315
685.0035, 201.4818
685.4857, 204.1061
685.9678, 206.1970
686.4499, 206.3569
686.9320, 205.3366
687.4141, 204.8294
687.8962, 205.0705
688.3784, 205.4155
688.8605, 205.8249
689.3426, 206.2005
689.8247, 206.1019
690.3068, 205.5089
690.7889, 205.0095
691.2711, 205.0967
691.7532, 205.3760
692.2353, 204.7821
692.7174, 203.5034
693.1995, 202.6904
693.6816, 203.6950
694.1638, 204.9534
694.6459, 205.0457
695.1280, 203.8018
695.6101, 203.1921
696.0922, 204.2750
696.5743, 205.6567
697.0565, 206.6374
697.5386, 207.2152
698.0207, 207.4042
698.5028, 207.1089
698.9849, 206.6334
699.4670, 206.1274
699.9492, 205.6295
700.4313, 205.6454
700.9135, 206.3107
701.3956, 207.0450
701.8777, 207.3296
702.3598, 207.2190
702.8419, 206.6971
703.3240, 205.2980
703.8062, 204.4227
704.2883, 205.0793
704.7704, 206.6301
705.2525, 208.1333
705.7346, 209.9260
706.2167, 210.9913
706.6989, 210.8352
707.1810, 210.0744
707.6631, 210.3425
708.1452, 211.9694
708.6273, 212.5769
709.1094, 211.0693
709.5916, 208.4785
710.0737, 207.0578
710.5558, 206.6956
711.0379, 206.7435
711.5200, 207.0989
712.0021, 207.5282
712.4843, 207.7818
712.9664, 207.9041
713.4485, 208.1522
713.9306, 208.9072
714.4127, 209.5423
714.8948, 209.7830
715.3770, 209.6344
715.8591, 209.0070
716.3412, 207.2733
716.8233, 206.3011
717.3054, 207.7374
717.7875, 211.4373
718.2697, 213.0767
718.7518, 212.5559
719.2339, 211.5391
719.7160, 211.4515
720.1981, 211.8170
720.6802, 211.7620
721.1624, 211.1237
721.6445, 210.7641
722.1266, 211.3369
722.6087, 212.3311
723.0908, 213.3827
723.5729, 214.8401
724.0551, 215.4201
724.5372, 214.4866
725.0193, 213.2078
725.5014, 212.7018
725.9835, 213.0015
726.4656, 214.0300
726.9478, 216.0247
727.4299, 218.1190
727.9120, 218.7907
728.3941, 218.5049
728.8762, 218.7728
729.3583, 220.2793
729.8405, 221.8846
730.3226, 222.5378
730.8047, 222.6710
731.2868, 222.9771
731.7689, 223.5936
732.2510, 224.4942
732.7332, 225.6371
733.2153, 227.0627
733.6974, 229.0632
734.1795, 232.1137
734.6616, 234.3047
735.1437, 234.7575
735.6259, 234.3921
736.1080, 235.7769
736.5901, 238.7277
737.0722, 241.6203
737.5543, 243.6425
738.0364, 245.2241
738.5186, 246.6720
739.0007, 248.0614
739.4828, 249.7117
739.9649, 252.0854
740.4470, 254.4361
740.9291, 256.3042
741.4113, 257.7274
741.8934, 259.5661
742.3755, 261.7973
742.8576, 264.5261
743.3397, 268.0313
743.8218, 272.1598
744.3040, 275.6271
744.7861, 278.3985
745.2682, 280.8519
745.7503, 283.0973
746.2324, 285.2595
746.7145, 287.5857
747.1967, 290.0690
747.6788, 292.2154
748.1609, 293.4677
748.6430, 294.5041
749.1251, 295.9972
749.6072, 298.3168
750.0894, 299.3217
750.5715, 298.6406
751.0536, 297.0796
751.5357, 295.1813
752.0178, 292.9738
752.4999, 289.6686
752.9821, 285.0985
753.4642, 280.4258
753.9463, 276.7100
754.4284, 273.7284
754.9105, 271.0729
755.3926, 268.6714
755.8748, 266.5459
756.3569, 264.7961
756.8390, 263.2486
757.3211, 261.7031
757.8032, 260.0062
758.2853, 258.6365
758.7675, 257.8713
759.2496, 257.1799
759.7318, 256.1642
760.2139, 254.8767
760.6960, 252.6805
761.1781, 249.2327
761.6602, 245.9745
762.1423, 244.9327
762.6245, 245.4296
763.1066, 245.8652
763.5887, 245.9071
764.0708, 245.7811
764.5529, 245.6731
765.0350, 245.4732
765.5172, 245.0502
765.9993, 244.0389
766.4814, 243.2539
766.9635, 242.7827
767.4456, 242.5130
767.9277, 242.3997
768.4099, 242.5252
768.8920, 242.1225
769.3741, 240.8857
769.8562, 239.5293
770.3383, 239.2737
770.8204, 239.7447
771.3026, 239.8996
771.7847, 239.2203
772.2668, 238.5130
772.7489, 238.3005
773.2310, 238.4293
773.7131, 238.6579
774.1953, 238.9376
774.6774, 239.3438
775.1595, 240.0616
775.6416, 240.8076
776.1237, 241.0291
776.6058, 240.6757
777.0880, 240.0989
777.5701, 239.1924
778.0522, 238.4556
778.5343, 239.0308
779.0164, 240.5019
779.4985, 241.6689
779.9807, 241.8851
780.4628, 241.8248
780.9449, 241.7832
781.4270, 241.7697
781.9091, 241.8050
782.3912, 241.9049
782.8734, 242.0593
783.3555, 242.4023
783.8376, 242.7371
784.3197, 242.2943
784.8018, 240.9323
785.2839, 240.6158
785.7661, 242.4567
786.2482, 244.9298
786.7303, 245.2158
787.2124, 243.9749
787.6945, 243.0953
788.1766, 243.7742
788.6588, 244.7131
789.1409, 245.5136
789.6230, 246.0681
790.1051, 246.0633
790.5872, 244.8829
791.0693, 244.0766
791.5515, 243.9809
792.0336, 244.4463
792.5157, 245.1900
792.9978, 246.2155
793.4799, 246.9932
793.9620, 247.3410
794.4442, 247.3298
794.9263, 246.9512
795.4084, 246.2944
795.8905, 245.6064
796.3726, 244.8076
796.8547, 244.1973
797.3369, 243.6543
797.8190, 243.3930
798.3011, 244.1354
798.7832, 246.7148
799.2653, 248.6177
799.7474, 249.0897
800.2296, 248.5938
800.7117, 248.3456
801.1938, 248.3294
801.6759, 248.3848
802.1580, 248.4929
802.6401, 248.5898
803.1223, 248.4115
803.6044, 248.1594
804.0865, 248.3533
804.5686, 249.9362
805.0507, 251.1752
805.5328, 251.1839
806.0150, 250.4733
806.4971, 250.4254
806.9792, 251.3285
807.4613, 251.9427
807.9434, 251.7905
808.4255, 251.2919
808.9077, 251.5198
809.3898, 252.3035
809.8719, 252.8792
810.3540, 252.7789
810.8361, 252.4725
811.3182, 252.3538
811.8004, 252.3088
812.2825, 252.0692
812.7646, 251.0652
813.2467, 250.5024
813.7288, 250.8605
814.2109, 251.6953
814.6931, 251.8051
815.1752, 251.1058
815.6573, 250.4668
816.1394, 250.0855
816.6215, 249.9780
817.1037, 250.4081
817.5858, 251.1398
818.0679, 251.5598
818.5500, 251.2588
819.0322, 250.7396
819.5143, 249.8911
819.9964, 249.0458
820.4785, 248.9797
820.9606, 250.2090
821.4427, 251.3117
821.9249, 252.2304
822.4070, 252.7500
822.8891, 252.0829
823.3712, 250.3760
823.8533, 249.3287
824.3354, 249.6677
824.8176, 250.3237
825.2997, 249.9178
825.7818, 249.0185
826.2639, 248.6057
826.7460, 249.8700
827.2281, 250.6091
827.7103, 249.8483
828.1924, 248.5170
828.6745, 247.7834
829.1566, 247.7156
829.6387, 248.0767
830.1208, 248.9795
830.6030, 249.9427
831.0851, 250.2242
831.5672, 249.9498
832.0493, 249.3825
832.5314, 248.4131
833.0135, 247.6525
833.4957, 247.5406
833.9778, 247.8746
834.4599, 248.4212
834.9420, 249.8192
835.4241, 250.3695
835.9063, 249.6647
836.3884, 248.6067
836.8705, 248.3918
837.3526, 248.9870
837.8347, 248.9783
838.3168, 248.0715
838.7990, 247.2184
839.2811, 247.6758
839.7632, 248.6956
840.2453, 249.2112
840.7274, 248.8690
841.2095, 248.5171
841.6917, 248.3735
842.1738, 248.3814
842.6559, 248.5149
843.1380, 248.8525
843.6201, 249.0100
844.1022, 248.9500
844.5844, 248.8385
845.0665, 248.8927
845.5486, 249.0146
846.0307, 248.9163
846.5128, 248.5713
846.9949, 248.1478
847.4771, 247.4435
847.9592, 246.9354
848.4413, 247.1285
848.9234, 248.2893
849.4055, 248.9559
849.8876, 248.8973
850.3698, 248.6337
850.8519, 248.2588
851.3340, 247.8365
851.8161, 248.6598
852.2982, 250.7130
852.7803, 252.1709
853.2625, 250.7417
853.7446, 248.6506
854.2267, 248.7510
854.7088, 250.8892
855.1909, 251.8795
855.6730, 249.0813
856.1552, 246.6256
856.6373, 246.2560
857.1194, 247.6863
857.6015, 248.5134
858.0836, 248.6696
858.5657, 248.8005
859.0479, 249.2309
859.5300, 249.8277
860.0121, 250.5236
860.4942, 251.1965
860.9763, 251.3979
861.4584, 250.2352
861.9406, 249.2312
862.4227, 249.3306
862.9048, 250.1850
863.3869, 250.4450
863.8690, 249.6745
864.3511, 249.4816
864.8333, 250.5549
865.3154, 252.0101
865.7975, 251.6714
866.2796, 249.9792
866.7617, 248.9036
867.2438, 249.5012
867.7260, 250.2882
868.2081, 249.7708
868.6902, 248.8084
869.1723, 248.7327
869.6544, 251.1249
870.1365, 252.5389
870.6187, 252.4769
871.1008, 251.7382
871.5829, 251.2819
872.0650, 251.1112
872.5471, 251.3493
873.0292, 252.0978
873.5114, 252.8295
873.9935, 253.0289
874.4756, 252.8774
874.9577, 252.5525
875.4399, 251.9805
875.9220, 251.5884
876.4041, 251.7448
876.8862, 251.8983
877.3683, 251.5835
877.8505, 250.6308
878.3326, 250.4663
878.8147, 251.1788
879.2968, 252.0046
879.7789, 252.4302
880.2610, 252.4622
880.7432, 251.8710
881.2253, 250.6927
881.7074, 249.9597
882.1895, 250.4393
882.6716, 251.2508
883.1537, 252.2140
883.6359, 253.2630
884.1180, 252.9592
884.6001, 250.9120
885.0822, 249.1692
885.5643, 248.9076
886.0464, 249.5205
886.5286, 249.4744
887.0107, 248.9637
887.4928, 248.7882
887.9749, 249.6253
888.4570, 250.6465
888.9391, 251.8505
889.4213, 252.9009
889.9034, 252.6977
890.3855, 250.3520
890.8676, 248.8882
891.3497, 249.1001
891.8318, 250.2232
892.3140, 250.9668
892.7961, 251.3791
893.2782, 251.6390
893.7603, 251.7679
894.2424, 251.8271
894.7245, 251.7292
895.2067, 251.6436
895.6888, 251.7821
896.1709, 252.3299
896.6530, 252.8904
897.1351, 253.5535
897.6172, 254.0810
898.0994, 254.2913
898.5815, 254.1655
899.0636, 253.2338
899.5457, 251.3904
900.0278, 250.0871
900.5099, 251.0302
900.9921, 252.7206
901.4742, 253.8583
901.9563, 254.2472
902.4384, 254.2788
902.9205, 253.7057
903.4026, 253.2380
903.8848, 253.2661
904.3669, 253.7162
904.8490, 254.0449
905.3311, 254.2435
905.8132, 254.1700
906.2953, 253.3695
906.7775, 252.5366
907.2596, 252.6180
907.7417, 253.2950
908.2238, 253.4301
908.7059, 251.3875
909.1880, 250.5136
909.6702, 252.0919
910.1523, 254.8710
910.6344, 255.6788
911.1165, 254.5624
911.5986, 253.7564
912.0807, 253.9893
912.5629, 254.4708
913.0450, 253.9511
913.5271, 253.2035
914.0092, 253.4745
914.4913, 256.1947
914.9734, 257.9469
915.4556, 257.9313
915.9377, 257.0562
916.4198, 255.8799
916.9019, 254.3452
917.3840, 253.5933
917.8661, 253.7257
918.3483, 254.2274
918.8304, 254.8586
919.3125, 255.4623
919.7946, 255.7868
920.2767, 255.8024
920.7589, 255.9112
921.2410, 256.5518
921.7231, 256.9522
922.2052, 256.6186
922.6873, 255.7096
923.1694, 255.7492
923.6516, 256.7617
924.1337, 257.8118
924.6158, 258.6075
925.0979, 259.0258
925.5800, 258.6315
926.0621, 257.7307
926.5443, 257.0861
927.0264, 257.0893
927.5085, 257.2230
927.9906, 257.3696
928.4727, 257.5835
928.9548, 257.8955
929.4370, 258.2944
929.9191, 259.2478
930.4012, 261.0117
930.8833, 262.5520
931.3654, 262.6168
931.8475, 261.7662
932.3297, 260.5951
932.8118, 258.9543
933.2939, 258.0456
933.7761, 258.9595
934.2582, 259.8639
934.7403, 259.5305
935.2224, 257.9097
935.7045, 257.0850
936.1866, 257.0672
936.6688, 257.3389
937.1509, 258.0493
937.6330, 258.5017
938.1151, 257.5539
938.5972, 255.4969
939.0793, 253.9230
939.5615, 254.0893
940.0436, 253.7819
940.5257, 252.0962
941.0078, 249.7879
941.4899, 249.1608
941.9720, 250.1433
942.4542, 250.7887
942.9363, 250.4695
943.4184, 249.7941
943.9005, 249.0030
944.3826, 248.4361
944.8647, 248.5920
945.3469, 250.0802
945.8290, 251.3651
946.3111, 252.2403
946.7932, 252.9733
947.2753, 253.6979
947.7574, 254.4405
948.2396, 255.7327
948.7217, 257.6037
949.2038, 259.1555
949.6859, 259.4539
950.1680, 259.2994
950.6501, 259.3321
951.1323, 259.5937
951.6144, 259.9309
952.0965, 260.1088
952.5786, 260.7416
953.0607, 262.2168
953.5428, 264.1404
954.0250, 265.4886
954.5071, 266.2446
954.9892, 266.2171
955.4713, 264.7163
955.9534, 263.4525
956.4355, 264.2823
956.9177, 265.9437
957.3998, 266.5716
957.8819, 265.0417
958.3640, 264.2452
958.8461, 264.4770
959.3282, 264.9734
959.8104, 264.6563
960.2925, 263.9283
960.7746, 264.4544
961.2567, 266.3628
961.7388, 268.0036
962.2209, 268.3645
962.7031, 268.0645
963.1852, 267.0434
963.6673, 265.4440
964.1494, 265.5516
964.6315, 268.1098
965.1136, 269.7115
965.5958, 268.6087
966.0779, 266.2655
966.5600, 265.5868
967.0421, 266.1849
967.5242, 267.0490
968.0063, 268.2301
968.4885, 268.9938
968.9706, 268.4918
969.4527, 267.7487
969.9348, 268.2267
970.4169, 270.4596
970.8990, 270.9697
971.3812, 269.2682
971.8633, 267.4856
972.3454, 268.2864
972.8275, 270.1050
973.3096, 270.4180
973.7917, 269.0160
974.2739, 268.0464
974.7560, 268.3833
975.2381, 269.2357
975.7202, 270.6289
976.2023, 272.2684
976.6844, 272.4733
977.1666, 271.2651
977.6487, 270.2195
978.1308, 270.1041
978.6129, 270.2443
979.0950, 269.8700
979.5771, 269.2829
980.0593, 268.9736
980.5414, 269.1881
981.0235, 269.5306
981.5056, 269.9928
981.9877, 270.5622
982.4698, 271.3473
982.9520, 272.2688
983.4341, 272.9043
983.9162, 273.2212
984.3983, 273.0447
984.8804, 271.4663
985.3625, 269.9944
985.8447, 269.9020
986.3268, 271.1877
986.8089, 272.2413
987.2910, 273.2027
987.7731, 273.4250
988.2552, 272.3447
988.7374, 270.8889
989.2195, 271.1516
989.7016, 272.5893
990.1837, 273.8239
990.6658, 274.4545
991.1479, 274.6948
991.6301, 274.3678
992.1122, 273.8560
992.5944, 273.4746
993.0765, 273.1720
993.5586, 273.4770
994.0407, 274.5002
994.5228, 275.2650
995.0049, 274.4701
995.4871, 273.2393
995.9692, 273.3285
996.4513, 274.5528
996.9334, 275.1705
997.4155, 273.6333
997.8976, 272.7132
998.3798, 273.3835
998.8619, 274.8534
999.3440, 275.0452
999.8261, 274.1253
1000.308, 273.7484
1000.790, 274.5026
1001.272, 275.3675
1001.755, 275.2935
1002.237, 274.9883
1002.719, 275.2840
1003.201, 276.6348
1003.683, 277.4647
1004.165, 277.7539
1004.647, 277.5958
1005.129, 276.5984
1005.612, 275.2993
1006.094, 275.6802
1006.576, 277.3300
1007.058, 278.3163
1007.540, 276.3861
1008.022, 274.9887
1008.504, 276.3907
1008.986, 278.9213
1009.468, 279.5450
1009.951, 277.9374
1010.433, 277.1194
1010.915, 277.6789
1011.397, 278.4677
1011.879, 278.0138
1012.361, 277.1161
1012.843, 276.7920
1013.325, 277.2563
1013.807, 277.7030
1014.290, 277.8186
1014.772, 278.1761
1015.254, 279.3051
1015.736, 280.7899
1016.218, 280.4381
1016.700, 278.6597
1017.182, 277.8603
1017.664, 280.0741
1018.147, 282.3530
1018.629, 282.6371
1019.111, 281.8634
1019.593, 281.4746
1020.075, 281.6146
1020.557, 282.0087
1021.039, 282.8051
1021.521, 283.2257
1022.003, 281.9356
1022.486, 280.0047
1022.968, 279.4872
1023.450, 280.3833
1023.932, 281.2948
1024.414, 281.9642
1024.896, 282.1951
1025.378, 281.8478
1025.860, 281.0883
1026.343, 280.1886
1026.825, 279.2109
1027.307, 278.8460
1027.789, 279.3114
1028.271, 280.3511
1028.753, 282.5245
1029.235, 284.7171
1029.717, 285.5285
1030.199, 284.2462
1030.682, 283.5080
1031.164, 283.4493
1031.646, 283.5412
1032.128, 283.5102
1032.610, 283.3665
1033.092, 282.8832
1033.574, 282.2632
1034.056, 282.2689
1034.539, 283.7647
1035.021, 285.3156
1035.503, 286.8564
1035.985, 287.9623
1036.467, 287.8323
1036.949, 286.4257
1037.431, 285.4208
1037.913, 285.0152
1038.396, 284.9284
1038.878, 285.1947
1039.360, 285.4527
1039.842, 285.2374
1040.324, 284.5233
1040.806, 284.2421
1041.288, 284.6060
1041.770, 284.9982
1042.252, 285.2180
1042.734, 285.3632
1043.217, 285.6528
1043.699, 286.0380
1044.181, 286.4179
1044.663, 286.8688
1045.145, 287.0639
1045.627, 286.6689
1046.109, 286.1314
1046.591, 285.6229
1047.074, 285.1068
1047.556, 285.9935
1048.038, 288.2969
1048.520, 289.9812
1049.002, 288.9962
1049.484, 287.4141
1049.966, 286.5548
1050.448, 286.5654
1050.931, 287.9634
1051.413, 292.1874
1051.895, 294.4908
1052.377, 294.0531
1052.859, 292.3167
1053.341, 290.2809
1053.823, 288.4702
1054.305, 288.3696
1054.787, 290.1534
1055.270, 291.6525
1055.752, 291.6199
1056.234, 291.3857
1056.716, 291.5669
1057.198, 291.9945
1057.680, 291.9886
1058.162, 291.5694
1058.644, 291.0120
1059.126, 290.2628
1059.609, 289.7625
1060.091, 289.9731
1060.573, 290.6143
1061.055, 291.4955
1061.537, 292.8503
1062.019, 293.3231
1062.501, 292.7290
1062.983, 291.9465
1063.466, 291.7091
1063.948, 291.6002
1064.430, 290.4673
1064.912, 288.7679
1065.394, 287.8659
1065.876, 289.2163
1066.358, 290.1562
1066.840, 290.0627
1067.323, 289.5936
1067.805, 289.3341
1068.287, 289.3582
1068.769, 290.5131
1069.251, 292.8526
1069.733, 294.8844
1070.215, 295.1502
1070.697, 295.1104
1071.179, 295.8385
1071.661, 297.0996
1072.144, 297.7604
1072.626, 297.7481
1073.108, 297.5495
1073.590, 297.2271
1074.072, 296.9613
1074.554, 297.0638
1075.036, 297.3301
1075.518, 297.4745
1076.001, 297.4044
1076.483, 297.4654
1076.965, 297.7880
1077.447, 298.0305
1077.929, 297.9163
1078.411, 297.6556
1078.893, 298.0923
1079.375, 298.9310
1079.858, 299.1882
1080.340, 297.6461
1080.822, 296.6090
1081.304, 297.2182
1081.786, 298.4292
1082.268, 299.4012
1082.750, 300.1209
1083.232, 300.8396
1083.714, 301.5630
1084.197, 301.8951
1084.679, 301.2638
1085.161, 300.4068
1085.643, 299.6806
1086.125, 299.2166
1086.607, 299.3229
1087.089, 300.2305
1087.571, 300.9398
1088.054, 301.3281
1088.536, 301.4092
1089.018, 301.0783
1089.500, 300.5060
1089.982, 299.8276
1090.464, 299.0517
1090.946, 298.6823
1091.428, 298.8311
1091.911, 299.3790
1092.393, 300.4244
1092.875, 301.7036
1093.357, 302.7928
1093.839, 303.5812
1094.321, 303.5758
1094.803, 302.2122
1095.285, 301.4447
1095.767, 303.2320
1096.250, 304.9851
1096.732, 304.6705
1097.214, 302.4656
1097.696, 302.1884
1098.178, 303.7439
1098.660, 305.1362
1099.142, 305.3134
1099.624, 304.9786
1100.106, 304.2273
1100.589, 303.4873
1101.071, 303.4888
1101.553, 304.5697
1102.035, 305.2727
1102.517, 305.5221
1102.999, 305.6729
1103.481, 306.0809
1103.963, 306.5234
1104.446, 306.5721
1104.928, 306.3554
1105.410, 306.4587
1105.892, 307.3416
1106.374, 307.9569
1106.856, 308.0868
1107.338, 308.0516
1107.820, 308.4017
1108.302, 308.9027
1108.785, 308.8883
1109.267, 308.2854
1109.749, 307.8869
1110.231, 308.3371
1110.713, 308.6883
1111.195, 308.4617
1111.677, 308.9007
1112.159, 309.1839
1112.641, 309.2294
1113.124, 309.8733
1113.606, 309.9075
1114.088, 309.9770
1114.570, 311.0138
1115.052, 311.8399
1115.534, 311.1055
1116.016, 308.9548
1116.498, 308.9898
1116.981, 311.2934
1117.463, 313.2770
1117.945, 313.8891
1118.427, 313.5628
1118.909, 311.7972
1119.391, 309.7614
1119.873, 309.2636
1120.355, 311.1254
1120.838, 312.5245
1121.320, 313.4302
1121.802, 313.9893
1122.284, 314.3651
1122.766, 314.4160
1123.248, 313.6956
1123.730, 312.4814
1124.212, 311.5158
1124.694, 310.7604
1125.177, 310.7777
1125.659, 311.8676
1126.141, 313.2217
1126.623, 313.9968
1127.105, 314.3645
1127.587, 314.8988
1128.069, 315.5522
1128.551, 315.7328
1129.033, 314.6782
1129.516, 313.7111
1129.998, 313.0732
1130.480, 312.8308
1130.962, 313.2900
1131.444, 314.2823
1131.926, 314.9976
1132.408, 315.3239
1132.890, 315.3297
1133.373, 314.5264
1133.855, 313.9695
1134.337, 314.4803
1134.819, 315.6622
1135.301, 316.0636
1135.783, 315.7157
1136.265, 315.5143
1136.747, 315.7277
1137.229, 315.9967
1137.712, 315.7509
1138.194, 315.6116
1138.676, 316.4142
1139.158, 318.1532
1139.640, 318.7852
1140.122, 318.1920
1140.604, 317.6332
1141.086, 317.5077
1141.569, 317.8465
1142.051, 319.4106
1142.533, 321.1161
1143.015, 321.2884
1143.497, 318.8431
1143.979, 318.0871
1144.461, 319.5469
1144.943, 320.6112
1145.426, 319.1319
1145.908, 316.7457
1146.390, 315.7840
1146.872, 316.0094
1147.354, 316.9250
1147.836, 319.1208
1148.318, 320.9088
1148.800, 322.2563
1149.282, 323.1784
1149.765, 323.8019
1150.247, 323.9724
1150.729, 322.8857
1151.211, 320.9276
1151.693, 319.6846
1152.175, 320.5850
1152.657, 321.1010
1153.139, 320.6216
1153.621, 319.9415
1154.104, 320.0463
1154.586, 320.7298
1155.068, 321.4074
1155.550, 322.0183
1156.032, 322.3421
1156.514, 322.2061
1156.996, 321.7771
1157.478, 320.6806
1157.961, 319.7486
1158.443, 321.1342
1158.925, 324.2139
1159.407, 325.1390
1159.889, 323.3108
1160.371, 321.6027
1160.853, 321.8231
1161.335, 322.5630
1161.818, 322.9575
1162.300, 323.3309
1162.782, 325.1158
1163.264, 328.1011
1163.746, 329.6765
1164.228, 329.1016
1164.710, 328.1732
1165.192, 328.3038
1165.674, 328.4732
1166.156, 327.6682
1166.639, 326.1639
1167.121, 325.9085
1167.603, 326.8991
1168.085, 327.9063
1168.567, 328.6674
1169.049, 328.9712
1169.531, 328.1080
1170.013, 327.0568
1170.496, 326.8885
1170.978, 327.6255
1171.460, 328.2550
1171.942, 328.7930
1172.424, 328.9079
1172.906, 328.1892
1173.388, 327.4388
1173.870, 327.3924
1174.353, 327.8384
1174.835, 328.5639
1175.317, 329.5925
1175.799, 330.7315
1176.281, 332.0905
1176.763, 332.7549
1177.245, 331.7536
1177.727, 330.3033
1178.209, 329.6360
1178.692, 329.5397
1179.174, 329.7057
1179.656, 330.3161
1180.138, 330.4821
1180.620, 330.1163
1181.102, 329.7457
1181.584, 329.5311
1182.066, 329.6907
1182.548, 331.0135
1183.031, 332.8543
1183.513, 333.6588
1183.995, 332.6194
1184.477, 331.7892
1184.959, 331.1499
1185.441, 331.1120
1185.923, 332.8608
1186.405, 334.8795
1186.888, 334.5390
1187.370, 332.5528
1187.852, 331.6840
1188.334, 333.4327
1188.816, 334.0441
1189.298, 332.8672
1189.780, 331.5685
1190.262, 332.0054
1190.745, 333.3471
1191.227, 334.5311
1191.709, 335.4653
1192.191, 336.0852
1192.673, 336.4341
1193.155, 336.2378
1193.637, 335.2144
1194.119, 334.3136
1194.601, 335.1238
1195.084, 336.5760
1195.566, 336.6322
1196.048, 335.3491
1196.530, 335.0746
1197.012, 337.1259
1197.494, 338.3740
1197.976, 338.0158
1198.458, 337.1559
1198.941, 337.5557
1199.423, 338.4357
1199.905, 338.3114
1200.387, 337.0579
1200.869, 336.1843
1201.351, 336.2354
1201.833, 336.1012
1202.315, 335.3171
1202.797, 334.6377
1203.280, 335.8311
1203.762, 337.7667
1204.244, 338.1613
1204.726, 336.5689
1205.208, 336.1607
1205.690, 338.5381
1206.172, 339.8207
1206.654, 338.3752
1207.136, 336.1276
1207.619, 336.9421
1208.101, 339.1846
1208.583, 339.6937
1209.065, 337.5506
1209.547, 336.7819
1210.029, 338.7252
1210.511, 340.2659
1210.993, 340.0684
1211.476, 339.2370
1211.958, 340.0205
1212.440, 341.5798
1212.922, 342.3128
1213.404, 341.7009
1213.886, 341.3988
1214.368, 341.6461
1214.850, 342.1075
1215.333, 342.7905
1215.815, 343.3940
1216.297, 343.2779
1216.779, 342.7129
1217.261, 342.1776
1217.743, 341.7848
1218.225, 341.2464
1218.707, 340.0592
1219.189, 340.0899
1219.672, 343.0081
1220.154, 346.6276
1220.636, 346.7495
1221.118, 344.7083
1221.600, 342.6874
1222.082, 340.8051
1222.564, 340.5474
1223.046, 342.4669
1223.528, 344.5059
1224.011, 345.8337
1224.493, 346.3671
1224.975, 345.2073
1225.457, 343.4004
1225.939, 342.8558
1226.421, 344.7762
1226.903, 345.8881
1227.385, 346.1053
1227.868, 345.6709
1228.350, 344.1109
1228.832, 342.6579
1229.314, 344.0224
1229.796, 343.1105
1230.278, 343.1161
1230.760, 344.3178
1231.242, 343.6210
1231.724, 345.7252
1232.207, 347.5397
1232.689, 346.7554
1233.171, 345.1853
1233.653, 345.1155
1234.135, 345.9288
1234.617, 346.6391
1235.099, 347.2556
1235.581, 347.2119
1236.063, 346.3978
1236.546, 345.7331
1237.028, 346.0786
1237.510, 346.5668
1237.992, 345.9477
1238.474, 344.9745
1238.956, 344.9785
1239.438, 346.2592
1239.920, 347.4902
1240.403, 348.6733
1240.885, 349.4940
1241.367, 349.4652
1241.849, 349.2542
1242.331, 349.6465
1242.813, 350.1067
1243.295, 349.6389
1243.777, 350.1242
1244.260, 350.9187
1244.742, 350.3150
1245.224, 352.3101
1245.706, 352.2491
1246.188, 351.5616
1246.670, 350.9489
1247.152, 350.4491
1247.634, 350.1384
1248.116, 350.0453
1248.599, 349.6445
1249.081, 348.9725
1249.563, 348.5382
1250.045, 348.5964
1250.527, 349.0410
1251.009, 349.9779
1251.491, 351.1713
1251.973, 352.6080
1252.455, 354.2303
1252.938, 354.6203
1253.420, 353.8543
1253.902, 352.6934
1254.384, 350.7483
1254.866, 349.5352
1255.348, 350.1201
1255.830, 351.1367
1256.313, 351.1420
1256.795, 350.4633
1257.277, 351.6984
1257.759, 354.3644
1258.241, 355.9096
1258.723, 354.0415
1259.205, 352.4791
1259.687, 351.8173
1260.169, 351.8632
1260.651, 352.7550
1261.134, 354.1588
1261.616, 355.0324
1262.098, 355.4547
1262.580, 355.7804
1263.062, 356.0211
1263.544, 356.3675
1264.026, 356.9157
1264.508, 357.3787
1264.991, 357.6363
1265.473, 357.5802
1265.955, 356.5869
1266.437, 355.1368
1266.919, 354.5031
1267.401, 355.9131
1267.883, 356.3847
1268.365, 355.6107
1268.848, 354.9477
1269.330, 355.8405
1269.812, 357.1317
1270.294, 357.2444
1270.776, 356.6233
1271.258, 356.2425
1271.740, 356.1783
1272.222, 356.4122
1272.704, 356.9655
1273.187, 357.5657
1273.669, 357.9756
1274.151, 358.3891
1274.633, 359.2591
1275.115, 360.0938
1275.597, 360.1123
1276.079, 359.1840
1276.561, 358.1978
1277.043, 357.1819
1277.526, 356.6332
1278.008, 357.1007
1278.490, 357.8658
1278.972, 358.7050
1279.454, 359.4925
1279.936, 360.1435
1280.418, 360.6456
1280.900, 360.7193
1281.383, 360.4527
1281.865, 360.4318
1282.347, 361.4142
1282.829, 361.9987
1283.311, 361.3586
1283.793, 360.5751
1284.275, 360.3707
1284.757, 360.7023
1285.240, 361.7706
1285.722, 363.2496
1286.204, 364.0307
1286.686, 363.1032
1287.168, 362.5443
1287.650, 362.7701
1288.132, 362.9746
1288.614, 362.2676
1289.096, 361.4196
1289.578, 362.4190
1290.061, 364.4026
1290.543, 365.5921
1291.025, 365.2299
1291.507, 364.6252
1291.989, 363.6377
1292.471, 363.0458
1292.953, 363.4482
1293.435, 364.2744
1293.918, 365.1225
1294.400, 365.8122
1294.882, 366.0547
1295.364, 365.8420
1295.846, 365.3260
1296.328, 364.5038
1296.810, 364.0002
1297.292, 364.0240
1297.775, 364.5557
1298.257, 366.4056
1298.739, 368.1309
1299.221, 368.2411
1299.703, 366.9492
1300.185, 366.3882
1300.667, 366.4956
1301.149, 366.9396
1301.631, 367.8296
1302.114, 368.2605
1302.596, 368.3294
##END=



