##NAMES=Corvusite
##RRUFFID=R060265
##IDEAL CHEMISTRY=(Na,Ca,K)_1-x_(V^5+^,V^4+^,Fe^2+^)_8_O_20_&#183;4H_2_O
##LOCALITY=Monument no. 2 mine, Monument Valley, Apache County, Arizona, USA
##OWNER=RRUFF
##SOURCE=Michael Scott
##DESCRIPTION=Dark brown lathlike bladed crystals in parallel
##STATUS=The identification of this mineral is not yet confirmed.
##URL=rruff.info/R060265
9.059570e+001, 1.310031e+004
9.107782e+001, 1.270496e+004
9.155994e+001, 1.256501e+004
9.204205e+001, 1.285231e+004
9.252417e+001, 1.327929e+004
9.300629e+001, 1.375422e+004
9.348840e+001, 1.417067e+004
9.397052e+001, 1.443147e+004
9.445264e+001, 1.449538e+004
9.493475e+001, 1.456700e+004
9.541687e+001, 1.460247e+004
9.589898e+001, 1.463271e+004
9.638110e+001, 1.463829e+004
9.686321e+001, 1.460464e+004
9.734533e+001, 1.451760e+004
9.782745e+001, 1.435226e+004
9.830956e+001, 1.414378e+004
9.879168e+001, 1.387425e+004
9.927380e+001, 1.360291e+004
9.975591e+001, 1.333088e+004
1.002380e+002, 1.306136e+004
1.007201e+002, 1.280986e+004
1.012023e+002, 1.258267e+004
1.016844e+002, 1.238181e+004
1.021665e+002, 1.220091e+004
1.026486e+002, 1.203415e+004
1.031307e+002, 1.188681e+004
1.036128e+002, 1.176336e+004
1.040950e+002, 1.166158e+004
1.045771e+002, 1.158556e+004
1.050592e+002, 1.154309e+004
1.055413e+002, 1.152275e+004
1.060234e+002, 1.151232e+004
1.065055e+002, 1.150246e+004
1.069877e+002, 1.149687e+004
1.074698e+002, 1.151363e+004
1.079519e+002, 1.156708e+004
1.084340e+002, 1.162600e+004
1.089161e+002, 1.167772e+004
1.093982e+002, 1.172348e+004
1.098804e+002, 1.176721e+004
1.103625e+002, 1.181021e+004
1.108446e+002, 1.184925e+004
1.113267e+002, 1.190331e+004
1.118088e+002, 1.197476e+004
1.122909e+002, 1.205731e+004
1.127731e+002, 1.215039e+004
1.132552e+002, 1.225258e+004
1.137373e+002, 1.236178e+004
1.142194e+002, 1.247305e+004
1.147015e+002, 1.257807e+004
1.151836e+002, 1.270583e+004
1.156658e+002, 1.286376e+004
1.161479e+002, 1.303988e+004
1.166300e+002, 1.322427e+004
1.171121e+002, 1.341416e+004
1.175942e+002, 1.360899e+004
1.180763e+002, 1.380567e+004
1.185584e+002, 1.399857e+004
1.190406e+002, 1.420310e+004
1.195227e+002, 1.442402e+004
1.200048e+002, 1.465956e+004
1.204869e+002, 1.490537e+004
1.209690e+002, 1.515285e+004
1.214511e+002, 1.541682e+004
1.219333e+002, 1.571710e+004
1.224154e+002, 1.606105e+004
1.228975e+002, 1.642783e+004
1.233796e+002, 1.679583e+004
1.238617e+002, 1.716442e+004
1.243438e+002, 1.754610e+004
1.248260e+002, 1.795137e+004
1.253081e+002, 1.836938e+004
1.257902e+002, 1.879320e+004
1.262723e+002, 1.921338e+004
1.267544e+002, 1.964129e+004
1.272365e+002, 2.009605e+004
1.277187e+002, 2.057987e+004
1.282008e+002, 2.109557e+004
1.286829e+002, 2.163940e+004
1.291650e+002, 2.221200e+004
1.296471e+002, 2.281245e+004
1.301292e+002, 2.344182e+004
1.306114e+002, 2.409942e+004
1.310935e+002, 2.477351e+004
1.315756e+002, 2.547059e+004
1.320577e+002, 2.618465e+004
1.325398e+002, 2.691389e+004
1.330219e+002, 2.765955e+004
1.335041e+002, 2.841921e+004
1.339862e+002, 2.919434e+004
1.344683e+002, 2.999055e+004
1.349504e+002, 3.078877e+004
1.354325e+002, 3.160033e+004
1.359146e+002, 3.240611e+004
1.363968e+002, 3.319888e+004
1.368789e+002, 3.397546e+004
1.373610e+002, 3.472983e+004
1.378431e+002, 3.545005e+004
1.383252e+002, 3.614062e+004
1.388073e+002, 3.675697e+004
1.392895e+002, 3.731564e+004
1.397716e+002, 3.779336e+004
1.402537e+002, 3.816957e+004
1.407358e+002, 3.844196e+004
1.412179e+002, 3.859462e+004
1.417000e+002, 3.860521e+004
1.421821e+002, 3.849554e+004
1.426643e+002, 3.823310e+004
1.431464e+002, 3.779209e+004
1.436285e+002, 3.718427e+004
1.441106e+002, 3.644349e+004
1.445927e+002, 3.554329e+004
1.450748e+002, 3.453357e+004
1.455570e+002, 3.346440e+004
1.460391e+002, 3.233921e+004
1.465212e+002, 3.117940e+004
1.470033e+002, 2.999293e+004
1.474854e+002, 2.877393e+004
1.479675e+002, 2.756749e+004
1.484497e+002, 2.635582e+004
1.489318e+002, 2.516530e+004
1.494139e+002, 2.400001e+004
1.498960e+002, 2.286786e+004
1.503781e+002, 2.177899e+004
1.508602e+002, 2.076210e+004
1.513424e+002, 1.981822e+004
1.518245e+002, 1.893534e+004
1.523066e+002, 1.810076e+004
1.527887e+002, 1.731449e+004
1.532708e+002, 1.657079e+004
1.537529e+002, 1.587162e+004
1.542351e+002, 1.521613e+004
1.547172e+002, 1.460528e+004
1.551993e+002, 1.406274e+004
1.556814e+002, 1.354771e+004
1.561635e+002, 1.306185e+004
1.566456e+002, 1.260003e+004
1.571278e+002, 1.215848e+004
1.576099e+002, 1.173441e+004
1.580920e+002, 1.133078e+004
1.585741e+002, 1.096437e+004
1.590562e+002, 1.064967e+004
1.595383e+002, 1.034874e+004
1.600205e+002, 1.005156e+004
1.605026e+002, 9.762229e+003
1.609847e+002, 9.490983e+003
1.614668e+002, 9.247209e+003
1.619489e+002, 9.026805e+003
1.624310e+002, 8.810471e+003
1.629131e+002, 8.589494e+003
1.633953e+002, 8.380670e+003
1.638774e+002, 8.199065e+003
1.643595e+002, 8.042420e+003
1.648416e+002, 7.891890e+003
1.653237e+002, 7.733521e+003
1.658058e+002, 7.574640e+003
1.662880e+002, 7.431065e+003
1.667701e+002, 7.311121e+003
1.672522e+002, 7.201125e+003
1.677343e+002, 7.083569e+003
1.682164e+002, 6.955045e+003
1.686985e+002, 6.836176e+003
1.691807e+002, 6.744461e+003
1.696628e+002, 6.668828e+003
1.701449e+002, 6.597419e+003
1.706270e+002, 6.526944e+003
1.711091e+002, 6.457741e+003
1.715912e+002, 6.389753e+003
1.720734e+002, 6.319833e+003
1.725555e+002, 6.257884e+003
1.730376e+002, 6.208000e+003
1.735197e+002, 6.166429e+003
1.740018e+002, 6.127880e+003
1.744839e+002, 6.089736e+003
1.749661e+002, 6.052185e+003
1.754482e+002, 6.016960e+003
1.759303e+002, 5.987554e+003
1.764124e+002, 5.956573e+003
1.768945e+002, 5.917149e+003
1.773766e+002, 5.875021e+003
1.778588e+002, 5.840874e+003
1.783409e+002, 5.823306e+003
1.788230e+002, 5.822460e+003
1.793051e+002, 5.817808e+003
1.797872e+002, 5.802875e+003
1.802693e+002, 5.790465e+003
1.807515e+002, 5.784253e+003
1.812336e+002, 5.783854e+003
1.817157e+002, 5.787375e+003
1.821978e+002, 5.793349e+003
1.826799e+002, 5.801867e+003
1.831620e+002, 5.812212e+003
1.836441e+002, 5.824487e+003
1.841263e+002, 5.837935e+003
1.846084e+002, 5.852418e+003
1.850905e+002, 5.867777e+003
1.855726e+002, 5.883466e+003
1.860547e+002, 5.898478e+003
1.865368e+002, 5.912540e+003
1.870190e+002, 5.930889e+003
1.875011e+002, 5.960042e+003
1.879832e+002, 5.988632e+003
1.884653e+002, 6.007393e+003
1.889474e+002, 6.015477e+003
1.894296e+002, 6.020134e+003
1.899117e+002, 6.029554e+003
1.903938e+002, 6.043202e+003
1.908759e+002, 6.048533e+003
1.913580e+002, 6.036392e+003
1.918401e+002, 6.018852e+003
1.923223e+002, 6.014408e+003
1.928044e+002, 6.028846e+003
1.932865e+002, 6.036622e+003
1.937686e+002, 6.002964e+003
1.942507e+002, 5.939887e+003
1.947328e+002, 5.881396e+003
1.952150e+002, 5.842170e+003
1.956971e+002, 5.813591e+003
1.961792e+002, 5.779604e+003
1.966613e+002, 5.739920e+003
1.971434e+002, 5.692032e+003
1.976255e+002, 5.631284e+003
1.981077e+002, 5.561040e+003
1.985898e+002, 5.490583e+003
1.990719e+002, 5.425047e+003
1.995540e+002, 5.362966e+003
2.000361e+002, 5.298157e+003
2.005182e+002, 5.226144e+003
2.010004e+002, 5.157462e+003
2.014825e+002, 5.098707e+003
2.019646e+002, 5.047553e+003
2.024467e+002, 4.998889e+003
2.029288e+002, 4.949372e+003
2.034109e+002, 4.899056e+003
2.038930e+002, 4.850083e+003
2.043752e+002, 4.799883e+003
2.048573e+002, 4.754600e+003
2.053394e+002, 4.719950e+003
2.058215e+002, 4.692613e+003
2.063036e+002, 4.664339e+003
2.067857e+002, 4.627505e+003
2.072679e+002, 4.581389e+003
2.077500e+002, 4.540978e+003
2.082321e+002, 4.509593e+003
2.087142e+002, 4.481247e+003
2.091963e+002, 4.455853e+003
2.096784e+002, 4.432340e+003
2.101606e+002, 4.408623e+003
2.106427e+002, 4.382282e+003
2.111248e+002, 4.352595e+003
2.116069e+002, 4.328203e+003
2.120890e+002, 4.310328e+003
2.125711e+002, 4.295978e+003
2.130533e+002, 4.288256e+003
2.135354e+002, 4.284086e+003
2.140175e+002, 4.274570e+003
2.144996e+002, 4.249838e+003
2.149817e+002, 4.205376e+003
2.154638e+002, 4.178606e+003
2.159460e+002, 4.182584e+003
2.164281e+002, 4.188396e+003
2.169102e+002, 4.180327e+003
2.173923e+002, 4.159544e+003
2.178744e+002, 4.137390e+003
2.183565e+002, 4.123866e+003
2.188387e+002, 4.120013e+003
2.193208e+002, 4.119876e+003
2.198029e+002, 4.129658e+003
2.202850e+002, 4.137731e+003
2.207671e+002, 4.135625e+003
2.212492e+002, 4.123786e+003
2.217314e+002, 4.109760e+003
2.222135e+002, 4.099681e+003
2.226956e+002, 4.093959e+003
2.231777e+002, 4.088370e+003
2.236598e+002, 4.079744e+003
2.241419e+002, 4.073488e+003
2.246240e+002, 4.076308e+003
2.251062e+002, 4.087932e+003
2.255883e+002, 4.097837e+003
2.260704e+002, 4.095068e+003
2.265525e+002, 4.081888e+003
2.270346e+002, 4.077023e+003
2.275167e+002, 4.089694e+003
2.279989e+002, 4.106127e+003
2.284810e+002, 4.110341e+003
2.289631e+002, 4.101075e+003
2.294452e+002, 4.097153e+003
2.299273e+002, 4.120567e+003
2.304094e+002, 4.159935e+003
2.308916e+002, 4.183487e+003
2.313737e+002, 4.177547e+003
2.318558e+002, 4.158097e+003
2.323379e+002, 4.140800e+003
2.328200e+002, 4.125407e+003
2.333021e+002, 4.113906e+003
2.337843e+002, 4.109231e+003
2.342664e+002, 4.109105e+003
2.347485e+002, 4.110385e+003
2.352306e+002, 4.111132e+003
2.357127e+002, 4.113940e+003
2.361948e+002, 4.125304e+003
2.366770e+002, 4.148813e+003
2.371591e+002, 4.166087e+003
2.376412e+002, 4.157280e+003
2.381233e+002, 4.140154e+003
2.386054e+002, 4.135780e+003
2.390875e+002, 4.155296e+003
2.395697e+002, 4.183540e+003
2.400518e+002, 4.194090e+003
2.405339e+002, 4.180301e+003
2.410160e+002, 4.170297e+003
2.414981e+002, 4.180370e+003
2.419802e+002, 4.197117e+003
2.424624e+002, 4.206580e+003
2.429445e+002, 4.202210e+003
2.434266e+002, 4.194302e+003
2.439087e+002, 4.203224e+003
2.443908e+002, 4.237938e+003
2.448729e+002, 4.264759e+003
2.453550e+002, 4.267887e+003
2.458372e+002, 4.263128e+003
2.463193e+002, 4.262927e+003
2.468014e+002, 4.271441e+003
2.472835e+002, 4.286121e+003
2.477656e+002, 4.305042e+003
2.482477e+002, 4.334485e+003
2.487299e+002, 4.352161e+003
2.492120e+002, 4.342077e+003
2.496941e+002, 4.327321e+003
2.501762e+002, 4.326322e+003
2.506583e+002, 4.344566e+003
2.511404e+002, 4.372936e+003
2.516226e+002, 4.396385e+003
2.521047e+002, 4.411586e+003
2.525868e+002, 4.429179e+003
2.530689e+002, 4.454075e+003
2.535510e+002, 4.478828e+003
2.540331e+002, 4.496771e+003
2.545153e+002, 4.506777e+003
2.549974e+002, 4.514735e+003
2.554795e+002, 4.530514e+003
2.559616e+002, 4.560151e+003
2.564437e+002, 4.584464e+003
2.569258e+002, 4.598528e+003
2.574080e+002, 4.611468e+003
2.578901e+002, 4.628868e+003
2.583722e+002, 4.651906e+003
2.588543e+002, 4.678773e+003
2.593364e+002, 4.707585e+003
2.598185e+002, 4.740443e+003
2.603007e+002, 4.769736e+003
2.607828e+002, 4.788116e+003
2.612649e+002, 4.809454e+003
2.617470e+002, 4.844585e+003
2.622291e+002, 4.893303e+003
2.627112e+002, 4.945238e+003
2.631934e+002, 4.988103e+003
2.636755e+002, 5.017103e+003
2.641576e+002, 5.054829e+003
2.646397e+002, 5.103567e+003
2.651218e+002, 5.157005e+003
2.656039e+002, 5.211771e+003
2.660861e+002, 5.267522e+003
2.665682e+002, 5.325804e+003
2.670503e+002, 5.388189e+003
2.675324e+002, 5.454833e+003
2.680145e+002, 5.524290e+003
2.684966e+002, 5.595864e+003
2.689788e+002, 5.670130e+003
2.694609e+002, 5.748239e+003
2.699430e+002, 5.829361e+003
2.704251e+002, 5.910250e+003
2.709072e+002, 5.987390e+003
2.713893e+002, 6.059793e+003
2.718715e+002, 6.145243e+003
2.723536e+002, 6.246221e+003
2.728357e+002, 6.354399e+003
2.733178e+002, 6.470804e+003
2.737999e+002, 6.591935e+003
2.742820e+002, 6.708380e+003
2.747642e+002, 6.812542e+003
2.752463e+002, 6.906316e+003
2.757284e+002, 7.011452e+003
2.762105e+002, 7.135498e+003
2.766926e+002, 7.260012e+003
2.771747e+002, 7.381069e+003
2.776568e+002, 7.498514e+003
2.781389e+002, 7.613509e+003
2.786211e+002, 7.728176e+003
2.791032e+002, 7.838882e+003
2.795853e+002, 7.928935e+003
2.800674e+002, 7.988723e+003
2.805495e+002, 8.044323e+003
2.810316e+002, 8.110694e+003
2.815138e+002, 8.176337e+003
2.819959e+002, 8.219931e+003
2.824780e+002, 8.231495e+003
2.829601e+002, 8.218667e+003
2.834422e+002, 8.199212e+003
2.839243e+002, 8.176633e+003
2.844065e+002, 8.142897e+003
2.848886e+002, 8.095178e+003
2.853707e+002, 8.035621e+003
2.858528e+002, 7.967314e+003
2.863349e+002, 7.891126e+003
2.868170e+002, 7.806368e+003
2.872992e+002, 7.707952e+003
2.877813e+002, 7.590603e+003
2.882634e+002, 7.480147e+003
2.887455e+002, 7.390216e+003
2.892276e+002, 7.305970e+003
2.897097e+002, 7.209197e+003
2.901919e+002, 7.095487e+003
2.906740e+002, 6.974805e+003
2.911561e+002, 6.856826e+003
2.916382e+002, 6.742164e+003
2.921203e+002, 6.629009e+003
2.926024e+002, 6.514392e+003
2.930846e+002, 6.402775e+003
2.935667e+002, 6.301417e+003
2.940488e+002, 6.210554e+003
2.945309e+002, 6.119080e+003
2.950130e+002, 6.013370e+003
2.954951e+002, 5.893704e+003
2.959773e+002, 5.789942e+003
2.964594e+002, 5.711508e+003
2.969415e+002, 5.643242e+003
2.974236e+002, 5.576278e+003
2.979057e+002, 5.509824e+003
2.983878e+002, 5.440600e+003
2.988700e+002, 5.364757e+003
2.993521e+002, 5.284078e+003
2.998342e+002, 5.209367e+003
3.003163e+002, 5.141017e+003
3.007984e+002, 5.078627e+003
3.012805e+002, 5.023428e+003
3.017627e+002, 4.974427e+003
3.022448e+002, 4.926257e+003
3.027269e+002, 4.875867e+003
3.032090e+002, 4.824369e+003
3.036911e+002, 4.775218e+003
3.041732e+002, 4.731951e+003
3.046554e+002, 4.684997e+003
3.051375e+002, 4.628416e+003
3.056196e+002, 4.564788e+003
3.061017e+002, 4.499121e+003
3.065838e+002, 4.431214e+003
3.070659e+002, 4.366238e+003
3.075481e+002, 4.316276e+003
3.080302e+002, 4.283113e+003
3.085123e+002, 4.252468e+003
3.089944e+002, 4.220974e+003
3.094765e+002, 4.188849e+003
3.099586e+002, 4.157710e+003
3.104408e+002, 4.128759e+003
3.109229e+002, 4.097889e+003
3.114050e+002, 4.058186e+003
3.118871e+002, 4.009316e+003
3.123692e+002, 3.962253e+003
3.128513e+002, 3.916759e+003
3.133335e+002, 3.875290e+003
3.138156e+002, 3.842053e+003
3.142977e+002, 3.817993e+003
3.147798e+002, 3.796115e+003
3.152619e+002, 3.770392e+003
3.157440e+002, 3.740794e+003
3.162262e+002, 3.710210e+003
3.167083e+002, 3.679566e+003
3.171904e+002, 3.647496e+003
3.176725e+002, 3.608177e+003
3.181546e+002, 3.562763e+003
3.186367e+002, 3.527839e+003
3.191188e+002, 3.518184e+003
3.196010e+002, 3.528390e+003
3.200831e+002, 3.528292e+003
3.205652e+002, 3.513210e+003
3.210473e+002, 3.492932e+003
3.215294e+002, 3.471616e+003
3.220115e+002, 3.449318e+003
3.224937e+002, 3.425182e+003
3.229758e+002, 3.397781e+003
3.234579e+002, 3.369792e+003
3.239400e+002, 3.348729e+003
3.244221e+002, 3.336053e+003
3.249042e+002, 3.325338e+003
3.253864e+002, 3.315590e+003
3.258685e+002, 3.306075e+003
3.263506e+002, 3.295248e+003
3.268327e+002, 3.282547e+003
3.273148e+002, 3.268655e+003
3.277969e+002, 3.254467e+003
3.282791e+002, 3.240055e+003
3.287612e+002, 3.225207e+003
3.292433e+002, 3.210031e+003
3.297254e+002, 3.194383e+003
3.302075e+002, 3.177318e+003
3.306896e+002, 3.158673e+003
3.311718e+002, 3.141012e+003
3.316539e+002, 3.126214e+003
3.321360e+002, 3.114634e+003
3.326181e+002, 3.108101e+003
3.331002e+002, 3.113151e+003
3.335823e+002, 3.118403e+003
3.340645e+002, 3.116408e+003
3.345466e+002, 3.106847e+003
3.350287e+002, 3.090889e+003
3.355108e+002, 3.067076e+003
3.359929e+002, 3.037542e+003
3.364750e+002, 3.017895e+003
3.369572e+002, 3.011793e+003
3.374393e+002, 3.010120e+003
3.379214e+002, 3.012062e+003
3.384035e+002, 3.015587e+003
3.388856e+002, 3.015328e+003
3.393677e+002, 3.008078e+003
3.398499e+002, 2.997225e+003
3.403320e+002, 2.992527e+003
3.408141e+002, 2.998781e+003
3.412962e+002, 3.001566e+003
3.417783e+002, 2.996472e+003
3.422604e+002, 2.987014e+003
3.427426e+002, 2.976787e+003
3.432247e+002, 2.966844e+003
3.437068e+002, 2.958580e+003
3.441889e+002, 2.954749e+003
3.446710e+002, 2.958925e+003
3.451531e+002, 2.956295e+003
3.456353e+002, 2.939327e+003
3.461174e+002, 2.920732e+003
3.465995e+002, 2.910402e+003
3.470816e+002, 2.908946e+003
3.475637e+002, 2.911219e+003
3.480458e+002, 2.913350e+003
3.485280e+002, 2.915427e+003
3.490101e+002, 2.914065e+003
3.494922e+002, 2.908965e+003
3.499743e+002, 2.901449e+003
3.504564e+002, 2.885980e+003
3.509385e+002, 2.868418e+003
3.514207e+002, 2.863930e+003
3.519028e+002, 2.883265e+003
3.523849e+002, 2.918268e+003
3.528670e+002, 2.933643e+003
3.533491e+002, 2.911616e+003
3.538312e+002, 2.892137e+003
3.543134e+002, 2.878624e+003
3.547955e+002, 2.870663e+003
3.552776e+002, 2.869962e+003
3.557597e+002, 2.876751e+003
3.562418e+002, 2.884630e+003
3.567239e+002, 2.882075e+003
3.572061e+002, 2.859338e+003
3.576882e+002, 2.846149e+003
3.581703e+002, 2.845962e+003
3.586524e+002, 2.851692e+003
3.591345e+002, 2.862232e+003
3.596166e+002, 2.875227e+003
3.600987e+002, 2.883833e+003
3.605808e+002, 2.880085e+003
3.610630e+002, 2.861726e+003
3.615451e+002, 2.852993e+003
3.620272e+002, 2.863900e+003
3.625093e+002, 2.873368e+003
3.629914e+002, 2.871875e+003
3.634735e+002, 2.863954e+003
3.639557e+002, 2.859571e+003
3.644378e+002, 2.865178e+003
3.649199e+002, 2.877711e+003
3.654020e+002, 2.883952e+003
3.658841e+002, 2.878525e+003
3.663662e+002, 2.873818e+003
3.668484e+002, 2.870732e+003
3.673305e+002, 2.869316e+003
3.678126e+002, 2.870269e+003
3.682947e+002, 2.873610e+003
3.687768e+002, 2.877435e+003
3.692589e+002, 2.877957e+003
3.697411e+002, 2.872029e+003
3.702232e+002, 2.871600e+003
3.707053e+002, 2.882368e+003
3.711874e+002, 2.893904e+003
3.716695e+002, 2.900851e+003
3.721516e+002, 2.903191e+003
3.726338e+002, 2.904104e+003
3.731159e+002, 2.906301e+003
3.735980e+002, 2.909713e+003
3.740801e+002, 2.912323e+003
3.745622e+002, 2.914557e+003
3.750443e+002, 2.915258e+003
3.755265e+002, 2.910862e+003
3.760086e+002, 2.905455e+003
3.764907e+002, 2.906151e+003
3.769728e+002, 2.917656e+003
3.774549e+002, 2.934206e+003
3.779370e+002, 2.941707e+003
3.784192e+002, 2.935497e+003
3.789013e+002, 2.933521e+003
3.793834e+002, 2.943002e+003
3.798655e+002, 2.957183e+003
3.803476e+002, 2.972187e+003
3.808297e+002, 2.987171e+003
3.813119e+002, 3.000822e+003
3.817940e+002, 3.012348e+003
3.822761e+002, 3.021752e+003
3.827582e+002, 3.026661e+003
3.832403e+002, 3.022324e+003
3.837224e+002, 3.018747e+003
3.842046e+002, 3.021085e+003
3.846867e+002, 3.029297e+003
3.851688e+002, 3.043061e+003
3.856509e+002, 3.066172e+003
3.861330e+002, 3.093942e+003
3.866151e+002, 3.115978e+003
3.870973e+002, 3.131642e+003
3.875794e+002, 3.143514e+003
3.880615e+002, 3.149662e+003
3.885436e+002, 3.153785e+003
3.890257e+002, 3.161436e+003
3.895078e+002, 3.174850e+003
3.899900e+002, 3.189769e+003
3.904721e+002, 3.201454e+003
3.909542e+002, 3.210656e+003
3.914363e+002, 3.223177e+003
3.919184e+002, 3.241668e+003
3.924005e+002, 3.263481e+003
3.928827e+002, 3.283472e+003
3.933648e+002, 3.300863e+003
3.938469e+002, 3.324246e+003
3.943290e+002, 3.361498e+003
3.948111e+002, 3.405367e+003
3.952932e+002, 3.445273e+003
3.957754e+002, 3.480290e+003
3.962575e+002, 3.508664e+003
3.967396e+002, 3.525387e+003
3.972217e+002, 3.532147e+003
3.977038e+002, 3.548378e+003
3.981859e+002, 3.584491e+003
3.986681e+002, 3.622115e+003
3.991501e+002, 3.649635e+003
3.996323e+002, 3.668460e+003
4.001144e+002, 3.684048e+003
4.005965e+002, 3.698198e+003
4.010786e+002, 3.712300e+003
4.015607e+002, 3.730474e+003
4.020428e+002, 3.753731e+003
4.025250e+002, 3.778462e+003
4.030071e+002, 3.806669e+003
4.034892e+002, 3.834837e+003
4.039713e+002, 3.858846e+003
4.044534e+002, 3.877669e+003
4.049355e+002, 3.893078e+003
4.054177e+002, 3.907539e+003
4.058998e+002, 3.922103e+003
4.063819e+002, 3.928605e+003
4.068640e+002, 3.919106e+003
4.073461e+002, 3.910162e+003
4.078282e+002, 3.915701e+003
4.083104e+002, 3.928848e+003
4.087925e+002, 3.930990e+003
4.092746e+002, 3.909612e+003
4.097567e+002, 3.870113e+003
4.102388e+002, 3.837196e+003
4.107209e+002, 3.818680e+003
4.112031e+002, 3.796959e+003
4.116852e+002, 3.769418e+003
4.121673e+002, 3.738737e+003
4.126494e+002, 3.707209e+003
4.131315e+002, 3.675542e+003
4.136136e+002, 3.643350e+003
4.140958e+002, 3.609160e+003
4.145779e+002, 3.570724e+003
4.150600e+002, 3.538811e+003
4.155421e+002, 3.518173e+003
4.160242e+002, 3.500006e+003
4.165063e+002, 3.483676e+003
4.169885e+002, 3.467145e+003
4.174706e+002, 3.446531e+003
4.179527e+002, 3.417820e+003
4.184348e+002, 3.384467e+003
4.189169e+002, 3.358954e+003
4.193990e+002, 3.346447e+003
4.198812e+002, 3.330564e+003
4.203633e+002, 3.300473e+003
4.208454e+002, 3.268127e+003
4.213275e+002, 3.247112e+003
4.218096e+002, 3.241070e+003
4.222917e+002, 3.235292e+003
4.227739e+002, 3.210843e+003
4.232560e+002, 3.169062e+003
4.237381e+002, 3.137784e+003
4.242202e+002, 3.125167e+003
4.247023e+002, 3.118754e+003
4.251844e+002, 3.109491e+003
4.256666e+002, 3.097980e+003
4.261487e+002, 3.086317e+003
4.266308e+002, 3.074371e+003
4.271129e+002, 3.063206e+003
4.275950e+002, 3.054464e+003
4.280771e+002, 3.048133e+003
4.285593e+002, 3.044094e+003
4.290414e+002, 3.045186e+003
4.295235e+002, 3.046972e+003
4.300056e+002, 3.039679e+003
4.304877e+002, 3.018649e+003
4.309698e+002, 2.999120e+003
4.314520e+002, 2.989971e+003
4.319341e+002, 2.987504e+003
4.324162e+002, 2.984826e+003
4.328983e+002, 2.980430e+003
4.333804e+002, 2.974385e+003
4.338625e+002, 2.966251e+003
4.343447e+002, 2.955639e+003
4.348268e+002, 2.946385e+003
4.353089e+002, 2.937755e+003
4.357910e+002, 2.931232e+003
4.362731e+002, 2.928450e+003
4.367552e+002, 2.928789e+003
4.372374e+002, 2.929829e+003
4.377195e+002, 2.929895e+003
4.382016e+002, 2.930122e+003
4.386837e+002, 2.934922e+003
4.391658e+002, 2.956726e+003
4.396479e+002, 2.967036e+003
4.401301e+002, 2.952930e+003
4.406122e+002, 2.932740e+003
4.410943e+002, 2.925745e+003
4.415764e+002, 2.934688e+003
4.420585e+002, 2.946149e+003
4.425406e+002, 2.943749e+003
4.430227e+002, 2.924442e+003
4.435049e+002, 2.913619e+003
4.439870e+002, 2.916675e+003
4.444691e+002, 2.922844e+003
4.449512e+002, 2.932987e+003
4.454333e+002, 2.943262e+003
4.459154e+002, 2.947963e+003
4.463976e+002, 2.943868e+003
4.468797e+002, 2.933799e+003
4.473618e+002, 2.922406e+003
4.478439e+002, 2.906641e+003
4.483260e+002, 2.898735e+003
4.488081e+002, 2.909508e+003
4.492903e+002, 2.922599e+003
4.497724e+002, 2.927322e+003
4.502545e+002, 2.923417e+003
4.507366e+002, 2.918222e+003
4.512187e+002, 2.916113e+003
4.517008e+002, 2.917105e+003
4.521830e+002, 2.922357e+003
4.526651e+002, 2.933956e+003
4.531472e+002, 2.944537e+003
4.536293e+002, 2.947570e+003
4.541114e+002, 2.947341e+003
4.545935e+002, 2.950491e+003
4.550757e+002, 2.960738e+003
4.555578e+002, 2.970030e+003
4.560399e+002, 2.969499e+003
4.565220e+002, 2.961656e+003
4.570041e+002, 2.957807e+003
4.574862e+002, 2.961912e+003
4.579684e+002, 2.969471e+003
4.584505e+002, 2.975488e+003
4.589326e+002, 2.980130e+003
4.594147e+002, 2.982654e+003
4.598968e+002, 2.982278e+003
4.603789e+002, 2.980194e+003
4.608611e+002, 2.976032e+003
4.613432e+002, 2.970601e+003
4.618253e+002, 2.967867e+003
4.623074e+002, 2.971001e+003
4.627895e+002, 2.977953e+003
4.632716e+002, 2.980138e+003
4.637538e+002, 2.970524e+003
4.642359e+002, 2.965676e+003
4.647180e+002, 2.973932e+003
4.652001e+002, 2.984301e+003
4.656822e+002, 2.983347e+003
4.661643e+002, 2.969628e+003
4.666465e+002, 2.954403e+003
4.671286e+002, 2.950498e+003
4.676107e+002, 2.959416e+003
4.680928e+002, 2.964748e+003
4.685749e+002, 2.963475e+003
4.690570e+002, 2.961722e+003
4.695392e+002, 2.960025e+003
4.700213e+002, 2.959143e+003
4.705034e+002, 2.960643e+003
4.709855e+002, 2.965349e+003
4.714676e+002, 2.970585e+003
4.719497e+002, 2.970861e+003
4.724319e+002, 2.964544e+003
4.729140e+002, 2.960466e+003
4.733961e+002, 2.960291e+003
4.738782e+002, 2.962559e+003
4.743603e+002, 2.970114e+003
4.748424e+002, 2.980411e+003
4.753246e+002, 2.984098e+003
4.758067e+002, 2.969738e+003
4.762888e+002, 2.947098e+003
4.767709e+002, 2.940247e+003
4.772530e+002, 2.952415e+003
4.777351e+002, 2.960018e+003
4.782173e+002, 2.948972e+003
4.786994e+002, 2.928269e+003
4.791815e+002, 2.911802e+003
4.796636e+002, 2.900032e+003
4.801457e+002, 2.892823e+003
4.806278e+002, 2.893703e+003
4.811100e+002, 2.898209e+003
4.815920e+002, 2.897268e+003
4.820742e+002, 2.889071e+003
4.825563e+002, 2.880677e+003
4.830384e+002, 2.879817e+003
4.835205e+002, 2.886024e+003
4.840026e+002, 2.882929e+003
4.844847e+002, 2.858385e+003
4.849669e+002, 2.838271e+003
4.854490e+002, 2.837448e+003
4.859311e+002, 2.847239e+003
4.864132e+002, 2.852826e+003
4.868953e+002, 2.848659e+003
4.873774e+002, 2.837597e+003
4.878596e+002, 2.823295e+003
4.883417e+002, 2.800485e+003
4.888238e+002, 2.789168e+003
4.893059e+002, 2.797328e+003
4.897880e+002, 2.807353e+003
4.902701e+002, 2.812361e+003
4.907523e+002, 2.812239e+003
4.912344e+002, 2.808332e+003
4.917165e+002, 2.800965e+003
4.921986e+002, 2.791761e+003
4.926807e+002, 2.785137e+003
4.931628e+002, 2.781572e+003
4.936450e+002, 2.779334e+003
4.941271e+002, 2.781337e+003
4.946092e+002, 2.782200e+003
4.950913e+002, 2.776818e+003
4.955734e+002, 2.765665e+003
4.960555e+002, 2.755287e+003
4.965377e+002, 2.752046e+003
4.970198e+002, 2.752922e+003
4.975019e+002, 2.748989e+003
4.979840e+002, 2.738993e+003
4.984661e+002, 2.729130e+003
4.989482e+002, 2.721383e+003
4.994304e+002, 2.716565e+003
4.999125e+002, 2.717060e+003
5.003946e+002, 2.726987e+003
5.008767e+002, 2.732415e+003
5.013588e+002, 2.723086e+003
5.018409e+002, 2.705518e+003
5.023231e+002, 2.690818e+003
5.028052e+002, 2.681283e+003
5.032873e+002, 2.674033e+003
5.037694e+002, 2.665972e+003
5.042515e+002, 2.657000e+003
5.047336e+002, 2.653248e+003
5.052158e+002, 2.662093e+003
5.056979e+002, 2.667341e+003
5.061800e+002, 2.656612e+003
5.066621e+002, 2.640561e+003
5.071442e+002, 2.638658e+003
5.076263e+002, 2.657180e+003
5.081085e+002, 2.680395e+003
5.085906e+002, 2.682023e+003
5.090727e+002, 2.652415e+003
5.095548e+002, 2.636115e+003
5.100369e+002, 2.645850e+003
5.105190e+002, 2.656234e+003
5.110012e+002, 2.657769e+003
5.114833e+002, 2.652867e+003
5.119654e+002, 2.647259e+003
5.124475e+002, 2.643635e+003
5.129296e+002, 2.641169e+003
5.134117e+002, 2.637802e+003
5.138939e+002, 2.633029e+003
5.143760e+002, 2.631655e+003
5.148581e+002, 2.639633e+003
5.153402e+002, 2.646250e+003
5.158223e+002, 2.639700e+003
5.163044e+002, 2.622370e+003
5.167866e+002, 2.610353e+003
5.172687e+002, 2.614528e+003
5.177508e+002, 2.625270e+003
5.182329e+002, 2.631429e+003
5.187150e+002, 2.632870e+003
5.191971e+002, 2.630274e+003
5.196793e+002, 2.622438e+003
5.201614e+002, 2.612555e+003
5.206435e+002, 2.609225e+003
5.211256e+002, 2.616436e+003
5.216077e+002, 2.617313e+003
5.220898e+002, 2.601604e+003
5.225720e+002, 2.583609e+003
5.230541e+002, 2.576958e+003
5.235362e+002, 2.581210e+003
5.240183e+002, 2.586977e+003
5.245004e+002, 2.587487e+003
5.249825e+002, 2.583958e+003
5.254647e+002, 2.582865e+003
5.259468e+002, 2.588897e+003
5.264289e+002, 2.590517e+003
5.269110e+002, 2.584583e+003
5.273931e+002, 2.575622e+003
5.278752e+002, 2.566706e+003
5.283574e+002, 2.558546e+003
5.288395e+002, 2.550930e+003
5.293216e+002, 2.544000e+003
5.298037e+002, 2.537525e+003
5.302858e+002, 2.529355e+003
5.307679e+002, 2.517659e+003
5.312501e+002, 2.508605e+003
5.317322e+002, 2.507510e+003
5.322143e+002, 2.509181e+003
5.326964e+002, 2.508616e+003
5.331785e+002, 2.505042e+003
5.336606e+002, 2.499450e+003
5.341428e+002, 2.490808e+003
5.346249e+002, 2.480915e+003
5.351070e+002, 2.474045e+003
5.355891e+002, 2.470937e+003
5.360712e+002, 2.468148e+003
5.365533e+002, 2.463099e+003
5.370355e+002, 2.456133e+003
5.375176e+002, 2.449766e+003
5.379997e+002, 2.443550e+003
5.384818e+002, 2.438384e+003
5.389639e+002, 2.435302e+003
5.394460e+002, 2.433026e+003
5.399282e+002, 2.429883e+003
5.404103e+002, 2.425578e+003
5.408924e+002, 2.420955e+003
5.413745e+002, 2.416808e+003
5.418566e+002, 2.413123e+003
5.423387e+002, 2.410546e+003
5.428209e+002, 2.412384e+003
5.433029e+002, 2.411286e+003
5.437850e+002, 2.405888e+003
5.442672e+002, 2.396766e+003
5.447493e+002, 2.382676e+003
5.452314e+002, 2.363769e+003
5.457135e+002, 2.346570e+003
5.461956e+002, 2.339937e+003
5.466777e+002, 2.342839e+003
5.471599e+002, 2.343160e+003
5.476420e+002, 2.339309e+003
5.481241e+002, 2.334914e+003
5.486062e+002, 2.331821e+003
5.490883e+002, 2.329770e+003
5.495704e+002, 2.328896e+003
5.500526e+002, 2.330832e+003
5.505347e+002, 2.330515e+003
5.510168e+002, 2.325622e+003
5.514989e+002, 2.316029e+003
5.519810e+002, 2.298189e+003
5.524631e+002, 2.271037e+003
5.529453e+002, 2.247971e+003
5.534274e+002, 2.242754e+003
5.539095e+002, 2.255500e+003
5.543916e+002, 2.263937e+003
5.548737e+002, 2.264348e+003
5.553558e+002, 2.265568e+003
5.558380e+002, 2.273703e+003
5.563201e+002, 2.282343e+003
5.568022e+002, 2.282043e+003
5.572843e+002, 2.271121e+003
5.577664e+002, 2.257460e+003
5.582485e+002, 2.249854e+003
5.587307e+002, 2.248489e+003
5.592128e+002, 2.248951e+003
5.596949e+002, 2.254171e+003
5.601770e+002, 2.256884e+003
5.606591e+002, 2.254854e+003
5.611412e+002, 2.249244e+003
5.616234e+002, 2.240184e+003
5.621055e+002, 2.227272e+003
5.625876e+002, 2.215989e+003
5.630697e+002, 2.211734e+003
5.635518e+002, 2.213005e+003
5.640339e+002, 2.215872e+003
5.645161e+002, 2.220740e+003
5.649982e+002, 2.222616e+003
5.654803e+002, 2.216110e+003
5.659624e+002, 2.203568e+003
5.664445e+002, 2.196006e+003
5.669266e+002, 2.199237e+003
5.674088e+002, 2.199160e+003
5.678909e+002, 2.186285e+003
5.683730e+002, 2.169670e+003
5.688551e+002, 2.161477e+003
5.693372e+002, 2.163323e+003
5.698193e+002, 2.167548e+003
5.703015e+002, 2.166775e+003
5.707836e+002, 2.161460e+003
5.712657e+002, 2.160792e+003
5.717478e+002, 2.173320e+003
5.722299e+002, 2.178797e+003
5.727120e+002, 2.166586e+003
5.731942e+002, 2.150961e+003
5.736763e+002, 2.147417e+003
5.741584e+002, 2.157098e+003
5.746405e+002, 2.166032e+003
5.751226e+002, 2.159763e+003
5.756047e+002, 2.142332e+003
5.760869e+002, 2.130946e+003
5.765690e+002, 2.126832e+003
5.770511e+002, 2.123455e+003
5.775332e+002, 2.115870e+003
5.780153e+002, 2.108552e+003
5.784974e+002, 2.109431e+003
5.789796e+002, 2.120835e+003
5.794617e+002, 2.130442e+003
5.799438e+002, 2.134637e+003
5.804259e+002, 2.134015e+003
5.809080e+002, 2.125824e+003
5.813901e+002, 2.111974e+003
5.818723e+002, 2.104198e+003
5.823544e+002, 2.111635e+003
5.828365e+002, 2.127262e+003
5.833186e+002, 2.126503e+003
5.838007e+002, 2.083932e+003
5.842828e+002, 2.064180e+003
5.847650e+002, 2.087912e+003
5.852471e+002, 2.116829e+003
5.857292e+002, 2.125972e+003
5.862113e+002, 2.117174e+003
5.866934e+002, 2.104500e+003
5.871755e+002, 2.095489e+003
5.876577e+002, 2.090462e+003
5.881398e+002, 2.092140e+003
5.886219e+002, 2.102139e+003
5.891040e+002, 2.107458e+003
5.895861e+002, 2.102527e+003
5.900682e+002, 2.094492e+003
5.905504e+002, 2.090290e+003
5.910325e+002, 2.089274e+003
5.915146e+002, 2.087303e+003
5.919967e+002, 2.078476e+003
5.924788e+002, 2.072118e+003
5.929609e+002, 2.081386e+003
5.934431e+002, 2.100096e+003
5.939252e+002, 2.107826e+003
5.944073e+002, 2.096428e+003
5.948894e+002, 2.079483e+003
5.953715e+002, 2.076872e+003
5.958536e+002, 2.093855e+003
5.963358e+002, 2.101227e+003
5.968179e+002, 2.095176e+003
5.973000e+002, 2.085292e+003
5.977821e+002, 2.068672e+003
5.982642e+002, 2.052582e+003
5.987463e+002, 2.048853e+003
5.992285e+002, 2.061079e+003
5.997106e+002, 2.076934e+003
6.001927e+002, 2.081020e+003
6.006748e+002, 2.073778e+003
6.011569e+002, 2.067153e+003
6.016390e+002, 2.061759e+003
6.021212e+002, 2.056739e+003
6.026033e+002, 2.050795e+003
6.030854e+002, 2.045189e+003
6.035675e+002, 2.041717e+003
6.040496e+002, 2.039943e+003
6.045317e+002, 2.042171e+003
6.050139e+002, 2.052973e+003
6.054960e+002, 2.067006e+003
6.059781e+002, 2.076993e+003
6.064602e+002, 2.081960e+003
6.069423e+002, 2.083008e+003
6.074244e+002, 2.080358e+003
6.079066e+002, 2.075004e+003
6.083887e+002, 2.071407e+003
6.088708e+002, 2.071792e+003
6.093529e+002, 2.070819e+003
6.098350e+002, 2.065731e+003
6.103171e+002, 2.061359e+003
6.107993e+002, 2.062612e+003
6.112814e+002, 2.067987e+003
6.117635e+002, 2.071215e+003
6.122456e+002, 2.067301e+003
6.127277e+002, 2.060542e+003
6.132098e+002, 2.061431e+003
6.136920e+002, 2.070964e+003
6.141741e+002, 2.075722e+003
6.146562e+002, 2.069161e+003
6.151383e+002, 2.061104e+003
6.156204e+002, 2.065375e+003
6.161025e+002, 2.078921e+003
6.165847e+002, 2.081585e+003
6.170668e+002, 2.056867e+003
6.175489e+002, 2.032368e+003
6.180310e+002, 2.025902e+003
6.185131e+002, 2.032462e+003
6.189952e+002, 2.042839e+003
6.194774e+002, 2.054028e+003
6.199595e+002, 2.064729e+003
6.204416e+002, 2.073621e+003
6.209237e+002, 2.080832e+003
6.214058e+002, 2.084767e+003
6.218879e+002, 2.082455e+003
6.223701e+002, 2.080407e+003
6.228522e+002, 2.080186e+003
6.233343e+002, 2.080759e+003
6.238164e+002, 2.081122e+003
6.242985e+002, 2.081058e+003
6.247806e+002, 2.080802e+003
6.252628e+002, 2.080292e+003
6.257448e+002, 2.079772e+003
6.262269e+002, 2.079973e+003
6.267090e+002, 2.080954e+003
6.271912e+002, 2.081961e+003
6.276733e+002, 2.082014e+003
6.281554e+002, 2.082503e+003
6.286375e+002, 2.086571e+003
6.291196e+002, 2.094782e+003
6.296017e+002, 2.102837e+003
6.300839e+002, 2.110745e+003
6.305660e+002, 2.117747e+003
6.310481e+002, 2.118659e+003
6.315302e+002, 2.118625e+003
6.320123e+002, 2.134011e+003
6.324944e+002, 2.172327e+003
6.329766e+002, 2.212474e+003
6.334587e+002, 2.214199e+003
6.339408e+002, 2.167396e+003
6.344229e+002, 2.133801e+003
6.349050e+002, 2.116800e+003
6.353871e+002, 2.110726e+003
6.358693e+002, 2.116332e+003
6.363514e+002, 2.128959e+003
6.368335e+002, 2.142223e+003
6.373156e+002, 2.155054e+003
6.377977e+002, 2.166242e+003
6.382798e+002, 2.173785e+003
6.387620e+002, 2.179355e+003
6.392441e+002, 2.187349e+003
6.397262e+002, 2.197999e+003
6.402083e+002, 2.205513e+003
6.406904e+002, 2.205887e+003
6.411725e+002, 2.200617e+003
6.416547e+002, 2.194489e+003
6.421368e+002, 2.179030e+003
6.426189e+002, 2.175917e+003
6.431010e+002, 2.197638e+003
6.435831e+002, 2.220519e+003
6.440652e+002, 2.228091e+003
6.445474e+002, 2.224152e+003
6.450295e+002, 2.221816e+003
6.455116e+002, 2.228140e+003
6.459937e+002, 2.238238e+003
6.464758e+002, 2.244463e+003
6.469579e+002, 2.246843e+003
6.474401e+002, 2.247901e+003
6.479222e+002, 2.246357e+003
6.484043e+002, 2.247071e+003
6.488864e+002, 2.255299e+003
6.493685e+002, 2.268860e+003
6.498506e+002, 2.281011e+003
6.503328e+002, 2.294489e+003
6.508149e+002, 2.301523e+003
6.512970e+002, 2.290318e+003
6.517791e+002, 2.275783e+003
6.522612e+002, 2.280192e+003
6.527433e+002, 2.302637e+003
6.532255e+002, 2.320566e+003
6.537076e+002, 2.316059e+003
6.541897e+002, 2.296747e+003
6.546718e+002, 2.291376e+003
6.551539e+002, 2.304441e+003
6.556360e+002, 2.320591e+003
6.561182e+002, 2.341770e+003
6.566003e+002, 2.362138e+003
6.570824e+002, 2.378884e+003
6.575645e+002, 2.392137e+003
6.580466e+002, 2.402458e+003
6.585287e+002, 2.408392e+003
6.590109e+002, 2.414207e+003
6.594930e+002, 2.425476e+003
6.599751e+002, 2.439786e+003
6.604572e+002, 2.448729e+003
6.609393e+002, 2.450233e+003
6.614214e+002, 2.454863e+003
6.619036e+002, 2.473865e+003
6.623857e+002, 2.505007e+003
6.628678e+002, 2.523716e+003
6.633499e+002, 2.514376e+003
6.638320e+002, 2.513235e+003
6.643141e+002, 2.531579e+003
6.647963e+002, 2.553021e+003
6.652784e+002, 2.563843e+003
6.657605e+002, 2.565007e+003
6.662426e+002, 2.565490e+003
6.667247e+002, 2.568853e+003
6.672068e+002, 2.578145e+003
6.676890e+002, 2.605000e+003
6.681711e+002, 2.648525e+003
6.686532e+002, 2.674437e+003
6.691353e+002, 2.668557e+003
6.696174e+002, 2.658969e+003
6.700995e+002, 2.673966e+003
6.705817e+002, 2.710877e+003
6.710638e+002, 2.738483e+003
6.715459e+002, 2.752582e+003
6.720280e+002, 2.761875e+003
6.725101e+002, 2.761493e+003
6.729922e+002, 2.762000e+003
6.734744e+002, 2.778982e+003
6.739565e+002, 2.810905e+003
6.744386e+002, 2.839841e+003
6.749207e+002, 2.851523e+003
6.754028e+002, 2.851344e+003
6.758849e+002, 2.856610e+003
6.763671e+002, 2.867915e+003
6.768492e+002, 2.882111e+003
6.773313e+002, 2.899721e+003
6.778134e+002, 2.919009e+003
6.782955e+002, 2.939420e+003
6.787776e+002, 2.960388e+003
6.792598e+002, 2.979626e+003
6.797419e+002, 2.994385e+003
6.802240e+002, 3.010162e+003
6.807061e+002, 3.033792e+003
6.811882e+002, 3.059141e+003
6.816703e+002, 3.076404e+003
6.821525e+002, 3.084114e+003
6.826346e+002, 3.086229e+003
6.831167e+002, 3.084367e+003
6.835988e+002, 3.081548e+003
6.840809e+002, 3.094114e+003
6.845630e+002, 3.132121e+003
6.850452e+002, 3.163438e+003
6.855273e+002, 3.180874e+003
6.860094e+002, 3.192807e+003
6.864915e+002, 3.203323e+003
6.869736e+002, 3.212193e+003
6.874557e+002, 3.217646e+003
6.879379e+002, 3.217516e+003
6.884200e+002, 3.216343e+003
6.889021e+002, 3.216282e+003
6.893842e+002, 3.218513e+003
6.898663e+002, 3.229020e+003
6.903484e+002, 3.248507e+003
6.908306e+002, 3.262500e+003
6.913127e+002, 3.258483e+003
6.917948e+002, 3.240550e+003
6.922769e+002, 3.229241e+003
6.927590e+002, 3.228297e+003
6.932411e+002, 3.228331e+003
6.937233e+002, 3.230600e+003
6.942054e+002, 3.232144e+003
6.946875e+002, 3.230978e+003
6.951696e+002, 3.227643e+003
6.956517e+002, 3.224323e+003
6.961339e+002, 3.222859e+003
6.966160e+002, 3.219024e+003
6.970981e+002, 3.206285e+003
6.975802e+002, 3.187109e+003
6.980623e+002, 3.170208e+003
6.985444e+002, 3.157119e+003
6.990266e+002, 3.144136e+003
6.995087e+002, 3.128748e+003
6.999908e+002, 3.111396e+003
7.004729e+002, 3.094032e+003
7.009550e+002, 3.076943e+003
7.014371e+002, 3.059418e+003
7.019193e+002, 3.042735e+003
7.024014e+002, 3.024391e+003
7.028835e+002, 3.000352e+003
7.033656e+002, 2.973874e+003
7.038477e+002, 2.952222e+003
7.043298e+002, 2.939073e+003
7.048120e+002, 2.927773e+003
7.052941e+002, 2.910393e+003
7.057762e+002, 2.887947e+003
7.062583e+002, 2.864284e+003
7.067404e+002, 2.839338e+003
7.072225e+002, 2.817082e+003
7.077046e+002, 2.801593e+003
7.081867e+002, 2.788918e+003
7.086688e+002, 2.768338e+003
7.091509e+002, 2.736000e+003
7.096331e+002, 2.706042e+003
7.101152e+002, 2.676743e+003
7.105973e+002, 2.652418e+003
7.110794e+002, 2.640013e+003
7.115615e+002, 2.633245e+003
7.120436e+002, 2.621010e+003
7.125258e+002, 2.599238e+003
7.130079e+002, 2.573723e+003
7.134900e+002, 2.549707e+003
7.139721e+002, 2.527447e+003
7.144542e+002, 2.508071e+003
7.149363e+002, 2.491937e+003
7.154185e+002, 2.477677e+003
7.159006e+002, 2.466686e+003
7.163827e+002, 2.455431e+003
7.168648e+002, 2.437075e+003
7.173469e+002, 2.410618e+003
7.178290e+002, 2.384478e+003
7.183112e+002, 2.356988e+003
7.187933e+002, 2.332585e+003
7.192754e+002, 2.314056e+003
7.197575e+002, 2.299791e+003
7.202396e+002, 2.288797e+003
7.207217e+002, 2.280100e+003
7.212039e+002, 2.269542e+003
7.216860e+002, 2.251804e+003
7.221681e+002, 2.229157e+003
7.226502e+002, 2.210778e+003
7.231323e+002, 2.196868e+003
7.236144e+002, 2.184750e+003
7.240966e+002, 2.174155e+003
7.245787e+002, 2.164264e+003
7.250608e+002, 2.154602e+003
7.255429e+002, 2.145073e+003
7.260250e+002, 2.134348e+003
7.265071e+002, 2.120382e+003
7.269893e+002, 2.107538e+003
7.274714e+002, 2.099112e+003
7.279535e+002, 2.091604e+003
7.284356e+002, 2.080188e+003
7.289177e+002, 2.065127e+003
7.293998e+002, 2.050882e+003
7.298820e+002, 2.039886e+003
7.303641e+002, 2.033338e+003
7.308462e+002, 2.038718e+003
7.313283e+002, 2.056918e+003
7.318104e+002, 2.057965e+003
7.322925e+002, 2.030145e+003
7.327747e+002, 1.997791e+003
7.332568e+002, 1.980312e+003
7.337389e+002, 1.975344e+003
7.342210e+002, 1.968615e+003
7.347031e+002, 1.958039e+003
7.351852e+002, 1.948971e+003
7.356674e+002, 1.944689e+003
7.361495e+002, 1.940508e+003
7.366316e+002, 1.930541e+003
7.371137e+002, 1.917218e+003
7.375958e+002, 1.908098e+003
7.380779e+002, 1.907028e+003
7.385601e+002, 1.910007e+003
7.390422e+002, 1.914403e+003
7.395243e+002, 1.919033e+003
7.400064e+002, 1.909809e+003
7.404885e+002, 1.882410e+003
7.409706e+002, 1.855703e+003
7.414528e+002, 1.838600e+003
7.419349e+002, 1.830063e+003
7.424170e+002, 1.829699e+003
7.428991e+002, 1.841377e+003
7.433812e+002, 1.847207e+003
7.438633e+002, 1.842034e+003
7.443455e+002, 1.834582e+003
7.448276e+002, 1.829993e+003
7.453097e+002, 1.825962e+003
7.457918e+002, 1.817998e+003
7.462739e+002, 1.805125e+003
7.467560e+002, 1.790989e+003
7.472382e+002, 1.776555e+003
7.477203e+002, 1.764090e+003
7.482024e+002, 1.764443e+003
7.486845e+002, 1.778108e+003
7.491666e+002, 1.781994e+003
7.496487e+002, 1.765015e+003
7.501309e+002, 1.743843e+003
7.506130e+002, 1.739314e+003
7.510951e+002, 1.752804e+003
7.515772e+002, 1.757140e+003
7.520593e+002, 1.742683e+003
7.525414e+002, 1.732317e+003
7.530236e+002, 1.735620e+003
7.535057e+002, 1.741775e+003
7.539878e+002, 1.739938e+003
7.544699e+002, 1.730887e+003
7.549520e+002, 1.723294e+003
7.554341e+002, 1.722841e+003
7.559163e+002, 1.724401e+003
7.563984e+002, 1.720790e+003
7.568805e+002, 1.712903e+003
7.573626e+002, 1.704145e+003
7.578447e+002, 1.694911e+003
7.583268e+002, 1.686821e+003
7.588090e+002, 1.680514e+003
7.592911e+002, 1.676741e+003
7.597732e+002, 1.678334e+003
7.602553e+002, 1.692768e+003
7.607374e+002, 1.698890e+003
7.612195e+002, 1.690300e+003
7.617017e+002, 1.680815e+003
7.621838e+002, 1.678202e+003
7.626659e+002, 1.678601e+003
7.631480e+002, 1.673917e+003
7.636301e+002, 1.661624e+003
7.641122e+002, 1.652340e+003
7.645944e+002, 1.657267e+003
7.650765e+002, 1.668416e+003
7.655586e+002, 1.674457e+003
7.660407e+002, 1.674972e+003
7.665228e+002, 1.669674e+003
7.670049e+002, 1.658012e+003
7.674871e+002, 1.646039e+003
7.679692e+002, 1.642460e+003
7.684513e+002, 1.647760e+003
7.689334e+002, 1.647610e+003
7.694155e+002, 1.636476e+003
7.698976e+002, 1.628894e+003
7.703798e+002, 1.631597e+003
7.708619e+002, 1.636043e+003
7.713440e+002, 1.634635e+003
7.718261e+002, 1.628458e+003
7.723082e+002, 1.625108e+003
7.727903e+002, 1.630741e+003
7.732725e+002, 1.635251e+003
7.737546e+002, 1.629641e+003
7.742367e+002, 1.619218e+003
7.747188e+002, 1.610720e+003
7.752009e+002, 1.605851e+003
7.756830e+002, 1.607778e+003
7.761652e+002, 1.619923e+003
7.766473e+002, 1.633777e+003
7.771294e+002, 1.625014e+003
7.776115e+002, 1.587699e+003
7.780936e+002, 1.568672e+003
7.785757e+002, 1.579248e+003
7.790579e+002, 1.592953e+003
7.795400e+002, 1.597370e+003
7.800221e+002, 1.595141e+003
7.805042e+002, 1.589174e+003
7.809863e+002, 1.577642e+003
7.814684e+002, 1.571776e+003
7.819506e+002, 1.584572e+003
7.824327e+002, 1.593573e+003
7.829148e+002, 1.577122e+003
7.833969e+002, 1.549465e+003
7.838790e+002, 1.535060e+003
7.843611e+002, 1.539939e+003
7.848433e+002, 1.553161e+003
7.853254e+002, 1.567810e+003
7.858075e+002, 1.581171e+003
7.862896e+002, 1.583076e+003
7.867717e+002, 1.573337e+003
7.872538e+002, 1.564638e+003
7.877360e+002, 1.559994e+003
7.882181e+002, 1.557603e+003
7.887002e+002, 1.556308e+003
7.891823e+002, 1.555941e+003
7.896644e+002, 1.555112e+003
7.901465e+002, 1.553768e+003
7.906286e+002, 1.552061e+003
7.911107e+002, 1.549887e+003
7.915928e+002, 1.547464e+003
7.920750e+002, 1.543311e+003
7.925571e+002, 1.539337e+003
7.930392e+002, 1.540544e+003
7.935213e+002, 1.549522e+003
7.940034e+002, 1.556850e+003
7.944855e+002, 1.553092e+003
7.949677e+002, 1.542544e+003
7.954498e+002, 1.530178e+003
7.959319e+002, 1.517700e+003
7.964140e+002, 1.514294e+003
7.968961e+002, 1.524223e+003
7.973782e+002, 1.539661e+003
7.978604e+002, 1.550272e+003
7.983425e+002, 1.555998e+003
7.988246e+002, 1.558945e+003
7.993067e+002, 1.558448e+003
7.997888e+002, 1.556366e+003
8.002709e+002, 1.552831e+003
8.007531e+002, 1.548074e+003
8.012352e+002, 1.541728e+003
8.017173e+002, 1.534146e+003
8.021994e+002, 1.527039e+003
8.026815e+002, 1.521229e+003
8.031636e+002, 1.515450e+003
8.036458e+002, 1.504801e+003
8.041279e+002, 1.496573e+003
8.046100e+002, 1.503704e+003
8.050921e+002, 1.522313e+003
8.055742e+002, 1.535401e+003
8.060563e+002, 1.533507e+003
8.065385e+002, 1.524511e+003
8.070206e+002, 1.521486e+003
8.075027e+002, 1.523716e+003
8.079848e+002, 1.520770e+003
8.084669e+002, 1.511439e+003
8.089490e+002, 1.500443e+003
8.094312e+002, 1.488214e+003
8.099133e+002, 1.477687e+003
8.103954e+002, 1.473848e+003
8.108775e+002, 1.477892e+003
8.113596e+002, 1.481208e+003
8.118417e+002, 1.483403e+003
8.123239e+002, 1.485376e+003
8.128060e+002, 1.489377e+003
8.132881e+002, 1.491821e+003
8.137702e+002, 1.487327e+003
8.142523e+002, 1.477538e+003
8.147344e+002, 1.470427e+003
8.152166e+002, 1.470345e+003
8.156987e+002, 1.473642e+003
8.161808e+002, 1.479308e+003
8.166629e+002, 1.484798e+003
8.171450e+002, 1.481821e+003
8.176271e+002, 1.470869e+003
8.181093e+002, 1.464758e+003
8.185914e+002, 1.471300e+003
8.190735e+002, 1.483867e+003
8.195556e+002, 1.489885e+003
8.200377e+002, 1.488692e+003
8.205198e+002, 1.484536e+003
8.210020e+002, 1.474778e+003
8.214841e+002, 1.466935e+003
8.219662e+002, 1.464050e+003
8.224483e+002, 1.464362e+003
8.229304e+002, 1.467691e+003
8.234125e+002, 1.473734e+003
8.238947e+002, 1.475034e+003
8.243768e+002, 1.463362e+003
8.248589e+002, 1.454793e+003
8.253410e+002, 1.458597e+003
8.258231e+002, 1.467680e+003
8.263052e+002, 1.474770e+003
8.267874e+002, 1.479128e+003
8.272695e+002, 1.484020e+003
8.277516e+002, 1.492232e+003
8.282337e+002, 1.497295e+003
8.287158e+002, 1.483325e+003
8.291979e+002, 1.457610e+003
8.296801e+002, 1.455662e+003
8.301622e+002, 1.480724e+003
8.306443e+002, 1.498504e+003
8.311264e+002, 1.490515e+003
8.316085e+002, 1.470539e+003
8.320906e+002, 1.460995e+003
8.325728e+002, 1.463361e+003
8.330549e+002, 1.465716e+003
8.335370e+002, 1.470227e+003
8.340191e+002, 1.471448e+003
8.345012e+002, 1.467466e+003
8.349833e+002, 1.460516e+003
8.354655e+002, 1.448672e+003
8.359476e+002, 1.434606e+003
8.364297e+002, 1.429987e+003
8.369118e+002, 1.444715e+003
8.373939e+002, 1.459382e+003
8.378760e+002, 1.465782e+003
8.383582e+002, 1.464921e+003
8.388403e+002, 1.454019e+003
8.393224e+002, 1.436860e+003
8.398045e+002, 1.423724e+003
8.402866e+002, 1.419469e+003
8.407687e+002, 1.420844e+003
8.412509e+002, 1.425241e+003
8.417330e+002, 1.431794e+003
8.422151e+002, 1.434724e+003
8.426972e+002, 1.433629e+003
8.431793e+002, 1.434068e+003
8.436614e+002, 1.438558e+003
8.441436e+002, 1.443799e+003
8.446257e+002, 1.446053e+003
8.451078e+002, 1.445363e+003
8.455899e+002, 1.443709e+003
8.460720e+002, 1.438522e+003
8.465541e+002, 1.436183e+003
8.470363e+002, 1.441773e+003
8.475184e+002, 1.445982e+003
8.480005e+002, 1.441855e+003
8.484826e+002, 1.432032e+003
8.489647e+002, 1.422648e+003
8.494468e+002, 1.414902e+003
8.499290e+002, 1.409271e+003
8.504111e+002, 1.404384e+003
8.508932e+002, 1.403028e+003
8.513753e+002, 1.413357e+003
8.518574e+002, 1.428578e+003
8.523395e+002, 1.431226e+003
8.528217e+002, 1.417099e+003
8.533038e+002, 1.400110e+003
8.537859e+002, 1.393551e+003
8.542680e+002, 1.395040e+003
8.547501e+002, 1.398971e+003
8.552322e+002, 1.405355e+003
8.557144e+002, 1.406433e+003
8.561965e+002, 1.399652e+003
8.566786e+002, 1.391652e+003
8.571607e+002, 1.386927e+003
8.576428e+002, 1.385084e+003
8.581249e+002, 1.384907e+003
8.586071e+002, 1.386673e+003
8.590892e+002, 1.389521e+003
8.595713e+002, 1.395076e+003
8.600534e+002, 1.399765e+003
8.605355e+002, 1.405187e+003
8.610176e+002, 1.407436e+003
8.614998e+002, 1.398778e+003
8.619819e+002, 1.379379e+003
8.624640e+002, 1.365902e+003
8.629461e+002, 1.368926e+003
8.634282e+002, 1.375742e+003
8.639103e+002, 1.378875e+003
8.643925e+002, 1.379757e+003
8.648746e+002, 1.380778e+003
8.653567e+002, 1.381861e+003
8.658388e+002, 1.380813e+003
8.663209e+002, 1.376198e+003
8.668030e+002, 1.370176e+003
8.672852e+002, 1.365774e+003
8.677673e+002, 1.362888e+003
8.682494e+002, 1.362172e+003
8.687315e+002, 1.363845e+003
8.692136e+002, 1.360551e+003
8.696957e+002, 1.348117e+003
8.701779e+002, 1.333046e+003
8.706600e+002, 1.323438e+003
8.711421e+002, 1.319260e+003
8.716242e+002, 1.321650e+003
8.721063e+002, 1.337410e+003
8.725884e+002, 1.347743e+003
8.730705e+002, 1.345309e+003
8.735526e+002, 1.340451e+003
8.740347e+002, 1.338986e+003
8.745168e+002, 1.339875e+003
8.749990e+002, 1.340804e+003
8.754811e+002, 1.343029e+003
8.759632e+002, 1.340230e+003
8.764453e+002, 1.320896e+003
8.769274e+002, 1.304712e+003
8.774095e+002, 1.312474e+003
8.778917e+002, 1.331381e+003
8.783738e+002, 1.336493e+003
8.788559e+002, 1.323766e+003
8.793380e+002, 1.313134e+003
8.798201e+002, 1.324259e+003
8.803022e+002, 1.341454e+003
8.807844e+002, 1.335825e+003
8.812665e+002, 1.313776e+003
8.817486e+002, 1.298726e+003
8.822307e+002, 1.294290e+003
8.827128e+002, 1.293316e+003
8.831949e+002, 1.291545e+003
8.836771e+002, 1.289563e+003
8.841592e+002, 1.288841e+003
8.846413e+002, 1.289732e+003
8.851234e+002, 1.288834e+003
8.856055e+002, 1.284706e+003
8.860876e+002, 1.282412e+003
8.865698e+002, 1.284700e+003
8.870519e+002, 1.288551e+003
8.875340e+002, 1.291676e+003
8.880161e+002, 1.293854e+003
8.884982e+002, 1.291972e+003
8.889803e+002, 1.280348e+003
8.894625e+002, 1.272566e+003
8.899446e+002, 1.274608e+003
8.904267e+002, 1.277753e+003
8.909088e+002, 1.275614e+003
8.913909e+002, 1.270128e+003
8.918730e+002, 1.265683e+003
8.923552e+002, 1.263437e+003
8.928373e+002, 1.262827e+003
8.933194e+002, 1.265672e+003
8.938015e+002, 1.268159e+003
8.942836e+002, 1.264377e+003
8.947657e+002, 1.257571e+003
8.952479e+002, 1.255115e+003
8.957300e+002, 1.258135e+003
8.962121e+002, 1.262651e+003
8.966942e+002, 1.266350e+003
8.971763e+002, 1.267462e+003
8.976584e+002, 1.259172e+003
8.981406e+002, 1.243220e+003
8.986227e+002, 1.239573e+003
8.991048e+002, 1.251375e+003
8.995869e+002, 1.257462e+003
9.000690e+002, 1.245750e+003
9.005511e+002, 1.229439e+003
9.010333e+002, 1.229427e+003
9.015154e+002, 1.246876e+003
9.019975e+002, 1.254106e+003
9.024796e+002, 1.246228e+003
9.029617e+002, 1.237116e+003
9.034438e+002, 1.224400e+003
9.039260e+002, 1.216118e+003
9.044081e+002, 1.221900e+003
9.048902e+002, 1.235779e+003
9.053723e+002, 1.242269e+003
9.058544e+002, 1.238075e+003
9.063365e+002, 1.231231e+003
9.068187e+002, 1.216709e+003
9.073008e+002, 1.207457e+003
9.077829e+002, 1.218653e+003
9.082650e+002, 1.236139e+003
9.087471e+002, 1.236476e+003
9.092292e+002, 1.219195e+003
9.097114e+002, 1.209593e+003
9.101935e+002, 1.229516e+003
9.106756e+002, 1.252264e+003
9.111577e+002, 1.247428e+003
9.116398e+002, 1.227311e+003
9.121219e+002, 1.211810e+003
9.126041e+002, 1.203936e+003
9.130862e+002, 1.204422e+003
9.135683e+002, 1.213655e+003
9.140504e+002, 1.223755e+003
9.145325e+002, 1.223119e+003
9.150146e+002, 1.213933e+003
9.154968e+002, 1.208521e+003
9.159789e+002, 1.206943e+003
9.164610e+002, 1.207774e+003
9.169431e+002, 1.210902e+003
9.174252e+002, 1.215735e+003
9.179073e+002, 1.223043e+003
9.183895e+002, 1.230630e+003
9.188716e+002, 1.229775e+003
9.193537e+002, 1.214702e+003
9.198358e+002, 1.206025e+003
9.203179e+002, 1.207962e+003
9.208000e+002, 1.210290e+003
9.212822e+002, 1.206589e+003
9.217643e+002, 1.202830e+003
9.222464e+002, 1.208920e+003
9.227285e+002, 1.224046e+003
9.232106e+002, 1.228109e+003
9.236927e+002, 1.199865e+003
9.241749e+002, 1.185233e+003
9.246570e+002, 1.214430e+003
9.251391e+002, 1.246536e+003
9.256212e+002, 1.246291e+003
9.261033e+002, 1.224214e+003
9.265854e+002, 1.206410e+003
9.270676e+002, 1.200525e+003
9.275497e+002, 1.198552e+003
9.280318e+002, 1.198630e+003
9.285139e+002, 1.197130e+003
9.289960e+002, 1.185701e+003
9.294781e+002, 1.171558e+003
9.299603e+002, 1.170816e+003
9.304424e+002, 1.183787e+003
9.309245e+002, 1.195725e+003
9.314066e+002, 1.197051e+003
9.318887e+002, 1.193692e+003
9.323708e+002, 1.194599e+003
9.328530e+002, 1.198847e+003
9.333351e+002, 1.203653e+003
9.338172e+002, 1.208608e+003
9.342993e+002, 1.209277e+003
9.347814e+002, 1.203650e+003
9.352635e+002, 1.196889e+003
9.357457e+002, 1.194679e+003
9.362278e+002, 1.196232e+003
9.367099e+002, 1.197168e+003
9.371920e+002, 1.197700e+003
9.376741e+002, 1.195855e+003
9.381563e+002, 1.188175e+003
9.386384e+002, 1.185794e+003
9.391205e+002, 1.199272e+003
9.396026e+002, 1.218183e+003
9.400847e+002, 1.222797e+003
9.405668e+002, 1.209685e+003
9.410490e+002, 1.202567e+003
9.415311e+002, 1.206867e+003
9.420132e+002, 1.209492e+003
9.424953e+002, 1.205846e+003
9.429774e+002, 1.201651e+003
9.434595e+002, 1.202247e+003
9.439417e+002, 1.205561e+003
9.444238e+002, 1.204753e+003
9.449059e+002, 1.195911e+003
9.453880e+002, 1.192958e+003
9.458701e+002, 1.208730e+003
9.463522e+002, 1.223602e+003
9.468344e+002, 1.224485e+003
9.473165e+002, 1.216419e+003
9.477986e+002, 1.202841e+003
9.482807e+002, 1.187483e+003
9.487628e+002, 1.181069e+003
9.492449e+002, 1.192503e+003
9.497271e+002, 1.206598e+003
9.502092e+002, 1.208745e+003
9.506913e+002, 1.204257e+003
9.511734e+002, 1.199914e+003
9.516555e+002, 1.196697e+003
9.521376e+002, 1.194076e+003
9.526198e+002, 1.192243e+003
9.531019e+002, 1.194836e+003
9.535840e+002, 1.205195e+003
9.540661e+002, 1.222698e+003
9.545482e+002, 1.254094e+003
9.550303e+002, 1.294050e+003
9.555124e+002, 1.302141e+003
9.559945e+002, 1.272813e+003
9.564766e+002, 1.241646e+003
9.569587e+002, 1.227279e+003
9.574409e+002, 1.223447e+003
9.579230e+002, 1.220523e+003
9.584051e+002, 1.218539e+003
9.588872e+002, 1.221415e+003
9.593693e+002, 1.231228e+003
9.598514e+002, 1.235838e+003
9.603336e+002, 1.228459e+003
9.608157e+002, 1.225456e+003
9.612978e+002, 1.242816e+003
9.617799e+002, 1.271361e+003
9.622620e+002, 1.285181e+003
9.627441e+002, 1.280686e+003
9.632263e+002, 1.272357e+003
9.637084e+002, 1.250151e+003
9.641905e+002, 1.237914e+003
9.646726e+002, 1.249944e+003
9.651547e+002, 1.267710e+003
9.656368e+002, 1.277142e+003
9.661190e+002, 1.278538e+003
9.666011e+002, 1.274935e+003
9.670832e+002, 1.261328e+003
9.675653e+002, 1.253716e+003
9.680474e+002, 1.258167e+003
9.685295e+002, 1.266625e+003
9.690117e+002, 1.277639e+003
9.694938e+002, 1.288076e+003
9.699759e+002, 1.292485e+003
9.704580e+002, 1.291519e+003
9.709401e+002, 1.294453e+003
9.714222e+002, 1.309148e+003
9.719044e+002, 1.322580e+003
9.723865e+002, 1.322844e+003
9.728686e+002, 1.320594e+003
9.733507e+002, 1.326961e+003
9.738328e+002, 1.340482e+003
9.743149e+002, 1.356685e+003
9.747971e+002, 1.373664e+003
9.752792e+002, 1.388446e+003
9.757613e+002, 1.396096e+003
9.762434e+002, 1.403003e+003
9.767255e+002, 1.416647e+003
9.772076e+002, 1.436412e+003
9.776898e+002, 1.463896e+003
9.781719e+002, 1.497109e+003
9.786540e+002, 1.526070e+003
9.791361e+002, 1.546220e+003
9.796182e+002, 1.563282e+003
9.801003e+002, 1.584070e+003
9.805825e+002, 1.607718e+003
9.810646e+002, 1.628016e+003
9.815467e+002, 1.646580e+003
9.820288e+002, 1.679468e+003
9.825109e+002, 1.729672e+003
9.829930e+002, 1.780942e+003
9.834752e+002, 1.822100e+003
9.839573e+002, 1.860049e+003
9.844394e+002, 1.908547e+003
9.849215e+002, 1.967590e+003
9.854036e+002, 2.025719e+003
9.858857e+002, 2.083424e+003
9.863679e+002, 2.135963e+003
9.868500e+002, 2.180099e+003
9.873321e+002, 2.225937e+003
9.878142e+002, 2.282718e+003
9.882963e+002, 2.346542e+003
9.887784e+002, 2.405609e+003
9.892606e+002, 2.459933e+003
9.897427e+002, 2.509375e+003
9.902248e+002, 2.559728e+003
9.907069e+002, 2.593549e+003
9.911890e+002, 2.599438e+003
9.916711e+002, 2.593540e+003
9.921533e+002, 2.596031e+003
9.926354e+002, 2.601709e+003
9.931175e+002, 2.578777e+003
9.935996e+002, 2.510626e+003
9.940817e+002, 2.444120e+003
9.945638e+002, 2.385508e+003
9.950460e+002, 2.321465e+003
9.955281e+002, 2.245313e+003
9.960102e+002, 2.162562e+003
9.964923e+002, 2.076352e+003
9.969744e+002, 1.988111e+003
9.974565e+002, 1.906608e+003
9.979387e+002, 1.831183e+003
9.984208e+002, 1.766921e+003
9.989029e+002, 1.725011e+003
9.993850e+002, 1.684622e+003
9.998671e+002, 1.629561e+003
1.000349e+003, 1.569885e+003
1.000831e+003, 1.520727e+003
1.001313e+003, 1.483829e+003
1.001796e+003, 1.452371e+003
1.002278e+003, 1.427062e+003
1.002760e+003, 1.401432e+003
1.003242e+003, 1.368047e+003
1.003724e+003, 1.336223e+003
1.004206e+003, 1.314098e+003
1.004688e+003, 1.300390e+003
1.005170e+003, 1.292363e+003
1.005653e+003, 1.288532e+003
1.006135e+003, 1.283756e+003
1.006617e+003, 1.274045e+003
1.007099e+003, 1.262972e+003
1.007581e+003, 1.254201e+003
1.008063e+003, 1.246023e+003
1.008545e+003, 1.236011e+003
1.009027e+003, 1.224354e+003
1.009509e+003, 1.212428e+003
1.009992e+003, 1.200728e+003
1.010474e+003, 1.188161e+003
1.010956e+003, 1.171402e+003
1.011438e+003, 1.155959e+003
1.011920e+003, 1.154496e+003
1.012402e+003, 1.159637e+003
1.012884e+003, 1.150226e+003
1.013366e+003, 1.128339e+003
1.013849e+003, 1.117562e+003
1.014331e+003, 1.127853e+003
1.014813e+003, 1.140522e+003
1.015295e+003, 1.132076e+003
1.015777e+003, 1.112473e+003
1.016259e+003, 1.108149e+003
1.016741e+003, 1.115633e+003
1.017223e+003, 1.119097e+003
1.017705e+003, 1.116261e+003
1.018188e+003, 1.110666e+003
1.018670e+003, 1.104015e+003
1.019152e+003, 1.097385e+003
1.019634e+003, 1.092151e+003
1.020116e+003, 1.088260e+003
1.020598e+003, 1.086685e+003
1.021080e+003, 1.087169e+003
1.021562e+003, 1.080659e+003
1.022044e+003, 1.065010e+003
1.022527e+003, 1.054051e+003
1.023009e+003, 1.056519e+003
1.023491e+003, 1.064158e+003
1.023973e+003, 1.063261e+003
1.024455e+003, 1.054515e+003
1.024937e+003, 1.049320e+003
1.025419e+003, 1.047846e+003
1.025901e+003, 1.049470e+003
1.026384e+003, 1.055260e+003
1.026866e+003, 1.058587e+003
1.027348e+003, 1.054661e+003
1.027830e+003, 1.047267e+003
1.028312e+003, 1.043952e+003
1.028794e+003, 1.045077e+003
1.029276e+003, 1.039466e+003
1.029758e+003, 1.023192e+003
1.030240e+003, 1.014982e+003
1.030723e+003, 1.022476e+003
1.031205e+003, 1.028513e+003
1.031687e+003, 1.020074e+003
1.032169e+003, 1.004810e+003
1.032651e+003, 9.981301e+002
1.033133e+003, 1.000780e+003
1.033615e+003, 1.006657e+003
1.034097e+003, 1.022445e+003
1.034579e+003, 1.025894e+003
1.035062e+003, 1.003769e+003
1.035544e+003, 9.822295e+002
1.036026e+003, 9.809949e+002
1.036508e+003, 9.906535e+002
1.036990e+003, 9.907380e+002
1.037472e+003, 9.783187e+002
1.037954e+003, 9.729040e+002
1.038436e+003, 9.813163e+002
1.038919e+003, 9.857805e+002
1.039401e+003, 9.801442e+002
1.039883e+003, 9.731204e+002
1.040365e+003, 9.699274e+002
1.040847e+003, 9.693799e+002
1.041329e+003, 9.692484e+002
1.041811e+003, 9.697646e+002
1.042293e+003, 9.695027e+002
1.042776e+003, 9.672913e+002
1.043258e+003, 9.659265e+002
1.043740e+003, 9.681507e+002
1.044222e+003, 9.691678e+002
1.044704e+003, 9.669440e+002
1.045186e+003, 9.609767e+002
1.045668e+003, 9.474108e+002
1.046150e+003, 9.229933e+002
1.046632e+003, 9.131516e+002
1.047115e+003, 9.373400e+002
1.047597e+003, 9.532222e+002
1.048079e+003, 9.412450e+002
1.048561e+003, 9.266404e+002
1.049043e+003, 9.308413e+002
1.049525e+003, 9.434703e+002
1.050007e+003, 9.409030e+002
1.050489e+003, 9.183906e+002
1.050971e+003, 9.074589e+002
1.051454e+003, 9.244787e+002
1.051936e+003, 9.398182e+002
1.052418e+003, 9.461009e+002
1.052900e+003, 9.463207e+002
1.053382e+003, 9.393519e+002
1.053864e+003, 9.293628e+002
1.054346e+003, 9.231790e+002
1.054828e+003, 9.217892e+002
1.055311e+003, 9.221514e+002
1.055793e+003, 9.266307e+002
1.056275e+003, 9.284471e+002
1.056757e+003, 9.230040e+002
1.057239e+003, 9.162751e+002
1.057721e+003, 9.119323e+002
1.058203e+003, 9.098724e+002
1.058685e+003, 9.094485e+002
1.059167e+003, 9.105280e+002
1.059650e+003, 9.124141e+002
1.060132e+003, 9.149344e+002
1.060614e+003, 9.181569e+002
1.061096e+003, 9.241213e+002
1.061578e+003, 9.288454e+002
1.062060e+003, 9.290920e+002
1.062542e+003, 9.260903e+002
1.063024e+003, 9.211594e+002
1.063506e+003, 9.149020e+002
1.063989e+003, 9.108730e+002
1.064471e+003, 9.100046e+002
1.064953e+003, 9.120692e+002
1.065435e+003, 9.202516e+002
1.065917e+003, 9.280833e+002
1.066399e+003, 9.331992e+002
1.066881e+003, 9.333128e+002
1.067363e+003, 9.213259e+002
1.067846e+003, 8.989655e+002
1.068328e+003, 8.861291e+002
1.068810e+003, 8.960973e+002
1.069292e+003, 9.065999e+002
1.069774e+003, 9.103696e+002
1.070256e+003, 9.082308e+002
1.070738e+003, 8.917176e+002
1.071220e+003, 8.748842e+002
1.071703e+003, 8.826870e+002
1.072185e+003, 9.127294e+002
1.072667e+003, 9.312782e+002
1.073149e+003, 9.220319e+002
1.073631e+003, 9.087659e+002
1.074113e+003, 9.002527e+002
1.074595e+003, 8.940549e+002
1.075077e+003, 8.888794e+002
1.075559e+003, 8.846270e+002
1.076042e+003, 8.815906e+002
1.076524e+003, 8.795443e+002
1.077006e+003, 8.775140e+002
1.077488e+003, 8.751143e+002
1.077970e+003, 8.728485e+002
1.078452e+003, 8.697614e+002
1.078934e+003, 8.681854e+002
1.079416e+003, 8.710918e+002
1.079898e+003, 8.754249e+002
1.080380e+003, 8.777445e+002
1.080863e+003, 8.779694e+002
1.081345e+003, 8.779344e+002
1.081827e+003, 8.787804e+002
1.082309e+003, 8.764149e+002
1.082791e+003, 8.609103e+002
1.083273e+003, 8.510079e+002
1.083755e+003, 8.654260e+002
1.084237e+003, 8.858203e+002
1.084720e+003, 8.917713e+002
1.085202e+003, 8.861669e+002
1.085684e+003, 8.822072e+002
1.086166e+003, 8.834064e+002
1.086648e+003, 8.853829e+002
1.087130e+003, 8.878542e+002
1.087612e+003, 8.886831e+002
1.088094e+003, 8.799676e+002
1.088577e+003, 8.749890e+002
1.089059e+003, 8.927235e+002
1.089541e+003, 9.219634e+002
1.090023e+003, 9.369037e+002
1.090505e+003, 9.323031e+002
1.090987e+003, 9.270557e+002
1.091469e+003, 9.322695e+002
1.091951e+003, 9.329357e+002
1.092433e+003, 9.214695e+002
1.092916e+003, 9.041453e+002
1.093398e+003, 8.813851e+002
1.093880e+003, 8.585109e+002
1.094362e+003, 8.426613e+002
1.094844e+003, 8.349645e+002
1.095326e+003, 8.338270e+002
1.095808e+003, 8.455809e+002
1.096290e+003, 8.537635e+002
1.096772e+003, 8.489818e+002
1.097255e+003, 8.432737e+002
1.097737e+003, 8.462286e+002
1.098219e+003, 8.517455e+002
1.098701e+003, 8.493096e+002
1.099183e+003, 8.399119e+002
1.099665e+003, 8.370465e+002
1.100147e+003, 8.506183e+002
1.100629e+003, 8.565656e+002
1.101112e+003, 8.396132e+002
1.101594e+003, 8.244033e+002
1.102076e+003, 8.233185e+002
1.102558e+003, 8.298542e+002
1.103040e+003, 8.417910e+002
1.103522e+003, 8.548732e+002
1.104004e+003, 8.547301e+002
1.104486e+003, 8.326058e+002
1.104969e+003, 8.187244e+002
1.105451e+003, 8.258851e+002
1.105933e+003, 8.323893e+002
1.106415e+003, 8.304573e+002
1.106897e+003, 8.251634e+002
1.107379e+003, 8.194842e+002
1.107861e+003, 8.140382e+002
1.108343e+003, 8.089163e+002
1.108825e+003, 8.030093e+002
1.109307e+003, 8.038494e+002
1.109790e+003, 8.217090e+002
1.110272e+003, 8.326564e+002
1.110754e+003, 8.278654e+002
1.111236e+003, 8.191129e+002
1.111718e+003, 8.112042e+002
1.112200e+003, 8.049418e+002
1.112682e+003, 8.021422e+002
1.113164e+003, 8.030503e+002
1.113647e+003, 8.025468e+002
1.114129e+003, 7.947545e+002
1.114611e+003, 7.955419e+002
1.115093e+003, 8.142302e+002
1.115575e+003, 8.304175e+002
1.116057e+003, 8.355607e+002
1.116539e+003, 8.337970e+002
1.117021e+003, 8.282703e+002
1.117504e+003, 8.197520e+002
1.117986e+003, 8.141169e+002
1.118468e+003, 8.134066e+002
1.118950e+003, 8.103654e+002
1.119432e+003, 8.012155e+002
1.119914e+003, 7.977717e+002
1.120396e+003, 8.076251e+002
1.120878e+003, 8.178558e+002
1.121360e+003, 8.163004e+002
1.121843e+003, 8.074621e+002
1.122325e+003, 8.050354e+002
1.122807e+003, 8.107040e+002
1.123289e+003, 8.121109e+002
1.123771e+003, 8.073993e+002
1.124253e+003, 8.050648e+002
1.124735e+003, 8.077850e+002
1.125217e+003, 8.104611e+002
1.125699e+003, 8.096566e+002
1.126182e+003, 8.072525e+002
1.126664e+003, 8.060645e+002
1.127146e+003, 8.062173e+002
1.127628e+003, 8.112953e+002
1.128110e+003, 8.224458e+002
1.128592e+003, 8.277129e+002
1.129074e+003, 8.251473e+002
1.129556e+003, 8.188530e+002
1.130039e+003, 8.100857e+002
1.130521e+003, 8.019056e+002
1.131003e+003, 7.979395e+002
1.131485e+003, 7.971957e+002
1.131967e+003, 7.964608e+002
1.132449e+003, 7.957272e+002
1.132931e+003, 7.952205e+002
1.133413e+003, 7.948917e+002
1.133896e+003, 7.920280e+002
1.134378e+003, 7.858127e+002
1.134860e+003, 7.819155e+002
1.135342e+003, 7.851840e+002
1.135824e+003, 7.910298e+002
1.136306e+003, 7.910485e+002
1.136788e+003, 7.865298e+002
1.137270e+003, 7.798545e+002
1.137752e+003, 7.729779e+002
1.138234e+003, 7.768482e+002
1.138717e+003, 7.918540e+002
1.139199e+003, 8.062601e+002
1.139681e+003, 8.141251e+002
1.140163e+003, 8.163212e+002
1.140645e+003, 8.124954e+002
1.141127e+003, 8.049860e+002
1.141609e+003, 7.957815e+002
1.142091e+003, 7.871592e+002
1.142574e+003, 7.849332e+002
1.143056e+003, 7.882428e+002
1.143538e+003, 7.935040e+002
1.144020e+003, 7.988839e+002
1.144502e+003, 7.999392e+002
1.144984e+003, 7.904908e+002
1.145466e+003, 7.827775e+002
1.145948e+003, 7.948977e+002
1.146431e+003, 8.118746e+002
1.146913e+003, 8.143750e+002
1.147395e+003, 8.074002e+002
1.147877e+003, 8.011172e+002
1.148359e+003, 7.974584e+002
1.148841e+003, 7.942285e+002
1.149323e+003, 7.901846e+002
1.149805e+003, 7.883479e+002
1.150287e+003, 7.935605e+002
1.150770e+003, 7.983185e+002
1.151252e+003, 7.944738e+002
1.151734e+003, 7.895137e+002
1.152216e+003, 7.969371e+002
1.152698e+003, 8.086219e+002
1.153180e+003, 8.006559e+002
1.153662e+003, 7.682440e+002
1.154144e+003, 7.483403e+002
1.154626e+003, 7.618386e+002
1.155109e+003, 7.775886e+002
1.155591e+003, 7.895956e+002
1.156073e+003, 7.960536e+002
1.156555e+003, 7.931084e+002
1.157037e+003, 7.858285e+002
1.157519e+003, 7.792766e+002
1.158001e+003, 7.742452e+002
1.158483e+003, 7.729709e+002
1.158966e+003, 7.773008e+002
1.159448e+003, 7.818209e+002
1.159930e+003, 7.877418e+002
1.160412e+003, 7.916876e+002
1.160894e+003, 7.919026e+002
1.161376e+003, 7.907350e+002
1.161858e+003, 7.877697e+002
1.162340e+003, 7.859896e+002
1.162822e+003, 7.942309e+002
1.163305e+003, 8.150338e+002
1.163787e+003, 8.170301e+002
1.164269e+003, 7.905105e+002
1.164751e+003, 7.741271e+002
1.165233e+003, 7.757761e+002
1.165715e+003, 7.799517e+002
1.166197e+003, 7.802040e+002
1.166679e+003, 7.772908e+002
1.167161e+003, 7.711368e+002
1.167644e+003, 7.635754e+002
1.168126e+003, 7.632402e+002
1.168608e+003, 7.704946e+002
1.169090e+003, 7.732516e+002
1.169572e+003, 7.708774e+002
1.170054e+003, 7.677213e+002
1.170536e+003, 7.648683e+002
1.171018e+003, 7.666443e+002
1.171500e+003, 7.767456e+002
1.171983e+003, 7.880055e+002
1.172465e+003, 7.864847e+002
1.172947e+003, 7.776479e+002
1.173429e+003, 7.832032e+002
1.173911e+003, 7.976669e+002
1.174393e+003, 7.974926e+002
1.174875e+003, 7.833103e+002
1.175357e+003, 7.740914e+002
1.175840e+003, 7.770172e+002
1.176322e+003, 7.869534e+002
1.176804e+003, 8.030297e+002
1.177286e+003, 8.163218e+002
1.177768e+003, 8.114595e+002
1.178250e+003, 7.998901e+002
1.178732e+003, 7.997786e+002
1.179214e+003, 8.055525e+002
1.179697e+003, 8.036511e+002
1.180179e+003, 7.934661e+002
1.180661e+003, 7.836759e+002
1.181143e+003, 7.778843e+002
1.181625e+003, 7.726491e+002
1.182107e+003, 7.624832e+002
1.182589e+003, 7.563331e+002
1.183071e+003, 7.649974e+002
1.183553e+003, 7.760786e+002
1.184036e+003, 7.760915e+002
1.184518e+003, 7.701415e+002
1.185000e+003, 7.703268e+002
1.185482e+003, 7.778928e+002
1.185964e+003, 7.817235e+002
1.186446e+003, 7.733741e+002
1.186928e+003, 7.707490e+002
1.187410e+003, 7.878885e+002
1.187892e+003, 7.975281e+002
1.188375e+003, 7.787549e+002
1.188857e+003, 7.556485e+002
1.189339e+003, 7.499117e+002
1.189821e+003, 7.575404e+002
1.190303e+003, 7.683629e+002
1.190785e+003, 7.841375e+002
1.191267e+003, 7.924295e+002
1.191749e+003, 7.911619e+002
1.192232e+003, 7.877396e+002
1.192714e+003, 7.820896e+002
1.193196e+003, 7.784604e+002
1.193678e+003, 7.800486e+002
1.194160e+003, 7.811860e+002
1.194642e+003, 7.738693e+002
1.195124e+003, 7.616298e+002
1.195606e+003, 7.583377e+002
1.196089e+003, 7.637880e+002
1.196571e+003, 7.757615e+002
1.197053e+003, 7.934495e+002
1.197535e+003, 8.041151e+002
1.198017e+003, 8.047018e+002
1.198499e+003, 8.004241e+002
1.198981e+003, 7.941987e+002
1.199463e+003, 7.891290e+002
1.199945e+003, 7.913925e+002
1.200427e+003, 7.961483e+002
1.200910e+003, 7.919830e+002
1.201392e+003, 7.834015e+002
1.201874e+003, 7.822048e+002
1.202356e+003, 7.858430e+002
1.202838e+003, 7.809478e+002
1.203320e+003, 7.657844e+002
1.203802e+003, 7.567780e+002
1.204284e+003, 7.666959e+002
1.204767e+003, 7.757032e+002
1.205249e+003, 7.634498e+002
1.205731e+003, 7.497858e+002
1.206213e+003, 7.520248e+002
1.206695e+003, 7.619453e+002
1.207177e+003, 7.716326e+002
1.207659e+003, 7.788932e+002
1.208141e+003, 7.811877e+002
1.208624e+003, 7.777435e+002
1.209106e+003, 7.741366e+002
1.209588e+003, 7.692726e+002
1.210070e+003, 7.680249e+002
1.210552e+003, 7.743865e+002
1.211034e+003, 7.810452e+002
1.211516e+003, 7.857252e+002
1.211998e+003, 7.877712e+002
1.212480e+003, 7.861886e+002
1.212963e+003, 7.814327e+002
1.213445e+003, 7.745848e+002
1.213927e+003, 7.637902e+002
1.214409e+003, 7.614423e+002
1.214891e+003, 7.711815e+002
1.215373e+003, 7.741661e+002
1.215855e+003, 7.655937e+002
1.216337e+003, 7.555123e+002
1.216819e+003, 7.484838e+002
1.217302e+003, 7.470152e+002
1.217784e+003, 7.559505e+002
1.218266e+003, 7.699664e+002
1.218748e+003, 7.701464e+002
1.219230e+003, 7.602046e+002
1.219712e+003, 7.611686e+002
1.220194e+003, 7.710073e+002
1.220676e+003, 7.711356e+002
1.221159e+003, 7.593221e+002
1.221641e+003, 7.511651e+002
1.222123e+003, 7.551016e+002
1.222605e+003, 7.641664e+002
1.223087e+003, 7.747648e+002
1.223569e+003, 7.833217e+002
1.224051e+003, 7.830865e+002
1.224533e+003, 7.803423e+002
1.225016e+003, 7.857111e+002
1.225498e+003, 7.941488e+002
1.225980e+003, 7.942692e+002
1.226462e+003, 7.849996e+002
1.226944e+003, 7.733356e+002
1.227426e+003, 7.595491e+002
1.227908e+003, 7.500488e+002
1.228390e+003, 7.489999e+002
1.228872e+003, 7.501523e+002
1.229354e+003, 7.498416e+002
1.229837e+003, 7.517646e+002
1.230319e+003, 7.657224e+002
1.230801e+003, 7.803254e+002
1.231283e+003, 7.711879e+002
1.231765e+003, 7.395267e+002
1.232247e+003, 7.295385e+002
1.232729e+003, 7.511077e+002
1.233211e+003, 7.637673e+002
1.233694e+003, 7.637321e+002
1.234176e+003, 7.617737e+002
1.234658e+003, 7.602730e+002
1.235140e+003, 7.617964e+002
1.235622e+003, 7.687589e+002
1.236104e+003, 7.776442e+002
1.236586e+003, 7.833785e+002
1.237068e+003, 7.853812e+002
1.237551e+003, 7.775428e+002
1.238033e+003, 7.637454e+002
1.238515e+003, 7.647249e+002
1.238997e+003, 7.781229e+002
1.239479e+003, 7.816267e+002
1.239961e+003, 7.699338e+002
1.240443e+003, 7.564321e+002
1.240925e+003, 7.487667e+002
1.241407e+003, 7.464713e+002
1.241890e+003, 7.530897e+002
1.242372e+003, 7.606548e+002
1.242854e+003, 7.629392e+002
1.243336e+003, 7.603082e+002
1.243818e+003, 7.484688e+002
1.244300e+003, 7.342739e+002
1.244782e+003, 7.326719e+002
1.245264e+003, 7.451350e+002
1.245746e+003, 7.563501e+002
1.246229e+003, 7.623597e+002
1.246711e+003, 7.668311e+002
1.247193e+003, 7.714462e+002
1.247675e+003, 7.730928e+002
1.248157e+003, 7.672079e+002
1.248639e+003, 7.624424e+002
1.249121e+003, 7.665671e+002
1.249603e+003, 7.739915e+002
1.250085e+003, 7.740424e+002
1.250568e+003, 7.673350e+002
1.251050e+003, 7.660648e+002
1.251532e+003, 7.714865e+002
1.252014e+003, 7.656589e+002
1.252496e+003, 7.464840e+002
1.252978e+003, 7.396344e+002
1.253460e+003, 7.527274e+002
1.253942e+003, 7.637647e+002
1.254425e+003, 7.571534e+002
1.254907e+003, 7.456385e+002
1.255389e+003, 7.456827e+002
1.255871e+003, 7.539630e+002
1.256353e+003, 7.702736e+002
1.256835e+003, 7.868123e+002
1.257317e+003, 7.872382e+002
1.257799e+003, 7.751537e+002
1.258281e+003, 7.602458e+002
1.258764e+003, 7.463065e+002
1.259246e+003, 7.374801e+002
1.259728e+003, 7.355502e+002
1.260210e+003, 7.390175e+002
1.260692e+003, 7.533196e+002
1.261174e+003, 7.647734e+002
1.261656e+003, 7.610187e+002
1.262138e+003, 7.579538e+002
1.262620e+003, 7.734432e+002
1.263103e+003, 7.944302e+002
1.263585e+003, 7.985074e+002
1.264067e+003, 7.876801e+002
1.264549e+003, 7.792908e+002
1.265031e+003, 7.740784e+002
1.265513e+003, 7.686318e+002
1.265995e+003, 7.627070e+002
1.266477e+003, 7.571241e+002
1.266960e+003, 7.515805e+002
1.267442e+003, 7.505497e+002
1.267924e+003, 7.570242e+002
1.268406e+003, 7.643719e+002
1.268888e+003, 7.638756e+002
1.269370e+003, 7.602012e+002
1.269852e+003, 7.671525e+002
1.270334e+003, 7.782997e+002
1.270817e+003, 7.720985e+002
1.271299e+003, 7.571293e+002
1.271781e+003, 7.644365e+002
1.272263e+003, 7.905436e+002
1.272745e+003, 7.991162e+002
1.273227e+003, 7.762205e+002
1.273709e+003, 7.539665e+002
1.274191e+003, 7.511278e+002
1.274673e+003, 7.541914e+002
1.275156e+003, 7.605736e+002
1.275638e+003, 7.657802e+002
1.276120e+003, 7.653623e+002
1.276602e+003, 7.633339e+002
1.277084e+003, 7.642200e+002
1.277566e+003, 7.674829e+002
1.278048e+003, 7.703353e+002
1.278530e+003, 7.724106e+002
1.279012e+003, 7.784476e+002
1.279495e+003, 7.922045e+002
1.279977e+003, 7.942239e+002
1.280459e+003, 7.792054e+002
1.280941e+003, 7.710123e+002
1.281423e+003, 7.790618e+002
1.281905e+003, 7.890474e+002
1.282387e+003, 7.898890e+002
1.282869e+003, 7.848187e+002
1.283352e+003, 7.766656e+002
1.283834e+003, 7.681146e+002
1.284316e+003, 7.648900e+002
1.284798e+003, 7.670289e+002
##END=



