##NAMES=Cosalite
##RRUFFID=R060625
##IDEAL CHEMISTRY=Pb^2+^_2_Bi^3+^_2_S^2-^_5_
##LOCALITY=Wells, British Columbia, Canada
##OWNER=RRUFF
##SOURCE=Michael Scott
##DESCRIPTION=Steel gray metallic elongated prismatic crystals associated with quartz
##STATUS=The identification of this mineral has been confirmed by single-crystal X-ray diffraction.
##URL=rruff.info/R060625
8.813672e+001, 9.336462e+001
8.861884e+001, 9.521192e+001
8.910095e+001, 9.664481e+001
8.958307e+001, 9.757355e+001
9.006519e+001, 9.849229e+001
9.054730e+001, 1.000246e+002
9.102942e+001, 1.028395e+002
9.151154e+001, 1.051642e+002
9.199365e+001, 1.044304e+002
9.247577e+001, 1.011549e+002
9.295789e+001, 9.793475e+001
9.344000e+001, 9.691280e+001
9.392212e+001, 9.732752e+001
9.440424e+001, 9.713979e+001
9.488635e+001, 9.599164e+001
9.536847e+001, 9.425271e+001
9.585059e+001, 9.252040e+001
9.633270e+001, 9.074992e+001
9.681482e+001, 8.928529e+001
9.729694e+001, 8.848517e+001
9.777905e+001, 8.832880e+001
9.826117e+001, 8.853949e+001
9.874329e+001, 8.930720e+001
9.922540e+001, 9.045825e+001
9.970752e+001, 9.058383e+001
1.001896e+002, 8.944395e+001
1.006718e+002, 8.781428e+001
1.011539e+002, 8.662786e+001
1.016360e+002, 8.590800e+001
1.021181e+002, 8.549686e+001
1.026002e+002, 8.536827e+001
1.030823e+002, 8.553861e+001
1.035645e+002, 8.583876e+001
1.040466e+002, 8.613948e+001
1.045287e+002, 8.664753e+001
1.050108e+002, 8.781169e+001
1.054929e+002, 8.995947e+001
1.059750e+002, 9.227608e+001
1.064572e+002, 9.460725e+001
1.069393e+002, 9.809183e+001
1.074214e+002, 9.953405e+001
1.079035e+002, 9.799023e+001
1.083856e+002, 9.429981e+001
1.088677e+002, 9.145832e+001
1.093499e+002, 8.981786e+001
1.098320e+002, 8.872440e+001
1.103141e+002, 8.789911e+001
1.107962e+002, 8.721741e+001
1.112783e+002, 8.691688e+001
1.117604e+002, 8.712757e+001
1.122426e+002, 8.779150e+001
1.127247e+002, 8.850813e+001
1.132068e+002, 8.892316e+001
1.136889e+002, 8.952657e+001
1.141710e+002, 9.065379e+001
1.146531e+002, 9.340940e+001
1.151353e+002, 9.571644e+001
1.156174e+002, 9.677209e+001
1.160995e+002, 9.656194e+001
1.165816e+002, 9.640276e+001
1.170637e+002, 9.711810e+001
1.175458e+002, 9.802991e+001
1.180280e+002, 9.840871e+001
1.185101e+002, 9.736948e+001
1.189922e+002, 9.613157e+001
1.194743e+002, 9.537636e+001
1.199564e+002, 9.515917e+001
1.204385e+002, 9.528168e+001
1.209207e+002, 9.535474e+001
1.214028e+002, 9.569924e+001
1.218849e+002, 9.687302e+001
1.223670e+002, 1.007451e+002
1.228491e+002, 1.048892e+002
1.233312e+002, 1.064766e+002
1.238134e+002, 1.047662e+002
1.242955e+002, 1.021243e+002
1.247776e+002, 1.005028e+002
1.252597e+002, 9.973921e+001
1.257418e+002, 9.927518e+001
1.262239e+002, 9.868484e+001
1.267061e+002, 9.817800e+001
1.271882e+002, 9.821642e+001
1.276703e+002, 9.899142e+001
1.281524e+002, 1.000982e+002
1.286345e+002, 1.009811e+002
1.291166e+002, 1.016596e+002
1.295988e+002, 1.023488e+002
1.300809e+002, 1.034900e+002
1.305630e+002, 1.048614e+002
1.310451e+002, 1.054682e+002
1.315272e+002, 1.048599e+002
1.320093e+002, 1.035525e+002
1.324915e+002, 1.027068e+002
1.329736e+002, 1.023502e+002
1.334557e+002, 1.022124e+002
1.339378e+002, 1.020413e+002
1.344199e+002, 1.018381e+002
1.349020e+002, 1.018161e+002
1.353842e+002, 1.020671e+002
1.358663e+002, 1.025394e+002
1.363484e+002, 1.028771e+002
1.368305e+002, 1.029323e+002
1.373126e+002, 1.032738e+002
1.377947e+002, 1.048582e+002
1.382769e+002, 1.080900e+002
1.387590e+002, 1.105022e+002
1.392411e+002, 1.113062e+002
1.397232e+002, 1.104775e+002
1.402053e+002, 1.092967e+002
1.406874e+002, 1.076097e+002
1.411696e+002, 1.057510e+002
1.416517e+002, 1.041632e+002
1.421338e+002, 1.028416e+002
1.426159e+002, 1.017942e+002
1.430980e+002, 1.010469e+002
1.435801e+002, 1.006552e+002
1.440623e+002, 1.003381e+002
1.445444e+002, 1.000544e+002
1.450265e+002, 9.987559e+001
1.455086e+002, 9.996742e+001
1.459907e+002, 1.007037e+002
1.464728e+002, 1.012201e+002
1.469550e+002, 1.012031e+002
1.474371e+002, 1.003756e+002
1.479192e+002, 9.964903e+001
1.484013e+002, 9.908315e+001
1.488834e+002, 9.861423e+001
1.493655e+002, 9.808817e+001
1.498477e+002, 9.720483e+001
1.503298e+002, 9.652515e+001
1.508119e+002, 9.628591e+001
1.512940e+002, 9.702170e+001
1.517761e+002, 9.740639e+001
1.522583e+002, 9.706927e+001
1.527404e+002, 9.630827e+001
1.532225e+002, 9.596676e+001
1.537046e+002, 9.672196e+001
1.541867e+002, 9.747626e+001
1.546688e+002, 9.772707e+001
1.551510e+002, 9.718118e+001
1.556331e+002, 9.642627e+001
1.561152e+002, 9.542970e+001
1.565973e+002, 9.425764e+001
1.570794e+002, 9.319071e+001
1.575615e+002, 9.213803e+001
1.580437e+002, 9.128977e+001
1.585258e+002, 9.076263e+001
1.590079e+002, 9.090741e+001
1.594900e+002, 9.103668e+001
1.599721e+002, 9.086472e+001
1.604542e+002, 9.046415e+001
1.609364e+002, 9.025624e+001
1.614185e+002, 9.058723e+001
1.619006e+002, 9.108001e+001
1.623827e+002, 9.143121e+001
1.628648e+002, 9.170660e+001
1.633469e+002, 9.168596e+001
1.638291e+002, 9.109650e+001
1.643112e+002, 9.000286e+001
1.647933e+002, 8.901321e+001
1.652754e+002, 8.838894e+001
1.657575e+002, 8.803471e+001
1.662396e+002, 8.785037e+001
1.667218e+002, 8.788570e+001
1.672039e+002, 8.801569e+001
1.676860e+002, 8.820887e+001
1.681681e+002, 8.845889e+001
1.686502e+002, 8.865083e+001
1.691323e+002, 8.868326e+001
1.696145e+002, 8.861763e+001
1.700966e+002, 8.853683e+001
1.705787e+002, 8.861713e+001
1.710608e+002, 8.861105e+001
1.715429e+002, 8.818216e+001
1.720250e+002, 8.730015e+001
1.725072e+002, 8.651244e+001
1.729893e+002, 8.631643e+001
1.734714e+002, 8.649445e+001
1.739535e+002, 8.664407e+001
1.744356e+002, 8.665182e+001
1.749177e+002, 8.650822e+001
1.753999e+002, 8.609744e+001
1.758820e+002, 8.537590e+001
1.763641e+002, 8.475603e+001
1.768462e+002, 8.475362e+001
1.773283e+002, 8.515958e+001
1.778104e+002, 8.543657e+001
1.782926e+002, 8.517490e+001
1.787747e+002, 8.465929e+001
1.792568e+002, 8.435825e+001
1.797389e+002, 8.430926e+001
1.802210e+002, 8.437727e+001
1.807031e+002, 8.446276e+001
1.811853e+002, 8.455335e+001
1.816674e+002, 8.460154e+001
1.821495e+002, 8.458954e+001
1.826316e+002, 8.451754e+001
1.831137e+002, 8.434087e+001
1.835958e+002, 8.402102e+001
1.840780e+002, 8.374476e+001
1.845601e+002, 8.387646e+001
1.850422e+002, 8.434273e+001
1.855243e+002, 8.466199e+001
1.860064e+002, 8.449409e+001
1.864885e+002, 8.395857e+001
1.869707e+002, 8.347239e+001
1.874528e+002, 8.305524e+001
1.879349e+002, 8.269760e+001
1.884170e+002, 8.238294e+001
1.888991e+002, 8.211140e+001
1.893812e+002, 8.188698e+001
1.898634e+002, 8.176079e+001
1.903455e+002, 8.170367e+001
1.908276e+002, 8.149157e+001
1.913097e+002, 8.104731e+001
1.917918e+002, 8.057124e+001
1.922739e+002, 8.046458e+001
1.927561e+002, 8.073994e+001
1.932382e+002, 8.102323e+001
1.937203e+002, 8.113622e+001
1.942024e+002, 8.108182e+001
1.946845e+002, 8.087040e+001
1.951666e+002, 8.045586e+001
1.956488e+002, 7.996014e+001
1.961309e+002, 7.962614e+001
1.966130e+002, 7.946303e+001
1.970951e+002, 7.935944e+001
1.975772e+002, 7.929280e+001
1.980593e+002, 7.926524e+001
1.985415e+002, 7.909067e+001
1.990236e+002, 7.869233e+001
1.995057e+002, 7.821900e+001
1.999878e+002, 7.803977e+001
2.004699e+002, 7.819822e+001
2.009520e+002, 7.843497e+001
2.014342e+002, 7.864066e+001
2.019163e+002, 7.882537e+001
2.023984e+002, 7.885975e+001
2.028805e+002, 7.869863e+001
2.033626e+002, 7.841465e+001
2.038447e+002, 7.816999e+001
2.043269e+002, 7.795480e+001
2.048090e+002, 7.781301e+001
2.052911e+002, 7.782378e+001
2.057732e+002, 7.803467e+001
2.062553e+002, 7.806723e+001
2.067374e+002, 7.785898e+001
2.072196e+002, 7.748476e+001
2.077017e+002, 7.711255e+001
2.081838e+002, 7.669801e+001
2.086659e+002, 7.640778e+001
2.091480e+002, 7.641293e+001
2.096301e+002, 7.683215e+001
2.101123e+002, 7.697626e+001
2.105944e+002, 7.670541e+001
2.110765e+002, 7.618965e+001
2.115586e+002, 7.594281e+001
2.120407e+002, 7.607287e+001
2.125228e+002, 7.622776e+001
2.130050e+002, 7.620324e+001
2.134871e+002, 7.594994e+001
2.139692e+002, 7.570744e+001
2.144513e+002, 7.550800e+001
2.149334e+002, 7.531985e+001
2.154155e+002, 7.498359e+001
2.158977e+002, 7.432349e+001
2.163798e+002, 7.385793e+001
2.168619e+002, 7.397343e+001
2.173440e+002, 7.498553e+001
2.178261e+002, 7.557627e+001
2.183082e+002, 7.560004e+001
2.187904e+002, 7.518797e+001
2.192725e+002, 7.469093e+001
2.197546e+002, 7.401844e+001
2.202367e+002, 7.343045e+001
2.207188e+002, 7.308844e+001
2.212009e+002, 7.309420e+001
2.216831e+002, 7.306281e+001
2.221652e+002, 7.295962e+001
2.226473e+002, 7.282022e+001
2.231294e+002, 7.275144e+001
2.236115e+002, 7.277237e+001
2.240936e+002, 7.283451e+001
2.245758e+002, 7.294138e+001
2.250579e+002, 7.318344e+001
2.255400e+002, 7.322887e+001
2.260221e+002, 7.296549e+001
2.265042e+002, 7.253207e+001
2.269863e+002, 7.232632e+001
2.274685e+002, 7.244363e+001
2.279506e+002, 7.263732e+001
2.284327e+002, 7.282740e+001
2.289148e+002, 7.312365e+001
2.293969e+002, 7.313489e+001
2.298790e+002, 7.267569e+001
2.303612e+002, 7.198285e+001
2.308433e+002, 7.168964e+001
2.313254e+002, 7.204181e+001
2.318075e+002, 7.241555e+001
2.322896e+002, 7.252186e+001
2.327717e+002, 7.219096e+001
2.332539e+002, 7.201187e+001
2.337360e+002, 7.204876e+001
2.342181e+002, 7.221593e+001
2.347002e+002, 7.231999e+001
2.351823e+002, 7.233077e+001
2.356644e+002, 7.232088e+001
2.361466e+002, 7.232948e+001
2.366287e+002, 7.240216e+001
2.371108e+002, 7.235617e+001
2.375929e+002, 7.210922e+001
2.380750e+002, 7.177862e+001
2.385571e+002, 7.162149e+001
2.390393e+002, 7.175256e+001
2.395214e+002, 7.187754e+001
2.400035e+002, 7.189271e+001
2.404856e+002, 7.177667e+001
2.409677e+002, 7.160518e+001
2.414498e+002, 7.128786e+001
2.419320e+002, 7.096447e+001
2.424141e+002, 7.090302e+001
2.428962e+002, 7.128138e+001
2.433783e+002, 7.163564e+001
2.438604e+002, 7.180434e+001
2.443425e+002, 7.173744e+001
2.448247e+002, 7.167342e+001
2.453068e+002, 7.161418e+001
2.457889e+002, 7.155756e+001
2.462710e+002, 7.148993e+001
2.467531e+002, 7.136627e+001
2.472352e+002, 7.130756e+001
2.477174e+002, 7.135377e+001
2.481995e+002, 7.151511e+001
2.486816e+002, 7.173787e+001
2.491637e+002, 7.210452e+001
2.496458e+002, 7.246955e+001
2.501279e+002, 7.260326e+001
2.506101e+002, 7.236966e+001
2.510922e+002, 7.215778e+001
2.515743e+002, 7.205850e+001
2.520564e+002, 7.206932e+001
2.525385e+002, 7.222456e+001
2.530206e+002, 7.264249e+001
2.535028e+002, 7.309779e+001
2.539849e+002, 7.329819e+001
2.544670e+002, 7.315368e+001
2.549491e+002, 7.295213e+001
2.554312e+002, 7.273438e+001
2.559133e+002, 7.249690e+001
2.563955e+002, 7.234772e+001
2.568776e+002, 7.231036e+001
2.573597e+002, 7.233508e+001
2.578418e+002, 7.239819e+001
2.583239e+002, 7.258511e+001
2.588061e+002, 7.259512e+001
2.592882e+002, 7.228412e+001
2.597703e+002, 7.165928e+001
2.602524e+002, 7.132977e+001
2.607345e+002, 7.141470e+001
2.612166e+002, 7.162292e+001
2.616988e+002, 7.168371e+001
2.621809e+002, 7.152744e+001
2.626630e+002, 7.142497e+001
2.631451e+002, 7.144674e+001
2.636272e+002, 7.157367e+001
2.641093e+002, 7.163541e+001
2.645915e+002, 7.164292e+001
2.650736e+002, 7.156911e+001
2.655557e+002, 7.137087e+001
2.660378e+002, 7.101250e+001
2.665199e+002, 7.067077e+001
2.670020e+002, 7.037201e+001
2.674842e+002, 7.010921e+001
2.679663e+002, 6.984963e+001
2.684484e+002, 6.957043e+001
2.689305e+002, 6.934647e+001
2.694126e+002, 6.926136e+001
2.698947e+002, 6.936372e+001
2.703769e+002, 6.938448e+001
2.708590e+002, 6.929440e+001
2.713411e+002, 6.910709e+001
2.718232e+002, 6.884808e+001
2.723053e+002, 6.848745e+001
2.727874e+002, 6.814608e+001
2.732696e+002, 6.789005e+001
2.737517e+002, 6.772568e+001
2.742338e+002, 6.762621e+001
2.747159e+002, 6.762447e+001
2.751980e+002, 6.765176e+001
2.756801e+002, 6.751790e+001
2.761623e+002, 6.718156e+001
2.766444e+002, 6.687161e+001
2.771265e+002, 6.675233e+001
2.776086e+002, 6.684740e+001
2.780907e+002, 6.677016e+001
2.785728e+002, 6.646847e+001
2.790550e+002, 6.606035e+001
2.795371e+002, 6.573785e+001
2.800192e+002, 6.550359e+001
2.805013e+002, 6.533347e+001
2.809834e+002, 6.527267e+001
2.814655e+002, 6.531433e+001
2.819477e+002, 6.516531e+001
2.824298e+002, 6.478496e+001
2.829119e+002, 6.432259e+001
2.833940e+002, 6.399211e+001
2.838761e+002, 6.379588e+001
2.843582e+002, 6.359975e+001
2.848404e+002, 6.335793e+001
2.853225e+002, 6.307312e+001
2.858046e+002, 6.275591e+001
2.862867e+002, 6.240348e+001
2.867688e+002, 6.204414e+001
2.872509e+002, 6.173079e+001
2.877331e+002, 6.145717e+001
2.882152e+002, 6.112694e+001
2.886973e+002, 6.066931e+001
2.891794e+002, 6.014317e+001
2.896615e+002, 5.976761e+001
2.901436e+002, 5.954994e+001
2.906258e+002, 5.936639e+001
2.911079e+002, 5.906887e+001
2.915900e+002, 5.868918e+001
2.920721e+002, 5.840901e+001
2.925542e+002, 5.832894e+001
2.930363e+002, 5.832964e+001
2.935185e+002, 5.813426e+001
2.940006e+002, 5.774428e+001
2.944827e+002, 5.736246e+001
2.949648e+002, 5.718569e+001
2.954469e+002, 5.714104e+001
2.959290e+002, 5.699772e+001
2.964112e+002, 5.668774e+001
2.968933e+002, 5.630072e+001
2.973754e+002, 5.595039e+001
2.978575e+002, 5.563958e+001
2.983396e+002, 5.537856e+001
2.988217e+002, 5.515906e+001
2.993039e+002, 5.499757e+001
2.997860e+002, 5.496245e+001
3.002681e+002, 5.509886e+001
3.007502e+002, 5.524263e+001
3.012323e+002, 5.520752e+001
3.017144e+002, 5.501712e+001
3.021966e+002, 5.475893e+001
3.026787e+002, 5.442350e+001
3.031608e+002, 5.406670e+001
3.036429e+002, 5.374313e+001
3.041250e+002, 5.345473e+001
3.046071e+002, 5.324021e+001
3.050893e+002, 5.316992e+001
3.055714e+002, 5.320200e+001
3.060535e+002, 5.325093e+001
3.065356e+002, 5.333544e+001
3.070177e+002, 5.338556e+001
3.074998e+002, 5.332326e+001
3.079820e+002, 5.314605e+001
3.084641e+002, 5.292059e+001
3.089462e+002, 5.263501e+001
3.094283e+002, 5.234422e+001
3.099104e+002, 5.212699e+001
3.103925e+002, 5.209584e+001
3.108747e+002, 5.208501e+001
3.113568e+002, 5.197036e+001
3.118389e+002, 5.176569e+001
3.123210e+002, 5.157224e+001
3.128031e+002, 5.142884e+001
3.132852e+002, 5.132921e+001
3.137674e+002, 5.126670e+001
3.142495e+002, 5.124461e+001
3.147316e+002, 5.125357e+001
3.152137e+002, 5.135826e+001
3.156958e+002, 5.150728e+001
3.161779e+002, 5.152818e+001
3.166601e+002, 5.119230e+001
3.171422e+002, 5.080392e+001
3.176243e+002, 5.057529e+001
3.181064e+002, 5.062337e+001
3.185885e+002, 5.066897e+001
3.190706e+002, 5.062040e+001
3.195528e+002, 5.050502e+001
3.200349e+002, 5.037617e+001
3.205170e+002, 5.020264e+001
3.209991e+002, 5.005655e+001
3.214812e+002, 4.999475e+001
3.219633e+002, 5.006730e+001
3.224455e+002, 5.005173e+001
3.229276e+002, 4.978619e+001
3.234097e+002, 4.944657e+001
3.238918e+002, 4.924895e+001
3.243739e+002, 4.936872e+001
3.248560e+002, 4.949456e+001
3.253382e+002, 4.956624e+001
3.258203e+002, 4.958363e+001
3.263024e+002, 4.952539e+001
3.267845e+002, 4.926110e+001
3.272666e+002, 4.899121e+001
3.277487e+002, 4.887651e+001
3.282309e+002, 4.917990e+001
3.287130e+002, 4.933140e+001
3.291951e+002, 4.920769e+001
3.296772e+002, 4.884209e+001
3.301593e+002, 4.856784e+001
3.306414e+002, 4.842826e+001
3.311236e+002, 4.834122e+001
3.316057e+002, 4.826030e+001
3.320878e+002, 4.816021e+001
3.325699e+002, 4.811490e+001
3.330520e+002, 4.816896e+001
3.335341e+002, 4.827095e+001
3.340163e+002, 4.827686e+001
3.344984e+002, 4.816095e+001
3.349805e+002, 4.798981e+001
3.354626e+002, 4.775277e+001
3.359447e+002, 4.737706e+001
3.364268e+002, 4.724128e+001
3.369090e+002, 4.744353e+001
3.373911e+002, 4.778433e+001
3.378732e+002, 4.793889e+001
3.383553e+002, 4.786435e+001
3.388374e+002, 4.775650e+001
3.393195e+002, 4.768529e+001
3.398017e+002, 4.764793e+001
3.402838e+002, 4.751713e+001
3.407659e+002, 4.726805e+001
3.412480e+002, 4.698908e+001
3.417301e+002, 4.673976e+001
3.422122e+002, 4.651580e+001
3.426944e+002, 4.642139e+001
3.431765e+002, 4.652911e+001
3.436586e+002, 4.675920e+001
3.441407e+002, 4.684077e+001
3.446228e+002, 4.676756e+001
3.451049e+002, 4.662046e+001
3.455871e+002, 4.639722e+001
3.460692e+002, 4.612339e+001
3.465513e+002, 4.602752e+001
3.470334e+002, 4.619651e+001
3.475155e+002, 4.643325e+001
3.479977e+002, 4.636501e+001
3.484798e+002, 4.602585e+001
3.489619e+002, 4.570420e+001
3.494440e+002, 4.562527e+001
3.499261e+002, 4.567732e+001
3.504082e+002, 4.557005e+001
3.508904e+002, 4.526037e+001
3.513725e+002, 4.496267e+001
3.518546e+002, 4.493790e+001
3.523367e+002, 4.510625e+001
3.528188e+002, 4.525629e+001
3.533009e+002, 4.531216e+001
3.537831e+002, 4.529279e+001
3.542652e+002, 4.519807e+001
3.547473e+002, 4.503132e+001
3.552294e+002, 4.485902e+001
3.557115e+002, 4.470723e+001
3.561936e+002, 4.458558e+001
3.566758e+002, 4.451532e+001
3.571579e+002, 4.456836e+001
3.576400e+002, 4.458948e+001
3.581221e+002, 4.439198e+001
3.586042e+002, 4.404874e+001
3.590863e+002, 4.381567e+001
3.595685e+002, 4.398175e+001
3.600506e+002, 4.420831e+001
3.605327e+002, 4.422642e+001
3.610148e+002, 4.391857e+001
3.614969e+002, 4.359599e+001
3.619790e+002, 4.333854e+001
3.624612e+002, 4.315833e+001
3.629433e+002, 4.307041e+001
3.634254e+002, 4.318907e+001
3.639075e+002, 4.330488e+001
3.643896e+002, 4.332598e+001
3.648717e+002, 4.323402e+001
3.653539e+002, 4.313887e+001
3.658360e+002, 4.297890e+001
3.663181e+002, 4.286496e+001
3.668002e+002, 4.289380e+001
3.672823e+002, 4.332211e+001
3.677644e+002, 4.362256e+001
3.682466e+002, 4.371443e+001
3.687287e+002, 4.360188e+001
3.692108e+002, 4.337107e+001
3.696929e+002, 4.283461e+001
3.701750e+002, 4.234104e+001
3.706571e+002, 4.208268e+001
3.711393e+002, 4.226315e+001
3.716214e+002, 4.231553e+001
3.721035e+002, 4.217053e+001
3.725856e+002, 4.191682e+001
3.730677e+002, 4.176889e+001
3.735498e+002, 4.179989e+001
3.740320e+002, 4.179274e+001
3.745141e+002, 4.163089e+001
3.749962e+002, 4.127704e+001
3.754783e+002, 4.113317e+001
3.759604e+002, 4.128681e+001
3.764425e+002, 4.150952e+001
3.769247e+002, 4.150183e+001
3.774068e+002, 4.122081e+001
3.778889e+002, 4.098139e+001
3.783710e+002, 4.088612e+001
3.788531e+002, 4.088918e+001
3.793352e+002, 4.077971e+001
3.798174e+002, 4.054421e+001
3.802995e+002, 4.029445e+001
3.807816e+002, 4.011329e+001
3.812637e+002, 3.999570e+001
3.817458e+002, 3.991212e+001
3.822279e+002, 3.985542e+001
3.827101e+002, 3.983572e+001
3.831922e+002, 3.991373e+001
3.836743e+002, 4.006878e+001
3.841564e+002, 4.015208e+001
3.846385e+002, 4.004651e+001
3.851206e+002, 3.982105e+001
3.856028e+002, 3.958799e+001
3.860849e+002, 3.934654e+001
3.865670e+002, 3.916640e+001
3.870491e+002, 3.915184e+001
3.875312e+002, 3.924205e+001
3.880133e+002, 3.931704e+001
3.884955e+002, 3.934784e+001
3.889776e+002, 3.933178e+001
3.894597e+002, 3.923470e+001
3.899418e+002, 3.907188e+001
3.904239e+002, 3.893603e+001
3.909060e+002, 3.890508e+001
3.913882e+002, 3.891476e+001
3.918703e+002, 3.890855e+001
3.923524e+002, 3.887507e+001
3.928345e+002, 3.882333e+001
3.933166e+002, 3.871754e+001
3.937987e+002, 3.859808e+001
3.942809e+002, 3.854718e+001
3.947630e+002, 3.869321e+001
3.952451e+002, 3.882528e+001
3.957272e+002, 3.884487e+001
3.962093e+002, 3.872800e+001
3.966914e+002, 3.859815e+001
3.971736e+002, 3.847861e+001
3.976557e+002, 3.835676e+001
3.981378e+002, 3.822040e+001
3.986199e+002, 3.802496e+001
3.991020e+002, 3.786513e+001
3.995841e+002, 3.772242e+001
4.000663e+002, 3.761067e+001
4.005484e+002, 3.763943e+001
4.010305e+002, 3.801117e+001
4.015126e+002, 3.830523e+001
4.019947e+002, 3.829001e+001
4.024768e+002, 3.777063e+001
4.029590e+002, 3.740546e+001
4.034411e+002, 3.721569e+001
4.039232e+002, 3.716507e+001
4.044053e+002, 3.722282e+001
4.048874e+002, 3.745122e+001
4.053695e+002, 3.759943e+001
4.058517e+002, 3.756544e+001
4.063338e+002, 3.736374e+001
4.068159e+002, 3.719792e+001
4.072980e+002, 3.707025e+001
4.077801e+002, 3.697074e+001
4.082622e+002, 3.690530e+001
4.087444e+002, 3.687112e+001
4.092265e+002, 3.680653e+001
4.097086e+002, 3.668330e+001
4.101907e+002, 3.654394e+001
4.106728e+002, 3.650546e+001
4.111549e+002, 3.655525e+001
4.116371e+002, 3.655668e+001
4.121192e+002, 3.635538e+001
4.126013e+002, 3.605507e+001
4.130834e+002, 3.589956e+001
4.135655e+002, 3.592063e+001
4.140476e+002, 3.598771e+001
4.145298e+002, 3.600071e+001
4.150119e+002, 3.596527e+001
4.154940e+002, 3.589240e+001
4.159761e+002, 3.574893e+001
4.164582e+002, 3.559886e+001
4.169403e+002, 3.547945e+001
4.174225e+002, 3.539501e+001
4.179046e+002, 3.537693e+001
4.183867e+002, 3.548481e+001
4.188688e+002, 3.564465e+001
4.193509e+002, 3.581002e+001
4.198330e+002, 3.602458e+001
4.203152e+002, 3.613312e+001
4.207973e+002, 3.599295e+001
4.212794e+002, 3.571815e+001
4.217615e+002, 3.551532e+001
4.222436e+002, 3.546140e+001
4.227257e+002, 3.546585e+001
4.232079e+002, 3.554526e+001
4.236900e+002, 3.572533e+001
4.241721e+002, 3.575684e+001
4.246542e+002, 3.542326e+001
4.251363e+002, 3.505581e+001
4.256184e+002, 3.489837e+001
4.261006e+002, 3.513035e+001
4.265827e+002, 3.530013e+001
4.270648e+002, 3.536217e+001
4.275469e+002, 3.533806e+001
4.280290e+002, 3.529156e+001
4.285111e+002, 3.519294e+001
4.289933e+002, 3.512952e+001
4.294754e+002, 3.517137e+001
4.299575e+002, 3.535137e+001
4.304396e+002, 3.537502e+001
4.309217e+002, 3.520996e+001
4.314038e+002, 3.495863e+001
4.318860e+002, 3.471902e+001
4.323681e+002, 3.448807e+001
4.328502e+002, 3.435899e+001
4.333323e+002, 3.437440e+001
4.338144e+002, 3.449650e+001
4.342965e+002, 3.466387e+001
4.347787e+002, 3.487530e+001
4.352608e+002, 3.501997e+001
4.357429e+002, 3.496598e+001
4.362250e+002, 3.478900e+001
4.367071e+002, 3.469538e+001
4.371892e+002, 3.473160e+001
4.376714e+002, 3.475777e+001
4.381535e+002, 3.452573e+001
4.386356e+002, 3.416854e+001
4.391177e+002, 3.398206e+001
4.395998e+002, 3.429593e+001
4.400819e+002, 3.469647e+001
4.405641e+002, 3.483464e+001
4.410462e+002, 3.472311e+001
4.415283e+002, 3.454356e+001
4.420104e+002, 3.432035e+001
4.424925e+002, 3.411313e+001
4.429746e+002, 3.398256e+001
4.434568e+002, 3.399203e+001
4.439389e+002, 3.398252e+001
4.444210e+002, 3.388592e+001
4.449031e+002, 3.373874e+001
4.453852e+002, 3.361046e+001
4.458673e+002, 3.347314e+001
4.463495e+002, 3.339843e+001
4.468316e+002, 3.341106e+001
4.473137e+002, 3.351806e+001
4.477958e+002, 3.368398e+001
4.482779e+002, 3.407080e+001
4.487600e+002, 3.438084e+001
4.492422e+002, 3.435896e+001
4.497243e+002, 3.374916e+001
4.502064e+002, 3.335348e+001
4.506885e+002, 3.329306e+001
4.511706e+002, 3.345257e+001
4.516527e+002, 3.350486e+001
4.521349e+002, 3.340939e+001
4.526170e+002, 3.335219e+001
4.530991e+002, 3.344339e+001
4.535812e+002, 3.367556e+001
4.540633e+002, 3.381686e+001
4.545454e+002, 3.386210e+001
4.550276e+002, 3.385040e+001
4.555097e+002, 3.380884e+001
4.559918e+002, 3.374121e+001
4.564739e+002, 3.366162e+001
4.569560e+002, 3.354155e+001
4.574381e+002, 3.345736e+001
4.579203e+002, 3.361995e+001
4.584024e+002, 3.396296e+001
4.588845e+002, 3.417977e+001
4.593666e+002, 3.394011e+001
4.598488e+002, 3.353580e+001
4.603309e+002, 3.334607e+001
4.608130e+002, 3.341825e+001
4.612951e+002, 3.350780e+001
4.617772e+002, 3.344299e+001
4.622593e+002, 3.330052e+001
4.627415e+002, 3.317106e+001
4.632236e+002, 3.306092e+001
4.637057e+002, 3.299324e+001
4.641878e+002, 3.300301e+001
4.646699e+002, 3.306923e+001
4.651520e+002, 3.311805e+001
4.656342e+002, 3.307031e+001
4.661163e+002, 3.305043e+001
4.665984e+002, 3.313322e+001
4.670805e+002, 3.339513e+001
4.675626e+002, 3.355084e+001
4.680447e+002, 3.354143e+001
4.685269e+002, 3.345731e+001
4.690090e+002, 3.338920e+001
4.694911e+002, 3.335954e+001
4.699732e+002, 3.329939e+001
4.704553e+002, 3.317341e+001
4.709374e+002, 3.301033e+001
4.714196e+002, 3.293537e+001
4.719017e+002, 3.296023e+001
4.723838e+002, 3.303821e+001
4.728659e+002, 3.317369e+001
4.733480e+002, 3.336687e+001
4.738301e+002, 3.347831e+001
4.743123e+002, 3.350327e+001
4.747944e+002, 3.345848e+001
4.752765e+002, 3.327443e+001
4.757586e+002, 3.300354e+001
4.762407e+002, 3.294392e+001
4.767228e+002, 3.329958e+001
4.772050e+002, 3.378551e+001
4.776871e+002, 3.395124e+001
4.781692e+002, 3.384309e+001
4.786513e+002, 3.367768e+001
4.791334e+002, 3.353777e+001
4.796155e+002, 3.343885e+001
4.800977e+002, 3.339188e+001
4.805798e+002, 3.339576e+001
4.810619e+002, 3.347279e+001
4.815440e+002, 3.372392e+001
4.820261e+002, 3.402346e+001
4.825082e+002, 3.422746e+001
4.829904e+002, 3.423463e+001
4.834725e+002, 3.420137e+001
4.839546e+002, 3.422148e+001
4.844367e+002, 3.425487e+001
4.849188e+002, 3.412695e+001
4.854009e+002, 3.356227e+001
4.858831e+002, 3.305366e+001
4.863652e+002, 3.281406e+001
4.868473e+002, 3.294881e+001
4.873294e+002, 3.296908e+001
4.878115e+002, 3.279388e+001
4.882936e+002, 3.257845e+001
4.887758e+002, 3.250061e+001
4.892579e+002, 3.262663e+001
4.897400e+002, 3.266476e+001
4.902221e+002, 3.252825e+001
4.907042e+002, 3.229693e+001
4.911863e+002, 3.223635e+001
4.916685e+002, 3.236202e+001
4.921506e+002, 3.249467e+001
4.926327e+002, 3.254079e+001
4.931148e+002, 3.251176e+001
4.935969e+002, 3.244217e+001
4.940790e+002, 3.232784e+001
4.945612e+002, 3.222390e+001
4.950433e+002, 3.220189e+001
4.955254e+002, 3.222963e+001
4.960075e+002, 3.223595e+001
4.964896e+002, 3.219882e+001
4.969717e+002, 3.213752e+001
4.974539e+002, 3.205838e+001
4.979360e+002, 3.196862e+001
4.984181e+002, 3.189002e+001
4.989002e+002, 3.180902e+001
4.993823e+002, 3.175944e+001
4.998644e+002, 3.178025e+001
5.003466e+002, 3.187994e+001
5.008287e+002, 3.195108e+001
5.013108e+002, 3.194511e+001
5.017929e+002, 3.190602e+001
5.022750e+002, 3.186734e+001
5.027571e+002, 3.174537e+001
5.032393e+002, 3.173963e+001
5.037214e+002, 3.200207e+001
5.042035e+002, 3.235186e+001
5.046856e+002, 3.237843e+001
5.051677e+002, 3.185609e+001
5.056498e+002, 3.142637e+001
5.061320e+002, 3.131046e+001
5.066141e+002, 3.149334e+001
5.070962e+002, 3.159261e+001
5.075783e+002, 3.159869e+001
5.080604e+002, 3.155527e+001
5.085425e+002, 3.148012e+001
5.090247e+002, 3.137778e+001
5.095068e+002, 3.130094e+001
5.099889e+002, 3.125548e+001
5.104710e+002, 3.123862e+001
5.109531e+002, 3.127599e+001
5.114352e+002, 3.134619e+001
5.119174e+002, 3.136942e+001
5.123995e+002, 3.125876e+001
5.128816e+002, 3.111880e+001
5.133637e+002, 3.106905e+001
5.138458e+002, 3.109990e+001
5.143279e+002, 3.115492e+001
5.148101e+002, 3.124664e+001
5.152922e+002, 3.131960e+001
5.157743e+002, 3.132360e+001
5.162564e+002, 3.123696e+001
5.167385e+002, 3.112938e+001
5.172206e+002, 3.098516e+001
5.177028e+002, 3.084826e+001
5.181849e+002, 3.076972e+001
5.186670e+002, 3.082031e+001
5.191491e+002, 3.085791e+001
5.196312e+002, 3.087908e+001
5.201133e+002, 3.087531e+001
5.205955e+002, 3.078795e+001
5.210776e+002, 3.050320e+001
5.215597e+002, 3.033185e+001
5.220418e+002, 3.047075e+001
5.225239e+002, 3.097375e+001
5.230060e+002, 3.118611e+001
5.234882e+002, 3.104888e+001
5.239703e+002, 3.079350e+001
5.244524e+002, 3.064844e+001
5.249345e+002, 3.060818e+001
5.254166e+002, 3.057766e+001
5.258987e+002, 3.052949e+001
5.263809e+002, 3.050096e+001
5.268630e+002, 3.057091e+001
5.273451e+002, 3.071843e+001
5.278272e+002, 3.085642e+001
5.283093e+002, 3.092958e+001
5.287914e+002, 3.097736e+001
5.292736e+002, 3.106301e+001
5.297557e+002, 3.118118e+001
5.302378e+002, 3.124119e+001
5.307199e+002, 3.112635e+001
5.312020e+002, 3.096952e+001
5.316841e+002, 3.088844e+001
5.321663e+002, 3.094785e+001
5.326484e+002, 3.098449e+001
5.331305e+002, 3.092289e+001
5.336126e+002, 3.082436e+001
5.340947e+002, 3.077728e+001
5.345768e+002, 3.090560e+001
5.350590e+002, 3.093775e+001
5.355411e+002, 3.075693e+001
5.360232e+002, 3.042328e+001
5.365053e+002, 3.033492e+001
5.369874e+002, 3.060618e+001
5.374695e+002, 3.087065e+001
5.379517e+002, 3.092334e+001
5.384338e+002, 3.075238e+001
5.389159e+002, 3.062928e+001
5.393980e+002, 3.055857e+001
5.398801e+002, 3.051820e+001
5.403622e+002, 3.047458e+001
5.408444e+002, 3.043758e+001
5.413265e+002, 3.046339e+001
5.418086e+002, 3.059081e+001
5.422907e+002, 3.073219e+001
5.427728e+002, 3.077341e+001
5.432549e+002, 3.073544e+001
5.437371e+002, 3.067746e+001
5.442192e+002, 3.060759e+001
5.447013e+002, 3.054577e+001
5.451834e+002, 3.053041e+001
5.456655e+002, 3.055531e+001
5.461476e+002, 3.052436e+001
5.466298e+002, 3.029019e+001
5.471119e+002, 3.006009e+001
5.475940e+002, 2.997954e+001
5.480761e+002, 3.015019e+001
5.485582e+002, 3.030323e+001
5.490403e+002, 3.043914e+001
5.495225e+002, 3.053762e+001
5.500046e+002, 3.056538e+001
5.504867e+002, 3.047991e+001
5.509688e+002, 3.041197e+001
5.514509e+002, 3.039577e+001
5.519330e+002, 3.040904e+001
5.524152e+002, 3.034727e+001
5.528973e+002, 3.018669e+001
5.533794e+002, 3.008893e+001
5.538615e+002, 3.017431e+001
5.543436e+002, 3.040406e+001
5.548257e+002, 3.058505e+001
5.553079e+002, 3.071655e+001
5.557900e+002, 3.078317e+001
5.562721e+002, 3.072786e+001
5.567542e+002, 3.060538e+001
5.572363e+002, 3.051576e+001
5.577184e+002, 3.048394e+001
5.582006e+002, 3.047735e+001
5.586827e+002, 3.047884e+001
5.591648e+002, 3.048714e+001
5.596469e+002, 3.049997e+001
5.601290e+002, 3.051437e+001
5.606111e+002, 3.053562e+001
5.610933e+002, 3.056362e+001
5.615754e+002, 3.059939e+001
5.620575e+002, 3.064835e+001
5.625396e+002, 3.082886e+001
5.630217e+002, 3.091092e+001
5.635038e+002, 3.076313e+001
5.639860e+002, 3.029362e+001
5.644681e+002, 3.003688e+001
5.649502e+002, 3.007042e+001
5.654323e+002, 3.019619e+001
5.659144e+002, 3.020628e+001
5.663965e+002, 3.008406e+001
5.668787e+002, 3.005262e+001
5.673608e+002, 3.015742e+001
5.678429e+002, 3.033780e+001
5.683250e+002, 3.052232e+001
5.688071e+002, 3.070039e+001
5.692892e+002, 3.080115e+001
5.697714e+002, 3.075546e+001
5.702535e+002, 3.063883e+001
5.707356e+002, 3.054360e+001
5.712177e+002, 3.046661e+001
5.716998e+002, 3.039770e+001
5.721819e+002, 3.029836e+001
5.726641e+002, 3.022401e+001
5.731462e+002, 3.023297e+001
5.736283e+002, 3.035097e+001
5.741104e+002, 3.044528e+001
5.745925e+002, 3.043186e+001
5.750746e+002, 3.040013e+001
5.755568e+002, 3.043439e+001
5.760389e+002, 3.071120e+001
5.765210e+002, 3.080623e+001
5.770031e+002, 3.059542e+001
5.774852e+002, 3.023908e+001
5.779673e+002, 3.008174e+001
5.784495e+002, 3.018854e+001
5.789316e+002, 3.028185e+001
5.794137e+002, 3.026078e+001
5.798958e+002, 3.016294e+001
5.803779e+002, 3.016449e+001
5.808600e+002, 3.026991e+001
5.813422e+002, 3.037098e+001
5.818243e+002, 3.036022e+001
5.823064e+002, 3.029592e+001
5.827885e+002, 3.033368e+001
5.832706e+002, 3.049212e+001
5.837527e+002, 3.063535e+001
5.842349e+002, 3.061780e+001
5.847170e+002, 3.053417e+001
5.851991e+002, 3.050983e+001
5.856812e+002, 3.063547e+001
5.861633e+002, 3.072342e+001
5.866454e+002, 3.062383e+001
5.871276e+002, 3.044275e+001
5.876097e+002, 3.037409e+001
5.880918e+002, 3.066055e+001
5.885739e+002, 3.082607e+001
5.890560e+002, 3.068050e+001
5.895381e+002, 3.029120e+001
5.900203e+002, 3.016964e+001
5.905024e+002, 3.043304e+001
5.909845e+002, 3.073314e+001
5.914666e+002, 3.091776e+001
5.919487e+002, 3.098834e+001
5.924308e+002, 3.094612e+001
5.929130e+002, 3.077136e+001
5.933951e+002, 3.058814e+001
5.938772e+002, 3.054393e+001
5.943593e+002, 3.059510e+001
5.948414e+002, 3.059895e+001
5.953235e+002, 3.052679e+001
5.958057e+002, 3.041443e+001
5.962878e+002, 3.021026e+001
5.967699e+002, 3.000169e+001
5.972520e+002, 2.995390e+001
5.977341e+002, 3.037392e+001
5.982162e+002, 3.073492e+001
5.986984e+002, 3.069166e+001
5.991805e+002, 3.035329e+001
5.996626e+002, 3.013378e+001
6.001447e+002, 3.019360e+001
6.006268e+002, 3.032355e+001
6.011089e+002, 3.048713e+001
6.015911e+002, 3.070020e+001
6.020732e+002, 3.073432e+001
6.025553e+002, 3.049000e+001
6.030374e+002, 3.022496e+001
6.035195e+002, 3.012918e+001
6.040016e+002, 3.021477e+001
6.044838e+002, 3.033554e+001
6.049659e+002, 3.050705e+001
6.054480e+002, 3.063349e+001
6.059301e+002, 3.054842e+001
6.064122e+002, 3.030065e+001
6.068943e+002, 3.007387e+001
6.073765e+002, 2.988029e+001
6.078586e+002, 2.979532e+001
6.083407e+002, 3.001914e+001
6.088228e+002, 3.042520e+001
6.093049e+002, 3.069701e+001
6.097870e+002, 3.058323e+001
6.102692e+002, 3.039389e+001
6.107513e+002, 3.027009e+001
6.112334e+002, 3.021680e+001
6.117155e+002, 3.021585e+001
6.121976e+002, 3.033120e+001
6.126797e+002, 3.043834e+001
6.131619e+002, 3.047590e+001
6.136440e+002, 3.042420e+001
6.141261e+002, 3.039024e+001
6.146082e+002, 3.035807e+001
6.150903e+002, 3.036896e+001
6.155724e+002, 3.049807e+001
6.160546e+002, 3.075320e+001
6.165367e+002, 3.088811e+001
6.170188e+002, 3.085133e+001
6.175009e+002, 3.074318e+001
6.179830e+002, 3.068494e+001
6.184651e+002, 3.067473e+001
6.189473e+002, 3.071235e+001
6.194294e+002, 3.085194e+001
6.199115e+002, 3.097556e+001
6.203936e+002, 3.093515e+001
6.208757e+002, 3.077996e+001
6.213578e+002, 3.065722e+001
6.218400e+002, 3.063579e+001
6.223221e+002, 3.066052e+001
6.228042e+002, 3.070240e+001
6.232863e+002, 3.075964e+001
6.237684e+002, 3.086253e+001
6.242505e+002, 3.106466e+001
6.247327e+002, 3.126414e+001
6.252148e+002, 3.141532e+001
6.256969e+002, 3.152065e+001
6.261790e+002, 3.156591e+001
6.266611e+002, 3.154448e+001
6.271432e+002, 3.147682e+001
6.276254e+002, 3.134414e+001
6.281075e+002, 3.115660e+001
6.285896e+002, 3.108943e+001
6.290717e+002, 3.119196e+001
6.295538e+002, 3.136636e+001
6.300359e+002, 3.151780e+001
6.305181e+002, 3.163713e+001
6.310002e+002, 3.170510e+001
6.314823e+002, 3.170279e+001
6.319644e+002, 3.165679e+001
6.324465e+002, 3.154834e+001
6.329286e+002, 3.140517e+001
6.334108e+002, 3.131635e+001
6.338929e+002, 3.133664e+001
6.343750e+002, 3.139219e+001
6.348571e+002, 3.143127e+001
6.353392e+002, 3.144873e+001
6.358214e+002, 3.161448e+001
6.363035e+002, 3.209920e+001
6.367856e+002, 3.249320e+001
6.372677e+002, 3.249886e+001
6.377498e+002, 3.203323e+001
6.382319e+002, 3.185009e+001
6.387141e+002, 3.200114e+001
6.391962e+002, 3.223160e+001
6.396783e+002, 3.227228e+001
6.401604e+002, 3.216660e+001
6.406425e+002, 3.206969e+001
6.411246e+002, 3.199673e+001
6.416068e+002, 3.198136e+001
6.420889e+002, 3.211453e+001
6.425710e+002, 3.231923e+001
6.430531e+002, 3.246019e+001
6.435352e+002, 3.241665e+001
6.440173e+002, 3.237287e+001
6.444995e+002, 3.242369e+001
6.449816e+002, 3.253412e+001
6.454637e+002, 3.260447e+001
6.459458e+002, 3.255310e+001
6.464279e+002, 3.253208e+001
6.469100e+002, 3.258092e+001
6.473922e+002, 3.269573e+001
6.478743e+002, 3.283408e+001
6.483564e+002, 3.302111e+001
6.488385e+002, 3.315967e+001
6.493206e+002, 3.315717e+001
6.498027e+002, 3.303648e+001
6.502849e+002, 3.301437e+001
6.507670e+002, 3.309588e+001
6.512491e+002, 3.320465e+001
6.517312e+002, 3.327552e+001
6.522133e+002, 3.332590e+001
6.526954e+002, 3.340479e+001
6.531776e+002, 3.354589e+001
6.536597e+002, 3.360496e+001
6.541418e+002, 3.339415e+001
6.546239e+002, 3.309399e+001
6.551060e+002, 3.291368e+001
6.555881e+002, 3.300261e+001
6.560703e+002, 3.309409e+001
6.565524e+002, 3.314153e+001
6.570345e+002, 3.317143e+001
6.575166e+002, 3.323293e+001
6.579987e+002, 3.334464e+001
6.584808e+002, 3.343922e+001
6.589630e+002, 3.349165e+001
6.594451e+002, 3.352099e+001
6.599272e+002, 3.362020e+001
6.604093e+002, 3.378971e+001
6.608914e+002, 3.389650e+001
6.613735e+002, 3.380739e+001
6.618557e+002, 3.363065e+001
6.623378e+002, 3.356509e+001
6.628199e+002, 3.360346e+001
6.633020e+002, 3.367102e+001
6.637841e+002, 3.373452e+001
6.642662e+002, 3.379826e+001
6.647484e+002, 3.388267e+001
6.652305e+002, 3.400261e+001
6.657126e+002, 3.404998e+001
6.661947e+002, 3.395790e+001
6.666768e+002, 3.380980e+001
6.671589e+002, 3.365140e+001
6.676411e+002, 3.338081e+001
6.681232e+002, 3.334249e+001
6.686053e+002, 3.362970e+001
6.690874e+002, 3.402159e+001
6.695695e+002, 3.425254e+001
6.700516e+002, 3.432440e+001
6.705338e+002, 3.429304e+001
6.710159e+002, 3.413340e+001
6.714980e+002, 3.395802e+001
6.719801e+002, 3.395930e+001
6.724622e+002, 3.408492e+001
6.729443e+002, 3.419154e+001
6.734265e+002, 3.421601e+001
6.739086e+002, 3.420482e+001
6.743907e+002, 3.415537e+001
6.748728e+002, 3.409206e+001
6.753549e+002, 3.408954e+001
6.758370e+002, 3.428617e+001
6.763192e+002, 3.443044e+001
6.768013e+002, 3.438297e+001
6.772834e+002, 3.416815e+001
6.777655e+002, 3.409424e+001
6.782476e+002, 3.421316e+001
6.787297e+002, 3.436779e+001
6.792119e+002, 3.448470e+001
6.796940e+002, 3.456565e+001
6.801761e+002, 3.464780e+001
6.806582e+002, 3.473498e+001
6.811403e+002, 3.477357e+001
6.816224e+002, 3.464515e+001
6.821046e+002, 3.445401e+001
6.825867e+002, 3.442903e+001
6.830688e+002, 3.461801e+001
6.835509e+002, 3.479681e+001
6.840330e+002, 3.475882e+001
6.845151e+002, 3.465973e+001
6.849973e+002, 3.466558e+001
6.854794e+002, 3.491992e+001
6.859615e+002, 3.509774e+001
6.864436e+002, 3.512617e+001
6.869257e+002, 3.506315e+001
6.874078e+002, 3.495350e+001
6.878900e+002, 3.473464e+001
6.883721e+002, 3.464824e+001
6.888542e+002, 3.476855e+001
6.893363e+002, 3.499064e+001
6.898184e+002, 3.509455e+001
6.903005e+002, 3.508877e+001
6.907827e+002, 3.507980e+001
6.912648e+002, 3.510786e+001
6.917469e+002, 3.515451e+001
6.922290e+002, 3.518084e+001
6.927111e+002, 3.520046e+001
6.931932e+002, 3.525689e+001
6.936754e+002, 3.548369e+001
6.941575e+002, 3.565393e+001
6.946396e+002, 3.557817e+001
6.951217e+002, 3.527929e+001
6.956038e+002, 3.509274e+001
6.960859e+002, 3.521535e+001
6.965681e+002, 3.530488e+001
6.970502e+002, 3.519267e+001
6.975323e+002, 3.486279e+001
6.980144e+002, 3.476977e+001
6.984965e+002, 3.497044e+001
6.989786e+002, 3.520501e+001
6.994608e+002, 3.526121e+001
6.999429e+002, 3.518253e+001
7.004250e+002, 3.516679e+001
7.009071e+002, 3.522759e+001
7.013892e+002, 3.530836e+001
7.018713e+002, 3.535213e+001
7.023535e+002, 3.539035e+001
7.028356e+002, 3.547274e+001
7.033177e+002, 3.563450e+001
7.037998e+002, 3.575925e+001
7.042819e+002, 3.573187e+001
7.047640e+002, 3.567933e+001
7.052462e+002, 3.574749e+001
7.057283e+002, 3.609837e+001
7.062104e+002, 3.629167e+001
7.066925e+002, 3.623360e+001
7.071746e+002, 3.608181e+001
7.076567e+002, 3.611754e+001
7.081389e+002, 3.635785e+001
7.086210e+002, 3.649702e+001
7.091031e+002, 3.644606e+001
7.095852e+002, 3.629598e+001
7.100673e+002, 3.615427e+001
7.105494e+002, 3.603502e+001
7.110316e+002, 3.597661e+001
7.115137e+002, 3.607077e+001
7.119958e+002, 3.616574e+001
7.124779e+002, 3.612992e+001
7.129600e+002, 3.600991e+001
7.134421e+002, 3.594878e+001
7.139243e+002, 3.602633e+001
7.144064e+002, 3.612391e+001
7.148885e+002, 3.619625e+001
7.153706e+002, 3.625261e+001
7.158527e+002, 3.638143e+001
7.163348e+002, 3.662555e+001
7.168170e+002, 3.681221e+001
7.172991e+002, 3.684840e+001
7.177812e+002, 3.675514e+001
7.182633e+002, 3.657276e+001
7.187454e+002, 3.630550e+001
7.192275e+002, 3.618396e+001
7.197097e+002, 3.654547e+001
7.201918e+002, 3.704645e+001
7.206739e+002, 3.724207e+001
7.211560e+002, 3.709394e+001
7.216381e+002, 3.695857e+001
7.221202e+002, 3.700959e+001
7.226024e+002, 3.712827e+001
7.230845e+002, 3.724758e+001
7.235666e+002, 3.738456e+001
7.240487e+002, 3.744006e+001
7.245308e+002, 3.736366e+001
7.250129e+002, 3.727361e+001
7.254951e+002, 3.728308e+001
7.259772e+002, 3.740023e+001
7.264593e+002, 3.744526e+001
7.269414e+002, 3.738496e+001
7.274235e+002, 3.734543e+001
7.279056e+002, 3.753426e+001
7.283878e+002, 3.784426e+001
7.288699e+002, 3.803682e+001
7.293520e+002, 3.803537e+001
7.298341e+002, 3.797786e+001
7.303162e+002, 3.791776e+001
7.307983e+002, 3.787180e+001
7.312805e+002, 3.786017e+001
7.317626e+002, 3.792151e+001
7.322447e+002, 3.797222e+001
7.327268e+002, 3.796899e+001
7.332089e+002, 3.796964e+001
7.336910e+002, 3.809266e+001
7.341732e+002, 3.838321e+001
7.346553e+002, 3.859604e+001
7.351374e+002, 3.867791e+001
7.356195e+002, 3.865651e+001
7.361016e+002, 3.850125e+001
7.365837e+002, 3.826427e+001
7.370659e+002, 3.817842e+001
7.375480e+002, 3.846487e+001
7.380301e+002, 3.881290e+001
7.385122e+002, 3.891789e+001
7.389943e+002, 3.885996e+001
7.394764e+002, 3.884339e+001
7.399586e+002, 3.901657e+001
7.404407e+002, 3.915859e+001
7.409228e+002, 3.918177e+001
7.414049e+002, 3.910981e+001
7.418870e+002, 3.903232e+001
7.423691e+002, 3.893293e+001
7.428513e+002, 3.887695e+001
7.433334e+002, 3.890062e+001
7.438155e+002, 3.898573e+001
7.442976e+002, 3.903692e+001
7.447797e+002, 3.905997e+001
7.452618e+002, 3.914498e+001
7.457440e+002, 3.947549e+001
7.462261e+002, 3.982198e+001
7.467082e+002, 3.983004e+001
7.471903e+002, 3.954012e+001
7.476724e+002, 3.939489e+001
7.481545e+002, 3.981215e+001
7.486367e+002, 4.023714e+001
7.491188e+002, 4.033330e+001
7.496009e+002, 4.004340e+001
7.500830e+002, 3.988187e+001
7.505651e+002, 3.988526e+001
7.510472e+002, 3.994447e+001
7.515294e+002, 4.001363e+001
7.520115e+002, 4.009141e+001
7.524936e+002, 4.010825e+001
7.529757e+002, 4.006028e+001
7.534578e+002, 4.001616e+001
7.539399e+002, 4.001925e+001
7.544221e+002, 4.007085e+001
7.549042e+002, 4.022107e+001
7.553863e+002, 4.049172e+001
7.558684e+002, 4.063570e+001
7.563505e+002, 4.037057e+001
7.568326e+002, 4.003329e+001
7.573148e+002, 3.989232e+001
7.577969e+002, 4.005690e+001
7.582790e+002, 4.021109e+001
7.587611e+002, 4.037931e+001
7.592432e+002, 4.050658e+001
7.597253e+002, 4.051023e+001
7.602075e+002, 4.038506e+001
7.606896e+002, 4.038840e+001
7.611717e+002, 4.055922e+001
7.616538e+002, 4.075530e+001
7.621359e+002, 4.080357e+001
7.626180e+002, 4.077463e+001
7.631002e+002, 4.080740e+001
7.635823e+002, 4.095958e+001
7.640644e+002, 4.107397e+001
7.645465e+002, 4.097833e+001
7.650286e+002, 4.084335e+001
7.655107e+002, 4.085419e+001
7.659929e+002, 4.118538e+001
7.664750e+002, 4.144517e+001
7.669571e+002, 4.165199e+001
7.674392e+002, 4.176820e+001
7.679213e+002, 4.167538e+001
7.684034e+002, 4.135801e+001
7.688856e+002, 4.129864e+001
7.693677e+002, 4.164444e+001
7.698498e+002, 4.204033e+001
7.703319e+002, 4.194104e+001
7.708140e+002, 4.155969e+001
7.712961e+002, 4.135152e+001
7.717783e+002, 4.152698e+001
7.722604e+002, 4.177044e+001
7.727425e+002, 4.197099e+001
7.732246e+002, 4.211781e+001
7.737067e+002, 4.219634e+001
7.741888e+002, 4.217880e+001
7.746710e+002, 4.212162e+001
7.751531e+002, 4.196732e+001
7.756352e+002, 4.182891e+001
7.761173e+002, 4.196249e+001
7.765994e+002, 4.237697e+001
7.770815e+002, 4.270670e+001
7.775637e+002, 4.286314e+001
7.780458e+002, 4.289995e+001
7.785279e+002, 4.283327e+001
7.790100e+002, 4.270961e+001
7.794921e+002, 4.263430e+001
7.799742e+002, 4.268051e+001
7.804564e+002, 4.274915e+001
7.809385e+002, 4.282331e+001
7.814206e+002, 4.288554e+001
7.819027e+002, 4.289001e+001
7.823848e+002, 4.273970e+001
7.828669e+002, 4.270712e+001
7.833491e+002, 4.290524e+001
7.838312e+002, 4.319672e+001
7.843133e+002, 4.316621e+001
7.847954e+002, 4.282517e+001
7.852775e+002, 4.270488e+001
7.857596e+002, 4.310760e+001
7.862418e+002, 4.364264e+001
7.867239e+002, 4.372818e+001
7.872060e+002, 4.351290e+001
7.876881e+002, 4.336241e+001
7.881702e+002, 4.351695e+001
7.886523e+002, 4.368319e+001
7.891345e+002, 4.374973e+001
7.896166e+002, 4.373713e+001
7.900987e+002, 4.372069e+001
7.905808e+002, 4.371875e+001
7.910629e+002, 4.367256e+001
7.915450e+002, 4.354100e+001
7.920272e+002, 4.337590e+001
7.925093e+002, 4.332334e+001
7.929914e+002, 4.337891e+001
7.934735e+002, 4.351121e+001
7.939556e+002, 4.377555e+001
7.944377e+002, 4.403877e+001
7.949199e+002, 4.414217e+001
7.954020e+002, 4.411710e+001
7.958841e+002, 4.404288e+001
7.963662e+002, 4.383258e+001
7.968483e+002, 4.370553e+001
7.973304e+002, 4.375989e+001
7.978126e+002, 4.395913e+001
7.982947e+002, 4.421535e+001
7.987768e+002, 4.458995e+001
7.992589e+002, 4.484505e+001
7.997410e+002, 4.489141e+001
8.002231e+002, 4.479386e+001
8.007053e+002, 4.466794e+001
8.011874e+002, 4.453208e+001
8.016695e+002, 4.448989e+001
8.021516e+002, 4.469420e+001
8.026337e+002, 4.492418e+001
8.031158e+002, 4.498233e+001
8.035980e+002, 4.490747e+001
8.040801e+002, 4.480833e+001
8.045622e+002, 4.466131e+001
8.050443e+002, 4.455847e+001
8.055264e+002, 4.450392e+001
8.060085e+002, 4.450994e+001
8.064907e+002, 4.463651e+001
8.069728e+002, 4.490911e+001
8.074549e+002, 4.517997e+001
8.079370e+002, 4.543478e+001
8.084191e+002, 4.562308e+001
8.089012e+002, 4.560278e+001
8.093834e+002, 4.541660e+001
8.098655e+002, 4.521780e+001
8.103476e+002, 4.494783e+001
8.108297e+002, 4.481627e+001
8.113118e+002, 4.510275e+001
8.117939e+002, 4.564172e+001
8.122761e+002, 4.593350e+001
8.127582e+002, 4.567118e+001
8.132403e+002, 4.548723e+001
8.137224e+002, 4.552666e+001
8.142045e+002, 4.571625e+001
8.146866e+002, 4.587028e+001
8.151688e+002, 4.598718e+001
8.156509e+002, 4.599619e+001
8.161330e+002, 4.579649e+001
8.166151e+002, 4.556826e+001
8.170972e+002, 4.565255e+001
8.175793e+002, 4.592406e+001
8.180615e+002, 4.606181e+001
8.185436e+002, 4.571435e+001
8.190257e+002, 4.543195e+001
8.195078e+002, 4.545002e+001
8.199899e+002, 4.569756e+001
8.204720e+002, 4.598483e+001
8.209542e+002, 4.641621e+001
8.214363e+002, 4.660608e+001
8.219184e+002, 4.638970e+001
8.224005e+002, 4.597301e+001
8.228826e+002, 4.582121e+001
8.233647e+002, 4.589836e+001
8.238469e+002, 4.600997e+001
8.243290e+002, 4.611372e+001
8.248111e+002, 4.618201e+001
8.252932e+002, 4.615884e+001
8.257753e+002, 4.608729e+001
8.262574e+002, 4.605290e+001
8.267396e+002, 4.610326e+001
8.272217e+002, 4.616603e+001
8.277038e+002, 4.624772e+001
8.281859e+002, 4.632461e+001
8.286681e+002, 4.633427e+001
8.291502e+002, 4.625750e+001
8.296323e+002, 4.626021e+001
8.301144e+002, 4.640694e+001
8.305966e+002, 4.659073e+001
8.310787e+002, 4.664734e+001
8.315608e+002, 4.661370e+001
8.320429e+002, 4.658121e+001
8.325250e+002, 4.659891e+001
8.330071e+002, 4.659584e+001
8.334893e+002, 4.651220e+001
8.339714e+002, 4.639243e+001
8.344535e+002, 4.630291e+001
8.349356e+002, 4.622523e+001
8.354177e+002, 4.623114e+001
8.358998e+002, 4.637624e+001
8.363820e+002, 4.653748e+001
8.368641e+002, 4.649454e+001
8.373462e+002, 4.627590e+001
8.378283e+002, 4.613065e+001
8.383104e+002, 4.611685e+001
8.387925e+002, 4.616821e+001
8.392747e+002, 4.621761e+001
8.397568e+002, 4.629270e+001
8.402389e+002, 4.644057e+001
8.407210e+002, 4.675494e+001
8.412031e+002, 4.699334e+001
8.416852e+002, 4.712755e+001
8.421674e+002, 4.714919e+001
8.426495e+002, 4.702394e+001
8.431316e+002, 4.672408e+001
8.436137e+002, 4.642377e+001
8.440958e+002, 4.611567e+001
8.445779e+002, 4.587706e+001
8.450601e+002, 4.584910e+001
8.455422e+002, 4.594544e+001
8.460243e+002, 4.597075e+001
8.465064e+002, 4.587415e+001
8.469885e+002, 4.580823e+001
8.474706e+002, 4.586757e+001
8.479528e+002, 4.598802e+001
8.484349e+002, 4.613804e+001
8.489170e+002, 4.639001e+001
8.493991e+002, 4.640151e+001
8.498812e+002, 4.603294e+001
8.503633e+002, 4.569750e+001
8.508455e+002, 4.586462e+001
8.513276e+002, 4.642322e+001
8.518097e+002, 4.655898e+001
8.522918e+002, 4.622473e+001
8.527739e+002, 4.583123e+001
8.532560e+002, 4.566444e+001
8.537382e+002, 4.562270e+001
8.542203e+002, 4.565177e+001
8.547024e+002, 4.576031e+001
8.551845e+002, 4.574416e+001
8.556666e+002, 4.534742e+001
8.561487e+002, 4.505455e+001
8.566309e+002, 4.518164e+001
8.571130e+002, 4.571671e+001
8.575951e+002, 4.579051e+001
8.580772e+002, 4.536604e+001
8.585593e+002, 4.492424e+001
8.590414e+002, 4.482955e+001
8.595236e+002, 4.489872e+001
8.600057e+002, 4.483332e+001
8.604878e+002, 4.464955e+001
8.609699e+002, 4.451515e+001
8.614520e+002, 4.455882e+001
8.619341e+002, 4.461728e+001
8.624163e+002, 4.464692e+001
8.628984e+002, 4.463649e+001
8.633805e+002, 4.445805e+001
8.638626e+002, 4.401743e+001
8.643447e+002, 4.373008e+001
8.648268e+002, 4.381743e+001
8.653090e+002, 4.411739e+001
8.657911e+002, 4.425446e+001
8.662732e+002, 4.424823e+001
8.667553e+002, 4.417562e+001
8.672374e+002, 4.403505e+001
8.677195e+002, 4.387759e+001
8.682017e+002, 4.375983e+001
8.686838e+002, 4.364970e+001
8.691659e+002, 4.344969e+001
8.696480e+002, 4.306421e+001
8.701301e+002, 4.275653e+001
8.706122e+002, 4.258960e+001
8.710944e+002, 4.251379e+001
8.715765e+002, 4.243194e+001
8.720586e+002, 4.234621e+001
8.725407e+002, 4.228011e+001
8.730228e+002, 4.227083e+001
8.735049e+002, 4.221962e+001
8.739871e+002, 4.197531e+001
8.744692e+002, 4.164434e+001
8.749513e+002, 4.138644e+001
8.754334e+002, 4.132545e+001
8.759155e+002, 4.123088e+001
8.763976e+002, 4.106509e+001
8.768798e+002, 4.087479e+001
8.773619e+002, 4.071387e+001
8.778440e+002, 4.058496e+001
8.783261e+002, 4.043267e+001
8.788082e+002, 4.023860e+001
8.792903e+002, 4.007901e+001
8.797725e+002, 4.011895e+001
8.802546e+002, 4.020924e+001
8.807367e+002, 4.010890e+001
8.812188e+002, 3.973197e+001
8.817009e+002, 3.937386e+001
8.821830e+002, 3.907819e+001
8.826652e+002, 3.888971e+001
8.831473e+002, 3.886824e+001
8.836294e+002, 3.906274e+001
8.841115e+002, 3.906031e+001
8.845936e+002, 3.880804e+001
8.850757e+002, 3.862246e+001
8.855579e+002, 3.895608e+001
8.860400e+002, 3.946284e+001
8.865221e+002, 3.931645e+001
8.870042e+002, 3.854254e+001
8.874863e+002, 3.788988e+001
8.879684e+002, 3.797558e+001
8.884506e+002, 3.810463e+001
8.889327e+002, 3.782466e+001
8.894148e+002, 3.716257e+001
8.898969e+002, 3.668362e+001
8.903790e+002, 3.641257e+001
8.908611e+002, 3.626490e+001
8.913433e+002, 3.623597e+001
8.918254e+002, 3.628360e+001
8.923075e+002, 3.634995e+001
8.927896e+002, 3.640701e+001
8.932717e+002, 3.633591e+001
8.937538e+002, 3.591142e+001
8.942360e+002, 3.550160e+001
8.947181e+002, 3.535107e+001
8.952002e+002, 3.538196e+001
8.956823e+002, 3.540217e+001
8.961644e+002, 3.545031e+001
8.966465e+002, 3.537427e+001
8.971287e+002, 3.512250e+001
8.976108e+002, 3.477492e+001
8.980929e+002, 3.442121e+001
8.985750e+002, 3.409044e+001
8.990571e+002, 3.394938e+001
8.995392e+002, 3.410911e+001
9.000214e+002, 3.426297e+001
9.005035e+002, 3.416732e+001
9.009856e+002, 3.392727e+001
9.014677e+002, 3.365717e+001
9.019498e+002, 3.332120e+001
9.024319e+002, 3.307013e+001
9.029141e+002, 3.290842e+001
9.033962e+002, 3.282360e+001
9.038783e+002, 3.282719e+001
9.043604e+002, 3.290865e+001
9.048425e+002, 3.298490e+001
9.053246e+002, 3.305481e+001
9.058068e+002, 3.303024e+001
9.062889e+002, 3.274742e+001
9.067710e+002, 3.240025e+001
9.072531e+002, 3.216411e+001
9.077352e+002, 3.206373e+001
9.082173e+002, 3.199384e+001
9.086995e+002, 3.199029e+001
9.091816e+002, 3.193912e+001
9.096637e+002, 3.176014e+001
9.101458e+002, 3.148652e+001
9.106279e+002, 3.139068e+001
9.111100e+002, 3.146105e+001
9.115922e+002, 3.145966e+001
9.120743e+002, 3.115752e+001
9.125564e+002, 3.079141e+001
9.130385e+002, 3.060471e+001
9.135206e+002, 3.055647e+001
9.140027e+002, 3.051120e+001
9.144849e+002, 3.041185e+001
9.149670e+002, 3.033749e+001
9.154491e+002, 3.029259e+001
9.159312e+002, 3.028711e+001
9.164133e+002, 3.036970e+001
9.168954e+002, 3.053766e+001
9.173776e+002, 3.064783e+001
9.178597e+002, 3.067172e+001
9.183418e+002, 3.061174e+001
9.188239e+002, 3.041076e+001
9.193060e+002, 3.014983e+001
9.197881e+002, 2.993888e+001
9.202703e+002, 2.979119e+001
9.207524e+002, 2.973083e+001
9.212345e+002, 2.985053e+001
9.217166e+002, 2.995983e+001
9.221987e+002, 2.987256e+001
9.226808e+002, 2.957814e+001
9.231630e+002, 2.937921e+001
9.236451e+002, 2.928859e+001
9.241272e+002, 2.926152e+001
9.246093e+002, 2.929067e+001
9.250914e+002, 2.934208e+001
9.255735e+002, 2.938523e+001
9.260557e+002, 2.941629e+001
9.265378e+002, 2.942065e+001
9.270199e+002, 2.945116e+001
9.275020e+002, 2.937862e+001
9.279841e+002, 2.908098e+001
9.284662e+002, 2.863461e+001
9.289484e+002, 2.855305e+001
9.294305e+002, 2.883107e+001
9.299126e+002, 2.906373e+001
9.303947e+002, 2.904874e+001
9.308768e+002, 2.890412e+001
9.313589e+002, 2.871901e+001
9.318411e+002, 2.851463e+001
9.323232e+002, 2.834148e+001
9.328053e+002, 2.819707e+001
9.332874e+002, 2.811361e+001
9.337695e+002, 2.810294e+001
9.342516e+002, 2.814530e+001
9.347338e+002, 2.824361e+001
9.352159e+002, 2.839794e+001
9.356980e+002, 2.842743e+001
9.361801e+002, 2.828756e+001
9.366622e+002, 2.810583e+001
9.371443e+002, 2.797916e+001
9.376265e+002, 2.790201e+001
9.381086e+002, 2.789017e+001
9.385907e+002, 2.798087e+001
9.390728e+002, 2.798052e+001
9.395549e+002, 2.777494e+001
9.400370e+002, 2.757557e+001
9.405192e+002, 2.751217e+001
9.410013e+002, 2.757724e+001
9.414834e+002, 2.765297e+001
9.419655e+002, 2.773801e+001
9.424476e+002, 2.773848e+001
9.429297e+002, 2.744888e+001
9.434119e+002, 2.715562e+001
9.438940e+002, 2.722251e+001
9.443761e+002, 2.755870e+001
9.448582e+002, 2.772329e+001
9.453403e+002, 2.744291e+001
9.458224e+002, 2.722006e+001
9.463046e+002, 2.717155e+001
9.467867e+002, 2.722614e+001
9.472688e+002, 2.722064e+001
9.477509e+002, 2.716207e+001
9.482330e+002, 2.710647e+001
9.487151e+002, 2.707097e+001
9.491973e+002, 2.703988e+001
9.496794e+002, 2.699720e+001
9.501615e+002, 2.695183e+001
9.506436e+002, 2.691479e+001
9.511257e+002, 2.689531e+001
9.516078e+002, 2.687326e+001
9.520900e+002, 2.685389e+001
9.525721e+002, 2.682309e+001
9.530542e+002, 2.676024e+001
9.535363e+002, 2.667264e+001
9.540184e+002, 2.660175e+001
9.545005e+002, 2.654981e+001
9.549827e+002, 2.651927e+001
9.554648e+002, 2.650819e+001
9.559469e+002, 2.652204e+001
9.564290e+002, 2.660727e+001
9.569111e+002, 2.674765e+001
9.573932e+002, 2.673033e+001
9.578754e+002, 2.644530e+001
9.583575e+002, 2.624640e+001
9.588396e+002, 2.627466e+001
9.593217e+002, 2.642501e+001
9.598038e+002, 2.644301e+001
9.602859e+002, 2.636397e+001
9.607681e+002, 2.631374e+001
9.612502e+002, 2.636190e+001
9.617323e+002, 2.641236e+001
9.622144e+002, 2.642152e+001
9.626965e+002, 2.639635e+001
9.631786e+002, 2.633935e+001
9.636608e+002, 2.622054e+001
9.641429e+002, 2.617039e+001
9.646250e+002, 2.621289e+001
9.651071e+002, 2.626250e+001
9.655892e+002, 2.620540e+001
9.660714e+002, 2.610006e+001
9.665535e+002, 2.609015e+001
9.670356e+002, 2.618429e+001
9.675177e+002, 2.625127e+001
9.679998e+002, 2.623174e+001
9.684819e+002, 2.615862e+001
9.689641e+002, 2.602568e+001
9.694462e+002, 2.584794e+001
9.699283e+002, 2.572485e+001
9.704104e+002, 2.566162e+001
9.708925e+002, 2.561131e+001
9.713746e+002, 2.555028e+001
9.718568e+002, 2.549792e+001
9.723389e+002, 2.546441e+001
9.728210e+002, 2.546399e+001
9.733031e+002, 2.552761e+001
9.737852e+002, 2.581656e+001
9.742673e+002, 2.596182e+001
9.747495e+002, 2.581084e+001
9.752316e+002, 2.555969e+001
9.757137e+002, 2.539494e+001
9.761958e+002, 2.531598e+001
9.766779e+002, 2.533967e+001
9.771600e+002, 2.547911e+001
9.776422e+002, 2.559326e+001
9.781243e+002, 2.551706e+001
9.786064e+002, 2.537925e+001
9.790885e+002, 2.531680e+001
9.795706e+002, 2.534331e+001
9.800527e+002, 2.537680e+001
9.805349e+002, 2.544162e+001
9.810170e+002, 2.545029e+001
9.814991e+002, 2.534387e+001
9.819812e+002, 2.517226e+001
9.824633e+002, 2.512008e+001
9.829454e+002, 2.516994e+001
9.834276e+002, 2.521633e+001
9.839097e+002, 2.520702e+001
9.843918e+002, 2.519183e+001
9.848739e+002, 2.520798e+001
9.853560e+002, 2.524076e+001
9.858381e+002, 2.527279e+001
9.863203e+002, 2.534996e+001
9.868024e+002, 2.530420e+001
9.872845e+002, 2.508475e+001
9.877666e+002, 2.485579e+001
9.882487e+002, 2.475500e+001
9.887308e+002, 2.478403e+001
9.892130e+002, 2.503442e+001
9.896951e+002, 2.549805e+001
9.901772e+002, 2.578899e+001
9.906593e+002, 2.550064e+001
9.911414e+002, 2.516870e+001
9.916235e+002, 2.510869e+001
9.921057e+002, 2.526895e+001
9.925878e+002, 2.535175e+001
9.930699e+002, 2.535370e+001
9.935520e+002, 2.528935e+001
9.940341e+002, 2.512331e+001
9.945162e+002, 2.496031e+001
9.949984e+002, 2.497413e+001
9.954805e+002, 2.509784e+001
9.959626e+002, 2.520598e+001
9.964447e+002, 2.527344e+001
9.969268e+002, 2.530085e+001
9.974089e+002, 2.526536e+001
9.978911e+002, 2.521855e+001
9.983732e+002, 2.521789e+001
9.988553e+002, 2.526072e+001
9.993374e+002, 2.524961e+001
9.998195e+002, 2.518047e+001
1.000302e+003, 2.508808e+001
1.000784e+003, 2.493738e+001
1.001266e+003, 2.482312e+001
1.001748e+003, 2.487733e+001
1.002230e+003, 2.507477e+001
1.002712e+003, 2.511696e+001
1.003194e+003, 2.489529e+001
1.003676e+003, 2.472164e+001
1.004159e+003, 2.467381e+001
1.004641e+003, 2.472304e+001
1.005123e+003, 2.488061e+001
1.005605e+003, 2.508704e+001
1.006087e+003, 2.514480e+001
1.006569e+003, 2.492906e+001
1.007051e+003, 2.473924e+001
1.007533e+003, 2.475049e+001
1.008016e+003, 2.483606e+001
1.008498e+003, 2.487981e+001
1.008980e+003, 2.487298e+001
1.009462e+003, 2.486295e+001
1.009944e+003, 2.484552e+001
1.010426e+003, 2.485742e+001
1.010908e+003, 2.493778e+001
1.011390e+003, 2.505518e+001
1.011872e+003, 2.522241e+001
1.012355e+003, 2.540216e+001
1.012837e+003, 2.544411e+001
1.013319e+003, 2.510312e+001
1.013801e+003, 2.487374e+001
1.014283e+003, 2.487704e+001
1.014765e+003, 2.502227e+001
1.015247e+003, 2.519081e+001
1.015729e+003, 2.536653e+001
1.016211e+003, 2.539085e+001
1.016694e+003, 2.520522e+001
1.017176e+003, 2.501302e+001
1.017658e+003, 2.499065e+001
1.018140e+003, 2.503083e+001
1.018622e+003, 2.503543e+001
1.019104e+003, 2.498835e+001
1.019586e+003, 2.495448e+001
1.020068e+003, 2.492668e+001
1.020551e+003, 2.493884e+001
1.021033e+003, 2.503742e+001
1.021515e+003, 2.517068e+001
1.021997e+003, 2.522397e+001
1.022479e+003, 2.521305e+001
1.022961e+003, 2.518314e+001
1.023443e+003, 2.508345e+001
1.023925e+003, 2.505561e+001
1.024407e+003, 2.520804e+001
1.024890e+003, 2.540511e+001
1.025372e+003, 2.546859e+001
1.025854e+003, 2.539323e+001
1.026336e+003, 2.534541e+001
1.026818e+003, 2.534055e+001
1.027300e+003, 2.536267e+001
1.027782e+003, 2.539972e+001
1.028264e+003, 2.545508e+001
1.028746e+003, 2.556342e+001
1.029229e+003, 2.572329e+001
1.029711e+003, 2.575411e+001
1.030193e+003, 2.556250e+001
1.030675e+003, 2.543801e+001
1.031157e+003, 2.551644e+001
1.031639e+003, 2.567557e+001
1.032121e+003, 2.558114e+001
1.032603e+003, 2.532827e+001
1.033086e+003, 2.522701e+001
1.033568e+003, 2.545005e+001
1.034050e+003, 2.567528e+001
1.034532e+003, 2.578660e+001
1.035014e+003, 2.581198e+001
1.035496e+003, 2.576635e+001
1.035978e+003, 2.563509e+001
1.036460e+003, 2.553741e+001
1.036943e+003, 2.547516e+001
1.037425e+003, 2.544228e+001
1.037907e+003, 2.546780e+001
1.038389e+003, 2.549673e+001
1.038871e+003, 2.544400e+001
1.039353e+003, 2.533646e+001
1.039835e+003, 2.529230e+001
1.040317e+003, 2.541561e+001
1.040799e+003, 2.545471e+001
1.041281e+003, 2.533034e+001
1.041764e+003, 2.517171e+001
1.042246e+003, 2.515311e+001
1.042728e+003, 2.527237e+001
1.043210e+003, 2.560748e+001
1.043692e+003, 2.622887e+001
1.044174e+003, 2.660877e+001
1.044656e+003, 2.623770e+001
1.045138e+003, 2.571531e+001
1.045621e+003, 2.541138e+001
1.046103e+003, 2.531894e+001
1.046585e+003, 2.531303e+001
1.047067e+003, 2.540311e+001
1.047549e+003, 2.544526e+001
1.048031e+003, 2.535957e+001
1.048513e+003, 2.521533e+001
1.048995e+003, 2.506786e+001
1.049478e+003, 2.492786e+001
1.049960e+003, 2.481356e+001
1.050442e+003, 2.473670e+001
1.050924e+003, 2.468053e+001
1.051406e+003, 2.465557e+001
1.051888e+003, 2.463019e+001
1.052370e+003, 2.457213e+001
1.052852e+003, 2.448957e+001
1.053334e+003, 2.441245e+001
1.053817e+003, 2.434037e+001
1.054299e+003, 2.425624e+001
1.054781e+003, 2.411856e+001
1.055263e+003, 2.400111e+001
1.055745e+003, 2.394225e+001
1.056227e+003, 2.392540e+001
1.056709e+003, 2.393328e+001
1.057191e+003, 2.397068e+001
1.057673e+003, 2.393620e+001
1.058156e+003, 2.380436e+001
1.058638e+003, 2.361263e+001
1.059120e+003, 2.330825e+001
1.059602e+003, 2.301757e+001
1.060084e+003, 2.289920e+001
1.060566e+003, 2.301186e+001
1.061048e+003, 2.308106e+001
1.061530e+003, 2.308721e+001
1.062013e+003, 2.307128e+001
1.062495e+003, 2.305280e+001
1.062977e+003, 2.302550e+001
1.063459e+003, 2.293653e+001
1.063941e+003, 2.282429e+001
1.064423e+003, 2.280085e+001
1.064905e+003, 2.305343e+001
1.065387e+003, 2.319879e+001
1.065870e+003, 2.300815e+001
1.066352e+003, 2.274329e+001
1.066834e+003, 2.265229e+001
1.067316e+003, 2.273786e+001
1.067798e+003, 2.271443e+001
1.068280e+003, 2.257212e+001
1.068762e+003, 2.242626e+001
1.069244e+003, 2.235633e+001
1.069726e+003, 2.231931e+001
1.070208e+003, 2.231413e+001
1.070691e+003, 2.231659e+001
1.071173e+003, 2.222416e+001
1.071655e+003, 2.197897e+001
1.072137e+003, 2.182655e+001
1.072619e+003, 2.183000e+001
1.073101e+003, 2.188281e+001
1.073583e+003, 2.183699e+001
1.074065e+003, 2.174434e+001
1.074548e+003, 2.168732e+001
1.075030e+003, 2.168221e+001
1.075512e+003, 2.169203e+001
1.075994e+003, 2.173437e+001
1.076476e+003, 2.175419e+001
1.076958e+003, 2.172418e+001
1.077440e+003, 2.165649e+001
1.077922e+003, 2.159225e+001
1.078405e+003, 2.153088e+001
1.078887e+003, 2.146976e+001
1.079369e+003, 2.140835e+001
1.079851e+003, 2.134507e+001
1.080333e+003, 2.128038e+001
1.080815e+003, 2.121198e+001
1.081297e+003, 2.113173e+001
1.081779e+003, 2.102651e+001
1.082261e+003, 2.099239e+001
1.082744e+003, 2.103380e+001
1.083226e+003, 2.108622e+001
1.083708e+003, 2.112830e+001
1.084190e+003, 2.113727e+001
1.084672e+003, 2.104837e+001
1.085154e+003, 2.090277e+001
1.085636e+003, 2.084653e+001
1.086118e+003, 2.097828e+001
1.086601e+003, 2.103079e+001
1.087083e+003, 2.096236e+001
1.087565e+003, 2.083146e+001
1.088047e+003, 2.067572e+001
1.088529e+003, 2.052393e+001
1.089011e+003, 2.043990e+001
1.089493e+003, 2.043064e+001
1.089975e+003, 2.044045e+001
1.090458e+003, 2.050561e+001
1.090940e+003, 2.050879e+001
1.091422e+003, 2.035849e+001
1.091904e+003, 2.014418e+001
1.092386e+003, 2.020336e+001
1.092868e+003, 2.048157e+001
1.093350e+003, 2.062429e+001
1.093832e+003, 2.049902e+001
1.094314e+003, 2.031499e+001
1.094797e+003, 2.017579e+001
1.095279e+003, 2.007369e+001
1.095761e+003, 1.999608e+001
1.096243e+003, 1.993946e+001
1.096725e+003, 1.997259e+001
1.097207e+003, 2.010740e+001
1.097689e+003, 2.019545e+001
1.098171e+003, 2.009263e+001
1.098653e+003, 1.996360e+001
1.099136e+003, 2.007854e+001
1.099618e+003, 2.028996e+001
1.100100e+003, 2.029998e+001
1.100582e+003, 1.983091e+001
1.101064e+003, 1.958456e+001
1.101546e+003, 1.964224e+001
1.102028e+003, 1.976193e+001
1.102510e+003, 1.969114e+001
1.102993e+003, 1.952828e+001
1.103475e+003, 1.950395e+001
1.103957e+003, 1.960319e+001
1.104439e+003, 1.967554e+001
1.104921e+003, 1.966665e+001
1.105403e+003, 1.960411e+001
1.105885e+003, 1.946131e+001
1.106367e+003, 1.930888e+001
1.106849e+003, 1.930054e+001
1.107332e+003, 1.940350e+001
1.107814e+003, 1.943575e+001
1.108296e+003, 1.936575e+001
1.108778e+003, 1.928825e+001
1.109260e+003, 1.928622e+001
1.109742e+003, 1.927493e+001
1.110224e+003, 1.918605e+001
1.110706e+003, 1.903893e+001
1.111188e+003, 1.890308e+001
1.111671e+003, 1.877502e+001
1.112153e+003, 1.880333e+001
1.112635e+003, 1.911595e+001
1.113117e+003, 1.939157e+001
1.113599e+003, 1.925337e+001
1.114081e+003, 1.893024e+001
1.114563e+003, 1.866430e+001
1.115045e+003, 1.845879e+001
1.115528e+003, 1.847045e+001
1.116010e+003, 1.876110e+001
1.116492e+003, 1.900527e+001
1.116974e+003, 1.897100e+001
1.117456e+003, 1.882295e+001
1.117938e+003, 1.884543e+001
1.118420e+003, 1.895762e+001
1.118902e+003, 1.898640e+001
1.119385e+003, 1.877339e+001
1.119867e+003, 1.863900e+001
1.120349e+003, 1.861635e+001
1.120831e+003, 1.863853e+001
1.121313e+003, 1.867267e+001
1.121795e+003, 1.869863e+001
1.122277e+003, 1.863296e+001
1.122759e+003, 1.849210e+001
1.123241e+003, 1.838411e+001
1.123724e+003, 1.838897e+001
1.124206e+003, 1.839698e+001
1.124688e+003, 1.837328e+001
1.125170e+003, 1.833777e+001
1.125652e+003, 1.832060e+001
1.126134e+003, 1.832000e+001
1.126616e+003, 1.833237e+001
1.127098e+003, 1.835800e+001
1.127580e+003, 1.836430e+001
1.128063e+003, 1.830691e+001
1.128545e+003, 1.824426e+001
1.129027e+003, 1.821240e+001
1.129509e+003, 1.820586e+001
1.129991e+003, 1.822317e+001
1.130473e+003, 1.826624e+001
1.130955e+003, 1.823792e+001
1.131437e+003, 1.809031e+001
1.131920e+003, 1.795677e+001
1.132402e+003, 1.800048e+001
1.132884e+003, 1.809433e+001
1.133366e+003, 1.809955e+001
1.133848e+003, 1.799792e+001
1.134330e+003, 1.797167e+001
1.134812e+003, 1.804156e+001
1.135294e+003, 1.806955e+001
1.135776e+003, 1.797894e+001
1.136259e+003, 1.784352e+001
1.136741e+003, 1.774044e+001
1.137223e+003, 1.766706e+001
1.137705e+003, 1.761740e+001
1.138187e+003, 1.759156e+001
1.138669e+003, 1.759629e+001
1.139151e+003, 1.764406e+001
1.139633e+003, 1.768934e+001
1.140115e+003, 1.769903e+001
1.140598e+003, 1.768626e+001
1.141080e+003, 1.768899e+001
1.141562e+003, 1.769289e+001
1.142044e+003, 1.765795e+001
1.142526e+003, 1.748874e+001
1.143008e+003, 1.740107e+001
1.143490e+003, 1.743125e+001
1.143972e+003, 1.752448e+001
1.144455e+003, 1.766880e+001
1.144937e+003, 1.782709e+001
1.145419e+003, 1.788106e+001
1.145901e+003, 1.782801e+001
1.146383e+003, 1.769301e+001
1.146865e+003, 1.727641e+001
1.147347e+003, 1.706255e+001
1.147829e+003, 1.729995e+001
1.148312e+003, 1.769487e+001
1.148794e+003, 1.777983e+001
1.149276e+003, 1.759663e+001
1.149758e+003, 1.739415e+001
1.150240e+003, 1.720077e+001
1.150722e+003, 1.707256e+001
1.151204e+003, 1.710898e+001
1.151686e+003, 1.715509e+001
1.152168e+003, 1.708744e+001
1.152651e+003, 1.697319e+001
1.153133e+003, 1.706390e+001
1.153615e+003, 1.734496e+001
1.154097e+003, 1.744285e+001
1.154579e+003, 1.723961e+001
1.155061e+003, 1.701262e+001
1.155543e+003, 1.699088e+001
1.156025e+003, 1.703739e+001
1.156507e+003, 1.703478e+001
1.156990e+003, 1.698725e+001
1.157472e+003, 1.698859e+001
1.157954e+003, 1.704353e+001
1.158436e+003, 1.707537e+001
1.158918e+003, 1.705737e+001
1.159400e+003, 1.700791e+001
1.159882e+003, 1.693200e+001
1.160364e+003, 1.684284e+001
1.160847e+003, 1.673731e+001
1.161329e+003, 1.659400e+001
1.161811e+003, 1.661349e+001
1.162293e+003, 1.682845e+001
1.162775e+003, 1.699905e+001
1.163257e+003, 1.697927e+001
1.163739e+003, 1.687833e+001
1.164221e+003, 1.682202e+001
1.164703e+003, 1.678530e+001
1.165186e+003, 1.672368e+001
1.165668e+003, 1.660358e+001
1.166150e+003, 1.651322e+001
1.166632e+003, 1.644654e+001
1.167114e+003, 1.643401e+001
1.167596e+003, 1.654168e+001
1.168078e+003, 1.669146e+001
1.168560e+003, 1.674460e+001
1.169042e+003, 1.673412e+001
1.169525e+003, 1.674823e+001
1.170007e+003, 1.689277e+001
1.170489e+003, 1.690806e+001
1.170971e+003, 1.673555e+001
1.171453e+003, 1.654883e+001
1.171935e+003, 1.654035e+001
1.172417e+003, 1.662325e+001
1.172899e+003, 1.661414e+001
1.173382e+003, 1.652965e+001
1.173864e+003, 1.648804e+001
1.174346e+003, 1.658948e+001
1.174828e+003, 1.664581e+001
1.175310e+003, 1.661767e+001
1.175792e+003, 1.656187e+001
1.176274e+003, 1.657500e+001
1.176756e+003, 1.661049e+001
1.177239e+003, 1.651528e+001
1.177721e+003, 1.629334e+001
1.178203e+003, 1.617359e+001
1.178685e+003, 1.636976e+001
1.179167e+003, 1.652177e+001
1.179649e+003, 1.654182e+001
1.180131e+003, 1.647743e+001
1.180613e+003, 1.639727e+001
1.181095e+003, 1.630552e+001
1.181578e+003, 1.618837e+001
1.182060e+003, 1.603741e+001
1.182542e+003, 1.599699e+001
1.183024e+003, 1.628569e+001
1.183506e+003, 1.650816e+001
1.183988e+003, 1.649888e+001
1.184470e+003, 1.635480e+001
1.184952e+003, 1.633724e+001
1.185434e+003, 1.640016e+001
1.185917e+003, 1.635748e+001
1.186399e+003, 1.613596e+001
1.186881e+003, 1.597338e+001
1.187363e+003, 1.598066e+001
1.187845e+003, 1.609179e+001
1.188327e+003, 1.631991e+001
1.188809e+003, 1.660303e+001
1.189291e+003, 1.668389e+001
1.189774e+003, 1.660106e+001
1.190256e+003, 1.655006e+001
1.190738e+003, 1.663280e+001
1.191220e+003, 1.663894e+001
1.191702e+003, 1.629770e+001
1.192184e+003, 1.601481e+001
1.192666e+003, 1.609094e+001
1.193148e+003, 1.645266e+001
1.193630e+003, 1.662515e+001
1.194113e+003, 1.662489e+001
1.194595e+003, 1.653268e+001
1.195077e+003, 1.627650e+001
1.195559e+003, 1.613418e+001
1.196041e+003, 1.640534e+001
1.196523e+003, 1.671111e+001
1.197005e+003, 1.673594e+001
1.197487e+003, 1.650032e+001
1.197969e+003, 1.634398e+001
1.198452e+003, 1.626266e+001
1.198934e+003, 1.621373e+001
1.199416e+003, 1.616877e+001
1.199898e+003, 1.616055e+001
1.200380e+003, 1.625005e+001
1.200862e+003, 1.635143e+001
1.201344e+003, 1.637760e+001
1.201826e+003, 1.632891e+001
1.202309e+003, 1.624850e+001
1.202791e+003, 1.614723e+001
1.203273e+003, 1.614373e+001
1.203755e+003, 1.646726e+001
1.204237e+003, 1.672353e+001
1.204719e+003, 1.663934e+001
1.205201e+003, 1.641896e+001
1.205683e+003, 1.627830e+001
1.206166e+003, 1.621925e+001
1.206648e+003, 1.630409e+001
1.207130e+003, 1.651989e+001
1.207612e+003, 1.662861e+001
1.208094e+003, 1.633165e+001
1.208576e+003, 1.604346e+001
1.209058e+003, 1.603910e+001
1.209540e+003, 1.615407e+001
1.210022e+003, 1.613840e+001
1.210505e+003, 1.600056e+001
1.210987e+003, 1.602767e+001
1.211469e+003, 1.623621e+001
1.211951e+003, 1.642864e+001
1.212433e+003, 1.649140e+001
1.212915e+003, 1.648277e+001
1.213397e+003, 1.638957e+001
1.213879e+003, 1.626990e+001
1.214361e+003, 1.623872e+001
1.214844e+003, 1.628660e+001
1.215326e+003, 1.624669e+001
1.215808e+003, 1.609975e+001
1.216290e+003, 1.595222e+001
1.216772e+003, 1.583928e+001
1.217254e+003, 1.578945e+001
1.217736e+003, 1.589909e+001
1.218218e+003, 1.603985e+001
1.218701e+003, 1.584831e+001
1.219183e+003, 1.537637e+001
1.219665e+003, 1.527654e+001
1.220147e+003, 1.566453e+001
1.220629e+003, 1.605641e+001
1.221111e+003, 1.615172e+001
1.221593e+003, 1.614614e+001
1.222075e+003, 1.611631e+001
1.222557e+003, 1.608414e+001
1.223040e+003, 1.611437e+001
1.223522e+003, 1.619621e+001
1.224004e+003, 1.624153e+001
1.224486e+003, 1.623231e+001
1.224968e+003, 1.621312e+001
1.225450e+003, 1.624013e+001
1.225932e+003, 1.623040e+001
1.226414e+003, 1.613560e+001
1.226896e+003, 1.598170e+001
1.227379e+003, 1.580892e+001
1.227861e+003, 1.563941e+001
1.228343e+003, 1.560384e+001
1.228825e+003, 1.574992e+001
1.229307e+003, 1.590322e+001
1.229789e+003, 1.596877e+001
1.230271e+003, 1.601387e+001
1.230753e+003, 1.607579e+001
1.231236e+003, 1.614323e+001
1.231718e+003, 1.617419e+001
1.232200e+003, 1.617565e+001
1.232682e+003, 1.618012e+001
1.233164e+003, 1.620386e+001
1.233646e+003, 1.619044e+001
1.234128e+003, 1.606163e+001
1.234610e+003, 1.594782e+001
1.235093e+003, 1.592254e+001
1.235575e+003, 1.594910e+001
1.236057e+003, 1.589539e+001
1.236539e+003, 1.579212e+001
1.237021e+003, 1.573551e+001
1.237503e+003, 1.574525e+001
1.237985e+003, 1.583431e+001
1.238467e+003, 1.612967e+001
1.238949e+003, 1.635447e+001
1.239432e+003, 1.637914e+001
1.239914e+003, 1.625017e+001
1.240396e+003, 1.604858e+001
1.240878e+003, 1.581569e+001
1.241360e+003, 1.567808e+001
1.241842e+003, 1.569591e+001
1.242324e+003, 1.572740e+001
1.242806e+003, 1.571920e+001
1.243288e+003, 1.575750e+001
1.243771e+003, 1.594622e+001
1.244253e+003, 1.615988e+001
1.244735e+003, 1.599490e+001
1.245217e+003, 1.561125e+001
1.245699e+003, 1.539020e+001
1.246181e+003, 1.548114e+001
1.246663e+003, 1.562453e+001
1.247145e+003, 1.578935e+001
1.247628e+003, 1.599584e+001
1.248110e+003, 1.632021e+001
1.248592e+003, 1.662972e+001
1.249074e+003, 1.656233e+001
1.249556e+003, 1.628230e+001
1.250038e+003, 1.611654e+001
1.250520e+003, 1.623200e+001
1.251002e+003, 1.623932e+001
1.251484e+003, 1.608734e+001
1.251967e+003, 1.593878e+001
1.252449e+003, 1.589630e+001
1.252931e+003, 1.590445e+001
1.253413e+003, 1.588401e+001
1.253895e+003, 1.584511e+001
1.254377e+003, 1.580247e+001
1.254859e+003, 1.574262e+001
1.255341e+003, 1.573574e+001
1.255823e+003, 1.579414e+001
1.256306e+003, 1.584503e+001
1.256788e+003, 1.581862e+001
1.257270e+003, 1.579346e+001
1.257752e+003, 1.592198e+001
1.258234e+003, 1.609452e+001
1.258716e+003, 1.611957e+001
1.259198e+003, 1.594126e+001
1.259680e+003, 1.580331e+001
1.260163e+003, 1.570635e+001
1.260645e+003, 1.564204e+001
1.261127e+003, 1.564320e+001
1.261609e+003, 1.562604e+001
1.262091e+003, 1.541983e+001
1.262573e+003, 1.520171e+001
1.263055e+003, 1.524310e+001
1.263537e+003, 1.560173e+001
1.264020e+003, 1.577643e+001
1.264502e+003, 1.577019e+001
1.264984e+003, 1.574041e+001
1.265466e+003, 1.578400e+001
1.265948e+003, 1.582542e+001
1.266430e+003, 1.581471e+001
1.266912e+003, 1.577382e+001
1.267394e+003, 1.572248e+001
1.267876e+003, 1.566081e+001
1.268359e+003, 1.562524e+001
1.268841e+003, 1.561702e+001
1.269323e+003, 1.564949e+001
1.269805e+003, 1.582536e+001
1.270287e+003, 1.591615e+001
1.270769e+003, 1.569155e+001
1.271251e+003, 1.544989e+001
1.271733e+003, 1.546041e+001
1.272215e+003, 1.568049e+001
1.272698e+003, 1.574134e+001
1.273180e+003, 1.567426e+001
1.273662e+003, 1.562091e+001
1.274144e+003, 1.565305e+001
1.274626e+003, 1.569753e+001
1.275108e+003, 1.573206e+001
1.275590e+003, 1.578230e+001
1.276072e+003, 1.589400e+001
1.276555e+003, 1.603251e+001
1.277037e+003, 1.608804e+001
1.277519e+003, 1.606584e+001
1.278001e+003, 1.598069e+001
1.278483e+003, 1.572205e+001
1.278965e+003, 1.559782e+001
1.279447e+003, 1.566298e+001
1.279929e+003, 1.576693e+001
1.280411e+003, 1.581548e+001
1.280894e+003, 1.581283e+001
1.281376e+003, 1.574203e+001
1.281858e+003, 1.563044e+001
1.282340e+003, 1.553721e+001
1.282822e+003, 1.543912e+001
1.283304e+003, 1.545016e+001
1.283786e+003, 1.559093e+001
1.284268e+003, 1.573979e+001
1.284750e+003, 1.586734e+001
1.285233e+003, 1.591218e+001
1.285715e+003, 1.570141e+001
1.286197e+003, 1.539597e+001
1.286679e+003, 1.528970e+001
1.287161e+003, 1.544627e+001
1.287643e+003, 1.557874e+001
1.288125e+003, 1.568671e+001
1.288607e+003, 1.577825e+001
1.289090e+003, 1.590394e+001
1.289572e+003, 1.596100e+001
1.290054e+003, 1.579827e+001
1.290536e+003, 1.557323e+001
1.291018e+003, 1.549443e+001
1.291500e+003, 1.556953e+001
1.291982e+003, 1.553494e+001
1.292464e+003, 1.540860e+001
1.292947e+003, 1.535294e+001
1.293429e+003, 1.554021e+001
1.293911e+003, 1.569612e+001
1.294393e+003, 1.569160e+001
1.294875e+003, 1.561385e+001
1.295357e+003, 1.547189e+001
1.295839e+003, 1.530450e+001
1.296321e+003, 1.538390e+001
1.296803e+003, 1.564281e+001
1.297286e+003, 1.583644e+001
1.297768e+003, 1.584658e+001
1.298250e+003, 1.580711e+001
1.298732e+003, 1.571110e+001
1.299214e+003, 1.563484e+001
1.299696e+003, 1.564366e+001
1.300178e+003, 1.569965e+001
1.300660e+003, 1.573761e+001
##END=



