##NAMES=Cosalite
##RRUFFID=R060625
##IDEAL CHEMISTRY=Pb^2+^_2_Bi^3+^_2_S^2-^_5_
##LOCALITY=Wells, British Columbia, Canada
##OWNER=RRUFF
##SOURCE=Michael Scott
##DESCRIPTION=Steel gray metallic elongated prismatic crystals associated with quartz
##STATUS=The identification of this mineral has been confirmed by single-crystal X-ray diffraction.
##URL=rruff.info/R060625
8.806445e+001, 4.016067e+002
8.854657e+001, 4.025057e+002
8.902869e+001, 4.028381e+002
8.951080e+001, 4.029463e+002
8.999292e+001, 4.023534e+002
9.047504e+001, 4.002609e+002
9.095715e+001, 3.962530e+002
9.143927e+001, 3.915921e+002
9.192139e+001, 3.880400e+002
9.240350e+001, 3.855569e+002
9.288562e+001, 3.832276e+002
9.336774e+001, 3.778080e+002
9.384985e+001, 3.673102e+002
9.433197e+001, 3.537961e+002
9.481409e+001, 3.434833e+002
9.529620e+001, 3.337441e+002
9.577832e+001, 3.247536e+002
9.626044e+001, 3.166147e+002
9.674255e+001, 3.088556e+002
9.722467e+001, 3.007556e+002
9.770679e+001, 2.919851e+002
9.818890e+001, 2.836403e+002
9.867102e+001, 2.753170e+002
9.915314e+001, 2.675358e+002
9.963525e+001, 2.607254e+002
1.001174e+002, 2.550554e+002
1.005995e+002, 2.502855e+002
1.010816e+002, 2.455808e+002
1.015637e+002, 2.401828e+002
1.020458e+002, 2.356087e+002
1.025280e+002, 2.322102e+002
1.030101e+002, 2.296699e+002
1.034922e+002, 2.275524e+002
1.039743e+002, 2.256373e+002
1.044564e+002, 2.238968e+002
1.049385e+002, 2.215684e+002
1.054207e+002, 2.183594e+002
1.059028e+002, 2.149232e+002
1.063849e+002, 2.116656e+002
1.068670e+002, 2.085781e+002
1.073491e+002, 2.052320e+002
1.078312e+002, 2.010083e+002
1.083134e+002, 1.959772e+002
1.087955e+002, 1.915630e+002
1.092776e+002, 1.880584e+002
1.097597e+002, 1.852263e+002
1.102418e+002, 1.827848e+002
1.107239e+002, 1.807640e+002
1.112061e+002, 1.789877e+002
1.116882e+002, 1.772960e+002
1.121703e+002, 1.756759e+002
1.126524e+002, 1.741898e+002
1.131345e+002, 1.729335e+002
1.136166e+002, 1.718869e+002
1.140988e+002, 1.707546e+002
1.145809e+002, 1.693370e+002
1.150630e+002, 1.679598e+002
1.155451e+002, 1.669219e+002
1.160272e+002, 1.661916e+002
1.165093e+002, 1.654187e+002
1.169915e+002, 1.640891e+002
1.174736e+002, 1.618622e+002
1.179557e+002, 1.599749e+002
1.184378e+002, 1.584395e+002
1.189199e+002, 1.572397e+002
1.194020e+002, 1.564504e+002
1.198842e+002, 1.560751e+002
1.203663e+002, 1.559572e+002
1.208484e+002, 1.557398e+002
1.213305e+002, 1.553886e+002
1.218126e+002, 1.549512e+002
1.222947e+002, 1.546526e+002
1.227769e+002, 1.542178e+002
1.232590e+002, 1.531667e+002
1.237411e+002, 1.511620e+002
1.242232e+002, 1.485314e+002
1.247053e+002, 1.467886e+002
1.251874e+002, 1.462361e+002
1.256696e+002, 1.459924e+002
1.261517e+002, 1.458526e+002
1.266338e+002, 1.457926e+002
1.271159e+002, 1.457351e+002
1.275980e+002, 1.457211e+002
1.280801e+002, 1.456299e+002
1.285623e+002, 1.451746e+002
1.290444e+002, 1.441204e+002
1.295265e+002, 1.428559e+002
1.300086e+002, 1.418268e+002
1.304907e+002, 1.411220e+002
1.309728e+002, 1.402135e+002
1.314550e+002, 1.385098e+002
1.319371e+002, 1.364230e+002
1.324192e+002, 1.345060e+002
1.329013e+002, 1.330191e+002
1.333834e+002, 1.318512e+002
1.338655e+002, 1.306431e+002
1.343477e+002, 1.291979e+002
1.348298e+002, 1.280369e+002
1.353119e+002, 1.275379e+002
1.357940e+002, 1.274425e+002
1.362761e+002, 1.272776e+002
1.367582e+002, 1.266639e+002
1.372404e+002, 1.255908e+002
1.377225e+002, 1.246441e+002
1.382046e+002, 1.241555e+002
1.386867e+002, 1.235111e+002
1.391688e+002, 1.223761e+002
1.396509e+002, 1.208559e+002
1.401331e+002, 1.193334e+002
1.406152e+002, 1.182130e+002
1.410973e+002, 1.176811e+002
1.415794e+002, 1.169059e+002
1.420615e+002, 1.157581e+002
1.425436e+002, 1.145166e+002
1.430258e+002, 1.132929e+002
1.435079e+002, 1.121285e+002
1.439900e+002, 1.110606e+002
1.444721e+002, 1.101538e+002
1.449542e+002, 1.094916e+002
1.454363e+002, 1.087885e+002
1.459185e+002, 1.079901e+002
1.464006e+002, 1.071596e+002
1.468827e+002, 1.063869e+002
1.473648e+002, 1.057089e+002
1.478469e+002, 1.050391e+002
1.483290e+002, 1.041963e+002
1.488112e+002, 1.031645e+002
1.492933e+002, 1.021726e+002
1.497754e+002, 1.012454e+002
1.502575e+002, 1.004142e+002
1.507396e+002, 9.978748e+001
1.512217e+002, 9.950543e+001
1.517039e+002, 9.932893e+001
1.521860e+002, 9.894607e+001
1.526681e+002, 9.833304e+001
1.531502e+002, 9.769680e+001
1.536323e+002, 9.725208e+001
1.541144e+002, 9.701286e+001
1.545966e+002, 9.660658e+001
1.550787e+002, 9.572652e+001
1.555608e+002, 9.475870e+001
1.560429e+002, 9.399423e+001
1.565250e+002, 9.349350e+001
1.570071e+002, 9.306729e+001
1.574893e+002, 9.239935e+001
1.579714e+002, 9.131192e+001
1.584535e+002, 9.047387e+001
1.589356e+002, 9.011876e+001
1.594177e+002, 8.995605e+001
1.598998e+002, 8.982345e+001
1.603820e+002, 8.965714e+001
1.608641e+002, 8.940877e+001
1.613462e+002, 8.894444e+001
1.618283e+002, 8.799107e+001
1.623104e+002, 8.720122e+001
1.627925e+002, 8.672763e+001
1.632747e+002, 8.640401e+001
1.637568e+002, 8.603889e+001
1.642389e+002, 8.553780e+001
1.647210e+002, 8.494908e+001
1.652031e+002, 8.448060e+001
1.656852e+002, 8.432010e+001
1.661674e+002, 8.406731e+001
1.666495e+002, 8.353922e+001
1.671316e+002, 8.288319e+001
1.676137e+002, 8.238889e+001
1.680958e+002, 8.225150e+001
1.685779e+002, 8.238515e+001
1.690601e+002, 8.223340e+001
1.695422e+002, 8.153828e+001
1.700243e+002, 8.088547e+001
1.705064e+002, 8.058578e+001
1.709885e+002, 8.055740e+001
1.714706e+002, 8.045084e+001
1.719528e+002, 8.001163e+001
1.724349e+002, 7.931973e+001
1.729170e+002, 7.878443e+001
1.733991e+002, 7.847012e+001
1.738812e+002, 7.825554e+001
1.743633e+002, 7.807886e+001
1.748455e+002, 7.794109e+001
1.753276e+002, 7.777434e+001
1.758097e+002, 7.751991e+001
1.762918e+002, 7.720794e+001
1.767739e+002, 7.689254e+001
1.772560e+002, 7.660559e+001
1.777382e+002, 7.630611e+001
1.782203e+002, 7.591727e+001
1.787024e+002, 7.540434e+001
1.791845e+002, 7.492277e+001
1.796666e+002, 7.459170e+001
1.801487e+002, 7.433417e+001
1.806309e+002, 7.405025e+001
1.811130e+002, 7.366994e+001
1.815951e+002, 7.325140e+001
1.820772e+002, 7.296582e+001
1.825593e+002, 7.292792e+001
1.830414e+002, 7.283509e+001
1.835236e+002, 7.254461e+001
1.840057e+002, 7.214874e+001
1.844878e+002, 7.177042e+001
1.849699e+002, 7.147322e+001
1.854520e+002, 7.125562e+001
1.859341e+002, 7.111774e+001
1.864163e+002, 7.125392e+001
1.868984e+002, 7.124535e+001
1.873805e+002, 7.092755e+001
1.878626e+002, 7.040513e+001
1.883447e+002, 6.985706e+001
1.888268e+002, 6.940366e+001
1.893090e+002, 6.904387e+001
1.897911e+002, 6.867718e+001
1.902732e+002, 6.819935e+001
1.907553e+002, 6.781953e+001
1.912374e+002, 6.763644e+001
1.917195e+002, 6.760183e+001
1.922017e+002, 6.761431e+001
1.926838e+002, 6.760908e+001
1.931659e+002, 6.759061e+001
1.936480e+002, 6.742188e+001
1.941301e+002, 6.695744e+001
1.946122e+002, 6.651785e+001
1.950944e+002, 6.626498e+001
1.955765e+002, 6.616995e+001
1.960586e+002, 6.609528e+001
1.965407e+002, 6.593532e+001
1.970228e+002, 6.568310e+001
1.975049e+002, 6.541250e+001
1.979871e+002, 6.511388e+001
1.984692e+002, 6.480548e+001
1.989513e+002, 6.446603e+001
1.994334e+002, 6.410776e+001
1.999155e+002, 6.381864e+001
2.003976e+002, 6.370066e+001
2.008798e+002, 6.374107e+001
2.013619e+002, 6.369910e+001
2.018440e+002, 6.347163e+001
2.023261e+002, 6.321868e+001
2.028082e+002, 6.311241e+001
2.032903e+002, 6.316861e+001
2.037725e+002, 6.321257e+001
2.042546e+002, 6.309663e+001
2.047367e+002, 6.285915e+001
2.052188e+002, 6.260623e+001
2.057009e+002, 6.234093e+001
2.061830e+002, 6.207639e+001
2.066652e+002, 6.181735e+001
2.071473e+002, 6.155127e+001
2.076294e+002, 6.134261e+001
2.081115e+002, 6.127458e+001
2.085936e+002, 6.128852e+001
2.090757e+002, 6.130410e+001
2.095579e+002, 6.132204e+001
2.100400e+002, 6.131227e+001
2.105221e+002, 6.118544e+001
2.110042e+002, 6.086486e+001
2.114863e+002, 6.060389e+001
2.119685e+002, 6.063187e+001
2.124506e+002, 6.077572e+001
2.129327e+002, 6.076832e+001
2.134148e+002, 6.042008e+001
2.138969e+002, 5.986306e+001
2.143790e+002, 5.952916e+001
2.148612e+002, 5.958596e+001
2.153433e+002, 5.959244e+001
2.158254e+002, 5.931296e+001
2.163075e+002, 5.891258e+001
2.167896e+002, 5.863783e+001
2.172717e+002, 5.866490e+001
2.177539e+002, 5.889403e+001
2.182360e+002, 5.887167e+001
2.187181e+002, 5.842877e+001
2.192002e+002, 5.793230e+001
2.196823e+002, 5.732262e+001
2.201644e+002, 5.675044e+001
2.206466e+002, 5.645343e+001
2.211287e+002, 5.660442e+001
2.216108e+002, 5.710139e+001
2.220929e+002, 5.736248e+001
2.225750e+002, 5.724134e+001
2.230571e+002, 5.701265e+001
2.235393e+002, 5.656984e+001
2.240214e+002, 5.607735e+001
2.245035e+002, 5.578081e+001
2.249856e+002, 5.584150e+001
2.254677e+002, 5.618885e+001
2.259498e+002, 5.637810e+001
2.264320e+002, 5.626100e+001
2.269141e+002, 5.614151e+001
2.273962e+002, 5.607388e+001
2.278783e+002, 5.603487e+001
2.283604e+002, 5.598054e+001
2.288425e+002, 5.588445e+001
2.293247e+002, 5.575509e+001
2.298068e+002, 5.564020e+001
2.302889e+002, 5.557301e+001
2.307710e+002, 5.548175e+001
2.312531e+002, 5.532298e+001
2.317352e+002, 5.513243e+001
2.322174e+002, 5.498866e+001
2.326995e+002, 5.494521e+001
2.331816e+002, 5.495682e+001
2.336637e+002, 5.481322e+001
2.341458e+002, 5.435217e+001
2.346279e+002, 5.395225e+001
2.351101e+002, 5.368655e+001
2.355922e+002, 5.354869e+001
2.360743e+002, 5.355118e+001
2.365564e+002, 5.372599e+001
2.370385e+002, 5.400219e+001
2.375206e+002, 5.413960e+001
2.380028e+002, 5.408276e+001
2.384849e+002, 5.401210e+001
2.389670e+002, 5.401751e+001
2.394491e+002, 5.405480e+001
2.399312e+002, 5.400848e+001
2.404133e+002, 5.380610e+001
2.408955e+002, 5.352966e+001
2.413776e+002, 5.336119e+001
2.418597e+002, 5.331880e+001
2.423418e+002, 5.331231e+001
2.428239e+002, 5.335094e+001
2.433060e+002, 5.340236e+001
2.437882e+002, 5.336509e+001
2.442703e+002, 5.317625e+001
2.447524e+002, 5.292005e+001
2.452345e+002, 5.274000e+001
2.457166e+002, 5.264889e+001
2.461987e+002, 5.255842e+001
2.466809e+002, 5.243567e+001
2.471630e+002, 5.228136e+001
2.476451e+002, 5.210125e+001
2.481272e+002, 5.191396e+001
2.486093e+002, 5.167393e+001
2.490914e+002, 5.130453e+001
2.495736e+002, 5.080449e+001
2.500557e+002, 5.033704e+001
2.505378e+002, 5.000913e+001
2.510199e+002, 4.979475e+001
2.515020e+002, 4.958733e+001
2.519841e+002, 4.937210e+001
2.524663e+002, 4.915083e+001
2.529484e+002, 4.891750e+001
2.534305e+002, 4.867510e+001
2.539126e+002, 4.844172e+001
2.543947e+002, 4.820498e+001
2.548768e+002, 4.797828e+001
2.553590e+002, 4.784156e+001
2.558411e+002, 4.786126e+001
2.563232e+002, 4.789335e+001
2.568053e+002, 4.783369e+001
2.572874e+002, 4.770034e+001
2.577695e+002, 4.755750e+001
2.582516e+002, 4.748486e+001
2.587338e+002, 4.745031e+001
2.592159e+002, 4.724781e+001
2.596980e+002, 4.666655e+001
2.601801e+002, 4.622663e+001
2.606622e+002, 4.627222e+001
2.611443e+002, 4.664737e+001
2.616265e+002, 4.701167e+001
2.621086e+002, 4.719658e+001
2.625907e+002, 4.720847e+001
2.630728e+002, 4.704366e+001
2.635549e+002, 4.653988e+001
2.640370e+002, 4.610734e+001
2.645192e+002, 4.592686e+001
2.650013e+002, 4.591511e+001
2.654834e+002, 4.594634e+001
2.659655e+002, 4.597629e+001
2.664476e+002, 4.598450e+001
2.669297e+002, 4.588684e+001
2.674119e+002, 4.560692e+001
2.678940e+002, 4.534223e+001
2.683761e+002, 4.516679e+001
2.688582e+002, 4.503553e+001
2.693403e+002, 4.488058e+001
2.698224e+002, 4.465965e+001
2.703046e+002, 4.442229e+001
2.707867e+002, 4.431996e+001
2.712688e+002, 4.446297e+001
2.717509e+002, 4.454644e+001
2.722330e+002, 4.446019e+001
2.727151e+002, 4.431400e+001
2.731973e+002, 4.421062e+001
2.736794e+002, 4.419083e+001
2.741615e+002, 4.423655e+001
2.746436e+002, 4.431581e+001
2.751257e+002, 4.445103e+001
2.756078e+002, 4.457638e+001
2.760900e+002, 4.469690e+001
2.765721e+002, 4.479799e+001
2.770542e+002, 4.488302e+001
2.775363e+002, 4.494896e+001
2.780184e+002, 4.496047e+001
2.785005e+002, 4.484006e+001
2.789827e+002, 4.449445e+001
2.794648e+002, 4.422488e+001
2.799469e+002, 4.412786e+001
2.804290e+002, 4.404180e+001
2.809111e+002, 4.383922e+001
2.813932e+002, 4.350854e+001
2.818754e+002, 4.315113e+001
2.823575e+002, 4.291302e+001
2.828396e+002, 4.286975e+001
2.833217e+002, 4.272667e+001
2.838038e+002, 4.246352e+001
2.842859e+002, 4.213344e+001
2.847681e+002, 4.172200e+001
2.852502e+002, 4.125567e+001
2.857323e+002, 4.081593e+001
2.862144e+002, 4.050077e+001
2.866965e+002, 4.034729e+001
2.871786e+002, 4.009922e+001
2.876608e+002, 3.974945e+001
2.881429e+002, 3.932128e+001
2.886250e+002, 3.873130e+001
2.891071e+002, 3.805503e+001
2.895892e+002, 3.748208e+001
2.900714e+002, 3.718465e+001
2.905535e+002, 3.716995e+001
2.910356e+002, 3.701778e+001
2.915177e+002, 3.659349e+001
2.919998e+002, 3.617534e+001
2.924819e+002, 3.584309e+001
2.929641e+002, 3.557138e+001
2.934462e+002, 3.530140e+001
2.939283e+002, 3.499376e+001
2.944104e+002, 3.465517e+001
2.948925e+002, 3.431921e+001
2.953746e+002, 3.391259e+001
2.958568e+002, 3.359407e+001
2.963389e+002, 3.344778e+001
2.968210e+002, 3.338581e+001
2.973031e+002, 3.327943e+001
2.977852e+002, 3.306465e+001
2.982673e+002, 3.279347e+001
2.987495e+002, 3.262453e+001
2.992316e+002, 3.271706e+001
2.997137e+002, 3.271236e+001
3.001958e+002, 3.254827e+001
3.006779e+002, 3.230428e+001
3.011600e+002, 3.204977e+001
3.016422e+002, 3.180959e+001
3.021243e+002, 3.158148e+001
3.026064e+002, 3.135882e+001
3.030885e+002, 3.110001e+001
3.035706e+002, 3.093074e+001
3.040527e+002, 3.097946e+001
3.045349e+002, 3.102533e+001
3.050170e+002, 3.085416e+001
3.054991e+002, 3.045431e+001
3.059812e+002, 3.002534e+001
3.064633e+002, 2.982313e+001
3.069454e+002, 2.994292e+001
3.074276e+002, 2.996353e+001
3.079097e+002, 2.984685e+001
3.083918e+002, 2.968303e+001
3.088739e+002, 2.949393e+001
3.093560e+002, 2.929696e+001
3.098381e+002, 2.912433e+001
3.103203e+002, 2.900276e+001
3.108024e+002, 2.893508e+001
3.112845e+002, 2.889101e+001
3.117666e+002, 2.894065e+001
3.122487e+002, 2.893974e+001
3.127308e+002, 2.879604e+001
3.132130e+002, 2.856143e+001
3.136951e+002, 2.834503e+001
3.141772e+002, 2.821460e+001
3.146593e+002, 2.816462e+001
3.151414e+002, 2.816335e+001
3.156235e+002, 2.830234e+001
3.161057e+002, 2.838385e+001
3.165878e+002, 2.836636e+001
3.170699e+002, 2.827484e+001
3.175520e+002, 2.812798e+001
3.180341e+002, 2.793376e+001
3.185162e+002, 2.772337e+001
3.189984e+002, 2.758014e+001
3.194805e+002, 2.759373e+001
3.199626e+002, 2.755985e+001
3.204447e+002, 2.743111e+001
3.209268e+002, 2.727912e+001
3.214089e+002, 2.717821e+001
3.218911e+002, 2.714474e+001
3.223732e+002, 2.712804e+001
3.228553e+002, 2.704537e+001
3.233374e+002, 2.683100e+001
3.238195e+002, 2.672038e+001
3.243016e+002, 2.682184e+001
3.247838e+002, 2.692845e+001
3.252659e+002, 2.689909e+001
3.257480e+002, 2.673477e+001
3.262301e+002, 2.653274e+001
3.267122e+002, 2.638381e+001
3.271943e+002, 2.629263e+001
3.276765e+002, 2.622247e+001
3.281586e+002, 2.619226e+001
3.286407e+002, 2.616109e+001
3.291228e+002, 2.612115e+001
3.296049e+002, 2.606783e+001
3.300870e+002, 2.598986e+001
3.305692e+002, 2.587524e+001
3.310513e+002, 2.573347e+001
3.315334e+002, 2.564008e+001
3.320155e+002, 2.569011e+001
3.324976e+002, 2.568142e+001
3.329797e+002, 2.554544e+001
3.334619e+002, 2.534688e+001
3.339440e+002, 2.515384e+001
3.344261e+002, 2.499675e+001
3.349082e+002, 2.489068e+001
3.353904e+002, 2.487591e+001
3.358725e+002, 2.503739e+001
3.363546e+002, 2.516183e+001
3.368367e+002, 2.527929e+001
3.373188e+002, 2.533821e+001
3.378009e+002, 2.527056e+001
3.382831e+002, 2.507490e+001
3.387652e+002, 2.483357e+001
3.392473e+002, 2.465832e+001
3.397294e+002, 2.457317e+001
3.402115e+002, 2.447831e+001
3.406936e+002, 2.438477e+001
3.411758e+002, 2.427329e+001
3.416579e+002, 2.410535e+001
3.421400e+002, 2.390338e+001
3.426221e+002, 2.373777e+001
3.431042e+002, 2.367379e+001
3.435863e+002, 2.371114e+001
3.440685e+002, 2.373421e+001
3.445506e+002, 2.376726e+001
3.450327e+002, 2.375710e+001
3.455148e+002, 2.364077e+001
3.459969e+002, 2.348184e+001
3.464790e+002, 2.338986e+001
3.469612e+002, 2.343075e+001
3.474433e+002, 2.354896e+001
3.479254e+002, 2.355909e+001
3.484075e+002, 2.335894e+001
3.488896e+002, 2.321590e+001
3.493717e+002, 2.319540e+001
3.498539e+002, 2.322620e+001
3.503360e+002, 2.325067e+001
3.508181e+002, 2.325023e+001
3.513002e+002, 2.323533e+001
3.517823e+002, 2.322322e+001
3.522644e+002, 2.322053e+001
3.527466e+002, 2.319860e+001
3.532287e+002, 2.317639e+001
3.537108e+002, 2.311823e+001
3.541929e+002, 2.297591e+001
3.546750e+002, 2.276785e+001
3.551571e+002, 2.257092e+001
3.556393e+002, 2.244849e+001
3.561214e+002, 2.239994e+001
3.566035e+002, 2.240129e+001
3.570856e+002, 2.252127e+001
3.575677e+002, 2.260889e+001
3.580498e+002, 2.259718e+001
3.585320e+002, 2.252019e+001
3.590141e+002, 2.243561e+001
3.594962e+002, 2.237132e+001
3.599783e+002, 2.232419e+001
3.604604e+002, 2.229357e+001
3.609425e+002, 2.229927e+001
3.614247e+002, 2.227344e+001
3.619068e+002, 2.214989e+001
3.623889e+002, 2.201244e+001
3.628710e+002, 2.193750e+001
3.633531e+002, 2.194619e+001
3.638352e+002, 2.200381e+001
3.643174e+002, 2.209610e+001
3.647995e+002, 2.223390e+001
3.652816e+002, 2.229063e+001
3.657637e+002, 2.215920e+001
3.662458e+002, 2.201399e+001
3.667279e+002, 2.200083e+001
3.672101e+002, 2.209884e+001
3.676922e+002, 2.214876e+001
3.681743e+002, 2.198191e+001
3.686564e+002, 2.165955e+001
3.691385e+002, 2.147205e+001
3.696206e+002, 2.147296e+001
3.701028e+002, 2.152553e+001
3.705849e+002, 2.157457e+001
3.710670e+002, 2.161183e+001
3.715491e+002, 2.161817e+001
3.720312e+002, 2.157775e+001
3.725133e+002, 2.151271e+001
3.729955e+002, 2.144749e+001
3.734776e+002, 2.138072e+001
3.739597e+002, 2.133095e+001
3.744418e+002, 2.133195e+001
3.749239e+002, 2.133803e+001
3.754060e+002, 2.128057e+001
3.758882e+002, 2.113560e+001
3.763703e+002, 2.100561e+001
3.768524e+002, 2.099149e+001
3.773345e+002, 2.105954e+001
3.778166e+002, 2.106590e+001
3.782987e+002, 2.096352e+001
3.787809e+002, 2.081721e+001
3.792630e+002, 2.069896e+001
3.797451e+002, 2.060411e+001
3.802272e+002, 2.049378e+001
3.807093e+002, 2.030621e+001
3.811914e+002, 2.011906e+001
3.816736e+002, 2.005605e+001
3.821557e+002, 2.013085e+001
3.826378e+002, 2.021864e+001
3.831199e+002, 2.022203e+001
3.836020e+002, 2.016444e+001
3.840841e+002, 2.015835e+001
3.845663e+002, 2.029002e+001
3.850484e+002, 2.038926e+001
3.855305e+002, 2.031155e+001
3.860126e+002, 2.011289e+001
3.864947e+002, 1.998059e+001
3.869768e+002, 2.000751e+001
3.874590e+002, 2.010990e+001
3.879411e+002, 2.010428e+001
3.884232e+002, 1.996237e+001
3.889053e+002, 1.982417e+001
3.893874e+002, 1.968038e+001
3.898695e+002, 1.957230e+001
3.903517e+002, 1.958562e+001
3.908338e+002, 1.972843e+001
3.913159e+002, 1.985452e+001
3.917980e+002, 1.979473e+001
3.922801e+002, 1.951314e+001
3.927622e+002, 1.937815e+001
3.932444e+002, 1.949502e+001
3.937265e+002, 1.964430e+001
3.942086e+002, 1.973425e+001
3.946907e+002, 1.976516e+001
3.951728e+002, 1.975842e+001
3.956549e+002, 1.972399e+001
3.961371e+002, 1.966723e+001
3.966192e+002, 1.961054e+001
3.971013e+002, 1.955168e+001
3.975834e+002, 1.949571e+001
3.980655e+002, 1.944600e+001
3.985476e+002, 1.939804e+001
3.990298e+002, 1.933482e+001
3.995119e+002, 1.925699e+001
3.999940e+002, 1.920239e+001
4.004761e+002, 1.923780e+001
4.009582e+002, 1.942732e+001
4.014403e+002, 1.947614e+001
4.019225e+002, 1.925224e+001
4.024046e+002, 1.903144e+001
4.028867e+002, 1.895634e+001
4.033688e+002, 1.899261e+001
4.038509e+002, 1.902577e+001
4.043330e+002, 1.897623e+001
4.048152e+002, 1.885878e+001
4.052973e+002, 1.875751e+001
4.057794e+002, 1.867190e+001
4.062615e+002, 1.860512e+001
4.067436e+002, 1.854770e+001
4.072257e+002, 1.851168e+001
4.077079e+002, 1.851120e+001
4.081900e+002, 1.855017e+001
4.086721e+002, 1.861737e+001
4.091542e+002, 1.871155e+001
4.096363e+002, 1.884718e+001
4.101184e+002, 1.893220e+001
4.106006e+002, 1.895257e+001
4.110827e+002, 1.891947e+001
4.115648e+002, 1.881319e+001
4.120469e+002, 1.865275e+001
4.125290e+002, 1.849684e+001
4.130111e+002, 1.837892e+001
4.134933e+002, 1.829489e+001
4.139754e+002, 1.823151e+001
4.144575e+002, 1.818789e+001
4.149396e+002, 1.816801e+001
4.154217e+002, 1.819025e+001
4.159038e+002, 1.823134e+001
4.163860e+002, 1.826907e+001
4.168681e+002, 1.830238e+001
4.173502e+002, 1.831949e+001
4.178323e+002, 1.828954e+001
4.183144e+002, 1.822158e+001
4.187965e+002, 1.820367e+001
4.192787e+002, 1.829089e+001
4.197608e+002, 1.838647e+001
4.202429e+002, 1.836087e+001
4.207250e+002, 1.822628e+001
4.212071e+002, 1.813523e+001
4.216892e+002, 1.820299e+001
4.221714e+002, 1.831424e+001
4.226535e+002, 1.828480e+001
4.231356e+002, 1.810094e+001
4.236177e+002, 1.794529e+001
4.240998e+002, 1.795007e+001
4.245819e+002, 1.808312e+001
4.250641e+002, 1.817939e+001
4.255462e+002, 1.823811e+001
4.260283e+002, 1.826314e+001
4.265104e+002, 1.824344e+001
4.269925e+002, 1.819307e+001
4.274746e+002, 1.813680e+001
4.279568e+002, 1.808201e+001
4.284389e+002, 1.802849e+001
4.289210e+002, 1.797233e+001
4.294031e+002, 1.790185e+001
4.298852e+002, 1.786880e+001
4.303673e+002, 1.790176e+001
4.308495e+002, 1.794925e+001
4.313316e+002, 1.798292e+001
4.318137e+002, 1.799883e+001
4.322958e+002, 1.799572e+001
4.327779e+002, 1.796805e+001
4.332600e+002, 1.792316e+001
4.337422e+002, 1.792129e+001
4.342243e+002, 1.809337e+001
4.347064e+002, 1.815015e+001
4.351885e+002, 1.795994e+001
4.356706e+002, 1.768118e+001
4.361527e+002, 1.747594e+001
4.366349e+002, 1.739528e+001
4.371170e+002, 1.739567e+001
4.375991e+002, 1.741481e+001
4.380812e+002, 1.744130e+001
4.385633e+002, 1.752917e+001
4.390454e+002, 1.782671e+001
4.395276e+002, 1.804463e+001
4.400097e+002, 1.800991e+001
4.404918e+002, 1.780212e+001
4.409739e+002, 1.761207e+001
4.414560e+002, 1.755895e+001
4.419381e+002, 1.760122e+001
4.424203e+002, 1.761630e+001
4.429024e+002, 1.758829e+001
4.433845e+002, 1.757575e+001
4.438666e+002, 1.765949e+001
4.443487e+002, 1.772832e+001
4.448308e+002, 1.765007e+001
4.453130e+002, 1.740359e+001
4.457951e+002, 1.718908e+001
4.462772e+002, 1.720444e+001
4.467593e+002, 1.740662e+001
4.472414e+002, 1.757658e+001
4.477235e+002, 1.769082e+001
4.482057e+002, 1.776886e+001
4.486878e+002, 1.784238e+001
4.491699e+002, 1.789378e+001
4.496520e+002, 1.786474e+001
4.501341e+002, 1.767816e+001
4.506162e+002, 1.746314e+001
4.510984e+002, 1.733688e+001
4.515805e+002, 1.729012e+001
4.520626e+002, 1.726692e+001
4.525447e+002, 1.724762e+001
4.530268e+002, 1.723622e+001
4.535089e+002, 1.724515e+001
4.539911e+002, 1.727928e+001
4.544732e+002, 1.730537e+001
4.549553e+002, 1.730821e+001
4.554374e+002, 1.730392e+001
4.559195e+002, 1.730290e+001
4.564016e+002, 1.730886e+001
4.568838e+002, 1.733892e+001
4.573659e+002, 1.741834e+001
4.578480e+002, 1.754021e+001
4.583301e+002, 1.757612e+001
4.588122e+002, 1.745429e+001
4.592943e+002, 1.734642e+001
4.597765e+002, 1.728337e+001
4.602586e+002, 1.726231e+001
4.607407e+002, 1.729434e+001
4.612228e+002, 1.737827e+001
4.617049e+002, 1.746524e+001
4.621870e+002, 1.747559e+001
4.626692e+002, 1.737193e+001
4.631513e+002, 1.731148e+001
4.636334e+002, 1.732514e+001
4.641155e+002, 1.734932e+001
4.645976e+002, 1.735667e+001
4.650797e+002, 1.735333e+001
4.655619e+002, 1.736454e+001
4.660440e+002, 1.741283e+001
4.665261e+002, 1.746964e+001
4.670082e+002, 1.744260e+001
4.674903e+002, 1.728835e+001
4.679724e+002, 1.716831e+001
4.684546e+002, 1.714473e+001
4.689367e+002, 1.715524e+001
4.694188e+002, 1.716804e+001
4.699009e+002, 1.717643e+001
4.703830e+002, 1.716595e+001
4.708651e+002, 1.710460e+001
4.713473e+002, 1.701305e+001
4.718294e+002, 1.696935e+001
4.723115e+002, 1.698519e+001
4.727936e+002, 1.702622e+001
4.732757e+002, 1.710289e+001
4.737578e+002, 1.718306e+001
4.742400e+002, 1.719744e+001
4.747221e+002, 1.709422e+001
4.752042e+002, 1.699119e+001
4.756863e+002, 1.700734e+001
4.761684e+002, 1.709016e+001
4.766505e+002, 1.706059e+001
4.771327e+002, 1.684279e+001
4.776148e+002, 1.660624e+001
4.780969e+002, 1.659052e+001
4.785790e+002, 1.684168e+001
4.790611e+002, 1.697383e+001
4.795432e+002, 1.687991e+001
4.800254e+002, 1.673924e+001
4.805075e+002, 1.663839e+001
4.809896e+002, 1.658650e+001
4.814717e+002, 1.659507e+001
4.819538e+002, 1.667727e+001
4.824359e+002, 1.679437e+001
4.829181e+002, 1.683456e+001
4.834002e+002, 1.673443e+001
4.838823e+002, 1.664537e+001
4.843644e+002, 1.654619e+001
4.848465e+002, 1.647482e+001
4.853286e+002, 1.647834e+001
4.858108e+002, 1.654454e+001
4.862929e+002, 1.660817e+001
4.867750e+002, 1.660931e+001
4.872571e+002, 1.655736e+001
4.877392e+002, 1.653727e+001
4.882213e+002, 1.656686e+001
4.887035e+002, 1.660018e+001
4.891856e+002, 1.662847e+001
4.896677e+002, 1.665163e+001
4.901498e+002, 1.667014e+001
4.906319e+002, 1.668414e+001
4.911140e+002, 1.669142e+001
4.915962e+002, 1.668522e+001
4.920783e+002, 1.666789e+001
4.925604e+002, 1.666308e+001
4.930425e+002, 1.668514e+001
4.935246e+002, 1.669616e+001
4.940067e+002, 1.663708e+001
4.944889e+002, 1.654620e+001
4.949710e+002, 1.651842e+001
4.954531e+002, 1.664895e+001
4.959352e+002, 1.676361e+001
4.964173e+002, 1.666951e+001
4.968994e+002, 1.643102e+001
4.973816e+002, 1.630229e+001
4.978637e+002, 1.638998e+001
4.983458e+002, 1.654713e+001
4.988279e+002, 1.655135e+001
4.993100e+002, 1.635801e+001
4.997921e+002, 1.623699e+001
5.002743e+002, 1.627901e+001
5.007564e+002, 1.633365e+001
5.012385e+002, 1.627001e+001
5.017206e+002, 1.612889e+001
5.022027e+002, 1.606199e+001
5.026848e+002, 1.616346e+001
5.031670e+002, 1.635545e+001
5.036491e+002, 1.640131e+001
5.041312e+002, 1.615819e+001
5.046133e+002, 1.599854e+001
5.050954e+002, 1.596775e+001
5.055775e+002, 1.598798e+001
5.060597e+002, 1.602119e+001
5.065418e+002, 1.605670e+001
5.070239e+002, 1.609336e+001
5.075060e+002, 1.614356e+001
5.079881e+002, 1.618928e+001
5.084702e+002, 1.612327e+001
5.089524e+002, 1.586622e+001
5.094345e+002, 1.567849e+001
5.099166e+002, 1.568548e+001
5.103987e+002, 1.577687e+001
5.108808e+002, 1.588569e+001
5.113629e+002, 1.600169e+001
5.118451e+002, 1.605933e+001
5.123271e+002, 1.594148e+001
5.128093e+002, 1.572918e+001
5.132914e+002, 1.569371e+001
5.137735e+002, 1.590044e+001
5.142556e+002, 1.606383e+001
5.147377e+002, 1.593202e+001
5.152198e+002, 1.560312e+001
5.157020e+002, 1.543286e+001
5.161841e+002, 1.552606e+001
5.166662e+002, 1.563982e+001
5.171483e+002, 1.565872e+001
5.176304e+002, 1.563107e+001
5.181125e+002, 1.565031e+001
5.185947e+002, 1.573763e+001
5.190768e+002, 1.581181e+001
5.195589e+002, 1.577327e+001
5.200410e+002, 1.560069e+001
5.205231e+002, 1.552143e+001
5.210052e+002, 1.561807e+001
5.214874e+002, 1.569971e+001
5.219695e+002, 1.572069e+001
5.224516e+002, 1.568475e+001
5.229337e+002, 1.557312e+001
5.234158e+002, 1.538472e+001
5.238979e+002, 1.520987e+001
5.243801e+002, 1.520767e+001
5.248622e+002, 1.542580e+001
5.253443e+002, 1.556699e+001
5.258264e+002, 1.561282e+001
5.263085e+002, 1.558589e+001
5.267906e+002, 1.544425e+001
5.272728e+002, 1.524799e+001
5.277549e+002, 1.511309e+001
5.282370e+002, 1.510341e+001
5.287191e+002, 1.513461e+001
5.292012e+002, 1.508933e+001
5.296833e+002, 1.497420e+001
5.301655e+002, 1.488496e+001
5.306476e+002, 1.483684e+001
5.311297e+002, 1.483612e+001
5.316118e+002, 1.493460e+001
5.320939e+002, 1.511322e+001
5.325760e+002, 1.520629e+001
5.330582e+002, 1.513405e+001
5.335403e+002, 1.500494e+001
5.340224e+002, 1.486597e+001
5.345045e+002, 1.473650e+001
5.349866e+002, 1.467176e+001
5.354688e+002, 1.470025e+001
5.359509e+002, 1.478046e+001
5.364330e+002, 1.483795e+001
5.369151e+002, 1.487145e+001
5.373972e+002, 1.488101e+001
5.378793e+002, 1.486155e+001
5.383615e+002, 1.482526e+001
5.388436e+002, 1.475993e+001
5.393257e+002, 1.468429e+001
5.398078e+002, 1.463563e+001
5.402899e+002, 1.463528e+001
5.407720e+002, 1.467114e+001
5.412542e+002, 1.472235e+001
5.417363e+002, 1.480024e+001
5.422184e+002, 1.485387e+001
5.427005e+002, 1.483877e+001
5.431826e+002, 1.482857e+001
5.436647e+002, 1.487281e+001
5.441469e+002, 1.496184e+001
5.446290e+002, 1.505091e+001
5.451111e+002, 1.512204e+001
5.455932e+002, 1.517711e+001
5.460753e+002, 1.519581e+001
5.465574e+002, 1.518129e+001
5.470396e+002, 1.524197e+001
5.475217e+002, 1.545622e+001
5.480038e+002, 1.571315e+001
5.484859e+002, 1.583338e+001
5.489680e+002, 1.581329e+001
5.494501e+002, 1.576805e+001
5.499323e+002, 1.569346e+001
5.504144e+002, 1.562148e+001
5.508965e+002, 1.557836e+001
5.513786e+002, 1.556092e+001
5.518607e+002, 1.555524e+001
5.523428e+002, 1.555529e+001
5.528250e+002, 1.555461e+001
5.533071e+002, 1.554264e+001
5.537892e+002, 1.557211e+001
5.542713e+002, 1.548714e+001
5.547534e+002, 1.517393e+001
5.552355e+002, 1.486494e+001
5.557177e+002, 1.468184e+001
5.561998e+002, 1.461662e+001
5.566819e+002, 1.462096e+001
5.571640e+002, 1.468386e+001
5.576461e+002, 1.476149e+001
5.581282e+002, 1.475176e+001
5.586104e+002, 1.464289e+001
5.590925e+002, 1.452165e+001
5.595746e+002, 1.439429e+001
5.600567e+002, 1.427587e+001
5.605388e+002, 1.417321e+001
5.610209e+002, 1.408789e+001
5.615031e+002, 1.402818e+001
5.619852e+002, 1.400629e+001
5.624673e+002, 1.400573e+001
5.629494e+002, 1.402410e+001
5.634315e+002, 1.405309e+001
5.639136e+002, 1.405752e+001
5.643958e+002, 1.402386e+001
5.648779e+002, 1.395364e+001
5.653600e+002, 1.383771e+001
5.658421e+002, 1.362758e+001
5.663242e+002, 1.352288e+001
5.668063e+002, 1.360964e+001
5.672885e+002, 1.371790e+001
5.677706e+002, 1.374635e+001
5.682527e+002, 1.372227e+001
5.687348e+002, 1.372783e+001
5.692169e+002, 1.380494e+001
5.696990e+002, 1.389827e+001
5.701812e+002, 1.388031e+001
5.706633e+002, 1.370257e+001
5.711454e+002, 1.361423e+001
5.716275e+002, 1.375885e+001
5.721096e+002, 1.386637e+001
5.725917e+002, 1.373458e+001
5.730739e+002, 1.346705e+001
5.735560e+002, 1.331788e+001
5.740381e+002, 1.343373e+001
5.745202e+002, 1.361496e+001
5.750023e+002, 1.362213e+001
5.754844e+002, 1.348728e+001
5.759666e+002, 1.338926e+001
5.764487e+002, 1.337379e+001
5.769308e+002, 1.339963e+001
5.774129e+002, 1.344182e+001
5.778950e+002, 1.349928e+001
5.783771e+002, 1.349611e+001
5.788593e+002, 1.333118e+001
5.793414e+002, 1.321244e+001
5.798235e+002, 1.329279e+001
5.803056e+002, 1.346304e+001
5.807877e+002, 1.352932e+001
5.812698e+002, 1.343819e+001
5.817520e+002, 1.331305e+001
5.822341e+002, 1.331710e+001
5.827162e+002, 1.346903e+001
5.831984e+002, 1.357315e+001
5.836805e+002, 1.364680e+001
5.841626e+002, 1.364447e+001
5.846447e+002, 1.347571e+001
5.851268e+002, 1.326285e+001
5.856089e+002, 1.316535e+001
5.860911e+002, 1.322683e+001
5.865732e+002, 1.332728e+001
5.870553e+002, 1.335196e+001
5.875374e+002, 1.332360e+001
5.880195e+002, 1.333542e+001
5.885016e+002, 1.340411e+001
5.889838e+002, 1.346772e+001
5.894659e+002, 1.349413e+001
5.899480e+002, 1.348322e+001
5.904301e+002, 1.344305e+001
5.909122e+002, 1.337054e+001
5.913943e+002, 1.327615e+001
5.918765e+002, 1.310511e+001
5.923586e+002, 1.294796e+001
5.928407e+002, 1.292062e+001
5.933228e+002, 1.302028e+001
5.938049e+002, 1.315119e+001
5.942870e+002, 1.324653e+001
5.947692e+002, 1.331032e+001
5.952513e+002, 1.336626e+001
5.957334e+002, 1.344578e+001
5.962155e+002, 1.345760e+001
5.966976e+002, 1.335455e+001
5.971797e+002, 1.322078e+001
5.976619e+002, 1.308513e+001
5.981440e+002, 1.296630e+001
5.986261e+002, 1.290642e+001
5.991082e+002, 1.295742e+001
5.995903e+002, 1.305807e+001
6.000724e+002, 1.309942e+001
6.005546e+002, 1.308124e+001
6.010367e+002, 1.302577e+001
6.015188e+002, 1.289886e+001
6.020009e+002, 1.279864e+001
6.024830e+002, 1.290674e+001
6.029651e+002, 1.321741e+001
6.034473e+002, 1.339374e+001
6.039294e+002, 1.331443e+001
6.044115e+002, 1.315895e+001
6.048936e+002, 1.295730e+001
6.053757e+002, 1.277555e+001
6.058578e+002, 1.277404e+001
6.063400e+002, 1.300559e+001
6.068221e+002, 1.327849e+001
6.073042e+002, 1.329634e+001
6.077863e+002, 1.299495e+001
6.082684e+002, 1.286157e+001
6.087505e+002, 1.308158e+001
6.092327e+002, 1.325599e+001
6.097148e+002, 1.323800e+001
6.101969e+002, 1.312428e+001
6.106790e+002, 1.303308e+001
6.111611e+002, 1.299619e+001
6.116432e+002, 1.298515e+001
6.121254e+002, 1.298790e+001
6.126075e+002, 1.299601e+001
6.130896e+002, 1.297393e+001
6.135717e+002, 1.291286e+001
6.140538e+002, 1.287212e+001
6.145359e+002, 1.290170e+001
6.150181e+002, 1.297005e+001
6.155002e+002, 1.297851e+001
6.159823e+002, 1.288378e+001
6.164644e+002, 1.283307e+001
6.169465e+002, 1.289750e+001
6.174286e+002, 1.298684e+001
6.179108e+002, 1.304322e+001
6.183929e+002, 1.305326e+001
6.188750e+002, 1.299498e+001
6.193571e+002, 1.284648e+001
6.198392e+002, 1.266079e+001
6.203214e+002, 1.258212e+001
6.208035e+002, 1.263883e+001
6.212856e+002, 1.271638e+001
6.217677e+002, 1.283897e+001
6.222498e+002, 1.294531e+001
6.227319e+002, 1.302195e+001
6.232141e+002, 1.305687e+001
6.236962e+002, 1.301140e+001
6.241783e+002, 1.281487e+001
6.246604e+002, 1.263273e+001
6.251425e+002, 1.267595e+001
6.256246e+002, 1.287195e+001
6.261068e+002, 1.296489e+001
6.265889e+002, 1.289144e+001
6.270710e+002, 1.277919e+001
6.275531e+002, 1.274265e+001
6.280352e+002, 1.277878e+001
6.285173e+002, 1.281894e+001
6.289995e+002, 1.288487e+001
6.294816e+002, 1.292620e+001
6.299637e+002, 1.293330e+001
6.304458e+002, 1.291059e+001
6.309279e+002, 1.283628e+001
6.314100e+002, 1.272641e+001
6.318922e+002, 1.265528e+001
6.323743e+002, 1.269366e+001
6.328564e+002, 1.281083e+001
6.333385e+002, 1.289958e+001
6.338206e+002, 1.296293e+001
6.343027e+002, 1.298135e+001
6.347849e+002, 1.290535e+001
6.352670e+002, 1.282254e+001
6.357491e+002, 1.283370e+001
6.362312e+002, 1.292750e+001
6.367133e+002, 1.298472e+001
6.371954e+002, 1.293962e+001
6.376776e+002, 1.287038e+001
6.381597e+002, 1.283900e+001
6.386418e+002, 1.283341e+001
6.391239e+002, 1.281890e+001
6.396060e+002, 1.278425e+001
6.400881e+002, 1.274747e+001
6.405703e+002, 1.273091e+001
6.410524e+002, 1.273564e+001
6.415345e+002, 1.274910e+001
6.420166e+002, 1.280773e+001
6.424987e+002, 1.283062e+001
6.429808e+002, 1.275339e+001
6.434630e+002, 1.266075e+001
6.439451e+002, 1.264991e+001
6.444272e+002, 1.273302e+001
6.449093e+002, 1.282713e+001
6.453914e+002, 1.287740e+001
6.458735e+002, 1.288857e+001
6.463557e+002, 1.285841e+001
6.468378e+002, 1.278469e+001
6.473199e+002, 1.272777e+001
6.478020e+002, 1.270528e+001
6.482841e+002, 1.272218e+001
6.487662e+002, 1.279897e+001
6.492484e+002, 1.295057e+001
6.497305e+002, 1.307530e+001
6.502126e+002, 1.319870e+001
6.506947e+002, 1.325930e+001
6.511768e+002, 1.316575e+001
6.516589e+002, 1.300087e+001
6.521411e+002, 1.291846e+001
6.526232e+002, 1.296913e+001
6.531053e+002, 1.305878e+001
6.535874e+002, 1.305972e+001
6.540695e+002, 1.297072e+001
6.545516e+002, 1.292201e+001
6.550338e+002, 1.293495e+001
6.555159e+002, 1.294607e+001
6.559980e+002, 1.291865e+001
6.564801e+002, 1.287949e+001
6.569622e+002, 1.285896e+001
6.574443e+002, 1.286148e+001
6.579265e+002, 1.286421e+001
6.584086e+002, 1.286437e+001
6.588907e+002, 1.285466e+001
6.593728e+002, 1.281654e+001
6.598549e+002, 1.275857e+001
6.603370e+002, 1.271506e+001
6.608192e+002, 1.270154e+001
6.613013e+002, 1.271125e+001
6.617834e+002, 1.272959e+001
6.622655e+002, 1.274543e+001
6.627476e+002, 1.281237e+001
6.632297e+002, 1.303953e+001
6.637119e+002, 1.319752e+001
6.641940e+002, 1.311514e+001
6.646761e+002, 1.296540e+001
6.651582e+002, 1.302767e+001
6.656403e+002, 1.337602e+001
6.661224e+002, 1.367666e+001
6.666046e+002, 1.359455e+001
6.670867e+002, 1.327354e+001
6.675688e+002, 1.302608e+001
6.680509e+002, 1.287114e+001
6.685330e+002, 1.283059e+001
6.690151e+002, 1.295209e+001
6.694973e+002, 1.313912e+001
6.699794e+002, 1.318026e+001
6.704615e+002, 1.294970e+001
6.709436e+002, 1.292579e+001
6.714257e+002, 1.341671e+001
6.719078e+002, 1.381002e+001
6.723900e+002, 1.366651e+001
6.728721e+002, 1.324110e+001
6.733542e+002, 1.301206e+001
6.738363e+002, 1.314453e+001
6.743184e+002, 1.336230e+001
6.748005e+002, 1.329118e+001
6.752827e+002, 1.297354e+001
6.757648e+002, 1.284782e+001
6.762469e+002, 1.296050e+001
6.767290e+002, 1.314801e+001
6.772111e+002, 1.344348e+001
6.776932e+002, 1.369563e+001
6.781754e+002, 1.360374e+001
6.786575e+002, 1.308200e+001
6.791396e+002, 1.269606e+001
6.796217e+002, 1.263587e+001
6.801038e+002, 1.270318e+001
6.805859e+002, 1.279862e+001
6.810681e+002, 1.289432e+001
6.815502e+002, 1.296093e+001
6.820323e+002, 1.298645e+001
6.825144e+002, 1.297131e+001
6.829965e+002, 1.290530e+001
6.834786e+002, 1.278394e+001
6.839608e+002, 1.268093e+001
6.844429e+002, 1.255644e+001
6.849250e+002, 1.252369e+001
6.854071e+002, 1.274298e+001
6.858892e+002, 1.301554e+001
6.863713e+002, 1.308939e+001
6.868535e+002, 1.292815e+001
6.873356e+002, 1.285032e+001
6.878177e+002, 1.312204e+001
6.882998e+002, 1.344690e+001
6.887819e+002, 1.350647e+001
6.892640e+002, 1.335029e+001
6.897462e+002, 1.316127e+001
6.902283e+002, 1.300813e+001
6.907104e+002, 1.291973e+001
6.911925e+002, 1.295659e+001
6.916746e+002, 1.314551e+001
6.921567e+002, 1.321475e+001
6.926389e+002, 1.305908e+001
6.931210e+002, 1.292566e+001
6.936031e+002, 1.289643e+001
6.940852e+002, 1.290751e+001
6.945673e+002, 1.288801e+001
6.950494e+002, 1.283155e+001
6.955316e+002, 1.279501e+001
6.960137e+002, 1.284939e+001
6.964958e+002, 1.291858e+001
6.969779e+002, 1.287095e+001
6.974600e+002, 1.273796e+001
6.979421e+002, 1.268604e+001
6.984243e+002, 1.278195e+001
6.989064e+002, 1.290135e+001
6.993885e+002, 1.287595e+001
6.998706e+002, 1.268644e+001
7.003527e+002, 1.260524e+001
7.008348e+002, 1.272628e+001
7.013170e+002, 1.284297e+001
7.017991e+002, 1.294720e+001
7.022812e+002, 1.301276e+001
7.027633e+002, 1.300454e+001
7.032454e+002, 1.292778e+001
7.037275e+002, 1.283262e+001
7.042097e+002, 1.271794e+001
7.046918e+002, 1.263088e+001
7.051739e+002, 1.267645e+001
7.056560e+002, 1.283047e+001
7.061381e+002, 1.292602e+001
7.066202e+002, 1.290846e+001
7.071024e+002, 1.287166e+001
7.075845e+002, 1.291683e+001
7.080666e+002, 1.304209e+001
7.085487e+002, 1.311935e+001
7.090308e+002, 1.312838e+001
7.095129e+002, 1.311873e+001
7.099951e+002, 1.306838e+001
7.104772e+002, 1.302407e+001
7.109593e+002, 1.304417e+001
7.114414e+002, 1.311182e+001
7.119235e+002, 1.314528e+001
7.124056e+002, 1.308319e+001
7.128878e+002, 1.299031e+001
7.133699e+002, 1.298138e+001
7.138520e+002, 1.304093e+001
7.143341e+002, 1.304515e+001
7.148162e+002, 1.295651e+001
7.152983e+002, 1.288884e+001
7.157805e+002, 1.295739e+001
7.162626e+002, 1.312521e+001
7.167447e+002, 1.317807e+001
7.172268e+002, 1.299783e+001
7.177089e+002, 1.288009e+001
7.181910e+002, 1.285975e+001
7.186732e+002, 1.289925e+001
7.191553e+002, 1.302983e+001
7.196374e+002, 1.319270e+001
7.201195e+002, 1.324299e+001
7.206016e+002, 1.309514e+001
7.210837e+002, 1.291513e+001
7.215659e+002, 1.296078e+001
7.220480e+002, 1.318218e+001
7.225301e+002, 1.328140e+001
7.230122e+002, 1.320717e+001
7.234943e+002, 1.315908e+001
7.239764e+002, 1.329423e+001
7.244586e+002, 1.350604e+001
7.249407e+002, 1.350428e+001
7.254228e+002, 1.314894e+001
7.259049e+002, 1.293075e+001
7.263870e+002, 1.295777e+001
7.268691e+002, 1.304553e+001
7.273513e+002, 1.313965e+001
7.278334e+002, 1.320987e+001
7.283155e+002, 1.320288e+001
7.287976e+002, 1.310553e+001
7.292797e+002, 1.300993e+001
7.297618e+002, 1.302676e+001
7.302440e+002, 1.312506e+001
7.307261e+002, 1.320086e+001
7.312082e+002, 1.325291e+001
7.316903e+002, 1.325728e+001
7.321724e+002, 1.318168e+001
7.326545e+002, 1.309357e+001
7.331367e+002, 1.310146e+001
7.336188e+002, 1.323284e+001
7.341009e+002, 1.330482e+001
7.345830e+002, 1.330123e+001
7.350651e+002, 1.325919e+001
7.355472e+002, 1.314840e+001
7.360294e+002, 1.303023e+001
7.365115e+002, 1.296991e+001
7.369936e+002, 1.297783e+001
7.374757e+002, 1.303062e+001
7.379578e+002, 1.313288e+001
7.384399e+002, 1.324786e+001
7.389221e+002, 1.330067e+001
7.394042e+002, 1.329357e+001
7.398863e+002, 1.324739e+001
7.403684e+002, 1.314618e+001
7.408505e+002, 1.309585e+001
7.413326e+002, 1.323816e+001
7.418148e+002, 1.354160e+001
7.422969e+002, 1.363785e+001
7.427790e+002, 1.331063e+001
7.432611e+002, 1.309298e+001
7.437432e+002, 1.308927e+001
7.442253e+002, 1.317967e+001
7.447075e+002, 1.332180e+001
7.451896e+002, 1.347696e+001
7.456717e+002, 1.358346e+001
7.461538e+002, 1.361325e+001
7.466359e+002, 1.357944e+001
7.471180e+002, 1.346773e+001
7.476002e+002, 1.330432e+001
7.480823e+002, 1.317323e+001
7.485644e+002, 1.308259e+001
7.490465e+002, 1.305542e+001
7.495286e+002, 1.311547e+001
7.500107e+002, 1.323309e+001
7.504929e+002, 1.334367e+001
7.509750e+002, 1.347413e+001
7.514571e+002, 1.352814e+001
7.519392e+002, 1.343448e+001
7.524213e+002, 1.335018e+001
7.529034e+002, 1.334383e+001
7.533856e+002, 1.338142e+001
7.538677e+002, 1.341842e+001
7.543498e+002, 1.344331e+001
7.548319e+002, 1.345611e+001
7.553140e+002, 1.343344e+001
7.557961e+002, 1.341076e+001
7.562783e+002, 1.348738e+001
7.567604e+002, 1.363371e+001
7.572425e+002, 1.365239e+001
7.577246e+002, 1.346607e+001
7.582067e+002, 1.325195e+001
7.586888e+002, 1.322251e+001
7.591710e+002, 1.337620e+001
7.596531e+002, 1.350375e+001
7.601352e+002, 1.360881e+001
7.606173e+002, 1.367991e+001
7.610994e+002, 1.370785e+001
7.615815e+002, 1.371013e+001
7.620637e+002, 1.371399e+001
7.625458e+002, 1.370551e+001
7.630279e+002, 1.362206e+001
7.635100e+002, 1.337190e+001
7.639921e+002, 1.316559e+001
7.644742e+002, 1.324626e+001
7.649564e+002, 1.346702e+001
7.654385e+002, 1.353965e+001
7.659206e+002, 1.344603e+001
7.664027e+002, 1.336167e+001
7.668848e+002, 1.339795e+001
7.673669e+002, 1.351455e+001
7.678491e+002, 1.362758e+001
7.683312e+002, 1.375443e+001
7.688133e+002, 1.381069e+001
7.692954e+002, 1.376599e+001
7.697775e+002, 1.368976e+001
7.702596e+002, 1.355391e+001
7.707418e+002, 1.343277e+001
7.712239e+002, 1.344916e+001
7.717060e+002, 1.363100e+001
7.721881e+002, 1.378038e+001
7.726702e+002, 1.381465e+001
7.731523e+002, 1.379439e+001
7.736345e+002, 1.375289e+001
7.741166e+002, 1.369811e+001
7.745987e+002, 1.363124e+001
7.750808e+002, 1.355647e+001
7.755629e+002, 1.349864e+001
7.760450e+002, 1.348025e+001
7.765272e+002, 1.350094e+001
7.770093e+002, 1.357424e+001
7.774914e+002, 1.371909e+001
7.779735e+002, 1.380972e+001
7.784556e+002, 1.378970e+001
7.789377e+002, 1.375107e+001
7.794199e+002, 1.378109e+001
7.799020e+002, 1.386413e+001
7.803841e+002, 1.392269e+001
7.808662e+002, 1.396271e+001
7.813483e+002, 1.396481e+001
7.818304e+002, 1.387972e+001
7.823126e+002, 1.379161e+001
7.827947e+002, 1.379082e+001
7.832768e+002, 1.384537e+001
7.837589e+002, 1.385176e+001
7.842410e+002, 1.376124e+001
7.847231e+002, 1.365983e+001
7.852053e+002, 1.365986e+001
7.856874e+002, 1.373816e+001
7.861695e+002, 1.380583e+001
7.866516e+002, 1.385794e+001
7.871337e+002, 1.390766e+001
7.876158e+002, 1.396321e+001
7.880980e+002, 1.401226e+001
7.885801e+002, 1.403060e+001
7.890622e+002, 1.400757e+001
7.895443e+002, 1.402346e+001
7.900264e+002, 1.414783e+001
7.905085e+002, 1.422075e+001
7.909907e+002, 1.416531e+001
7.914728e+002, 1.407406e+001
7.919549e+002, 1.401755e+001
7.924370e+002, 1.400665e+001
7.929191e+002, 1.404123e+001
7.934012e+002, 1.415893e+001
7.938834e+002, 1.426359e+001
7.943655e+002, 1.424152e+001
7.948476e+002, 1.414106e+001
7.953297e+002, 1.405821e+001
7.958118e+002, 1.400817e+001
7.962939e+002, 1.397588e+001
7.967761e+002, 1.395119e+001
7.972582e+002, 1.393876e+001
7.977403e+002, 1.394850e+001
7.982224e+002, 1.397898e+001
7.987045e+002, 1.404631e+001
7.991866e+002, 1.422211e+001
7.996688e+002, 1.432333e+001
8.001509e+002, 1.416014e+001
8.006330e+002, 1.393066e+001
8.011151e+002, 1.389627e+001
8.015972e+002, 1.408805e+001
8.020793e+002, 1.424747e+001
8.025615e+002, 1.431493e+001
8.030436e+002, 1.431654e+001
8.035257e+002, 1.422225e+001
8.040078e+002, 1.409298e+001
8.044899e+002, 1.400651e+001
8.049720e+002, 1.398182e+001
8.054542e+002, 1.400828e+001
8.059363e+002, 1.408196e+001
8.064184e+002, 1.419388e+001
8.069005e+002, 1.435476e+001
8.073826e+002, 1.455828e+001
8.078647e+002, 1.464166e+001
8.083469e+002, 1.455391e+001
8.088290e+002, 1.445858e+001
8.093111e+002, 1.448603e+001
8.097932e+002, 1.457826e+001
8.102753e+002, 1.455171e+001
8.107574e+002, 1.429154e+001
8.112396e+002, 1.414708e+001
8.117217e+002, 1.421831e+001
8.122038e+002, 1.429009e+001
8.126859e+002, 1.425951e+001
8.131680e+002, 1.417985e+001
8.136501e+002, 1.410638e+001
8.141323e+002, 1.405577e+001
8.146144e+002, 1.408231e+001
8.150965e+002, 1.432108e+001
8.155786e+002, 1.457482e+001
8.160607e+002, 1.457603e+001
8.165428e+002, 1.440859e+001
8.170250e+002, 1.428939e+001
8.175071e+002, 1.427002e+001
8.179892e+002, 1.430004e+001
8.184713e+002, 1.434556e+001
8.189534e+002, 1.439115e+001
8.194355e+002, 1.437399e+001
8.199177e+002, 1.427659e+001
8.203998e+002, 1.419097e+001
8.208819e+002, 1.409559e+001
8.213640e+002, 1.406660e+001
8.218461e+002, 1.421977e+001
8.223282e+002, 1.444768e+001
8.228104e+002, 1.451912e+001
8.232925e+002, 1.436700e+001
8.237746e+002, 1.430148e+001
8.242567e+002, 1.448897e+001
8.247388e+002, 1.466673e+001
8.252209e+002, 1.464543e+001
8.257031e+002, 1.453656e+001
8.261852e+002, 1.453836e+001
8.266673e+002, 1.466971e+001
8.271494e+002, 1.473766e+001
8.276315e+002, 1.454237e+001
8.281136e+002, 1.425466e+001
8.285958e+002, 1.418955e+001
8.290779e+002, 1.429919e+001
8.295600e+002, 1.433437e+001
8.300421e+002, 1.424431e+001
8.305242e+002, 1.417556e+001
8.310063e+002, 1.424665e+001
8.314885e+002, 1.439900e+001
8.319706e+002, 1.444557e+001
8.324527e+002, 1.433142e+001
8.329348e+002, 1.425587e+001
8.334169e+002, 1.421001e+001
8.338990e+002, 1.421816e+001
8.343812e+002, 1.434224e+001
8.348633e+002, 1.449361e+001
8.353454e+002, 1.456002e+001
8.358275e+002, 1.452932e+001
8.363096e+002, 1.447676e+001
8.367917e+002, 1.439906e+001
8.372739e+002, 1.433673e+001
8.377560e+002, 1.431198e+001
8.382381e+002, 1.431976e+001
8.387202e+002, 1.436270e+001
8.392023e+002, 1.443254e+001
8.396844e+002, 1.450411e+001
8.401666e+002, 1.456628e+001
8.406487e+002, 1.460056e+001
8.411308e+002, 1.454549e+001
8.416129e+002, 1.442119e+001
8.420950e+002, 1.438557e+001
8.425771e+002, 1.446312e+001
8.430593e+002, 1.452255e+001
8.435414e+002, 1.448707e+001
8.440235e+002, 1.440416e+001
8.445056e+002, 1.436053e+001
8.449877e+002, 1.436415e+001
8.454698e+002, 1.436795e+001
8.459520e+002, 1.438071e+001
8.464341e+002, 1.438181e+001
8.469162e+002, 1.434442e+001
8.473983e+002, 1.431067e+001
8.478804e+002, 1.432788e+001
8.483625e+002, 1.438712e+001
8.488447e+002, 1.442741e+001
8.493268e+002, 1.440393e+001
8.498089e+002, 1.439742e+001
8.502910e+002, 1.450484e+001
8.507731e+002, 1.461922e+001
8.512552e+002, 1.459691e+001
8.517374e+002, 1.446149e+001
8.522195e+002, 1.432257e+001
8.527016e+002, 1.423055e+001
8.531837e+002, 1.417699e+001
8.536658e+002, 1.416687e+001
8.541479e+002, 1.418778e+001
8.546301e+002, 1.416339e+001
8.551122e+002, 1.409074e+001
8.555943e+002, 1.409058e+001
8.560764e+002, 1.422397e+001
8.565585e+002, 1.436389e+001
8.570406e+002, 1.435705e+001
8.575228e+002, 1.422385e+001
8.580049e+002, 1.421568e+001
8.584870e+002, 1.449419e+001
8.589691e+002, 1.462165e+001
8.594512e+002, 1.442107e+001
8.599333e+002, 1.420896e+001
8.604155e+002, 1.417037e+001
8.608976e+002, 1.423194e+001
8.613797e+002, 1.424432e+001
8.618618e+002, 1.417487e+001
8.623439e+002, 1.409624e+001
8.628260e+002, 1.401236e+001
8.633082e+002, 1.395592e+001
8.637903e+002, 1.397718e+001
8.642724e+002, 1.403516e+001
8.647545e+002, 1.406447e+001
8.652366e+002, 1.404895e+001
8.657188e+002, 1.400277e+001
8.662009e+002, 1.393006e+001
8.666830e+002, 1.384550e+001
8.671651e+002, 1.375976e+001
8.676472e+002, 1.368205e+001
8.681293e+002, 1.369063e+001
8.686115e+002, 1.380127e+001
8.690936e+002, 1.390064e+001
8.695757e+002, 1.392214e+001
8.700578e+002, 1.388747e+001
8.705399e+002, 1.383931e+001
8.710220e+002, 1.377772e+001
8.715042e+002, 1.369888e+001
8.719863e+002, 1.356127e+001
8.724684e+002, 1.347386e+001
8.729505e+002, 1.353813e+001
8.734326e+002, 1.361666e+001
8.739147e+002, 1.357207e+001
8.743969e+002, 1.342350e+001
8.748790e+002, 1.331246e+001
8.753611e+002, 1.328452e+001
8.758432e+002, 1.327135e+001
8.763253e+002, 1.327560e+001
8.768074e+002, 1.326253e+001
8.772896e+002, 1.315970e+001
8.777717e+002, 1.302141e+001
8.782538e+002, 1.298629e+001
8.787359e+002, 1.310359e+001
8.792180e+002, 1.324385e+001
8.797001e+002, 1.330750e+001
8.801823e+002, 1.330348e+001
8.806644e+002, 1.322634e+001
8.811465e+002, 1.309332e+001
8.816286e+002, 1.296984e+001
8.821107e+002, 1.287405e+001
8.825928e+002, 1.281064e+001
8.830750e+002, 1.279000e+001
8.835571e+002, 1.279444e+001
8.840392e+002, 1.275839e+001
8.845213e+002, 1.267114e+001
8.850034e+002, 1.260263e+001
8.854855e+002, 1.254734e+001
8.859677e+002, 1.254411e+001
8.864498e+002, 1.267018e+001
8.869319e+002, 1.281762e+001
8.874140e+002, 1.276746e+001
8.878961e+002, 1.246784e+001
8.883782e+002, 1.231955e+001
8.888604e+002, 1.246222e+001
8.893425e+002, 1.259094e+001
8.898246e+002, 1.261690e+001
8.903067e+002, 1.259941e+001
8.907888e+002, 1.260955e+001
8.912709e+002, 1.262592e+001
8.917531e+002, 1.255437e+001
8.922352e+002, 1.233042e+001
8.927173e+002, 1.211605e+001
8.931994e+002, 1.201497e+001
8.936815e+002, 1.198843e+001
8.941636e+002, 1.202922e+001
8.946458e+002, 1.210087e+001
8.951279e+002, 1.210801e+001
8.956100e+002, 1.202754e+001
8.960921e+002, 1.195581e+001
8.965742e+002, 1.199884e+001
8.970563e+002, 1.210505e+001
8.975385e+002, 1.213778e+001
8.980206e+002, 1.210104e+001
8.985027e+002, 1.204459e+001
8.989848e+002, 1.197539e+001
8.994669e+002, 1.190416e+001
8.999490e+002, 1.183666e+001
9.004312e+002, 1.177227e+001
9.009133e+002, 1.170769e+001
9.013954e+002, 1.163920e+001
9.018775e+002, 1.158469e+001
9.023596e+002, 1.151584e+001
9.028417e+002, 1.151136e+001
9.033239e+002, 1.170185e+001
9.038060e+002, 1.188014e+001
9.042881e+002, 1.179013e+001
9.047702e+002, 1.148764e+001
9.052523e+002, 1.133723e+001
9.057344e+002, 1.153118e+001
9.062166e+002, 1.166017e+001
9.066987e+002, 1.154834e+001
9.071808e+002, 1.141286e+001
9.076629e+002, 1.143898e+001
9.081450e+002, 1.154736e+001
9.086271e+002, 1.155713e+001
9.091093e+002, 1.142574e+001
9.095914e+002, 1.131396e+001
9.100735e+002, 1.136618e+001
9.105556e+002, 1.146558e+001
9.110377e+002, 1.149781e+001
9.115198e+002, 1.147394e+001
9.120020e+002, 1.139099e+001
9.124841e+002, 1.126835e+001
9.129662e+002, 1.120749e+001
9.134483e+002, 1.128134e+001
9.139304e+002, 1.138643e+001
9.144125e+002, 1.130346e+001
9.148947e+002, 1.107098e+001
9.153768e+002, 1.103439e+001
9.158589e+002, 1.121886e+001
9.163410e+002, 1.134020e+001
9.168231e+002, 1.128742e+001
9.173052e+002, 1.116207e+001
9.177874e+002, 1.106714e+001
9.182695e+002, 1.100368e+001
9.187516e+002, 1.099410e+001
9.192337e+002, 1.109608e+001
9.197158e+002, 1.110717e+001
9.201979e+002, 1.089892e+001
9.206801e+002, 1.073819e+001
9.211622e+002, 1.085851e+001
9.216443e+002, 1.108400e+001
9.221264e+002, 1.110976e+001
9.226085e+002, 1.088811e+001
9.230906e+002, 1.075424e+001
9.235728e+002, 1.084534e+001
9.240549e+002, 1.091807e+001
9.245370e+002, 1.083226e+001
9.250191e+002, 1.072565e+001
9.255012e+002, 1.076224e+001
9.259833e+002, 1.089948e+001
9.264655e+002, 1.095609e+001
9.269476e+002, 1.084337e+001
9.274297e+002, 1.072951e+001
9.279118e+002, 1.075365e+001
9.283939e+002, 1.081964e+001
9.288760e+002, 1.080375e+001
9.293582e+002, 1.074434e+001
9.298403e+002, 1.075964e+001
9.303224e+002, 1.086743e+001
9.308045e+002, 1.095360e+001
9.312866e+002, 1.091820e+001
9.317687e+002, 1.082336e+001
9.322509e+002, 1.078858e+001
9.327330e+002, 1.079840e+001
9.332151e+002, 1.078036e+001
9.336972e+002, 1.072750e+001
9.341793e+002, 1.067292e+001
9.346614e+002, 1.063365e+001
9.351436e+002, 1.059357e+001
9.356257e+002, 1.051599e+001
9.361078e+002, 1.040767e+001
9.365899e+002, 1.043257e+001
9.370720e+002, 1.063839e+001
9.375541e+002, 1.078112e+001
9.380363e+002, 1.079763e+001
9.385184e+002, 1.076802e+001
9.390005e+002, 1.074569e+001
9.394826e+002, 1.072118e+001
9.399647e+002, 1.065034e+001
9.404468e+002, 1.043273e+001
9.409290e+002, 1.044668e+001
9.414111e+002, 1.101622e+001
9.418932e+002, 1.139879e+001
9.423753e+002, 1.126823e+001
9.428574e+002, 1.094817e+001
9.433395e+002, 1.068402e+001
9.438217e+002, 1.050091e+001
9.443038e+002, 1.042291e+001
9.447859e+002, 1.051674e+001
9.452680e+002, 1.059589e+001
9.457501e+002, 1.059047e+001
9.462322e+002, 1.054903e+001
9.467144e+002, 1.048694e+001
9.471965e+002, 1.042399e+001
9.476786e+002, 1.038922e+001
9.481607e+002, 1.038628e+001
9.486428e+002, 1.038654e+001
9.491249e+002, 1.036736e+001
9.496071e+002, 1.034921e+001
9.500892e+002, 1.036026e+001
9.505713e+002, 1.038314e+001
9.510534e+002, 1.037883e+001
9.515355e+002, 1.035522e+001
9.520176e+002, 1.037150e+001
9.524998e+002, 1.045269e+001
9.529819e+002, 1.051828e+001
9.534640e+002, 1.045117e+001
9.539461e+002, 1.030152e+001
9.544282e+002, 1.021335e+001
9.549103e+002, 1.018473e+001
9.553925e+002, 1.021578e+001
9.558746e+002, 1.030687e+001
9.563567e+002, 1.039004e+001
9.568388e+002, 1.041979e+001
9.573209e+002, 1.040510e+001
9.578030e+002, 1.034725e+001
9.582852e+002, 1.023442e+001
9.587673e+002, 1.023621e+001
9.592494e+002, 1.039844e+001
9.597315e+002, 1.048797e+001
9.602136e+002, 1.041162e+001
9.606957e+002, 1.028153e+001
9.611779e+002, 1.018821e+001
9.616600e+002, 1.013486e+001
9.621421e+002, 1.014546e+001
9.626242e+002, 1.029590e+001
9.631063e+002, 1.035839e+001
9.635884e+002, 1.024848e+001
9.640706e+002, 1.015436e+001
9.645527e+002, 1.016155e+001
9.650348e+002, 1.020896e+001
9.655169e+002, 1.022485e+001
9.659990e+002, 1.021117e+001
9.664811e+002, 1.022586e+001
9.669633e+002, 1.032543e+001
9.674454e+002, 1.038496e+001
9.679275e+002, 1.036111e+001
9.684096e+002, 1.030382e+001
9.688917e+002, 1.019891e+001
9.693738e+002, 1.010421e+001
9.698560e+002, 1.014040e+001
9.703381e+002, 1.032324e+001
9.708202e+002, 1.043862e+001
9.713023e+002, 1.031968e+001
9.717844e+002, 1.017461e+001
9.722665e+002, 1.013236e+001
9.727487e+002, 1.014704e+001
9.732308e+002, 1.018890e+001
9.737129e+002, 1.023345e+001
9.741950e+002, 1.022701e+001
9.746771e+002, 1.014930e+001
9.751592e+002, 1.008224e+001
9.756414e+002, 1.012029e+001
9.761235e+002, 1.019710e+001
9.766056e+002, 1.024121e+001
9.770877e+002, 1.024244e+001
9.775698e+002, 1.013970e+001
9.780519e+002, 9.953837e+000
9.785341e+002, 9.848483e+000
9.790162e+002, 9.924972e+000
9.794983e+002, 1.007858e+001
9.799804e+002, 1.017103e+001
9.804625e+002, 1.021077e+001
9.809446e+002, 1.022319e+001
9.814268e+002, 1.021120e+001
9.819089e+002, 1.019598e+001
9.823910e+002, 1.018315e+001
9.828731e+002, 1.017341e+001
9.833552e+002, 1.016999e+001
9.838373e+002, 1.016213e+001
9.843195e+002, 1.010557e+001
9.848016e+002, 9.994352e+000
9.852837e+002, 9.988201e+000
9.857658e+002, 1.011953e+001
9.862479e+002, 1.019040e+001
9.867300e+002, 1.011104e+001
9.872122e+002, 1.001087e+001
9.876943e+002, 1.002571e+001
9.881764e+002, 1.013063e+001
9.886585e+002, 1.018633e+001
9.891406e+002, 1.016759e+001
9.896227e+002, 1.017523e+001
9.901049e+002, 1.023569e+001
9.905870e+002, 1.028087e+001
9.910691e+002, 1.027326e+001
9.915512e+002, 1.024646e+001
9.920333e+002, 1.024978e+001
9.925154e+002, 1.028082e+001
9.929976e+002, 1.026168e+001
9.934797e+002, 1.013135e+001
9.939618e+002, 1.004411e+001
9.944439e+002, 1.002361e+001
9.949260e+002, 1.002948e+001
9.954081e+002, 1.007722e+001
9.958903e+002, 1.012087e+001
9.963724e+002, 1.007306e+001
9.968545e+002, 9.932533e+000
9.973366e+002, 9.874762e+000
9.978187e+002, 1.003206e+001
9.983008e+002, 1.013953e+001
9.987830e+002, 1.005534e+001
9.992651e+002, 9.960870e+000
9.997472e+002, 9.995550e+000
1.000229e+003, 1.011067e+001
1.000711e+003, 1.022474e+001
1.001194e+003, 1.031905e+001
1.001676e+003, 1.035159e+001
1.002158e+003, 1.024296e+001
1.002640e+003, 1.014056e+001
1.003122e+003, 1.014733e+001
1.003604e+003, 1.018906e+001
1.004086e+003, 1.017293e+001
1.004568e+003, 1.012747e+001
1.005050e+003, 1.016717e+001
1.005533e+003, 1.032414e+001
1.006015e+003, 1.040862e+001
1.006497e+003, 1.019993e+001
1.006979e+003, 9.944674e+000
1.007461e+003, 9.909643e+000
1.007943e+003, 9.973756e+000
1.008425e+003, 9.912056e+000
1.008907e+003, 9.757591e+000
1.009390e+003, 9.737215e+000
1.009872e+003, 9.946330e+000
1.010354e+003, 1.018302e+001
1.010836e+003, 1.023797e+001
1.011318e+003, 1.020361e+001
1.011800e+003, 1.022737e+001
1.012282e+003, 1.028442e+001
1.012764e+003, 1.030446e+001
1.013246e+003, 1.028475e+001
1.013729e+003, 1.029002e+001
1.014211e+003, 1.035626e+001
1.014693e+003, 1.040405e+001
1.015175e+003, 1.028982e+001
1.015657e+003, 1.008575e+001
1.016139e+003, 1.001962e+001
1.016621e+003, 1.006385e+001
1.017103e+003, 1.007426e+001
1.017586e+003, 1.002482e+001
1.018068e+003, 9.973609e+000
1.018550e+003, 9.955662e+000
1.019032e+003, 9.964099e+000
1.019514e+003, 9.992729e+000
1.019996e+003, 1.003886e+001
1.020478e+003, 1.008910e+001
1.020960e+003, 1.014277e+001
1.021442e+003, 1.015617e+001
1.021925e+003, 1.011585e+001
1.022407e+003, 1.010043e+001
1.022889e+003, 1.017149e+001
1.023371e+003, 1.027433e+001
1.023853e+003, 1.029057e+001
1.024335e+003, 1.021901e+001
1.024817e+003, 1.019931e+001
1.025299e+003, 1.024340e+001
1.025781e+003, 1.023710e+001
1.026264e+003, 1.013574e+001
1.026746e+003, 1.005291e+001
1.027228e+003, 1.008100e+001
1.027710e+003, 1.017138e+001
1.028192e+003, 1.020532e+001
1.028674e+003, 1.017203e+001
1.029156e+003, 1.017566e+001
1.029638e+003, 1.024610e+001
1.030120e+003, 1.024069e+001
1.030603e+003, 1.007752e+001
1.031085e+003, 9.935256e+000
1.031567e+003, 9.972658e+000
1.032049e+003, 1.011559e+001
1.032531e+003, 1.015845e+001
1.033013e+003, 1.005849e+001
1.033495e+003, 1.006028e+001
1.033977e+003, 1.023763e+001
1.034460e+003, 1.035899e+001
1.034942e+003, 1.034934e+001
1.035424e+003, 1.029289e+001
1.035906e+003, 1.025258e+001
1.036388e+003, 1.021598e+001
1.036870e+003, 1.013503e+001
1.037352e+003, 9.957831e+000
1.037834e+003, 9.922173e+000
1.038317e+003, 1.017857e+001
1.038799e+003, 1.034412e+001
1.039281e+003, 1.025072e+001
1.039763e+003, 1.011848e+001
1.040245e+003, 1.011298e+001
1.040727e+003, 1.019810e+001
1.041209e+003, 1.027867e+001
1.041691e+003, 1.037316e+001
1.042173e+003, 1.040322e+001
1.042656e+003, 1.031281e+001
1.043138e+003, 1.023201e+001
1.043620e+003, 1.020578e+001
1.044102e+003, 1.018779e+001
1.044584e+003, 1.013341e+001
1.045066e+003, 1.006131e+001
1.045548e+003, 1.002597e+001
1.046030e+003, 1.004541e+001
1.046512e+003, 1.004337e+001
1.046995e+003, 9.952213e+000
1.047477e+003, 9.917358e+000
1.047959e+003, 1.007707e+001
1.048441e+003, 1.022257e+001
1.048923e+003, 1.014505e+001
1.049405e+003, 9.933739e+000
1.049887e+003, 9.818171e+000
1.050369e+003, 9.843756e+000
1.050852e+003, 9.868159e+000
1.051334e+003, 9.832541e+000
1.051816e+003, 9.833146e+000
1.052298e+003, 9.963525e+000
1.052780e+003, 1.008851e+001
1.053262e+003, 1.007247e+001
1.053744e+003, 9.971673e+000
1.054226e+003, 9.933486e+000
1.054708e+003, 9.992825e+000
1.055191e+003, 1.001575e+001
1.055673e+003, 9.928303e+000
1.056155e+003, 9.847776e+000
1.056637e+003, 9.830242e+000
1.057119e+003, 9.828412e+000
1.057601e+003, 9.781868e+000
1.058083e+003, 9.726082e+000
1.058565e+003, 9.759851e+000
1.059047e+003, 9.909207e+000
1.059530e+003, 9.992941e+000
1.060012e+003, 9.914852e+000
1.060494e+003, 9.805807e+000
1.060976e+003, 9.679939e+000
1.061458e+003, 9.584119e+000
1.061940e+003, 9.545529e+000
1.062422e+003, 9.568495e+000
1.062904e+003, 9.689942e+000
1.063387e+003, 9.914224e+000
1.063869e+003, 1.003853e+001
1.064351e+003, 9.900863e+000
1.064833e+003, 9.760205e+000
1.065315e+003, 9.745636e+000
1.065797e+003, 9.763178e+000
1.066279e+003, 9.724799e+000
1.066761e+003, 9.663745e+000
1.067244e+003, 9.676422e+000
1.067726e+003, 9.769308e+000
1.068208e+003, 9.775104e+000
1.068690e+003, 9.491638e+000
1.069172e+003, 9.287614e+000
1.069654e+003, 9.409511e+000
1.070136e+003, 9.602114e+000
1.070618e+003, 9.689729e+000
1.071100e+003, 9.688283e+000
1.071583e+003, 9.618744e+000
1.072065e+003, 9.502276e+000
1.072547e+003, 9.448785e+000
1.073029e+003, 9.567731e+000
1.073511e+003, 9.645329e+000
1.073993e+003, 9.498952e+000
1.074475e+003, 9.353802e+000
1.074957e+003, 9.424327e+000
1.075439e+003, 9.588331e+000
1.075922e+003, 9.665030e+000
1.076404e+003, 9.632044e+000
1.076886e+003, 9.554403e+000
1.077368e+003, 9.432076e+000
1.077850e+003, 9.324190e+000
1.078332e+003, 9.231427e+000
1.078814e+003, 9.190217e+000
1.079297e+003, 9.268186e+000
1.079779e+003, 9.388030e+000
1.080261e+003, 9.458668e+000
1.080743e+003, 9.470513e+000
1.081225e+003, 9.439237e+000
1.081707e+003, 9.347925e+000
1.082189e+003, 9.289667e+000
1.082671e+003, 9.352663e+000
1.083153e+003, 9.411459e+000
1.083635e+003, 9.373627e+000
1.084118e+003, 9.294433e+000
1.084600e+003, 9.234096e+000
1.085082e+003, 9.196142e+000
1.085564e+003, 9.157817e+000
1.086046e+003, 9.105076e+000
1.086528e+003, 9.094422e+000
1.087010e+003, 9.223637e+000
1.087492e+003, 9.312957e+000
1.087975e+003, 9.210853e+000
1.088457e+003, 9.061298e+000
1.088939e+003, 9.000165e+000
1.089421e+003, 9.019862e+000
1.089903e+003, 9.068302e+000
1.090385e+003, 9.135528e+000
1.090867e+003, 9.205091e+000
1.091349e+003, 9.303306e+000
1.091832e+003, 9.360274e+000
1.092314e+003, 9.311192e+000
1.092796e+003, 9.236835e+000
1.093278e+003, 9.196639e+000
1.093760e+003, 9.186972e+000
1.094242e+003, 9.195798e+000
1.094724e+003, 9.220212e+000
1.095206e+003, 9.233566e+000
1.095688e+003, 9.248463e+000
1.096171e+003, 9.221462e+000
1.096653e+003, 9.063954e+000
1.097135e+003, 8.935322e+000
1.097617e+003, 8.976624e+000
1.098099e+003, 9.101074e+000
1.098581e+003, 9.179231e+000
1.099063e+003, 9.198668e+000
1.099545e+003, 9.211428e+000
1.100027e+003, 9.265064e+000
1.100510e+003, 9.254311e+000
1.100992e+003, 9.081864e+000
1.101474e+003, 8.919027e+000
1.101956e+003, 8.849351e+000
1.102438e+003, 8.846046e+000
1.102920e+003, 8.896437e+000
1.103402e+003, 8.983674e+000
1.103884e+003, 9.044950e+000
1.104367e+003, 9.065321e+000
1.104849e+003, 9.072194e+000
1.105331e+003, 9.063999e+000
1.105813e+003, 9.050835e+000
1.106295e+003, 9.045609e+000
1.106777e+003, 9.029318e+000
1.107259e+003, 8.964042e+000
1.107741e+003, 8.876207e+000
1.108224e+003, 8.850913e+000
1.108706e+003, 8.922903e+000
1.109188e+003, 8.943824e+000
1.109670e+003, 8.849271e+000
1.110152e+003, 8.774188e+000
1.110634e+003, 8.746709e+000
1.111116e+003, 8.750903e+000
1.111598e+003, 8.800898e+000
1.112080e+003, 8.865605e+000
1.112563e+003, 8.880752e+000
1.113045e+003, 8.838001e+000
1.113527e+003, 8.816375e+000
1.114009e+003, 8.817046e+000
1.114491e+003, 8.837303e+000
1.114973e+003, 8.889109e+000
1.115455e+003, 8.945678e+000
1.115937e+003, 9.022490e+000
1.116419e+003, 9.072273e+000
1.116902e+003, 9.008709e+000
1.117384e+003, 8.847579e+000
1.117866e+003, 8.780710e+000
1.118348e+003, 8.859376e+000
1.118830e+003, 8.913547e+000
1.119312e+003, 8.933135e+000
1.119794e+003, 8.935532e+000
1.120276e+003, 8.913438e+000
1.120759e+003, 8.899933e+000
1.121241e+003, 8.942369e+000
1.121723e+003, 9.009347e+000
1.122205e+003, 8.976050e+000
1.122687e+003, 8.794551e+000
1.123169e+003, 8.748663e+000
1.123651e+003, 8.896114e+000
1.124133e+003, 8.980158e+000
1.124615e+003, 8.916805e+000
1.125098e+003, 8.843773e+000
1.125580e+003, 8.864593e+000
1.126062e+003, 8.917149e+000
1.126544e+003, 8.863101e+000
1.127026e+003, 8.707681e+000
1.127508e+003, 8.726566e+000
1.127990e+003, 8.953769e+000
1.128472e+003, 9.057357e+000
1.128954e+003, 8.977072e+000
1.129437e+003, 8.828187e+000
1.129919e+003, 8.648094e+000
1.130401e+003, 8.532046e+000
1.130883e+003, 8.620548e+000
1.131365e+003, 8.843702e+000
1.131847e+003, 8.909801e+000
1.132329e+003, 8.827719e+000
1.132811e+003, 8.759851e+000
1.133294e+003, 8.718708e+000
1.133776e+003, 8.694118e+000
1.134258e+003, 8.682604e+000
1.134740e+003, 8.706735e+000
1.135222e+003, 8.794147e+000
1.135704e+003, 8.891657e+000
1.136186e+003, 8.883896e+000
1.136668e+003, 8.796518e+000
1.137151e+003, 8.724994e+000
1.137633e+003, 8.671002e+000
1.138115e+003, 8.617387e+000
1.138597e+003, 8.566901e+000
1.139079e+003, 8.574375e+000
1.139561e+003, 8.672234e+000
1.140043e+003, 8.771026e+000
1.140525e+003, 8.744311e+000
1.141007e+003, 8.659023e+000
1.141490e+003, 8.648747e+000
1.141972e+003, 8.678580e+000
1.142454e+003, 8.656432e+000
1.142936e+003, 8.595341e+000
1.143418e+003, 8.578176e+000
1.143900e+003, 8.632165e+000
1.144382e+003, 8.729122e+000
1.144864e+003, 8.888069e+000
1.145346e+003, 8.999415e+000
1.145829e+003, 8.900329e+000
1.146311e+003, 8.720312e+000
1.146793e+003, 8.580117e+000
1.147275e+003, 8.508066e+000
1.147757e+003, 8.567647e+000
1.148239e+003, 8.731631e+000
1.148721e+003, 8.847162e+000
1.149203e+003, 8.842313e+000
1.149686e+003, 8.797226e+000
1.150168e+003, 8.748845e+000
1.150650e+003, 8.695367e+000
1.151132e+003, 8.588291e+000
1.151614e+003, 8.511748e+000
1.152096e+003, 8.608092e+000
1.152578e+003, 8.804451e+000
1.153060e+003, 8.901587e+000
1.153542e+003, 8.851903e+000
1.154025e+003, 8.805564e+000
1.154507e+003, 8.824575e+000
1.154989e+003, 8.840516e+000
1.155471e+003, 8.844602e+000
1.155953e+003, 8.821726e+000
1.156435e+003, 8.741164e+000
1.156917e+003, 8.640388e+000
1.157399e+003, 8.556934e+000
1.157881e+003, 8.498346e+000
1.158364e+003, 8.497417e+000
1.158846e+003, 8.625469e+000
1.159328e+003, 8.680857e+000
1.159810e+003, 8.604954e+000
1.160292e+003, 8.515446e+000
1.160774e+003, 8.402703e+000
1.161256e+003, 8.336285e+000
1.161738e+003, 8.386837e+000
1.162221e+003, 8.516926e+000
1.162703e+003, 8.645365e+000
1.163185e+003, 8.779607e+000
1.163667e+003, 8.847830e+000
1.164149e+003, 8.834315e+000
1.164631e+003, 8.795409e+000
1.165113e+003, 8.725435e+000
1.165595e+003, 8.673510e+000
1.166078e+003, 8.671909e+000
1.166560e+003, 8.676153e+000
1.167042e+003, 8.617962e+000
1.167524e+003, 8.528577e+000
1.168006e+003, 8.586957e+000
1.168488e+003, 8.803501e+000
1.168970e+003, 8.853078e+000
1.169452e+003, 8.713584e+000
1.169934e+003, 8.597180e+000
1.170417e+003, 8.564591e+000
1.170899e+003, 8.582257e+000
1.171381e+003, 8.630924e+000
1.171863e+003, 8.682856e+000
1.172345e+003, 8.686701e+000
1.172827e+003, 8.655998e+000
1.173309e+003, 8.626095e+000
1.173791e+003, 8.605025e+000
1.174273e+003, 8.635837e+000
1.174756e+003, 8.712139e+000
1.175238e+003, 8.776451e+000
1.175720e+003, 8.805643e+000
1.176202e+003, 8.808859e+000
1.176684e+003, 8.780546e+000
1.177166e+003, 8.757193e+000
1.177648e+003, 8.808823e+000
1.178130e+003, 8.877295e+000
1.178613e+003, 8.860155e+000
1.179095e+003, 8.798258e+000
1.179577e+003, 8.793892e+000
1.180059e+003, 8.848191e+000
1.180541e+003, 8.876535e+000
1.181023e+003, 8.840397e+000
1.181505e+003, 8.788213e+000
1.181987e+003, 8.723102e+000
1.182469e+003, 8.682951e+000
1.182952e+003, 8.740325e+000
1.183434e+003, 8.793209e+000
1.183916e+003, 8.677262e+000
1.184398e+003, 8.504464e+000
1.184880e+003, 8.527842e+000
1.185362e+003, 8.776919e+000
1.185844e+003, 8.986545e+000
1.186326e+003, 9.155217e+000
1.186808e+003, 9.186780e+000
1.187291e+003, 8.897862e+000
1.187773e+003, 8.673075e+000
1.188255e+003, 8.754655e+000
1.188737e+003, 8.912467e+000
1.189219e+003, 8.929765e+000
1.189701e+003, 8.844609e+000
1.190183e+003, 8.768645e+000
1.190665e+003, 8.693657e+000
1.191148e+003, 8.680176e+000
1.191630e+003, 8.784913e+000
1.192112e+003, 8.775916e+000
1.192594e+003, 8.557934e+000
1.193076e+003, 8.394579e+000
1.193558e+003, 8.434354e+000
1.194040e+003, 8.560255e+000
1.194522e+003, 8.625381e+000
1.195005e+003, 8.648330e+000
1.195487e+003, 8.708627e+000
1.195969e+003, 8.804401e+000
1.196451e+003, 8.911716e+000
1.196933e+003, 9.024793e+000
1.197415e+003, 9.030459e+000
1.197897e+003, 8.906955e+000
1.198379e+003, 8.836023e+000
1.198861e+003, 8.939974e+000
1.199344e+003, 9.067391e+000
1.199826e+003, 8.993258e+000
1.200308e+003, 8.810770e+000
1.200790e+003, 8.678341e+000
1.201272e+003, 8.602558e+000
1.201754e+003, 8.636277e+000
1.202236e+003, 8.735503e+000
1.202718e+003, 8.748578e+000
1.203200e+003, 8.648251e+000
1.203683e+003, 8.584470e+000
1.204165e+003, 8.661566e+000
1.204647e+003, 8.759675e+000
1.205129e+003, 8.822840e+000
1.205611e+003, 8.832769e+000
1.206093e+003, 8.699848e+000
1.206575e+003, 8.558947e+000
1.207057e+003, 8.622213e+000
1.207540e+003, 8.812457e+000
1.208022e+003, 8.865337e+000
1.208504e+003, 8.713710e+000
1.208986e+003, 8.615832e+000
1.209468e+003, 8.687774e+000
1.209950e+003, 8.736689e+000
1.210432e+003, 8.692007e+000
1.210914e+003, 8.648013e+000
1.211396e+003, 8.641082e+000
1.211879e+003, 8.669318e+000
1.212361e+003, 8.756967e+000
1.212843e+003, 8.874223e+000
1.213325e+003, 8.891406e+000
1.213807e+003, 8.774716e+000
1.214289e+003, 8.723430e+000
1.214771e+003, 8.752475e+000
1.215253e+003, 8.790897e+000
1.215735e+003, 8.829546e+000
1.216218e+003, 8.854806e+000
1.216700e+003, 8.861447e+000
1.217182e+003, 8.836776e+000
1.217664e+003, 8.753291e+000
1.218146e+003, 8.643729e+000
1.218628e+003, 8.621339e+000
1.219110e+003, 8.667026e+000
1.219592e+003, 8.672583e+000
1.220075e+003, 8.646170e+000
1.220557e+003, 8.675354e+000
1.221039e+003, 8.769734e+000
1.221521e+003, 8.854565e+000
1.222003e+003, 8.889776e+000
1.222485e+003, 8.870864e+000
1.222967e+003, 8.749363e+000
1.223449e+003, 8.615401e+000
1.223932e+003, 8.565886e+000
1.224414e+003, 8.572497e+000
1.224896e+003, 8.619974e+000
1.225378e+003, 8.683764e+000
1.225860e+003, 8.726664e+000
1.226342e+003, 8.743762e+000
1.226824e+003, 8.755417e+000
1.227306e+003, 8.781879e+000
1.227788e+003, 8.765582e+000
1.228271e+003, 8.618519e+000
1.228753e+003, 8.514380e+000
1.229235e+003, 8.568845e+000
1.229717e+003, 8.654926e+000
1.230199e+003, 8.633926e+000
1.230681e+003, 8.594337e+000
1.231163e+003, 8.733577e+000
1.231645e+003, 9.044455e+000
1.232127e+003, 9.186088e+000
1.232610e+003, 9.088934e+000
1.233092e+003, 9.039290e+000
1.233574e+003, 9.071197e+000
1.234056e+003, 9.045954e+000
1.234538e+003, 8.875446e+000
1.235020e+003, 8.897129e+000
1.235502e+003, 9.420678e+000
1.235984e+003, 1.001625e+001
1.236467e+003, 9.857980e+000
1.236949e+003, 9.165507e+000
1.237431e+003, 8.879389e+000
1.237913e+003, 8.912198e+000
1.238395e+003, 8.868991e+000
1.238877e+003, 8.742368e+000
1.239359e+003, 8.746098e+000
1.239841e+003, 8.922216e+000
1.240323e+003, 9.071519e+000
1.240806e+003, 9.065305e+000
1.241288e+003, 8.992990e+000
1.241770e+003, 8.892869e+000
1.242252e+003, 8.817072e+000
1.242734e+003, 8.842269e+000
1.243216e+003, 8.902234e+000
1.243698e+003, 8.928622e+000
1.244180e+003, 8.915787e+000
1.244662e+003, 8.859853e+000
1.245145e+003, 8.765647e+000
1.245627e+003, 8.694601e+000
1.246109e+003, 8.663916e+000
1.246591e+003, 8.655222e+000
1.247073e+003, 8.660723e+000
1.247555e+003, 8.695200e+000
1.248037e+003, 8.773906e+000
1.248519e+003, 8.873126e+000
1.249002e+003, 9.010183e+000
1.249484e+003, 9.119654e+000
1.249966e+003, 9.040574e+000
1.250448e+003, 8.799686e+000
1.250930e+003, 8.929099e+000
1.251412e+003, 9.493937e+000
1.251894e+003, 9.673440e+000
1.252376e+003, 9.392039e+000
1.252859e+003, 9.120698e+000
1.253341e+003, 9.002842e+000
1.253823e+003, 8.967625e+000
1.254305e+003, 8.972244e+000
1.254787e+003, 8.979854e+000
1.255269e+003, 8.920300e+000
1.255751e+003, 8.843670e+000
1.256233e+003, 8.847832e+000
1.256715e+003, 8.901129e+000
1.257198e+003, 8.958710e+000
1.257680e+003, 9.008274e+000
1.258162e+003, 9.035923e+000
1.258644e+003, 9.041697e+000
1.259126e+003, 9.041601e+000
1.259608e+003, 9.040711e+000
1.260090e+003, 9.041320e+000
1.260572e+003, 9.075319e+000
1.261054e+003, 9.070627e+000
1.261537e+003, 8.917808e+000
1.262019e+003, 8.789701e+000
1.262501e+003, 8.851744e+000
1.262983e+003, 9.005160e+000
1.263465e+003, 9.101204e+000
1.263947e+003, 9.139889e+000
1.264429e+003, 9.126081e+000
1.264911e+003, 9.024759e+000
1.265394e+003, 9.000182e+000
1.265876e+003, 9.077335e+000
1.266358e+003, 9.112851e+000
1.266840e+003, 9.065504e+000
1.267322e+003, 9.046113e+000
1.267804e+003, 9.119865e+000
1.268286e+003, 9.213265e+000
1.268768e+003, 9.242967e+000
1.269250e+003, 9.217388e+000
1.269733e+003, 9.109783e+000
1.270215e+003, 8.981939e+000
1.270697e+003, 9.022373e+000
1.271179e+003, 9.168811e+000
1.271661e+003, 9.236256e+000
1.272143e+003, 9.210463e+000
1.272625e+003, 9.180649e+000
1.273107e+003, 9.180429e+000
1.273589e+003, 9.198340e+000
1.274072e+003, 9.263495e+000
1.274554e+003, 9.294933e+000
1.275036e+003, 9.205669e+000
1.275518e+003, 9.122276e+000
1.276000e+003, 9.168979e+000
1.276482e+003, 9.234595e+000
1.276964e+003, 9.153062e+000
1.277446e+003, 8.990289e+000
1.277929e+003, 8.974752e+000
1.278411e+003, 9.126925e+000
1.278893e+003, 9.218228e+000
1.279375e+003, 9.242688e+000
1.279857e+003, 9.217359e+000
1.280339e+003, 9.126369e+000
1.280821e+003, 9.087811e+000
1.281303e+003, 9.148685e+000
1.281786e+003, 9.234823e+000
1.282268e+003, 9.290592e+000
##END=



