##NAMES=Creaseyite
##RRUFFID=R130418
##IDEAL CHEMISTRY=Cu^2+^_2_Pb^2+^_2_Fe^3+^_2_Si_5_O_17_&#183;6H_2_O
##LOCALITY=Navojoa, Municipio de Navojoa, Sonora, Mexico
##OWNER=RRUFF
##SOURCE=Bob Jenkins
##DESCRIPTION=Pale-green acicular crystals on quartz
##STATUS=The identification of this mineral has been confirmed by single-crystal X-ray diffraction.
##URL=rruff.info/R130418
8.930109e+001, 0.000000e+000
8.978320e+001, 2.136240e+003
9.026532e+001, 2.114738e+003
9.074744e+001, 2.112661e+003
9.122955e+001, 2.134934e+003
9.171167e+001, 2.172359e+003
9.219379e+001, 2.217851e+003
9.267590e+001, 2.270799e+003
9.315802e+001, 2.317646e+003
9.364014e+001, 2.341795e+003
9.412225e+001, 2.351280e+003
9.460437e+001, 2.367984e+003
9.508649e+001, 2.400483e+003
9.556860e+001, 2.440777e+003
9.605072e+001, 2.475723e+003
9.653284e+001, 2.507789e+003
9.701495e+001, 2.532696e+003
9.749707e+001, 2.546727e+003
9.797919e+001, 2.550180e+003
9.846130e+001, 2.542776e+003
9.894342e+001, 2.523158e+003
9.942554e+001, 2.492153e+003
9.990765e+001, 2.458503e+003
1.003898e+002, 2.422033e+003
1.008719e+002, 2.383106e+003
1.013540e+002, 2.340487e+003
1.018361e+002, 2.291500e+003
1.023182e+002, 2.247148e+003
1.028004e+002, 2.210428e+003
1.032825e+002, 2.181220e+003
1.037646e+002, 2.160032e+003
1.042467e+002, 2.147024e+003
1.047288e+002, 2.141552e+003
1.052109e+002, 2.142345e+003
1.056931e+002, 2.148863e+003
1.061752e+002, 2.161801e+003
1.066573e+002, 2.181870e+003
1.071394e+002, 2.212084e+003
1.076215e+002, 2.244032e+003
1.081036e+002, 2.282219e+003
1.085858e+002, 2.323885e+003
1.090679e+002, 2.352729e+003
1.095500e+002, 2.359258e+003
1.100321e+002, 2.360672e+003
1.105142e+002, 2.366099e+003
1.109963e+002, 2.377692e+003
1.114785e+002, 2.390882e+003
1.119606e+002, 2.405265e+003
1.124427e+002, 2.420830e+003
1.129248e+002, 2.437469e+003
1.134069e+002, 2.455868e+003
1.138890e+002, 2.474925e+003
1.143712e+002, 2.493977e+003
1.148533e+002, 2.512311e+003
1.153354e+002, 2.531007e+003
1.158175e+002, 2.552084e+003
1.162996e+002, 2.576502e+003
1.167817e+002, 2.595756e+003
1.172639e+002, 2.603521e+003
1.177460e+002, 2.605534e+003
1.182281e+002, 2.609057e+003
1.187102e+002, 2.620944e+003
1.191923e+002, 2.632216e+003
1.196744e+002, 2.636098e+003
1.201566e+002, 2.630243e+003
1.206387e+002, 2.624545e+003
1.211208e+002, 2.624769e+003
1.216029e+002, 2.629499e+003
1.220850e+002, 2.635991e+003
1.225671e+002, 2.640710e+003
1.230493e+002, 2.647309e+003
1.235314e+002, 2.661534e+003
1.240135e+002, 2.687919e+003
1.244956e+002, 2.712843e+003
1.249777e+002, 2.721712e+003
1.254598e+002, 2.717193e+003
1.259420e+002, 2.709228e+003
1.264241e+002, 2.702434e+003
1.269062e+002, 2.696738e+003
1.273883e+002, 2.691992e+003
1.278704e+002, 2.688006e+003
1.283525e+002, 2.685109e+003
1.288347e+002, 2.684610e+003
1.293168e+002, 2.686355e+003
1.297989e+002, 2.687723e+003
1.302810e+002, 2.686673e+003
1.307631e+002, 2.683498e+003
1.312452e+002, 2.679531e+003
1.317274e+002, 2.675920e+003
1.322095e+002, 2.671389e+003
1.326916e+002, 2.661619e+003
1.331737e+002, 2.646005e+003
1.336558e+002, 2.628913e+003
1.341379e+002, 2.613598e+003
1.346201e+002, 2.600079e+003
1.351022e+002, 2.588478e+003
1.355843e+002, 2.579035e+003
1.360664e+002, 2.571644e+003
1.365485e+002, 2.565645e+003
1.370306e+002, 2.560750e+003
1.375128e+002, 2.557929e+003
1.379949e+002, 2.558012e+003
1.384770e+002, 2.560909e+003
1.389591e+002, 2.567329e+003
1.394412e+002, 2.578804e+003
1.399233e+002, 2.595779e+003
1.404055e+002, 2.609768e+003
1.408876e+002, 2.620097e+003
1.413697e+002, 2.628063e+003
1.418518e+002, 2.635477e+003
1.423339e+002, 2.641438e+003
1.428160e+002, 2.648680e+003
1.432982e+002, 2.657965e+003
1.437803e+002, 2.668805e+003
1.442624e+002, 2.683048e+003
1.447445e+002, 2.701022e+003
1.452266e+002, 2.722383e+003
1.457087e+002, 2.745562e+003
1.461909e+002, 2.772028e+003
1.466730e+002, 2.798966e+003
1.471551e+002, 2.825728e+003
1.476372e+002, 2.852984e+003
1.481193e+002, 2.878651e+003
1.486014e+002, 2.904007e+003
1.490836e+002, 2.927988e+003
1.495657e+002, 2.947774e+003
1.500478e+002, 2.961286e+003
1.505299e+002, 2.971884e+003
1.510120e+002, 2.981058e+003
1.514941e+002, 2.988059e+003
1.519763e+002, 2.994374e+003
1.524584e+002, 3.001802e+003
1.529405e+002, 3.009235e+003
1.534226e+002, 3.011429e+003
1.539047e+002, 3.003856e+003
1.543868e+002, 2.993588e+003
1.548690e+002, 2.984472e+003
1.553511e+002, 2.978312e+003
1.558332e+002, 2.971846e+003
1.563153e+002, 2.965422e+003
1.567974e+002, 2.958761e+003
1.572795e+002, 2.949643e+003
1.577617e+002, 2.935329e+003
1.582438e+002, 2.919633e+003
1.587259e+002, 2.905314e+003
1.592080e+002, 2.892623e+003
1.596901e+002, 2.881817e+003
1.601722e+002, 2.873502e+003
1.606544e+002, 2.867599e+003
1.611365e+002, 2.862255e+003
1.616186e+002, 2.855594e+003
1.621007e+002, 2.849724e+003
1.625828e+002, 2.846430e+003
1.630649e+002, 2.848509e+003
1.635471e+002, 2.851458e+003
1.640292e+002, 2.853202e+003
1.645113e+002, 2.853641e+003
1.649934e+002, 2.854007e+003
1.654755e+002, 2.853913e+003
1.659576e+002, 2.854313e+003
1.664398e+002, 2.856379e+003
1.669219e+002, 2.861064e+003
1.674040e+002, 2.867190e+003
1.678861e+002, 2.873982e+003
1.683682e+002, 2.881418e+003
1.688503e+002, 2.889644e+003
1.693325e+002, 2.898536e+003
1.698146e+002, 2.908366e+003
1.702967e+002, 2.919413e+003
1.707788e+002, 2.932427e+003
1.712609e+002, 2.946564e+003
1.717430e+002, 2.961820e+003
1.722252e+002, 2.978626e+003
1.727073e+002, 2.993492e+003
1.731894e+002, 3.002083e+003
1.736715e+002, 3.006585e+003
1.741536e+002, 3.011625e+003
1.746357e+002, 3.020802e+003
1.751179e+002, 3.031305e+003
1.756000e+002, 3.039503e+003
1.760821e+002, 3.044739e+003
1.765642e+002, 3.049278e+003
1.770463e+002, 3.054530e+003
1.775284e+002, 3.060719e+003
1.780106e+002, 3.068423e+003
1.784927e+002, 3.077772e+003
1.789748e+002, 3.088921e+003
1.794569e+002, 3.101671e+003
1.799390e+002, 3.115928e+003
1.804211e+002, 3.132595e+003
1.809033e+002, 3.153239e+003
1.813854e+002, 3.177685e+003
1.818675e+002, 3.204327e+003
1.823496e+002, 3.232121e+003
1.828317e+002, 3.261428e+003
1.833138e+002, 3.294797e+003
1.837960e+002, 3.332449e+003
1.842781e+002, 3.373426e+003
1.847602e+002, 3.415535e+003
1.852423e+002, 3.459245e+003
1.857244e+002, 3.505153e+003
1.862065e+002, 3.553074e+003
1.866887e+002, 3.603610e+003
1.871708e+002, 3.660097e+003
1.876529e+002, 3.723160e+003
1.881350e+002, 3.791331e+003
1.886171e+002, 3.860720e+003
1.890992e+002, 3.931948e+003
1.895814e+002, 4.005973e+003
1.900635e+002, 4.082642e+003
1.905456e+002, 4.163215e+003
1.910277e+002, 4.248546e+003
1.915098e+002, 4.339293e+003
1.919919e+002, 4.434869e+003
1.924741e+002, 4.532165e+003
1.929562e+002, 4.630718e+003
1.934383e+002, 4.732231e+003
1.939204e+002, 4.838835e+003
1.944025e+002, 4.950035e+003
1.948846e+002, 5.057898e+003
1.953668e+002, 5.162425e+003
1.958489e+002, 5.262055e+003
1.963310e+002, 5.355000e+003
1.968131e+002, 5.442019e+003
1.972952e+002, 5.516115e+003
1.977773e+002, 5.574407e+003
1.982595e+002, 5.616585e+003
1.987416e+002, 5.641283e+003
1.992237e+002, 5.648845e+003
1.997058e+002, 5.638269e+003
2.001879e+002, 5.605109e+003
2.006700e+002, 5.547625e+003
2.011522e+002, 5.474010e+003
2.016343e+002, 5.388009e+003
2.021164e+002, 5.289139e+003
2.025985e+002, 5.181777e+003
2.030806e+002, 5.065242e+003
2.035627e+002, 4.942209e+003
2.040449e+002, 4.822320e+003
2.045270e+002, 4.705639e+003
2.050091e+002, 4.591772e+003
2.054912e+002, 4.479743e+003
2.059733e+002, 4.368859e+003
2.064554e+002, 4.263804e+003
2.069376e+002, 4.164696e+003
2.074197e+002, 4.072227e+003
2.079018e+002, 3.985274e+003
2.083839e+002, 3.903538e+003
2.088660e+002, 3.827855e+003
2.093481e+002, 3.759742e+003
2.098303e+002, 3.699138e+003
2.103124e+002, 3.644880e+003
2.107945e+002, 3.597000e+003
2.112766e+002, 3.555591e+003
2.117587e+002, 3.518941e+003
2.122408e+002, 3.486492e+003
2.127230e+002, 3.459922e+003
2.132051e+002, 3.440602e+003
2.136872e+002, 3.429801e+003
2.141693e+002, 3.421843e+003
2.146514e+002, 3.416528e+003
2.151335e+002, 3.413531e+003
2.156157e+002, 3.412650e+003
2.160978e+002, 3.416280e+003
2.165799e+002, 3.417389e+003
2.170620e+002, 3.411510e+003
2.175441e+002, 3.397901e+003
2.180262e+002, 3.379031e+003
2.185084e+002, 3.354652e+003
2.189905e+002, 3.324813e+003
2.194726e+002, 3.291085e+003
2.199547e+002, 3.251485e+003
2.204368e+002, 3.210564e+003
2.209189e+002, 3.171385e+003
2.214011e+002, 3.133394e+003
2.218832e+002, 3.098034e+003
2.223653e+002, 3.065757e+003
2.228474e+002, 3.036248e+003
2.233295e+002, 3.005964e+003
2.238116e+002, 2.973661e+003
2.242938e+002, 2.943616e+003
2.247759e+002, 2.918192e+003
2.252580e+002, 2.897228e+003
2.257401e+002, 2.881996e+003
2.262222e+002, 2.874017e+003
2.267043e+002, 2.871784e+003
2.271865e+002, 2.868536e+003
2.276686e+002, 2.862959e+003
2.281507e+002, 2.858364e+003
2.286328e+002, 2.856670e+003
2.291149e+002, 2.858301e+003
2.295970e+002, 2.861789e+003
2.300792e+002, 2.866909e+003
2.305613e+002, 2.873859e+003
2.310434e+002, 2.883267e+003
2.315255e+002, 2.895298e+003
2.320076e+002, 2.909429e+003
2.324897e+002, 2.925598e+003
2.329719e+002, 2.945196e+003
2.334540e+002, 2.963781e+003
2.339361e+002, 2.981319e+003
2.344182e+002, 2.997855e+003
2.349003e+002, 3.013860e+003
2.353824e+002, 3.029899e+003
2.358646e+002, 3.044610e+003
2.363467e+002, 3.057483e+003
2.368288e+002, 3.069105e+003
2.373109e+002, 3.077594e+003
2.377930e+002, 3.083405e+003
2.382751e+002, 3.085917e+003
2.387573e+002, 3.082914e+003
2.392394e+002, 3.072575e+003
2.397215e+002, 3.059169e+003
2.402036e+002, 3.044745e+003
2.406857e+002, 3.030969e+003
2.411678e+002, 3.012048e+003
2.416500e+002, 2.986275e+003
2.421321e+002, 2.955917e+003
2.426142e+002, 2.926047e+003
2.430963e+002, 2.896674e+003
2.435784e+002, 2.868003e+003
2.440605e+002, 2.840552e+003
2.445427e+002, 2.814776e+003
2.450248e+002, 2.788591e+003
2.455069e+002, 2.761285e+003
2.459890e+002, 2.733797e+003
2.464711e+002, 2.708479e+003
2.469532e+002, 2.684952e+003
2.474354e+002, 2.663913e+003
2.479175e+002, 2.646023e+003
2.483996e+002, 2.631772e+003
2.488817e+002, 2.618872e+003
2.493638e+002, 2.607436e+003
2.498459e+002, 2.597347e+003
2.503281e+002, 2.588377e+003
2.508102e+002, 2.580521e+003
2.512923e+002, 2.573875e+003
2.517744e+002, 2.568777e+003
2.522565e+002, 2.565962e+003
2.527386e+002, 2.561880e+003
2.532208e+002, 2.556365e+003
2.537029e+002, 2.549714e+003
2.541850e+002, 2.542442e+003
2.546671e+002, 2.535196e+003
2.551492e+002, 2.525921e+003
2.556313e+002, 2.513758e+003
2.561135e+002, 2.498397e+003
2.565956e+002, 2.482260e+003
2.570777e+002, 2.465246e+003
2.575598e+002, 2.447664e+003
2.580419e+002, 2.430144e+003
2.585240e+002, 2.413494e+003
2.590062e+002, 2.395348e+003
2.594883e+002, 2.374382e+003
2.599704e+002, 2.350695e+003
2.604525e+002, 2.328248e+003
2.609346e+002, 2.307707e+003
2.614167e+002, 2.287935e+003
2.618989e+002, 2.267444e+003
2.623810e+002, 2.245708e+003
2.628631e+002, 2.225254e+003
2.633452e+002, 2.207143e+003
2.638273e+002, 2.191172e+003
2.643094e+002, 2.175372e+003
2.647916e+002, 2.159378e+003
2.652737e+002, 2.143841e+003
2.657558e+002, 2.128893e+003
2.662379e+002, 2.114232e+003
2.667200e+002, 2.101737e+003
2.672021e+002, 2.092487e+003
2.676843e+002, 2.086017e+003
2.681664e+002, 2.076942e+003
2.686485e+002, 2.064151e+003
2.691306e+002, 2.051054e+003
2.696127e+002, 2.041078e+003
2.700948e+002, 2.035156e+003
2.705770e+002, 2.028084e+003
2.710591e+002, 2.018722e+003
2.715412e+002, 2.007607e+003
2.720233e+002, 1.997071e+003
2.725054e+002, 1.987352e+003
2.729875e+002, 1.977928e+003
2.734697e+002, 1.968495e+003
2.739518e+002, 1.958934e+003
2.744339e+002, 1.949526e+003
2.749160e+002, 1.940282e+003
2.753981e+002, 1.931268e+003
2.758802e+002, 1.922375e+003
2.763624e+002, 1.913674e+003
2.768445e+002, 1.905425e+003
2.773266e+002, 1.897826e+003
2.778087e+002, 1.890898e+003
2.782908e+002, 1.884587e+003
2.787729e+002, 1.879124e+003
2.792551e+002, 1.874042e+003
2.797372e+002, 1.868149e+003
2.802193e+002, 1.861218e+003
2.807014e+002, 1.854898e+003
2.811835e+002, 1.850105e+003
2.816656e+002, 1.846825e+003
2.821478e+002, 1.844084e+003
2.826299e+002, 1.841961e+003
2.831120e+002, 1.840126e+003
2.835941e+002, 1.837870e+003
2.840762e+002, 1.835142e+003
2.845583e+002, 1.832869e+003
2.850405e+002, 1.831557e+003
2.855226e+002, 1.831126e+003
2.860047e+002, 1.830826e+003
2.864868e+002, 1.830623e+003
2.869689e+002, 1.830636e+003
2.874510e+002, 1.830961e+003
2.879332e+002, 1.831598e+003
2.884153e+002, 1.832703e+003
2.888974e+002, 1.834379e+003
2.893795e+002, 1.836549e+003
2.898616e+002, 1.838835e+003
2.903438e+002, 1.841193e+003
2.908259e+002, 1.843930e+003
2.913080e+002, 1.847560e+003
2.917901e+002, 1.851931e+003
2.922722e+002, 1.856373e+003
2.927543e+002, 1.860633e+003
2.932365e+002, 1.864790e+003
2.937186e+002, 1.868804e+003
2.942007e+002, 1.872631e+003
2.946828e+002, 1.876928e+003
2.951649e+002, 1.882514e+003
2.956470e+002, 1.889058e+003
2.961292e+002, 1.895609e+003
2.966113e+002, 1.901627e+003
2.970934e+002, 1.907764e+003
2.975755e+002, 1.914907e+003
2.980576e+002, 1.923120e+003
2.985397e+002, 1.932594e+003
2.990219e+002, 1.943981e+003
2.995040e+002, 1.956840e+003
2.999861e+002, 1.970138e+003
3.004682e+002, 1.983839e+003
3.009503e+002, 1.997602e+003
3.014324e+002, 2.010881e+003
3.019146e+002, 2.023819e+003
3.023967e+002, 2.037546e+003
3.028788e+002, 2.052756e+003
3.033609e+002, 2.069114e+003
3.038430e+002, 2.085823e+003
3.043251e+002, 2.102693e+003
3.048073e+002, 2.120182e+003
3.052894e+002, 2.139475e+003
3.057715e+002, 2.159797e+003
3.062536e+002, 2.179840e+003
3.067357e+002, 2.199322e+003
3.072178e+002, 2.217754e+003
3.077000e+002, 2.234097e+003
3.081821e+002, 2.248117e+003
3.086642e+002, 2.261278e+003
3.091463e+002, 2.275177e+003
3.096284e+002, 2.288749e+003
3.101105e+002, 2.300547e+003
3.105927e+002, 2.309841e+003
3.110748e+002, 2.317015e+003
3.115569e+002, 2.322020e+003
3.120390e+002, 2.324870e+003
3.125211e+002, 2.326893e+003
3.130032e+002, 2.327968e+003
3.134854e+002, 2.329007e+003
3.139675e+002, 2.330967e+003
3.144496e+002, 2.334906e+003
3.149317e+002, 2.339221e+003
3.154138e+002, 2.342469e+003
3.158959e+002, 2.345107e+003
3.163781e+002, 2.349860e+003
3.168602e+002, 2.358739e+003
3.173423e+002, 2.369693e+003
3.178244e+002, 2.381125e+003
3.183065e+002, 2.391498e+003
3.187886e+002, 2.404001e+003
3.192708e+002, 2.419794e+003
3.197529e+002, 2.438471e+003
3.202350e+002, 2.458981e+003
3.207171e+002, 2.482101e+003
3.211992e+002, 2.505884e+003
3.216813e+002, 2.529576e+003
3.221635e+002, 2.553765e+003
3.226456e+002, 2.576177e+003
3.231277e+002, 2.598359e+003
3.236098e+002, 2.618152e+003
3.240919e+002, 2.632016e+003
3.245740e+002, 2.638947e+003
3.250562e+002, 2.640059e+003
3.255383e+002, 2.635765e+003
3.260204e+002, 2.626284e+003
3.265025e+002, 2.610596e+003
3.269846e+002, 2.586234e+003
3.274667e+002, 2.556698e+003
3.279489e+002, 2.525410e+003
3.284310e+002, 2.492958e+003
3.289131e+002, 2.458174e+003
3.293952e+002, 2.419927e+003
3.298773e+002, 2.378135e+003
3.303594e+002, 2.336818e+003
3.308416e+002, 2.294775e+003
3.313237e+002, 2.254687e+003
3.318058e+002, 2.218552e+003
3.322879e+002, 2.186626e+003
3.327700e+002, 2.158061e+003
3.332521e+002, 2.132606e+003
3.337343e+002, 2.110149e+003
3.342164e+002, 2.090368e+003
3.346985e+002, 2.074470e+003
3.351806e+002, 2.059648e+003
3.356627e+002, 2.044024e+003
3.361448e+002, 2.026416e+003
3.366270e+002, 2.012244e+003
3.371091e+002, 2.002781e+003
3.375912e+002, 1.996122e+003
3.380733e+002, 1.987889e+003
3.385554e+002, 1.977222e+003
3.390375e+002, 1.968082e+003
3.395197e+002, 1.962685e+003
3.400018e+002, 1.961359e+003
3.404839e+002, 1.958275e+003
3.409660e+002, 1.952781e+003
3.414481e+002, 1.947078e+003
3.419302e+002, 1.944431e+003
3.424124e+002, 1.945034e+003
3.428945e+002, 1.945581e+003
3.433766e+002, 1.944617e+003
3.438587e+002, 1.942810e+003
3.443408e+002, 1.943141e+003
3.448229e+002, 1.945656e+003
3.453051e+002, 1.950010e+003
3.457872e+002, 1.956537e+003
3.462693e+002, 1.964900e+003
3.467514e+002, 1.972999e+003
3.472335e+002, 1.979995e+003
3.477156e+002, 1.986957e+003
3.481978e+002, 1.995909e+003
3.486799e+002, 2.006775e+003
3.491620e+002, 2.018437e+003
3.496441e+002, 2.030296e+003
3.501262e+002, 2.042415e+003
3.506083e+002, 2.054834e+003
3.510905e+002, 2.067663e+003
3.515726e+002, 2.080929e+003
3.520547e+002, 2.094743e+003
3.525368e+002, 2.109070e+003
3.530189e+002, 2.123812e+003
3.535010e+002, 2.139803e+003
3.539832e+002, 2.155754e+003
3.544653e+002, 2.169984e+003
3.549474e+002, 2.182513e+003
3.554295e+002, 2.194088e+003
3.559116e+002, 2.205272e+003
3.563937e+002, 2.215956e+003
3.568759e+002, 2.225827e+003
3.573580e+002, 2.234815e+003
3.578401e+002, 2.243030e+003
3.583222e+002, 2.251173e+003
3.588043e+002, 2.258987e+003
3.592864e+002, 2.264458e+003
3.597686e+002, 2.266179e+003
3.602507e+002, 2.265292e+003
3.607328e+002, 2.262759e+003
3.612149e+002, 2.258895e+003
3.616970e+002, 2.253231e+003
3.621791e+002, 2.245186e+003
3.626613e+002, 2.235159e+003
3.631434e+002, 2.224095e+003
3.636255e+002, 2.213401e+003
3.641076e+002, 2.200809e+003
3.645897e+002, 2.184779e+003
3.650718e+002, 2.164616e+003
3.655540e+002, 2.143924e+003
3.660361e+002, 2.122859e+003
3.665182e+002, 2.101784e+003
3.670003e+002, 2.081136e+003
3.674824e+002, 2.061724e+003
3.679645e+002, 2.042010e+003
3.684467e+002, 2.021205e+003
3.689288e+002, 1.999579e+003
3.694109e+002, 1.978920e+003
3.698930e+002, 1.959081e+003
3.703751e+002, 1.940381e+003
3.708572e+002, 1.923052e+003
3.713394e+002, 1.908161e+003
3.718215e+002, 1.893158e+003
3.723036e+002, 1.877396e+003
3.727857e+002, 1.861405e+003
3.732678e+002, 1.846954e+003
3.737499e+002, 1.834359e+003
3.742321e+002, 1.822460e+003
3.747142e+002, 1.810880e+003
3.751963e+002, 1.799544e+003
3.756784e+002, 1.788505e+003
3.761605e+002, 1.777990e+003
3.766426e+002, 1.767513e+003
3.771248e+002, 1.756826e+003
3.776069e+002, 1.745888e+003
3.780890e+002, 1.734230e+003
3.785711e+002, 1.721376e+003
3.790532e+002, 1.707551e+003
3.795353e+002, 1.695530e+003
3.800175e+002, 1.685483e+003
3.804996e+002, 1.675867e+003
3.809817e+002, 1.665053e+003
3.814638e+002, 1.653252e+003
3.819459e+002, 1.641741e+003
3.824280e+002, 1.630941e+003
3.829102e+002, 1.620504e+003
3.833923e+002, 1.609932e+003
3.838744e+002, 1.599177e+003
3.843565e+002, 1.588760e+003
3.848386e+002, 1.579467e+003
3.853207e+002, 1.570688e+003
3.858029e+002, 1.561334e+003
3.862850e+002, 1.551059e+003
3.867671e+002, 1.540969e+003
3.872492e+002, 1.532205e+003
3.877313e+002, 1.524426e+003
3.882134e+002, 1.517023e+003
3.886956e+002, 1.510231e+003
3.891777e+002, 1.503480e+003
3.896598e+002, 1.495958e+003
3.901419e+002, 1.487766e+003
3.906240e+002, 1.480002e+003
3.911061e+002, 1.473595e+003
3.915883e+002, 1.467806e+003
3.920704e+002, 1.461813e+003
3.925525e+002, 1.455076e+003
3.930346e+002, 1.448582e+003
3.935167e+002, 1.442500e+003
3.939988e+002, 1.436916e+003
3.944810e+002, 1.431977e+003
3.949631e+002, 1.427830e+003
3.954452e+002, 1.424266e+003
3.959273e+002, 1.421179e+003
3.964094e+002, 1.418541e+003
3.968915e+002, 1.416419e+003
3.973737e+002, 1.415503e+003
3.978558e+002, 1.414865e+003
3.983379e+002, 1.413359e+003
3.988200e+002, 1.409618e+003
3.993021e+002, 1.406288e+003
3.997842e+002, 1.403863e+003
4.002664e+002, 1.402328e+003
4.007485e+002, 1.401120e+003
4.012306e+002, 1.400569e+003
4.017127e+002, 1.400002e+003
4.021948e+002, 1.398911e+003
4.026769e+002, 1.396734e+003
4.031591e+002, 1.395293e+003
4.036412e+002, 1.395115e+003
4.041233e+002, 1.395535e+003
4.046054e+002, 1.394761e+003
4.050875e+002, 1.392390e+003
4.055696e+002, 1.390055e+003
4.060518e+002, 1.388480e+003
4.065339e+002, 1.387700e+003
4.070160e+002, 1.386772e+003
4.074981e+002, 1.385611e+003
4.079802e+002, 1.384642e+003
4.084623e+002, 1.384490e+003
4.089445e+002, 1.385155e+003
4.094266e+002, 1.385890e+003
4.099087e+002, 1.386653e+003
4.103908e+002, 1.387279e+003
4.108729e+002, 1.386975e+003
4.113550e+002, 1.385798e+003
4.118372e+002, 1.385211e+003
4.123193e+002, 1.386868e+003
4.128014e+002, 1.389842e+003
4.132835e+002, 1.391802e+003
4.137656e+002, 1.392232e+003
4.142477e+002, 1.392491e+003
4.147299e+002, 1.393996e+003
4.152120e+002, 1.396445e+003
4.156941e+002, 1.399087e+003
4.161762e+002, 1.401753e+003
4.166583e+002, 1.404315e+003
4.171404e+002, 1.406433e+003
4.176226e+002, 1.408135e+003
4.181047e+002, 1.410211e+003
4.185868e+002, 1.413776e+003
4.190689e+002, 1.417610e+003
4.195510e+002, 1.420594e+003
4.200331e+002, 1.422023e+003
4.205153e+002, 1.423049e+003
4.209974e+002, 1.423720e+003
4.214795e+002, 1.424288e+003
4.219616e+002, 1.425357e+003
4.224437e+002, 1.428164e+003
4.229258e+002, 1.430641e+003
4.234080e+002, 1.431800e+003
4.238901e+002, 1.431203e+003
4.243722e+002, 1.430817e+003
4.248543e+002, 1.430870e+003
4.253364e+002, 1.431215e+003
4.258185e+002, 1.431745e+003
4.263007e+002, 1.432997e+003
4.267828e+002, 1.433649e+003
4.272649e+002, 1.433152e+003
4.277470e+002, 1.431779e+003
4.282291e+002, 1.431450e+003
4.287112e+002, 1.432755e+003
4.291934e+002, 1.434047e+003
4.296755e+002, 1.434442e+003
4.301576e+002, 1.433822e+003
4.306397e+002, 1.432685e+003
4.311218e+002, 1.430804e+003
4.316039e+002, 1.428780e+003
4.320861e+002, 1.427515e+003
4.325682e+002, 1.427034e+003
4.330503e+002, 1.427064e+003
4.335324e+002, 1.427712e+003
4.340145e+002, 1.428767e+003
4.344966e+002, 1.429351e+003
4.349788e+002, 1.429456e+003
4.354609e+002, 1.429738e+003
4.359430e+002, 1.430572e+003
4.364251e+002, 1.432037e+003
4.369072e+002, 1.434536e+003
4.373893e+002, 1.438566e+003
4.378715e+002, 1.442614e+003
4.383536e+002, 1.444709e+003
4.388357e+002, 1.445377e+003
4.393178e+002, 1.446084e+003
4.397999e+002, 1.447417e+003
4.402820e+002, 1.449214e+003
4.407642e+002, 1.451769e+003
4.412463e+002, 1.455099e+003
4.417284e+002, 1.457380e+003
4.422105e+002, 1.456019e+003
4.426926e+002, 1.453855e+003
4.431747e+002, 1.453691e+003
4.436569e+002, 1.458917e+003
4.441390e+002, 1.463039e+003
4.446211e+002, 1.463091e+003
4.451032e+002, 1.460375e+003
4.455853e+002, 1.458676e+003
4.460674e+002, 1.460145e+003
4.465496e+002, 1.461492e+003
4.470317e+002, 1.461332e+003
4.475138e+002, 1.458975e+003
4.479959e+002, 1.457358e+003
4.484780e+002, 1.456847e+003
4.489601e+002, 1.456876e+003
4.494423e+002, 1.456913e+003
4.499244e+002, 1.456985e+003
4.504065e+002, 1.457054e+003
4.508886e+002, 1.456993e+003
4.513707e+002, 1.456940e+003
4.518528e+002, 1.457444e+003
4.523350e+002, 1.458460e+003
4.528171e+002, 1.460146e+003
4.532992e+002, 1.462836e+003
4.537813e+002, 1.466538e+003
4.542634e+002, 1.469745e+003
4.547455e+002, 1.472281e+003
4.552277e+002, 1.474756e+003
4.557098e+002, 1.477914e+003
4.561919e+002, 1.481697e+003
4.566740e+002, 1.486151e+003
4.571561e+002, 1.491936e+003
4.576382e+002, 1.497740e+003
4.581204e+002, 1.500700e+003
4.586025e+002, 1.501166e+003
4.590846e+002, 1.501421e+003
4.595667e+002, 1.503219e+003
4.600488e+002, 1.505681e+003
4.605309e+002, 1.507907e+003
4.610131e+002, 1.509960e+003
4.614952e+002, 1.510905e+003
4.619773e+002, 1.509650e+003
4.624594e+002, 1.506958e+003
4.629415e+002, 1.503915e+003
4.634236e+002, 1.501121e+003
4.639058e+002, 1.497909e+003
4.643879e+002, 1.493716e+003
4.648700e+002, 1.488687e+003
4.653521e+002, 1.483792e+003
4.658342e+002, 1.479063e+003
4.663163e+002, 1.474619e+003
4.667985e+002, 1.470533e+003
4.672806e+002, 1.467001e+003
4.677627e+002, 1.463472e+003
4.682448e+002, 1.459639e+003
4.687269e+002, 1.455956e+003
4.692090e+002, 1.453073e+003
4.696912e+002, 1.451412e+003
4.701733e+002, 1.449712e+003
4.706554e+002, 1.447593e+003
4.711375e+002, 1.445136e+003
4.716196e+002, 1.443070e+003
4.721017e+002, 1.441304e+003
4.725839e+002, 1.440166e+003
4.730660e+002, 1.440041e+003
4.735481e+002, 1.440943e+003
4.740302e+002, 1.441862e+003
4.745123e+002, 1.442842e+003
4.749944e+002, 1.443544e+003
4.754766e+002, 1.442980e+003
4.759587e+002, 1.441454e+003
4.764408e+002, 1.440858e+003
4.769229e+002, 1.442586e+003
4.774050e+002, 1.445349e+003
4.778871e+002, 1.446891e+003
4.783693e+002, 1.447357e+003
4.788514e+002, 1.447935e+003
4.793335e+002, 1.449615e+003
4.798156e+002, 1.451833e+003
4.802977e+002, 1.453920e+003
4.807798e+002, 1.455743e+003
4.812620e+002, 1.457436e+003
4.817441e+002, 1.459444e+003
4.822262e+002, 1.461258e+003
4.827083e+002, 1.462128e+003
4.831904e+002, 1.460754e+003
4.836725e+002, 1.459361e+003
4.841547e+002, 1.459177e+003
4.846368e+002, 1.460044e+003
4.851189e+002, 1.459690e+003
4.856010e+002, 1.456887e+003
4.860831e+002, 1.453460e+003
4.865652e+002, 1.450470e+003
4.870474e+002, 1.448885e+003
4.875295e+002, 1.445532e+003
4.880116e+002, 1.439763e+003
4.884937e+002, 1.432742e+003
4.889758e+002, 1.425977e+003
4.894579e+002, 1.419485e+003
4.899401e+002, 1.413186e+003
4.904222e+002, 1.407148e+003
4.909043e+002, 1.401260e+003
4.913864e+002, 1.394644e+003
4.918685e+002, 1.387183e+003
4.923506e+002, 1.379595e+003
4.928328e+002, 1.372365e+003
4.933149e+002, 1.365447e+003
4.937970e+002, 1.358266e+003
4.942791e+002, 1.350609e+003
4.947612e+002, 1.343507e+003
4.952433e+002, 1.338290e+003
4.957255e+002, 1.334501e+003
4.962076e+002, 1.330900e+003
4.966897e+002, 1.327071e+003
4.971718e+002, 1.323225e+003
4.976539e+002, 1.319574e+003
4.981360e+002, 1.316132e+003
4.986182e+002, 1.312852e+003
4.991003e+002, 1.308879e+003
4.995824e+002, 1.305662e+003
5.000645e+002, 1.304448e+003
5.005466e+002, 1.305639e+003
5.010287e+002, 1.307425e+003
5.015109e+002, 1.309976e+003
5.019930e+002, 1.312540e+003
5.024751e+002, 1.314330e+003
5.029572e+002, 1.314047e+003
5.034393e+002, 1.314396e+003
5.039214e+002, 1.315735e+003
5.044036e+002, 1.317900e+003
5.048857e+002, 1.320365e+003
5.053678e+002, 1.323095e+003
5.058499e+002, 1.326242e+003
5.063320e+002, 1.329905e+003
5.068141e+002, 1.334109e+003
5.072963e+002, 1.338580e+003
5.077784e+002, 1.343421e+003
5.082605e+002, 1.348426e+003
5.087426e+002, 1.353683e+003
5.092247e+002, 1.359137e+003
5.097068e+002, 1.363935e+003
5.101890e+002, 1.367854e+003
5.106711e+002, 1.371147e+003
5.111532e+002, 1.373986e+003
5.116353e+002, 1.376445e+003
5.121174e+002, 1.378830e+003
5.125995e+002, 1.381625e+003
5.130817e+002, 1.384272e+003
5.135638e+002, 1.386635e+003
5.140459e+002, 1.388611e+003
5.145280e+002, 1.388601e+003
5.150101e+002, 1.385127e+003
5.154922e+002, 1.379422e+003
5.159744e+002, 1.372487e+003
5.164565e+002, 1.363662e+003
5.169386e+002, 1.355311e+003
5.174207e+002, 1.348605e+003
5.179028e+002, 1.342798e+003
5.183849e+002, 1.336656e+003
5.188671e+002, 1.329950e+003
5.193492e+002, 1.322913e+003
5.198313e+002, 1.315204e+003
5.203134e+002, 1.306981e+003
5.207955e+002, 1.299718e+003
5.212776e+002, 1.294031e+003
5.217598e+002, 1.288342e+003
5.222419e+002, 1.281569e+003
5.227240e+002, 1.273209e+003
5.232061e+002, 1.266301e+003
5.236882e+002, 1.261107e+003
5.241703e+002, 1.256839e+003
5.246525e+002, 1.252488e+003
5.251346e+002, 1.248065e+003
5.256167e+002, 1.244033e+003
5.260988e+002, 1.240869e+003
5.265809e+002, 1.237843e+003
5.270630e+002, 1.233368e+003
5.275452e+002, 1.227703e+003
5.280273e+002, 1.222191e+003
5.285094e+002, 1.217490e+003
5.289915e+002, 1.213418e+003
5.294736e+002, 1.209627e+003
5.299557e+002, 1.206062e+003
5.304379e+002, 1.203180e+003
5.309200e+002, 1.201916e+003
5.314021e+002, 1.201092e+003
5.318842e+002, 1.199523e+003
5.323663e+002, 1.196441e+003
5.328484e+002, 1.193253e+003
5.333306e+002, 1.189905e+003
5.338127e+002, 1.186701e+003
5.342948e+002, 1.184402e+003
5.347769e+002, 1.183978e+003
5.352590e+002, 1.183393e+003
5.357411e+002, 1.182419e+003
5.362233e+002, 1.181052e+003
5.367054e+002, 1.178382e+003
5.371875e+002, 1.173910e+003
5.376696e+002, 1.169192e+003
5.381517e+002, 1.165031e+003
5.386339e+002, 1.161453e+003
5.391160e+002, 1.158894e+003
5.395981e+002, 1.157652e+003
5.400802e+002, 1.156734e+003
5.405623e+002, 1.154692e+003
5.410444e+002, 1.151707e+003
5.415266e+002, 1.148754e+003
5.420087e+002, 1.146066e+003
5.424908e+002, 1.143627e+003
5.429729e+002, 1.141420e+003
5.434550e+002, 1.139478e+003
5.439371e+002, 1.137880e+003
5.444193e+002, 1.136873e+003
5.449014e+002, 1.136067e+003
5.453835e+002, 1.135372e+003
5.458656e+002, 1.134817e+003
5.463477e+002, 1.133451e+003
5.468298e+002, 1.129906e+003
5.473120e+002, 1.125901e+003
5.477941e+002, 1.122873e+003
5.482762e+002, 1.121547e+003
5.487583e+002, 1.120492e+003
5.492404e+002, 1.120061e+003
5.497225e+002, 1.119692e+003
5.502047e+002, 1.118358e+003
5.506868e+002, 1.115503e+003
5.511689e+002, 1.112761e+003
5.516510e+002, 1.110678e+003
5.521331e+002, 1.109091e+003
5.526152e+002, 1.106824e+003
5.530974e+002, 1.103716e+003
5.535795e+002, 1.100796e+003
5.540616e+002, 1.098825e+003
5.545437e+002, 1.097687e+003
5.550258e+002, 1.096542e+003
5.555079e+002, 1.095306e+003
5.559901e+002, 1.094468e+003
5.564722e+002, 1.095154e+003
5.569543e+002, 1.096554e+003
5.574364e+002, 1.096819e+003
5.579185e+002, 1.094586e+003
5.584006e+002, 1.092397e+003
5.588828e+002, 1.092629e+003
5.593649e+002, 1.094423e+003
5.598470e+002, 1.095812e+003
5.603291e+002, 1.095673e+003
5.608112e+002, 1.095203e+003
5.612933e+002, 1.094700e+003
5.617755e+002, 1.094167e+003
5.622576e+002, 1.094209e+003
5.627397e+002, 1.095672e+003
5.632218e+002, 1.097077e+003
5.637039e+002, 1.097654e+003
5.641860e+002, 1.096937e+003
5.646682e+002, 1.096655e+003
5.651503e+002, 1.097063e+003
5.656324e+002, 1.097615e+003
5.661145e+002, 1.097485e+003
5.665966e+002, 1.096578e+003
5.670787e+002, 1.096104e+003
5.675609e+002, 1.096465e+003
5.680430e+002, 1.097276e+003
5.685251e+002, 1.097546e+003
5.690072e+002, 1.097386e+003
5.694893e+002, 1.097613e+003
5.699714e+002, 1.098943e+003
5.704536e+002, 1.100804e+003
5.709357e+002, 1.102513e+003
5.714178e+002, 1.104029e+003
5.718999e+002, 1.105194e+003
5.723820e+002, 1.105558e+003
5.728641e+002, 1.105690e+003
5.733463e+002, 1.106047e+003
5.738284e+002, 1.106686e+003
5.743105e+002, 1.107607e+003
5.747926e+002, 1.109196e+003
5.752747e+002, 1.110912e+003
5.757568e+002, 1.112061e+003
5.762390e+002, 1.111990e+003
5.767211e+002, 1.112129e+003
5.772032e+002, 1.112513e+003
5.776853e+002, 1.113232e+003
5.781674e+002, 1.114833e+003
5.786495e+002, 1.117897e+003
5.791317e+002, 1.120143e+003
5.796138e+002, 1.120405e+003
5.800959e+002, 1.118929e+003
5.805780e+002, 1.117561e+003
5.810601e+002, 1.116272e+003
5.815422e+002, 1.115368e+003
5.820244e+002, 1.115507e+003
5.825065e+002, 1.116205e+003
5.829886e+002, 1.116167e+003
5.834707e+002, 1.115132e+003
5.839528e+002, 1.113876e+003
5.844349e+002, 1.112909e+003
5.849171e+002, 1.112214e+003
5.853992e+002, 1.111770e+003
5.858813e+002, 1.112219e+003
5.863634e+002, 1.112200e+003
5.868455e+002, 1.110493e+003
5.873276e+002, 1.107814e+003
5.878098e+002, 1.106198e+003
5.882919e+002, 1.106747e+003
5.887740e+002, 1.107690e+003
5.892561e+002, 1.108721e+003
5.897382e+002, 1.109849e+003
5.902203e+002, 1.110103e+003
5.907025e+002, 1.108923e+003
5.911846e+002, 1.107862e+003
5.916667e+002, 1.108011e+003
5.921488e+002, 1.109459e+003
5.926309e+002, 1.111044e+003
5.931130e+002, 1.112858e+003
5.935952e+002, 1.114388e+003
5.940773e+002, 1.114795e+003
5.945594e+002, 1.114346e+003
5.950415e+002, 1.114107e+003
5.955236e+002, 1.114545e+003
5.960057e+002, 1.114944e+003
5.964879e+002, 1.114322e+003
5.969700e+002, 1.113042e+003
5.974521e+002, 1.111949e+003
5.979342e+002, 1.112188e+003
5.984163e+002, 1.112049e+003
5.988984e+002, 1.110297e+003
5.993806e+002, 1.107091e+003
5.998627e+002, 1.104140e+003
6.003448e+002, 1.102125e+003
6.008269e+002, 1.100191e+003
6.013090e+002, 1.097914e+003
6.017911e+002, 1.095213e+003
6.022733e+002, 1.092411e+003
6.027554e+002, 1.089519e+003
6.032375e+002, 1.086509e+003
6.037196e+002, 1.083313e+003
6.042017e+002, 1.079855e+003
6.046838e+002, 1.076801e+003
6.051660e+002, 1.074307e+003
6.056481e+002, 1.072009e+003
6.061302e+002, 1.069281e+003
6.066123e+002, 1.066231e+003
6.070944e+002, 1.063343e+003
6.075765e+002, 1.060674e+003
6.080587e+002, 1.058343e+003
6.085408e+002, 1.056577e+003
6.090229e+002, 1.055271e+003
6.095050e+002, 1.054002e+003
6.099871e+002, 1.052659e+003
6.104692e+002, 1.051205e+003
6.109514e+002, 1.049415e+003
6.114335e+002, 1.047209e+003
6.119156e+002, 1.045656e+003
6.123977e+002, 1.045389e+003
6.128798e+002, 1.045517e+003
6.133619e+002, 1.045581e+003
6.138441e+002, 1.045793e+003
6.143262e+002, 1.045407e+003
6.148083e+002, 1.044313e+003
6.152904e+002, 1.042794e+003
6.157725e+002, 1.041056e+003
6.162546e+002, 1.039070e+003
6.167368e+002, 1.037524e+003
6.172189e+002, 1.036518e+003
6.177010e+002, 1.036065e+003
6.181831e+002, 1.036621e+003
6.186652e+002, 1.037872e+003
6.191473e+002, 1.038532e+003
6.196295e+002, 1.037776e+003
6.201116e+002, 1.036253e+003
6.205937e+002, 1.034363e+003
6.210758e+002, 1.032204e+003
6.215579e+002, 1.030199e+003
6.220400e+002, 1.028728e+003
6.225222e+002, 1.027377e+003
6.230043e+002, 1.025962e+003
6.234864e+002, 1.024489e+003
6.239685e+002, 1.022779e+003
6.244506e+002, 1.020409e+003
6.249327e+002, 1.018128e+003
6.254149e+002, 1.016597e+003
6.258970e+002, 1.016504e+003
6.263791e+002, 1.014930e+003
6.268612e+002, 1.011234e+003
6.273433e+002, 1.006952e+003
6.278254e+002, 1.004471e+003
6.283076e+002, 1.003692e+003
6.287897e+002, 1.002441e+003
6.292718e+002, 1.000034e+003
6.297539e+002, 9.971263e+002
6.302360e+002, 9.946052e+002
6.307181e+002, 9.924581e+002
6.312003e+002, 9.906816e+002
6.316824e+002, 9.895322e+002
6.321645e+002, 9.885516e+002
6.326466e+002, 9.872205e+002
6.331287e+002, 9.856508e+002
6.336108e+002, 9.846601e+002
6.340930e+002, 9.853746e+002
6.345751e+002, 9.860157e+002
6.350572e+002, 9.855121e+002
6.355393e+002, 9.834756e+002
6.360214e+002, 9.821319e+002
6.365035e+002, 9.819023e+002
6.369857e+002, 9.818400e+002
6.374678e+002, 9.810627e+002
6.379499e+002, 9.793542e+002
6.384320e+002, 9.785869e+002
6.389141e+002, 9.790597e+002
6.393962e+002, 9.799689e+002
6.398784e+002, 9.802695e+002
6.403605e+002, 9.800768e+002
6.408426e+002, 9.798633e+002
6.413247e+002, 9.796553e+002
6.418068e+002, 9.796833e+002
6.422889e+002, 9.805113e+002
6.427711e+002, 9.817692e+002
6.432532e+002, 9.826290e+002
6.437353e+002, 9.822677e+002
6.442174e+002, 9.818587e+002
6.446995e+002, 9.824091e+002
6.451816e+002, 9.836297e+002
6.456638e+002, 9.835490e+002
6.461459e+002, 9.803445e+002
6.466280e+002, 9.773557e+002
6.471101e+002, 9.758615e+002
6.475922e+002, 9.759967e+002
6.480743e+002, 9.751715e+002
6.485565e+002, 9.729811e+002
6.490386e+002, 9.708588e+002
6.495207e+002, 9.703807e+002
6.500028e+002, 9.712399e+002
6.504849e+002, 9.706791e+002
6.509670e+002, 9.684036e+002
6.514492e+002, 9.653945e+002
6.519313e+002, 9.621429e+002
6.524134e+002, 9.590162e+002
6.528955e+002, 9.568927e+002
6.533776e+002, 9.564235e+002
6.538597e+002, 9.559295e+002
6.543419e+002, 9.540778e+002
6.548240e+002, 9.515906e+002
6.553061e+002, 9.496028e+002
6.557882e+002, 9.494006e+002
6.562703e+002, 9.486253e+002
6.567524e+002, 9.460411e+002
6.572346e+002, 9.425251e+002
6.577167e+002, 9.408055e+002
6.581988e+002, 9.417133e+002
6.586809e+002, 9.425516e+002
6.591630e+002, 9.423073e+002
6.596451e+002, 9.412244e+002
6.601273e+002, 9.407209e+002
6.606094e+002, 9.407975e+002
6.610915e+002, 9.411988e+002
6.615736e+002, 9.419922e+002
6.620557e+002, 9.429040e+002
6.625378e+002, 9.433002e+002
6.630200e+002, 9.431439e+002
6.635021e+002, 9.430275e+002
6.639842e+002, 9.436771e+002
6.644663e+002, 9.443816e+002
6.649484e+002, 9.443539e+002
6.654305e+002, 9.430783e+002
6.659127e+002, 9.422111e+002
6.663948e+002, 9.423666e+002
6.668769e+002, 9.430284e+002
6.673590e+002, 9.437177e+002
6.678411e+002, 9.447736e+002
6.683232e+002, 9.450888e+002
6.688054e+002, 9.442942e+002
6.692875e+002, 9.430486e+002
6.697696e+002, 9.424744e+002
6.702517e+002, 9.425770e+002
6.707338e+002, 9.430061e+002
6.712159e+002, 9.438436e+002
6.716981e+002, 9.446873e+002
6.721802e+002, 9.445416e+002
6.726623e+002, 9.437177e+002
6.731444e+002, 9.433355e+002
6.736265e+002, 9.443772e+002
6.741086e+002, 9.457600e+002
6.745908e+002, 9.469008e+002
6.750729e+002, 9.477405e+002
6.755550e+002, 9.480945e+002
6.760371e+002, 9.476088e+002
6.765192e+002, 9.469020e+002
6.770013e+002, 9.460394e+002
6.774835e+002, 9.449276e+002
6.779656e+002, 9.448633e+002
6.784477e+002, 9.462927e+002
6.789298e+002, 9.479676e+002
6.794119e+002, 9.489654e+002
6.798940e+002, 9.492865e+002
6.803762e+002, 9.499210e+002
6.808583e+002, 9.509841e+002
6.813404e+002, 9.518264e+002
6.818225e+002, 9.514203e+002
6.823046e+002, 9.503543e+002
6.827867e+002, 9.498633e+002
6.832689e+002, 9.502648e+002
6.837510e+002, 9.510694e+002
6.842331e+002, 9.519118e+002
6.847152e+002, 9.529522e+002
6.851973e+002, 9.543767e+002
6.856794e+002, 9.571292e+002
6.861616e+002, 9.592322e+002
6.866437e+002, 9.598297e+002
6.871258e+002, 9.597043e+002
6.876079e+002, 9.602502e+002
6.880900e+002, 9.617429e+002
6.885721e+002, 9.631465e+002
6.890543e+002, 9.641188e+002
6.895364e+002, 9.648737e+002
6.900185e+002, 9.661331e+002
6.905006e+002, 9.678699e+002
6.909827e+002, 9.696028e+002
6.914648e+002, 9.712166e+002
6.919470e+002, 9.726116e+002
6.924291e+002, 9.734149e+002
6.929112e+002, 9.737794e+002
6.933933e+002, 9.745589e+002
6.938754e+002, 9.767039e+002
6.943575e+002, 9.790652e+002
6.948397e+002, 9.808040e+002
6.953218e+002, 9.818011e+002
6.958039e+002, 9.831750e+002
6.962860e+002, 9.854161e+002
6.967681e+002, 9.877792e+002
6.972502e+002, 9.897835e+002
6.977324e+002, 9.911406e+002
6.982145e+002, 9.938207e+002
6.986966e+002, 9.982565e+002
6.991787e+002, 1.002815e+003
6.996608e+002, 1.005567e+003
7.001429e+002, 1.006924e+003
7.006251e+002, 1.009200e+003
7.011072e+002, 1.012829e+003
7.015893e+002, 1.016553e+003
7.020714e+002, 1.018749e+003
7.025535e+002, 1.020333e+003
7.030356e+002, 1.022689e+003
7.035178e+002, 1.026467e+003
7.039999e+002, 1.030542e+003
7.044820e+002, 1.034657e+003
7.049641e+002, 1.038734e+003
7.054462e+002, 1.042715e+003
7.059283e+002, 1.046561e+003
7.064105e+002, 1.050333e+003
7.068926e+002, 1.053802e+003
7.073747e+002, 1.057359e+003
7.078568e+002, 1.062504e+003
7.083389e+002, 1.069501e+003
7.088210e+002, 1.074812e+003
7.093032e+002, 1.076547e+003
7.097853e+002, 1.076543e+003
7.102674e+002, 1.078207e+003
7.107495e+002, 1.081374e+003
7.112316e+002, 1.085282e+003
7.117137e+002, 1.089795e+003
7.121959e+002, 1.094646e+003
7.126780e+002, 1.099447e+003
7.131601e+002, 1.104319e+003
7.136422e+002, 1.109979e+003
7.141243e+002, 1.117972e+003
7.146064e+002, 1.125550e+003
7.150886e+002, 1.131432e+003
7.155707e+002, 1.135603e+003
7.160528e+002, 1.140203e+003
7.165349e+002, 1.145297e+003
7.170170e+002, 1.150759e+003
7.174991e+002, 1.156877e+003
7.179813e+002, 1.163449e+003
7.184634e+002, 1.169064e+003
7.189455e+002, 1.173621e+003
7.194276e+002, 1.178241e+003
7.199097e+002, 1.184373e+003
7.203918e+002, 1.190957e+003
7.208740e+002, 1.196531e+003
7.213561e+002, 1.200924e+003
7.218382e+002, 1.204339e+003
7.223203e+002, 1.206540e+003
7.228024e+002, 1.208028e+003
7.232845e+002, 1.209295e+003
7.237667e+002, 1.210889e+003
7.242488e+002, 1.211383e+003
7.247309e+002, 1.210831e+003
7.252130e+002, 1.209103e+003
7.256951e+002, 1.205874e+003
7.261772e+002, 1.201089e+003
7.266594e+002, 1.195941e+003
7.271415e+002, 1.190779e+003
7.276236e+002, 1.185100e+003
7.281057e+002, 1.177940e+003
7.285878e+002, 1.169679e+003
7.290699e+002, 1.161235e+003
7.295521e+002, 1.152956e+003
7.300342e+002, 1.144520e+003
7.305163e+002, 1.135686e+003
7.309984e+002, 1.126556e+003
7.314805e+002, 1.117307e+003
7.319626e+002, 1.107007e+003
7.324448e+002, 1.097807e+003
7.329269e+002, 1.090268e+003
7.334090e+002, 1.083981e+003
7.338911e+002, 1.078077e+003
7.343732e+002, 1.072661e+003
7.348553e+002, 1.067398e+003
7.353375e+002, 1.062089e+003
7.358196e+002, 1.056948e+003
7.363017e+002, 1.052553e+003
7.367838e+002, 1.048855e+003
7.372659e+002, 1.045544e+003
7.377480e+002, 1.042756e+003
7.382302e+002, 1.040051e+003
7.387123e+002, 1.036890e+003
7.391944e+002, 1.033372e+003
7.396765e+002, 1.030011e+003
7.401586e+002, 1.026687e+003
7.406407e+002, 1.023841e+003
7.411229e+002, 1.021989e+003
7.416050e+002, 1.021039e+003
7.420871e+002, 1.019249e+003
7.425692e+002, 1.015962e+003
7.430513e+002, 1.013381e+003
7.435334e+002, 1.013123e+003
7.440156e+002, 1.014808e+003
7.444977e+002, 1.015074e+003
7.449798e+002, 1.013927e+003
7.454619e+002, 1.012610e+003
7.459440e+002, 1.012345e+003
7.464261e+002, 1.012339e+003
7.469083e+002, 1.011501e+003
7.473904e+002, 1.009720e+003
7.478725e+002, 1.007889e+003
7.483546e+002, 1.006034e+003
7.488367e+002, 1.004562e+003
7.493188e+002, 1.003842e+003
7.498010e+002, 1.004129e+003
7.502831e+002, 1.004343e+003
7.507652e+002, 1.004744e+003
7.512473e+002, 1.004646e+003
7.517294e+002, 1.003050e+003
7.522115e+002, 1.000004e+003
7.526937e+002, 9.984462e+002
7.531758e+002, 9.986699e+002
7.536579e+002, 9.995774e+002
7.541400e+002, 1.000765e+003
7.546221e+002, 1.001661e+003
7.551042e+002, 1.001234e+003
7.555864e+002, 9.991210e+002
7.560685e+002, 9.964248e+002
7.565506e+002, 9.927275e+002
7.570327e+002, 9.892643e+002
7.575148e+002, 9.873898e+002
7.579969e+002, 9.886269e+002
7.584791e+002, 9.892977e+002
7.589612e+002, 9.891356e+002
7.594433e+002, 9.886935e+002
7.599254e+002, 9.885848e+002
7.604075e+002, 9.888019e+002
7.608896e+002, 9.892422e+002
7.613718e+002, 9.898182e+002
7.618539e+002, 9.908025e+002
7.623360e+002, 9.936348e+002
7.628181e+002, 9.970080e+002
7.633002e+002, 9.979788e+002
7.637823e+002, 9.943528e+002
7.642645e+002, 9.905876e+002
7.647466e+002, 9.889886e+002
7.652287e+002, 9.888599e+002
7.657108e+002, 9.891168e+002
7.661929e+002, 9.899498e+002
7.666750e+002, 9.906930e+002
7.671572e+002, 9.912020e+002
7.676393e+002, 9.916712e+002
7.681214e+002, 9.926935e+002
7.686035e+002, 9.943591e+002
7.690856e+002, 9.950166e+002
7.695677e+002, 9.937271e+002
7.700499e+002, 9.922197e+002
7.705320e+002, 9.937591e+002
7.710141e+002, 9.972584e+002
7.714962e+002, 9.999391e+002
7.719783e+002, 9.997247e+002
7.724604e+002, 9.993107e+002
7.729426e+002, 1.000115e+003
7.734247e+002, 1.001742e+003
7.739068e+002, 1.003274e+003
7.743889e+002, 1.004358e+003
7.748710e+002, 1.005681e+003
7.753531e+002, 1.007368e+003
7.758353e+002, 1.009372e+003
7.763174e+002, 1.011846e+003
7.767995e+002, 1.014840e+003
7.772816e+002, 1.016907e+003
7.777637e+002, 1.017068e+003
7.782458e+002, 1.016504e+003
7.787280e+002, 1.016911e+003
7.792101e+002, 1.018250e+003
7.796922e+002, 1.020352e+003
7.801743e+002, 1.024047e+003
7.806564e+002, 1.027610e+003
7.811385e+002, 1.030208e+003
7.816207e+002, 1.031957e+003
7.821028e+002, 1.033304e+003
7.825849e+002, 1.033535e+003
7.830670e+002, 1.034645e+003
7.835491e+002, 1.037565e+003
7.840313e+002, 1.041646e+003
7.845134e+002, 1.044172e+003
7.849955e+002, 1.045129e+003
7.854776e+002, 1.046187e+003
7.859597e+002, 1.048512e+003
7.864418e+002, 1.051146e+003
7.869240e+002, 1.052282e+003
7.874061e+002, 1.052317e+003
7.878882e+002, 1.052714e+003
7.883703e+002, 1.055049e+003
7.888524e+002, 1.057108e+003
7.893345e+002, 1.057317e+003
7.898167e+002, 1.056005e+003
7.902988e+002, 1.056046e+003
7.907809e+002, 1.058732e+003
7.912630e+002, 1.060489e+003
7.917451e+002, 1.059877e+003
7.922272e+002, 1.057445e+003
7.927094e+002, 1.055413e+003
7.931915e+002, 1.053794e+003
7.936736e+002, 1.052362e+003
7.941557e+002, 1.051015e+003
7.946378e+002, 1.049784e+003
7.951199e+002, 1.048960e+003
7.956021e+002, 1.048387e+003
7.960842e+002, 1.047314e+003
7.965663e+002, 1.045190e+003
7.970484e+002, 1.042714e+003
7.975305e+002, 1.039970e+003
7.980126e+002, 1.037056e+003
7.984948e+002, 1.034800e+003
7.989769e+002, 1.033574e+003
7.994590e+002, 1.032067e+003
7.999411e+002, 1.029382e+003
8.004232e+002, 1.026087e+003
8.009053e+002, 1.025079e+003
8.013875e+002, 1.026087e+003
8.018696e+002, 1.026400e+003
8.023517e+002, 1.023224e+003
8.028338e+002, 1.019393e+003
8.033159e+002, 1.018020e+003
8.037980e+002, 1.018717e+003
8.042802e+002, 1.018884e+003
8.047623e+002, 1.017415e+003
8.052444e+002, 1.015511e+003
8.057265e+002, 1.013314e+003
8.062086e+002, 1.010946e+003
8.066907e+002, 1.009710e+003
8.071729e+002, 1.009842e+003
8.076550e+002, 1.010014e+003
8.081371e+002, 1.009507e+003
8.086192e+002, 1.008610e+003
8.091013e+002, 1.008413e+003
8.095834e+002, 1.008697e+003
8.100656e+002, 1.008218e+003
8.105477e+002, 1.005670e+003
8.110298e+002, 1.002607e+003
8.115119e+002, 9.996593e+002
8.119940e+002, 9.969963e+002
8.124761e+002, 9.954998e+002
8.129583e+002, 9.961342e+002
8.134404e+002, 9.969413e+002
8.139225e+002, 9.975032e+002
8.144046e+002, 9.977785e+002
8.148867e+002, 9.972678e+002
8.153688e+002, 9.959202e+002
8.158510e+002, 9.949325e+002
8.163331e+002, 9.951512e+002
8.168152e+002, 9.959702e+002
8.172973e+002, 9.963846e+002
8.177794e+002, 9.964854e+002
8.182615e+002, 9.966637e+002
8.187437e+002, 9.973555e+002
8.192258e+002, 9.979056e+002
8.197079e+002, 9.980996e+002
8.201900e+002, 9.978750e+002
8.206721e+002, 9.969974e+002
8.211542e+002, 9.948491e+002
8.216364e+002, 9.934130e+002
8.221185e+002, 9.935936e+002
8.226006e+002, 9.948400e+002
8.230827e+002, 9.953655e+002
8.235648e+002, 9.952347e+002
8.240469e+002, 9.949603e+002
8.245291e+002, 9.950619e+002
8.250112e+002, 9.949680e+002
8.254933e+002, 9.937886e+002
8.259754e+002, 9.919260e+002
8.264575e+002, 9.906202e+002
8.269396e+002, 9.908495e+002
8.274218e+002, 9.910350e+002
8.279039e+002, 9.906728e+002
8.283860e+002, 9.899698e+002
8.288681e+002, 9.896945e+002
8.293502e+002, 9.899482e+002
8.298323e+002, 9.899796e+002
8.303145e+002, 9.894116e+002
8.307966e+002, 9.886144e+002
8.312787e+002, 9.884164e+002
8.317608e+002, 9.886039e+002
8.322429e+002, 9.885341e+002
8.327250e+002, 9.872792e+002
8.332072e+002, 9.863156e+002
8.336893e+002, 9.868996e+002
8.341714e+002, 9.883644e+002
8.346535e+002, 9.888568e+002
8.351356e+002, 9.874129e+002
8.356177e+002, 9.866668e+002
8.360999e+002, 9.875109e+002
8.365820e+002, 9.889157e+002
8.370641e+002, 9.881113e+002
8.375462e+002, 9.853478e+002
8.380283e+002, 9.835372e+002
8.385104e+002, 9.839197e+002
8.389926e+002, 9.850569e+002
8.394747e+002, 9.856552e+002
8.399568e+002, 9.858124e+002
8.404389e+002, 9.857079e+002
8.409210e+002, 9.847834e+002
8.414031e+002, 9.843453e+002
8.418853e+002, 9.851181e+002
8.423674e+002, 9.862975e+002
8.428495e+002, 9.866761e+002
8.433316e+002, 9.860200e+002
8.438137e+002, 9.857333e+002
8.442958e+002, 9.861320e+002
8.447780e+002, 9.867214e+002
8.452601e+002, 9.868945e+002
8.457422e+002, 9.866749e+002
8.462243e+002, 9.860304e+002
8.467064e+002, 9.846793e+002
8.471885e+002, 9.836035e+002
8.476707e+002, 9.838925e+002
8.481528e+002, 9.845349e+002
8.486349e+002, 9.842772e+002
8.491170e+002, 9.818206e+002
8.495991e+002, 9.807963e+002
8.500812e+002, 9.818237e+002
8.505634e+002, 9.834451e+002
8.510455e+002, 9.839224e+002
8.515276e+002, 9.834424e+002
8.520097e+002, 9.834244e+002
8.524918e+002, 9.841057e+002
8.529739e+002, 9.849120e+002
8.534561e+002, 9.853202e+002
8.539382e+002, 9.855576e+002
8.544203e+002, 9.858687e+002
8.549024e+002, 9.863085e+002
8.553845e+002, 9.867621e+002
8.558666e+002, 9.871024e+002
8.563488e+002, 9.875247e+002
8.568309e+002, 9.880914e+002
8.573130e+002, 9.887512e+002
8.577951e+002, 9.898762e+002
8.582772e+002, 9.914748e+002
8.587593e+002, 9.932975e+002
8.592415e+002, 9.953559e+002
8.597236e+002, 9.973832e+002
8.602057e+002, 9.988797e+002
8.606878e+002, 9.997990e+002
8.611699e+002, 1.000756e+003
8.616520e+002, 1.002111e+003
8.621342e+002, 1.003565e+003
8.626163e+002, 1.005049e+003
8.630984e+002, 1.006577e+003
8.635805e+002, 1.007624e+003
8.640626e+002, 1.007956e+003
8.645447e+002, 1.008547e+003
8.650269e+002, 1.010177e+003
8.655090e+002, 1.012498e+003
8.659911e+002, 1.013945e+003
8.664732e+002, 1.014710e+003
8.669553e+002, 1.016148e+003
8.674374e+002, 1.019395e+003
8.679196e+002, 1.023349e+003
8.684017e+002, 1.027319e+003
8.688838e+002, 1.031269e+003
8.693659e+002, 1.035277e+003
8.698480e+002, 1.039509e+003
8.703301e+002, 1.043429e+003
8.708123e+002, 1.046821e+003
8.712944e+002, 1.049823e+003
8.717765e+002, 1.052974e+003
8.722586e+002, 1.056215e+003
8.727407e+002, 1.059501e+003
8.732228e+002, 1.062625e+003
8.737050e+002, 1.065927e+003
8.741871e+002, 1.070142e+003
8.746692e+002, 1.074760e+003
8.751513e+002, 1.078731e+003
8.756334e+002, 1.080695e+003
8.761155e+002, 1.083275e+003
8.765977e+002, 1.087102e+003
8.770798e+002, 1.091708e+003
8.775619e+002, 1.096612e+003
8.780440e+002, 1.101944e+003
8.785261e+002, 1.105540e+003
8.790082e+002, 1.106523e+003
8.794904e+002, 1.106982e+003
8.799725e+002, 1.109743e+003
8.804546e+002, 1.113925e+003
8.809367e+002, 1.118026e+003
8.814188e+002, 1.121688e+003
8.819009e+002, 1.125088e+003
8.823831e+002, 1.128118e+003
8.828652e+002, 1.131027e+003
8.833473e+002, 1.133971e+003
8.838294e+002, 1.136944e+003
8.843115e+002, 1.140242e+003
8.847936e+002, 1.144059e+003
8.852758e+002, 1.147570e+003
8.857579e+002, 1.149453e+003
8.862400e+002, 1.150500e+003
8.867221e+002, 1.152781e+003
8.872042e+002, 1.156624e+003
8.876863e+002, 1.159975e+003
8.881685e+002, 1.161714e+003
8.886506e+002, 1.162523e+003
8.891327e+002, 1.162619e+003
8.896148e+002, 1.161865e+003
8.900969e+002, 1.161809e+003
8.905790e+002, 1.162723e+003
8.910612e+002, 1.163570e+003
8.915433e+002, 1.164015e+003
8.920254e+002, 1.163855e+003
8.925075e+002, 1.161692e+003
8.929896e+002, 1.157824e+003
8.934717e+002, 1.154818e+003
8.939539e+002, 1.155652e+003
8.944360e+002, 1.156587e+003
8.949181e+002, 1.154792e+003
8.954002e+002, 1.150642e+003
8.958823e+002, 1.147178e+003
8.963644e+002, 1.144538e+003
8.968466e+002, 1.142793e+003
8.973287e+002, 1.142441e+003
8.978108e+002, 1.142620e+003
8.982929e+002, 1.140550e+003
8.987750e+002, 1.136642e+003
8.992571e+002, 1.133422e+003
8.997393e+002, 1.132181e+003
9.002214e+002, 1.131506e+003
9.007035e+002, 1.130625e+003
9.011856e+002, 1.129403e+003
9.016677e+002, 1.127630e+003
9.021498e+002, 1.124215e+003
9.026320e+002, 1.121673e+003
9.031141e+002, 1.120389e+003
9.035962e+002, 1.119688e+003
9.040783e+002, 1.118896e+003
9.045604e+002, 1.117961e+003
9.050425e+002, 1.116159e+003
9.055247e+002, 1.113205e+003
9.060068e+002, 1.110494e+003
9.064889e+002, 1.109763e+003
9.069710e+002, 1.109793e+003
9.074531e+002, 1.109170e+003
9.079352e+002, 1.107404e+003
9.084174e+002, 1.106010e+003
9.088995e+002, 1.105248e+003
9.093816e+002, 1.104878e+003
9.098637e+002, 1.104909e+003
9.103458e+002, 1.105340e+003
9.108279e+002, 1.105242e+003
9.113101e+002, 1.104598e+003
9.117922e+002, 1.103970e+003
9.122743e+002, 1.103602e+003
9.127564e+002, 1.103559e+003
9.132385e+002, 1.104226e+003
9.137206e+002, 1.105435e+003
9.142028e+002, 1.106023e+003
9.146849e+002, 1.104928e+003
9.151670e+002, 1.103966e+003
9.156491e+002, 1.103666e+003
9.161312e+002, 1.103919e+003
9.166133e+002, 1.104242e+003
9.170955e+002, 1.104643e+003
9.175776e+002, 1.105616e+003
9.180597e+002, 1.107953e+003
9.185418e+002, 1.110052e+003
9.190239e+002, 1.109358e+003
9.195060e+002, 1.107037e+003
9.199882e+002, 1.105352e+003
9.204703e+002, 1.105383e+003
9.209524e+002, 1.105661e+003
9.214345e+002, 1.106264e+003
9.219166e+002, 1.106705e+003
9.223987e+002, 1.106157e+003
9.228809e+002, 1.104502e+003
9.233630e+002, 1.103592e+003
9.238451e+002, 1.103702e+003
9.243272e+002, 1.104087e+003
9.248093e+002, 1.103718e+003
9.252914e+002, 1.103260e+003
9.257736e+002, 1.103947e+003
9.262557e+002, 1.106326e+003
9.267378e+002, 1.107490e+003
9.272199e+002, 1.105716e+003
9.277020e+002, 1.103329e+003
9.281841e+002, 1.101395e+003
9.286663e+002, 1.099930e+003
9.291484e+002, 1.098291e+003
9.296305e+002, 1.096415e+003
9.301126e+002, 1.095535e+003
9.305947e+002, 1.097548e+003
9.310768e+002, 1.100266e+003
9.315590e+002, 1.100692e+003
9.320411e+002, 1.099253e+003
9.325232e+002, 1.097887e+003
9.330053e+002, 1.097390e+003
9.334874e+002, 1.096844e+003
9.339695e+002, 1.095968e+003
9.344517e+002, 1.094905e+003
9.349338e+002, 1.093846e+003
9.354159e+002, 1.092793e+003
9.358980e+002, 1.092417e+003
9.363801e+002, 1.093090e+003
9.368622e+002, 1.094058e+003
9.373444e+002, 1.094334e+003
9.378265e+002, 1.094350e+003
9.383086e+002, 1.094789e+003
9.387907e+002, 1.096232e+003
9.392728e+002, 1.097276e+003
9.397549e+002, 1.097348e+003
9.402371e+002, 1.097272e+003
9.407192e+002, 1.097862e+003
9.412013e+002, 1.099146e+003
9.416834e+002, 1.099548e+003
9.421655e+002, 1.098962e+003
9.426476e+002, 1.098429e+003
9.431298e+002, 1.098271e+003
9.436119e+002, 1.098984e+003
9.440940e+002, 1.101967e+003
9.445761e+002, 1.107119e+003
9.450582e+002, 1.110195e+003
9.455403e+002, 1.108555e+003
9.460225e+002, 1.106632e+003
9.465046e+002, 1.105557e+003
9.469867e+002, 1.105323e+003
9.474688e+002, 1.106227e+003
9.479509e+002, 1.108175e+003
9.484330e+002, 1.109762e+003
9.489152e+002, 1.109972e+003
9.493973e+002, 1.110148e+003
9.498794e+002, 1.111914e+003
9.503615e+002, 1.114495e+003
9.508436e+002, 1.116519e+003
9.513257e+002, 1.117306e+003
9.518079e+002, 1.117850e+003
9.522900e+002, 1.117701e+003
9.527721e+002, 1.118009e+003
9.532542e+002, 1.120686e+003
9.537363e+002, 1.125335e+003
9.542184e+002, 1.128932e+003
9.547006e+002, 1.131123e+003
9.551827e+002, 1.132595e+003
9.556648e+002, 1.133199e+003
9.561469e+002, 1.133885e+003
9.566290e+002, 1.135647e+003
9.571111e+002, 1.138765e+003
9.575933e+002, 1.141330e+003
9.580754e+002, 1.142776e+003
9.585575e+002, 1.144713e+003
9.590396e+002, 1.148260e+003
9.595217e+002, 1.152727e+003
9.600038e+002, 1.155522e+003
9.604860e+002, 1.156949e+003
9.609681e+002, 1.158595e+003
9.614502e+002, 1.161412e+003
9.619323e+002, 1.164558e+003
9.624144e+002, 1.167571e+003
9.628965e+002, 1.170533e+003
9.633787e+002, 1.173557e+003
9.638608e+002, 1.176636e+003
9.643429e+002, 1.179923e+003
9.648250e+002, 1.183643e+003
9.653071e+002, 1.187117e+003
9.657892e+002, 1.188893e+003
9.662714e+002, 1.189720e+003
9.667535e+002, 1.191764e+003
9.672356e+002, 1.195607e+003
9.677177e+002, 1.198884e+003
9.681998e+002, 1.199450e+003
9.686819e+002, 1.199618e+003
9.691641e+002, 1.201025e+003
9.696462e+002, 1.203780e+003
9.701283e+002, 1.206895e+003
9.706104e+002, 1.210662e+003
9.710925e+002, 1.213360e+003
9.715746e+002, 1.213039e+003
9.720568e+002, 1.211556e+003
9.725389e+002, 1.212516e+003
9.730210e+002, 1.215289e+003
9.735031e+002, 1.217777e+003
9.739852e+002, 1.219387e+003
9.744673e+002, 1.220199e+003
9.749495e+002, 1.219689e+003
9.754316e+002, 1.218739e+003
9.759137e+002, 1.218962e+003
9.763958e+002, 1.220445e+003
9.768779e+002, 1.221544e+003
9.773600e+002, 1.221827e+003
9.778422e+002, 1.222435e+003
9.783243e+002, 1.225753e+003
9.788064e+002, 1.229578e+003
9.792885e+002, 1.230745e+003
9.797706e+002, 1.228064e+003
9.802527e+002, 1.226179e+003
9.807349e+002, 1.226012e+003
9.812170e+002, 1.226524e+003
9.816991e+002, 1.227257e+003
9.821812e+002, 1.228199e+003
9.826633e+002, 1.229477e+003
9.831454e+002, 1.231022e+003
9.836276e+002, 1.232215e+003
9.841097e+002, 1.232053e+003
9.845918e+002, 1.231955e+003
9.850739e+002, 1.232819e+003
9.855560e+002, 1.234583e+003
9.860381e+002, 1.237221e+003
9.865203e+002, 1.241566e+003
9.870024e+002, 1.244714e+003
9.874845e+002, 1.245774e+003
9.879666e+002, 1.246562e+003
9.884487e+002, 1.250267e+003
9.889308e+002, 1.255845e+003
9.894130e+002, 1.259900e+003
9.898951e+002, 1.261535e+003
9.903772e+002, 1.264334e+003
9.908593e+002, 1.271738e+003
9.913414e+002, 1.280028e+003
9.918235e+002, 1.286042e+003
9.923057e+002, 1.289574e+003
9.927878e+002, 1.295863e+003
9.932699e+002, 1.305299e+003
9.937520e+002, 1.315349e+003
9.942341e+002, 1.324559e+003
9.947162e+002, 1.333627e+003
9.951984e+002, 1.343145e+003
9.956805e+002, 1.353450e+003
9.961626e+002, 1.365193e+003
9.966447e+002, 1.380400e+003
9.971268e+002, 1.394905e+003
9.976089e+002, 1.407275e+003
9.980911e+002, 1.419142e+003
9.985732e+002, 1.432676e+003
9.990553e+002, 1.447909e+003
9.995374e+002, 1.463655e+003
1.000020e+003, 1.479599e+003
1.000502e+003, 1.495144e+003
1.000984e+003, 1.509580e+003
1.001466e+003, 1.523109e+003
1.001948e+003, 1.535892e+003
1.002430e+003, 1.547812e+003
1.002912e+003, 1.559098e+003
1.003394e+003, 1.570314e+003
1.003876e+003, 1.579744e+003
1.004359e+003, 1.586323e+003
1.004841e+003, 1.590855e+003
1.005323e+003, 1.595875e+003
1.005805e+003, 1.600980e+003
1.006287e+003, 1.604314e+003
1.006769e+003, 1.605421e+003
1.007251e+003, 1.604178e+003
1.007733e+003, 1.599520e+003
1.008216e+003, 1.592880e+003
1.008698e+003, 1.586456e+003
1.009180e+003, 1.580407e+003
1.009662e+003, 1.573955e+003
1.010144e+003, 1.567204e+003
1.010626e+003, 1.559370e+003
1.011108e+003, 1.549123e+003
1.011590e+003, 1.537757e+003
1.012072e+003, 1.527472e+003
1.012555e+003, 1.518252e+003
1.013037e+003, 1.508492e+003
1.013519e+003, 1.497383e+003
1.014001e+003, 1.485887e+003
1.014483e+003, 1.474098e+003
1.014965e+003, 1.462114e+003
1.015447e+003, 1.450405e+003
1.015929e+003, 1.438900e+003
1.016411e+003, 1.427204e+003
1.016894e+003, 1.414928e+003
1.017376e+003, 1.403104e+003
1.017858e+003, 1.393458e+003
1.018340e+003, 1.384525e+003
1.018822e+003, 1.374488e+003
1.019304e+003, 1.362098e+003
1.019786e+003, 1.351133e+003
1.020268e+003, 1.341904e+003
1.020751e+003, 1.333312e+003
1.021233e+003, 1.324420e+003
1.021715e+003, 1.315512e+003
1.022197e+003, 1.307645e+003
1.022679e+003, 1.300658e+003
1.023161e+003, 1.293715e+003
1.023643e+003, 1.286768e+003
1.024125e+003, 1.279326e+003
1.024607e+003, 1.269963e+003
1.025090e+003, 1.260400e+003
1.025572e+003, 1.255068e+003
1.026054e+003, 1.254341e+003
1.026536e+003, 1.251270e+003
1.027018e+003, 1.244150e+003
1.027500e+003, 1.236042e+003
1.027982e+003, 1.229801e+003
1.028464e+003, 1.224630e+003
1.028947e+003, 1.219752e+003
1.029429e+003, 1.215214e+003
1.029911e+003, 1.210088e+003
1.030393e+003, 1.203525e+003
1.030875e+003, 1.197889e+003
1.031357e+003, 1.194783e+003
1.031839e+003, 1.193429e+003
1.032321e+003, 1.191168e+003
1.032803e+003, 1.188262e+003
1.033286e+003, 1.185693e+003
1.033768e+003, 1.184355e+003
1.034250e+003, 1.183045e+003
1.034732e+003, 1.181506e+003
1.035214e+003, 1.179501e+003
1.035696e+003, 1.176657e+003
1.036178e+003, 1.172719e+003
1.036660e+003, 1.169152e+003
1.037143e+003, 1.166034e+003
1.037625e+003, 1.163007e+003
1.038107e+003, 1.159511e+003
1.038589e+003, 1.155917e+003
1.039071e+003, 1.152701e+003
1.039553e+003, 1.149858e+003
1.040035e+003, 1.147275e+003
1.040517e+003, 1.145117e+003
1.041000e+003, 1.142861e+003
1.041482e+003, 1.140235e+003
1.041964e+003, 1.137623e+003
1.042446e+003, 1.136472e+003
1.042928e+003, 1.136302e+003
1.043410e+003, 1.135046e+003
1.043892e+003, 1.131731e+003
1.044374e+003, 1.128374e+003
1.044856e+003, 1.126371e+003
1.045339e+003, 1.124855e+003
1.045821e+003, 1.122975e+003
1.046303e+003, 1.120616e+003
1.046785e+003, 1.118979e+003
1.047267e+003, 1.118221e+003
1.047749e+003, 1.116855e+003
1.048231e+003, 1.113051e+003
1.048713e+003, 1.108705e+003
1.049195e+003, 1.106645e+003
1.049677e+003, 1.106088e+003
1.050160e+003, 1.104808e+003
1.050642e+003, 1.101111e+003
1.051124e+003, 1.098191e+003
1.051606e+003, 1.096759e+003
1.052088e+003, 1.095653e+003
1.052570e+003, 1.093178e+003
1.053052e+003, 1.089674e+003
1.053534e+003, 1.086608e+003
1.054017e+003, 1.084154e+003
1.054499e+003, 1.081825e+003
1.054981e+003, 1.079109e+003
1.055463e+003, 1.076609e+003
1.055945e+003, 1.075024e+003
1.056427e+003, 1.074083e+003
1.056909e+003, 1.072021e+003
1.057391e+003, 1.068700e+003
1.057874e+003, 1.066046e+003
1.058356e+003, 1.065060e+003
1.058838e+003, 1.064326e+003
1.059320e+003, 1.062007e+003
1.059802e+003, 1.058883e+003
1.060284e+003, 1.055991e+003
1.060766e+003, 1.053606e+003
1.061248e+003, 1.051360e+003
1.061730e+003, 1.049161e+003
1.062213e+003, 1.047247e+003
1.062695e+003, 1.046041e+003
1.063177e+003, 1.045227e+003
1.063659e+003, 1.043437e+003
1.064141e+003, 1.040891e+003
1.064623e+003, 1.038715e+003
1.065105e+003, 1.038152e+003
1.065587e+003, 1.037260e+003
1.066070e+003, 1.034984e+003
1.066552e+003, 1.032029e+003
1.067034e+003, 1.029394e+003
1.067516e+003, 1.027089e+003
1.067998e+003, 1.024685e+003
1.068480e+003, 1.022092e+003
1.068962e+003, 1.019996e+003
1.069444e+003, 1.019777e+003
1.069927e+003, 1.019813e+003
1.070409e+003, 1.018474e+003
1.070891e+003, 1.015660e+003
1.071373e+003, 1.013029e+003
1.071855e+003, 1.010456e+003
1.072337e+003, 1.008667e+003
1.072819e+003, 1.008171e+003
1.073301e+003, 1.008098e+003
1.073783e+003, 1.006881e+003
1.074266e+003, 1.004871e+003
1.074748e+003, 1.002657e+003
1.075230e+003, 9.999918e+002
1.075712e+003, 9.983109e+002
1.076194e+003, 9.987081e+002
1.076676e+003, 9.993750e+002
1.077158e+003, 9.992864e+002
1.077640e+003, 9.984940e+002
1.078122e+003, 9.974321e+002
1.078604e+003, 9.961429e+002
1.079087e+003, 9.950031e+002
1.079569e+003, 9.943330e+002
1.080051e+003, 9.937557e+002
1.080533e+003, 9.929036e+002
1.081015e+003, 9.920629e+002
1.081497e+003, 9.918788e+002
1.081979e+003, 9.927411e+002
1.082461e+003, 9.921801e+002
1.082944e+003, 9.898098e+002
1.083426e+003, 9.874199e+002
1.083908e+003, 9.867964e+002
1.084390e+003, 9.871055e+002
1.084872e+003, 9.876849e+002
1.085354e+003, 9.883942e+002
1.085836e+003, 9.883307e+002
1.086318e+003, 9.870059e+002
1.086801e+003, 9.856433e+002
1.087283e+003, 9.845056e+002
1.087765e+003, 9.835234e+002
1.088247e+003, 9.825328e+002
1.088729e+003, 9.815946e+002
1.089211e+003, 9.808990e+002
1.089693e+003, 9.805085e+002
1.090175e+003, 9.801969e+002
1.090657e+003, 9.800312e+002
1.091140e+003, 9.797413e+002
1.091622e+003, 9.791967e+002
1.092104e+003, 9.783986e+002
1.092586e+003, 9.774633e+002
1.093068e+003, 9.763571e+002
1.093550e+003, 9.747018e+002
1.094032e+003, 9.716211e+002
1.094514e+003, 9.689691e+002
1.094997e+003, 9.688986e+002
1.095479e+003, 9.696869e+002
1.095961e+003, 9.688145e+002
1.096443e+003, 9.652572e+002
1.096925e+003, 9.635889e+002
1.097407e+003, 9.641066e+002
1.097889e+003, 9.646607e+002
1.098371e+003, 9.634244e+002
1.098854e+003, 9.613651e+002
1.099336e+003, 9.595776e+002
1.099818e+003, 9.580305e+002
1.100300e+003, 9.564775e+002
1.100782e+003, 9.542704e+002
1.101264e+003, 9.532386e+002
1.101746e+003, 9.541131e+002
1.102228e+003, 9.552443e+002
1.102710e+003, 9.540390e+002
1.103193e+003, 9.514427e+002
1.103675e+003, 9.498599e+002
1.104157e+003, 9.495844e+002
1.104639e+003, 9.491652e+002
1.105121e+003, 9.476943e+002
1.105603e+003, 9.462698e+002
1.106085e+003, 9.453271e+002
1.106567e+003, 9.447150e+002
1.107049e+003, 9.439846e+002
1.107531e+003, 9.431456e+002
1.108014e+003, 9.423292e+002
1.108496e+003, 9.414890e+002
1.108978e+003, 9.408889e+002
1.109460e+003, 9.410886e+002
1.109942e+003, 9.413033e+002
1.110424e+003, 9.407030e+002
1.110906e+003, 9.392191e+002
1.111388e+003, 9.384803e+002
1.111871e+003, 9.385469e+002
1.112353e+003, 9.384471e+002
1.112835e+003, 9.375573e+002
1.113317e+003, 9.364515e+002
1.113799e+003, 9.354489e+002
1.114281e+003, 9.347820e+002
1.114763e+003, 9.349103e+002
1.115245e+003, 9.369148e+002
1.115728e+003, 9.375565e+002
1.116210e+003, 9.366325e+002
1.116692e+003, 9.350652e+002
1.117174e+003, 9.330497e+002
1.117656e+003, 9.312023e+002
1.118138e+003, 9.310704e+002
1.118620e+003, 9.322204e+002
1.119102e+003, 9.327878e+002
1.119584e+003, 9.316145e+002
1.120067e+003, 9.304786e+002
1.120549e+003, 9.297139e+002
1.121031e+003, 9.289643e+002
1.121513e+003, 9.274561e+002
1.121995e+003, 9.255568e+002
1.122477e+003, 9.246517e+002
1.122959e+003, 9.248414e+002
1.123441e+003, 9.253156e+002
1.123924e+003, 9.261448e+002
1.124406e+003, 9.265734e+002
1.124888e+003, 9.260558e+002
1.125370e+003, 9.250620e+002
1.125852e+003, 9.252802e+002
1.126334e+003, 9.265117e+002
1.126816e+003, 9.260990e+002
1.127298e+003, 9.230800e+002
1.127781e+003, 9.201984e+002
1.128263e+003, 9.200475e+002
1.128745e+003, 9.204739e+002
1.129227e+003, 9.195789e+002
1.129709e+003, 9.174081e+002
1.130191e+003, 9.157697e+002
1.130673e+003, 9.146598e+002
1.131155e+003, 9.139450e+002
1.131637e+003, 9.135933e+002
1.132120e+003, 9.135377e+002
1.132602e+003, 9.137660e+002
1.133084e+003, 9.142112e+002
1.133566e+003, 9.148310e+002
1.134048e+003, 9.157943e+002
1.134530e+003, 9.162249e+002
1.135012e+003, 9.159949e+002
1.135494e+003, 9.157174e+002
1.135976e+003, 9.158852e+002
1.136458e+003, 9.161909e+002
1.136941e+003, 9.160145e+002
1.137423e+003, 9.155880e+002
1.137905e+003, 9.154710e+002
1.138387e+003, 9.162811e+002
1.138869e+003, 9.166757e+002
1.139351e+003, 9.164493e+002
1.139833e+003, 9.160955e+002
1.140315e+003, 9.160721e+002
1.140798e+003, 9.162946e+002
1.141280e+003, 9.165428e+002
1.141762e+003, 9.168286e+002
1.142244e+003, 9.172897e+002
1.142726e+003, 9.186852e+002
1.143208e+003, 9.192155e+002
1.143690e+003, 9.179675e+002
1.144172e+003, 9.163563e+002
1.144655e+003, 9.169360e+002
1.145137e+003, 9.190696e+002
1.145619e+003, 9.201620e+002
1.146101e+003, 9.198870e+002
1.146583e+003, 9.193157e+002
1.147065e+003, 9.186671e+002
1.147547e+003, 9.183077e+002
1.148029e+003, 9.185218e+002
1.148511e+003, 9.190759e+002
1.148994e+003, 9.192228e+002
1.149476e+003, 9.190297e+002
1.149958e+003, 9.191088e+002
1.150440e+003, 9.196543e+002
1.150922e+003, 9.202109e+002
1.151404e+003, 9.205286e+002
1.151886e+003, 9.206405e+002
1.152368e+003, 9.204619e+002
1.152851e+003, 9.200466e+002
1.153333e+003, 9.199708e+002
1.153815e+003, 9.202233e+002
1.154297e+003, 9.205752e+002
1.154779e+003, 9.210412e+002
1.155261e+003, 9.213172e+002
1.155743e+003, 9.210152e+002
1.156225e+003, 9.204160e+002
1.156708e+003, 9.198401e+002
1.157190e+003, 9.193342e+002
1.157672e+003, 9.185950e+002
1.158154e+003, 9.175648e+002
1.158636e+003, 9.168719e+002
1.159118e+003, 9.171398e+002
1.159600e+003, 9.176544e+002
1.160082e+003, 9.176749e+002
1.160564e+003, 9.173817e+002
1.161047e+003, 9.171192e+002
1.161529e+003, 9.174667e+002
1.162011e+003, 9.164058e+002
1.162493e+003, 9.135298e+002
1.162975e+003, 9.109372e+002
1.163457e+003, 9.105490e+002
1.163939e+003, 9.111999e+002
1.164421e+003, 9.113118e+002
1.164903e+003, 9.110690e+002
1.165385e+003, 9.111553e+002
1.165868e+003, 9.125514e+002
1.166350e+003, 9.124405e+002
1.166832e+003, 9.100522e+002
1.167314e+003, 9.076481e+002
1.167796e+003, 9.081377e+002
1.168278e+003, 9.099947e+002
1.168760e+003, 9.105125e+002
1.169242e+003, 9.097308e+002
1.169725e+003, 9.089800e+002
1.170207e+003, 9.090798e+002
1.170689e+003, 9.084951e+002
1.171171e+003, 9.066471e+002
1.171653e+003, 9.047200e+002
1.172135e+003, 9.046232e+002
1.172617e+003, 9.056818e+002
1.173099e+003, 9.065677e+002
1.173582e+003, 9.071109e+002
1.174064e+003, 9.070100e+002
1.174546e+003, 9.043060e+002
1.175028e+003, 9.036498e+002
1.175510e+003, 9.074029e+002
1.175992e+003, 9.123856e+002
1.176474e+003, 9.113116e+002
1.176956e+003, 9.061994e+002
1.177438e+003, 9.026959e+002
1.177921e+003, 9.018587e+002
1.178403e+003, 9.025787e+002
1.178885e+003, 9.064439e+002
1.179367e+003, 9.094422e+002
1.179849e+003, 9.099769e+002
1.180331e+003, 9.085477e+002
1.180813e+003, 9.057770e+002
1.181295e+003, 9.022881e+002
1.181778e+003, 9.007216e+002
1.182260e+003, 9.025087e+002
1.182742e+003, 9.036673e+002
1.183224e+003, 9.015339e+002
1.183706e+003, 8.990878e+002
1.184188e+003, 8.978384e+002
1.184670e+003, 8.976786e+002
1.185152e+003, 8.985193e+002
1.185635e+003, 9.000833e+002
1.186117e+003, 9.009534e+002
1.186599e+003, 9.002572e+002
1.187081e+003, 8.994570e+002
1.187563e+003, 8.993644e+002
1.188045e+003, 8.993536e+002
1.188527e+003, 8.988293e+002
1.189009e+003, 8.978856e+002
1.189491e+003, 8.978973e+002
1.189974e+003, 8.987162e+002
1.190456e+003, 8.992382e+002
1.190938e+003, 8.985786e+002
1.191420e+003, 8.979514e+002
1.191902e+003, 8.981365e+002
1.192384e+003, 8.985124e+002
1.192866e+003, 8.985237e+002
1.193348e+003, 8.981686e+002
1.193830e+003, 8.970839e+002
1.194313e+003, 8.953779e+002
1.194795e+003, 8.944160e+002
1.195277e+003, 8.958484e+002
1.195759e+003, 8.973061e+002
1.196241e+003, 8.973032e+002
1.196723e+003, 8.966877e+002
1.197205e+003, 8.965077e+002
1.197687e+003, 8.967772e+002
1.198169e+003, 8.971642e+002
1.198652e+003, 8.976530e+002
1.199134e+003, 8.981320e+002
1.199616e+003, 8.992129e+002
1.200098e+003, 8.995428e+002
1.200580e+003, 8.972094e+002
1.201062e+003, 8.941034e+002
1.201544e+003, 8.936060e+002
1.202026e+003, 8.958148e+002
1.202509e+003, 8.968313e+002
1.202991e+003, 8.963074e+002
1.203473e+003, 8.956786e+002
1.203955e+003, 8.960389e+002
1.204437e+003, 8.965721e+002
1.204919e+003, 8.967314e+002
1.205401e+003, 8.966632e+002
1.205883e+003, 8.967377e+002
1.206365e+003, 8.969505e+002
1.206848e+003, 8.969871e+002
1.207330e+003, 8.967849e+002
1.207812e+003, 8.966696e+002
1.208294e+003, 8.971235e+002
1.208776e+003, 8.975331e+002
1.209258e+003, 8.975679e+002
1.209740e+003, 8.971946e+002
1.210222e+003, 8.959725e+002
1.210705e+003, 8.938779e+002
1.211187e+003, 8.931617e+002
1.211669e+003, 8.943627e+002
1.212151e+003, 8.957050e+002
1.212633e+003, 8.959122e+002
1.213115e+003, 8.956052e+002
1.213597e+003, 8.948790e+002
1.214079e+003, 8.940432e+002
1.214562e+003, 8.943510e+002
1.215044e+003, 8.957733e+002
1.215526e+003, 8.969398e+002
1.216008e+003, 8.975867e+002
1.216490e+003, 8.976754e+002
1.216972e+003, 8.963963e+002
1.217454e+003, 8.952272e+002
1.217936e+003, 8.955812e+002
1.218418e+003, 8.970465e+002
1.218901e+003, 8.972458e+002
1.219383e+003, 8.962789e+002
1.219865e+003, 8.969860e+002
1.220347e+003, 9.009045e+002
1.220829e+003, 9.036688e+002
1.221311e+003, 9.001614e+002
1.221793e+003, 8.958470e+002
1.222275e+003, 8.949882e+002
1.222757e+003, 8.971076e+002
1.223240e+003, 8.985573e+002
1.223722e+003, 8.993800e+002
1.224204e+003, 9.001299e+002
1.224686e+003, 9.012805e+002
1.225168e+003, 9.015876e+002
1.225650e+003, 8.992461e+002
1.226132e+003, 8.966202e+002
1.226614e+003, 8.956812e+002
1.227096e+003, 8.961847e+002
1.227579e+003, 8.957513e+002
1.228061e+003, 8.945000e+002
1.228543e+003, 8.934082e+002
1.229025e+003, 8.926999e+002
1.229507e+003, 8.925901e+002
1.229989e+003, 8.935873e+002
1.230471e+003, 8.949349e+002
1.230953e+003, 8.963018e+002
1.231436e+003, 8.975383e+002
1.231918e+003, 8.966918e+002
1.232400e+003, 8.941144e+002
1.232882e+003, 8.923065e+002
1.233364e+003, 8.926356e+002
1.233846e+003, 8.932830e+002
1.234328e+003, 8.932808e+002
1.234810e+003, 8.933625e+002
1.235292e+003, 8.941279e+002
1.235775e+003, 8.954796e+002
1.236257e+003, 8.970357e+002
1.236739e+003, 8.985703e+002
1.237221e+003, 8.988057e+002
1.237703e+003, 8.953973e+002
1.238185e+003, 8.935191e+002
1.238667e+003, 8.968666e+002
1.239149e+003, 9.007531e+002
1.239632e+003, 9.018107e+002
1.240114e+003, 9.004855e+002
1.240596e+003, 8.992510e+002
1.241078e+003, 8.981367e+002
1.241560e+003, 8.972316e+002
1.242042e+003, 8.967758e+002
1.242524e+003, 8.962368e+002
1.243006e+003, 8.952825e+002
1.243489e+003, 8.944745e+002
1.243971e+003, 8.941349e+002
1.244453e+003, 8.943164e+002
1.244935e+003, 8.959197e+002
1.245417e+003, 8.983658e+002
1.245899e+003, 8.994509e+002
1.246381e+003, 8.963500e+002
1.246863e+003, 8.946970e+002
1.247345e+003, 8.956813e+002
1.247828e+003, 8.974509e+002
1.248310e+003, 8.988939e+002
1.248792e+003, 8.997695e+002
1.249274e+003, 8.988067e+002
1.249756e+003, 8.966430e+002
1.250238e+003, 8.954446e+002
1.250720e+003, 8.970909e+002
1.251202e+003, 8.980406e+002
1.251684e+003, 8.978115e+002
1.252167e+003, 8.973563e+002
1.252649e+003, 8.974949e+002
1.253131e+003, 8.979796e+002
1.253613e+003, 8.985148e+002
1.254095e+003, 8.989720e+002
1.254577e+003, 8.989780e+002
1.255059e+003, 8.979998e+002
1.255541e+003, 8.973369e+002
1.256023e+003, 8.970372e+002
1.256506e+003, 8.971067e+002
1.256988e+003, 8.979879e+002
1.257470e+003, 8.989526e+002
1.257952e+003, 8.988244e+002
1.258434e+003, 8.979192e+002
1.258916e+003, 8.972203e+002
1.259398e+003, 8.969349e+002
1.259880e+003, 8.964873e+002
1.260363e+003, 8.957121e+002
1.260845e+003, 8.956298e+002
1.261327e+003, 8.982855e+002
1.261809e+003, 9.010742e+002
1.262291e+003, 9.009294e+002
1.262773e+003, 8.987874e+002
1.263255e+003, 8.972882e+002
1.263737e+003, 8.965491e+002
1.264219e+003, 8.966517e+002
1.264702e+003, 8.976916e+002
1.265184e+003, 8.982042e+002
1.265666e+003, 8.960349e+002
1.266148e+003, 8.938884e+002
1.266630e+003, 8.942102e+002
1.267112e+003, 8.960071e+002
1.267594e+003, 8.972119e+002
1.268076e+003, 8.978639e+002
1.268559e+003, 8.970605e+002
1.269041e+003, 8.947705e+002
1.269523e+003, 8.932697e+002
1.270005e+003, 8.948917e+002
1.270487e+003, 8.969133e+002
1.270969e+003, 8.980508e+002
1.271451e+003, 8.984220e+002
1.271933e+003, 8.977440e+002
1.272416e+003, 8.961768e+002
1.272898e+003, 8.960428e+002
1.273380e+003, 8.973666e+002
1.273862e+003, 8.986843e+002
1.274344e+003, 8.991411e+002
1.274826e+003, 8.994567e+002
1.275308e+003, 9.001121e+002
1.275790e+003, 9.005284e+002
1.276272e+003, 8.995127e+002
1.276755e+003, 8.976491e+002
1.277237e+003, 8.972945e+002
1.277719e+003, 8.984045e+002
1.278201e+003, 8.996154e+002
1.278683e+003, 9.005275e+002
1.279165e+003, 9.011695e+002
1.279647e+003, 9.015168e+002
1.280129e+003, 9.017035e+002
1.280611e+003, 9.017225e+002
1.281094e+003, 9.017646e+002
1.281576e+003, 9.023727e+002
1.282058e+003, 9.034308e+002
1.282540e+003, 9.042429e+002
1.283022e+003, 9.045743e+002
1.283504e+003, 9.046629e+002
1.283986e+003, 9.044156e+002
1.284468e+003, 9.043105e+002
1.284950e+003, 9.051164e+002
1.285433e+003, 9.061472e+002
1.285915e+003, 9.063835e+002
1.286397e+003, 9.060195e+002
1.286879e+003, 9.058871e+002
1.287361e+003, 9.059051e+002
1.287843e+003, 9.070515e+002
1.288325e+003, 9.096605e+002
1.288807e+003, 9.113216e+002
1.289290e+003, 9.085397e+002
1.289772e+003, 9.052238e+002
1.290254e+003, 9.049395e+002
1.290736e+003, 9.067556e+002
1.291218e+003, 9.081196e+002
1.291700e+003, 9.090215e+002
1.292182e+003, 9.094074e+002
1.292664e+003, 9.092712e+002
1.293146e+003, 9.093055e+002
1.293629e+003, 9.100842e+002
1.294111e+003, 9.110710e+002
1.294593e+003, 9.122632e+002
1.295075e+003, 9.132591e+002
1.295557e+003, 9.133348e+002
1.296039e+003, 9.126531e+002
1.296521e+003, 9.126586e+002
1.297003e+003, 9.133210e+002
1.297486e+003, 9.138282e+002
1.297968e+003, 9.138444e+002
1.298450e+003, 9.136355e+002
1.298932e+003, 9.131390e+002
1.299414e+003, 9.127626e+002
1.299896e+003, 9.131329e+002
1.300378e+003, 9.139605e+002
1.300860e+003, 9.143997e+002
1.301343e+003, 9.145496e+002
1.301825e+003, 9.149485e+002
##END=



