##NAMES=Creaseyite
##RRUFFID=R140557
##IDEAL CHEMISTRY=Cu^2+^_2_Pb^2+^_2_Fe^3+^_2_Si_5_O_17_&#183;6H_2_O
##LOCALITY=Evening Star mine, Tiger Wash, Belmont Mountain, Tonopah, Osborn District, Big Horn Mts, Maricopa County, Arizona, USA
##OWNER=RRUFF
##SOURCE=Ron Gibbs
##DESCRIPTION=Radiating aggregate of acicular pale-green crystals, associated with prismatic yellow hedyphane.
##STATUS=The identification of this mineral has been confirmed by single-crystal X-ray diffraction.
##URL=rruff.info/R140557
8.978320e+001, 7.691526e+003
9.026532e+001, 7.602734e+003
9.074744e+001, 7.590896e+003
9.122955e+001, 7.670117e+003
9.171167e+001, 7.816737e+003
9.219379e+001, 8.010413e+003
9.267590e+001, 8.249611e+003
9.315802e+001, 8.494889e+003
9.364014e+001, 8.693342e+003
9.412225e+001, 8.870351e+003
9.460437e+001, 9.094787e+003
9.508649e+001, 9.388928e+003
9.556860e+001, 9.730905e+003
9.605072e+001, 1.010012e+004
9.653284e+001, 1.050487e+004
9.701495e+001, 1.091220e+004
9.749707e+001, 1.131914e+004
9.797919e+001, 1.172648e+004
9.846130e+001, 1.204354e+004
9.894342e+001, 1.227265e+004
9.942554e+001, 1.241235e+004
9.990765e+001, 1.236426e+004
1.003898e+002, 1.212358e+004
1.008719e+002, 1.173090e+004
1.013540e+002, 1.121414e+004
1.018361e+002, 1.053529e+004
1.023182e+002, 9.868872e+003
1.028004e+002, 9.263125e+003
1.032825e+002, 8.717069e+003
1.037646e+002, 8.243352e+003
1.042467e+002, 7.841896e+003
1.047288e+002, 7.509777e+003
1.052109e+002, 7.246309e+003
1.056931e+002, 7.056343e+003
1.061752e+002, 6.917209e+003
1.066573e+002, 6.817538e+003
1.071394e+002, 6.764604e+003
1.076215e+002, 6.737188e+003
1.081036e+002, 6.748497e+003
1.085858e+002, 6.789564e+003
1.090679e+002, 6.811408e+003
1.095500e+002, 6.792560e+003
1.100321e+002, 6.771098e+003
1.105142e+002, 6.767331e+003
1.109963e+002, 6.785162e+003
1.114785e+002, 6.815486e+003
1.119606e+002, 6.858509e+003
1.124427e+002, 6.913864e+003
1.129248e+002, 6.976707e+003
1.134069e+002, 7.047377e+003
1.138890e+002, 7.124282e+003
1.143712e+002, 7.207044e+003
1.148533e+002, 7.297257e+003
1.153354e+002, 7.391052e+003
1.158175e+002, 7.489527e+003
1.162996e+002, 7.594884e+003
1.167817e+002, 7.694417e+003
1.172639e+002, 7.778708e+003
1.177460e+002, 7.856983e+003
1.182281e+002, 7.940881e+003
1.187102e+002, 8.045507e+003
1.191923e+002, 8.149708e+003
1.196744e+002, 8.237213e+003
1.201566e+002, 8.302868e+003
1.206387e+002, 8.368450e+003
1.211208e+002, 8.445838e+003
1.216029e+002, 8.532255e+003
1.220850e+002, 8.621605e+003
1.225671e+002, 8.707230e+003
1.230493e+002, 8.795514e+003
1.235314e+002, 8.897058e+003
1.240135e+002, 9.020811e+003
1.244956e+002, 9.139657e+003
1.249777e+002, 9.225582e+003
1.254598e+002, 9.282950e+003
1.259420e+002, 9.326958e+003
1.264241e+002, 9.363729e+003
1.269062e+002, 9.394054e+003
1.273883e+002, 9.420316e+003
1.278704e+002, 9.445229e+003
1.283525e+002, 9.463109e+003
1.288347e+002, 9.463824e+003
1.293168e+002, 9.447753e+003
1.297989e+002, 9.423490e+003
1.302810e+002, 9.393146e+003
1.307631e+002, 9.359025e+003
1.312452e+002, 9.330184e+003
1.317274e+002, 9.312573e+003
1.322095e+002, 9.300132e+003
1.326916e+002, 9.274689e+003
1.331737e+002, 9.234647e+003
1.336558e+002, 9.191813e+003
1.341379e+002, 9.153490e+003
1.346201e+002, 9.119846e+003
1.351022e+002, 9.097221e+003
1.355843e+002, 9.087415e+003
1.360664e+002, 9.090279e+003
1.365485e+002, 9.105022e+003
1.370306e+002, 9.131549e+003
1.375128e+002, 9.170779e+003
1.379949e+002, 9.225780e+003
1.384770e+002, 9.298092e+003
1.389591e+002, 9.380042e+003
1.394412e+002, 9.472904e+003
1.399233e+002, 9.576941e+003
1.404055e+002, 9.677362e+003
1.408876e+002, 9.778561e+003
1.413697e+002, 9.871511e+003
1.418518e+002, 9.940989e+003
1.423339e+002, 9.981251e+003
1.428160e+002, 1.001015e+004
1.432982e+002, 1.003168e+004
1.437803e+002, 1.004111e+004
1.442624e+002, 1.005673e+004
1.447445e+002, 1.007410e+004
1.452266e+002, 1.009939e+004
1.457087e+002, 1.014470e+004
1.461909e+002, 1.021023e+004
1.466730e+002, 1.029638e+004
1.471551e+002, 1.040596e+004
1.476372e+002, 1.055296e+004
1.481193e+002, 1.069889e+004
1.486014e+002, 1.085365e+004
1.490836e+002, 1.100879e+004
1.495657e+002, 1.114098e+004
1.500478e+002, 1.124756e+004
1.505299e+002, 1.133068e+004
1.510120e+002, 1.139144e+004
1.514941e+002, 1.142017e+004
1.519763e+002, 1.143729e+004
1.524584e+002, 1.144557e+004
1.529405e+002, 1.144335e+004
1.534226e+002, 1.142340e+004
1.539047e+002, 1.137808e+004
1.543868e+002, 1.131935e+004
1.548690e+002, 1.125371e+004
1.553511e+002, 1.118156e+004
1.558332e+002, 1.110287e+004
1.563153e+002, 1.101745e+004
1.567974e+002, 1.092555e+004
1.572795e+002, 1.082903e+004
1.577617e+002, 1.072478e+004
1.582438e+002, 1.061811e+004
1.587259e+002, 1.051290e+004
1.592080e+002, 1.040764e+004
1.596901e+002, 1.030648e+004
1.601722e+002, 1.021229e+004
1.606544e+002, 1.012482e+004
1.611365e+002, 1.003760e+004
1.616186e+002, 9.943154e+003
1.621007e+002, 9.850644e+003
1.625828e+002, 9.766211e+003
1.630649e+002, 9.692518e+003
1.635471e+002, 9.627704e+003
1.640292e+002, 9.572014e+003
1.645113e+002, 9.525366e+003
1.649934e+002, 9.483863e+003
1.654755e+002, 9.438295e+003
1.659576e+002, 9.398354e+003
1.664398e+002, 9.376499e+003
1.669219e+002, 9.389975e+003
1.674040e+002, 9.413840e+003
1.678861e+002, 9.430982e+003
1.683682e+002, 9.440135e+003
1.688503e+002, 9.451932e+003
1.693325e+002, 9.472322e+003
1.698146e+002, 9.500135e+003
1.702967e+002, 9.533060e+003
1.707788e+002, 9.578943e+003
1.712609e+002, 9.625110e+003
1.717430e+002, 9.660227e+003
1.722252e+002, 9.683695e+003
1.727073e+002, 9.697878e+003
1.731894e+002, 9.700937e+003
1.736715e+002, 9.695869e+003
1.741536e+002, 9.689396e+003
1.746357e+002, 9.685977e+003
1.751179e+002, 9.682401e+003
1.756000e+002, 9.672082e+003
1.760821e+002, 9.652729e+003
1.765642e+002, 9.637002e+003
1.770463e+002, 9.635002e+003
1.775284e+002, 9.646344e+003
1.780106e+002, 9.669729e+003
1.784927e+002, 9.704067e+003
1.789748e+002, 9.750171e+003
1.794569e+002, 9.807783e+003
1.799390e+002, 9.876810e+003
1.804211e+002, 9.959794e+003
1.809033e+002, 1.006304e+004
1.813854e+002, 1.018543e+004
1.818675e+002, 1.031799e+004
1.823496e+002, 1.045728e+004
1.828317e+002, 1.060282e+004
1.833138e+002, 1.076219e+004
1.837960e+002, 1.093618e+004
1.842781e+002, 1.111972e+004
1.847602e+002, 1.130027e+004
1.852423e+002, 1.148049e+004
1.857244e+002, 1.166830e+004
1.862065e+002, 1.186813e+004
1.866887e+002, 1.208043e+004
1.871708e+002, 1.230888e+004
1.876529e+002, 1.255145e+004
1.881350e+002, 1.281389e+004
1.886171e+002, 1.309467e+004
1.890992e+002, 1.339662e+004
1.895814e+002, 1.373384e+004
1.900635e+002, 1.410941e+004
1.905456e+002, 1.453010e+004
1.910277e+002, 1.500058e+004
1.915098e+002, 1.552082e+004
1.919919e+002, 1.609621e+004
1.924741e+002, 1.672300e+004
1.929562e+002, 1.739762e+004
1.934383e+002, 1.813768e+004
1.939204e+002, 1.895168e+004
1.944025e+002, 1.983848e+004
1.948846e+002, 2.078615e+004
1.953668e+002, 2.180848e+004
1.958489e+002, 2.287397e+004
1.963310e+002, 2.393744e+004
1.968131e+002, 2.501024e+004
1.972952e+002, 2.598973e+004
1.977773e+002, 2.685604e+004
1.982595e+002, 2.760780e+004
1.987416e+002, 2.811290e+004
1.992237e+002, 2.835388e+004
1.997058e+002, 2.833595e+004
2.001879e+002, 2.804342e+004
2.006700e+002, 2.745228e+004
2.011522e+002, 2.668139e+004
2.016343e+002, 2.577188e+004
2.021164e+002, 2.470986e+004
2.025985e+002, 2.364251e+004
2.030806e+002, 2.258349e+004
2.035627e+002, 2.154230e+004
2.040449e+002, 2.056214e+004
2.045270e+002, 1.964291e+004
2.050091e+002, 1.878446e+004
2.054912e+002, 1.798772e+004
2.059733e+002, 1.725366e+004
2.064554e+002, 1.657531e+004
2.069376e+002, 1.594924e+004
2.074197e+002, 1.538112e+004
2.079018e+002, 1.487037e+004
2.083839e+002, 1.441813e+004
2.088660e+002, 1.401916e+004
2.093481e+002, 1.367500e+004
2.098303e+002, 1.338470e+004
2.103124e+002, 1.314548e+004
2.107945e+002, 1.295950e+004
2.112766e+002, 1.282498e+004
2.117587e+002, 1.273074e+004
2.122408e+002, 1.268351e+004
2.127230e+002, 1.266250e+004
2.132051e+002, 1.265963e+004
2.136872e+002, 1.268437e+004
2.141693e+002, 1.269533e+004
2.146514e+002, 1.269202e+004
2.151335e+002, 1.267101e+004
2.156156e+002, 1.261692e+004
2.160978e+002, 1.252475e+004
2.165799e+002, 1.240711e+004
2.170620e+002, 1.226756e+004
2.175441e+002, 1.209741e+004
2.180262e+002, 1.192801e+004
2.185083e+002, 1.175819e+004
2.189905e+002, 1.158908e+004
2.194726e+002, 1.143504e+004
2.199547e+002, 1.129429e+004
2.204368e+002, 1.116760e+004
2.209189e+002, 1.105695e+004
2.214010e+002, 1.096204e+004
2.218832e+002, 1.088216e+004
2.223653e+002, 1.081716e+004
2.228474e+002, 1.076721e+004
2.233295e+002, 1.073000e+004
2.238116e+002, 1.070635e+004
2.242937e+002, 1.069540e+004
2.247759e+002, 1.069577e+004
2.252580e+002, 1.070341e+004
2.257401e+002, 1.073270e+004
2.262222e+002, 1.078907e+004
2.267043e+002, 1.086763e+004
2.271864e+002, 1.095064e+004
2.276686e+002, 1.103187e+004
2.281507e+002, 1.112412e+004
2.286328e+002, 1.123429e+004
2.291149e+002, 1.136605e+004
2.295970e+002, 1.150627e+004
2.300791e+002, 1.165264e+004
2.305613e+002, 1.180701e+004
2.310434e+002, 1.197131e+004
2.315255e+002, 1.214227e+004
2.320076e+002, 1.232509e+004
2.324897e+002, 1.252314e+004
2.329718e+002, 1.274766e+004
2.334540e+002, 1.296244e+004
2.339361e+002, 1.317083e+004
2.344182e+002, 1.336949e+004
2.349003e+002, 1.355154e+004
2.353824e+002, 1.372524e+004
2.358645e+002, 1.387064e+004
2.363467e+002, 1.397798e+004
2.368288e+002, 1.404450e+004
2.373109e+002, 1.407825e+004
2.377930e+002, 1.407753e+004
2.382751e+002, 1.404414e+004
2.387572e+002, 1.398257e+004
2.392394e+002, 1.388438e+004
2.397215e+002, 1.376923e+004
2.402036e+002, 1.364390e+004
2.406857e+002, 1.350538e+004
2.411678e+002, 1.336276e+004
2.416499e+002, 1.321525e+004
2.421321e+002, 1.306443e+004
2.426142e+002, 1.291041e+004
2.430963e+002, 1.274855e+004
2.435784e+002, 1.259143e+004
2.440605e+002, 1.244431e+004
2.445426e+002, 1.230201e+004
2.450248e+002, 1.218102e+004
2.455069e+002, 1.208376e+004
2.459890e+002, 1.200672e+004
2.464711e+002, 1.194314e+004
2.469532e+002, 1.189054e+004
2.474353e+002, 1.185481e+004
2.479175e+002, 1.183928e+004
2.483996e+002, 1.184647e+004
2.488817e+002, 1.186640e+004
2.493638e+002, 1.190342e+004
2.498459e+002, 1.195099e+004
2.503280e+002, 1.199788e+004
2.508102e+002, 1.204662e+004
2.512923e+002, 1.209108e+004
2.517744e+002, 1.213334e+004
2.522565e+002, 1.217948e+004
2.527386e+002, 1.219705e+004
2.532207e+002, 1.218504e+004
2.537029e+002, 1.214522e+004
2.541850e+002, 1.207960e+004
2.546671e+002, 1.198672e+004
2.551492e+002, 1.186970e+004
2.556313e+002, 1.172811e+004
2.561135e+002, 1.156080e+004
2.565956e+002, 1.137899e+004
2.570777e+002, 1.118226e+004
2.575598e+002, 1.097331e+004
2.580419e+002, 1.075425e+004
2.585240e+002, 1.052256e+004
2.590062e+002, 1.029102e+004
2.594883e+002, 1.005971e+004
2.599704e+002, 9.832018e+003
2.604525e+002, 9.612421e+003
2.609346e+002, 9.401307e+003
2.614167e+002, 9.201116e+003
2.618989e+002, 9.014783e+003
2.623810e+002, 8.843938e+003
2.628631e+002, 8.687343e+003
2.633452e+002, 8.546949e+003
2.638273e+002, 8.421199e+003
2.643094e+002, 8.309389e+003
2.647916e+002, 8.211282e+003
2.652737e+002, 8.124881e+003
2.657558e+002, 8.048356e+003
2.662379e+002, 7.984849e+003
2.667200e+002, 7.923619e+003
2.672021e+002, 7.865354e+003
2.676843e+002, 7.808579e+003
2.681664e+002, 7.736108e+003
2.686485e+002, 7.645885e+003
2.691306e+002, 7.544444e+003
2.696127e+002, 7.437045e+003
2.700948e+002, 7.323208e+003
2.705770e+002, 7.206620e+003
2.710591e+002, 7.088561e+003
2.715412e+002, 6.969127e+003
2.720233e+002, 6.843878e+003
2.725054e+002, 6.712278e+003
2.729875e+002, 6.581420e+003
2.734697e+002, 6.456427e+003
2.739518e+002, 6.336021e+003
2.744339e+002, 6.222591e+003
2.749160e+002, 6.116870e+003
2.753981e+002, 6.018452e+003
2.758802e+002, 5.923001e+003
2.763624e+002, 5.831019e+003
2.768445e+002, 5.745971e+003
2.773266e+002, 5.671885e+003
2.778087e+002, 5.609452e+003
2.782908e+002, 5.547580e+003
2.787729e+002, 5.484060e+003
2.792551e+002, 5.422288e+003
2.797372e+002, 5.372893e+003
2.802193e+002, 5.337150e+003
2.807014e+002, 5.304672e+003
2.811835e+002, 5.268769e+003
2.816656e+002, 5.229557e+003
2.821478e+002, 5.195039e+003
2.826299e+002, 5.165521e+003
2.831120e+002, 5.140825e+003
2.835941e+002, 5.121255e+003
2.840762e+002, 5.106861e+003
2.845583e+002, 5.095438e+003
2.850405e+002, 5.085600e+003
2.855226e+002, 5.077547e+003
2.860047e+002, 5.073030e+003
2.864868e+002, 5.072005e+003
2.869689e+002, 5.074673e+003
2.874510e+002, 5.081566e+003
2.879332e+002, 5.092616e+003
2.884153e+002, 5.106823e+003
2.888974e+002, 5.123347e+003
2.893795e+002, 5.142500e+003
2.898616e+002, 5.165729e+003
2.903438e+002, 5.193331e+003
2.908259e+002, 5.222856e+003
2.913080e+002, 5.250166e+003
2.917901e+002, 5.276097e+003
2.922722e+002, 5.307673e+003
2.927543e+002, 5.348984e+003
2.932365e+002, 5.396225e+003
2.937186e+002, 5.439944e+003
2.942007e+002, 5.479707e+003
2.946828e+002, 5.519750e+003
2.951649e+002, 5.562364e+003
2.956470e+002, 5.607759e+003
2.961292e+002, 5.658433e+003
2.966113e+002, 5.715636e+003
2.970934e+002, 5.776963e+003
2.975755e+002, 5.839696e+003
2.980576e+002, 5.904122e+003
2.985397e+002, 5.969693e+003
2.990219e+002, 6.034626e+003
2.995040e+002, 6.101452e+003
2.999861e+002, 6.174950e+003
3.004682e+002, 6.256878e+003
3.009503e+002, 6.343971e+003
3.014324e+002, 6.433612e+003
3.019146e+002, 6.525436e+003
3.023967e+002, 6.621661e+003
3.028788e+002, 6.727874e+003
3.033609e+002, 6.837452e+003
3.038430e+002, 6.939804e+003
3.043251e+002, 7.033909e+003
3.048073e+002, 7.119052e+003
3.052894e+002, 7.195943e+003
3.057715e+002, 7.263633e+003
3.062536e+002, 7.322053e+003
3.067357e+002, 7.369959e+003
3.072178e+002, 7.408353e+003
3.077000e+002, 7.437280e+003
3.081821e+002, 7.456554e+003
3.086642e+002, 7.467133e+003
3.091463e+002, 7.467523e+003
3.096284e+002, 7.459919e+003
3.101105e+002, 7.447721e+003
3.105927e+002, 7.427419e+003
3.110748e+002, 7.406678e+003
3.115569e+002, 7.389449e+003
3.120390e+002, 7.376001e+003
3.125211e+002, 7.368229e+003
3.130032e+002, 7.364217e+003
3.134854e+002, 7.367478e+003
3.139675e+002, 7.381842e+003
3.144496e+002, 7.406100e+003
3.149317e+002, 7.443980e+003
3.154138e+002, 7.495400e+003
3.158959e+002, 7.561274e+003
3.163781e+002, 7.647759e+003
3.168602e+002, 7.760232e+003
3.173423e+002, 7.891958e+003
3.178244e+002, 8.038057e+003
3.183065e+002, 8.198243e+003
3.187886e+002, 8.371296e+003
3.192708e+002, 8.558850e+003
3.197529e+002, 8.758453e+003
3.202350e+002, 8.964033e+003
3.207171e+002, 9.187682e+003
3.211992e+002, 9.403926e+003
3.216813e+002, 9.603247e+003
3.221635e+002, 9.794263e+003
3.226456e+002, 9.945237e+003
3.231277e+002, 1.005376e+004
3.236098e+002, 1.011776e+004
3.240919e+002, 1.013392e+004
3.245740e+002, 1.009848e+004
3.250562e+002, 1.001762e+004
3.255383e+002, 9.889568e+003
3.260204e+002, 9.709342e+003
3.265025e+002, 9.502688e+003
3.269846e+002, 9.254159e+003
3.274667e+002, 8.987654e+003
3.279489e+002, 8.725381e+003
3.284310e+002, 8.464521e+003
3.289131e+002, 8.211065e+003
3.293952e+002, 7.962720e+003
3.298773e+002, 7.719321e+003
3.303594e+002, 7.488503e+003
3.308416e+002, 7.270130e+003
3.313237e+002, 7.066942e+003
3.318058e+002, 6.881657e+003
3.322879e+002, 6.714711e+003
3.327700e+002, 6.564094e+003
3.332521e+002, 6.428506e+003
3.337343e+002, 6.307526e+003
3.342164e+002, 6.199321e+003
3.346985e+002, 6.106677e+003
3.351806e+002, 6.024093e+003
3.356627e+002, 5.948684e+003
3.361448e+002, 5.880704e+003
3.366270e+002, 5.821749e+003
3.371090e+002, 5.775137e+003
3.375912e+002, 5.735772e+003
3.380733e+002, 5.692444e+003
3.385554e+002, 5.644484e+003
3.390375e+002, 5.596136e+003
3.395196e+002, 5.548235e+003
3.400017e+002, 5.501031e+003
3.404839e+002, 5.457849e+003
3.409660e+002, 5.420467e+003
3.414481e+002, 5.384963e+003
3.419302e+002, 5.346589e+003
3.424123e+002, 5.304618e+003
3.428944e+002, 5.264924e+003
3.433766e+002, 5.228577e+003
3.438587e+002, 5.195784e+003
3.443408e+002, 5.165133e+003
3.448229e+002, 5.136361e+003
3.453050e+002, 5.112649e+003
3.457871e+002, 5.097415e+003
3.462693e+002, 5.090144e+003
3.467514e+002, 5.086949e+003
3.472335e+002, 5.086511e+003
3.477156e+002, 5.090597e+003
3.481977e+002, 5.103128e+003
3.486798e+002, 5.123896e+003
3.491620e+002, 5.149908e+003
3.496441e+002, 5.178686e+003
3.501262e+002, 5.211312e+003
3.506083e+002, 5.249918e+003
3.510904e+002, 5.295013e+003
3.515725e+002, 5.346786e+003
3.520547e+002, 5.406794e+003
3.525368e+002, 5.474032e+003
3.530189e+002, 5.545443e+003
3.535010e+002, 5.619683e+003
3.539831e+002, 5.697135e+003
3.544652e+002, 5.778517e+003
3.549474e+002, 5.864628e+003
3.554295e+002, 5.952621e+003
3.559116e+002, 6.039563e+003
3.563937e+002, 6.127671e+003
3.568758e+002, 6.219014e+003
3.573579e+002, 6.320577e+003
3.578401e+002, 6.421437e+003
3.583222e+002, 6.514254e+003
3.588043e+002, 6.600253e+003
3.592864e+002, 6.681599e+003
3.597685e+002, 6.761246e+003
3.602506e+002, 6.836302e+003
3.607328e+002, 6.903872e+003
3.612149e+002, 6.966088e+003
3.616970e+002, 7.017126e+003
3.621791e+002, 7.056233e+003
3.626612e+002, 7.082400e+003
3.631433e+002, 7.093401e+003
3.636255e+002, 7.081599e+003
3.641076e+002, 7.059855e+003
3.645897e+002, 7.034126e+003
3.650718e+002, 7.006756e+003
3.655539e+002, 6.970995e+003
3.660360e+002, 6.925258e+003
3.665182e+002, 6.870699e+003
3.670003e+002, 6.808716e+003
3.674824e+002, 6.730289e+003
3.679645e+002, 6.654053e+003
3.684466e+002, 6.582366e+003
3.689287e+002, 6.516462e+003
3.694109e+002, 6.457383e+003
3.698930e+002, 6.410074e+003
3.703751e+002, 6.365989e+003
3.708572e+002, 6.319195e+003
3.713393e+002, 6.267876e+003
3.718214e+002, 6.218030e+003
3.723036e+002, 6.171063e+003
3.727857e+002, 6.125829e+003
3.732678e+002, 6.077791e+003
3.737499e+002, 6.026173e+003
3.742320e+002, 5.972194e+003
3.747141e+002, 5.917993e+003
3.751963e+002, 5.865277e+003
3.756784e+002, 5.802802e+003
3.761605e+002, 5.729156e+003
3.766426e+002, 5.647709e+003
3.771247e+002, 5.566114e+003
3.776068e+002, 5.483836e+003
3.780890e+002, 5.399294e+003
3.785711e+002, 5.311981e+003
3.790532e+002, 5.221808e+003
3.795353e+002, 5.133947e+003
3.800174e+002, 5.047673e+003
3.804995e+002, 4.963430e+003
3.809817e+002, 4.881229e+003
3.814638e+002, 4.801435e+003
3.819459e+002, 4.723433e+003
3.824280e+002, 4.647579e+003
3.829101e+002, 4.573931e+003
3.833922e+002, 4.504593e+003
3.838744e+002, 4.438849e+003
3.843565e+002, 4.375633e+003
3.848386e+002, 4.314928e+003
3.853207e+002, 4.256242e+003
3.858028e+002, 4.200694e+003
3.862849e+002, 4.147909e+003
3.867671e+002, 4.097856e+003
3.872492e+002, 4.050466e+003
3.877313e+002, 4.005401e+003
3.882134e+002, 3.962833e+003
3.886955e+002, 3.924101e+003
3.891776e+002, 3.887680e+003
3.896598e+002, 3.852548e+003
3.901419e+002, 3.818770e+003
3.906240e+002, 3.784974e+003
3.911061e+002, 3.748821e+003
3.915882e+002, 3.712579e+003
3.920703e+002, 3.678503e+003
3.925525e+002, 3.647805e+003
3.930346e+002, 3.618721e+003
3.935167e+002, 3.588705e+003
3.939988e+002, 3.559138e+003
3.944809e+002, 3.533479e+003
3.949630e+002, 3.514812e+003
3.954452e+002, 3.498879e+003
3.959273e+002, 3.484100e+003
3.964094e+002, 3.471091e+003
3.968915e+002, 3.456605e+003
3.973736e+002, 3.437308e+003
3.978557e+002, 3.417061e+003
3.983379e+002, 3.400628e+003
3.988200e+002, 3.392611e+003
3.993021e+002, 3.383954e+003
3.997842e+002, 3.371925e+003
4.002663e+002, 3.356516e+003
4.007484e+002, 3.344165e+003
4.012306e+002, 3.335352e+003
4.017127e+002, 3.329183e+003
4.021948e+002, 3.325734e+003
4.026769e+002, 3.328068e+003
4.031590e+002, 3.325836e+003
4.036411e+002, 3.315218e+003
4.041233e+002, 3.301157e+003
4.046054e+002, 3.297053e+003
4.050875e+002, 3.306601e+003
4.055696e+002, 3.315322e+003
4.060517e+002, 3.316191e+003
4.065338e+002, 3.308909e+003
4.070160e+002, 3.306086e+003
4.074981e+002, 3.308538e+003
4.079802e+002, 3.313389e+003
4.084623e+002, 3.316775e+003
4.089444e+002, 3.318839e+003
4.094265e+002, 3.324243e+003
4.099087e+002, 3.335831e+003
4.103908e+002, 3.350251e+003
4.108729e+002, 3.358250e+003
4.113550e+002, 3.360111e+003
4.118371e+002, 3.362737e+003
4.123192e+002, 3.371049e+003
4.128014e+002, 3.383857e+003
4.132835e+002, 3.398773e+003
4.137656e+002, 3.415902e+003
4.142477e+002, 3.433730e+003
4.147298e+002, 3.451032e+003
4.152119e+002, 3.467687e+003
4.156941e+002, 3.482975e+003
4.161762e+002, 3.494878e+003
4.166583e+002, 3.506445e+003
4.171404e+002, 3.520854e+003
4.176225e+002, 3.538113e+003
4.181046e+002, 3.554970e+003
4.185868e+002, 3.569518e+003
4.190689e+002, 3.582818e+003
4.195510e+002, 3.596095e+003
4.200331e+002, 3.609276e+003
4.205152e+002, 3.622828e+003
4.209973e+002, 3.639118e+003
4.214795e+002, 3.656045e+003
4.219616e+002, 3.667552e+003
4.224437e+002, 3.666820e+003
4.229258e+002, 3.665123e+003
4.234079e+002, 3.667903e+003
4.238900e+002, 3.677749e+003
4.243722e+002, 3.684362e+003
4.248543e+002, 3.684681e+003
4.253364e+002, 3.682628e+003
4.258185e+002, 3.681997e+003
4.263006e+002, 3.683768e+003
4.267827e+002, 3.685649e+003
4.272649e+002, 3.687847e+003
4.277470e+002, 3.690057e+003
4.282291e+002, 3.690140e+003
4.287112e+002, 3.687271e+003
4.291933e+002, 3.683632e+003
4.296754e+002, 3.680129e+003
4.301576e+002, 3.676621e+003
4.306397e+002, 3.673581e+003
4.311218e+002, 3.670395e+003
4.316039e+002, 3.668618e+003
4.320860e+002, 3.670889e+003
4.325681e+002, 3.677363e+003
4.330503e+002, 3.686023e+003
4.335324e+002, 3.696566e+003
4.340145e+002, 3.708759e+003
4.344966e+002, 3.720743e+003
4.349787e+002, 3.732427e+003
4.354608e+002, 3.747679e+003
4.359430e+002, 3.772821e+003
4.364251e+002, 3.804477e+003
4.369072e+002, 3.833051e+003
4.373893e+002, 3.856889e+003
4.378714e+002, 3.877623e+003
4.383535e+002, 3.896309e+003
4.388357e+002, 3.913284e+003
4.393178e+002, 3.929478e+003
4.397999e+002, 3.948656e+003
4.402820e+002, 3.965187e+003
4.407641e+002, 3.972499e+003
4.412462e+002, 3.970242e+003
4.417284e+002, 3.966072e+003
4.422105e+002, 3.962484e+003
4.426926e+002, 3.959715e+003
4.431747e+002, 3.958018e+003
4.436568e+002, 3.958321e+003
4.441389e+002, 3.958572e+003
4.446211e+002, 3.959672e+003
4.451032e+002, 3.960424e+003
4.455853e+002, 3.957350e+003
4.460674e+002, 3.944672e+003
4.465495e+002, 3.932669e+003
4.470316e+002, 3.925454e+003
4.475138e+002, 3.924629e+003
4.479959e+002, 3.924225e+003
4.484780e+002, 3.926480e+003
4.489601e+002, 3.927789e+003
4.494422e+002, 3.924277e+003
4.499243e+002, 3.913505e+003
4.504065e+002, 3.903115e+003
4.508886e+002, 3.893488e+003
4.513707e+002, 3.885206e+003
4.518528e+002, 3.880877e+003
4.523349e+002, 3.881456e+003
4.528170e+002, 3.882932e+003
4.532992e+002, 3.881764e+003
4.537813e+002, 3.877806e+003
4.542634e+002, 3.880323e+003
4.547455e+002, 3.890268e+003
4.552276e+002, 3.904020e+003
4.557097e+002, 3.917321e+003
4.561919e+002, 3.930280e+003
4.566740e+002, 3.945075e+003
4.571561e+002, 3.963470e+003
4.576382e+002, 3.982846e+003
4.581203e+002, 3.999256e+003
4.586024e+002, 4.012675e+003
4.590846e+002, 4.021700e+003
4.595667e+002, 4.025787e+003
4.600488e+002, 4.024958e+003
4.605309e+002, 4.019522e+003
4.610130e+002, 4.009829e+003
4.614951e+002, 3.994469e+003
4.619773e+002, 3.969599e+003
4.624594e+002, 3.939273e+003
4.629415e+002, 3.909031e+003
4.634236e+002, 3.882082e+003
4.639057e+002, 3.855020e+003
4.643878e+002, 3.825101e+003
4.648700e+002, 3.793098e+003
4.653521e+002, 3.763044e+003
4.658342e+002, 3.736407e+003
4.663163e+002, 3.711292e+003
4.667984e+002, 3.686243e+003
4.672805e+002, 3.658261e+003
4.677627e+002, 3.635834e+003
4.682448e+002, 3.620048e+003
4.687269e+002, 3.609628e+003
4.692090e+002, 3.602847e+003
4.696911e+002, 3.601060e+003
4.701732e+002, 3.600264e+003
4.706554e+002, 3.599167e+003
4.711375e+002, 3.598078e+003
4.716196e+002, 3.600066e+003
4.721017e+002, 3.605366e+003
4.725838e+002, 3.613063e+003
4.730659e+002, 3.622979e+003
4.735481e+002, 3.635094e+003
4.740302e+002, 3.648250e+003
4.745123e+002, 3.662300e+003
4.749944e+002, 3.677640e+003
4.754765e+002, 3.695450e+003
4.759586e+002, 3.715421e+003
4.764408e+002, 3.735374e+003
4.769229e+002, 3.753070e+003
4.774050e+002, 3.770923e+003
4.778871e+002, 3.793294e+003
4.783692e+002, 3.819879e+003
4.788513e+002, 3.847609e+003
4.793335e+002, 3.875036e+003
4.798156e+002, 3.902224e+003
4.802977e+002, 3.928688e+003
4.807798e+002, 3.953754e+003
4.812619e+002, 3.979749e+003
4.817440e+002, 4.011583e+003
4.822262e+002, 4.044286e+003
4.827083e+002, 4.070536e+003
4.831904e+002, 4.083795e+003
4.836725e+002, 4.094101e+003
4.841546e+002, 4.105879e+003
4.846367e+002, 4.118691e+003
4.851189e+002, 4.126262e+003
4.856010e+002, 4.124687e+003
4.860831e+002, 4.119882e+003
4.865652e+002, 4.115288e+003
4.870473e+002, 4.114057e+003
4.875294e+002, 4.105938e+003
4.880116e+002, 4.088857e+003
4.884937e+002, 4.066522e+003
4.889758e+002, 4.044061e+003
4.894579e+002, 4.022292e+003
4.899400e+002, 3.997584e+003
4.904221e+002, 3.968260e+003
4.909043e+002, 3.935383e+003
4.913864e+002, 3.902370e+003
4.918685e+002, 3.869043e+003
4.923506e+002, 3.835882e+003
4.928327e+002, 3.802550e+003
4.933148e+002, 3.769583e+003
4.937970e+002, 3.738700e+003
4.942791e+002, 3.709991e+003
4.947612e+002, 3.683290e+003
4.952433e+002, 3.657689e+003
4.957254e+002, 3.633645e+003
4.962076e+002, 3.612010e+003
4.966897e+002, 3.593818e+003
4.971718e+002, 3.577517e+003
4.976539e+002, 3.560868e+003
4.981360e+002, 3.544807e+003
4.986181e+002, 3.532585e+003
4.991003e+002, 3.527771e+003
4.995824e+002, 3.526274e+003
5.000645e+002, 3.525211e+003
5.005466e+002, 3.523729e+003
5.010287e+002, 3.524742e+003
5.015108e+002, 3.528597e+003
5.019930e+002, 3.535523e+003
5.024751e+002, 3.545718e+003
5.029572e+002, 3.557581e+003
5.034393e+002, 3.574718e+003
5.039214e+002, 3.598368e+003
5.044035e+002, 3.627377e+003
5.048857e+002, 3.658276e+003
5.053678e+002, 3.690167e+003
5.058499e+002, 3.726128e+003
5.063320e+002, 3.767842e+003
5.068141e+002, 3.815573e+003
5.072962e+002, 3.865232e+003
5.077784e+002, 3.917501e+003
5.082605e+002, 3.971636e+003
5.087426e+002, 4.029301e+003
5.092247e+002, 4.090074e+003
5.097068e+002, 4.147518e+003
5.101889e+002, 4.200111e+003
5.106711e+002, 4.249259e+003
5.111532e+002, 4.301108e+003
5.116353e+002, 4.352758e+003
5.121174e+002, 4.389324e+003
5.125995e+002, 4.401254e+003
5.130817e+002, 4.395345e+003
5.135638e+002, 4.380425e+003
5.140459e+002, 4.356431e+003
5.145280e+002, 4.317625e+003
5.150101e+002, 4.256853e+003
5.154922e+002, 4.181117e+003
5.159744e+002, 4.096945e+003
5.164565e+002, 4.002179e+003
5.169386e+002, 3.905164e+003
5.174207e+002, 3.806303e+003
5.179028e+002, 3.707404e+003
5.183849e+002, 3.611412e+003
5.188671e+002, 3.517155e+003
5.193492e+002, 3.427718e+003
5.198313e+002, 3.342291e+003
5.203134e+002, 3.261657e+003
5.207955e+002, 3.186529e+003
5.212776e+002, 3.117438e+003
5.217598e+002, 3.052739e+003
5.222419e+002, 2.992092e+003
5.227240e+002, 2.935004e+003
5.232061e+002, 2.882796e+003
5.236882e+002, 2.835404e+003
5.241703e+002, 2.792697e+003
5.246525e+002, 2.755643e+003
5.251346e+002, 2.723784e+003
5.256167e+002, 2.691923e+003
5.260988e+002, 2.658267e+003
5.265809e+002, 2.624833e+003
5.270630e+002, 2.595461e+003
5.275452e+002, 2.569987e+003
5.280273e+002, 2.546699e+003
5.285094e+002, 2.524552e+003
5.289915e+002, 2.503876e+003
5.294736e+002, 2.484826e+003
5.299557e+002, 2.467351e+003
5.304379e+002, 2.451133e+003
5.309200e+002, 2.434597e+003
5.314021e+002, 2.419628e+003
5.318842e+002, 2.408284e+003
5.323663e+002, 2.405311e+003
5.328484e+002, 2.399822e+003
5.333306e+002, 2.386223e+003
5.338127e+002, 2.368458e+003
5.342948e+002, 2.355269e+003
5.347769e+002, 2.352246e+003
5.352590e+002, 2.347957e+003
5.357411e+002, 2.338934e+003
5.362233e+002, 2.325452e+003
5.367054e+002, 2.315562e+003
5.371875e+002, 2.310930e+003
5.376696e+002, 2.306917e+003
5.381517e+002, 2.299890e+003
5.386339e+002, 2.289523e+003
5.391160e+002, 2.282011e+003
5.395981e+002, 2.278333e+003
5.400802e+002, 2.275860e+003
5.405623e+002, 2.270969e+003
5.410444e+002, 2.264016e+003
5.415266e+002, 2.256866e+003
5.420087e+002, 2.249833e+003
5.424908e+002, 2.243179e+003
5.429729e+002, 2.238212e+003
5.434550e+002, 2.234329e+003
5.439371e+002, 2.228994e+003
5.444193e+002, 2.218527e+003
5.449014e+002, 2.207417e+003
5.453835e+002, 2.199698e+003
5.458656e+002, 2.195852e+003
5.463477e+002, 2.192219e+003
5.468298e+002, 2.187882e+003
5.473120e+002, 2.182709e+003
5.477941e+002, 2.176571e+003
5.482762e+002, 2.166858e+003
5.487583e+002, 2.159688e+003
5.492404e+002, 2.157547e+003
5.497225e+002, 2.157576e+003
5.502047e+002, 2.154659e+003
5.506868e+002, 2.146483e+003
5.511689e+002, 2.139879e+003
5.516510e+002, 2.137112e+003
5.521331e+002, 2.137477e+003
5.526152e+002, 2.136216e+003
5.530974e+002, 2.132990e+003
5.535795e+002, 2.129963e+003
5.540616e+002, 2.128635e+003
5.545437e+002, 2.128823e+003
5.550258e+002, 2.128885e+003
5.555079e+002, 2.128523e+003
5.559901e+002, 2.129841e+003
5.564722e+002, 2.136361e+003
5.569543e+002, 2.146091e+003
5.574364e+002, 2.154784e+003
5.579185e+002, 2.160606e+003
5.584006e+002, 2.166014e+003
5.588828e+002, 2.172816e+003
5.593649e+002, 2.180688e+003
5.598470e+002, 2.189053e+003
5.603291e+002, 2.196802e+003
5.608112e+002, 2.205680e+003
5.612933e+002, 2.217016e+003
5.617755e+002, 2.230834e+003
5.622576e+002, 2.244124e+003
5.627397e+002, 2.256900e+003
5.632218e+002, 2.268448e+003
5.637039e+002, 2.278116e+003
5.641860e+002, 2.284254e+003
5.646682e+002, 2.293147e+003
5.651503e+002, 2.306135e+003
5.656324e+002, 2.320385e+003
5.661145e+002, 2.332260e+003
5.665966e+002, 2.341786e+003
5.670787e+002, 2.349914e+003
5.675609e+002, 2.356568e+003
5.680430e+002, 2.362416e+003
5.685251e+002, 2.369344e+003
5.690072e+002, 2.377090e+003
5.694893e+002, 2.382925e+003
5.699714e+002, 2.384374e+003
5.704536e+002, 2.383542e+003
5.709357e+002, 2.383081e+003
5.714178e+002, 2.383067e+003
5.718999e+002, 2.383637e+003
5.723820e+002, 2.386796e+003
5.728641e+002, 2.389456e+003
5.733463e+002, 2.388589e+003
5.738284e+002, 2.382577e+003
5.743105e+002, 2.375890e+003
5.747926e+002, 2.369100e+003
5.752747e+002, 2.362610e+003
5.757568e+002, 2.357011e+003
5.762390e+002, 2.354854e+003
5.767211e+002, 2.350062e+003
5.772032e+002, 2.341231e+003
5.776853e+002, 2.329309e+003
5.781674e+002, 2.317356e+003
5.786495e+002, 2.304626e+003
5.791317e+002, 2.294194e+003
5.796138e+002, 2.288414e+003
5.800959e+002, 2.286491e+003
5.805780e+002, 2.281898e+003
5.810601e+002, 2.274553e+003
5.815422e+002, 2.265135e+003
5.820244e+002, 2.251974e+003
5.825065e+002, 2.237296e+003
5.829886e+002, 2.227164e+003
5.834707e+002, 2.222613e+003
5.839528e+002, 2.220467e+003
5.844349e+002, 2.218675e+003
5.849170e+002, 2.217219e+003
5.853991e+002, 2.216080e+003
5.858812e+002, 2.216187e+003
5.863633e+002, 2.215568e+003
5.868455e+002, 2.211016e+003
5.873276e+002, 2.204880e+003
5.878097e+002, 2.203842e+003
5.882918e+002, 2.213572e+003
5.887739e+002, 2.224140e+003
5.892560e+002, 2.233067e+003
5.897382e+002, 2.240338e+003
5.902203e+002, 2.245478e+003
5.907024e+002, 2.246410e+003
5.911845e+002, 2.248815e+003
5.916666e+002, 2.257187e+003
5.921487e+002, 2.272087e+003
5.926309e+002, 2.285618e+003
5.931130e+002, 2.297622e+003
5.935951e+002, 2.308188e+003
5.940772e+002, 2.317644e+003
5.945593e+002, 2.325853e+003
5.950414e+002, 2.331956e+003
5.955236e+002, 2.335505e+003
5.960057e+002, 2.337531e+003
5.964878e+002, 2.339403e+003
5.969699e+002, 2.340640e+003
5.974520e+002, 2.340051e+003
5.979341e+002, 2.338825e+003
5.984163e+002, 2.334044e+003
5.988984e+002, 2.322849e+003
5.993805e+002, 2.305814e+003
5.998626e+002, 2.288703e+003
6.003447e+002, 2.272763e+003
6.008268e+002, 2.257079e+003
6.013090e+002, 2.241297e+003
6.017911e+002, 2.225748e+003
6.022732e+002, 2.208276e+003
6.027553e+002, 2.187960e+003
6.032374e+002, 2.167043e+003
6.037195e+002, 2.148411e+003
6.042017e+002, 2.132308e+003
6.046838e+002, 2.114165e+003
6.051659e+002, 2.092892e+003
6.056480e+002, 2.070323e+003
6.061301e+002, 2.048927e+003
6.066122e+002, 2.028841e+003
6.070944e+002, 2.010954e+003
6.075765e+002, 1.997417e+003
6.080586e+002, 1.984194e+003
6.085407e+002, 1.964868e+003
6.090228e+002, 1.941343e+003
6.095049e+002, 1.919737e+003
6.099871e+002, 1.904803e+003
6.104692e+002, 1.891716e+003
6.109513e+002, 1.877527e+003
6.114334e+002, 1.861784e+003
6.119155e+002, 1.847102e+003
6.123976e+002, 1.835356e+003
6.128798e+002, 1.823758e+003
6.133619e+002, 1.810673e+003
6.138440e+002, 1.794458e+003
6.143261e+002, 1.780374e+003
6.148082e+002, 1.768702e+003
6.152903e+002, 1.758671e+003
6.157725e+002, 1.750196e+003
6.162546e+002, 1.743482e+003
6.167367e+002, 1.734698e+003
6.172188e+002, 1.722124e+003
6.177009e+002, 1.708657e+003
6.181830e+002, 1.700412e+003
6.186652e+002, 1.696199e+003
6.191473e+002, 1.691179e+003
6.196294e+002, 1.681609e+003
6.201115e+002, 1.671120e+003
6.205936e+002, 1.664063e+003
6.210757e+002, 1.659708e+003
6.215579e+002, 1.654141e+003
6.220400e+002, 1.644726e+003
6.225221e+002, 1.634238e+003
6.230042e+002, 1.623546e+003
6.234863e+002, 1.612152e+003
6.239684e+002, 1.604084e+003
6.244506e+002, 1.603273e+003
6.249327e+002, 1.602897e+003
6.254148e+002, 1.597954e+003
6.258969e+002, 1.585818e+003
6.263790e+002, 1.577509e+003
6.268611e+002, 1.574506e+003
6.273433e+002, 1.573521e+003
6.278254e+002, 1.569857e+003
6.283075e+002, 1.563641e+003
6.287896e+002, 1.557674e+003
6.292717e+002, 1.552756e+003
6.297538e+002, 1.548236e+003
6.302360e+002, 1.542031e+003
6.307181e+002, 1.535186e+003
6.312002e+002, 1.531122e+003
6.316823e+002, 1.534712e+003
6.321644e+002, 1.539272e+003
6.326465e+002, 1.539344e+003
6.331287e+002, 1.535458e+003
6.336108e+002, 1.531680e+003
6.340929e+002, 1.528524e+003
6.345750e+002, 1.526544e+003
6.350571e+002, 1.525542e+003
6.355392e+002, 1.524862e+003
6.360214e+002, 1.528978e+003
6.365035e+002, 1.541676e+003
6.369856e+002, 1.554558e+003
6.374677e+002, 1.560447e+003
6.379498e+002, 1.558083e+003
6.384319e+002, 1.557563e+003
6.389141e+002, 1.559492e+003
6.393962e+002, 1.563356e+003
6.398783e+002, 1.568709e+003
6.403604e+002, 1.575446e+003
6.408425e+002, 1.583399e+003
6.413246e+002, 1.592663e+003
6.418068e+002, 1.602741e+003
6.422889e+002, 1.614057e+003
6.427710e+002, 1.625801e+003
6.432531e+002, 1.636424e+003
6.437352e+002, 1.642659e+003
6.442173e+002, 1.649918e+003
6.446995e+002, 1.662285e+003
6.451816e+002, 1.678711e+003
6.456637e+002, 1.692158e+003
6.461458e+002, 1.700393e+003
6.466279e+002, 1.706574e+003
6.471100e+002, 1.711299e+003
6.475922e+002, 1.714403e+003
6.480743e+002, 1.719063e+003
6.485564e+002, 1.726947e+003
6.490385e+002, 1.731893e+003
6.495206e+002, 1.727622e+003
6.500027e+002, 1.715220e+003
6.504849e+002, 1.704393e+003
6.509670e+002, 1.696235e+003
6.514491e+002, 1.687263e+003
6.519312e+002, 1.672194e+003
6.524133e+002, 1.654010e+003
6.528954e+002, 1.638855e+003
6.533776e+002, 1.629122e+003
6.538597e+002, 1.620148e+003
6.543418e+002, 1.609905e+003
6.548239e+002, 1.598264e+003
6.553060e+002, 1.585183e+003
6.557881e+002, 1.567690e+003
6.562703e+002, 1.552187e+003
6.567524e+002, 1.540785e+003
6.572345e+002, 1.532415e+003
6.577166e+002, 1.523843e+003
6.581987e+002, 1.514260e+003
6.586808e+002, 1.506472e+003
6.591630e+002, 1.502179e+003
6.596451e+002, 1.500528e+003
6.601272e+002, 1.496031e+003
6.606093e+002, 1.488448e+003
6.610914e+002, 1.481340e+003
6.615735e+002, 1.477387e+003
6.620557e+002, 1.475386e+003
6.625378e+002, 1.473041e+003
6.630199e+002, 1.470219e+003
6.635020e+002, 1.467497e+003
6.639841e+002, 1.463942e+003
6.644662e+002, 1.461417e+003
6.649484e+002, 1.462118e+003
6.654305e+002, 1.467704e+003
6.659126e+002, 1.472680e+003
6.663947e+002, 1.475073e+003
6.668768e+002, 1.476594e+003
6.673589e+002, 1.479087e+003
6.678411e+002, 1.483446e+003
6.683232e+002, 1.486859e+003
6.688053e+002, 1.488867e+003
6.692874e+002, 1.490096e+003
6.697695e+002, 1.491549e+003
6.702516e+002, 1.493227e+003
6.707338e+002, 1.494914e+003
6.712159e+002, 1.496417e+003
6.716980e+002, 1.498018e+003
6.721801e+002, 1.500053e+003
6.726622e+002, 1.502563e+003
6.731443e+002, 1.505787e+003
6.736265e+002, 1.509961e+003
6.741086e+002, 1.514766e+003
6.745907e+002, 1.521265e+003
6.750728e+002, 1.528749e+003
6.755549e+002, 1.533158e+003
6.760370e+002, 1.529217e+003
6.765192e+002, 1.525572e+003
6.770013e+002, 1.526456e+003
6.774834e+002, 1.532395e+003
6.779655e+002, 1.537395e+003
6.784476e+002, 1.541289e+003
6.789297e+002, 1.544627e+003
6.794119e+002, 1.547616e+003
6.798940e+002, 1.550280e+003
6.803761e+002, 1.553171e+003
6.808582e+002, 1.556416e+003
6.813403e+002, 1.559351e+003
6.818224e+002, 1.560625e+003
6.823046e+002, 1.561202e+003
6.827867e+002, 1.563293e+003
6.832688e+002, 1.567639e+003
6.837509e+002, 1.572498e+003
6.842330e+002, 1.576504e+003
6.847151e+002, 1.580254e+003
6.851973e+002, 1.584421e+003
6.856794e+002, 1.589499e+003
6.861615e+002, 1.594718e+003
6.866436e+002, 1.599502e+003
6.871257e+002, 1.604494e+003
6.876078e+002, 1.610836e+003
6.880900e+002, 1.618679e+003
6.885721e+002, 1.627290e+003
6.890542e+002, 1.636560e+003
6.895363e+002, 1.646302e+003
6.900184e+002, 1.656658e+003
6.905005e+002, 1.667507e+003
6.909827e+002, 1.677056e+003
6.914648e+002, 1.683703e+003
6.919469e+002, 1.688901e+003
6.924290e+002, 1.694334e+003
6.929111e+002, 1.700242e+003
6.933932e+002, 1.707931e+003
6.938754e+002, 1.718091e+003
6.943575e+002, 1.730425e+003
6.948396e+002, 1.745689e+003
6.953217e+002, 1.764310e+003
6.958038e+002, 1.781150e+003
6.962859e+002, 1.795337e+003
6.967681e+002, 1.807882e+003
6.972502e+002, 1.818204e+003
6.977323e+002, 1.824341e+003
6.982144e+002, 1.839125e+003
6.986965e+002, 1.864862e+003
6.991786e+002, 1.892789e+003
6.996608e+002, 1.912847e+003
7.001429e+002, 1.927027e+003
7.006250e+002, 1.947031e+003
7.011071e+002, 1.975232e+003
7.015892e+002, 2.004292e+003
7.020714e+002, 2.026395e+003
7.025535e+002, 2.044808e+003
7.030356e+002, 2.064492e+003
7.035177e+002, 2.087733e+003
7.039998e+002, 2.110434e+003
7.044819e+002, 2.130721e+003
7.049641e+002, 2.149477e+003
7.054462e+002, 2.168400e+003
7.059283e+002, 2.187771e+003
7.064104e+002, 2.207303e+003
7.068925e+002, 2.228325e+003
7.073746e+002, 2.248725e+003
7.078568e+002, 2.262560e+003
7.083389e+002, 2.269367e+003
7.088210e+002, 2.276930e+003
7.093031e+002, 2.288035e+003
7.097852e+002, 2.301452e+003
7.102673e+002, 2.315193e+003
7.107495e+002, 2.329153e+003
7.112316e+002, 2.342344e+003
7.117137e+002, 2.354094e+003
7.121958e+002, 2.364984e+003
7.126779e+002, 2.374803e+003
7.131600e+002, 2.383860e+003
7.136422e+002, 2.393865e+003
7.141243e+002, 2.403929e+003
7.146064e+002, 2.416599e+003
7.150885e+002, 2.433133e+003
7.155706e+002, 2.453751e+003
7.160527e+002, 2.474894e+003
7.165349e+002, 2.496972e+003
7.170170e+002, 2.519001e+003
7.174991e+002, 2.539793e+003
7.179812e+002, 2.559695e+003
7.184633e+002, 2.583727e+003
7.189454e+002, 2.612071e+003
7.194276e+002, 2.640882e+003
7.199097e+002, 2.665833e+003
7.203918e+002, 2.689750e+003
7.208739e+002, 2.716438e+003
7.213560e+002, 2.747261e+003
7.218381e+002, 2.777195e+003
7.223203e+002, 2.805823e+003
7.228024e+002, 2.831634e+003
7.232845e+002, 2.853668e+003
7.237666e+002, 2.872670e+003
7.242487e+002, 2.886713e+003
7.247308e+002, 2.896195e+003
7.252130e+002, 2.900386e+003
7.256951e+002, 2.898795e+003
7.261772e+002, 2.891548e+003
7.266593e+002, 2.877441e+003
7.271414e+002, 2.856723e+003
7.276235e+002, 2.828594e+003
7.281057e+002, 2.788727e+003
7.285878e+002, 2.740337e+003
7.290699e+002, 2.691365e+003
7.295520e+002, 2.644620e+003
7.300341e+002, 2.597752e+003
7.305162e+002, 2.547899e+003
7.309984e+002, 2.497069e+003
7.314805e+002, 2.448835e+003
7.319626e+002, 2.404208e+003
7.324447e+002, 2.362235e+003
7.329268e+002, 2.322783e+003
7.334089e+002, 2.285604e+003
7.338911e+002, 2.251349e+003
7.343732e+002, 2.221011e+003
7.348553e+002, 2.190483e+003
7.353374e+002, 2.157258e+003
7.358195e+002, 2.124028e+003
7.363016e+002, 2.099261e+003
7.367838e+002, 2.081735e+003
7.372659e+002, 2.063985e+003
7.377480e+002, 2.040668e+003
7.382301e+002, 2.016224e+003
7.387122e+002, 1.993395e+003
7.391943e+002, 1.972547e+003
7.396765e+002, 1.955085e+003
7.401586e+002, 1.944706e+003
7.406407e+002, 1.934774e+003
7.411228e+002, 1.921671e+003
7.416049e+002, 1.905524e+003
7.420870e+002, 1.893098e+003
7.425692e+002, 1.885702e+003
7.430513e+002, 1.878775e+003
7.435334e+002, 1.869587e+003
7.440155e+002, 1.858543e+003
7.444976e+002, 1.849318e+003
7.449797e+002, 1.841870e+003
7.454619e+002, 1.835663e+003
7.459440e+002, 1.831339e+003
7.464261e+002, 1.827552e+003
7.469082e+002, 1.822397e+003
7.473903e+002, 1.815678e+003
7.478724e+002, 1.809004e+003
7.483546e+002, 1.802461e+003
7.488367e+002, 1.796756e+003
7.493188e+002, 1.792113e+003
7.498009e+002, 1.788075e+003
7.502830e+002, 1.787461e+003
7.507651e+002, 1.792320e+003
7.512473e+002, 1.797412e+003
7.517294e+002, 1.798865e+003
7.522115e+002, 1.796690e+003
7.526936e+002, 1.791581e+003
7.531757e+002, 1.783114e+003
7.536578e+002, 1.774778e+003
7.541400e+002, 1.770609e+003
7.546221e+002, 1.768867e+003
7.551042e+002, 1.766400e+003
7.555863e+002, 1.762174e+003
7.560684e+002, 1.759199e+003
7.565505e+002, 1.760785e+003
7.570327e+002, 1.763613e+003
7.575148e+002, 1.764276e+003
7.579969e+002, 1.758516e+003
7.584790e+002, 1.756780e+003
7.589611e+002, 1.760766e+003
7.594432e+002, 1.766877e+003
7.599254e+002, 1.770484e+003
7.604075e+002, 1.771452e+003
7.608896e+002, 1.773347e+003
7.613717e+002, 1.776744e+003
7.618538e+002, 1.781049e+003
7.623359e+002, 1.785171e+003
7.628181e+002, 1.789649e+003
7.633002e+002, 1.795878e+003
7.637823e+002, 1.805872e+003
7.642644e+002, 1.814880e+003
7.647465e+002, 1.818466e+003
7.652286e+002, 1.819946e+003
7.657108e+002, 1.824489e+003
7.661929e+002, 1.836968e+003
7.666750e+002, 1.846643e+003
7.671571e+002, 1.851222e+003
7.676392e+002, 1.853603e+003
7.681213e+002, 1.859395e+003
7.686035e+002, 1.868823e+003
7.690856e+002, 1.878792e+003
7.695677e+002, 1.888939e+003
7.700498e+002, 1.898588e+003
7.705319e+002, 1.905761e+003
7.710140e+002, 1.911545e+003
7.714962e+002, 1.918755e+003
7.719783e+002, 1.929988e+003
7.724604e+002, 1.941497e+003
7.729425e+002, 1.951896e+003
7.734246e+002, 1.961036e+003
7.739067e+002, 1.968355e+003
7.743889e+002, 1.971814e+003
7.748710e+002, 1.976318e+003
7.753531e+002, 1.982711e+003
7.758352e+002, 1.990696e+003
7.763173e+002, 2.000260e+003
7.767994e+002, 2.011510e+003
7.772816e+002, 2.020532e+003
7.777637e+002, 2.024872e+003
7.782458e+002, 2.027310e+003
7.787279e+002, 2.031892e+003
7.792100e+002, 2.038500e+003
7.796921e+002, 2.046592e+003
7.801743e+002, 2.058914e+003
7.806564e+002, 2.069802e+003
7.811385e+002, 2.075369e+003
7.816206e+002, 2.076850e+003
7.821027e+002, 2.079613e+003
7.825848e+002, 2.083297e+003
7.830670e+002, 2.089568e+003
7.835491e+002, 2.100089e+003
7.840312e+002, 2.113211e+003
7.845133e+002, 2.122385e+003
7.849954e+002, 2.127617e+003
7.854775e+002, 2.131634e+003
7.859597e+002, 2.135121e+003
7.864418e+002, 2.138637e+003
7.869239e+002, 2.143000e+003
7.874060e+002, 2.148130e+003
7.878881e+002, 2.153745e+003
7.883702e+002, 2.160189e+003
7.888524e+002, 2.166494e+003
7.893345e+002, 2.171762e+003
7.898166e+002, 2.176268e+003
7.902987e+002, 2.181881e+003
7.907808e+002, 2.189830e+003
7.912629e+002, 2.196772e+003
7.917451e+002, 2.201341e+003
7.922272e+002, 2.204094e+003
7.927093e+002, 2.207700e+003
7.931914e+002, 2.212126e+003
7.936735e+002, 2.217107e+003
7.941556e+002, 2.224553e+003
7.946378e+002, 2.231159e+003
7.951199e+002, 2.231785e+003
7.956020e+002, 2.227403e+003
7.960841e+002, 2.222571e+003
7.965662e+002, 2.217629e+003
7.970483e+002, 2.214244e+003
7.975305e+002, 2.213627e+003
7.980126e+002, 2.215492e+003
7.984947e+002, 2.217860e+003
7.989768e+002, 2.221107e+003
7.994589e+002, 2.223886e+003
7.999410e+002, 2.225424e+003
8.004232e+002, 2.226108e+003
8.009053e+002, 2.226991e+003
8.013874e+002, 2.228158e+003
8.018695e+002, 2.230394e+003
8.023516e+002, 2.234482e+003
8.028337e+002, 2.239694e+003
8.033159e+002, 2.245346e+003
8.037980e+002, 2.251454e+003
8.042801e+002, 2.258149e+003
8.047622e+002, 2.265492e+003
8.052443e+002, 2.273340e+003
8.057264e+002, 2.280514e+003
8.062086e+002, 2.287572e+003
8.066907e+002, 2.300758e+003
8.071728e+002, 2.321817e+003
8.076549e+002, 2.341524e+003
8.081370e+002, 2.354646e+003
8.086191e+002, 2.363758e+003
8.091013e+002, 2.374845e+003
8.095834e+002, 2.387978e+003
8.100655e+002, 2.403536e+003
8.105476e+002, 2.423014e+003
8.110297e+002, 2.443946e+003
8.115118e+002, 2.465362e+003
8.119940e+002, 2.487097e+003
8.124761e+002, 2.508246e+003
8.129582e+002, 2.527547e+003
8.134403e+002, 2.547825e+003
8.139224e+002, 2.570210e+003
8.144045e+002, 2.594253e+003
8.148867e+002, 2.619098e+003
8.153688e+002, 2.644684e+003
8.158509e+002, 2.668345e+003
8.163330e+002, 2.687306e+003
8.168151e+002, 2.704271e+003
8.172972e+002, 2.723086e+003
8.177794e+002, 2.743607e+003
8.182615e+002, 2.765174e+003
8.187436e+002, 2.789114e+003
8.192257e+002, 2.812027e+003
8.197078e+002, 2.832670e+003
8.201899e+002, 2.850985e+003
8.206721e+002, 2.867180e+003
8.211542e+002, 2.881117e+003
8.216363e+002, 2.893333e+003
8.221184e+002, 2.903765e+003
8.226005e+002, 2.912677e+003
8.230826e+002, 2.921943e+003
8.235648e+002, 2.931309e+003
8.240469e+002, 2.939173e+003
8.245290e+002, 2.943291e+003
8.250111e+002, 2.946672e+003
8.254932e+002, 2.953303e+003
8.259753e+002, 2.961828e+003
8.264575e+002, 2.967940e+003
8.269396e+002, 2.968471e+003
8.274217e+002, 2.968461e+003
8.279038e+002, 2.968720e+003
8.283859e+002, 2.969541e+003
8.288680e+002, 2.972896e+003
8.293502e+002, 2.979925e+003
8.298323e+002, 2.982463e+003
8.303144e+002, 2.975759e+003
8.307965e+002, 2.965396e+003
8.312786e+002, 2.963627e+003
8.317607e+002, 2.967484e+003
8.322429e+002, 2.967858e+003
8.327250e+002, 2.957864e+003
8.332071e+002, 2.945906e+003
8.336892e+002, 2.935281e+003
8.341713e+002, 2.926104e+003
8.346534e+002, 2.918917e+003
8.351356e+002, 2.916461e+003
8.356177e+002, 2.910944e+003
8.360998e+002, 2.900434e+003
8.365819e+002, 2.886574e+003
8.370640e+002, 2.872311e+003
8.375461e+002, 2.857750e+003
8.380283e+002, 2.844174e+003
8.385104e+002, 2.832406e+003
8.389925e+002, 2.820997e+003
8.394746e+002, 2.809291e+003
8.399567e+002, 2.796647e+003
8.404388e+002, 2.781759e+003
8.409210e+002, 2.764402e+003
8.414031e+002, 2.744466e+003
8.418852e+002, 2.720915e+003
8.423673e+002, 2.695387e+003
8.428494e+002, 2.670511e+003
8.433315e+002, 2.646907e+003
8.438137e+002, 2.620686e+003
8.442958e+002, 2.591118e+003
8.447779e+002, 2.558979e+003
8.452600e+002, 2.523624e+003
8.457421e+002, 2.486864e+003
8.462242e+002, 2.452575e+003
8.467064e+002, 2.422973e+003
8.471885e+002, 2.393142e+003
8.476706e+002, 2.359731e+003
8.481527e+002, 2.324807e+003
8.486348e+002, 2.290641e+003
8.491169e+002, 2.257412e+003
8.495991e+002, 2.225602e+003
8.500812e+002, 2.194900e+003
8.505633e+002, 2.166151e+003
8.510454e+002, 2.140438e+003
8.515275e+002, 2.117446e+003
8.520096e+002, 2.094054e+003
8.524918e+002, 2.069426e+003
8.529739e+002, 2.047058e+003
8.534560e+002, 2.029483e+003
8.539381e+002, 2.016197e+003
8.544202e+002, 2.007104e+003
8.549023e+002, 2.002905e+003
8.553845e+002, 2.000344e+003
8.558666e+002, 2.000167e+003
8.563487e+002, 2.000048e+003
8.568308e+002, 1.997514e+003
8.573129e+002, 1.991400e+003
8.577950e+002, 1.991980e+003
8.582772e+002, 1.999842e+003
8.587593e+002, 2.010213e+003
8.592414e+002, 2.018355e+003
8.597235e+002, 2.026369e+003
8.602056e+002, 2.037936e+003
8.606877e+002, 2.053329e+003
8.611699e+002, 2.071225e+003
8.616520e+002, 2.092897e+003
8.621341e+002, 2.115412e+003
8.626162e+002, 2.136646e+003
8.630983e+002, 2.156224e+003
8.635804e+002, 2.179637e+003
8.640626e+002, 2.207626e+003
8.645447e+002, 2.237078e+003
8.650268e+002, 2.266055e+003
8.655089e+002, 2.295286e+003
8.659910e+002, 2.326718e+003
8.664731e+002, 2.359973e+003
8.669553e+002, 2.393377e+003
8.674374e+002, 2.423132e+003
8.679195e+002, 2.454796e+003
8.684016e+002, 2.492631e+003
8.688837e+002, 2.535835e+003
8.693658e+002, 2.578129e+003
8.698480e+002, 2.617373e+003
8.703301e+002, 2.658094e+003
8.708122e+002, 2.704505e+003
8.712943e+002, 2.752283e+003
8.717764e+002, 2.785296e+003
8.722585e+002, 2.804368e+003
8.727407e+002, 2.823239e+003
8.732228e+002, 2.849027e+003
8.737049e+002, 2.875638e+003
8.741870e+002, 2.897675e+003
8.746691e+002, 2.915600e+003
8.751512e+002, 2.930733e+003
8.756334e+002, 2.941325e+003
8.761155e+002, 2.951795e+003
8.765976e+002, 2.965098e+003
8.770797e+002, 2.977643e+003
8.775618e+002, 2.981810e+003
8.780439e+002, 2.976972e+003
8.785261e+002, 2.973009e+003
8.790082e+002, 2.971955e+003
8.794903e+002, 2.972338e+003
8.799724e+002, 2.972855e+003
8.804545e+002, 2.973235e+003
8.809366e+002, 2.973068e+003
8.814188e+002, 2.972473e+003
8.819009e+002, 2.970763e+003
8.823830e+002, 2.967787e+003
8.828651e+002, 2.963383e+003
8.833472e+002, 2.957382e+003
8.838293e+002, 2.949122e+003
8.843115e+002, 2.942213e+003
8.847936e+002, 2.937536e+003
8.852757e+002, 2.931508e+003
8.857578e+002, 2.920065e+003
8.862399e+002, 2.904608e+003
8.867220e+002, 2.887911e+003
8.872042e+002, 2.870352e+003
8.876863e+002, 2.852329e+003
8.881684e+002, 2.834598e+003
8.886505e+002, 2.815900e+003
8.891326e+002, 2.795331e+003
8.896147e+002, 2.772713e+003
8.900969e+002, 2.748288e+003
8.905790e+002, 2.721380e+003
8.910611e+002, 2.693602e+003
8.915432e+002, 2.664934e+003
8.920253e+002, 2.636099e+003
8.925074e+002, 2.610904e+003
8.929896e+002, 2.588863e+003
8.934717e+002, 2.567243e+003
8.939538e+002, 2.544603e+003
8.944359e+002, 2.521214e+003
8.949180e+002, 2.497068e+003
8.954001e+002, 2.472138e+003
8.958823e+002, 2.447250e+003
8.963644e+002, 2.420907e+003
8.968465e+002, 2.397387e+003
8.973286e+002, 2.378264e+003
8.978107e+002, 2.362206e+003
8.982928e+002, 2.344843e+003
8.987750e+002, 2.326650e+003
8.992571e+002, 2.310199e+003
8.997392e+002, 2.297886e+003
9.002213e+002, 2.285586e+003
9.007034e+002, 2.268811e+003
9.011855e+002, 2.250025e+003
9.016677e+002, 2.233716e+003
9.021498e+002, 2.220374e+003
9.026319e+002, 2.210271e+003
9.031140e+002, 2.204128e+003
9.035961e+002, 2.200140e+003
9.040782e+002, 2.196339e+003
9.045604e+002, 2.192654e+003
9.050425e+002, 2.188382e+003
9.055246e+002, 2.183161e+003
9.060067e+002, 2.178981e+003
9.064888e+002, 2.178040e+003
9.069709e+002, 2.179042e+003
9.074531e+002, 2.180287e+003
9.079352e+002, 2.180868e+003
9.084173e+002, 2.184446e+003
9.088994e+002, 2.193038e+003
9.093815e+002, 2.202922e+003
9.098636e+002, 2.211695e+003
9.103458e+002, 2.219469e+003
9.108279e+002, 2.228419e+003
9.113100e+002, 2.238546e+003
9.117921e+002, 2.249219e+003
9.122742e+002, 2.260009e+003
9.127563e+002, 2.271053e+003
9.132385e+002, 2.283556e+003
9.137206e+002, 2.296961e+003
9.142027e+002, 2.307390e+003
9.146848e+002, 2.311733e+003
9.151669e+002, 2.315041e+003
9.156490e+002, 2.318811e+003
9.161312e+002, 2.322728e+003
9.166133e+002, 2.325879e+003
9.170954e+002, 2.328311e+003
9.175775e+002, 2.328594e+003
9.180596e+002, 2.325605e+003
9.185417e+002, 2.321206e+003
9.190239e+002, 2.318217e+003
9.195060e+002, 2.315431e+003
9.199881e+002, 2.310561e+003
9.204702e+002, 2.301372e+003
9.209523e+002, 2.291791e+003
9.214344e+002, 2.282079e+003
9.219166e+002, 2.272627e+003
9.223987e+002, 2.264452e+003
9.228808e+002, 2.257688e+003
9.233629e+002, 2.248637e+003
9.238450e+002, 2.236573e+003
9.243271e+002, 2.223564e+003
9.248093e+002, 2.211483e+003
9.252914e+002, 2.200063e+003
9.257735e+002, 2.189335e+003
9.262556e+002, 2.179383e+003
9.267377e+002, 2.169212e+003
9.272198e+002, 2.158877e+003
9.277020e+002, 2.148061e+003
9.281841e+002, 2.135889e+003
9.286662e+002, 2.122442e+003
9.291483e+002, 2.113535e+003
9.296304e+002, 2.109298e+003
9.301125e+002, 2.105424e+003
9.305947e+002, 2.098625e+003
9.310768e+002, 2.090875e+003
9.315589e+002, 2.084719e+003
9.320410e+002, 2.079864e+003
9.325231e+002, 2.075336e+003
9.330052e+002, 2.070887e+003
9.334874e+002, 2.066477e+003
9.339695e+002, 2.062009e+003
9.344516e+002, 2.057592e+003
9.349337e+002, 2.052831e+003
9.354158e+002, 2.047713e+003
9.358979e+002, 2.045404e+003
9.363801e+002, 2.047494e+003
9.368622e+002, 2.050940e+003
9.373443e+002, 2.052209e+003
9.378264e+002, 2.052435e+003
9.383085e+002, 2.053369e+003
9.387906e+002, 2.056187e+003
9.392728e+002, 2.058218e+003
9.397549e+002, 2.057928e+003
9.402370e+002, 2.057764e+003
9.407191e+002, 2.060171e+003
9.412012e+002, 2.065242e+003
9.416833e+002, 2.068167e+003
9.421655e+002, 2.068612e+003
9.426476e+002, 2.069961e+003
9.431297e+002, 2.076349e+003
9.436118e+002, 2.084262e+003
9.440939e+002, 2.088868e+003
9.445760e+002, 2.090185e+003
9.450582e+002, 2.095333e+003
9.455403e+002, 2.111775e+003
9.460224e+002, 2.125052e+003
9.465045e+002, 2.129365e+003
9.469866e+002, 2.127312e+003
9.474688e+002, 2.129625e+003
9.479509e+002, 2.136072e+003
9.484330e+002, 2.143345e+003
9.489151e+002, 2.150286e+003
9.493972e+002, 2.157131e+003
9.498793e+002, 2.163977e+003
9.503615e+002, 2.170918e+003
9.508436e+002, 2.178150e+003
9.513257e+002, 2.185749e+003
9.518078e+002, 2.193605e+003
9.522899e+002, 2.202221e+003
9.527720e+002, 2.210415e+003
9.532542e+002, 2.216679e+003
9.537363e+002, 2.221169e+003
9.542184e+002, 2.224109e+003
9.547005e+002, 2.225240e+003
9.551826e+002, 2.228816e+003
9.556647e+002, 2.240685e+003
9.561469e+002, 2.254979e+003
9.566290e+002, 2.266667e+003
9.571111e+002, 2.275065e+003
9.575932e+002, 2.282166e+003
9.580753e+002, 2.286958e+003
9.585574e+002, 2.292862e+003
9.590396e+002, 2.302380e+003
9.595217e+002, 2.313858e+003
9.600038e+002, 2.320407e+003
9.604859e+002, 2.323198e+003
9.609680e+002, 2.328349e+003
9.614501e+002, 2.340337e+003
9.619323e+002, 2.354331e+003
9.624144e+002, 2.368719e+003
9.628965e+002, 2.382787e+003
9.633786e+002, 2.394771e+003
9.638607e+002, 2.404567e+003
9.643428e+002, 2.412372e+003
9.648250e+002, 2.417519e+003
9.653071e+002, 2.422443e+003
9.657892e+002, 2.430810e+003
9.662713e+002, 2.441448e+003
9.667534e+002, 2.451944e+003
9.672355e+002, 2.461950e+003
9.677177e+002, 2.470541e+003
9.681998e+002, 2.476450e+003
9.686819e+002, 2.481218e+003
9.691640e+002, 2.485611e+003
9.696461e+002, 2.489644e+003
9.701282e+002, 2.494144e+003
9.706104e+002, 2.498886e+003
9.710925e+002, 2.505645e+003
9.715746e+002, 2.517937e+003
9.720567e+002, 2.531593e+003
9.725388e+002, 2.538489e+003
9.730209e+002, 2.540173e+003
9.735031e+002, 2.541560e+003
9.739852e+002, 2.544825e+003
9.744673e+002, 2.547871e+003
9.749494e+002, 2.548189e+003
9.754315e+002, 2.548990e+003
9.759136e+002, 2.557529e+003
9.763958e+002, 2.574501e+003
9.768779e+002, 2.585688e+003
9.773600e+002, 2.587732e+003
9.778421e+002, 2.587660e+003
9.783242e+002, 2.591874e+003
9.788063e+002, 2.599160e+003
9.792885e+002, 2.608629e+003
9.797706e+002, 2.620946e+003
9.802527e+002, 2.631148e+003
9.807348e+002, 2.636732e+003
9.812169e+002, 2.642444e+003
9.816990e+002, 2.650538e+003
9.821812e+002, 2.660830e+003
9.826633e+002, 2.671496e+003
9.831454e+002, 2.682659e+003
9.836275e+002, 2.695983e+003
9.841096e+002, 2.714100e+003
9.845917e+002, 2.733240e+003
9.850739e+002, 2.749206e+003
9.855560e+002, 2.763843e+003
9.860381e+002, 2.782296e+003
9.865202e+002, 2.806608e+003
9.870023e+002, 2.830495e+003
9.874844e+002, 2.851976e+003
9.879666e+002, 2.875132e+003
9.884487e+002, 2.907939e+003
9.889308e+002, 2.947116e+003
9.894129e+002, 2.983171e+003
9.898950e+002, 3.013865e+003
9.903771e+002, 3.046607e+003
9.908593e+002, 3.083880e+003
9.913414e+002, 3.126377e+003
9.918235e+002, 3.175691e+003
9.923056e+002, 3.232271e+003
9.927877e+002, 3.289095e+003
9.932698e+002, 3.346936e+003
9.937520e+002, 3.403350e+003
9.942341e+002, 3.454531e+003
9.947162e+002, 3.505530e+003
9.951983e+002, 3.565155e+003
9.956804e+002, 3.631553e+003
9.961625e+002, 3.697945e+003
9.966447e+002, 3.761995e+003
9.971268e+002, 3.826326e+003
9.976089e+002, 3.891623e+003
9.980910e+002, 3.958281e+003
9.985731e+002, 4.027113e+003
9.990552e+002, 4.098333e+003
9.995374e+002, 4.166181e+003
1.000019e+003, 4.228785e+003
1.000502e+003, 4.288110e+003
1.000984e+003, 4.344731e+003
1.001466e+003, 4.398397e+003
1.001948e+003, 4.449460e+003
1.002430e+003, 4.497653e+003
1.002912e+003, 4.539528e+003
1.003394e+003, 4.575542e+003
1.003876e+003, 4.603974e+003
1.004359e+003, 4.622989e+003
1.004841e+003, 4.634696e+003
1.005323e+003, 4.645890e+003
1.005805e+003, 4.655388e+003
1.006287e+003, 4.657918e+003
1.006769e+003, 4.651571e+003
1.007251e+003, 4.637250e+003
1.007733e+003, 4.613714e+003
1.008215e+003, 4.583035e+003
1.008698e+003, 4.549044e+003
1.009180e+003, 4.511145e+003
1.009662e+003, 4.470985e+003
1.010144e+003, 4.428564e+003
1.010626e+003, 4.384626e+003
1.011108e+003, 4.342547e+003
1.011590e+003, 4.299235e+003
1.012072e+003, 4.249568e+003
1.012555e+003, 4.193100e+003
1.013037e+003, 4.136030e+003
1.013519e+003, 4.079579e+003
1.014001e+003, 4.024117e+003
1.014483e+003, 3.969723e+003
1.014965e+003, 3.915774e+003
1.015447e+003, 3.860558e+003
1.015929e+003, 3.803959e+003
1.016411e+003, 3.746798e+003
1.016894e+003, 3.689239e+003
1.017376e+003, 3.631809e+003
1.017858e+003, 3.574758e+003
1.018340e+003, 3.518754e+003
1.018822e+003, 3.465469e+003
1.019304e+003, 3.415276e+003
1.019786e+003, 3.366324e+003
1.020268e+003, 3.318508e+003
1.020750e+003, 3.272307e+003
1.021233e+003, 3.228706e+003
1.021715e+003, 3.186714e+003
1.022197e+003, 3.144311e+003
1.022679e+003, 3.101497e+003
1.023161e+003, 3.059543e+003
1.023643e+003, 3.017570e+003
1.024125e+003, 2.978310e+003
1.024607e+003, 2.944277e+003
1.025090e+003, 2.913054e+003
1.025572e+003, 2.879559e+003
1.026054e+003, 2.843286e+003
1.026536e+003, 2.808170e+003
1.027018e+003, 2.774493e+003
1.027500e+003, 2.742070e+003
1.027982e+003, 2.711654e+003
1.028464e+003, 2.681860e+003
1.028947e+003, 2.650699e+003
1.029429e+003, 2.617563e+003
1.029911e+003, 2.585793e+003
1.030393e+003, 2.554699e+003
1.030875e+003, 2.526344e+003
1.031357e+003, 2.502938e+003
1.031839e+003, 2.482919e+003
1.032321e+003, 2.460709e+003
1.032803e+003, 2.437238e+003
1.033286e+003, 2.415472e+003
1.033768e+003, 2.399747e+003
1.034250e+003, 2.383159e+003
1.034732e+003, 2.358998e+003
1.035214e+003, 2.333764e+003
1.035696e+003, 2.317703e+003
1.036178e+003, 2.312834e+003
1.036660e+003, 2.305255e+003
1.037142e+003, 2.293783e+003
1.037625e+003, 2.280280e+003
1.038107e+003, 2.263669e+003
1.038589e+003, 2.247308e+003
1.039071e+003, 2.236290e+003
1.039553e+003, 2.230524e+003
1.040035e+003, 2.224427e+003
1.040517e+003, 2.217270e+003
1.040999e+003, 2.208568e+003
1.041482e+003, 2.196915e+003
1.041964e+003, 2.185111e+003
1.042446e+003, 2.180735e+003
1.042928e+003, 2.182568e+003
1.043410e+003, 2.185683e+003
1.043892e+003, 2.188307e+003
1.044374e+003, 2.192999e+003
1.044856e+003, 2.201057e+003
1.045339e+003, 2.212072e+003
1.045821e+003, 2.225911e+003
1.046303e+003, 2.242733e+003
1.046785e+003, 2.261857e+003
1.047267e+003, 2.284134e+003
1.047749e+003, 2.300917e+003
1.048231e+003, 2.306376e+003
1.048713e+003, 2.302731e+003
1.049195e+003, 2.292452e+003
1.049677e+003, 2.275331e+003
1.050160e+003, 2.250944e+003
1.050642e+003, 2.214266e+003
1.051124e+003, 2.176454e+003
1.051606e+003, 2.137975e+003
1.052088e+003, 2.099767e+003
1.052570e+003, 2.062059e+003
1.053052e+003, 2.025710e+003
1.053534e+003, 1.996917e+003
1.054017e+003, 1.976529e+003
1.054499e+003, 1.958577e+003
1.054981e+003, 1.940526e+003
1.055463e+003, 1.922601e+003
1.055945e+003, 1.904240e+003
1.056427e+003, 1.885992e+003
1.056909e+003, 1.872547e+003
1.057391e+003, 1.864392e+003
1.057874e+003, 1.855488e+003
1.058356e+003, 1.843172e+003
1.058838e+003, 1.830540e+003
1.059320e+003, 1.821745e+003
1.059802e+003, 1.814990e+003
1.060284e+003, 1.807267e+003
1.060766e+003, 1.796678e+003
1.061248e+003, 1.788534e+003
1.061730e+003, 1.784189e+003
1.062213e+003, 1.779949e+003
1.062695e+003, 1.772523e+003
1.063177e+003, 1.763105e+003
1.063659e+003, 1.757204e+003
1.064141e+003, 1.753647e+003
1.064623e+003, 1.747001e+003
1.065105e+003, 1.731317e+003
1.065587e+003, 1.715620e+003
1.066069e+003, 1.703530e+003
1.066552e+003, 1.693263e+003
1.067034e+003, 1.682525e+003
1.067516e+003, 1.671345e+003
1.067998e+003, 1.660123e+003
1.068480e+003, 1.649105e+003
1.068962e+003, 1.637057e+003
1.069444e+003, 1.622143e+003
1.069926e+003, 1.606281e+003
1.070409e+003, 1.590737e+003
1.070891e+003, 1.575940e+003
1.071373e+003, 1.561632e+003
1.071855e+003, 1.547241e+003
1.072337e+003, 1.535176e+003
1.072819e+003, 1.527144e+003
1.073301e+003, 1.520072e+003
1.073783e+003, 1.507724e+003
1.074266e+003, 1.492053e+003
1.074748e+003, 1.476870e+003
1.075230e+003, 1.462747e+003
1.075712e+003, 1.450507e+003
1.076194e+003, 1.441230e+003
1.076676e+003, 1.432791e+003
1.077158e+003, 1.423985e+003
1.077640e+003, 1.414851e+003
1.078122e+003, 1.405571e+003
1.078604e+003, 1.396099e+003
1.079087e+003, 1.386084e+003
1.079569e+003, 1.374268e+003
1.080051e+003, 1.362967e+003
1.080533e+003, 1.353672e+003
1.081015e+003, 1.345975e+003
1.081497e+003, 1.338931e+003
1.081979e+003, 1.332906e+003
1.082461e+003, 1.325805e+003
1.082943e+003, 1.317178e+003
1.083426e+003, 1.309615e+003
1.083908e+003, 1.307416e+003
1.084390e+003, 1.306639e+003
1.084872e+003, 1.301819e+003
1.085354e+003, 1.293109e+003
1.085836e+003, 1.286754e+003
1.086318e+003, 1.285483e+003
1.086800e+003, 1.282646e+003
1.087283e+003, 1.275717e+003
1.087765e+003, 1.267957e+003
1.088247e+003, 1.267257e+003
1.088729e+003, 1.270379e+003
1.089211e+003, 1.267959e+003
1.089693e+003, 1.256570e+003
1.090175e+003, 1.247319e+003
1.090657e+003, 1.245908e+003
1.091140e+003, 1.247203e+003
1.091622e+003, 1.249270e+003
1.092104e+003, 1.251698e+003
1.092586e+003, 1.250815e+003
1.093068e+003, 1.246811e+003
1.093550e+003, 1.242080e+003
1.094032e+003, 1.237105e+003
1.094514e+003, 1.232591e+003
1.094996e+003, 1.228197e+003
1.095479e+003, 1.225040e+003
1.095961e+003, 1.224861e+003
1.096443e+003, 1.229097e+003
1.096925e+003, 1.231296e+003
1.097407e+003, 1.231363e+003
1.097889e+003, 1.229917e+003
1.098371e+003, 1.225985e+003
1.098853e+003, 1.221827e+003
1.099335e+003, 1.220835e+003
1.099818e+003, 1.222262e+003
1.100300e+003, 1.223032e+003
1.100782e+003, 1.223200e+003
1.101264e+003, 1.221239e+003
1.101746e+003, 1.216523e+003
1.102228e+003, 1.210531e+003
1.102710e+003, 1.205049e+003
1.103192e+003, 1.199924e+003
1.103675e+003, 1.194329e+003
1.104157e+003, 1.188211e+003
1.104639e+003, 1.183246e+003
1.105121e+003, 1.181995e+003
1.105603e+003, 1.179843e+003
1.106085e+003, 1.174586e+003
1.106567e+003, 1.167396e+003
1.107049e+003, 1.162378e+003
1.107531e+003, 1.159072e+003
1.108014e+003, 1.154216e+003
1.108496e+003, 1.146320e+003
1.108978e+003, 1.138499e+003
1.109460e+003, 1.132227e+003
1.109942e+003, 1.127540e+003
1.110424e+003, 1.125245e+003
1.110906e+003, 1.125445e+003
1.111388e+003, 1.122564e+003
1.111870e+003, 1.116465e+003
1.112353e+003, 1.109025e+003
1.112835e+003, 1.099128e+003
1.113317e+003, 1.090962e+003
1.113799e+003, 1.091160e+003
1.114281e+003, 1.095716e+003
1.114763e+003, 1.098061e+003
1.115245e+003, 1.097260e+003
1.115727e+003, 1.093675e+003
1.116210e+003, 1.086910e+003
1.116692e+003, 1.078801e+003
1.117174e+003, 1.069566e+003
1.117656e+003, 1.060743e+003
1.118138e+003, 1.055424e+003
1.118620e+003, 1.053144e+003
1.119102e+003, 1.051719e+003
1.119584e+003, 1.052620e+003
1.120067e+003, 1.050723e+003
1.120549e+003, 1.043422e+003
1.121031e+003, 1.035849e+003
1.121513e+003, 1.037020e+003
1.121995e+003, 1.043673e+003
1.122477e+003, 1.043714e+003
1.122959e+003, 1.036126e+003
1.123441e+003, 1.029063e+003
1.123923e+003, 1.027069e+003
1.124406e+003, 1.026358e+003
1.124888e+003, 1.025506e+003
1.125370e+003, 1.024522e+003
1.125852e+003, 1.023577e+003
1.126334e+003, 1.022624e+003
1.126816e+003, 1.020760e+003
1.127298e+003, 1.017447e+003
1.127780e+003, 1.014982e+003
1.128262e+003, 1.016696e+003
1.128745e+003, 1.018720e+003
1.129227e+003, 1.017189e+003
1.129709e+003, 1.012313e+003
1.130191e+003, 1.010444e+003
1.130673e+003, 1.011808e+003
1.131155e+003, 1.012186e+003
1.131637e+003, 1.008844e+003
1.132119e+003, 1.005623e+003
1.132602e+003, 1.008265e+003
1.133084e+003, 1.012847e+003
1.133566e+003, 1.013438e+003
1.134048e+003, 1.007545e+003
1.134530e+003, 1.003949e+003
1.135012e+003, 1.002908e+003
1.135494e+003, 1.003094e+003
1.135976e+003, 1.004488e+003
1.136458e+003, 1.006002e+003
1.136941e+003, 1.005119e+003
1.137423e+003, 1.002989e+003
1.137905e+003, 1.002403e+003
1.138387e+003, 1.006665e+003
1.138869e+003, 1.008347e+003
1.139351e+003, 1.005990e+003
1.139833e+003, 1.003372e+003
1.140315e+003, 1.005010e+003
1.140797e+003, 1.008976e+003
1.141280e+003, 1.011040e+003
1.141762e+003, 1.011069e+003
1.142244e+003, 1.009531e+003
1.142726e+003, 1.003764e+003
1.143208e+003, 1.000455e+003
1.143690e+003, 1.002335e+003
1.144172e+003, 1.005663e+003
1.144654e+003, 1.003796e+003
1.145137e+003, 9.983256e+002
1.145619e+003, 9.957762e+002
1.146101e+003, 9.969992e+002
1.146583e+003, 9.987960e+002
1.147065e+003, 9.994156e+002
1.147547e+003, 1.000317e+003
1.148029e+003, 1.003041e+003
1.148511e+003, 1.006158e+003
1.148994e+003, 1.004396e+003
1.149476e+003, 9.984969e+002
1.149958e+003, 9.956660e+002
1.150440e+003, 9.982663e+002
1.150922e+003, 1.000380e+003
1.151404e+003, 9.960254e+002
1.151886e+003, 9.909521e+002
1.152368e+003, 9.896193e+002
1.152850e+003, 9.916815e+002
1.153333e+003, 9.947863e+002
1.153815e+003, 9.989396e+002
1.154297e+003, 9.991761e+002
1.154779e+003, 9.919155e+002
1.155261e+003, 9.839274e+002
1.155743e+003, 9.821151e+002
1.156225e+003, 9.827378e+002
1.156707e+003, 9.811921e+002
1.157189e+003, 9.766644e+002
1.157672e+003, 9.748039e+002
1.158154e+003, 9.759238e+002
1.158636e+003, 9.770916e+002
1.159118e+003, 9.771653e+002
1.159600e+003, 9.759424e+002
1.160082e+003, 9.721107e+002
1.160564e+003, 9.671673e+002
1.161046e+003, 9.637819e+002
1.161529e+003, 9.629318e+002
1.162011e+003, 9.623571e+002
1.162493e+003, 9.623009e+002
1.162975e+003, 9.615206e+002
1.163457e+003, 9.582026e+002
1.163939e+003, 9.541678e+002
1.164421e+003, 9.519025e+002
1.164903e+003, 9.510994e+002
1.165385e+003, 9.508356e+002
1.165868e+003, 9.530045e+002
1.166350e+003, 9.512085e+002
1.166832e+003, 9.437965e+002
1.167314e+003, 9.356180e+002
1.167796e+003, 9.314645e+002
1.168278e+003, 9.302438e+002
1.168760e+003, 9.314760e+002
1.169242e+003, 9.343830e+002
1.169724e+003, 9.346628e+002
1.170207e+003, 9.284030e+002
1.170689e+003, 9.232926e+002
1.171171e+003, 9.208494e+002
1.171653e+003, 9.193335e+002
1.172135e+003, 9.156384e+002
1.172617e+003, 9.111869e+002
1.173099e+003, 9.098237e+002
1.173581e+003, 9.118862e+002
1.174064e+003, 9.124783e+002
1.174546e+003, 9.080197e+002
1.175028e+003, 9.041104e+002
1.175510e+003, 9.022087e+002
1.175992e+003, 9.016144e+002
1.176474e+003, 9.018165e+002
1.176956e+003, 9.021232e+002
1.177438e+003, 9.001844e+002
1.177921e+003, 8.952855e+002
1.178403e+003, 8.906869e+002
1.178885e+003, 8.871703e+002
1.179367e+003, 8.848835e+002
1.179849e+003, 8.837165e+002
1.180331e+003, 8.839069e+002
1.180813e+003, 8.884581e+002
1.181295e+003, 8.952765e+002
1.181777e+003, 8.954070e+002
1.182260e+003, 8.839745e+002
1.182742e+003, 8.746478e+002
1.183224e+003, 8.753197e+002
1.183706e+003, 8.782830e+002
1.184188e+003, 8.797714e+002
1.184670e+003, 8.798403e+002
1.185152e+003, 8.785720e+002
1.185634e+003, 8.760760e+002
1.186116e+003, 8.727246e+002
1.186599e+003, 8.677971e+002
1.187081e+003, 8.638557e+002
1.187563e+003, 8.623351e+002
1.188045e+003, 8.623065e+002
1.188527e+003, 8.635313e+002
1.189009e+003, 8.657990e+002
1.189491e+003, 8.665840e+002
1.189973e+003, 8.658987e+002
1.190456e+003, 8.637531e+002
1.190938e+003, 8.581373e+002
1.191420e+003, 8.538084e+002
1.191902e+003, 8.549896e+002
1.192384e+003, 8.572206e+002
1.192866e+003, 8.555412e+002
1.193348e+003, 8.498119e+002
1.193830e+003, 8.471926e+002
1.194313e+003, 8.475241e+002
1.194795e+003, 8.487377e+002
1.195277e+003, 8.500590e+002
1.195759e+003, 8.514113e+002
1.196241e+003, 8.523013e+002
1.196723e+003, 8.534780e+002
1.197205e+003, 8.568221e+002
1.197687e+003, 8.625197e+002
1.198169e+003, 8.626014e+002
1.198651e+003, 8.568851e+002
1.199134e+003, 8.498851e+002
1.199616e+003, 8.422967e+002
1.200098e+003, 8.369282e+002
1.200580e+003, 8.369860e+002
1.201062e+003, 8.397909e+002
1.201544e+003, 8.410034e+002
1.202026e+003, 8.405788e+002
1.202508e+003, 8.403486e+002
1.202991e+003, 8.404697e+002
1.203473e+003, 8.405210e+002
1.203955e+003, 8.404211e+002
1.204437e+003, 8.399122e+002
1.204919e+003, 8.381234e+002
1.205401e+003, 8.359932e+002
1.205883e+003, 8.359256e+002
1.206365e+003, 8.379744e+002
1.206848e+003, 8.387186e+002
1.207330e+003, 8.376215e+002
1.207812e+003, 8.366479e+002
1.208294e+003, 8.383939e+002
1.208776e+003, 8.397803e+002
1.209258e+003, 8.381205e+002
1.209740e+003, 8.344387e+002
1.210222e+003, 8.312556e+002
1.210704e+003, 8.285405e+002
1.211187e+003, 8.273672e+002
1.211669e+003, 8.281074e+002
1.212151e+003, 8.286994e+002
1.212633e+003, 8.275134e+002
1.213115e+003, 8.255587e+002
1.213597e+003, 8.237731e+002
1.214079e+003, 8.218628e+002
1.214561e+003, 8.174518e+002
1.215043e+003, 8.106789e+002
1.215526e+003, 8.084578e+002
1.216008e+003, 8.132160e+002
1.216490e+003, 8.179456e+002
1.216972e+003, 8.170501e+002
1.217454e+003, 8.139596e+002
1.217936e+003, 8.107665e+002
1.218418e+003, 8.076894e+002
1.218900e+003, 8.057289e+002
1.219383e+003, 8.048000e+002
1.219865e+003, 8.033827e+002
1.220347e+003, 8.007222e+002
1.220829e+003, 7.987499e+002
1.221311e+003, 7.997583e+002
1.221793e+003, 8.012927e+002
1.222275e+003, 8.016438e+002
1.222757e+003, 8.008629e+002
1.223240e+003, 7.991556e+002
1.223722e+003, 7.966108e+002
1.224204e+003, 7.942382e+002
1.224686e+003, 7.923048e+002
1.225168e+003, 7.908622e+002
1.225650e+003, 7.889888e+002
1.226132e+003, 7.885565e+002
1.226614e+003, 7.907157e+002
1.227096e+003, 7.953993e+002
1.227578e+003, 8.047279e+002
1.228061e+003, 8.174456e+002
1.228543e+003, 8.218630e+002
1.229025e+003, 8.104441e+002
1.229507e+003, 7.969920e+002
1.229989e+003, 7.865126e+002
1.230471e+003, 7.801484e+002
1.230953e+003, 7.797401e+002
1.231435e+003, 7.843229e+002
1.231918e+003, 7.848314e+002
1.232400e+003, 7.816707e+002
1.232882e+003, 7.774560e+002
1.233364e+003, 7.715653e+002
1.233846e+003, 7.680485e+002
1.234328e+003, 7.721175e+002
1.234810e+003, 7.763015e+002
1.235292e+003, 7.744119e+002
1.235775e+003, 7.675311e+002
1.236257e+003, 7.640825e+002
1.236739e+003, 7.637848e+002
1.237221e+003, 7.651795e+002
1.237703e+003, 7.703289e+002
1.238185e+003, 7.726599e+002
1.238667e+003, 7.668420e+002
1.239149e+003, 7.600681e+002
1.239631e+003, 7.575391e+002
1.240114e+003, 7.585377e+002
1.240596e+003, 7.590292e+002
1.241078e+003, 7.589561e+002
1.241560e+003, 7.580820e+002
1.242042e+003, 7.551771e+002
1.242524e+003, 7.531802e+002
1.243006e+003, 7.536886e+002
1.243488e+003, 7.541072e+002
1.243970e+003, 7.516249e+002
1.244453e+003, 7.473654e+002
1.244935e+003, 7.467234e+002
1.245417e+003, 7.487147e+002
1.245899e+003, 7.496816e+002
1.246381e+003, 7.466567e+002
1.246863e+003, 7.446005e+002
1.247345e+003, 7.443248e+002
1.247827e+003, 7.449257e+002
1.248310e+003, 7.464516e+002
1.248792e+003, 7.480267e+002
1.249274e+003, 7.455797e+002
1.249756e+003, 7.409197e+002
1.250238e+003, 7.402216e+002
1.250720e+003, 7.525916e+002
1.251202e+003, 7.579399e+002
1.251684e+003, 7.531323e+002
1.252167e+003, 7.452845e+002
1.252649e+003, 7.379496e+002
1.253131e+003, 7.331759e+002
1.253613e+003, 7.391709e+002
1.254095e+003, 7.513410e+002
1.254577e+003, 7.545538e+002
1.255059e+003, 7.353720e+002
1.255541e+003, 7.260961e+002
1.256023e+003, 7.304747e+002
1.256505e+003, 7.376783e+002
1.256988e+003, 7.387754e+002
1.257470e+003, 7.365349e+002
1.257952e+003, 7.343667e+002
1.258434e+003, 7.322074e+002
1.258916e+003, 7.295261e+002
1.259398e+003, 7.262453e+002
1.259880e+003, 7.221755e+002
1.260362e+003, 7.169091e+002
1.260845e+003, 7.132947e+002
1.261327e+003, 7.150869e+002
1.261809e+003, 7.186136e+002
1.262291e+003, 7.203586e+002
1.262773e+003, 7.207092e+002
1.263255e+003, 7.212695e+002
1.263737e+003, 7.226516e+002
1.264219e+003, 7.211970e+002
1.264702e+003, 7.164617e+002
1.265184e+003, 7.119119e+002
1.265666e+003, 7.103977e+002
1.266148e+003, 7.099277e+002
1.266630e+003, 7.089255e+002
1.267112e+003, 7.079071e+002
1.267594e+003, 7.082535e+002
1.268076e+003, 7.101558e+002
1.268558e+003, 7.104133e+002
1.269041e+003, 7.088269e+002
1.269523e+003, 7.066227e+002
1.270005e+003, 7.037535e+002
1.270487e+003, 7.014484e+002
1.270969e+003, 7.008473e+002
1.271451e+003, 7.010364e+002
1.271933e+003, 7.007717e+002
1.272415e+003, 7.001282e+002
1.272897e+003, 6.999686e+002
1.273380e+003, 7.003734e+002
1.273862e+003, 7.016467e+002
1.274344e+003, 7.059280e+002
1.274826e+003, 7.085147e+002
1.275308e+003, 7.070376e+002
1.275790e+003, 7.041119e+002
1.276272e+003, 7.034081e+002
1.276754e+003, 7.040396e+002
1.277237e+003, 7.016560e+002
1.277719e+003, 6.967255e+002
1.278201e+003, 6.940189e+002
1.278683e+003, 6.976360e+002
1.279165e+003, 7.011707e+002
1.279647e+003, 7.039907e+002
1.280129e+003, 7.053280e+002
1.280611e+003, 7.030617e+002
1.281094e+003, 6.992557e+002
1.281576e+003, 6.990451e+002
1.282058e+003, 7.017043e+002
1.282540e+003, 7.023868e+002
1.283022e+003, 6.974977e+002
1.283504e+003, 6.953177e+002
1.283986e+003, 6.972804e+002
1.284468e+003, 6.998802e+002
1.284950e+003, 6.995736e+002
1.285432e+003, 6.978390e+002
1.285915e+003, 6.957096e+002
1.286397e+003, 6.938340e+002
1.286879e+003, 6.946759e+002
1.287361e+003, 6.995768e+002
1.287843e+003, 7.019047e+002
1.288325e+003, 7.008241e+002
1.288807e+003, 6.992362e+002
1.289289e+003, 6.996346e+002
1.289772e+003, 7.006187e+002
1.290254e+003, 7.016559e+002
1.290736e+003, 7.020869e+002
1.291218e+003, 7.003101e+002
1.291700e+003, 6.960134e+002
1.292182e+003, 6.939165e+002
1.292664e+003, 6.943212e+002
1.293146e+003, 6.951456e+002
1.293629e+003, 6.951110e+002
1.294111e+003, 6.948719e+002
1.294593e+003, 6.943217e+002
1.295075e+003, 6.941124e+002
1.295557e+003, 6.958978e+002
1.296039e+003, 6.991284e+002
1.296521e+003, 6.985441e+002
1.297003e+003, 6.943298e+002
1.297485e+003, 6.906249e+002
1.297968e+003, 6.892837e+002
1.298450e+003, 6.896003e+002
1.298932e+003, 6.918777e+002
1.299414e+003, 6.946656e+002
1.299896e+003, 6.963652e+002
1.300378e+003, 6.973168e+002
1.300860e+003, 6.984064e+002
1.301342e+003, 6.996479e+002
1.301824e+003, 7.009224e+002
1.302307e+003, 7.024926e+002
##END=



