##NAMES=Creaseyite
##RRUFFID=R130418
##IDEAL CHEMISTRY=Cu^2+^_2_Pb^2+^_2_Fe^3+^_2_Si_5_O_17_&#183;6H_2_O
##LOCALITY=Navojoa, Municipio de Navojoa, Sonora, Mexico
##OWNER=RRUFF
##SOURCE=Bob Jenkins
##DESCRIPTION=Pale-green acicular crystals on quartz
##STATUS=The identification of this mineral has been confirmed by single-crystal X-ray diffraction.
##URL=rruff.info/R130418
9.059570e+001, 1.616386e+003
9.107782e+001, 1.612515e+003
9.155994e+001, 1.611217e+003
9.204205e+001, 1.613173e+003
9.252417e+001, 1.617305e+003
9.300629e+001, 1.622752e+003
9.348840e+001, 1.621166e+003
9.397052e+001, 1.603968e+003
9.445264e+001, 1.570729e+003
9.493475e+001, 1.543510e+003
9.541687e+001, 1.521438e+003
9.589898e+001, 1.506150e+003
9.638110e+001, 1.495411e+003
9.686321e+001, 1.487586e+003
9.734533e+001, 1.480927e+003
9.782745e+001, 1.472336e+003
9.830956e+001, 1.465510e+003
9.879168e+001, 1.465709e+003
9.927380e+001, 1.462148e+003
9.975591e+001, 1.453047e+003
1.002380e+002, 1.438250e+003
1.007201e+002, 1.417054e+003
1.012023e+002, 1.388230e+003
1.016844e+002, 1.351924e+003
1.021665e+002, 1.313544e+003
1.026486e+002, 1.269851e+003
1.031307e+002, 1.225756e+003
1.036128e+002, 1.185404e+003
1.040950e+002, 1.148382e+003
1.045771e+002, 1.115331e+003
1.050592e+002, 1.087097e+003
1.055413e+002, 1.062475e+003
1.060234e+002, 1.040652e+003
1.065055e+002, 1.021272e+003
1.069877e+002, 1.004259e+003
1.074698e+002, 9.896191e+002
1.079519e+002, 9.795775e+002
1.084340e+002, 9.691202e+002
1.089161e+002, 9.561153e+002
1.093982e+002, 9.409555e+002
1.098804e+002, 9.249075e+002
1.103625e+002, 9.085195e+002
1.108446e+002, 8.912548e+002
1.113267e+002, 8.768655e+002
1.118088e+002, 8.669243e+002
1.122909e+002, 8.582277e+002
1.127731e+002, 8.494222e+002
1.132552e+002, 8.402964e+002
1.137373e+002, 8.312913e+002
1.142194e+002, 8.230943e+002
1.147015e+002, 8.154688e+002
1.151836e+002, 8.092715e+002
1.156658e+002, 8.055057e+002
1.161479e+002, 8.026074e+002
1.166300e+002, 7.990353e+002
1.171121e+002, 7.942119e+002
1.175942e+002, 7.886522e+002
1.180763e+002, 7.835106e+002
1.185584e+002, 7.785378e+002
1.190406e+002, 7.742567e+002
1.195227e+002, 7.711143e+002
1.200048e+002, 7.688327e+002
1.204869e+002, 7.665645e+002
1.209690e+002, 7.637249e+002
1.214511e+002, 7.609188e+002
1.219333e+002, 7.591228e+002
1.224154e+002, 7.584242e+002
1.228975e+002, 7.585549e+002
1.233796e+002, 7.598151e+002
1.238617e+002, 7.624340e+002
1.243438e+002, 7.642189e+002
1.248260e+002, 7.640157e+002
1.253081e+002, 7.624290e+002
1.257902e+002, 7.595833e+002
1.262723e+002, 7.552009e+002
1.267544e+002, 7.499962e+002
1.272365e+002, 7.456445e+002
1.277187e+002, 7.425529e+002
1.282008e+002, 7.396892e+002
1.286829e+002, 7.367140e+002
1.291650e+002, 7.337220e+002
1.296471e+002, 7.309332e+002
1.301292e+002, 7.285823e+002
1.306114e+002, 7.265897e+002
1.310935e+002, 7.237278e+002
1.315756e+002, 7.184681e+002
1.320577e+002, 7.137552e+002
1.325398e+002, 7.107082e+002
1.330219e+002, 7.088970e+002
1.335041e+002, 7.071713e+002
1.339862e+002, 7.044889e+002
1.344683e+002, 7.006237e+002
1.349504e+002, 6.971887e+002
1.354325e+002, 6.940817e+002
1.359146e+002, 6.913714e+002
1.363968e+002, 6.892509e+002
1.368789e+002, 6.876799e+002
1.373610e+002, 6.862451e+002
1.378431e+002, 6.842923e+002
1.383252e+002, 6.814877e+002
1.388073e+002, 6.803480e+002
1.392895e+002, 6.821389e+002
1.397716e+002, 6.852203e+002
1.402537e+002, 6.879740e+002
1.407358e+002, 6.901904e+002
1.412179e+002, 6.914579e+002
1.417000e+002, 6.909213e+002
1.421821e+002, 6.887900e+002
1.426643e+002, 6.861570e+002
1.431464e+002, 6.835427e+002
1.436285e+002, 6.808029e+002
1.441106e+002, 6.772946e+002
1.445927e+002, 6.723444e+002
1.450748e+002, 6.671798e+002
1.455570e+002, 6.628771e+002
1.460391e+002, 6.594573e+002
1.465212e+002, 6.563403e+002
1.470033e+002, 6.528080e+002
1.474854e+002, 6.487140e+002
1.479675e+002, 6.456061e+002
1.484497e+002, 6.449244e+002
1.489318e+002, 6.446061e+002
1.494139e+002, 6.435517e+002
1.498960e+002, 6.415373e+002
1.503781e+002, 6.390506e+002
1.508602e+002, 6.368938e+002
1.513424e+002, 6.354581e+002
1.518245e+002, 6.334140e+002
1.523066e+002, 6.304385e+002
1.527887e+002, 6.270513e+002
1.532708e+002, 6.236183e+002
1.537529e+002, 6.202977e+002
1.542351e+002, 6.169943e+002
1.547172e+002, 6.134620e+002
1.551993e+002, 6.089354e+002
1.556814e+002, 6.051641e+002
1.561635e+002, 6.030287e+002
1.566456e+002, 6.014467e+002
1.571278e+002, 5.991220e+002
1.576099e+002, 5.953869e+002
1.580920e+002, 5.905438e+002
1.585741e+002, 5.858380e+002
1.590562e+002, 5.808651e+002
1.595383e+002, 5.764271e+002
1.600205e+002, 5.729437e+002
1.605026e+002, 5.701731e+002
1.609847e+002, 5.675905e+002
1.614668e+002, 5.649664e+002
1.619489e+002, 5.622744e+002
1.624310e+002, 5.594903e+002
1.629131e+002, 5.562491e+002
1.633953e+002, 5.532665e+002
1.638774e+002, 5.511458e+002
1.643595e+002, 5.498040e+002
1.648416e+002, 5.484592e+002
1.653237e+002, 5.465867e+002
1.658058e+002, 5.443804e+002
1.662880e+002, 5.423092e+002
1.667701e+002, 5.404407e+002
1.672522e+002, 5.387008e+002
1.677343e+002, 5.369623e+002
1.682164e+002, 5.351760e+002
1.686985e+002, 5.336398e+002
1.691807e+002, 5.326107e+002
1.696628e+002, 5.319201e+002
1.701449e+002, 5.314205e+002
1.706270e+002, 5.311114e+002
1.711091e+002, 5.309312e+002
1.715912e+002, 5.308420e+002
1.720734e+002, 5.312034e+002
1.725555e+002, 5.309285e+002
1.730376e+002, 5.293218e+002
1.735197e+002, 5.269857e+002
1.740018e+002, 5.247449e+002
1.744839e+002, 5.230809e+002
1.749661e+002, 5.219161e+002
1.754482e+002, 5.208035e+002
1.759303e+002, 5.198130e+002
1.764124e+002, 5.188019e+002
1.768945e+002, 5.176418e+002
1.773766e+002, 5.164404e+002
1.778588e+002, 5.153803e+002
1.783409e+002, 5.145786e+002
1.788230e+002, 5.140344e+002
1.793051e+002, 5.137636e+002
1.797872e+002, 5.140033e+002
1.802693e+002, 5.142773e+002
1.807515e+002, 5.144566e+002
1.812336e+002, 5.145496e+002
1.817157e+002, 5.145671e+002
1.821978e+002, 5.144485e+002
1.826799e+002, 5.140954e+002
1.831620e+002, 5.146946e+002
1.836441e+002, 5.167493e+002
1.841263e+002, 5.190646e+002
1.846084e+002, 5.210621e+002
1.850905e+002, 5.227376e+002
1.855726e+002, 5.243831e+002
1.860547e+002, 5.261823e+002
1.865368e+002, 5.281347e+002
1.870190e+002, 5.307857e+002
1.875011e+002, 5.344033e+002
1.879832e+002, 5.384662e+002
1.884653e+002, 5.426401e+002
1.889474e+002, 5.468671e+002
1.894296e+002, 5.512074e+002
1.899117e+002, 5.555450e+002
1.903938e+002, 5.599251e+002
1.908759e+002, 5.652992e+002
1.913580e+002, 5.719719e+002
1.918401e+002, 5.795745e+002
1.923223e+002, 5.878458e+002
1.928044e+002, 5.968330e+002
1.932865e+002, 6.061752e+002
1.937686e+002, 6.154420e+002
1.942507e+002, 6.247491e+002
1.947328e+002, 6.346325e+002
1.952150e+002, 6.461601e+002
1.956971e+002, 6.582624e+002
1.961792e+002, 6.689388e+002
1.966613e+002, 6.780016e+002
1.971434e+002, 6.855745e+002
1.976255e+002, 6.920430e+002
1.981077e+002, 6.973705e+002
1.985898e+002, 7.010284e+002
1.990719e+002, 7.031201e+002
1.995540e+002, 7.034335e+002
2.000361e+002, 7.009208e+002
2.005182e+002, 6.945974e+002
2.010004e+002, 6.864456e+002
2.014825e+002, 6.775338e+002
2.019646e+002, 6.679283e+002
2.024467e+002, 6.578142e+002
2.029288e+002, 6.470077e+002
2.034109e+002, 6.355735e+002
2.038930e+002, 6.249747e+002
2.043752e+002, 6.158283e+002
2.048573e+002, 6.070261e+002
2.053394e+002, 5.979827e+002
2.058215e+002, 5.889532e+002
2.063036e+002, 5.805142e+002
2.067857e+002, 5.732480e+002
2.072679e+002, 5.672040e+002
2.077500e+002, 5.613848e+002
2.082321e+002, 5.551838e+002
2.087142e+002, 5.497885e+002
2.091963e+002, 5.456939e+002
2.096784e+002, 5.427939e+002
2.101606e+002, 5.407220e+002
2.106427e+002, 5.391927e+002
2.111248e+002, 5.382339e+002
2.116069e+002, 5.376602e+002
2.120890e+002, 5.374896e+002
2.125711e+002, 5.376352e+002
2.130533e+002, 5.383436e+002
2.135354e+002, 5.394108e+002
2.140175e+002, 5.403486e+002
2.144996e+002, 5.407614e+002
2.149817e+002, 5.406860e+002
2.154638e+002, 5.396340e+002
2.159460e+002, 5.374590e+002
2.164281e+002, 5.346940e+002
2.169102e+002, 5.313685e+002
2.173923e+002, 5.276244e+002
2.178744e+002, 5.238038e+002
2.183565e+002, 5.202889e+002
2.188387e+002, 5.171590e+002
2.193208e+002, 5.134080e+002
2.198029e+002, 5.084509e+002
2.202850e+002, 5.034091e+002
2.207671e+002, 4.988846e+002
2.212492e+002, 4.949201e+002
2.217314e+002, 4.913280e+002
2.222135e+002, 4.880026e+002
2.226956e+002, 4.849708e+002
2.231777e+002, 4.819225e+002
2.236598e+002, 4.783297e+002
2.241419e+002, 4.750914e+002
2.246240e+002, 4.730036e+002
2.251062e+002, 4.720715e+002
2.255883e+002, 4.716188e+002
2.260704e+002, 4.712362e+002
2.265525e+002, 4.709062e+002
2.270346e+002, 4.704877e+002
2.275167e+002, 4.697919e+002
2.279989e+002, 4.691189e+002
2.284810e+002, 4.685745e+002
2.289631e+002, 4.681477e+002
2.294452e+002, 4.683650e+002
2.299273e+002, 4.700772e+002
2.304094e+002, 4.727536e+002
2.308916e+002, 4.749107e+002
2.313737e+002, 4.759564e+002
2.318558e+002, 4.765650e+002
2.323379e+002, 4.775356e+002
2.328200e+002, 4.789333e+002
2.333021e+002, 4.802235e+002
2.337843e+002, 4.807556e+002
2.342664e+002, 4.810180e+002
2.347485e+002, 4.818278e+002
2.352306e+002, 4.838005e+002
2.357127e+002, 4.860594e+002
2.361948e+002, 4.874377e+002
2.366770e+002, 4.878443e+002
2.371591e+002, 4.877610e+002
2.376412e+002, 4.871687e+002
2.381233e+002, 4.863066e+002
2.386054e+002, 4.854440e+002
2.390875e+002, 4.847661e+002
2.395697e+002, 4.839718e+002
2.400518e+002, 4.825111e+002
2.405339e+002, 4.801872e+002
2.410160e+002, 4.777975e+002
2.414981e+002, 4.756094e+002
2.419802e+002, 4.735246e+002
2.424624e+002, 4.714951e+002
2.429445e+002, 4.695420e+002
2.434266e+002, 4.675387e+002
2.439087e+002, 4.651537e+002
2.443908e+002, 4.620928e+002
2.448729e+002, 4.594771e+002
2.453550e+002, 4.576601e+002
2.458372e+002, 4.563515e+002
2.463193e+002, 4.553961e+002
2.468014e+002, 4.547518e+002
2.472835e+002, 4.543011e+002
2.477656e+002, 4.539099e+002
2.482477e+002, 4.537787e+002
2.487299e+002, 4.531898e+002
2.492120e+002, 4.515511e+002
2.496941e+002, 4.497437e+002
2.501762e+002, 4.485161e+002
2.506583e+002, 4.480822e+002
2.511404e+002, 4.479859e+002
2.516226e+002, 4.474485e+002
2.521047e+002, 4.462666e+002
2.525868e+002, 4.450976e+002
2.530689e+002, 4.440465e+002
2.535510e+002, 4.430045e+002
2.540331e+002, 4.419965e+002
2.545153e+002, 4.409911e+002
2.549974e+002, 4.397713e+002
2.554795e+002, 4.379799e+002
2.559616e+002, 4.354686e+002
2.564437e+002, 4.326624e+002
2.569258e+002, 4.291611e+002
2.574080e+002, 4.257240e+002
2.578901e+002, 4.228750e+002
2.583722e+002, 4.206929e+002
2.588543e+002, 4.188434e+002
2.593364e+002, 4.169173e+002
2.598185e+002, 4.149991e+002
2.603007e+002, 4.127498e+002
2.607828e+002, 4.100086e+002
2.612649e+002, 4.071143e+002
2.617470e+002, 4.040100e+002
2.622291e+002, 4.008327e+002
2.627112e+002, 3.981348e+002
2.631934e+002, 3.966588e+002
2.636755e+002, 3.970021e+002
2.641576e+002, 3.963622e+002
2.646397e+002, 3.942804e+002
2.651218e+002, 3.918138e+002
2.656039e+002, 3.894478e+002
2.660861e+002, 3.872565e+002
2.665682e+002, 3.851214e+002
2.670503e+002, 3.829295e+002
2.675324e+002, 3.806760e+002
2.680145e+002, 3.784272e+002
2.684966e+002, 3.760893e+002
2.689788e+002, 3.738372e+002
2.694609e+002, 3.718377e+002
2.699430e+002, 3.700328e+002
2.704251e+002, 3.682191e+002
2.709072e+002, 3.662353e+002
2.713893e+002, 3.640916e+002
2.718715e+002, 3.618062e+002
2.723536e+002, 3.591512e+002
2.728357e+002, 3.566111e+002
2.733178e+002, 3.543459e+002
2.737999e+002, 3.523643e+002
2.742820e+002, 3.506974e+002
2.747642e+002, 3.494167e+002
2.752463e+002, 3.484700e+002
2.757284e+002, 3.472354e+002
2.762105e+002, 3.455694e+002
2.766926e+002, 3.438431e+002
2.771747e+002, 3.420341e+002
2.776568e+002, 3.402468e+002
2.781389e+002, 3.387374e+002
2.786211e+002, 3.376794e+002
2.791032e+002, 3.369534e+002
2.795853e+002, 3.360351e+002
2.800674e+002, 3.345345e+002
2.805495e+002, 3.333293e+002
2.810316e+002, 3.328896e+002
2.815138e+002, 3.328644e+002
2.819959e+002, 3.325974e+002
2.824780e+002, 3.317787e+002
2.829601e+002, 3.306555e+002
2.834422e+002, 3.298968e+002
2.839243e+002, 3.297141e+002
2.844065e+002, 3.294315e+002
2.848886e+002, 3.287526e+002
2.853707e+002, 3.279345e+002
2.858528e+002, 3.273886e+002
2.863349e+002, 3.272679e+002
2.868170e+002, 3.273351e+002
2.872992e+002, 3.271104e+002
2.877813e+002, 3.263394e+002
2.882634e+002, 3.261441e+002
2.887455e+002, 3.273206e+002
2.892276e+002, 3.289196e+002
2.897097e+002, 3.297001e+002
2.901919e+002, 3.293617e+002
2.906740e+002, 3.286319e+002
2.911561e+002, 3.283754e+002
2.916382e+002, 3.286593e+002
2.921203e+002, 3.289237e+002
2.926024e+002, 3.289851e+002
2.930846e+002, 3.290762e+002
2.935667e+002, 3.295487e+002
2.940488e+002, 3.304367e+002
2.945309e+002, 3.312053e+002
2.950130e+002, 3.312191e+002
2.954951e+002, 3.304811e+002
2.959773e+002, 3.303362e+002
2.964594e+002, 3.316371e+002
2.969415e+002, 3.329617e+002
2.974236e+002, 3.330001e+002
2.979057e+002, 3.318045e+002
2.983878e+002, 3.305740e+002
2.988700e+002, 3.301083e+002
2.993521e+002, 3.303583e+002
2.998342e+002, 3.306501e+002
3.003163e+002, 3.309934e+002
3.007984e+002, 3.313640e+002
3.012805e+002, 3.317593e+002
3.017627e+002, 3.321745e+002
3.022448e+002, 3.326401e+002
3.027269e+002, 3.332839e+002
3.032090e+002, 3.338942e+002
3.036911e+002, 3.338646e+002
3.041732e+002, 3.328204e+002
3.046554e+002, 3.318199e+002
3.051375e+002, 3.312135e+002
3.056196e+002, 3.310023e+002
3.061017e+002, 3.312960e+002
3.065838e+002, 3.322899e+002
3.070659e+002, 3.335274e+002
3.075481e+002, 3.340356e+002
3.080302e+002, 3.336536e+002
3.085123e+002, 3.333858e+002
3.089944e+002, 3.336881e+002
3.094765e+002, 3.342875e+002
3.099586e+002, 3.346691e+002
3.104408e+002, 3.346595e+002
3.109229e+002, 3.345919e+002
3.114050e+002, 3.349458e+002
3.118871e+002, 3.357235e+002
3.123692e+002, 3.364987e+002
3.128513e+002, 3.372744e+002
3.133335e+002, 3.379625e+002
3.138156e+002, 3.382817e+002
3.142977e+002, 3.381635e+002
3.147798e+002, 3.383181e+002
3.152619e+002, 3.395356e+002
3.157440e+002, 3.417653e+002
3.162262e+002, 3.438460e+002
3.167083e+002, 3.453007e+002
3.171904e+002, 3.468446e+002
3.176725e+002, 3.492332e+002
3.181546e+002, 3.524323e+002
3.186367e+002, 3.555601e+002
3.191188e+002, 3.579187e+002
3.196010e+002, 3.597391e+002
3.200831e+002, 3.621920e+002
3.205652e+002, 3.660736e+002
3.210473e+002, 3.697924e+002
3.215294e+002, 3.726226e+002
3.220115e+002, 3.745972e+002
3.224937e+002, 3.757965e+002
3.229758e+002, 3.761056e+002
3.234579e+002, 3.758122e+002
3.239400e+002, 3.757651e+002
3.244221e+002, 3.765409e+002
3.249042e+002, 3.763636e+002
3.253864e+002, 3.741873e+002
3.258685e+002, 3.706951e+002
3.263506e+002, 3.671705e+002
3.268327e+002, 3.640384e+002
3.273148e+002, 3.608698e+002
3.277969e+002, 3.568673e+002
3.282791e+002, 3.519070e+002
3.287612e+002, 3.470696e+002
3.292433e+002, 3.425117e+002
3.297254e+002, 3.382128e+002
3.302075e+002, 3.341170e+002
3.306896e+002, 3.302144e+002
3.311718e+002, 3.266428e+002
3.316539e+002, 3.236123e+002
3.321360e+002, 3.211808e+002
3.326181e+002, 3.185863e+002
3.331002e+002, 3.153333e+002
3.335823e+002, 3.122848e+002
3.340645e+002, 3.101836e+002
3.345466e+002, 3.089791e+002
3.350287e+002, 3.079676e+002
3.355108e+002, 3.066814e+002
3.359929e+002, 3.051741e+002
3.364750e+002, 3.038882e+002
3.369572e+002, 3.028336e+002
3.374393e+002, 3.019405e+002
3.379214e+002, 3.012714e+002
3.384035e+002, 3.007403e+002
3.388856e+002, 3.001410e+002
3.393677e+002, 2.993629e+002
3.398499e+002, 2.984934e+002
3.403320e+002, 2.977978e+002
3.408141e+002, 2.974941e+002
3.412962e+002, 2.969507e+002
3.417783e+002, 2.958154e+002
3.422604e+002, 2.944565e+002
3.427426e+002, 2.933345e+002
3.432247e+002, 2.925848e+002
3.437068e+002, 2.920968e+002
3.441889e+002, 2.917397e+002
3.446710e+002, 2.915659e+002
3.451531e+002, 2.913969e+002
3.456353e+002, 2.913086e+002
3.461174e+002, 2.911754e+002
3.465995e+002, 2.906805e+002
3.470816e+002, 2.899162e+002
3.475637e+002, 2.895346e+002
3.480458e+002, 2.901904e+002
3.485280e+002, 2.919538e+002
3.490101e+002, 2.934390e+002
3.494922e+002, 2.948916e+002
3.499743e+002, 2.958836e+002
3.504564e+002, 2.959236e+002
3.509385e+002, 2.953420e+002
3.514207e+002, 2.948395e+002
3.519028e+002, 2.948031e+002
3.523849e+002, 2.952041e+002
3.528670e+002, 2.959467e+002
3.533491e+002, 2.975250e+002
3.538312e+002, 2.988302e+002
3.543134e+002, 2.995470e+002
3.547955e+002, 2.999926e+002
3.552776e+002, 3.005549e+002
3.557597e+002, 3.013654e+002
3.562418e+002, 3.022606e+002
3.567239e+002, 3.029674e+002
3.572061e+002, 3.033865e+002
3.576882e+002, 3.038006e+002
3.581703e+002, 3.043682e+002
3.586524e+002, 3.048142e+002
3.591345e+002, 3.048741e+002
3.596166e+002, 3.045760e+002
3.600987e+002, 3.041943e+002
3.605808e+002, 3.039974e+002
3.610630e+002, 3.040074e+002
3.615451e+002, 3.039796e+002
3.620272e+002, 3.041205e+002
3.625093e+002, 3.040155e+002
3.629914e+002, 3.033889e+002
3.634735e+002, 3.024205e+002
3.639557e+002, 3.014805e+002
3.644378e+002, 3.008047e+002
3.649199e+002, 3.002907e+002
3.654020e+002, 2.994924e+002
3.658841e+002, 2.981762e+002
3.663662e+002, 2.968808e+002
3.668484e+002, 2.955333e+002
3.673305e+002, 2.943087e+002
3.678126e+002, 2.934720e+002
3.682947e+002, 2.930830e+002
3.687768e+002, 2.928073e+002
3.692589e+002, 2.920578e+002
3.697411e+002, 2.905352e+002
3.702232e+002, 2.893648e+002
3.707053e+002, 2.889873e+002
3.711874e+002, 2.886072e+002
3.716695e+002, 2.877006e+002
3.721516e+002, 2.863416e+002
3.726338e+002, 2.850032e+002
3.731159e+002, 2.841250e+002
3.735980e+002, 2.836929e+002
3.740801e+002, 2.832152e+002
3.745622e+002, 2.826837e+002
3.750443e+002, 2.821068e+002
3.755265e+002, 2.815034e+002
3.760086e+002, 2.808556e+002
3.764907e+002, 2.801618e+002
3.769728e+002, 2.794391e+002
3.774549e+002, 2.786155e+002
3.779370e+002, 2.775012e+002
3.784192e+002, 2.760131e+002
3.789013e+002, 2.744671e+002
3.793834e+002, 2.726727e+002
3.798655e+002, 2.710209e+002
3.803476e+002, 2.698360e+002
3.808297e+002, 2.691820e+002
3.813119e+002, 2.688787e+002
3.817940e+002, 2.690004e+002
3.822761e+002, 2.695283e+002
3.827582e+002, 2.693820e+002
3.832403e+002, 2.679535e+002
3.837224e+002, 2.663582e+002
3.842046e+002, 2.654539e+002
3.846867e+002, 2.650630e+002
3.851688e+002, 2.644936e+002
3.856509e+002, 2.630145e+002
3.861330e+002, 2.611689e+002
3.866151e+002, 2.603729e+002
3.870973e+002, 2.609570e+002
3.875794e+002, 2.614012e+002
3.880615e+002, 2.604837e+002
3.885436e+002, 2.589725e+002
3.890257e+002, 2.579896e+002
3.895078e+002, 2.579768e+002
3.899900e+002, 2.581056e+002
3.904721e+002, 2.576459e+002
3.909542e+002, 2.566528e+002
3.914363e+002, 2.555273e+002
3.919184e+002, 2.542398e+002
3.924005e+002, 2.530820e+002
3.928827e+002, 2.525560e+002
3.933648e+002, 2.527165e+002
3.938469e+002, 2.526991e+002
3.943290e+002, 2.518450e+002
3.948111e+002, 2.507094e+002
3.952932e+002, 2.503126e+002
3.957754e+002, 2.508593e+002
3.962575e+002, 2.514787e+002
3.967396e+002, 2.514185e+002
3.972217e+002, 2.507029e+002
3.977038e+002, 2.499388e+002
3.981859e+002, 2.488881e+002
3.986681e+002, 2.480201e+002
3.991501e+002, 2.478590e+002
3.996323e+002, 2.481944e+002
4.001144e+002, 2.482361e+002
4.005965e+002, 2.475440e+002
4.010786e+002, 2.463752e+002
4.015607e+002, 2.454604e+002
4.020428e+002, 2.447324e+002
4.025250e+002, 2.443130e+002
4.030071e+002, 2.443438e+002
4.034892e+002, 2.446377e+002
4.039713e+002, 2.450980e+002
4.044534e+002, 2.456698e+002
4.049355e+002, 2.460854e+002
4.054177e+002, 2.459713e+002
4.058998e+002, 2.451409e+002
4.063819e+002, 2.447361e+002
4.068640e+002, 2.452112e+002
4.073461e+002, 2.456254e+002
4.078282e+002, 2.454502e+002
4.083104e+002, 2.448254e+002
4.087925e+002, 2.441626e+002
4.092746e+002, 2.437018e+002
4.097567e+002, 2.434311e+002
4.102388e+002, 2.432895e+002
4.107209e+002, 2.435057e+002
4.112031e+002, 2.435521e+002
4.116852e+002, 2.432037e+002
4.121673e+002, 2.427683e+002
4.126494e+002, 2.424891e+002
4.131315e+002, 2.424484e+002
4.136136e+002, 2.426582e+002
4.140958e+002, 2.432988e+002
4.145779e+002, 2.447041e+002
4.150600e+002, 2.451973e+002
4.155421e+002, 2.438561e+002
4.160242e+002, 2.424355e+002
4.165063e+002, 2.414195e+002
4.169885e+002, 2.408685e+002
4.174706e+002, 2.408316e+002
4.179527e+002, 2.414924e+002
4.184348e+002, 2.425445e+002
4.189169e+002, 2.428467e+002
4.193990e+002, 2.419478e+002
4.198812e+002, 2.412998e+002
4.203633e+002, 2.415793e+002
4.208454e+002, 2.421732e+002
4.213275e+002, 2.425669e+002
4.218096e+002, 2.426391e+002
4.222917e+002, 2.424878e+002
4.227739e+002, 2.420733e+002
4.232560e+002, 2.414209e+002
4.237381e+002, 2.410412e+002
4.242202e+002, 2.409621e+002
4.247023e+002, 2.412637e+002
4.251844e+002, 2.423266e+002
4.256666e+002, 2.438664e+002
4.261487e+002, 2.448336e+002
4.266308e+002, 2.444270e+002
4.271129e+002, 2.433582e+002
4.275950e+002, 2.426157e+002
4.280771e+002, 2.422067e+002
4.285593e+002, 2.420189e+002
4.290414e+002, 2.420119e+002
4.295235e+002, 2.422037e+002
4.300056e+002, 2.426787e+002
4.304877e+002, 2.438049e+002
4.309698e+002, 2.443827e+002
4.314520e+002, 2.432713e+002
4.319341e+002, 2.412769e+002
4.324162e+002, 2.400867e+002
4.328983e+002, 2.401797e+002
4.333804e+002, 2.407159e+002
4.338625e+002, 2.407510e+002
4.343447e+002, 2.402044e+002
4.348268e+002, 2.397289e+002
4.353089e+002, 2.390851e+002
4.357910e+002, 2.387381e+002
4.362731e+002, 2.392923e+002
4.367552e+002, 2.404735e+002
4.372374e+002, 2.412816e+002
4.377195e+002, 2.410540e+002
4.382016e+002, 2.401805e+002
4.386837e+002, 2.401574e+002
4.391658e+002, 2.421683e+002
4.396479e+002, 2.435191e+002
4.401301e+002, 2.437577e+002
4.406122e+002, 2.434133e+002
4.410943e+002, 2.428461e+002
4.415764e+002, 2.421969e+002
4.420585e+002, 2.415784e+002
4.425406e+002, 2.410876e+002
4.430227e+002, 2.406828e+002
4.435049e+002, 2.407123e+002
4.439870e+002, 2.420095e+002
4.444691e+002, 2.428782e+002
4.449512e+002, 2.425396e+002
4.454333e+002, 2.414647e+002
4.459154e+002, 2.404194e+002
4.463976e+002, 2.397882e+002
4.468797e+002, 2.394612e+002
4.473618e+002, 2.391970e+002
4.478439e+002, 2.389666e+002
4.483260e+002, 2.388870e+002
4.488081e+002, 2.392356e+002
4.492903e+002, 2.395532e+002
4.497724e+002, 2.395391e+002
4.502545e+002, 2.391833e+002
4.507366e+002, 2.386795e+002
4.512187e+002, 2.380839e+002
4.517008e+002, 2.374438e+002
4.521830e+002, 2.370146e+002
4.526651e+002, 2.368924e+002
4.531472e+002, 2.367546e+002
4.536293e+002, 2.362885e+002
4.541114e+002, 2.357149e+002
4.545935e+002, 2.353892e+002
4.550757e+002, 2.355225e+002
4.555578e+002, 2.356523e+002
4.560399e+002, 2.353503e+002
4.565220e+002, 2.347028e+002
4.570041e+002, 2.340161e+002
4.574862e+002, 2.332687e+002
4.579684e+002, 2.327444e+002
4.584505e+002, 2.330676e+002
4.589326e+002, 2.342451e+002
4.594147e+002, 2.349018e+002
4.598968e+002, 2.345088e+002
4.603789e+002, 2.337006e+002
4.608611e+002, 2.329328e+002
4.613432e+002, 2.322479e+002
4.618253e+002, 2.316136e+002
4.623074e+002, 2.309939e+002
4.627895e+002, 2.304229e+002
4.632716e+002, 2.300329e+002
4.637538e+002, 2.300923e+002
4.642359e+002, 2.299706e+002
4.647180e+002, 2.293825e+002
4.652001e+002, 2.286933e+002
4.656822e+002, 2.283350e+002
4.661643e+002, 2.283582e+002
4.666465e+002, 2.284328e+002
4.671286e+002, 2.281864e+002
4.676107e+002, 2.275744e+002
4.680928e+002, 2.270395e+002
4.685749e+002, 2.266593e+002
4.690570e+002, 2.262710e+002
4.695392e+002, 2.257004e+002
4.700213e+002, 2.251303e+002
4.705034e+002, 2.249134e+002
4.709855e+002, 2.252222e+002
4.714676e+002, 2.256712e+002
4.719497e+002, 2.254457e+002
4.724319e+002, 2.242752e+002
4.729140e+002, 2.236353e+002
4.733961e+002, 2.243861e+002
4.738782e+002, 2.251793e+002
4.743603e+002, 2.251368e+002
4.748424e+002, 2.244073e+002
4.753246e+002, 2.237608e+002
4.758067e+002, 2.236539e+002
4.762888e+002, 2.239393e+002
4.767709e+002, 2.244211e+002
4.772530e+002, 2.251782e+002
4.777351e+002, 2.256052e+002
4.782173e+002, 2.251621e+002
4.786994e+002, 2.243506e+002
4.791815e+002, 2.239626e+002
4.796636e+002, 2.240934e+002
4.801457e+002, 2.244092e+002
4.806278e+002, 2.249138e+002
4.811100e+002, 2.254475e+002
4.815920e+002, 2.256437e+002
4.820742e+002, 2.254228e+002
4.825563e+002, 2.252038e+002
4.830384e+002, 2.253885e+002
4.835205e+002, 2.259717e+002
4.840026e+002, 2.263951e+002
4.844847e+002, 2.266223e+002
4.849669e+002, 2.267391e+002
4.854490e+002, 2.266977e+002
4.859311e+002, 2.265865e+002
4.864132e+002, 2.265802e+002
4.868953e+002, 2.267424e+002
4.873774e+002, 2.269437e+002
4.878596e+002, 2.269877e+002
4.883417e+002, 2.269136e+002
4.888238e+002, 2.265504e+002
4.893059e+002, 2.256288e+002
4.897880e+002, 2.247273e+002
4.902701e+002, 2.240629e+002
4.907523e+002, 2.236520e+002
4.912344e+002, 2.234993e+002
4.917165e+002, 2.236444e+002
4.921986e+002, 2.239487e+002
4.926807e+002, 2.240183e+002
4.931628e+002, 2.237757e+002
4.936450e+002, 2.235148e+002
4.941271e+002, 2.233470e+002
4.946092e+002, 2.231458e+002
4.950913e+002, 2.228413e+002
4.955734e+002, 2.224236e+002
4.960555e+002, 2.218883e+002
4.965377e+002, 2.211399e+002
4.970198e+002, 2.202818e+002
4.975019e+002, 2.196276e+002
4.979840e+002, 2.192226e+002
4.984661e+002, 2.188231e+002
4.989482e+002, 2.181806e+002
4.994304e+002, 2.175051e+002
4.999125e+002, 2.172296e+002
5.003946e+002, 2.175611e+002
5.008767e+002, 2.178348e+002
5.013588e+002, 2.177206e+002
5.018409e+002, 2.173280e+002
5.023231e+002, 2.167399e+002
5.028052e+002, 2.159687e+002
5.032873e+002, 2.153667e+002
5.037694e+002, 2.152906e+002
5.042515e+002, 2.157642e+002
5.047336e+002, 2.162742e+002
5.052158e+002, 2.171760e+002
5.056979e+002, 2.177187e+002
5.061800e+002, 2.174796e+002
5.066621e+002, 2.167571e+002
5.071442e+002, 2.158753e+002
5.076263e+002, 2.149777e+002
5.081085e+002, 2.143073e+002
5.085906e+002, 2.142956e+002
5.090727e+002, 2.151594e+002
5.095548e+002, 2.158952e+002
5.100369e+002, 2.165678e+002
5.105190e+002, 2.170419e+002
5.110012e+002, 2.171062e+002
5.114833e+002, 2.169539e+002
5.119654e+002, 2.170049e+002
5.124475e+002, 2.175427e+002
5.129296e+002, 2.181347e+002
5.134117e+002, 2.178862e+002
5.138939e+002, 2.166639e+002
5.143760e+002, 2.156463e+002
5.148581e+002, 2.153638e+002
5.153402e+002, 2.150745e+002
5.158223e+002, 2.139838e+002
5.163044e+002, 2.122411e+002
5.167866e+002, 2.108631e+002
5.172687e+002, 2.105756e+002
5.177508e+002, 2.107071e+002
5.182329e+002, 2.103905e+002
5.187150e+002, 2.096421e+002
5.191971e+002, 2.088760e+002
5.196793e+002, 2.082873e+002
5.201614e+002, 2.077970e+002
5.206435e+002, 2.072594e+002
5.211256e+002, 2.067204e+002
5.216077e+002, 2.060166e+002
5.220898e+002, 2.048419e+002
5.225720e+002, 2.036870e+002
5.230541e+002, 2.030613e+002
5.235362e+002, 2.029265e+002
5.240183e+002, 2.028540e+002
5.245004e+002, 2.025313e+002
5.249825e+002, 2.020264e+002
5.254647e+002, 2.016975e+002
5.259468e+002, 2.018865e+002
5.264289e+002, 2.017545e+002
5.269110e+002, 2.009551e+002
5.273931e+002, 2.000142e+002
5.278752e+002, 1.994074e+002
5.283574e+002, 1.991537e+002
5.288395e+002, 1.988801e+002
5.293216e+002, 1.981159e+002
5.298037e+002, 1.970243e+002
5.302858e+002, 1.966927e+002
5.307679e+002, 1.974696e+002
5.312501e+002, 1.982010e+002
5.317322e+002, 1.984502e+002
5.322143e+002, 1.983690e+002
5.326964e+002, 1.980408e+002
5.331785e+002, 1.974495e+002
5.336606e+002, 1.968016e+002
5.341428e+002, 1.961989e+002
5.346249e+002, 1.956403e+002
5.351070e+002, 1.950885e+002
5.355891e+002, 1.945297e+002
5.360712e+002, 1.941034e+002
5.365533e+002, 1.939483e+002
5.370355e+002, 1.940247e+002
5.375176e+002, 1.940564e+002
5.379997e+002, 1.939160e+002
5.384818e+002, 1.938903e+002
5.389639e+002, 1.942546e+002
5.394460e+002, 1.946895e+002
5.399282e+002, 1.947077e+002
5.404103e+002, 1.942536e+002
5.408924e+002, 1.937823e+002
5.413745e+002, 1.938185e+002
5.418566e+002, 1.943880e+002
5.423387e+002, 1.945650e+002
5.428209e+002, 1.941787e+002
5.433029e+002, 1.935694e+002
5.437850e+002, 1.924492e+002
5.442672e+002, 1.913139e+002
5.447493e+002, 1.907599e+002
5.452314e+002, 1.909302e+002
5.457135e+002, 1.914059e+002
5.461956e+002, 1.919216e+002
5.466777e+002, 1.924333e+002
5.471599e+002, 1.922779e+002
5.476420e+002, 1.910504e+002
5.481241e+002, 1.899452e+002
5.486062e+002, 1.899686e+002
5.490883e+002, 1.905536e+002
5.495704e+002, 1.907825e+002
5.500526e+002, 1.903543e+002
5.505347e+002, 1.898754e+002
5.510168e+002, 1.896849e+002
5.514989e+002, 1.897238e+002
5.519810e+002, 1.899561e+002
5.524631e+002, 1.903826e+002
5.529453e+002, 1.906746e+002
5.534274e+002, 1.904485e+002
5.539095e+002, 1.897007e+002
5.543916e+002, 1.894050e+002
5.548737e+002, 1.900131e+002
5.553558e+002, 1.904608e+002
5.558380e+002, 1.904312e+002
5.563201e+002, 1.900921e+002
5.568022e+002, 1.895519e+002
5.572843e+002, 1.888869e+002
5.577664e+002, 1.883387e+002
5.582485e+002, 1.882243e+002
5.587307e+002, 1.885627e+002
5.592128e+002, 1.888256e+002
5.596949e+002, 1.891751e+002
5.601770e+002, 1.891883e+002
5.606591e+002, 1.885381e+002
5.611412e+002, 1.876026e+002
5.616234e+002, 1.867809e+002
5.621055e+002, 1.861634e+002
5.625876e+002, 1.857985e+002
5.630697e+002, 1.858755e+002
5.635518e+002, 1.862489e+002
5.640339e+002, 1.863835e+002
5.645161e+002, 1.861654e+002
5.649982e+002, 1.859839e+002
5.654803e+002, 1.861516e+002
5.659624e+002, 1.865905e+002
5.664445e+002, 1.869158e+002
5.669266e+002, 1.870826e+002
5.674088e+002, 1.872012e+002
5.678909e+002, 1.874113e+002
5.683730e+002, 1.875454e+002
5.688551e+002, 1.872007e+002
5.693372e+002, 1.864084e+002
5.698193e+002, 1.858761e+002
5.703015e+002, 1.863556e+002
5.707836e+002, 1.877675e+002
5.712657e+002, 1.885377e+002
5.717478e+002, 1.882092e+002
5.722299e+002, 1.878194e+002
5.727120e+002, 1.875505e+002
5.731942e+002, 1.872804e+002
5.736763e+002, 1.868384e+002
5.741584e+002, 1.862237e+002
5.746405e+002, 1.856618e+002
5.751226e+002, 1.853162e+002
5.756047e+002, 1.851816e+002
5.760869e+002, 1.853010e+002
5.765690e+002, 1.857549e+002
5.770511e+002, 1.861149e+002
5.775332e+002, 1.860829e+002
5.780153e+002, 1.858889e+002
5.784974e+002, 1.859324e+002
5.789796e+002, 1.862865e+002
5.794617e+002, 1.865758e+002
5.799438e+002, 1.867435e+002
5.804259e+002, 1.867233e+002
5.809080e+002, 1.862968e+002
5.813901e+002, 1.855403e+002
5.818723e+002, 1.849346e+002
5.823544e+002, 1.847985e+002
5.828365e+002, 1.850091e+002
5.833186e+002, 1.851577e+002
5.838007e+002, 1.854815e+002
5.842828e+002, 1.853547e+002
5.847650e+002, 1.843083e+002
5.852471e+002, 1.832231e+002
5.857292e+002, 1.826847e+002
5.862113e+002, 1.826398e+002
5.866934e+002, 1.827304e+002
5.871755e+002, 1.827513e+002
5.876577e+002, 1.827318e+002
5.881398e+002, 1.827310e+002
5.886219e+002, 1.827468e+002
5.891040e+002, 1.827989e+002
5.895861e+002, 1.829245e+002
5.900682e+002, 1.830514e+002
5.905504e+002, 1.830627e+002
5.910325e+002, 1.829903e+002
5.915146e+002, 1.830525e+002
5.919967e+002, 1.834460e+002
5.924788e+002, 1.838894e+002
5.929609e+002, 1.841792e+002
5.934431e+002, 1.843206e+002
5.939252e+002, 1.843162e+002
5.944073e+002, 1.841583e+002
5.948894e+002, 1.839411e+002
5.953715e+002, 1.837915e+002
5.958536e+002, 1.837154e+002
5.963358e+002, 1.836843e+002
5.968179e+002, 1.836651e+002
5.973000e+002, 1.837202e+002
5.977821e+002, 1.839024e+002
5.982642e+002, 1.841618e+002
5.987463e+002, 1.844736e+002
5.992285e+002, 1.848216e+002
5.997106e+002, 1.850714e+002
6.001927e+002, 1.850524e+002
6.006748e+002, 1.847693e+002
6.011569e+002, 1.843435e+002
6.016390e+002, 1.836947e+002
6.021212e+002, 1.830851e+002
6.026033e+002, 1.826363e+002
6.030854e+002, 1.823337e+002
6.035675e+002, 1.822216e+002
6.040496e+002, 1.824045e+002
6.045317e+002, 1.824783e+002
6.050139e+002, 1.820212e+002
6.054960e+002, 1.814252e+002
6.059781e+002, 1.814714e+002
6.064602e+002, 1.821515e+002
6.069423e+002, 1.824535e+002
6.074244e+002, 1.815381e+002
6.079066e+002, 1.797829e+002
6.083887e+002, 1.789020e+002
6.088708e+002, 1.798965e+002
6.093529e+002, 1.803587e+002
6.098350e+002, 1.797532e+002
6.103171e+002, 1.789683e+002
6.107993e+002, 1.785706e+002
6.112814e+002, 1.785757e+002
6.117635e+002, 1.787731e+002
6.122456e+002, 1.790835e+002
6.127277e+002, 1.794170e+002
6.132098e+002, 1.795979e+002
6.136920e+002, 1.796241e+002
6.141741e+002, 1.794951e+002
6.146562e+002, 1.790703e+002
6.151383e+002, 1.786731e+002
6.156204e+002, 1.787666e+002
6.161025e+002, 1.792414e+002
6.165847e+002, 1.794025e+002
6.170668e+002, 1.791485e+002
6.175489e+002, 1.785025e+002
6.180310e+002, 1.769942e+002
6.185131e+002, 1.751915e+002
6.189952e+002, 1.743417e+002
6.194774e+002, 1.747917e+002
6.199595e+002, 1.757007e+002
6.204416e+002, 1.760935e+002
6.209237e+002, 1.759373e+002
6.214058e+002, 1.757892e+002
6.218879e+002, 1.756564e+002
6.223701e+002, 1.755246e+002
6.228522e+002, 1.752696e+002
6.233343e+002, 1.750839e+002
6.238164e+002, 1.753219e+002
6.242985e+002, 1.759906e+002
6.247806e+002, 1.764380e+002
6.252628e+002, 1.759697e+002
6.257448e+002, 1.748993e+002
6.262269e+002, 1.740476e+002
6.267090e+002, 1.734395e+002
6.271912e+002, 1.729285e+002
6.276733e+002, 1.724051e+002
6.281554e+002, 1.719767e+002
6.286375e+002, 1.719546e+002
6.291196e+002, 1.724930e+002
6.296017e+002, 1.726503e+002
6.300839e+002, 1.720661e+002
6.305660e+002, 1.712564e+002
6.310481e+002, 1.703013e+002
6.315302e+002, 1.694337e+002
6.320123e+002, 1.691605e+002
6.324944e+002, 1.697164e+002
6.329766e+002, 1.706709e+002
6.334587e+002, 1.713032e+002
6.339408e+002, 1.715537e+002
6.344229e+002, 1.718190e+002
6.349050e+002, 1.723527e+002
6.353871e+002, 1.725549e+002
6.358693e+002, 1.719424e+002
6.363514e+002, 1.709428e+002
6.368335e+002, 1.702060e+002
6.373156e+002, 1.699130e+002
6.377977e+002, 1.697755e+002
6.382798e+002, 1.697155e+002
6.387620e+002, 1.696347e+002
6.392441e+002, 1.691630e+002
6.397262e+002, 1.682961e+002
6.402083e+002, 1.678982e+002
6.406904e+002, 1.686875e+002
6.411725e+002, 1.701824e+002
6.416547e+002, 1.707647e+002
6.421368e+002, 1.693559e+002
6.426189e+002, 1.686054e+002
6.431010e+002, 1.691340e+002
6.435831e+002, 1.697654e+002
6.440652e+002, 1.696227e+002
6.445474e+002, 1.689542e+002
6.450295e+002, 1.685905e+002
6.455116e+002, 1.690170e+002
6.459937e+002, 1.697094e+002
6.464758e+002, 1.697264e+002
6.469579e+002, 1.690758e+002
6.474401e+002, 1.687309e+002
6.479222e+002, 1.689198e+002
6.484043e+002, 1.692620e+002
6.488864e+002, 1.695777e+002
6.493685e+002, 1.698177e+002
6.498506e+002, 1.698041e+002
6.503328e+002, 1.693448e+002
6.508149e+002, 1.689104e+002
6.512970e+002, 1.687916e+002
6.517791e+002, 1.687408e+002
6.522612e+002, 1.684087e+002
6.527433e+002, 1.677998e+002
6.532255e+002, 1.672008e+002
6.537076e+002, 1.668115e+002
6.541897e+002, 1.666228e+002
6.546718e+002, 1.666352e+002
6.551539e+002, 1.669861e+002
6.556360e+002, 1.672014e+002
6.561182e+002, 1.672111e+002
6.566003e+002, 1.670629e+002
6.570824e+002, 1.666697e+002
6.575645e+002, 1.661250e+002
6.580466e+002, 1.657049e+002
6.585287e+002, 1.655643e+002
6.590109e+002, 1.654993e+002
6.594930e+002, 1.652319e+002
6.599751e+002, 1.648882e+002
6.604572e+002, 1.648846e+002
6.609393e+002, 1.653199e+002
6.614214e+002, 1.658152e+002
6.619036e+002, 1.660744e+002
6.623857e+002, 1.660968e+002
6.628678e+002, 1.658713e+002
6.633499e+002, 1.649689e+002
6.638320e+002, 1.643927e+002
6.643141e+002, 1.645478e+002
6.647963e+002, 1.648164e+002
6.652784e+002, 1.645928e+002
6.657605e+002, 1.639869e+002
6.662426e+002, 1.636401e+002
6.667247e+002, 1.640561e+002
6.672068e+002, 1.647724e+002
6.676890e+002, 1.648639e+002
6.681711e+002, 1.643544e+002
6.686532e+002, 1.640898e+002
6.691353e+002, 1.643157e+002
6.696174e+002, 1.646953e+002
6.700995e+002, 1.649847e+002
6.705817e+002, 1.651649e+002
6.710638e+002, 1.651357e+002
6.715459e+002, 1.645877e+002
6.720280e+002, 1.642077e+002
6.725101e+002, 1.644055e+002
6.729922e+002, 1.647676e+002
6.734744e+002, 1.647750e+002
6.739565e+002, 1.644272e+002
6.744386e+002, 1.641785e+002
6.749207e+002, 1.644298e+002
6.754028e+002, 1.649436e+002
6.758849e+002, 1.648356e+002
6.763671e+002, 1.638792e+002
6.768492e+002, 1.633165e+002
6.773313e+002, 1.635528e+002
6.778134e+002, 1.640764e+002
6.782955e+002, 1.646366e+002
6.787776e+002, 1.651568e+002
6.792598e+002, 1.653324e+002
6.797419e+002, 1.648257e+002
6.802240e+002, 1.643036e+002
6.807061e+002, 1.640589e+002
6.811882e+002, 1.640907e+002
6.816703e+002, 1.646110e+002
6.821525e+002, 1.655444e+002
6.826346e+002, 1.661470e+002
6.831167e+002, 1.657402e+002
6.835988e+002, 1.645797e+002
6.840809e+002, 1.639295e+002
6.845630e+002, 1.639657e+002
6.850452e+002, 1.641306e+002
6.855273e+002, 1.645445e+002
6.860094e+002, 1.648972e+002
6.864915e+002, 1.649144e+002
6.869736e+002, 1.647134e+002
6.874557e+002, 1.646812e+002
6.879379e+002, 1.650927e+002
6.884200e+002, 1.654833e+002
6.889021e+002, 1.653594e+002
6.893842e+002, 1.649115e+002
6.898663e+002, 1.645245e+002
6.903484e+002, 1.642733e+002
6.908306e+002, 1.642684e+002
6.913127e+002, 1.646495e+002
6.917948e+002, 1.653075e+002
6.922769e+002, 1.656847e+002
6.927590e+002, 1.654203e+002
6.932411e+002, 1.654582e+002
6.937233e+002, 1.661461e+002
6.942054e+002, 1.668522e+002
6.946875e+002, 1.672691e+002
6.951696e+002, 1.673851e+002
6.956517e+002, 1.672053e+002
6.961339e+002, 1.666299e+002
6.966160e+002, 1.660859e+002
6.970981e+002, 1.660908e+002
6.975802e+002, 1.665262e+002
6.980623e+002, 1.670251e+002
6.985444e+002, 1.675419e+002
6.990266e+002, 1.679372e+002
6.995087e+002, 1.680646e+002
6.999908e+002, 1.680226e+002
7.004729e+002, 1.681886e+002
7.009550e+002, 1.687562e+002
7.014371e+002, 1.692352e+002
7.019193e+002, 1.694259e+002
7.024014e+002, 1.697043e+002
7.028835e+002, 1.704374e+002
7.033656e+002, 1.714177e+002
7.038477e+002, 1.721933e+002
7.043298e+002, 1.725615e+002
7.048120e+002, 1.727172e+002
7.052941e+002, 1.729083e+002
7.057762e+002, 1.730954e+002
7.062583e+002, 1.729247e+002
7.067404e+002, 1.722493e+002
7.072225e+002, 1.720998e+002
7.077046e+002, 1.733768e+002
7.081867e+002, 1.753623e+002
7.086688e+002, 1.761770e+002
7.091509e+002, 1.753411e+002
7.096331e+002, 1.746318e+002
7.101152e+002, 1.739977e+002
7.105973e+002, 1.736789e+002
7.110794e+002, 1.740880e+002
7.115615e+002, 1.748389e+002
7.120436e+002, 1.751837e+002
7.125258e+002, 1.748637e+002
7.130079e+002, 1.744704e+002
7.134900e+002, 1.747981e+002
7.139721e+002, 1.756851e+002
7.144542e+002, 1.762032e+002
7.149363e+002, 1.762688e+002
7.154185e+002, 1.763383e+002
7.159006e+002, 1.767068e+002
7.163827e+002, 1.771000e+002
7.168648e+002, 1.769816e+002
7.173469e+002, 1.762485e+002
7.178290e+002, 1.756943e+002
7.183112e+002, 1.754312e+002
7.187933e+002, 1.753136e+002
7.192754e+002, 1.751482e+002
7.197575e+002, 1.751320e+002
7.202396e+002, 1.757133e+002
7.207217e+002, 1.769206e+002
7.212039e+002, 1.780693e+002
7.216860e+002, 1.785043e+002
7.221681e+002, 1.783369e+002
7.226502e+002, 1.778602e+002
7.231323e+002, 1.769869e+002
7.236144e+002, 1.765563e+002
7.240966e+002, 1.770378e+002
7.245787e+002, 1.777663e+002
7.250608e+002, 1.779725e+002
7.255429e+002, 1.776674e+002
7.260250e+002, 1.773178e+002
7.265071e+002, 1.770604e+002
7.269893e+002, 1.766286e+002
7.274714e+002, 1.757691e+002
7.279535e+002, 1.747779e+002
7.284356e+002, 1.739789e+002
7.289177e+002, 1.734161e+002
7.293998e+002, 1.729765e+002
7.298820e+002, 1.726039e+002
7.303641e+002, 1.722524e+002
7.308462e+002, 1.718638e+002
7.313283e+002, 1.714453e+002
7.318104e+002, 1.706731e+002
7.322925e+002, 1.692549e+002
7.327747e+002, 1.680148e+002
7.332568e+002, 1.678160e+002
7.337389e+002, 1.684059e+002
7.342210e+002, 1.683951e+002
7.347031e+002, 1.671234e+002
7.351852e+002, 1.662730e+002
7.356674e+002, 1.666727e+002
7.361495e+002, 1.672262e+002
7.366316e+002, 1.670383e+002
7.371137e+002, 1.661912e+002
7.375958e+002, 1.651222e+002
7.380779e+002, 1.640106e+002
7.385601e+002, 1.630508e+002
7.390422e+002, 1.625782e+002
7.395243e+002, 1.625504e+002
7.400064e+002, 1.625799e+002
7.404885e+002, 1.626615e+002
7.409706e+002, 1.627088e+002
7.414528e+002, 1.627658e+002
7.419349e+002, 1.626933e+002
7.424170e+002, 1.620746e+002
7.428991e+002, 1.606268e+002
7.433812e+002, 1.596551e+002
7.438633e+002, 1.594917e+002
7.443455e+002, 1.595931e+002
7.448276e+002, 1.598205e+002
7.453097e+002, 1.600683e+002
7.457918e+002, 1.602255e+002
7.462739e+002, 1.602581e+002
7.467560e+002, 1.601914e+002
7.472382e+002, 1.599963e+002
7.477203e+002, 1.597300e+002
7.482024e+002, 1.595597e+002
7.486845e+002, 1.594860e+002
7.491666e+002, 1.595060e+002
7.496487e+002, 1.596399e+002
7.501309e+002, 1.598190e+002
7.506130e+002, 1.599917e+002
7.510951e+002, 1.601627e+002
7.515772e+002, 1.601694e+002
7.520593e+002, 1.600552e+002
7.525414e+002, 1.597323e+002
7.530236e+002, 1.588040e+002
7.535057e+002, 1.579266e+002
7.539878e+002, 1.578080e+002
7.544699e+002, 1.583486e+002
7.549520e+002, 1.588769e+002
7.554341e+002, 1.590337e+002
7.559163e+002, 1.589566e+002
7.563984e+002, 1.587881e+002
7.568805e+002, 1.585454e+002
7.573626e+002, 1.583037e+002
7.578447e+002, 1.580741e+002
7.583268e+002, 1.578560e+002
7.588090e+002, 1.576389e+002
7.592911e+002, 1.574451e+002
7.597732e+002, 1.573421e+002
7.602553e+002, 1.573034e+002
7.607374e+002, 1.574186e+002
7.612195e+002, 1.579678e+002
7.617017e+002, 1.583707e+002
7.621838e+002, 1.582325e+002
7.626659e+002, 1.578130e+002
7.631480e+002, 1.575007e+002
7.636301e+002, 1.574001e+002
7.641122e+002, 1.574854e+002
7.645944e+002, 1.580118e+002
7.650765e+002, 1.585692e+002
7.655586e+002, 1.583443e+002
7.660407e+002, 1.574672e+002
7.665228e+002, 1.567859e+002
7.670049e+002, 1.566236e+002
7.674871e+002, 1.567825e+002
7.679692e+002, 1.570590e+002
7.684513e+002, 1.574707e+002
7.689334e+002, 1.575120e+002
7.694155e+002, 1.567456e+002
7.698976e+002, 1.563219e+002
7.703798e+002, 1.568607e+002
7.708619e+002, 1.575276e+002
7.713440e+002, 1.576160e+002
7.718261e+002, 1.572042e+002
7.723082e+002, 1.568849e+002
7.727903e+002, 1.568574e+002
7.732725e+002, 1.569922e+002
7.737546e+002, 1.573520e+002
7.742367e+002, 1.577507e+002
7.747188e+002, 1.578940e+002
7.752009e+002, 1.577554e+002
7.756830e+002, 1.574253e+002
7.761652e+002, 1.569277e+002
7.766473e+002, 1.564451e+002
7.771294e+002, 1.564697e+002
7.776115e+002, 1.570968e+002
7.780936e+002, 1.575993e+002
7.785757e+002, 1.579267e+002
7.790579e+002, 1.581385e+002
7.795400e+002, 1.582855e+002
7.800221e+002, 1.583232e+002
7.805042e+002, 1.581713e+002
7.809863e+002, 1.578063e+002
7.814684e+002, 1.573527e+002
7.819506e+002, 1.564284e+002
7.824327e+002, 1.558358e+002
7.829148e+002, 1.564628e+002
7.833969e+002, 1.576431e+002
7.838790e+002, 1.581142e+002
7.843611e+002, 1.576359e+002
7.848433e+002, 1.572374e+002
7.853254e+002, 1.580745e+002
7.858075e+002, 1.595849e+002
7.862896e+002, 1.598858e+002
7.867717e+002, 1.589536e+002
7.872538e+002, 1.584560e+002
7.877360e+002, 1.589240e+002
7.882181e+002, 1.595670e+002
7.887002e+002, 1.596286e+002
7.891823e+002, 1.591994e+002
7.896644e+002, 1.590495e+002
7.901465e+002, 1.593515e+002
7.906286e+002, 1.596704e+002
7.911107e+002, 1.600103e+002
7.915928e+002, 1.603259e+002
7.920750e+002, 1.606029e+002
7.925571e+002, 1.608318e+002
7.930392e+002, 1.610277e+002
7.935213e+002, 1.612095e+002
7.940034e+002, 1.612339e+002
7.944855e+002, 1.608335e+002
7.949677e+002, 1.602483e+002
7.954498e+002, 1.599334e+002
7.959319e+002, 1.598873e+002
7.964140e+002, 1.599164e+002
7.968961e+002, 1.599408e+002
7.973782e+002, 1.600103e+002
7.978604e+002, 1.602465e+002
7.983425e+002, 1.606746e+002
7.988246e+002, 1.605874e+002
7.993067e+002, 1.594673e+002
7.997888e+002, 1.587661e+002
8.002709e+002, 1.593466e+002
8.007531e+002, 1.600787e+002
8.012352e+002, 1.600977e+002
8.017173e+002, 1.595004e+002
8.021994e+002, 1.588870e+002
8.026815e+002, 1.582069e+002
8.031636e+002, 1.578451e+002
8.036458e+002, 1.583600e+002
8.041279e+002, 1.590840e+002
8.046100e+002, 1.592103e+002
8.050921e+002, 1.587606e+002
8.055742e+002, 1.580949e+002
8.060563e+002, 1.573853e+002
8.065385e+002, 1.568998e+002
8.070206e+002, 1.573300e+002
8.075027e+002, 1.585627e+002
8.079848e+002, 1.589065e+002
8.084669e+002, 1.581468e+002
8.089490e+002, 1.572323e+002
8.094312e+002, 1.565061e+002
8.099133e+002, 1.559484e+002
8.103954e+002, 1.555824e+002
8.108775e+002, 1.554669e+002
8.113596e+002, 1.551424e+002
8.118417e+002, 1.541301e+002
8.123239e+002, 1.535212e+002
8.128060e+002, 1.538317e+002
8.132881e+002, 1.545218e+002
8.137702e+002, 1.552625e+002
8.142523e+002, 1.559059e+002
8.147344e+002, 1.561657e+002
8.152166e+002, 1.557362e+002
8.156987e+002, 1.552176e+002
8.161808e+002, 1.554451e+002
8.166629e+002, 1.560036e+002
8.171450e+002, 1.558877e+002
8.176271e+002, 1.550418e+002
8.181093e+002, 1.540483e+002
8.185914e+002, 1.531871e+002
8.190735e+002, 1.526798e+002
8.195556e+002, 1.531080e+002
8.200377e+002, 1.547254e+002
8.205198e+002, 1.556571e+002
8.210020e+002, 1.557122e+002
8.214841e+002, 1.554405e+002
8.219662e+002, 1.547341e+002
8.224483e+002, 1.540177e+002
8.229304e+002, 1.538186e+002
8.234125e+002, 1.541225e+002
8.238947e+002, 1.543699e+002
8.243768e+002, 1.544260e+002
8.248589e+002, 1.544365e+002
8.253410e+002, 1.545535e+002
8.258231e+002, 1.546030e+002
8.263052e+002, 1.542020e+002
8.267874e+002, 1.535117e+002
8.272695e+002, 1.532574e+002
8.277516e+002, 1.539305e+002
8.282337e+002, 1.548042e+002
8.287158e+002, 1.546841e+002
8.291979e+002, 1.538585e+002
8.296801e+002, 1.535720e+002
8.301622e+002, 1.539360e+002
8.306443e+002, 1.544474e+002
8.311264e+002, 1.549126e+002
8.316085e+002, 1.552231e+002
8.320906e+002, 1.551640e+002
8.325728e+002, 1.546597e+002
8.330549e+002, 1.543335e+002
8.335370e+002, 1.542903e+002
8.340191e+002, 1.542786e+002
8.345012e+002, 1.543388e+002
8.349833e+002, 1.543302e+002
8.354655e+002, 1.540561e+002
8.359476e+002, 1.535850e+002
8.364297e+002, 1.532632e+002
8.369118e+002, 1.532466e+002
8.373939e+002, 1.533181e+002
8.378760e+002, 1.534139e+002
8.383582e+002, 1.534996e+002
8.388403e+002, 1.535597e+002
8.393224e+002, 1.535730e+002
8.398045e+002, 1.534631e+002
8.402866e+002, 1.531932e+002
8.407687e+002, 1.529106e+002
8.412509e+002, 1.527911e+002
8.417330e+002, 1.528333e+002
8.422151e+002, 1.531288e+002
8.426972e+002, 1.537091e+002
8.431793e+002, 1.539384e+002
8.436614e+002, 1.534375e+002
8.441436e+002, 1.529464e+002
8.446257e+002, 1.534748e+002
8.451078e+002, 1.549790e+002
8.455899e+002, 1.555305e+002
8.460720e+002, 1.540670e+002
8.465541e+002, 1.531973e+002
8.470363e+002, 1.536507e+002
8.475184e+002, 1.542681e+002
8.480005e+002, 1.543237e+002
8.484826e+002, 1.539795e+002
8.489647e+002, 1.536948e+002
8.494468e+002, 1.535995e+002
8.499290e+002, 1.535078e+002
8.504111e+002, 1.531351e+002
8.508932e+002, 1.528653e+002
8.513753e+002, 1.533292e+002
8.518574e+002, 1.541763e+002
8.523395e+002, 1.544751e+002
8.528217e+002, 1.539934e+002
8.533038e+002, 1.534307e+002
8.537859e+002, 1.534791e+002
8.542680e+002, 1.539707e+002
8.547501e+002, 1.544782e+002
8.552322e+002, 1.550029e+002
8.557144e+002, 1.551145e+002
8.561965e+002, 1.546270e+002
8.566786e+002, 1.541468e+002
8.571607e+002, 1.541088e+002
8.576428e+002, 1.544346e+002
8.581249e+002, 1.548929e+002
8.586071e+002, 1.556279e+002
8.590892e+002, 1.561757e+002
8.595713e+002, 1.563680e+002
8.600534e+002, 1.565729e+002
8.605355e+002, 1.569254e+002
8.610176e+002, 1.573579e+002
8.614998e+002, 1.578653e+002
8.619819e+002, 1.584229e+002
8.624640e+002, 1.587205e+002
8.629461e+002, 1.583848e+002
8.634282e+002, 1.580191e+002
8.639103e+002, 1.580287e+002
8.643925e+002, 1.582693e+002
8.648746e+002, 1.585710e+002
8.653567e+002, 1.588938e+002
8.658388e+002, 1.592307e+002
8.663209e+002, 1.595822e+002
8.668030e+002, 1.599168e+002
8.672852e+002, 1.600678e+002
8.677673e+002, 1.601313e+002
8.682494e+002, 1.607294e+002
8.687315e+002, 1.619154e+002
8.692136e+002, 1.629966e+002
8.696957e+002, 1.636897e+002
8.701779e+002, 1.641551e+002
8.706600e+002, 1.645912e+002
8.711421e+002, 1.649991e+002
8.716242e+002, 1.653390e+002
8.721063e+002, 1.656593e+002
8.725884e+002, 1.658251e+002
8.730705e+002, 1.655000e+002
8.735526e+002, 1.653053e+002
8.740347e+002, 1.658395e+002
8.745168e+002, 1.667632e+002
8.749990e+002, 1.671927e+002
8.754811e+002, 1.667744e+002
8.759632e+002, 1.665069e+002
8.764453e+002, 1.669606e+002
8.769274e+002, 1.674751e+002
8.774095e+002, 1.674764e+002
8.778917e+002, 1.672245e+002
8.783738e+002, 1.672415e+002
8.788559e+002, 1.676195e+002
8.793380e+002, 1.680024e+002
8.798201e+002, 1.681797e+002
8.803022e+002, 1.681230e+002
8.807844e+002, 1.675985e+002
8.812665e+002, 1.667908e+002
8.817486e+002, 1.664571e+002
8.822307e+002, 1.666918e+002
8.827128e+002, 1.669319e+002
8.831949e+002, 1.668221e+002
8.836771e+002, 1.664988e+002
8.841592e+002, 1.662194e+002
8.846413e+002, 1.659685e+002
8.851234e+002, 1.659078e+002
8.856055e+002, 1.662014e+002
8.860876e+002, 1.662554e+002
8.865698e+002, 1.656482e+002
8.870519e+002, 1.649356e+002
8.875340e+002, 1.648533e+002
8.880161e+002, 1.653398e+002
8.884982e+002, 1.654267e+002
8.889803e+002, 1.646564e+002
8.894625e+002, 1.640939e+002
8.899446e+002, 1.640980e+002
8.904267e+002, 1.641993e+002
8.909088e+002, 1.640887e+002
8.913909e+002, 1.638264e+002
8.918730e+002, 1.636321e+002
8.923552e+002, 1.635769e+002
8.928373e+002, 1.633149e+002
8.933194e+002, 1.623259e+002
8.938015e+002, 1.612719e+002
8.942836e+002, 1.609242e+002
8.947657e+002, 1.610473e+002
8.952479e+002, 1.612041e+002
8.957300e+002, 1.612537e+002
8.962121e+002, 1.610769e+002
8.966942e+002, 1.605434e+002
8.971763e+002, 1.598738e+002
8.976584e+002, 1.596042e+002
8.981406e+002, 1.596689e+002
8.986227e+002, 1.593247e+002
8.991048e+002, 1.584636e+002
8.995869e+002, 1.576942e+002
9.000690e+002, 1.572861e+002
9.005511e+002, 1.571631e+002
9.010333e+002, 1.572613e+002
9.015154e+002, 1.576004e+002
9.019975e+002, 1.576954e+002
9.024796e+002, 1.574320e+002
9.029617e+002, 1.571345e+002
9.034438e+002, 1.567524e+002
9.039260e+002, 1.564643e+002
9.044081e+002, 1.564217e+002
9.048902e+002, 1.565615e+002
9.053723e+002, 1.567258e+002
9.058544e+002, 1.568984e+002
9.063365e+002, 1.570954e+002
9.068187e+002, 1.573503e+002
9.073008e+002, 1.575984e+002
9.077829e+002, 1.579601e+002
9.082650e+002, 1.582039e+002
9.087471e+002, 1.578932e+002
9.092292e+002, 1.570604e+002
9.097114e+002, 1.563254e+002
9.101935e+002, 1.559695e+002
9.106756e+002, 1.560005e+002
9.111577e+002, 1.568625e+002
9.116398e+002, 1.579365e+002
9.121219e+002, 1.577944e+002
9.126041e+002, 1.566087e+002
9.130862e+002, 1.559060e+002
9.135683e+002, 1.564103e+002
9.140504e+002, 1.573002e+002
9.145325e+002, 1.574668e+002
9.150146e+002, 1.570441e+002
9.154968e+002, 1.568054e+002
9.159789e+002, 1.567578e+002
9.164610e+002, 1.567067e+002
9.169431e+002, 1.565882e+002
9.174252e+002, 1.565444e+002
9.179073e+002, 1.567425e+002
9.183895e+002, 1.570651e+002
9.188716e+002, 1.570520e+002
9.193537e+002, 1.564506e+002
9.198358e+002, 1.561633e+002
9.203179e+002, 1.563908e+002
9.208000e+002, 1.566442e+002
9.212822e+002, 1.567614e+002
9.217643e+002, 1.567863e+002
9.222464e+002, 1.568112e+002
9.227285e+002, 1.568239e+002
9.232106e+002, 1.565698e+002
9.236927e+002, 1.556364e+002
9.241749e+002, 1.549416e+002
9.246570e+002, 1.549917e+002
9.251391e+002, 1.551546e+002
9.256212e+002, 1.547717e+002
9.261033e+002, 1.541503e+002
9.265854e+002, 1.541462e+002
9.270676e+002, 1.550351e+002
9.275497e+002, 1.556165e+002
9.280318e+002, 1.546597e+002
9.285139e+002, 1.534083e+002
9.289960e+002, 1.532244e+002
9.294781e+002, 1.536563e+002
9.299603e+002, 1.537778e+002
9.304424e+002, 1.534635e+002
9.309245e+002, 1.531557e+002
9.314066e+002, 1.531545e+002
9.318887e+002, 1.531968e+002
9.323708e+002, 1.527149e+002
9.328530e+002, 1.519110e+002
9.333351e+002, 1.517510e+002
9.338172e+002, 1.522386e+002
9.342993e+002, 1.524775e+002
9.347814e+002, 1.521049e+002
9.352635e+002, 1.517017e+002
9.357457e+002, 1.519432e+002
9.362278e+002, 1.526819e+002
9.367099e+002, 1.530544e+002
9.371920e+002, 1.530126e+002
9.376741e+002, 1.527382e+002
9.381563e+002, 1.519731e+002
9.386384e+002, 1.516371e+002
9.391205e+002, 1.526057e+002
9.396026e+002, 1.540086e+002
9.400847e+002, 1.541898e+002
9.405668e+002, 1.528513e+002
9.410490e+002, 1.520583e+002
9.415311e+002, 1.521932e+002
9.420132e+002, 1.523275e+002
9.424953e+002, 1.522487e+002
9.429774e+002, 1.521477e+002
9.434595e+002, 1.522002e+002
9.439417e+002, 1.523419e+002
9.444238e+002, 1.523887e+002
9.449059e+002, 1.522898e+002
9.453880e+002, 1.521566e+002
9.458701e+002, 1.520124e+002
9.463522e+002, 1.518642e+002
9.468344e+002, 1.516650e+002
9.473165e+002, 1.514956e+002
9.477986e+002, 1.514718e+002
9.482807e+002, 1.515958e+002
9.487628e+002, 1.517977e+002
9.492449e+002, 1.521020e+002
9.497271e+002, 1.523112e+002
9.502092e+002, 1.520650e+002
9.506913e+002, 1.517014e+002
9.511734e+002, 1.517190e+002
9.516555e+002, 1.521111e+002
9.521376e+002, 1.528636e+002
9.526198e+002, 1.539073e+002
9.531019e+002, 1.546001e+002
9.535840e+002, 1.541633e+002
9.540661e+002, 1.531469e+002
9.545482e+002, 1.529561e+002
9.550303e+002, 1.534577e+002
9.555124e+002, 1.538543e+002
9.559945e+002, 1.540315e+002
9.564766e+002, 1.536802e+002
9.569587e+002, 1.525203e+002
9.574409e+002, 1.513902e+002
9.579230e+002, 1.517968e+002
9.584051e+002, 1.537007e+002
9.588872e+002, 1.546019e+002
9.593693e+002, 1.542614e+002
9.598514e+002, 1.539335e+002
9.603336e+002, 1.538481e+002
9.608157e+002, 1.539312e+002
9.612978e+002, 1.541925e+002
9.617799e+002, 1.545435e+002
9.622620e+002, 1.547252e+002
9.627441e+002, 1.546595e+002
9.632263e+002, 1.546643e+002
9.637084e+002, 1.547127e+002
9.641905e+002, 1.548719e+002
9.646726e+002, 1.554134e+002
9.651547e+002, 1.558648e+002
9.656368e+002, 1.557081e+002
9.661190e+002, 1.550797e+002
9.666011e+002, 1.546247e+002
9.670832e+002, 1.543566e+002
9.675653e+002, 1.543951e+002
9.680474e+002, 1.551627e+002
9.685295e+002, 1.558150e+002
9.690117e+002, 1.556865e+002
9.694938e+002, 1.552518e+002
9.699759e+002, 1.552352e+002
9.704580e+002, 1.556568e+002
9.709401e+002, 1.558528e+002
9.714222e+002, 1.553220e+002
9.719044e+002, 1.548345e+002
9.723865e+002, 1.548185e+002
9.728686e+002, 1.551360e+002
9.733507e+002, 1.559460e+002
9.738328e+002, 1.568942e+002
9.743149e+002, 1.571469e+002
9.747971e+002, 1.565211e+002
9.752792e+002, 1.558910e+002
9.757613e+002, 1.560446e+002
9.762434e+002, 1.564649e+002
9.767255e+002, 1.564859e+002
9.772076e+002, 1.562367e+002
9.776898e+002, 1.559270e+002
9.781719e+002, 1.556220e+002
9.786540e+002, 1.554391e+002
9.791361e+002, 1.554327e+002
9.796182e+002, 1.555529e+002
9.801003e+002, 1.557343e+002
9.805825e+002, 1.559932e+002
9.810646e+002, 1.564462e+002
9.815467e+002, 1.570539e+002
9.820288e+002, 1.574748e+002
9.825109e+002, 1.576404e+002
9.829930e+002, 1.577924e+002
9.834752e+002, 1.580954e+002
9.839573e+002, 1.584374e+002
9.844394e+002, 1.585722e+002
9.849215e+002, 1.584973e+002
9.854036e+002, 1.585968e+002
9.858857e+002, 1.588902e+002
9.863679e+002, 1.592252e+002
9.868500e+002, 1.595203e+002
9.873321e+002, 1.600099e+002
9.878142e+002, 1.609802e+002
9.882963e+002, 1.622019e+002
9.887784e+002, 1.629324e+002
9.892606e+002, 1.630110e+002
9.897427e+002, 1.631353e+002
9.902248e+002, 1.631982e+002
9.907069e+002, 1.635292e+002
9.911890e+002, 1.644466e+002
9.916711e+002, 1.654341e+002
9.921533e+002, 1.658712e+002
9.926354e+002, 1.659087e+002
9.931175e+002, 1.664604e+002
9.935996e+002, 1.680461e+002
9.940817e+002, 1.692061e+002
9.945638e+002, 1.696833e+002
9.950460e+002, 1.700231e+002
9.955281e+002, 1.704280e+002
9.960102e+002, 1.708028e+002
9.964923e+002, 1.708652e+002
9.969744e+002, 1.707205e+002
9.974565e+002, 1.711538e+002
9.979387e+002, 1.729062e+002
9.984208e+002, 1.742520e+002
9.989029e+002, 1.743056e+002
9.993850e+002, 1.742926e+002
9.998671e+002, 1.750824e+002
1.000349e+003, 1.762336e+002
1.000831e+003, 1.770991e+002
1.001313e+003, 1.775869e+002
1.001796e+003, 1.779027e+002
1.002278e+003, 1.780653e+002
1.002760e+003, 1.781713e+002
1.003242e+003, 1.783612e+002
1.003724e+003, 1.784423e+002
1.004206e+003, 1.780940e+002
1.004688e+003, 1.775417e+002
1.005170e+003, 1.773333e+002
1.005653e+003, 1.775443e+002
1.006135e+003, 1.775135e+002
1.006617e+003, 1.766643e+002
1.007099e+003, 1.756117e+002
1.007581e+003, 1.748906e+002
1.008063e+003, 1.743574e+002
1.008545e+003, 1.737953e+002
1.009027e+003, 1.732346e+002
1.009509e+003, 1.729037e+002
1.009992e+003, 1.728529e+002
1.010474e+003, 1.726697e+002
1.010956e+003, 1.719043e+002
1.011438e+003, 1.708976e+002
1.011920e+003, 1.701136e+002
1.012402e+003, 1.695065e+002
1.012884e+003, 1.689897e+002
1.013366e+003, 1.685385e+002
1.013849e+003, 1.681514e+002
1.014331e+003, 1.678211e+002
1.014813e+003, 1.673967e+002
1.015295e+003, 1.666084e+002
1.015777e+003, 1.656785e+002
1.016259e+003, 1.653436e+002
1.016741e+003, 1.654007e+002
1.017223e+003, 1.647723e+002
1.017705e+003, 1.633714e+002
1.018188e+003, 1.620803e+002
1.018670e+003, 1.613518e+002
1.019152e+003, 1.609656e+002
1.019634e+003, 1.606619e+002
1.020116e+003, 1.604261e+002
1.020598e+003, 1.601994e+002
1.021080e+003, 1.599799e+002
1.021562e+003, 1.596767e+002
1.022044e+003, 1.592698e+002
1.022527e+003, 1.588680e+002
1.023009e+003, 1.585494e+002
1.023491e+003, 1.581799e+002
1.023973e+003, 1.574407e+002
1.024455e+003, 1.563921e+002
1.024937e+003, 1.562664e+002
1.025419e+003, 1.572662e+002
1.025901e+003, 1.573707e+002
1.026384e+003, 1.560200e+002
1.026866e+003, 1.545874e+002
1.027348e+003, 1.539373e+002
1.027830e+003, 1.536949e+002
1.028312e+003, 1.531321e+002
1.028794e+003, 1.522138e+002
1.029276e+003, 1.518288e+002
1.029758e+003, 1.521653e+002
1.030240e+003, 1.523808e+002
1.030723e+003, 1.523349e+002
1.031205e+003, 1.520918e+002
1.031687e+003, 1.516390e+002
1.032169e+003, 1.510703e+002
1.032651e+003, 1.505610e+002
1.033133e+003, 1.501034e+002
1.033615e+003, 1.497657e+002
1.034097e+003, 1.495405e+002
1.034579e+003, 1.494556e+002
1.035062e+003, 1.495868e+002
1.035544e+003, 1.497516e+002
1.036026e+003, 1.498540e+002
1.036508e+003, 1.498906e+002
1.036990e+003, 1.498323e+002
1.037472e+003, 1.496375e+002
1.037954e+003, 1.495883e+002
1.038436e+003, 1.500437e+002
1.038919e+003, 1.500571e+002
1.039401e+003, 1.489816e+002
1.039883e+003, 1.479501e+002
1.040365e+003, 1.476535e+002
1.040847e+003, 1.479241e+002
1.041329e+003, 1.485199e+002
1.041811e+003, 1.495975e+002
1.042293e+003, 1.501850e+002
1.042776e+003, 1.497661e+002
1.043258e+003, 1.495628e+002
1.043740e+003, 1.503283e+002
1.044222e+003, 1.508516e+002
1.044704e+003, 1.499826e+002
1.045186e+003, 1.484395e+002
1.045668e+003, 1.476470e+002
1.046150e+003, 1.477822e+002
1.046632e+003, 1.480540e+002
1.047115e+003, 1.488264e+002
1.047597e+003, 1.491065e+002
1.048079e+003, 1.482561e+002
1.048561e+003, 1.472194e+002
1.049043e+003, 1.463393e+002
1.049525e+003, 1.458492e+002
1.050007e+003, 1.463199e+002
1.050489e+003, 1.479404e+002
1.050971e+003, 1.489505e+002
1.051454e+003, 1.484068e+002
1.051936e+003, 1.480295e+002
1.052418e+003, 1.487417e+002
1.052900e+003, 1.493956e+002
1.053382e+003, 1.489632e+002
1.053864e+003, 1.479439e+002
1.054346e+003, 1.472365e+002
1.054828e+003, 1.469643e+002
1.055311e+003, 1.471038e+002
1.055793e+003, 1.482607e+002
1.056275e+003, 1.489998e+002
1.056757e+003, 1.485173e+002
1.057239e+003, 1.477440e+002
1.057721e+003, 1.472418e+002
1.058203e+003, 1.470085e+002
1.058685e+003, 1.469624e+002
1.059167e+003, 1.470864e+002
1.059650e+003, 1.472862e+002
1.060132e+003, 1.476444e+002
1.060614e+003, 1.479206e+002
1.061096e+003, 1.480310e+002
1.061578e+003, 1.480192e+002
1.062060e+003, 1.478024e+002
1.062542e+003, 1.475406e+002
1.063024e+003, 1.475176e+002
1.063506e+003, 1.477577e+002
1.063989e+003, 1.479533e+002
1.064471e+003, 1.480519e+002
1.064953e+003, 1.480012e+002
1.065435e+003, 1.476770e+002
1.065917e+003, 1.472961e+002
1.066399e+003, 1.469728e+002
1.066881e+003, 1.467307e+002
1.067363e+003, 1.465915e+002
1.067846e+003, 1.465548e+002
1.068328e+003, 1.465916e+002
1.068810e+003, 1.467696e+002
1.069292e+003, 1.468837e+002
1.069774e+003, 1.467661e+002
1.070256e+003, 1.466289e+002
1.070738e+003, 1.467903e+002
1.071220e+003, 1.469453e+002
1.071703e+003, 1.464388e+002
1.072185e+003, 1.453816e+002
1.072667e+003, 1.449049e+002
1.073149e+003, 1.457826e+002
1.073631e+003, 1.464649e+002
1.074113e+003, 1.460977e+002
1.074595e+003, 1.454132e+002
1.075077e+003, 1.447252e+002
1.075559e+003, 1.441812e+002
1.076042e+003, 1.440261e+002
1.076524e+003, 1.441744e+002
1.077006e+003, 1.441448e+002
1.077488e+003, 1.436855e+002
1.077970e+003, 1.433174e+002
1.078452e+003, 1.433796e+002
1.078934e+003, 1.435073e+002
1.079416e+003, 1.435878e+002
1.079898e+003, 1.434999e+002
1.080380e+003, 1.428562e+002
1.080863e+003, 1.419268e+002
1.081345e+003, 1.417504e+002
1.081827e+003, 1.428810e+002
1.082309e+003, 1.435797e+002
1.082791e+003, 1.423586e+002
1.083273e+003, 1.412909e+002
1.083755e+003, 1.419748e+002
1.084237e+003, 1.432157e+002
1.084720e+003, 1.438040e+002
1.085202e+003, 1.437611e+002
1.085684e+003, 1.435199e+002
1.086166e+003, 1.431704e+002
1.086648e+003, 1.428399e+002
1.087130e+003, 1.425714e+002
1.087612e+003, 1.423477e+002
1.088094e+003, 1.421707e+002
1.088577e+003, 1.420213e+002
1.089059e+003, 1.419831e+002
1.089541e+003, 1.419272e+002
1.090023e+003, 1.415075e+002
1.090505e+003, 1.406492e+002
1.090987e+003, 1.400608e+002
1.091469e+003, 1.402321e+002
1.091951e+003, 1.404253e+002
1.092433e+003, 1.400688e+002
1.092916e+003, 1.398614e+002
1.093398e+003, 1.407285e+002
1.093880e+003, 1.419651e+002
1.094362e+003, 1.422748e+002
1.094844e+003, 1.415347e+002
1.095326e+003, 1.408642e+002
1.095808e+003, 1.405662e+002
1.096290e+003, 1.404626e+002
1.096772e+003, 1.406999e+002
1.097255e+003, 1.408935e+002
1.097737e+003, 1.408197e+002
1.098219e+003, 1.405400e+002
1.098701e+003, 1.400299e+002
1.099183e+003, 1.393735e+002
1.099665e+003, 1.390188e+002
1.100147e+003, 1.391692e+002
1.100629e+003, 1.394148e+002
1.101112e+003, 1.397997e+002
1.101594e+003, 1.400767e+002
1.102076e+003, 1.400349e+002
1.102558e+003, 1.398923e+002
1.103040e+003, 1.399086e+002
1.103522e+003, 1.400354e+002
1.104004e+003, 1.400038e+002
1.104486e+003, 1.396542e+002
1.104969e+003, 1.395315e+002
1.105451e+003, 1.401118e+002
1.105933e+003, 1.404380e+002
1.106415e+003, 1.399197e+002
1.106897e+003, 1.392553e+002
1.107379e+003, 1.389759e+002
1.107861e+003, 1.390005e+002
1.108343e+003, 1.390980e+002
1.108825e+003, 1.392734e+002
1.109307e+003, 1.393905e+002
1.109790e+003, 1.395050e+002
1.110272e+003, 1.394634e+002
1.110754e+003, 1.390203e+002
1.111236e+003, 1.386396e+002
1.111718e+003, 1.385934e+002
1.112200e+003, 1.387903e+002
1.112682e+003, 1.391896e+002
1.113164e+003, 1.398199e+002
1.113647e+003, 1.399964e+002
1.114129e+003, 1.395520e+002
1.114611e+003, 1.389228e+002
1.115093e+003, 1.378000e+002
1.115575e+003, 1.369595e+002
1.116057e+003, 1.367912e+002
1.116539e+003, 1.370210e+002
1.117021e+003, 1.375100e+002
1.117504e+003, 1.381563e+002
1.117986e+003, 1.381667e+002
1.118468e+003, 1.371050e+002
1.118950e+003, 1.364673e+002
1.119432e+003, 1.365261e+002
1.119914e+003, 1.364769e+002
1.120396e+003, 1.359927e+002
1.120878e+003, 1.354179e+002
1.121360e+003, 1.349238e+002
1.121843e+003, 1.346534e+002
1.122325e+003, 1.351096e+002
1.122807e+003, 1.364885e+002
1.123289e+003, 1.374123e+002
1.123771e+003, 1.378544e+002
1.124253e+003, 1.379084e+002
1.124735e+003, 1.375057e+002
1.125217e+003, 1.369626e+002
1.125699e+003, 1.364200e+002
1.126182e+003, 1.359845e+002
1.126664e+003, 1.358450e+002
1.127146e+003, 1.359945e+002
1.127628e+003, 1.363736e+002
1.128110e+003, 1.370365e+002
1.128592e+003, 1.373927e+002
1.129074e+003, 1.373327e+002
1.129556e+003, 1.372051e+002
1.130039e+003, 1.371760e+002
1.130521e+003, 1.370735e+002
1.131003e+003, 1.366602e+002
1.131485e+003, 1.360791e+002
1.131967e+003, 1.359005e+002
1.132449e+003, 1.360915e+002
1.132931e+003, 1.360342e+002
1.133413e+003, 1.356999e+002
1.133896e+003, 1.353865e+002
1.134378e+003, 1.351856e+002
1.134860e+003, 1.352635e+002
1.135342e+003, 1.358006e+002
1.135824e+003, 1.364238e+002
1.136306e+003, 1.363140e+002
1.136788e+003, 1.357269e+002
1.137270e+003, 1.356739e+002
1.137752e+003, 1.360786e+002
1.138234e+003, 1.365976e+002
1.138717e+003, 1.371112e+002
1.139199e+003, 1.372850e+002
1.139681e+003, 1.369470e+002
1.140163e+003, 1.365498e+002
1.140645e+003, 1.366299e+002
1.141127e+003, 1.369589e+002
1.141609e+003, 1.372742e+002
1.142091e+003, 1.374487e+002
1.142574e+003, 1.369466e+002
1.143056e+003, 1.360328e+002
1.143538e+003, 1.357749e+002
1.144020e+003, 1.364346e+002
1.144502e+003, 1.371432e+002
1.144984e+003, 1.372795e+002
1.145466e+003, 1.372323e+002
1.145948e+003, 1.374083e+002
1.146431e+003, 1.376372e+002
1.146913e+003, 1.377471e+002
1.147395e+003, 1.377247e+002
1.147877e+003, 1.374879e+002
1.148359e+003, 1.371108e+002
1.148841e+003, 1.369200e+002
1.149323e+003, 1.370810e+002
1.149805e+003, 1.372631e+002
1.150287e+003, 1.372385e+002
1.150770e+003, 1.371823e+002
1.151252e+003, 1.372693e+002
1.151734e+003, 1.373525e+002
1.152216e+003, 1.372184e+002
1.152698e+003, 1.369593e+002
1.153180e+003, 1.368412e+002
1.153662e+003, 1.369187e+002
1.154144e+003, 1.369064e+002
1.154626e+003, 1.365235e+002
1.155109e+003, 1.363006e+002
1.155591e+003, 1.367178e+002
1.156073e+003, 1.370138e+002
1.156555e+003, 1.365372e+002
1.157037e+003, 1.357763e+002
1.157519e+003, 1.353912e+002
1.158001e+003, 1.353642e+002
1.158483e+003, 1.352384e+002
1.158966e+003, 1.346477e+002
1.159448e+003, 1.346478e+002
1.159930e+003, 1.359545e+002
1.160412e+003, 1.369631e+002
1.160894e+003, 1.370565e+002
1.161376e+003, 1.369377e+002
1.161858e+003, 1.372005e+002
1.162340e+003, 1.375677e+002
1.162822e+003, 1.373890e+002
1.163305e+003, 1.365938e+002
1.163787e+003, 1.359547e+002
1.164269e+003, 1.352711e+002
1.164751e+003, 1.354763e+002
1.165233e+003, 1.371532e+002
1.165715e+003, 1.383204e+002
1.166197e+003, 1.378855e+002
1.166679e+003, 1.369541e+002
1.167161e+003, 1.368649e+002
1.167644e+003, 1.373412e+002
1.168126e+003, 1.371301e+002
1.168608e+003, 1.361917e+002
1.169090e+003, 1.358822e+002
1.169572e+003, 1.362784e+002
1.170054e+003, 1.365766e+002
1.170536e+003, 1.365564e+002
1.171018e+003, 1.364834e+002
1.171500e+003, 1.365460e+002
1.171983e+003, 1.366168e+002
1.172465e+003, 1.364894e+002
1.172947e+003, 1.362046e+002
1.173429e+003, 1.358294e+002
1.173911e+003, 1.354197e+002
1.174393e+003, 1.351742e+002
1.174875e+003, 1.351156e+002
1.175357e+003, 1.352239e+002
1.175840e+003, 1.354821e+002
1.176322e+003, 1.357867e+002
1.176804e+003, 1.360744e+002
1.177286e+003, 1.363196e+002
1.177768e+003, 1.366453e+002
1.178250e+003, 1.367945e+002
1.178732e+003, 1.360631e+002
1.179214e+003, 1.349982e+002
1.179697e+003, 1.347775e+002
1.180179e+003, 1.354094e+002
1.180661e+003, 1.360436e+002
1.181143e+003, 1.363501e+002
1.181625e+003, 1.364475e+002
1.182107e+003, 1.361612e+002
1.182589e+003, 1.359836e+002
1.183071e+003, 1.364400e+002
1.183553e+003, 1.369767e+002
1.184036e+003, 1.371104e+002
1.184518e+003, 1.368978e+002
1.185000e+003, 1.364322e+002
1.185482e+003, 1.357580e+002
1.185964e+003, 1.353014e+002
1.186446e+003, 1.350985e+002
1.186928e+003, 1.352145e+002
1.187410e+003, 1.360549e+002
1.187892e+003, 1.367267e+002
1.188375e+003, 1.365620e+002
1.188857e+003, 1.363253e+002
1.189339e+003, 1.369623e+002
1.189821e+003, 1.380211e+002
1.190303e+003, 1.381169e+002
1.190785e+003, 1.370281e+002
1.191267e+003, 1.362825e+002
1.191749e+003, 1.359268e+002
1.192232e+003, 1.358248e+002
1.192714e+003, 1.360656e+002
1.193196e+003, 1.362276e+002
1.193678e+003, 1.360813e+002
1.194160e+003, 1.357982e+002
1.194642e+003, 1.355549e+002
1.195124e+003, 1.353888e+002
1.195606e+003, 1.355366e+002
1.196089e+003, 1.359750e+002
1.196571e+003, 1.360501e+002
1.197053e+003, 1.357469e+002
1.197535e+003, 1.353564e+002
1.198017e+003, 1.349668e+002
1.198499e+003, 1.347689e+002
1.198981e+003, 1.348904e+002
1.199463e+003, 1.351354e+002
1.199945e+003, 1.352318e+002
1.200427e+003, 1.352789e+002
1.200910e+003, 1.355475e+002
1.201392e+003, 1.358947e+002
1.201874e+003, 1.360057e+002
1.202356e+003, 1.358960e+002
1.202838e+003, 1.356129e+002
1.203320e+003, 1.352433e+002
1.203802e+003, 1.352328e+002
1.204284e+003, 1.359675e+002
1.204767e+003, 1.367478e+002
1.205249e+003, 1.373037e+002
1.205731e+003, 1.374063e+002
1.206213e+003, 1.362703e+002
1.206695e+003, 1.350121e+002
1.207177e+003, 1.352381e+002
1.207659e+003, 1.364433e+002
1.208141e+003, 1.369619e+002
1.208624e+003, 1.364308e+002
1.209106e+003, 1.358954e+002
1.209588e+003, 1.354855e+002
1.210070e+003, 1.352759e+002
1.210552e+003, 1.352343e+002
1.211034e+003, 1.354508e+002
1.211516e+003, 1.362997e+002
1.211998e+003, 1.371465e+002
1.212480e+003, 1.373666e+002
1.212963e+003, 1.370507e+002
1.213445e+003, 1.364742e+002
1.213927e+003, 1.354601e+002
1.214409e+003, 1.351357e+002
1.214891e+003, 1.357135e+002
1.215373e+003, 1.361467e+002
1.215855e+003, 1.362488e+002
1.216337e+003, 1.361251e+002
1.216819e+003, 1.358032e+002
1.217302e+003, 1.354290e+002
1.217784e+003, 1.351658e+002
1.218266e+003, 1.350196e+002
1.218748e+003, 1.350569e+002
1.219230e+003, 1.352316e+002
1.219712e+003, 1.353802e+002
1.220194e+003, 1.354442e+002
1.220676e+003, 1.350093e+002
1.221159e+003, 1.341264e+002
1.221641e+003, 1.337690e+002
1.222123e+003, 1.344805e+002
1.222605e+003, 1.353769e+002
1.223087e+003, 1.354507e+002
1.223569e+003, 1.353571e+002
1.224051e+003, 1.360475e+002
1.224533e+003, 1.368726e+002
1.225016e+003, 1.369265e+002
1.225498e+003, 1.364429e+002
1.225980e+003, 1.358824e+002
1.226462e+003, 1.354137e+002
1.226944e+003, 1.353367e+002
1.227426e+003, 1.359664e+002
1.227908e+003, 1.363671e+002
1.228390e+003, 1.360129e+002
1.228872e+003, 1.356319e+002
1.229354e+003, 1.355518e+002
1.229837e+003, 1.355402e+002
1.230319e+003, 1.354377e+002
1.230801e+003, 1.352586e+002
1.231283e+003, 1.349839e+002
1.231765e+003, 1.346248e+002
1.232247e+003, 1.345971e+002
1.232729e+003, 1.351141e+002
1.233211e+003, 1.352719e+002
1.233694e+003, 1.348878e+002
1.234176e+003, 1.346971e+002
1.234658e+003, 1.349755e+002
1.235140e+003, 1.352380e+002
1.235622e+003, 1.351140e+002
1.236104e+003, 1.348496e+002
1.236586e+003, 1.348343e+002
1.237068e+003, 1.350564e+002
1.237551e+003, 1.356821e+002
1.238033e+003, 1.365038e+002
1.238515e+003, 1.365495e+002
1.238997e+003, 1.358339e+002
1.239479e+003, 1.346820e+002
1.239961e+003, 1.333645e+002
1.240443e+003, 1.329716e+002
1.240925e+003, 1.343843e+002
1.241407e+003, 1.359474e+002
1.241890e+003, 1.360463e+002
1.242372e+003, 1.355523e+002
1.242854e+003, 1.349206e+002
1.243336e+003, 1.345258e+002
1.243818e+003, 1.351163e+002
1.244300e+003, 1.361592e+002
1.244782e+003, 1.363875e+002
1.245264e+003, 1.356660e+002
1.245746e+003, 1.351896e+002
1.246229e+003, 1.353608e+002
1.246711e+003, 1.356248e+002
1.247193e+003, 1.361602e+002
1.247675e+003, 1.363979e+002
1.248157e+003, 1.358409e+002
1.248639e+003, 1.353058e+002
1.249121e+003, 1.354879e+002
1.249603e+003, 1.359308e+002
1.250085e+003, 1.357342e+002
1.250568e+003, 1.349637e+002
1.251050e+003, 1.348297e+002
1.251532e+003, 1.354021e+002
1.252014e+003, 1.358448e+002
1.252496e+003, 1.360919e+002
1.252978e+003, 1.362786e+002
1.253460e+003, 1.364464e+002
1.253942e+003, 1.368125e+002
1.254425e+003, 1.375684e+002
1.254907e+003, 1.381290e+002
1.255389e+003, 1.373891e+002
1.255871e+003, 1.361084e+002
1.256353e+003, 1.357488e+002
1.256835e+003, 1.358989e+002
1.257317e+003, 1.357083e+002
1.257799e+003, 1.353772e+002
1.258281e+003, 1.357910e+002
1.258764e+003, 1.369246e+002
1.259246e+003, 1.375160e+002
1.259728e+003, 1.368758e+002
1.260210e+003, 1.362304e+002
1.260692e+003, 1.361431e+002
1.261174e+003, 1.361936e+002
1.261656e+003, 1.362216e+002
1.262138e+003, 1.362705e+002
1.262620e+003, 1.364680e+002
1.263103e+003, 1.366566e+002
1.263585e+003, 1.364565e+002
1.264067e+003, 1.359668e+002
1.264549e+003, 1.360876e+002
1.265031e+003, 1.371294e+002
1.265513e+003, 1.377370e+002
1.265995e+003, 1.378865e+002
1.266477e+003, 1.375396e+002
1.266960e+003, 1.365646e+002
1.267442e+003, 1.359799e+002
1.267924e+003, 1.363802e+002
1.268406e+003, 1.372084e+002
1.268888e+003, 1.379305e+002
1.269370e+003, 1.383614e+002
1.269852e+003, 1.377353e+002
1.270334e+003, 1.366295e+002
1.270817e+003, 1.366524e+002
1.271299e+003, 1.374479e+002
1.271781e+003, 1.379306e+002
1.272263e+003, 1.379122e+002
1.272745e+003, 1.374993e+002
1.273227e+003, 1.367312e+002
1.273709e+003, 1.362949e+002
1.274191e+003, 1.369221e+002
1.274673e+003, 1.375338e+002
1.275156e+003, 1.374387e+002
1.275638e+003, 1.373216e+002
1.276120e+003, 1.377459e+002
1.276602e+003, 1.383131e+002
1.277084e+003, 1.385310e+002
1.277566e+003, 1.384921e+002
1.278048e+003, 1.386069e+002
1.278530e+003, 1.389379e+002
1.279012e+003, 1.387993e+002
1.279495e+003, 1.379336e+002
1.279977e+003, 1.375388e+002
1.280459e+003, 1.378148e+002
1.280941e+003, 1.382356e+002
1.281423e+003, 1.386310e+002
1.281905e+003, 1.389336e+002
1.282387e+003, 1.390872e+002
1.282869e+003, 1.391529e+002
1.283352e+003, 1.392344e+002
1.283834e+003, 1.392915e+002
1.284316e+003, 1.392280e+002
1.284798e+003, 1.390504e+002
##END=



