##NAMES=Crednerite
##RRUFFID=R070404
##IDEAL CHEMISTRY=Cu^1+^Mn^3+^O_2_
##LOCALITY=Merehead, Mendip Hills, Somerset, England, United Kingdom
##OWNER=RRUFF
##SOURCE=Michael Scott
##DESCRIPTION=Platy iron-black striated crystals with well-defined cleavage planes
##STATUS=The identification of this mineral has been confirmed only by single crystal X-ray diffraction.
##URL=rruff.info/R070404
126.8048, 940.1030
127.2869, 978.5397
127.7690, 992.3121
128.2512, 989.5468
128.7333, 1001.735
129.2154, 1023.320
129.6975, 1070.825
130.1796, 1163.292
130.6617, 1278.877
131.1439, 1388.120
131.6260, 1473.040
132.1081, 1536.507
132.5902, 1600.850
133.0723, 1674.169
133.5544, 1739.848
134.0366, 1795.641
134.5187, 1841.227
135.0008, 1877.915
135.4829, 1907.265
135.9650, 1928.706
136.4471, 1925.543
136.9293, 1875.460
137.4114, 1826.227
137.8935, 1793.424
138.3756, 1773.207
138.8577, 1754.823
139.3398, 1731.819
139.8220, 1704.126
140.3041, 1659.837
140.7862, 1589.820
141.2683, 1516.126
141.7504, 1438.256
142.2325, 1362.558
142.7147, 1306.524
143.1968, 1284.372
143.6789, 1298.118
144.1610, 1322.327
144.6431, 1354.851
145.1252, 1397.940
145.6074, 1451.545
146.0895, 1516.252
146.5716, 1596.529
147.0537, 1701.557
147.5358, 1831.033
148.0179, 1938.405
148.5001, 2006.312
148.9822, 2065.333
149.4643, 2137.650
149.9464, 2224.675
150.4285, 2316.280
150.9106, 2416.639
151.3928, 2518.233
151.8749, 2570.591
152.3570, 2573.795
152.8391, 2524.469
153.3212, 2399.376
153.8033, 2194.768
154.2855, 1982.290
154.7676, 1815.853
155.2497, 1688.446
155.7318, 1571.632
156.2139, 1454.418
156.6960, 1349.088
157.1782, 1268.826
157.6603, 1214.510
158.1424, 1183.790
158.6245, 1181.486
159.1066, 1202.534
159.5887, 1239.526
160.0709, 1312.219
160.5530, 1391.851
161.0351, 1434.351
161.5172, 1433.266
161.9993, 1414.745
162.4814, 1388.965
162.9636, 1359.276
163.4457, 1331.187
163.9278, 1307.525
164.4099, 1286.524
164.8920, 1264.421
165.3741, 1239.672
165.8563, 1218.418
166.3384, 1210.993
166.8205, 1209.113
167.3026, 1198.008
167.7847, 1168.518
168.2668, 1126.976
168.7490, 1084.268
169.2311, 1034.897
169.7132, 997.2769
170.1953, 988.3702
170.6774, 995.3613
171.1595, 998.6680
171.6417, 987.9109
172.1238, 968.3439
172.6059, 953.2515
173.0880, 944.6257
173.5701, 936.6146
174.0522, 928.2681
174.5344, 918.4576
175.0165, 905.0286
175.4986, 885.0597
175.9807, 861.8696
176.4628, 844.5358
176.9449, 834.9961
177.4271, 828.2053
177.9092, 825.1754
178.3913, 822.6025
178.8734, 816.1677
179.3555, 803.9054
179.8376, 786.1736
180.3197, 762.0788
180.8019, 723.0021
181.2840, 693.5262
181.7661, 684.0623
182.2482, 685.9813
182.7303, 689.5637
183.2124, 690.8113
183.6946, 689.5930
184.1767, 684.7328
184.6588, 672.1780
185.1409, 663.3081
185.6230, 659.9557
186.1051, 661.6319
186.5873, 669.1165
187.0694, 683.8372
187.5515, 701.5725
188.0336, 711.1987
188.5157, 709.3920
188.9978, 704.2509
189.4800, 696.7615
189.9621, 687.8746
190.4442, 678.7115
190.9263, 669.9257
191.4084, 660.5123
191.8905, 647.0542
192.3727, 623.2195
192.8548, 607.0436
193.3369, 603.9152
193.8190, 607.2866
194.3011, 611.9291
194.7832, 615.8382
195.2654, 618.2374
195.7475, 617.6240
196.2296, 614.4632
196.7117, 606.7946
197.1938, 590.8074
197.6759, 572.9678
198.1581, 558.8106
198.6402, 550.1639
199.1223, 545.2238
199.6044, 540.2727
200.0865, 532.6557
200.5686, 530.8742
201.0508, 540.4151
201.5329, 552.0089
202.0150, 558.1235
202.4971, 556.8390
202.9792, 552.0771
203.4613, 550.4599
203.9435, 554.7905
204.4256, 555.8527
204.9077, 552.8941
205.3898, 547.3717
205.8719, 537.9440
206.3540, 525.3617
206.8362, 514.5685
207.3183, 514.1992
207.8004, 532.3396
208.2825, 539.9522
208.7646, 532.2806
209.2467, 519.1002
209.7289, 503.3958
210.2110, 486.9348
210.6931, 472.3229
211.1752, 462.3300
211.6573, 456.8615
212.1395, 456.9589
212.6216, 467.7296
213.1037, 479.2773
213.5858, 487.8833
214.0679, 492.8546
214.5500, 494.6318
215.0322, 493.1188
215.5143, 487.6735
215.9964, 483.2091
216.4785, 481.5168
216.9606, 479.1157
217.4427, 472.7891
217.9249, 464.2358
218.4070, 458.2348
218.8891, 459.3051
219.3712, 467.6931
219.8533, 474.2062
220.3354, 481.1453
220.8176, 483.6997
221.2997, 477.4771
221.7818, 465.7777
222.2639, 455.3525
222.7460, 451.5736
223.2281, 453.3473
223.7103, 449.1239
224.1924, 428.9742
224.6745, 413.5182
225.1566, 409.4644
225.6387, 412.2612
226.1208, 414.7705
226.6030, 412.7218
227.0851, 407.6966
227.5672, 406.6504
228.0493, 415.3304
228.5314, 420.1703
229.0135, 415.8710
229.4957, 407.8655
229.9778, 402.6677
230.4599, 403.2884
230.9420, 407.1553
231.4241, 407.8336
231.9062, 403.2915
232.3884, 398.8511
232.8705, 394.2724
233.3526, 390.5725
233.8347, 388.7097
234.3168, 388.9909
234.7989, 390.7517
235.2811, 393.2078
235.7632, 397.4644
236.2453, 399.6974
236.7274, 397.8514
237.2095, 395.3645
237.6916, 395.4637
238.1738, 398.3409
238.6559, 400.5082
239.1380, 396.1285
239.6201, 381.7146
240.1022, 373.8127
240.5843, 378.6786
241.0665, 385.5163
241.5486, 389.6545
242.0307, 390.7766
242.5128, 390.9172
242.9949, 392.3137
243.4770, 395.2368
243.9592, 396.1493
244.4413, 394.3893
244.9234, 390.9942
245.4055, 383.7348
245.8876, 374.8398
246.3697, 369.8851
246.8519, 374.8568
247.3340, 388.0270
247.8161, 393.1245
248.2982, 383.5804
248.7803, 374.3678
249.2624, 371.0933
249.7446, 371.5102
250.2267, 371.5386
250.7088, 368.2952
251.1909, 364.0025
251.6730, 365.9155
252.1551, 378.1801
252.6373, 388.2390
253.1194, 391.6862
253.6015, 391.2940
254.0836, 389.2865
254.5657, 386.0152
255.0478, 383.1371
255.5300, 384.6271
256.0121, 392.7472
256.4942, 396.5518
256.9763, 387.3959
257.4584, 375.8436
257.9406, 369.9873
258.4227, 371.6585
258.9048, 375.2492
259.3869, 374.6487
259.8690, 369.6325
260.3511, 365.5734
260.8333, 363.8680
261.3154, 363.1192
261.7975, 362.6552
262.2796, 362.3572
262.7617, 361.5161
263.2438, 358.2658
263.7260, 353.4820
264.2081, 353.0140
264.6902, 360.5790
265.1723, 367.6877
265.6544, 368.1828
266.1365, 363.2891
266.6187, 356.7207
267.1008, 346.6538
267.5829, 336.7314
268.0650, 336.2389
268.5471, 348.0213
269.0292, 360.6044
269.5114, 366.7792
269.9935, 368.2720
270.4756, 367.1335
270.9577, 362.3195
271.4398, 356.3681
271.9219, 350.9802
272.4041, 346.0664
272.8862, 345.3305
273.3683, 354.2544
273.8504, 366.8429
274.3325, 371.3324
274.8146, 363.5520
275.2968, 354.2556
275.7789, 350.9604
276.2610, 352.3288
276.7431, 352.7740
277.2252, 350.0989
277.7073, 345.9301
278.1895, 342.3484
278.6716, 338.6721
279.1537, 338.0008
279.6358, 344.7836
280.1179, 354.5717
280.6000, 359.1198
281.0822, 356.1968
281.5643, 350.6178
282.0464, 347.8168
282.5285, 348.0092
283.0106, 348.3972
283.4927, 348.8535
283.9749, 349.2665
284.4570, 349.4550
284.9391, 349.4331
285.4212, 349.6050
285.9033, 350.6159
286.3854, 352.3470
286.8676, 351.8982
287.3497, 345.7609
287.8318, 341.0319
288.3139, 343.4431
288.7960, 350.2941
289.2781, 353.8506
289.7603, 349.3860
290.2424, 339.1376
290.7245, 332.5933
291.2066, 331.3013
291.6887, 331.4713
292.1708, 335.3176
292.6530, 339.3487
293.1351, 338.1889
293.6172, 330.0678
294.0993, 319.2931
294.5814, 313.5497
295.0635, 315.6459
295.5457, 317.8983
296.0278, 320.2853
296.5099, 322.8151
296.9920, 325.8195
297.4741, 329.1400
297.9562, 331.9584
298.4384, 333.4420
298.9205, 333.4949
299.4026, 332.8167
299.8847, 331.2166
300.3668, 329.1063
300.8489, 325.2985
301.3311, 321.0939
301.8131, 319.0736
302.2953, 321.0701
302.7774, 326.4637
303.2595, 332.3258
303.7416, 340.5122
304.2237, 346.2284
304.7058, 347.7733
305.1880, 346.9637
305.6701, 345.5139
306.1522, 344.0329
306.6343, 342.5878
307.1164, 341.5092
307.5985, 341.1873
308.0807, 339.7819
308.5628, 334.5575
309.0449, 329.8499
309.5270, 328.8123
310.0091, 331.5180
310.4912, 335.0359
310.9734, 337.0674
311.4555, 337.7052
311.9376, 338.0650
312.4197, 339.0812
312.9018, 338.4208
313.3839, 333.7403
313.8661, 326.3734
314.3482, 319.8306
314.8303, 315.7696
315.3124, 313.4577
315.7945, 311.7284
316.2766, 310.6030
316.7588, 309.9808
317.2409, 310.4835
317.7230, 311.2335
318.2051, 310.3984
318.6872, 306.0537
319.1693, 303.1200
319.6515, 307.8291
320.1336, 317.9517
320.6157, 323.1566
321.0978, 318.9449
321.5799, 309.8472
322.0620, 301.5101
322.5442, 292.8297
323.0263, 289.8339
323.5084, 300.5012
323.9905, 315.1412
324.4726, 320.5023
324.9547, 314.4037
325.4369, 304.0705
325.9190, 295.2283
326.4011, 287.9761
326.8832, 285.7735
327.3653, 293.6196
327.8474, 301.7172
328.3296, 303.8427
328.8117, 301.4541
329.2938, 300.0257
329.7759, 303.0876
330.2580, 309.0293
330.7401, 310.4347
331.2223, 300.3159
331.7044, 294.3250
332.1865, 296.7554
332.6686, 302.8645
333.1507, 308.1694
333.6328, 311.1195
334.1150, 311.9734
334.5971, 310.8966
335.0792, 307.0516
335.5613, 303.5102
336.0434, 300.0982
336.5255, 297.1035
337.0077, 294.6895
337.4898, 292.8502
337.9719, 291.2781
338.4540, 289.1682
338.9361, 287.0320
339.4182, 290.1192
339.9004, 304.2673
340.3825, 314.8957
340.8646, 316.7437
341.3467, 313.4761
341.8288, 309.1514
342.3109, 304.9511
342.7931, 301.7877
343.2752, 301.4200
343.7573, 304.2426
344.2394, 307.1444
344.7215, 310.3935
345.2036, 312.5861
345.6858, 312.2049
346.1679, 309.2544
346.6500, 306.1396
347.1321, 304.0683
347.6142, 302.9915
348.0963, 303.1057
348.5785, 304.8999
349.0606, 306.4227
349.5427, 305.7176
350.0248, 303.4508
350.5069, 301.5401
350.9890, 299.8335
351.4712, 298.9810
351.9533, 299.8470
352.4354, 302.1777
352.9175, 304.6988
353.3996, 306.8937
353.8817, 308.8149
354.3639, 310.6590
354.8460, 312.8774
355.3281, 314.1546
355.8102, 314.3521
356.2923, 313.3825
356.7744, 310.5506
357.2566, 305.8554
357.7387, 301.0874
358.2208, 298.2316
358.7029, 297.5511
359.1850, 297.5003
359.6671, 297.1641
360.1493, 298.2284
360.6314, 304.0079
361.1135, 311.6904
361.5956, 315.1442
362.0777, 310.4806
362.5598, 299.9082
363.0420, 291.1270
363.5241, 282.1686
364.0062, 278.7109
364.4883, 284.7657
364.9704, 293.7975
365.4525, 300.7458
365.9347, 304.3858
366.4168, 306.2592
366.8989, 308.3193
367.3810, 310.7341
367.8631, 310.6407
368.3452, 306.6577
368.8274, 301.5036
369.3095, 293.9871
369.7916, 286.3861
370.2737, 284.4114
370.7558, 293.9910
371.2379, 308.0379
371.7201, 313.3888
372.2022, 308.9899
372.6843, 306.0790
373.1664, 310.5495
373.6485, 318.5348
374.1306, 323.8359
374.6128, 325.5148
375.0949, 327.2365
375.5770, 332.5334
376.0591, 338.9178
376.5412, 340.5576
377.0233, 335.8158
377.5055, 329.8222
377.9876, 327.8308
378.4697, 330.3640
378.9518, 332.3536
379.4339, 333.8391
379.9160, 334.6808
380.3982, 334.8961
380.8803, 334.3956
381.3624, 332.1655
381.8445, 327.1945
382.3266, 321.7399
382.8087, 322.7780
383.2909, 339.7815
383.7730, 350.9361
384.2551, 352.9720
384.7372, 350.8932
385.2193, 347.7847
385.7014, 344.6867
386.1836, 342.2521
386.6657, 341.4475
387.1478, 342.4221
387.6299, 342.0612
388.1120, 336.7430
388.5941, 334.4596
389.0763, 342.7194
389.5584, 354.4583
390.0405, 357.3081
390.5226, 344.0522
391.0047, 325.5524
391.4868, 320.3102
391.9690, 329.9769
392.4511, 337.3045
392.9332, 336.6940
393.4153, 332.8859
393.8974, 329.8096
394.3795, 327.5671
394.8617, 326.9445
395.3438, 330.2331
395.8259, 334.7365
396.3080, 334.4081
396.7901, 328.3264
397.2722, 325.1641
397.7544, 333.3463
398.2365, 349.6312
398.7186, 356.8272
399.2007, 349.1819
399.6828, 339.1099
400.1649, 328.5419
400.6471, 319.3560
401.1292, 315.7503
401.6113, 319.1282
402.0934, 324.7287
402.5755, 325.4328
403.0576, 319.2363
403.5398, 314.0148
404.0219, 306.0175
404.5040, 302.2221
404.9861, 309.9666
405.4682, 325.0261
405.9503, 337.1568
406.4325, 339.8464
406.9146, 334.9341
407.3967, 328.0793
407.8788, 316.3567
408.3609, 308.8775
408.8430, 308.8144
409.3252, 312.3142
409.8073, 318.2149
410.2894, 325.7905
410.7715, 330.7422
411.2536, 326.1465
411.7357, 314.7452
412.2179, 312.2768
412.7000, 323.5997
413.1821, 334.6045
413.6642, 332.9500
414.1463, 324.1630
414.6284, 319.0911
415.1106, 322.3671
415.5927, 326.6423
416.0748, 325.3805
416.5569, 320.5804
417.0390, 319.3590
417.5211, 324.9698
418.0033, 331.8502
418.4854, 330.8897
418.9675, 318.2028
419.4496, 311.0512
419.9317, 314.1977
420.4138, 319.6605
420.8960, 322.6251
421.3781, 323.1005
421.8602, 322.7154
422.3423, 322.3637
422.8244, 322.3275
423.3065, 323.7684
423.7887, 326.6487
424.2708, 331.2693
424.7529, 342.3852
425.2350, 351.9622
425.7171, 352.1911
426.1992, 342.6841
426.6814, 330.5390
427.1635, 320.9262
427.6456, 313.9556
428.1277, 312.1356
428.6098, 316.8543
429.0919, 324.1550
429.5741, 335.3426
430.0562, 346.9000
430.5383, 353.1231
431.0204, 351.7428
431.5025, 346.8044
431.9846, 338.9852
432.4668, 329.9295
432.9489, 326.2542
433.4310, 330.5266
433.9131, 337.7032
434.3952, 342.9074
434.8773, 346.2114
435.3595, 344.8478
435.8416, 333.5472
436.3237, 322.1170
436.8058, 315.6902
437.2879, 314.0750
437.7701, 316.3597
438.2522, 322.3481
438.7343, 330.2062
439.2164, 335.1012
439.6985, 334.4011
440.1806, 335.3829
440.6628, 340.7645
441.1449, 345.5858
441.6270, 345.3025
442.1091, 341.0510
442.5912, 338.2798
443.0733, 341.9683
443.5555, 349.9915
444.0376, 354.3900
444.5197, 355.1119
445.0018, 352.2916
445.4839, 340.1385
445.9660, 327.4593
446.4482, 324.5360
446.9303, 333.8972
447.4124, 342.9248
447.8945, 341.7564
448.3766, 335.2078
448.8587, 333.5505
449.3409, 338.3350
449.8230, 345.3119
450.3051, 352.1306
450.7872, 358.4305
451.2693, 361.5694
451.7514, 359.4002
452.2336, 356.8386
452.7157, 355.1733
453.1978, 354.1946
453.6799, 353.4495
454.1620, 352.8441
454.6441, 352.9893
455.1263, 355.2715
455.6084, 360.8711
456.0905, 361.9030
456.5726, 350.5641
457.0547, 342.5971
457.5368, 345.0742
458.0190, 353.5626
458.5011, 360.6416
458.9832, 363.0443
459.4653, 363.7026
459.9474, 367.2990
460.4295, 373.8891
460.9117, 378.8206
461.3938, 381.5454
461.8759, 381.8069
462.3580, 378.1030
462.8401, 371.3306
463.3222, 366.2756
463.8044, 365.1674
464.2865, 365.5612
464.7686, 365.6208
465.2507, 365.3543
465.7328, 364.6103
466.2149, 363.0020
466.6971, 362.0920
467.1792, 365.4308
467.6613, 378.5759
468.1434, 383.8153
468.6255, 372.7033
469.1076, 361.1652
469.5898, 361.0390
470.0719, 369.4480
470.5540, 375.6693
471.0361, 372.5446
471.5182, 363.7810
472.0003, 360.9243
472.4825, 367.3773
472.9646, 370.4894
473.4467, 363.4308
473.9288, 355.1165
474.4109, 351.3813
474.8930, 352.2922
475.3752, 354.0455
475.8573, 355.0327
476.3394, 355.2541
476.8215, 354.0869
477.3036, 351.5064
477.7857, 350.5265
478.2679, 353.8552
478.7500, 358.7479
479.2321, 357.7750
479.7142, 347.6759
480.1963, 340.7948
480.6784, 342.0358
481.1606, 345.7746
481.6427, 347.0965
482.1248, 345.6761
482.6069, 343.2933
483.0890, 340.9222
483.5711, 339.0888
484.0533, 341.1126
484.5354, 351.7845
485.0175, 358.3351
485.4996, 357.2690
485.9817, 353.1161
486.4638, 348.6048
486.9460, 344.4229
487.4281, 341.2328
487.9102, 338.8802
488.3923, 337.9390
488.8744, 341.2024
489.3565, 349.6335
489.8387, 356.8949
490.3208, 360.7238
490.8029, 360.6512
491.2850, 355.7422
491.7671, 343.5677
492.2492, 333.6215
492.7314, 328.7132
493.2135, 327.9866
493.6956, 332.4587
494.1777, 341.1340
494.6598, 348.7892
495.1419, 351.5047
495.6241, 349.7289
496.1062, 346.3088
496.5883, 338.9798
497.0704, 333.2212
497.5525, 330.2050
498.0346, 328.4279
498.5168, 326.9276
498.9989, 325.4456
499.4810, 323.8239
499.9631, 320.9167
500.4452, 317.7986
500.9273, 319.5938
501.4095, 327.8372
501.8916, 334.4205
502.3737, 334.4851
502.8558, 331.6082
503.3379, 332.1195
503.8200, 337.4946
504.3022, 340.4192
504.7843, 333.7090
505.2664, 325.6522
505.7485, 327.1664
506.2306, 338.0474
506.7127, 350.4334
507.1949, 359.7780
507.6770, 365.5384
508.1591, 364.9751
508.6412, 348.0718
509.1233, 339.6790
509.6054, 348.9695
510.0876, 360.7555
510.5697, 363.0513
511.0518, 356.3842
511.5339, 349.6552
512.0161, 349.4208
512.4982, 353.6036
512.9803, 356.6707
513.4624, 358.4364
513.9445, 359.9849
514.4266, 360.9011
514.9088, 362.5064
515.3909, 366.9946
515.8730, 374.6883
516.3551, 381.0884
516.8372, 385.3023
517.3193, 387.3106
517.8015, 385.8606
518.2836, 381.9216
518.7657, 379.2519
519.2478, 380.0205
519.7299, 382.4826
520.2120, 382.2821
520.6942, 376.6195
521.1763, 373.6764
521.6584, 376.0949
522.1405, 378.4373
522.6226, 376.4571
523.1047, 371.9789
523.5869, 370.1546
524.0690, 374.1738
524.5511, 381.0724
525.0332, 386.3435
525.5153, 389.9933
525.9974, 392.8334
526.4796, 394.4691
526.9617, 396.3276
527.4438, 402.0471
527.9259, 410.7817
528.4080, 412.7903
528.8901, 399.3675
529.3723, 386.1042
529.8544, 380.9156
530.3365, 382.7782
530.8186, 391.1420
531.3007, 405.5585
531.7828, 420.2301
532.2650, 426.6210
532.7471, 423.0355
533.2292, 421.9169
533.7113, 426.9629
534.1934, 430.2167
534.6755, 427.5233
535.1577, 422.3102
535.6398, 418.7945
536.1219, 418.0450
536.6040, 420.3081
537.0861, 428.3132
537.5682, 439.5970
538.0504, 444.7833
538.5325, 441.8352
539.0146, 439.8382
539.4967, 445.1144
539.9788, 456.6912
540.4609, 469.3196
540.9431, 488.8307
541.4252, 501.5358
541.9073, 500.0172
542.3894, 493.4843
542.8715, 489.7219
543.3536, 490.0224
543.8358, 493.1371
544.3179, 499.0352
544.8000, 505.9991
545.2821, 504.7520
545.7642, 489.6337
546.2463, 481.8822
546.7285, 492.9189
547.2106, 509.0100
547.6927, 521.1561
548.1748, 528.8350
548.6569, 532.9269
549.1390, 531.4987
549.6211, 528.2235
550.1032, 526.7528
550.5853, 526.9642
551.0674, 527.7596
551.5496, 528.6051
552.0317, 530.4420
552.5138, 535.1171
552.9959, 544.2952
553.4780, 550.6815
553.9601, 552.2277
554.4423, 553.6249
554.9244, 558.8397
555.4065, 564.5083
555.8886, 563.8203
556.3707, 554.0522
556.8528, 543.9239
557.3350, 545.5709
557.8171, 557.3282
558.2992, 565.1726
558.7813, 566.7637
559.2634, 567.8160
559.7455, 572.0929
560.2277, 578.7405
560.7098, 585.1022
561.1919, 594.2260
561.6740, 597.7318
562.1561, 584.8904
562.6382, 570.0688
563.1204, 570.9562
563.6025, 587.0045
564.0846, 603.9935
564.5667, 611.8908
565.0488, 612.2719
565.5309, 610.2603
566.0131, 601.8869
566.4952, 601.1789
566.9773, 618.6914
567.4594, 638.2026
567.9415, 651.4088
568.4236, 657.8852
568.9058, 658.4526
569.3879, 648.8377
569.8700, 637.6135
570.3521, 633.9819
570.8342, 636.1119
571.3163, 637.5137
571.7985, 636.0573
572.2806, 634.9726
572.7627, 638.5676
573.2448, 647.6536
573.7269, 653.8311
574.2090, 652.1404
574.6912, 653.6893
575.1733, 667.4600
575.6554, 682.6534
576.1375, 685.6761
576.6196, 674.2448
577.1017, 659.8434
577.5839, 651.7086
578.0660, 648.9403
578.5481, 649.4567
579.0302, 653.6754
579.5123, 657.1212
579.9944, 657.4503
580.4766, 656.0859
580.9587, 656.0015
581.4408, 657.9077
581.9229, 658.0184
582.4050, 656.3408
582.8871, 652.2405
583.3693, 641.0519
583.8514, 627.6454
584.3335, 623.0778
584.8156, 632.5374
585.2977, 647.7882
585.7798, 656.8300
586.2620, 659.5341
586.7441, 656.3346
587.2262, 643.0048
587.7083, 630.7159
588.1904, 627.2221
588.6725, 628.5546
589.1547, 628.3975
589.6368, 625.3011
590.1189, 622.3069
590.6010, 622.0566
591.0831, 622.0878
591.5652, 619.9699
592.0474, 615.1577
592.5295, 605.8777
593.0116, 589.9963
593.4937, 571.6733
593.9758, 564.4879
594.4579, 574.4953
594.9401, 581.3127
595.4222, 581.0099
595.9043, 579.1652
596.3864, 578.0128
596.8685, 577.5111
597.3506, 577.6182
597.8328, 580.1122
598.3149, 579.6856
598.7970, 567.1298
599.2791, 548.2634
599.7612, 539.8022
600.2433, 544.9695
600.7255, 551.7098
601.2076, 549.9753
601.6897, 540.6913
602.1718, 531.3546
602.6539, 518.8164
603.1360, 510.7477
603.6182, 510.0853
604.1003, 512.1491
604.5824, 515.3166
605.0645, 518.2097
605.5466, 517.6235
606.0287, 510.5179
606.5109, 500.5811
606.9930, 492.3806
607.4751, 486.0310
607.9572, 483.0706
608.4393, 484.4960
608.9214, 486.9763
609.4036, 487.3059
609.8857, 485.4666
610.3678, 483.2718
610.8499, 483.3188
611.3320, 479.8081
611.8141, 464.7010
612.2963, 449.5809
612.7784, 449.0137
613.2605, 462.3222
613.7426, 474.4870
614.2247, 472.6864
614.7068, 462.9399
615.1890, 460.8178
615.6711, 466.7276
616.1532, 471.1490
616.6353, 471.4067
617.1174, 469.0819
617.5995, 465.2187
618.0817, 459.7693
618.5638, 455.5890
619.0459, 451.8932
619.5280, 450.5144
620.0101, 454.6908
620.4922, 460.3347
620.9744, 462.3831
621.4565, 459.9423
621.9386, 455.1994
622.4207, 448.5857
622.9028, 441.8889
623.3849, 444.0498
623.8671, 457.2614
624.3492, 466.3188
624.8313, 465.1266
625.3134, 459.5786
625.7955, 455.8524
626.2776, 453.8333
626.7598, 453.3363
627.2419, 458.9302
627.7240, 461.0907
628.2061, 450.0959
628.6882, 434.5980
629.1703, 427.6643
629.6525, 431.9843
630.1346, 440.9196
630.6167, 449.0071
631.0988, 455.9694
631.5809, 459.5966
632.0630, 458.5213
632.5452, 459.9012
633.0273, 469.6218
633.5094, 479.0792
633.9915, 475.0760
634.4736, 458.6588
634.9557, 452.5518
635.4379, 470.9141
635.9200, 490.5572
636.4021, 499.2075
636.8842, 500.3350
637.3663, 498.4480
637.8484, 495.3564
638.3306, 493.6722
638.8127, 497.1029
639.2948, 504.0177
639.7769, 502.7489
640.2590, 489.4456
640.7411, 482.1325
641.2233, 491.8939
641.7054, 504.0171
642.1875, 499.2045
642.6696, 479.5023
643.1517, 471.5670
643.6339, 494.6224
644.1160, 516.1132
644.5981, 513.6021
645.0802, 499.7765
645.5623, 494.9383
646.0444, 502.8772
646.5266, 512.5296
647.0087, 512.9984
647.4908, 506.9365
647.9729, 507.8664
648.4550, 518.2006
648.9371, 525.7599
649.4193, 526.4167
649.9014, 524.3234
650.3835, 523.5109
650.8656, 523.6785
651.3477, 522.5552
651.8298, 517.8047
652.3120, 513.9025
652.7941, 513.1332
653.2762, 514.3572
653.7583, 516.6461
654.2404, 519.4611
654.7225, 521.6864
655.2047, 522.4686
655.6868, 521.9111
656.1689, 520.7122
656.6510, 519.2645
657.1331, 514.3192
657.6152, 503.0789
658.0974, 491.2338
658.5795, 482.4178
659.0616, 476.9909
659.5437, 477.5840
660.0258, 495.0592
660.5079, 505.3605
660.9901, 493.7055
661.4722, 475.0646
661.9543, 465.6859
662.4364, 465.8963
662.9185, 466.3902
663.4006, 461.3452
663.8828, 451.7578
664.3649, 437.8562
664.8470, 419.3484
665.3291, 406.4265
665.8112, 401.4898
666.2933, 400.2889
666.7755, 400.1354
667.2576, 401.2183
667.7397, 404.4018
668.2218, 416.3357
668.7039, 419.6164
669.1860, 402.4099
669.6682, 382.3013
670.1503, 373.6180
670.6324, 374.2774
671.1145, 374.5925
671.5966, 369.6846
672.0787, 363.0136
672.5609, 360.0065
673.0430, 359.9176
673.5251, 356.1164
674.0072, 346.6898
674.4893, 341.7104
674.9714, 349.5395
675.4536, 364.0192
675.9357, 368.7974
676.4178, 358.4939
676.8999, 350.1791
677.3820, 345.3310
677.8641, 341.4743
678.3463, 337.3090
678.8284, 333.2866
679.3105, 331.0254
679.7926, 331.0359
680.2747, 329.7203
680.7568, 320.1786
681.2390, 307.6843
681.7211, 307.9279
682.2032, 320.5881
682.6853, 327.6464
683.1674, 320.3820
683.6495, 306.9756
684.1317, 300.2547
684.6138, 301.9645
685.0959, 301.2215
685.5780, 294.7823
686.0601, 289.7588
686.5422, 287.9523
687.0244, 288.3352
687.5065, 290.3529
687.9886, 293.6979
688.4707, 296.8098
688.9528, 299.6946
689.4349, 301.2200
689.9171, 299.5554
690.3992, 295.4568
690.8813, 291.3810
691.3634, 287.9668
691.8455, 283.3250
692.3276, 275.1303
692.8098, 264.0586
693.2919, 256.2466
693.7740, 252.3495
694.2561, 250.2677
694.7382, 249.8095
695.2203, 250.9556
695.7025, 255.1716
696.1846, 261.1955
696.6667, 264.2225
697.1488, 260.0583
697.6309, 257.1819
698.1130, 261.8984
698.5952, 269.4321
699.0773, 273.1709
699.5594, 273.3242
700.0415, 275.6649
700.5236, 284.4047
701.0057, 293.9077
701.4879, 290.3579
701.9700, 272.8307
702.4521, 262.1380
702.9342, 262.0265
703.4163, 263.9550
703.8984, 263.6539
704.3806, 261.6721
704.8627, 259.2753
705.3448, 256.2869
705.8269, 253.4177
706.3090, 249.2674
706.7911, 246.7381
707.2733, 249.4117
707.7554, 254.2826
708.2375, 255.8298
708.7196, 252.5334
709.2017, 248.7382
709.6838, 249.0878
710.1660, 251.9383
710.6481, 253.2509
711.1302, 253.0126
711.6123, 251.6499
712.0944, 248.9279
712.5765, 246.8282
713.0587, 248.1360
713.5408, 253.0862
714.0229, 256.4008
714.5050, 255.5122
714.9871, 256.5042
715.4692, 264.4813
715.9514, 271.4169
716.4335, 268.0415
716.9156, 256.7884
717.3977, 250.8729
717.8798, 261.0239
718.3619, 270.4532
718.8441, 262.1773
719.3262, 245.5052
719.8083, 235.9684
720.2904, 235.4343
720.7725, 238.1681
721.2546, 240.3564
721.7368, 243.2544
722.2189, 251.9554
722.7010, 268.7745
723.1831, 274.4182
723.6652, 262.5610
724.1473, 248.9716
724.6295, 241.5063
725.1116, 238.6470
725.5937, 236.6225
726.0758, 234.5184
726.5579, 236.5542
727.0400, 250.7584
727.5222, 261.9472
728.0043, 259.0354
728.4864, 247.7508
728.9685, 236.4584
729.4506, 227.9855
729.9327, 223.2915
730.4149, 224.4645
730.8970, 229.5905
731.3791, 235.3309
731.8612, 241.4198
732.3433, 245.1370
732.8254, 245.5614
733.3076, 244.3924
733.7897, 243.5146
734.2718, 242.7352
734.7539, 239.2186
735.2360, 229.3204
735.7181, 222.7938
736.2003, 221.4754
736.6824, 222.9750
737.1645, 228.3277
737.6466, 235.2035
738.1287, 237.4282
738.6108, 231.7009
739.0930, 225.2117
739.5751, 221.0235
740.0572, 218.8812
740.5393, 219.1585
741.0214, 221.2638
741.5035, 223.4777
741.9857, 224.9770
742.4678, 226.7133
742.9499, 231.9806
743.4320, 239.9897
743.9141, 238.5224
744.3962, 225.6286
744.8784, 212.7134
745.3605, 202.5939
745.8426, 196.8044
746.3247, 198.5201
746.8068, 208.8600
747.2889, 216.3958
747.7711, 220.6074
748.2532, 222.9501
748.7353, 222.2607
749.2174, 220.9871
749.6995, 222.1469
750.1816, 224.9856
750.6638, 225.1273
751.1459, 218.0151
751.6280, 212.2539
752.1101, 218.8233
752.5922, 231.3146
753.0743, 237.6940
753.5565, 236.8995
754.0386, 233.2261
754.5207, 228.9566
755.0028, 224.9453
755.4849, 222.8248
755.9670, 222.6711
756.4492, 223.7256
756.9313, 225.7626
757.4134, 229.7691
757.8955, 238.4545
758.3776, 247.6910
758.8597, 250.6479
759.3419, 246.8472
759.8240, 243.2501
760.3061, 239.4768
760.7882, 237.1012
761.2703, 239.4219
761.7524, 241.6705
762.2346, 237.1992
762.7167, 226.9023
763.1988, 218.6633
763.6809, 217.1089
764.1630, 219.2602
764.6451, 222.2686
765.1273, 226.1974
765.6094, 233.4194
766.0915, 243.2335
766.5736, 245.7223
767.0557, 233.6211
767.5378, 215.7271
768.0200, 212.4677
768.5021, 227.0358
768.9842, 237.2666
769.4663, 243.0055
769.9484, 243.8228
770.4305, 235.8371
770.9127, 225.2630
771.3948, 221.5274
771.8769, 225.1458
772.3590, 228.0446
772.8411, 230.0662
773.3232, 230.3203
773.8054, 226.2677
774.2875, 221.7254
774.7696, 221.1888
775.2517, 224.4240
775.7338, 227.3734
776.2159, 226.7471
776.6981, 227.2071
777.1802, 238.3413
777.6623, 253.5005
778.1444, 255.3913
778.6265, 243.4607
779.1086, 230.8748
779.5908, 224.9928
780.0729, 222.9262
780.5550, 219.1880
781.0371, 213.3766
781.5192, 210.1736
782.0013, 210.2435
782.4835, 210.9798
782.9656, 210.0576
783.4477, 210.6314
783.9298, 219.6689
784.4119, 237.6028
784.8940, 244.8241
785.3762, 232.6461
785.8583, 219.8056
786.3404, 208.2828
786.8225, 200.5545
787.3046, 200.1129
787.7867, 205.2692
788.2689, 210.1172
788.7510, 211.5691
789.2331, 214.1331
789.7152, 226.1755
790.1973, 239.4996
790.6794, 238.9939
791.1616, 226.5988
791.6437, 214.6550
792.1258, 208.4054
792.6079, 206.3504
793.0900, 207.1460
793.5721, 210.4560
794.0543, 213.0485
794.5364, 214.9592
795.0185, 215.5988
795.5006, 213.6996
795.9827, 212.8960
796.4648, 217.4772
796.9470, 226.7805
797.4291, 233.4882
797.9112, 240.8806
798.3933, 240.7097
798.8754, 225.0381
799.3575, 209.2133
799.8397, 201.0272
800.3218, 199.3262
800.8039, 201.5287
801.2860, 207.5534
801.7681, 213.8871
802.2502, 222.0567
802.7324, 226.8514
803.2145, 218.9334
803.6966, 205.5130
804.1787, 200.7225
804.6608, 207.6336
805.1429, 219.2967
805.6251, 232.6781
806.1072, 243.1076
806.5893, 235.6814
807.0714, 213.7380
807.5535, 204.5938
808.0356, 213.5715
808.5178, 223.8972
808.9999, 224.4911
809.4820, 218.8477
809.9641, 215.6154
810.4462, 215.2428
810.9283, 215.7644
811.4105, 218.5389
811.8926, 220.0110
812.3747, 219.2010
812.8568, 216.1001
813.3389, 208.4955
813.8210, 196.5066
814.3032, 191.7063
814.7853, 204.3922
815.2674, 213.5811
815.7495, 208.9686
816.2316, 200.2331
816.7137, 194.7402
817.1959, 193.3686
817.6780, 195.4759
818.1601, 201.4073
818.6422, 207.8134
819.1243, 212.2731
819.6064, 215.1991
820.0886, 216.4790
820.5707, 216.7719
821.0528, 218.9364
821.5349, 223.8148
822.0170, 226.8604
822.4991, 221.6753
822.9813, 211.2418
823.4634, 209.4626
823.9455, 216.8529
824.4276, 222.0075
824.9097, 222.4961
825.3918, 220.5756
825.8740, 217.3436
826.3561, 213.4489
826.8382, 211.1609
827.3203, 211.1780
827.8024, 211.2124
828.2845, 212.1130
828.7667, 211.9648
829.2488, 208.7838
829.7309, 204.9710
830.2130, 203.0615
830.6951, 203.2332
831.1772, 205.4867
831.6594, 213.5019
832.1415, 219.1007
832.6236, 216.1956
833.1057, 211.0434
833.5878, 209.5723
834.0699, 211.8988
834.5521, 216.1768
835.0342, 222.1579
835.5163, 226.6336
835.9984, 226.9228
836.4805, 223.6248
836.9626, 215.0505
837.4448, 203.6027
837.9269, 198.6237
838.4090, 202.8984
838.8911, 207.8666
839.3732, 203.4589
839.8553, 193.4482
840.3375, 192.3717
840.8196, 200.3978
841.3017, 209.3289
841.7838, 218.4228
842.2659, 224.6786
842.7480, 225.3947
843.2302, 222.8245
843.7123, 223.2213
844.1944, 229.5387
844.6765, 228.4155
845.1586, 211.3848
845.6407, 199.5470
846.1229, 205.5517
846.6050, 216.1277
847.0871, 217.4443
847.5692, 210.2206
848.0513, 206.2117
848.5334, 209.8387
849.0156, 213.0188
849.4977, 212.5271
849.9798, 211.7066
850.4619, 213.6716
850.9440, 217.2836
851.4261, 219.8629
851.9083, 220.6308
852.3904, 219.9034
852.8725, 216.0463
853.3546, 212.3518
853.8367, 213.7699
854.3188, 217.5997
854.8010, 217.4305
855.2831, 212.6411
855.7652, 208.5539
856.2473, 209.1941
856.7294, 212.3853
857.2115, 214.3172
857.6937, 215.4164
858.1758, 218.2005
858.6579, 222.7830
859.1400, 226.1420
859.6221, 227.0618
860.1042, 224.6357
860.5864, 216.0378
861.0685, 201.8465
861.5506, 197.8999
862.0327, 207.1152
862.5148, 215.4441
862.9969, 220.6418
863.4791, 222.6181
863.9612, 219.6471
864.4433, 213.8450
864.9254, 213.3285
865.4075, 224.5714
865.8896, 227.5108
866.3718, 211.0743
866.8539, 199.9117
867.3360, 208.2897
867.8181, 222.7771
868.3002, 228.3238
868.7823, 224.2932
869.2645, 218.9199
869.7466, 211.7302
870.2287, 206.9063
870.7108, 206.0692
871.1929, 208.2999
871.6750, 214.6415
872.1572, 222.9760
872.6393, 229.6095
873.1214, 233.4000
873.6035, 233.4055
874.0856, 225.6229
874.5677, 216.4674
875.0499, 214.7001
875.5320, 216.6945
876.0141, 213.2907
876.4962, 203.9296
876.9783, 196.6453
877.4604, 196.7902
877.9426, 202.1402
878.4247, 210.7236
878.9068, 221.4488
879.3889, 231.1657
879.8710, 239.3371
880.3531, 242.8644
880.8353, 240.3473
881.3174, 234.2636
881.7995, 226.5460
882.2816, 218.2482
882.7637, 217.5440
883.2458, 226.0801
883.7280, 229.4221
884.2101, 223.9543
884.6922, 217.1295
885.1743, 213.2773
885.6564, 211.7718
886.1385, 211.4041
886.6207, 212.5161
887.1028, 213.2448
887.5849, 213.6861
888.0670, 213.5510
888.5491, 211.1691
889.0313, 209.5929
889.5134, 212.2930
889.9955, 218.2165
890.4776, 222.7227
890.9597, 227.7697
891.4418, 227.2570
891.9240, 213.8432
892.4061, 201.7535
892.8882, 198.7257
893.3703, 201.4293
893.8524, 205.5204
894.3345, 210.2302
894.8167, 215.3912
895.2988, 225.2354
895.7809, 230.2541
896.2630, 218.1404
896.7451, 204.1842
897.2272, 208.6150
897.7094, 224.7059
898.1915, 229.9281
898.6736, 216.1318
899.1557, 203.3370
899.6378, 213.0057
900.1199, 228.1770
900.6021, 226.5381
901.0842, 214.4626
901.5663, 205.2529
902.0484, 201.5156
902.5305, 200.6971
903.0126, 201.4641
903.4948, 202.8398
903.9769, 202.7448
904.4590, 202.1862
904.9411, 205.4170
905.4232, 211.8347
905.9053, 215.1264
906.3875, 213.2729
906.8696, 211.5127
907.3517, 215.4939
907.8338, 222.4048
908.3159, 222.3506
908.7980, 215.2749
909.2802, 209.2104
909.7623, 204.5654
910.2444, 204.7338
910.7265, 212.3794
911.2086, 222.5273
911.6907, 227.9700
912.1729, 228.7626
912.6550, 230.1195
913.1371, 232.5878
913.6192, 234.1310
914.1013, 235.5237
914.5834, 233.4864
915.0656, 223.1145
915.5477, 209.5452
916.0298, 205.1416
916.5119, 213.2100
916.9940, 218.0452
917.4761, 217.9427
917.9583, 217.0078
918.4404, 214.8074
918.9225, 213.3189
919.4046, 215.5177
919.8867, 219.8488
920.3688, 220.0409
920.8510, 211.1495
921.3331, 208.1160
921.8152, 218.9440
922.2973, 229.2844
922.7794, 233.1259
923.2615, 232.5337
923.7437, 229.1321
924.2258, 223.6494
924.7079, 218.6636
925.1900, 214.8634
925.6721, 211.7850
926.1542, 207.0592
926.6364, 205.0443
927.1185, 213.1669
927.6006, 224.9382
928.0827, 228.3250
928.5648, 221.2658
929.0469, 213.6943
929.5291, 207.6290
930.0112, 207.1293
930.4933, 222.5757
930.9754, 240.3677
931.4575, 240.3049
931.9396, 227.2354
932.4218, 220.2567
932.9039, 226.1708
933.3860, 233.1395
933.8681, 231.3891
934.3502, 224.6383
934.8323, 214.9106
935.3145, 204.8152
935.7966, 198.9226
936.2787, 198.2699
936.7608, 205.4267
937.2429, 222.4462
937.7250, 236.4049
938.2072, 225.6511
938.6893, 202.4926
939.1714, 196.5966
939.6535, 204.3883
940.1356, 209.9506
940.6177, 209.6829
941.0999, 207.3670
941.5820, 205.2982
942.0641, 204.7159
942.5462, 209.5097
943.0283, 218.0345
943.5104, 221.8172
943.9926, 220.6338
944.4747, 215.5237
944.9568, 206.6816
945.4389, 198.4949
945.9210, 194.6582
946.4031, 195.0327
946.8853, 201.0748
947.3674, 212.7340
947.8495, 217.1893
948.3316, 212.8033
948.8137, 211.6957
949.2958, 219.4162
949.7780, 227.5011
950.2601, 225.7904
950.7422, 216.7047
951.2243, 213.5945
951.7064, 217.5663
952.1885, 220.2309
952.6707, 220.4179
953.1528, 220.7449
953.6349, 222.4953
954.1170, 225.0426
954.5991, 228.5597
955.0812, 232.6334
955.5634, 226.7473
956.0455, 203.4676
956.5276, 194.3477
957.0097, 209.9717
957.4918, 225.9342
957.9739, 228.4156
958.4561, 224.2814
958.9382, 224.9046
959.4203, 230.8396
959.9024, 233.4836
960.3845, 230.5748
960.8666, 228.9438
961.3488, 230.4564
961.8309, 232.3121
962.3130, 233.6936
962.7951, 233.8185
963.2772, 230.7204
963.7593, 223.5272
964.2415, 217.7587
964.7236, 212.5721
965.2057, 210.0404
965.6878, 212.2740
966.1699, 215.5480
966.6520, 218.0829
967.1342, 219.7856
967.6163, 220.1464
968.0984, 218.4429
968.5805, 218.2776
969.0626, 219.9936
969.5447, 223.0395
970.0269, 230.8582
970.5090, 236.7143
970.9911, 233.3973
971.4732, 224.3441
971.9553, 219.1329
972.4374, 219.9945
972.9196, 219.8229
973.4017, 214.6266
973.8838, 212.0829
974.3659, 218.3452
974.8480, 225.5062
975.3301, 225.6778
975.8123, 220.8108
976.2944, 217.8530
976.7765, 217.8240
977.2586, 219.9684
977.7407, 229.1226
978.2228, 234.3280
978.7050, 227.9773
979.1871, 217.5417
979.6692, 207.1597
980.1513, 199.4401
980.6334, 202.3629
981.1155, 224.4956
981.5977, 235.6677
982.0798, 215.7386
982.5619, 195.7809
983.0440, 191.7925
983.5261, 195.9327
984.0082, 200.8874
984.4904, 205.2404
984.9725, 207.9433
985.4546, 208.2122
985.9367, 208.3460
986.4188, 207.8918
986.9009, 208.9865
987.3831, 214.3008
987.8652, 220.8844
988.3473, 225.8244
988.8294, 228.6737
989.3115, 229.4273
989.7936, 227.4694
990.2758, 225.2477
990.7579, 224.7119
991.2400, 223.2010
991.7221, 217.5622
992.2042, 210.9203
992.6863, 205.3791
993.1685, 202.3982
993.6506, 206.0752
994.1327, 220.2041
994.6148, 233.8792
995.0969, 245.6275
995.5790, 251.6626
996.0612, 246.2952
996.5433, 235.6573
997.0254, 225.8233
997.5075, 218.2299
997.9896, 213.8445
998.4717, 213.1861
998.9539, 215.1709
999.4360, 224.2355
999.9181, 230.5026
1000.400, 223.0565
1000.882, 211.2661
1001.364, 207.6544
1001.847, 211.9324
1002.329, 215.3061
1002.811, 213.6075
1003.293, 214.3320
1003.775, 225.1472
1004.257, 235.1219
1004.739, 233.3142
1005.221, 228.3954
1005.703, 234.7880
1006.186, 249.4819
1006.668, 254.3744
1007.150, 240.4579
1007.632, 226.2647
1008.114, 219.2224
1008.596, 215.8167
1009.078, 214.5976
1009.560, 215.1644
1010.043, 218.8202
1010.525, 224.0442
1011.007, 225.0367
1011.489, 218.0768
1011.971, 214.0950
1012.453, 224.3916
1012.935, 231.5388
1013.417, 219.8253
1013.899, 202.9025
1014.382, 195.4946
1014.864, 197.5898
1015.346, 203.5743
1015.828, 213.6375
1016.310, 219.9782
1016.792, 215.2824
1017.274, 211.1887
1017.756, 215.7528
1018.239, 222.7381
1018.721, 225.5156
1019.203, 224.8191
1019.685, 225.3605
1020.167, 229.1710
1020.649, 229.3586
1021.131, 217.6257
1021.613, 209.2906
1022.095, 215.3775
1022.578, 224.6840
1023.060, 227.1253
1023.542, 223.9907
1024.024, 220.4619
1024.506, 217.3641
1024.988, 214.6869
1025.470, 211.2183
1025.952, 209.7730
1026.435, 212.6055
1026.917, 216.7883
1027.399, 221.0775
1027.881, 224.5565
1028.363, 224.3950
1028.845, 219.1214
1029.327, 220.0318
1029.809, 239.1104
1030.292, 250.8178
1030.774, 241.3206
1031.256, 229.3323
1031.738, 228.1929
1032.220, 233.1925
1032.702, 235.1653
1033.184, 233.2173
1033.666, 231.6447
1034.148, 231.5865
1034.630, 230.8950
1035.113, 226.6114
1035.595, 224.4499
1036.077, 229.4536
1036.559, 237.5367
1037.041, 242.1313
1037.523, 243.0004
1038.005, 246.4675
1038.487, 258.8871
1038.970, 263.6286
1039.452, 254.2907
1039.934, 244.1566
1040.416, 237.7260
1040.898, 234.6619
1041.380, 236.8214
1041.862, 243.0867
1042.344, 240.3376
1042.826, 221.4242
1043.309, 209.5784
1043.791, 209.5407
1044.273, 208.6871
1044.755, 198.2878
1045.237, 191.3553
1045.719, 204.3049
1046.201, 231.1985
1046.683, 244.0079
1047.166, 238.3169
1047.648, 233.7288
1048.130, 230.7755
1048.612, 227.7706
1049.094, 224.2709
1049.576, 220.1790
1050.058, 214.6312
1050.540, 209.5204
1051.022, 211.2163
1051.505, 221.1286
1051.987, 222.6541
1052.469, 213.9890
1052.951, 208.2583
1053.433, 208.7176
1053.915, 211.7280
1054.397, 215.2070
1054.879, 218.6090
1055.361, 220.5910
1055.844, 221.4414
1056.326, 225.4181
1056.808, 232.5227
1057.290, 236.8083
1057.772, 237.2583
1058.254, 235.2827
1058.736, 231.5359
1059.218, 226.6223
1059.701, 220.6675
1060.183, 214.7816
1060.665, 213.2057
1061.147, 215.2612
1061.629, 217.6037
1062.111, 219.7538
1062.593, 221.6848
1063.075, 223.3566
1063.557, 223.7784
1064.040, 221.0586
1064.522, 218.4043
1065.004, 224.6496
1065.486, 234.5320
1065.968, 231.9443
1066.450, 220.7273
1066.932, 219.9112
1067.414, 232.7215
1067.896, 242.0182
1068.379, 235.0097
1068.861, 223.9398
1069.343, 224.1835
1069.825, 227.7667
1070.307, 221.3456
1070.789, 210.3878
1071.271, 206.4812
1071.753, 210.7435
1072.236, 218.4317
1072.718, 228.2258
1073.200, 235.4053
1073.682, 234.9166
1074.164, 232.2009
1074.646, 232.5133
1075.128, 232.7665
1075.610, 226.7601
1076.093, 217.6024
1076.575, 215.4223
1077.057, 223.1721
1077.539, 228.1925
1078.021, 223.4185
1078.503, 216.7925
1078.985, 207.3278
1079.467, 201.9086
1079.949, 208.9690
1080.432, 222.1560
1080.914, 231.6654
1081.396, 236.2812
1081.878, 237.6327
1082.360, 233.4329
1082.842, 229.9547
1083.324, 227.2250
1083.806, 226.5054
1084.288, 232.0386
1084.771, 237.1242
1085.253, 232.7934
1085.735, 221.3398
1086.217, 213.7432
1086.699, 209.3151
1087.181, 211.3543
1087.663, 226.6489
1088.145, 234.0627
1088.628, 224.2504
1089.110, 212.2709
1089.592, 208.5382
1090.074, 210.8179
1090.556, 214.5216
1091.038, 219.6672
1091.520, 226.3631
1092.002, 235.6770
1092.484, 238.8570
1092.967, 233.8449
1093.449, 226.6655
1093.931, 220.0293
1094.413, 213.9103
1094.895, 207.1883
1095.377, 202.1682
1095.859, 210.7227
1096.341, 230.2303
1096.823, 240.0084
1097.306, 238.9100
1097.788, 233.1653
1098.270, 225.1743
1098.752, 217.8893
1099.234, 213.2701
1099.716, 212.4011
1100.198, 220.8238
1100.680, 232.1250
1101.163, 231.7795
1101.645, 223.4369
1102.127, 216.3761
1102.609, 212.7130
1103.091, 212.1259
1103.573, 214.6067
1104.055, 217.9709
1104.537, 221.0580
1105.020, 223.5118
1105.502, 225.7442
1105.984, 226.5758
1106.466, 222.2752
1106.948, 216.1268
1107.430, 215.7912
1107.912, 222.6358
1108.394, 229.9900
1108.876, 237.2930
1109.359, 241.3642
1109.841, 242.2430
1110.323, 238.1506
1110.805, 221.0448
1111.287, 203.1453
1111.769, 202.7548
1112.251, 216.1798
1112.733, 219.1198
1113.215, 200.5877
1113.698, 193.8953
1114.180, 209.2504
1114.662, 221.7538
1115.144, 225.6406
1115.626, 225.4706
1116.108, 222.9296
1116.590, 219.7157
1117.072, 219.0609
1117.555, 220.9784
1118.037, 223.6521
1118.519, 227.9440
1119.001, 227.2217
1119.483, 219.6589
1119.965, 214.3997
1120.447, 215.6468
1120.929, 218.0491
1121.411, 215.9529
1121.894, 211.3126
1122.376, 208.6483
1122.858, 208.0143
1123.340, 210.6558
1123.822, 215.7696
1124.304, 219.7479
1124.786, 221.4037
1125.268, 218.0750
1125.750, 207.7957
1126.233, 199.7729
1126.715, 208.5821
1127.197, 222.2767
1127.679, 222.6580
1128.161, 217.4386
1128.643, 219.8589
1129.125, 227.9533
1129.607, 232.6811
1130.090, 231.8792
1130.572, 230.3637
1131.054, 231.2409
1131.536, 230.7410
1132.018, 224.9655
1132.500, 219.2841
1132.982, 217.6333
1133.464, 217.9699
1133.947, 219.0422
1134.429, 219.7020
1134.911, 215.6632
1135.393, 202.8462
1135.875, 197.6363
1136.357, 209.6887
1136.839, 216.7815
1137.321, 209.4297
1137.803, 205.0879
1138.286, 216.9187
1138.768, 233.5076
1139.250, 237.6351
1139.732, 230.6870
1140.214, 225.2884
1140.696, 221.1034
1141.178, 222.1718
1141.660, 229.5215
1142.142, 232.8413
1142.625, 228.5982
1143.107, 223.4472
1143.589, 222.3690
1144.071, 224.3795
1144.553, 229.9061
1145.035, 236.4130
1145.517, 234.3809
1145.999, 226.8737
1146.482, 224.2142
1146.964, 226.3563
1147.446, 226.0998
1147.928, 220.9317
1148.410, 215.6228
1148.892, 212.0325
1149.374, 212.5865
1149.856, 224.5204
1150.339, 236.8629
1150.821, 238.1403
1151.303, 232.6764
1151.785, 225.1362
1152.267, 218.1414
1152.749, 218.5121
1153.231, 231.2428
1153.713, 237.9156
1154.195, 229.3736
1154.677, 221.1666
1155.160, 218.1118
1155.642, 216.5609
1156.124, 213.0349
1156.606, 210.5923
1157.088, 214.8673
1157.570, 224.9246
1158.052, 229.6286
1158.534, 228.2817
1159.017, 223.7413
1159.499, 214.8517
1159.981, 211.1641
1160.463, 216.0802
1160.945, 222.5237
1161.427, 225.7056
1161.909, 225.6792
1162.391, 220.8790
1162.874, 213.6139
1163.356, 212.4873
1163.838, 215.4560
1164.320, 215.8653
1164.802, 213.6687
1165.284, 212.3448
1165.766, 212.9317
1166.248, 213.4861
1166.730, 206.4261
1167.213, 213.2799
1167.695, 217.1711
1168.177, 218.2591
1168.659, 208.1481
1169.141, 212.4982
1169.623, 211.0530
1170.105, 209.3702
1170.587, 215.7557
1171.069, 207.2736
1171.552, 213.5314
1172.034, 213.9051
1172.516, 216.9718
1172.998, 214.2072
1173.480, 213.2437
1173.962, 218.1133
1174.444, 219.7531
1174.926, 216.3173
1175.409, 219.5553
1175.891, 210.8694
1176.373, 212.6468
1176.855, 218.9385
1177.337, 215.7959
1177.819, 219.1403
1178.301, 220.0141
1178.783, 209.6599
1179.266, 218.8325
1179.748, 219.5603
1180.230, 211.6174
1180.712, 220.1207
1181.194, 213.3731
1181.676, 212.0692
1182.158, 214.8619
1182.640, 213.3840
1183.122, 218.6393
1183.604, 217.4080
1184.087, 215.5974
1184.569, 216.3157
1185.051, 209.8672
1185.533, 216.7146
1186.015, 214.4798
1186.497, 216.7595
1186.979, 216.9870
1187.461, 225.4508
1187.944, 234.0506
1188.426, 231.3747
1188.908, 219.9090
1189.390, 215.6126
1189.872, 222.0266
1190.354, 221.8244
1190.836, 211.8591
1191.318, 210.5670
1191.801, 223.4698
1192.283, 235.0944
1192.765, 236.6612
1193.247, 232.4211
1193.729, 226.4560
1194.211, 220.5460
1194.693, 220.2072
1195.175, 222.9800
1195.657, 222.2014
1196.140, 218.5766
1196.622, 214.6322
1197.104, 211.5273
1197.586, 211.7100
1198.068, 216.7342
1198.550, 220.0867
1199.032, 215.6740
1199.514, 211.0367
1199.996, 209.6535
1200.479, 210.5754
1200.961, 215.3854
1201.443, 220.5253
1201.925, 220.0533
1202.407, 214.6825
1202.889, 211.8930
1203.371, 211.7082
1203.853, 214.9380
1204.336, 224.6536
1204.818, 226.9578
1205.300, 217.4100
1205.782, 207.2510
1206.264, 201.9889
1206.746, 202.3846
1207.228, 210.8699
1207.710, 222.7179
1208.193, 224.5684
1208.675, 220.5509
1209.157, 223.3101
1209.639, 230.7884
1210.121, 236.0976
1210.603, 237.6005
1211.085, 234.0755
1211.567, 224.8747
1212.049, 218.8399
1212.531, 224.6214
1213.014, 230.6156
1213.496, 230.7936
1213.978, 228.9203
1214.460, 226.8887
1214.942, 224.8533
1215.424, 221.5814
1215.906, 218.4347
1216.388, 221.0248
1216.871, 231.3553
1217.353, 234.1838
1217.835, 226.8049
1218.317, 223.9403
1218.799, 228.3448
1219.281, 232.2119
1219.763, 232.3166
1220.245, 230.8017
##END=



