##NAMES=Crednerite
##RRUFFID=R070404
##IDEAL CHEMISTRY=Cu^1+^Mn^3+^O_2_
##LOCALITY=Merehead, Mendip Hills, Somerset, England, United Kingdom
##OWNER=RRUFF
##SOURCE=Michael Scott
##DESCRIPTION=Platy iron-black striated crystals with well-defined cleavage planes
##STATUS=The identification of this mineral has been confirmed only by single crystal X-ray diffraction.
##URL=rruff.info/R070404
143.3943, 506.2965
143.8764, 514.9874
144.3585, 516.6074
144.8407, 516.9408
145.3228, 513.6523
145.8049, 510.8582
146.2870, 512.6802
146.7691, 523.6319
147.2512, 533.1888
147.7334, 537.7999
148.2155, 534.8773
148.6976, 538.9929
149.1797, 557.6968
149.6618, 581.3054
150.1439, 596.8848
150.6261, 595.4860
151.1082, 593.9111
151.5903, 596.4378
152.0724, 604.8749
152.5545, 613.6058
153.0366, 623.1918
153.5188, 632.7414
154.0009, 640.4697
154.4830, 646.4288
154.9651, 650.3660
155.4472, 652.0189
155.9293, 649.1900
156.4115, 647.2886
156.8936, 646.4656
157.3757, 647.1650
157.8578, 650.8448
158.3399, 661.5850
158.8221, 673.3304
159.3042, 682.2617
159.7863, 689.3433
160.2684, 691.6340
160.7505, 682.9051
161.2326, 665.2623
161.7148, 655.6739
162.1969, 669.4191
162.6790, 691.5673
163.1611, 707.5231
163.6432, 709.3807
164.1253, 706.4799
164.6075, 700.8090
165.0896, 692.3352
165.5717, 689.0621
166.0538, 702.7401
166.5359, 723.1781
167.0180, 735.8613
167.5002, 726.2534
167.9823, 712.0821
168.4644, 706.8459
168.9465, 712.2264
169.4286, 721.7053
169.9107, 736.9693
170.3929, 753.0606
170.8750, 759.9114
171.3571, 744.0660
171.8392, 719.8672
172.3213, 702.6138
172.8034, 695.1946
173.2856, 692.0712
173.7677, 688.6981
174.2498, 685.5080
174.7319, 684.0230
175.2140, 687.8991
175.6961, 693.4352
176.1783, 694.2084
176.6604, 687.1198
177.1425, 678.4170
177.6246, 675.7802
178.1067, 678.6446
178.5888, 683.1951
179.0710, 690.1967
179.5531, 696.8302
180.0352, 695.6833
180.5173, 681.3560
180.9994, 662.1675
181.4815, 652.2670
181.9637, 651.3635
182.4458, 653.0334
182.9279, 651.4653
183.4100, 647.7784
183.8921, 646.1617
184.3742, 648.0497
184.8564, 652.6679
185.3385, 659.5956
185.8206, 669.2324
186.3027, 677.0500
186.7848, 677.1961
187.2669, 670.5848
187.7491, 664.2649
188.2312, 661.0873
188.7133, 660.1396
189.1954, 657.7754
189.6775, 653.7478
190.1596, 649.4714
190.6418, 646.2162
191.1239, 644.0165
191.6060, 643.3723
192.0881, 645.9443
192.5702, 651.0525
193.0524, 652.4786
193.5345, 649.7729
194.0166, 644.5762
194.4987, 638.0065
194.9808, 629.7776
195.4629, 624.4927
195.9451, 626.9059
196.4272, 636.7929
196.9093, 639.5254
197.3914, 632.9374
197.8735, 621.8791
198.3556, 615.5555
198.8378, 614.5773
199.3199, 614.5327
199.8020, 612.5279
200.2841, 608.2731
200.7662, 606.9526
201.2483, 609.6847
201.7305, 614.7620
202.2126, 618.3330
202.6947, 620.4712
203.1768, 620.8271
203.6589, 617.8494
204.1410, 610.5248
204.6232, 607.7222
205.1053, 611.8153
205.5874, 620.2391
206.0695, 624.0784
206.5516, 622.0298
207.0337, 618.8180
207.5159, 617.3831
207.9980, 617.8331
208.4801, 620.0514
208.9622, 625.5293
209.4443, 632.7400
209.9264, 632.9519
210.4086, 622.8698
210.8907, 612.3848
211.3728, 610.2903
211.8549, 619.8957
212.3370, 626.3484
212.8191, 626.5451
213.3013, 621.3901
213.7834, 618.4489
214.2655, 618.0377
214.7476, 619.3423
215.2297, 622.0114
215.7118, 626.8514
216.1940, 630.9673
216.6761, 634.2148
217.1582, 636.5450
217.6403, 635.7121
218.1224, 629.5035
218.6045, 623.0988
219.0867, 622.2502
219.5688, 630.2787
220.0509, 635.9367
220.5330, 636.0607
221.0151, 630.4978
221.4972, 626.8345
221.9794, 625.1773
222.4615, 625.2578
222.9436, 627.6875
223.4257, 635.8928
223.9078, 639.2086
224.3899, 633.9901
224.8721, 619.3474
225.3542, 606.5352
225.8363, 593.8666
226.3184, 584.5019
226.8005, 582.9807
227.2827, 594.0449
227.7648, 604.0198
228.2469, 609.9564
228.7290, 611.8173
229.2111, 609.4123
229.6932, 599.8494
230.1754, 588.3942
230.6575, 581.9196
231.1396, 582.2775
231.6217, 584.5086
232.1038, 587.7509
232.5859, 592.4202
233.0681, 595.9271
233.5502, 598.4543
234.0323, 599.6890
234.5144, 598.6990
234.9965, 592.9935
235.4786, 589.3168
235.9608, 590.0881
236.4429, 596.3002
236.9250, 602.3910
237.4071, 609.0127
237.8892, 615.0573
238.3713, 618.6709
238.8535, 619.0104
239.3356, 618.3266
239.8177, 617.3529
240.2998, 616.2844
240.7819, 613.7998
241.2640, 607.7416
241.7462, 601.4799
242.2283, 601.3492
242.7104, 611.3761
243.1925, 620.8960
243.6746, 625.9713
244.1567, 624.7016
244.6389, 625.6862
245.1210, 630.1956
245.6031, 636.1923
246.0852, 639.5725
246.5673, 637.5261
247.0494, 637.7208
247.5316, 644.1827
248.0137, 660.8616
248.4958, 669.9832
248.9779, 668.1620
249.4600, 660.6244
249.9421, 656.9463
250.4243, 658.0251
250.9064, 661.3110
251.3885, 666.4323
251.8706, 674.5771
252.3527, 680.5021
252.8348, 683.2729
253.3170, 684.4004
253.7991, 687.0154
254.2812, 692.5388
254.7633, 696.7451
255.2454, 697.1734
255.7275, 691.6168
256.2097, 690.9230
256.6918, 697.5316
257.1739, 707.3325
257.6560, 712.6868
258.1381, 712.2368
258.6202, 710.1381
259.1024, 708.1422
259.5845, 706.9194
260.0666, 702.4222
260.5487, 691.7900
261.0308, 680.0769
261.5129, 677.1596
261.9951, 686.5559
262.4772, 696.4508
262.9593, 703.0423
263.4414, 706.8799
263.9235, 704.4952
264.4056, 693.9591
264.8878, 678.9422
265.3699, 665.1131
265.8520, 651.9486
266.3341, 641.0885
266.8162, 632.0352
267.2983, 623.9114
267.7805, 625.0169
268.2626, 639.1356
268.7447, 658.2846
269.2268, 669.0469
269.7089, 670.4647
270.1910, 666.8454
270.6732, 657.1503
271.1553, 639.9424
271.6374, 632.9251
272.1195, 639.7990
272.6016, 651.4333
273.0837, 651.0541
273.5659, 635.7352
274.0480, 623.4475
274.5301, 623.2610
275.0122, 635.8182
275.4943, 640.7017
275.9764, 635.2674
276.4586, 627.1338
276.9407, 629.5037
277.4228, 643.8705
277.9049, 655.4938
278.3870, 657.3063
278.8691, 649.8170
279.3513, 644.5499
279.8334, 641.5734
280.3155, 640.6442
280.7976, 642.3850
281.2798, 646.9405
281.7619, 650.4630
282.2440, 651.6189
282.7261, 650.5128
283.2082, 646.9697
283.6903, 640.1524
284.1725, 633.9807
284.6546, 634.5527
285.1367, 641.5807
285.6188, 647.6932
286.1009, 650.9493
286.5830, 651.2432
287.0652, 646.6691
287.5473, 636.4630
288.0294, 626.1984
288.5115, 623.5537
288.9936, 627.4770
289.4757, 629.2336
289.9579, 623.9024
290.4400, 614.8039
290.9221, 611.2457
291.4042, 613.4728
291.8863, 618.1860
292.3684, 624.3525
292.8506, 630.8961
293.3327, 633.1054
293.8148, 627.4517
294.2969, 617.7542
294.7790, 611.4482
295.2611, 608.5195
295.7433, 606.3115
296.2254, 601.5590
296.7075, 595.5201
297.1896, 592.0564
297.6717, 593.6526
298.1538, 597.0974
298.6360, 596.9797
299.1181, 593.6153
299.6002, 590.7514
300.0823, 592.3278
300.5644, 596.3075
301.0465, 598.7048
301.5287, 597.5998
302.0108, 595.5933
302.4929, 595.3284
302.9750, 596.6901
303.4571, 599.0278
303.9392, 603.5160
304.4214, 608.2438
304.9035, 610.6460
305.3856, 609.6233
305.8677, 606.8080
306.3498, 602.3393
306.8319, 596.9078
307.3141, 592.8712
307.7962, 593.1296
308.2783, 594.8121
308.7604, 595.2764
309.2425, 594.2036
309.7246, 591.3472
310.2068, 584.3354
310.6889, 575.1237
311.1710, 568.6940
311.6531, 568.7682
312.1352, 571.7294
312.6173, 575.8375
313.0995, 582.2181
313.5816, 585.4564
314.0637, 579.3062
314.5458, 568.4666
315.0279, 561.7337
315.5100, 566.5908
315.9922, 573.3416
316.4743, 576.8002
316.9564, 575.7433
317.4385, 573.9800
317.9206, 572.8563
318.4027, 571.7567
318.8849, 569.8209
319.3670, 563.8318
319.8491, 559.5937
320.3312, 560.4489
320.8133, 567.8732
321.2954, 572.7831
321.7776, 571.3657
322.2597, 567.3998
322.7418, 564.9135
323.2239, 567.4083
323.7060, 568.5165
324.1881, 565.3242
324.6703, 557.1254
325.1524, 552.8317
325.6345, 557.9094
326.1166, 564.6005
326.5987, 566.7014
327.0808, 560.9032
327.5630, 554.2944
328.0451, 545.2048
328.5272, 534.0928
329.0093, 531.4693
329.4914, 544.9753
329.9735, 560.0710
330.4557, 566.9857
330.9378, 559.8673
331.4199, 554.6673
331.9020, 552.4446
332.3841, 553.0426
332.8662, 556.3746
333.3484, 565.3525
333.8305, 572.5980
334.3126, 573.3276
334.7947, 564.6635
335.2768, 558.4911
335.7589, 556.2260
336.2411, 556.3257
336.7232, 553.7823
337.2053, 546.4103
337.6874, 542.8604
338.1695, 550.5132
338.6516, 571.8541
339.1338, 580.6484
339.6159, 572.9551
340.0980, 558.0516
340.5801, 552.0380
341.0622, 555.7542
341.5443, 560.0913
342.0265, 561.6006
342.5086, 560.4822
342.9907, 558.1140
343.4728, 554.0534
343.9549, 550.5616
344.4370, 550.6889
344.9192, 554.1793
345.4013, 558.8803
345.8834, 565.4343
346.3655, 572.2304
346.8476, 573.2902
347.3297, 568.3981
347.8119, 563.9134
348.2940, 568.1298
348.7761, 577.8932
349.2582, 583.3772
349.7403, 579.7386
350.2225, 572.8022
350.7046, 570.6743
351.1867, 572.9462
351.6688, 576.6190
352.1509, 579.0800
352.6331, 581.6732
353.1152, 587.1367
353.5973, 598.3215
354.0794, 608.2801
354.5615, 609.1867
355.0436, 603.4149
355.5258, 598.1887
356.0079, 599.1935
356.4900, 601.5290
356.9721, 600.7227
357.4542, 595.4199
357.9363, 589.2443
358.4185, 583.0624
358.9006, 577.5039
359.3827, 573.6581
359.8648, 573.0350
360.3469, 573.3741
360.8290, 572.9954
361.3112, 571.3509
361.7933, 572.0643
362.2754, 580.2064
362.7575, 589.8346
363.2396, 594.5092
363.7217, 586.7932
364.2039, 579.9013
364.6860, 577.4354
365.1681, 579.5233
365.6502, 582.2824
366.1323, 586.0405
366.6144, 589.8776
367.0966, 593.1854
367.5787, 597.4318
368.0608, 599.1951
368.5429, 595.6148
369.0250, 588.5365
369.5071, 587.9363
369.9893, 600.3852
370.4714, 611.6677
370.9535, 614.3055
371.4356, 603.1229
371.9177, 594.8730
372.3998, 589.5716
372.8820, 587.4052
373.3641, 589.4901
373.8462, 597.4428
374.3283, 605.4804
374.8104, 612.1595
375.2925, 617.8531
375.7747, 616.7499
376.2568, 605.8344
376.7389, 594.0743
377.2210, 595.8051
377.7031, 612.1451
378.1852, 625.6522
378.6674, 629.6178
379.1495, 626.5727
379.6316, 628.1187
380.1137, 634.7059
380.5958, 641.6880
381.0779, 643.9656
381.5601, 642.5724
382.0422, 642.6697
382.5243, 646.2188
383.0064, 650.7880
383.4885, 651.5232
383.9706, 648.9998
384.4528, 647.4053
384.9349, 652.4015
385.4170, 659.4756
385.8991, 660.7528
386.3812, 654.0498
386.8633, 644.8043
387.3455, 636.2757
387.8276, 629.0164
388.3097, 624.1794
388.7918, 621.2895
389.2739, 621.8284
389.7560, 629.1240
390.2382, 644.2098
390.7203, 656.5247
391.2024, 659.2061
391.6845, 656.3744
392.1666, 652.7810
392.6487, 650.4240
393.1309, 647.1580
393.6130, 640.6843
394.0951, 631.4987
394.5772, 625.5615
395.0593, 629.5663
395.5414, 634.0162
396.0236, 632.9076
396.5057, 613.3093
396.9878, 602.4838
397.4699, 608.5613
397.9520, 626.0400
398.4341, 637.5829
398.9163, 640.5994
399.3984, 640.3270
399.8805, 638.2806
400.3626, 633.8560
400.8447, 629.1951
401.3268, 622.7565
401.8090, 617.2314
402.2911, 617.4581
402.7732, 626.9730
403.2553, 632.6329
403.7374, 628.4224
404.2195, 615.3618
404.7017, 613.5410
405.1838, 625.9852
405.6659, 641.5762
406.1480, 651.0556
406.6301, 654.4545
407.1122, 653.4330
407.5944, 646.8254
408.0765, 637.4565
408.5586, 632.4518
409.0407, 631.7123
409.5228, 631.5465
410.0049, 628.5510
410.4871, 624.2314
410.9692, 623.2113
411.4513, 626.4547
411.9334, 631.0091
412.4155, 635.1339
412.8976, 638.1121
413.3798, 637.8396
413.8619, 627.1750
414.3440, 616.3781
414.8261, 619.1636
415.3082, 635.7111
415.7903, 649.7355
416.2725, 647.3842
416.7546, 637.9066
417.2367, 631.8274
417.7188, 637.8635
418.2009, 642.1116
418.6830, 635.0959
419.1652, 620.1728
419.6473, 609.9279
420.1294, 611.3710
420.6115, 616.4374
421.0937, 620.9512
421.5758, 624.0827
422.0579, 627.0948
422.5400, 630.7219
423.0221, 634.2182
423.5042, 636.4118
423.9864, 636.0083
424.4685, 635.6880
424.9506, 635.9147
425.4327, 636.6725
425.9148, 638.3979
426.3969, 642.4841
426.8791, 645.9533
427.3612, 645.4804
427.8433, 638.9204
428.3254, 635.3898
428.8075, 637.1815
429.2896, 642.4788
429.7718, 645.0212
430.2539, 644.4799
430.7360, 643.0269
431.2181, 641.5630
431.7002, 640.1348
432.1823, 639.3864
432.6645, 639.3220
433.1466, 640.0340
433.6287, 641.9078
434.1108, 644.7639
434.5929, 647.7780
435.0750, 651.3964
435.5572, 654.5920
436.0393, 654.6835
436.5214, 651.8394
437.0035, 649.6288
437.4856, 652.6304
437.9677, 657.4898
438.4499, 658.7077
438.9320, 651.0137
439.4141, 645.9688
439.8962, 657.6519
440.3783, 678.9376
440.8604, 691.7974
441.3426, 678.1179
441.8247, 661.2783
442.3068, 656.2948
442.7889, 668.2502
443.2710, 675.3704
443.7531, 663.7721
444.2353, 647.5389
444.7174, 642.0474
445.1995, 662.9572
445.6816, 680.0628
446.1637, 687.2390
446.6458, 685.3208
447.1280, 683.5291
447.6101, 681.6547
448.0922, 680.1333
448.5743, 678.8575
449.0564, 676.5534
449.5385, 678.5433
450.0207, 687.3994
450.5028, 698.3682
450.9849, 701.7219
451.4670, 696.0758
451.9491, 689.5433
452.4312, 683.5649
452.9134, 678.8439
453.3955, 682.6291
453.8776, 696.0886
454.3597, 709.5907
454.8418, 712.3925
455.3239, 706.7595
455.8061, 701.5925
456.2882, 697.9990
456.7703, 697.1007
457.2524, 703.7875
457.7345, 715.6849
458.2166, 723.1929
458.6988, 715.9363
459.1809, 703.5567
459.6630, 695.9383
460.1451, 694.0994
460.6272, 696.4896
461.1093, 705.6793
461.5915, 717.4164
462.0736, 726.2298
462.5557, 729.7396
463.0378, 730.6011
463.5199, 727.4403
464.0020, 721.2546
464.4842, 719.0634
464.9663, 725.7735
465.4484, 734.3384
465.9305, 741.3930
466.4126, 749.0630
466.8947, 750.9854
467.3769, 740.9368
467.8590, 727.8589
468.3411, 727.7371
468.8232, 749.4638
469.3053, 766.4755
469.7874, 771.4425
470.2696, 764.8818
470.7517, 755.0415
471.2338, 740.4735
471.7159, 727.1492
472.1980, 720.7304
472.6801, 721.0913
473.1623, 723.1779
473.6444, 726.5955
474.1265, 730.8010
474.6086, 735.7644
475.0907, 741.1281
475.5728, 744.5812
476.0550, 743.3788
476.5371, 740.0117
477.0192, 739.5800
477.5013, 742.3234
477.9834, 742.8157
478.4655, 732.1672
478.9477, 718.1912
479.4298, 711.2866
479.9119, 716.7186
480.3940, 727.0435
480.8761, 742.4455
481.3582, 760.2319
481.8404, 772.4240
482.3225, 775.1776
482.8046, 772.7532
483.2867, 765.5448
483.7688, 750.7545
484.2509, 741.0706
484.7331, 740.7021
485.2152, 744.3435
485.6973, 747.0627
486.1794, 747.2711
486.6615, 749.6539
487.1436, 757.3146
487.6258, 767.7916
488.1079, 767.6984
488.5900, 752.9210
489.0721, 738.9407
489.5542, 735.4165
490.0363, 742.4224
490.5185, 747.0306
491.0006, 748.4895
491.4827, 748.8375
491.9648, 751.4088
492.4470, 755.5292
492.9291, 757.1976
493.4112, 753.3021
493.8933, 747.7024
494.3754, 747.5180
494.8575, 751.8116
495.3397, 754.6969
495.8218, 751.9827
496.3039, 745.9893
496.7860, 738.4078
497.2681, 728.3303
497.7502, 720.8971
498.2324, 721.8185
498.7145, 726.1373
499.1966, 727.1290
499.6787, 716.2867
500.1608, 708.3993
500.6429, 710.8105
501.1251, 722.6321
501.6072, 728.4628
502.0893, 720.6384
502.5714, 712.5164
503.0535, 710.5095
503.5356, 717.5068
504.0178, 724.2294
504.4999, 732.6860
504.9820, 738.9334
505.4641, 734.2297
505.9462, 715.0519
506.4283, 703.8558
506.9105, 710.3723
507.3926, 729.1154
507.8747, 738.4583
508.3568, 738.1331
508.8389, 733.4352
509.3210, 724.8655
509.8032, 714.9567
510.2853, 710.9664
510.7674, 714.3548
511.2495, 721.2925
511.7316, 729.7061
512.2137, 738.7084
512.6959, 746.3687
513.1780, 754.9669
513.6601, 759.4950
514.1422, 752.2077
514.6243, 735.5228
515.1064, 725.8214
515.5886, 738.2042
516.0707, 753.4758
516.5528, 759.1450
517.0349, 747.1588
517.5170, 739.2316
517.9991, 736.5334
518.4813, 739.3765
518.9634, 749.4746
519.4455, 775.3109
519.9276, 793.5011
520.4097, 796.6959
520.8918, 787.6385
521.3740, 786.1354
521.8561, 795.0975
522.3382, 801.9710
522.8203, 794.7408
523.3024, 774.8340
523.7845, 767.8978
524.2667, 777.6678
524.7488, 791.4947
525.2309, 792.9440
525.7130, 785.2670
526.1951, 779.8216
526.6772, 781.8251
527.1594, 786.7145
527.6415, 790.5737
528.1236, 793.0917
528.6057, 792.9289
529.0878, 785.1879
529.5699, 777.1700
530.0521, 774.6696
530.5342, 779.2077
531.0163, 785.5643
531.4984, 795.7493
531.9805, 805.3882
532.4626, 809.8917
532.9448, 800.5165
533.4269, 795.8292
533.9090, 800.5743
534.3911, 811.8018
534.8732, 817.6019
535.3553, 815.6486
535.8375, 812.7222
536.3196, 812.1777
536.8017, 814.2488
537.2838, 812.7987
537.7659, 806.6854
538.2480, 800.7773
538.7302, 800.0623
539.2123, 804.2083
539.6944, 811.4050
540.1765, 822.3363
540.6586, 834.1657
541.1407, 844.2071
541.6229, 852.1991
542.1050, 857.4093
542.5871, 859.9465
543.0692, 859.2103
543.5513, 851.6819
544.0334, 837.4005
544.5156, 828.5117
544.9977, 835.3348
545.4798, 847.2357
545.9619, 856.0136
546.4440, 861.3765
546.9261, 861.7081
547.4083, 849.4028
547.8904, 833.3827
548.3725, 830.6690
548.8546, 852.4537
549.3367, 868.8778
549.8188, 870.4238
550.3010, 858.8257
550.7831, 855.2735
551.2652, 861.8763
551.7473, 869.5037
552.2294, 871.4528
552.7115, 868.2569
553.1937, 864.6213
553.6758, 860.5994
554.1579, 857.4675
554.6400, 857.1249
555.1221, 858.9943
555.6042, 861.3996
556.0864, 863.5438
556.5685, 866.1958
557.0506, 870.7631
557.5327, 876.6445
558.0148, 881.5269
558.4969, 885.1500
558.9791, 886.7755
559.4612, 885.3754
559.9433, 880.2046
560.4254, 875.4719
560.9075, 868.3773
561.3896, 864.1644
561.8718, 867.5992
562.3539, 885.9101
562.8360, 899.5807
563.3181, 906.2831
563.8002, 907.8060
564.2823, 908.5643
564.7645, 908.9273
565.2466, 906.5841
565.7287, 898.1803
566.2108, 886.1404
566.6929, 883.8796
567.1750, 891.7383
567.6572, 902.0833
568.1393, 910.5142
568.6214, 916.4088
569.1035, 916.9713
569.5856, 910.2970
570.0677, 904.4109
570.5499, 908.3996
571.0320, 917.0366
571.5141, 922.0734
571.9962, 915.1576
572.4783, 909.3773
572.9604, 909.7562
573.4426, 915.7471
573.9247, 924.1995
574.4068, 941.1733
574.8889, 954.3701
575.3710, 958.3071
575.8531, 951.0963
576.3353, 944.1072
576.8174, 936.5892
577.2995, 930.5070
577.7816, 928.2171
578.2637, 930.1104
578.7458, 931.8804
579.2280, 933.0320
579.7101, 933.5651
580.1922, 932.7646
580.6743, 931.0230
581.1564, 930.5554
581.6385, 935.4776
582.1207, 940.6048
582.6028, 935.2218
583.0849, 921.3363
583.5670, 914.2424
584.0491, 934.4653
584.5313, 957.7535
585.0134, 962.7313
585.4955, 938.6724
585.9776, 921.0450
586.4597, 925.6559
586.9418, 938.5164
587.4240, 943.3923
587.9061, 929.5931
588.3882, 924.1432
588.8703, 934.4124
589.3524, 953.6578
589.8345, 961.0709
590.3167, 953.8639
590.7988, 945.2856
591.2809, 938.7832
591.7630, 935.3647
592.2451, 943.5453
592.7272, 963.7955
593.2094, 984.1530
593.6915, 996.1146
594.1736, 1000.811
594.6557, 998.9495
595.1378, 989.1661
595.6199, 979.3582
596.1021, 973.9226
596.5842, 972.6222
597.0663, 975.1314
597.5485, 987.2862
598.0306, 996.9165
598.5127, 996.2973
598.9948, 988.8889
599.4769, 990.1516
599.9590, 1012.819
600.4412, 1029.762
600.9233, 1028.398
601.4054, 1006.570
601.8875, 1002.009
602.3696, 1019.319
602.8517, 1042.747
603.3339, 1061.398
603.8160, 1075.210
604.2981, 1079.018
604.7802, 1070.703
605.2623, 1057.634
605.7444, 1046.391
606.2266, 1037.828
606.7087, 1034.751
607.1908, 1040.091
607.6729, 1049.131
608.1550, 1060.367
608.6371, 1072.592
609.1193, 1082.274
609.6014, 1088.203
610.0835, 1090.972
610.5656, 1089.003
611.0477, 1081.007
611.5298, 1078.273
612.0120, 1082.585
612.4941, 1090.754
612.9762, 1102.464
613.4583, 1121.602
613.9404, 1128.620
614.4225, 1118.743
614.9047, 1103.513
615.3868, 1099.634
615.8689, 1106.360
616.3510, 1114.358
616.8331, 1121.194
617.3152, 1127.492
617.7974, 1133.751
618.2795, 1140.189
618.7616, 1147.952
619.2437, 1159.380
619.7258, 1171.048
620.2079, 1180.266
620.6901, 1186.865
621.1722, 1193.403
621.6543, 1203.665
622.1364, 1212.143
622.6185, 1214.307
623.1006, 1204.177
623.5828, 1200.932
624.0649, 1207.674
624.5470, 1218.459
625.0291, 1225.370
625.5112, 1226.828
625.9933, 1233.258
626.4755, 1247.384
626.9576, 1266.194
627.4397, 1286.007
627.9218, 1306.040
628.4039, 1320.327
628.8860, 1322.476
629.3682, 1319.000
629.8503, 1317.903
630.3324, 1319.068
630.8145, 1321.307
631.2966, 1318.968
631.7787, 1320.879
632.2609, 1337.179
632.7430, 1376.177
633.2251, 1401.552
633.7072, 1393.933
634.1893, 1377.121
634.6714, 1370.463
635.1536, 1376.964
635.6357, 1388.272
636.1178, 1407.774
636.5999, 1427.508
637.0820, 1428.817
637.5641, 1410.679
638.0463, 1399.605
638.5284, 1407.297
639.0105, 1424.524
639.4926, 1434.478
639.9747, 1437.675
640.4568, 1436.976
640.9390, 1431.125
641.4211, 1424.158
641.9032, 1420.465
642.3853, 1420.361
642.8674, 1418.919
643.3495, 1413.721
643.8317, 1406.806
644.3138, 1399.320
644.7959, 1390.146
645.2780, 1383.293
645.7601, 1382.232
646.2422, 1380.494
646.7244, 1368.599
647.2065, 1343.743
647.6886, 1323.855
648.1707, 1312.684
648.6528, 1307.420
649.1349, 1303.917
649.6171, 1301.802
650.0992, 1298.358
650.5813, 1292.396
651.0634, 1284.365
651.5455, 1274.953
652.0276, 1263.983
652.5098, 1250.950
652.9919, 1233.670
653.4740, 1215.704
653.9561, 1198.837
654.4382, 1183.059
654.9203, 1169.653
655.4025, 1160.912
655.8846, 1152.812
656.3667, 1142.633
656.8488, 1129.279
657.3309, 1117.376
657.8130, 1107.858
658.2952, 1098.277
658.7773, 1084.807
659.2594, 1067.641
659.7415, 1050.115
660.2236, 1032.137
660.7057, 1015.728
661.1879, 1005.223
661.6700, 998.9323
662.1521, 992.2874
662.6342, 983.7062
663.1163, 973.5144
663.5984, 960.6722
664.0806, 945.7322
664.5627, 932.8632
665.0448, 923.8702
665.5269, 916.7083
666.0090, 911.2941
666.4911, 908.4008
666.9733, 901.1030
667.4554, 886.9181
667.9375, 873.2510
668.4196, 868.7078
668.9017, 872.7330
669.3839, 867.7280
669.8660, 851.0067
670.3481, 830.6603
670.8302, 813.4915
671.3123, 800.0477
671.7944, 791.8892
672.2766, 791.9816
672.7587, 793.5933
673.2408, 795.3527
673.7229, 795.1251
674.2050, 788.7964
674.6871, 765.0172
675.1693, 746.1105
675.6514, 743.0182
676.1335, 751.1418
676.6156, 744.7511
677.0977, 715.5400
677.5798, 690.8426
678.0620, 684.7154
678.5441, 694.9618
679.0262, 701.1258
679.5083, 703.1345
679.9904, 703.0652
680.4725, 703.0472
680.9547, 701.9788
681.4368, 697.8228
681.9189, 690.3082
682.4010, 680.3750
682.8831, 664.4406
683.3652, 648.5261
683.8474, 639.1536
684.3295, 642.6127
684.8116, 644.9589
685.2937, 641.3505
685.7758, 636.8216
686.2579, 638.8765
686.7401, 651.5404
687.2222, 659.7598
687.7043, 660.6940
688.1864, 655.7266
688.6685, 645.9693
689.1506, 631.8689
689.6328, 620.6937
690.1149, 616.9425
690.5970, 617.0964
691.0791, 617.2296
691.5612, 616.9594
692.0433, 614.4130
692.5255, 604.3848
693.0076, 595.0735
693.4897, 593.1816
693.9718, 600.0770
694.4539, 602.9983
694.9360, 596.0801
695.4182, 588.6332
695.9003, 587.0396
696.3824, 595.2634
696.8645, 589.9746
697.3466, 566.1913
697.8287, 541.9722
698.3109, 541.0543
698.7930, 558.4111
699.2751, 565.9245
699.7572, 556.4312
700.2393, 544.4912
700.7214, 547.3033
701.2036, 557.6674
701.6857, 563.5134
702.1678, 555.7213
702.6499, 548.3173
703.1320, 549.0226
703.6141, 553.8975
704.0963, 552.6299
704.5784, 537.7893
705.0605, 527.4626
705.5426, 526.4995
706.0247, 532.9265
706.5068, 539.0233
706.9890, 545.2081
707.4711, 547.8844
707.9532, 543.5593
708.4353, 534.6958
708.9174, 525.7929
709.3995, 517.2677
709.8817, 513.7955
710.3638, 523.8904
710.8459, 537.0650
711.3280, 544.6860
711.8101, 545.8013
712.2922, 542.0387
712.7744, 527.2536
713.2565, 512.6215
713.7386, 505.3693
714.2207, 507.2692
714.7028, 513.2000
715.1849, 526.4072
715.6671, 538.0909
716.1492, 536.4395
716.6313, 522.7111
717.1134, 511.8790
717.5955, 506.8756
718.0776, 504.4702
718.5598, 501.3836
719.0419, 498.0140
719.5240, 495.1349
720.0061, 492.8990
720.4882, 491.3283
720.9703, 490.1581
721.4525, 489.6646
721.9346, 490.4625
722.4167, 492.9377
722.8988, 496.6104
723.3809, 503.4987
723.8630, 511.3188
724.3452, 508.5302
724.8273, 493.1473
725.3094, 481.5738
725.7915, 484.2231
726.2736, 495.3029
726.7557, 499.8302
727.2379, 498.4742
727.7200, 496.5057
728.2021, 499.4224
728.6842, 501.7018
729.1663, 496.2638
729.6484, 482.2141
730.1306, 474.6858
730.6127, 483.4352
731.0948, 495.5209
731.5769, 504.1527
732.0590, 509.1196
732.5411, 511.5413
733.0233, 510.8871
733.5054, 508.8782
733.9875, 507.4781
734.4696, 506.3427
734.9517, 503.0496
735.4338, 497.3087
735.9160, 489.4793
736.3981, 475.2713
736.8802, 460.6740
737.3623, 455.3996
737.8444, 467.4872
738.3266, 478.5888
738.8087, 481.7755
739.2908, 479.8317
739.7729, 476.4995
740.2551, 469.6722
740.7372, 465.8473
741.2193, 466.5400
741.7014, 469.9730
742.1835, 472.5455
742.6656, 474.2364
743.1478, 476.3441
743.6299, 480.7515
744.1120, 483.9924
744.5941, 478.6401
745.0762, 467.2156
745.5583, 457.3736
746.0405, 453.0366
746.5226, 451.2958
747.0047, 451.4588
747.4868, 453.1560
747.9689, 454.6967
748.4510, 457.2395
748.9332, 457.7397
749.4153, 454.1013
749.8974, 446.9733
750.3795, 444.8268
750.8616, 448.4403
751.3438, 451.0563
751.8259, 446.7362
752.3080, 438.6313
752.7901, 433.2600
753.2722, 430.8835
753.7543, 432.3339
754.2365, 440.9118
754.7186, 451.6492
755.2007, 461.3521
755.6828, 470.2357
756.1649, 474.8626
756.6470, 474.2843
757.1292, 469.6450
757.6113, 459.8088
758.0934, 441.5733
758.5755, 433.9655
759.0576, 439.2321
759.5397, 447.4215
760.0219, 447.1040
760.5040, 441.1256
760.9861, 438.7798
761.4682, 441.9758
761.9503, 446.3786
762.4324, 449.1998
762.9146, 451.0372
763.3967, 452.8838
763.8788, 458.4996
764.3609, 458.2960
764.8430, 443.0546
765.3251, 425.5720
765.8073, 421.3755
766.2894, 434.5345
766.7715, 445.2661
767.2536, 451.1978
767.7357, 452.8586
768.2178, 448.3236
768.7000, 439.5784
769.1821, 435.4899
769.6642, 441.9927
770.1463, 449.0977
770.6284, 446.7827
771.1105, 439.0493
771.5927, 433.6345
772.0748, 434.4773
772.5569, 436.1324
773.0390, 437.9108
773.5211, 439.4856
774.0032, 440.2241
774.4854, 440.4425
774.9675, 438.2455
775.4496, 431.4786
775.9317, 423.3225
776.4138, 422.5951
776.8959, 428.2135
777.3781, 434.2594
777.8602, 436.4252
778.3423, 438.6792
778.8244, 447.2578
779.3065, 459.6680
779.7886, 465.3571
780.2708, 453.6375
780.7529, 442.4905
781.2350, 438.3094
781.7171, 440.2388
782.1992, 439.8022
782.6813, 436.0382
783.1635, 433.8439
783.6456, 438.5964
784.1277, 446.4130
784.6098, 441.5968
785.0919, 425.6227
785.5740, 412.9322
786.0562, 416.5610
786.5383, 424.6418
787.0204, 426.4505
787.5025, 421.3893
787.9846, 419.3537
788.4667, 427.3691
788.9489, 434.3714
789.4310, 435.1687
789.9131, 429.3090
790.3952, 426.0580
790.8773, 426.0421
791.3594, 425.8347
791.8416, 420.5553
792.3237, 413.4284
792.8058, 414.4612
793.2879, 424.0103
793.7700, 433.5386
794.2521, 440.3848
794.7343, 442.5240
795.2164, 435.8749
795.6985, 416.3384
796.1806, 405.2655
796.6627, 409.8800
797.1448, 417.5843
797.6270, 420.7458
798.1091, 418.9621
798.5912, 414.3607
799.0733, 405.7818
799.5554, 400.5922
800.0375, 411.3794
800.5197, 429.2094
801.0018, 436.1828
801.4839, 428.9537
801.9660, 418.3154
802.4481, 406.1246
802.9302, 396.2857
803.4124, 392.4720
803.8945, 398.4300
804.3766, 403.6173
804.8587, 408.4838
805.3408, 411.9776
805.8229, 412.4121
806.3051, 409.8161
806.7872, 409.1411
807.2693, 411.1220
807.7514, 413.0912
808.2335, 411.6944
808.7156, 408.7064
809.1978, 406.8590
809.6799, 406.9774
810.1620, 407.3836
810.6441, 408.1192
811.1262, 408.3845
811.6083, 407.2449
812.0905, 403.3371
812.5726, 401.1244
813.0547, 400.7963
813.5368, 402.0025
814.0189, 403.9906
814.5010, 407.0263
814.9832, 413.8200
815.4653, 425.8776
815.9474, 436.2607
816.4295, 438.4106
816.9116, 435.2604
817.3937, 429.7704
817.8759, 418.8508
818.3580, 413.2785
818.8401, 421.3903
819.3222, 431.8170
819.8043, 433.6697
820.2864, 425.1833
820.7686, 415.0905
821.2507, 402.7978
821.7328, 393.3859
822.2149, 396.3274
822.6970, 407.2825
823.1791, 415.5708
823.6613, 418.6931
824.1434, 418.9177
824.6255, 414.2700
825.1076, 409.0791
825.5897, 408.2326
826.0718, 417.7984
826.5540, 424.4722
827.0361, 428.6094
827.5182, 429.5059
828.0003, 424.7388
828.4824, 414.4459
828.9645, 407.4489
829.4467, 405.3072
829.9288, 405.7676
830.4109, 407.7734
830.8930, 410.1972
831.3751, 411.0494
831.8572, 408.5894
832.3394, 407.3324
832.8215, 409.8605
833.3036, 413.8587
833.7857, 416.9777
834.2678, 419.7602
834.7499, 419.4867
835.2321, 414.9106
835.7142, 409.7555
836.1963, 407.9942
836.6784, 409.5247
837.1605, 415.8450
837.6426, 429.1826
838.1248, 438.1300
838.6069, 429.2638
839.0890, 413.3113
839.5711, 402.3014
840.0532, 402.1571
840.5353, 400.4655
841.0175, 393.4729
841.4996, 387.6776
841.9817, 392.0140
842.4638, 407.1934
842.9459, 414.0441
843.4280, 409.8488
843.9102, 401.9919
844.3923, 395.3880
844.8744, 391.5967
845.3565, 394.4003
845.8386, 406.8303
846.3207, 417.1359
846.8029, 419.3703
847.2850, 418.1084
847.7671, 417.7371
848.2492, 420.4626
848.7313, 417.0731
849.2134, 404.8137
849.6956, 393.5397
850.1777, 396.9423
850.6598, 409.7508
851.1419, 411.3156
851.6240, 397.9717
852.1061, 386.1074
852.5883, 390.6354
853.0704, 400.8762
853.5525, 407.2855
854.0346, 407.5695
854.5167, 405.8910
854.9988, 399.6293
855.4810, 395.2721
855.9631, 399.8779
856.4452, 413.7219
856.9273, 416.5356
857.4094, 407.1780
857.8915, 396.0232
858.3737, 390.9355
858.8558, 390.1448
859.3379, 391.8109
859.8200, 395.7626
860.3021, 401.3141
860.7842, 414.9583
861.2664, 423.8120
861.7485, 418.3844
862.2306, 396.1289
862.7127, 385.4580
863.1948, 387.4785
863.6769, 395.8428
864.1591, 413.0189
864.6412, 431.5821
865.1233, 429.2167
865.6054, 407.2025
866.0875, 390.9551
866.5696, 402.6087
867.0518, 418.9367
867.5339, 425.2737
868.0160, 420.0745
868.4981, 415.3354
868.9802, 411.6851
869.4623, 407.1447
869.9445, 399.3457
870.4266, 390.0137
870.9087, 389.3761
871.3908, 396.4335
871.8729, 400.7493
872.3550, 390.6274
872.8372, 379.4278
873.3193, 381.3297
873.8014, 393.5794
874.2835, 399.1825
874.7656, 388.0923
875.2477, 376.9652
875.7299, 368.4225
876.2120, 363.2898
876.6941, 365.8986
877.1762, 376.2068
877.6583, 387.2467
878.1404, 397.4330
878.6226, 405.1303
879.1047, 406.5983
879.5869, 403.7914
880.0690, 401.7833
880.5511, 404.8195
881.0332, 406.1709
881.5153, 401.3640
881.9974, 394.4076
882.4796, 394.1886
882.9617, 402.1763
883.4438, 408.5655
883.9259, 410.8024
884.4080, 410.8101
884.8901, 411.8517
885.3723, 413.0116
885.8544, 411.8750
886.3365, 405.1298
886.8186, 400.0231
887.3007, 403.0518
887.7828, 408.2390
888.2650, 406.6394
888.7471, 393.8036
889.2292, 386.2902
889.7113, 386.4750
890.1934, 389.9598
890.6755, 391.2363
891.1577, 391.0696
891.6398, 391.7787
892.1219, 393.7235
892.6040, 396.9220
893.0861, 404.4001
893.5682, 411.3369
894.0504, 412.7217
894.5325, 404.9630
895.0146, 399.1275
895.4967, 396.4224
895.9788, 393.4292
896.4609, 385.2056
896.9431, 373.4632
897.4252, 371.5255
897.9073, 380.2293
898.3894, 386.4745
898.8715, 374.2770
899.3536, 359.7123
899.8358, 356.6799
900.3179, 367.2628
900.8000, 380.7794
901.2821, 400.5130
901.7642, 416.0561
902.2463, 421.6637
902.7285, 418.6540
903.2106, 418.1953
903.6927, 420.1117
904.1748, 419.8895
904.6569, 412.5244
905.1390, 403.3284
905.6212, 396.3899
906.1033, 392.1105
906.5854, 391.2471
907.0675, 399.2017
907.5496, 404.2286
908.0317, 401.6652
908.5139, 395.0389
908.9960, 396.3727
909.4781, 405.7075
909.9602, 412.9875
910.4423, 414.5958
910.9244, 412.5583
911.4066, 407.7766
911.8887, 401.4035
912.3708, 395.4865
912.8529, 386.4859
913.3350, 383.9185
913.8171, 394.8721
914.2993, 408.9716
914.7814, 411.3612
915.2635, 401.0226
915.7456, 392.1796
916.2277, 386.6694
916.7098, 383.7518
917.1920, 383.0954
917.6741, 384.3058
918.1562, 386.9795
918.6383, 391.2540
919.1204, 396.0879
919.6025, 406.5825
920.0847, 412.8970
920.5668, 405.8861
921.0489, 381.9066
921.5310, 372.5036
922.0131, 379.2272
922.4952, 387.7134
922.9774, 383.2927
923.4595, 374.7461
923.9416, 376.2423
924.4237, 387.9788
924.9058, 399.4948
925.3879, 412.2769
925.8701, 417.7111
926.3522, 409.0637
926.8343, 389.0869
927.3164, 381.6945
927.7985, 388.2318
928.2806, 394.5752
928.7628, 394.0507
929.2449, 389.7442
929.7270, 384.8114
930.2091, 380.0489
930.6912, 377.4766
931.1733, 379.7329
931.6555, 382.2278
932.1376, 382.2140
932.6197, 382.1922
933.1018, 387.9939
933.5839, 401.2833
934.0660, 406.9973
934.5482, 400.4588
935.0303, 391.8158
935.5124, 398.2664
935.9945, 410.6716
936.4766, 411.4351
936.9587, 390.3151
937.4409, 374.6845
937.9230, 376.9038
938.4051, 385.3480
938.8872, 391.2629
939.3693, 393.9705
939.8514, 399.1802
940.3336, 407.3831
940.8157, 414.1718
941.2978, 416.0431
941.7799, 414.1279
942.2620, 408.1430
942.7441, 398.6270
943.2263, 392.8176
943.7084, 396.9207
944.1905, 402.0524
944.6726, 405.3614
945.1547, 406.7169
945.6368, 405.0057
946.1190, 400.1081
946.6011, 393.6783
947.0832, 384.6656
947.5653, 376.4741
948.0474, 373.3637
948.5295, 374.5742
949.0117, 378.3362
949.4938, 387.4678
949.9759, 394.6908
950.4580, 398.3035
950.9401, 399.6919
951.4222, 401.9074
951.9044, 405.0861
952.3865, 400.4406
952.8686, 384.6139
953.3507, 370.1801
953.8328, 373.1100
954.3149, 384.1919
954.7971, 392.3921
955.2792, 395.5934
955.7613, 395.2590
956.2434, 389.4419
956.7255, 382.9283
957.2076, 377.4122
957.6898, 373.0343
958.1719, 376.9725
958.6540, 389.1061
959.1361, 399.1523
959.6182, 399.0980
960.1003, 394.5586
960.5825, 389.7497
961.0646, 384.9203
961.5467, 380.2083
962.0288, 374.8929
962.5109, 370.9103
962.9930, 368.9989
963.4752, 368.5488
963.9573, 368.0992
964.4394, 367.7602
964.9215, 368.1589
965.4036, 369.4115
965.8857, 371.6760
966.3679, 377.1017
966.8500, 382.7628
967.3321, 384.5571
967.8142, 375.8045
968.2963, 375.3294
968.7784, 386.6176
969.2606, 399.3148
969.7427, 402.2018
970.2248, 397.6356
970.7069, 394.0102
971.1890, 391.9686
971.6711, 389.4749
972.1533, 382.9699
972.6354, 377.4547
973.1175, 377.0973
973.5996, 381.8780
974.0817, 385.5073
974.5638, 387.5306
975.0460, 390.2178
975.5281, 395.9191
976.0102, 401.6093
976.4923, 398.9036
976.9744, 390.6319
977.4565, 385.1081
977.9387, 388.8061
978.4208, 392.5350
978.9029, 393.6428
979.3850, 392.6511
979.8671, 389.2406
980.3492, 382.2267
980.8314, 381.2440
981.3135, 388.8275
981.7956, 395.8009
982.2777, 388.9861
982.7598, 376.5765
983.2419, 370.7734
983.7241, 374.1280
984.2062, 377.6127
984.6883, 377.8227
985.1704, 378.4373
985.6525, 382.0342
986.1346, 387.9407
986.6168, 387.8296
987.0989, 381.9125
987.5810, 376.8268
988.0631, 375.0944
988.5452, 377.0312
989.0273, 386.6178
989.5095, 399.9913
989.9916, 407.0526
990.4737, 401.1931
990.9558, 395.8309
991.4379, 391.5675
991.9200, 389.8289
992.4022, 396.7628
992.8843, 408.8986
993.3664, 408.4832
993.8485, 389.5829
994.3306, 375.1077
994.8127, 389.4731
995.2949, 409.3976
995.7770, 412.7893
996.2591, 395.7172
996.7412, 384.3419
997.2233, 379.3126
997.7054, 377.9634
998.1876, 380.0776
998.6697, 384.2084
999.1518, 388.9992
999.6339, 393.3602
1000.116, 393.0921
1000.598, 379.6012
1001.080, 368.9489
1001.562, 368.2292
1002.044, 373.0138
1002.527, 375.6183
1003.009, 375.8079
1003.491, 377.2250
1003.973, 380.8741
1004.455, 384.2960
1004.937, 384.4975
1005.419, 382.9384
1005.901, 382.1910
1006.384, 384.2218
1006.866, 379.7383
1007.348, 361.5107
1007.830, 346.3964
1008.312, 345.1969
1008.794, 355.4609
1009.276, 363.0475
1009.758, 368.2926
1010.240, 374.2460
1010.723, 386.1796
1011.205, 395.9379
1011.687, 396.9177
1012.169, 391.7780
1012.651, 387.9152
1013.133, 385.1414
1013.615, 385.2766
1014.097, 389.6574
1014.580, 394.1862
1015.062, 391.5765
1015.544, 385.4270
1016.026, 382.4125
1016.508, 383.8722
1016.990, 388.0341
1017.472, 403.0799
1017.954, 411.7335
1018.436, 400.0813
1018.919, 369.8580
1019.401, 360.1713
1019.883, 371.0728
1020.365, 383.4568
1020.847, 385.7591
1021.329, 384.7491
1021.811, 387.5337
1022.293, 392.2718
1022.776, 394.3279
1023.258, 388.6566
1023.740, 387.6835
1024.222, 394.5179
1024.704, 403.2658
1025.186, 405.9595
1025.668, 403.7213
1026.150, 399.9935
1026.632, 395.1895
1027.115, 389.8104
1027.597, 381.3014
1028.079, 374.8080
1028.561, 374.9321
1029.043, 381.2347
1029.525, 384.1323
1030.007, 382.9323
1030.489, 383.8528
1030.972, 391.8113
1031.454, 401.1255
1031.936, 402.2605
1032.418, 398.9218
1032.900, 399.0229
1033.382, 411.0886
1033.864, 418.0857
1034.346, 417.4173
1034.828, 412.5868
1035.311, 406.6484
1035.793, 399.7999
1036.275, 392.2404
1036.757, 383.9002
1037.239, 381.0365
1037.721, 396.9362
1038.203, 412.2688
1038.685, 409.7102
1039.167, 391.4396
1039.650, 384.2687
1040.132, 390.6345
1040.614, 398.0386
1041.096, 402.9830
1041.578, 405.4254
1042.060, 404.6175
1042.542, 401.2902
1043.024, 396.4691
1043.507, 388.1862
1043.989, 383.2164
1044.471, 384.7366
1044.953, 387.4983
1045.435, 387.8490
1045.917, 385.8492
1046.399, 380.1037
1046.881, 371.0237
1047.364, 366.7091
1047.846, 377.4809
1048.328, 390.4185
1048.810, 397.6202
1049.292, 399.2611
1049.774, 398.3713
1050.256, 393.9685
1050.738, 390.6036
1051.220, 389.1563
1051.703, 389.1616
1052.185, 390.9326
1052.667, 393.3821
1053.149, 394.4883
1053.631, 393.4974
1054.113, 392.8651
1054.595, 392.8518
1055.077, 393.9892
1055.559, 398.6954
1056.042, 405.1675
1056.524, 396.1300
1057.006, 374.2771
1057.488, 361.6434
1057.970, 377.8462
1058.452, 399.1948
1058.934, 415.5502
1059.416, 425.3928
1059.899, 425.6421
1060.381, 412.9380
1060.863, 403.3634
1061.345, 398.5734
1061.827, 395.3877
1062.309, 390.6719
1062.791, 385.2644
1063.273, 380.1700
1063.755, 375.4744
1064.238, 372.0216
1064.720, 370.1018
1065.202, 369.3113
1065.684, 369.1755
1066.166, 370.3821
1066.648, 375.9735
1067.130, 384.9167
1067.612, 393.3830
1068.094, 401.8107
1068.577, 405.4282
1069.059, 397.6197
1069.541, 386.0879
1070.023, 377.6443
1070.505, 371.9267
1070.987, 373.5802
1071.469, 383.5103
1071.951, 392.1403
1072.434, 391.0171
1072.916, 386.3568
1073.398, 385.1739
1073.880, 386.7899
1074.362, 388.3869
1074.844, 389.5858
1075.326, 390.1312
1075.808, 389.1759
1076.291, 389.0226
1076.773, 397.1346
1077.255, 408.3218
1077.737, 405.1810
1078.219, 384.5994
1078.701, 364.9077
1079.183, 352.3107
1079.665, 346.7973
1080.147, 348.8662
1080.630, 357.3966
1081.112, 366.8068
1081.594, 376.9919
1082.076, 384.5524
1082.558, 387.2818
1083.040, 388.6917
1083.522, 392.4893
1084.004, 396.6228
1084.486, 398.3229
1084.969, 397.4590
1085.451, 392.7778
1085.933, 382.3877
1086.415, 375.4407
1086.897, 383.0307
1087.379, 396.7100
1087.861, 402.4429
1088.343, 400.8833
1088.826, 396.2715
1089.308, 386.7541
1089.790, 378.5936
1090.272, 371.9271
1090.754, 368.2651
1091.236, 371.1024
1091.718, 379.2467
1092.200, 388.5868
1092.682, 398.8536
1093.165, 404.4198
1093.647, 395.2326
1094.129, 386.2039
1094.611, 388.6033
1095.093, 400.1865
1095.575, 403.8696
1096.057, 399.2931
1096.539, 396.0623
1097.022, 399.1787
1097.504, 402.2715
1097.986, 395.8902
1098.468, 386.6277
1098.950, 384.5746
1099.432, 397.5295
1099.914, 398.5136
1100.396, 382.9162
1100.879, 370.2437
1101.361, 380.2982
1101.843, 400.3715
1102.325, 404.5892
1102.807, 396.5239
1103.289, 390.3692
1103.771, 392.1717
1104.253, 395.8460
1104.735, 402.5501
1105.218, 407.7086
1105.700, 402.2658
1106.182, 389.1151
1106.664, 383.5165
1107.146, 387.2008
1107.628, 389.9619
1108.110, 384.6197
1108.592, 377.4283
1109.074, 370.9204
1109.557, 365.5490
1110.039, 363.3375
1110.521, 364.2870
1111.003, 367.5050
1111.485, 373.1793
1111.967, 379.5280
1112.449, 385.9576
1112.931, 391.3888
1113.414, 394.5955
1113.896, 395.2778
1114.378, 394.6550
1114.860, 392.8257
1115.342, 389.1680
1115.824, 381.6573
1116.306, 373.5238
1116.788, 370.6500
1117.271, 371.1159
1117.753, 370.5984
1118.235, 362.8607
1118.717, 362.4810
1119.199, 373.6858
1119.681, 385.9027
1120.163, 387.5669
1120.645, 381.9913
1121.127, 377.8830
1121.609, 375.8121
1122.092, 376.4901
1122.574, 385.2010
1123.056, 390.5905
1123.538, 388.0209
1124.020, 380.9376
1124.502, 374.4908
1124.984, 369.1691
1125.466, 370.3365
1125.949, 379.6893
1126.431, 388.9345
1126.913, 393.9525
1127.395, 395.1994
1127.877, 391.7075
1128.359, 384.3492
1128.841, 378.8574
1129.323, 375.3059
1129.806, 371.5666
1130.288, 365.2911
1130.770, 361.8819
1131.252, 371.4252
1131.734, 384.9962
1132.216, 389.8307
1132.698, 380.6317
1133.180, 378.2529
1133.662, 384.5366
1134.145, 389.9078
1134.627, 385.5399
1135.109, 378.3371
1135.591, 381.6007
1136.073, 390.8065
1136.555, 394.4138
1137.037, 379.9414
1137.519, 374.5735
1138.001, 383.3080
1138.484, 394.1584
1138.966, 392.6705
1139.448, 384.1429
1139.930, 382.1430
1140.412, 386.6257
1140.894, 390.0144
1141.376, 388.9517
1141.858, 386.4346
1142.341, 382.2612
1142.823, 378.2372
1143.305, 378.3587
1143.787, 381.6557
1144.269, 384.3648
1144.751, 386.0829
1145.233, 384.6228
1145.715, 369.7770
1146.198, 361.1340
1146.680, 373.8413
1147.162, 400.7034
1147.644, 404.0984
1148.126, 386.0005
1148.608, 373.3156
1149.090, 375.6462
1149.572, 382.4576
1150.054, 388.0826
1150.536, 392.8014
1151.019, 397.6989
1151.501, 403.2411
1151.983, 401.2839
1152.465, 391.4388
1152.947, 383.6059
1153.429, 384.5644
1153.911, 388.3017
1154.393, 391.0425
1154.876, 391.9954
1155.358, 389.4332
1155.840, 382.8745
1156.322, 373.5033
1156.804, 360.0221
1157.286, 350.9706
1157.768, 354.2549
1158.250, 365.2058
1158.733, 383.7727
1159.215, 405.4905
1159.697, 414.2362
1160.179, 401.4111
1160.661, 389.7188
1161.143, 381.5406
1161.625, 375.6064
1162.107, 368.0715
1162.589, 362.7334
1163.072, 369.9450
1163.554, 389.0956
1164.036, 398.7948
1164.518, 387.6306
1165.000, 376.6764
1165.482, 370.3167
1165.964, 367.4144
1166.446, 365.8219
1166.928, 366.1501
1167.411, 371.1266
1167.893, 382.4152
1168.375, 389.6015
1168.857, 385.8766
1169.339, 381.7137
1169.821, 381.2372
1170.303, 382.9371
1170.785, 382.5902
1171.268, 380.6138
1171.750, 378.0482
1172.232, 374.1571
1172.714, 372.5648
1173.196, 378.8026
1173.678, 383.6630
1174.160, 379.3719
1174.642, 368.4806
1175.125, 370.4687
1175.607, 382.9104
1176.089, 392.3453
1176.571, 390.0445
1177.053, 386.5959
1177.535, 387.6656
1178.017, 388.8960
1178.499, 385.8727
1178.981, 378.6320
1179.464, 371.9743
1179.946, 366.0412
1180.428, 362.3396
1180.910, 362.9440
1181.392, 364.7828
1181.874, 365.9048
1182.356, 367.4391
1182.838, 371.4973
1183.320, 378.2250
1183.803, 385.4697
1184.285, 393.2367
1184.767, 395.3268
1185.249, 377.5422
1185.731, 361.6267
1186.213, 367.3594
1186.695, 386.4362
1187.177, 395.0452
1187.660, 392.6191
1188.142, 387.5548
1188.624, 380.7826
1189.106, 375.2646
1189.588, 373.6362
1190.070, 374.3549
1190.552, 377.4005
1191.034, 382.0127
1191.516, 383.2581
1191.999, 380.6516
1192.481, 380.0128
1192.963, 383.8673
1193.445, 386.1246
1193.927, 375.7143
1194.409, 364.0099
1194.891, 364.9397
1195.373, 379.6238
1195.855, 384.8136
1196.338, 379.1804
1196.820, 376.4003
1197.302, 384.3031
1197.784, 392.0059
1198.266, 382.8750
1198.748, 368.9467
1199.230, 367.1411
1199.712, 382.0529
1200.195, 388.8810
1200.677, 386.8297
1201.159, 382.0632
1201.641, 375.9887
1202.123, 371.2348
1202.605, 372.8859
1203.087, 377.2255
1203.569, 377.8185
1204.052, 371.9990
1204.534, 368.9160
1205.016, 368.9809
1205.498, 369.1776
1205.980, 365.6453
1206.462, 362.5432
1206.944, 365.5892
1207.426, 372.6364
1207.908, 379.0172
1208.391, 385.9276
1208.873, 386.4979
1209.355, 379.0928
1209.837, 372.6404
1210.319, 376.5578
1210.801, 384.1572
1211.283, 389.2732
1211.765, 391.5146
1212.247, 389.6281
1212.730, 381.1680
1213.212, 377.1631
1213.694, 379.3054
1214.176, 383.4075
1214.658, 385.9207
1215.140, 387.8221
1215.622, 391.4675
1216.104, 395.9243
1216.587, 394.8430
1217.069, 385.2868
1217.551, 379.8888
1218.033, 381.2144
1218.515, 384.8820
1218.997, 387.2325
1219.479, 388.4045
1219.961, 389.0253
1220.443, 388.8479
1220.926, 384.2264
1221.408, 372.1292
1221.890, 368.7193
1222.372, 379.8530
1222.854, 393.4891
1223.336, 395.6918
1223.818, 392.0126
1224.300, 388.5779
1224.782, 386.0415
1225.265, 380.3951
1225.747, 369.6147
1226.229, 366.2994
1226.711, 376.6358
1227.193, 389.5484
1227.675, 392.5723
1228.157, 389.9407
1228.639, 385.3191
1229.122, 378.7101
1229.604, 377.9713
1230.086, 384.3768
1230.568, 387.6881
1231.050, 382.0909
1231.532, 375.6736
1232.014, 378.8666
1232.496, 386.0642
1232.979, 390.8003
1233.461, 392.6230
1233.943, 390.7318
1234.425, 384.7988
1234.907, 378.2947
1235.389, 370.8587
1235.871, 366.8069
1236.353, 374.1053
1236.835, 385.2529
1237.318, 389.6625
1237.800, 385.8791
1238.282, 384.2676
1238.764, 384.8126
1239.246, 388.3360
1239.728, 400.1601
1240.210, 408.9253
1240.692, 399.0755
1241.175, 383.4293
1241.657, 381.1839
1242.139, 396.5872
1242.621, 395.7276
1243.103, 378.4140
1243.585, 367.0125
1244.067, 385.1755
1244.549, 403.0354
1245.031, 395.4782
1245.514, 377.9326
1245.996, 373.0475
1246.478, 382.2263
1246.960, 385.4483
1247.442, 382.7169
1247.924, 381.2831
1248.406, 390.7596
1248.888, 397.3510
1249.370, 388.7324
1249.853, 375.4281
1250.335, 372.2721
1250.817, 378.8218
1251.299, 378.3659
1251.781, 370.9347
1252.263, 367.6736
1252.745, 383.0724
1253.227, 395.0605
1253.710, 389.5395
1254.192, 378.7604
1254.674, 379.2080
1255.156, 388.8372
1255.638, 392.3715
1256.120, 389.3842
1256.602, 386.4429
1257.084, 385.6832
1257.567, 387.9660
1258.049, 396.4065
1258.531, 404.1917
1259.013, 400.2873
1259.495, 387.6631
1259.977, 375.7543
1260.459, 365.6121
1260.941, 359.2783
1261.423, 357.2481
1261.906, 361.0287
1262.388, 373.7055
1262.870, 387.3931
1263.352, 388.4683
1263.834, 382.3708
1264.316, 382.4494
1264.798, 389.2542
1265.280, 393.4832
1265.762, 391.2207
1266.245, 387.7255
1266.727, 383.5311
1267.209, 379.2772
1267.691, 376.0035
1268.173, 373.1839
1268.655, 368.4099
1269.137, 361.9501
1269.619, 362.8124
1270.102, 375.5544
1270.584, 384.6438
1271.066, 386.3685
1271.548, 384.9985
1272.030, 384.8961
1272.512, 385.3637
1272.994, 385.9415
1273.476, 386.4272
1273.958, 385.1292
1274.441, 381.1342
1274.923, 380.0307
1275.405, 383.4854
1275.887, 388.1461
1276.369, 394.4580
1276.851, 397.2319
1277.333, 385.9677
1277.815, 364.9821
1278.297, 364.3268
1278.780, 385.3776
1279.262, 395.6731
1279.744, 385.8965
1280.226, 375.8755
1280.708, 383.5075
1281.190, 395.3872
1281.672, 405.1356
1282.154, 410.4865
1282.637, 398.1769
1283.119, 370.8858
1283.601, 355.2402
1284.083, 357.6756
1284.565, 364.7111
1285.047, 371.9772
1285.529, 377.5018
1286.011, 380.3607
1286.494, 381.0413
1286.976, 380.0358
1287.458, 377.9658
1287.940, 377.6850
1288.422, 380.3643
1288.904, 379.6994
1289.386, 367.0230
1289.868, 359.5966
1290.350, 364.5685
1290.833, 375.9071
1291.315, 383.3015
1291.797, 387.4702
1292.279, 389.3883
1292.761, 388.9484
1293.243, 388.8811
1293.725, 390.3081
1294.207, 389.7235
1294.689, 384.8607
1295.172, 380.0887
1295.654, 381.5687
1296.136, 387.1847
1296.618, 395.9602
1297.100, 408.2623
1297.582, 411.6290
1298.064, 404.7665
1298.546, 397.3060
1299.029, 391.8166
1299.511, 388.1338
1299.993, 389.2468
1300.475, 389.8048
1300.957, 382.1330
1301.439, 368.2353
1301.921, 361.7600
1302.403, 362.4810
1302.885, 363.7292
1303.368, 363.1547
1303.850, 364.9501
1304.332, 376.6773
1304.814, 386.7212
1305.296, 386.7559
1305.778, 380.4331
1306.260, 382.5777
##END=



