##NAMES=Cristobalite
##RRUFFID=R061064
##IDEAL CHEMISTRY=SiO_2_
##LOCALITY=Ellora Caves, India
##OWNER=RRUFF
##SOURCE=Harvard Mineralogical Museum
##DESCRIPTION=Colorless single crystals, octahedra and groups of octahedra, some have transformed to quartz. Sample used in Downs and Palmer (1994)
##STATUS=The identification of this mineral is confirmed by single-crystal X-ray diffraction and chemical analysis.
##URL=rruff.info/R061064
##MEASURED CHEMISTRY=Si_1.00_O_2_Î‡0.11H_2_O ; trace amounts of Al and Na; H_2_O by difference, verified by Raman spectroscopy
144.7064, 2534.937
145.1885, 2533.472
145.6706, 2532.320
146.1527, 2526.167
146.6348, 2511.081
147.1170, 2499.231
147.5991, 2488.762
148.0812, 2481.178
148.5633, 2481.690
149.0454, 2496.789
149.5275, 2514.210
150.0097, 2528.269
150.4918, 2540.945
150.9739, 2547.825
151.4560, 2544.289
151.9381, 2532.360
152.4202, 2526.450
152.9024, 2534.538
153.3845, 2544.439
153.8666, 2548.699
154.3487, 2538.559
154.8308, 2530.610
155.3129, 2528.169
155.7950, 2531.271
156.2772, 2535.908
156.7593, 2543.816
157.2414, 2551.901
157.7235, 2557.315
158.2056, 2554.951
158.6877, 2553.813
159.1699, 2557.056
159.6520, 2565.226
160.1341, 2575.881
160.6162, 2592.129
161.0983, 2609.722
161.5804, 2622.801
162.0626, 2629.689
162.5447, 2631.331
163.0268, 2627.137
163.5089, 2615.439
163.9910, 2603.401
164.4731, 2589.864
164.9553, 2578.179
165.4374, 2575.552
165.9195, 2592.133
166.4016, 2615.310
166.8837, 2635.548
167.3658, 2650.758
167.8480, 2662.957
168.3301, 2673.658
168.8122, 2682.469
169.2943, 2688.108
169.7764, 2684.613
170.2585, 2679.222
170.7407, 2680.675
171.2228, 2694.645
171.7049, 2712.135
172.1870, 2724.360
172.6691, 2732.181
173.1512, 2741.868
173.6334, 2762.342
174.1155, 2787.224
174.5976, 2805.587
175.0797, 2809.401
175.5618, 2807.751
176.0439, 2810.912
176.5260, 2818.927
177.0082, 2829.078
177.4903, 2839.869
177.9724, 2851.279
178.4545, 2862.742
178.9366, 2873.400
179.4187, 2884.489
179.9009, 2899.496
180.3830, 2919.295
180.8651, 2937.547
181.3472, 2943.474
181.8293, 2940.676
182.3114, 2944.018
182.7936, 2966.356
183.2757, 2999.807
183.7578, 3024.198
184.2399, 3036.711
184.7220, 3046.116
185.2041, 3064.855
185.6863, 3092.030
186.1684, 3118.678
186.6505, 3138.659
187.1326, 3153.496
187.6147, 3170.240
188.0968, 3188.523
188.5790, 3210.818
189.0611, 3244.456
189.5432, 3289.259
190.0253, 3334.248
190.5074, 3373.470
190.9895, 3406.858
191.4717, 3437.253
191.9538, 3463.762
192.4359, 3489.606
192.9180, 3521.396
193.4001, 3559.458
193.8822, 3604.291
194.3644, 3665.016
194.8465, 3741.061
195.3286, 3792.787
195.8107, 3804.713
196.2928, 3792.641
196.7749, 3810.408
197.2570, 3861.599
197.7392, 3924.274
198.2213, 3978.427
198.7034, 4023.115
199.1855, 4074.243
199.6676, 4136.275
200.1497, 4207.489
200.6319, 4279.923
201.1140, 4354.049
201.5961, 4427.067
202.0782, 4493.863
202.5603, 4552.999
203.0424, 4614.492
203.5246, 4678.303
204.0067, 4745.237
204.4888, 4824.864
204.9709, 4919.981
205.4530, 5022.228
205.9352, 5121.485
206.4173, 5215.912
206.8994, 5315.709
207.3815, 5421.699
207.8636, 5534.771
208.3457, 5653.001
208.8279, 5776.965
209.3100, 5905.354
209.7921, 6035.729
210.2742, 6166.617
210.7563, 6305.132
211.2384, 6448.686
211.7206, 6597.147
212.2027, 6763.867
212.6848, 6949.908
213.1669, 7153.964
213.6490, 7372.499
214.1311, 7610.106
214.6133, 7853.621
215.0954, 8098.289
215.5775, 8335.880
216.0596, 8591.255
216.5417, 8865.289
217.0238, 9156.057
217.5059, 9469.045
217.9881, 9816.521
218.4702, 10163.00
218.9523, 10494.89
219.4344, 10798.73
219.9165, 11126.69
220.3986, 11489.63
220.8808, 11872.90
221.3629, 12253.50
221.8450, 12634.21
222.3271, 13009.34
222.8092, 13383.22
223.2913, 13761.42
223.7735, 14117.51
224.2556, 14444.84
224.7377, 14752.55
225.2198, 15059.82
225.7019, 15389.19
226.1840, 15685.85
226.6662, 15927.97
227.1483, 16110.67
227.6304, 16243.57
228.1125, 16325.29
228.5946, 16358.49
229.0767, 16356.36
229.5589, 16329.09
230.0410, 16252.00
230.5231, 16109.91
231.0052, 15891.03
231.4873, 15634.67
231.9694, 15338.00
232.4516, 15003.59
232.9337, 14633.22
233.4158, 14216.12
233.8979, 13779.77
234.3800, 13343.52
234.8621, 12914.77
235.3443, 12469.65
235.8264, 11994.97
236.3085, 11501.20
236.7906, 11037.49
237.2727, 10608.29
237.7548, 10204.59
238.2369, 9817.464
238.7191, 9450.675
239.2012, 9095.949
239.6833, 8754.095
240.1654, 8424.715
240.6475, 8115.020
241.1296, 7827.285
241.6118, 7556.088
242.0939, 7297.973
242.5760, 7051.477
243.0581, 6821.327
243.5402, 6609.927
244.0223, 6416.974
244.5045, 6228.135
244.9866, 6038.318
245.4687, 5859.113
245.9508, 5698.811
246.4329, 5562.646
246.9150, 5435.203
247.3972, 5317.978
247.8793, 5209.947
248.3614, 5095.270
248.8435, 4964.654
249.3256, 4838.577
249.8077, 4732.513
250.2899, 4650.057
250.7720, 4578.589
251.2541, 4519.978
251.7362, 4472.636
252.2183, 4420.738
252.7004, 4360.477
253.1826, 4301.408
253.6647, 4250.667
254.1468, 4211.053
254.6289, 4173.011
255.1110, 4135.119
255.5931, 4097.280
256.0753, 4061.940
256.5574, 4029.035
257.0395, 3997.736
257.5216, 3966.442
258.0037, 3930.624
258.4858, 3906.587
258.9680, 3900.535
259.4501, 3909.034
259.9322, 3908.986
260.4143, 3895.752
260.8964, 3881.797
261.3785, 3876.492
261.8607, 3882.465
262.3428, 3889.630
262.8249, 3897.003
263.3070, 3904.740
263.7891, 3913.212
264.2712, 3920.556
264.7534, 3932.058
265.2355, 3951.987
265.7176, 3982.500
266.1997, 4014.482
266.6818, 4046.041
267.1639, 4078.405
267.6461, 4120.751
268.1282, 4178.875
268.6103, 4233.801
269.0924, 4268.020
269.5745, 4273.044
270.0566, 4295.409
270.5387, 4349.936
271.0208, 4424.123
271.5030, 4463.933
271.9851, 4460.604
272.4672, 4446.466
272.9493, 4446.213
273.4314, 4463.758
273.9135, 4469.607
274.3957, 4460.203
274.8778, 4436.773
275.3599, 4401.382
275.8420, 4352.138
276.3241, 4298.235
276.8062, 4245.151
277.2884, 4192.965
277.7705, 4141.166
278.2526, 4089.050
278.7347, 4037.852
279.2168, 3990.163
279.6989, 3944.844
280.1811, 3905.807
280.6632, 3875.654
281.1453, 3854.381
281.6274, 3837.013
282.1095, 3822.443
282.5916, 3811.974
283.0738, 3812.055
283.5559, 3824.011
284.0380, 3832.559
284.5201, 3831.117
285.0022, 3819.301
285.4843, 3791.114
285.9665, 3745.224
286.4486, 3684.154
286.9307, 3607.106
287.4128, 3514.632
287.8949, 3423.512
288.3770, 3343.516
288.8592, 3273.847
289.3413, 3213.156
289.8234, 3162.827
290.3055, 3117.870
290.7876, 3067.435
291.2697, 3012.496
291.7519, 2967.968
292.2340, 2947.297
292.7161, 2944.615
293.1982, 2938.313
293.6803, 2925.678
294.1624, 2913.073
294.6446, 2912.057
295.1267, 2920.333
295.6088, 2925.611
296.0909, 2920.512
296.5730, 2907.820
297.0551, 2891.451
297.5373, 2870.507
298.0194, 2852.401
298.5015, 2849.823
298.9836, 2858.364
299.4657, 2863.037
299.9478, 2851.993
300.4300, 2834.026
300.9121, 2823.676
301.3942, 2822.318
301.8763, 2822.144
302.3584, 2813.707
302.8405, 2800.683
303.3227, 2791.705
303.8048, 2799.052
304.2869, 2808.160
304.7690, 2797.878
305.2511, 2767.072
305.7332, 2739.192
306.2154, 2734.205
306.6975, 2744.043
307.1796, 2755.409
307.6617, 2768.745
308.1438, 2777.387
308.6259, 2771.403
309.1081, 2751.428
309.5901, 2735.896
310.0723, 2741.344
310.5544, 2756.424
311.0365, 2767.208
311.5186, 2765.476
312.0007, 2760.921
312.4828, 2759.497
312.9650, 2760.773
313.4471, 2761.654
313.9292, 2759.573
314.4113, 2756.857
314.8934, 2755.679
315.3755, 2759.233
315.8577, 2761.721
316.3398, 2760.741
316.8219, 2756.571
317.3040, 2750.411
317.7861, 2732.705
318.2682, 2719.197
318.7504, 2721.728
319.2325, 2759.502
319.7146, 2789.951
320.1967, 2799.510
320.6788, 2792.048
321.1609, 2778.658
321.6431, 2748.390
322.1252, 2722.860
322.6073, 2714.132
323.0894, 2735.745
323.5715, 2752.957
324.0536, 2757.226
324.5358, 2753.591
325.0179, 2753.307
325.5000, 2764.877
325.9821, 2773.678
326.4642, 2773.690
326.9464, 2758.792
327.4285, 2748.555
327.9106, 2746.337
328.3927, 2748.257
328.8748, 2748.277
329.3569, 2741.222
329.8391, 2738.437
330.3212, 2745.788
330.8033, 2768.623
331.2854, 2777.132
331.7675, 2762.060
332.2496, 2739.076
332.7318, 2726.694
333.2139, 2729.392
333.6960, 2734.901
334.1781, 2742.530
334.6602, 2752.552
335.1423, 2754.304
335.6245, 2742.598
336.1066, 2729.662
336.5887, 2726.795
337.0708, 2734.927
337.5529, 2750.658
338.0350, 2778.353
338.5172, 2813.864
338.9993, 2827.587
339.4814, 2813.933
339.9635, 2794.133
340.4456, 2784.044
340.9277, 2784.281
341.4099, 2786.010
341.8920, 2787.652
342.3741, 2790.329
342.8562, 2797.384
343.3383, 2808.973
343.8204, 2823.141
344.3026, 2843.122
344.7847, 2866.794
345.2668, 2877.046
345.7489, 2869.034
346.2310, 2853.861
346.7131, 2850.514
347.1953, 2858.002
347.6774, 2866.058
348.1595, 2867.410
348.6416, 2865.123
349.1237, 2869.112
349.6058, 2881.344
350.0880, 2892.497
350.5700, 2887.423
351.0522, 2871.703
351.5343, 2862.813
352.0164, 2874.422
352.4985, 2895.013
352.9806, 2908.486
353.4627, 2914.481
353.9449, 2919.340
354.4270, 2930.281
354.9091, 2943.027
355.3912, 2950.774
355.8733, 2943.325
356.3554, 2935.831
356.8376, 2940.902
357.3197, 2957.365
357.8018, 2976.982
358.2839, 2997.457
358.7660, 3017.602
359.2481, 3036.655
359.7303, 3057.501
360.2124, 3072.999
360.6945, 3074.469
361.1766, 3067.060
361.6587, 3067.457
362.1408, 3094.447
362.6230, 3122.576
363.1051, 3135.687
363.5872, 3121.849
364.0693, 3113.148
364.5514, 3119.402
365.0335, 3135.594
365.5157, 3152.671
365.9978, 3167.796
366.4799, 3184.677
366.9620, 3205.770
367.4441, 3233.633
367.9262, 3256.344
368.4084, 3270.888
368.8905, 3280.643
369.3726, 3289.205
369.8547, 3297.414
370.3368, 3302.789
370.8189, 3303.121
371.3011, 3298.113
371.7832, 3298.372
372.2653, 3307.128
372.7474, 3317.581
373.2295, 3324.441
373.7116, 3326.482
374.1938, 3328.037
374.6759, 3328.178
375.1580, 3328.594
375.6401, 3336.137
376.1222, 3351.753
376.6043, 3372.642
377.0865, 3400.091
377.5686, 3434.941
378.0507, 3463.380
378.5328, 3483.191
379.0149, 3497.845
379.4970, 3511.814
379.9792, 3524.758
380.4613, 3541.798
380.9434, 3565.375
381.4255, 3595.084
381.9076, 3628.772
382.3897, 3666.781
382.8719, 3705.471
383.3540, 3736.395
383.8361, 3762.792
384.3182, 3797.025
384.8003, 3847.869
385.2824, 3907.110
385.7646, 3963.688
386.2467, 4017.902
386.7288, 4066.330
387.2109, 4097.005
387.6930, 4122.597
388.1751, 4162.772
388.6573, 4228.369
389.1394, 4302.375
389.6215, 4371.481
390.1036, 4436.928
390.5857, 4502.624
391.0678, 4569.176
391.5499, 4638.502
392.0320, 4712.184
392.5142, 4789.054
392.9963, 4872.039
393.4784, 4960.933
393.9605, 5057.489
394.4426, 5165.076
394.9247, 5288.035
395.4069, 5419.293
395.8890, 5558.702
396.3711, 5706.161
396.8532, 5852.593
397.3353, 5974.945
397.8174, 6105.479
398.2996, 6274.506
398.7817, 6524.144
399.2638, 6766.140
399.7459, 6975.258
400.2280, 7159.018
400.7101, 7387.229
401.1923, 7682.983
401.6744, 7999.570
402.1565, 8311.476
402.6386, 8604.099
403.1207, 8928.081
403.6028, 9289.098
404.0850, 9682.230
404.5671, 10087.60
405.0492, 10503.62
405.5313, 10944.33
406.0134, 11424.66
406.4955, 11941.67
406.9777, 12448.38
407.4598, 12939.06
407.9419, 13437.45
408.4240, 13972.09
408.9061, 14539.24
409.3882, 15113.62
409.8704, 15686.80
410.3525, 16263.57
410.8346, 16846.21
411.3167, 17436.91
411.7988, 18035.73
412.2809, 18652.96
412.7631, 19268.86
413.2452, 19832.15
413.7273, 20329.03
414.2094, 20763.48
414.6915, 21153.59
415.1736, 21484.17
415.6558, 21721.65
416.1379, 21839.59
416.6200, 21854.63
417.1021, 21777.95
417.5842, 21610.95
418.0663, 21353.87
418.5485, 21002.63
419.0306, 20563.36
419.5127, 20050.96
419.9948, 19429.28
420.4769, 18767.11
420.9590, 18073.46
421.4412, 17345.88
421.9233, 16631.63
422.4054, 15923.38
422.8875, 15238.33
423.3696, 14577.73
423.8517, 13938.29
424.3339, 13337.46
424.8160, 12768.75
425.2981, 12232.94
425.7802, 11726.62
426.2623, 11239.64
426.7444, 10788.16
427.2266, 10381.05
427.7087, 10018.54
428.1908, 9676.861
428.6729, 9351.488
429.1550, 9050.347
429.6371, 8783.313
430.1193, 8557.484
430.6014, 8339.871
431.0835, 8119.392
431.5656, 7900.872
432.0477, 7708.725
432.5298, 7544.290
433.0119, 7395.688
433.4940, 7258.538
433.9762, 7130.789
434.4583, 6999.208
434.9404, 6858.721
435.4225, 6721.202
435.9046, 6606.144
436.3867, 6510.916
436.8689, 6419.486
437.3510, 6323.211
437.8331, 6226.177
438.3152, 6130.936
438.7973, 6037.341
439.2794, 5954.995
439.7616, 5902.042
440.2437, 5861.818
440.7258, 5811.431
441.2079, 5734.812
441.6900, 5654.353
442.1721, 5581.338
442.6543, 5514.351
443.1364, 5447.013
443.6185, 5376.337
444.1006, 5304.943
444.5827, 5234.486
445.0648, 5165.152
445.5470, 5095.953
446.0291, 5024.208
446.5112, 4952.874
446.9933, 4887.665
447.4754, 4832.049
447.9576, 4777.664
448.4397, 4719.395
448.9218, 4657.123
449.4039, 4610.790
449.8860, 4590.520
450.3681, 4572.490
450.8503, 4536.290
451.3324, 4476.555
451.8145, 4417.875
452.2966, 4360.740
452.7787, 4308.032
453.2608, 4271.636
453.7430, 4252.796
454.2251, 4234.468
454.7072, 4209.206
455.1893, 4177.083
455.6714, 4134.939
456.1535, 4080.604
456.6357, 4031.222
457.1178, 4011.928
457.5999, 4013.184
458.0820, 4005.909
458.5641, 3971.359
459.0462, 3931.976
459.5284, 3919.758
460.0105, 3929.477
460.4926, 3933.633
460.9747, 3905.449
461.4568, 3869.092
461.9389, 3848.223
462.4211, 3851.612
462.9032, 3856.089
463.3853, 3851.409
463.8674, 3840.826
464.3495, 3829.383
464.8316, 3823.689
465.3138, 3812.233
465.7959, 3784.186
466.2780, 3737.931
466.7601, 3712.321
467.2422, 3733.483
467.7243, 3758.782
468.2065, 3761.891
468.6886, 3728.874
469.1707, 3700.099
469.6528, 3676.723
470.1349, 3658.715
470.6170, 3646.627
471.0992, 3642.511
471.5813, 3638.331
472.0634, 3629.837
472.5455, 3617.410
473.0276, 3612.720
473.5097, 3618.112
473.9918, 3620.998
474.4739, 3603.087
474.9561, 3568.147
475.4382, 3542.134
475.9203, 3534.043
476.4024, 3533.677
476.8845, 3524.167
477.3666, 3507.524
477.8488, 3493.709
478.3309, 3492.641
478.8130, 3495.900
479.2951, 3492.149
479.7772, 3479.462
480.2593, 3467.992
480.7415, 3465.678
481.2236, 3467.895
481.7057, 3468.898
482.1878, 3470.588
482.6699, 3466.879
483.1520, 3450.602
483.6342, 3425.029
484.1163, 3406.919
484.5984, 3404.602
485.0805, 3406.347
485.5626, 3407.422
486.0447, 3409.783
486.5269, 3406.595
487.0090, 3395.672
487.4911, 3380.550
487.9732, 3365.030
488.4553, 3346.715
488.9374, 3334.221
489.4196, 3331.630
489.9017, 3336.703
490.3838, 3335.281
490.8659, 3326.662
491.3480, 3314.998
491.8301, 3301.434
492.3123, 3286.544
492.7944, 3276.096
493.2765, 3271.120
493.7586, 3268.533
494.2407, 3263.749
494.7228, 3257.759
495.2050, 3253.893
495.6871, 3261.503
496.1692, 3267.265
496.6513, 3249.321
497.1334, 3211.120
497.6155, 3181.609
498.0977, 3186.892
498.5798, 3203.660
499.0619, 3210.942
499.5440, 3199.673
500.0261, 3189.120
500.5082, 3185.623
500.9904, 3187.016
501.4725, 3189.682
501.9546, 3194.864
502.4367, 3199.296
502.9188, 3203.660
503.4009, 3207.968
503.8831, 3204.362
504.3652, 3186.819
504.8473, 3168.335
505.3294, 3156.667
505.8115, 3152.641
506.2936, 3153.603
506.7758, 3161.972
507.2579, 3171.913
507.7400, 3173.099
508.2221, 3165.347
508.7042, 3152.517
509.1863, 3132.026
509.6685, 3108.661
510.1506, 3097.669
510.6327, 3099.038
511.1148, 3105.618
511.5969, 3116.520
512.0790, 3127.772
512.5612, 3131.434
513.0433, 3124.167
513.5254, 3114.710
514.0075, 3109.021
514.4896, 3106.236
514.9717, 3104.774
515.4539, 3104.830
515.9360, 3105.112
516.4181, 3103.682
516.9002, 3100.639
517.3823, 3101.492
517.8644, 3112.906
518.3466, 3124.574
518.8287, 3130.206
519.3108, 3127.230
519.7929, 3122.264
520.2750, 3115.821
520.7571, 3107.054
521.2393, 3092.866
521.7214, 3068.278
522.2035, 3052.472
522.6856, 3052.700
523.1677, 3066.526
523.6498, 3079.757
524.1320, 3092.914
524.6141, 3102.529
525.0962, 3104.315
525.5783, 3099.959
526.0604, 3096.684
526.5425, 3095.879
527.0247, 3093.857
527.5068, 3084.413
527.9889, 3070.417
528.4710, 3058.685
528.9531, 3050.827
529.4352, 3047.176
529.9174, 3049.907
530.3995, 3058.007
530.8816, 3065.082
531.3637, 3069.089
531.8458, 3070.792
532.3279, 3069.421
532.8101, 3060.955
533.2922, 3059.803
533.7743, 3077.417
534.2564, 3099.571
534.7385, 3108.996
535.2206, 3097.844
535.7027, 3087.022
536.1848, 3079.369
536.6669, 3074.450
537.1490, 3070.741
537.6312, 3068.225
538.1133, 3066.773
538.5954, 3067.740
539.0775, 3070.707
539.5596, 3066.906
540.0417, 3054.793
540.5239, 3044.127
541.0060, 3051.146
541.4881, 3069.056
541.9702, 3076.411
542.4523, 3061.425
542.9344, 3042.808
543.4166, 3041.237
543.8987, 3052.326
544.3808, 3063.379
544.8629, 3069.628
545.3450, 3072.406
545.8271, 3070.646
546.3093, 3063.664
546.7914, 3060.900
547.2735, 3071.514
547.7556, 3083.448
548.2377, 3087.277
548.7198, 3070.854
549.2020, 3062.284
549.6841, 3066.826
550.1662, 3077.810
550.6483, 3080.514
551.1304, 3071.392
551.6125, 3063.633
552.0947, 3061.074
552.5768, 3063.363
553.0589, 3069.701
553.5410, 3080.693
554.0231, 3090.266
554.5052, 3092.704
554.9874, 3089.661
555.4695, 3086.396
555.9516, 3083.349
556.4337, 3081.010
556.9158, 3082.769
557.3979, 3085.394
557.8801, 3082.707
558.3622, 3062.930
558.8443, 3045.536
559.3264, 3047.353
559.8085, 3063.341
560.2906, 3070.663
560.7728, 3051.928
561.2549, 3031.049
561.7370, 3019.201
562.2191, 3018.584
562.7012, 3023.599
563.1833, 3039.266
563.6655, 3056.354
564.1476, 3066.750
564.6297, 3069.398
565.1118, 3067.550
565.5939, 3058.851
566.0760, 3048.313
566.5582, 3051.120
567.0403, 3067.756
567.5224, 3080.388
568.0045, 3077.173
568.4866, 3064.681
568.9688, 3061.490
569.4509, 3067.363
569.9330, 3072.136
570.4151, 3061.580
570.8972, 3047.953
571.3793, 3048.849
571.8615, 3072.519
572.3436, 3095.511
572.8257, 3104.853
573.3078, 3105.217
573.7899, 3103.177
574.2720, 3098.207
574.7542, 3093.322
575.2363, 3088.434
575.7184, 3083.931
576.2005, 3082.677
576.6826, 3089.680
577.1647, 3092.731
577.6469, 3082.424
578.1290, 3055.401
578.6111, 3052.782
579.0932, 3081.688
579.5753, 3115.357
580.0574, 3124.876
580.5396, 3112.875
581.0217, 3099.701
581.5038, 3087.247
581.9859, 3079.517
582.4680, 3086.220
582.9501, 3102.599
583.4323, 3115.098
583.9144, 3113.703
584.3965, 3108.038
584.8786, 3104.329
585.3607, 3102.834
585.8428, 3104.322
586.3250, 3113.580
586.8071, 3122.623
587.2892, 3126.327
587.7713, 3121.567
588.2534, 3117.891
588.7355, 3115.027
589.2177, 3114.043
589.6998, 3116.923
590.1819, 3126.633
590.6640, 3131.723
591.1461, 3129.109
591.6282, 3121.974
592.1104, 3118.276
592.5925, 3118.049
593.0746, 3119.129
593.5567, 3118.540
594.0388, 3118.716
594.5209, 3129.614
595.0031, 3150.599
595.4852, 3166.519
595.9673, 3160.024
596.4494, 3145.001
596.9315, 3138.473
597.4136, 3146.175
597.8958, 3153.791
598.3779, 3155.218
598.8600, 3152.693
599.3421, 3148.958
599.8242, 3138.263
600.3063, 3134.202
600.7885, 3144.112
601.2706, 3162.336
601.7527, 3170.083
602.2348, 3161.112
602.7169, 3154.559
603.1990, 3157.843
603.6812, 3170.543
604.1633, 3186.374
604.6454, 3206.568
605.1275, 3222.283
605.6096, 3224.289
606.0917, 3215.598
606.5739, 3204.892
607.0560, 3192.598
607.5381, 3181.139
608.0202, 3172.982
608.5023, 3167.112
608.9844, 3161.785
609.4666, 3152.837
609.9487, 3147.941
610.4308, 3153.982
610.9129, 3167.509
611.3950, 3177.299
611.8771, 3182.538
612.3593, 3182.271
612.8414, 3174.202
613.3235, 3157.866
613.8056, 3147.020
614.2877, 3141.616
614.7698, 3141.962
615.2520, 3151.599
615.7341, 3171.105
616.2162, 3179.825
616.6983, 3174.411
617.1804, 3164.798
617.6625, 3162.555
618.1446, 3166.468
618.6267, 3173.305
619.1088, 3184.603
619.5909, 3194.790
620.0731, 3199.520
620.5552, 3198.883
621.0373, 3193.278
621.5194, 3175.810
622.0015, 3159.891
622.4836, 3152.370
622.9658, 3153.760
623.4479, 3157.924
623.9300, 3168.078
624.4121, 3177.401
624.8942, 3181.882
625.3763, 3179.488
625.8585, 3180.063
626.3406, 3184.971
626.8227, 3190.201
627.3048, 3190.141
627.7869, 3185.066
628.2690, 3180.608
628.7512, 3176.540
629.2333, 3176.397
629.7154, 3191.287
630.1975, 3215.437
630.6796, 3231.355
631.1617, 3224.440
631.6439, 3210.855
632.1260, 3201.489
632.6081, 3196.159
633.0902, 3191.398
633.5723, 3187.751
634.0544, 3183.054
634.5366, 3176.946
635.0187, 3170.573
635.5008, 3156.359
635.9829, 3123.363
636.4650, 3094.627
636.9471, 3092.599
637.4293, 3123.577
637.9114, 3143.237
638.3935, 3146.158
638.8756, 3139.187
639.3577, 3127.713
639.8398, 3113.898
640.3220, 3110.955
640.8041, 3130.738
641.2862, 3155.022
641.7683, 3159.933
642.2504, 3150.604
642.7325, 3144.409
643.2147, 3160.105
643.6968, 3173.051
644.1789, 3163.431
644.6610, 3129.427
645.1431, 3108.676
645.6252, 3121.604
646.1074, 3136.981
646.5895, 3138.341
647.0716, 3119.075
647.5537, 3108.613
648.0358, 3108.766
648.5179, 3114.935
649.0001, 3123.931
649.4822, 3135.390
649.9643, 3143.909
650.4464, 3148.079
650.9285, 3149.668
651.4106, 3151.135
651.8928, 3152.005
652.3749, 3151.075
652.8570, 3146.673
653.3391, 3141.219
653.8212, 3133.437
654.3033, 3125.177
654.7855, 3123.866
655.2676, 3141.634
655.7497, 3157.904
656.2318, 3162.655
656.7139, 3154.582
657.1960, 3151.337
657.6782, 3156.445
658.1603, 3160.781
658.6424, 3156.171
659.1245, 3141.951
659.6066, 3133.960
660.0887, 3133.781
660.5709, 3136.925
661.0530, 3137.005
661.5351, 3136.225
662.0172, 3141.313
662.4993, 3156.464
662.9814, 3173.216
663.4636, 3186.705
663.9457, 3196.198
664.4278, 3200.186
664.9099, 3191.266
665.3920, 3183.808
665.8741, 3185.778
666.3563, 3194.734
666.8384, 3193.709
667.3205, 3171.251
667.8026, 3157.165
668.2847, 3165.767
668.7668, 3196.145
669.2490, 3219.542
669.7311, 3236.528
670.2132, 3243.437
670.6953, 3231.994
671.1774, 3208.433
671.6595, 3190.367
672.1417, 3179.247
672.6238, 3174.322
673.1059, 3177.927
673.5880, 3186.098
674.0701, 3194.240
674.5522, 3203.679
675.0344, 3208.716
675.5165, 3203.238
675.9986, 3193.323
676.4807, 3189.217
676.9628, 3197.126
677.4449, 3200.663
677.9271, 3194.265
678.4092, 3182.809
678.8913, 3183.188
679.3734, 3196.864
679.8555, 3209.941
680.3376, 3218.590
680.8198, 3221.620
681.3019, 3210.861
681.7840, 3188.457
682.2661, 3172.806
682.7482, 3184.657
683.2303, 3204.492
683.7125, 3213.244
684.1946, 3208.340
684.6767, 3204.221
685.1588, 3208.755
685.6409, 3214.294
686.1230, 3214.979
686.6052, 3208.529
687.0873, 3201.275
687.5694, 3189.963
688.0515, 3181.711
688.5336, 3188.966
689.0157, 3213.005
689.4979, 3227.106
689.9800, 3225.424
690.4621, 3214.594
690.9442, 3199.755
691.4263, 3183.858
691.9084, 3176.573
692.3906, 3186.955
692.8727, 3202.728
693.3548, 3216.767
693.8369, 3229.157
694.3190, 3239.453
694.8011, 3246.135
695.2833, 3252.297
695.7654, 3262.147
696.2475, 3274.959
696.7296, 3272.265
697.2117, 3243.826
697.6938, 3221.102
698.1760, 3227.671
698.6581, 3261.574
699.1402, 3272.666
699.6223, 3258.836
700.1044, 3244.293
700.5865, 3256.667
701.0686, 3281.748
701.5507, 3293.283
702.0328, 3285.235
702.5150, 3273.053
702.9971, 3258.776
703.4792, 3249.032
703.9613, 3250.891
704.4434, 3285.256
704.9255, 3305.193
705.4077, 3299.309
705.8898, 3281.498
706.3719, 3272.656
706.8540, 3276.089
707.3361, 3276.755
707.8182, 3272.379
708.3004, 3262.570
708.7825, 3238.717
709.2646, 3204.640
709.7467, 3186.523
710.2288, 3209.461
710.7109, 3245.173
711.1931, 3261.854
711.6752, 3263.220
712.1573, 3264.480
712.6394, 3276.933
713.1215, 3287.070
713.6036, 3287.225
714.0858, 3276.173
714.5679, 3264.213
715.0500, 3246.252
715.5321, 3235.062
716.0142, 3241.425
716.4963, 3267.231
716.9785, 3279.181
717.4606, 3275.494
717.9427, 3268.049
718.4248, 3267.623
718.9069, 3271.933
719.3890, 3276.282
719.8712, 3280.315
720.3533, 3282.614
720.8354, 3282.193
721.3175, 3279.424
721.7996, 3274.557
722.2817, 3263.294
722.7639, 3255.977
723.2460, 3255.862
723.7281, 3259.370
724.2102, 3261.813
724.6923, 3262.522
725.1744, 3264.007
725.6566, 3266.913
726.1387, 3270.422
726.6208, 3273.439
727.1029, 3275.775
727.5850, 3275.925
728.0671, 3271.736
728.5493, 3266.610
729.0314, 3266.540
729.5135, 3269.265
729.9956, 3267.450
730.4777, 3249.246
730.9598, 3234.255
731.4420, 3232.383
731.9241, 3243.847
732.4062, 3255.612
732.8883, 3270.053
733.3704, 3280.501
733.8525, 3283.037
734.3347, 3278.082
734.8168, 3272.772
735.2989, 3266.800
735.7810, 3263.522
736.2631, 3268.945
736.7452, 3277.775
737.2274, 3279.677
737.7095, 3273.487
738.1916, 3266.998
738.6737, 3266.105
739.1558, 3266.454
739.6379, 3264.352
740.1201, 3258.348
740.6022, 3251.786
741.0843, 3239.730
741.5664, 3232.034
742.0485, 3240.602
742.5306, 3269.745
743.0128, 3289.815
743.4949, 3296.733
743.9770, 3297.268
744.4591, 3298.801
744.9412, 3301.337
745.4233, 3305.147
745.9055, 3310.749
746.3876, 3316.359
746.8697, 3318.782
747.3518, 3320.440
747.8339, 3325.515
748.3160, 3346.687
748.7982, 3357.177
749.2803, 3340.671
749.7624, 3311.984
750.2445, 3308.862
750.7266, 3340.488
751.2087, 3365.446
751.6909, 3368.620
752.1730, 3359.528
752.6551, 3364.004
753.1372, 3380.129
753.6193, 3395.240
754.1014, 3407.969
754.5836, 3412.603
755.0657, 3395.551
755.5478, 3362.199
756.0299, 3340.917
756.5120, 3349.348
756.9941, 3364.999
757.4763, 3378.906
757.9584, 3391.046
758.4405, 3406.097
758.9226, 3426.567
759.4047, 3444.274
759.8868, 3452.495
760.3690, 3452.976
760.8511, 3458.630
761.3332, 3469.346
761.8153, 3481.861
762.2974, 3492.674
762.7795, 3504.068
763.2617, 3518.975
763.7438, 3537.613
764.2259, 3558.670
764.7080, 3583.903
765.1901, 3609.760
765.6722, 3633.813
766.1544, 3656.732
766.6365, 3675.510
767.1186, 3689.076
767.6007, 3700.499
768.0828, 3710.297
768.5649, 3719.302
769.0471, 3738.071
769.5292, 3768.266
770.0113, 3804.740
770.4934, 3844.085
770.9755, 3885.586
771.4576, 3929.571
771.9398, 3978.808
772.4219, 4024.059
772.9040, 4052.614
773.3861, 4079.549
773.8682, 4123.337
774.3503, 4190.755
774.8325, 4262.998
775.3146, 4342.367
775.7967, 4419.894
776.2788, 4479.824
776.7609, 4523.118
777.2430, 4560.969
777.7252, 4594.062
778.2073, 4627.534
778.6894, 4677.244
779.1715, 4730.420
779.6536, 4762.973
780.1357, 4750.674
780.6179, 4733.336
781.1000, 4725.033
781.5821, 4721.040
782.0642, 4710.811
782.5463, 4693.485
783.0284, 4671.850
783.5105, 4645.885
783.9926, 4616.361
784.4747, 4583.153
784.9568, 4547.070
785.4390, 4516.878
785.9211, 4501.566
786.4032, 4489.088
786.8853, 4457.756
787.3674, 4417.191
787.8495, 4394.070
788.3317, 4418.060
788.8138, 4442.126
789.2959, 4448.639
789.7780, 4439.945
790.2601, 4427.930
790.7422, 4409.067
791.2244, 4396.160
791.7065, 4398.446
792.1886, 4408.331
792.6707, 4398.257
793.1528, 4369.210
793.6349, 4332.228
794.1171, 4291.921
794.5992, 4248.659
795.0813, 4203.563
795.5634, 4156.363
796.0455, 4107.146
796.5276, 4052.057
797.0098, 3999.229
797.4919, 3955.040
797.9740, 3919.066
798.4561, 3868.727
798.9382, 3796.871
799.4203, 3736.863
799.9025, 3712.520
800.3846, 3713.696
800.8667, 3703.971
801.3488, 3684.331
801.8309, 3667.272
802.3130, 3666.607
802.7952, 3667.359
803.2773, 3655.431
803.7594, 3629.843
804.2415, 3606.012
804.7236, 3584.938
805.2057, 3568.941
805.6879, 3561.306
806.1700, 3562.436
806.6521, 3552.701
807.1342, 3529.554
807.6163, 3510.353
808.0984, 3509.278
808.5806, 3520.910
809.0627, 3536.913
809.5448, 3556.262
810.0269, 3566.802
810.5090, 3554.443
810.9911, 3535.250
811.4733, 3518.809
811.9554, 3505.404
812.4375, 3500.361
812.9196, 3508.690
813.4017, 3518.051
813.8839, 3521.885
814.3660, 3520.227
814.8481, 3515.261
815.3302, 3506.880
815.8123, 3498.287
816.2944, 3491.693
816.7766, 3487.092
817.2587, 3485.232
817.7408, 3486.440
818.2229, 3486.843
818.7050, 3483.479
819.1871, 3480.021
819.6693, 3478.778
820.1514, 3479.729
820.6335, 3483.409
821.1156, 3489.993
821.5977, 3498.775
822.0798, 3509.235
822.5620, 3521.370
823.0441, 3537.278
823.5262, 3557.221
824.0083, 3572.477
824.4904, 3571.881
824.9725, 3565.355
825.4547, 3562.506
825.9368, 3564.849
826.4189, 3568.135
826.9010, 3571.012
827.3831, 3574.802
827.8652, 3580.737
828.3474, 3589.395
828.8295, 3597.921
829.3116, 3607.841
829.7937, 3609.996
830.2758, 3588.192
830.7579, 3554.970
831.2401, 3536.919
831.7222, 3536.607
832.2043, 3544.683
832.6864, 3564.192
833.1685, 3583.625
833.6506, 3594.292
834.1328, 3593.606
834.6149, 3589.896
835.0970, 3580.402
835.5791, 3572.560
836.0612, 3574.777
836.5433, 3585.854
837.0255, 3582.281
837.5076, 3563.226
837.9897, 3546.184
838.4718, 3547.890
838.9539, 3558.713
839.4360, 3568.178
839.9182, 3574.977
840.4003, 3581.351
840.8824, 3590.449
841.3645, 3596.935
841.8466, 3596.981
842.3287, 3589.416
842.8109, 3584.900
843.2930, 3583.488
843.7751, 3584.369
844.2572, 3587.745
844.7393, 3592.730
845.2214, 3599.087
845.7036, 3606.447
846.1857, 3608.142
846.6678, 3592.699
847.1499, 3575.727
847.6320, 3568.894
848.1141, 3574.396
848.5963, 3580.728
849.0784, 3590.884
849.5605, 3596.464
850.0426, 3588.998
850.5247, 3571.216
851.0068, 3574.775
851.4890, 3599.291
851.9711, 3619.995
852.4532, 3614.911
852.9353, 3599.417
853.4174, 3585.256
853.8995, 3573.893
854.3817, 3574.348
854.8638, 3601.423
855.3459, 3628.784
855.8280, 3645.431
856.3101, 3651.907
856.7922, 3661.160
857.2744, 3674.470
857.7565, 3682.910
858.2386, 3676.268
858.7207, 3663.422
859.2028, 3665.464
859.6849, 3679.701
860.1671, 3692.060
860.6492, 3697.769
861.1313, 3697.288
861.6134, 3685.834
862.0955, 3665.796
862.5776, 3658.948
863.0598, 3670.799
863.5419, 3683.711
864.0240, 3692.643
864.5061, 3697.759
864.9882, 3698.693
865.4703, 3695.774
865.9524, 3691.083
866.4345, 3690.061
866.9166, 3683.963
867.3987, 3656.600
867.8809, 3617.675
868.3630, 3596.818
868.8451, 3618.528
869.3272, 3637.090
869.8093, 3640.378
870.2914, 3637.142
870.7736, 3657.291
871.2557, 3700.931
871.7378, 3726.079
872.2199, 3711.971
872.7020, 3683.904
873.1841, 3670.139
873.6663, 3668.163
874.1484, 3672.421
874.6305, 3691.354
875.1126, 3703.995
875.5947, 3697.936
876.0768, 3684.840
876.5590, 3683.260
877.0411, 3696.714
877.5232, 3704.664
878.0053, 3702.612
878.4874, 3696.270
878.9695, 3693.830
879.4517, 3693.572
879.9338, 3691.211
880.4159, 3684.073
880.8980, 3677.955
881.3801, 3672.764
881.8622, 3671.725
882.3444, 3679.435
882.8265, 3701.383
883.3086, 3719.559
883.7907, 3734.659
884.2728, 3742.966
884.7549, 3734.782
885.2371, 3715.340
885.7192, 3706.746
886.2013, 3712.865
886.6834, 3722.212
887.1655, 3726.477
887.6476, 3729.708
888.1298, 3736.649
888.6119, 3751.511
889.0940, 3758.644
889.5761, 3756.301
890.0582, 3748.827
890.5403, 3735.405
891.0225, 3717.501
891.5046, 3715.539
891.9867, 3730.233
892.4688, 3745.271
892.9509, 3749.973
893.4330, 3747.933
893.9152, 3738.250
894.3973, 3720.924
894.8794, 3715.509
895.3615, 3734.861
895.8436, 3757.437
896.3257, 3777.392
896.8079, 3794.006
897.2900, 3799.386
897.7721, 3793.357
898.2542, 3783.855
898.7363, 3771.436
899.2184, 3760.663
899.7006, 3759.000
900.1827, 3764.318
900.6648, 3768.319
901.1469, 3767.365
901.6290, 3765.205
902.1111, 3762.116
902.5933, 3758.894
903.0754, 3758.420
903.5575, 3761.169
904.0396, 3762.509
904.5217, 3759.758
905.0038, 3757.096
905.4860, 3759.281
905.9681, 3766.611
906.4502, 3779.787
906.9323, 3818.128
907.4144, 3839.053
907.8965, 3812.566
908.3787, 3769.183
908.8608, 3750.126
909.3429, 3760.015
909.8250, 3775.275
910.3071, 3796.236
910.7892, 3812.449
911.2714, 3804.844
911.7535, 3783.706
912.2356, 3769.011
912.7177, 3765.004
913.1998, 3766.634
913.6819, 3779.360
914.1641, 3791.087
914.6462, 3789.967
915.1283, 3768.881
915.6104, 3764.582
916.0925, 3780.475
916.5746, 3800.724
917.0568, 3816.205
917.5389, 3825.322
918.0210, 3821.023
918.5031, 3803.882
918.9852, 3789.588
919.4673, 3785.907
919.9495, 3788.666
920.4316, 3799.406
920.9137, 3817.219
921.3958, 3822.454
921.8779, 3809.121
922.3600, 3802.336
922.8422, 3818.722
923.3243, 3845.326
923.8064, 3848.158
924.2885, 3831.870
924.7706, 3816.167
925.2527, 3804.815
925.7349, 3802.470
926.2170, 3822.464
926.6991, 3852.149
927.1812, 3857.525
927.6633, 3826.081
928.1454, 3804.495
928.6276, 3802.694
929.1097, 3811.292
929.5918, 3816.880
930.0739, 3819.719
930.5560, 3819.542
931.0381, 3814.965
931.5203, 3811.458
932.0024, 3812.773
932.4845, 3816.490
932.9666, 3820.004
933.4487, 3823.423
933.9308, 3825.285
934.4130, 3824.242
934.8951, 3824.991
935.3772, 3835.400
935.8593, 3850.716
936.3414, 3855.890
936.8235, 3849.882
937.3057, 3844.902
937.7878, 3849.078
938.2699, 3856.309
938.7520, 3865.477
939.2341, 3876.556
939.7162, 3874.055
940.1984, 3853.338
940.6805, 3833.802
941.1626, 3823.306
941.6447, 3821.658
942.1268, 3835.106
942.6089, 3858.640
943.0911, 3872.183
943.5732, 3852.200
944.0553, 3834.011
944.5374, 3840.581
945.0195, 3860.339
945.5016, 3860.235
945.9838, 3791.908
946.4659, 3837.339
946.9480, 3863.340
947.4301, 3870.953
947.9122, 3805.109
948.3943, 3834.120
948.8764, 3825.118
949.3585, 3814.557
949.8406, 3856.918
950.3228, 3801.759
950.8049, 3843.281
951.2870, 3846.209
951.7691, 3866.802
952.2512, 3849.145
952.7333, 3843.302
953.2155, 3875.721
953.6976, 3886.953
954.1797, 3864.894
954.6618, 3886.609
955.1439, 3830.113
955.6260, 3842.248
956.1082, 3883.994
956.5903, 3863.858
957.0724, 3857.404
957.5545, 3866.226
958.0366, 3862.768
958.5187, 3844.506
959.0009, 3836.325
959.4830, 3852.906
959.9651, 3879.051
960.4472, 3893.703
960.9293, 3898.963
961.4114, 3898.809
961.8936, 3882.420
962.3757, 3876.878
962.8578, 3898.982
963.3399, 3926.976
963.8220, 3932.997
964.3041, 3915.916
964.7863, 3892.083
965.2684, 3860.709
965.7505, 3839.542
966.2326, 3858.145
966.7147, 3892.151
967.1968, 3910.972
967.6790, 3908.514
968.1611, 3902.935
968.6432, 3893.002
969.1253, 3887.078
969.6074, 3891.725
970.0895, 3905.196
970.5717, 3908.622
971.0538, 3902.508
971.5359, 3896.822
972.0180, 3898.431
972.5001, 3902.405
972.9822, 3905.335
973.4644, 3907.109
973.9465, 3907.292
974.4286, 3899.766
974.9107, 3901.424
975.3928, 3918.814
975.8749, 3941.563
976.3571, 3951.283
976.8392, 3949.771
977.3213, 3943.734
977.8034, 3932.707
978.2855, 3925.223
978.7676, 3934.767
979.2498, 3946.549
979.7319, 3942.609
980.2140, 3911.599
980.6961, 3903.546
981.1782, 3925.355
981.6603, 3950.302
982.1425, 3957.619
982.6246, 3952.800
983.1067, 3951.787
983.5888, 3953.887
984.0709, 3951.792
984.5530, 3935.308
985.0352, 3920.218
985.5173, 3915.867
985.9994, 3919.136
986.4815, 3919.567
986.9636, 3915.809
987.4457, 3919.782
987.9279, 3939.014
988.4100, 3957.825
988.8921, 3944.648
989.3742, 3916.899
989.8563, 3907.020
990.3384, 3934.371
990.8206, 3958.611
991.3027, 3967.063
991.7848, 3971.354
992.2669, 3981.987
992.7490, 3999.491
993.2311, 4002.272
993.7133, 3989.107
994.1954, 3977.217
994.6775, 3987.679
995.1596, 3999.895
995.6417, 3988.393
996.1238, 3955.721
996.6060, 3938.720
997.0881, 3953.677
997.5702, 3965.300
998.0523, 3962.744
998.5344, 3952.403
999.0165, 3949.886
999.4987, 3953.747
999.9808, 3958.225
1000.463, 3962.863
1000.945, 3964.425
1001.427, 3956.409
1001.909, 3946.395
1002.391, 3943.592
1002.873, 3950.682
1003.356, 3958.324
1003.838, 3966.577
1004.320, 3975.191
1004.802, 3988.092
1005.284, 3999.677
1005.766, 3994.373
1006.248, 3973.673
1006.730, 3959.578
1007.213, 3965.475
1007.695, 3976.698
1008.177, 3990.009
1008.659, 4003.109
1009.141, 4004.874
1009.623, 3994.906
1010.105, 3993.135
1010.587, 4009.888
1011.069, 4028.667
1011.552, 4029.176
1012.034, 4020.330
1012.516, 4015.273
1012.998, 4022.475
1013.480, 4022.810
1013.962, 4011.566
1014.444, 4000.479
1014.926, 4002.244
1015.409, 4013.657
1015.891, 4017.388
1016.373, 4013.432
1016.855, 4009.395
1017.337, 4012.267
1017.819, 4014.585
1018.301, 4008.887
1018.783, 3998.013
1019.265, 3997.437
1019.748, 4010.413
1020.230, 4019.813
1020.712, 4020.658
1021.194, 4016.855
1021.676, 4011.382
1022.158, 4006.200
1022.640, 4005.369
1023.122, 4011.724
1023.604, 4017.756
1024.087, 4018.529
1024.569, 4021.219
1025.051, 4032.429
1025.533, 4052.096
1026.015, 4067.618
1026.497, 4078.939
1026.979, 4081.734
1027.461, 4063.548
1027.943, 4043.882
1028.426, 4040.521
1028.908, 4050.106
1029.390, 4056.265
1029.872, 4058.547
1030.354, 4055.819
1030.836, 4046.677
1031.318, 4034.824
1031.800, 4023.007
1032.283, 4013.836
1032.765, 4014.782
1033.247, 4029.844
1033.729, 4044.685
1034.211, 4054.373
1034.693, 4060.342
1035.175, 4063.969
1035.657, 4065.256
1036.140, 4059.777
1036.622, 4047.213
1037.104, 4039.707
1037.586, 4035.145
1038.068, 4046.906
1038.550, 4117.086
1039.032, 4213.146
1039.514, 4249.059
1039.996, 4162.608
1040.479, 4093.372
1040.961, 4052.383
1041.443, 4040.237
1041.925, 4079.094
1042.407, 4146.595
1042.889, 4171.508
1043.371, 4140.505
1043.853, 4111.333
1044.335, 4120.354
1044.818, 4136.852
1045.300, 4142.353
1045.782, 4137.746
1046.264, 4135.438
1046.746, 4135.596
1047.228, 4133.972
1047.710, 4128.387
1048.192, 4120.335
1048.675, 4106.700
1049.157, 4093.051
1049.639, 4088.923
1050.121, 4111.998
1050.603, 4120.593
1051.085, 4107.266
1051.567, 4091.489
1052.049, 4097.513
1052.531, 4116.831
1053.014, 4114.094
1053.496, 4089.540
1053.978, 4074.218
1054.460, 4097.653
1054.942, 4123.189
1055.424, 4126.443
1055.906, 4117.614
1056.388, 4134.073
1056.870, 4179.156
1057.353, 4205.851
1057.835, 4198.211
1058.317, 4178.764
1058.799, 4158.652
1059.281, 4148.580
1059.763, 4167.089
1060.245, 4235.842
1060.727, 4272.283
1061.210, 4257.469
1061.692, 4243.069
1062.174, 4267.886
1062.656, 4316.909
1063.138, 4339.587
1063.620, 4341.573
1064.102, 4347.463
1064.584, 4373.274
1065.067, 4400.772
1065.549, 4421.586
1066.031, 4441.360
1066.513, 4466.247
1066.995, 4495.920
1067.477, 4545.473
1067.959, 4619.611
1068.441, 4686.276
1068.923, 4704.281
1069.406, 4709.287
1069.888, 4734.045
1070.370, 4782.084
1070.852, 4834.796
1071.334, 4897.725
1071.816, 4945.546
1072.298, 4962.628
1072.780, 4966.894
1073.262, 4996.273
1073.745, 5039.563
1074.227, 5070.939
1074.709, 5082.349
1075.191, 5082.009
1075.673, 5073.562
1076.155, 5052.965
1076.637, 5014.883
1077.119, 4959.826
1077.601, 4896.857
1078.084, 4826.208
1078.566, 4759.685
1079.048, 4707.308
1079.530, 4659.056
1080.012, 4606.026
1080.494, 4552.187
1080.976, 4508.658
1081.458, 4476.454
1081.941, 4449.953
1082.423, 4429.614
1082.905, 4409.518
1083.387, 4379.583
1083.869, 4347.193
1084.351, 4323.957
1084.833, 4312.321
1085.315, 4296.367
1085.797, 4261.184
1086.280, 4244.150
1086.762, 4272.037
1087.244, 4318.722
1087.726, 4301.917
1088.208, 4239.040
1088.690, 4189.989
1089.172, 4179.543
1089.654, 4180.321
1090.136, 4185.485
1090.619, 4192.875
1091.101, 4202.219
1091.583, 4214.412
1092.065, 4214.903
1092.547, 4203.535
1093.029, 4192.350
1093.511, 4189.319
1093.993, 4190.535
1094.476, 4198.096
1094.958, 4207.237
1095.440, 4200.973
1095.922, 4167.672
1096.404, 4154.505
1096.886, 4172.036
1097.368, 4198.283
1097.850, 4207.848
1098.333, 4207.405
1098.815, 4206.512
1099.297, 4206.332
1099.779, 4205.583
1100.261, 4203.938
1100.743, 4201.029
1101.225, 4195.144
1101.707, 4188.980
1102.189, 4191.271
1102.672, 4200.217
1103.154, 4210.250
1103.636, 4223.024
1104.118, 4228.203
1104.600, 4212.906
1105.082, 4194.119
1105.564, 4187.508
1106.046, 4194.025
1106.528, 4190.119
1107.011, 4176.005
1107.493, 4162.735
1107.975, 4155.751
1108.457, 4154.213
1108.939, 4160.134
1109.421, 4170.663
1109.903, 4179.101
1110.385, 4184.441
1110.868, 4190.419
1111.350, 4198.095
1111.832, 4202.814
1112.314, 4188.064
1112.796, 4173.589
1113.278, 4195.804
1113.760, 4254.241
1114.242, 4290.742
1114.724, 4283.274
1115.207, 4269.397
1115.689, 4256.018
1116.171, 4244.755
1116.653, 4240.917
1117.135, 4241.679
1117.617, 4237.906
1118.099, 4224.815
1118.581, 4219.252
1119.063, 4241.327
1119.546, 4259.500
1120.028, 4253.003
1120.510, 4226.806
1120.992, 4216.305
1121.474, 4220.237
1121.956, 4228.343
1122.438, 4241.675
1122.920, 4249.720
1123.403, 4239.342
1123.885, 4223.714
1124.367, 4220.503
1124.849, 4233.111
1125.331, 4239.042
1125.813, 4237.417
1126.295, 4235.589
1126.777, 4241.940
1127.260, 4248.395
1127.742, 4245.179
1128.224, 4235.127
1128.706, 4229.256
1129.188, 4227.652
1129.670, 4232.795
1130.152, 4246.971
1130.634, 4261.479
1131.116, 4262.340
1131.599, 4258.093
1132.081, 4264.833
1132.563, 4284.295
1133.045, 4292.526
1133.527, 4273.547
1134.009, 4261.351
1134.491, 4268.053
1134.973, 4284.879
1135.455, 4295.429
1135.938, 4300.639
1136.420, 4302.846
1136.902, 4301.486
1137.384, 4301.003
1137.866, 4303.321
1138.348, 4306.890
1138.830, 4311.741
1139.312, 4317.292
1139.795, 4319.378
1140.277, 4318.278
1140.759, 4315.316
1141.241, 4311.631
1141.723, 4305.697
1142.205, 4287.843
1142.687, 4273.627
1143.169, 4284.375
1143.651, 4324.290
1144.134, 4338.281
1144.616, 4325.021
1145.098, 4304.875
1145.580, 4281.236
1146.062, 4266.728
1146.544, 4275.556
1147.026, 4300.918
1147.508, 4324.657
1147.990, 4349.780
1148.473, 4353.841
1148.955, 4330.330
1149.437, 4306.406
1149.919, 4312.329
1150.401, 4329.515
1150.883, 4338.182
1151.365, 4337.217
1151.847, 4337.391
1152.330, 4340.129
1152.812, 4341.280
1153.294, 4338.883
1153.776, 4336.522
1154.258, 4342.303
1154.740, 4350.474
1155.222, 4349.034
1155.704, 4331.832
1156.186, 4333.007
1156.669, 4369.536
1157.151, 4396.288
1157.633, 4390.664
1158.115, 4366.173
1158.597, 4348.577
1159.079, 4338.118
1159.561, 4335.778
1160.043, 4345.118
1160.526, 4355.605
1161.008, 4364.076
1161.490, 4374.438
1161.972, 4396.231
1162.454, 4421.951
1162.936, 4403.369
1163.418, 4352.808
1163.900, 4326.785
1164.382, 4379.054
1164.865, 4425.495
1165.347, 4444.377
1165.829, 4443.325
1166.311, 4418.979
1166.793, 4375.945
1167.275, 4370.527
1167.757, 4402.392
1168.239, 4432.917
1168.721, 4436.308
1169.204, 4434.469
1169.686, 4434.787
1170.168, 4438.630
1170.650, 4450.923
1171.132, 4471.449
1171.614, 4481.575
1172.096, 4478.264
1172.578, 4477.857
1173.061, 4498.692
1173.543, 4521.676
1174.025, 4532.591
1174.507, 4533.612
1174.989, 4531.782
1175.471, 4526.800
1175.953, 4524.297
1176.435, 4524.955
1176.917, 4531.263
1177.400, 4552.339
1177.882, 4575.475
1178.364, 4587.633
1178.846, 4588.883
1179.328, 4590.130
1179.810, 4590.857
1180.292, 4598.950
1180.774, 4619.274
1181.256, 4644.274
1181.739, 4669.576
1182.221, 4692.317
1182.703, 4707.892
1183.185, 4713.309
1183.667, 4726.017
1184.149, 4746.812
1184.631, 4769.037
1185.113, 4789.091
1185.596, 4808.099
1186.078, 4829.435
1186.560, 4849.766
1187.042, 4862.535
1187.524, 4858.152
1188.006, 4869.008
1188.488, 4900.572
1188.970, 4924.104
1189.453, 4911.164
1189.935, 4881.541
1190.417, 4854.214
1190.899, 4832.912
1191.381, 4828.691
1191.863, 4862.057
1192.345, 4869.831
1192.827, 4842.107
1193.309, 4807.321
1193.792, 4794.676
1194.274, 4792.777
1194.756, 4786.521
1195.238, 4775.411
1195.720, 4761.688
1196.202, 4745.421
1196.684, 4726.328
1197.166, 4702.268
1197.648, 4681.138
1198.131, 4676.507
1198.613, 4679.596
1199.095, 4672.487
1199.577, 4654.467
1200.059, 4652.023
1200.541, 4681.144
1201.023, 4703.899
1201.505, 4712.500
1201.988, 4708.174
1202.470, 4690.973
1202.952, 4662.974
1203.434, 4620.109
1203.916, 4557.585
1204.398, 4532.911
1204.880, 4577.461
1205.362, 4613.600
1205.844, 4610.792
1206.327, 4590.319
1206.809, 4593.293
1207.291, 4609.914
1207.773, 4619.056
1208.255, 4612.211
1208.737, 4615.134
1209.219, 4636.419
1209.701, 4657.589
1210.183, 4672.553
1210.666, 4679.090
1211.148, 4667.666
1211.630, 4644.154
1212.112, 4619.843
1212.594, 4587.899
1213.076, 4583.278
1213.558, 4621.765
1214.040, 4660.266
1214.523, 4670.665
1215.005, 4662.726
1215.487, 4660.878
1215.969, 4661.323
1216.451, 4653.885
1216.933, 4622.366
1217.415, 4605.024
1217.897, 4607.856
1218.380, 4618.890
1218.862, 4630.926
1219.344, 4643.399
1219.826, 4655.270
1220.308, 4665.987
1220.790, 4673.893
1221.272, 4673.952
1221.754, 4678.151
1222.236, 4690.093
1222.719, 4700.967
1223.201, 4699.180
1223.683, 4691.438
1224.165, 4697.333
1224.647, 4712.353
1225.129, 4714.657
1225.611, 4679.446
1226.093, 4656.485
1226.575, 4651.797
1227.058, 4658.775
1227.540, 4678.257
1228.022, 4700.665
1228.504, 4702.208
1228.986, 4685.815
1229.468, 4680.381
1229.950, 4704.097
1230.432, 4720.510
1230.915, 4722.475
1231.397, 4719.976
1231.879, 4724.994
1232.361, 4734.686
1232.843, 4746.086
1233.325, 4758.259
1233.807, 4764.219
1234.289, 4761.830
1234.771, 4754.824
1235.254, 4741.948
1235.736, 4729.900
1236.218, 4731.134
1236.700, 4737.755
1237.182, 4736.544
1237.664, 4726.095
1238.146, 4720.644
1238.628, 4721.889
1239.110, 4726.965
1239.593, 4736.307
1240.075, 4745.915
1240.557, 4746.464
1241.039, 4745.450
1241.521, 4755.041
1242.003, 4777.643
1242.485, 4792.597
1242.967, 4798.646
1243.449, 4798.990
1243.932, 4794.374
1244.414, 4785.302
1244.896, 4762.792
1245.378, 4741.607
1245.860, 4744.325
1246.342, 4778.177
1246.824, 4795.708
1247.306, 4794.264
1247.789, 4792.144
1248.271, 4798.004
1248.753, 4801.716
1249.235, 4785.011
1249.717, 4763.022
1250.199, 4755.909
1250.681, 4766.586
1251.163, 4768.475
1251.646, 4760.084
1252.128, 4760.576
1252.610, 4784.842
1253.092, 4806.900
1253.574, 4791.941
1254.056, 4766.583
1254.538, 4762.873
1255.020, 4781.999
1255.502, 4805.106
1255.984, 4832.142
1256.467, 4844.650
1256.949, 4824.387
1257.431, 4803.890
1257.913, 4816.420
1258.395, 4835.175
1258.877, 4825.469
1259.359, 4786.542
1259.841, 4804.418
1260.324, 4873.181
1260.806, 4917.758
1261.288, 4878.913
1261.770, 4840.759
1262.252, 4863.191
1262.734, 4898.166
1263.216, 4901.904
1263.698, 4877.040
1264.181, 4865.442
1264.663, 4864.329
1265.145, 4856.538
1265.627, 4819.204
1266.109, 4793.607
1266.591, 4800.597
1267.073, 4819.048
1267.555, 4836.580
1268.037, 4852.185
1268.520, 4858.044
1269.002, 4855.641
1269.484, 4850.965
1269.966, 4842.427
1270.448, 4838.245
1270.930, 4840.062
1271.412, 4845.322
1271.894, 4854.874
1272.376, 4865.448
1272.859, 4865.773
1273.341, 4858.186
1273.823, 4851.140
1274.305, 4844.581
1274.787, 4843.432
1275.269, 4847.634
1275.751, 4857.697
1276.233, 4882.657
1276.716, 4908.784
1277.198, 4904.518
1277.680, 4880.883
1278.162, 4872.192
1278.644, 4898.958
1279.126, 4909.158
1279.608, 4898.161
1280.090, 4880.291
1280.573, 4860.685
1281.055, 4846.329
1281.537, 4846.621
1282.019, 4858.592
1282.501, 4873.946
1282.983, 4892.490
1283.465, 4912.503
1283.947, 4934.358
1284.429, 4950.995
1284.911, 4950.825
1285.394, 4949.388
1285.876, 4966.092
1286.358, 4987.080
1286.840, 4983.726
1287.322, 4954.125
1287.804, 4930.298
1288.286, 4914.203
1288.768, 4907.637
1289.251, 4919.259
1289.733, 4932.444
1290.215, 4942.100
1290.697, 4945.698
1291.179, 4934.485
1291.661, 4912.213
1292.143, 4908.573
1292.625, 4923.348
1293.108, 4937.561
1293.590, 4941.856
1294.072, 4942.603
1294.554, 4941.398
1295.036, 4940.630
1295.518, 4943.523
1296.000, 4947.341
1296.482, 4938.658
1296.964, 4921.500
1297.447, 4919.836
##END=



