##NAMES=Cristobalite
##RRUFFID=R060648
##IDEAL CHEMISTRY=SiO_2_
##LOCALITY=Idaho, USA
##OWNER=RRUFF
##SOURCE=Gemological Institute of America
##DESCRIPTION=Blue cryptocrystalline massive, variety opal
##STATUS=The identification of this mineral has been confirmed by X-ray diffraction and chemical analysis
##URL=rruff.info/R060648
##MEASURED CHEMISTRY=Si_1.00_O_2_
9.059570e+001, 6.102558e+002
9.107782e+001, 6.041563e+002
9.155994e+001, 6.020170e+002
9.204205e+001, 6.067385e+002
9.252417e+001, 6.134539e+002
9.300629e+001, 6.206476e+002
9.348840e+001, 6.245187e+002
9.397052e+001, 6.210583e+002
9.445264e+001, 6.089348e+002
9.493475e+001, 5.961876e+002
9.541687e+001, 5.838693e+002
9.589898e+001, 5.722148e+002
9.638110e+001, 5.614028e+002
9.686321e+001, 5.515464e+002
9.734533e+001, 5.422786e+002
9.782745e+001, 5.325806e+002
9.830956e+001, 5.242681e+002
9.879168e+001, 5.168947e+002
9.927380e+001, 5.110032e+002
9.975591e+001, 5.070302e+002
1.002380e+002, 5.045048e+002
1.007201e+002, 5.024087e+002
1.012023e+002, 5.001571e+002
1.016844e+002, 4.978592e+002
1.021665e+002, 4.958926e+002
1.026486e+002, 4.939052e+002
1.031307e+002, 4.923660e+002
1.036128e+002, 4.916518e+002
1.040950e+002, 4.917095e+002
1.045771e+002, 4.926196e+002
1.050592e+002, 4.941151e+002
1.055413e+002, 4.963080e+002
1.060234e+002, 4.996714e+002
1.065055e+002, 5.046810e+002
1.069877e+002, 5.110435e+002
1.074698e+002, 5.176653e+002
1.079519e+002, 5.246085e+002
1.084340e+002, 5.317278e+002
1.089161e+002, 5.385399e+002
1.093982e+002, 5.453799e+002
1.098804e+002, 5.529496e+002
1.103625e+002, 5.619152e+002
1.108446e+002, 5.723497e+002
1.113267e+002, 5.836337e+002
1.118088e+002, 5.977999e+002
1.122909e+002, 6.111598e+002
1.127731e+002, 6.234350e+002
1.132552e+002, 6.337956e+002
1.137373e+002, 6.402991e+002
1.142194e+002, 6.400675e+002
1.147015e+002, 6.307049e+002
1.151836e+002, 6.172286e+002
1.156658e+002, 5.982775e+002
1.161479e+002, 5.760643e+002
1.166300e+002, 5.518942e+002
1.171121e+002, 5.260042e+002
1.175942e+002, 4.997665e+002
1.180763e+002, 4.767407e+002
1.185584e+002, 4.566519e+002
1.190406e+002, 4.390034e+002
1.195227e+002, 4.240668e+002
1.200048e+002, 4.115582e+002
1.204869e+002, 4.006899e+002
1.209690e+002, 3.914694e+002
1.214511e+002, 3.837011e+002
1.219333e+002, 3.763824e+002
1.224154e+002, 3.692895e+002
1.228975e+002, 3.630087e+002
1.233796e+002, 3.585054e+002
1.238617e+002, 3.559837e+002
1.243438e+002, 3.533783e+002
1.248260e+002, 3.494701e+002
1.253081e+002, 3.450671e+002
1.257902e+002, 3.407785e+002
1.262723e+002, 3.367808e+002
1.267544e+002, 3.331053e+002
1.272365e+002, 3.298710e+002
1.277187e+002, 3.270899e+002
1.282008e+002, 3.248002e+002
1.286829e+002, 3.232805e+002
1.291650e+002, 3.221028e+002
1.296471e+002, 3.206580e+002
1.301292e+002, 3.184765e+002
1.306114e+002, 3.156500e+002
1.310935e+002, 3.135287e+002
1.315756e+002, 3.132852e+002
1.320577e+002, 3.126457e+002
1.325398e+002, 3.107537e+002
1.330219e+002, 3.079401e+002
1.335041e+002, 3.051273e+002
1.339862e+002, 3.031435e+002
1.344683e+002, 3.021708e+002
1.349504e+002, 3.008039e+002
1.354325e+002, 2.984033e+002
1.359146e+002, 2.961825e+002
1.363968e+002, 2.949341e+002
1.368789e+002, 2.946918e+002
1.373610e+002, 2.948803e+002
1.378431e+002, 2.949207e+002
1.383252e+002, 2.947997e+002
1.388073e+002, 2.944917e+002
1.392895e+002, 2.938630e+002
1.397716e+002, 2.930955e+002
1.402537e+002, 2.924673e+002
1.407358e+002, 2.920985e+002
1.412179e+002, 2.916425e+002
1.417000e+002, 2.905494e+002
1.421821e+002, 2.888878e+002
1.426643e+002, 2.872026e+002
1.431464e+002, 2.856351e+002
1.436285e+002, 2.842042e+002
1.441106e+002, 2.829697e+002
1.445927e+002, 2.819713e+002
1.450748e+002, 2.811779e+002
1.455570e+002, 2.805597e+002
1.460391e+002, 2.801147e+002
1.465212e+002, 2.797056e+002
1.470033e+002, 2.792178e+002
1.474854e+002, 2.786427e+002
1.479675e+002, 2.780636e+002
1.484497e+002, 2.775292e+002
1.489318e+002, 2.769662e+002
1.494139e+002, 2.763483e+002
1.498960e+002, 2.756687e+002
1.503781e+002, 2.748976e+002
1.508602e+002, 2.739472e+002
1.513424e+002, 2.725925e+002
1.518245e+002, 2.715531e+002
1.523066e+002, 2.709704e+002
1.527887e+002, 2.706133e+002
1.532708e+002, 2.703228e+002
1.537529e+002, 2.700372e+002
1.542351e+002, 2.697645e+002
1.547172e+002, 2.695290e+002
1.551993e+002, 2.694833e+002
1.556814e+002, 2.692824e+002
1.561635e+002, 2.687946e+002
1.566456e+002, 2.681789e+002
1.571278e+002, 2.676616e+002
1.576099e+002, 2.673659e+002
1.580920e+002, 2.671925e+002
1.585741e+002, 2.667020e+002
1.590562e+002, 2.653344e+002
1.595383e+002, 2.643123e+002
1.600205e+002, 2.641828e+002
1.605026e+002, 2.646443e+002
1.609847e+002, 2.649757e+002
1.614668e+002, 2.647170e+002
1.619489e+002, 2.640374e+002
1.624310e+002, 2.637310e+002
1.629131e+002, 2.642168e+002
1.633953e+002, 2.646491e+002
1.638774e+002, 2.644729e+002
1.643595e+002, 2.637396e+002
1.648416e+002, 2.629384e+002
1.653237e+002, 2.622668e+002
1.658058e+002, 2.617761e+002
1.662880e+002, 2.615438e+002
1.667701e+002, 2.616761e+002
1.672522e+002, 2.619936e+002
1.677343e+002, 2.623621e+002
1.682164e+002, 2.628215e+002
1.686985e+002, 2.631381e+002
1.691807e+002, 2.630198e+002
1.696628e+002, 2.627108e+002
1.701449e+002, 2.624884e+002
1.706270e+002, 2.624160e+002
1.711091e+002, 2.625171e+002
1.715912e+002, 2.629325e+002
1.720734e+002, 2.639928e+002
1.725555e+002, 2.647379e+002
1.730376e+002, 2.646523e+002
1.735197e+002, 2.641064e+002
1.740018e+002, 2.636025e+002
1.744839e+002, 2.634081e+002
1.749661e+002, 2.635010e+002
1.754482e+002, 2.637601e+002
1.759303e+002, 2.643549e+002
1.764124e+002, 2.649420e+002
1.768945e+002, 2.653924e+002
1.773766e+002, 2.657711e+002
1.778588e+002, 2.661912e+002
1.783409e+002, 2.667359e+002
1.788230e+002, 2.674071e+002
1.793051e+002, 2.681356e+002
1.797872e+002, 2.690163e+002
1.802693e+002, 2.698609e+002
1.807515e+002, 2.705567e+002
1.812336e+002, 2.711573e+002
1.817157e+002, 2.718044e+002
1.821978e+002, 2.726335e+002
1.826799e+002, 2.736764e+002
1.831620e+002, 2.745669e+002
1.836441e+002, 2.752189e+002
1.841263e+002, 2.758299e+002
1.846084e+002, 2.763932e+002
1.850905e+002, 2.769622e+002
1.855726e+002, 2.777231e+002
1.860547e+002, 2.788834e+002
1.865368e+002, 2.805180e+002
1.870190e+002, 2.819699e+002
1.875011e+002, 2.831592e+002
1.879832e+002, 2.842229e+002
1.884653e+002, 2.851938e+002
1.889474e+002, 2.860833e+002
1.894296e+002, 2.870396e+002
1.899117e+002, 2.882270e+002
1.903938e+002, 2.896421e+002
1.908759e+002, 2.910885e+002
1.913580e+002, 2.924016e+002
1.918401e+002, 2.937970e+002
1.923223e+002, 2.955978e+002
1.928044e+002, 2.979019e+002
1.932865e+002, 3.003066e+002
1.937686e+002, 3.024538e+002
1.942507e+002, 3.044007e+002
1.947328e+002, 3.062438e+002
1.952150e+002, 3.078684e+002
1.956971e+002, 3.094359e+002
1.961792e+002, 3.112699e+002
1.966613e+002, 3.134176e+002
1.971434e+002, 3.157989e+002
1.976255e+002, 3.185000e+002
1.981077e+002, 3.214018e+002
1.985898e+002, 3.241334e+002
1.990719e+002, 3.262228e+002
1.995540e+002, 3.279249e+002
2.000361e+002, 3.303727e+002
2.005182e+002, 3.340590e+002
2.010004e+002, 3.378953e+002
2.014825e+002, 3.411795e+002
2.019646e+002, 3.441064e+002
2.024467e+002, 3.471333e+002
2.029288e+002, 3.506185e+002
2.034109e+002, 3.545396e+002
2.038930e+002, 3.583878e+002
2.043752e+002, 3.619148e+002
2.048573e+002, 3.656288e+002
2.053394e+002, 3.697630e+002
2.058215e+002, 3.742212e+002
2.063036e+002, 3.787689e+002
2.067857e+002, 3.830980e+002
2.072679e+002, 3.871622e+002
2.077500e+002, 3.919312e+002
2.082321e+002, 3.980721e+002
2.087142e+002, 4.043608e+002
2.091963e+002, 4.104421e+002
2.096784e+002, 4.163295e+002
2.101606e+002, 4.221708e+002
2.106427e+002, 4.280697e+002
2.111248e+002, 4.339507e+002
2.116069e+002, 4.402559e+002
2.120890e+002, 4.469611e+002
2.125711e+002, 4.540370e+002
2.130533e+002, 4.617847e+002
2.135354e+002, 4.699771e+002
2.140175e+002, 4.780328e+002
2.144996e+002, 4.852985e+002
2.149817e+002, 4.915049e+002
2.154638e+002, 4.990167e+002
2.159460e+002, 5.083060e+002
2.164281e+002, 5.181669e+002
2.169102e+002, 5.283179e+002
2.173923e+002, 5.385745e+002
2.178744e+002, 5.487120e+002
2.183565e+002, 5.583914e+002
2.188387e+002, 5.675060e+002
2.193208e+002, 5.773101e+002
2.198029e+002, 5.880547e+002
2.202850e+002, 5.992264e+002
2.207671e+002, 6.105906e+002
2.212492e+002, 6.221135e+002
2.217314e+002, 6.338040e+002
2.222135e+002, 6.456827e+002
2.226956e+002, 6.577665e+002
2.231777e+002, 6.699310e+002
2.236598e+002, 6.823049e+002
2.241419e+002, 6.946799e+002
2.246240e+002, 7.069694e+002
2.251062e+002, 7.191679e+002
2.255883e+002, 7.310217e+002
2.260704e+002, 7.426127e+002
2.265525e+002, 7.536534e+002
2.270346e+002, 7.630890e+002
2.275167e+002, 7.703401e+002
2.279989e+002, 7.762532e+002
2.284810e+002, 7.816092e+002
2.289631e+002, 7.864598e+002
2.294452e+002, 7.901537e+002
2.299273e+002, 7.924182e+002
2.304094e+002, 7.930201e+002
2.308916e+002, 7.913497e+002
2.313737e+002, 7.866625e+002
2.318558e+002, 7.799866e+002
2.323379e+002, 7.725364e+002
2.328200e+002, 7.644094e+002
2.333021e+002, 7.548381e+002
2.337843e+002, 7.427579e+002
2.342664e+002, 7.289008e+002
2.347485e+002, 7.141219e+002
2.352306e+002, 6.983887e+002
2.357127e+002, 6.820250e+002
2.361948e+002, 6.652288e+002
2.366770e+002, 6.477596e+002
2.371591e+002, 6.304555e+002
2.376412e+002, 6.136720e+002
2.381233e+002, 5.972416e+002
2.386054e+002, 5.808380e+002
2.390875e+002, 5.642017e+002
2.395697e+002, 5.477709e+002
2.400518e+002, 5.323167e+002
2.405339e+002, 5.178127e+002
2.410160e+002, 5.042041e+002
2.414981e+002, 4.919073e+002
2.419802e+002, 4.802530e+002
2.424624e+002, 4.686034e+002
2.429445e+002, 4.567104e+002
2.434266e+002, 4.449600e+002
2.439087e+002, 4.339923e+002
2.443908e+002, 4.238791e+002
2.448729e+002, 4.144453e+002
2.453550e+002, 4.053976e+002
2.458372e+002, 3.970740e+002
2.463193e+002, 3.900025e+002
2.468014e+002, 3.843942e+002
2.472835e+002, 3.795651e+002
2.477656e+002, 3.742412e+002
2.482477e+002, 3.681867e+002
2.487299e+002, 3.622169e+002
2.492120e+002, 3.561182e+002
2.496941e+002, 3.503652e+002
2.501762e+002, 3.454667e+002
2.506583e+002, 3.415494e+002
2.511404e+002, 3.381577e+002
2.516226e+002, 3.344719e+002
2.521047e+002, 3.302703e+002
2.525868e+002, 3.263319e+002
2.530689e+002, 3.227350e+002
2.535510e+002, 3.193724e+002
2.540331e+002, 3.161869e+002
2.545153e+002, 3.131600e+002
2.549974e+002, 3.102394e+002
2.554795e+002, 3.072745e+002
2.559616e+002, 3.040135e+002
2.564437e+002, 3.013249e+002
2.569258e+002, 2.993620e+002
2.574080e+002, 2.977529e+002
2.578901e+002, 2.963343e+002
2.583722e+002, 2.950387e+002
2.588543e+002, 2.937887e+002
2.593364e+002, 2.924922e+002
2.598185e+002, 2.911812e+002
2.603007e+002, 2.897239e+002
2.607828e+002, 2.878418e+002
2.612649e+002, 2.860406e+002
2.617470e+002, 2.846525e+002
2.622291e+002, 2.836936e+002
2.627112e+002, 2.829769e+002
2.631934e+002, 2.823135e+002
2.636755e+002, 2.817792e+002
2.641576e+002, 2.809941e+002
2.646397e+002, 2.795340e+002
2.651218e+002, 2.782237e+002
2.656039e+002, 2.776594e+002
2.660861e+002, 2.777646e+002
2.665682e+002, 2.779718e+002
2.670503e+002, 2.777137e+002
2.675324e+002, 2.768900e+002
2.680145e+002, 2.762336e+002
2.684966e+002, 2.756920e+002
2.689788e+002, 2.753225e+002
2.694609e+002, 2.752868e+002
2.699430e+002, 2.754886e+002
2.704251e+002, 2.756270e+002
2.709072e+002, 2.754554e+002
2.713893e+002, 2.749655e+002
2.718715e+002, 2.743976e+002
2.723536e+002, 2.737216e+002
2.728357e+002, 2.730170e+002
2.733178e+002, 2.722714e+002
2.737999e+002, 2.715194e+002
2.742820e+002, 2.708631e+002
2.747642e+002, 2.703943e+002
2.752463e+002, 2.700839e+002
2.757284e+002, 2.695771e+002
2.762105e+002, 2.689379e+002
2.766926e+002, 2.680907e+002
2.771747e+002, 2.668969e+002
2.776568e+002, 2.654686e+002
2.781389e+002, 2.640299e+002
2.786211e+002, 2.626823e+002
2.791032e+002, 2.614451e+002
2.795853e+002, 2.604143e+002
2.800674e+002, 2.596560e+002
2.805495e+002, 2.589743e+002
2.810316e+002, 2.583047e+002
2.815138e+002, 2.576815e+002
2.819959e+002, 2.571937e+002
2.824780e+002, 2.569000e+002
2.829601e+002, 2.567003e+002
2.834422e+002, 2.563026e+002
2.839243e+002, 2.553686e+002
2.844065e+002, 2.548802e+002
2.848886e+002, 2.553463e+002
2.853707e+002, 2.562990e+002
2.858528e+002, 2.571087e+002
2.863349e+002, 2.575868e+002
2.868170e+002, 2.577731e+002
2.872992e+002, 2.577834e+002
2.877813e+002, 2.578207e+002
2.882634e+002, 2.570649e+002
2.887455e+002, 2.550607e+002
2.892276e+002, 2.523208e+002
2.897097e+002, 2.493225e+002
2.901919e+002, 2.461547e+002
2.906740e+002, 2.430871e+002
2.911561e+002, 2.403956e+002
2.916382e+002, 2.381002e+002
2.921203e+002, 2.361900e+002
2.926024e+002, 2.348950e+002
2.930846e+002, 2.338572e+002
2.935667e+002, 2.327212e+002
2.940488e+002, 2.314378e+002
2.945309e+002, 2.302009e+002
2.950130e+002, 2.291859e+002
2.954951e+002, 2.284076e+002
2.959773e+002, 2.277076e+002
2.964594e+002, 2.269120e+002
2.969415e+002, 2.263143e+002
2.974236e+002, 2.263801e+002
2.979057e+002, 2.270373e+002
2.983878e+002, 2.274263e+002
2.988700e+002, 2.268503e+002
2.993521e+002, 2.254461e+002
2.998342e+002, 2.243570e+002
3.003163e+002, 2.239130e+002
3.007984e+002, 2.234847e+002
3.012805e+002, 2.225965e+002
3.017627e+002, 2.213593e+002
3.022448e+002, 2.202986e+002
3.027269e+002, 2.197418e+002
3.032090e+002, 2.195098e+002
3.036911e+002, 2.190410e+002
3.041732e+002, 2.182359e+002
3.046554e+002, 2.173858e+002
3.051375e+002, 2.166015e+002
3.056196e+002, 2.158709e+002
3.061017e+002, 2.151444e+002
3.065838e+002, 2.143811e+002
3.070659e+002, 2.136607e+002
3.075481e+002, 2.131665e+002
3.080302e+002, 2.129256e+002
3.085123e+002, 2.127251e+002
3.089944e+002, 2.126639e+002
3.094765e+002, 2.125667e+002
3.099586e+002, 2.120215e+002
3.104408e+002, 2.108424e+002
3.109229e+002, 2.095618e+002
3.114050e+002, 2.089622e+002
3.118871e+002, 2.090470e+002
3.123692e+002, 2.091051e+002
3.128513e+002, 2.089787e+002
3.133335e+002, 2.087617e+002
3.138156e+002, 2.085534e+002
3.142977e+002, 2.083668e+002
3.147798e+002, 2.081975e+002
3.152619e+002, 2.080526e+002
3.157440e+002, 2.079267e+002
3.162262e+002, 2.077640e+002
3.167083e+002, 2.075116e+002
3.171904e+002, 2.072542e+002
3.176725e+002, 2.070464e+002
3.181546e+002, 2.068919e+002
3.186367e+002, 2.068254e+002
3.191188e+002, 2.069558e+002
3.196010e+002, 2.071771e+002
3.200831e+002, 2.070466e+002
3.205652e+002, 2.060861e+002
3.210473e+002, 2.052577e+002
3.215294e+002, 2.053073e+002
3.220115e+002, 2.059855e+002
3.224937e+002, 2.063815e+002
3.229758e+002, 2.060109e+002
3.234579e+002, 2.051694e+002
3.239400e+002, 2.046030e+002
3.244221e+002, 2.043107e+002
3.249042e+002, 2.042137e+002
3.253864e+002, 2.044075e+002
3.258685e+002, 2.047607e+002
3.263506e+002, 2.050423e+002
3.268327e+002, 2.051896e+002
3.273148e+002, 2.052129e+002
3.277969e+002, 2.050921e+002
3.282791e+002, 2.048069e+002
3.287612e+002, 2.045390e+002
3.292433e+002, 2.043107e+002
3.297254e+002, 2.041232e+002
3.302075e+002, 2.039781e+002
3.306896e+002, 2.038759e+002
3.311718e+002, 2.038137e+002
3.316539e+002, 2.037881e+002
3.321360e+002, 2.038034e+002
3.326181e+002, 2.038656e+002
3.331002e+002, 2.040684e+002
3.335823e+002, 2.042470e+002
3.340645e+002, 2.041758e+002
3.345466e+002, 2.039042e+002
3.350287e+002, 2.038085e+002
3.355108e+002, 2.041835e+002
3.359929e+002, 2.049695e+002
3.364750e+002, 2.056430e+002
3.369572e+002, 2.063646e+002
3.374393e+002, 2.068324e+002
3.379214e+002, 2.068429e+002
3.384035e+002, 2.065004e+002
3.388856e+002, 2.059836e+002
3.393677e+002, 2.053162e+002
3.398499e+002, 2.046609e+002
3.403320e+002, 2.045267e+002
3.408141e+002, 2.052748e+002
3.412962e+002, 2.058058e+002
3.417783e+002, 2.057025e+002
3.422604e+002, 2.053432e+002
3.427426e+002, 2.052207e+002
3.432247e+002, 2.054760e+002
3.437068e+002, 2.059185e+002
3.441889e+002, 2.062834e+002
3.446710e+002, 2.065046e+002
3.451531e+002, 2.068614e+002
3.456353e+002, 2.074458e+002
3.461174e+002, 2.081024e+002
3.465995e+002, 2.087542e+002
3.470816e+002, 2.093724e+002
3.475637e+002, 2.099085e+002
3.480458e+002, 2.102960e+002
3.485280e+002, 2.105261e+002
3.490101e+002, 2.108342e+002
3.494922e+002, 2.111684e+002
3.499743e+002, 2.116160e+002
3.504564e+002, 2.122915e+002
3.509385e+002, 2.131094e+002
3.514207e+002, 2.139070e+002
3.519028e+002, 2.145995e+002
3.523849e+002, 2.151682e+002
3.528670e+002, 2.155265e+002
3.533491e+002, 2.154130e+002
3.538312e+002, 2.154139e+002
3.543134e+002, 2.154851e+002
3.547955e+002, 2.157517e+002
3.552776e+002, 2.164951e+002
3.557597e+002, 2.177914e+002
3.562418e+002, 2.192148e+002
3.567239e+002, 2.200144e+002
3.572061e+002, 2.196263e+002
3.576882e+002, 2.197652e+002
3.581703e+002, 2.208923e+002
3.586524e+002, 2.221492e+002
3.591345e+002, 2.228267e+002
3.596166e+002, 2.229536e+002
3.600987e+002, 2.231584e+002
3.605808e+002, 2.241358e+002
3.610630e+002, 2.260358e+002
3.615451e+002, 2.272306e+002
3.620272e+002, 2.269648e+002
3.625093e+002, 2.268228e+002
3.629914e+002, 2.273086e+002
3.634735e+002, 2.283126e+002
3.639557e+002, 2.295979e+002
3.644378e+002, 2.310553e+002
3.649199e+002, 2.325864e+002
3.654020e+002, 2.337602e+002
3.658841e+002, 2.342663e+002
3.663662e+002, 2.348205e+002
3.668484e+002, 2.354809e+002
3.673305e+002, 2.362379e+002
3.678126e+002, 2.371428e+002
3.682947e+002, 2.381907e+002
3.687768e+002, 2.392191e+002
3.692589e+002, 2.398988e+002
3.697411e+002, 2.399361e+002
3.702232e+002, 2.404394e+002
3.707053e+002, 2.418862e+002
3.711874e+002, 2.434072e+002
3.716695e+002, 2.445941e+002
3.721516e+002, 2.454204e+002
3.726338e+002, 2.460699e+002
3.731159e+002, 2.466422e+002
3.735980e+002, 2.471426e+002
3.740801e+002, 2.478257e+002
3.745622e+002, 2.488508e+002
3.750443e+002, 2.498728e+002
3.755265e+002, 2.507954e+002
3.760086e+002, 2.516374e+002
3.764907e+002, 2.524263e+002
3.769728e+002, 2.531809e+002
3.774549e+002, 2.538897e+002
3.779370e+002, 2.545216e+002
3.784192e+002, 2.550524e+002
3.789013e+002, 2.555741e+002
3.793834e+002, 2.559478e+002
3.798655e+002, 2.564216e+002
3.803476e+002, 2.572332e+002
3.808297e+002, 2.584270e+002
3.813119e+002, 2.597856e+002
3.817940e+002, 2.611383e+002
3.822761e+002, 2.624865e+002
3.827582e+002, 2.637180e+002
3.832403e+002, 2.646679e+002
3.837224e+002, 2.656852e+002
3.842046e+002, 2.669361e+002
3.846867e+002, 2.684214e+002
3.851688e+002, 2.701710e+002
3.856509e+002, 2.723209e+002
3.861330e+002, 2.747099e+002
3.866151e+002, 2.770418e+002
3.870973e+002, 2.793563e+002
3.875794e+002, 2.814337e+002
3.880615e+002, 2.827150e+002
3.885436e+002, 2.838026e+002
3.890257e+002, 2.856075e+002
3.895078e+002, 2.884626e+002
3.899900e+002, 2.917688e+002
3.904721e+002, 2.950668e+002
3.909542e+002, 2.983761e+002
3.914363e+002, 3.017575e+002
3.919184e+002, 3.052472e+002
3.924005e+002, 3.088011e+002
3.928827e+002, 3.123368e+002
3.933648e+002, 3.158398e+002
3.938469e+002, 3.194603e+002
3.943290e+002, 3.230406e+002
3.948111e+002, 3.268393e+002
3.952932e+002, 3.312658e+002
3.957754e+002, 3.364400e+002
3.962575e+002, 3.420080e+002
3.967396e+002, 3.477404e+002
3.972217e+002, 3.536577e+002
3.977038e+002, 3.598086e+002
3.981859e+002, 3.663142e+002
3.986681e+002, 3.730191e+002
3.991501e+002, 3.797965e+002
3.996323e+002, 3.866893e+002
4.001144e+002, 3.938265e+002
4.005965e+002, 4.012261e+002
4.010786e+002, 4.089756e+002
4.015607e+002, 4.173101e+002
4.020428e+002, 4.266145e+002
4.025250e+002, 4.357379e+002
4.030071e+002, 4.440607e+002
4.034892e+002, 4.522983e+002
4.039713e+002, 4.611298e+002
4.044534e+002, 4.707000e+002
4.049355e+002, 4.810229e+002
4.054177e+002, 4.921618e+002
4.058998e+002, 5.041689e+002
4.063819e+002, 5.165175e+002
4.068640e+002, 5.293759e+002
4.073461e+002, 5.423145e+002
4.078282e+002, 5.549720e+002
4.083104e+002, 5.675689e+002
4.087925e+002, 5.806222e+002
4.092746e+002, 5.945789e+002
4.097567e+002, 6.093488e+002
4.102388e+002, 6.247636e+002
4.107209e+002, 6.415093e+002
4.112031e+002, 6.579998e+002
4.116852e+002, 6.735699e+002
4.121673e+002, 6.891229e+002
4.126494e+002, 7.058743e+002
4.131315e+002, 7.239986e+002
4.136136e+002, 7.422460e+002
4.140958e+002, 7.589954e+002
4.145779e+002, 7.741945e+002
4.150600e+002, 7.883849e+002
4.155421e+002, 8.024894e+002
4.160242e+002, 8.145963e+002
4.165063e+002, 8.241458e+002
4.169885e+002, 8.310635e+002
4.174706e+002, 8.352198e+002
4.179527e+002, 8.365443e+002
4.184348e+002, 8.351207e+002
4.189169e+002, 8.312496e+002
4.193990e+002, 8.250485e+002
4.198812e+002, 8.160325e+002
4.203633e+002, 8.039287e+002
4.208454e+002, 7.892894e+002
4.213275e+002, 7.721345e+002
4.218096e+002, 7.524475e+002
4.222917e+002, 7.316077e+002
4.227739e+002, 7.109416e+002
4.232560e+002, 6.904521e+002
4.237381e+002, 6.693371e+002
4.242202e+002, 6.468503e+002
4.247023e+002, 6.246360e+002
4.251844e+002, 6.036865e+002
4.256666e+002, 5.839041e+002
4.261487e+002, 5.648236e+002
4.266308e+002, 5.458053e+002
4.271129e+002, 5.275474e+002
4.275950e+002, 5.114444e+002
4.280771e+002, 4.974831e+002
4.285593e+002, 4.843033e+002
4.290414e+002, 4.713700e+002
4.295235e+002, 4.587884e+002
4.300056e+002, 4.466830e+002
4.304877e+002, 4.349821e+002
4.309698e+002, 4.239080e+002
4.314520e+002, 4.135888e+002
4.319341e+002, 4.040247e+002
4.324162e+002, 3.952090e+002
4.328983e+002, 3.872116e+002
4.333804e+002, 3.797760e+002
4.338625e+002, 3.726811e+002
4.343447e+002, 3.659777e+002
4.348268e+002, 3.594077e+002
4.353089e+002, 3.527425e+002
4.357910e+002, 3.463907e+002
4.362731e+002, 3.407998e+002
4.367552e+002, 3.358159e+002
4.372374e+002, 3.308965e+002
4.377195e+002, 3.257285e+002
4.382016e+002, 3.203937e+002
4.386837e+002, 3.152946e+002
4.391658e+002, 3.102448e+002
4.396479e+002, 3.056701e+002
4.401301e+002, 3.019043e+002
4.406122e+002, 2.984703e+002
4.410943e+002, 2.949136e+002
4.415764e+002, 2.911754e+002
4.420585e+002, 2.875330e+002
4.425406e+002, 2.843903e+002
4.430227e+002, 2.818622e+002
4.435049e+002, 2.789452e+002
4.439870e+002, 2.751803e+002
4.444691e+002, 2.715080e+002
4.449512e+002, 2.682277e+002
4.454333e+002, 2.652562e+002
4.459154e+002, 2.623734e+002
4.463976e+002, 2.594867e+002
4.468797e+002, 2.566659e+002
4.473618e+002, 2.541248e+002
4.478439e+002, 2.520244e+002
4.483260e+002, 2.497249e+002
4.488081e+002, 2.469847e+002
4.492903e+002, 2.440795e+002
4.497724e+002, 2.409833e+002
4.502545e+002, 2.377846e+002
4.507366e+002, 2.349284e+002
4.512187e+002, 2.329648e+002
4.517008e+002, 2.316663e+002
4.521830e+002, 2.300952e+002
4.526651e+002, 2.281441e+002
4.531472e+002, 2.261633e+002
4.536293e+002, 2.243557e+002
4.541114e+002, 2.226494e+002
4.545935e+002, 2.209258e+002
4.550757e+002, 2.190875e+002
4.555578e+002, 2.173831e+002
4.560399e+002, 2.160713e+002
4.565220e+002, 2.150850e+002
4.570041e+002, 2.141546e+002
4.574862e+002, 2.132807e+002
4.579684e+002, 2.122686e+002
4.584505e+002, 2.106445e+002
4.589326e+002, 2.083953e+002
4.594147e+002, 2.067009e+002
4.598968e+002, 2.063307e+002
4.603789e+002, 2.062056e+002
4.608611e+002, 2.052725e+002
4.613432e+002, 2.036246e+002
4.618253e+002, 2.021333e+002
4.623074e+002, 2.013813e+002
4.627895e+002, 2.011359e+002
4.632716e+002, 2.003981e+002
4.637538e+002, 1.987226e+002
4.642359e+002, 1.971752e+002
4.647180e+002, 1.959527e+002
4.652001e+002, 1.948591e+002
4.656822e+002, 1.937454e+002
4.661643e+002, 1.925546e+002
4.666465e+002, 1.912373e+002
4.671286e+002, 1.897052e+002
4.676107e+002, 1.878970e+002
4.680928e+002, 1.863459e+002
4.685749e+002, 1.852705e+002
4.690570e+002, 1.842205e+002
4.695392e+002, 1.831966e+002
4.700213e+002, 1.820913e+002
4.705034e+002, 1.807029e+002
4.709855e+002, 1.789267e+002
4.714676e+002, 1.770604e+002
4.719497e+002, 1.756680e+002
4.724319e+002, 1.748662e+002
4.729140e+002, 1.740356e+002
4.733961e+002, 1.730918e+002
4.738782e+002, 1.720990e+002
4.743603e+002, 1.711162e+002
4.748424e+002, 1.701296e+002
4.753246e+002, 1.690425e+002
4.758067e+002, 1.676628e+002
4.762888e+002, 1.662000e+002
4.767709e+002, 1.651491e+002
4.772530e+002, 1.645761e+002
4.777351e+002, 1.640355e+002
4.782173e+002, 1.633908e+002
4.786994e+002, 1.626102e+002
4.791815e+002, 1.616158e+002
4.796636e+002, 1.603159e+002
4.801457e+002, 1.591327e+002
4.806278e+002, 1.583605e+002
4.811100e+002, 1.578268e+002
4.815920e+002, 1.572499e+002
4.820742e+002, 1.565838e+002
4.825563e+002, 1.557963e+002
4.830384e+002, 1.548036e+002
4.835205e+002, 1.536163e+002
4.840026e+002, 1.526188e+002
4.844847e+002, 1.518930e+002
4.849669e+002, 1.512556e+002
4.854490e+002, 1.507232e+002
4.859311e+002, 1.502055e+002
4.864132e+002, 1.495019e+002
4.868953e+002, 1.485385e+002
4.873774e+002, 1.475358e+002
4.878596e+002, 1.468889e+002
4.883417e+002, 1.468106e+002
4.888238e+002, 1.464910e+002
4.893059e+002, 1.458472e+002
4.897880e+002, 1.450870e+002
4.902701e+002, 1.442297e+002
4.907523e+002, 1.433433e+002
4.912344e+002, 1.425189e+002
4.917165e+002, 1.417955e+002
4.921986e+002, 1.412262e+002
4.926807e+002, 1.410531e+002
4.931628e+002, 1.415585e+002
4.936450e+002, 1.416803e+002
4.941271e+002, 1.408815e+002
4.946092e+002, 1.398492e+002
4.950913e+002, 1.390189e+002
4.955734e+002, 1.384144e+002
4.960555e+002, 1.378005e+002
4.965377e+002, 1.368879e+002
4.970198e+002, 1.358577e+002
4.975019e+002, 1.353060e+002
4.979840e+002, 1.353633e+002
4.984661e+002, 1.353206e+002
4.989482e+002, 1.346181e+002
4.994304e+002, 1.336291e+002
4.999125e+002, 1.331061e+002
5.003946e+002, 1.332796e+002
5.008767e+002, 1.334416e+002
5.013588e+002, 1.331579e+002
5.018409e+002, 1.326479e+002
5.023231e+002, 1.323287e+002
5.028052e+002, 1.322884e+002
5.032873e+002, 1.322731e+002
5.037694e+002, 1.320413e+002
5.042515e+002, 1.315815e+002
5.047336e+002, 1.311315e+002
5.052158e+002, 1.306017e+002
5.056979e+002, 1.301798e+002
5.061800e+002, 1.299938e+002
5.066621e+002, 1.299395e+002
5.071442e+002, 1.298649e+002
5.076263e+002, 1.297143e+002
5.081085e+002, 1.295298e+002
5.085906e+002, 1.293770e+002
5.090727e+002, 1.292643e+002
5.095548e+002, 1.291498e+002
5.100369e+002, 1.290958e+002
5.105190e+002, 1.289764e+002
5.110012e+002, 1.287355e+002
5.114833e+002, 1.283931e+002
5.119654e+002, 1.279635e+002
5.124475e+002, 1.274223e+002
5.129296e+002, 1.268988e+002
5.134117e+002, 1.266683e+002
5.138939e+002, 1.267756e+002
5.143760e+002, 1.268255e+002
5.148581e+002, 1.267227e+002
5.153402e+002, 1.265415e+002
5.158223e+002, 1.263441e+002
5.163044e+002, 1.261303e+002
5.167866e+002, 1.258915e+002
5.172687e+002, 1.255626e+002
5.177508e+002, 1.252413e+002
5.182329e+002, 1.250707e+002
5.187150e+002, 1.250434e+002
5.191971e+002, 1.250516e+002
5.196793e+002, 1.250840e+002
5.201614e+002, 1.250748e+002
5.206435e+002, 1.248505e+002
5.211256e+002, 1.243602e+002
5.216077e+002, 1.238558e+002
5.220898e+002, 1.233048e+002
5.225720e+002, 1.228091e+002
5.230541e+002, 1.224747e+002
5.235362e+002, 1.222954e+002
5.240183e+002, 1.221980e+002
5.245004e+002, 1.221435e+002
5.249825e+002, 1.221125e+002
5.254647e+002, 1.219986e+002
5.259468e+002, 1.217092e+002
5.264289e+002, 1.214696e+002
5.269110e+002, 1.214094e+002
5.273931e+002, 1.213282e+002
5.278752e+002, 1.210117e+002
5.283574e+002, 1.204713e+002
5.288395e+002, 1.199379e+002
5.293216e+002, 1.196211e+002
5.298037e+002, 1.194892e+002
5.302858e+002, 1.193652e+002
5.307679e+002, 1.192981e+002
5.312501e+002, 1.191247e+002
5.317322e+002, 1.185994e+002
5.322143e+002, 1.180157e+002
5.326964e+002, 1.177065e+002
5.331785e+002, 1.177547e+002
5.336606e+002, 1.178408e+002
5.341428e+002, 1.177497e+002
5.346249e+002, 1.175482e+002
5.351070e+002, 1.173826e+002
5.355891e+002, 1.172740e+002
5.360712e+002, 1.171597e+002
5.365533e+002, 1.169864e+002
5.370355e+002, 1.167661e+002
5.375176e+002, 1.165797e+002
5.379997e+002, 1.164315e+002
5.384818e+002, 1.163078e+002
5.389639e+002, 1.162201e+002
5.394460e+002, 1.161470e+002
5.399282e+002, 1.160529e+002
5.404103e+002, 1.159348e+002
5.408924e+002, 1.158390e+002
5.413745e+002, 1.158380e+002
5.418566e+002, 1.159408e+002
5.423387e+002, 1.158259e+002
5.428209e+002, 1.151707e+002
5.433029e+002, 1.146819e+002
5.437850e+002, 1.147281e+002
5.442672e+002, 1.149042e+002
5.447493e+002, 1.146971e+002
5.452314e+002, 1.139856e+002
5.457135e+002, 1.131753e+002
5.461956e+002, 1.126853e+002
5.466777e+002, 1.124990e+002
5.471599e+002, 1.124893e+002
5.476420e+002, 1.127809e+002
5.481241e+002, 1.129698e+002
5.486062e+002, 1.126359e+002
5.490883e+002, 1.120676e+002
5.495704e+002, 1.117525e+002
5.500526e+002, 1.119055e+002
5.505347e+002, 1.120342e+002
5.510168e+002, 1.117202e+002
5.514989e+002, 1.111788e+002
5.519810e+002, 1.108613e+002
5.524631e+002, 1.108633e+002
5.529453e+002, 1.110279e+002
5.534274e+002, 1.112452e+002
5.539095e+002, 1.115155e+002
5.543916e+002, 1.116336e+002
5.548737e+002, 1.114526e+002
5.553558e+002, 1.113184e+002
5.558380e+002, 1.114725e+002
5.563201e+002, 1.116590e+002
5.568022e+002, 1.114594e+002
5.572843e+002, 1.108148e+002
5.577664e+002, 1.101791e+002
5.582485e+002, 1.101501e+002
5.587307e+002, 1.107632e+002
5.592128e+002, 1.109740e+002
5.596949e+002, 1.104987e+002
5.601770e+002, 1.100137e+002
5.606591e+002, 1.097484e+002
5.611412e+002, 1.096014e+002
5.616234e+002, 1.094542e+002
5.621055e+002, 1.092788e+002
5.625876e+002, 1.090954e+002
5.630697e+002, 1.088814e+002
5.635518e+002, 1.086710e+002
5.640339e+002, 1.086225e+002
5.645161e+002, 1.087951e+002
5.649982e+002, 1.089084e+002
5.654803e+002, 1.086934e+002
5.659624e+002, 1.082532e+002
5.664445e+002, 1.080593e+002
5.669266e+002, 1.083867e+002
5.674088e+002, 1.085681e+002
5.678909e+002, 1.081366e+002
5.683730e+002, 1.075470e+002
5.688551e+002, 1.074633e+002
5.693372e+002, 1.079480e+002
5.698193e+002, 1.084707e+002
5.703015e+002, 1.085306e+002
5.707836e+002, 1.081513e+002
5.712657e+002, 1.077778e+002
5.717478e+002, 1.072264e+002
5.722299e+002, 1.069423e+002
5.727120e+002, 1.072776e+002
5.731942e+002, 1.077201e+002
5.736763e+002, 1.077643e+002
5.741584e+002, 1.073517e+002
5.746405e+002, 1.068318e+002
5.751226e+002, 1.064338e+002
5.756047e+002, 1.061713e+002
5.760869e+002, 1.061508e+002
5.765690e+002, 1.064379e+002
5.770511e+002, 1.066960e+002
5.775332e+002, 1.068127e+002
5.780153e+002, 1.067707e+002
5.784974e+002, 1.064754e+002
5.789796e+002, 1.058001e+002
5.794617e+002, 1.054424e+002
5.799438e+002, 1.060516e+002
5.804259e+002, 1.068872e+002
5.809080e+002, 1.070442e+002
5.813901e+002, 1.065269e+002
5.818723e+002, 1.058813e+002
5.823544e+002, 1.054136e+002
5.828365e+002, 1.051463e+002
5.833186e+002, 1.051665e+002
5.838007e+002, 1.059134e+002
5.842828e+002, 1.062735e+002
5.847650e+002, 1.060615e+002
5.852471e+002, 1.056253e+002
5.857292e+002, 1.050531e+002
5.862113e+002, 1.044545e+002
5.866934e+002, 1.040428e+002
5.871755e+002, 1.039790e+002
5.876577e+002, 1.041332e+002
5.881398e+002, 1.042203e+002
5.886219e+002, 1.042314e+002
5.891040e+002, 1.042378e+002
5.895861e+002, 1.042848e+002
5.900682e+002, 1.042987e+002
5.905504e+002, 1.041831e+002
5.910325e+002, 1.039617e+002
5.915146e+002, 1.037911e+002
5.919967e+002, 1.037685e+002
5.924788e+002, 1.037733e+002
5.929609e+002, 1.036139e+002
5.934431e+002, 1.033910e+002
5.939252e+002, 1.034806e+002
5.944073e+002, 1.040450e+002
5.948894e+002, 1.046911e+002
5.953715e+002, 1.048475e+002
5.958536e+002, 1.043697e+002
5.963358e+002, 1.040500e+002
5.968179e+002, 1.040372e+002
5.973000e+002, 1.039935e+002
5.977821e+002, 1.037245e+002
5.982642e+002, 1.033770e+002
5.987463e+002, 1.031696e+002
5.992285e+002, 1.031753e+002
5.997106e+002, 1.032885e+002
6.001927e+002, 1.034190e+002
6.006748e+002, 1.035632e+002
6.011569e+002, 1.035839e+002
6.016390e+002, 1.033873e+002
6.021212e+002, 1.032549e+002
6.026033e+002, 1.035098e+002
6.030854e+002, 1.038814e+002
6.035675e+002, 1.039338e+002
6.040496e+002, 1.035464e+002
6.045317e+002, 1.030486e+002
6.050139e+002, 1.024324e+002
6.054960e+002, 1.018828e+002
6.059781e+002, 1.017582e+002
6.064602e+002, 1.020583e+002
6.069423e+002, 1.023835e+002
6.074244e+002, 1.024506e+002
6.079066e+002, 1.023084e+002
6.083887e+002, 1.021722e+002
6.088708e+002, 1.019624e+002
6.093529e+002, 1.018820e+002
6.098350e+002, 1.021324e+002
6.103171e+002, 1.023535e+002
6.107993e+002, 1.022209e+002
6.112814e+002, 1.018109e+002
6.117635e+002, 1.014558e+002
6.122456e+002, 1.013690e+002
6.127277e+002, 1.014588e+002
6.132098e+002, 1.015867e+002
6.136920e+002, 1.017706e+002
6.141741e+002, 1.017427e+002
6.146562e+002, 1.012501e+002
6.151383e+002, 1.007721e+002
6.156204e+002, 1.009420e+002
6.161025e+002, 1.016262e+002
6.165847e+002, 1.019940e+002
6.170668e+002, 1.016022e+002
6.175489e+002, 1.011172e+002
6.180310e+002, 1.009407e+002
6.185131e+002, 1.009848e+002
6.189952e+002, 1.010876e+002
6.194774e+002, 1.011955e+002
6.199595e+002, 1.012653e+002
6.204416e+002, 1.012335e+002
6.209237e+002, 1.010884e+002
6.214058e+002, 1.010240e+002
6.218879e+002, 1.012369e+002
6.223701e+002, 1.012837e+002
6.228522e+002, 1.007998e+002
6.233343e+002, 1.002632e+002
6.238164e+002, 1.002485e+002
6.242985e+002, 1.008309e+002
6.247806e+002, 1.014694e+002
6.252628e+002, 1.017236e+002
6.257448e+002, 1.016988e+002
6.262269e+002, 1.016795e+002
6.267090e+002, 1.016791e+002
6.271912e+002, 1.015726e+002
6.276733e+002, 1.012259e+002
6.281554e+002, 1.008135e+002
6.286375e+002, 1.007079e+002
6.291196e+002, 1.009788e+002
6.296017e+002, 1.011538e+002
6.300839e+002, 1.010992e+002
6.305660e+002, 1.009846e+002
6.310481e+002, 1.009515e+002
6.315302e+002, 1.009526e+002
6.320123e+002, 1.008095e+002
6.324944e+002, 1.004402e+002
6.329766e+002, 1.000584e+002
6.334587e+002, 1.001037e+002
6.339408e+002, 1.007240e+002
6.344229e+002, 1.009839e+002
6.349050e+002, 1.004726e+002
6.353871e+002, 1.001240e+002
6.358693e+002, 1.006058e+002
6.363514e+002, 1.014070e+002
6.368335e+002, 1.016650e+002
6.373156e+002, 1.010473e+002
6.377977e+002, 1.004694e+002
6.382798e+002, 1.007600e+002
6.387620e+002, 1.014860e+002
6.392441e+002, 1.018147e+002
6.397262e+002, 1.016575e+002
6.402083e+002, 1.013908e+002
6.406904e+002, 1.012468e+002
6.411725e+002, 1.011873e+002
6.416547e+002, 1.010825e+002
6.421368e+002, 1.008695e+002
6.426189e+002, 1.007039e+002
6.431010e+002, 1.005612e+002
6.435831e+002, 1.004866e+002
6.440652e+002, 1.005943e+002
6.445474e+002, 1.007902e+002
6.450295e+002, 1.008126e+002
6.455116e+002, 1.004879e+002
6.459937e+002, 1.001012e+002
6.464758e+002, 1.001954e+002
6.469579e+002, 1.007649e+002
6.474401e+002, 1.011364e+002
6.479222e+002, 1.011811e+002
6.484043e+002, 1.010740e+002
6.488864e+002, 1.008693e+002
6.493685e+002, 1.006167e+002
6.498506e+002, 1.004804e+002
6.503328e+002, 1.005477e+002
6.508149e+002, 1.006180e+002
6.512970e+002, 1.007197e+002
6.517791e+002, 1.007246e+002
6.522612e+002, 1.003326e+002
6.527433e+002, 9.961317e+001
6.532255e+002, 9.907365e+001
6.537076e+002, 9.910046e+001
6.541897e+002, 9.957402e+001
6.546718e+002, 1.000863e+002
6.551539e+002, 1.007245e+002
6.556360e+002, 1.011838e+002
6.561182e+002, 1.014655e+002
6.566003e+002, 1.015059e+002
6.570824e+002, 1.010582e+002
6.575645e+002, 1.003153e+002
6.580466e+002, 9.986392e+001
6.585287e+002, 1.000721e+002
6.590109e+002, 1.004110e+002
6.594930e+002, 1.003579e+002
6.599751e+002, 1.000363e+002
6.604572e+002, 9.977534e+001
6.609393e+002, 9.964503e+001
6.614214e+002, 9.960835e+001
6.619036e+002, 9.964163e+001
6.623857e+002, 9.974092e+001
6.628678e+002, 9.985841e+001
6.633499e+002, 1.001428e+002
6.638320e+002, 1.002464e+002
6.643141e+002, 9.992421e+001
6.647963e+002, 9.957682e+001
6.652784e+002, 9.955225e+001
6.657605e+002, 9.981630e+001
6.662426e+002, 1.001114e+002
6.667247e+002, 1.003217e+002
6.672068e+002, 1.004024e+002
6.676890e+002, 1.002100e+002
6.681711e+002, 9.975447e+001
6.686532e+002, 9.937550e+001
6.691353e+002, 9.913770e+001
6.696174e+002, 9.902648e+001
6.700995e+002, 9.909978e+001
6.705817e+002, 9.932430e+001
6.710638e+002, 9.937320e+001
6.715459e+002, 9.894051e+001
6.720280e+002, 9.870121e+001
6.725101e+002, 9.903821e+001
6.729922e+002, 9.957612e+001
6.734744e+002, 9.997404e+001
6.739565e+002, 1.001501e+002
6.744386e+002, 1.000965e+002
6.749207e+002, 9.976964e+001
6.754028e+002, 9.927123e+001
6.758849e+002, 9.890754e+001
6.763671e+002, 9.866447e+001
6.768492e+002, 9.863206e+001
6.773313e+002, 9.897061e+001
6.778134e+002, 9.936842e+001
6.782955e+002, 9.966348e+001
6.787776e+002, 9.982609e+001
6.792598e+002, 9.972413e+001
6.797419e+002, 9.910192e+001
6.802240e+002, 9.849812e+001
6.807061e+002, 9.819164e+001
6.811882e+002, 9.812320e+001
6.816703e+002, 9.832024e+001
6.821525e+002, 9.872495e+001
6.826346e+002, 9.894101e+001
6.831167e+002, 9.859193e+001
6.835988e+002, 9.784733e+001
6.840809e+002, 9.756735e+001
6.845630e+002, 9.799635e+001
6.850452e+002, 9.835645e+001
6.855273e+002, 9.849938e+001
6.860094e+002, 9.858414e+001
6.864915e+002, 9.869257e+001
6.869736e+002, 9.881727e+001
6.874557e+002, 9.892859e+001
6.879379e+002, 9.904619e+001
6.884200e+002, 9.908959e+001
6.889021e+002, 9.888082e+001
6.893842e+002, 9.855922e+001
6.898663e+002, 9.851925e+001
6.903484e+002, 9.882253e+001
6.908306e+002, 9.906331e+001
6.913127e+002, 9.889062e+001
6.917948e+002, 9.841664e+001
6.922769e+002, 9.821280e+001
6.927590e+002, 9.855234e+001
6.932411e+002, 9.872885e+001
6.937233e+002, 9.848326e+001
6.942054e+002, 9.828342e+001
6.946875e+002, 9.853878e+001
6.951696e+002, 9.907014e+001
6.956517e+002, 9.937492e+001
6.961339e+002, 9.919416e+001
6.966160e+002, 9.883825e+001
6.970981e+002, 9.866309e+001
6.975802e+002, 9.860229e+001
6.980623e+002, 9.833834e+001
6.985444e+002, 9.779948e+001
6.990266e+002, 9.745921e+001
6.995087e+002, 9.771799e+001
6.999908e+002, 9.838944e+001
7.004729e+002, 9.875997e+001
7.009550e+002, 9.854044e+001
7.014371e+002, 9.845326e+001
7.019193e+002, 9.859641e+001
7.024014e+002, 9.879066e+001
7.028835e+002, 9.897146e+001
7.033656e+002, 9.910925e+001
7.038477e+002, 9.914860e+001
7.043298e+002, 9.905413e+001
7.048120e+002, 9.896037e+001
7.052941e+002, 9.910942e+001
7.057762e+002, 9.942241e+001
7.062583e+002, 9.947211e+001
7.067404e+002, 9.918398e+001
7.072225e+002, 9.888124e+001
7.077046e+002, 9.875560e+001
7.081867e+002, 9.873739e+001
7.086688e+002, 9.865382e+001
7.091509e+002, 9.850606e+001
7.096331e+002, 9.829372e+001
7.101152e+002, 9.769779e+001
7.105973e+002, 9.734570e+001
7.110794e+002, 9.787878e+001
7.115615e+002, 9.884718e+001
7.120436e+002, 9.941453e+001
7.125258e+002, 9.928365e+001
7.130079e+002, 9.888705e+001
7.134900e+002, 9.868992e+001
7.139721e+002, 9.866112e+001
7.144542e+002, 9.862498e+001
7.149363e+002, 9.857322e+001
7.154185e+002, 9.854440e+001
7.159006e+002, 9.858603e+001
7.163827e+002, 9.862976e+001
7.168648e+002, 9.849020e+001
7.173469e+002, 9.807851e+001
7.178290e+002, 9.802357e+001
7.183112e+002, 9.876649e+001
7.187933e+002, 9.946329e+001
7.192754e+002, 9.965994e+001
7.197575e+002, 9.955975e+001
7.202396e+002, 9.947843e+001
7.207217e+002, 9.949818e+001
7.212039e+002, 9.949393e+001
7.216860e+002, 9.931718e+001
7.221681e+002, 9.902303e+001
7.226502e+002, 9.885503e+001
7.231323e+002, 9.883591e+001
7.236144e+002, 9.872918e+001
7.240966e+002, 9.839156e+001
7.245787e+002, 9.803982e+001
7.250608e+002, 9.792774e+001
7.255429e+002, 9.805219e+001
7.260250e+002, 9.825952e+001
7.265071e+002, 9.863362e+001
7.269893e+002, 9.898161e+001
7.274714e+002, 9.935633e+001
7.279535e+002, 9.959811e+001
7.284356e+002, 9.940892e+001
7.289177e+002, 9.884850e+001
7.293998e+002, 9.835989e+001
7.298820e+002, 9.828098e+001
7.303641e+002, 9.845882e+001
7.308462e+002, 9.852869e+001
7.313283e+002, 9.848253e+001
7.318104e+002, 9.858873e+001
7.322925e+002, 9.899778e+001
7.327747e+002, 9.932793e+001
7.332568e+002, 9.914548e+001
7.337389e+002, 9.859755e+001
7.342210e+002, 9.847089e+001
7.347031e+002, 9.914523e+001
7.351852e+002, 9.964900e+001
7.356674e+002, 9.967140e+001
7.361495e+002, 9.954093e+001
7.366316e+002, 9.949796e+001
7.371137e+002, 9.954720e+001
7.375958e+002, 9.963618e+001
7.380779e+002, 9.975110e+001
7.385601e+002, 9.978050e+001
7.390422e+002, 9.949067e+001
7.395243e+002, 9.892542e+001
7.400064e+002, 9.847411e+001
7.404885e+002, 9.814633e+001
7.409706e+002, 9.805001e+001
7.414528e+002, 9.832607e+001
7.419349e+002, 9.881712e+001
7.424170e+002, 9.918308e+001
7.428991e+002, 9.941020e+001
7.433812e+002, 9.958053e+001
7.438633e+002, 9.974826e+001
7.443455e+002, 9.981236e+001
7.448276e+002, 9.967209e+001
7.453097e+002, 9.941187e+001
7.457918e+002, 9.907985e+001
7.462739e+002, 9.872301e+001
7.467560e+002, 9.857713e+001
7.472382e+002, 9.909622e+001
7.477203e+002, 9.996696e+001
7.482024e+002, 1.000889e+002
7.486845e+002, 9.943928e+001
7.491666e+002, 9.903087e+001
7.496487e+002, 9.926339e+001
7.501309e+002, 9.971008e+001
7.506130e+002, 9.987383e+001
7.510951e+002, 9.973280e+001
7.515772e+002, 9.968303e+001
7.520593e+002, 9.981548e+001
7.525414e+002, 9.991086e+001
7.530236e+002, 9.981471e+001
7.535057e+002, 9.973620e+001
7.539878e+002, 9.988991e+001
7.544699e+002, 1.002537e+002
7.549520e+002, 1.006506e+002
7.554341e+002, 1.009934e+002
7.559163e+002, 1.012966e+002
7.563984e+002, 1.016493e+002
7.568805e+002, 1.019929e+002
7.573626e+002, 1.020174e+002
7.578447e+002, 1.016577e+002
7.583268e+002, 1.012127e+002
7.588090e+002, 1.008491e+002
7.592911e+002, 1.006032e+002
7.597732e+002, 1.005955e+002
7.602553e+002, 1.009152e+002
7.607374e+002, 1.013247e+002
7.612195e+002, 1.020228e+002
7.617017e+002, 1.025972e+002
7.621838e+002, 1.027531e+002
7.626659e+002, 1.026944e+002
7.631480e+002, 1.027462e+002
7.636301e+002, 1.029991e+002
7.641122e+002, 1.033280e+002
7.645944e+002, 1.036451e+002
7.650765e+002, 1.039772e+002
7.655586e+002, 1.043307e+002
7.660407e+002, 1.047291e+002
7.665228e+002, 1.053228e+002
7.670049e+002, 1.061871e+002
7.674871e+002, 1.070565e+002
7.679692e+002, 1.075360e+002
7.684513e+002, 1.076003e+002
7.689334e+002, 1.079941e+002
7.694155e+002, 1.089062e+002
7.698976e+002, 1.098442e+002
7.703798e+002, 1.108729e+002
7.708619e+002, 1.117517e+002
7.713440e+002, 1.120918e+002
7.718261e+002, 1.120390e+002
7.723082e+002, 1.123409e+002
7.727903e+002, 1.133709e+002
7.732725e+002, 1.146781e+002
7.737546e+002, 1.161518e+002
7.742367e+002, 1.176082e+002
7.747188e+002, 1.186335e+002
7.752009e+002, 1.192718e+002
7.756830e+002, 1.200827e+002
7.761652e+002, 1.214570e+002
7.766473e+002, 1.231617e+002
7.771294e+002, 1.246280e+002
7.776115e+002, 1.258110e+002
7.780936e+002, 1.271002e+002
7.785757e+002, 1.286386e+002
7.790579e+002, 1.300687e+002
7.795400e+002, 1.311339e+002
7.800221e+002, 1.319904e+002
7.805042e+002, 1.328913e+002
7.809863e+002, 1.338732e+002
7.814684e+002, 1.347877e+002
7.819506e+002, 1.359051e+002
7.824327e+002, 1.366386e+002
7.829148e+002, 1.364859e+002
7.833969e+002, 1.357347e+002
7.838790e+002, 1.347876e+002
7.843611e+002, 1.337967e+002
7.848433e+002, 1.328696e+002
7.853254e+002, 1.320911e+002
7.858075e+002, 1.314597e+002
7.862896e+002, 1.310303e+002
7.867717e+002, 1.308081e+002
7.872538e+002, 1.305295e+002
7.877360e+002, 1.301434e+002
7.882181e+002, 1.296319e+002
7.887002e+002, 1.289142e+002
7.891823e+002, 1.280385e+002
7.896644e+002, 1.274385e+002
7.901465e+002, 1.273589e+002
7.906286e+002, 1.271866e+002
7.911107e+002, 1.267813e+002
7.915928e+002, 1.263589e+002
7.920750e+002, 1.260208e+002
7.925571e+002, 1.257828e+002
7.930392e+002, 1.257115e+002
7.935213e+002, 1.258697e+002
7.940034e+002, 1.258567e+002
7.944855e+002, 1.253134e+002
7.949677e+002, 1.243624e+002
7.954498e+002, 1.230887e+002
7.959319e+002, 1.215704e+002
7.964140e+002, 1.202765e+002
7.968961e+002, 1.194021e+002
7.973782e+002, 1.187672e+002
7.978604e+002, 1.181645e+002
7.983425e+002, 1.176006e+002
7.988246e+002, 1.167579e+002
7.993067e+002, 1.152635e+002
7.997888e+002, 1.141582e+002
8.002709e+002, 1.141323e+002
8.007531e+002, 1.142501e+002
8.012352e+002, 1.137759e+002
8.017173e+002, 1.128068e+002
8.021994e+002, 1.119421e+002
8.026815e+002, 1.114326e+002
8.031636e+002, 1.109220e+002
8.036458e+002, 1.100247e+002
8.041279e+002, 1.091597e+002
8.046100e+002, 1.089529e+002
8.050921e+002, 1.092870e+002
8.055742e+002, 1.095483e+002
8.060563e+002, 1.094048e+002
8.065385e+002, 1.090376e+002
8.070206e+002, 1.087654e+002
8.075027e+002, 1.085657e+002
8.079848e+002, 1.080445e+002
8.084669e+002, 1.070885e+002
8.089490e+002, 1.063169e+002
8.094312e+002, 1.060686e+002
8.099133e+002, 1.060582e+002
8.103954e+002, 1.058462e+002
8.108775e+002, 1.053756e+002
8.113596e+002, 1.050891e+002
8.118417e+002, 1.051749e+002
8.123239e+002, 1.052037e+002
8.128060e+002, 1.050337e+002
8.132881e+002, 1.047738e+002
8.137702e+002, 1.044708e+002
8.142523e+002, 1.041737e+002
8.147344e+002, 1.040189e+002
8.152166e+002, 1.041488e+002
8.156987e+002, 1.042887e+002
8.161808e+002, 1.041423e+002
8.166629e+002, 1.037915e+002
8.171450e+002, 1.033394e+002
8.176271e+002, 1.028340e+002
8.181093e+002, 1.025278e+002
8.185914e+002, 1.025856e+002
8.190735e+002, 1.027985e+002
8.195556e+002, 1.027204e+002
8.200377e+002, 1.022581e+002
8.205198e+002, 1.021278e+002
8.210020e+002, 1.026073e+002
8.214841e+002, 1.028825e+002
8.219662e+002, 1.023335e+002
8.224483e+002, 1.016549e+002
8.229304e+002, 1.017611e+002
8.234125e+002, 1.026201e+002
8.238947e+002, 1.030683e+002
8.243768e+002, 1.025051e+002
8.248589e+002, 1.019332e+002
8.253410e+002, 1.018245e+002
8.258231e+002, 1.019122e+002
8.263052e+002, 1.019114e+002
8.267874e+002, 1.018011e+002
8.272695e+002, 1.016996e+002
8.277516e+002, 1.016800e+002
8.282337e+002, 1.016642e+002
8.287158e+002, 1.014680e+002
8.291979e+002, 1.011723e+002
8.296801e+002, 1.011506e+002
8.301622e+002, 1.014362e+002
8.306443e+002, 1.017951e+002
8.311264e+002, 1.021606e+002
8.316085e+002, 1.023800e+002
8.320906e+002, 1.021427e+002
8.325728e+002, 1.013344e+002
8.330549e+002, 1.009106e+002
8.335370e+002, 1.011393e+002
8.340191e+002, 1.013747e+002
8.345012e+002, 1.015569e+002
8.349833e+002, 1.016219e+002
8.354655e+002, 1.014905e+002
8.359476e+002, 1.011869e+002
8.364297e+002, 1.008237e+002
8.369118e+002, 1.002783e+002
8.373939e+002, 9.993114e+001
8.378760e+002, 1.001957e+002
8.383582e+002, 1.006329e+002
8.388403e+002, 1.006700e+002
8.393224e+002, 1.003872e+002
8.398045e+002, 1.002383e+002
8.402866e+002, 1.004382e+002
8.407687e+002, 1.007785e+002
8.412509e+002, 1.010872e+002
8.417330e+002, 1.013101e+002
8.422151e+002, 1.009954e+002
8.426972e+002, 1.000915e+002
8.431793e+002, 9.944409e+001
8.436614e+002, 9.942045e+001
8.441436e+002, 9.958859e+001
8.446257e+002, 9.941934e+001
8.451078e+002, 9.892602e+001
8.455899e+002, 9.873866e+001
8.460720e+002, 9.902706e+001
8.465541e+002, 9.938026e+001
8.470363e+002, 9.994727e+001
8.475184e+002, 1.003913e+002
8.480005e+002, 1.004347e+002
8.484826e+002, 1.002055e+002
8.489647e+002, 1.000054e+002
8.494468e+002, 9.991440e+001
8.499290e+002, 9.983964e+001
8.504111e+002, 9.970618e+001
8.508932e+002, 9.958471e+001
8.513753e+002, 9.936911e+001
8.518574e+002, 9.925703e+001
8.523395e+002, 9.996169e+001
8.528217e+002, 1.015581e+002
8.533038e+002, 1.027789e+002
8.537859e+002, 1.022225e+002
8.542680e+002, 1.004589e+002
8.547501e+002, 9.913905e+001
8.552322e+002, 9.825951e+001
8.557144e+002, 9.803137e+001
8.561965e+002, 9.864444e+001
8.566786e+002, 9.926742e+001
8.571607e+002, 9.924851e+001
8.576428e+002, 9.879122e+001
8.581249e+002, 9.856175e+001
8.586071e+002, 9.878541e+001
8.590892e+002, 9.874512e+001
8.595713e+002, 9.812231e+001
8.600534e+002, 9.761360e+001
8.605355e+002, 9.746246e+001
8.610176e+002, 9.755762e+001
8.614998e+002, 9.784453e+001
8.619819e+002, 9.829057e+001
8.624640e+002, 9.857755e+001
8.629461e+002, 9.856143e+001
8.634282e+002, 9.836507e+001
8.639103e+002, 9.787188e+001
8.643925e+002, 9.735769e+001
8.648746e+002, 9.726745e+001
8.653567e+002, 9.757751e+001
8.658388e+002, 9.794435e+001
8.663209e+002, 9.818153e+001
8.668030e+002, 9.827639e+001
8.672852e+002, 9.816254e+001
8.677673e+002, 9.787824e+001
8.682494e+002, 9.762468e+001
8.687315e+002, 9.741516e+001
8.692136e+002, 9.718473e+001
8.696957e+002, 9.689286e+001
8.701779e+002, 9.660940e+001
8.706600e+002, 9.641817e+001
8.711421e+002, 9.631815e+001
8.716242e+002, 9.638013e+001
8.721063e+002, 9.685432e+001
8.725884e+002, 9.704888e+001
8.730705e+002, 9.660658e+001
8.735526e+002, 9.607639e+001
8.740347e+002, 9.575465e+001
8.745168e+002, 9.560168e+001
8.749990e+002, 9.549875e+001
8.754811e+002, 9.543722e+001
8.759632e+002, 9.539788e+001
8.764453e+002, 9.537579e+001
8.769274e+002, 9.537233e+001
8.774095e+002, 9.543244e+001
8.778917e+002, 9.549520e+001
8.783738e+002, 9.546763e+001
8.788559e+002, 9.532693e+001
8.793380e+002, 9.509466e+001
8.798201e+002, 9.473074e+001
8.803022e+002, 9.435204e+001
8.807844e+002, 9.414999e+001
8.812665e+002, 9.409853e+001
8.817486e+002, 9.415359e+001
8.822307e+002, 9.429456e+001
8.827128e+002, 9.427506e+001
8.831949e+002, 9.388774e+001
8.836771e+002, 9.347231e+001
8.841592e+002, 9.391133e+001
8.846413e+002, 9.545393e+001
8.851234e+002, 9.587510e+001
8.856055e+002, 9.465433e+001
8.860876e+002, 9.360262e+001
8.865698e+002, 9.348398e+001
8.870519e+002, 9.365902e+001
8.875340e+002, 9.335742e+001
8.880161e+002, 9.262489e+001
8.884982e+002, 9.217278e+001
8.889803e+002, 9.223059e+001
8.894625e+002, 9.227333e+001
8.899446e+002, 9.216863e+001
8.904267e+002, 9.206098e+001
8.909088e+002, 9.212584e+001
8.913909e+002, 9.224326e+001
8.918730e+002, 9.209261e+001
8.923552e+002, 9.156640e+001
8.928373e+002, 9.123930e+001
8.933194e+002, 9.180338e+001
8.938015e+002, 9.247682e+001
8.942836e+002, 9.205480e+001
8.947657e+002, 9.119236e+001
8.952479e+002, 9.163298e+001
8.957300e+002, 9.348709e+001
8.962121e+002, 9.492646e+001
8.966942e+002, 9.455008e+001
8.971763e+002, 9.306248e+001
8.976584e+002, 9.160769e+001
8.981406e+002, 9.024781e+001
8.986227e+002, 8.965295e+001
8.991048e+002, 8.993199e+001
8.995869e+002, 9.045422e+001
9.000690e+002, 9.101640e+001
9.005511e+002, 9.140062e+001
9.010333e+002, 9.122405e+001
9.015154e+002, 9.044869e+001
9.019975e+002, 8.996655e+001
9.024796e+002, 8.985090e+001
9.029617e+002, 8.989659e+001
9.034438e+002, 9.035519e+001
9.039260e+002, 9.067924e+001
9.044081e+002, 9.034560e+001
9.048902e+002, 8.961203e+001
9.053723e+002, 8.910496e+001
9.058544e+002, 8.880372e+001
9.063365e+002, 8.898337e+001
9.068187e+002, 9.042574e+001
9.073008e+002, 9.161135e+001
9.077829e+002, 9.139944e+001
9.082650e+002, 9.047724e+001
9.087471e+002, 8.979340e+001
9.092292e+002, 8.950962e+001
9.097114e+002, 8.926274e+001
9.101935e+002, 8.882226e+001
9.106756e+002, 8.836013e+001
9.111577e+002, 8.802485e+001
9.116398e+002, 8.780196e+001
9.121219e+002, 8.770821e+001
9.126041e+002, 8.771156e+001
9.130862e+002, 8.768160e+001
9.135683e+002, 8.755698e+001
9.140504e+002, 8.740245e+001
9.145325e+002, 8.731162e+001
9.150146e+002, 8.726872e+001
9.154968e+002, 8.715850e+001
9.159789e+002, 8.697722e+001
9.164610e+002, 8.685706e+001
9.169431e+002, 8.683415e+001
9.174252e+002, 8.688096e+001
9.179073e+002, 8.702330e+001
9.183895e+002, 8.717524e+001
9.188716e+002, 8.698636e+001
9.193537e+002, 8.618092e+001
9.198358e+002, 8.573718e+001
9.203179e+002, 8.581301e+001
9.208000e+002, 8.602699e+001
9.212822e+002, 8.642233e+001
9.217643e+002, 8.675494e+001
9.222464e+002, 8.670275e+001
9.227285e+002, 8.627841e+001
9.232106e+002, 8.589094e+001
9.236927e+002, 8.551990e+001
9.241749e+002, 8.529475e+001
9.246570e+002, 8.540279e+001
9.251391e+002, 8.553703e+001
9.256212e+002, 8.535840e+001
9.261033e+002, 8.504144e+001
9.265854e+002, 8.502007e+001
9.270676e+002, 8.542998e+001
9.275497e+002, 8.582552e+001
9.280318e+002, 8.596338e+001
9.285139e+002, 8.590174e+001
9.289960e+002, 8.560315e+001
9.294781e+002, 8.518387e+001
9.299603e+002, 8.481327e+001
9.304424e+002, 8.454546e+001
9.309245e+002, 8.445863e+001
9.314066e+002, 8.462584e+001
9.318887e+002, 8.486069e+001
9.323708e+002, 8.485110e+001
9.328530e+002, 8.465355e+001
9.333351e+002, 8.450507e+001
9.338172e+002, 8.441458e+001
9.342993e+002, 8.427692e+001
9.347814e+002, 8.404332e+001
9.352635e+002, 8.386546e+001
9.357457e+002, 8.392733e+001
9.362278e+002, 8.417857e+001
9.367099e+002, 8.431059e+001
9.371920e+002, 8.427825e+001
9.376741e+002, 8.434571e+001
9.381563e+002, 8.464326e+001
9.386384e+002, 8.481387e+001
9.391205e+002, 8.460423e+001
9.396026e+002, 8.419359e+001
9.400847e+002, 8.389348e+001
9.405668e+002, 8.372030e+001
9.410490e+002, 8.356480e+001
9.415311e+002, 8.348061e+001
9.420132e+002, 8.334077e+001
9.424953e+002, 8.300559e+001
9.429774e+002, 8.271197e+001
9.434595e+002, 8.268371e+001
9.439417e+002, 8.283043e+001
9.444238e+002, 8.288558e+001
9.449059e+002, 8.274585e+001
9.453880e+002, 8.271555e+001
9.458701e+002, 8.308686e+001
9.463522e+002, 8.340763e+001
9.468344e+002, 8.331614e+001
9.473165e+002, 8.302231e+001
9.477986e+002, 8.281751e+001
9.482807e+002, 8.273484e+001
9.487628e+002, 8.262715e+001
9.492449e+002, 8.238100e+001
9.497271e+002, 8.217439e+001
9.502092e+002, 8.223817e+001
9.506913e+002, 8.241515e+001
9.511734e+002, 8.244804e+001
9.516555e+002, 8.236525e+001
9.521376e+002, 8.235856e+001
9.526198e+002, 8.248021e+001
9.531019e+002, 8.253167e+001
9.535840e+002, 8.227478e+001
9.540661e+002, 8.187210e+001
9.545482e+002, 8.177346e+001
9.550303e+002, 8.191629e+001
9.555124e+002, 8.182259e+001
9.559945e+002, 8.142624e+001
9.564766e+002, 8.120679e+001
9.569587e+002, 8.144784e+001
9.574409e+002, 8.185496e+001
9.579230e+002, 8.195223e+001
9.584051e+002, 8.174573e+001
9.588872e+002, 8.157009e+001
9.593693e+002, 8.144109e+001
9.598514e+002, 8.125471e+001
9.603336e+002, 8.093074e+001
9.608157e+002, 8.068027e+001
9.612978e+002, 8.068497e+001
9.617799e+002, 8.086961e+001
9.622620e+002, 8.103976e+001
9.627441e+002, 8.125527e+001
9.632263e+002, 8.126875e+001
9.637084e+002, 8.089439e+001
9.641905e+002, 8.056998e+001
9.646726e+002, 8.040824e+001
9.651547e+002, 8.034544e+001
9.656368e+002, 8.038110e+001
9.661190e+002, 8.047706e+001
9.666011e+002, 8.046326e+001
9.670832e+002, 8.020522e+001
9.675653e+002, 8.006831e+001
9.680474e+002, 8.029500e+001
9.685295e+002, 8.048485e+001
9.690117e+002, 8.034956e+001
9.694938e+002, 8.007174e+001
9.699759e+002, 7.991721e+001
9.704580e+002, 7.990334e+001
9.709401e+002, 7.981163e+001
9.714222e+002, 7.915222e+001
9.719044e+002, 7.903349e+001
9.723865e+002, 8.108755e+001
9.728686e+002, 8.330539e+001
9.733507e+002, 8.322553e+001
9.738328e+002, 8.155788e+001
9.743149e+002, 8.015778e+001
9.747971e+002, 7.962684e+001
9.752792e+002, 7.966644e+001
9.757613e+002, 8.038107e+001
9.762434e+002, 8.116637e+001
9.767255e+002, 8.115852e+001
9.772076e+002, 8.062102e+001
9.776898e+002, 8.001897e+001
9.781719e+002, 7.945862e+001
9.786540e+002, 7.906372e+001
9.791361e+002, 7.888986e+001
9.796182e+002, 7.881746e+001
9.801003e+002, 7.868942e+001
9.805825e+002, 7.854487e+001
9.810646e+002, 7.853702e+001
9.815467e+002, 7.864968e+001
9.820288e+002, 7.876353e+001
9.825109e+002, 7.885457e+001
9.829930e+002, 7.891058e+001
9.834752e+002, 7.893002e+001
9.839573e+002, 7.887595e+001
9.844394e+002, 7.862394e+001
9.849215e+002, 7.817124e+001
9.854036e+002, 7.802480e+001
9.858857e+002, 7.824846e+001
9.863679e+002, 7.841155e+001
9.868500e+002, 7.841375e+001
9.873321e+002, 7.827114e+001
9.878142e+002, 7.792243e+001
9.882963e+002, 7.750729e+001
9.887784e+002, 7.749958e+001
9.892606e+002, 7.807166e+001
9.897427e+002, 7.844744e+001
9.902248e+002, 7.864078e+001
9.907069e+002, 7.858879e+001
9.911890e+002, 7.801127e+001
9.916711e+002, 7.746897e+001
9.921533e+002, 7.759922e+001
9.926354e+002, 7.826620e+001
9.931175e+002, 7.866112e+001
9.935996e+002, 7.869333e+001
9.940817e+002, 7.861770e+001
9.945638e+002, 7.829546e+001
9.950460e+002, 7.803623e+001
9.955281e+002, 7.795592e+001
9.960102e+002, 7.800060e+001
9.964923e+002, 7.814990e+001
9.969744e+002, 7.838172e+001
9.974565e+002, 7.857463e+001
9.979387e+002, 7.878472e+001
9.984208e+002, 7.882178e+001
9.989029e+002, 7.846619e+001
9.993850e+002, 7.810238e+001
9.998671e+002, 7.799281e+001
1.000349e+003, 7.801846e+001
1.000831e+003, 7.799595e+001
1.001313e+003, 7.790299e+001
1.001796e+003, 7.782802e+001
1.002278e+003, 7.780728e+001
1.002760e+003, 7.781319e+001
1.003242e+003, 7.787260e+001
1.003724e+003, 7.791560e+001
1.004206e+003, 7.791450e+001
1.004688e+003, 7.783237e+001
1.005170e+003, 7.751372e+001
1.005653e+003, 7.697312e+001
1.006135e+003, 7.667548e+001
1.006617e+003, 7.708704e+001
1.007099e+003, 7.762911e+001
1.007581e+003, 7.771435e+001
1.008063e+003, 7.761593e+001
1.008545e+003, 7.777321e+001
1.009027e+003, 7.810310e+001
1.009509e+003, 7.822724e+001
1.009992e+003, 7.802449e+001
1.010474e+003, 7.774846e+001
1.010956e+003, 7.757338e+001
1.011438e+003, 7.750851e+001
1.011920e+003, 7.766377e+001
1.012402e+003, 7.791325e+001
1.012884e+003, 7.793201e+001
1.013366e+003, 7.772881e+001
1.013849e+003, 7.751556e+001
1.014331e+003, 7.738821e+001
1.014813e+003, 7.739021e+001
1.015295e+003, 7.763014e+001
1.015777e+003, 7.798759e+001
1.016259e+003, 7.818237e+001
1.016741e+003, 7.822290e+001
1.017223e+003, 7.807253e+001
1.017705e+003, 7.775719e+001
1.018188e+003, 7.762746e+001
1.018670e+003, 7.787606e+001
1.019152e+003, 7.816895e+001
1.019634e+003, 7.801157e+001
1.020116e+003, 7.751037e+001
1.020598e+003, 7.713823e+001
1.021080e+003, 7.689930e+001
1.021562e+003, 7.692664e+001
1.022044e+003, 7.725845e+001
1.022527e+003, 7.756973e+001
1.023009e+003, 7.766936e+001
1.023491e+003, 7.766520e+001
1.023973e+003, 7.772154e+001
1.024455e+003, 7.783766e+001
1.024937e+003, 7.805326e+001
1.025419e+003, 7.841471e+001
1.025901e+003, 7.840768e+001
1.026384e+003, 7.782761e+001
1.026866e+003, 7.738967e+001
1.027348e+003, 7.759930e+001
1.027830e+003, 7.808911e+001
1.028312e+003, 7.815913e+001
1.028794e+003, 7.778650e+001
1.029276e+003, 7.757161e+001
1.029758e+003, 7.751359e+001
1.030240e+003, 7.764867e+001
1.030723e+003, 7.810641e+001
1.031205e+003, 7.846333e+001
1.031687e+003, 7.840133e+001
1.032169e+003, 7.810215e+001
1.032651e+003, 7.792996e+001
1.033133e+003, 7.789880e+001
1.033615e+003, 7.787315e+001
1.034097e+003, 7.783665e+001
1.034579e+003, 7.783988e+001
1.035062e+003, 7.789516e+001
1.035544e+003, 7.798830e+001
1.036026e+003, 7.813124e+001
1.036508e+003, 7.829211e+001
1.036990e+003, 7.840750e+001
1.037472e+003, 7.847771e+001
1.037954e+003, 7.849628e+001
1.038436e+003, 7.841662e+001
1.038919e+003, 7.835918e+001
1.039401e+003, 7.833690e+001
1.039883e+003, 7.835155e+001
1.040365e+003, 7.839899e+001
1.040847e+003, 7.848697e+001
1.041329e+003, 7.864272e+001
1.041811e+003, 7.888823e+001
1.042293e+003, 7.909064e+001
1.042776e+003, 7.937925e+001
1.043258e+003, 7.944218e+001
1.043740e+003, 7.898812e+001
1.044222e+003, 7.852592e+001
1.044704e+003, 7.841805e+001
1.045186e+003, 7.852359e+001
1.045668e+003, 7.856667e+001
1.046150e+003, 7.852391e+001
1.046632e+003, 7.846151e+001
1.047115e+003, 7.832104e+001
1.047597e+003, 7.825179e+001
1.048079e+003, 7.834085e+001
1.048561e+003, 7.846310e+001
1.049043e+003, 7.856699e+001
1.049525e+003, 7.862917e+001
1.050007e+003, 7.858379e+001
1.050489e+003, 7.840505e+001
1.050971e+003, 7.834738e+001
1.051454e+003, 7.859306e+001
1.051936e+003, 7.878387e+001
1.052418e+003, 7.873766e+001
1.052900e+003, 7.867331e+001
1.053382e+003, 7.877982e+001
1.053864e+003, 7.897205e+001
1.054346e+003, 7.907442e+001
1.054828e+003, 7.906044e+001
1.055311e+003, 7.905542e+001
1.055793e+003, 7.905665e+001
1.056275e+003, 7.912083e+001
1.056757e+003, 7.938357e+001
1.057239e+003, 7.960417e+001
1.057721e+003, 7.949609e+001
1.058203e+003, 7.926205e+001
1.058685e+003, 7.931063e+001
1.059167e+003, 7.969595e+001
1.059650e+003, 7.996549e+001
1.060132e+003, 7.969839e+001
1.060614e+003, 7.966033e+001
1.061096e+003, 8.056489e+001
1.061578e+003, 8.139468e+001
1.062060e+003, 8.117766e+001
1.062542e+003, 8.043448e+001
1.063024e+003, 8.000984e+001
1.063506e+003, 8.005587e+001
1.063989e+003, 8.046172e+001
1.064471e+003, 8.150856e+001
1.064953e+003, 8.245274e+001
1.065435e+003, 8.303731e+001
1.065917e+003, 8.335572e+001
1.066399e+003, 8.324903e+001
1.066881e+003, 8.304119e+001
1.067363e+003, 8.322851e+001
1.067846e+003, 8.385217e+001
1.068328e+003, 8.454765e+001
1.068810e+003, 8.529369e+001
1.069292e+003, 8.588808e+001
1.069774e+003, 8.600035e+001
1.070256e+003, 8.617195e+001
1.070738e+003, 8.686190e+001
1.071220e+003, 8.784380e+001
1.071703e+003, 8.882706e+001
1.072185e+003, 8.974550e+001
1.072667e+003, 9.058162e+001
1.073149e+003, 9.127745e+001
1.073631e+003, 9.200594e+001
1.074113e+003, 9.286388e+001
1.074595e+003, 9.376674e+001
1.075077e+003, 9.476842e+001
1.075559e+003, 9.570529e+001
1.076042e+003, 9.636065e+001
1.076524e+003, 9.674363e+001
1.077006e+003, 9.706148e+001
1.077488e+003, 9.747020e+001
1.077970e+003, 9.755065e+001
1.078452e+003, 9.685464e+001
1.078934e+003, 9.604226e+001
1.079416e+003, 9.566509e+001
1.079898e+003, 9.535143e+001
1.080380e+003, 9.455551e+001
1.080863e+003, 9.337368e+001
1.081345e+003, 9.237249e+001
1.081827e+003, 9.181669e+001
1.082309e+003, 9.099732e+001
1.082791e+003, 8.917673e+001
1.083273e+003, 8.747599e+001
1.083755e+003, 8.676559e+001
1.084237e+003, 8.639329e+001
1.084720e+003, 8.564472e+001
1.085202e+003, 8.459589e+001
1.085684e+003, 8.363223e+001
1.086166e+003, 8.284744e+001
1.086648e+003, 8.223954e+001
1.087130e+003, 8.191001e+001
1.087612e+003, 8.163020e+001
1.088094e+003, 8.125635e+001
1.088577e+003, 8.089404e+001
1.089059e+003, 8.072945e+001
1.089541e+003, 8.063126e+001
1.090023e+003, 8.028870e+001
1.090505e+003, 7.963496e+001
1.090987e+003, 7.901815e+001
1.091469e+003, 7.855159e+001
1.091951e+003, 7.816790e+001
1.092433e+003, 7.778512e+001
1.092916e+003, 7.752563e+001
1.093398e+003, 7.760528e+001
1.093880e+003, 7.782593e+001
1.094362e+003, 7.783714e+001
1.094844e+003, 7.760408e+001
1.095326e+003, 7.741152e+001
1.095808e+003, 7.745459e+001
1.096290e+003, 7.739532e+001
1.096772e+003, 7.690518e+001
1.097255e+003, 7.651316e+001
1.097737e+003, 7.671310e+001
1.098219e+003, 7.711723e+001
1.098701e+003, 7.718958e+001
1.099183e+003, 7.691726e+001
1.099665e+003, 7.663033e+001
1.100147e+003, 7.638451e+001
1.100629e+003, 7.616831e+001
1.101112e+003, 7.589207e+001
1.101594e+003, 7.574839e+001
1.102076e+003, 7.598034e+001
1.102558e+003, 7.627858e+001
1.103040e+003, 7.626865e+001
1.103522e+003, 7.602771e+001
1.104004e+003, 7.593433e+001
1.104486e+003, 7.609843e+001
1.104969e+003, 7.623235e+001
1.105451e+003, 7.636673e+001
1.105933e+003, 7.635677e+001
1.106415e+003, 7.588783e+001
1.106897e+003, 7.549687e+001
1.107379e+003, 7.581623e+001
1.107861e+003, 7.650502e+001
1.108343e+003, 7.665250e+001
1.108825e+003, 7.605888e+001
1.109307e+003, 7.570353e+001
1.109790e+003, 7.584232e+001
1.110272e+003, 7.598223e+001
1.110754e+003, 7.620377e+001
1.111236e+003, 7.621175e+001
1.111718e+003, 7.554500e+001
1.112200e+003, 7.468517e+001
1.112682e+003, 7.449089e+001
1.113164e+003, 7.501098e+001
1.113647e+003, 7.535249e+001
1.114129e+003, 7.547585e+001
1.114611e+003, 7.548162e+001
1.115093e+003, 7.524290e+001
1.115575e+003, 7.507015e+001
1.116057e+003, 7.512756e+001
1.116539e+003, 7.529078e+001
1.117021e+003, 7.549746e+001
1.117504e+003, 7.570100e+001
1.117986e+003, 7.552303e+001
1.118468e+003, 7.462656e+001
1.118950e+003, 7.416930e+001
1.119432e+003, 7.436443e+001
1.119914e+003, 7.459738e+001
1.120396e+003, 7.470923e+001
1.120878e+003, 7.473702e+001
1.121360e+003, 7.467834e+001
1.121843e+003, 7.458443e+001
1.122325e+003, 7.461069e+001
1.122807e+003, 7.477596e+001
1.123289e+003, 7.496420e+001
1.123771e+003, 7.521978e+001
1.124253e+003, 7.534010e+001
1.124735e+003, 7.525347e+001
1.125217e+003, 7.510838e+001
1.125699e+003, 7.498914e+001
1.126182e+003, 7.488576e+001
1.126664e+003, 7.476641e+001
1.127146e+003, 7.463999e+001
1.127628e+003, 7.473866e+001
1.128110e+003, 7.512524e+001
1.128592e+003, 7.505164e+001
1.129074e+003, 7.431459e+001
1.129556e+003, 7.399365e+001
1.130039e+003, 7.464268e+001
1.130521e+003, 7.552895e+001
1.131003e+003, 7.582140e+001
1.131485e+003, 7.567045e+001
1.131967e+003, 7.556844e+001
1.132449e+003, 7.551572e+001
1.132931e+003, 7.557324e+001
1.133413e+003, 7.573583e+001
1.133896e+003, 7.565496e+001
1.134378e+003, 7.522504e+001
1.134860e+003, 7.484235e+001
1.135342e+003, 7.482600e+001
1.135824e+003, 7.497862e+001
1.136306e+003, 7.492261e+001
1.136788e+003, 7.473142e+001
1.137270e+003, 7.471004e+001
1.137752e+003, 7.482396e+001
1.138234e+003, 7.485319e+001
1.138717e+003, 7.478310e+001
1.139199e+003, 7.487083e+001
1.139681e+003, 7.524998e+001
1.140163e+003, 7.556322e+001
1.140645e+003, 7.529583e+001
1.141127e+003, 7.480672e+001
1.141609e+003, 7.478808e+001
1.142091e+003, 7.504679e+001
1.142574e+003, 7.514541e+001
1.143056e+003, 7.510572e+001
1.143538e+003, 7.523254e+001
1.144020e+003, 7.558649e+001
1.144502e+003, 7.581325e+001
1.144984e+003, 7.562422e+001
1.145466e+003, 7.529763e+001
1.145948e+003, 7.501526e+001
1.146431e+003, 7.485219e+001
1.146913e+003, 7.498509e+001
1.147395e+003, 7.527235e+001
1.147877e+003, 7.552811e+001
1.148359e+003, 7.566825e+001
1.148841e+003, 7.551430e+001
1.149323e+003, 7.492539e+001
1.149805e+003, 7.444766e+001
1.150287e+003, 7.447322e+001
1.150770e+003, 7.467866e+001
1.151252e+003, 7.496172e+001
1.151734e+003, 7.519375e+001
1.152216e+003, 7.522014e+001
1.152698e+003, 7.509515e+001
1.153180e+003, 7.491628e+001
1.153662e+003, 7.470634e+001
1.154144e+003, 7.468838e+001
1.154626e+003, 7.523205e+001
1.155109e+003, 7.556017e+001
1.155591e+003, 7.525643e+001
1.156073e+003, 7.483694e+001
1.156555e+003, 7.449439e+001
1.157037e+003, 7.430867e+001
1.157519e+003, 7.444866e+001
1.158001e+003, 7.485170e+001
1.158483e+003, 7.506011e+001
1.158966e+003, 7.492362e+001
1.159448e+003, 7.482549e+001
1.159930e+003, 7.479424e+001
1.160412e+003, 7.479958e+001
1.160894e+003, 7.495753e+001
1.161376e+003, 7.500231e+001
1.161858e+003, 7.458730e+001
1.162340e+003, 7.400708e+001
1.162822e+003, 7.394424e+001
1.163305e+003, 7.446410e+001
1.163787e+003, 7.479860e+001
1.164269e+003, 7.492318e+001
1.164751e+003, 7.492067e+001
1.165233e+003, 7.477122e+001
1.165715e+003, 7.457237e+001
1.166197e+003, 7.433785e+001
1.166679e+003, 7.415821e+001
1.167161e+003, 7.415107e+001
1.167644e+003, 7.427654e+001
1.168126e+003, 7.438596e+001
1.168608e+003, 7.448103e+001
1.169090e+003, 7.447769e+001
1.169572e+003, 7.436775e+001
1.170054e+003, 7.435549e+001
1.170536e+003, 7.449949e+001
1.171018e+003, 7.460747e+001
1.171500e+003, 7.454214e+001
1.171983e+003, 7.440313e+001
1.172465e+003, 7.436782e+001
1.172947e+003, 7.438345e+001
1.173429e+003, 7.419430e+001
1.173911e+003, 7.390061e+001
1.174393e+003, 7.392345e+001
1.174875e+003, 7.425725e+001
1.175357e+003, 7.461980e+001
1.175840e+003, 7.489188e+001
1.176322e+003, 7.499432e+001
1.176804e+003, 7.479508e+001
1.177286e+003, 7.455100e+001
1.177768e+003, 7.460170e+001
1.178250e+003, 7.479594e+001
1.178732e+003, 7.497829e+001
1.179214e+003, 7.510161e+001
1.179697e+003, 7.506029e+001
1.180179e+003, 7.489335e+001
1.180661e+003, 7.481724e+001
1.181143e+003, 7.493187e+001
1.181625e+003, 7.505454e+001
1.182107e+003, 7.502503e+001
1.182589e+003, 7.502576e+001
1.183071e+003, 7.522295e+001
1.183553e+003, 7.546465e+001
1.184036e+003, 7.569438e+001
1.184518e+003, 7.581776e+001
1.185000e+003, 7.555542e+001
1.185482e+003, 7.491637e+001
1.185964e+003, 7.470985e+001
1.186446e+003, 7.555557e+001
1.186928e+003, 7.613734e+001
1.187410e+003, 7.593845e+001
1.187892e+003, 7.580777e+001
1.188375e+003, 7.628217e+001
1.188857e+003, 7.682364e+001
1.189339e+003, 7.689354e+001
1.189821e+003, 7.664804e+001
1.190303e+003, 7.652444e+001
1.190785e+003, 7.653183e+001
1.191267e+003, 7.661973e+001
1.191749e+003, 7.684213e+001
1.192232e+003, 7.697667e+001
1.192714e+003, 7.693424e+001
1.193196e+003, 7.697628e+001
1.193678e+003, 7.727516e+001
1.194160e+003, 7.759494e+001
1.194642e+003, 7.763879e+001
1.195124e+003, 7.747050e+001
1.195606e+003, 7.732138e+001
1.196089e+003, 7.719262e+001
1.196571e+003, 7.715834e+001
1.197053e+003, 7.721436e+001
1.197535e+003, 7.720280e+001
1.198017e+003, 7.708669e+001
1.198499e+003, 7.695277e+001
1.198981e+003, 7.685740e+001
1.199463e+003, 7.673582e+001
1.199945e+003, 7.652980e+001
1.200427e+003, 7.621871e+001
1.200910e+003, 7.558670e+001
1.201392e+003, 7.488582e+001
1.201874e+003, 7.474311e+001
1.202356e+003, 7.504787e+001
1.202838e+003, 7.537348e+001
1.203320e+003, 7.555155e+001
1.203802e+003, 7.537527e+001
1.204284e+003, 7.455386e+001
1.204767e+003, 7.386539e+001
1.205249e+003, 7.410339e+001
1.205731e+003, 7.450117e+001
1.206213e+003, 7.444920e+001
1.206695e+003, 7.416412e+001
1.207177e+003, 7.385735e+001
1.207659e+003, 7.359828e+001
1.208141e+003, 7.350823e+001
1.208624e+003, 7.362986e+001
1.209106e+003, 7.358680e+001
1.209588e+003, 7.301184e+001
1.210070e+003, 7.268111e+001
1.210552e+003, 7.299888e+001
1.211034e+003, 7.330615e+001
1.211516e+003, 7.329485e+001
1.211998e+003, 7.309280e+001
1.212480e+003, 7.273478e+001
1.212963e+003, 7.230861e+001
1.213445e+003, 7.217226e+001
1.213927e+003, 7.239668e+001
1.214409e+003, 7.250341e+001
1.214891e+003, 7.235568e+001
1.215373e+003, 7.272287e+001
1.215855e+003, 7.389653e+001
1.216337e+003, 7.492867e+001
1.216819e+003, 7.536484e+001
1.217302e+003, 7.511703e+001
1.217784e+003, 7.389594e+001
1.218266e+003, 7.220466e+001
1.218748e+003, 7.173025e+001
1.219230e+003, 7.221722e+001
1.219712e+003, 7.240963e+001
1.220194e+003, 7.228699e+001
1.220676e+003, 7.218305e+001
1.221159e+003, 7.215136e+001
1.221641e+003, 7.192875e+001
1.222123e+003, 7.136048e+001
1.222605e+003, 7.086467e+001
1.223087e+003, 7.092018e+001
1.223569e+003, 7.120947e+001
1.224051e+003, 7.151646e+001
1.224533e+003, 7.172134e+001
1.225016e+003, 7.155105e+001
1.225498e+003, 7.120032e+001
1.225980e+003, 7.108589e+001
1.226462e+003, 7.123753e+001
1.226944e+003, 7.132964e+001
1.227426e+003, 7.122735e+001
1.227908e+003, 7.112137e+001
1.228390e+003, 7.104033e+001
1.228872e+003, 7.101561e+001
1.229354e+003, 7.111062e+001
1.229837e+003, 7.121802e+001
1.230319e+003, 7.124573e+001
1.230801e+003, 7.123270e+001
1.231283e+003, 7.123172e+001
1.231765e+003, 7.124630e+001
1.232247e+003, 7.140280e+001
1.232729e+003, 7.183949e+001
1.233211e+003, 7.197176e+001
1.233694e+003, 7.168629e+001
1.234176e+003, 7.142836e+001
1.234658e+003, 7.135490e+001
1.235140e+003, 7.121389e+001
1.235622e+003, 7.079501e+001
1.236104e+003, 7.031404e+001
1.236586e+003, 7.015008e+001
1.237068e+003, 7.023611e+001
1.237551e+003, 7.033360e+001
1.238033e+003, 7.042249e+001
1.238515e+003, 7.039880e+001
1.238997e+003, 7.027293e+001
1.239479e+003, 7.009787e+001
1.239961e+003, 6.991932e+001
1.240443e+003, 6.993011e+001
1.240925e+003, 7.029009e+001
1.241407e+003, 7.068175e+001
1.241890e+003, 7.086214e+001
1.242372e+003, 7.086231e+001
1.242854e+003, 7.060514e+001
1.243336e+003, 7.027307e+001
1.243818e+003, 7.004512e+001
1.244300e+003, 6.993720e+001
1.244782e+003, 6.995501e+001
1.245264e+003, 7.008719e+001
1.245746e+003, 7.020455e+001
1.246229e+003, 7.024322e+001
1.246711e+003, 7.032112e+001
1.247193e+003, 7.064476e+001
1.247675e+003, 7.075211e+001
1.248157e+003, 7.027842e+001
1.248639e+003, 6.979003e+001
1.249121e+003, 6.966989e+001
1.249603e+003, 6.981079e+001
1.250085e+003, 7.007951e+001
1.250568e+003, 7.044870e+001
1.251050e+003, 7.038638e+001
1.251532e+003, 6.982687e+001
1.252014e+003, 6.957275e+001
1.252496e+003, 6.969303e+001
1.252978e+003, 6.986539e+001
1.253460e+003, 6.999255e+001
1.253942e+003, 7.008843e+001
1.254425e+003, 7.016221e+001
1.254907e+003, 7.020893e+001
1.255389e+003, 7.019934e+001
1.255871e+003, 7.017380e+001
1.256353e+003, 7.025014e+001
1.256835e+003, 7.034365e+001
1.257317e+003, 7.028175e+001
1.257799e+003, 7.009946e+001
1.258281e+003, 6.988145e+001
1.258764e+003, 6.967432e+001
1.259246e+003, 6.958794e+001
1.259728e+003, 6.971269e+001
1.260210e+003, 6.979728e+001
1.260692e+003, 6.967632e+001
1.261174e+003, 6.955225e+001
1.261656e+003, 6.953246e+001
1.262138e+003, 6.953429e+001
1.262620e+003, 6.944422e+001
1.263103e+003, 6.936174e+001
1.263585e+003, 6.949523e+001
1.264067e+003, 6.980291e+001
1.264549e+003, 6.992831e+001
1.265031e+003, 6.984319e+001
1.265513e+003, 6.961816e+001
1.265995e+003, 6.914676e+001
1.266477e+003, 6.909188e+001
1.266960e+003, 6.968216e+001
1.267442e+003, 7.011287e+001
1.267924e+003, 6.991862e+001
1.268406e+003, 6.951399e+001
1.268888e+003, 6.937174e+001
1.269370e+003, 6.941440e+001
1.269852e+003, 6.954823e+001
1.270334e+003, 6.968483e+001
1.270817e+003, 6.951347e+001
1.271299e+003, 6.916982e+001
1.271781e+003, 6.906685e+001
1.272263e+003, 6.921563e+001
1.272745e+003, 6.934593e+001
1.273227e+003, 6.935482e+001
1.273709e+003, 6.934725e+001
1.274191e+003, 6.941675e+001
1.274673e+003, 6.944385e+001
1.275156e+003, 6.919899e+001
1.275638e+003, 6.908411e+001
1.276120e+003, 6.959017e+001
1.276602e+003, 7.019505e+001
1.277084e+003, 7.024646e+001
1.277566e+003, 6.989297e+001
1.278048e+003, 6.970678e+001
1.278530e+003, 6.971607e+001
1.279012e+003, 6.962292e+001
1.279495e+003, 6.932265e+001
1.279977e+003, 6.934129e+001
1.280459e+003, 6.982970e+001
1.280941e+003, 7.010436e+001
1.281423e+003, 6.988696e+001
1.281905e+003, 6.969093e+001
1.282387e+003, 6.994033e+001
1.282869e+003, 7.035203e+001
1.283352e+003, 7.046185e+001
1.283834e+003, 7.035558e+001
1.284316e+003, 7.021059e+001
1.284798e+003, 7.003016e+001
##END=



