##NAMES=Crocoite
##RRUFFID=R160016
##IDEAL CHEMISTRY=Pb^2+^Cr^6+^O_4_
##LOCALITY=Beresovsk, Ural Mountains, Russia
##OWNER=RRUFF
##SOURCE=Marcus Origlieri
##DESCRIPTION=Red prismatic crystals associated with embreyite (R160015)
##STATUS=The identification of this mineral has been determined only by Raman spectroscopy
##URL=rruff.info/R160016
8.758203e+001, 8.583422e+003
8.806415e+001, 8.061437e+003
8.854626e+001, 7.968856e+003
8.902838e+001, 8.436812e+003
8.951050e+001, 9.089861e+003
8.999261e+001, 9.813968e+003
9.047473e+001, 1.059501e+004
9.095685e+001, 1.143122e+004
9.143896e+001, 1.234949e+004
9.192108e+001, 1.335001e+004
9.240320e+001, 1.425980e+004
9.288531e+001, 1.485521e+004
9.336743e+001, 1.507381e+004
9.384955e+001, 1.504131e+004
9.433167e+001, 1.499540e+004
9.481378e+001, 1.486479e+004
9.529590e+001, 1.468407e+004
9.577802e+001, 1.447839e+004
9.626013e+001, 1.431523e+004
9.674225e+001, 1.424842e+004
9.722437e+001, 1.426452e+004
9.770648e+001, 1.424927e+004
9.818860e+001, 1.415368e+004
9.867072e+001, 1.405142e+004
9.915283e+001, 1.398263e+004
9.963495e+001, 1.394814e+004
1.001171e+002, 1.391972e+004
1.005992e+002, 1.385615e+004
1.010813e+002, 1.372701e+004
1.015634e+002, 1.363043e+004
1.020455e+002, 1.354792e+004
1.025277e+002, 1.349679e+004
1.030098e+002, 1.349800e+004
1.034919e+002, 1.355841e+004
1.039740e+002, 1.365927e+004
1.044561e+002, 1.374301e+004
1.049382e+002, 1.377898e+004
1.054204e+002, 1.382977e+004
1.059025e+002, 1.390143e+004
1.063846e+002, 1.399136e+004
1.068667e+002, 1.409403e+004
1.073488e+002, 1.420577e+004
1.078309e+002, 1.432776e+004
1.083131e+002, 1.446587e+004
1.087952e+002, 1.463214e+004
1.092773e+002, 1.480114e+004
1.097594e+002, 1.495616e+004
1.102415e+002, 1.509745e+004
1.107236e+002, 1.523601e+004
1.112058e+002, 1.538247e+004
1.116879e+002, 1.553307e+004
1.121700e+002, 1.567538e+004
1.126521e+002, 1.580064e+004
1.131342e+002, 1.591746e+004
1.136163e+002, 1.603464e+004
1.140985e+002, 1.614155e+004
1.145806e+002, 1.627315e+004
1.150627e+002, 1.645532e+004
1.155448e+002, 1.667595e+004
1.160269e+002, 1.691145e+004
1.165090e+002, 1.714546e+004
1.169912e+002, 1.737783e+004
1.174733e+002, 1.762368e+004
1.179554e+002, 1.787905e+004
1.184375e+002, 1.815502e+004
1.189196e+002, 1.844176e+004
1.194017e+002, 1.874734e+004
1.198839e+002, 1.909698e+004
1.203660e+002, 1.952572e+004
1.208481e+002, 2.005412e+004
1.213302e+002, 2.061604e+004
1.218123e+002, 2.117806e+004
1.222944e+002, 2.178380e+004
1.227766e+002, 2.246455e+004
1.232587e+002, 2.322750e+004
1.237408e+002, 2.406731e+004
1.242229e+002, 2.496778e+004
1.247050e+002, 2.594214e+004
1.251871e+002, 2.697797e+004
1.256693e+002, 2.806408e+004
1.261514e+002, 2.921620e+004
1.266335e+002, 3.045551e+004
1.271156e+002, 3.180390e+004
1.275977e+002, 3.323261e+004
1.280798e+002, 3.466651e+004
1.285620e+002, 3.612230e+004
1.290441e+002, 3.757673e+004
1.295262e+002, 3.905376e+004
1.300083e+002, 4.054004e+004
1.304904e+002, 4.196583e+004
1.309725e+002, 4.335943e+004
1.314547e+002, 4.461348e+004
1.319368e+002, 4.557921e+004
1.324189e+002, 4.625800e+004
1.329010e+002, 4.663694e+004
1.333831e+002, 4.670196e+004
1.338652e+002, 4.645269e+004
1.343474e+002, 4.589116e+004
1.348295e+002, 4.490317e+004
1.353116e+002, 4.364324e+004
1.357937e+002, 4.222187e+004
1.362758e+002, 4.065340e+004
1.367579e+002, 3.897048e+004
1.372401e+002, 3.724732e+004
1.377222e+002, 3.543119e+004
1.382043e+002, 3.365586e+004
1.386864e+002, 3.191756e+004
1.391685e+002, 3.024221e+004
1.396507e+002, 2.866338e+004
1.401328e+002, 2.721338e+004
1.406149e+002, 2.588504e+004
1.410970e+002, 2.464286e+004
1.415791e+002, 2.350177e+004
1.420612e+002, 2.244082e+004
1.425434e+002, 2.146249e+004
1.430255e+002, 2.056438e+004
1.435076e+002, 1.973706e+004
1.439897e+002, 1.897229e+004
1.444718e+002, 1.827125e+004
1.449539e+002, 1.764719e+004
1.454361e+002, 1.712308e+004
1.459182e+002, 1.663573e+004
1.464003e+002, 1.615170e+004
1.468824e+002, 1.566677e+004
1.473645e+002, 1.519503e+004
1.478466e+002, 1.475404e+004
1.483288e+002, 1.434885e+004
1.488109e+002, 1.395767e+004
1.492930e+002, 1.358189e+004
1.497751e+002, 1.321716e+004
1.502572e+002, 1.285480e+004
1.507393e+002, 1.248902e+004
1.512215e+002, 1.214232e+004
1.517036e+002, 1.186144e+004
1.521857e+002, 1.164293e+004
1.526678e+002, 1.142414e+004
1.531499e+002, 1.118102e+004
1.536320e+002, 1.092347e+004
1.541142e+002, 1.067539e+004
1.545963e+002, 1.044080e+004
1.550784e+002, 1.022350e+004
1.555605e+002, 1.002677e+004
1.560426e+002, 9.851299e+003
1.565247e+002, 9.677206e+003
1.570069e+002, 9.487590e+003
1.574890e+002, 9.282957e+003
1.579711e+002, 9.088685e+003
1.584532e+002, 8.907163e+003
1.589353e+002, 8.741911e+003
1.594174e+002, 8.597220e+003
1.598996e+002, 8.473311e+003
1.603817e+002, 8.365896e+003
1.608638e+002, 8.268791e+003
1.613459e+002, 8.180658e+003
1.618280e+002, 8.108864e+003
1.623102e+002, 8.080163e+003
1.627923e+002, 8.051139e+003
1.632744e+002, 7.986415e+003
1.637565e+002, 7.876968e+003
1.642386e+002, 7.750207e+003
1.647207e+002, 7.656060e+003
1.652029e+002, 7.613440e+003
1.656850e+002, 7.578122e+003
1.661671e+002, 7.556929e+003
1.666492e+002, 7.536262e+003
1.671313e+002, 7.498894e+003
1.676134e+002, 7.437896e+003
1.680956e+002, 7.366131e+003
1.685777e+002, 7.321305e+003
1.690598e+002, 7.332497e+003
1.695419e+002, 7.339121e+003
1.700240e+002, 7.333325e+003
1.705061e+002, 7.321180e+003
1.709883e+002, 7.314494e+003
1.714704e+002, 7.320910e+003
1.719525e+002, 7.332798e+003
1.724346e+002, 7.315245e+003
1.729167e+002, 7.234145e+003
1.733988e+002, 7.167829e+003
1.738810e+002, 7.154262e+003
1.743631e+002, 7.175793e+003
1.748452e+002, 7.184366e+003
1.753273e+002, 7.148881e+003
1.758094e+002, 7.084308e+003
1.762915e+002, 7.047656e+003
1.767737e+002, 7.058530e+003
1.772558e+002, 7.072986e+003
1.777379e+002, 7.062424e+003
1.782200e+002, 7.028852e+003
1.787021e+002, 6.995132e+003
1.791842e+002, 6.980547e+003
1.796664e+002, 6.970977e+003
1.801485e+002, 6.937842e+003
1.806306e+002, 6.860517e+003
1.811127e+002, 6.777573e+003
1.815948e+002, 6.734917e+003
1.820769e+002, 6.738643e+003
1.825591e+002, 6.747925e+003
1.830412e+002, 6.749664e+003
1.835233e+002, 6.742555e+003
1.840054e+002, 6.721829e+003
1.844875e+002, 6.682072e+003
1.849696e+002, 6.632518e+003
1.854518e+002, 6.593787e+003
1.859339e+002, 6.578165e+003
1.864160e+002, 6.544157e+003
1.868981e+002, 6.465205e+003
1.873802e+002, 6.365632e+003
1.878623e+002, 6.271009e+003
1.883445e+002, 6.192781e+003
1.888266e+002, 6.129641e+003
1.893087e+002, 6.079856e+003
1.897908e+002, 6.054202e+003
1.902729e+002, 6.026977e+003
1.907550e+002, 5.982357e+003
1.912372e+002, 5.934439e+003
1.917193e+002, 5.905128e+003
1.922014e+002, 5.910002e+003
1.926835e+002, 5.941771e+003
1.931656e+002, 5.950742e+003
1.936477e+002, 5.911879e+003
1.941299e+002, 5.873311e+003
1.946120e+002, 5.839293e+003
1.950941e+002, 5.811303e+003
1.955762e+002, 5.790721e+003
1.960583e+002, 5.778705e+003
1.965404e+002, 5.774915e+003
1.970226e+002, 5.773798e+003
1.975047e+002, 5.784648e+003
1.979868e+002, 5.788397e+003
1.984689e+002, 5.778104e+003
1.989510e+002, 5.756170e+003
1.994331e+002, 5.727830e+003
1.999153e+002, 5.695430e+003
2.003974e+002, 5.659350e+003
2.008795e+002, 5.632689e+003
2.013616e+002, 5.611977e+003
2.018437e+002, 5.601335e+003
2.023258e+002, 5.612185e+003
2.028080e+002, 5.637721e+003
2.032901e+002, 5.653656e+003
2.037722e+002, 5.640487e+003
2.042543e+002, 5.599932e+003
2.047364e+002, 5.568910e+003
2.052185e+002, 5.559053e+003
2.057007e+002, 5.548301e+003
2.061828e+002, 5.518011e+003
2.066649e+002, 5.470238e+003
2.071470e+002, 5.427141e+003
2.076291e+002, 5.401686e+003
2.081112e+002, 5.395687e+003
2.085934e+002, 5.405086e+003
2.090755e+002, 5.452998e+003
2.095576e+002, 5.501069e+003
2.100397e+002, 5.511922e+003
2.105218e+002, 5.484171e+003
2.110039e+002, 5.448856e+003
2.114861e+002, 5.419956e+003
2.119682e+002, 5.398880e+003
2.124503e+002, 5.388995e+003
2.129324e+002, 5.401161e+003
2.134145e+002, 5.417847e+003
2.138967e+002, 5.413048e+003
2.143788e+002, 5.380880e+003
2.148609e+002, 5.354860e+003
2.153430e+002, 5.369404e+003
2.158251e+002, 5.398526e+003
2.163072e+002, 5.408977e+003
2.167894e+002, 5.384033e+003
2.172715e+002, 5.341003e+003
2.177536e+002, 5.305637e+003
2.182357e+002, 5.273912e+003
2.187178e+002, 5.262339e+003
2.191999e+002, 5.298296e+003
2.196821e+002, 5.350447e+003
2.201642e+002, 5.382319e+003
2.206463e+002, 5.376137e+003
2.211284e+002, 5.345456e+003
2.216105e+002, 5.319046e+003
2.220926e+002, 5.295927e+003
2.225748e+002, 5.280091e+003
2.230569e+002, 5.269800e+003
2.235390e+002, 5.267078e+003
2.240211e+002, 5.276947e+003
2.245032e+002, 5.303984e+003
2.249853e+002, 5.339400e+003
2.254675e+002, 5.359691e+003
2.259496e+002, 5.363066e+003
2.264317e+002, 5.351157e+003
2.269138e+002, 5.307873e+003
2.273959e+002, 5.257892e+003
2.278780e+002, 5.231232e+003
2.283602e+002, 5.243772e+003
2.288423e+002, 5.280941e+003
2.293244e+002, 5.295278e+003
2.298065e+002, 5.268437e+003
2.302886e+002, 5.241721e+003
2.307707e+002, 5.210174e+003
2.312529e+002, 5.185038e+003
2.317350e+002, 5.183521e+003
2.322171e+002, 5.214396e+003
2.326992e+002, 5.263486e+003
2.331813e+002, 5.285026e+003
2.336634e+002, 5.248394e+003
2.341456e+002, 5.218313e+003
2.346277e+002, 5.207786e+003
2.351098e+002, 5.203403e+003
2.355919e+002, 5.182800e+003
2.360740e+002, 5.135433e+003
2.365561e+002, 5.079492e+003
2.370383e+002, 5.069066e+003
2.375204e+002, 5.175118e+003
2.380025e+002, 5.245437e+003
2.384846e+002, 5.258056e+003
2.389667e+002, 5.235053e+003
2.394488e+002, 5.195921e+003
2.399310e+002, 5.147921e+003
2.404131e+002, 5.101796e+003
2.408952e+002, 5.085708e+003
2.413773e+002, 5.125625e+003
2.418594e+002, 5.159888e+003
2.423415e+002, 5.181789e+003
2.428237e+002, 5.195328e+003
2.433058e+002, 5.202748e+003
2.437879e+002, 5.204245e+003
2.442700e+002, 5.206011e+003
2.447521e+002, 5.223890e+003
2.452342e+002, 5.274640e+003
2.457164e+002, 5.307000e+003
2.461985e+002, 5.294445e+003
2.466806e+002, 5.264650e+003
2.471627e+002, 5.261699e+003
2.476448e+002, 5.303288e+003
2.481269e+002, 5.356404e+003
2.486091e+002, 5.356527e+003
2.490912e+002, 5.286191e+003
2.495733e+002, 5.233846e+003
2.500554e+002, 5.217776e+003
2.505375e+002, 5.229535e+003
2.510196e+002, 5.266554e+003
2.515018e+002, 5.333983e+003
2.519839e+002, 5.399231e+003
2.524660e+002, 5.402514e+003
2.529481e+002, 5.340708e+003
2.534302e+002, 5.293943e+003
2.539123e+002, 5.295029e+003
2.543945e+002, 5.319605e+003
2.548766e+002, 5.331260e+003
2.553587e+002, 5.321994e+003
2.558408e+002, 5.301758e+003
2.563229e+002, 5.274618e+003
2.568051e+002, 5.241708e+003
2.572872e+002, 5.223213e+003
2.577693e+002, 5.226633e+003
2.582514e+002, 5.247353e+003
2.587335e+002, 5.283251e+003
2.592156e+002, 5.338768e+003
2.596978e+002, 5.391552e+003
2.601799e+002, 5.413786e+003
2.606620e+002, 5.413829e+003
2.611441e+002, 5.415940e+003
2.616262e+002, 5.426098e+003
2.621083e+002, 5.443225e+003
2.625905e+002, 5.470834e+003
2.630726e+002, 5.514384e+003
2.635547e+002, 5.548557e+003
2.640368e+002, 5.536298e+003
2.645189e+002, 5.499271e+003
2.650010e+002, 5.481865e+003
2.654832e+002, 5.512329e+003
2.659653e+002, 5.565108e+003
2.664474e+002, 5.603751e+003
2.669295e+002, 5.629200e+003
2.674116e+002, 5.636493e+003
2.678937e+002, 5.595483e+003
2.683759e+002, 5.539215e+003
2.688580e+002, 5.517490e+003
2.693401e+002, 5.562387e+003
2.698222e+002, 5.633792e+003
2.703043e+002, 5.671908e+003
2.707864e+002, 5.670448e+003
2.712686e+002, 5.662959e+003
2.717507e+002, 5.663356e+003
2.722328e+002, 5.667229e+003
2.727149e+002, 5.668400e+003
2.731970e+002, 5.661606e+003
2.736791e+002, 5.659107e+003
2.741613e+002, 5.685327e+003
2.746434e+002, 5.749573e+003
2.751255e+002, 5.795388e+003
2.756076e+002, 5.768979e+003
2.760897e+002, 5.730719e+003
2.765718e+002, 5.737288e+003
2.770540e+002, 5.807451e+003
2.775361e+002, 5.884908e+003
2.780182e+002, 5.893798e+003
2.785003e+002, 5.821469e+003
2.789824e+002, 5.768590e+003
2.794645e+002, 5.775086e+003
2.799467e+002, 5.802147e+003
2.804288e+002, 5.827024e+003
2.809109e+002, 5.846157e+003
2.813930e+002, 5.866058e+003
2.818751e+002, 5.896305e+003
2.823572e+002, 5.938391e+003
2.828394e+002, 5.971509e+003
2.833215e+002, 5.973545e+003
2.838036e+002, 5.981278e+003
2.842857e+002, 6.030458e+003
2.847678e+002, 6.114583e+003
2.852499e+002, 6.183769e+003
2.857321e+002, 6.172854e+003
2.862142e+002, 6.078721e+003
2.866963e+002, 6.040568e+003
2.871784e+002, 6.116043e+003
2.876605e+002, 6.200800e+003
2.881426e+002, 6.249086e+003
2.886248e+002, 6.263966e+003
2.891069e+002, 6.264397e+003
2.895890e+002, 6.258687e+003
2.900711e+002, 6.248142e+003
2.905532e+002, 6.250420e+003
2.910353e+002, 6.270321e+003
2.915175e+002, 6.298713e+003
2.919996e+002, 6.336543e+003
2.924817e+002, 6.379212e+003
2.929638e+002, 6.419239e+003
2.934459e+002, 6.454169e+003
2.939280e+002, 6.482335e+003
2.944102e+002, 6.492408e+003
2.948923e+002, 6.464660e+003
2.953744e+002, 6.450482e+003
2.958565e+002, 6.465042e+003
2.963386e+002, 6.500313e+003
2.968207e+002, 6.548852e+003
2.973029e+002, 6.609283e+003
2.977850e+002, 6.674631e+003
2.982671e+002, 6.727347e+003
2.987492e+002, 6.764984e+003
2.992313e+002, 6.793998e+003
2.997134e+002, 6.790728e+003
3.001956e+002, 6.793211e+003
3.006777e+002, 6.847158e+003
3.011598e+002, 6.968994e+003
3.016419e+002, 7.113416e+003
3.021240e+002, 7.199490e+003
3.026061e+002, 7.204462e+003
3.030883e+002, 7.214131e+003
3.035704e+002, 7.233958e+003
3.040525e+002, 7.267116e+003
3.045346e+002, 7.317643e+003
3.050167e+002, 7.385778e+003
3.054988e+002, 7.466693e+003
3.059810e+002, 7.556138e+003
3.064631e+002, 7.655204e+003
3.069452e+002, 7.756843e+003
3.074273e+002, 7.870903e+003
3.079094e+002, 7.978614e+003
3.083915e+002, 8.066177e+003
3.088737e+002, 8.136748e+003
3.093558e+002, 8.207240e+003
3.098379e+002, 8.289040e+003
3.103200e+002, 8.382075e+003
3.108021e+002, 8.494448e+003
3.112842e+002, 8.635965e+003
3.117664e+002, 8.789575e+003
3.122485e+002, 8.960139e+003
3.127306e+002, 9.137742e+003
3.132127e+002, 9.302978e+003
3.136948e+002, 9.435078e+003
3.141769e+002, 9.543469e+003
3.146591e+002, 9.688867e+003
3.151412e+002, 9.887720e+003
3.156233e+002, 1.010554e+004
3.161054e+002, 1.034142e+004
3.165875e+002, 1.058533e+004
3.170696e+002, 1.081782e+004
3.175518e+002, 1.102389e+004
3.180339e+002, 1.123048e+004
3.185160e+002, 1.150530e+004
3.189981e+002, 1.187002e+004
3.194802e+002, 1.226348e+004
3.199623e+002, 1.267021e+004
3.204445e+002, 1.309755e+004
3.209266e+002, 1.355665e+004
3.214087e+002, 1.405199e+004
3.218908e+002, 1.455693e+004
3.223729e+002, 1.502406e+004
3.228550e+002, 1.544057e+004
3.233372e+002, 1.586892e+004
3.238193e+002, 1.633130e+004
3.243014e+002, 1.679766e+004
3.247835e+002, 1.726638e+004
3.252656e+002, 1.772916e+004
3.257477e+002, 1.816305e+004
3.262299e+002, 1.852964e+004
3.267120e+002, 1.881878e+004
3.271941e+002, 1.913445e+004
3.276762e+002, 1.944527e+004
3.281583e+002, 1.982348e+004
3.286404e+002, 2.027423e+004
3.291226e+002, 2.081449e+004
3.296047e+002, 2.148011e+004
3.300868e+002, 2.229158e+004
3.305689e+002, 2.324905e+004
3.310510e+002, 2.435061e+004
3.315331e+002, 2.556915e+004
3.320153e+002, 2.699847e+004
3.324974e+002, 2.865881e+004
3.329795e+002, 3.051687e+004
3.334616e+002, 3.254562e+004
3.339437e+002, 3.476272e+004
3.344258e+002, 3.709304e+004
3.349080e+002, 3.942031e+004
3.353901e+002, 4.191094e+004
3.358722e+002, 4.397227e+004
3.363543e+002, 4.565901e+004
3.368365e+002, 4.676755e+004
3.373186e+002, 4.701141e+004
3.378007e+002, 4.629477e+004
3.382828e+002, 4.495874e+004
3.387649e+002, 4.323598e+004
3.392470e+002, 4.104178e+004
3.397292e+002, 3.913616e+004
3.402113e+002, 3.756630e+004
3.406934e+002, 3.645533e+004
3.411755e+002, 3.590757e+004
3.416576e+002, 3.591863e+004
3.421397e+002, 3.637385e+004
3.426219e+002, 3.721879e+004
3.431040e+002, 3.844581e+004
3.435861e+002, 3.997586e+004
3.440682e+002, 4.180330e+004
3.445503e+002, 4.397775e+004
3.450324e+002, 4.649723e+004
3.455146e+002, 4.932413e+004
3.459967e+002, 5.236963e+004
3.464788e+002, 5.554803e+004
3.469609e+002, 5.891199e+004
3.474430e+002, 6.254143e+004
3.479251e+002, 6.638586e+004
3.484073e+002, 7.065980e+004
3.488894e+002, 7.534466e+004
3.493715e+002, 8.056414e+004
3.498536e+002, 8.655356e+004
3.503357e+002, 9.333170e+004
3.508178e+002, 1.010188e+005
3.513000e+002, 1.096897e+005
3.517821e+002, 1.193299e+005
3.522642e+002, 1.302167e+005
3.527463e+002, 1.427904e+005
3.532284e+002, 1.565967e+005
3.537105e+002, 1.712948e+005
3.541927e+002, 1.869438e+005
3.546748e+002, 2.026534e+005
3.551569e+002, 2.185809e+005
3.556390e+002, 2.343015e+005
3.561211e+002, 2.483764e+005
3.566032e+002, 2.614013e+005
3.570854e+002, 2.710786e+005
3.575675e+002, 2.758953e+005
3.580496e+002, 2.761958e+005
3.585317e+002, 2.718288e+005
3.590138e+002, 2.614960e+005
3.594959e+002, 2.469139e+005
3.599781e+002, 2.299890e+005
3.604602e+002, 2.105940e+005
3.609423e+002, 1.909458e+005
3.614244e+002, 1.722722e+005
3.619065e+002, 1.547501e+005
3.623886e+002, 1.386818e+005
3.628708e+002, 1.242026e+005
3.633529e+002, 1.111835e+005
3.638350e+002, 9.968830e+004
3.643171e+002, 8.969663e+004
3.647992e+002, 8.095672e+004
3.652813e+002, 7.352750e+004
3.657635e+002, 6.728842e+004
3.662456e+002, 6.180416e+004
3.667277e+002, 5.711225e+004
3.672098e+002, 5.303505e+004
3.676919e+002, 4.954924e+004
3.681740e+002, 4.662589e+004
3.686562e+002, 4.421883e+004
3.691383e+002, 4.232139e+004
3.696204e+002, 4.091598e+004
3.701025e+002, 4.000766e+004
3.705846e+002, 3.959118e+004
3.710667e+002, 3.970498e+004
3.715489e+002, 4.036140e+004
3.720310e+002, 4.155276e+004
3.725131e+002, 4.333327e+004
3.729952e+002, 4.568737e+004
3.734773e+002, 4.847299e+004
3.739594e+002, 5.172634e+004
3.744416e+002, 5.536897e+004
3.749237e+002, 5.837089e+004
3.754058e+002, 6.124046e+004
3.758879e+002, 6.303042e+004
3.763700e+002, 6.329550e+004
3.768521e+002, 6.220988e+004
3.773343e+002, 6.002387e+004
3.778164e+002, 5.679205e+004
3.782985e+002, 5.277880e+004
3.787806e+002, 4.855847e+004
3.792627e+002, 4.385156e+004
3.797448e+002, 3.941027e+004
3.802270e+002, 3.517502e+004
3.807091e+002, 3.130693e+004
3.811912e+002, 2.793684e+004
3.816733e+002, 2.508483e+004
3.821554e+002, 2.270454e+004
3.826375e+002, 2.072906e+004
3.831197e+002, 1.919673e+004
3.836018e+002, 1.795675e+004
3.840839e+002, 1.709235e+004
3.845660e+002, 1.638244e+004
3.850481e+002, 1.574132e+004
3.855302e+002, 1.517195e+004
3.860124e+002, 1.471863e+004
3.864945e+002, 1.441503e+004
3.869766e+002, 1.424032e+004
3.874587e+002, 1.408046e+004
3.879408e+002, 1.388731e+004
3.884229e+002, 1.377453e+004
3.889051e+002, 1.377416e+004
3.893872e+002, 1.384868e+004
3.898693e+002, 1.395625e+004
3.903514e+002, 1.408407e+004
3.908335e+002, 1.425571e+004
3.913156e+002, 1.449842e+004
3.917978e+002, 1.479128e+004
3.922799e+002, 1.522029e+004
3.927620e+002, 1.582928e+004
3.932441e+002, 1.652952e+004
3.937262e+002, 1.724906e+004
3.942083e+002, 1.801625e+004
3.946905e+002, 1.892328e+004
3.951726e+002, 2.004085e+004
3.956547e+002, 2.136701e+004
3.961368e+002, 2.289653e+004
3.966189e+002, 2.472966e+004
3.971010e+002, 2.662668e+004
3.975832e+002, 2.869069e+004
3.980653e+002, 3.071502e+004
3.985474e+002, 3.250958e+004
3.990295e+002, 3.406041e+004
3.995116e+002, 3.511322e+004
3.999937e+002, 3.525658e+004
4.004759e+002, 3.444723e+004
4.009580e+002, 3.295356e+004
4.014401e+002, 3.037010e+004
4.019222e+002, 2.742379e+004
4.024043e+002, 2.445781e+004
4.028864e+002, 2.153639e+004
4.033686e+002, 1.887487e+004
4.038507e+002, 1.662055e+004
4.043328e+002, 1.475558e+004
4.048149e+002, 1.322227e+004
4.052970e+002, 1.207703e+004
4.057791e+002, 1.116136e+004
4.062613e+002, 1.040223e+004
4.067434e+002, 9.781151e+003
4.072255e+002, 9.273896e+003
4.077076e+002, 8.918430e+003
4.081897e+002, 8.634824e+003
4.086718e+002, 8.335295e+003
4.091540e+002, 8.021066e+003
4.096361e+002, 7.743365e+003
4.101182e+002, 7.528367e+003
4.106003e+002, 7.362944e+003
4.110824e+002, 7.219613e+003
4.115645e+002, 7.100170e+003
4.120467e+002, 6.991211e+003
4.125288e+002, 6.889333e+003
4.130109e+002, 6.793433e+003
4.134930e+002, 6.700513e+003
4.139751e+002, 6.609722e+003
4.144572e+002, 6.525563e+003
4.149394e+002, 6.453301e+003
4.154215e+002, 6.393787e+003
4.159036e+002, 6.342081e+003
4.163857e+002, 6.299154e+003
4.168678e+002, 6.263293e+003
4.173499e+002, 6.241293e+003
4.178321e+002, 6.227372e+003
4.183142e+002, 6.202848e+003
4.187963e+002, 6.157573e+003
4.192784e+002, 6.094512e+003
4.197605e+002, 6.022898e+003
4.202426e+002, 5.918835e+003
4.207248e+002, 5.838717e+003
4.212069e+002, 5.802567e+003
4.216890e+002, 5.786069e+003
4.221711e+002, 5.767626e+003
4.226532e+002, 5.741203e+003
4.231353e+002, 5.708370e+003
4.236175e+002, 5.670391e+003
4.240996e+002, 5.626136e+003
4.245817e+002, 5.582880e+003
4.250638e+002, 5.537822e+003
4.255459e+002, 5.496503e+003
4.260280e+002, 5.458640e+003
4.265102e+002, 5.426405e+003
4.269923e+002, 5.405226e+003
4.274744e+002, 5.399303e+003
4.279565e+002, 5.402553e+003
4.284386e+002, 5.395030e+003
4.289207e+002, 5.373730e+003
4.294029e+002, 5.346046e+003
4.298850e+002, 5.299805e+003
4.303671e+002, 5.257276e+003
4.308492e+002, 5.240182e+003
4.313313e+002, 5.250300e+003
4.318134e+002, 5.268260e+003
4.322956e+002, 5.271769e+003
4.327777e+002, 5.260208e+003
4.332598e+002, 5.260860e+003
4.337419e+002, 5.286008e+003
4.342241e+002, 5.308012e+003
4.347062e+002, 5.307983e+003
4.351883e+002, 5.296592e+003
4.356704e+002, 5.295912e+003
4.361525e+002, 5.321746e+003
4.366346e+002, 5.354307e+003
4.371168e+002, 5.359071e+003
4.375989e+002, 5.333162e+003
4.380810e+002, 5.309758e+003
4.385631e+002, 5.299559e+003
4.390452e+002, 5.298286e+003
4.395273e+002, 5.302663e+003
4.400095e+002, 5.313381e+003
4.404916e+002, 5.320053e+003
4.409737e+002, 5.320151e+003
4.414558e+002, 5.311771e+003
4.419379e+002, 5.286380e+003
4.424200e+002, 5.239867e+003
4.429022e+002, 5.195959e+003
4.433843e+002, 5.178010e+003
4.438664e+002, 5.180901e+003
4.443485e+002, 5.170814e+003
4.448306e+002, 5.128849e+003
4.453127e+002, 5.089979e+003
4.457949e+002, 5.086249e+003
4.462770e+002, 5.101999e+003
4.467591e+002, 5.089953e+003
4.472412e+002, 5.026500e+003
4.477233e+002, 4.943969e+003
4.482054e+002, 4.905061e+003
4.486876e+002, 4.936286e+003
4.491697e+002, 4.951610e+003
4.496518e+002, 4.948464e+003
4.501339e+002, 4.927647e+003
4.506160e+002, 4.880247e+003
4.510981e+002, 4.812504e+003
4.515803e+002, 4.747338e+003
4.520624e+002, 4.704075e+003
4.525445e+002, 4.681103e+003
4.530266e+002, 4.658474e+003
4.535087e+002, 4.634778e+003
4.539908e+002, 4.613235e+003
4.544730e+002, 4.594108e+003
4.549551e+002, 4.577564e+003
4.554372e+002, 4.567974e+003
4.559193e+002, 4.565435e+003
4.564014e+002, 4.558045e+003
4.568835e+002, 4.522783e+003
4.573657e+002, 4.448308e+003
4.578478e+002, 4.398120e+003
4.583299e+002, 4.394363e+003
4.588120e+002, 4.396881e+003
4.592941e+002, 4.395326e+003
4.597762e+002, 4.387027e+003
4.602584e+002, 4.365338e+003
4.607405e+002, 4.314747e+003
4.612226e+002, 4.262265e+003
4.617047e+002, 4.278526e+003
4.621868e+002, 4.383537e+003
4.626689e+002, 4.460753e+003
4.631511e+002, 4.453700e+003
4.636332e+002, 4.409487e+003
4.641153e+002, 4.370841e+003
4.645974e+002, 4.340754e+003
4.650795e+002, 4.314738e+003
4.655616e+002, 4.285322e+003
4.660438e+002, 4.258608e+003
4.665259e+002, 4.247566e+003
4.670080e+002, 4.253797e+003
4.674901e+002, 4.277002e+003
4.679722e+002, 4.333092e+003
4.684543e+002, 4.408312e+003
4.689365e+002, 4.439226e+003
4.694186e+002, 4.373757e+003
4.699007e+002, 4.313792e+003
4.703828e+002, 4.326066e+003
4.708649e+002, 4.381868e+003
4.713470e+002, 4.417931e+003
4.718292e+002, 4.411306e+003
4.723113e+002, 4.383695e+003
4.727934e+002, 4.367718e+003
4.732755e+002, 4.369470e+003
4.737576e+002, 4.365915e+003
4.742397e+002, 4.351053e+003
4.747219e+002, 4.336311e+003
4.752040e+002, 4.320517e+003
4.756861e+002, 4.310160e+003
4.761682e+002, 4.324762e+003
4.766503e+002, 4.380270e+003
4.771324e+002, 4.459576e+003
4.776146e+002, 4.494533e+003
4.780967e+002, 4.462238e+003
4.785788e+002, 4.419672e+003
4.790609e+002, 4.346951e+003
4.795430e+002, 4.284879e+003
4.800251e+002, 4.278328e+003
4.805073e+002, 4.324898e+003
4.809894e+002, 4.370623e+003
4.814715e+002, 4.354868e+003
4.819536e+002, 4.284215e+003
4.824357e+002, 4.251941e+003
4.829178e+002, 4.281728e+003
4.834000e+002, 4.309246e+003
4.838821e+002, 4.308685e+003
4.843642e+002, 4.288684e+003
4.848463e+002, 4.257625e+003
4.853284e+002, 4.214995e+003
4.858105e+002, 4.170726e+003
4.862927e+002, 4.133212e+003
4.867748e+002, 4.101987e+003
4.872569e+002, 4.072463e+003
4.877390e+002, 4.038766e+003
4.882211e+002, 4.016332e+003
4.887032e+002, 4.040955e+003
4.891854e+002, 4.101419e+003
4.896675e+002, 4.123650e+003
4.901496e+002, 4.062814e+003
4.906317e+002, 3.983642e+003
4.911138e+002, 3.935113e+003
4.915959e+002, 3.913476e+003
4.920781e+002, 3.898320e+003
4.925602e+002, 3.880623e+003
4.930423e+002, 3.862765e+003
4.935244e+002, 3.850699e+003
4.940065e+002, 3.854710e+003
4.944886e+002, 3.844144e+003
4.949708e+002, 3.803509e+003
4.954529e+002, 3.758910e+003
4.959350e+002, 3.727071e+003
4.964171e+002, 3.709784e+003
4.968992e+002, 3.703458e+003
4.973813e+002, 3.706839e+003
4.978635e+002, 3.717458e+003
4.983456e+002, 3.720372e+003
4.988277e+002, 3.716147e+003
4.993098e+002, 3.702084e+003
4.997919e+002, 3.669866e+003
5.002740e+002, 3.633637e+003
5.007562e+002, 3.602059e+003
5.012383e+002, 3.578216e+003
5.017204e+002, 3.566416e+003
5.022025e+002, 3.581993e+003
5.026846e+002, 3.620516e+003
5.031667e+002, 3.626372e+003
5.036489e+002, 3.583865e+003
5.041310e+002, 3.537222e+003
5.046131e+002, 3.512554e+003
5.050952e+002, 3.498215e+003
5.055773e+002, 3.475086e+003
5.060594e+002, 3.432273e+003
5.065416e+002, 3.396635e+003
5.070237e+002, 3.393996e+003
5.075058e+002, 3.417333e+003
5.079879e+002, 3.446506e+003
5.084700e+002, 3.480948e+003
5.089521e+002, 3.504871e+003
5.094343e+002, 3.494532e+003
5.099164e+002, 3.449978e+003
5.103985e+002, 3.422700e+003
5.108806e+002, 3.438828e+003
5.113627e+002, 3.450548e+003
5.118448e+002, 3.425459e+003
5.123270e+002, 3.375482e+003
5.128091e+002, 3.325449e+003
5.132912e+002, 3.285555e+003
5.137733e+002, 3.259522e+003
5.142554e+002, 3.255708e+003
5.147375e+002, 3.287451e+003
5.152197e+002, 3.310698e+003
5.157018e+002, 3.320134e+003
5.161839e+002, 3.327305e+003
5.166660e+002, 3.339238e+003
5.171481e+002, 3.353922e+003
5.176302e+002, 3.364094e+003
5.181124e+002, 3.364284e+003
5.185945e+002, 3.360648e+003
5.190766e+002, 3.376528e+003
5.195587e+002, 3.429629e+003
5.200408e+002, 3.443988e+003
5.205229e+002, 3.356855e+003
5.210051e+002, 3.259484e+003
5.214872e+002, 3.215800e+003
5.219693e+002, 3.222411e+003
5.224514e+002, 3.230279e+003
5.229335e+002, 3.205292e+003
5.234156e+002, 3.164870e+003
5.238978e+002, 3.141715e+003
5.243799e+002, 3.136719e+003
5.248620e+002, 3.137993e+003
5.253441e+002, 3.141642e+003
5.258262e+002, 3.146952e+003
5.263083e+002, 3.153128e+003
5.267905e+002, 3.162078e+003
5.272726e+002, 3.166143e+003
5.277547e+002, 3.171137e+003
5.282368e+002, 3.165556e+003
5.287189e+002, 3.122165e+003
5.292010e+002, 3.046567e+003
5.296832e+002, 2.991258e+003
5.301653e+002, 3.000064e+003
5.306474e+002, 3.060681e+003
5.311295e+002, 3.089345e+003
5.316116e+002, 3.048035e+003
5.320938e+002, 3.021027e+003
5.325759e+002, 3.024321e+003
5.330580e+002, 3.038743e+003
5.335401e+002, 3.047895e+003
5.340222e+002, 3.048807e+003
5.345043e+002, 3.047639e+003
5.349865e+002, 3.051886e+003
5.354686e+002, 3.060163e+003
5.359507e+002, 3.056657e+003
5.364328e+002, 3.039474e+003
5.369149e+002, 3.013569e+003
5.373970e+002, 2.966831e+003
5.378792e+002, 2.919703e+003
5.383613e+002, 2.895476e+003
5.388434e+002, 2.899512e+003
5.393255e+002, 2.915936e+003
5.398076e+002, 2.942815e+003
5.402897e+002, 2.972354e+003
5.407719e+002, 2.980153e+003
5.412540e+002, 2.960562e+003
5.417361e+002, 2.937692e+003
5.422182e+002, 2.926617e+003
5.427003e+002, 2.927126e+003
5.431824e+002, 2.934854e+003
5.436646e+002, 2.978382e+003
5.441467e+002, 2.991786e+003
5.446288e+002, 2.918807e+003
5.451109e+002, 2.816912e+003
5.455930e+002, 2.767065e+003
5.460751e+002, 2.784270e+003
5.465573e+002, 2.822342e+003
5.470394e+002, 2.833797e+003
5.475215e+002, 2.817544e+003
5.480036e+002, 2.815572e+003
5.484857e+002, 2.851175e+003
5.489678e+002, 2.874573e+003
5.494500e+002, 2.874589e+003
5.499321e+002, 2.858981e+003
5.504142e+002, 2.829563e+003
5.508963e+002, 2.789005e+003
5.513784e+002, 2.756572e+003
5.518605e+002, 2.757251e+003
5.523427e+002, 2.788809e+003
5.528248e+002, 2.820207e+003
5.533069e+002, 2.857197e+003
5.537890e+002, 2.880188e+003
5.542711e+002, 2.867557e+003
5.547532e+002, 2.836727e+003
5.552354e+002, 2.812618e+003
5.557175e+002, 2.802781e+003
5.561996e+002, 2.790587e+003
5.566817e+002, 2.755183e+003
5.571638e+002, 2.712015e+003
5.576459e+002, 2.699090e+003
5.581281e+002, 2.723987e+003
5.586102e+002, 2.746535e+003
5.590923e+002, 2.726390e+003
5.595744e+002, 2.667161e+003
5.600565e+002, 2.646775e+003
5.605386e+002, 2.713226e+003
5.610208e+002, 2.752646e+003
5.615029e+002, 2.714651e+003
5.619850e+002, 2.647947e+003
5.624671e+002, 2.606557e+003
5.629492e+002, 2.602539e+003
5.634313e+002, 2.616928e+003
5.639135e+002, 2.634078e+003
5.643956e+002, 2.653664e+003
5.648777e+002, 2.652877e+003
5.653598e+002, 2.610918e+003
5.658419e+002, 2.581816e+003
5.663240e+002, 2.592511e+003
5.668062e+002, 2.617344e+003
5.672883e+002, 2.627471e+003
5.677704e+002, 2.616520e+003
5.682525e+002, 2.606035e+003
5.687346e+002, 2.620237e+003
5.692167e+002, 2.647379e+003
5.696989e+002, 2.653310e+003
5.701810e+002, 2.633502e+003
5.706631e+002, 2.604155e+003
5.711452e+002, 2.566873e+003
5.716273e+002, 2.530661e+003
5.721094e+002, 2.527040e+003
5.725916e+002, 2.584463e+003
5.730737e+002, 2.620930e+003
5.735558e+002, 2.597794e+003
5.740379e+002, 2.552490e+003
5.745200e+002, 2.520153e+003
5.750021e+002, 2.507080e+003
5.754843e+002, 2.509277e+003
5.759664e+002, 2.525291e+003
5.764485e+002, 2.552227e+003
5.769306e+002, 2.572510e+003
5.774127e+002, 2.585161e+003
5.778948e+002, 2.591918e+003
5.783770e+002, 2.587007e+003
5.788591e+002, 2.581352e+003
5.793412e+002, 2.587228e+003
5.798233e+002, 2.602742e+003
5.803054e+002, 2.611296e+003
5.807875e+002, 2.595013e+003
5.812697e+002, 2.565346e+003
5.817518e+002, 2.555760e+003
5.822339e+002, 2.569678e+003
5.827161e+002, 2.570660e+003
5.831982e+002, 2.535663e+003
5.836803e+002, 2.488237e+003
5.841624e+002, 2.463782e+003
5.846445e+002, 2.463261e+003
5.851266e+002, 2.468457e+003
5.856088e+002, 2.480370e+003
5.860909e+002, 2.491619e+003
5.865730e+002, 2.502838e+003
5.870551e+002, 2.508671e+003
5.875372e+002, 2.484609e+003
5.880193e+002, 2.414131e+003
5.885015e+002, 2.332459e+003
5.889836e+002, 2.323011e+003
5.894657e+002, 2.439940e+003
5.899478e+002, 2.511095e+003
5.904299e+002, 2.514967e+003
5.909120e+002, 2.499559e+003
5.913942e+002, 2.473533e+003
5.918763e+002, 2.447874e+003
5.923584e+002, 2.442803e+003
5.928405e+002, 2.472078e+003
5.933226e+002, 2.509855e+003
5.938047e+002, 2.510257e+003
5.942869e+002, 2.474222e+003
5.947690e+002, 2.460913e+003
5.952511e+002, 2.492587e+003
5.957332e+002, 2.528043e+003
5.962153e+002, 2.532063e+003
5.966974e+002, 2.510390e+003
5.971796e+002, 2.478525e+003
5.976617e+002, 2.412273e+003
5.981438e+002, 2.364633e+003
5.986259e+002, 2.378939e+003
5.991080e+002, 2.427251e+003
5.995901e+002, 2.466984e+003
6.000723e+002, 2.486164e+003
6.005544e+002, 2.481323e+003
6.010365e+002, 2.443338e+003
6.015186e+002, 2.370737e+003
6.020007e+002, 2.330251e+003
6.024828e+002, 2.344718e+003
6.029650e+002, 2.365253e+003
6.034471e+002, 2.400192e+003
6.039292e+002, 2.427845e+003
6.044113e+002, 2.416825e+003
6.048934e+002, 2.366770e+003
6.053755e+002, 2.322811e+003
6.058577e+002, 2.333515e+003
6.063398e+002, 2.382717e+003
6.068219e+002, 2.409613e+003
6.073040e+002, 2.410817e+003
6.077861e+002, 2.408375e+003
6.082682e+002, 2.413700e+003
6.087504e+002, 2.419644e+003
6.092325e+002, 2.411096e+003
6.097146e+002, 2.383319e+003
6.101967e+002, 2.366979e+003
6.106788e+002, 2.385055e+003
6.111609e+002, 2.406506e+003
6.116431e+002, 2.391745e+003
6.121252e+002, 2.353451e+003
6.126073e+002, 2.344549e+003
6.130894e+002, 2.395046e+003
6.135715e+002, 2.471362e+003
6.140536e+002, 2.497484e+003
6.145358e+002, 2.446804e+003
6.150179e+002, 2.411321e+003
6.155000e+002, 2.406567e+003
6.159821e+002, 2.401866e+003
6.164642e+002, 2.384101e+003
6.169464e+002, 2.357047e+003
6.174285e+002, 2.325397e+003
6.179106e+002, 2.286447e+003
6.183927e+002, 2.261126e+003
6.188748e+002, 2.285661e+003
6.193569e+002, 2.348787e+003
6.198391e+002, 2.391352e+003
6.203212e+002, 2.403606e+003
6.208033e+002, 2.394538e+003
6.212854e+002, 2.359191e+003
6.217675e+002, 2.306673e+003
6.222496e+002, 2.288725e+003
6.227318e+002, 2.330848e+003
6.232139e+002, 2.373052e+003
6.236960e+002, 2.400187e+003
6.241781e+002, 2.418589e+003
6.246602e+002, 2.435922e+003
6.251423e+002, 2.452193e+003
6.256245e+002, 2.459000e+003
6.261066e+002, 2.446673e+003
6.265887e+002, 2.423031e+003
6.270708e+002, 2.425590e+003
6.275529e+002, 2.466389e+003
6.280350e+002, 2.504017e+003
6.285172e+002, 2.539074e+003
6.289993e+002, 2.561242e+003
6.294814e+002, 2.557363e+003
6.299635e+002, 2.531814e+003
6.304456e+002, 2.507101e+003
6.309277e+002, 2.487278e+003
6.314099e+002, 2.478100e+003
6.318920e+002, 2.498403e+003
6.323741e+002, 2.537711e+003
6.328562e+002, 2.546498e+003
6.333383e+002, 2.505104e+003
6.338204e+002, 2.457110e+003
6.343026e+002, 2.458525e+003
6.347847e+002, 2.517900e+003
6.352668e+002, 2.545686e+003
6.357489e+002, 2.506427e+003
6.362310e+002, 2.482657e+003
6.367131e+002, 2.513494e+003
6.371953e+002, 2.564812e+003
6.376774e+002, 2.599153e+003
6.381595e+002, 2.607209e+003
6.386416e+002, 2.598573e+003
6.391237e+002, 2.575629e+003
6.396058e+002, 2.543277e+003
6.400880e+002, 2.529942e+003
6.405701e+002, 2.542232e+003
6.410522e+002, 2.546705e+003
6.415343e+002, 2.524083e+003
6.420164e+002, 2.491886e+003
6.424985e+002, 2.469704e+003
6.429807e+002, 2.456860e+003
6.434628e+002, 2.463058e+003
6.439449e+002, 2.511346e+003
6.444270e+002, 2.562598e+003
6.449091e+002, 2.588175e+003
6.453912e+002, 2.590161e+003
6.458734e+002, 2.574795e+003
6.463555e+002, 2.544728e+003
6.468376e+002, 2.510834e+003
6.473197e+002, 2.491014e+003
6.478018e+002, 2.488368e+003
6.482839e+002, 2.481373e+003
6.487661e+002, 2.456894e+003
6.492482e+002, 2.444603e+003
6.497303e+002, 2.455279e+003
6.502124e+002, 2.481802e+003
6.506945e+002, 2.521628e+003
6.511766e+002, 2.574415e+003
6.516588e+002, 2.615215e+003
6.521409e+002, 2.618964e+003
6.526230e+002, 2.598854e+003
6.531051e+002, 2.580329e+003
6.535872e+002, 2.564930e+003
6.540693e+002, 2.548481e+003
6.545515e+002, 2.527459e+003
6.550336e+002, 2.506229e+003
6.555157e+002, 2.491951e+003
6.559978e+002, 2.475787e+003
6.564799e+002, 2.491218e+003
6.569620e+002, 2.578818e+003
6.574442e+002, 2.658048e+003
6.579263e+002, 2.683923e+003
6.584084e+002, 2.670762e+003
6.588905e+002, 2.642956e+003
6.593726e+002, 2.610515e+003
6.598547e+002, 2.588592e+003
6.603369e+002, 2.610637e+003
6.608190e+002, 2.671425e+003
6.613011e+002, 2.687862e+003
6.617832e+002, 2.639427e+003
6.622653e+002, 2.592025e+003
6.627474e+002, 2.582060e+003
6.632296e+002, 2.597104e+003
6.637117e+002, 2.612689e+003
6.641938e+002, 2.630183e+003
6.646759e+002, 2.642440e+003
6.651580e+002, 2.635694e+003
6.656401e+002, 2.631502e+003
6.661223e+002, 2.656033e+003
6.666044e+002, 2.701818e+003
6.670865e+002, 2.742794e+003
6.675686e+002, 2.765911e+003
6.680507e+002, 2.773156e+003
6.685328e+002, 2.763992e+003
6.690150e+002, 2.730379e+003
6.694971e+002, 2.715915e+003
6.699792e+002, 2.738200e+003
6.704613e+002, 2.758356e+003
6.709434e+002, 2.751189e+003
6.714255e+002, 2.734375e+003
6.719077e+002, 2.739303e+003
6.723898e+002, 2.778414e+003
6.728719e+002, 2.808167e+003
6.733540e+002, 2.793169e+003
6.738361e+002, 2.754998e+003
6.743182e+002, 2.720629e+003
6.748004e+002, 2.694283e+003
6.752825e+002, 2.684829e+003
6.757646e+002, 2.698551e+003
6.762467e+002, 2.728802e+003
6.767288e+002, 2.761355e+003
6.772109e+002, 2.800814e+003
6.776931e+002, 2.831897e+003
6.781752e+002, 2.861599e+003
6.786573e+002, 2.876461e+003
6.791394e+002, 2.852369e+003
6.796215e+002, 2.815028e+003
6.801036e+002, 2.809389e+003
6.805858e+002, 2.852149e+003
6.810679e+002, 2.903487e+003
6.815500e+002, 2.925330e+003
6.820321e+002, 2.925429e+003
6.825142e+002, 2.925958e+003
6.829963e+002, 2.928819e+003
6.834785e+002, 2.927506e+003
6.839606e+002, 2.916331e+003
6.844427e+002, 2.901055e+003
6.849248e+002, 2.894855e+003
6.854069e+002, 2.899243e+003
6.858890e+002, 2.909927e+003
6.863712e+002, 2.934139e+003
6.868533e+002, 2.957366e+003
6.873354e+002, 2.968545e+003
6.878175e+002, 2.974069e+003
6.882996e+002, 2.988338e+003
6.887817e+002, 3.016600e+003
6.892639e+002, 3.044479e+003
6.897460e+002, 3.050742e+003
6.902281e+002, 3.039482e+003
6.907102e+002, 3.039729e+003
6.911923e+002, 3.055197e+003
6.916744e+002, 3.069525e+003
6.921566e+002, 3.067973e+003
6.926387e+002, 3.065052e+003
6.931208e+002, 3.095004e+003
6.936029e+002, 3.169738e+003
6.940850e+002, 3.220830e+003
6.945671e+002, 3.220808e+003
6.950493e+002, 3.209482e+003
6.955314e+002, 3.198986e+003
6.960135e+002, 3.199474e+003
6.964956e+002, 3.234970e+003
6.969777e+002, 3.311529e+003
6.974598e+002, 3.389317e+003
6.979420e+002, 3.411790e+003
6.984241e+002, 3.381467e+003
6.989062e+002, 3.364359e+003
6.993883e+002, 3.363480e+003
6.998704e+002, 3.367321e+003
7.003525e+002, 3.369867e+003
7.008347e+002, 3.375788e+003
7.013168e+002, 3.394953e+003
7.017989e+002, 3.429337e+003
7.022810e+002, 3.451242e+003
7.027631e+002, 3.437991e+003
7.032452e+002, 3.423903e+003
7.037274e+002, 3.437543e+003
7.042095e+002, 3.467967e+003
7.046916e+002, 3.495051e+003
7.051737e+002, 3.511231e+003
7.056558e+002, 3.513734e+003
7.061379e+002, 3.496548e+003
7.066201e+002, 3.460948e+003
7.071022e+002, 3.427086e+003
7.075843e+002, 3.381456e+003
7.080664e+002, 3.369806e+003
7.085485e+002, 3.438730e+003
7.090306e+002, 3.524642e+003
7.095128e+002, 3.569487e+003
7.099949e+002, 3.573981e+003
7.104770e+002, 3.569488e+003
7.109591e+002, 3.566400e+003
7.114412e+002, 3.557390e+003
7.119233e+002, 3.527172e+003
7.124055e+002, 3.489768e+003
7.128876e+002, 3.473677e+003
7.133697e+002, 3.485169e+003
7.138518e+002, 3.509319e+003
7.143339e+002, 3.534642e+003
7.148160e+002, 3.558621e+003
7.152982e+002, 3.559193e+003
7.157803e+002, 3.522460e+003
7.162624e+002, 3.494723e+003
7.167445e+002, 3.483926e+003
7.172266e+002, 3.486934e+003
7.177087e+002, 3.512484e+003
7.181909e+002, 3.552239e+003
7.186730e+002, 3.572116e+003
7.191551e+002, 3.538802e+003
7.196372e+002, 3.513107e+003
7.201193e+002, 3.556117e+003
7.206014e+002, 3.627458e+003
7.210836e+002, 3.644887e+003
7.215657e+002, 3.603620e+003
7.220478e+002, 3.583976e+003
7.225299e+002, 3.652015e+003
7.230120e+002, 3.775466e+003
7.234941e+002, 3.833843e+003
7.239763e+002, 3.803133e+003
7.244584e+002, 3.774061e+003
7.249405e+002, 3.745290e+003
7.254226e+002, 3.731029e+003
7.259047e+002, 3.760891e+003
7.263868e+002, 3.806707e+003
7.268690e+002, 3.801303e+003
7.273511e+002, 3.704781e+003
7.278332e+002, 3.626174e+003
7.283153e+002, 3.655187e+003
7.287974e+002, 3.727028e+003
7.292795e+002, 3.748399e+003
7.297617e+002, 3.721303e+003
7.302438e+002, 3.707519e+003
7.307259e+002, 3.741672e+003
7.312080e+002, 3.800996e+003
7.316901e+002, 3.843304e+003
7.321722e+002, 3.871233e+003
7.326544e+002, 3.868232e+003
7.331365e+002, 3.805230e+003
7.336186e+002, 3.751231e+003
7.341007e+002, 3.737002e+003
7.345828e+002, 3.745771e+003
7.350649e+002, 3.753942e+003
7.355471e+002, 3.756792e+003
7.360292e+002, 3.780708e+003
7.365113e+002, 3.874210e+003
7.369934e+002, 3.965904e+003
7.374755e+002, 3.969280e+003
7.379576e+002, 3.910617e+003
7.384398e+002, 3.868108e+003
7.389219e+002, 3.869789e+003
7.394040e+002, 3.899532e+003
7.398861e+002, 3.941869e+003
7.403682e+002, 3.996444e+003
7.408503e+002, 4.030606e+003
7.413325e+002, 4.030824e+003
7.418146e+002, 4.039123e+003
7.422967e+002, 4.080187e+003
7.427788e+002, 4.124207e+003
7.432609e+002, 4.141759e+003
7.437430e+002, 4.136029e+003
7.442252e+002, 4.138933e+003
7.447073e+002, 4.169034e+003
7.451894e+002, 4.201310e+003
7.456715e+002, 4.213973e+003
7.461536e+002, 4.220428e+003
7.466357e+002, 4.240505e+003
7.471179e+002, 4.278081e+003
7.476000e+002, 4.329583e+003
7.480821e+002, 4.395238e+003
7.485642e+002, 4.467618e+003
7.490463e+002, 4.521670e+003
7.495284e+002, 4.553546e+003
7.500106e+002, 4.585751e+003
7.504927e+002, 4.622155e+003
7.509748e+002, 4.658487e+003
7.514569e+002, 4.702658e+003
7.519390e+002, 4.743255e+003
7.524211e+002, 4.748659e+003
7.529033e+002, 4.689783e+003
7.533854e+002, 4.656828e+003
7.538675e+002, 4.693239e+003
7.543496e+002, 4.761911e+003
7.548317e+002, 4.850806e+003
7.553138e+002, 4.940284e+003
7.557960e+002, 4.981027e+003
7.562781e+002, 4.950441e+003
7.567602e+002, 4.904103e+003
7.572423e+002, 4.931725e+003
7.577244e+002, 5.030128e+003
7.582065e+002, 5.091573e+003
7.586887e+002, 5.098178e+003
7.591708e+002, 5.126049e+003
7.596529e+002, 5.230489e+003
7.601350e+002, 5.353409e+003
7.606171e+002, 5.393694e+003
7.610992e+002, 5.343458e+003
7.615814e+002, 5.338618e+003
7.620635e+002, 5.434333e+003
7.625456e+002, 5.535199e+003
7.630277e+002, 5.601084e+003
7.635098e+002, 5.644962e+003
7.639919e+002, 5.676458e+003
7.644741e+002, 5.703660e+003
7.649562e+002, 5.749690e+003
7.654383e+002, 5.839860e+003
7.659204e+002, 5.950841e+003
7.664025e+002, 6.028902e+003
7.668846e+002, 6.074610e+003
7.673668e+002, 6.110907e+003
7.678489e+002, 6.139232e+003
7.683310e+002, 6.170337e+003
7.688131e+002, 6.211660e+003
7.692952e+002, 6.263308e+003
7.697773e+002, 6.326548e+003
7.702595e+002, 6.412137e+003
7.707416e+002, 6.493403e+003
7.712237e+002, 6.548725e+003
7.717058e+002, 6.617729e+003
7.721879e+002, 6.743713e+003
7.726700e+002, 6.898496e+003
7.731522e+002, 7.021620e+003
7.736343e+002, 7.088625e+003
7.741164e+002, 7.142429e+003
7.745985e+002, 7.218404e+003
7.750806e+002, 7.312817e+003
7.755627e+002, 7.418610e+003
7.760449e+002, 7.535098e+003
7.765270e+002, 7.662470e+003
7.770091e+002, 7.802984e+003
7.774912e+002, 7.944522e+003
7.779733e+002, 8.066283e+003
7.784554e+002, 8.165540e+003
7.789376e+002, 8.275780e+003
7.794197e+002, 8.406288e+003
7.799019e+002, 8.535960e+003
7.803840e+002, 8.641953e+003
7.808661e+002, 8.759324e+003
7.813482e+002, 8.932652e+003
7.818303e+002, 9.153090e+003
7.823124e+002, 9.351596e+003
7.827946e+002, 9.475585e+003
7.832767e+002, 9.597977e+003
7.837588e+002, 9.775107e+003
7.842409e+002, 9.993064e+003
7.847230e+002, 1.023823e+004
7.852051e+002, 1.050171e+004
7.856873e+002, 1.075507e+004
7.861694e+002, 1.097558e+004
7.866515e+002, 1.117961e+004
7.871336e+002, 1.141039e+004
7.876157e+002, 1.167083e+004
7.880978e+002, 1.193652e+004
7.885800e+002, 1.221231e+004
7.890621e+002, 1.248125e+004
7.895442e+002, 1.271662e+004
7.900263e+002, 1.294784e+004
7.905084e+002, 1.322947e+004
7.909905e+002, 1.357140e+004
7.914727e+002, 1.391615e+004
7.919548e+002, 1.425272e+004
7.924369e+002, 1.458227e+004
7.929190e+002, 1.489928e+004
7.934011e+002, 1.521500e+004
7.938832e+002, 1.555796e+004
7.943654e+002, 1.592964e+004
7.948475e+002, 1.628737e+004
7.953296e+002, 1.658226e+004
7.958117e+002, 1.684389e+004
7.962938e+002, 1.714369e+004
7.967759e+002, 1.748126e+004
7.972581e+002, 1.785956e+004
7.977402e+002, 1.829003e+004
7.982223e+002, 1.870967e+004
7.987044e+002, 1.905788e+004
7.991865e+002, 1.934633e+004
7.996686e+002, 1.964102e+004
8.001508e+002, 1.991396e+004
8.006329e+002, 2.023648e+004
8.011150e+002, 2.062682e+004
8.015971e+002, 2.105006e+004
8.020792e+002, 2.151054e+004
8.025613e+002, 2.198379e+004
8.030435e+002, 2.243862e+004
8.035256e+002, 2.286478e+004
8.040077e+002, 2.326222e+004
8.044898e+002, 2.358402e+004
8.049719e+002, 2.390221e+004
8.054540e+002, 2.432720e+004
8.059362e+002, 2.484807e+004
8.064183e+002, 2.541275e+004
8.069004e+002, 2.600271e+004
8.073825e+002, 2.659781e+004
8.078646e+002, 2.717964e+004
8.083467e+002, 2.774592e+004
8.088289e+002, 2.824861e+004
8.093110e+002, 2.862838e+004
8.097931e+002, 2.910880e+004
8.102752e+002, 2.977199e+004
8.107573e+002, 3.051107e+004
8.112394e+002, 3.122788e+004
8.117216e+002, 3.194437e+004
8.122037e+002, 3.272166e+004
8.126858e+002, 3.354854e+004
8.131679e+002, 3.447693e+004
8.136500e+002, 3.555276e+004
8.141321e+002, 3.671051e+004
8.146143e+002, 3.786427e+004
8.150964e+002, 3.904791e+004
8.155785e+002, 4.036454e+004
8.160606e+002, 4.185146e+004
8.165427e+002, 4.344813e+004
8.170248e+002, 4.506232e+004
8.175070e+002, 4.673005e+004
8.179891e+002, 4.860042e+004
8.184712e+002, 5.068142e+004
8.189533e+002, 5.280526e+004
8.194354e+002, 5.489672e+004
8.199175e+002, 5.703618e+004
8.203997e+002, 5.930519e+004
8.208818e+002, 6.170339e+004
8.213639e+002, 6.423306e+004
8.218460e+002, 6.700949e+004
8.223281e+002, 6.974921e+004
8.228102e+002, 7.226229e+004
8.232924e+002, 7.489000e+004
8.237745e+002, 7.790303e+004
8.242566e+002, 8.120393e+004
8.247387e+002, 8.448393e+004
8.252208e+002, 8.765666e+004
8.257029e+002, 9.085079e+004
8.261851e+002, 9.403492e+004
8.266672e+002, 9.735773e+004
8.271493e+002, 1.009551e+005
8.276314e+002, 1.048772e+005
8.281135e+002, 1.091306e+005
8.285956e+002, 1.137372e+005
8.290778e+002, 1.187596e+005
8.295599e+002, 1.242341e+005
8.300420e+002, 1.301786e+005
8.305241e+002, 1.367613e+005
8.310062e+002, 1.438951e+005
8.314883e+002, 1.520115e+005
8.319705e+002, 1.611868e+005
8.324526e+002, 1.713707e+005
8.329347e+002, 1.825332e+005
8.334168e+002, 1.946816e+005
8.338989e+002, 2.076948e+005
8.343810e+002, 2.219805e+005
8.348632e+002, 2.365053e+005
8.353453e+002, 2.514425e+005
8.358274e+002, 2.663894e+005
8.363095e+002, 2.821151e+005
8.367916e+002, 2.974503e+005
8.372737e+002, 3.105129e+005
8.377559e+002, 3.208102e+005
8.382380e+002, 3.285840e+005
8.387201e+002, 3.348761e+005
8.392022e+002, 3.381979e+005
8.396843e+002, 3.361283e+005
8.401664e+002, 3.293043e+005
8.406486e+002, 3.194657e+005
8.411307e+002, 3.072484e+005
8.416128e+002, 2.933049e+005
8.420949e+002, 2.781443e+005
8.425770e+002, 2.620527e+005
8.430591e+002, 2.463348e+005
8.435413e+002, 2.308514e+005
8.440234e+002, 2.163505e+005
8.445055e+002, 2.029051e+005
8.449876e+002, 1.904321e+005
8.454697e+002, 1.788164e+005
8.459518e+002, 1.680923e+005
8.464340e+002, 1.583585e+005
8.469161e+002, 1.496628e+005
8.473982e+002, 1.417981e+005
8.478803e+002, 1.348728e+005
8.483624e+002, 1.285863e+005
8.488445e+002, 1.228576e+005
8.493267e+002, 1.176319e+005
8.498088e+002, 1.129010e+005
8.502909e+002, 1.086241e+005
8.507730e+002, 1.046984e+005
8.512551e+002, 1.011029e+005
8.517372e+002, 9.777045e+004
8.522194e+002, 9.466231e+004
8.527015e+002, 9.172332e+004
8.531836e+002, 8.883429e+004
8.536657e+002, 8.596327e+004
8.541478e+002, 8.311920e+004
8.546299e+002, 8.029799e+004
8.551121e+002, 7.747527e+004
8.555942e+002, 7.453048e+004
8.560763e+002, 7.145842e+004
8.565584e+002, 6.838686e+004
8.570405e+002, 6.529026e+004
8.575226e+002, 6.227551e+004
8.580048e+002, 5.932472e+004
8.584869e+002, 5.650068e+004
8.589690e+002, 5.389748e+004
8.594511e+002, 5.151962e+004
8.599332e+002, 4.922866e+004
8.604153e+002, 4.701549e+004
8.608975e+002, 4.487775e+004
8.613796e+002, 4.273837e+004
8.618617e+002, 4.072399e+004
8.623438e+002, 3.895185e+004
8.628259e+002, 3.740409e+004
8.633080e+002, 3.600570e+004
8.637902e+002, 3.474302e+004
8.642723e+002, 3.354799e+004
8.647544e+002, 3.234068e+004
8.652365e+002, 3.116751e+004
8.657186e+002, 3.012054e+004
8.662007e+002, 2.918102e+004
8.666829e+002, 2.826607e+004
8.671650e+002, 2.734799e+004
8.676471e+002, 2.647984e+004
8.681292e+002, 2.574509e+004
8.686113e+002, 2.512237e+004
8.690934e+002, 2.448360e+004
8.695756e+002, 2.382470e+004
8.700577e+002, 2.318552e+004
8.705398e+002, 2.257507e+004
8.710219e+002, 2.199088e+004
8.715040e+002, 2.143718e+004
8.719861e+002, 2.090846e+004
8.724683e+002, 2.036876e+004
8.729504e+002, 1.978530e+004
8.734325e+002, 1.925496e+004
8.739146e+002, 1.879794e+004
8.743967e+002, 1.837493e+004
8.748788e+002, 1.798920e+004
8.753610e+002, 1.761691e+004
8.758431e+002, 1.722524e+004
8.763252e+002, 1.681114e+004
8.768073e+002, 1.641949e+004
8.772894e+002, 1.607814e+004
8.777715e+002, 1.575727e+004
8.782537e+002, 1.543300e+004
8.787358e+002, 1.511619e+004
8.792179e+002, 1.482972e+004
8.797000e+002, 1.456905e+004
8.801821e+002, 1.430664e+004
8.806642e+002, 1.402573e+004
8.811464e+002, 1.374390e+004
8.816285e+002, 1.348943e+004
8.821106e+002, 1.325881e+004
8.825927e+002, 1.303257e+004
8.830748e+002, 1.281158e+004
8.835569e+002, 1.257518e+004
8.840391e+002, 1.230904e+004
8.845212e+002, 1.204970e+004
8.850033e+002, 1.183911e+004
8.854854e+002, 1.167602e+004
8.859675e+002, 1.151453e+004
8.864496e+002, 1.137511e+004
8.869318e+002, 1.119739e+004
8.874139e+002, 1.092008e+004
8.878960e+002, 1.065956e+004
8.883781e+002, 1.050121e+004
8.888602e+002, 1.039887e+004
8.893423e+002, 1.025612e+004
8.898245e+002, 1.004934e+004
8.903066e+002, 9.860497e+003
8.907887e+002, 9.727531e+003
8.912708e+002, 9.602215e+003
8.917529e+002, 9.463300e+003
8.922350e+002, 9.310470e+003
8.927172e+002, 9.138024e+003
8.931993e+002, 8.952113e+003
8.936814e+002, 8.776948e+003
8.941635e+002, 8.624151e+003
8.946456e+002, 8.495225e+003
8.951277e+002, 8.413742e+003
8.956099e+002, 8.352784e+003
8.960920e+002, 8.243882e+003
8.965741e+002, 8.087957e+003
8.970562e+002, 7.942239e+003
8.975383e+002, 7.833808e+003
8.980204e+002, 7.742717e+003
8.985026e+002, 7.642985e+003
8.989847e+002, 7.534645e+003
8.994668e+002, 7.415058e+003
8.999489e+002, 7.278134e+003
9.004310e+002, 7.161575e+003
9.009131e+002, 7.082986e+003
9.013953e+002, 7.008093e+003
9.018774e+002, 6.902756e+003
9.023595e+002, 6.777207e+003
9.028416e+002, 6.681151e+003
9.033237e+002, 6.634408e+003
9.038058e+002, 6.581204e+003
9.042880e+002, 6.528062e+003
9.047701e+002, 6.461519e+003
9.052522e+002, 6.357533e+003
9.057343e+002, 6.247796e+003
9.062164e+002, 6.182583e+003
9.066985e+002, 6.162325e+003
9.071807e+002, 6.115481e+003
9.076628e+002, 5.983768e+003
9.081449e+002, 5.857510e+003
9.086270e+002, 5.801972e+003
9.091091e+002, 5.767462e+003
9.095912e+002, 5.683940e+003
9.100734e+002, 5.568282e+003
9.105555e+002, 5.501367e+003
9.110376e+002, 5.521330e+003
9.115197e+002, 5.541649e+003
9.120018e+002, 5.445764e+003
9.124839e+002, 5.295214e+003
9.129661e+002, 5.227053e+003
9.134482e+002, 5.227342e+003
9.139303e+002, 5.212438e+003
9.144124e+002, 5.159091e+003
9.148945e+002, 5.091475e+003
9.153766e+002, 5.027037e+003
9.158588e+002, 4.972623e+003
9.163409e+002, 4.960263e+003
9.168230e+002, 4.999109e+003
9.173051e+002, 4.985676e+003
9.177872e+002, 4.894417e+003
9.182693e+002, 4.807195e+003
9.187515e+002, 4.765455e+003
9.192336e+002, 4.747799e+003
9.197157e+002, 4.723037e+003
9.201978e+002, 4.690395e+003
9.206799e+002, 4.657252e+003
9.211620e+002, 4.635714e+003
9.216442e+002, 4.596534e+003
9.221263e+002, 4.513101e+003
9.226084e+002, 4.432219e+003
9.230905e+002, 4.388047e+003
9.235726e+002, 4.370329e+003
9.240547e+002, 4.354151e+003
9.245369e+002, 4.337965e+003
9.250190e+002, 4.311639e+003
9.255011e+002, 4.255776e+003
9.259832e+002, 4.205234e+003
9.264653e+002, 4.192842e+003
9.269474e+002, 4.194984e+003
9.274296e+002, 4.171748e+003
9.279117e+002, 4.123017e+003
9.283938e+002, 4.086708e+003
9.288759e+002, 4.090942e+003
9.293580e+002, 4.101861e+003
9.298401e+002, 4.088597e+003
9.303223e+002, 4.052598e+003
9.308044e+002, 3.977233e+003
9.312865e+002, 3.878375e+003
9.317686e+002, 3.827193e+003
9.322507e+002, 3.851121e+003
9.327328e+002, 3.890907e+003
9.332150e+002, 3.877058e+003
9.336971e+002, 3.824600e+003
9.341792e+002, 3.788322e+003
9.346613e+002, 3.768315e+003
9.351434e+002, 3.767720e+003
9.356255e+002, 3.791325e+003
9.361077e+002, 3.804923e+003
9.365898e+002, 3.783931e+003
9.370719e+002, 3.742264e+003
9.375540e+002, 3.711553e+003
9.380361e+002, 3.696373e+003
9.385182e+002, 3.665803e+003
9.390004e+002, 3.603363e+003
9.394825e+002, 3.557897e+003
9.399646e+002, 3.550348e+003
9.404467e+002, 3.557525e+003
9.409288e+002, 3.568344e+003
9.414109e+002, 3.577636e+003
9.418931e+002, 3.559918e+003
9.423752e+002, 3.492565e+003
9.428573e+002, 3.438466e+003
9.433394e+002, 3.407709e+003
9.438215e+002, 3.388823e+003
9.443036e+002, 3.381883e+003
9.447858e+002, 3.380255e+003
9.452679e+002, 3.376866e+003
9.457500e+002, 3.370595e+003
9.462321e+002, 3.362745e+003
9.467142e+002, 3.361644e+003
9.471964e+002, 3.349046e+003
9.476785e+002, 3.295496e+003
9.481606e+002, 3.238095e+003
9.486427e+002, 3.227969e+003
9.491248e+002, 3.249989e+003
9.496069e+002, 3.252525e+003
9.500891e+002, 3.217308e+003
9.505712e+002, 3.176602e+003
9.510533e+002, 3.162383e+003
9.515354e+002, 3.159893e+003
9.520175e+002, 3.147955e+003
9.524996e+002, 3.126915e+003
9.529818e+002, 3.088635e+003
9.534639e+002, 3.036950e+003
9.539460e+002, 3.014065e+003
9.544281e+002, 3.049645e+003
9.549102e+002, 3.100278e+003
9.553923e+002, 3.080918e+003
9.558745e+002, 3.001537e+003
9.563566e+002, 2.958091e+003
9.568387e+002, 2.952955e+003
9.573208e+002, 2.964480e+003
9.578029e+002, 2.989738e+003
9.582850e+002, 3.011201e+003
9.587672e+002, 3.013910e+003
9.592493e+002, 2.998410e+003
9.597314e+002, 2.961471e+003
9.602135e+002, 2.886326e+003
9.606956e+002, 2.854381e+003
9.611777e+002, 2.894439e+003
9.616599e+002, 2.922993e+003
9.621420e+002, 2.886662e+003
9.626241e+002, 2.840865e+003
9.631062e+002, 2.866642e+003
9.635883e+002, 2.963545e+003
9.640704e+002, 3.009571e+003
9.645526e+002, 2.965679e+003
9.650347e+002, 2.931004e+003
9.655168e+002, 2.923079e+003
9.659989e+002, 2.916728e+003
9.664810e+002, 2.891330e+003
9.669631e+002, 2.861888e+003
9.674453e+002, 2.857841e+003
9.679274e+002, 2.883744e+003
9.684095e+002, 2.893186e+003
9.688916e+002, 2.849058e+003
9.693737e+002, 2.815836e+003
9.698558e+002, 2.847414e+003
9.703380e+002, 2.882363e+003
9.708201e+002, 2.845523e+003
9.713022e+002, 2.763906e+003
9.717843e+002, 2.720146e+003
9.722664e+002, 2.743729e+003
9.727485e+002, 2.768295e+003
9.732307e+002, 2.744948e+003
9.737128e+002, 2.705878e+003
9.741949e+002, 2.675760e+003
9.746770e+002, 2.655707e+003
9.751591e+002, 2.646067e+003
9.756412e+002, 2.646494e+003
9.761234e+002, 2.658541e+003
9.766055e+002, 2.684993e+003
9.770876e+002, 2.707577e+003
9.775698e+002, 2.695101e+003
9.780519e+002, 2.666279e+003
9.785340e+002, 2.671840e+003
9.790161e+002, 2.700650e+003
9.794982e+002, 2.688124e+003
9.799803e+002, 2.622390e+003
9.804625e+002, 2.580259e+003
9.809446e+002, 2.631192e+003
9.814267e+002, 2.716532e+003
9.819088e+002, 2.694169e+003
9.823909e+002, 2.578153e+003
9.828730e+002, 2.504286e+003
9.833552e+002, 2.481284e+003
9.838373e+002, 2.487445e+003
9.843194e+002, 2.520348e+003
9.848015e+002, 2.541003e+003
9.852836e+002, 2.501203e+003
9.857657e+002, 2.419802e+003
9.862479e+002, 2.396635e+003
9.867300e+002, 2.446856e+003
9.872121e+002, 2.473981e+003
9.876942e+002, 2.465583e+003
9.881763e+002, 2.446201e+003
9.886584e+002, 2.417600e+003
9.891406e+002, 2.399490e+003
9.896227e+002, 2.428179e+003
9.901048e+002, 2.502946e+003
9.905869e+002, 2.521283e+003
9.910690e+002, 2.442961e+003
9.915511e+002, 2.387157e+003
9.920333e+002, 2.382732e+003
9.925154e+002, 2.381165e+003
9.929975e+002, 2.357307e+003
9.934796e+002, 2.320203e+003
9.939617e+002, 2.277337e+003
9.944438e+002, 2.225391e+003
9.949260e+002, 2.204659e+003
9.954081e+002, 2.240043e+003
9.958902e+002, 2.275689e+003
9.963723e+002, 2.303456e+003
9.968544e+002, 2.324525e+003
9.973365e+002, 2.340750e+003
9.978187e+002, 2.350723e+003
9.983008e+002, 2.351747e+003
9.987829e+002, 2.343404e+003
9.992650e+002, 2.326531e+003
9.997471e+002, 2.287547e+003
1.000229e+003, 2.257110e+003
1.000711e+003, 2.257238e+003
1.001193e+003, 2.266112e+003
1.001676e+003, 2.262485e+003
1.002158e+003, 2.249066e+003
1.002640e+003, 2.237278e+003
1.003122e+003, 2.230064e+003
1.003604e+003, 2.230431e+003
1.004086e+003, 2.258343e+003
1.004568e+003, 2.275604e+003
1.005050e+003, 2.235564e+003
1.005533e+003, 2.175152e+003
1.006015e+003, 2.148393e+003
1.006497e+003, 2.153282e+003
1.006979e+003, 2.151953e+003
1.007461e+003, 2.126359e+003
1.007943e+003, 2.105011e+003
1.008425e+003, 2.119839e+003
1.008907e+003, 2.147947e+003
1.009389e+003, 2.158964e+003
1.009872e+003, 2.160022e+003
1.010354e+003, 2.172079e+003
1.010836e+003, 2.194559e+003
1.011318e+003, 2.202166e+003
1.011800e+003, 2.178076e+003
1.012282e+003, 2.152139e+003
1.012764e+003, 2.173082e+003
1.013246e+003, 2.214327e+003
1.013729e+003, 2.210104e+003
1.014211e+003, 2.172605e+003
1.014693e+003, 2.161647e+003
1.015175e+003, 2.186283e+003
1.015657e+003, 2.189160e+003
1.016139e+003, 2.125763e+003
1.016621e+003, 2.046530e+003
1.017103e+003, 2.050700e+003
1.017585e+003, 2.115354e+003
1.018068e+003, 2.132471e+003
1.018550e+003, 2.103874e+003
1.019032e+003, 2.082518e+003
1.019514e+003, 2.083472e+003
1.019996e+003, 2.106185e+003
1.020478e+003, 2.155619e+003
1.020960e+003, 2.207190e+003
1.021442e+003, 2.191447e+003
1.021924e+003, 2.112236e+003
1.022407e+003, 2.075775e+003
1.022889e+003, 2.088375e+003
1.023371e+003, 2.093927e+003
1.023853e+003, 2.075027e+003
1.024335e+003, 2.041418e+003
1.024817e+003, 1.997573e+003
1.025299e+003, 1.953115e+003
1.025781e+003, 1.942021e+003
1.026264e+003, 1.969516e+003
1.026746e+003, 1.987022e+003
1.027228e+003, 1.993028e+003
1.027710e+003, 1.989065e+003
1.028192e+003, 1.973588e+003
1.028674e+003, 1.952479e+003
1.029156e+003, 1.926122e+003
1.029638e+003, 1.902453e+003
1.030120e+003, 1.922419e+003
1.030603e+003, 2.016494e+003
1.031085e+003, 2.030974e+003
1.031567e+003, 1.915503e+003
1.032049e+003, 1.841342e+003
1.032531e+003, 1.881069e+003
1.033013e+003, 1.962987e+003
1.033495e+003, 2.027547e+003
1.033977e+003, 2.071534e+003
1.034459e+003, 2.074165e+003
1.034942e+003, 1.994327e+003
1.035424e+003, 1.974279e+003
1.035906e+003, 2.065855e+003
1.036388e+003, 2.128950e+003
1.036870e+003, 2.095757e+003
1.037352e+003, 2.035235e+003
1.037834e+003, 2.017475e+003
1.038316e+003, 2.033288e+003
1.038799e+003, 2.026643e+003
1.039281e+003, 1.968710e+003
1.039763e+003, 1.944569e+003
1.040245e+003, 1.988180e+003
1.040727e+003, 2.021811e+003
1.041209e+003, 2.004500e+003
1.041691e+003, 1.978899e+003
1.042173e+003, 1.996586e+003
1.042656e+003, 2.044668e+003
1.043138e+003, 2.053189e+003
1.043620e+003, 1.990847e+003
1.044102e+003, 1.946768e+003
1.044584e+003, 1.936010e+003
1.045066e+003, 1.932017e+003
1.045548e+003, 1.925374e+003
1.046030e+003, 1.921027e+003
1.046512e+003, 1.930439e+003
1.046995e+003, 1.947770e+003
1.047477e+003, 1.944343e+003
1.047959e+003, 1.897333e+003
1.048441e+003, 1.875286e+003
1.048923e+003, 1.904503e+003
1.049405e+003, 1.940846e+003
1.049887e+003, 1.979918e+003
1.050369e+003, 2.007102e+003
1.050851e+003, 2.008557e+003
1.051334e+003, 1.985598e+003
1.051816e+003, 1.941886e+003
1.052298e+003, 1.856601e+003
1.052780e+003, 1.810021e+003
1.053262e+003, 1.857625e+003
1.053744e+003, 1.902513e+003
1.054226e+003, 1.892104e+003
1.054708e+003, 1.863327e+003
1.055191e+003, 1.844759e+003
1.055673e+003, 1.843129e+003
1.056155e+003, 1.874973e+003
1.056637e+003, 1.965912e+003
1.057119e+003, 2.013125e+003
1.057601e+003, 1.945950e+003
1.058083e+003, 1.875526e+003
1.058565e+003, 1.858325e+003
1.059047e+003, 1.864132e+003
1.059530e+003, 1.856848e+003
1.060012e+003, 1.843092e+003
1.060494e+003, 1.858225e+003
1.060976e+003, 1.921494e+003
1.061458e+003, 1.961627e+003
1.061940e+003, 1.943433e+003
1.062422e+003, 1.908176e+003
1.062904e+003, 1.856789e+003
1.063386e+003, 1.815741e+003
1.063869e+003, 1.821464e+003
1.064351e+003, 1.857629e+003
1.064833e+003, 1.873706e+003
1.065315e+003, 1.853862e+003
1.065797e+003, 1.839160e+003
1.066279e+003, 1.855600e+003
1.066761e+003, 1.870069e+003
1.067243e+003, 1.860387e+003
1.067726e+003, 1.844009e+003
1.068208e+003, 1.839943e+003
1.068690e+003, 1.843685e+003
1.069172e+003, 1.837601e+003
1.069654e+003, 1.816280e+003
1.070136e+003, 1.806349e+003
1.070618e+003, 1.839829e+003
1.071100e+003, 1.862191e+003
1.071583e+003, 1.830374e+003
1.072065e+003, 1.786239e+003
1.072547e+003, 1.771264e+003
1.073029e+003, 1.775426e+003
1.073511e+003, 1.762792e+003
1.073993e+003, 1.725966e+003
1.074475e+003, 1.719419e+003
1.074957e+003, 1.808807e+003
1.075439e+003, 1.880842e+003
1.075922e+003, 1.864661e+003
1.076404e+003, 1.818459e+003
1.076886e+003, 1.779485e+003
1.077368e+003, 1.755872e+003
1.077850e+003, 1.760157e+003
1.078332e+003, 1.791296e+003
1.078814e+003, 1.809796e+003
1.079296e+003, 1.797541e+003
1.079779e+003, 1.770451e+003
1.080261e+003, 1.713988e+003
1.080743e+003, 1.667187e+003
1.081225e+003, 1.664249e+003
1.081707e+003, 1.692485e+003
1.082189e+003, 1.746583e+003
1.082671e+003, 1.814626e+003
1.083153e+003, 1.831526e+003
1.083635e+003, 1.730456e+003
1.084118e+003, 1.652581e+003
1.084600e+003, 1.695001e+003
1.085082e+003, 1.749212e+003
1.085564e+003, 1.726300e+003
1.086046e+003, 1.671415e+003
1.086528e+003, 1.648398e+003
1.087010e+003, 1.662814e+003
1.087492e+003, 1.693025e+003
1.087974e+003, 1.748737e+003
1.088457e+003, 1.775407e+003
1.088939e+003, 1.707447e+003
1.089421e+003, 1.651794e+003
1.089903e+003, 1.694290e+003
1.090385e+003, 1.772792e+003
1.090867e+003, 1.825233e+003
1.091349e+003, 1.842501e+003
1.091831e+003, 1.822581e+003
1.092314e+003, 1.751881e+003
1.092796e+003, 1.698336e+003
1.093278e+003, 1.694744e+003
1.093760e+003, 1.705050e+003
1.094242e+003, 1.718752e+003
1.094724e+003, 1.730896e+003
1.095206e+003, 1.734977e+003
1.095688e+003, 1.734700e+003
1.096171e+003, 1.744106e+003
1.096653e+003, 1.769722e+003
1.097135e+003, 1.773878e+003
1.097617e+003, 1.715189e+003
1.098099e+003, 1.672658e+003
1.098581e+003, 1.690417e+003
1.099063e+003, 1.723879e+003
1.099545e+003, 1.745866e+003
1.100027e+003, 1.753671e+003
1.100510e+003, 1.742780e+003
1.100992e+003, 1.712204e+003
1.101474e+003, 1.690133e+003
1.101956e+003, 1.679397e+003
1.102438e+003, 1.683051e+003
1.102920e+003, 1.713202e+003
1.103402e+003, 1.746017e+003
1.103884e+003, 1.775523e+003
1.104366e+003, 1.793591e+003
1.104849e+003, 1.783272e+003
1.105331e+003, 1.746545e+003
1.105813e+003, 1.723256e+003
1.106295e+003, 1.733781e+003
1.106777e+003, 1.735089e+003
1.107259e+003, 1.701099e+003
1.107741e+003, 1.680992e+003
1.108223e+003, 1.726715e+003
1.108706e+003, 1.775180e+003
1.109188e+003, 1.743703e+003
1.109670e+003, 1.649757e+003
1.110152e+003, 1.596651e+003
1.110634e+003, 1.612433e+003
1.111116e+003, 1.618908e+003
1.111598e+003, 1.583729e+003
1.112080e+003, 1.576630e+003
1.112563e+003, 1.648098e+003
1.113045e+003, 1.727115e+003
1.113527e+003, 1.762249e+003
1.114009e+003, 1.761307e+003
1.114491e+003, 1.740293e+003
1.114973e+003, 1.689733e+003
1.115455e+003, 1.660613e+003
1.115937e+003, 1.671862e+003
1.116419e+003, 1.670392e+003
1.116901e+003, 1.626284e+003
1.117384e+003, 1.598232e+003
1.117866e+003, 1.642839e+003
1.118348e+003, 1.706442e+003
1.118830e+003, 1.688605e+003
1.119312e+003, 1.585661e+003
1.119794e+003, 1.541667e+003
1.120276e+003, 1.582172e+003
1.120758e+003, 1.616712e+003
1.121241e+003, 1.639649e+003
1.121723e+003, 1.647341e+003
1.122205e+003, 1.630909e+003
1.122687e+003, 1.611681e+003
1.123169e+003, 1.617578e+003
1.123651e+003, 1.642398e+003
1.124133e+003, 1.646367e+003
1.124615e+003, 1.619203e+003
1.125098e+003, 1.628907e+003
1.125580e+003, 1.695646e+003
1.126062e+003, 1.717824e+003
1.126544e+003, 1.648616e+003
1.127026e+003, 1.578037e+003
1.127508e+003, 1.585330e+003
1.127990e+003, 1.637873e+003
1.128472e+003, 1.651597e+003
1.128954e+003, 1.624900e+003
1.129437e+003, 1.624823e+003
1.129919e+003, 1.653163e+003
1.130401e+003, 1.682145e+003
1.130883e+003, 1.707044e+003
1.131365e+003, 1.721111e+003
1.131847e+003, 1.720209e+003
1.132329e+003, 1.706432e+003
1.132811e+003, 1.676899e+003
1.133293e+003, 1.640083e+003
1.133776e+003, 1.646191e+003
1.134258e+003, 1.688225e+003
1.134740e+003, 1.696275e+003
1.135222e+003, 1.665110e+003
1.135704e+003, 1.642231e+003
1.136186e+003, 1.646969e+003
1.136668e+003, 1.661770e+003
1.137150e+003, 1.670977e+003
1.137633e+003, 1.675322e+003
1.138115e+003, 1.670018e+003
1.138597e+003, 1.662425e+003
1.139079e+003, 1.690214e+003
1.139561e+003, 1.738550e+003
1.140043e+003, 1.731217e+003
1.140525e+003, 1.658445e+003
1.141007e+003, 1.595701e+003
1.141490e+003, 1.592330e+003
1.141972e+003, 1.610002e+003
1.142454e+003, 1.602907e+003
1.142936e+003, 1.586601e+003
1.143418e+003, 1.585436e+003
1.143900e+003, 1.595297e+003
1.144382e+003, 1.610225e+003
1.144864e+003, 1.626172e+003
1.145346e+003, 1.633767e+003
1.145828e+003, 1.629581e+003
1.146311e+003, 1.625036e+003
1.146793e+003, 1.633465e+003
1.147275e+003, 1.640249e+003
1.147757e+003, 1.614903e+003
1.148239e+003, 1.593832e+003
1.148721e+003, 1.643306e+003
1.149203e+003, 1.722607e+003
1.149685e+003, 1.742392e+003
1.150168e+003, 1.691616e+003
1.150650e+003, 1.639363e+003
1.151132e+003, 1.615342e+003
1.151614e+003, 1.596675e+003
1.152096e+003, 1.554667e+003
1.152578e+003, 1.532484e+003
1.153060e+003, 1.585588e+003
1.153542e+003, 1.655996e+003
1.154025e+003, 1.663873e+003
1.154507e+003, 1.627050e+003
1.154989e+003, 1.631964e+003
1.155471e+003, 1.709649e+003
1.155953e+003, 1.758626e+003
1.156435e+003, 1.738602e+003
1.156917e+003, 1.709529e+003
1.157399e+003, 1.672061e+003
1.157881e+003, 1.650818e+003
1.158364e+003, 1.664310e+003
1.158846e+003, 1.703833e+003
1.159328e+003, 1.771411e+003
1.159810e+003, 1.868153e+003
1.160292e+003, 1.892880e+003
1.160774e+003, 1.780795e+003
1.161256e+003, 1.714208e+003
1.161738e+003, 1.725148e+003
1.162220e+003, 1.741997e+003
1.162703e+003, 1.735671e+003
1.163185e+003, 1.730469e+003
1.163667e+003, 1.757664e+003
1.164149e+003, 1.799636e+003
1.164631e+003, 1.795546e+003
1.165113e+003, 1.737920e+003
1.165595e+003, 1.673096e+003
1.166077e+003, 1.587523e+003
1.166560e+003, 1.559547e+003
1.167042e+003, 1.615713e+003
1.167524e+003, 1.683200e+003
1.168006e+003, 1.718592e+003
1.168488e+003, 1.743970e+003
1.168970e+003, 1.797106e+003
1.169452e+003, 1.865015e+003
1.169934e+003, 1.874475e+003
1.170417e+003, 1.829531e+003
1.170899e+003, 1.776976e+003
1.171381e+003, 1.724516e+003
1.171863e+003, 1.723083e+003
1.172345e+003, 1.787693e+003
1.172827e+003, 1.849237e+003
1.173309e+003, 1.849264e+003
1.173791e+003, 1.824734e+003
1.174273e+003, 1.836822e+003
1.174755e+003, 1.871678e+003
1.175238e+003, 1.907572e+003
1.175720e+003, 1.935192e+003
1.176202e+003, 1.921762e+003
1.176684e+003, 1.873302e+003
1.177166e+003, 1.836379e+003
1.177648e+003, 1.830964e+003
1.178130e+003, 1.841262e+003
1.178612e+003, 1.860578e+003
1.179095e+003, 1.881164e+003
1.179577e+003, 1.894316e+003
1.180059e+003, 1.905114e+003
1.180541e+003, 1.927432e+003
1.181023e+003, 1.949129e+003
1.181505e+003, 1.945064e+003
1.181987e+003, 1.913394e+003
1.182469e+003, 1.869787e+003
1.182952e+003, 1.804676e+003
1.183434e+003, 1.773509e+003
1.183916e+003, 1.830268e+003
1.184398e+003, 1.892139e+003
1.184880e+003, 1.917025e+003
1.185362e+003, 1.921943e+003
1.185844e+003, 1.919876e+003
1.186326e+003, 1.914106e+003
1.186808e+003, 1.907713e+003
1.187291e+003, 1.900510e+003
1.187773e+003, 1.897201e+003
1.188255e+003, 1.901429e+003
1.188737e+003, 1.904386e+003
1.189219e+003, 1.895136e+003
1.189701e+003, 1.899581e+003
1.190183e+003, 1.945703e+003
1.190665e+003, 1.989669e+003
1.191147e+003, 1.974138e+003
1.191630e+003, 1.919613e+003
1.192112e+003, 1.916353e+003
1.192594e+003, 1.977320e+003
1.193076e+003, 2.026200e+003
1.193558e+003, 2.063971e+003
1.194040e+003, 2.082389e+003
1.194522e+003, 2.077034e+003
1.195004e+003, 2.067018e+003
1.195487e+003, 2.063966e+003
1.195969e+003, 2.060518e+003
1.196451e+003, 2.043664e+003
1.196933e+003, 2.020167e+003
1.197415e+003, 2.020465e+003
1.197897e+003, 2.038769e+003
1.198379e+003, 2.042862e+003
1.198861e+003, 2.031032e+003
1.199344e+003, 2.003711e+003
1.199826e+003, 1.965506e+003
1.200308e+003, 1.956561e+003
1.200790e+003, 2.008583e+003
1.201272e+003, 2.072423e+003
1.201754e+003, 2.093286e+003
1.202236e+003, 2.085839e+003
1.202718e+003, 2.056466e+003
1.203200e+003, 2.022112e+003
1.203682e+003, 2.014188e+003
1.204165e+003, 2.026438e+003
1.204647e+003, 2.032053e+003
1.205129e+003, 2.023525e+003
1.205611e+003, 2.012039e+003
1.206093e+003, 2.003921e+003
1.206575e+003, 1.993550e+003
1.207057e+003, 1.968431e+003
1.207539e+003, 1.950745e+003
1.208022e+003, 1.947476e+003
1.208504e+003, 1.966234e+003
1.208986e+003, 2.041660e+003
1.209468e+003, 2.145358e+003
1.209950e+003, 2.170271e+003
1.210432e+003, 2.075742e+003
1.210914e+003, 2.024416e+003
1.211396e+003, 2.077032e+003
1.211879e+003, 2.095531e+003
1.212361e+003, 2.031505e+003
1.212843e+003, 1.976615e+003
1.213325e+003, 1.982236e+003
1.213807e+003, 2.012406e+003
1.214289e+003, 2.024923e+003
1.214771e+003, 2.023483e+003
1.215253e+003, 2.028257e+003
1.215735e+003, 2.042016e+003
1.216218e+003, 2.030173e+003
1.216700e+003, 1.988537e+003
1.217182e+003, 1.972972e+003
1.217664e+003, 1.997693e+003
1.218146e+003, 2.013624e+003
1.218628e+003, 1.990517e+003
1.219110e+003, 1.960603e+003
1.219592e+003, 1.968722e+003
1.220074e+003, 1.997515e+003
1.220557e+003, 2.005876e+003
1.221039e+003, 2.001270e+003
1.221521e+003, 2.005246e+003
1.222003e+003, 2.014789e+003
1.222485e+003, 2.011350e+003
1.222967e+003, 1.993702e+003
1.223449e+003, 1.983609e+003
1.223931e+003, 1.994906e+003
1.224414e+003, 2.002857e+003
1.224896e+003, 1.987406e+003
1.225378e+003, 1.961616e+003
1.225860e+003, 1.915362e+003
1.226342e+003, 1.882257e+003
1.226824e+003, 1.919600e+003
1.227306e+003, 1.988069e+003
1.227788e+003, 2.002073e+003
1.228271e+003, 1.954068e+003
1.228753e+003, 1.920040e+003
1.229235e+003, 1.920678e+003
1.229717e+003, 1.926971e+003
1.230199e+003, 1.956965e+003
1.230681e+003, 1.961340e+003
1.231163e+003, 1.898539e+003
1.231645e+003, 1.838332e+003
1.232127e+003, 1.832515e+003
1.232609e+003, 1.863160e+003
1.233092e+003, 1.900247e+003
1.233574e+003, 1.943219e+003
1.234056e+003, 1.960638e+003
1.234538e+003, 1.950518e+003
1.235020e+003, 1.921823e+003
1.235502e+003, 1.871447e+003
1.235984e+003, 1.873067e+003
1.236466e+003, 1.953729e+003
1.236949e+003, 2.037215e+003
1.237431e+003, 2.064350e+003
1.237913e+003, 2.057934e+003
1.238395e+003, 2.050014e+003
1.238877e+003, 2.038642e+003
1.239359e+003, 2.011152e+003
1.239841e+003, 1.979346e+003
1.240323e+003, 1.977734e+003
1.240806e+003, 1.998415e+003
1.241288e+003, 2.001689e+003
1.241770e+003, 1.979113e+003
1.242252e+003, 1.964127e+003
1.242734e+003, 1.979460e+003
1.243216e+003, 1.995815e+003
1.243698e+003, 1.995264e+003
1.244180e+003, 1.987892e+003
1.244662e+003, 1.965642e+003
1.245145e+003, 1.952980e+003
1.245627e+003, 1.988843e+003
1.246109e+003, 2.049000e+003
1.246591e+003, 2.073789e+003
1.247073e+003, 2.055083e+003
1.247555e+003, 2.048319e+003
1.248037e+003, 2.074251e+003
1.248519e+003, 2.078145e+003
1.249001e+003, 2.050605e+003
1.249484e+003, 2.013932e+003
1.249966e+003, 1.969181e+003
1.250448e+003, 1.930039e+003
1.250930e+003, 1.904243e+003
1.251412e+003, 1.898180e+003
1.251894e+003, 1.929582e+003
1.252376e+003, 1.991751e+003
1.252858e+003, 2.036845e+003
1.253341e+003, 2.064620e+003
1.253823e+003, 2.069541e+003
1.254305e+003, 2.054354e+003
1.254787e+003, 2.037464e+003
1.255269e+003, 2.025988e+003
1.255751e+003, 2.026050e+003
1.256233e+003, 2.041906e+003
1.256715e+003, 2.069284e+003
1.257198e+003, 2.123831e+003
1.257680e+003, 2.167416e+003
1.258162e+003, 2.140913e+003
1.258644e+003, 2.089930e+003
1.259126e+003, 2.059632e+003
1.259608e+003, 2.058737e+003
1.260090e+003, 2.102938e+003
1.260572e+003, 2.186344e+003
1.261054e+003, 2.244782e+003
1.261536e+003, 2.259714e+003
1.262019e+003, 2.252353e+003
1.262501e+003, 2.197382e+003
1.262983e+003, 2.161963e+003
1.263465e+003, 2.177984e+003
1.263947e+003, 2.205657e+003
1.264429e+003, 2.231365e+003
1.264911e+003, 2.240609e+003
1.265393e+003, 2.203744e+003
1.265876e+003, 2.132098e+003
1.266358e+003, 2.104488e+003
1.266840e+003, 2.123023e+003
1.267322e+003, 2.153643e+003
1.267804e+003, 2.194667e+003
1.268286e+003, 2.234307e+003
1.268768e+003, 2.268520e+003
1.269250e+003, 2.272253e+003
1.269733e+003, 2.231291e+003
1.270215e+003, 2.182691e+003
1.270697e+003, 2.165096e+003
1.271179e+003, 2.164566e+003
1.271661e+003, 2.170995e+003
1.272143e+003, 2.173901e+003
1.272625e+003, 2.154350e+003
1.273107e+003, 2.121800e+003
1.273589e+003, 2.081550e+003
1.274072e+003, 2.047142e+003
1.274554e+003, 2.065714e+003
1.275036e+003, 2.161490e+003
1.275518e+003, 2.213962e+003
1.276000e+003, 2.133386e+003
1.276482e+003, 2.081695e+003
1.276964e+003, 2.123433e+003
1.277446e+003, 2.178179e+003
1.277929e+003, 2.226474e+003
1.278411e+003, 2.245368e+003
1.278893e+003, 2.194777e+003
1.279375e+003, 2.113617e+003
1.279857e+003, 2.116952e+003
1.280339e+003, 2.206947e+003
1.280821e+003, 2.228983e+003
1.281303e+003, 2.181754e+003
1.281786e+003, 2.167696e+003
1.282268e+003, 2.200567e+003
##END=



