##NAMES=Crocoite
##RRUFFID=R160016
##IDEAL CHEMISTRY=Pb^2+^Cr^6+^O_4_
##LOCALITY=Beresovsk, Ural Mountains, Russia
##OWNER=RRUFF
##SOURCE=Marcus Origlieri
##DESCRIPTION=Red prismatic crystals associated with embreyite (R160015)
##STATUS=The identification of this mineral has been determined only by Raman spectroscopy
##URL=rruff.info/R160016
8.813672e+001, 5.941764e+003
8.861884e+001, 5.960907e+003
8.910095e+001, 6.022383e+003
8.958307e+001, 6.154447e+003
9.006519e+001, 6.323573e+003
9.054730e+001, 6.483933e+003
9.102942e+001, 6.641211e+003
9.151154e+001, 6.818068e+003
9.199365e+001, 7.046453e+003
9.247577e+001, 7.315011e+003
9.295789e+001, 7.588811e+003
9.344000e+001, 7.851779e+003
9.392212e+001, 8.103695e+003
9.440424e+001, 8.362995e+003
9.488635e+001, 8.636159e+003
9.536847e+001, 8.921081e+003
9.585059e+001, 9.195396e+003
9.633270e+001, 9.461142e+003
9.681482e+001, 9.760017e+003
9.729694e+001, 1.012937e+004
9.777905e+001, 1.056412e+004
9.826117e+001, 1.096477e+004
9.874329e+001, 1.130251e+004
9.922540e+001, 1.161847e+004
9.970752e+001, 1.203298e+004
1.001896e+002, 1.256148e+004
1.006718e+002, 1.310612e+004
1.011539e+002, 1.358174e+004
1.016360e+002, 1.396331e+004
1.021181e+002, 1.440267e+004
1.026002e+002, 1.491212e+004
1.030823e+002, 1.548953e+004
1.035645e+002, 1.613342e+004
1.040466e+002, 1.687790e+004
1.045287e+002, 1.764879e+004
1.050108e+002, 1.839185e+004
1.054929e+002, 1.906197e+004
1.059750e+002, 1.977638e+004
1.064572e+002, 2.056069e+004
1.069393e+002, 2.142404e+004
1.074214e+002, 2.227943e+004
1.079035e+002, 2.311437e+004
1.083856e+002, 2.395404e+004
1.088677e+002, 2.481099e+004
1.093499e+002, 2.571636e+004
1.098320e+002, 2.662452e+004
1.103141e+002, 2.752871e+004
1.107962e+002, 2.844909e+004
1.112783e+002, 2.934996e+004
1.117604e+002, 3.021987e+004
1.122426e+002, 3.108257e+004
1.127247e+002, 3.195796e+004
1.132068e+002, 3.287090e+004
1.136889e+002, 3.378434e+004
1.141710e+002, 3.467320e+004
1.146531e+002, 3.551966e+004
1.151353e+002, 3.637225e+004
1.156174e+002, 3.726187e+004
1.160995e+002, 3.817744e+004
1.165816e+002, 3.910012e+004
1.170637e+002, 4.001939e+004
1.175458e+002, 4.094151e+004
1.180280e+002, 4.187952e+004
1.185101e+002, 4.281736e+004
1.189922e+002, 4.379008e+004
1.194743e+002, 4.479991e+004
1.199564e+002, 4.585300e+004
1.204385e+002, 4.695670e+004
1.209207e+002, 4.811702e+004
1.214028e+002, 4.933124e+004
1.218849e+002, 5.059082e+004
1.223670e+002, 5.190972e+004
1.228491e+002, 5.328323e+004
1.233312e+002, 5.467930e+004
1.238134e+002, 5.610654e+004
1.242955e+002, 5.761422e+004
1.247776e+002, 5.924935e+004
1.252597e+002, 6.099373e+004
1.257418e+002, 6.281043e+004
1.262239e+002, 6.472257e+004
1.267061e+002, 6.670320e+004
1.271882e+002, 6.863372e+004
1.276703e+002, 7.052345e+004
1.281524e+002, 7.244391e+004
1.286345e+002, 7.450068e+004
1.291166e+002, 7.666760e+004
1.295988e+002, 7.882755e+004
1.300809e+002, 8.096355e+004
1.305630e+002, 8.305341e+004
1.310451e+002, 8.505377e+004
1.315272e+002, 8.696852e+004
1.320093e+002, 8.872027e+004
1.324915e+002, 9.025150e+004
1.329736e+002, 9.155644e+004
1.334557e+002, 9.255859e+004
1.339378e+002, 9.318989e+004
1.344199e+002, 9.345199e+004
1.349020e+002, 9.340884e+004
1.353842e+002, 9.303412e+004
1.358663e+002, 9.236613e+004
1.363484e+002, 9.146151e+004
1.368305e+002, 9.030677e+004
1.373126e+002, 8.893473e+004
1.377947e+002, 8.733438e+004
1.382769e+002, 8.546445e+004
1.387590e+002, 8.356886e+004
1.392411e+002, 8.167133e+004
1.397232e+002, 7.976435e+004
1.402053e+002, 7.794196e+004
1.406874e+002, 7.620338e+004
1.411696e+002, 7.450864e+004
1.416517e+002, 7.284248e+004
1.421338e+002, 7.116699e+004
1.426159e+002, 6.960797e+004
1.430980e+002, 6.819473e+004
1.435801e+002, 6.692472e+004
1.440623e+002, 6.565322e+004
1.445444e+002, 6.435870e+004
1.450265e+002, 6.309489e+004
1.455086e+002, 6.192054e+004
1.459907e+002, 6.081988e+004
1.464728e+002, 5.982474e+004
1.469550e+002, 5.896947e+004
1.474371e+002, 5.827111e+004
1.479192e+002, 5.749942e+004
1.484013e+002, 5.657784e+004
1.488834e+002, 5.563104e+004
1.493655e+002, 5.476279e+004
1.498477e+002, 5.403345e+004
1.503298e+002, 5.332448e+004
1.508119e+002, 5.262156e+004
1.512940e+002, 5.192475e+004
1.517761e+002, 5.123827e+004
1.522583e+002, 5.055104e+004
1.527404e+002, 4.989015e+004
1.532225e+002, 4.927913e+004
1.537046e+002, 4.877276e+004
1.541867e+002, 4.827489e+004
1.546688e+002, 4.774824e+004
1.551510e+002, 4.716142e+004
1.556331e+002, 4.664561e+004
1.561152e+002, 4.628184e+004
1.565973e+002, 4.599131e+004
1.570794e+002, 4.567195e+004
1.575615e+002, 4.526804e+004
1.580437e+002, 4.485705e+004
1.585258e+002, 4.445621e+004
1.590079e+002, 4.404751e+004
1.594900e+002, 4.371199e+004
1.599721e+002, 4.350925e+004
1.604542e+002, 4.339205e+004
1.609364e+002, 4.327760e+004
1.614185e+002, 4.312939e+004
1.619006e+002, 4.298054e+004
1.623827e+002, 4.285166e+004
1.628648e+002, 4.275438e+004
1.633469e+002, 4.265516e+004
1.638291e+002, 4.252482e+004
1.643112e+002, 4.238019e+004
1.647933e+002, 4.225801e+004
1.652754e+002, 4.220107e+004
1.657575e+002, 4.215868e+004
1.662396e+002, 4.208707e+004
1.667218e+002, 4.195503e+004
1.672039e+002, 4.183671e+004
1.676860e+002, 4.178400e+004
1.681681e+002, 4.178514e+004
1.686502e+002, 4.180036e+004
1.691323e+002, 4.183164e+004
1.696145e+002, 4.185680e+004
1.700966e+002, 4.184691e+004
1.705787e+002, 4.176689e+004
1.710608e+002, 4.169340e+004
1.715429e+002, 4.170081e+004
1.720250e+002, 4.177579e+004
1.725072e+002, 4.185458e+004
1.729893e+002, 4.189725e+004
1.734714e+002, 4.191902e+004
1.739535e+002, 4.194150e+004
1.744356e+002, 4.197421e+004
1.749177e+002, 4.200378e+004
1.753999e+002, 4.202042e+004
1.758820e+002, 4.202327e+004
1.763641e+002, 4.200725e+004
1.768462e+002, 4.194991e+004
1.773283e+002, 4.187301e+004
1.778104e+002, 4.181997e+004
1.782926e+002, 4.182058e+004
1.787747e+002, 4.183696e+004
1.792568e+002, 4.181375e+004
1.797389e+002, 4.175315e+004
1.802210e+002, 4.168244e+004
1.807031e+002, 4.161713e+004
1.811853e+002, 4.156022e+004
1.816674e+002, 4.152375e+004
1.821495e+002, 4.153186e+004
1.826316e+002, 4.155065e+004
1.831137e+002, 4.150961e+004
1.835958e+002, 4.140738e+004
1.840780e+002, 4.128613e+004
1.845601e+002, 4.116840e+004
1.850422e+002, 4.106007e+004
1.855243e+002, 4.098059e+004
1.860064e+002, 4.096016e+004
1.864885e+002, 4.096529e+004
1.869707e+002, 4.090627e+004
1.874528e+002, 4.077922e+004
1.879349e+002, 4.062245e+004
1.884170e+002, 4.044994e+004
1.888991e+002, 4.026944e+004
1.893812e+002, 4.014417e+004
1.898634e+002, 4.012119e+004
1.903455e+002, 4.016803e+004
1.908276e+002, 4.015339e+004
1.913097e+002, 4.006890e+004
1.917918e+002, 3.996761e+004
1.922739e+002, 3.991424e+004
1.927561e+002, 3.990671e+004
1.932382e+002, 3.988957e+004
1.937203e+002, 3.984238e+004
1.942024e+002, 3.976870e+004
1.946845e+002, 3.968343e+004
1.951666e+002, 3.958073e+004
1.956488e+002, 3.948418e+004
1.961309e+002, 3.942628e+004
1.966130e+002, 3.940781e+004
1.970951e+002, 3.939563e+004
1.975772e+002, 3.939016e+004
1.980593e+002, 3.938716e+004
1.985415e+002, 3.933008e+004
1.990236e+002, 3.920741e+004
1.995057e+002, 3.906500e+004
1.999878e+002, 3.896375e+004
2.004699e+002, 3.890898e+004
2.009520e+002, 3.886621e+004
2.014342e+002, 3.883173e+004
2.019163e+002, 3.880588e+004
2.023984e+002, 3.876455e+004
2.028805e+002, 3.870789e+004
2.033626e+002, 3.863857e+004
2.038447e+002, 3.855046e+004
2.043269e+002, 3.843470e+004
2.048090e+002, 3.834482e+004
2.052911e+002, 3.830910e+004
2.057732e+002, 3.832873e+004
2.062553e+002, 3.831803e+004
2.067374e+002, 3.826521e+004
2.072196e+002, 3.819781e+004
2.077017e+002, 3.814711e+004
2.081838e+002, 3.810637e+004
2.086659e+002, 3.810382e+004
2.091480e+002, 3.816640e+004
2.096301e+002, 3.830309e+004
2.101123e+002, 3.837271e+004
2.105944e+002, 3.835786e+004
2.110765e+002, 3.829861e+004
2.115586e+002, 3.824982e+004
2.120407e+002, 3.821554e+004
2.125228e+002, 3.817986e+004
2.130050e+002, 3.814544e+004
2.134871e+002, 3.811714e+004
2.139692e+002, 3.803452e+004
2.144513e+002, 3.786346e+004
2.149334e+002, 3.767559e+004
2.154155e+002, 3.757682e+004
2.158977e+002, 3.760160e+004
2.163798e+002, 3.763289e+004
2.168619e+002, 3.763971e+004
2.173440e+002, 3.762250e+004
2.178261e+002, 3.757664e+004
2.183082e+002, 3.748574e+004
2.187904e+002, 3.738425e+004
2.192725e+002, 3.732819e+004
2.197546e+002, 3.735056e+004
2.202367e+002, 3.734781e+004
2.207188e+002, 3.728133e+004
2.212009e+002, 3.713744e+004
2.216831e+002, 3.702327e+004
2.221652e+002, 3.694125e+004
2.226473e+002, 3.688736e+004
2.231294e+002, 3.686097e+004
2.236115e+002, 3.687566e+004
2.240936e+002, 3.689104e+004
2.245758e+002, 3.689991e+004
2.250579e+002, 3.690425e+004
2.255400e+002, 3.688417e+004
2.260221e+002, 3.682271e+004
2.265042e+002, 3.675164e+004
2.269863e+002, 3.671775e+004
2.274685e+002, 3.674891e+004
2.279506e+002, 3.676245e+004
2.284327e+002, 3.672950e+004
2.289148e+002, 3.663993e+004
2.293969e+002, 3.657496e+004
2.298790e+002, 3.654481e+004
2.303612e+002, 3.652916e+004
2.308433e+002, 3.650200e+004
2.313254e+002, 3.645041e+004
2.318075e+002, 3.640919e+004
2.322896e+002, 3.639044e+004
2.327717e+002, 3.639771e+004
2.332539e+002, 3.639285e+004
2.337360e+002, 3.637327e+004
2.342181e+002, 3.634428e+004
2.347002e+002, 3.631403e+004
2.351823e+002, 3.629590e+004
2.356644e+002, 3.625263e+004
2.361466e+002, 3.616084e+004
2.366287e+002, 3.601253e+004
2.371108e+002, 3.593101e+004
2.375929e+002, 3.595601e+004
2.380750e+002, 3.601454e+004
2.385571e+002, 3.602894e+004
2.390393e+002, 3.597380e+004
2.395214e+002, 3.592324e+004
2.400035e+002, 3.589263e+004
2.404856e+002, 3.588280e+004
2.409677e+002, 3.587298e+004
2.414498e+002, 3.585614e+004
2.419320e+002, 3.584531e+004
2.424141e+002, 3.585373e+004
2.428962e+002, 3.589002e+004
2.433783e+002, 3.592725e+004
2.438604e+002, 3.596107e+004
2.443425e+002, 3.599068e+004
2.448247e+002, 3.601476e+004
2.453068e+002, 3.603396e+004
2.457889e+002, 3.604478e+004
2.462710e+002, 3.604226e+004
2.467531e+002, 3.601525e+004
2.472352e+002, 3.599689e+004
2.477174e+002, 3.600121e+004
2.481995e+002, 3.602564e+004
2.486816e+002, 3.601302e+004
2.491637e+002, 3.593856e+004
2.496458e+002, 3.585813e+004
2.501279e+002, 3.581961e+004
2.506101e+002, 3.584587e+004
2.510922e+002, 3.586903e+004
2.515743e+002, 3.588930e+004
2.520564e+002, 3.590380e+004
2.525385e+002, 3.587600e+004
2.530206e+002, 3.577823e+004
2.535028e+002, 3.567531e+004
2.539849e+002, 3.561483e+004
2.544670e+002, 3.560896e+004
2.549491e+002, 3.561220e+004
2.554312e+002, 3.562096e+004
2.559133e+002, 3.563396e+004
2.563955e+002, 3.564926e+004
2.568776e+002, 3.567036e+004
2.573597e+002, 3.568513e+004
2.578418e+002, 3.567959e+004
2.583239e+002, 3.563225e+004
2.588061e+002, 3.562328e+004
2.592882e+002, 3.567970e+004
2.597703e+002, 3.577536e+004
2.602524e+002, 3.580530e+004
2.607345e+002, 3.573934e+004
2.612166e+002, 3.566484e+004
2.616988e+002, 3.563283e+004
2.621809e+002, 3.566181e+004
2.626630e+002, 3.567949e+004
2.631451e+002, 3.568635e+004
2.636272e+002, 3.568019e+004
2.641093e+002, 3.564726e+004
2.645915e+002, 3.557102e+004
2.650736e+002, 3.550734e+004
2.655557e+002, 3.549131e+004
2.660378e+002, 3.554332e+004
2.665199e+002, 3.556118e+004
2.670020e+002, 3.553348e+004
2.674842e+002, 3.547906e+004
2.679663e+002, 3.543397e+004
2.684484e+002, 3.539534e+004
2.689305e+002, 3.537347e+004
2.694126e+002, 3.537296e+004
2.698947e+002, 3.539439e+004
2.703769e+002, 3.543639e+004
2.708590e+002, 3.551000e+004
2.713411e+002, 3.558874e+004
2.718232e+002, 3.562185e+004
2.723053e+002, 3.559681e+004
2.727874e+002, 3.557027e+004
2.732696e+002, 3.555968e+004
2.737517e+002, 3.556478e+004
2.742338e+002, 3.558827e+004
2.747159e+002, 3.563742e+004
2.751980e+002, 3.569012e+004
2.756801e+002, 3.570918e+004
2.761623e+002, 3.568710e+004
2.766444e+002, 3.567935e+004
2.771265e+002, 3.571587e+004
2.776086e+002, 3.579225e+004
2.780907e+002, 3.581559e+004
2.785728e+002, 3.577473e+004
2.790550e+002, 3.571642e+004
2.795371e+002, 3.570113e+004
2.800192e+002, 3.573450e+004
2.805013e+002, 3.574179e+004
2.809834e+002, 3.569171e+004
2.814655e+002, 3.559980e+004
2.819477e+002, 3.554016e+004
2.824298e+002, 3.551256e+004
2.829119e+002, 3.552097e+004
2.833940e+002, 3.558854e+004
2.838761e+002, 3.571370e+004
2.843582e+002, 3.581452e+004
2.848404e+002, 3.587965e+004
2.853225e+002, 3.590417e+004
2.858046e+002, 3.584236e+004
2.862867e+002, 3.568368e+004
2.867688e+002, 3.555314e+004
2.872509e+002, 3.557983e+004
2.877331e+002, 3.574409e+004
2.882152e+002, 3.587190e+004
2.886973e+002, 3.593309e+004
2.891794e+002, 3.594513e+004
2.896615e+002, 3.593301e+004
2.901436e+002, 3.589690e+004
2.906258e+002, 3.586414e+004
2.911079e+002, 3.585400e+004
2.915900e+002, 3.586297e+004
2.920721e+002, 3.587936e+004
2.925542e+002, 3.590680e+004
2.930363e+002, 3.592975e+004
2.935185e+002, 3.591179e+004
2.940006e+002, 3.585822e+004
2.944827e+002, 3.581903e+004
2.949648e+002, 3.582565e+004
2.954469e+002, 3.586729e+004
2.959290e+002, 3.592254e+004
2.964112e+002, 3.599509e+004
2.968933e+002, 3.605768e+004
2.973754e+002, 3.605223e+004
2.978575e+002, 3.600030e+004
2.983396e+002, 3.598235e+004
2.988217e+002, 3.608884e+004
2.993039e+002, 3.624112e+004
2.997860e+002, 3.627195e+004
3.002681e+002, 3.616837e+004
3.007502e+002, 3.607004e+004
3.012323e+002, 3.614508e+004
3.017144e+002, 3.633361e+004
3.021966e+002, 3.648830e+004
3.026787e+002, 3.654649e+004
3.031608e+002, 3.654626e+004
3.036429e+002, 3.651406e+004
3.041250e+002, 3.645280e+004
3.046071e+002, 3.641270e+004
3.050893e+002, 3.645385e+004
3.055714e+002, 3.653887e+004
3.060535e+002, 3.660571e+004
3.065356e+002, 3.662273e+004
3.070177e+002, 3.662797e+004
3.074998e+002, 3.665111e+004
3.079820e+002, 3.669128e+004
3.084641e+002, 3.674319e+004
3.089462e+002, 3.681520e+004
3.094283e+002, 3.689254e+004
3.099104e+002, 3.695548e+004
3.103925e+002, 3.698610e+004
3.108747e+002, 3.702384e+004
3.113568e+002, 3.710881e+004
3.118389e+002, 3.722421e+004
3.123210e+002, 3.732254e+004
3.128031e+002, 3.736690e+004
3.132852e+002, 3.739439e+004
3.137674e+002, 3.742984e+004
3.142495e+002, 3.747205e+004
3.147316e+002, 3.753752e+004
3.152137e+002, 3.765443e+004
3.156958e+002, 3.779768e+004
3.161779e+002, 3.792433e+004
3.166601e+002, 3.800785e+004
3.171422e+002, 3.807893e+004
3.176243e+002, 3.814323e+004
3.181064e+002, 3.819550e+004
3.185885e+002, 3.827900e+004
3.190706e+002, 3.842110e+004
3.195528e+002, 3.859814e+004
3.200349e+002, 3.878319e+004
3.205170e+002, 3.896703e+004
3.209991e+002, 3.916004e+004
3.214812e+002, 3.935961e+004
3.219633e+002, 3.956662e+004
3.224455e+002, 3.980176e+004
3.229276e+002, 4.010644e+004
3.234097e+002, 4.042166e+004
3.238918e+002, 4.070318e+004
3.243739e+002, 4.089902e+004
3.248560e+002, 4.111070e+004
3.253382e+002, 4.136264e+004
3.258203e+002, 4.164908e+004
3.263024e+002, 4.192238e+004
3.267845e+002, 4.215169e+004
3.272666e+002, 4.238880e+004
3.277487e+002, 4.266014e+004
3.282309e+002, 4.299413e+004
3.287130e+002, 4.331863e+004
3.291951e+002, 4.359204e+004
3.296772e+002, 4.385700e+004
3.301593e+002, 4.422320e+004
3.306414e+002, 4.472147e+004
3.311236e+002, 4.528077e+004
3.316057e+002, 4.588356e+004
3.320878e+002, 4.653411e+004
3.325699e+002, 4.722009e+004
3.330520e+002, 4.794464e+004
3.335341e+002, 4.869652e+004
3.340163e+002, 4.945555e+004
3.344984e+002, 5.020273e+004
3.349805e+002, 5.098729e+004
3.354626e+002, 5.185944e+004
3.359447e+002, 5.283206e+004
3.364268e+002, 5.368071e+004
3.369090e+002, 5.445963e+004
3.373911e+002, 5.504572e+004
3.378732e+002, 5.529625e+004
3.383553e+002, 5.517014e+004
3.388374e+002, 5.486388e+004
3.393195e+002, 5.436084e+004
3.398017e+002, 5.371029e+004
3.402838e+002, 5.308900e+004
3.407659e+002, 5.247061e+004
3.412480e+002, 5.196602e+004
3.417301e+002, 5.162494e+004
3.422122e+002, 5.144721e+004
3.426944e+002, 5.149969e+004
3.431765e+002, 5.180986e+004
3.436586e+002, 5.232008e+004
3.441407e+002, 5.290873e+004
3.446228e+002, 5.357161e+004
3.451049e+002, 5.435572e+004
3.455871e+002, 5.529726e+004
3.460692e+002, 5.639321e+004
3.465513e+002, 5.754490e+004
3.470334e+002, 5.874971e+004
3.475155e+002, 6.001950e+004
3.479977e+002, 6.133238e+004
3.484798e+002, 6.270754e+004
3.489619e+002, 6.417668e+004
3.494440e+002, 6.571588e+004
3.499261e+002, 6.737256e+004
3.504082e+002, 6.923659e+004
3.508904e+002, 7.130736e+004
3.513725e+002, 7.356223e+004
3.518546e+002, 7.598547e+004
3.523367e+002, 7.859413e+004
3.528188e+002, 8.146254e+004
3.533009e+002, 8.470855e+004
3.537831e+002, 8.809745e+004
3.542652e+002, 9.141276e+004
3.547473e+002, 9.465650e+004
3.552294e+002, 9.784238e+004
3.557115e+002, 1.011971e+005
3.561936e+002, 1.044021e+005
3.566758e+002, 1.071579e+005
3.571579e+002, 1.095178e+005
3.576400e+002, 1.112141e+005
3.581221e+002, 1.121755e+005
3.586042e+002, 1.123425e+005
3.590863e+002, 1.116178e+005
3.595685e+002, 1.097714e+005
3.600506e+002, 1.071613e+005
3.605327e+002, 1.038589e+005
3.610148e+002, 9.981661e+004
3.614969e+002, 9.564773e+004
3.619790e+002, 9.132871e+004
3.624612e+002, 8.712999e+004
3.629433e+002, 8.328315e+004
3.634254e+002, 7.985729e+004
3.639075e+002, 7.678641e+004
3.643896e+002, 7.406334e+004
3.648717e+002, 7.168310e+004
3.653539e+002, 6.960945e+004
3.658360e+002, 6.785296e+004
3.663181e+002, 6.639398e+004
3.668002e+002, 6.518516e+004
3.672823e+002, 6.422014e+004
3.677644e+002, 6.350845e+004
3.682466e+002, 6.301820e+004
3.687287e+002, 6.278301e+004
3.692108e+002, 6.288483e+004
3.696929e+002, 6.343695e+004
3.701750e+002, 6.421129e+004
3.706571e+002, 6.513736e+004
3.711393e+002, 6.623849e+004
3.716214e+002, 6.744073e+004
3.721035e+002, 6.874276e+004
3.725856e+002, 7.016230e+004
3.730677e+002, 7.171285e+004
3.735498e+002, 7.344846e+004
3.740320e+002, 7.524951e+004
3.745141e+002, 7.721197e+004
3.749962e+002, 7.928421e+004
3.754783e+002, 8.084170e+004
3.759604e+002, 8.202363e+004
3.764425e+002, 8.236616e+004
3.769247e+002, 8.138821e+004
3.774068e+002, 7.900424e+004
3.778889e+002, 7.595567e+004
3.783710e+002, 7.215385e+004
3.788531e+002, 6.796029e+004
3.793352e+002, 6.408984e+004
3.798174e+002, 6.056823e+004
3.802995e+002, 5.742880e+004
3.807816e+002, 5.475298e+004
3.812637e+002, 5.250188e+004
3.817458e+002, 5.060665e+004
3.822279e+002, 4.905479e+004
3.827101e+002, 4.780131e+004
3.831922e+002, 4.678762e+004
3.836743e+002, 4.599726e+004
3.841564e+002, 4.540587e+004
3.846385e+002, 4.507742e+004
3.851206e+002, 4.489811e+004
3.856028e+002, 4.464298e+004
3.860849e+002, 4.431896e+004
3.865670e+002, 4.405687e+004
3.870491e+002, 4.399392e+004
3.875312e+002, 4.405259e+004
3.880133e+002, 4.410432e+004
3.884955e+002, 4.410829e+004
3.889776e+002, 4.411558e+004
3.894597e+002, 4.416357e+004
3.899418e+002, 4.425082e+004
3.904239e+002, 4.437227e+004
3.909060e+002, 4.448539e+004
3.913882e+002, 4.465762e+004
3.918703e+002, 4.494773e+004
3.923524e+002, 4.537541e+004
3.928345e+002, 4.586362e+004
3.933166e+002, 4.639567e+004
3.937987e+002, 4.696326e+004
3.942809e+002, 4.754840e+004
3.947630e+002, 4.816700e+004
3.952451e+002, 4.878445e+004
3.957272e+002, 4.937598e+004
3.962093e+002, 4.994354e+004
3.966914e+002, 5.056707e+004
3.971736e+002, 5.134156e+004
3.976557e+002, 5.212479e+004
3.981378e+002, 5.283393e+004
3.986199e+002, 5.355580e+004
3.991020e+002, 5.407145e+004
3.995841e+002, 5.447140e+004
4.000663e+002, 5.465904e+004
4.005484e+002, 5.439293e+004
4.010305e+002, 5.352598e+004
4.015126e+002, 5.238589e+004
4.019947e+002, 5.102614e+004
4.024768e+002, 4.941025e+004
4.029590e+002, 4.781604e+004
4.034411e+002, 4.616282e+004
4.039232e+002, 4.462382e+004
4.044053e+002, 4.340546e+004
4.048874e+002, 4.255434e+004
4.053695e+002, 4.186250e+004
4.058517e+002, 4.130545e+004
4.063338e+002, 4.087106e+004
4.068159e+002, 4.047875e+004
4.072980e+002, 4.012189e+004
4.077801e+002, 3.983952e+004
4.082622e+002, 3.970519e+004
4.087444e+002, 3.970375e+004
4.092265e+002, 3.961257e+004
4.097086e+002, 3.938704e+004
4.101907e+002, 3.912811e+004
4.106728e+002, 3.899502e+004
4.111549e+002, 3.897241e+004
4.116371e+002, 3.896807e+004
4.121192e+002, 3.894916e+004
4.126013e+002, 3.891673e+004
4.130834e+002, 3.886732e+004
4.135655e+002, 3.880073e+004
4.140476e+002, 3.873658e+004
4.145298e+002, 3.870329e+004
4.150119e+002, 3.868041e+004
4.154940e+002, 3.862994e+004
4.159761e+002, 3.852241e+004
4.164582e+002, 3.841451e+004
4.169403e+002, 3.836420e+004
4.174225e+002, 3.835513e+004
4.179046e+002, 3.834031e+004
4.183867e+002, 3.829605e+004
4.188688e+002, 3.823858e+004
4.193509e+002, 3.817954e+004
4.198330e+002, 3.812073e+004
4.203152e+002, 3.805861e+004
4.207973e+002, 3.798155e+004
4.212794e+002, 3.790411e+004
4.217615e+002, 3.784255e+004
4.222436e+002, 3.781712e+004
4.227257e+002, 3.779145e+004
4.232079e+002, 3.774484e+004
4.236900e+002, 3.768138e+004
4.241721e+002, 3.765236e+004
4.246542e+002, 3.769439e+004
4.251363e+002, 3.774545e+004
4.256184e+002, 3.777657e+004
4.261006e+002, 3.778388e+004
4.265827e+002, 3.777500e+004
4.270648e+002, 3.774210e+004
4.275469e+002, 3.769615e+004
4.280290e+002, 3.765816e+004
4.285111e+002, 3.763250e+004
4.289933e+002, 3.760297e+004
4.294754e+002, 3.755359e+004
4.299575e+002, 3.748626e+004
4.304396e+002, 3.748810e+004
4.309217e+002, 3.757768e+004
4.314038e+002, 3.768130e+004
4.318860e+002, 3.772676e+004
4.323681e+002, 3.771357e+004
4.328502e+002, 3.771024e+004
4.333323e+002, 3.772363e+004
4.338144e+002, 3.775799e+004
4.342965e+002, 3.784511e+004
4.347787e+002, 3.797842e+004
4.352608e+002, 3.807421e+004
4.357429e+002, 3.804311e+004
4.362250e+002, 3.794776e+004
4.367071e+002, 3.794486e+004
4.371892e+002, 3.804576e+004
4.376714e+002, 3.815230e+004
4.381535e+002, 3.815675e+004
4.386356e+002, 3.810571e+004
4.391177e+002, 3.808271e+004
4.395998e+002, 3.814640e+004
4.400819e+002, 3.821117e+004
4.405641e+002, 3.819178e+004
4.410462e+002, 3.811066e+004
4.415283e+002, 3.804767e+004
4.420104e+002, 3.806034e+004
4.424925e+002, 3.809460e+004
4.429746e+002, 3.811233e+004
4.434568e+002, 3.810285e+004
4.439389e+002, 3.809949e+004
4.444210e+002, 3.812590e+004
4.449031e+002, 3.815876e+004
4.453852e+002, 3.817022e+004
4.458673e+002, 3.812736e+004
4.463495e+002, 3.808975e+004
4.468316e+002, 3.808389e+004
4.473137e+002, 3.810413e+004
4.477958e+002, 3.807405e+004
4.482779e+002, 3.793068e+004
4.487600e+002, 3.780121e+004
4.492422e+002, 3.775772e+004
4.497243e+002, 3.786316e+004
4.502064e+002, 3.790265e+004
4.506885e+002, 3.785364e+004
4.511706e+002, 3.776224e+004
4.516527e+002, 3.771176e+004
4.521349e+002, 3.771967e+004
4.526170e+002, 3.769552e+004
4.530991e+002, 3.759531e+004
4.535812e+002, 3.743953e+004
4.540633e+002, 3.735758e+004
4.545454e+002, 3.735429e+004
4.550276e+002, 3.737927e+004
4.555097e+002, 3.740169e+004
4.559918e+002, 3.741994e+004
4.564739e+002, 3.742095e+004
4.569560e+002, 3.739672e+004
4.574381e+002, 3.737067e+004
4.579203e+002, 3.738136e+004
4.584024e+002, 3.741727e+004
4.588845e+002, 3.744364e+004
4.593666e+002, 3.743633e+004
4.598488e+002, 3.741319e+004
4.603309e+002, 3.739250e+004
4.608130e+002, 3.737408e+004
4.612951e+002, 3.735450e+004
4.617772e+002, 3.730825e+004
4.622593e+002, 3.727131e+004
4.627415e+002, 3.728579e+004
4.632236e+002, 3.740148e+004
4.637057e+002, 3.749818e+004
4.641878e+002, 3.752105e+004
4.646699e+002, 3.749269e+004
4.651520e+002, 3.745620e+004
4.656342e+002, 3.742547e+004
4.661163e+002, 3.738713e+004
4.665984e+002, 3.732090e+004
4.670805e+002, 3.721708e+004
4.675626e+002, 3.717586e+004
4.680447e+002, 3.724652e+004
4.685269e+002, 3.734077e+004
4.690090e+002, 3.740267e+004
4.694911e+002, 3.743598e+004
4.699732e+002, 3.741951e+004
4.704553e+002, 3.731745e+004
4.709374e+002, 3.718501e+004
4.714196e+002, 3.716316e+004
4.719017e+002, 3.728793e+004
4.723838e+002, 3.739000e+004
4.728659e+002, 3.738340e+004
4.733480e+002, 3.728352e+004
4.738301e+002, 3.727532e+004
4.743123e+002, 3.737354e+004
4.747944e+002, 3.746669e+004
4.752765e+002, 3.741786e+004
4.757586e+002, 3.726571e+004
4.762407e+002, 3.718020e+004
4.767228e+002, 3.720671e+004
4.772050e+002, 3.728416e+004
4.776871e+002, 3.735412e+004
4.781692e+002, 3.741054e+004
4.786513e+002, 3.743289e+004
4.791334e+002, 3.739321e+004
4.796155e+002, 3.732448e+004
4.800977e+002, 3.724850e+004
4.805798e+002, 3.716686e+004
4.810619e+002, 3.710206e+004
4.815440e+002, 3.708533e+004
4.820261e+002, 3.708269e+004
4.825082e+002, 3.706125e+004
4.829904e+002, 3.698477e+004
4.834725e+002, 3.693250e+004
4.839546e+002, 3.695916e+004
4.844367e+002, 3.702402e+004
4.849188e+002, 3.703994e+004
4.854009e+002, 3.695053e+004
4.858831e+002, 3.685572e+004
4.863652e+002, 3.678216e+004
4.868473e+002, 3.673230e+004
4.873294e+002, 3.668030e+004
4.878115e+002, 3.662146e+004
4.882936e+002, 3.656606e+004
4.887758e+002, 3.651644e+004
4.892579e+002, 3.646401e+004
4.897400e+002, 3.645524e+004
4.902221e+002, 3.651540e+004
4.907042e+002, 3.659376e+004
4.911863e+002, 3.657176e+004
4.916685e+002, 3.644173e+004
4.921506e+002, 3.633887e+004
4.926327e+002, 3.632879e+004
4.931148e+002, 3.638606e+004
4.935969e+002, 3.643105e+004
4.940790e+002, 3.646425e+004
4.945612e+002, 3.648469e+004
4.950433e+002, 3.649234e+004
4.955254e+002, 3.648672e+004
4.960075e+002, 3.646288e+004
4.964896e+002, 3.641379e+004
4.969717e+002, 3.636627e+004
4.974539e+002, 3.634313e+004
4.979360e+002, 3.633896e+004
4.984181e+002, 3.634491e+004
4.989002e+002, 3.636642e+004
4.993823e+002, 3.638852e+004
4.998644e+002, 3.641273e+004
5.003466e+002, 3.643611e+004
5.008287e+002, 3.642997e+004
5.013108e+002, 3.634563e+004
5.017929e+002, 3.625874e+004
5.022750e+002, 3.621234e+004
5.027571e+002, 3.621761e+004
5.032393e+002, 3.625151e+004
5.037214e+002, 3.635591e+004
5.042035e+002, 3.646679e+004
5.046856e+002, 3.649523e+004
5.051677e+002, 3.639464e+004
5.056498e+002, 3.630475e+004
5.061320e+002, 3.625245e+004
5.066141e+002, 3.623211e+004
5.070962e+002, 3.621692e+004
5.075783e+002, 3.620659e+004
5.080604e+002, 3.620150e+004
5.085425e+002, 3.620008e+004
5.090247e+002, 3.620266e+004
5.095068e+002, 3.621627e+004
5.099889e+002, 3.624138e+004
5.104710e+002, 3.627516e+004
5.109531e+002, 3.633177e+004
5.114352e+002, 3.639659e+004
5.119174e+002, 3.642570e+004
5.123995e+002, 3.640207e+004
5.128816e+002, 3.634296e+004
5.133637e+002, 3.624587e+004
5.138458e+002, 3.612483e+004
5.143279e+002, 3.602464e+004
5.148101e+002, 3.596693e+004
5.152922e+002, 3.594090e+004
5.157743e+002, 3.594844e+004
5.162564e+002, 3.599312e+004
5.167385e+002, 3.603211e+004
5.172206e+002, 3.604546e+004
5.177028e+002, 3.604962e+004
5.181849e+002, 3.605763e+004
5.186670e+002, 3.608189e+004
5.191491e+002, 3.609564e+004
5.196312e+002, 3.607153e+004
5.201133e+002, 3.604002e+004
5.205955e+002, 3.607762e+004
5.210776e+002, 3.624965e+004
5.215597e+002, 3.636387e+004
5.220418e+002, 3.633352e+004
5.225239e+002, 3.616808e+004
5.230060e+002, 3.611708e+004
5.234882e+002, 3.620562e+004
5.239703e+002, 3.631477e+004
5.244524e+002, 3.635170e+004
5.249345e+002, 3.632107e+004
5.254166e+002, 3.627180e+004
5.258987e+002, 3.620195e+004
5.263809e+002, 3.613781e+004
5.268630e+002, 3.611561e+004
5.273451e+002, 3.612715e+004
5.278272e+002, 3.614699e+004
5.283093e+002, 3.616851e+004
5.287914e+002, 3.619154e+004
5.292736e+002, 3.623114e+004
5.297557e+002, 3.627852e+004
5.302378e+002, 3.629094e+004
5.307199e+002, 3.619689e+004
5.312020e+002, 3.609573e+004
5.316841e+002, 3.606703e+004
5.321663e+002, 3.613866e+004
5.326484e+002, 3.619450e+004
5.331305e+002, 3.618828e+004
5.336126e+002, 3.616076e+004
5.340947e+002, 3.615032e+004
5.345768e+002, 3.616358e+004
5.350590e+002, 3.618913e+004
5.355411e+002, 3.622959e+004
5.360232e+002, 3.628055e+004
5.365053e+002, 3.633464e+004
5.369874e+002, 3.640298e+004
5.374695e+002, 3.644210e+004
5.379517e+002, 3.642966e+004
5.384338e+002, 3.636853e+004
5.389159e+002, 3.629670e+004
5.393980e+002, 3.620905e+004
5.398801e+002, 3.614073e+004
5.403622e+002, 3.612752e+004
5.408444e+002, 3.616130e+004
5.413265e+002, 3.621904e+004
5.418086e+002, 3.630886e+004
5.422907e+002, 3.638147e+004
5.427728e+002, 3.635918e+004
5.432549e+002, 3.627848e+004
5.437371e+002, 3.621834e+004
5.442192e+002, 3.623316e+004
5.447013e+002, 3.626260e+004
5.451834e+002, 3.628221e+004
5.456655e+002, 3.628625e+004
5.461476e+002, 3.624929e+004
5.466298e+002, 3.609634e+004
5.471119e+002, 3.595211e+004
5.475940e+002, 3.588500e+004
5.480761e+002, 3.591570e+004
5.485582e+002, 3.596663e+004
5.490403e+002, 3.605387e+004
5.495225e+002, 3.614273e+004
5.500046e+002, 3.620585e+004
5.504867e+002, 3.624488e+004
5.509688e+002, 3.625026e+004
5.514509e+002, 3.620871e+004
5.519330e+002, 3.614137e+004
5.524152e+002, 3.609060e+004
5.528973e+002, 3.605494e+004
5.533794e+002, 3.604239e+004
5.538615e+002, 3.606155e+004
5.543436e+002, 3.610455e+004
5.548257e+002, 3.615449e+004
5.553079e+002, 3.621036e+004
5.557900e+002, 3.624552e+004
5.562721e+002, 3.622665e+004
5.567542e+002, 3.617786e+004
5.572363e+002, 3.613614e+004
5.577184e+002, 3.610598e+004
5.582006e+002, 3.608540e+004
5.586827e+002, 3.608205e+004
5.591648e+002, 3.608484e+004
5.596469e+002, 3.607961e+004
5.601290e+002, 3.605972e+004
5.606111e+002, 3.603369e+004
5.610933e+002, 3.598936e+004
5.615754e+002, 3.593977e+004
5.620575e+002, 3.592141e+004
5.625396e+002, 3.597754e+004
5.630217e+002, 3.602598e+004
5.635038e+002, 3.604545e+004
5.639860e+002, 3.603518e+004
5.644681e+002, 3.600533e+004
5.649502e+002, 3.593174e+004
5.654323e+002, 3.588328e+004
5.659144e+002, 3.593716e+004
5.663965e+002, 3.610604e+004
5.668787e+002, 3.616507e+004
5.673608e+002, 3.607440e+004
5.678429e+002, 3.594862e+004
5.683250e+002, 3.596443e+004
5.688071e+002, 3.608956e+004
5.692892e+002, 3.618505e+004
5.697714e+002, 3.619686e+004
5.702535e+002, 3.617110e+004
5.707356e+002, 3.615983e+004
5.712177e+002, 3.615834e+004
5.716998e+002, 3.615193e+004
5.721819e+002, 3.611110e+004
5.726641e+002, 3.607876e+004
5.731462e+002, 3.610189e+004
5.736283e+002, 3.618401e+004
5.741104e+002, 3.622562e+004
5.745925e+002, 3.616449e+004
5.750746e+002, 3.607489e+004
5.755568e+002, 3.600365e+004
5.760389e+002, 3.595616e+004
5.765210e+002, 3.592700e+004
5.770031e+002, 3.591841e+004
5.774852e+002, 3.592693e+004
5.779673e+002, 3.595073e+004
5.784495e+002, 3.599589e+004
5.789316e+002, 3.603826e+004
5.794137e+002, 3.607510e+004
5.798958e+002, 3.610515e+004
5.803779e+002, 3.612164e+004
5.808600e+002, 3.612474e+004
5.813422e+002, 3.613194e+004
5.818243e+002, 3.616044e+004
5.823064e+002, 3.619736e+004
5.827885e+002, 3.620691e+004
5.832706e+002, 3.618970e+004
5.837527e+002, 3.618332e+004
5.842349e+002, 3.625255e+004
5.847170e+002, 3.632757e+004
5.851991e+002, 3.631859e+004
5.856812e+002, 3.617302e+004
5.861633e+002, 3.606102e+004
5.866454e+002, 3.608180e+004
5.871276e+002, 3.616707e+004
5.876097e+002, 3.623342e+004
5.880918e+002, 3.626988e+004
5.885739e+002, 3.628281e+004
5.890560e+002, 3.627060e+004
5.895381e+002, 3.623735e+004
5.900203e+002, 3.618541e+004
5.905024e+002, 3.608607e+004
5.909845e+002, 3.603809e+004
5.914666e+002, 3.610281e+004
5.919487e+002, 3.626136e+004
5.924308e+002, 3.632459e+004
5.929130e+002, 3.628303e+004
5.933951e+002, 3.622543e+004
5.938772e+002, 3.622630e+004
5.943593e+002, 3.626607e+004
5.948414e+002, 3.628095e+004
5.953235e+002, 3.625964e+004
5.958057e+002, 3.624932e+004
5.962878e+002, 3.631357e+004
5.967699e+002, 3.641119e+004
5.972520e+002, 3.647880e+004
5.977341e+002, 3.648240e+004
5.982162e+002, 3.647456e+004
5.986984e+002, 3.649215e+004
5.991805e+002, 3.651521e+004
5.996626e+002, 3.650242e+004
6.001447e+002, 3.637366e+004
6.006268e+002, 3.628486e+004
6.011089e+002, 3.629603e+004
6.015911e+002, 3.639574e+004
6.020732e+002, 3.646374e+004
6.025553e+002, 3.649964e+004
6.030374e+002, 3.650403e+004
6.035195e+002, 3.645637e+004
6.040016e+002, 3.635236e+004
6.044838e+002, 3.633321e+004
6.049659e+002, 3.641019e+004
6.054480e+002, 3.651994e+004
6.059301e+002, 3.661895e+004
6.064122e+002, 3.669943e+004
6.068943e+002, 3.672497e+004
6.073765e+002, 3.667153e+004
6.078586e+002, 3.661673e+004
6.083407e+002, 3.665203e+004
6.088228e+002, 3.674123e+004
6.093049e+002, 3.681758e+004
6.097870e+002, 3.683380e+004
6.102692e+002, 3.685190e+004
6.107513e+002, 3.692641e+004
6.112334e+002, 3.703181e+004
6.117155e+002, 3.707607e+004
6.121976e+002, 3.692612e+004
6.126797e+002, 3.682875e+004
6.131619e+002, 3.689035e+004
6.136440e+002, 3.712301e+004
6.141261e+002, 3.726067e+004
6.146082e+002, 3.726516e+004
6.150903e+002, 3.724740e+004
6.155724e+002, 3.729212e+004
6.160546e+002, 3.740077e+004
6.165367e+002, 3.746892e+004
6.170188e+002, 3.748865e+004
6.175009e+002, 3.747957e+004
6.179830e+002, 3.744830e+004
6.184651e+002, 3.740600e+004
6.189473e+002, 3.738832e+004
6.194294e+002, 3.741566e+004
6.199115e+002, 3.744744e+004
6.203936e+002, 3.743204e+004
6.208757e+002, 3.739523e+004
6.213578e+002, 3.738877e+004
6.218400e+002, 3.744700e+004
6.223221e+002, 3.752721e+004
6.228042e+002, 3.763891e+004
6.232863e+002, 3.776908e+004
6.237684e+002, 3.783086e+004
6.242505e+002, 3.773186e+004
6.247327e+002, 3.765634e+004
6.252148e+002, 3.767886e+004
6.256969e+002, 3.780983e+004
6.261790e+002, 3.791266e+004
6.266611e+002, 3.798375e+004
6.271432e+002, 3.803243e+004
6.276254e+002, 3.804900e+004
6.281075e+002, 3.803934e+004
6.285896e+002, 3.808802e+004
6.290717e+002, 3.821425e+004
6.295538e+002, 3.833545e+004
6.300359e+002, 3.832558e+004
6.305181e+002, 3.824498e+004
6.310002e+002, 3.822507e+004
6.314823e+002, 3.834334e+004
6.319644e+002, 3.846934e+004
6.324465e+002, 3.849744e+004
6.329286e+002, 3.846957e+004
6.334108e+002, 3.846824e+004
6.338929e+002, 3.854929e+004
6.343750e+002, 3.862910e+004
6.348571e+002, 3.867913e+004
6.353392e+002, 3.870256e+004
6.358214e+002, 3.872643e+004
6.363035e+002, 3.873245e+004
6.367856e+002, 3.876637e+004
6.372677e+002, 3.886240e+004
6.377498e+002, 3.901906e+004
6.382319e+002, 3.910362e+004
6.387141e+002, 3.910398e+004
6.391962e+002, 3.909661e+004
6.396783e+002, 3.916201e+004
6.401604e+002, 3.927386e+004
6.406425e+002, 3.934047e+004
6.411246e+002, 3.935160e+004
6.416068e+002, 3.933388e+004
6.420889e+002, 3.927811e+004
6.425710e+002, 3.922180e+004
6.430531e+002, 3.922197e+004
6.435352e+002, 3.933472e+004
6.440173e+002, 3.944155e+004
6.444995e+002, 3.949496e+004
6.449816e+002, 3.951145e+004
6.454637e+002, 3.952048e+004
6.459458e+002, 3.949822e+004
6.464279e+002, 3.950232e+004
6.469100e+002, 3.955251e+004
6.473922e+002, 3.963435e+004
6.478743e+002, 3.968439e+004
6.483564e+002, 3.968771e+004
6.488385e+002, 3.970816e+004
6.493206e+002, 3.977647e+004
6.498027e+002, 3.988497e+004
6.502849e+002, 4.000843e+004
6.507670e+002, 4.014606e+004
6.512491e+002, 4.024789e+004
6.517312e+002, 4.024457e+004
6.522133e+002, 4.019460e+004
6.526954e+002, 4.018154e+004
6.531776e+002, 4.021626e+004
6.536597e+002, 4.026682e+004
6.541418e+002, 4.032150e+004
6.546239e+002, 4.038060e+004
6.551060e+002, 4.044528e+004
6.555881e+002, 4.052226e+004
6.560703e+002, 4.059227e+004
6.565524e+002, 4.065023e+004
6.570345e+002, 4.069983e+004
6.575166e+002, 4.074077e+004
6.579987e+002, 4.076092e+004
6.584808e+002, 4.080446e+004
6.589630e+002, 4.088410e+004
6.594451e+002, 4.098313e+004
6.599272e+002, 4.107318e+004
6.604093e+002, 4.115376e+004
6.608914e+002, 4.120833e+004
6.613735e+002, 4.121743e+004
6.618557e+002, 4.120900e+004
6.623378e+002, 4.122676e+004
6.628199e+002, 4.126832e+004
6.633020e+002, 4.132004e+004
6.637841e+002, 4.139711e+004
6.642662e+002, 4.146558e+004
6.647484e+002, 4.148472e+004
6.652305e+002, 4.145349e+004
6.657126e+002, 4.146527e+004
6.661947e+002, 4.157516e+004
6.666768e+002, 4.170795e+004
6.671589e+002, 4.182403e+004
6.676411e+002, 4.191858e+004
6.681232e+002, 4.200476e+004
6.686053e+002, 4.206814e+004
6.690874e+002, 4.214359e+004
6.695695e+002, 4.228204e+004
6.700516e+002, 4.247915e+004
6.705338e+002, 4.261130e+004
6.710159e+002, 4.265345e+004
6.714980e+002, 4.266626e+004
6.719801e+002, 4.272296e+004
6.724622e+002, 4.280885e+004
6.729443e+002, 4.289340e+004
6.734265e+002, 4.298564e+004
6.739086e+002, 4.304651e+004
6.743907e+002, 4.300919e+004
6.748728e+002, 4.293060e+004
6.753549e+002, 4.291749e+004
6.758370e+002, 4.309171e+004
6.763192e+002, 4.323723e+004
6.768013e+002, 4.326973e+004
6.772834e+002, 4.322836e+004
6.777655e+002, 4.324854e+004
6.782476e+002, 4.334386e+004
6.787297e+002, 4.347426e+004
6.792119e+002, 4.364721e+004
6.796940e+002, 4.384405e+004
6.801761e+002, 4.391764e+004
6.806582e+002, 4.386195e+004
6.811403e+002, 4.384331e+004
6.816224e+002, 4.403173e+004
6.821046e+002, 4.431248e+004
6.825867e+002, 4.446550e+004
6.830688e+002, 4.447976e+004
6.835509e+002, 4.450795e+004
6.840330e+002, 4.466270e+004
6.845151e+002, 4.486496e+004
6.849973e+002, 4.505549e+004
6.854794e+002, 4.523373e+004
6.859615e+002, 4.537934e+004
6.864436e+002, 4.547208e+004
6.869257e+002, 4.554431e+004
6.874078e+002, 4.561940e+004
6.878900e+002, 4.569681e+004
6.883721e+002, 4.578496e+004
6.888542e+002, 4.588529e+004
6.893363e+002, 4.599549e+004
6.898184e+002, 4.612401e+004
6.903005e+002, 4.626483e+004
6.907827e+002, 4.635618e+004
6.912648e+002, 4.635147e+004
6.917469e+002, 4.634752e+004
6.922290e+002, 4.650507e+004
6.927111e+002, 4.675857e+004
6.931932e+002, 4.695673e+004
6.936754e+002, 4.697738e+004
6.941575e+002, 4.698107e+004
6.946396e+002, 4.704579e+004
6.951217e+002, 4.715727e+004
6.956038e+002, 4.726159e+004
6.960859e+002, 4.731568e+004
6.965681e+002, 4.740330e+004
6.970502e+002, 4.757109e+004
6.975323e+002, 4.780350e+004
6.980144e+002, 4.793762e+004
6.984965e+002, 4.795777e+004
6.989786e+002, 4.795259e+004
6.994608e+002, 4.795277e+004
6.999429e+002, 4.796893e+004
7.004250e+002, 4.805643e+004
7.009071e+002, 4.821367e+004
7.013892e+002, 4.837305e+004
7.018713e+002, 4.848434e+004
7.023535e+002, 4.857040e+004
7.028356e+002, 4.865341e+004
7.033177e+002, 4.873608e+004
7.037998e+002, 4.881884e+004
7.042819e+002, 4.889512e+004
7.047640e+002, 4.897588e+004
7.052462e+002, 4.907356e+004
7.057283e+002, 4.921539e+004
7.062104e+002, 4.930352e+004
7.066925e+002, 4.929781e+004
7.071746e+002, 4.928571e+004
7.076567e+002, 4.938525e+004
7.081389e+002, 4.960150e+004
7.086210e+002, 4.976373e+004
7.091031e+002, 4.984698e+004
7.095852e+002, 4.987263e+004
7.100673e+002, 4.982925e+004
7.105494e+002, 4.975221e+004
7.110316e+002, 4.973114e+004
7.115137e+002, 4.982579e+004
7.119958e+002, 4.993991e+004
7.124779e+002, 5.000754e+004
7.129600e+002, 5.005297e+004
7.134421e+002, 5.012003e+004
7.139243e+002, 5.028832e+004
7.144064e+002, 5.040065e+004
7.148885e+002, 5.039656e+004
7.153706e+002, 5.031774e+004
7.158527e+002, 5.029284e+004
7.163348e+002, 5.033314e+004
7.168170e+002, 5.038880e+004
7.172991e+002, 5.044361e+004
7.177812e+002, 5.050008e+004
7.182633e+002, 5.057039e+004
7.187454e+002, 5.065270e+004
7.192275e+002, 5.072403e+004
7.197097e+002, 5.075638e+004
7.201918e+002, 5.078046e+004
7.206739e+002, 5.083582e+004
7.211560e+002, 5.091860e+004
7.216381e+002, 5.099531e+004
7.221202e+002, 5.105624e+004
7.226024e+002, 5.110166e+004
7.230845e+002, 5.111858e+004
7.235666e+002, 5.109832e+004
7.240487e+002, 5.113428e+004
7.245308e+002, 5.124977e+004
7.250129e+002, 5.138808e+004
7.254951e+002, 5.151820e+004
7.259772e+002, 5.164150e+004
7.264593e+002, 5.176213e+004
7.269414e+002, 5.188026e+004
7.274235e+002, 5.199710e+004
7.279056e+002, 5.212345e+004
7.283878e+002, 5.224689e+004
7.288699e+002, 5.233503e+004
7.293520e+002, 5.237756e+004
7.298341e+002, 5.243073e+004
7.303162e+002, 5.256146e+004
7.307983e+002, 5.270418e+004
7.312805e+002, 5.279208e+004
7.317626e+002, 5.274393e+004
7.322447e+002, 5.276670e+004
7.327268e+002, 5.291187e+004
7.332089e+002, 5.310036e+004
7.336910e+002, 5.324048e+004
7.341732e+002, 5.331652e+004
7.346553e+002, 5.342218e+004
7.351374e+002, 5.356971e+004
7.356195e+002, 5.374370e+004
7.361016e+002, 5.394858e+004
7.365837e+002, 5.416344e+004
7.370659e+002, 5.431339e+004
7.375480e+002, 5.435744e+004
7.380301e+002, 5.436281e+004
7.385122e+002, 5.433057e+004
7.389943e+002, 5.431048e+004
7.394764e+002, 5.438895e+004
7.399586e+002, 5.473170e+004
7.404407e+002, 5.501741e+004
7.409228e+002, 5.513037e+004
7.414049e+002, 5.514088e+004
7.418870e+002, 5.520084e+004
7.423691e+002, 5.532857e+004
7.428513e+002, 5.545009e+004
7.433334e+002, 5.554086e+004
7.438155e+002, 5.561923e+004
7.442976e+002, 5.573652e+004
7.447797e+002, 5.589022e+004
7.452618e+002, 5.604832e+004
7.457440e+002, 5.620900e+004
7.462261e+002, 5.635775e+004
7.467082e+002, 5.644623e+004
7.471903e+002, 5.650194e+004
7.476724e+002, 5.663024e+004
7.481545e+002, 5.696616e+004
7.486367e+002, 5.729394e+004
7.491188e+002, 5.752293e+004
7.496009e+002, 5.765625e+004
7.500830e+002, 5.775468e+004
7.505651e+002, 5.778321e+004
7.510472e+002, 5.785118e+004
7.515294e+002, 5.800604e+004
7.520115e+002, 5.824211e+004
7.524936e+002, 5.854463e+004
7.529757e+002, 5.891421e+004
7.534578e+002, 5.922459e+004
7.539399e+002, 5.932430e+004
7.544221e+002, 5.933943e+004
7.549042e+002, 5.943011e+004
7.553863e+002, 5.960277e+004
7.558684e+002, 5.980401e+004
7.563505e+002, 6.005549e+004
7.568326e+002, 6.029078e+004
7.573148e+002, 6.045707e+004
7.577969e+002, 6.053241e+004
7.582790e+002, 6.064397e+004
7.587611e+002, 6.078603e+004
7.592432e+002, 6.097336e+004
7.597253e+002, 6.124869e+004
7.602075e+002, 6.161421e+004
7.606896e+002, 6.183494e+004
7.611717e+002, 6.189889e+004
7.616538e+002, 6.194319e+004
7.621359e+002, 6.211254e+004
7.626180e+002, 6.233623e+004
7.631002e+002, 6.247158e+004
7.635823e+002, 6.248674e+004
7.640644e+002, 6.258016e+004
7.645465e+002, 6.300597e+004
7.650286e+002, 6.346212e+004
7.655107e+002, 6.367475e+004
7.659929e+002, 6.345036e+004
7.664750e+002, 6.340755e+004
7.669571e+002, 6.362518e+004
7.674392e+002, 6.392073e+004
7.679213e+002, 6.413007e+004
7.684034e+002, 6.425145e+004
7.688856e+002, 6.437619e+004
7.693677e+002, 6.450562e+004
7.698498e+002, 6.466164e+004
7.703319e+002, 6.490151e+004
7.708140e+002, 6.517593e+004
7.712961e+002, 6.539017e+004
7.717783e+002, 6.550305e+004
7.722604e+002, 6.562823e+004
7.727425e+002, 6.582963e+004
7.732246e+002, 6.607119e+004
7.737067e+002, 6.631954e+004
7.741888e+002, 6.660688e+004
7.746710e+002, 6.683505e+004
7.751531e+002, 6.695639e+004
7.756352e+002, 6.707618e+004
7.761173e+002, 6.735088e+004
7.765994e+002, 6.777991e+004
7.770815e+002, 6.814619e+004
7.775637e+002, 6.841185e+004
7.780458e+002, 6.864120e+004
7.785279e+002, 6.890046e+004
7.790100e+002, 6.918126e+004
7.794921e+002, 6.946888e+004
7.799742e+002, 6.975464e+004
7.804564e+002, 7.004981e+004
7.809385e+002, 7.032717e+004
7.814206e+002, 7.062970e+004
7.819027e+002, 7.102658e+004
7.823848e+002, 7.160737e+004
7.828669e+002, 7.210184e+004
7.833491e+002, 7.244764e+004
7.838312e+002, 7.274865e+004
7.843133e+002, 7.319450e+004
7.847954e+002, 7.377213e+004
7.852775e+002, 7.426454e+004
7.857596e+002, 7.458255e+004
7.862418e+002, 7.488923e+004
7.867239e+002, 7.541224e+004
7.872060e+002, 7.605952e+004
7.876881e+002, 7.667728e+004
7.881702e+002, 7.717016e+004
7.886523e+002, 7.766350e+004
7.891345e+002, 7.817374e+004
7.896166e+002, 7.871947e+004
7.900987e+002, 7.934673e+004
7.905808e+002, 8.010033e+004
7.910629e+002, 8.082417e+004
7.915450e+002, 8.147353e+004
7.920272e+002, 8.211181e+004
7.925093e+002, 8.286441e+004
7.929914e+002, 8.371823e+004
7.934735e+002, 8.447477e+004
7.939556e+002, 8.503365e+004
7.944377e+002, 8.557831e+004
7.949199e+002, 8.633855e+004
7.954020e+002, 8.723028e+004
7.958841e+002, 8.807632e+004
7.963662e+002, 8.874611e+004
7.968483e+002, 8.944993e+004
7.973304e+002, 9.025382e+004
7.978126e+002, 9.111434e+004
7.982947e+002, 9.194632e+004
7.987768e+002, 9.274403e+004
7.992589e+002, 9.351978e+004
7.997410e+002, 9.426620e+004
8.002231e+002, 9.500653e+004
8.007053e+002, 9.578428e+004
8.011874e+002, 9.659280e+004
8.016695e+002, 9.742037e+004
8.021516e+002, 9.825826e+004
8.026337e+002, 9.911677e+004
8.031158e+002, 1.000338e+005
8.035980e+002, 1.009692e+005
8.040801e+002, 1.018807e+005
8.045622e+002, 1.026673e+005
8.050443e+002, 1.035353e+005
8.055264e+002, 1.045129e+005
8.060085e+002, 1.055902e+005
8.064907e+002, 1.067669e+005
8.069728e+002, 1.080633e+005
8.074549e+002, 1.093418e+005
8.079370e+002, 1.105540e+005
8.084191e+002, 1.117850e+005
8.089012e+002, 1.131820e+005
8.093834e+002, 1.147102e+005
8.098655e+002, 1.162731e+005
8.103476e+002, 1.177594e+005
8.108297e+002, 1.193842e+005
8.113118e+002, 1.212878e+005
8.117939e+002, 1.233961e+005
8.122761e+002, 1.255748e+005
8.127582e+002, 1.277551e+005
8.132403e+002, 1.300885e+005
8.137224e+002, 1.326089e+005
8.142045e+002, 1.352760e+005
8.146866e+002, 1.380128e+005
8.151688e+002, 1.407801e+005
8.156509e+002, 1.437398e+005
8.161330e+002, 1.468972e+005
8.166151e+002, 1.503363e+005
8.170972e+002, 1.542328e+005
8.175793e+002, 1.584638e+005
8.180615e+002, 1.628853e+005
8.185436e+002, 1.672716e+005
8.190257e+002, 1.720170e+005
8.195078e+002, 1.772386e+005
8.199899e+002, 1.828759e+005
8.204720e+002, 1.887825e+005
8.209542e+002, 1.948929e+005
8.214363e+002, 2.012504e+005
8.219184e+002, 2.077956e+005
8.224005e+002, 2.147447e+005
8.228826e+002, 2.224627e+005
8.233647e+002, 2.309556e+005
8.238469e+002, 2.401316e+005
8.243290e+002, 2.505143e+005
8.248111e+002, 2.602971e+005
8.252932e+002, 2.673888e+005
8.257753e+002, 2.732890e+005
8.262574e+002, 2.798417e+005
8.267396e+002, 2.874024e+005
8.272217e+002, 2.960264e+005
8.277038e+002, 3.059764e+005
8.281859e+002, 3.167693e+005
8.286681e+002, 3.278970e+005
8.291502e+002, 3.391563e+005
8.296323e+002, 3.518028e+005
8.301144e+002, 3.660364e+005
8.305966e+002, 3.813830e+005
8.310787e+002, 3.978650e+005
8.315608e+002, 4.151845e+005
8.320429e+002, 4.331325e+005
8.325250e+002, 4.514853e+005
8.330071e+002, 4.705032e+005
8.334893e+002, 4.908919e+005
8.339714e+002, 5.118453e+005
8.344535e+002, 5.328749e+005
8.349356e+002, 5.539591e+005
8.354177e+002, 5.752515e+005
8.358998e+002, 5.974094e+005
8.363820e+002, 6.182756e+005
8.368641e+002, 6.364400e+005
8.373462e+002, 6.516473e+005
8.378283e+002, 6.628412e+005
8.383104e+002, 6.698624e+005
8.387925e+002, 6.725170e+005
8.392747e+002, 6.710616e+005
8.397568e+002, 6.648960e+005
8.402389e+002, 6.528623e+005
8.407210e+002, 6.336619e+005
8.412031e+002, 6.124728e+005
8.416852e+002, 5.896340e+005
8.421674e+002, 5.659207e+005
8.426495e+002, 5.415150e+005
8.431316e+002, 5.160964e+005
8.436137e+002, 4.920850e+005
8.440958e+002, 4.692739e+005
8.445779e+002, 4.478652e+005
8.450601e+002, 4.278520e+005
8.455422e+002, 4.094101e+005
8.460243e+002, 3.924785e+005
8.465064e+002, 3.770083e+005
8.469885e+002, 3.631388e+005
8.474706e+002, 3.511693e+005
8.479528e+002, 3.404710e+005
8.484349e+002, 3.309472e+005
8.489170e+002, 3.226872e+005
8.493991e+002, 3.140863e+005
8.498812e+002, 3.049101e+005
8.503633e+002, 2.958379e+005
8.508455e+002, 2.872337e+005
8.513276e+002, 2.790332e+005
8.518097e+002, 2.711846e+005
8.522918e+002, 2.636111e+005
8.527739e+002, 2.562700e+005
8.532560e+002, 2.491137e+005
8.537382e+002, 2.420838e+005
8.542203e+002, 2.350398e+005
8.547024e+002, 2.279835e+005
8.551845e+002, 2.210152e+005
8.556666e+002, 2.143092e+005
8.561487e+002, 2.075867e+005
8.566309e+002, 2.006403e+005
8.571130e+002, 1.936656e+005
8.575951e+002, 1.870902e+005
8.580772e+002, 1.808985e+005
8.585593e+002, 1.749589e+005
8.590414e+002, 1.691119e+005
8.595236e+002, 1.634593e+005
8.600057e+002, 1.581730e+005
8.604878e+002, 1.532527e+005
8.609699e+002, 1.487101e+005
8.614520e+002, 1.446412e+005
8.619341e+002, 1.408001e+005
8.624163e+002, 1.370449e+005
8.628984e+002, 1.334134e+005
8.633805e+002, 1.301311e+005
8.638626e+002, 1.272120e+005
8.643447e+002, 1.244289e+005
8.648268e+002, 1.216963e+005
8.653090e+002, 1.190625e+005
8.657911e+002, 1.166797e+005
8.662732e+002, 1.145059e+005
8.667553e+002, 1.125012e+005
8.672374e+002, 1.106887e+005
8.677195e+002, 1.089322e+005
8.682017e+002, 1.071482e+005
8.686838e+002, 1.053784e+005
8.691659e+002, 1.037387e+005
8.696480e+002, 1.022505e+005
8.701301e+002, 1.008636e+005
8.706122e+002, 9.961657e+004
8.710944e+002, 9.842255e+004
8.715765e+002, 9.713123e+004
8.720586e+002, 9.577313e+004
8.725407e+002, 9.452102e+004
8.730228e+002, 9.341189e+004
8.735049e+002, 9.239483e+004
8.739871e+002, 9.143365e+004
8.744692e+002, 9.052460e+004
8.749513e+002, 8.966171e+004
8.754334e+002, 8.885416e+004
8.759155e+002, 8.806005e+004
8.763976e+002, 8.721737e+004
8.768798e+002, 8.644685e+004
8.773619e+002, 8.586562e+004
8.778440e+002, 8.548391e+004
8.783261e+002, 8.502214e+004
8.788082e+002, 8.446307e+004
8.792903e+002, 8.390196e+004
8.797725e+002, 8.341485e+004
8.802546e+002, 8.296884e+004
8.807367e+002, 8.252316e+004
8.812188e+002, 8.207358e+004
8.817009e+002, 8.164039e+004
8.821830e+002, 8.123043e+004
8.826652e+002, 8.083847e+004
8.831473e+002, 8.046645e+004
8.836294e+002, 8.011259e+004
8.841115e+002, 7.976714e+004
8.845936e+002, 7.942691e+004
8.850757e+002, 7.910731e+004
8.855579e+002, 7.881112e+004
8.860400e+002, 7.853953e+004
8.865221e+002, 7.832245e+004
8.870042e+002, 7.814052e+004
8.874863e+002, 7.790679e+004
8.879684e+002, 7.751573e+004
8.884506e+002, 7.712912e+004
8.889327e+002, 7.680431e+004
8.894148e+002, 7.653723e+004
8.898969e+002, 7.632355e+004
8.903790e+002, 7.618945e+004
8.908611e+002, 7.601922e+004
8.913433e+002, 7.577138e+004
8.918254e+002, 7.548640e+004
8.923075e+002, 7.522049e+004
8.927896e+002, 7.497646e+004
8.932717e+002, 7.476810e+004
8.937538e+002, 7.462021e+004
8.942360e+002, 7.447502e+004
8.947181e+002, 7.428845e+004
8.952002e+002, 7.409393e+004
8.956823e+002, 7.394341e+004
8.961644e+002, 7.385802e+004
8.966465e+002, 7.377743e+004
8.971287e+002, 7.370158e+004
8.976108e+002, 7.362552e+004
8.980929e+002, 7.354384e+004
8.985750e+002, 7.345740e+004
8.990571e+002, 7.337407e+004
8.995392e+002, 7.329631e+004
9.000214e+002, 7.320026e+004
9.005035e+002, 7.304801e+004
9.009856e+002, 7.288013e+004
9.014677e+002, 7.272373e+004
9.019498e+002, 7.257757e+004
9.024319e+002, 7.248249e+004
9.029141e+002, 7.248523e+004
9.033962e+002, 7.245101e+004
9.038783e+002, 7.226217e+004
9.043604e+002, 7.194609e+004
9.048425e+002, 7.170753e+004
9.053246e+002, 7.154227e+004
9.058068e+002, 7.142596e+004
9.062889e+002, 7.145137e+004
9.067710e+002, 7.142759e+004
9.072531e+002, 7.115022e+004
9.077352e+002, 7.065132e+004
9.082173e+002, 7.023261e+004
9.086995e+002, 6.995849e+004
9.091816e+002, 6.973307e+004
9.096637e+002, 6.955195e+004
9.101458e+002, 6.939561e+004
9.106279e+002, 6.920452e+004
9.111100e+002, 6.898169e+004
9.115922e+002, 6.875253e+004
9.120743e+002, 6.852188e+004
9.125564e+002, 6.829216e+004
9.130385e+002, 6.806092e+004
9.135206e+002, 6.783330e+004
9.140027e+002, 6.761393e+004
9.144849e+002, 6.742907e+004
9.149670e+002, 6.721476e+004
9.154491e+002, 6.695178e+004
9.159312e+002, 6.667377e+004
9.164133e+002, 6.642547e+004
9.168954e+002, 6.620382e+004
9.173776e+002, 6.597627e+004
9.178597e+002, 6.573560e+004
9.183418e+002, 6.549979e+004
9.188239e+002, 6.529662e+004
9.193060e+002, 6.510088e+004
9.197881e+002, 6.488111e+004
9.202703e+002, 6.462398e+004
9.207524e+002, 6.437943e+004
9.212345e+002, 6.415675e+004
9.217166e+002, 6.394573e+004
9.221987e+002, 6.375231e+004
9.226808e+002, 6.357372e+004
9.231630e+002, 6.332948e+004
9.236451e+002, 6.302014e+004
9.241272e+002, 6.274137e+004
9.246093e+002, 6.259679e+004
9.250914e+002, 6.248517e+004
9.255735e+002, 6.230009e+004
9.260557e+002, 6.205630e+004
9.265378e+002, 6.182557e+004
9.270199e+002, 6.162564e+004
9.275020e+002, 6.144478e+004
9.279841e+002, 6.128813e+004
9.284662e+002, 6.114156e+004
9.289484e+002, 6.096105e+004
9.294305e+002, 6.074780e+004
9.299126e+002, 6.054692e+004
9.303947e+002, 6.037350e+004
9.308768e+002, 6.021514e+004
9.313589e+002, 6.005509e+004
9.318411e+002, 5.990426e+004
9.323232e+002, 5.978407e+004
9.328053e+002, 5.975634e+004
9.332874e+002, 5.966205e+004
9.337695e+002, 5.946539e+004
9.342516e+002, 5.923362e+004
9.347338e+002, 5.902664e+004
9.352159e+002, 5.884346e+004
9.356980e+002, 5.868744e+004
9.361801e+002, 5.855987e+004
9.366622e+002, 5.844684e+004
9.371443e+002, 5.834212e+004
9.376265e+002, 5.824220e+004
9.381086e+002, 5.814636e+004
9.385907e+002, 5.805329e+004
9.390728e+002, 5.795682e+004
9.395549e+002, 5.785465e+004
9.400370e+002, 5.775042e+004
9.405192e+002, 5.765059e+004
9.410013e+002, 5.754856e+004
9.414834e+002, 5.739755e+004
9.419655e+002, 5.720403e+004
9.424476e+002, 5.705256e+004
9.429297e+002, 5.701883e+004
9.434119e+002, 5.700768e+004
9.438940e+002, 5.694437e+004
9.443761e+002, 5.684245e+004
9.448582e+002, 5.672825e+004
9.453403e+002, 5.657040e+004
9.458224e+002, 5.646585e+004
9.463046e+002, 5.645716e+004
9.467867e+002, 5.646218e+004
9.472688e+002, 5.633708e+004
9.477509e+002, 5.610986e+004
9.482330e+002, 5.596146e+004
9.487151e+002, 5.592912e+004
9.491973e+002, 5.590070e+004
9.496794e+002, 5.576266e+004
9.501615e+002, 5.559944e+004
9.506436e+002, 5.549163e+004
9.511257e+002, 5.546599e+004
9.516078e+002, 5.541770e+004
9.520900e+002, 5.534020e+004
9.525721e+002, 5.524930e+004
9.530542e+002, 5.514375e+004
9.535363e+002, 5.503334e+004
9.540184e+002, 5.496772e+004
9.545005e+002, 5.494080e+004
9.549827e+002, 5.490773e+004
9.554648e+002, 5.485188e+004
9.559469e+002, 5.477513e+004
9.564290e+002, 5.465249e+004
9.569111e+002, 5.451042e+004
9.573932e+002, 5.442749e+004
9.578754e+002, 5.441767e+004
9.583575e+002, 5.443580e+004
9.588396e+002, 5.448239e+004
9.593217e+002, 5.453509e+004
9.598038e+002, 5.456576e+004
9.602859e+002, 5.457246e+004
9.607681e+002, 5.454174e+004
9.612502e+002, 5.445651e+004
9.617323e+002, 5.438818e+004
9.622144e+002, 5.437982e+004
9.626965e+002, 5.440271e+004
9.631786e+002, 5.444422e+004
9.636608e+002, 5.451802e+004
9.641429e+002, 5.450750e+004
9.646250e+002, 5.439025e+004
9.651071e+002, 5.429498e+004
9.655892e+002, 5.434399e+004
9.660714e+002, 5.446463e+004
9.665535e+002, 5.452730e+004
9.670356e+002, 5.453389e+004
9.675177e+002, 5.450966e+004
9.679998e+002, 5.443761e+004
9.684819e+002, 5.436714e+004
9.689641e+002, 5.429898e+004
9.694462e+002, 5.424952e+004
9.699283e+002, 5.427946e+004
9.704104e+002, 5.440092e+004
9.708925e+002, 5.445668e+004
9.713746e+002, 5.439343e+004
9.718568e+002, 5.430444e+004
9.723389e+002, 5.431887e+004
9.728210e+002, 5.437924e+004
9.733031e+002, 5.439031e+004
9.737852e+002, 5.429541e+004
9.742673e+002, 5.425337e+004
9.747495e+002, 5.436237e+004
9.752316e+002, 5.445699e+004
9.757137e+002, 5.440790e+004
9.761958e+002, 5.421463e+004
9.766779e+002, 5.410672e+004
9.771600e+002, 5.408279e+004
9.776422e+002, 5.405357e+004
9.781243e+002, 5.391116e+004
9.786064e+002, 5.377124e+004
9.790885e+002, 5.378098e+004
9.795706e+002, 5.389820e+004
9.800527e+002, 5.390878e+004
9.805349e+002, 5.368566e+004
9.810170e+002, 5.352354e+004
9.814991e+002, 5.350353e+004
9.819812e+002, 5.354372e+004
9.824633e+002, 5.347402e+004
9.829454e+002, 5.331998e+004
9.834276e+002, 5.318701e+004
9.839097e+002, 5.310428e+004
9.843918e+002, 5.303343e+004
9.848739e+002, 5.294783e+004
9.853560e+002, 5.286014e+004
9.858381e+002, 5.278228e+004
9.863203e+002, 5.271379e+004
9.868024e+002, 5.266370e+004
9.872845e+002, 5.264329e+004
9.877666e+002, 5.260252e+004
9.882487e+002, 5.249502e+004
9.887308e+002, 5.234541e+004
9.892130e+002, 5.218882e+004
9.896951e+002, 5.203499e+004
9.901772e+002, 5.192075e+004
9.906593e+002, 5.192167e+004
9.911414e+002, 5.190069e+004
9.916235e+002, 5.177702e+004
9.921057e+002, 5.160545e+004
9.925878e+002, 5.150127e+004
9.930699e+002, 5.147025e+004
9.935520e+002, 5.144389e+004
9.940341e+002, 5.141513e+004
9.945162e+002, 5.135952e+004
9.949984e+002, 5.119293e+004
9.954805e+002, 5.100607e+004
9.959626e+002, 5.093744e+004
9.964447e+002, 5.105150e+004
9.969268e+002, 5.111825e+004
9.974089e+002, 5.110284e+004
9.978911e+002, 5.103395e+004
9.983732e+002, 5.090131e+004
9.988553e+002, 5.072287e+004
9.993374e+002, 5.065058e+004
9.998195e+002, 5.067212e+004
1.000302e+003, 5.065778e+004
1.000784e+003, 5.045918e+004
1.001266e+003, 5.026924e+004
1.001748e+003, 5.026552e+004
1.002230e+003, 5.036910e+004
1.002712e+003, 5.036168e+004
1.003194e+003, 5.016950e+004
1.003676e+003, 5.002905e+004
1.004159e+003, 4.997632e+004
1.004641e+003, 4.996420e+004
1.005123e+003, 4.994282e+004
1.005605e+003, 4.990931e+004
1.006087e+003, 4.984247e+004
1.006569e+003, 4.972993e+004
1.007051e+003, 4.966672e+004
1.007533e+003, 4.978051e+004
1.008016e+003, 4.987613e+004
1.008498e+003, 4.982538e+004
1.008980e+003, 4.964004e+004
1.009462e+003, 4.953047e+004
1.009944e+003, 4.950030e+004
1.010426e+003, 4.947184e+004
1.010908e+003, 4.940093e+004
1.011390e+003, 4.932150e+004
1.011872e+003, 4.928353e+004
1.012355e+003, 4.926605e+004
1.012837e+003, 4.922630e+004
1.013319e+003, 4.910578e+004
1.013801e+003, 4.903620e+004
1.014283e+003, 4.906184e+004
1.014765e+003, 4.909206e+004
1.015247e+003, 4.900769e+004
1.015729e+003, 4.883307e+004
1.016211e+003, 4.870660e+004
1.016694e+003, 4.863920e+004
1.017176e+003, 4.859771e+004
1.017658e+003, 4.855452e+004
1.018140e+003, 4.853339e+004
1.018622e+003, 4.857854e+004
1.019104e+003, 4.867384e+004
1.019586e+003, 4.867075e+004
1.020068e+003, 4.853759e+004
1.020551e+003, 4.843868e+004
1.021033e+003, 4.843377e+004
1.021515e+003, 4.847418e+004
1.021997e+003, 4.850079e+004
1.022479e+003, 4.850905e+004
1.022961e+003, 4.848561e+004
1.023443e+003, 4.840093e+004
1.023925e+003, 4.833993e+004
1.024407e+003, 4.831862e+004
1.024890e+003, 4.833214e+004
1.025372e+003, 4.841106e+004
1.025854e+003, 4.855427e+004
1.026336e+003, 4.851024e+004
1.026818e+003, 4.828338e+004
1.027300e+003, 4.810293e+004
1.027782e+003, 4.819408e+004
1.028264e+003, 4.833073e+004
1.028746e+003, 4.832178e+004
1.029229e+003, 4.820200e+004
1.029711e+003, 4.812909e+004
1.030193e+003, 4.812718e+004
1.030675e+003, 4.813590e+004
1.031157e+003, 4.814975e+004
1.031639e+003, 4.816028e+004
1.032121e+003, 4.815170e+004
1.032603e+003, 4.813091e+004
1.033086e+003, 4.812125e+004
1.033568e+003, 4.813198e+004
1.034050e+003, 4.811079e+004
1.034532e+003, 4.798799e+004
1.035014e+003, 4.787252e+004
1.035496e+003, 4.783015e+004
1.035978e+003, 4.785255e+004
1.036460e+003, 4.784927e+004
1.036943e+003, 4.782049e+004
1.037425e+003, 4.777438e+004
1.037907e+003, 4.770175e+004
1.038389e+003, 4.763105e+004
1.038871e+003, 4.759690e+004
1.039353e+003, 4.758283e+004
1.039835e+003, 4.755969e+004
1.040317e+003, 4.749654e+004
1.040799e+003, 4.747966e+004
1.041281e+003, 4.752937e+004
1.041764e+003, 4.758320e+004
1.042246e+003, 4.757089e+004
1.042728e+003, 4.751605e+004
1.043210e+003, 4.747964e+004
1.043692e+003, 4.746382e+004
1.044174e+003, 4.745290e+004
1.044656e+003, 4.744313e+004
1.045138e+003, 4.743085e+004
1.045621e+003, 4.740768e+004
1.046103e+003, 4.738299e+004
1.046585e+003, 4.739741e+004
1.047067e+003, 4.745274e+004
1.047549e+003, 4.744863e+004
1.048031e+003, 4.734507e+004
1.048513e+003, 4.723269e+004
1.048995e+003, 4.720015e+004
1.049478e+003, 4.721388e+004
1.049960e+003, 4.724491e+004
1.050442e+003, 4.730405e+004
1.050924e+003, 4.731273e+004
1.051406e+003, 4.725128e+004
1.051888e+003, 4.718362e+004
1.052370e+003, 4.713473e+004
1.052852e+003, 4.710914e+004
1.053334e+003, 4.714093e+004
1.053817e+003, 4.720908e+004
1.054299e+003, 4.724535e+004
1.054781e+003, 4.719493e+004
1.055263e+003, 4.713522e+004
1.055745e+003, 4.706949e+004
1.056227e+003, 4.701829e+004
1.056709e+003, 4.701959e+004
1.057191e+003, 4.707445e+004
1.057673e+003, 4.707527e+004
1.058156e+003, 4.701177e+004
1.058638e+003, 4.694659e+004
1.059120e+003, 4.692233e+004
1.059602e+003, 4.692523e+004
1.060084e+003, 4.695896e+004
1.060566e+003, 4.701733e+004
1.061048e+003, 4.704554e+004
1.061530e+003, 4.704456e+004
1.062013e+003, 4.700877e+004
1.062495e+003, 4.692996e+004
1.062977e+003, 4.683059e+004
1.063459e+003, 4.672137e+004
1.063941e+003, 4.662426e+004
1.064423e+003, 4.658977e+004
1.064905e+003, 4.665188e+004
1.065387e+003, 4.669003e+004
1.065870e+003, 4.665155e+004
1.066352e+003, 4.659184e+004
1.066834e+003, 4.652050e+004
1.067316e+003, 4.644746e+004
1.067798e+003, 4.647087e+004
1.068280e+003, 4.657839e+004
1.068762e+003, 4.666413e+004
1.069244e+003, 4.667084e+004
1.069726e+003, 4.663975e+004
1.070208e+003, 4.657093e+004
1.070691e+003, 4.649147e+004
1.071173e+003, 4.644554e+004
1.071655e+003, 4.643766e+004
1.072137e+003, 4.645763e+004
1.072619e+003, 4.651407e+004
1.073101e+003, 4.655149e+004
1.073583e+003, 4.649033e+004
1.074065e+003, 4.639764e+004
1.074548e+003, 4.636675e+004
1.075030e+003, 4.639443e+004
1.075512e+003, 4.641145e+004
1.075994e+003, 4.641793e+004
1.076476e+003, 4.637951e+004
1.076958e+003, 4.626370e+004
1.077440e+003, 4.613312e+004
1.077922e+003, 4.613046e+004
1.078405e+003, 4.621147e+004
1.078887e+003, 4.622151e+004
1.079369e+003, 4.611548e+004
1.079851e+003, 4.602926e+004
1.080333e+003, 4.606716e+004
1.080815e+003, 4.611911e+004
1.081297e+003, 4.610806e+004
1.081779e+003, 4.604303e+004
1.082261e+003, 4.603275e+004
1.082744e+003, 4.607623e+004
1.083226e+003, 4.609888e+004
1.083708e+003, 4.606380e+004
1.084190e+003, 4.599962e+004
1.084672e+003, 4.589602e+004
1.085154e+003, 4.579429e+004
1.085636e+003, 4.576199e+004
1.086118e+003, 4.584625e+004
1.086601e+003, 4.590104e+004
1.087083e+003, 4.592768e+004
1.087565e+003, 4.592100e+004
1.088047e+003, 4.586366e+004
1.088529e+003, 4.577770e+004
1.089011e+003, 4.567952e+004
1.089493e+003, 4.558354e+004
1.089975e+003, 4.554039e+004
1.090458e+003, 4.566874e+004
1.090940e+003, 4.571279e+004
1.091422e+003, 4.559384e+004
1.091904e+003, 4.541625e+004
1.092386e+003, 4.532929e+004
1.092868e+003, 4.531935e+004
1.093350e+003, 4.533519e+004
1.093832e+003, 4.537048e+004
1.094314e+003, 4.541619e+004
1.094797e+003, 4.551207e+004
1.095279e+003, 4.557061e+004
1.095761e+003, 4.550269e+004
1.096243e+003, 4.535470e+004
1.096725e+003, 4.534093e+004
1.097207e+003, 4.546543e+004
1.097689e+003, 4.551143e+004
1.098171e+003, 4.538766e+004
1.098653e+003, 4.523900e+004
1.099136e+003, 4.519665e+004
1.099618e+003, 4.521636e+004
1.100100e+003, 4.526014e+004
1.100582e+003, 4.533927e+004
1.101064e+003, 4.534270e+004
1.101546e+003, 4.524395e+004
1.102028e+003, 4.516402e+004
1.102510e+003, 4.518520e+004
1.102993e+003, 4.525057e+004
1.103475e+003, 4.529045e+004
1.103957e+003, 4.529102e+004
1.104439e+003, 4.521969e+004
1.104921e+003, 4.495540e+004
1.105403e+003, 4.478552e+004
1.105885e+003, 4.476475e+004
1.106367e+003, 4.479429e+004
1.106849e+003, 4.479749e+004
1.107332e+003, 4.477361e+004
1.107814e+003, 4.468949e+004
1.108296e+003, 4.455826e+004
1.108778e+003, 4.448907e+004
1.109260e+003, 4.467623e+004
1.109742e+003, 4.477809e+004
1.110224e+003, 4.457844e+004
1.110706e+003, 4.425598e+004
1.111188e+003, 4.411677e+004
1.111671e+003, 4.415308e+004
1.112153e+003, 4.414154e+004
1.112635e+003, 4.404673e+004
1.113117e+003, 4.396458e+004
1.113599e+003, 4.400021e+004
1.114081e+003, 4.405851e+004
1.114563e+003, 4.404911e+004
1.115045e+003, 4.398248e+004
1.115528e+003, 4.398083e+004
1.116010e+003, 4.405758e+004
1.116492e+003, 4.411443e+004
1.116974e+003, 4.412384e+004
1.117456e+003, 4.409453e+004
1.117938e+003, 4.398810e+004
1.118420e+003, 4.387231e+004
1.118902e+003, 4.385329e+004
1.119385e+003, 4.399263e+004
1.119867e+003, 4.402091e+004
1.120349e+003, 4.388208e+004
1.120831e+003, 4.375669e+004
1.121313e+003, 4.376246e+004
1.121795e+003, 4.382043e+004
1.122277e+003, 4.374159e+004
1.122759e+003, 4.358023e+004
1.123241e+003, 4.346664e+004
1.123724e+003, 4.349104e+004
1.124206e+003, 4.349556e+004
1.124688e+003, 4.346148e+004
1.125170e+003, 4.340125e+004
1.125652e+003, 4.330073e+004
1.126134e+003, 4.318138e+004
1.126616e+003, 4.317572e+004
1.127098e+003, 4.326582e+004
1.127580e+003, 4.333036e+004
1.128063e+003, 4.330187e+004
1.128545e+003, 4.323795e+004
1.129027e+003, 4.314223e+004
1.129509e+003, 4.303804e+004
1.129991e+003, 4.294468e+004
1.130473e+003, 4.286270e+004
1.130955e+003, 4.285787e+004
1.131437e+003, 4.293702e+004
1.131920e+003, 4.299277e+004
1.132402e+003, 4.290599e+004
1.132884e+003, 4.280236e+004
1.133366e+003, 4.277121e+004
1.133848e+003, 4.279644e+004
1.134330e+003, 4.281567e+004
1.134812e+003, 4.283107e+004
1.135294e+003, 4.281495e+004
1.135776e+003, 4.275493e+004
1.136259e+003, 4.269442e+004
1.136741e+003, 4.269307e+004
1.137223e+003, 4.270420e+004
1.137705e+003, 4.266525e+004
1.138187e+003, 4.256709e+004
1.138669e+003, 4.254489e+004
1.139151e+003, 4.263128e+004
1.139633e+003, 4.267618e+004
1.140115e+003, 4.260948e+004
1.140598e+003, 4.251375e+004
1.141080e+003, 4.252285e+004
1.141562e+003, 4.258180e+004
1.142044e+003, 4.259966e+004
1.142526e+003, 4.253660e+004
1.143008e+003, 4.250782e+004
1.143490e+003, 4.253488e+004
1.143972e+003, 4.256789e+004
1.144455e+003, 4.258443e+004
1.144937e+003, 4.258571e+004
1.145419e+003, 4.256697e+004
1.145901e+003, 4.253557e+004
1.146383e+003, 4.250905e+004
1.146865e+003, 4.248101e+004
1.147347e+003, 4.248383e+004
1.147829e+003, 4.254592e+004
1.148312e+003, 4.260273e+004
1.148794e+003, 4.259050e+004
1.149276e+003, 4.252771e+004
1.149758e+003, 4.251473e+004
1.150240e+003, 4.254086e+004
1.150722e+003, 4.254568e+004
1.151204e+003, 4.247330e+004
1.151686e+003, 4.240501e+004
1.152168e+003, 4.233818e+004
1.152651e+003, 4.231369e+004
1.153133e+003, 4.242525e+004
1.153615e+003, 4.264862e+004
1.154097e+003, 4.270540e+004
1.154579e+003, 4.258352e+004
1.155061e+003, 4.246604e+004
1.155543e+003, 4.250575e+004
1.156025e+003, 4.254611e+004
1.156507e+003, 4.246116e+004
1.156990e+003, 4.233117e+004
1.157472e+003, 4.232836e+004
1.157954e+003, 4.245375e+004
1.158436e+003, 4.251215e+004
1.158918e+003, 4.247189e+004
1.159400e+003, 4.242405e+004
1.159882e+003, 4.244171e+004
1.160364e+003, 4.248134e+004
1.160847e+003, 4.252118e+004
1.161329e+003, 4.255506e+004
1.161811e+003, 4.255362e+004
1.162293e+003, 4.251254e+004
1.162775e+003, 4.249144e+004
1.163257e+003, 4.251169e+004
1.163739e+003, 4.252897e+004
1.164221e+003, 4.248104e+004
1.164703e+003, 4.241974e+004
1.165186e+003, 4.240405e+004
1.165668e+003, 4.244171e+004
1.166150e+003, 4.245379e+004
1.166632e+003, 4.243627e+004
1.167114e+003, 4.241739e+004
1.167596e+003, 4.240050e+004
1.168078e+003, 4.240258e+004
1.168560e+003, 4.246188e+004
1.169042e+003, 4.254607e+004
1.169525e+003, 4.260924e+004
1.170007e+003, 4.263558e+004
1.170489e+003, 4.267761e+004
1.170971e+003, 4.274308e+004
1.171453e+003, 4.279309e+004
1.171935e+003, 4.279063e+004
1.172417e+003, 4.277983e+004
1.172899e+003, 4.283911e+004
1.173382e+003, 4.293777e+004
1.173864e+003, 4.302165e+004
1.174346e+003, 4.309531e+004
1.174828e+003, 4.310267e+004
1.175310e+003, 4.302029e+004
1.175792e+003, 4.293231e+004
1.176274e+003, 4.289430e+004
1.176756e+003, 4.289249e+004
1.177239e+003, 4.291065e+004
1.177721e+003, 4.294111e+004
1.178203e+003, 4.296430e+004
1.178685e+003, 4.296919e+004
1.179167e+003, 4.297930e+004
1.179649e+003, 4.301018e+004
1.180131e+003, 4.302046e+004
1.180613e+003, 4.294549e+004
1.181095e+003, 4.283310e+004
1.181578e+003, 4.279283e+004
1.182060e+003, 4.281646e+004
1.182542e+003, 4.285405e+004
1.183024e+003, 4.288143e+004
1.183506e+003, 4.293451e+004
1.183988e+003, 4.302755e+004
1.184470e+003, 4.312968e+004
1.184952e+003, 4.321724e+004
1.185434e+003, 4.328200e+004
1.185917e+003, 4.327951e+004
1.186399e+003, 4.321897e+004
1.186881e+003, 4.320355e+004
1.187363e+003, 4.330904e+004
1.187845e+003, 4.341996e+004
1.188327e+003, 4.350532e+004
1.188809e+003, 4.358910e+004
1.189291e+003, 4.374051e+004
1.189774e+003, 4.391795e+004
1.190256e+003, 4.398738e+004
1.190738e+003, 4.393464e+004
1.191220e+003, 4.385940e+004
1.191702e+003, 4.375139e+004
1.192184e+003, 4.369927e+004
1.192666e+003, 4.373904e+004
1.193148e+003, 4.383775e+004
1.193630e+003, 4.394966e+004
1.194113e+003, 4.406461e+004
1.194595e+003, 4.414727e+004
1.195077e+003, 4.419107e+004
1.195559e+003, 4.421041e+004
1.196041e+003, 4.418744e+004
1.196523e+003, 4.417114e+004
1.197005e+003, 4.418702e+004
1.197487e+003, 4.421673e+004
1.197969e+003, 4.419238e+004
1.198452e+003, 4.413668e+004
1.198934e+003, 4.414583e+004
1.199416e+003, 4.425865e+004
1.199898e+003, 4.434455e+004
1.200380e+003, 4.431302e+004
1.200862e+003, 4.426981e+004
1.201344e+003, 4.426180e+004
1.201826e+003, 4.428157e+004
1.202309e+003, 4.431907e+004
1.202791e+003, 4.436389e+004
1.203273e+003, 4.436909e+004
1.203755e+003, 4.430893e+004
1.204237e+003, 4.424810e+004
1.204719e+003, 4.420266e+004
1.205201e+003, 4.418395e+004
1.205683e+003, 4.421361e+004
1.206166e+003, 4.427328e+004
1.206648e+003, 4.426574e+004
1.207130e+003, 4.420728e+004
1.207612e+003, 4.416041e+004
1.208094e+003, 4.412593e+004
1.208576e+003, 4.415683e+004
1.209058e+003, 4.437306e+004
1.209540e+003, 4.456661e+004
1.210022e+003, 4.458700e+004
1.210505e+003, 4.446760e+004
1.210987e+003, 4.441821e+004
1.211469e+003, 4.442462e+004
1.211951e+003, 4.442254e+004
1.212433e+003, 4.436399e+004
1.212915e+003, 4.432413e+004
1.213397e+003, 4.437080e+004
1.213879e+003, 4.440707e+004
1.214361e+003, 4.434294e+004
1.214844e+003, 4.419910e+004
1.215326e+003, 4.413300e+004
1.215808e+003, 4.413236e+004
1.216290e+003, 4.413386e+004
1.216772e+003, 4.409279e+004
1.217254e+003, 4.406817e+004
1.217736e+003, 4.410126e+004
1.218218e+003, 4.413199e+004
1.218701e+003, 4.409997e+004
1.219183e+003, 4.401684e+004
1.219665e+003, 4.397371e+004
1.220147e+003, 4.395994e+004
1.220629e+003, 4.391093e+004
1.221111e+003, 4.372579e+004
1.221593e+003, 4.359616e+004
1.222075e+003, 4.360653e+004
1.222557e+003, 4.365477e+004
1.223040e+003, 4.364505e+004
1.223522e+003, 4.358520e+004
1.224004e+003, 4.348136e+004
1.224486e+003, 4.335187e+004
1.224968e+003, 4.329921e+004
1.225450e+003, 4.351924e+004
1.225932e+003, 4.361458e+004
1.226414e+003, 4.342861e+004
1.226896e+003, 4.317879e+004
1.227379e+003, 4.313495e+004
1.227861e+003, 4.323660e+004
1.228343e+003, 4.326566e+004
1.228825e+003, 4.322029e+004
1.229307e+003, 4.317105e+004
1.229789e+003, 4.315666e+004
1.230271e+003, 4.312727e+004
1.230753e+003, 4.304993e+004
1.231236e+003, 4.298688e+004
1.231718e+003, 4.306599e+004
1.232200e+003, 4.321435e+004
1.232682e+003, 4.319898e+004
1.233164e+003, 4.302807e+004
1.233646e+003, 4.289510e+004
1.234128e+003, 4.290284e+004
1.234610e+003, 4.293455e+004
1.235093e+003, 4.298490e+004
1.235575e+003, 4.301927e+004
1.236057e+003, 4.295429e+004
1.236539e+003, 4.284914e+004
1.237021e+003, 4.285857e+004
1.237503e+003, 4.298043e+004
1.237985e+003, 4.306663e+004
1.238467e+003, 4.304516e+004
1.238949e+003, 4.301272e+004
1.239432e+003, 4.297563e+004
1.239914e+003, 4.295170e+004
1.240396e+003, 4.297488e+004
1.240878e+003, 4.302465e+004
1.241360e+003, 4.306902e+004
1.241842e+003, 4.310404e+004
1.242324e+003, 4.311717e+004
1.242806e+003, 4.307740e+004
1.243288e+003, 4.308380e+004
1.243771e+003, 4.317311e+004
1.244253e+003, 4.326575e+004
1.244735e+003, 4.322607e+004
1.245217e+003, 4.313869e+004
1.245699e+003, 4.314180e+004
1.246181e+003, 4.324209e+004
1.246663e+003, 4.331430e+004
1.247145e+003, 4.335563e+004
1.247628e+003, 4.333549e+004
1.248110e+003, 4.322832e+004
1.248592e+003, 4.312646e+004
1.249074e+003, 4.317515e+004
1.249556e+003, 4.327849e+004
1.250038e+003, 4.332458e+004
1.250520e+003, 4.330407e+004
1.251002e+003, 4.328604e+004
1.251484e+003, 4.328612e+004
1.251967e+003, 4.321766e+004
1.252449e+003, 4.303601e+004
1.252931e+003, 4.288622e+004
1.253413e+003, 4.297638e+004
1.253895e+003, 4.314102e+004
1.254377e+003, 4.320103e+004
1.254859e+003, 4.315688e+004
1.255341e+003, 4.319183e+004
1.255823e+003, 4.332282e+004
1.256306e+003, 4.337243e+004
1.256788e+003, 4.328461e+004
1.257270e+003, 4.318314e+004
1.257752e+003, 4.320870e+004
1.258234e+003, 4.325077e+004
1.258716e+003, 4.318235e+004
1.259198e+003, 4.303797e+004
1.259680e+003, 4.303160e+004
1.260163e+003, 4.316489e+004
1.260645e+003, 4.318668e+004
1.261127e+003, 4.302234e+004
1.261609e+003, 4.285852e+004
1.262091e+003, 4.283296e+004
1.262573e+003, 4.286656e+004
1.263055e+003, 4.292866e+004
1.263537e+003, 4.299813e+004
1.264020e+003, 4.299714e+004
1.264502e+003, 4.293336e+004
1.264984e+003, 4.285104e+004
1.265466e+003, 4.275251e+004
1.265948e+003, 4.269709e+004
1.266430e+003, 4.277045e+004
1.266912e+003, 4.284229e+004
1.267394e+003, 4.285669e+004
1.267876e+003, 4.281656e+004
1.268359e+003, 4.269532e+004
1.268841e+003, 4.252524e+004
1.269323e+003, 4.242825e+004
1.269805e+003, 4.243542e+004
1.270287e+003, 4.247531e+004
1.270769e+003, 4.257777e+004
1.271251e+003, 4.262842e+004
1.271733e+003, 4.257027e+004
1.272215e+003, 4.246230e+004
1.272698e+003, 4.242803e+004
1.273180e+003, 4.244675e+004
1.273662e+003, 4.248048e+004
1.274144e+003, 4.252692e+004
1.274626e+003, 4.255036e+004
1.275108e+003, 4.255236e+004
1.275590e+003, 4.251491e+004
1.276072e+003, 4.241696e+004
1.276555e+003, 4.230782e+004
1.277037e+003, 4.225915e+004
1.277519e+003, 4.225996e+004
1.278001e+003, 4.230225e+004
1.278483e+003, 4.238740e+004
1.278965e+003, 4.247128e+004
1.279447e+003, 4.256863e+004
1.279929e+003, 4.258241e+004
1.280411e+003, 4.245174e+004
1.280894e+003, 4.231476e+004
1.281376e+003, 4.238232e+004
1.281858e+003, 4.251023e+004
1.282340e+003, 4.253155e+004
1.282822e+003, 4.243444e+004
1.283304e+003, 4.233366e+004
1.283786e+003, 4.222682e+004
1.284268e+003, 4.214383e+004
1.284750e+003, 4.209145e+004
1.285233e+003, 4.207007e+004
1.285715e+003, 4.211543e+004
1.286197e+003, 4.216248e+004
1.286679e+003, 4.215784e+004
1.287161e+003, 4.210910e+004
1.287643e+003, 4.203045e+004
1.288125e+003, 4.192714e+004
1.288607e+003, 4.186809e+004
1.289090e+003, 4.187684e+004
1.289572e+003, 4.188834e+004
1.290054e+003, 4.184629e+004
1.290536e+003, 4.181663e+004
1.291018e+003, 4.185216e+004
1.291500e+003, 4.191014e+004
1.291982e+003, 4.183663e+004
1.292464e+003, 4.168060e+004
1.292947e+003, 4.164091e+004
1.293429e+003, 4.177122e+004
1.293911e+003, 4.184948e+004
1.294393e+003, 4.167380e+004
1.294875e+003, 4.158735e+004
1.295357e+003, 4.173361e+004
1.295839e+003, 4.195571e+004
1.296321e+003, 4.194458e+004
1.296803e+003, 4.180754e+004
1.297286e+003, 4.174438e+004
1.297768e+003, 4.178691e+004
1.298250e+003, 4.181743e+004
1.298732e+003, 4.182147e+004
1.299214e+003, 4.180464e+004
1.299696e+003, 4.176171e+004
1.300178e+003, 4.172575e+004
1.300660e+003, 4.174199e+004
##END=



