##NAMES=Cryolite
##RRUFFID=R050287
##IDEAL CHEMISTRY=Na_3_AlF_6_
##LOCALITY=Ivigtut, Greenland
##OWNER=RRUFF
##SOURCE=Marcus Origlieri
##DESCRIPTION=Colorless fragment
##STATUS=The identification of this mineral has been confirmed by X-ray diffraction and chemical analysis
##URL=rruff.info/R050287
##MEASURED CHEMISTRY=Na_3.00_Al_1.00_F_6.00_
93.48767, 13.17702
93.96979, 12.96747
94.45190, 12.83706
94.93402, 12.85232
95.41614, 12.71736
95.89825, 12.37347
96.38037, 11.87898
96.86249, 11.28947
97.34460, 10.78109
97.82672, 10.44379
98.30884, 10.08279
98.79095, 9.665189
99.27307, 9.190188
99.75519, 8.656897
100.2373, 8.051891
100.7194, 7.440293
101.2015, 7.061892
101.6837, 7.047829
102.1658, 7.129960
102.6479, 7.099228
103.1300, 6.940620
103.6121, 6.795546
104.0942, 6.816379
104.5764, 6.920202
105.0585, 6.979888
105.5406, 6.934543
106.0227, 6.810695
106.5048, 6.692871
106.9869, 6.610526
107.4691, 6.483580
107.9512, 6.218375
108.4333, 5.872324
108.9154, 5.588503
109.3975, 5.517993
109.8796, 5.706718
110.3617, 5.805406
110.8439, 5.735209
111.3260, 5.642290
111.8081, 5.580333
112.2902, 5.560288
112.7723, 5.566467
113.2544, 5.576997
113.7366, 5.583932
114.2187, 5.613968
114.7008, 5.706871
115.1829, 5.801673
115.6650, 5.824209
116.1471, 5.746919
116.6293, 5.632016
117.1114, 5.640059
117.5935, 5.863167
118.0756, 6.019972
118.5577, 5.992337
119.0398, 5.844803
119.5220, 5.734060
120.0041, 5.741104
120.4862, 5.822031
120.9683, 5.865593
121.4504, 5.852364
121.9325, 5.835032
122.4147, 5.875252
122.8968, 5.981296
123.3789, 6.043437
123.8610, 5.930633
124.3431, 5.769213
124.8252, 5.682701
125.3074, 5.722598
125.7895, 5.841284
126.2716, 5.940293
126.7537, 6.001394
127.2358, 6.074495
127.7179, 6.193985
128.2001, 6.328990
128.6822, 6.441817
129.1643, 6.509294
129.6464, 6.533096
130.1285, 6.530353
130.6106, 6.478683
131.0928, 6.419485
131.5749, 6.360504
132.0570, 6.301835
132.5391, 6.239390
133.0212, 6.168977
133.5033, 6.087667
133.9855, 6.018462
134.4676, 5.971989
134.9497, 5.926574
135.4318, 5.861039
135.9139, 5.777143
136.3960, 5.704211
136.8782, 5.683754
137.3603, 5.731849
137.8424, 5.742861
138.3245, 5.676341
138.8066, 5.583001
139.2887, 5.527934
139.7709, 5.531681
140.2530, 5.549416
140.7351, 5.521330
141.2172, 5.452701
141.6993, 5.382008
142.1814, 5.321646
142.6636, 5.271683
143.1457, 5.226479
143.6278, 5.158281
144.1099, 5.131728
144.5920, 5.218469
145.0741, 5.415534
145.5563, 5.609481
146.0384, 5.690454
146.5205, 5.644228
147.0026, 5.606409
147.4847, 5.613850
147.9668, 5.627513
148.4490, 5.633686
148.9311, 5.627503
149.4132, 5.601430
149.8953, 5.527602
150.3774, 5.328682
150.8595, 5.249564
151.3417, 5.363025
151.8238, 5.548371
152.3059, 5.725898
152.7880, 5.861888
153.2701, 5.957212
153.7522, 6.011251
154.2344, 5.976398
154.7165, 5.949605
155.1986, 5.914659
155.6807, 5.894419
156.1628, 5.917288
156.6449, 5.997931
157.1271, 6.129707
157.6092, 6.290873
158.0913, 6.579397
158.5734, 6.787286
159.0555, 6.810369
159.5376, 6.699984
160.0198, 6.586748
160.5019, 6.536459
160.9840, 6.543401
161.4661, 6.567320
161.9482, 6.620179
162.4303, 6.676606
162.9125, 6.724000
163.3946, 6.762267
163.8767, 6.788797
164.3588, 6.821351
164.8409, 6.831666
165.3230, 6.764475
165.8052, 6.550722
166.2873, 6.310278
166.7694, 6.217433
167.2515, 6.311354
167.7336, 6.419474
168.2157, 6.488489
168.6979, 6.514670
169.1800, 6.480769
169.6621, 6.360988
170.1442, 6.189614
170.6263, 6.067405
171.1084, 6.037843
171.5906, 5.989022
172.0727, 5.872850
172.5548, 5.720195
173.0369, 5.563636
173.5190, 5.409256
174.0011, 5.269847
174.4833, 5.256339
174.9654, 5.622602
175.4475, 5.863589
175.9296, 5.805029
176.4117, 5.542911
176.8938, 5.257126
177.3760, 5.078752
177.8581, 5.010069
178.3402, 4.964412
178.8223, 4.971193
179.3044, 4.969793
179.7865, 4.904692
180.2687, 4.804508
180.7508, 4.758135
181.2329, 4.852569
181.7150, 5.106421
182.1971, 5.274255
182.6792, 5.343829
183.1614, 5.353385
183.6435, 5.316785
184.1256, 5.237432
184.6077, 5.114904
185.0898, 4.919797
185.5719, 4.652120
186.0540, 4.519981
186.5362, 4.637074
187.0183, 4.829089
187.5004, 4.933237
187.9825, 4.929749
188.4646, 4.900587
188.9467, 4.917687
189.4289, 4.971268
189.9110, 5.025068
190.3931, 5.076034
190.8752, 5.121018
191.3573, 5.159207
191.8394, 5.195501
192.3216, 5.209744
192.8037, 5.169767
193.2858, 5.095791
193.7679, 5.032666
194.2500, 5.000868
194.7321, 4.995481
195.2143, 4.997881
195.6964, 4.996576
196.1785, 5.024523
196.6606, 5.136563
197.1427, 5.289519
197.6248, 5.384761
198.1070, 5.325549
198.5891, 5.132816
199.0712, 5.018216
199.5533, 5.001566
200.0354, 5.054461
200.5175, 5.246374
200.9997, 5.502511
201.4818, 5.661707
201.9639, 5.562140
202.4460, 5.194084
202.9281, 4.961653
203.4102, 4.987195
203.8924, 5.048970
204.3745, 5.103093
204.8566, 5.141691
205.3387, 5.168064
205.8208, 5.186124
206.3029, 5.197309
206.7851, 5.185468
207.2672, 5.168326
207.7493, 5.115664
208.2314, 4.960227
208.7135, 4.743240
209.1956, 4.592839
209.6778, 4.643161
210.1599, 4.939741
210.6420, 5.070441
211.1241, 4.926172
211.6062, 4.746248
212.0883, 4.656795
212.5705, 4.655267
213.0526, 4.658593
213.5347, 4.586003
214.0168, 4.424504
214.4989, 4.329383
214.9810, 4.348327
215.4632, 4.389954
215.9453, 4.386729
216.4274, 4.338103
216.9095, 4.300987
217.3916, 4.333318
217.8737, 4.436241
218.3559, 4.498696
218.8380, 4.506740
219.3201, 4.482095
219.8022, 4.425033
220.2843, 4.335758
220.7664, 4.269806
221.2486, 4.302610
221.7307, 4.402575
222.2128, 4.432644
222.6949, 4.293423
223.1770, 4.116579
223.6591, 4.070252
224.1413, 4.176920
224.6234, 4.286893
225.1055, 4.271695
225.5876, 4.184219
226.0697, 4.116971
226.5518, 4.101161
227.0340, 4.114932
227.5161, 4.129587
227.9982, 4.146290
228.4803, 4.159665
228.9624, 4.143003
229.4445, 4.125784
229.9267, 4.156930
230.4088, 4.283500
230.8909, 4.443843
231.3730, 4.513984
231.8551, 4.466212
232.3372, 4.395563
232.8194, 4.332402
233.3015, 4.273741
233.7836, 4.215761
234.2657, 4.156352
234.7478, 4.097616
235.2299, 4.037261
235.7121, 3.949509
236.1942, 3.916699
236.6763, 3.997008
237.1584, 4.121351
237.6405, 4.220125
238.1227, 4.263902
238.6048, 4.265542
239.0869, 4.255910
239.5690, 4.229251
240.0511, 4.200431
240.5332, 4.157299
241.0154, 4.120050
241.4975, 4.114776
241.9796, 4.153030
242.4617, 4.214667
242.9438, 4.248197
243.4259, 4.233478
243.9081, 4.220461
244.3902, 4.227221
244.8723, 4.232495
245.3544, 4.213129
245.8365, 4.160439
246.3186, 4.088081
246.8007, 4.025450
247.2829, 3.966834
247.7650, 3.929893
248.2471, 3.928647
248.7292, 3.940784
249.2113, 3.946314
249.6934, 3.938329
250.1756, 3.923198
250.6577, 3.912967
251.1398, 3.904800
251.6219, 3.907355
252.1040, 3.935482
252.5861, 3.965913
253.0683, 3.972244
253.5504, 3.948350
254.0325, 3.916212
254.5146, 3.912008
254.9967, 3.952891
255.4788, 3.993773
255.9610, 4.055284
256.4431, 4.105161
256.9252, 4.105082
257.4073, 4.048646
257.8894, 3.975293
258.3716, 3.938495
258.8537, 3.957692
259.3358, 3.966513
259.8179, 3.980766
260.3000, 3.975483
260.7821, 3.897174
261.2643, 3.743852
261.7464, 3.618728
262.2285, 3.649058
262.7106, 3.883399
263.1927, 4.047860
263.6748, 4.083498
264.1570, 4.082384
264.6391, 4.135996
265.1212, 4.250275
265.6033, 4.340665
266.0854, 4.313977
266.5675, 4.163150
267.0497, 4.061596
267.5318, 4.044465
268.0139, 4.056356
268.4960, 4.050695
268.9781, 4.026092
269.4602, 4.014983
269.9424, 4.044476
270.4245, 4.112233
270.9066, 4.180371
271.3887, 4.256858
271.8708, 4.327126
272.3529, 4.391526
272.8351, 4.447327
273.3172, 4.460526
273.7993, 4.391273
274.2814, 4.265944
274.7635, 4.176548
275.2456, 4.133695
275.7278, 4.117521
276.2099, 4.131568
276.6920, 4.170200
277.1741, 4.183353
277.6562, 4.130499
278.1383, 4.048148
278.6204, 4.011810
279.1025, 4.033098
279.5847, 4.074323
280.0668, 4.132774
280.5489, 4.199594
281.0310, 4.212717
281.5131, 4.117062
281.9952, 3.990922
282.4774, 3.949069
282.9595, 4.003125
283.4416, 4.069630
283.9237, 4.086546
284.4058, 4.070512
284.8879, 4.101138
285.3701, 4.230789
285.8522, 4.366030
286.3343, 4.409011
286.8164, 4.364214
287.2985, 4.294297
287.7806, 4.217105
288.2628, 4.138845
288.7449, 4.071792
289.2270, 3.995370
289.7091, 3.974660
290.1912, 4.106217
290.6733, 4.345957
291.1555, 4.536043
291.6376, 4.596691
292.1197, 4.555942
292.6018, 4.458741
293.0839, 4.268669
293.5660, 4.115234
294.0482, 4.126313
294.5303, 4.229148
295.0124, 4.292420
295.4945, 4.244296
295.9766, 4.138087
296.4587, 4.061229
296.9409, 4.011227
297.4230, 3.999869
297.9051, 4.060918
298.3872, 4.155894
298.8693, 4.243723
299.3514, 4.314404
299.8336, 4.370827
300.3157, 4.412591
300.7978, 4.436681
301.2799, 4.466074
301.7620, 4.525366
302.2441, 4.585607
302.7263, 4.623574
303.2084, 4.635643
303.6905, 4.621757
304.1726, 4.557924
304.6547, 4.439872
305.1368, 4.382594
305.6190, 4.465953
306.1011, 4.580107
306.5832, 4.628682
307.0653, 4.608097
307.5474, 4.601330
308.0295, 4.702153
308.5117, 4.897399
308.9938, 5.027217
309.4759, 5.046437
309.9580, 5.019734
310.4401, 4.974756
310.9222, 4.920695
311.4044, 4.888126
311.8865, 4.902395
312.3686, 4.955638
312.8507, 5.012169
313.3328, 5.063413
313.8149, 5.133729
314.2971, 5.272038
314.7792, 5.434058
315.2613, 5.530807
315.7434, 5.480515
316.2255, 5.367624
316.7076, 5.389317
317.1898, 5.596134
317.6719, 5.798504
318.1540, 5.927935
318.6361, 6.003317
319.1182, 6.027902
319.6003, 5.988124
320.0825, 5.939221
320.5646, 5.958363
321.0467, 6.053666
321.5288, 6.165757
322.0109, 6.296838
322.4930, 6.424963
322.9752, 6.530661
323.4573, 6.610246
323.9394, 6.678492
324.4215, 6.746788
324.9036, 6.814738
325.3857, 6.880504
325.8679, 6.924197
326.3500, 6.987799
326.8321, 7.100215
327.3142, 7.258475
327.7963, 7.439129
328.2784, 7.669055
328.7606, 7.920784
329.2427, 8.039567
329.7248, 7.921479
330.2069, 7.836493
330.6890, 7.990138
331.1711, 8.291993
331.6533, 8.552958
332.1354, 8.670428
332.6175, 8.702732
333.0996, 8.764419
333.5817, 8.860986
334.0638, 8.970493
334.5460, 9.078786
335.0281, 9.194744
335.5102, 9.331758
335.9923, 9.498520
336.4744, 9.677048
336.9565, 9.874713
337.4387, 10.09709
337.9208, 10.22671
338.4029, 10.15141
338.8850, 10.01522
339.3671, 9.960778
339.8492, 10.00290
340.3314, 10.06796
340.8135, 10.09781
341.2956, 10.10051
341.7777, 10.13714
342.2598, 10.26783
342.7419, 10.35972
343.2241, 10.24965
343.7062, 9.982533
344.1883, 9.790992
344.6704, 9.857505
345.1525, 10.06487
345.6346, 10.14713
346.1168, 10.06012
346.5989, 9.947066
347.0810, 9.937862
347.5631, 9.972448
348.0452, 9.938968
348.5273, 9.778525
349.0095, 9.565673
349.4916, 9.366050
349.9737, 9.179744
350.4558, 9.041702
350.9379, 9.011242
351.4200, 9.014843
351.9022, 8.928687
352.3843, 8.719376
352.8664, 8.499021
353.3485, 8.382623
353.8306, 8.328153
354.3127, 8.145120
354.7949, 7.719083
355.2770, 7.248862
355.7591, 7.006539
356.2412, 6.985048
356.7233, 6.950087
357.2054, 6.803580
357.6876, 6.596240
358.1697, 6.391243
358.6518, 6.190010
359.1339, 6.039813
359.6160, 6.020494
360.0981, 6.101600
360.5803, 6.116952
361.0624, 6.011590
361.5445, 5.859739
362.0266, 5.685160
362.5087, 5.500274
362.9908, 5.393992
363.4730, 5.434155
363.9551, 5.579846
364.4372, 5.699387
364.9193, 5.803205
365.4014, 5.867480
365.8835, 5.832819
366.3657, 5.755992
366.8478, 5.770349
367.3299, 5.934199
367.8120, 6.143537
368.2941, 6.230294
368.7762, 6.172316
369.2584, 6.102823
369.7405, 5.978822
370.2226, 5.886457
370.7047, 5.940500
371.1868, 6.146018
371.6689, 6.367086
372.1511, 6.473307
372.6332, 6.458463
373.1153, 6.532793
373.5974, 6.795538
374.0795, 7.041606
374.5616, 7.152083
375.0438, 7.165054
375.5259, 7.183035
376.0080, 7.258472
376.4901, 7.385551
376.9722, 7.546415
377.4543, 7.837054
377.9365, 8.037548
378.4186, 8.032825
378.9007, 7.968691
379.3828, 7.992545
379.8649, 8.148141
380.3470, 8.407219
380.8292, 8.735777
381.3113, 9.158800
381.7934, 9.587698
382.2755, 10.12616
382.7576, 10.58241
383.2397, 10.77927
383.7219, 10.77802
384.2040, 10.78718
384.6861, 10.96897
385.1682, 11.31490
385.6503, 11.68811
386.1324, 12.14089
386.6146, 12.56201
387.0967, 12.89211
387.5788, 13.18989
388.0609, 13.55712
388.5430, 14.03460
389.0251, 14.52876
389.5073, 14.84543
389.9894, 14.90555
390.4715, 14.94501
390.9536, 14.87607
391.4357, 14.86962
391.9178, 15.13267
392.4000, 15.61927
392.8821, 16.02720
393.3642, 16.01584
393.8463, 15.56786
394.3284, 15.28107
394.8105, 15.29310
395.2927, 15.31404
395.7748, 15.28681
396.2569, 15.19415
396.7390, 15.00445
397.2211, 14.68440
397.7032, 14.29587
398.1854, 13.98791
398.6675, 13.79412
399.1496, 13.57575
399.6317, 13.30198
400.1138, 12.98181
400.5959, 12.62169
401.0780, 12.22319
401.5602, 11.77409
402.0423, 11.18544
402.5244, 10.48761
403.0065, 10.04074
403.4886, 10.04833
403.9707, 10.08239
404.4529, 9.812057
404.9350, 9.325846
405.4171, 8.866174
405.8992, 8.535882
406.3813, 8.293870
406.8634, 8.108539
407.3456, 7.993594
407.8277, 7.796741
408.3098, 7.346786
408.7919, 6.812223
409.2740, 6.474217
409.7561, 6.379937
410.2383, 6.396245
410.7204, 6.529791
411.2025, 6.715953
411.6846, 6.747505
412.1667, 6.542879
412.6488, 6.255925
413.1310, 6.078425
413.6131, 6.005589
414.0952, 5.905289
414.5773, 5.709277
415.0594, 5.506815
415.5415, 5.386969
416.0237, 5.348207
416.5058, 5.332205
416.9879, 5.307075
417.4700, 5.271445
417.9521, 5.218216
418.4342, 5.118821
418.9164, 5.038838
419.3985, 5.011663
419.8806, 5.010024
420.3627, 4.988788
420.8448, 4.933719
421.3269, 4.876386
421.8091, 4.870545
422.2912, 4.961229
422.7733, 4.967454
423.2554, 4.808751
423.7375, 4.642609
424.2196, 4.558045
424.7018, 4.551266
425.1839, 4.580539
425.6660, 4.619643
426.1481, 4.665196
426.6302, 4.694410
427.1123, 4.683880
427.5945, 4.685212
428.0766, 4.718768
428.5587, 4.759790
429.0408, 4.786156
429.5229, 4.790365
430.0050, 4.775172
430.4872, 4.744911
430.9693, 4.701206
431.4514, 4.636602
431.9335, 4.508418
432.4156, 4.396668
432.8977, 4.315290
433.3799, 4.276083
433.8620, 4.306350
434.3441, 4.450852
434.8262, 4.654107
435.3083, 4.742435
435.7904, 4.670379
436.2726, 4.608296
436.7547, 4.642705
437.2368, 4.701042
437.7189, 4.730304
438.2010, 4.722480
438.6831, 4.661858
439.1653, 4.487420
439.6474, 4.231568
440.1295, 4.074980
440.6116, 4.068264
441.0937, 4.122487
441.5758, 4.188410
442.0580, 4.257031
442.5401, 4.294963
443.0222, 4.276095
443.5043, 4.233778
443.9864, 4.171614
444.4685, 4.099607
444.9507, 4.115679
445.4328, 4.303435
445.9149, 4.569311
446.3970, 4.698823
446.8791, 4.676474
447.3612, 4.599223
447.8434, 4.439297
448.3255, 4.263379
448.8076, 4.156580
449.2897, 4.131646
449.7718, 4.144420
450.2539, 4.156099
450.7361, 4.166507
451.2182, 4.182801
451.7003, 4.243558
452.1824, 4.267861
452.6645, 4.185035
453.1466, 4.054674
453.6288, 3.983029
454.1109, 4.016688
454.5930, 4.105186
455.0751, 4.146064
455.5572, 4.099623
456.0393, 4.082768
456.5215, 4.125003
457.0036, 4.166720
457.4857, 4.171556
457.9678, 4.142506
458.4499, 4.103291
458.9320, 4.070556
459.4142, 4.043396
459.8963, 4.011716
460.3784, 3.949325
460.8605, 3.931857
461.3426, 4.025428
461.8247, 4.142713
462.3069, 4.178885
462.7890, 4.108213
463.2711, 4.044929
463.7532, 4.131446
464.2353, 4.355112
464.7174, 4.529107
465.1996, 4.622115
465.6817, 4.677759
466.1638, 4.745582
466.6459, 4.804625
467.1280, 4.792921
467.6101, 4.636455
468.0923, 4.448843
468.5744, 4.357118
469.0565, 4.353251
469.5386, 4.360787
470.0207, 4.342469
470.5028, 4.329872
470.9850, 4.398874
471.4671, 4.573541
471.9492, 4.685464
472.4313, 4.670264
472.9134, 4.584738
473.3955, 4.453647
473.8777, 4.294726
474.3598, 4.193791
474.8419, 4.226625
475.3240, 4.377746
475.8061, 4.493353
476.2882, 4.558115
476.7704, 4.612266
477.2525, 4.660767
477.7346, 4.704040
478.2167, 4.747102
478.6988, 4.789521
479.1809, 4.816911
479.6631, 4.812207
480.1452, 4.775383
480.6273, 4.705376
481.1094, 4.525294
481.5915, 4.391614
482.0736, 4.371916
482.5558, 4.431865
483.0379, 4.511046
483.5200, 4.582373
484.0021, 4.650526
484.4842, 4.733860
484.9663, 4.845947
485.4485, 4.910848
485.9306, 4.874399
486.4127, 4.818320
486.8948, 4.782836
487.3769, 4.772893
487.8590, 4.797119
488.3412, 4.901288
488.8233, 5.030410
489.3054, 5.066998
489.7875, 5.002266
490.2696, 4.918836
490.7517, 4.827005
491.2339, 4.762950
491.7160, 4.800184
492.1981, 4.985174
492.6802, 5.134521
493.1623, 5.162005
493.6444, 5.108765
494.1266, 5.001628
494.6087, 4.849058
495.0908, 4.755087
495.5729, 4.829144
496.0550, 5.068706
496.5371, 5.231672
497.0193, 5.297650
497.5014, 5.323914
497.9835, 5.294579
498.4656, 5.247888
498.9477, 5.240390
499.4298, 5.289030
499.9120, 5.358294
500.3941, 5.396478
500.8762, 5.395957
501.3583, 5.395397
501.8404, 5.388049
502.3225, 5.387543
502.8047, 5.383818
503.2868, 5.393097
503.7689, 5.455881
504.2510, 5.603125
504.7331, 5.766797
505.2152, 5.801510
505.6974, 5.678207
506.1795, 5.609957
506.6616, 5.698224
507.1437, 5.799251
507.6258, 5.792721
508.1079, 5.696088
508.5901, 5.616521
509.0722, 5.593352
509.5543, 5.623363
510.0364, 5.733927
510.5185, 5.922481
511.0006, 6.052864
511.4828, 6.032643
511.9649, 5.940927
512.4470, 5.956454
512.9291, 6.117547
513.4112, 6.235627
513.8933, 6.200012
514.3754, 6.135474
514.8575, 6.178660
515.3397, 6.334730
515.8218, 6.520086
516.3039, 6.674049
516.7860, 6.803379
517.2681, 6.954646
517.7502, 7.182196
518.2324, 7.362467
518.7145, 7.434892
519.1966, 7.486091
519.6787, 7.631426
520.1608, 7.869681
520.6429, 8.061151
521.1251, 8.020931
521.6072, 7.761530
522.0893, 7.745908
522.5714, 8.163548
523.0535, 8.526051
523.5356, 8.592096
524.0178, 8.553293
524.4999, 8.630566
524.9820, 8.883936
525.4641, 9.211812
525.9462, 9.573979
526.4283, 9.943268
526.9105, 10.16733
527.3926, 10.15888
527.8747, 10.20120
528.3568, 10.58108
528.8389, 11.20008
529.3210, 11.71689
529.8032, 11.95071
530.2853, 12.24233
530.7674, 12.83272
531.2495, 13.60107
531.7316, 14.33383
532.2137, 14.97268
532.6959, 15.49764
533.1780, 15.83868
533.6601, 15.91173
534.1422, 16.34681
534.6243, 17.40129
535.1064, 18.47891
535.5886, 19.33783
536.0707, 20.07640
536.5528, 20.86614
537.0349, 21.76963
537.5170, 22.73029
537.9991, 23.62171
538.4813, 24.40084
538.9634, 25.32467
539.4455, 26.43014
539.9276, 27.66015
540.4097, 29.03664
540.8918, 30.49854
541.3740, 31.92679
541.8561, 33.25924
542.3382, 34.57058
542.8203, 35.86155
543.3024, 37.16002
543.7845, 38.74067
544.2667, 40.68885
544.7488, 42.89869
545.2309, 45.31874
545.7130, 47.92875
546.1951, 50.64971
546.6772, 53.44478
547.1594, 56.35030
547.6415, 59.42940
548.1236, 62.63769
548.6057, 65.96516
549.0878, 69.39954
549.5699, 72.81023
550.0521, 75.98352
550.5342, 78.89399
551.0163, 81.58451
551.4984, 84.77592
551.9805, 87.04476
552.4626, 87.57714
552.9448, 86.77081
553.4269, 85.50245
553.9090, 84.20866
554.3911, 82.41193
554.8732, 79.10002
555.3553, 74.03321
555.8375, 68.98324
556.3196, 64.08610
556.8017, 59.35512
557.2838, 54.76101
557.7659, 50.29696
558.2480, 45.98175
558.7302, 41.73864
559.2123, 37.76665
559.6944, 34.28404
560.1765, 31.26658
560.6586, 28.68694
561.1407, 26.58494
561.6229, 24.74710
562.1050, 22.87701
562.5871, 20.94930
563.0692, 19.31659
563.5513, 18.10571
564.0334, 17.07398
564.5156, 16.18579
564.9977, 15.37757
565.4798, 14.52503
565.9619, 13.58464
566.4440, 12.66617
566.9261, 11.96629
567.4083, 11.55917
567.8904, 11.06783
568.3725, 10.29338
568.8546, 9.643932
569.3367, 9.318307
569.8188, 9.196215
570.3010, 9.100123
570.7831, 8.978255
571.2652, 8.786057
571.7473, 8.438780
572.2294, 7.956785
572.7115, 7.476240
573.1937, 6.989013
573.6758, 6.586559
574.1579, 6.382396
574.6400, 6.335854
575.1221, 6.287933
575.6042, 6.261514
576.0864, 6.188197
576.5685, 5.998817
577.0506, 5.750897
577.5327, 5.532031
578.0148, 5.365734
578.4969, 5.244816
578.9791, 5.168388
579.4612, 5.139322
579.9433, 5.082469
580.4254, 4.941043
580.9075, 4.839103
581.3896, 4.821455
581.8718, 4.842567
582.3539, 4.865182
582.8360, 4.875719
583.3181, 4.856722
583.8002, 4.790872
584.2823, 4.679594
584.7645, 4.516393
585.2466, 4.260350
585.7287, 4.068782
586.2108, 4.053876
586.6929, 4.135764
587.1750, 4.212350
587.6572, 4.285084
588.1393, 4.315173
588.6214, 4.254217
589.1035, 4.156043
589.5856, 4.099030
590.0677, 4.085247
590.5499, 4.050796
591.0320, 3.942204
591.5141, 3.798555
591.9962, 3.768048
592.4783, 4.023977
592.9604, 4.148368
593.4426, 4.044097
593.9247, 3.885663
594.4068, 3.785576
594.8889, 3.743479
595.3710, 3.704663
595.8531, 3.632768
596.3353, 3.545231
596.8174, 3.465558
597.2995, 3.379716
597.7816, 3.398660
598.2637, 3.662625
598.7458, 3.912927
599.2280, 3.892606
599.7101, 3.651645
600.1922, 3.463585
600.6743, 3.435576
601.1564, 3.475673
601.6385, 3.554081
602.1207, 3.639913
602.6028, 3.621196
603.0849, 3.453565
603.5670, 3.257880
604.0491, 3.193612
604.5313, 3.285134
605.0134, 3.358592
605.4955, 3.456188
605.9776, 3.490576
606.4597, 3.366272
606.9418, 3.192174
607.4240, 3.122772
607.9061, 3.196057
608.3882, 3.299803
608.8703, 3.301429
609.3524, 3.209697
609.8345, 3.142487
610.3167, 3.109138
610.7988, 3.080045
611.2809, 3.031278
611.7630, 2.982958
612.2451, 2.961383
612.7272, 2.969352
613.2094, 3.001319
613.6915, 3.085119
614.1736, 3.174792
614.6557, 3.206012
615.1378, 3.180386
615.6199, 3.137110
616.1021, 3.093313
616.5842, 3.065230
617.0663, 3.106691
617.5484, 3.352703
618.0305, 3.434045
618.5126, 3.192959
618.9948, 2.949256
619.4769, 2.890743
619.9590, 2.977876
620.4411, 3.087300
620.9232, 3.160755
621.4053, 3.215403
621.8875, 3.289288
622.3696, 3.381255
622.8517, 3.421334
623.3338, 3.388079
623.8159, 3.319161
624.2980, 3.242139
624.7802, 3.154391
625.2623, 3.042794
625.7444, 2.845368
626.2265, 2.702069
626.7086, 2.688960
627.1907, 2.763445
627.6729, 2.906975
628.1550, 3.096446
628.6371, 3.212338
629.1192, 3.130024
629.6013, 2.886874
630.0834, 2.802672
630.5656, 3.028476
631.0477, 3.161504
631.5298, 3.087207
632.0119, 2.954946
632.4940, 2.853411
632.9761, 2.796974
633.4583, 2.783205
633.9404, 2.829471
634.4225, 2.901737
634.9046, 2.946338
635.3867, 2.965087
635.8688, 2.980930
636.3510, 3.003904
636.8331, 3.018638
637.3152, 2.996404
637.7973, 2.930607
638.2794, 2.914514
638.7615, 3.002690
639.2437, 3.081117
639.7258, 3.115422
640.2079, 3.105996
640.6900, 3.033651
641.1721, 2.904583
641.6542, 2.792266
642.1364, 2.790872
642.6185, 2.887181
643.1006, 2.894238
643.5827, 2.749258
644.0648, 2.654315
644.5469, 2.736819
645.0291, 2.866707
645.5112, 2.921465
645.9933, 2.893095
646.4754, 2.879005
646.9575, 2.969925
647.4396, 3.062970
647.9218, 3.011951
648.4039, 2.853304
648.8860, 2.761004
649.3681, 2.810380
649.8502, 2.911061
650.3323, 2.920610
650.8145, 2.806488
651.2966, 2.750984
651.7787, 2.805556
652.2608, 2.856841
652.7429, 2.873302
653.2250, 2.865935
653.7072, 2.842710
654.1893, 2.807798
654.6714, 2.783961
655.1535, 2.813782
655.6356, 2.871727
656.1177, 2.852073
656.5999, 2.738698
657.0820, 2.662665
657.5641, 2.688599
658.0462, 2.782604
658.5283, 2.905036
659.0104, 3.078626
659.4926, 3.168218
659.9747, 3.103936
660.4568, 2.998295
660.9389, 2.888003
661.4210, 2.797230
661.9031, 2.770088
662.3853, 2.821912
662.8674, 2.905212
663.3495, 2.952743
663.8316, 2.961538
664.3137, 2.983871
664.7958, 3.031211
665.2780, 3.071085
665.7601, 3.107697
666.2422, 3.120097
666.7243, 3.057986
667.2064, 2.902033
667.6885, 2.803450
668.1707, 2.902515
668.6528, 3.049468
669.1349, 3.064215
669.6170, 2.962283
670.0991, 2.846184
670.5812, 2.760515
671.0634, 2.714642
671.5455, 2.737624
672.0276, 2.871243
672.5097, 2.913707
672.9918, 2.754359
673.4739, 2.624054
673.9561, 2.596538
674.4382, 2.636154
674.9203, 2.704232
675.4024, 2.790575
675.8845, 2.870234
676.3666, 2.938774
676.8488, 2.981492
677.3309, 2.944530
677.8130, 2.827881
678.2951, 2.741544
678.7772, 2.745018
679.2593, 2.792405
679.7415, 2.796464
680.2236, 2.728796
680.7057, 2.707226
681.1878, 2.762951
681.6699, 2.830045
682.1520, 2.905300
682.6342, 2.962891
683.1163, 2.958735
683.5984, 2.882898
684.0805, 2.788340
684.5626, 2.718910
685.0447, 2.677126
685.5269, 2.689109
686.0090, 2.769388
686.4911, 2.822964
686.9732, 2.791924
687.4553, 2.727053
687.9374, 2.722398
688.4196, 2.789544
688.9017, 2.805867
689.3838, 2.668498
689.8659, 2.559359
690.3480, 2.634152
690.8301, 2.799741
691.3123, 2.871084
691.7944, 2.796836
692.2765, 2.713807
692.7586, 2.811532
693.2407, 3.066846
693.7228, 3.127145
694.2050, 2.908678
694.6871, 2.721374
695.1692, 2.674621
695.6513, 2.710746
696.1334, 2.795567
696.6155, 2.926232
697.0977, 2.988075
697.5798, 2.893293
698.0619, 2.769037
698.5440, 2.702045
699.0261, 2.677350
699.5082, 2.656055
699.9904, 2.628047
700.4725, 2.619872
700.9546, 2.667381
701.4367, 2.764576
701.9188, 2.820301
702.4009, 2.824392
702.8831, 2.806584
703.3652, 2.735897
703.8473, 2.674857
704.3294, 2.682540
704.8115, 2.750027
705.2936, 2.807778
705.7758, 2.834388
706.2579, 2.834885
706.7400, 2.777385
707.2221, 2.703014
707.7042, 2.729329
708.1863, 2.876541
708.6685, 3.004803
709.1505, 2.974120
709.6326, 2.815494
710.1147, 2.771872
710.5969, 2.953340
711.0790, 3.047334
711.5611, 2.927050
712.0432, 2.787852
712.5253, 2.768877
713.0074, 2.838208
713.4896, 2.870146
713.9717, 2.788370
714.4538, 2.706498
714.9359, 2.751219
715.4180, 2.867263
715.9001, 2.927568
716.3823, 2.913017
716.8644, 2.870538
717.3465, 2.828528
717.8286, 2.793162
718.3107, 2.791054
718.7928, 2.869414
719.2750, 2.890383
719.7571, 2.798590
720.2392, 2.703648
720.7213, 2.652505
721.2034, 2.639731
721.6855, 2.661235
722.1677, 2.728137
722.6498, 2.760903
723.1319, 2.625797
723.6140, 2.429592
724.0961, 2.413404
724.5782, 2.584690
725.0604, 2.779948
725.5425, 2.922203
726.0246, 3.002878
726.5067, 2.998692
726.9888, 2.873914
727.4709, 2.772687
727.9531, 2.671161
728.4352, 2.620023
728.9173, 2.675124
729.3994, 2.772409
729.8815, 2.835331
730.3636, 2.846838
730.8458, 2.829291
731.3279, 2.779844
731.8100, 2.720633
732.2921, 2.681987
732.7742, 2.665814
733.2563, 2.688406
733.7385, 2.762007
734.2206, 2.830445
734.7027, 2.812359
735.1848, 2.697445
735.6669, 2.652492
736.1490, 2.765520
736.6312, 2.836133
737.1133, 2.803990
737.5954, 2.737788
738.0775, 2.686255
738.5596, 2.657737
739.0417, 2.654614
739.5239, 2.697528
740.0060, 2.742138
740.4881, 2.710485
740.9702, 2.638060
741.4523, 2.650189
741.9344, 2.772294
742.4166, 2.903557
742.8987, 2.964632
743.3808, 2.961465
743.8629, 2.918974
744.3450, 2.785645
744.8271, 2.707730
745.3093, 2.742845
745.7914, 2.783226
746.2735, 2.759609
746.7556, 2.700644
747.2377, 2.667657
747.7198, 2.678717
748.2020, 2.724334
748.6841, 2.850877
749.1662, 2.984448
749.6483, 2.962650
750.1304, 2.800030
750.6125, 2.678165
751.0947, 2.692662
751.5768, 2.779748
752.0589, 2.824255
752.5410, 2.812243
753.0231, 2.826581
753.5052, 2.929841
753.9874, 2.973752
754.4695, 2.851114
754.9516, 2.688148
755.4337, 2.631059
755.9158, 2.692327
756.3979, 2.747824
756.8801, 2.736530
757.3622, 2.695631
757.8443, 2.630210
758.3264, 2.567969
758.8085, 2.601525
759.2906, 2.744798
759.7728, 2.859157
760.2549, 2.795180
760.7370, 2.593713
761.2191, 2.511240
761.7012, 2.574830
762.1833, 2.688374
762.6655, 2.924525
763.1476, 3.112310
763.6297, 3.115539
764.1118, 2.984229
764.5939, 2.855767
765.0760, 2.745938
765.5582, 2.667148
766.0403, 2.635772
766.5224, 2.631749
767.0045, 2.630422
767.4866, 2.634284
767.9688, 2.669554
768.4509, 2.750933
768.9330, 2.838846
769.4151, 2.857808
769.8972, 2.804264
770.3793, 2.788942
770.8615, 2.840643
771.3436, 2.853064
771.8257, 2.726298
772.3078, 2.574509
772.7899, 2.589977
773.2720, 2.789991
773.7542, 2.920330
774.2363, 2.906224
774.7184, 2.852521
775.2005, 2.773213
775.6826, 2.705366
776.1647, 2.708543
776.6469, 2.781116
777.1290, 2.854540
777.6111, 2.875751
778.0932, 2.861832
778.5753, 2.847952
779.0574, 2.834082
779.5396, 2.818837
780.0217, 2.799852
780.5038, 2.783799
780.9859, 2.760576
781.4680, 2.747321
781.9501, 2.823318
782.4323, 3.097817
782.9144, 3.278754
783.3965, 3.333146
783.8786, 3.310936
784.3607, 3.184434
784.8428, 3.018800
785.3250, 2.927876
785.8071, 2.947855
786.2892, 2.983100
786.7713, 2.937843
787.2534, 2.859046
787.7355, 2.842770
788.2177, 2.882361
788.6998, 2.902448
789.1819, 2.872216
789.6640, 2.847672
790.1461, 2.906996
790.6282, 3.049525
791.1104, 3.117781
791.5925, 3.079816
792.0746, 3.020019
792.5567, 2.896037
793.0388, 2.804507
793.5209, 2.841008
794.0031, 2.970727
794.4852, 3.071651
794.9673, 3.111789
795.4494, 3.108255
795.9315, 3.040958
796.4136, 2.953956
796.8958, 2.896315
797.3779, 2.874953
797.8600, 2.895761
798.3421, 2.963468
798.8242, 3.037435
799.3063, 3.039073
799.7885, 2.964517
800.2706, 2.943037
800.7527, 3.002464
801.2348, 3.027705
801.7169, 2.939515
802.1990, 2.824707
802.6812, 2.806710
803.1633, 2.884193
803.6454, 2.972405
804.1275, 3.109693
804.6096, 3.200180
805.0917, 3.183977
805.5739, 3.119394
806.0560, 3.052410
806.5381, 2.997094
807.0202, 2.966994
807.5023, 2.978543
807.9844, 2.993273
808.4666, 2.928094
808.9487, 2.817525
809.4308, 2.819900
809.9129, 2.955555
810.3950, 3.072127
810.8771, 3.080467
811.3593, 3.020887
811.8414, 2.970676
812.3235, 2.922508
812.8056, 2.911186
813.2877, 2.980800
813.7698, 3.032314
814.2520, 3.024275
814.7341, 2.995822
815.2162, 2.994718
815.6983, 3.019798
816.1804, 3.017567
816.6625, 2.915064
817.1447, 2.830455
817.6268, 2.879456
818.1089, 2.991435
818.5910, 3.061288
819.0731, 3.073140
819.5552, 3.055543
820.0374, 3.025909
820.5195, 2.984246
821.0016, 2.920213
821.4837, 2.832093
821.9658, 2.789083
822.4479, 2.807372
822.9301, 2.833671
823.4122, 2.843841
823.8943, 2.843997
824.3764, 2.845054
824.8585, 2.848267
825.3406, 2.845583
825.8228, 2.823047
826.3049, 2.811186
826.7870, 2.827167
827.2691, 2.854486
827.7512, 2.887907
828.2333, 2.917711
828.7155, 2.912675
829.1976, 2.841972
829.6797, 2.755786
830.1618, 2.698066
830.6439, 2.671097
831.1260, 2.703736
831.6082, 2.787904
832.0903, 2.820982
832.5724, 2.735956
833.0545, 2.611736
833.5366, 2.615729
834.0187, 2.776145
834.5009, 2.860832
834.9830, 2.822306
835.4651, 2.805746
835.9472, 2.913341
836.4293, 3.028390
836.9114, 2.998592
837.3936, 2.833411
837.8757, 2.728239
838.3578, 2.748201
838.8399, 2.789430
839.3220, 2.840977
839.8041, 2.875118
840.2863, 2.838861
840.7684, 2.759337
841.2505, 2.735097
841.7326, 2.822424
842.2147, 2.918817
842.6968, 2.869737
843.1790, 2.737730
843.6611, 2.708200
844.1432, 2.786279
844.6253, 2.885109
845.1074, 2.974392
845.5895, 3.030205
846.0717, 3.009600
846.5538, 2.911967
847.0359, 2.892878
847.5180, 3.038891
848.0001, 3.092132
848.4822, 2.902633
848.9644, 2.697582
849.4465, 2.637755
849.9286, 2.688056
850.4107, 2.738254
850.8928, 2.773606
851.3749, 2.801082
851.8571, 2.830803
852.3392, 2.847027
852.8213, 2.818351
853.3034, 2.770830
853.7855, 2.764500
854.2676, 2.814765
854.7498, 2.864850
855.2319, 2.857341
855.7140, 2.813023
856.1961, 2.767618
856.6782, 2.725384
857.1603, 2.727766
857.6425, 2.788917
858.1246, 2.836614
858.6067, 2.809242
859.0888, 2.722967
859.5709, 2.632676
860.0530, 2.518608
860.5352, 2.452824
861.0173, 2.446156
861.4994, 2.477964
861.9815, 2.576564
862.4636, 2.688149
862.9457, 2.736453
863.4279, 2.712486
863.9100, 2.689071
864.3921, 2.693551
864.8742, 2.692533
865.3563, 2.644397
865.8384, 2.595701
866.3206, 2.621122
866.8027, 2.707557
867.2848, 2.766695
867.7669, 2.744933
868.2490, 2.687285
868.7311, 2.627532
869.2133, 2.582195
869.6954, 2.621112
870.1775, 2.740333
870.6596, 2.828226
871.1417, 2.834053
871.6238, 2.789930
872.1060, 2.734050
872.5881, 2.666793
873.0702, 2.627554
873.5523, 2.629682
874.0344, 2.623290
874.5165, 2.564837
874.9987, 2.531761
875.4808, 2.641194
875.9629, 2.826352
876.4450, 2.879950
876.9271, 2.731659
877.4092, 2.577230
877.8914, 2.400889
878.3735, 2.284736
878.8556, 2.324058
879.3377, 2.436711
879.8198, 2.493187
880.3019, 2.467906
880.7841, 2.431534
881.2662, 2.429171
881.7483, 2.443990
882.2304, 2.460711
882.7125, 2.477046
883.1946, 2.483070
883.6768, 2.479892
884.1589, 2.489635
884.6410, 2.528562
885.1231, 2.575249
885.6052, 2.579148
886.0873, 2.538373
886.5695, 2.527606
887.0516, 2.548153
887.5337, 2.611751
888.0158, 2.767241
888.4979, 2.892845
888.9800, 2.808761
889.4622, 2.515801
889.9443, 2.363075
890.4264, 2.473838
890.9085, 2.545782
891.3906, 2.536370
891.8727, 2.495425
892.3549, 2.415572
892.8370, 2.338015
893.3191, 2.350448
893.8012, 2.484654
894.2833, 2.598152
894.7654, 2.589814
895.2476, 2.562314
895.7297, 2.642877
896.2118, 2.748599
896.6939, 2.704005
897.1760, 2.504088
897.6581, 2.325363
898.1403, 2.292688
898.6224, 2.337939
899.1045, 2.366037
899.5866, 2.375328
900.0687, 2.351823
900.5508, 2.295302
901.0330, 2.242078
901.5151, 2.207715
901.9972, 2.193347
902.4793, 2.205549
902.9614, 2.244382
903.4435, 2.251945
903.9257, 2.203686
904.4078, 2.189041
904.8899, 2.235440
905.3720, 2.309773
905.8541, 2.426378
906.3362, 2.548023
906.8184, 2.543005
907.3005, 2.302985
907.7826, 2.199044
908.2647, 2.436661
908.7468, 2.640531
909.2289, 2.578436
909.7111, 2.408049
910.1932, 2.332631
910.6753, 2.372569
911.1574, 2.418819
911.6395, 2.421138
912.1216, 2.406681
912.6038, 2.392209
913.0859, 2.377736
913.5680, 2.368167
914.0501, 2.358888
914.5322, 2.323386
915.0143, 2.251327
915.4965, 2.199466
915.9786, 2.252182
916.4607, 2.377987
916.9428, 2.483616
917.4249, 2.565331
917.9070, 2.544737
918.3892, 2.392954
918.8713, 2.248185
919.3534, 2.221715
919.8355, 2.281919
920.3176, 2.338290
920.7997, 2.398750
921.2819, 2.423205
921.7640, 2.384116
922.2461, 2.362993
922.7282, 2.413578
923.2103, 2.479757
923.6924, 2.479618
924.1746, 2.418365
924.6567, 2.399172
925.1388, 2.492476
925.6209, 2.534667
926.1030, 2.453847
926.5851, 2.353698
927.0673, 2.283395
927.5494, 2.252163
928.0315, 2.276772
928.5136, 2.363023
928.9957, 2.442360
929.4778, 2.503683
929.9600, 2.518829
930.4421, 2.423378
930.9242, 2.287225
931.4063, 2.219974
931.8884, 2.227431
932.3705, 2.248139
932.8527, 2.247378
933.3348, 2.247849
933.8169, 2.294290
934.2990, 2.361801
934.7811, 2.370978
935.2632, 2.328124
935.7454, 2.312921
936.2275, 2.351848
936.7096, 2.360428
937.1917, 2.238245
937.6738, 2.044741
938.1559, 2.028898
938.6381, 2.217899
939.1202, 2.367991
939.6023, 2.460228
940.0844, 2.491387
940.5665, 2.445272
941.0486, 2.354680
941.5308, 2.261188
942.0129, 2.158411
942.4950, 2.122227
942.9771, 2.243421
943.4592, 2.293386
943.9413, 2.130869
944.4235, 1.997135
944.9056, 2.099494
945.3877, 2.328100
945.8698, 2.426505
946.3519, 2.326129
946.8340, 2.263864
947.3162, 2.336998
947.7983, 2.420367
948.2804, 2.471474
948.7625, 2.482166
949.2446, 2.422203
949.7267, 2.313813
950.2089, 2.240459
950.6910, 2.244542
951.1731, 2.273280
951.6552, 2.315095
952.1373, 2.336475
952.6194, 2.250683
953.1016, 2.116727
953.5837, 2.104357
954.0658, 2.244294
954.5479, 2.374851
955.0300, 2.356622
955.5121, 2.264082
955.9943, 2.228362
956.4763, 2.238387
956.9584, 2.249673
957.4406, 2.258257
957.9227, 2.284567
958.4048, 2.339560
958.8869, 2.397766
959.3690, 2.423820
959.8511, 2.422100
960.3333, 2.430565
960.8154, 2.452746
961.2975, 2.457629
961.7796, 2.436974
962.2617, 2.406225
962.7438, 2.370167
963.2260, 2.337602
963.7081, 2.332594
964.1902, 2.368942
964.6723, 2.355255
965.1544, 2.223177
965.6365, 2.156399
966.1187, 2.274334
966.6008, 2.398214
967.0829, 2.371912
967.5650, 2.242813
968.0471, 2.156022
968.5292, 2.129130
969.0114, 2.118958
969.4935, 2.118311
969.9756, 2.134739
970.4577, 2.178631
970.9398, 2.236385
971.4219, 2.326026
971.9041, 2.422165
972.3862, 2.406636
972.8683, 2.148051
973.3504, 1.978270
973.8325, 2.194755
974.3146, 2.458201
974.7968, 2.417895
975.2789, 2.217340
975.7610, 2.165803
976.2431, 2.309361
976.7252, 2.423458
977.2073, 2.335565
977.6895, 2.202996
978.1716, 2.218396
978.6537, 2.296618
979.1358, 2.274638
979.6179, 2.171839
980.1000, 2.114831
980.5822, 2.149749
981.0643, 2.225221
981.5464, 2.304086
982.0285, 2.370737
982.5106, 2.372474
982.9927, 2.325096
983.4749, 2.310151
983.9570, 2.336809
984.4391, 2.359151
984.9212, 2.353917
985.4033, 2.321549
985.8854, 2.243877
986.3676, 2.137441
986.8497, 2.177615
987.3318, 2.383777
987.8139, 2.505693
988.2960, 2.488255
988.7781, 2.405056
989.2603, 2.280429
989.7424, 2.163619
990.2245, 2.166271
990.7066, 2.309841
991.1887, 2.398045
991.6708, 2.419385
992.1530, 2.412184
992.6351, 2.366405
993.1172, 2.323206
993.5993, 2.323686
994.0814, 2.348326
994.5635, 2.332021
995.0457, 2.239085
995.5278, 2.206183
996.0099, 2.295634
996.4920, 2.363134
996.9741, 2.341272
997.4562, 2.309273
997.9384, 2.365885
998.4205, 2.470806
998.9026, 2.465598
999.3847, 2.258421
999.8668, 2.129681
1000.349, 2.192739
1000.831, 2.276598
1001.313, 2.311762
1001.795, 2.316426
1002.277, 2.300754
1002.760, 2.276712
1003.242, 2.281137
1003.724, 2.336512
1004.206, 2.394013
1004.688, 2.471034
1005.170, 2.502169
1005.652, 2.379753
1006.134, 2.207587
1006.616, 2.148135
1007.099, 2.212501
1007.581, 2.291771
1008.063, 2.338080
1008.545, 2.367873
1009.027, 2.383433
1009.509, 2.398238
1009.991, 2.447237
1010.473, 2.503373
1010.956, 2.496942
1011.438, 2.420327
1011.920, 2.341884
1012.402, 2.308096
1012.884, 2.293191
1013.366, 2.260829
1013.848, 2.226830
1014.330, 2.228747
1014.812, 2.257660
1015.295, 2.265424
1015.777, 2.241761
1016.259, 2.246043
1016.741, 2.341990
1017.223, 2.468445
1017.705, 2.515418
1018.187, 2.496181
1018.669, 2.435389
1019.151, 2.346579
1019.634, 2.309770
1020.116, 2.353325
1020.598, 2.404384
1021.080, 2.386994
1021.562, 2.323860
1022.044, 2.271501
1022.526, 2.231142
1023.008, 2.226441
1023.491, 2.259823
1023.973, 2.275309
1024.455, 2.248532
1024.937, 2.201008
1025.419, 2.149379
1025.901, 2.105790
1026.383, 2.142071
1026.865, 2.266908
1027.348, 2.330740
1027.830, 2.308605
1028.312, 2.292222
1028.794, 2.326915
1029.276, 2.372274
1029.758, 2.377366
1030.240, 2.346865
1030.722, 2.314787
1031.204, 2.278102
1031.687, 2.252544
1032.169, 2.235723
1032.651, 2.244090
1033.133, 2.295809
1033.615, 2.358808
1034.097, 2.393429
1034.579, 2.400270
1035.061, 2.385906
1035.543, 2.345111
1036.026, 2.292659
1036.508, 2.201308
1036.990, 2.155025
1037.472, 2.233594
1037.954, 2.333843
1038.436, 2.296892
1038.918, 2.130948
1039.400, 2.086118
1039.883, 2.272694
1040.365, 2.372720
1040.847, 2.283930
1041.329, 2.217441
1041.811, 2.293345
1042.293, 2.423278
1042.775, 2.502587
1043.257, 2.531493
1043.740, 2.526448
1044.222, 2.470740
1044.704, 2.407004
1045.186, 2.295896
1045.668, 2.225057
1046.150, 2.229879
1046.632, 2.297219
1047.114, 2.469096
1047.596, 2.724528
1048.078, 2.797191
1048.561, 2.438442
1049.043, 2.240405
1049.525, 2.434975
1050.007, 2.617176
1050.489, 2.554822
1050.971, 2.398978
1051.453, 2.322102
1051.935, 2.332053
1052.418, 2.383456
1052.900, 2.525702
1053.382, 2.610906
1053.864, 2.580165
1054.346, 2.521510
1054.828, 2.475265
1055.310, 2.430280
1055.792, 2.349775
1056.275, 2.248210
1056.757, 2.222771
1057.239, 2.356454
1057.721, 2.438751
1058.203, 2.388714
1058.685, 2.299761
1059.167, 2.155518
1059.649, 2.047157
1060.131, 2.121226
1060.614, 2.335954
1061.096, 2.460148
1061.578, 2.401995
1062.060, 2.332746
1062.542, 2.267824
1063.024, 2.256542
1063.506, 2.383908
1063.988, 2.540080
1064.470, 2.600166
1064.953, 2.570092
1065.435, 2.523412
1065.917, 2.474217
1066.399, 2.429966
1066.881, 2.395845
1067.363, 2.364819
1067.845, 2.334081
1068.327, 2.303300
1068.810, 2.262847
1069.292, 2.223059
1069.774, 2.215906
1070.256, 2.254909
1070.738, 2.299042
1071.220, 2.323363
1071.702, 2.356196
1072.184, 2.444909
1072.667, 2.526068
1073.149, 2.514950
1073.631, 2.440917
1074.113, 2.399290
1074.595, 2.419124
1075.077, 2.421443
1075.559, 2.356578
1076.041, 2.281977
1076.523, 2.208757
1077.005, 2.158900
1077.488, 2.151988
1077.970, 2.185128
1078.452, 2.262956
1078.934, 2.386163
1079.416, 2.471838
1079.898, 2.479388
1080.380, 2.445518
1080.862, 2.336989
1081.344, 2.242792
1081.827, 2.263766
1082.309, 2.351303
1082.791, 2.415954
1083.273, 2.438204
1083.755, 2.423627
1084.237, 2.339181
1084.719, 2.268486
1085.201, 2.248344
1085.684, 2.260841
1086.166, 2.326881
1086.648, 2.397444
1087.130, 2.390722
1087.612, 2.305056
1088.094, 2.225260
1088.576, 2.179130
1089.058, 2.151389
1089.541, 2.134283
1090.023, 2.134366
1090.505, 2.178330
1090.987, 2.228297
1091.469, 2.237273
1091.951, 2.203535
1092.433, 2.141456
1092.915, 2.022235
1093.397, 1.973549
1093.880, 2.127600
1094.362, 2.272091
1094.844, 2.255206
1095.326, 2.182419
1095.808, 2.167836
1096.290, 2.207616
1096.772, 2.250634
1097.254, 2.286658
1097.736, 2.315723
1098.219, 2.337715
1098.701, 2.352661
1099.183, 2.360619
1099.665, 2.361555
1100.147, 2.353233
1100.629, 2.338549
1101.111, 2.324098
1101.593, 2.311322
1102.076, 2.292845
1102.558, 2.260022
1103.040, 2.230376
1103.522, 2.204349
1104.004, 2.188609
1104.486, 2.206646
1104.968, 2.228990
1105.450, 2.189029
1105.932, 2.085223
1106.415, 2.049675
1106.897, 2.191255
1107.379, 2.277529
1107.861, 2.180718
1108.343, 2.113465
1108.825, 2.240556
1109.307, 2.421082
1109.789, 2.475884
1110.271, 2.413577
1110.754, 2.365294
1111.236, 2.359793
1111.718, 2.336591
1112.200, 2.273003
1112.682, 2.213051
1113.164, 2.137995
1113.646, 2.101273
1114.128, 2.204453
1114.611, 2.383866
1115.093, 2.407990
1115.575, 2.181635
1116.057, 2.090819
1116.539, 2.252057
1117.021, 2.372239
1117.503, 2.372709
1117.985, 2.342750
1118.468, 2.340695
1118.950, 2.346098
1119.432, 2.315659
1119.914, 2.244656
1120.396, 2.194762
1120.878, 2.165972
1121.360, 2.159306
1121.842, 2.182655
1122.324, 2.217014
1122.807, 2.274226
1123.289, 2.306523
1123.771, 2.228436
1124.253, 2.065744
1124.735, 2.046384
1125.217, 2.227772
1125.699, 2.348635
1126.181, 2.383281
1126.663, 2.399646
1127.146, 2.418097
1127.628, 2.433642
1128.110, 2.442116
1128.592, 2.443518
1129.074, 2.437828
1129.556, 2.425098
1130.038, 2.397945
1130.520, 2.348830
1131.003, 2.353523
1131.485, 2.442570
1131.967, 2.494195
1132.449, 2.423727
1132.931, 2.296856
1133.413, 2.213808
1133.895, 2.173717
1134.377, 2.181942
1134.859, 2.236084
1135.342, 2.251761
1135.824, 2.218734
1136.306, 2.211186
1136.788, 2.262362
1137.270, 2.319213
1137.752, 2.327061
1138.234, 2.296822
1138.716, 2.221899
1139.198, 2.132466
1139.681, 2.196583
1140.163, 2.388507
1140.645, 2.500933
1141.127, 2.481706
1141.609, 2.425284
1142.091, 2.393336
1142.573, 2.377764
1143.055, 2.375786
1143.538, 2.377419
1144.020, 2.355469
1144.502, 2.321946
1144.984, 2.304000
1145.466, 2.307517
1145.948, 2.345210
1146.430, 2.420778
1146.912, 2.467540
1147.395, 2.390103
1147.877, 2.296063
1148.359, 2.320274
1148.841, 2.395707
1149.323, 2.427705
1149.805, 2.429686
1150.287, 2.471012
1150.769, 2.553273
1151.251, 2.570386
1151.734, 2.430940
1152.216, 2.304840
1152.698, 2.317455
1153.180, 2.376285
1153.662, 2.439050
1154.144, 2.478405
1154.626, 2.444430
1155.108, 2.361490
1155.590, 2.319706
1156.073, 2.350833
1156.555, 2.372165
1157.037, 2.310721
1157.519, 2.292197
1158.001, 2.432627
1158.483, 2.571819
1158.965, 2.565632
1159.447, 2.483590
1159.930, 2.457072
1160.412, 2.495815
1160.894, 2.511732
1161.376, 2.452556
1161.858, 2.437686
1162.340, 2.523852
1162.822, 2.595873
1163.304, 2.600624
1163.786, 2.584236
1164.269, 2.591707
1164.751, 2.612636
1165.233, 2.611965
1165.715, 2.589672
1166.197, 2.538200
1166.679, 2.422540
1167.161, 2.387393
1167.643, 2.502746
1168.125, 2.584756
1168.608, 2.505208
1169.090, 2.375807
1169.572, 2.361710
1170.054, 2.451709
1170.536, 2.582953
1171.018, 2.762067
1171.500, 2.814437
1171.982, 2.719766
1172.465, 2.682342
1172.947, 2.776384
1173.429, 2.862053
1173.911, 2.819447
1174.393, 2.707933
1174.875, 2.624910
1175.357, 2.570799
1175.839, 2.555804
1176.322, 2.570170
1176.804, 2.564860
1177.286, 2.540139
1177.768, 2.553276
1178.250, 2.629369
1178.732, 2.721403
1179.214, 2.803174
1179.696, 2.851315
1180.178, 2.827075
1180.661, 2.754299
1181.143, 2.631733
1181.625, 2.504884
1182.107, 2.476917
1182.589, 2.551942
1183.071, 2.638430
1183.553, 2.706444
1184.035, 2.723513
1184.517, 2.586624
1185.000, 2.485915
1185.482, 2.626163
1185.964, 2.814517
1186.446, 2.830742
1186.928, 2.726259
1187.410, 2.641686
1187.892, 2.600242
1188.374, 2.640225
1188.857, 2.917761
1189.339, 3.056342
1189.821, 2.850482
1190.303, 2.641352
1190.785, 2.599349
1191.267, 2.631902
1191.749, 2.632522
1192.231, 2.618762
1192.714, 2.667337
1193.196, 2.815621
1193.678, 2.873673
1194.160, 2.790705
1194.642, 2.763867
1195.124, 2.858951
1195.606, 2.936837
1196.088, 2.918178
1196.570, 2.835419
1197.052, 2.718785
1197.535, 2.589555
1198.017, 2.560029
1198.499, 2.628566
1198.981, 2.723431
1199.463, 2.838172
1199.945, 2.951988
1200.427, 3.056731
1200.909, 3.078397
1201.392, 2.957902
1201.874, 2.804151
1202.356, 2.772407
1202.838, 2.819679
1203.320, 2.867578
1203.802, 2.915467
1204.284, 2.983071
1204.766, 3.049616
1205.249, 3.028703
1205.731, 2.906885
1206.213, 2.811361
1206.695, 2.832310
1207.177, 2.875842
1207.659, 2.857322
1208.141, 2.843472
1208.623, 2.947396
1209.105, 3.052010
1209.588, 2.958107
1210.070, 2.736048
1210.552, 2.644880
1211.034, 2.753139
1211.516, 2.842793
1211.998, 2.869694
1212.480, 2.862614
1212.962, 2.777995
1213.444, 2.719942
1213.927, 2.758040
1214.409, 2.839447
1214.891, 2.925910
1215.373, 3.005370
1215.855, 3.018648
1216.337, 2.945279
1216.819, 2.889795
1217.301, 2.841835
1217.784, 2.863623
1218.266, 2.985214
1218.748, 3.098933
1219.230, 3.149080
1219.712, 3.146538
1220.194, 3.101039
1220.676, 3.021765
1221.158, 2.891613
1221.641, 2.749661
1222.123, 2.875554
1222.605, 3.209897
1223.087, 3.350430
1223.569, 3.229108
1224.051, 3.119211
1224.533, 3.176130
1225.015, 3.235557
1225.497, 3.051928
1225.979, 2.860159
1226.462, 3.010915
1226.944, 3.263600
1227.426, 3.292019
1227.908, 3.167630
1228.390, 3.090709
1228.872, 3.089253
1229.354, 3.063260
1229.836, 2.965367
1230.319, 2.878474
1230.801, 2.813554
1231.283, 2.787947
1231.765, 2.816624
1232.247, 2.879752
1232.729, 2.991787
1233.211, 3.113182
1233.693, 3.171430
1234.176, 3.168870
1234.658, 3.177473
1235.140, 3.217602
1235.622, 3.197009
1236.104, 3.080663
1236.586, 3.023397
1237.068, 3.083812
1237.550, 3.146483
1238.032, 3.122886
1238.515, 3.076581
1238.997, 3.126661
1239.479, 3.236701
1239.961, 3.245487
1240.443, 3.179147
1240.925, 3.158543
1241.407, 3.184637
1241.889, 3.200566
1242.371, 3.190963
1242.854, 3.176288
1243.336, 3.167236
1243.818, 3.169233
1244.300, 3.225813
1244.782, 3.255340
1245.264, 3.129424
1245.746, 2.969179
1246.228, 2.916492
1246.711, 2.949161
1247.193, 3.015971
1247.675, 3.098728
1248.157, 3.128464
1248.639, 3.034478
1249.121, 2.995780
1249.603, 3.063845
1250.085, 3.165453
1250.568, 3.353928
1251.050, 3.468400
1251.532, 3.352273
1252.014, 3.148907
1252.496, 3.107858
1252.978, 3.209065
1253.460, 3.205272
1253.942, 3.073432
1254.424, 3.136037
1254.906, 3.423171
1255.389, 3.543720
1255.871, 3.393102
1256.353, 3.267926
1256.835, 3.362360
1257.317, 3.510229
1257.799, 3.491806
1258.281, 3.391653
1258.763, 3.345509
1259.246, 3.338908
1259.728, 3.354445
1260.210, 3.383557
1260.692, 3.431914
1261.174, 3.484167
1261.656, 3.464131
1262.138, 3.319839
1262.620, 3.220696
1263.103, 3.291250
1263.585, 3.362140
1264.067, 3.351746
1264.549, 3.321762
1265.031, 3.313365
1265.513, 3.314509
1265.995, 3.302930
1266.477, 3.282956
1266.959, 3.276123
1267.442, 3.276459
1267.924, 3.323807
1268.406, 3.438486
1268.888, 3.499204
1269.370, 3.475078
1269.852, 3.470044
1270.334, 3.541736
1270.816, 3.582910
1271.298, 3.463489
1271.781, 3.280915
1272.263, 3.230097
1272.745, 3.272537
1273.227, 3.325270
1273.709, 3.386215
1274.191, 3.482723
1274.673, 3.593829
1275.155, 3.639990
1275.638, 3.597534
1276.120, 3.534341
1276.602, 3.456765
1277.084, 3.420740
1277.566, 3.500774
1278.048, 3.375209
1278.530, 3.551817
1279.012, 3.654657
1279.495, 3.687711
1279.977, 3.441877
1280.459, 3.556146
1280.941, 3.526103
1281.423, 3.490141
1281.905, 3.655095
1282.387, 3.449820
1282.869, 3.611588
1283.351, 3.626838
1283.833, 3.709147
1284.316, 3.646267
1284.798, 3.605019
1285.280, 3.510257
1285.762, 3.476435
1286.244, 3.505254
##END=



