##NAMES=Cumengeite
##RRUFFID=R060079
##IDEAL CHEMISTRY=Pb^2+^_21_Cu^2+^_20_Cl_42_(OH)_40_&#183;6H_2_O
##LOCALITY=Amelia mine, Santa Rosalia, Baja California, Mexico
##OWNER=RRUFF
##SOURCE=Marcus Origlieri
##DESCRIPTION=Blue pseudocubo-octahedral crystal
##STATUS=The identification of this mineral has been confirmed by single-crystal X-ray diffraction.
##URL=rruff.info/R060079
93.46680, 57.59305
93.94891, 57.40808
94.43103, 57.48227
94.91315, 57.29242
95.39526, 56.97617
95.87738, 56.86586
96.35950, 56.98704
96.84161, 56.82092
97.32373, 56.01878
97.80585, 54.99630
98.28796, 54.22066
98.77008, 53.80184
99.25220, 53.55087
99.73431, 53.19934
100.2164, 52.68010
100.6985, 52.12721
101.1807, 51.76330
101.6628, 51.51636
102.1449, 51.29515
102.6270, 51.04141
103.1091, 50.76027
103.5912, 50.52986
104.0734, 50.27906
104.5555, 50.14454
105.0376, 50.22080
105.5197, 50.43451
106.0018, 50.64260
106.4839, 50.72054
106.9661, 50.64243
107.4482, 50.59783
107.9303, 50.53914
108.4124, 50.52459
108.8945, 50.61385
109.3766, 50.80598
109.8588, 51.01976
110.3409, 51.14923
110.8230, 51.17870
111.3051, 51.23226
111.7872, 51.28065
112.2693, 51.37050
112.7515, 51.60995
113.2336, 52.08430
113.7157, 52.58858
114.1978, 52.79920
114.6799, 52.71107
115.1620, 52.76031
115.6442, 53.37222
116.1263, 54.51444
116.6084, 55.37972
117.0905, 55.50228
117.5726, 55.44783
118.0547, 55.55632
118.5369, 55.88681
119.0190, 56.38154
119.5011, 57.00991
119.9832, 57.88932
120.4653, 58.60602
120.9474, 58.97791
121.4296, 59.25231
121.9117, 59.65452
122.3938, 60.28312
122.8759, 61.04312
123.3580, 61.63009
123.8401, 61.80296
124.3223, 62.03819
124.8044, 62.48682
125.2865, 63.01217
125.7686, 63.37146
126.2507, 63.39128
126.7328, 63.11316
127.2150, 63.14770
127.6971, 63.78079
128.1792, 64.37198
128.6613, 64.58092
129.1434, 64.45750
129.6255, 64.33809
130.1077, 64.50275
130.5898, 64.92818
131.0719, 65.25169
131.5540, 65.43700
132.0361, 65.52885
132.5182, 65.58138
133.0004, 65.60573
133.4825, 65.55378
133.9646, 65.34273
134.4467, 65.02296
134.9288, 64.69234
135.4109, 64.41249
135.8931, 64.15839
136.3752, 63.82722
136.8573, 63.35035
137.3394, 62.87971
137.8215, 62.52018
138.3036, 62.24256
138.7858, 61.95833
139.2679, 61.64702
139.7500, 61.33630
140.2321, 60.77089
140.7142, 59.63523
141.1963, 58.48838
141.6785, 57.51437
142.1606, 56.74984
142.6427, 56.14710
143.1248, 55.67445
143.6069, 55.44737
144.0890, 55.07998
144.5712, 54.44277
145.0533, 53.77861
145.5354, 53.27330
146.0175, 52.97390
146.4996, 52.75938
146.9817, 52.41759
147.4639, 51.91119
147.9460, 51.31575
148.4281, 50.52926
148.9102, 49.68280
149.3923, 48.96931
149.8744, 48.48219
150.3566, 48.09086
150.8387, 47.46339
151.3208, 46.54053
151.8029, 45.60195
152.2850, 44.70647
152.7671, 43.86611
153.2493, 43.15289
153.7314, 42.65888
154.2135, 42.25387
154.6956, 41.69391
155.1777, 40.92866
155.6598, 40.13070
156.1420, 39.43719
156.6241, 38.85365
157.1062, 38.30729
157.5883, 37.86924
158.0704, 37.41063
158.5525, 36.77274
159.0347, 35.86849
159.5168, 34.91231
159.9989, 34.27025
160.4810, 34.10855
160.9631, 33.86004
161.4452, 33.29623
161.9274, 32.60983
162.4095, 31.95895
162.8916, 31.41195
163.3737, 30.96668
163.8558, 30.63206
164.3379, 30.56246
164.8201, 30.39959
165.3022, 30.04896
165.7843, 29.58320
166.2664, 29.08093
166.7485, 28.57788
167.2306, 28.09018
167.7128, 27.74613
168.1949, 27.71720
168.6770, 27.64825
169.1591, 27.42912
169.6412, 27.10790
170.1233, 26.79694
170.6055, 26.58017
171.0876, 26.45208
171.5697, 26.25227
172.0518, 25.83585
172.5339, 25.49478
173.0160, 25.43984
173.4982, 25.62071
173.9803, 25.76969
174.4624, 25.66244
174.9445, 25.30619
175.4266, 25.04833
175.9087, 24.91748
176.3909, 24.86279
176.8730, 24.88997
177.3551, 25.00332
177.8372, 25.05726
178.3193, 24.86604
178.8014, 24.51338
179.2836, 24.25058
179.7657, 24.18382
180.2478, 24.21783
180.7299, 24.21029
181.2120, 24.14521
181.6941, 24.07354
182.1763, 24.06341
182.6584, 24.07257
183.1405, 24.01421
183.6226, 23.78073
184.1047, 23.44705
184.5868, 23.28160
185.0690, 23.42163
185.5511, 23.52695
186.0332, 23.39502
186.5153, 23.11837
186.9974, 22.87777
187.4795, 22.81974
187.9617, 22.92605
188.4438, 22.93119
188.9259, 22.70975
189.4080, 22.51008
189.8901, 22.43546
190.3722, 22.44772
190.8544, 22.44648
191.3365, 22.33009
191.8186, 22.07973
192.3007, 21.99036
192.7828, 22.30571
193.2649, 22.55226
193.7471, 22.55760
194.2292, 22.34448
194.7113, 22.02098
195.1934, 21.67480
195.6755, 21.28872
196.1576, 20.98795
196.6398, 20.79841
197.1219, 20.64819
197.6040, 20.51740
198.0861, 20.39733
198.5682, 20.27246
199.0503, 20.12324
199.5325, 19.93927
200.0146, 19.80742
200.4967, 19.77515
200.9788, 19.75437
201.4609, 19.70012
201.9430, 19.60351
202.4252, 19.45707
202.9073, 19.24380
203.3894, 18.95407
203.8715, 18.66591
204.3536, 18.32240
204.8357, 18.01464
205.3179, 17.86398
205.8000, 17.89205
206.2821, 17.93819
206.7642, 17.84041
207.2463, 17.61858
207.7284, 17.38722
208.2106, 17.13860
208.6927, 16.90349
209.1748, 16.73751
209.6569, 16.66081
210.1390, 16.59516
210.6211, 16.46764
211.1033, 16.29827
211.5854, 16.13198
212.0675, 15.98234
212.5496, 15.84682
213.0317, 15.72087
213.5138, 15.60909
213.9960, 15.49835
214.4781, 15.34448
214.9602, 15.18278
215.4423, 15.09516
215.9244, 15.19454
216.4065, 15.40932
216.8886, 15.45069
217.3708, 15.22990
217.8529, 14.95699
218.3350, 14.67626
218.8171, 14.42280
219.2992, 14.26523
219.7813, 14.27869
220.2635, 14.43101
220.7456, 14.50392
221.2277, 14.47312
221.7098, 14.37891
222.1919, 14.18209
222.6740, 13.94031
223.1562, 13.75289
223.6383, 13.70387
224.1204, 13.77660
224.6025, 13.76273
225.0846, 13.54254
225.5667, 13.35504
226.0489, 13.26037
226.5310, 13.23706
227.0131, 13.24753
227.4952, 13.27348
227.9773, 13.31008
228.4594, 13.27514
228.9416, 13.07971
229.4237, 12.90224
229.9058, 12.78831
230.3879, 12.72202
230.8700, 12.65951
231.3521, 12.56373
231.8343, 12.44408
232.3164, 12.45947
232.7985, 12.79649
233.2806, 13.05747
233.7627, 13.11599
234.2448, 13.01955
234.7270, 12.86965
235.2091, 12.72485
235.6912, 12.58642
236.1733, 12.46868
236.6554, 12.37643
237.1375, 12.29413
237.6197, 12.20607
238.1018, 12.12391
238.5839, 12.08023
239.0660, 12.10293
239.5481, 12.17256
240.0302, 12.17896
240.5124, 12.10079
240.9945, 11.99802
241.4766, 11.86980
241.9587, 11.73071
242.4408, 11.62278
242.9229, 11.57693
243.4051, 11.56863
243.8872, 11.51226
244.3693, 11.37047
244.8514, 11.24152
245.3335, 11.19139
245.8156, 11.19276
246.2978, 11.15532
246.7799, 11.02310
247.2620, 10.84753
247.7441, 10.74486
248.2262, 10.74349
248.7083, 10.74228
249.1905, 10.67673
249.6726, 10.56599
250.1547, 10.48511
250.6368, 10.48053
251.1189, 10.49499
251.6010, 10.42885
252.0832, 10.26221
252.5653, 10.11419
253.0474, 10.06042
253.5295, 10.08451
254.0116, 10.11799
254.4937, 10.16526
254.9759, 10.18400
255.4580, 10.12067
255.9401, 9.972815
256.4222, 9.823591
256.9043, 9.697750
257.3864, 9.604694
257.8686, 9.615705
258.3507, 9.847825
258.8328, 10.05125
259.3149, 9.964831
259.7970, 9.623509
260.2791, 9.325430
260.7613, 9.327473
261.2434, 9.563853
261.7255, 9.647947
262.2076, 9.443490
262.6897, 9.199305
263.1718, 9.072045
263.6540, 9.044830
264.1361, 9.054932
264.6182, 9.086832
265.1003, 9.131260
265.5824, 9.129820
266.0645, 9.060108
266.5467, 8.971094
267.0288, 8.886904
267.5109, 8.805189
267.9930, 8.720993
268.4751, 8.632807
268.9572, 8.539962
269.4394, 8.434299
269.9215, 8.292238
270.4036, 8.174752
270.8857, 8.109303
271.3678, 8.078947
271.8499, 8.063474
272.3321, 8.063838
272.8142, 8.061739
273.2963, 7.977895
273.7784, 7.714443
274.2605, 7.538238
274.7426, 7.562140
275.2248, 7.688094
275.7069, 7.811959
276.1890, 7.892529
276.6711, 7.921971
277.1532, 7.864575
277.6353, 7.636459
278.1175, 7.479362
278.5996, 7.490056
279.0817, 7.556323
279.5638, 7.562165
280.0459, 7.464462
280.5280, 7.326561
281.0102, 7.279384
281.4923, 7.390252
281.9744, 7.450365
282.4565, 7.409057
282.9386, 7.333908
283.4207, 7.278487
283.9029, 7.255679
284.3850, 7.236708
284.8671, 7.173320
285.3492, 7.038875
285.8313, 6.925573
286.3134, 6.819196
286.7956, 6.743921
287.2777, 6.731380
287.7598, 6.776298
288.2419, 6.833466
288.7240, 6.849218
289.2061, 6.811736
289.6883, 6.774221
290.1704, 6.710953
290.6525, 6.669629
291.1346, 6.692345
291.6167, 6.764908
292.0988, 6.833730
292.5810, 6.849791
293.0631, 6.810256
293.5452, 6.747466
294.0273, 6.611544
294.5094, 6.501531
294.9915, 6.474309
295.4737, 6.501038
295.9558, 6.510220
296.4379, 6.443979
296.9200, 6.310446
297.4021, 6.245450
297.8842, 6.347770
298.3664, 6.416072
298.8485, 6.387013
299.3306, 6.302027
299.8127, 6.227093
300.2948, 6.200044
300.7769, 6.208007
301.2591, 6.199477
301.7412, 6.184218
302.2233, 6.136513
302.7054, 5.982900
303.1875, 5.824378
303.6696, 5.797869
304.1518, 5.956073
304.6339, 6.197411
305.1160, 6.300299
305.5981, 6.141914
306.0802, 6.017792
306.5623, 5.937935
307.0445, 5.889404
307.5266, 5.869013
308.0087, 5.872870
308.4908, 5.887558
308.9729, 5.898245
309.4550, 5.923927
309.9372, 5.891342
310.4193, 5.754873
310.9014, 5.606502
311.3835, 5.501341
311.8656, 5.442756
312.3477, 5.401079
312.8299, 5.342096
313.3120, 5.252818
313.7941, 5.234619
314.2762, 5.381877
314.7583, 5.498216
315.2404, 5.482778
315.7226, 5.367455
316.2047, 5.242585
316.6868, 5.172858
317.1689, 5.156263
317.6510, 5.162724
318.1331, 5.222924
318.6153, 5.272231
319.0974, 5.305601
319.5795, 5.317392
320.0616, 5.293326
320.5437, 5.224116
321.0258, 5.129342
321.5080, 5.073896
321.9901, 5.097213
322.4722, 5.114335
322.9543, 5.108886
323.4364, 5.100690
323.9185, 5.124815
324.4007, 5.188815
324.8828, 5.247696
325.3649, 5.214822
325.8470, 4.997909
326.3291, 4.866101
326.8112, 4.829555
327.2934, 4.855774
327.7755, 4.968705
328.2576, 5.144217
328.7397, 5.279637
329.2218, 5.244234
329.7039, 4.975885
330.1861, 4.841886
330.6682, 4.938626
331.1503, 5.058217
331.6324, 5.132485
332.1145, 5.155727
332.5966, 5.136208
333.0788, 5.073220
333.5609, 4.971880
334.0430, 4.920843
334.5251, 4.946934
335.0072, 4.997886
335.4893, 5.096639
335.9715, 5.206550
336.4536, 5.278677
336.9357, 5.287654
337.4178, 5.245886
337.8999, 5.186725
338.3820, 5.067767
338.8642, 4.997228
339.3463, 5.030018
339.8284, 5.084418
340.3105, 5.072958
340.7926, 4.976970
341.2747, 4.864540
341.7568, 4.849052
342.2390, 4.994053
342.7211, 5.077252
343.2032, 5.045410
343.6853, 5.004089
344.1674, 5.022019
344.6495, 5.092713
345.1317, 5.158555
345.6138, 5.164067
346.0959, 5.105859
346.5780, 5.045083
347.0601, 4.943662
347.5422, 4.878812
348.0244, 4.892684
348.5065, 4.956702
348.9886, 5.018441
349.4707, 5.044549
349.9528, 5.046762
350.4349, 5.075395
350.9171, 5.169267
351.3992, 5.228003
351.8813, 5.203724
352.3634, 5.153477
352.8455, 5.137657
353.3276, 5.176921
353.8098, 5.240057
354.2919, 5.278945
354.7740, 5.294523
355.2561, 5.281568
355.7382, 5.226574
356.2203, 5.153788
356.7025, 5.056198
357.1846, 4.944585
357.6667, 4.862428
358.1488, 4.859172
358.6309, 4.937384
359.1130, 5.024683
359.5952, 5.174491
360.0773, 5.268617
360.5594, 5.207672
361.0415, 5.059322
361.5236, 4.964143
362.0057, 5.019595
362.4879, 5.174267
362.9700, 5.275278
363.4521, 5.315794
363.9342, 5.313457
364.4163, 5.254299
364.8984, 5.168599
365.3806, 5.079380
365.8627, 4.989779
366.3448, 4.918349
366.8269, 4.895846
367.3090, 4.927537
367.7911, 4.957935
368.2733, 4.962805
368.7554, 4.972812
369.2375, 5.031418
369.7196, 5.133245
370.2017, 5.196884
370.6838, 5.130187
371.1660, 4.965652
371.6481, 4.862791
372.1302, 4.855352
372.6123, 4.872233
373.0944, 4.872200
373.5765, 4.859092
374.0587, 4.839956
374.5408, 4.813989
375.0229, 4.785783
375.5050, 4.770018
375.9871, 4.771055
376.4692, 4.745994
376.9514, 4.651394
377.4335, 4.528512
377.9156, 4.437789
378.3977, 4.390050
378.8798, 4.359602
379.3619, 4.312309
379.8441, 4.261807
380.3262, 4.282099
380.8083, 4.429804
381.2904, 4.593618
381.7725, 4.622052
382.2546, 4.521963
382.7368, 4.420887
383.2189, 4.355212
383.7010, 4.313385
384.1831, 4.287796
384.6652, 4.278770
385.1473, 4.257217
385.6295, 4.182489
386.1116, 4.070731
386.5937, 4.021092
387.0758, 4.130681
387.5579, 4.217544
388.0400, 4.127323
388.5222, 3.912677
389.0043, 3.762664
389.4864, 3.780644
389.9685, 3.890791
390.4506, 3.892846
390.9327, 3.717797
391.4149, 3.608998
391.8970, 3.654007
392.3791, 3.774654
392.8612, 3.895419
393.3433, 3.996546
393.8254, 4.061675
394.3076, 4.068500
394.7897, 4.005724
395.2718, 3.931898
395.7539, 3.752296
396.2360, 3.647233
396.7181, 3.807954
397.2003, 4.141662
397.6824, 4.367294
398.1645, 4.295746
398.6466, 3.994303
399.1287, 3.801476
399.6108, 3.794173
400.0930, 3.808255
400.5751, 3.839152
401.0572, 3.878036
401.5393, 3.933160
402.0214, 4.001478
402.5035, 4.041255
402.9857, 3.974264
403.4678, 3.720093
403.9499, 3.595678
404.4320, 3.692821
404.9141, 3.816791
405.3962, 3.850983
405.8784, 3.823831
406.3605, 3.856924
406.8426, 4.067379
407.3247, 4.407877
407.8068, 4.513943
408.2889, 4.181502
408.7711, 3.900789
409.2532, 3.801586
409.7353, 3.795558
410.2174, 3.787169
410.6995, 3.743305
411.1816, 3.695827
411.6638, 3.703392
412.1459, 3.784297
412.6280, 3.819291
413.1101, 3.724462
413.5922, 3.637541
414.0743, 3.652024
414.5565, 3.750494
415.0386, 3.841109
415.5207, 3.844790
416.0028, 3.790450
416.4849, 3.791870
416.9670, 3.877159
417.4492, 3.947831
417.9313, 3.920230
418.4134, 3.857576
418.8955, 3.847014
419.3776, 3.928715
419.8597, 4.021377
420.3419, 4.046176
420.8240, 4.008618
421.3061, 3.954278
421.7882, 3.878247
422.2703, 3.814948
422.7524, 3.813723
423.2346, 3.872123
423.7167, 3.926823
424.1988, 3.946191
424.6809, 3.952802
425.1630, 3.976794
425.6451, 4.020924
426.1273, 4.078720
426.6094, 4.163695
427.0915, 4.257262
427.5736, 4.274132
428.0557, 4.128572
428.5378, 4.000581
429.0200, 3.971241
429.5021, 4.016121
429.9842, 4.094689
430.4663, 4.195609
430.9484, 4.300797
431.4305, 4.380783
431.9127, 4.427671
432.3948, 4.464050
432.8769, 4.460435
433.3590, 4.468829
433.8411, 4.552158
434.3232, 4.692120
434.8054, 4.800907
435.2875, 4.804950
435.7696, 4.716819
436.2517, 4.668951
436.7338, 4.652606
437.2159, 4.690112
437.6981, 4.868169
438.1802, 5.065160
438.6623, 5.118209
439.1444, 4.982831
439.6265, 4.794089
440.1086, 4.766841
440.5908, 4.964811
441.0729, 5.115061
441.5550, 5.202485
442.0371, 5.255887
442.5192, 5.271104
443.0013, 5.260804
443.4835, 5.251122
443.9656, 5.260934
444.4477, 5.281243
444.9298, 5.270978
445.4119, 5.193612
445.8940, 5.180254
446.3762, 5.379140
446.8583, 5.600997
447.3404, 5.660776
447.8225, 5.521043
448.3046, 5.343789
448.7867, 5.267855
449.2689, 5.276431
449.7510, 5.276663
450.2331, 5.251763
450.7152, 5.227331
451.1973, 5.244080
451.6794, 5.279782
452.1616, 5.270304
452.6437, 5.139822
453.1258, 5.003868
453.6079, 4.982958
454.0900, 5.063007
454.5721, 5.166767
455.0543, 5.289903
455.5364, 5.380916
456.0185, 5.299272
456.5006, 4.989478
456.9827, 4.761672
457.4648, 4.748456
457.9470, 4.816587
458.4291, 4.836757
458.9112, 4.789691
459.3933, 4.694778
459.8754, 4.551745
460.3575, 4.364535
460.8397, 4.288526
461.3218, 4.447072
461.8039, 4.553246
462.2860, 4.487487
462.7681, 4.340867
463.2502, 4.238184
463.7324, 4.223037
464.2145, 4.251794
464.6966, 4.257458
465.1787, 4.234012
465.6608, 4.204948
466.1429, 4.132976
466.6251, 4.091057
467.1072, 4.146901
467.5893, 4.259259
468.0714, 4.330500
468.5535, 4.295125
469.0356, 4.187545
469.5178, 4.102714
469.9999, 4.037058
470.4820, 4.003567
470.9641, 4.048807
471.4462, 4.098973
471.9283, 4.092735
472.4105, 4.024701
472.8926, 3.945945
473.3747, 3.874067
473.8568, 3.820273
474.3389, 3.847188
474.8210, 3.993673
475.3032, 4.115949
475.7853, 4.081553
476.2674, 3.960671
476.7495, 3.886478
477.2316, 3.884257
477.7137, 3.925346
478.1959, 4.034764
478.6780, 4.174726
479.1601, 4.227412
479.6422, 4.147012
480.1243, 4.009318
480.6064, 3.901965
481.0886, 3.824115
481.5707, 3.793433
482.0528, 3.821997
482.5349, 3.888863
483.0170, 4.013573
483.4991, 4.168190
483.9813, 4.279088
484.4634, 4.304326
484.9455, 4.264142
485.4276, 4.218169
485.9097, 4.156215
486.3918, 4.103754
486.8740, 4.067986
487.3561, 4.036081
487.8382, 3.993763
488.3203, 3.943659
488.8024, 3.903147
489.2845, 3.886895
489.7667, 3.893514
490.2488, 3.910439
490.7309, 3.954496
491.2130, 3.980652
491.6951, 3.987667
492.1772, 3.968268
492.6594, 3.890126
493.1415, 3.745115
493.6236, 3.632364
494.1057, 3.689026
494.5878, 3.889761
495.0699, 4.012114
495.5521, 4.011872
496.0342, 3.970901
496.5163, 3.951824
496.9984, 3.938284
497.4805, 3.887782
497.9626, 3.755569
498.4448, 3.622990
498.9269, 3.550757
499.4090, 3.533391
499.8911, 3.566283
500.3732, 3.663193
500.8553, 3.761980
501.3375, 3.762207
501.8196, 3.636922
502.3017, 3.553627
502.7838, 3.527584
503.2659, 3.542071
503.7480, 3.619290
504.2302, 3.730167
504.7123, 3.798101
505.1944, 3.777191
505.6765, 3.694024
506.1586, 3.628886
506.6407, 3.625911
507.1228, 3.566410
507.6049, 3.351127
508.0871, 3.158994
508.5692, 3.146072
509.0513, 3.286825
509.5334, 3.422948
510.0155, 3.420593
510.4977, 3.317007
510.9798, 3.307426
511.4619, 3.456138
511.9440, 3.552780
512.4261, 3.478298
512.9083, 3.352866
513.3904, 3.282787
513.8725, 3.285264
514.3546, 3.297959
514.8367, 3.274847
515.3188, 3.226585
515.8010, 3.179271
516.2831, 3.132576
516.7652, 3.099366
517.2473, 3.086720
517.7294, 3.096038
518.2115, 3.130126
518.6937, 3.238009
519.1758, 3.298127
519.6579, 3.213593
520.1400, 3.058382
520.6221, 2.952017
521.1042, 2.922654
521.5864, 2.927704
522.0685, 2.920039
522.5506, 2.895200
523.0327, 2.907266
523.5148, 2.989342
523.9969, 3.064882
524.4791, 3.108932
524.9612, 3.131904
525.4433, 3.158759
525.9254, 3.196187
526.4075, 3.211845
526.8896, 3.132557
527.3718, 2.920216
527.8539, 2.814954
528.3360, 2.902851
528.8181, 3.011954
529.3002, 3.103412
529.7823, 3.159028
530.2645, 3.138821
530.7466, 3.001486
531.2287, 2.847653
531.7108, 2.829089
532.1929, 2.934661
532.6750, 2.988356
533.1572, 2.929253
533.6393, 2.838691
534.1214, 2.788030
534.6035, 2.775144
535.0856, 2.809521
535.5677, 2.965097
536.0499, 3.106202
536.5320, 3.114955
537.0141, 3.022600
537.4962, 2.930969
537.9783, 2.883069
538.4604, 2.854065
538.9426, 2.797949
539.4247, 2.685180
539.9068, 2.623385
540.3889, 2.589837
540.8710, 2.623885
541.3531, 2.829151
541.8353, 3.113576
542.3174, 3.270073
542.7995, 3.178523
543.2816, 2.948201
543.7637, 2.828440
544.2458, 2.857498
544.7280, 2.867517
545.2101, 2.809422
545.6922, 2.750433
546.1743, 2.720944
546.6564, 2.721467
547.1385, 2.748633
547.6207, 2.825683
548.1028, 2.906272
548.5849, 2.900871
549.0670, 2.813739
549.5491, 2.766418
550.0313, 2.818146
550.5134, 2.905599
550.9955, 2.926428
551.4776, 2.877752
551.9597, 2.853096
552.4418, 2.878420
552.9240, 2.927108
553.4061, 3.006003
553.8882, 3.093122
554.3703, 3.126176
554.8524, 3.071662
555.3345, 2.956050
555.8167, 2.834962
556.2988, 2.674397
556.7809, 2.578844
557.2630, 2.569162
557.7451, 2.595214
558.2272, 2.651261
558.7094, 2.719395
559.1915, 2.765174
559.6736, 2.766166
560.1557, 2.743214
560.6378, 2.741826
561.1199, 2.766830
561.6021, 2.781790
562.0842, 2.770277
562.5663, 2.755385
563.0484, 2.760086
563.5305, 2.779952
564.0126, 2.790861
564.4948, 2.770931
564.9769, 2.747690
565.4590, 2.751091
565.9411, 2.776961
566.4232, 2.814036
566.9053, 2.866388
567.3875, 2.897910
567.8696, 2.840178
568.3517, 2.642010
568.8338, 2.532993
569.3159, 2.581647
569.7980, 2.652183
570.2802, 2.685854
570.7623, 2.685387
571.2444, 2.665439
571.7265, 2.632672
572.2086, 2.594310
572.6907, 2.555469
573.1729, 2.501888
573.6550, 2.506927
574.1371, 2.650944
574.6192, 2.772205
575.1013, 2.778703
575.5834, 2.712523
576.0656, 2.660013
576.5477, 2.652224
577.0298, 2.672212
577.5119, 2.728456
577.9940, 2.805102
578.4761, 2.795519
578.9583, 2.643990
579.4404, 2.509843
579.9225, 2.587683
580.4046, 2.860439
580.8867, 2.985494
581.3688, 2.845743
581.8510, 2.675506
582.3331, 2.541690
582.8152, 2.453551
583.2973, 2.428760
583.7794, 2.469015
584.2615, 2.541847
584.7437, 2.615672
585.2258, 2.692873
585.7079, 2.726985
586.1900, 2.664363
586.6721, 2.626223
587.1542, 2.680444
587.6363, 2.753542
588.1184, 2.747010
588.6005, 2.641339
589.0826, 2.541826
589.5648, 2.553813
590.0469, 2.650684
590.5290, 2.742094
591.0111, 2.828876
591.4932, 2.884586
591.9753, 2.893309
592.4575, 2.859138
592.9396, 2.794353
593.4217, 2.680029
593.9038, 2.584034
594.3859, 2.525981
594.8680, 2.497787
595.3502, 2.493529
595.8323, 2.511431
596.3144, 2.553146
596.7965, 2.622567
597.2786, 2.709446
597.7607, 2.776782
598.2429, 2.823196
598.7250, 2.851536
599.2071, 2.870769
599.6892, 2.867251
600.1713, 2.814888
600.6534, 2.730266
601.1356, 2.662711
601.6177, 2.643285
602.0998, 2.653270
602.5819, 2.663583
603.0640, 2.674220
603.5461, 2.687780
604.0283, 2.717785
604.5104, 2.730381
604.9925, 2.658803
605.4746, 2.516576
605.9567, 2.439801
606.4388, 2.509047
606.9210, 2.585860
607.4031, 2.570765
607.8852, 2.509048
608.3673, 2.501518
608.8494, 2.576735
609.3315, 2.661947
609.8137, 2.656185
610.2958, 2.545027
610.7779, 2.494272
611.2600, 2.549173
611.7421, 2.612243
612.2242, 2.683517
612.7064, 2.738737
613.1885, 2.746589
613.6706, 2.701614
614.1527, 2.636687
614.6348, 2.553931
615.1169, 2.474804
615.5991, 2.480451
616.0812, 2.585746
616.5633, 2.684399
617.0454, 2.721812
617.5275, 2.717497
618.0096, 2.716376
618.4918, 2.723021
618.9739, 2.718353
619.4560, 2.687393
619.9381, 2.652455
620.4202, 2.622542
620.9023, 2.604686
621.3845, 2.612851
621.8666, 2.654838
622.3487, 2.724353
622.8308, 2.821589
623.3129, 2.985577
623.7950, 3.053019
624.2772, 2.936751
624.7593, 2.799029
625.2414, 2.689527
625.7235, 2.615051
626.2056, 2.587045
626.6877, 2.619173
627.1699, 2.670600
627.6520, 2.710766
628.1341, 2.738590
628.6162, 2.756109
629.0983, 2.766343
629.5804, 2.736070
630.0626, 2.615711
630.5447, 2.426961
631.0268, 2.338737
631.5089, 2.390484
631.9910, 2.472903
632.4731, 2.626155
632.9553, 2.763864
633.4374, 2.779736
633.9195, 2.691930
634.4016, 2.624170
634.8837, 2.675636
635.3658, 2.795624
635.8480, 2.813910
636.3301, 2.692959
636.8122, 2.635547
637.2943, 2.749205
637.7764, 2.872486
638.2585, 2.869267
638.7407, 2.761819
639.2228, 2.653847
639.7049, 2.553054
640.1870, 2.486045
640.6691, 2.491962
641.1512, 2.545245
641.6334, 2.586437
642.1155, 2.599731
642.5976, 2.613261
643.0797, 2.661261
643.5618, 2.743670
644.0439, 2.785453
644.5261, 2.736066
645.0082, 2.708173
645.4903, 2.721189
645.9724, 2.759807
646.4545, 2.824098
646.9366, 2.904898
647.4188, 2.966174
647.9009, 2.970507
648.3830, 2.942480
648.8651, 2.944021
649.3472, 2.976381
649.8293, 2.982039
650.3115, 2.936990
650.7936, 2.864343
651.2757, 2.775550
651.7578, 2.666461
652.2399, 2.631113
652.7220, 2.751212
653.2042, 2.867350
653.6863, 2.887285
654.1684, 2.855765
654.6505, 2.849963
655.1326, 2.888927
655.6147, 2.929245
656.0969, 2.919278
656.5790, 2.862488
657.0611, 2.814981
657.5432, 2.757134
658.0253, 2.750234
658.5074, 2.888261
658.9896, 3.041459
659.4717, 3.080786
659.9538, 3.001510
660.4359, 2.936155
660.9180, 2.960686
661.4001, 3.013741
661.8823, 3.049739
662.3644, 3.060026
662.8465, 3.010245
663.3286, 2.883400
663.8107, 2.738856
664.2928, 2.655147
664.7750, 2.633958
665.2571, 2.661153
665.7392, 2.806304
666.2213, 2.918434
666.7034, 2.945846
667.1855, 2.931564
667.6677, 2.919985
668.1498, 2.920614
668.6319, 2.922448
669.1140, 2.920057
669.5961, 2.911680
670.0782, 2.885401
670.5604, 2.841212
671.0425, 2.815530
671.5246, 2.821664
672.0067, 2.856822
672.4888, 2.930444
672.9709, 3.062798
673.4531, 3.120694
673.9352, 3.019007
674.4173, 2.932132
674.8994, 2.960480
675.3815, 3.042421
675.8636, 3.085960
676.3458, 3.067149
676.8279, 3.033390
677.3100, 3.043513
677.7921, 3.084728
678.2742, 3.056746
678.7563, 2.927997
679.2385, 2.849988
679.7206, 2.903417
680.2027, 3.014966
680.6848, 3.099263
681.1669, 3.157287
681.6490, 3.187363
682.1312, 3.181442
682.6133, 3.154684
683.0954, 3.103754
683.5775, 3.042570
684.0596, 2.998487
684.5417, 2.979286
685.0239, 2.966817
685.5060, 2.936986
685.9881, 2.891270
686.4702, 2.878384
686.9523, 2.924305
687.4344, 2.952913
687.9166, 2.893302
688.3987, 2.841372
688.8808, 2.915217
689.3629, 3.103641
689.8450, 3.214854
690.3271, 3.106693
690.8093, 2.933997
691.2914, 2.829274
691.7735, 2.783785
692.2556, 2.770287
692.7377, 2.780571
693.2198, 2.819109
693.7020, 2.901237
694.1841, 3.025661
694.6662, 3.078286
695.1483, 3.007919
695.6304, 2.938343
696.1125, 2.879047
696.5947, 2.836551
697.0768, 2.826145
697.5589, 2.840964
698.0410, 2.842431
698.5231, 2.774968
699.0052, 2.720416
699.4874, 2.839507
699.9695, 3.072336
700.4516, 3.142922
700.9337, 2.969446
701.4158, 2.760852
701.8979, 2.724307
702.3801, 2.847324
702.8622, 2.920445
703.3443, 2.900452
703.8264, 2.886009
704.3085, 2.899114
704.7906, 2.910413
705.2728, 2.896060
705.7549, 2.858397
706.2370, 2.808907
706.7191, 2.741310
707.2012, 2.691961
707.6833, 2.727751
708.1655, 2.833322
708.6476, 2.926369
709.1297, 2.992700
709.6118, 3.040655
710.0939, 3.079856
710.5760, 3.106130
711.0582, 3.095514
711.5403, 3.025330
712.0224, 2.952607
712.5045, 2.868560
712.9866, 2.794182
713.4688, 2.715471
713.9509, 2.661119
714.4330, 2.716198
714.9151, 2.938205
715.3972, 3.177297
715.8793, 3.219511
716.3615, 3.093243
716.8436, 2.960883
717.3257, 2.831445
717.8078, 2.747418
718.2899, 2.751236
718.7720, 2.808952
719.2542, 2.826703
719.7363, 2.776043
720.2184, 2.758564
720.7005, 2.838962
721.1826, 2.900055
721.6647, 2.821497
722.1469, 2.686314
722.6290, 2.675636
723.1111, 2.850795
723.5932, 3.040366
724.0753, 3.002168
724.5574, 2.796135
725.0396, 2.758689
725.5217, 2.920365
726.0038, 3.091576
726.4859, 3.208561
726.9680, 3.268427
727.4501, 3.250497
727.9323, 3.139468
728.4144, 3.050560
728.8965, 2.992832
729.3786, 2.954574
729.8607, 2.926876
730.3428, 2.917521
730.8250, 2.950567
731.3071, 3.022868
731.7892, 3.085979
732.2713, 3.094606
732.7534, 3.063389
733.2355, 3.039884
733.7177, 3.026001
734.1998, 2.969805
734.6819, 2.830060
735.1640, 2.697798
735.6461, 2.669450
736.1282, 2.744579
736.6104, 2.831346
737.0925, 2.963821
737.5746, 3.063713
738.0567, 3.124112
738.5388, 3.134387
739.0209, 3.041308
739.5031, 2.882449
739.9852, 2.790152
740.4673, 2.854695
740.9494, 2.988642
741.4315, 3.050864
741.9136, 3.045900
742.3958, 3.020326
742.8779, 2.976823
743.3600, 2.926226
743.8421, 2.861356
744.3242, 2.800021
744.8063, 2.809968
745.2885, 2.939364
745.7706, 3.033149
746.2527, 3.080551
746.7348, 3.087666
747.2169, 3.017605
747.6990, 2.920628
748.1812, 2.896192
748.6633, 2.978051
749.1454, 3.068339
749.6275, 3.036605
750.1096, 2.929754
750.5917, 2.918317
751.0739, 3.010651
751.5560, 3.099796
752.0381, 3.146297
752.5202, 3.159239
753.0023, 3.148599
753.4844, 3.110484
753.9666, 3.072439
754.4487, 3.019516
754.9308, 2.984809
755.4129, 3.005807
755.8950, 3.031167
756.3771, 2.986307
756.8593, 2.881630
757.3414, 2.817484
757.8235, 2.867316
758.3056, 2.979959
758.7877, 3.111822
759.2698, 3.246067
759.7520, 3.287654
760.2341, 3.210654
760.7162, 3.111065
761.1983, 3.059855
761.6804, 3.054140
762.1625, 3.081279
762.6447, 3.191863
763.1268, 3.251632
763.6089, 3.208672
764.0910, 3.165893
764.5731, 3.181577
765.0552, 3.236374
765.5374, 3.298219
766.0195, 3.364117
766.5016, 3.386213
766.9837, 3.292046
767.4658, 3.147315
767.9479, 3.045439
768.4301, 2.995634
768.9122, 3.019306
769.3943, 3.131462
769.8764, 3.261098
770.3585, 3.295317
770.8406, 3.223072
771.3228, 3.172156
771.8049, 3.151609
772.2870, 3.138224
772.7691, 3.127070
773.2512, 3.119279
773.7333, 3.115783
774.2155, 3.116688
774.6976, 3.122029
775.1797, 3.137343
775.6618, 3.151371
776.1439, 3.144990
776.6260, 3.136575
777.1082, 3.169291
777.5903, 3.240438
778.0724, 3.289018
778.5545, 3.267400
779.0366, 3.205703
779.5187, 3.191288
780.0009, 3.237442
780.4830, 3.241137
780.9651, 3.160749
781.4472, 3.094162
781.9293, 3.103264
782.4114, 3.164520
782.8936, 3.243966
783.3757, 3.360640
783.8578, 3.419461
784.3399, 3.341630
784.8220, 3.253113
785.3041, 3.245306
785.7863, 3.285502
786.2684, 3.306355
786.7505, 3.289749
787.2326, 3.270060
787.7147, 3.291963
788.1968, 3.332407
788.6790, 3.298594
789.1611, 3.188545
789.6432, 3.131207
790.1253, 3.170636
790.6074, 3.250543
791.0895, 3.332425
791.5717, 3.411281
792.0538, 3.424100
792.5359, 3.286728
793.0180, 3.206141
793.5001, 3.257136
793.9822, 3.318913
794.4644, 3.291065
794.9465, 3.211497
795.4286, 3.183126
795.9107, 3.248619
796.3928, 3.338946
796.8749, 3.416081
797.3571, 3.467370
797.8392, 3.454163
798.3213, 3.383737
798.8034, 3.310516
799.2855, 3.254985
799.7676, 3.235963
800.2498, 3.297329
800.7319, 3.449043
801.2140, 3.471284
801.6961, 3.251886
802.1782, 3.105221
802.6603, 3.174421
803.1425, 3.299330
803.6246, 3.376648
804.1067, 3.404617
804.5888, 3.398269
805.0709, 3.332515
805.5530, 3.274404
806.0352, 3.255234
806.5173, 3.265263
806.9994, 3.295535
807.4815, 3.343780
807.9636, 3.417006
808.4457, 3.520945
808.9279, 3.621212
809.4100, 3.665678
809.8921, 3.655858
810.3742, 3.593163
810.8563, 3.460221
811.3384, 3.365115
811.8206, 3.359030
812.3027, 3.411128
812.7848, 3.496628
813.2669, 3.632879
813.7490, 3.664544
814.2311, 3.499974
814.7133, 3.349896
815.1954, 3.261357
815.6775, 3.219244
816.1596, 3.211526
816.6417, 3.235319
817.1238, 3.298214
817.6060, 3.429979
818.0881, 3.541696
818.5702, 3.510401
819.0523, 3.397776
819.5344, 3.334946
820.0165, 3.335091
820.4987, 3.369740
820.9808, 3.428009
821.4629, 3.479032
821.9450, 3.457935
822.4271, 3.349613
822.9092, 3.276813
823.3914, 3.244278
823.8735, 3.238018
824.3556, 3.268117
824.8377, 3.311782
825.3198, 3.351450
825.8019, 3.385631
826.2841, 3.400455
826.7662, 3.402918
827.2483, 3.373645
827.7304, 3.260040
828.2125, 3.140435
828.6946, 3.103192
829.1768, 3.143109
829.6589, 3.210028
830.1410, 3.282182
830.6231, 3.335416
831.1052, 3.313508
831.5873, 3.242751
832.0695, 3.245609
832.5516, 3.331222
833.0337, 3.380166
833.5158, 3.321857
833.9979, 3.257286
834.4800, 3.356330
834.9622, 3.647427
835.4443, 3.789390
835.9264, 3.681633
836.4085, 3.570655
836.8906, 3.458912
837.3727, 3.397392
837.8549, 3.478703
838.3370, 3.650311
838.8191, 3.714149
839.3012, 3.560843
839.7833, 3.399561
840.2654, 3.321253
840.7476, 3.311218
841.2297, 3.407863
841.7118, 3.556588
842.1939, 3.600312
842.6760, 3.474862
843.1581, 3.300787
843.6403, 3.222286
844.1224, 3.226710
844.6045, 3.261304
845.0866, 3.328755
845.5687, 3.380871
846.0508, 3.407252
846.5330, 3.397849
847.0151, 3.329174
847.4972, 3.210154
847.9793, 3.142226
848.4614, 3.167603
848.9435, 3.180677
849.4257, 3.142244
849.9078, 3.124960
850.3899, 3.206507
850.8720, 3.326739
851.3541, 3.357811
851.8362, 3.257799
852.3184, 3.192228
852.8005, 3.320843
853.2826, 3.464695
853.7647, 3.419268
854.2468, 3.261267
854.7289, 3.173589
855.2111, 3.196187
855.6932, 3.220598
856.1753, 3.138287
856.6574, 3.016995
857.1395, 3.074607
857.6216, 3.309717
858.1038, 3.419274
858.5859, 3.338807
859.0680, 3.219096
859.5501, 3.142362
860.0322, 3.104627
860.5143, 3.102219
860.9965, 3.163365
861.4786, 3.172664
861.9607, 3.039423
862.4428, 2.967670
862.9249, 3.105472
863.4070, 3.272026
863.8892, 3.252810
864.3713, 3.061603
864.8534, 2.921955
865.3355, 2.921484
865.8176, 2.993279
866.2997, 3.167881
866.7819, 3.344836
867.2640, 3.368369
867.7461, 3.261363
868.2282, 3.156751
868.7103, 3.119190
869.1924, 3.115970
869.6746, 3.119403
870.1567, 3.121307
870.6388, 3.052284
871.1209, 2.908249
871.6030, 2.866018
872.0851, 3.006157
872.5673, 3.179242
873.0494, 3.223420
873.5315, 3.153456
874.0136, 3.113448
874.4957, 3.147920
874.9778, 3.129630
875.4600, 2.975117
875.9421, 2.840989
876.4242, 2.805289
876.9063, 2.838711
877.3884, 2.907191
877.8705, 3.019426
878.3527, 3.066778
878.8348, 2.923812
879.3169, 2.795409
879.7990, 2.878489
880.2811, 3.033599
880.7632, 3.023399
881.2454, 2.845065
881.7275, 2.710093
882.2096, 2.769780
882.6917, 2.910206
883.1738, 2.992017
883.6559, 3.014747
884.1381, 2.952959
884.6202, 2.811868
885.1023, 2.691342
885.5844, 2.638939
886.0665, 2.643196
886.5486, 2.696804
887.0308, 2.801637
887.5129, 2.857191
887.9950, 2.843140
888.4771, 2.836293
888.9592, 2.871573
889.4413, 2.899627
889.9235, 2.875519
890.4056, 2.808681
890.8877, 2.731399
891.3698, 2.592003
891.8519, 2.544741
892.3340, 2.702926
892.8162, 2.863473
893.2983, 2.928245
893.7804, 2.913676
894.2625, 2.829443
894.7446, 2.689000
895.2267, 2.578130
895.7089, 2.564040
896.1910, 2.586077
896.6731, 2.571620
897.1552, 2.556208
897.6373, 2.637024
898.1194, 2.797442
898.6016, 2.891890
899.0837, 2.834419
899.5658, 2.709525
900.0479, 2.649807
900.5300, 2.647506
901.0121, 2.636494
901.4943, 2.614043
901.9764, 2.607751
902.4585, 2.635560
902.9406, 2.651325
903.4227, 2.600408
903.9048, 2.492401
904.3870, 2.411251
904.8691, 2.343071
905.3512, 2.331153
905.8333, 2.445919
906.3154, 2.541268
906.7975, 2.517186
907.2797, 2.443231
907.7618, 2.433857
908.2439, 2.506771
908.7260, 2.551306
909.2081, 2.522445
909.6902, 2.480294
910.1724, 2.444859
910.6545, 2.417446
911.1366, 2.399109
911.6187, 2.388787
912.1008, 2.382396
912.5829, 2.377487
913.0651, 2.378676
913.5472, 2.396990
914.0293, 2.420654
914.5114, 2.410240
914.9935, 2.385598
915.4756, 2.447389
915.9578, 2.618900
916.4398, 2.753216
916.9219, 2.685786
917.4041, 2.492959
917.8862, 2.440085
918.3683, 2.529243
918.8504, 2.545065
919.3325, 2.448064
919.8146, 2.320391
920.2968, 2.187457
920.7789, 2.089679
921.2610, 2.112168
921.7431, 2.279918
922.2252, 2.414660
922.7073, 2.547600
923.1895, 2.596789
923.6716, 2.441111
924.1537, 2.283931
924.6358, 2.313994
925.1179, 2.465497
925.6000, 2.502497
926.0822, 2.302448
926.5643, 2.214868
927.0464, 2.501424
927.5285, 2.741651
928.0106, 2.587638
928.4927, 2.269982
928.9749, 2.132530
929.4570, 2.219272
929.9391, 2.335300
930.4212, 2.371403
930.9033, 2.394223
931.3854, 2.502655
931.8676, 2.619933
932.3497, 2.592950
932.8318, 2.450442
933.3139, 2.358559
933.7960, 2.388516
934.2781, 2.442210
934.7603, 2.376781
935.2424, 2.250823
935.7245, 2.289596
936.2066, 2.475774
936.6887, 2.595092
937.1708, 2.599252
937.6530, 2.561657
938.1351, 2.533789
938.6172, 2.501973
939.0993, 2.417029
939.5814, 2.249251
940.0635, 2.202020
940.5457, 2.328736
941.0278, 2.444351
941.5099, 2.493908
941.9920, 2.499157
942.4741, 2.473756
942.9562, 2.420762
943.4384, 2.370929
943.9205, 2.292157
944.4026, 2.265565
944.8847, 2.356568
945.3668, 2.432766
945.8489, 2.396751
946.3311, 2.323635
946.8132, 2.332590
947.2953, 2.433083
947.7774, 2.499574
948.2595, 2.449127
948.7416, 2.402632
949.2238, 2.433391
949.7059, 2.489290
950.1880, 2.531255
950.6701, 2.548763
951.1522, 2.531802
951.6343, 2.476648
952.1165, 2.406030
952.5986, 2.313181
953.0807, 2.233924
953.5628, 2.225034
954.0449, 2.267034
954.5270, 2.330985
955.0092, 2.399581
955.4913, 2.413517
955.9734, 2.327808
956.4555, 2.222733
956.9376, 2.244084
957.4197, 2.365380
957.9019, 2.456027
958.3840, 2.511402
958.8661, 2.520366
959.3482, 2.474078
959.8303, 2.437084
960.3124, 2.478982
960.7946, 2.568597
961.2767, 2.574298
961.7588, 2.473736
962.2409, 2.402197
962.7230, 2.367546
963.2051, 2.366010
963.6873, 2.422535
964.1694, 2.477313
964.6515, 2.445275
965.1336, 2.326401
965.6157, 2.226750
966.0978, 2.138547
966.5800, 2.082285
967.0621, 2.054898
967.5442, 2.063431
968.0263, 2.122247
968.5084, 2.214957
968.9905, 2.331805
969.4727, 2.477065
969.9548, 2.560439
970.4369, 2.520939
970.9190, 2.468487
971.4011, 2.432437
971.8832, 2.411356
972.3654, 2.403003
972.8475, 2.407741
973.3296, 2.437327
973.8117, 2.500059
974.2938, 2.528674
974.7759, 2.429311
975.2581, 2.334004
975.7402, 2.383694
976.2223, 2.498814
976.7044, 2.572189
977.1865, 2.581937
977.6686, 2.520231
978.1508, 2.371572
978.6329, 2.240621
979.1150, 2.271532
979.5971, 2.380650
980.0792, 2.396946
980.5613, 2.353484
981.0435, 2.411084
981.5256, 2.591843
982.0077, 2.716251
982.4898, 2.639150
982.9719, 2.459688
983.4540, 2.363312
983.9362, 2.337906
984.4183, 2.309418
984.9004, 2.274488
985.3825, 2.264836
985.8646, 2.293662
986.3467, 2.328857
986.8289, 2.338215
987.3110, 2.327342
987.7931, 2.316959
988.2752, 2.305927
988.7573, 2.300637
989.2394, 2.294555
989.7216, 2.329957
990.2037, 2.453362
990.6858, 2.569398
991.1679, 2.543540
991.6500, 2.385704
992.1321, 2.287189
992.6143, 2.275306
993.0964, 2.260966
993.5785, 2.226667
994.0606, 2.202176
994.5427, 2.191618
995.0248, 2.206453
995.5070, 2.288343
995.9891, 2.447777
996.4712, 2.513372
996.9533, 2.404051
997.4354, 2.312316
997.9175, 2.283337
998.3997, 2.263444
998.8818, 2.205472
999.3639, 2.140285
999.8460, 2.134298
1000.328, 2.200510
1000.810, 2.232200
1001.292, 2.165065
1001.774, 2.107896
1002.257, 2.110641
1002.739, 2.134709
1003.221, 2.152208
1003.703, 2.161993
1004.185, 2.168379
1004.667, 2.172318
1005.149, 2.176838
1005.631, 2.172494
1006.114, 2.181393
1006.596, 2.251020
1007.078, 2.320898
1007.560, 2.287265
1008.042, 2.187067
1008.524, 2.163496
1009.006, 2.275750
1009.488, 2.377501
1009.970, 2.343554
1010.453, 2.247236
1010.935, 2.148481
1011.417, 2.056985
1011.899, 1.979428
1012.381, 1.921354
1012.863, 1.890991
1013.345, 1.891867
1013.827, 1.935724
1014.310, 2.086907
1014.792, 2.261783
1015.274, 2.290024
1015.756, 2.206445
1016.238, 2.097493
1016.720, 1.994384
1017.202, 1.960937
1017.684, 2.040004
1018.166, 2.160112
1018.649, 2.224128
1019.131, 2.240439
1019.613, 2.233678
1020.095, 2.206926
1020.577, 2.170126
1021.059, 2.126810
1021.541, 2.111711
1022.023, 2.153208
1022.505, 2.212367
1022.988, 2.217603
1023.470, 2.171301
1023.952, 2.087363
1024.434, 1.964124
1024.916, 1.902233
1025.398, 1.932009
1025.880, 1.983337
1026.362, 2.003980
1026.845, 2.006793
1027.327, 2.029762
1027.809, 2.078127
1028.291, 2.055790
1028.773, 1.943051
1029.255, 1.871564
1029.737, 1.879078
1030.219, 1.935536
1030.702, 2.033526
1031.184, 2.139256
1031.666, 2.144248
1032.148, 2.013320
1032.630, 1.985767
1033.112, 2.112721
1033.594, 2.193814
1034.076, 2.157606
1034.558, 2.089555
1035.041, 2.047879
1035.523, 2.036050
1036.005, 2.074558
1036.487, 2.207321
1036.969, 2.224779
1037.451, 2.041874
1037.933, 1.906403
1038.415, 1.903433
1038.897, 1.944938
1039.380, 1.962871
1039.862, 1.968430
1040.344, 2.005141
1040.826, 2.113231
1041.308, 2.130946
1041.790, 1.947677
1042.272, 1.834000
1042.754, 1.930657
1043.237, 2.053320
1043.719, 2.054634
1044.201, 1.968700
1044.683, 1.883844
1045.165, 1.772159
1045.647, 1.752425
1046.129, 1.934089
1046.611, 2.068593
1047.094, 2.056831
1047.576, 2.004519
1048.058, 1.984573
1048.540, 1.992553
1049.022, 2.016895
1049.504, 2.075792
1049.986, 2.074655
1050.468, 1.929148
1050.950, 1.816420
1051.432, 1.825989
1051.915, 1.859173
1052.397, 1.802245
1052.879, 1.711762
1053.361, 1.751871
1053.843, 1.979145
1054.325, 2.136433
1054.807, 2.111709
1055.289, 2.081284
1055.772, 2.129142
1056.254, 2.178616
1056.736, 2.163507
1057.218, 2.100328
1057.700, 2.026763
1058.182, 1.944920
1058.664, 1.895049
1059.146, 1.909527
1059.629, 1.930161
1060.111, 1.945888
1060.593, 1.947255
1061.075, 1.907223
1061.557, 1.853794
1062.039, 1.843404
1062.521, 1.887302
1063.003, 1.947964
1063.485, 2.067448
1063.968, 2.129884
1064.450, 2.017232
1064.932, 1.890074
1065.414, 1.908066
1065.896, 2.001782
1066.378, 2.023090
1066.860, 1.945879
1067.342, 1.866558
1067.824, 1.800174
1068.307, 1.768236
1068.789, 1.811612
1069.271, 1.863208
1069.753, 1.865110
1070.235, 1.837358
1070.717, 1.824715
1071.199, 1.831810
1071.681, 1.817227
1072.164, 1.719154
1072.646, 1.664904
1073.128, 1.763656
1073.610, 1.877824
1074.092, 1.897545
1074.574, 1.859668
1075.056, 1.823490
1075.538, 1.801128
1076.021, 1.791486
1076.503, 1.797291
1076.985, 1.809491
1077.467, 1.822033
1077.949, 1.841178
1078.431, 1.892840
1078.913, 1.941469
1079.395, 1.922936
1079.877, 1.848048
1080.359, 1.803619
1080.842, 1.835404
1081.324, 1.857237
1081.806, 1.822586
1082.288, 1.770791
1082.770, 1.693590
1083.252, 1.638257
1083.734, 1.677285
1084.216, 1.791173
1084.698, 1.891100
1085.181, 1.952778
1085.663, 1.989567
1086.145, 2.001673
1086.627, 1.997758
1087.109, 1.956625
1087.591, 1.922657
1088.073, 1.982278
1088.555, 2.084172
1089.038, 2.061424
1089.520, 1.853260
1090.002, 1.709184
1090.484, 1.770922
1090.966, 1.874669
1091.448, 1.993338
1091.930, 2.065477
1092.412, 1.996037
1092.895, 1.850866
1093.377, 1.764817
1093.859, 1.764732
1094.341, 1.802142
1094.823, 1.931750
1095.305, 1.998377
1095.787, 1.867379
1096.269, 1.718575
1096.751, 1.688981
1097.234, 1.736718
1097.716, 1.788852
1098.198, 1.833359
1098.680, 1.876169
1099.162, 1.952409
1099.644, 1.973996
1100.126, 1.842250
1100.608, 1.726261
1101.090, 1.776400
1101.573, 1.871075
1102.055, 1.826545
1102.537, 1.663633
1103.019, 1.588491
1103.501, 1.685247
1103.983, 1.775565
1104.465, 1.810136
1104.947, 1.839767
1105.430, 1.923785
1105.912, 1.984834
1106.394, 1.923076
1106.876, 1.774606
1107.358, 1.665371
1107.840, 1.619864
1108.322, 1.581701
1108.804, 1.524368
1109.286, 1.496949
1109.769, 1.537962
1110.251, 1.591621
1110.733, 1.612949
1111.215, 1.617676
1111.697, 1.638256
1112.179, 1.676352
1112.661, 1.732079
1113.143, 1.852536
1113.625, 1.920738
1114.108, 1.872120
1114.590, 1.820795
1115.072, 1.865101
1115.554, 1.919959
1116.036, 1.840064
1116.518, 1.631285
1117.000, 1.520241
1117.482, 1.549427
1117.965, 1.602112
1118.447, 1.723341
1118.929, 1.792734
1119.411, 1.725516
1119.893, 1.633185
1120.375, 1.628046
1120.857, 1.692452
1121.339, 1.757401
1121.822, 1.858900
1122.304, 1.832115
1122.786, 1.565586
1123.268, 1.439778
1123.750, 1.633669
1124.232, 1.835399
1124.714, 1.801468
1125.196, 1.631628
1125.678, 1.537489
1126.161, 1.523214
1126.643, 1.528064
1127.125, 1.555360
1127.607, 1.591760
1128.089, 1.643080
1128.571, 1.673819
1129.053, 1.662614
1129.535, 1.626101
1130.017, 1.578976
1130.500, 1.530571
1130.982, 1.556067
1131.464, 1.664129
1131.946, 1.713063
1132.428, 1.687142
1132.910, 1.635444
1133.392, 1.567878
1133.874, 1.558964
1134.357, 1.690219
1134.839, 1.894686
1135.321, 2.026451
1135.803, 2.083474
1136.285, 2.002706
1136.767, 1.799711
1137.249, 1.724322
1137.731, 1.827711
1138.214, 1.901865
1138.696, 1.814143
1139.178, 1.682668
1139.660, 1.699954
1140.142, 1.796353
1140.624, 1.723471
1141.106, 1.548739
1141.588, 1.548192
1142.070, 1.717393
1142.552, 1.824990
1143.035, 1.782881
1143.517, 1.726038
1143.999, 1.787229
1144.481, 1.878473
1144.963, 1.865748
1145.445, 1.791565
1145.927, 1.702784
1146.409, 1.628970
1146.892, 1.654667
1147.374, 1.771605
1147.856, 1.831562
1148.338, 1.741184
1148.820, 1.628822
1149.302, 1.594974
1149.784, 1.608110
1150.266, 1.660966
1150.749, 1.721871
1151.231, 1.741229
1151.713, 1.728517
1152.195, 1.728308
1152.677, 1.754530
1153.159, 1.777412
1153.641, 1.805517
1154.123, 1.794372
1154.605, 1.671493
1155.088, 1.543927
1155.570, 1.506991
1156.052, 1.527238
1156.534, 1.544761
1157.016, 1.552761
1157.498, 1.575546
1157.980, 1.642260
1158.462, 1.676154
1158.944, 1.613263
1159.427, 1.570152
1159.909, 1.625379
1160.391, 1.701594
1160.873, 1.726000
1161.355, 1.710889
1161.837, 1.698668
1162.319, 1.692667
1162.801, 1.682598
1163.284, 1.643221
1163.766, 1.642036
1164.248, 1.706612
1164.730, 1.787671
1165.212, 1.889995
1165.694, 1.958393
1166.176, 1.894628
1166.658, 1.720903
1167.141, 1.650812
1167.623, 1.717685
1168.105, 1.751877
1168.587, 1.742089
1169.069, 1.712059
1169.551, 1.664023
1170.033, 1.616774
1170.515, 1.581331
1170.997, 1.566420
1171.479, 1.598009
1171.962, 1.670881
1172.444, 1.722820
1172.926, 1.753711
1173.408, 1.755028
1173.890, 1.726653
1174.372, 1.687267
1174.854, 1.645401
1175.336, 1.630402
1175.819, 1.677416
1176.301, 1.764459
1176.783, 1.890156
1177.265, 2.005053
1177.747, 1.939850
1178.229, 1.745219
1178.711, 1.611268
1179.193, 1.580785
1179.676, 1.604410
1180.158, 1.658785
1180.640, 1.720795
1181.122, 1.780517
1181.604, 1.824568
1182.086, 1.847553
1182.568, 1.839507
1183.050, 1.752989
1183.532, 1.632800
1184.015, 1.597580
1184.497, 1.668905
1184.979, 1.717600
1185.461, 1.652538
1185.943, 1.604645
1186.425, 1.664144
1186.907, 1.726477
1187.389, 1.712116
1187.871, 1.669384
1188.354, 1.638092
1188.836, 1.633957
1189.318, 1.709425
1189.800, 1.920872
1190.282, 2.018848
1190.764, 1.863682
1191.246, 1.762559
1191.728, 1.824929
1192.211, 1.885087
1192.693, 1.850548
1193.175, 1.766665
1193.657, 1.691427
1194.139, 1.623855
1194.621, 1.551262
1195.103, 1.459939
1195.585, 1.420482
1196.068, 1.433860
1196.550, 1.525874
1197.032, 1.728191
1197.514, 1.873932
1197.996, 1.830908
1198.478, 1.697981
1198.960, 1.636918
1199.442, 1.643256
1199.924, 1.713823
1200.406, 1.832966
1200.889, 1.903702
1201.371, 1.918097
1201.853, 1.919099
1202.335, 1.919568
1202.817, 1.866532
1203.299, 1.695403
1203.781, 1.526985
1204.263, 1.540301
1204.746, 1.643908
1205.228, 1.726396
1205.710, 1.779564
1206.192, 1.797452
1206.674, 1.784517
1207.156, 1.740828
1207.638, 1.666863
1208.120, 1.640804
1208.603, 1.773720
1209.085, 1.877990
1209.567, 1.818275
1210.049, 1.728706
1210.531, 1.716329
1211.013, 1.736086
1211.495, 1.712317
1211.977, 1.652442
1212.459, 1.628166
1212.942, 1.670399
1213.424, 1.683921
1213.906, 1.613322
1214.388, 1.587279
1214.870, 1.649809
1215.352, 1.735213
1215.834, 1.834728
1216.316, 1.898196
1216.798, 1.840394
1217.281, 1.682650
1217.763, 1.575853
1218.245, 1.515183
1218.727, 1.568989
1219.209, 1.753792
1219.691, 1.864326
1220.173, 1.840512
1220.655, 1.809633
1221.138, 1.856525
1221.620, 1.936697
1222.102, 2.019468
1222.584, 2.061298
1223.066, 1.861326
1223.548, 1.552394
1224.030, 1.533193
1224.512, 1.753249
1224.995, 1.923910
1225.477, 1.964108
1225.959, 1.940301
1226.441, 1.881402
1226.923, 1.809470
1227.405, 1.684508
1227.887, 1.618184
1228.369, 1.799842
1228.851, 2.013019
1229.333, 1.971717
1229.816, 1.779216
1230.298, 1.697947
1230.780, 1.766541
1231.262, 1.837500
1231.744, 1.910346
1232.226, 1.932065
1232.708, 1.843835
1233.190, 1.772560
1233.673, 1.758953
1234.155, 1.781742
1234.637, 1.850937
1235.119, 1.921198
1235.601, 1.883541
1236.083, 1.737888
1236.565, 1.682066
1237.047, 1.727149
1237.530, 1.782756
1238.012, 1.842777
1238.494, 1.859657
1238.976, 1.814122
1239.458, 1.784805
1239.940, 1.838014
1240.422, 1.925968
1240.904, 1.994210
1241.386, 2.025067
1241.869, 1.942606
1242.351, 1.800400
1242.833, 1.724003
1243.315, 1.714824
1243.797, 1.728571
1244.279, 1.746064
1244.761, 1.734135
1245.243, 1.638208
1245.725, 1.602097
1246.208, 1.805418
1246.690, 2.001375
1247.172, 2.006702
1247.654, 1.923436
1248.136, 1.821089
1248.618, 1.733763
1249.100, 1.731165
1249.582, 1.827004
1250.065, 1.852224
1250.547, 1.743234
1251.029, 1.663379
1251.511, 1.601764
1251.993, 1.614895
1252.475, 1.758497
1252.957, 1.890428
1253.439, 1.891265
1253.922, 1.833118
1254.404, 1.861387
1254.886, 1.954664
1255.368, 1.946461
1255.850, 1.852854
1256.332, 1.836137
1256.814, 1.894358
1257.296, 1.882603
1257.778, 1.767004
1258.260, 1.656977
1258.743, 1.621053
1259.225, 1.632794
1259.707, 1.715990
1260.189, 1.779521
1260.671, 1.671069
1261.153, 1.522923
1261.635, 1.501180
1262.117, 1.576981
1262.600, 1.677819
1263.082, 1.783225
1263.564, 1.871122
1264.046, 1.969028
1264.528, 1.962838
1265.010, 1.686266
1265.492, 1.507561
1265.974, 1.585186
1266.457, 1.721738
1266.939, 1.838671
1267.421, 1.904492
1267.903, 1.852948
1268.385, 1.719579
1268.867, 1.721601
1269.349, 1.869499
1269.831, 1.939983
1270.313, 1.926710
1270.796, 1.854430
1271.278, 1.734110
1271.760, 1.650845
1272.242, 1.647884
1272.724, 1.678175
1273.206, 1.692709
1273.688, 1.717959
1274.170, 1.819735
1274.652, 1.931020
1275.135, 1.947175
1275.617, 1.912033
1276.099, 1.916098
1276.581, 1.950325
1277.063, 1.931967
1277.545, 1.834819
1278.027, 1.782984
1278.509, 1.848768
1278.992, 1.911671
1279.474, 1.967394
1279.956, 1.982327
1280.438, 1.896297
1280.920, 1.824727
1281.402, 1.885432
1281.884, 2.007840
1282.366, 2.029056
1282.849, 1.954468
1283.331, 1.937393
1283.813, 1.978600
1284.295, 2.015321
1284.777, 2.038748
1285.259, 1.987913
1285.741, 1.853433
1286.223, 1.746482
1286.705, 1.736192
1287.188, 1.822831
##END=



