##NAMES=Cuprosklodowskite
##RRUFFID=R060570
##IDEAL CHEMISTRY=Cu^2+^(U^6+^O_2_)_2_(SiO_3_OH)_2_&#183;6H_2_O
##LOCALITY=Musonoi Extension mine, near Kolwezi, Shaba Province, Zaire
##OWNER=RRUFF
##SOURCE=Michael Scott
##DESCRIPTION=Green colored acicular crystals
##STATUS=The identification of this mineral has been confirmed by single-crystal X-ray diffraction.
##URL=rruff.info/R060570
9.059570e+001, 2.180345e+002
9.107782e+001, 2.178744e+002
9.155994e+001, 2.178282e+002
9.204205e+001, 2.179310e+002
9.252417e+001, 2.181261e+002
9.300629e+001, 2.185476e+002
9.348840e+001, 2.180242e+002
9.397052e+001, 2.149693e+002
9.445264e+001, 2.085769e+002
9.493475e+001, 2.009803e+002
9.541687e+001, 1.944533e+002
9.589898e+001, 1.895877e+002
9.638110e+001, 1.854904e+002
9.686321e+001, 1.812614e+002
9.734533e+001, 1.763761e+002
9.782745e+001, 1.708960e+002
9.830956e+001, 1.667174e+002
9.879168e+001, 1.642921e+002
9.927380e+001, 1.622115e+002
9.975591e+001, 1.601688e+002
1.002380e+002, 1.581509e+002
1.007201e+002, 1.562199e+002
1.012023e+002, 1.544582e+002
1.016844e+002, 1.527719e+002
1.021665e+002, 1.508695e+002
1.026486e+002, 1.483441e+002
1.031307e+002, 1.458325e+002
1.036128e+002, 1.439375e+002
1.040950e+002, 1.426853e+002
1.045771e+002, 1.417694e+002
1.050592e+002, 1.409705e+002
1.055413e+002, 1.403098e+002
1.060234e+002, 1.398956e+002
1.065055e+002, 1.399763e+002
1.069877e+002, 1.403658e+002
1.074698e+002, 1.403380e+002
1.079519e+002, 1.399878e+002
1.084340e+002, 1.389818e+002
1.089161e+002, 1.369115e+002
1.093982e+002, 1.340822e+002
1.098804e+002, 1.312132e+002
1.103625e+002, 1.288850e+002
1.108446e+002, 1.271299e+002
1.113267e+002, 1.258182e+002
1.118088e+002, 1.253427e+002
1.122909e+002, 1.249464e+002
1.127731e+002, 1.243292e+002
1.132552e+002, 1.234259e+002
1.137373e+002, 1.222995e+002
1.142194e+002, 1.210309e+002
1.147015e+002, 1.193850e+002
1.151836e+002, 1.180190e+002
1.156658e+002, 1.171145e+002
1.161479e+002, 1.163859e+002
1.166300e+002, 1.156525e+002
1.171121e+002, 1.148657e+002
1.175942e+002, 1.138745e+002
1.180763e+002, 1.121849e+002
1.185584e+002, 1.093797e+002
1.190406e+002, 1.068877e+002
1.195227e+002, 1.052307e+002
1.200048e+002, 1.042229e+002
1.204869e+002, 1.033671e+002
1.209690e+002, 1.025173e+002
1.214511e+002, 1.016443e+002
1.219333e+002, 1.006746e+002
1.224154e+002, 9.949998e+001
1.228975e+002, 9.841029e+001
1.233796e+002, 9.786783e+001
1.238617e+002, 9.798230e+001
1.243438e+002, 9.769521e+001
1.248260e+002, 9.593949e+001
1.253081e+002, 9.371180e+001
1.257902e+002, 9.188049e+001
1.262723e+002, 9.080846e+001
1.267544e+002, 9.023849e+001
1.272365e+002, 8.961351e+001
1.277187e+002, 8.884946e+001
1.282008e+002, 8.817536e+001
1.286829e+002, 8.765381e+001
1.291650e+002, 8.724503e+001
1.296471e+002, 8.691154e+001
1.301292e+002, 8.664535e+001
1.306114e+002, 8.643666e+001
1.310935e+002, 8.613628e+001
1.315756e+002, 8.576923e+001
1.320577e+002, 8.527627e+001
1.325398e+002, 8.456843e+001
1.330219e+002, 8.370744e+001
1.335041e+002, 8.282957e+001
1.339862e+002, 8.204338e+001
1.344683e+002, 8.134908e+001
1.349504e+002, 8.076329e+001
1.354325e+002, 8.025967e+001
1.359146e+002, 7.985709e+001
1.363968e+002, 7.954406e+001
1.368789e+002, 7.932753e+001
1.373610e+002, 7.927763e+001
1.378431e+002, 7.956609e+001
1.383252e+002, 8.033048e+001
1.388073e+002, 8.061929e+001
1.392895e+002, 7.994651e+001
1.397716e+002, 7.894071e+001
1.402537e+002, 7.840294e+001
1.407358e+002, 7.858543e+001
1.412179e+002, 7.894313e+001
1.417000e+002, 7.873679e+001
1.421821e+002, 7.802647e+001
1.426643e+002, 7.727464e+001
1.431464e+002, 7.660872e+001
1.436285e+002, 7.603840e+001
1.441106e+002, 7.559414e+001
1.445927e+002, 7.529385e+001
1.450748e+002, 7.513182e+001
1.455570e+002, 7.503197e+001
1.460391e+002, 7.499686e+001
1.465212e+002, 7.514554e+001
1.470033e+002, 7.574023e+001
1.474854e+002, 7.686449e+001
1.479675e+002, 7.761975e+001
1.484497e+002, 7.742470e+001
1.489318e+002, 7.705952e+001
1.494139e+002, 7.695701e+001
1.498960e+002, 7.720258e+001
1.503781e+002, 7.755660e+001
1.508602e+002, 7.763071e+001
1.513424e+002, 7.720982e+001
1.518245e+002, 7.698267e+001
1.523066e+002, 7.703347e+001
1.527887e+002, 7.724796e+001
1.532708e+002, 7.753001e+001
1.537529e+002, 7.784373e+001
1.542351e+002, 7.823374e+001
1.547172e+002, 7.881934e+001
1.551993e+002, 7.995387e+001
1.556814e+002, 8.085870e+001
1.561635e+002, 8.141936e+001
1.566456e+002, 8.175842e+001
1.571278e+002, 8.199094e+001
1.576099e+002, 8.216748e+001
1.580920e+002, 8.231297e+001
1.585741e+002, 8.253826e+001
1.590562e+002, 8.293150e+001
1.595383e+002, 8.329345e+001
1.600205e+002, 8.349830e+001
1.605026e+002, 8.362791e+001
1.609847e+002, 8.389063e+001
1.614668e+002, 8.443779e+001
1.619489e+002, 8.519209e+001
1.624310e+002, 8.577902e+001
1.629131e+002, 8.606222e+001
1.633953e+002, 8.632150e+001
1.638774e+002, 8.679845e+001
1.643595e+002, 8.745936e+001
1.648416e+002, 8.795417e+001
1.653237e+002, 8.802369e+001
1.658058e+002, 8.776414e+001
1.662880e+002, 8.743304e+001
1.667701e+002, 8.696857e+001
1.672522e+002, 8.651048e+001
1.677343e+002, 8.622552e+001
1.682164e+002, 8.613466e+001
1.686985e+002, 8.612003e+001
1.691807e+002, 8.627615e+001
1.696628e+002, 8.643314e+001
1.701449e+002, 8.633875e+001
1.706270e+002, 8.578821e+001
1.711091e+002, 8.499317e+001
1.715912e+002, 8.442763e+001
1.720734e+002, 8.411744e+001
1.725555e+002, 8.402294e+001
1.730376e+002, 8.428817e+001
1.735197e+002, 8.468834e+001
1.740018e+002, 8.487123e+001
1.744839e+002, 8.454646e+001
1.749661e+002, 8.384502e+001
1.754482e+002, 8.358086e+001
1.759303e+002, 8.413911e+001
1.764124e+002, 8.474638e+001
1.768945e+002, 8.522964e+001
1.773766e+002, 8.560991e+001
1.778588e+002, 8.593491e+001
1.783409e+002, 8.622547e+001
1.788230e+002, 8.648116e+001
1.793051e+002, 8.687061e+001
1.797872e+002, 8.741159e+001
1.802693e+002, 8.806580e+001
1.807515e+002, 8.885654e+001
1.812336e+002, 8.975910e+001
1.817157e+002, 9.068922e+001
1.821978e+002, 9.154424e+001
1.826799e+002, 9.227177e+001
1.831620e+002, 9.350840e+001
1.836441e+002, 9.589249e+001
1.841263e+002, 9.810690e+001
1.846084e+002, 9.924079e+001
1.850905e+002, 9.943800e+001
1.855726e+002, 9.968259e+001
1.860547e+002, 1.009172e+002
1.865368e+002, 1.033216e+002
1.870190e+002, 1.054188e+002
1.875011e+002, 1.071836e+002
1.879832e+002, 1.086644e+002
1.884653e+002, 1.096537e+002
1.889474e+002, 1.101680e+002
1.894296e+002, 1.109076e+002
1.899117e+002, 1.127171e+002
1.903938e+002, 1.155644e+002
1.908759e+002, 1.181131e+002
1.913580e+002, 1.198725e+002
1.918401e+002, 1.214158e+002
1.923223e+002, 1.234701e+002
1.928044e+002, 1.261980e+002
1.932865e+002, 1.290329e+002
1.937686e+002, 1.314128e+002
1.942507e+002, 1.334574e+002
1.947328e+002, 1.354545e+002
1.952150e+002, 1.373094e+002
1.956971e+002, 1.392094e+002
1.961792e+002, 1.415943e+002
1.966613e+002, 1.446604e+002
1.971434e+002, 1.478664e+002
1.976255e+002, 1.507104e+002
1.981077e+002, 1.533604e+002
1.985898e+002, 1.562072e+002
1.990719e+002, 1.596676e+002
1.995540e+002, 1.635612e+002
2.000361e+002, 1.669986e+002
2.005182e+002, 1.694936e+002
2.010004e+002, 1.722156e+002
2.014825e+002, 1.758542e+002
2.019646e+002, 1.801764e+002
2.024467e+002, 1.845702e+002
2.029288e+002, 1.887813e+002
2.034109e+002, 1.927935e+002
2.038930e+002, 1.961480e+002
2.043752e+002, 1.985255e+002
2.048573e+002, 2.004709e+002
2.053394e+002, 2.023061e+002
2.058215e+002, 2.039010e+002
2.063036e+002, 2.049397e+002
2.067857e+002, 2.051409e+002
2.072679e+002, 2.044863e+002
2.077500e+002, 2.033444e+002
2.082321e+002, 2.023182e+002
2.087142e+002, 2.001911e+002
2.091963e+002, 1.962258e+002
2.096784e+002, 1.907272e+002
2.101606e+002, 1.845164e+002
2.106427e+002, 1.782609e+002
2.111248e+002, 1.720060e+002
2.116069e+002, 1.656231e+002
2.120890e+002, 1.589865e+002
2.125711e+002, 1.523685e+002
2.130533e+002, 1.458920e+002
2.135354e+002, 1.395374e+002
2.140175e+002, 1.330574e+002
2.144996e+002, 1.261238e+002
2.149817e+002, 1.184790e+002
2.154638e+002, 1.123130e+002
2.159460e+002, 1.083526e+002
2.164281e+002, 1.048445e+002
2.169102e+002, 1.008215e+002
2.173923e+002, 9.636216e+001
2.178744e+002, 9.217351e+001
2.183565e+002, 8.899139e+001
2.188387e+002, 8.698397e+001
2.193208e+002, 8.455077e+001
2.198029e+002, 8.125761e+001
2.202850e+002, 7.793336e+001
2.207671e+002, 7.501929e+001
2.212492e+002, 7.254896e+001
2.217314e+002, 7.039183e+001
2.222135e+002, 6.846958e+001
2.226956e+002, 6.681099e+001
2.231777e+002, 6.523074e+001
2.236598e+002, 6.372533e+001
2.241419e+002, 6.229604e+001
2.246240e+002, 6.097938e+001
2.251062e+002, 5.976802e+001
2.255883e+002, 5.858207e+001
2.260704e+002, 5.738367e+001
2.265525e+002, 5.616027e+001
2.270346e+002, 5.483173e+001
2.275167e+002, 5.306724e+001
2.279989e+002, 5.140118e+001
2.284810e+002, 5.047548e+001
2.289631e+002, 5.034134e+001
2.294452e+002, 5.025785e+001
2.299273e+002, 4.961973e+001
2.304094e+002, 4.861965e+001
2.308916e+002, 4.779572e+001
2.313737e+002, 4.741695e+001
2.318558e+002, 4.715413e+001
2.323379e+002, 4.654884e+001
2.328200e+002, 4.553141e+001
2.333021e+002, 4.466437e+001
2.337843e+002, 4.454606e+001
2.342664e+002, 4.476953e+001
2.347485e+002, 4.470392e+001
2.352306e+002, 4.405270e+001
2.357127e+002, 4.316217e+001
2.361948e+002, 4.249323e+001
2.366770e+002, 4.207866e+001
2.371591e+002, 4.173696e+001
2.376412e+002, 4.135307e+001
2.381233e+002, 4.099495e+001
2.386054e+002, 4.076762e+001
2.390875e+002, 4.076281e+001
2.395697e+002, 4.081604e+001
2.400518e+002, 4.066738e+001
2.405339e+002, 4.028455e+001
2.410160e+002, 3.979394e+001
2.414981e+002, 3.892635e+001
2.419802e+002, 3.810969e+001
2.424624e+002, 3.786644e+001
2.429445e+002, 3.847538e+001
2.434266e+002, 3.941300e+001
2.439087e+002, 3.976757e+001
2.443908e+002, 3.936504e+001
2.448729e+002, 3.883441e+001
2.453550e+002, 3.814186e+001
2.458372e+002, 3.751122e+001
2.463193e+002, 3.716177e+001
2.468014e+002, 3.717395e+001
2.472835e+002, 3.740833e+001
2.477656e+002, 3.763913e+001
2.482477e+002, 3.786366e+001
2.487299e+002, 3.808948e+001
2.492120e+002, 3.850504e+001
2.496941e+002, 3.881747e+001
2.501762e+002, 3.869003e+001
2.506583e+002, 3.803756e+001
2.511404e+002, 3.723100e+001
2.516226e+002, 3.693088e+001
2.521047e+002, 3.744725e+001
2.525868e+002, 3.777742e+001
2.530689e+002, 3.771053e+001
2.535510e+002, 3.753521e+001
2.540331e+002, 3.744967e+001
2.545153e+002, 3.750512e+001
2.549974e+002, 3.762542e+001
2.554795e+002, 3.770727e+001
2.559616e+002, 3.777925e+001
2.564437e+002, 3.773822e+001
2.569258e+002, 3.743201e+001
2.574080e+002, 3.714162e+001
2.578901e+002, 3.706561e+001
2.583722e+002, 3.723167e+001
2.588543e+002, 3.751578e+001
2.593364e+002, 3.775961e+001
2.598185e+002, 3.796373e+001
2.603007e+002, 3.811882e+001
2.607828e+002, 3.810624e+001
2.612649e+002, 3.814528e+001
2.617470e+002, 3.847968e+001
2.622291e+002, 3.907185e+001
2.627112e+002, 3.959027e+001
2.631934e+002, 3.961486e+001
2.636755e+002, 3.891227e+001
2.641576e+002, 3.857101e+001
2.646397e+002, 3.888405e+001
2.651218e+002, 3.923957e+001
2.656039e+002, 3.923716e+001
2.660861e+002, 3.891065e+001
2.665682e+002, 3.859474e+001
2.670503e+002, 3.862508e+001
2.675324e+002, 3.906328e+001
2.680145e+002, 3.947802e+001
2.684966e+002, 3.989476e+001
2.689788e+002, 4.027140e+001
2.694609e+002, 4.069567e+001
2.699430e+002, 4.109000e+001
2.704251e+002, 4.119384e+001
2.709072e+002, 4.074001e+001
2.713893e+002, 3.970118e+001
2.718715e+002, 3.900603e+001
2.723536e+002, 3.878960e+001
2.728357e+002, 3.870252e+001
2.733178e+002, 3.859394e+001
2.737999e+002, 3.849072e+001
2.742820e+002, 3.853764e+001
2.747642e+002, 3.888098e+001
2.752463e+002, 3.946632e+001
2.757284e+002, 3.958534e+001
2.762105e+002, 3.901252e+001
2.766926e+002, 3.834338e+001
2.771747e+002, 3.770181e+001
2.776568e+002, 3.711104e+001
2.781389e+002, 3.661857e+001
2.786211e+002, 3.626524e+001
2.791032e+002, 3.600746e+001
2.795853e+002, 3.564985e+001
2.800674e+002, 3.500678e+001
2.805495e+002, 3.449778e+001
2.810316e+002, 3.442009e+001
2.815138e+002, 3.452487e+001
2.819959e+002, 3.431875e+001
2.824780e+002, 3.355202e+001
2.829601e+002, 3.247962e+001
2.834422e+002, 3.179278e+001
2.839243e+002, 3.171535e+001
2.844065e+002, 3.152969e+001
2.848886e+002, 3.090921e+001
2.853707e+002, 3.014075e+001
2.858528e+002, 2.969063e+001
2.863349e+002, 2.973495e+001
2.868170e+002, 2.998989e+001
2.872992e+002, 2.995533e+001
2.877813e+002, 2.952008e+001
2.882634e+002, 2.920181e+001
2.887455e+002, 2.919828e+001
2.892276e+002, 2.930763e+001
2.897097e+002, 2.926905e+001
2.901919e+002, 2.901944e+001
2.906740e+002, 2.870554e+001
2.911561e+002, 2.846966e+001
2.916382e+002, 2.830241e+001
2.921203e+002, 2.833294e+001
2.926024e+002, 2.878206e+001
2.930846e+002, 2.931833e+001
2.935667e+002, 2.960337e+001
2.940488e+002, 2.959670e+001
2.945309e+002, 2.949419e+001
2.950130e+002, 2.946023e+001
2.954951e+002, 2.949825e+001
2.959773e+002, 2.953906e+001
2.964594e+002, 2.948752e+001
2.969415e+002, 2.950512e+001
2.974236e+002, 2.981634e+001
2.979057e+002, 3.039073e+001
2.983878e+002, 3.085817e+001
2.988700e+002, 3.092787e+001
2.993521e+002, 3.064896e+001
2.998342e+002, 3.046496e+001
3.003163e+002, 3.044752e+001
3.007984e+002, 3.045849e+001
3.012805e+002, 3.042986e+001
3.017627e+002, 3.036374e+001
3.022448e+002, 3.026647e+001
3.027269e+002, 3.012238e+001
3.032090e+002, 2.996368e+001
3.036911e+002, 2.989831e+001
3.041732e+002, 3.007069e+001
3.046554e+002, 3.010109e+001
3.051375e+002, 2.967192e+001
3.056196e+002, 2.896128e+001
3.061017e+002, 2.845473e+001
3.065838e+002, 2.837772e+001
3.070659e+002, 2.851011e+001
3.075481e+002, 2.842114e+001
3.080302e+002, 2.807510e+001
3.085123e+002, 2.772156e+001
3.089944e+002, 2.743768e+001
3.094765e+002, 2.719917e+001
3.099586e+002, 2.698171e+001
3.104408e+002, 2.678909e+001
3.109229e+002, 2.657740e+001
3.114050e+002, 2.629118e+001
3.118871e+002, 2.593480e+001
3.123692e+002, 2.551399e+001
3.128513e+002, 2.483119e+001
3.133335e+002, 2.417603e+001
3.138156e+002, 2.397019e+001
3.142977e+002, 2.428940e+001
3.147798e+002, 2.469728e+001
3.152619e+002, 2.482013e+001
3.157440e+002, 2.465962e+001
3.162262e+002, 2.440323e+001
3.167083e+002, 2.400335e+001
3.171904e+002, 2.355622e+001
3.176725e+002, 2.307549e+001
3.181546e+002, 2.257815e+001
3.186367e+002, 2.224616e+001
3.191188e+002, 2.225778e+001
3.196010e+002, 2.253853e+001
3.200831e+002, 2.267759e+001
3.205652e+002, 2.266071e+001
3.210473e+002, 2.252434e+001
3.215294e+002, 2.213550e+001
3.220115e+002, 2.160501e+001
3.224937e+002, 2.137004e+001
3.229758e+002, 2.173151e+001
3.234579e+002, 2.239935e+001
3.239400e+002, 2.259913e+001
3.244221e+002, 2.212183e+001
3.249042e+002, 2.172336e+001
3.253864e+002, 2.178806e+001
3.258685e+002, 2.209641e+001
3.263506e+002, 2.218574e+001
3.268327e+002, 2.186798e+001
3.273148e+002, 2.145622e+001
3.277969e+002, 2.151727e+001
3.282791e+002, 2.215886e+001
3.287612e+002, 2.255964e+001
3.292433e+002, 2.246239e+001
3.297254e+002, 2.209473e+001
3.302075e+002, 2.167058e+001
3.306896e+002, 2.122669e+001
3.311718e+002, 2.081491e+001
3.316539e+002, 2.045223e+001
3.321360e+002, 2.014620e+001
3.326181e+002, 2.007955e+001
3.331002e+002, 2.046265e+001
3.335823e+002, 2.093206e+001
3.340645e+002, 2.121459e+001
3.345466e+002, 2.131559e+001
3.350287e+002, 2.142731e+001
3.355108e+002, 2.172159e+001
3.359929e+002, 2.213690e+001
3.364750e+002, 2.225119e+001
3.369572e+002, 2.178300e+001
3.374393e+002, 2.134702e+001
3.379214e+002, 2.126123e+001
3.384035e+002, 2.140668e+001
3.388856e+002, 2.146967e+001
3.393677e+002, 2.127916e+001
3.398499e+002, 2.097821e+001
3.403320e+002, 2.099333e+001
3.408141e+002, 2.161770e+001
3.412962e+002, 2.198330e+001
3.417783e+002, 2.172729e+001
3.422604e+002, 2.119356e+001
3.427426e+002, 2.082637e+001
3.432247e+002, 2.075385e+001
3.437068e+002, 2.081420e+001
3.441889e+002, 2.078350e+001
3.446710e+002, 2.060427e+001
3.451531e+002, 2.050518e+001
3.456353e+002, 2.056733e+001
3.461174e+002, 2.065545e+001
3.465995e+002, 2.065396e+001
3.470816e+002, 2.056156e+001
3.475637e+002, 2.047337e+001
3.480458e+002, 2.049615e+001
3.485280e+002, 2.064168e+001
3.490101e+002, 2.056974e+001
3.494922e+002, 1.994700e+001
3.499743e+002, 1.947752e+001
3.504564e+002, 1.959557e+001
3.509385e+002, 2.011018e+001
3.514207e+002, 2.055733e+001
3.519028e+002, 2.066188e+001
3.523849e+002, 2.050138e+001
3.528670e+002, 2.040522e+001
3.533491e+002, 2.047037e+001
3.538312e+002, 2.047970e+001
3.543134e+002, 2.029482e+001
3.547955e+002, 2.008476e+001
3.552776e+002, 2.007691e+001
3.557597e+002, 2.034565e+001
3.562418e+002, 2.073881e+001
3.567239e+002, 2.100258e+001
3.572061e+002, 2.107930e+001
3.576882e+002, 2.112877e+001
3.581703e+002, 2.121793e+001
3.586524e+002, 2.123401e+001
3.591345e+002, 2.105907e+001
3.596166e+002, 2.071004e+001
3.600987e+002, 2.031536e+001
3.605808e+002, 1.997852e+001
3.610630e+002, 1.968369e+001
3.615451e+002, 1.961247e+001
3.620272e+002, 2.005620e+001
3.625093e+002, 2.040654e+001
3.629914e+002, 2.044571e+001
3.634735e+002, 2.024237e+001
3.639557e+002, 1.993151e+001
3.644378e+002, 1.958367e+001
3.649199e+002, 1.922560e+001
3.654020e+002, 1.896925e+001
3.658841e+002, 1.881315e+001
3.663662e+002, 1.877956e+001
3.668484e+002, 1.886209e+001
3.673305e+002, 1.906351e+001
3.678126e+002, 1.950084e+001
3.682947e+002, 2.017761e+001
3.687768e+002, 2.079032e+001
3.692589e+002, 2.080817e+001
3.697411e+002, 1.995744e+001
3.702232e+002, 1.924811e+001
3.707053e+002, 1.849060e+001
3.711874e+002, 1.805293e+001
3.716695e+002, 1.838007e+001
3.721516e+002, 1.930373e+001
3.726338e+002, 2.012543e+001
3.731159e+002, 2.012708e+001
3.735980e+002, 1.934509e+001
3.740801e+002, 1.903689e+001
3.745622e+002, 1.970636e+001
3.750443e+002, 2.024318e+001
3.755265e+002, 2.026698e+001
3.760086e+002, 1.993230e+001
3.764907e+002, 1.942990e+001
3.769728e+002, 1.878188e+001
3.774549e+002, 1.818116e+001
3.779370e+002, 1.812496e+001
3.784192e+002, 1.883407e+001
3.789013e+002, 1.946391e+001
3.793834e+002, 1.978970e+001
3.798655e+002, 1.994378e+001
3.803476e+002, 1.998863e+001
3.808297e+002, 1.993884e+001
3.813119e+002, 1.984979e+001
3.817940e+002, 1.977149e+001
3.822761e+002, 1.970357e+001
3.827582e+002, 1.962753e+001
3.832403e+002, 1.949399e+001
3.837224e+002, 1.941361e+001
3.842046e+002, 1.952801e+001
3.846867e+002, 1.976966e+001
3.851688e+002, 1.989725e+001
3.856509e+002, 1.968743e+001
3.861330e+002, 1.928908e+001
3.866151e+002, 1.906680e+001
3.870973e+002, 1.907962e+001
3.875794e+002, 1.905654e+001
3.880615e+002, 1.873940e+001
3.885436e+002, 1.831674e+001
3.890257e+002, 1.806512e+001
3.895078e+002, 1.808109e+001
3.899900e+002, 1.819633e+001
3.904721e+002, 1.827263e+001
3.909542e+002, 1.831731e+001
3.914363e+002, 1.840306e+001
3.919184e+002, 1.861151e+001
3.924005e+002, 1.879519e+001
3.928827e+002, 1.872358e+001
3.933648e+002, 1.838086e+001
3.938469e+002, 1.805889e+001
3.943290e+002, 1.780557e+001
3.948111e+002, 1.766497e+001
3.952932e+002, 1.778799e+001
3.957754e+002, 1.822541e+001
3.962575e+002, 1.861869e+001
3.967396e+002, 1.860263e+001
3.972217e+002, 1.821431e+001
3.977038e+002, 1.798119e+001
3.981859e+002, 1.811766e+001
3.986681e+002, 1.824519e+001
3.991501e+002, 1.806925e+001
3.996323e+002, 1.766011e+001
4.001144e+002, 1.728422e+001
4.005965e+002, 1.707287e+001
4.010786e+002, 1.698333e+001
4.015607e+002, 1.690035e+001
4.020428e+002, 1.680131e+001
4.025250e+002, 1.674528e+001
4.030071e+002, 1.670686e+001
4.034892e+002, 1.673288e+001
4.039713e+002, 1.692907e+001
4.044534e+002, 1.730451e+001
4.049355e+002, 1.768805e+001
4.054177e+002, 1.787616e+001
4.058998e+002, 1.782762e+001
4.063819e+002, 1.776297e+001
4.068640e+002, 1.774289e+001
4.073461e+002, 1.765317e+001
4.078282e+002, 1.736317e+001
4.083104e+002, 1.695319e+001
4.087925e+002, 1.663677e+001
4.092746e+002, 1.655797e+001
4.097567e+002, 1.664386e+001
4.102388e+002, 1.655065e+001
4.107209e+002, 1.598374e+001
4.112031e+002, 1.562179e+001
4.116852e+002, 1.557434e+001
4.121673e+002, 1.572143e+001
4.126494e+002, 1.604126e+001
4.131315e+002, 1.648870e+001
4.136136e+002, 1.685659e+001
4.140958e+002, 1.677551e+001
4.145779e+002, 1.601562e+001
4.150600e+002, 1.573390e+001
4.155421e+002, 1.644040e+001
4.160242e+002, 1.716391e+001
4.165063e+002, 1.755296e+001
4.169885e+002, 1.765451e+001
4.174706e+002, 1.766282e+001
4.179527e+002, 1.771830e+001
4.184348e+002, 1.775899e+001
4.189169e+002, 1.749184e+001
4.193990e+002, 1.662042e+001
4.198812e+002, 1.611388e+001
4.203633e+002, 1.660483e+001
4.208454e+002, 1.739330e+001
4.213275e+002, 1.787187e+001
4.218096e+002, 1.789602e+001
4.222917e+002, 1.764123e+001
4.227739e+002, 1.710244e+001
4.232560e+002, 1.631274e+001
4.237381e+002, 1.598898e+001
4.242202e+002, 1.653559e+001
4.247023e+002, 1.716539e+001
4.251844e+002, 1.721217e+001
4.256666e+002, 1.681901e+001
4.261487e+002, 1.650416e+001
4.266308e+002, 1.656460e+001
4.271129e+002, 1.679137e+001
4.275950e+002, 1.688401e+001
4.280771e+002, 1.683713e+001
4.285593e+002, 1.672478e+001
4.290414e+002, 1.653066e+001
4.295235e+002, 1.632530e+001
4.300056e+002, 1.625757e+001
4.304877e+002, 1.637847e+001
4.309698e+002, 1.652213e+001
4.314520e+002, 1.658706e+001
4.319341e+002, 1.661960e+001
4.324162e+002, 1.674355e+001
4.328983e+002, 1.700413e+001
4.333804e+002, 1.724667e+001
4.338625e+002, 1.725812e+001
4.343447e+002, 1.699362e+001
4.348268e+002, 1.687480e+001
4.353089e+002, 1.714675e+001
4.357910e+002, 1.737143e+001
4.362731e+002, 1.714101e+001
4.367552e+002, 1.658407e+001
4.372374e+002, 1.617953e+001
4.377195e+002, 1.622107e+001
4.382016e+002, 1.659196e+001
4.386837e+002, 1.684868e+001
4.391658e+002, 1.701536e+001
4.396479e+002, 1.703144e+001
4.401301e+002, 1.684473e+001
4.406122e+002, 1.653255e+001
4.410943e+002, 1.607417e+001
4.415764e+002, 1.551451e+001
4.420585e+002, 1.506671e+001
4.425406e+002, 1.499076e+001
4.430227e+002, 1.533055e+001
4.435049e+002, 1.572118e+001
4.439870e+002, 1.647057e+001
4.444691e+002, 1.694708e+001
4.449512e+002, 1.669224e+001
4.454333e+002, 1.607955e+001
4.459154e+002, 1.577947e+001
4.463976e+002, 1.617620e+001
4.468797e+002, 1.686568e+001
4.473618e+002, 1.685240e+001
4.478439e+002, 1.577582e+001
4.483260e+002, 1.507359e+001
4.488081e+002, 1.540890e+001
4.492903e+002, 1.590951e+001
4.497724e+002, 1.600681e+001
4.502545e+002, 1.568796e+001
4.507366e+002, 1.534644e+001
4.512187e+002, 1.530704e+001
4.517008e+002, 1.549908e+001
4.521830e+002, 1.559640e+001
4.526651e+002, 1.551666e+001
4.531472e+002, 1.553307e+001
4.536293e+002, 1.595373e+001
4.541114e+002, 1.653789e+001
4.545935e+002, 1.693803e+001
4.550757e+002, 1.703785e+001
4.555578e+002, 1.702145e+001
4.560399e+002, 1.703196e+001
4.565220e+002, 1.705478e+001
4.570041e+002, 1.699430e+001
4.574862e+002, 1.676750e+001
4.579684e+002, 1.656898e+001
4.584505e+002, 1.672445e+001
4.589326e+002, 1.723030e+001
4.594147e+002, 1.762718e+001
4.598968e+002, 1.774434e+001
4.603789e+002, 1.778301e+001
4.608611e+002, 1.797006e+001
4.613432e+002, 1.827054e+001
4.618253e+002, 1.840601e+001
4.623074e+002, 1.815245e+001
4.627895e+002, 1.765779e+001
4.632716e+002, 1.754105e+001
4.637538e+002, 1.813819e+001
4.642359e+002, 1.864516e+001
4.647180e+002, 1.903068e+001
4.652001e+002, 1.925543e+001
4.656822e+002, 1.918528e+001
4.661643e+002, 1.884181e+001
4.666465e+002, 1.850546e+001
4.671286e+002, 1.849958e+001
4.676107e+002, 1.886795e+001
4.680928e+002, 1.914501e+001
4.685749e+002, 1.915554e+001
4.690570e+002, 1.926258e+001
4.695392e+002, 1.976306e+001
4.700213e+002, 2.036713e+001
4.705034e+002, 2.058518e+001
4.709855e+002, 2.018780e+001
4.714676e+002, 1.954616e+001
4.719497e+002, 1.933653e+001
4.724319e+002, 1.966207e+001
4.729140e+002, 1.997007e+001
4.733961e+002, 2.032045e+001
4.738782e+002, 2.050475e+001
4.743603e+002, 2.026243e+001
4.748424e+002, 1.970527e+001
4.753246e+002, 1.927952e+001
4.758067e+002, 1.928325e+001
4.762888e+002, 1.958648e+001
4.767709e+002, 1.995846e+001
4.772530e+002, 2.042394e+001
4.777351e+002, 2.079658e+001
4.782173e+002, 2.101129e+001
4.786994e+002, 2.105663e+001
4.791815e+002, 2.092268e+001
4.796636e+002, 2.058047e+001
4.801457e+002, 2.016477e+001
4.806278e+002, 1.965465e+001
4.811100e+002, 1.913837e+001
4.815920e+002, 1.878868e+001
4.820742e+002, 1.863919e+001
4.825563e+002, 1.857515e+001
4.830384e+002, 1.848797e+001
4.835205e+002, 1.838479e+001
4.840026e+002, 1.840224e+001
4.844847e+002, 1.876881e+001
4.849669e+002, 1.900179e+001
4.854490e+002, 1.875290e+001
4.859311e+002, 1.826895e+001
4.864132e+002, 1.802860e+001
4.868953e+002, 1.820709e+001
4.873774e+002, 1.852106e+001
4.878596e+002, 1.848301e+001
4.883417e+002, 1.787831e+001
4.888238e+002, 1.750932e+001
4.893059e+002, 1.754617e+001
4.897880e+002, 1.761539e+001
4.902701e+002, 1.750587e+001
4.907523e+002, 1.728263e+001
4.912344e+002, 1.712764e+001
4.917165e+002, 1.715526e+001
4.921986e+002, 1.731028e+001
4.926807e+002, 1.746751e+001
4.931628e+002, 1.768119e+001
4.936450e+002, 1.774575e+001
4.941271e+002, 1.742913e+001
4.946092e+002, 1.708444e+001
4.950913e+002, 1.696743e+001
4.955734e+002, 1.707867e+001
4.960555e+002, 1.721467e+001
4.965377e+002, 1.727950e+001
4.970198e+002, 1.725891e+001
4.975019e+002, 1.705035e+001
4.979840e+002, 1.658637e+001
4.984661e+002, 1.625532e+001
4.989482e+002, 1.641505e+001
4.994304e+002, 1.678856e+001
4.999125e+002, 1.681318e+001
5.003946e+002, 1.629797e+001
5.008767e+002, 1.583394e+001
5.013588e+002, 1.572274e+001
5.018409e+002, 1.585569e+001
5.023231e+002, 1.608920e+001
5.028052e+002, 1.639633e+001
5.032873e+002, 1.665026e+001
5.037694e+002, 1.671943e+001
5.042515e+002, 1.659583e+001
5.047336e+002, 1.649102e+001
5.052158e+002, 1.631936e+001
5.056979e+002, 1.625834e+001
5.061800e+002, 1.649036e+001
5.066621e+002, 1.683796e+001
5.071442e+002, 1.701775e+001
5.076263e+002, 1.693193e+001
5.081085e+002, 1.672342e+001
5.085906e+002, 1.659680e+001
5.090727e+002, 1.654106e+001
5.095548e+002, 1.660738e+001
5.100369e+002, 1.702285e+001
5.105190e+002, 1.733260e+001
5.110012e+002, 1.727201e+001
5.114833e+002, 1.699047e+001
5.119654e+002, 1.679133e+001
5.124475e+002, 1.683784e+001
5.129296e+002, 1.699694e+001
5.134117e+002, 1.705899e+001
5.138939e+002, 1.703094e+001
5.143760e+002, 1.683401e+001
5.148581e+002, 1.624432e+001
5.153402e+002, 1.569029e+001
5.158223e+002, 1.555667e+001
5.163044e+002, 1.579478e+001
5.167866e+002, 1.605864e+001
5.172687e+002, 1.618160e+001
5.177508e+002, 1.626497e+001
5.182329e+002, 1.640224e+001
5.187150e+002, 1.660186e+001
5.191971e+002, 1.698171e+001
5.196793e+002, 1.769746e+001
5.201614e+002, 1.850884e+001
5.206435e+002, 1.877956e+001
5.211256e+002, 1.826983e+001
5.216077e+002, 1.803883e+001
5.220898e+002, 1.859185e+001
5.225720e+002, 1.926541e+001
5.230541e+002, 1.941112e+001
5.235362e+002, 1.906120e+001
5.240183e+002, 1.869272e+001
5.245004e+002, 1.864847e+001
5.249825e+002, 1.887101e+001
5.254647e+002, 1.906436e+001
5.259468e+002, 1.913596e+001
5.264289e+002, 1.931449e+001
5.269110e+002, 1.967361e+001
5.273931e+002, 2.010414e+001
5.278752e+002, 2.060031e+001
5.283574e+002, 2.110899e+001
5.288395e+002, 2.143796e+001
5.293216e+002, 2.131763e+001
5.298037e+002, 2.085438e+001
5.302858e+002, 2.072557e+001
5.307679e+002, 2.105589e+001
5.312501e+002, 2.143357e+001
5.317322e+002, 2.166683e+001
5.322143e+002, 2.186472e+001
5.326964e+002, 2.215987e+001
5.331785e+002, 2.258762e+001
5.336606e+002, 2.299805e+001
5.341428e+002, 2.330204e+001
5.346249e+002, 2.351831e+001
5.351070e+002, 2.367387e+001
5.355891e+002, 2.376776e+001
5.360712e+002, 2.386739e+001
5.365533e+002, 2.406500e+001
5.370355e+002, 2.431209e+001
5.375176e+002, 2.432974e+001
5.379997e+002, 2.385042e+001
5.384818e+002, 2.349006e+001
5.389639e+002, 2.352664e+001
5.394460e+002, 2.372902e+001
5.399282e+002, 2.381970e+001
5.404103e+002, 2.373817e+001
5.408924e+002, 2.359250e+001
5.413745e+002, 2.352950e+001
5.418566e+002, 2.356274e+001
5.423387e+002, 2.319917e+001
5.428209e+002, 2.177728e+001
5.433029e+002, 2.075289e+001
5.437850e+002, 2.074681e+001
5.442672e+002, 2.112913e+001
5.447493e+002, 2.120504e+001
5.452314e+002, 2.078749e+001
5.457135e+002, 2.013808e+001
5.461956e+002, 1.943572e+001
5.466777e+002, 1.870282e+001
5.471599e+002, 1.826270e+001
5.476420e+002, 1.821869e+001
5.481241e+002, 1.828428e+001
5.486062e+002, 1.845709e+001
5.490883e+002, 1.858484e+001
5.495704e+002, 1.833883e+001
5.500526e+002, 1.744128e+001
5.505347e+002, 1.664491e+001
5.510168e+002, 1.653568e+001
5.514989e+002, 1.684566e+001
5.519810e+002, 1.704628e+001
5.524631e+002, 1.702881e+001
5.529453e+002, 1.684613e+001
5.534274e+002, 1.648993e+001
5.539095e+002, 1.595881e+001
5.543916e+002, 1.573781e+001
5.548737e+002, 1.611293e+001
5.553558e+002, 1.640687e+001
5.558380e+002, 1.638645e+001
5.563201e+002, 1.620442e+001
5.568022e+002, 1.604841e+001
5.572843e+002, 1.596866e+001
5.577664e+002, 1.590358e+001
5.582485e+002, 1.578171e+001
5.587307e+002, 1.560217e+001
5.592128e+002, 1.540819e+001
5.596949e+002, 1.515861e+001
5.601770e+002, 1.495891e+001
5.606591e+002, 1.481046e+001
5.611412e+002, 1.473880e+001
5.616234e+002, 1.479255e+001
5.621055e+002, 1.499185e+001
5.625876e+002, 1.523062e+001
5.630697e+002, 1.551399e+001
5.635518e+002, 1.576863e+001
5.640339e+002, 1.569712e+001
5.645161e+002, 1.521300e+001
5.649982e+002, 1.465639e+001
5.654803e+002, 1.418365e+001
5.659624e+002, 1.384902e+001
5.664445e+002, 1.380822e+001
5.669266e+002, 1.422762e+001
5.674088e+002, 1.470006e+001
5.678909e+002, 1.527374e+001
5.683730e+002, 1.573532e+001
5.688551e+002, 1.571532e+001
5.693372e+002, 1.520537e+001
5.698193e+002, 1.462533e+001
5.703015e+002, 1.436194e+001
5.707836e+002, 1.440232e+001
5.712657e+002, 1.452310e+001
5.717478e+002, 1.495063e+001
5.722299e+002, 1.514468e+001
5.727120e+002, 1.488057e+001
5.731942e+002, 1.444652e+001
5.736763e+002, 1.403581e+001
5.741584e+002, 1.371256e+001
5.746405e+002, 1.356952e+001
5.751226e+002, 1.383170e+001
5.756047e+002, 1.435929e+001
5.760869e+002, 1.454557e+001
5.765690e+002, 1.433326e+001
5.770511e+002, 1.400401e+001
5.775332e+002, 1.352119e+001
5.780153e+002, 1.310478e+001
5.784974e+002, 1.318703e+001
5.789796e+002, 1.394938e+001
5.794617e+002, 1.441679e+001
5.799438e+002, 1.389065e+001
5.804259e+002, 1.307427e+001
5.809080e+002, 1.270840e+001
5.813901e+002, 1.285364e+001
5.818723e+002, 1.341473e+001
5.823544e+002, 1.443702e+001
5.828365e+002, 1.562779e+001
5.833186e+002, 1.597927e+001
5.838007e+002, 1.469256e+001
5.842828e+002, 1.376014e+001
5.847650e+002, 1.327711e+001
5.852471e+002, 1.307973e+001
5.857292e+002, 1.316190e+001
5.862113e+002, 1.343872e+001
5.866934e+002, 1.374549e+001
5.871755e+002, 1.400731e+001
5.876577e+002, 1.418178e+001
5.881398e+002, 1.412988e+001
5.886219e+002, 1.381271e+001
5.891040e+002, 1.353199e+001
5.895861e+002, 1.335443e+001
5.900682e+002, 1.324395e+001
5.905504e+002, 1.313901e+001
5.910325e+002, 1.305303e+001
5.915146e+002, 1.308507e+001
5.919967e+002, 1.340081e+001
5.924788e+002, 1.373204e+001
5.929609e+002, 1.382979e+001
5.934431e+002, 1.375059e+001
5.939252e+002, 1.363687e+001
5.944073e+002, 1.352966e+001
5.948894e+002, 1.352583e+001
5.953715e+002, 1.382032e+001
5.958536e+002, 1.459484e+001
5.963358e+002, 1.482291e+001
5.968179e+002, 1.398137e+001
5.973000e+002, 1.325795e+001
5.977821e+002, 1.313145e+001
5.982642e+002, 1.336111e+001
5.987463e+002, 1.362441e+001
5.992285e+002, 1.380253e+001
5.997106e+002, 1.385441e+001
6.001927e+002, 1.363674e+001
6.006748e+002, 1.316687e+001
6.011569e+002, 1.299279e+001
6.016390e+002, 1.327793e+001
6.021212e+002, 1.356104e+001
6.026033e+002, 1.354760e+001
6.030854e+002, 1.337303e+001
6.035675e+002, 1.325508e+001
6.040496e+002, 1.328097e+001
6.045317e+002, 1.317848e+001
6.050139e+002, 1.259720e+001
6.054960e+002, 1.189566e+001
6.059781e+002, 1.162096e+001
6.064602e+002, 1.181885e+001
6.069423e+002, 1.222383e+001
6.074244e+002, 1.268773e+001
6.079066e+002, 1.315960e+001
6.083887e+002, 1.341025e+001
6.088708e+002, 1.334391e+001
6.093529e+002, 1.317370e+001
6.098350e+002, 1.261486e+001
6.103171e+002, 1.219561e+001
6.107993e+002, 1.246358e+001
6.112814e+002, 1.324440e+001
6.117635e+002, 1.384971e+001
6.122456e+002, 1.378950e+001
6.127277e+002, 1.338085e+001
6.132098e+002, 1.337609e+001
6.136920e+002, 1.383757e+001
6.141741e+002, 1.390239e+001
6.146562e+002, 1.305503e+001
6.151383e+002, 1.214662e+001
6.156204e+002, 1.217442e+001
6.161025e+002, 1.296850e+001
6.165847e+002, 1.352455e+001
6.170668e+002, 1.351362e+001
6.175489e+002, 1.332961e+001
6.180310e+002, 1.313970e+001
6.185131e+002, 1.297416e+001
6.189952e+002, 1.290850e+001
6.194774e+002, 1.296028e+001
6.199595e+002, 1.301091e+001
6.204416e+002, 1.289831e+001
6.209237e+002, 1.259883e+001
6.214058e+002, 1.249455e+001
6.218879e+002, 1.280413e+001
6.223701e+002, 1.304508e+001
6.228522e+002, 1.308425e+001
6.233343e+002, 1.302681e+001
6.238164e+002, 1.294664e+001
6.242985e+002, 1.287089e+001
6.247806e+002, 1.287068e+001
6.252628e+002, 1.310776e+001
6.257448e+002, 1.345022e+001
6.262269e+002, 1.350054e+001
6.267090e+002, 1.322680e+001
6.271912e+002, 1.293915e+001
6.276733e+002, 1.273839e+001
6.281554e+002, 1.264273e+001
6.286375e+002, 1.277111e+001
6.291196e+002, 1.323908e+001
6.296017e+002, 1.337022e+001
6.300839e+002, 1.261923e+001
6.305660e+002, 1.189828e+001
6.310481e+002, 1.194938e+001
6.315302e+002, 1.253999e+001
6.320123e+002, 1.305777e+001
6.324944e+002, 1.322041e+001
6.329766e+002, 1.313696e+001
6.334587e+002, 1.296097e+001
6.339408e+002, 1.266722e+001
6.344229e+002, 1.239030e+001
6.349050e+002, 1.195694e+001
6.353871e+002, 1.178705e+001
6.358693e+002, 1.230400e+001
6.363514e+002, 1.309273e+001
6.368335e+002, 1.349579e+001
6.373156e+002, 1.330164e+001
6.377977e+002, 1.296864e+001
6.382798e+002, 1.278537e+001
6.387620e+002, 1.269968e+001
6.392441e+002, 1.258325e+001
6.397262e+002, 1.242820e+001
6.402083e+002, 1.241053e+001
6.406904e+002, 1.269682e+001
6.411725e+002, 1.314567e+001
6.416547e+002, 1.327939e+001
6.421368e+002, 1.263854e+001
6.426189e+002, 1.236240e+001
6.431010e+002, 1.268720e+001
6.435831e+002, 1.316381e+001
6.440652e+002, 1.361999e+001
6.445474e+002, 1.398193e+001
6.450295e+002, 1.416764e+001
6.455116e+002, 1.412933e+001
6.459937e+002, 1.391482e+001
6.464758e+002, 1.349958e+001
6.469579e+002, 1.288746e+001
6.474401e+002, 1.259280e+001
6.479222e+002, 1.282302e+001
6.484043e+002, 1.310128e+001
6.488864e+002, 1.294424e+001
6.493685e+002, 1.254490e+001
6.498506e+002, 1.252993e+001
6.503328e+002, 1.325425e+001
6.508149e+002, 1.389061e+001
6.512970e+002, 1.414787e+001
6.517791e+002, 1.412361e+001
6.522612e+002, 1.379767e+001
6.527433e+002, 1.325693e+001
6.532255e+002, 1.286583e+001
6.537076e+002, 1.292232e+001
6.541897e+002, 1.327632e+001
6.546718e+002, 1.336771e+001
6.551539e+002, 1.312853e+001
6.556360e+002, 1.278949e+001
6.561182e+002, 1.201998e+001
6.566003e+002, 1.147577e+001
6.570824e+002, 1.169936e+001
6.575645e+002, 1.247139e+001
6.580466e+002, 1.308971e+001
6.585287e+002, 1.323907e+001
6.590109e+002, 1.322310e+001
6.594930e+002, 1.330626e+001
6.599751e+002, 1.345360e+001
6.604572e+002, 1.358265e+001
6.609393e+002, 1.367681e+001
6.614214e+002, 1.369281e+001
6.619036e+002, 1.355503e+001
6.623857e+002, 1.329610e+001
6.628678e+002, 1.326964e+001
6.633499e+002, 1.388799e+001
6.638320e+002, 1.419058e+001
6.643141e+002, 1.377544e+001
6.647963e+002, 1.326058e+001
6.652784e+002, 1.315169e+001
6.657605e+002, 1.342209e+001
6.662426e+002, 1.374090e+001
6.667247e+002, 1.392276e+001
6.672068e+002, 1.400724e+001
6.676890e+002, 1.402445e+001
6.681711e+002, 1.397934e+001
6.686532e+002, 1.408339e+001
6.691353e+002, 1.446596e+001
6.696174e+002, 1.480835e+001
6.700995e+002, 1.478306e+001
6.705817e+002, 1.441761e+001
6.710638e+002, 1.408383e+001
6.715459e+002, 1.366629e+001
6.720280e+002, 1.342998e+001
6.725101e+002, 1.373047e+001
6.729922e+002, 1.409618e+001
6.734744e+002, 1.383695e+001
6.739565e+002, 1.301616e+001
6.744386e+002, 1.243520e+001
6.749207e+002, 1.276648e+001
6.754028e+002, 1.368386e+001
6.758849e+002, 1.408334e+001
6.763671e+002, 1.382792e+001
6.768492e+002, 1.366596e+001
6.773313e+002, 1.381573e+001
6.778134e+002, 1.401769e+001
6.782955e+002, 1.409480e+001
6.787776e+002, 1.405652e+001
6.792598e+002, 1.392292e+001
6.797419e+002, 1.355264e+001
6.802240e+002, 1.327536e+001
6.807061e+002, 1.338929e+001
6.811882e+002, 1.368170e+001
6.816703e+002, 1.380169e+001
6.821525e+002, 1.370090e+001
6.826346e+002, 1.357438e+001
6.831167e+002, 1.358222e+001
6.835988e+002, 1.369611e+001
6.840809e+002, 1.378040e+001
6.845630e+002, 1.384194e+001
6.850452e+002, 1.385845e+001
6.855273e+002, 1.368579e+001
6.860094e+002, 1.359254e+001
6.864915e+002, 1.393931e+001
6.869736e+002, 1.450653e+001
6.874557e+002, 1.459368e+001
6.879379e+002, 1.362346e+001
6.884200e+002, 1.265162e+001
6.889021e+002, 1.280094e+001
6.893842e+002, 1.363527e+001
6.898663e+002, 1.410965e+001
6.903484e+002, 1.404262e+001
6.908306e+002, 1.392323e+001
6.913127e+002, 1.415520e+001
6.917948e+002, 1.464027e+001
6.922769e+002, 1.488322e+001
6.927590e+002, 1.471800e+001
6.932411e+002, 1.456837e+001
6.937233e+002, 1.450432e+001
6.942054e+002, 1.441665e+001
6.946875e+002, 1.413141e+001
6.951696e+002, 1.377260e+001
6.956517e+002, 1.367392e+001
6.961339e+002, 1.403978e+001
6.966160e+002, 1.452988e+001
6.970981e+002, 1.478847e+001
6.975802e+002, 1.485680e+001
6.980623e+002, 1.484693e+001
6.985444e+002, 1.476516e+001
6.990266e+002, 1.476842e+001
6.995087e+002, 1.501794e+001
6.999908e+002, 1.540602e+001
7.004729e+002, 1.551390e+001
7.009550e+002, 1.496153e+001
7.014371e+002, 1.471175e+001
7.019193e+002, 1.500112e+001
7.024014e+002, 1.538784e+001
7.028835e+002, 1.567524e+001
7.033656e+002, 1.583422e+001
7.038477e+002, 1.586066e+001
7.043298e+002, 1.574728e+001
7.048120e+002, 1.554995e+001
7.052941e+002, 1.529223e+001
7.057762e+002, 1.500145e+001
7.062583e+002, 1.478884e+001
7.067404e+002, 1.465355e+001
7.072225e+002, 1.471632e+001
7.077046e+002, 1.519393e+001
7.081867e+002, 1.580894e+001
7.086688e+002, 1.579094e+001
7.091509e+002, 1.475371e+001
7.096331e+002, 1.410574e+001
7.101152e+002, 1.408484e+001
7.105973e+002, 1.433302e+001
7.110794e+002, 1.480912e+001
7.115615e+002, 1.535501e+001
7.120436e+002, 1.572440e+001
7.125258e+002, 1.583219e+001
7.130079e+002, 1.583653e+001
7.134900e+002, 1.590174e+001
7.139721e+002, 1.602120e+001
7.144542e+002, 1.614856e+001
7.149363e+002, 1.627095e+001
7.154185e+002, 1.649341e+001
7.159006e+002, 1.696955e+001
7.163827e+002, 1.746134e+001
7.168648e+002, 1.750693e+001
7.173469e+002, 1.701954e+001
7.178290e+002, 1.666511e+001
7.183112e+002, 1.648050e+001
7.187933e+002, 1.646091e+001
7.192754e+002, 1.667173e+001
7.197575e+002, 1.701723e+001
7.202396e+002, 1.740498e+001
7.207217e+002, 1.779225e+001
7.212039e+002, 1.811052e+001
7.216860e+002, 1.827983e+001
7.221681e+002, 1.832898e+001
7.226502e+002, 1.834782e+001
7.231323e+002, 1.832470e+001
7.236144e+002, 1.840388e+001
7.240966e+002, 1.876523e+001
7.245787e+002, 1.904201e+001
7.250608e+002, 1.862888e+001
7.255429e+002, 1.754636e+001
7.260250e+002, 1.703015e+001
7.265071e+002, 1.750559e+001
7.269893e+002, 1.812269e+001
7.274714e+002, 1.871454e+001
7.279535e+002, 1.920546e+001
7.284356e+002, 1.954419e+001
7.289177e+002, 1.970496e+001
7.293998e+002, 1.959586e+001
7.298820e+002, 1.904593e+001
7.303641e+002, 1.837197e+001
7.308462e+002, 1.845541e+001
7.313283e+002, 1.933567e+001
7.318104e+002, 1.975512e+001
7.322925e+002, 1.927839e+001
7.327747e+002, 1.874966e+001
7.332568e+002, 1.891452e+001
7.337389e+002, 1.963028e+001
7.342210e+002, 2.008939e+001
7.347031e+002, 2.007426e+001
7.351852e+002, 2.013673e+001
7.356674e+002, 2.045871e+001
7.361495e+002, 2.084450e+001
7.366316e+002, 2.113634e+001
7.371137e+002, 2.134827e+001
7.375958e+002, 2.156958e+001
7.380779e+002, 2.184680e+001
7.385601e+002, 2.215161e+001
7.390422e+002, 2.249097e+001
7.395243e+002, 2.284472e+001
7.400064e+002, 2.296746e+001
7.404885e+002, 2.277002e+001
7.409706e+002, 2.266152e+001
7.414528e+002, 2.288517e+001
7.419349e+002, 2.333069e+001
7.424170e+002, 2.376544e+001
7.428991e+002, 2.418288e+001
7.433812e+002, 2.461448e+001
7.438633e+002, 2.513989e+001
7.443455e+002, 2.560023e+001
7.448276e+002, 2.590560e+001
7.453097e+002, 2.609326e+001
7.457918e+002, 2.614987e+001
7.462739e+002, 2.610264e+001
7.467560e+002, 2.620491e+001
7.472382e+002, 2.679722e+001
7.477203e+002, 2.771259e+001
7.482024e+002, 2.846556e+001
7.486845e+002, 2.905693e+001
7.491666e+002, 2.946359e+001
7.496487e+002, 2.962243e+001
7.501309e+002, 2.972845e+001
7.506130e+002, 3.001661e+001
7.510951e+002, 3.049747e+001
7.515772e+002, 3.095704e+001
7.520593e+002, 3.128541e+001
7.525414e+002, 3.173435e+001
7.530236e+002, 3.248300e+001
7.535057e+002, 3.328783e+001
7.539878e+002, 3.386309e+001
7.544699e+002, 3.426174e+001
7.549520e+002, 3.481394e+001
7.554341e+002, 3.575066e+001
7.559163e+002, 3.684175e+001
7.563984e+002, 3.784276e+001
7.568805e+002, 3.873055e+001
7.573626e+002, 3.922801e+001
7.578447e+002, 3.924553e+001
7.583268e+002, 3.963599e+001
7.588090e+002, 4.108968e+001
7.592911e+002, 4.328925e+001
7.597732e+002, 4.518426e+001
7.602553e+002, 4.672376e+001
7.607374e+002, 4.804938e+001
7.612195e+002, 4.897988e+001
7.617017e+002, 4.989995e+001
7.621838e+002, 5.076148e+001
7.626659e+002, 5.181353e+001
7.631480e+002, 5.357756e+001
7.636301e+002, 5.622572e+001
7.641122e+002, 5.878237e+001
7.645944e+002, 6.027196e+001
7.650765e+002, 6.134669e+001
7.655586e+002, 6.307379e+001
7.660407e+002, 6.540058e+001
7.665228e+002, 6.770800e+001
7.670049e+002, 6.976057e+001
7.674871e+002, 7.178425e+001
7.679692e+002, 7.406499e+001
7.684513e+002, 7.662971e+001
7.689334e+002, 7.919756e+001
7.694155e+002, 8.197765e+001
7.698976e+002, 8.442707e+001
7.703798e+002, 8.594621e+001
7.708619e+002, 8.748729e+001
7.713440e+002, 8.988034e+001
7.718261e+002, 9.300804e+001
7.723082e+002, 9.606333e+001
7.727903e+002, 9.865897e+001
7.732725e+002, 1.012417e+002
7.737546e+002, 1.041994e+002
7.742367e+002, 1.072967e+002
7.747188e+002, 1.099908e+002
7.752009e+002, 1.123453e+002
7.756830e+002, 1.151877e+002
7.761652e+002, 1.191506e+002
7.766473e+002, 1.236142e+002
7.771294e+002, 1.269550e+002
7.776115e+002, 1.289270e+002
7.780936e+002, 1.315012e+002
7.785757e+002, 1.350229e+002
7.790579e+002, 1.387576e+002
7.795400e+002, 1.424522e+002
7.800221e+002, 1.460432e+002
7.805042e+002, 1.493169e+002
7.809863e+002, 1.521897e+002
7.814684e+002, 1.552697e+002
7.819506e+002, 1.590678e+002
7.824327e+002, 1.627516e+002
7.829148e+002, 1.655582e+002
7.833969e+002, 1.679794e+002
7.838790e+002, 1.709305e+002
7.843611e+002, 1.745957e+002
7.848433e+002, 1.783096e+002
7.853254e+002, 1.815088e+002
7.858075e+002, 1.842615e+002
7.862896e+002, 1.865899e+002
7.867717e+002, 1.884753e+002
7.872538e+002, 1.906653e+002
7.877360e+002, 1.933821e+002
7.882181e+002, 1.963671e+002
7.887002e+002, 1.995719e+002
7.891823e+002, 2.028775e+002
7.896644e+002, 2.051547e+002
7.901465e+002, 2.059008e+002
7.906286e+002, 2.064052e+002
7.911107e+002, 2.065856e+002
7.915928e+002, 2.067145e+002
7.920750e+002, 2.069162e+002
7.925571e+002, 2.072154e+002
7.930392e+002, 2.077305e+002
7.935213e+002, 2.085607e+002
7.940034e+002, 2.090927e+002
7.944855e+002, 2.086820e+002
7.949677e+002, 2.076508e+002
7.954498e+002, 2.065566e+002
7.959319e+002, 2.054227e+002
7.964140e+002, 2.041265e+002
7.968961e+002, 2.025910e+002
7.973782e+002, 2.011206e+002
7.978604e+002, 2.002727e+002
7.983425e+002, 2.001120e+002
7.988246e+002, 1.987265e+002
7.993067e+002, 1.952795e+002
7.997888e+002, 1.921103e+002
8.002709e+002, 1.899420e+002
8.007531e+002, 1.881504e+002
8.012352e+002, 1.862258e+002
8.017173e+002, 1.842630e+002
8.021994e+002, 1.828591e+002
8.026815e+002, 1.827731e+002
8.031636e+002, 1.823965e+002
8.036458e+002, 1.805667e+002
8.041279e+002, 1.782054e+002
8.046100e+002, 1.764337e+002
8.050921e+002, 1.752243e+002
8.055742e+002, 1.738836e+002
8.060563e+002, 1.720371e+002
8.065385e+002, 1.700495e+002
8.070206e+002, 1.686092e+002
8.075027e+002, 1.676538e+002
8.079848e+002, 1.663466e+002
8.084669e+002, 1.646346e+002
8.089490e+002, 1.626141e+002
8.094312e+002, 1.602422e+002
8.099133e+002, 1.577101e+002
8.103954e+002, 1.552774e+002
8.108775e+002, 1.529375e+002
8.113596e+002, 1.507747e+002
8.118417e+002, 1.493757e+002
8.123239e+002, 1.474195e+002
8.128060e+002, 1.440585e+002
8.132881e+002, 1.403377e+002
8.137702e+002, 1.373231e+002
8.142523e+002, 1.349696e+002
8.147344e+002, 1.325830e+002
8.152166e+002, 1.299917e+002
8.156987e+002, 1.268770e+002
8.161808e+002, 1.223309e+002
8.166629e+002, 1.171878e+002
8.171450e+002, 1.135528e+002
8.176271e+002, 1.115029e+002
8.181093e+002, 1.093871e+002
8.185914e+002, 1.062699e+002
8.190735e+002, 1.025043e+002
8.195556e+002, 9.868940e+001
8.200377e+002, 9.474783e+001
8.205198e+002, 9.124373e+001
8.210020e+002, 8.837090e+001
8.214841e+002, 8.551498e+001
8.219662e+002, 8.242418e+001
8.224483e+002, 7.926311e+001
8.229304e+002, 7.613713e+001
8.234125e+002, 7.305737e+001
8.238947e+002, 7.038718e+001
8.243768e+002, 6.841113e+001
8.248589e+002, 6.662124e+001
8.253410e+002, 6.489368e+001
8.258231e+002, 6.316311e+001
8.263052e+002, 6.129739e+001
8.267874e+002, 5.935860e+001
8.272695e+002, 5.761262e+001
8.277516e+002, 5.622443e+001
8.282337e+002, 5.497531e+001
8.287158e+002, 5.348584e+001
8.291979e+002, 5.185726e+001
8.296801e+002, 5.055840e+001
8.301622e+002, 4.963820e+001
8.306443e+002, 4.873611e+001
8.311264e+002, 4.767416e+001
8.316085e+002, 4.654642e+001
8.320906e+002, 4.548411e+001
8.325728e+002, 4.448187e+001
8.330549e+002, 4.362249e+001
8.335370e+002, 4.303724e+001
8.340191e+002, 4.241430e+001
8.345012e+002, 4.166566e+001
8.349833e+002, 4.087513e+001
8.354655e+002, 4.008101e+001
8.359476e+002, 3.929879e+001
8.364297e+002, 3.857164e+001
8.369118e+002, 3.802044e+001
8.373939e+002, 3.735690e+001
8.378760e+002, 3.635625e+001
8.383582e+002, 3.520021e+001
8.388403e+002, 3.396526e+001
8.393224e+002, 3.277110e+001
8.398045e+002, 3.190742e+001
8.402866e+002, 3.151310e+001
8.407687e+002, 3.135699e+001
8.412509e+002, 3.125689e+001
8.417330e+002, 3.114987e+001
8.422151e+002, 3.054489e+001
8.426972e+002, 2.939277e+001
8.431793e+002, 2.851602e+001
8.436614e+002, 2.827931e+001
8.441436e+002, 2.824382e+001
8.446257e+002, 2.788529e+001
8.451078e+002, 2.721523e+001
8.455899e+002, 2.677790e+001
8.460720e+002, 2.679433e+001
8.465541e+002, 2.672423e+001
8.470363e+002, 2.645602e+001
8.475184e+002, 2.615044e+001
8.480005e+002, 2.600506e+001
8.484826e+002, 2.588214e+001
8.489647e+002, 2.541108e+001
8.494468e+002, 2.439623e+001
8.499290e+002, 2.349094e+001
8.504111e+002, 2.308881e+001
8.508932e+002, 2.293198e+001
8.513753e+002, 2.286625e+001
8.518574e+002, 2.280373e+001
8.523395e+002, 2.254775e+001
8.528217e+002, 2.206472e+001
8.533038e+002, 2.159645e+001
8.537859e+002, 2.138406e+001
8.542680e+002, 2.137142e+001
8.547501e+002, 2.144810e+001
8.552322e+002, 2.161428e+001
8.557144e+002, 2.155780e+001
8.561965e+002, 2.117114e+001
8.566786e+002, 2.075917e+001
8.571607e+002, 2.056776e+001
8.576428e+002, 2.051141e+001
8.581249e+002, 2.030099e+001
8.586071e+002, 1.977056e+001
8.590892e+002, 1.944944e+001
8.595713e+002, 1.948203e+001
8.600534e+002, 1.954871e+001
8.605355e+002, 1.953443e+001
8.610176e+002, 1.949465e+001
8.614998e+002, 1.954775e+001
8.619819e+002, 1.969134e+001
8.624640e+002, 1.967752e+001
8.629461e+002, 1.929608e+001
8.634282e+002, 1.884303e+001
8.639103e+002, 1.844149e+001
8.643925e+002, 1.813690e+001
8.648746e+002, 1.806510e+001
8.653567e+002, 1.817248e+001
8.658388e+002, 1.819654e+001
8.663209e+002, 1.797800e+001
8.668030e+002, 1.765771e+001
8.672852e+002, 1.744066e+001
8.677673e+002, 1.731353e+001
8.682494e+002, 1.723090e+001
8.687315e+002, 1.719393e+001
8.692136e+002, 1.705229e+001
8.696957e+002, 1.671172e+001
8.701779e+002, 1.635061e+001
8.706600e+002, 1.622275e+001
8.711421e+002, 1.633040e+001
8.716242e+002, 1.635440e+001
8.721063e+002, 1.619473e+001
8.725884e+002, 1.612760e+001
8.730705e+002, 1.638181e+001
8.735526e+002, 1.656948e+001
8.740347e+002, 1.635374e+001
8.745168e+002, 1.590465e+001
8.749990e+002, 1.563826e+001
8.754811e+002, 1.563951e+001
8.759632e+002, 1.577370e+001
8.764453e+002, 1.619686e+001
8.769274e+002, 1.654136e+001
8.774095e+002, 1.647010e+001
8.778917e+002, 1.615089e+001
8.783738e+002, 1.586511e+001
8.788559e+002, 1.568976e+001
8.793380e+002, 1.557014e+001
8.798201e+002, 1.546644e+001
8.803022e+002, 1.539152e+001
8.807844e+002, 1.539692e+001
8.812665e+002, 1.545054e+001
8.817486e+002, 1.543926e+001
8.822307e+002, 1.534485e+001
8.827128e+002, 1.516208e+001
8.831949e+002, 1.486597e+001
8.836771e+002, 1.457599e+001
8.841592e+002, 1.459546e+001
8.846413e+002, 1.500251e+001
8.851234e+002, 1.508100e+001
8.856055e+002, 1.460584e+001
8.860876e+002, 1.437953e+001
8.865698e+002, 1.490399e+001
8.870519e+002, 1.556548e+001
8.875340e+002, 1.565524e+001
8.880161e+002, 1.520661e+001
8.884982e+002, 1.476867e+001
8.889803e+002, 1.413064e+001
8.894625e+002, 1.382284e+001
8.899446e+002, 1.421065e+001
8.904267e+002, 1.469708e+001
8.909088e+002, 1.490154e+001
8.913909e+002, 1.488377e+001
8.918730e+002, 1.480083e+001
8.923552e+002, 1.469136e+001
8.928373e+002, 1.462474e+001
8.933194e+002, 1.465892e+001
8.938015e+002, 1.474659e+001
8.942836e+002, 1.485542e+001
8.947657e+002, 1.497339e+001
8.952479e+002, 1.510642e+001
8.957300e+002, 1.523779e+001
8.962121e+002, 1.526890e+001
8.966942e+002, 1.511074e+001
8.971763e+002, 1.486145e+001
8.976584e+002, 1.466410e+001
8.981406e+002, 1.453547e+001
8.986227e+002, 1.472135e+001
8.991048e+002, 1.528107e+001
8.995869e+002, 1.567162e+001
9.000690e+002, 1.560686e+001
9.005511e+002, 1.532231e+001
9.010333e+002, 1.512811e+001
9.015154e+002, 1.501544e+001
9.019975e+002, 1.523373e+001
9.024796e+002, 1.619268e+001
9.029617e+002, 1.671932e+001
9.034438e+002, 1.629315e+001
9.039260e+002, 1.566222e+001
9.044081e+002, 1.524432e+001
9.048902e+002, 1.502476e+001
9.053723e+002, 1.497853e+001
9.058544e+002, 1.515161e+001
9.063365e+002, 1.536025e+001
9.068187e+002, 1.573530e+001
9.073008e+002, 1.594743e+001
9.077829e+002, 1.559756e+001
9.082650e+002, 1.506527e+001
9.087471e+002, 1.487147e+001
9.092292e+002, 1.508610e+001
9.097114e+002, 1.543289e+001
9.101935e+002, 1.576929e+001
9.106756e+002, 1.613668e+001
9.111577e+002, 1.670087e+001
9.116398e+002, 1.727747e+001
9.121219e+002, 1.742919e+001
9.126041e+002, 1.721480e+001
9.130862e+002, 1.712880e+001
9.135683e+002, 1.740543e+001
9.140504e+002, 1.777020e+001
9.145325e+002, 1.782197e+001
9.150146e+002, 1.763387e+001
9.154968e+002, 1.763704e+001
9.159789e+002, 1.783676e+001
9.164610e+002, 1.811127e+001
9.169431e+002, 1.846343e+001
9.174252e+002, 1.872744e+001
9.179073e+002, 1.873002e+001
9.183895e+002, 1.857023e+001
9.188716e+002, 1.863557e+001
9.193537e+002, 1.912844e+001
9.198358e+002, 1.932665e+001
9.203179e+002, 1.910172e+001
9.208000e+002, 1.876212e+001
9.212822e+002, 1.821824e+001
9.217643e+002, 1.775615e+001
9.222464e+002, 1.785070e+001
9.227285e+002, 1.846407e+001
9.232106e+002, 1.865195e+001
9.236927e+002, 1.783618e+001
9.241749e+002, 1.718713e+001
9.246570e+002, 1.707627e+001
9.251391e+002, 1.721469e+001
9.256212e+002, 1.763819e+001
9.261033e+002, 1.805955e+001
9.265854e+002, 1.784250e+001
9.270676e+002, 1.678042e+001
9.275497e+002, 1.585205e+001
9.280318e+002, 1.590260e+001
9.285139e+002, 1.622246e+001
9.289960e+002, 1.607578e+001
9.294781e+002, 1.566087e+001
9.299603e+002, 1.541505e+001
9.304424e+002, 1.538052e+001
9.309245e+002, 1.526143e+001
9.314066e+002, 1.484178e+001
9.318887e+002, 1.440218e+001
9.323708e+002, 1.445039e+001
9.328530e+002, 1.486583e+001
9.333351e+002, 1.521140e+001
9.338172e+002, 1.545172e+001
9.342993e+002, 1.538623e+001
9.347814e+002, 1.491345e+001
9.352635e+002, 1.438959e+001
9.357457e+002, 1.420445e+001
9.362278e+002, 1.430808e+001
9.367099e+002, 1.446456e+001
9.371920e+002, 1.477291e+001
9.376741e+002, 1.461956e+001
9.381563e+002, 1.360030e+001
9.386384e+002, 1.286901e+001
9.391205e+002, 1.318331e+001
9.396026e+002, 1.407387e+001
9.400847e+002, 1.477914e+001
9.405668e+002, 1.534188e+001
9.410490e+002, 1.545968e+001
9.415311e+002, 1.461983e+001
9.420132e+002, 1.405411e+001
9.424953e+002, 1.419896e+001
9.429774e+002, 1.450937e+001
9.434595e+002, 1.461946e+001
9.439417e+002, 1.456650e+001
9.444238e+002, 1.449861e+001
9.449059e+002, 1.443819e+001
9.453880e+002, 1.438722e+001
9.458701e+002, 1.438155e+001
9.463522e+002, 1.434809e+001
9.468344e+002, 1.412249e+001
9.473165e+002, 1.390433e+001
9.477986e+002, 1.402323e+001
9.482807e+002, 1.445702e+001
9.487628e+002, 1.486050e+001
9.492449e+002, 1.506726e+001
9.497271e+002, 1.513392e+001
9.502092e+002, 1.506264e+001
9.506913e+002, 1.491760e+001
9.511734e+002, 1.468464e+001
9.516555e+002, 1.447143e+001
9.521376e+002, 1.462989e+001
9.526198e+002, 1.525534e+001
9.531019e+002, 1.601423e+001
9.535840e+002, 1.665989e+001
9.540661e+002, 1.712471e+001
9.545482e+002, 1.708616e+001
9.550303e+002, 1.666140e+001
9.555124e+002, 1.670718e+001
9.559945e+002, 1.734271e+001
9.564766e+002, 1.791299e+001
9.569587e+002, 1.805408e+001
9.574409e+002, 1.801900e+001
9.579230e+002, 1.821394e+001
9.584051e+002, 1.863549e+001
9.588872e+002, 1.897066e+001
9.593693e+002, 1.914971e+001
9.598514e+002, 1.957344e+001
9.603336e+002, 2.041927e+001
9.608157e+002, 2.131514e+001
9.612978e+002, 2.196734e+001
9.617799e+002, 2.246525e+001
9.622620e+002, 2.306431e+001
9.627441e+002, 2.381350e+001
9.632263e+002, 2.451131e+001
9.637084e+002, 2.518753e+001
9.641905e+002, 2.576727e+001
9.646726e+002, 2.592820e+001
9.651547e+002, 2.623075e+001
9.656368e+002, 2.726467e+001
9.661190e+002, 2.889172e+001
9.666011e+002, 3.043669e+001
9.670832e+002, 3.183082e+001
9.675653e+002, 3.311940e+001
9.680474e+002, 3.424940e+001
9.685295e+002, 3.534596e+001
9.690117e+002, 3.635524e+001
9.694938e+002, 3.744184e+001
9.699759e+002, 3.891204e+001
9.704580e+002, 4.072659e+001
9.709401e+002, 4.234856e+001
9.714222e+002, 4.350103e+001
9.719044e+002, 4.445998e+001
9.723865e+002, 4.552008e+001
9.728686e+002, 4.638082e+001
9.733507e+002, 4.671520e+001
9.738328e+002, 4.657336e+001
9.743149e+002, 4.603581e+001
9.747971e+002, 4.517212e+001
9.752792e+002, 4.433254e+001
9.757613e+002, 4.398095e+001
9.762434e+002, 4.360252e+001
9.767255e+002, 4.242086e+001
9.772076e+002, 4.071553e+001
9.776898e+002, 3.900409e+001
9.781719e+002, 3.736921e+001
9.786540e+002, 3.584299e+001
9.791361e+002, 3.443063e+001
9.796182e+002, 3.301907e+001
9.801003e+002, 3.140953e+001
9.805825e+002, 2.970098e+001
9.810646e+002, 2.832252e+001
9.815467e+002, 2.722999e+001
9.820288e+002, 2.598190e+001
9.825109e+002, 2.449750e+001
9.829930e+002, 2.318731e+001
9.834752e+002, 2.233274e+001
9.839573e+002, 2.177215e+001
9.844394e+002, 2.120785e+001
9.849215e+002, 2.064005e+001
9.854036e+002, 2.020411e+001
9.858857e+002, 1.995284e+001
9.863679e+002, 1.947050e+001
9.868500e+002, 1.854601e+001
9.873321e+002, 1.769674e+001
9.878142e+002, 1.738536e+001
9.882963e+002, 1.743168e+001
9.887784e+002, 1.727004e+001
9.892606e+002, 1.685344e+001
9.897427e+002, 1.638489e+001
9.902248e+002, 1.578016e+001
9.907069e+002, 1.528265e+001
9.911890e+002, 1.493997e+001
9.916711e+002, 1.476943e+001
9.921533e+002, 1.496069e+001
9.926354e+002, 1.538246e+001
9.931175e+002, 1.522797e+001
9.935996e+002, 1.394319e+001
9.940817e+002, 1.308366e+001
9.945638e+002, 1.277586e+001
9.950460e+002, 1.276663e+001
9.955281e+002, 1.323359e+001
9.960102e+002, 1.376136e+001
9.964923e+002, 1.389950e+001
9.969744e+002, 1.366547e+001
9.974565e+002, 1.336059e+001
9.979387e+002, 1.287047e+001
9.984208e+002, 1.259879e+001
9.989029e+002, 1.276529e+001
9.993850e+002, 1.305797e+001
9.998671e+002, 1.337645e+001
1.000349e+003, 1.364679e+001
1.000831e+003, 1.384937e+001
1.001313e+003, 1.394870e+001
1.001796e+003, 1.371161e+001
1.002278e+003, 1.260422e+001
1.002760e+003, 1.180653e+001
1.003242e+003, 1.242237e+001
1.003724e+003, 1.323921e+001
1.004206e+003, 1.299538e+001
1.004688e+003, 1.210212e+001
1.005170e+003, 1.151937e+001
1.005653e+003, 1.147913e+001
1.006135e+003, 1.158559e+001
1.006617e+003, 1.157292e+001
1.007099e+003, 1.162545e+001
1.007581e+003, 1.215065e+001
1.008063e+003, 1.270280e+001
1.008545e+003, 1.247066e+001
1.009027e+003, 1.168983e+001
1.009509e+003, 1.122672e+001
1.009992e+003, 1.137099e+001
1.010474e+003, 1.165459e+001
1.010956e+003, 1.169182e+001
1.011438e+003, 1.160319e+001
1.011920e+003, 1.157491e+001
1.012402e+003, 1.156104e+001
1.012884e+003, 1.141510e+001
1.013366e+003, 1.116122e+001
1.013849e+003, 1.098110e+001
1.014331e+003, 1.095395e+001
1.014813e+003, 1.102658e+001
1.015295e+003, 1.118187e+001
1.015777e+003, 1.135890e+001
1.016259e+003, 1.142284e+001
1.016741e+003, 1.137215e+001
1.017223e+003, 1.110324e+001
1.017705e+003, 1.064277e+001
1.018188e+003, 1.045737e+001
1.018670e+003, 1.080086e+001
1.019152e+003, 1.128819e+001
1.019634e+003, 1.139572e+001
1.020116e+003, 1.118605e+001
1.020598e+003, 1.087639e+001
1.021080e+003, 1.048235e+001
1.021562e+003, 1.049872e+001
1.022044e+003, 1.104086e+001
1.022527e+003, 1.139912e+001
1.023009e+003, 1.113510e+001
1.023491e+003, 1.061038e+001
1.023973e+003, 1.040823e+001
1.024455e+003, 1.050683e+001
1.024937e+003, 1.052085e+001
1.025419e+003, 1.042302e+001
1.025901e+003, 1.049214e+001
1.026384e+003, 1.081451e+001
1.026866e+003, 1.116855e+001
1.027348e+003, 1.144830e+001
1.027830e+003, 1.160302e+001
1.028312e+003, 1.150514e+001
1.028794e+003, 1.113714e+001
1.029276e+003, 1.095042e+001
1.029758e+003, 1.099896e+001
1.030240e+003, 1.104496e+001
1.030723e+003, 1.106768e+001
1.031205e+003, 1.102466e+001
1.031687e+003, 1.088608e+001
1.032169e+003, 1.066080e+001
1.032651e+003, 1.032964e+001
1.033133e+003, 9.844462e+000
1.033615e+003, 9.675718e+000
1.034097e+003, 9.979835e+000
1.034579e+003, 1.025742e+001
1.035062e+003, 1.037742e+001
1.035544e+003, 1.051910e+001
1.036026e+003, 1.093596e+001
1.036508e+003, 1.136739e+001
1.036990e+003, 1.114699e+001
1.037472e+003, 1.001950e+001
1.037954e+003, 9.696054e+000
1.038436e+003, 1.101925e+001
1.038919e+003, 1.178879e+001
1.039401e+003, 1.116807e+001
1.039883e+003, 1.039038e+001
1.040365e+003, 1.022041e+001
1.040847e+003, 1.045572e+001
1.041329e+003, 1.071057e+001
1.041811e+003, 1.101960e+001
1.042293e+003, 1.117036e+001
1.042776e+003, 1.109249e+001
1.043258e+003, 1.095091e+001
1.043740e+003, 1.064107e+001
1.044222e+003, 1.041091e+001
1.044704e+003, 1.049217e+001
1.045186e+003, 1.074273e+001
1.045668e+003, 1.087499e+001
1.046150e+003, 1.084760e+001
1.046632e+003, 1.086747e+001
1.047115e+003, 1.112731e+001
1.047597e+003, 1.120080e+001
1.048079e+003, 1.070887e+001
1.048561e+003, 1.026565e+001
1.049043e+003, 1.045822e+001
1.049525e+003, 1.094075e+001
1.050007e+003, 1.100552e+001
1.050489e+003, 1.053402e+001
1.050971e+003, 1.013990e+001
1.051454e+003, 9.744386e+000
1.051936e+003, 9.710916e+000
1.052418e+003, 1.055638e+001
1.052900e+003, 1.140672e+001
1.053382e+003, 1.166461e+001
1.053864e+003, 1.145887e+001
1.054346e+003, 1.094607e+001
1.054828e+003, 1.013160e+001
1.055311e+003, 9.770632e+000
1.055793e+003, 1.049516e+001
1.056275e+003, 1.111688e+001
1.056757e+003, 1.118162e+001
1.057239e+003, 1.104358e+001
1.057721e+003, 1.087412e+001
1.058203e+003, 1.073470e+001
1.058685e+003, 1.070865e+001
1.059167e+003, 1.080488e+001
1.059650e+003, 1.086924e+001
1.060132e+003, 1.092728e+001
1.060614e+003, 1.084268e+001
1.061096e+003, 1.041186e+001
1.061578e+003, 9.967145e+000
1.062060e+003, 9.730437e+000
1.062542e+003, 9.669586e+000
1.063024e+003, 9.767932e+000
1.063506e+003, 9.995111e+000
1.063989e+003, 1.007407e+001
1.064471e+003, 9.699108e+000
1.064953e+003, 9.449710e+000
1.065435e+003, 9.779478e+000
1.065917e+003, 1.011174e+001
1.066399e+003, 9.874934e+000
1.066881e+003, 9.407447e+000
1.067363e+003, 9.285005e+000
1.067846e+003, 9.564625e+000
1.068328e+003, 9.869328e+000
1.068810e+003, 1.013972e+001
1.069292e+003, 1.026915e+001
1.069774e+003, 1.016579e+001
1.070256e+003, 9.948458e+000
1.070738e+003, 9.573321e+000
1.071220e+003, 9.217365e+000
1.071703e+003, 9.147877e+000
1.072185e+003, 9.357927e+000
1.072667e+003, 9.576826e+000
1.073149e+003, 9.740357e+000
1.073631e+003, 9.818478e+000
1.074113e+003, 9.769831e+000
1.074595e+003, 9.658797e+000
1.075077e+003, 9.395524e+000
1.075559e+003, 9.183701e+000
1.076042e+003, 9.356537e+000
1.076524e+003, 9.856620e+000
1.077006e+003, 1.029327e+001
1.077488e+003, 1.060675e+001
1.077970e+003, 1.061107e+001
1.078452e+003, 9.862743e+000
1.078934e+003, 9.167706e+000
1.079416e+003, 9.143782e+000
1.079898e+003, 9.430732e+000
1.080380e+003, 9.613774e+000
1.080863e+003, 9.665541e+000
1.081345e+003, 9.734137e+000
1.081827e+003, 9.894156e+000
1.082309e+003, 9.922114e+000
1.082791e+003, 9.543983e+000
1.083273e+003, 9.204975e+000
1.083755e+003, 9.281443e+000
1.084237e+003, 9.458765e+000
1.084720e+003, 9.303235e+000
1.085202e+003, 8.957608e+000
1.085684e+003, 8.957411e+000
1.086166e+003, 9.498269e+000
1.086648e+003, 9.806211e+000
1.087130e+003, 9.342695e+000
1.087612e+003, 8.827368e+000
1.088094e+003, 8.512343e+000
1.088577e+003, 8.419650e+000
1.089059e+003, 8.717982e+000
1.089541e+003, 9.196000e+000
1.090023e+003, 9.445588e+000
1.090505e+003, 9.384092e+000
1.090987e+003, 9.176655e+000
1.091469e+003, 8.637113e+000
1.091951e+003, 8.294002e+000
1.092433e+003, 8.497347e+000
1.092916e+003, 8.863428e+000
1.093398e+003, 9.193512e+000
1.093880e+003, 9.422598e+000
1.094362e+003, 9.442808e+000
1.094844e+003, 9.260503e+000
1.095326e+003, 9.142198e+000
1.095808e+003, 9.261992e+000
1.096290e+003, 9.324286e+000
1.096772e+003, 9.108723e+000
1.097255e+003, 8.938808e+000
1.097737e+003, 9.117167e+000
1.098219e+003, 9.406757e+000
1.098701e+003, 9.562745e+000
1.099183e+003, 9.524329e+000
1.099665e+003, 9.121722e+000
1.100147e+003, 7.906595e+000
1.100629e+003, 7.184693e+000
1.101112e+003, 7.633573e+000
1.101594e+003, 8.249410e+000
1.102076e+003, 8.641150e+000
1.102558e+003, 8.873682e+000
1.103040e+003, 9.030492e+000
1.103522e+003, 9.111196e+000
1.104004e+003, 9.072643e+000
1.104486e+003, 8.860520e+000
1.104969e+003, 8.683823e+000
1.105451e+003, 8.658336e+000
1.105933e+003, 8.571148e+000
1.106415e+003, 8.199957e+000
1.106897e+003, 7.873513e+000
1.107379e+003, 7.917048e+000
1.107861e+003, 8.198499e+000
1.108343e+003, 8.395433e+000
1.108825e+003, 8.490396e+000
1.109307e+003, 8.465943e+000
1.109790e+003, 8.041574e+000
1.110272e+003, 7.895515e+000
1.110754e+003, 8.423593e+000
1.111236e+003, 8.992189e+000
1.111718e+003, 9.322769e+000
1.112200e+003, 9.403807e+000
1.112682e+003, 9.067430e+000
1.113164e+003, 8.267446e+000
1.113647e+003, 8.066568e+000
1.114129e+003, 9.056130e+000
1.114611e+003, 9.661587e+000
1.115093e+003, 9.627902e+000
1.115575e+003, 9.397298e+000
1.116057e+003, 9.071421e+000
1.116539e+003, 8.715448e+000
1.117021e+003, 8.361298e+000
1.117504e+003, 8.033923e+000
1.117986e+003, 7.926965e+000
1.118468e+003, 8.137605e+000
1.118950e+003, 8.345832e+000
1.119432e+003, 8.600592e+000
1.119914e+003, 8.739944e+000
1.120396e+003, 8.649203e+000
1.120878e+003, 8.532270e+000
1.121360e+003, 8.569265e+000
1.121843e+003, 8.711142e+000
1.122325e+003, 8.828262e+000
1.122807e+003, 8.943218e+000
1.123289e+003, 8.857293e+000
1.123771e+003, 8.445438e+000
1.124253e+003, 8.299534e+000
1.124735e+003, 8.662210e+000
1.125217e+003, 8.951337e+000
1.125699e+003, 8.780718e+000
1.126182e+003, 8.351567e+000
1.126664e+003, 7.993189e+000
1.127146e+003, 7.704172e+000
1.127628e+003, 7.390357e+000
1.128110e+003, 6.993944e+000
1.128592e+003, 7.223864e+000
1.129074e+003, 8.283887e+000
1.129556e+003, 9.087554e+000
1.130039e+003, 9.113622e+000
1.130521e+003, 8.844797e+000
1.131003e+003, 8.832252e+000
1.131485e+003, 8.964249e+000
1.131967e+003, 8.872656e+000
1.132449e+003, 8.558107e+000
1.132931e+003, 7.902407e+000
1.133413e+003, 6.916872e+000
1.133896e+003, 6.373912e+000
1.134378e+003, 6.508273e+000
1.134860e+003, 6.875053e+000
1.135342e+003, 7.138501e+000
1.135824e+003, 7.379913e+000
1.136306e+003, 7.905653e+000
1.136788e+003, 8.517600e+000
1.137270e+003, 8.220175e+000
1.137752e+003, 7.255179e+000
1.138234e+003, 6.861022e+000
1.138717e+003, 7.214856e+000
1.139199e+003, 7.795604e+000
1.139681e+003, 8.339608e+000
1.140163e+003, 8.701051e+000
1.140645e+003, 8.608947e+000
1.141127e+003, 8.333562e+000
1.141609e+003, 8.411605e+000
1.142091e+003, 8.677060e+000
1.142574e+003, 8.839572e+000
1.143056e+003, 8.828820e+000
1.143538e+003, 8.434829e+000
1.144020e+003, 7.674451e+000
1.144502e+003, 7.232882e+000
1.144984e+003, 7.768420e+000
1.145466e+003, 8.399109e+000
1.145948e+003, 8.008926e+000
1.146431e+003, 7.335701e+000
1.146913e+003, 7.368545e+000
1.147395e+003, 7.807444e+000
1.147877e+003, 8.050111e+000
1.148359e+003, 7.999510e+000
1.148841e+003, 7.774365e+000
1.149323e+003, 7.367534e+000
1.149805e+003, 7.149847e+000
1.150287e+003, 7.525502e+000
1.150770e+003, 7.980453e+000
1.151252e+003, 8.144587e+000
1.151734e+003, 8.190181e+000
1.152216e+003, 8.372703e+000
1.152698e+003, 8.586609e+000
1.153180e+003, 8.471500e+000
1.153662e+003, 7.955800e+000
1.154144e+003, 7.681941e+000
1.154626e+003, 8.145969e+000
1.155109e+003, 8.484822e+000
1.155591e+003, 8.351398e+000
1.156073e+003, 8.076169e+000
1.156555e+003, 7.736249e+000
1.157037e+003, 7.459819e+000
1.157519e+003, 7.477953e+000
1.158001e+003, 7.731775e+000
1.158483e+003, 7.743886e+000
1.158966e+003, 7.217930e+000
1.159448e+003, 6.990265e+000
1.159930e+003, 7.379548e+000
1.160412e+003, 7.706048e+000
1.160894e+003, 7.764865e+000
1.161376e+003, 7.725325e+000
1.161858e+003, 7.611466e+000
1.162340e+003, 7.547803e+000
1.162822e+003, 7.885871e+000
1.163305e+003, 8.715203e+000
1.163787e+003, 8.944779e+000
1.164269e+003, 8.295966e+000
1.164751e+003, 7.871994e+000
1.165233e+003, 7.884311e+000
1.165715e+003, 7.929071e+000
1.166197e+003, 7.800921e+000
1.166679e+003, 7.669187e+000
1.167161e+003, 7.760000e+000
1.167644e+003, 7.987792e+000
1.168126e+003, 7.952318e+000
1.168608e+003, 7.637843e+000
1.169090e+003, 7.584756e+000
1.169572e+003, 7.823929e+000
1.170054e+003, 8.013426e+000
1.170536e+003, 8.059081e+000
1.171018e+003, 8.085272e+000
1.171500e+003, 8.183282e+000
1.171983e+003, 8.265121e+000
1.172465e+003, 8.106717e+000
1.172947e+003, 7.847541e+000
1.173429e+003, 8.114945e+000
1.173911e+003, 8.692873e+000
1.174393e+003, 8.640942e+000
1.174875e+003, 7.994047e+000
1.175357e+003, 7.585142e+000
1.175840e+003, 7.715247e+000
1.176322e+003, 7.981159e+000
1.176804e+003, 8.100301e+000
1.177286e+003, 8.074908e+000
1.177768e+003, 7.792648e+000
1.178250e+003, 7.452384e+000
1.178732e+003, 7.334429e+000
1.179214e+003, 7.392540e+000
1.179697e+003, 7.546245e+000
1.180179e+003, 7.741055e+000
1.180661e+003, 7.864845e+000
1.181143e+003, 7.869243e+000
1.181625e+003, 7.817873e+000
1.182107e+003, 7.676411e+000
1.182589e+003, 7.579686e+000
1.183071e+003, 7.656166e+000
1.183553e+003, 7.783856e+000
1.184036e+003, 7.927863e+000
1.184518e+003, 7.997798e+000
1.185000e+003, 7.770805e+000
1.185482e+003, 7.245356e+000
1.185964e+003, 6.941107e+000
1.186446e+003, 7.032582e+000
1.186928e+003, 7.258099e+000
1.187410e+003, 7.894734e+000
1.187892e+003, 8.258213e+000
1.188375e+003, 7.799309e+000
1.188857e+003, 7.165154e+000
1.189339e+003, 6.914280e+000
1.189821e+003, 6.971207e+000
1.190303e+003, 7.161446e+000
1.190785e+003, 7.546537e+000
1.191267e+003, 7.682026e+000
1.191749e+003, 7.446241e+000
1.192232e+003, 7.299498e+000
1.192714e+003, 7.316817e+000
1.193196e+003, 7.443911e+000
1.193678e+003, 7.702434e+000
1.194160e+003, 7.912303e+000
1.194642e+003, 7.836539e+000
1.195124e+003, 7.546622e+000
1.195606e+003, 7.258086e+000
1.196089e+003, 6.982294e+000
1.196571e+003, 7.190004e+000
1.197053e+003, 7.860716e+000
1.197535e+003, 8.113135e+000
1.198017e+003, 7.745674e+000
1.198499e+003, 7.306015e+000
1.198981e+003, 7.131899e+000
1.199463e+003, 7.069280e+000
1.199945e+003, 6.857158e+000
1.200427e+003, 6.657661e+000
1.200910e+003, 6.918199e+000
1.201392e+003, 7.394926e+000
1.201874e+003, 7.536603e+000
1.202356e+003, 7.383101e+000
1.202838e+003, 7.208859e+000
1.203320e+003, 7.108256e+000
1.203802e+003, 7.114067e+000
1.204284e+003, 7.288569e+000
1.204767e+003, 7.442205e+000
1.205249e+003, 7.393791e+000
1.205731e+003, 7.305092e+000
1.206213e+003, 7.311165e+000
1.206695e+003, 7.354950e+000
1.207177e+003, 7.376531e+000
1.207659e+003, 7.365277e+000
1.208141e+003, 7.295626e+000
1.208624e+003, 7.154192e+000
1.209106e+003, 7.109327e+000
1.209588e+003, 7.274096e+000
1.210070e+003, 7.430015e+000
1.210552e+003, 7.567426e+000
1.211034e+003, 7.644579e+000
1.211516e+003, 7.740348e+000
1.211998e+003, 7.670881e+000
1.212480e+003, 7.080112e+000
1.212963e+003, 6.199963e+000
1.213445e+003, 5.960463e+000
1.213927e+003, 6.532220e+000
1.214409e+003, 6.879010e+000
1.214891e+003, 6.944756e+000
1.215373e+003, 7.026015e+000
1.215855e+003, 7.208836e+000
1.216337e+003, 7.239440e+000
1.216819e+003, 6.958143e+000
1.217302e+003, 6.599096e+000
1.217784e+003, 6.452620e+000
1.218266e+003, 6.449127e+000
1.218748e+003, 6.343269e+000
1.219230e+003, 6.182817e+000
1.219712e+003, 6.252577e+000
1.220194e+003, 6.515122e+000
1.220676e+003, 6.717463e+000
1.221159e+003, 6.797074e+000
1.221641e+003, 6.750783e+000
1.222123e+003, 6.568590e+000
1.222605e+003, 6.475570e+000
1.223087e+003, 6.869824e+000
1.223569e+003, 7.299251e+000
1.224051e+003, 7.143260e+000
1.224533e+003, 6.785493e+000
1.225016e+003, 6.752550e+000
1.225498e+003, 6.914910e+000
1.225980e+003, 6.831331e+000
1.226462e+003, 6.524419e+000
1.226944e+003, 6.649480e+000
1.227426e+003, 7.725997e+000
1.227908e+003, 8.375414e+000
1.228390e+003, 7.595523e+000
1.228872e+003, 6.987689e+000
1.229354e+003, 7.525584e+000
1.229837e+003, 8.199268e+000
1.230319e+003, 8.218183e+000
1.230801e+003, 7.815069e+000
1.231283e+003, 7.385746e+000
1.231765e+003, 6.935842e+000
1.232247e+003, 6.705353e+000
1.232729e+003, 6.732488e+000
1.233211e+003, 6.883902e+000
1.233694e+003, 7.212274e+000
1.234176e+003, 7.450435e+000
1.234658e+003, 7.501646e+000
1.235140e+003, 7.523788e+000
1.235622e+003, 7.636210e+000
1.236104e+003, 7.770284e+000
1.236586e+003, 7.834277e+000
1.237068e+003, 7.805927e+000
1.237551e+003, 7.494608e+000
1.238033e+003, 7.004630e+000
1.238515e+003, 6.822951e+000
1.238997e+003, 6.942427e+000
1.239479e+003, 7.041820e+000
1.239961e+003, 7.045774e+000
1.240443e+003, 7.201223e+000
1.240925e+003, 7.712610e+000
1.241407e+003, 8.172229e+000
1.241890e+003, 8.092297e+000
1.242372e+003, 7.872205e+000
1.242854e+003, 7.949100e+000
1.243336e+003, 8.084561e+000
1.243818e+003, 7.937102e+000
1.244300e+003, 7.609713e+000
1.244782e+003, 7.335507e+000
1.245264e+003, 7.167144e+000
1.245746e+003, 7.201952e+000
1.246229e+003, 7.764985e+000
1.246711e+003, 7.977072e+000
1.247193e+003, 7.347520e+000
1.247675e+003, 6.810596e+000
1.248157e+003, 6.776546e+000
1.248639e+003, 6.816628e+000
1.249121e+003, 6.572982e+000
1.249603e+003, 6.269472e+000
1.250085e+003, 6.347501e+000
1.250568e+003, 6.774765e+000
1.251050e+003, 6.964631e+000
1.251532e+003, 6.887590e+000
1.252014e+003, 6.898322e+000
1.252496e+003, 7.026371e+000
1.252978e+003, 7.169414e+000
1.253460e+003, 7.296600e+000
1.253942e+003, 7.441216e+000
1.254425e+003, 7.640465e+000
1.254907e+003, 7.709757e+000
1.255389e+003, 7.200348e+000
1.255871e+003, 6.528246e+000
1.256353e+003, 6.570308e+000
1.256835e+003, 6.982825e+000
1.257317e+003, 7.211988e+000
1.257799e+003, 7.213901e+000
1.258281e+003, 6.937735e+000
1.258764e+003, 6.482003e+000
1.259246e+003, 6.374686e+000
1.259728e+003, 6.943726e+000
1.260210e+003, 7.485302e+000
1.260692e+003, 7.788386e+000
1.261174e+003, 7.834333e+000
1.261656e+003, 7.409224e+000
1.262138e+003, 6.932676e+000
1.262620e+003, 6.706889e+000
1.263103e+003, 6.649248e+000
1.263585e+003, 6.623127e+000
1.264067e+003, 6.624311e+000
1.264549e+003, 6.647324e+000
1.265031e+003, 6.734054e+000
1.265513e+003, 6.662585e+000
1.265995e+003, 6.345304e+000
1.266477e+003, 6.296670e+000
1.266960e+003, 6.672854e+000
1.267442e+003, 7.041420e+000
1.267924e+003, 7.161494e+000
1.268406e+003, 7.170195e+000
1.268888e+003, 7.241919e+000
1.269370e+003, 7.301119e+000
1.269852e+003, 7.067164e+000
1.270334e+003, 6.726725e+000
1.270817e+003, 6.844625e+000
1.271299e+003, 7.249006e+000
1.271781e+003, 7.418814e+000
1.272263e+003, 7.303368e+000
1.272745e+003, 7.067878e+000
1.273227e+003, 6.774856e+000
1.273709e+003, 6.736434e+000
1.274191e+003, 7.385575e+000
1.274673e+003, 7.990949e+000
1.275156e+003, 8.327322e+000
1.275638e+003, 8.342316e+000
1.276120e+003, 7.722433e+000
1.276602e+003, 6.984468e+000
1.277084e+003, 6.732108e+000
1.277566e+003, 6.849597e+000
1.278048e+003, 6.863978e+000
1.278530e+003, 6.741249e+000
1.279012e+003, 6.849667e+000
1.279495e+003, 7.319154e+000
1.279977e+003, 7.515955e+000
1.280459e+003, 7.314768e+000
1.280941e+003, 7.163923e+000
1.281423e+003, 7.232882e+000
1.281905e+003, 7.316205e+000
1.282387e+003, 7.244761e+000
1.282869e+003, 7.129206e+000
1.283352e+003, 7.207199e+000
1.283834e+003, 7.355168e+000
1.284316e+003, 7.307726e+000
1.284798e+003, 7.065087e+000
##END=



