##NAMES=Curite
##RRUFFID=R130657
##IDEAL CHEMISTRY=Pb^2+^_3+x_[(U^6+^O_2_)_4_O_4+x_(OH)_3-x_]_2_&#183;2H_2_O
##LOCALITY=Musonoi mine, Kolwezi, Kolwezi District, Katanga Copper Crescent, Katanga, Democratic Republic of Congo
##OWNER=RRUFF
##SOURCE=Benjamin N. Schumer
##DESCRIPTION=Orange with dark green vandenbrandeite
##STATUS=The identification of this mineral has been confirmed by single-crystal X-ray diffraction.
##URL=rruff.info/R130657
8.806445e+001, 7.789283e+003
8.854657e+001, 7.537712e+003
8.902869e+001, 7.450661e+003
8.951080e+001, 7.621063e+003
8.999292e+001, 7.914235e+003
9.047504e+001, 8.208191e+003
9.095715e+001, 8.479575e+003
9.143927e+001, 8.718928e+003
9.192139e+001, 8.913527e+003
9.240350e+001, 9.068497e+003
9.288562e+001, 9.187439e+003
9.336774e+001, 9.203968e+003
9.384985e+001, 9.065502e+003
9.433197e+001, 8.803067e+003
9.481409e+001, 8.544447e+003
9.529620e+001, 8.269765e+003
9.577832e+001, 8.010894e+003
9.626044e+001, 7.772390e+003
9.674255e+001, 7.551239e+003
9.722467e+001, 7.341551e+003
9.770679e+001, 7.139049e+003
9.818890e+001, 6.952875e+003
9.867102e+001, 6.780604e+003
9.915314e+001, 6.619768e+003
9.963525e+001, 6.467660e+003
1.001174e+002, 6.322438e+003
1.005995e+002, 6.183466e+003
1.010816e+002, 6.048622e+003
1.015637e+002, 5.920757e+003
1.020458e+002, 5.791704e+003
1.025280e+002, 5.654988e+003
1.030101e+002, 5.515319e+003
1.034922e+002, 5.379748e+003
1.039743e+002, 5.253995e+003
1.044564e+002, 5.137335e+003
1.049385e+002, 5.024284e+003
1.054207e+002, 4.913761e+003
1.059028e+002, 4.805276e+003
1.063849e+002, 4.695612e+003
1.068670e+002, 4.585512e+003
1.073491e+002, 4.481260e+003
1.078312e+002, 4.388761e+003
1.083134e+002, 4.308306e+003
1.087955e+002, 4.240209e+003
1.092776e+002, 4.187627e+003
1.097597e+002, 4.146450e+003
1.102418e+002, 4.110779e+003
1.107239e+002, 4.079295e+003
1.112061e+002, 4.055016e+003
1.116882e+002, 4.041660e+003
1.121703e+002, 4.037321e+003
1.126524e+002, 4.036248e+003
1.131345e+002, 4.034529e+003
1.136166e+002, 4.032421e+003
1.140988e+002, 4.034235e+003
1.145809e+002, 4.038798e+003
1.150630e+002, 4.049663e+003
1.155451e+002, 4.068584e+003
1.160272e+002, 4.095716e+003
1.165093e+002, 4.129816e+003
1.169915e+002, 4.169441e+003
1.174736e+002, 4.214105e+003
1.179557e+002, 4.266042e+003
1.184378e+002, 4.323949e+003
1.189199e+002, 4.388018e+003
1.194020e+002, 4.458831e+003
1.198842e+002, 4.536476e+003
1.203663e+002, 4.620006e+003
1.208484e+002, 4.708083e+003
1.213305e+002, 4.804579e+003
1.218126e+002, 4.901528e+003
1.222947e+002, 4.998507e+003
1.227769e+002, 5.095479e+003
1.232590e+002, 5.191556e+003
1.237411e+002, 5.286696e+003
1.242232e+002, 5.381163e+003
1.247053e+002, 5.479627e+003
1.251874e+002, 5.584909e+003
1.256696e+002, 5.689871e+003
1.261517e+002, 5.790403e+003
1.266338e+002, 5.887786e+003
1.271159e+002, 5.990383e+003
1.275980e+002, 6.103724e+003
1.280801e+002, 6.226298e+003
1.285623e+002, 6.349876e+003
1.290444e+002, 6.471554e+003
1.295265e+002, 6.595943e+003
1.300086e+002, 6.727002e+003
1.304907e+002, 6.863729e+003
1.309728e+002, 7.010991e+003
1.314550e+002, 7.170943e+003
1.319371e+002, 7.343542e+003
1.324192e+002, 7.530705e+003
1.329013e+002, 7.732138e+003
1.333834e+002, 7.948894e+003
1.338655e+002, 8.183767e+003
1.343477e+002, 8.435218e+003
1.348298e+002, 8.711407e+003
1.353119e+002, 9.009051e+003
1.357940e+002, 9.328096e+003
1.362761e+002, 9.668060e+003
1.367582e+002, 1.003156e+004
1.372404e+002, 1.041679e+004
1.377225e+002, 1.081069e+004
1.382046e+002, 1.123989e+004
1.386867e+002, 1.165104e+004
1.391688e+002, 1.204765e+004
1.396509e+002, 1.241510e+004
1.401331e+002, 1.272634e+004
1.406152e+002, 1.296049e+004
1.410973e+002, 1.312160e+004
1.415794e+002, 1.315842e+004
1.420615e+002, 1.307104e+004
1.425436e+002, 1.289035e+004
1.430258e+002, 1.261811e+004
1.435079e+002, 1.226117e+004
1.439900e+002, 1.184608e+004
1.444721e+002, 1.140374e+004
1.449542e+002, 1.092000e+004
1.454363e+002, 1.044137e+004
1.459185e+002, 9.955271e+003
1.464006e+002, 9.478268e+003
1.468827e+002, 9.026560e+003
1.473648e+002, 8.604198e+003
1.478469e+002, 8.210668e+003
1.483290e+002, 7.850480e+003
1.488112e+002, 7.519846e+003
1.492933e+002, 7.211423e+003
1.497754e+002, 6.923031e+003
1.502575e+002, 6.655565e+003
1.507396e+002, 6.407573e+003
1.512217e+002, 6.181295e+003
1.517039e+002, 5.976494e+003
1.521860e+002, 5.789555e+003
1.526681e+002, 5.620033e+003
1.531502e+002, 5.465706e+003
1.536323e+002, 5.323516e+003
1.541144e+002, 5.193952e+003
1.545966e+002, 5.079099e+003
1.550787e+002, 4.984695e+003
1.555608e+002, 4.904315e+003
1.560429e+002, 4.837143e+003
1.565250e+002, 4.782931e+003
1.570071e+002, 4.736830e+003
1.574893e+002, 4.692621e+003
1.579714e+002, 4.650706e+003
1.584535e+002, 4.609752e+003
1.589356e+002, 4.574160e+003
1.594177e+002, 4.536800e+003
1.598998e+002, 4.493589e+003
1.603820e+002, 4.443088e+003
1.608641e+002, 4.383754e+003
1.613462e+002, 4.311524e+003
1.618283e+002, 4.217675e+003
1.623104e+002, 4.121554e+003
1.627925e+002, 4.021332e+003
1.632747e+002, 3.921490e+003
1.637568e+002, 3.825148e+003
1.642389e+002, 3.734363e+003
1.647210e+002, 3.649289e+003
1.652031e+002, 3.571867e+003
1.656852e+002, 3.501206e+003
1.661674e+002, 3.438926e+003
1.666495e+002, 3.386510e+003
1.671316e+002, 3.342549e+003
1.676137e+002, 3.305305e+003
1.680958e+002, 3.273610e+003
1.685779e+002, 3.247768e+003
1.690601e+002, 3.228887e+003
1.695422e+002, 3.219614e+003
1.700243e+002, 3.212866e+003
1.705064e+002, 3.204920e+003
1.709885e+002, 3.196719e+003
1.714706e+002, 3.192001e+003
1.719528e+002, 3.192877e+003
1.724349e+002, 3.199854e+003
1.729170e+002, 3.210901e+003
1.733991e+002, 3.228120e+003
1.738812e+002, 3.247689e+003
1.743633e+002, 3.266680e+003
1.748455e+002, 3.285083e+003
1.753276e+002, 3.304733e+003
1.758097e+002, 3.326880e+003
1.762918e+002, 3.351256e+003
1.767739e+002, 3.377621e+003
1.772560e+002, 3.407070e+003
1.777382e+002, 3.437635e+003
1.782203e+002, 3.467051e+003
1.787024e+002, 3.495882e+003
1.791845e+002, 3.521332e+003
1.796666e+002, 3.541965e+003
1.801487e+002, 3.558435e+003
1.806309e+002, 3.570930e+003
1.811130e+002, 3.579516e+003
1.815951e+002, 3.584251e+003
1.820772e+002, 3.585197e+003
1.825593e+002, 3.581413e+003
1.830414e+002, 3.574830e+003
1.835236e+002, 3.565420e+003
1.840057e+002, 3.554344e+003
1.844878e+002, 3.543183e+003
1.849699e+002, 3.532841e+003
1.854520e+002, 3.523177e+003
1.859341e+002, 3.513254e+003
1.864163e+002, 3.500792e+003
1.868984e+002, 3.490833e+003
1.873805e+002, 3.483891e+003
1.878626e+002, 3.480172e+003
1.883447e+002, 3.479870e+003
1.888268e+002, 3.483191e+003
1.893090e+002, 3.490088e+003
1.897911e+002, 3.499527e+003
1.902732e+002, 3.511701e+003
1.907553e+002, 3.526237e+003
1.912374e+002, 3.543048e+003
1.917195e+002, 3.562247e+003
1.922017e+002, 3.584119e+003
1.926838e+002, 3.608799e+003
1.931659e+002, 3.636517e+003
1.936480e+002, 3.667023e+003
1.941301e+002, 3.700375e+003
1.946122e+002, 3.735704e+003
1.950944e+002, 3.773067e+003
1.955765e+002, 3.812125e+003
1.960586e+002, 3.852259e+003
1.965407e+002, 3.892593e+003
1.970228e+002, 3.933279e+003
1.975049e+002, 3.976614e+003
1.979871e+002, 4.024682e+003
1.984692e+002, 4.073469e+003
1.989513e+002, 4.119999e+003
1.994334e+002, 4.164172e+003
1.999155e+002, 4.208562e+003
2.003976e+002, 4.254947e+003
2.008798e+002, 4.303524e+003
2.013619e+002, 4.353416e+003
2.018440e+002, 4.404925e+003
2.023261e+002, 4.457422e+003
2.028082e+002, 4.510378e+003
2.032903e+002, 4.563597e+003
2.037725e+002, 4.616802e+003
2.042546e+002, 4.669268e+003
2.047367e+002, 4.721117e+003
2.052188e+002, 4.772365e+003
2.057009e+002, 4.823554e+003
2.061830e+002, 4.874212e+003
2.066652e+002, 4.924765e+003
2.071473e+002, 4.976489e+003
2.076294e+002, 5.023041e+003
2.081115e+002, 5.062070e+003
2.085936e+002, 5.093058e+003
2.090757e+002, 5.113028e+003
2.095579e+002, 5.119995e+003
2.100400e+002, 5.115452e+003
2.105221e+002, 5.102511e+003
2.110042e+002, 5.081545e+003
2.114863e+002, 5.050297e+003
2.119685e+002, 5.005469e+003
2.124506e+002, 4.951297e+003
2.129327e+002, 4.893185e+003
2.134148e+002, 4.832220e+003
2.138969e+002, 4.769427e+003
2.143790e+002, 4.707976e+003
2.148612e+002, 4.645329e+003
2.153433e+002, 4.588533e+003
2.158254e+002, 4.540033e+003
2.163075e+002, 4.497997e+003
2.167896e+002, 4.459725e+003
2.172717e+002, 4.424089e+003
2.177539e+002, 4.391095e+003
2.182360e+002, 4.361639e+003
2.187181e+002, 4.338203e+003
2.192002e+002, 4.315431e+003
2.196823e+002, 4.291535e+003
2.201644e+002, 4.267569e+003
2.206466e+002, 4.245511e+003
2.211287e+002, 4.226884e+003
2.216108e+002, 4.210779e+003
2.220929e+002, 4.192291e+003
2.225750e+002, 4.172449e+003
2.230571e+002, 4.148442e+003
2.235393e+002, 4.118278e+003
2.240214e+002, 4.084127e+003
2.245035e+002, 4.048511e+003
2.249856e+002, 4.012912e+003
2.254677e+002, 3.977634e+003
2.259498e+002, 3.945136e+003
2.264320e+002, 3.917540e+003
2.269141e+002, 3.890501e+003
2.273962e+002, 3.862086e+003
2.278783e+002, 3.833939e+003
2.283604e+002, 3.808345e+003
2.288425e+002, 3.786615e+003
2.293247e+002, 3.768518e+003
2.298068e+002, 3.752696e+003
2.302889e+002, 3.738167e+003
2.307710e+002, 3.726759e+003
2.312531e+002, 3.719388e+003
2.317352e+002, 3.715382e+003
2.322174e+002, 3.713703e+003
2.326995e+002, 3.713900e+003
2.331816e+002, 3.715788e+003
2.336637e+002, 3.718750e+003
2.341458e+002, 3.723753e+003
2.346279e+002, 3.728471e+003
2.351101e+002, 3.732074e+003
2.355922e+002, 3.734985e+003
2.360743e+002, 3.737630e+003
2.365564e+002, 3.739781e+003
2.370385e+002, 3.742519e+003
2.375206e+002, 3.749377e+003
2.380028e+002, 3.759665e+003
2.384849e+002, 3.773756e+003
2.389670e+002, 3.791144e+003
2.394491e+002, 3.812296e+003
2.399312e+002, 3.839508e+003
2.404133e+002, 3.874913e+003
2.408955e+002, 3.914850e+003
2.413776e+002, 3.950579e+003
2.418597e+002, 3.978618e+003
2.423418e+002, 4.011059e+003
2.428239e+002, 4.056421e+003
2.433060e+002, 4.110312e+003
2.437882e+002, 4.160803e+003
2.442703e+002, 4.202703e+003
2.447524e+002, 4.240317e+003
2.452345e+002, 4.281007e+003
2.457166e+002, 4.325403e+003
2.461987e+002, 4.368430e+003
2.466809e+002, 4.406780e+003
2.471630e+002, 4.441510e+003
2.476451e+002, 4.476734e+003
2.481272e+002, 4.513793e+003
2.486093e+002, 4.550789e+003
2.490914e+002, 4.586086e+003
2.495736e+002, 4.619595e+003
2.500557e+002, 4.650723e+003
2.505378e+002, 4.677919e+003
2.510199e+002, 4.701994e+003
2.515020e+002, 4.726200e+003
2.519841e+002, 4.750453e+003
2.524663e+002, 4.776201e+003
2.529484e+002, 4.804040e+003
2.534305e+002, 4.833955e+003
2.539126e+002, 4.867373e+003
2.543947e+002, 4.904672e+003
2.548768e+002, 4.946126e+003
2.553590e+002, 4.992039e+003
2.558411e+002, 5.042079e+003
2.563232e+002, 5.098297e+003
2.568053e+002, 5.160768e+003
2.572874e+002, 5.229304e+003
2.577695e+002, 5.303403e+003
2.582516e+002, 5.381780e+003
2.587338e+002, 5.465488e+003
2.592159e+002, 5.557647e+003
2.596980e+002, 5.661604e+003
2.601801e+002, 5.770536e+003
2.606622e+002, 5.878455e+003
2.611443e+002, 5.987501e+003
2.616265e+002, 6.102630e+003
2.621086e+002, 6.226122e+003
2.625907e+002, 6.357992e+003
2.630728e+002, 6.495921e+003
2.635549e+002, 6.641664e+003
2.640370e+002, 6.792143e+003
2.645192e+002, 6.947436e+003
2.650013e+002, 7.105485e+003
2.654834e+002, 7.264155e+003
2.659655e+002, 7.425316e+003
2.664476e+002, 7.584942e+003
2.669297e+002, 7.732437e+003
2.674119e+002, 7.870710e+003
2.678940e+002, 7.988486e+003
2.683761e+002, 8.087291e+003
2.688582e+002, 8.166147e+003
2.693403e+002, 8.225196e+003
2.698224e+002, 8.264858e+003
2.703046e+002, 8.282849e+003
2.707867e+002, 8.272262e+003
2.712688e+002, 8.228774e+003
2.717509e+002, 8.160636e+003
2.722330e+002, 8.069555e+003
2.727151e+002, 7.960018e+003
2.731973e+002, 7.835417e+003
2.736794e+002, 7.696829e+003
2.741615e+002, 7.544817e+003
2.746436e+002, 7.377867e+003
2.751257e+002, 7.189447e+003
2.756078e+002, 6.997358e+003
2.760900e+002, 6.803697e+003
2.765721e+002, 6.608756e+003
2.770542e+002, 6.413167e+003
2.775363e+002, 6.216766e+003
2.780184e+002, 6.021230e+003
2.785005e+002, 5.830169e+003
2.789827e+002, 5.643486e+003
2.794648e+002, 5.462220e+003
2.799469e+002, 5.284207e+003
2.804290e+002, 5.111748e+003
2.809111e+002, 4.946172e+003
2.813932e+002, 4.788172e+003
2.818754e+002, 4.639219e+003
2.823575e+002, 4.501644e+003
2.828396e+002, 4.377462e+003
2.833217e+002, 4.260320e+003
2.838038e+002, 4.151359e+003
2.842859e+002, 4.047418e+003
2.847681e+002, 3.947123e+003
2.852502e+002, 3.850385e+003
2.857323e+002, 3.758744e+003
2.862144e+002, 3.674065e+003
2.866965e+002, 3.596938e+003
2.871786e+002, 3.523044e+003
2.876608e+002, 3.453286e+003
2.881429e+002, 3.385224e+003
2.886250e+002, 3.317333e+003
2.891071e+002, 3.250230e+003
2.895892e+002, 3.185448e+003
2.900714e+002, 3.123766e+003
2.905535e+002, 3.065415e+003
2.910356e+002, 3.010864e+003
2.915177e+002, 2.961327e+003
2.919998e+002, 2.914522e+003
2.924819e+002, 2.869229e+003
2.929641e+002, 2.826182e+003
2.934462e+002, 2.787212e+003
2.939283e+002, 2.753575e+003
2.944104e+002, 2.724472e+003
2.948925e+002, 2.692996e+003
2.953746e+002, 2.654847e+003
2.958568e+002, 2.619061e+003
2.963389e+002, 2.586868e+003
2.968210e+002, 2.557618e+003
2.973031e+002, 2.530610e+003
2.977852e+002, 2.505407e+003
2.982673e+002, 2.481708e+003
2.987495e+002, 2.458902e+003
2.992316e+002, 2.436798e+003
2.997137e+002, 2.415701e+003
3.001958e+002, 2.395815e+003
3.006779e+002, 2.376738e+003
3.011600e+002, 2.357755e+003
3.016422e+002, 2.338651e+003
3.021243e+002, 2.320321e+003
3.026064e+002, 2.304634e+003
3.030885e+002, 2.294012e+003
3.035706e+002, 2.281879e+003
3.040527e+002, 2.265856e+003
3.045349e+002, 2.250065e+003
3.050170e+002, 2.237984e+003
3.054991e+002, 2.230035e+003
3.059812e+002, 2.223940e+003
3.064633e+002, 2.216851e+003
3.069454e+002, 2.208014e+003
3.074276e+002, 2.201017e+003
3.079097e+002, 2.195805e+003
3.083918e+002, 2.192178e+003
3.088739e+002, 2.190544e+003
3.093560e+002, 2.190567e+003
3.098381e+002, 2.191100e+003
3.103203e+002, 2.190957e+003
3.108024e+002, 2.189938e+003
3.112845e+002, 2.191737e+003
3.117666e+002, 2.197448e+003
3.122487e+002, 2.204397e+003
3.127308e+002, 2.213025e+003
3.132130e+002, 2.222205e+003
3.136951e+002, 2.229485e+003
3.141772e+002, 2.233027e+003
3.146593e+002, 2.233698e+003
3.151414e+002, 2.237492e+003
3.156235e+002, 2.245525e+003
3.161057e+002, 2.255441e+003
3.165878e+002, 2.269158e+003
3.170699e+002, 2.283906e+003
3.175520e+002, 2.296135e+003
3.180341e+002, 2.304221e+003
3.185162e+002, 2.309068e+003
3.189984e+002, 2.312845e+003
3.194805e+002, 2.314087e+003
3.199626e+002, 2.316148e+003
3.204447e+002, 2.320180e+003
3.209268e+002, 2.324448e+003
3.214089e+002, 2.327000e+003
3.218911e+002, 2.327460e+003
3.223732e+002, 2.327449e+003
3.228553e+002, 2.329508e+003
3.233374e+002, 2.335192e+003
3.238195e+002, 2.339082e+003
3.243016e+002, 2.340054e+003
3.247838e+002, 2.340360e+003
3.252659e+002, 2.341030e+003
3.257480e+002, 2.342337e+003
3.262301e+002, 2.344370e+003
3.267122e+002, 2.347320e+003
3.271943e+002, 2.351324e+003
3.276765e+002, 2.354940e+003
3.281586e+002, 2.357114e+003
3.286407e+002, 2.359941e+003
3.291228e+002, 2.364660e+003
3.296049e+002, 2.370672e+003
3.300870e+002, 2.376571e+003
3.305692e+002, 2.381383e+003
3.310513e+002, 2.385289e+003
3.315334e+002, 2.389611e+003
3.320155e+002, 2.394909e+003
3.324976e+002, 2.400073e+003
3.329797e+002, 2.404846e+003
3.334619e+002, 2.409449e+003
3.339440e+002, 2.414367e+003
3.344261e+002, 2.419832e+003
3.349082e+002, 2.425281e+003
3.353904e+002, 2.429426e+003
3.358725e+002, 2.431969e+003
3.363546e+002, 2.433495e+003
3.368367e+002, 2.432879e+003
3.373188e+002, 2.432099e+003
3.378009e+002, 2.432735e+003
3.382831e+002, 2.435123e+003
3.387652e+002, 2.438610e+003
3.392473e+002, 2.442535e+003
3.397294e+002, 2.447547e+003
3.402115e+002, 2.450921e+003
3.406936e+002, 2.451135e+003
3.411758e+002, 2.451274e+003
3.416579e+002, 2.453469e+003
3.421400e+002, 2.457142e+003
3.426221e+002, 2.459910e+003
3.431042e+002, 2.459490e+003
3.435863e+002, 2.455880e+003
3.440685e+002, 2.453686e+003
3.445506e+002, 2.455718e+003
3.450327e+002, 2.456312e+003
3.455148e+002, 2.453438e+003
3.459969e+002, 2.448421e+003
3.464790e+002, 2.443335e+003
3.469612e+002, 2.439247e+003
3.474433e+002, 2.435986e+003
3.479254e+002, 2.432944e+003
3.484075e+002, 2.430340e+003
3.488896e+002, 2.427636e+003
3.493717e+002, 2.424299e+003
3.498539e+002, 2.421108e+003
3.503360e+002, 2.418941e+003
3.508181e+002, 2.418020e+003
3.513002e+002, 2.417462e+003
3.517823e+002, 2.415625e+003
3.522644e+002, 2.411549e+003
3.527466e+002, 2.409414e+003
3.532287e+002, 2.411204e+003
3.537108e+002, 2.413517e+003
3.541929e+002, 2.414850e+003
3.546750e+002, 2.415072e+003
3.551571e+002, 2.414644e+003
3.556393e+002, 2.413650e+003
3.561214e+002, 2.412102e+003
3.566035e+002, 2.411782e+003
3.570856e+002, 2.413368e+003
3.575677e+002, 2.415505e+003
3.580498e+002, 2.417594e+003
3.585320e+002, 2.419873e+003
3.590141e+002, 2.422969e+003
3.594962e+002, 2.427532e+003
3.599783e+002, 2.432636e+003
3.604604e+002, 2.435313e+003
3.609425e+002, 2.433833e+003
3.614247e+002, 2.434012e+003
3.619068e+002, 2.438214e+003
3.623889e+002, 2.444329e+003
3.628710e+002, 2.451206e+003
3.633531e+002, 2.458612e+003
3.638352e+002, 2.464868e+003
3.643174e+002, 2.467399e+003
3.647995e+002, 2.465784e+003
3.652816e+002, 2.464701e+003
3.657637e+002, 2.465363e+003
3.662458e+002, 2.466428e+003
3.667279e+002, 2.467288e+003
3.672101e+002, 2.467837e+003
3.676922e+002, 2.467823e+003
3.681743e+002, 2.466629e+003
3.686564e+002, 2.464614e+003
3.691385e+002, 2.463380e+003
3.696206e+002, 2.462953e+003
3.701028e+002, 2.463413e+003
3.705849e+002, 2.465216e+003
3.710670e+002, 2.467816e+003
3.715491e+002, 2.470255e+003
3.720312e+002, 2.472173e+003
3.725133e+002, 2.473817e+003
3.729955e+002, 2.474981e+003
3.734776e+002, 2.475415e+003
3.739597e+002, 2.477805e+003
3.744418e+002, 2.483938e+003
3.749239e+002, 2.492433e+003
3.754060e+002, 2.501458e+003
3.758882e+002, 2.510839e+003
3.763703e+002, 2.520876e+003
3.768524e+002, 2.531906e+003
3.773345e+002, 2.543817e+003
3.778166e+002, 2.556120e+003
3.782987e+002, 2.568442e+003
3.787809e+002, 2.581649e+003
3.792630e+002, 2.597076e+003
3.797451e+002, 2.614493e+003
3.802272e+002, 2.632010e+003
3.807093e+002, 2.648636e+003
3.811914e+002, 2.665137e+003
3.816736e+002, 2.682320e+003
3.821557e+002, 2.700128e+003
3.826378e+002, 2.719044e+003
3.831199e+002, 2.739465e+003
3.836020e+002, 2.761328e+003
3.840841e+002, 2.783816e+003
3.845663e+002, 2.808046e+003
3.850484e+002, 2.831835e+003
3.855305e+002, 2.853852e+003
3.860126e+002, 2.874369e+003
3.864947e+002, 2.894206e+003
3.869768e+002, 2.913428e+003
3.874590e+002, 2.932605e+003
3.879411e+002, 2.953166e+003
3.884232e+002, 2.975770e+003
3.889053e+002, 2.997443e+003
3.893874e+002, 3.018051e+003
3.898695e+002, 3.037200e+003
3.903517e+002, 3.054562e+003
3.908338e+002, 3.070143e+003
3.913159e+002, 3.083610e+003
3.917980e+002, 3.094839e+003
3.922801e+002, 3.103704e+003
3.927622e+002, 3.109510e+003
3.932444e+002, 3.113301e+003
3.937265e+002, 3.113398e+003
3.942086e+002, 3.108128e+003
3.946907e+002, 3.098410e+003
3.951728e+002, 3.086695e+003
3.956549e+002, 3.074618e+003
3.961371e+002, 3.061305e+003
3.966192e+002, 3.043629e+003
3.971013e+002, 3.018226e+003
3.975834e+002, 2.992440e+003
3.980655e+002, 2.966972e+003
3.985476e+002, 2.941352e+003
3.990298e+002, 2.915956e+003
3.995119e+002, 2.890599e+003
3.999940e+002, 2.863040e+003
4.004761e+002, 2.829574e+003
4.009582e+002, 2.787331e+003
4.014403e+002, 2.749511e+003
4.019225e+002, 2.718302e+003
4.024046e+002, 2.688891e+003
4.028867e+002, 2.659022e+003
4.033688e+002, 2.629152e+003
4.038509e+002, 2.600733e+003
4.043330e+002, 2.574728e+003
4.048152e+002, 2.550845e+003
4.052973e+002, 2.527340e+003
4.057794e+002, 2.502490e+003
4.062615e+002, 2.480760e+003
4.067436e+002, 2.463655e+003
4.072257e+002, 2.449320e+003
4.077079e+002, 2.436093e+003
4.081900e+002, 2.423376e+003
4.086721e+002, 2.411615e+003
4.091542e+002, 2.401308e+003
4.096363e+002, 2.392317e+003
4.101184e+002, 2.385080e+003
4.106006e+002, 2.379970e+003
4.110827e+002, 2.376521e+003
4.115648e+002, 2.374429e+003
4.120469e+002, 2.373776e+003
4.125290e+002, 2.374918e+003
4.130111e+002, 2.378462e+003
4.134933e+002, 2.383921e+003
4.139754e+002, 2.389393e+003
4.144575e+002, 2.394041e+003
4.149396e+002, 2.400969e+003
4.154217e+002, 2.412369e+003
4.159038e+002, 2.426627e+003
4.163860e+002, 2.442054e+003
4.168681e+002, 2.458140e+003
4.173502e+002, 2.475855e+003
4.178323e+002, 2.496390e+003
4.183144e+002, 2.519558e+003
4.187965e+002, 2.542980e+003
4.192787e+002, 2.565836e+003
4.197608e+002, 2.589256e+003
4.202429e+002, 2.613905e+003
4.207250e+002, 2.639712e+003
4.212071e+002, 2.668269e+003
4.216892e+002, 2.701605e+003
4.221714e+002, 2.737435e+003
4.226535e+002, 2.771910e+003
4.231356e+002, 2.804741e+003
4.236177e+002, 2.839922e+003
4.240998e+002, 2.880844e+003
4.245819e+002, 2.926371e+003
4.250641e+002, 2.969957e+003
4.255462e+002, 3.007262e+003
4.260283e+002, 3.048013e+003
4.265104e+002, 3.098043e+003
4.269925e+002, 3.154233e+003
4.274746e+002, 3.210310e+003
4.279568e+002, 3.264441e+003
4.284389e+002, 3.318637e+003
4.289210e+002, 3.376382e+003
4.294031e+002, 3.438654e+003
4.298852e+002, 3.502986e+003
4.303673e+002, 3.570388e+003
4.308495e+002, 3.639556e+003
4.313316e+002, 3.709405e+003
4.318137e+002, 3.780345e+003
4.322958e+002, 3.854183e+003
4.327779e+002, 3.932341e+003
4.332600e+002, 4.014996e+003
4.337422e+002, 4.102188e+003
4.342243e+002, 4.198760e+003
4.347064e+002, 4.294316e+003
4.351885e+002, 4.384559e+003
4.356706e+002, 4.474367e+003
4.361527e+002, 4.568207e+003
4.366349e+002, 4.667532e+003
4.371170e+002, 4.771092e+003
4.375991e+002, 4.877479e+003
4.380812e+002, 4.987009e+003
4.385633e+002, 5.097775e+003
4.390454e+002, 5.210841e+003
4.395276e+002, 5.323227e+003
4.400097e+002, 5.432308e+003
4.404918e+002, 5.539291e+003
4.409739e+002, 5.649359e+003
4.414560e+002, 5.766315e+003
4.419381e+002, 5.886605e+003
4.424203e+002, 6.000811e+003
4.429024e+002, 6.105544e+003
4.433845e+002, 6.211902e+003
4.438666e+002, 6.327458e+003
4.443487e+002, 6.443515e+003
4.448308e+002, 6.554474e+003
4.453130e+002, 6.659069e+003
4.457951e+002, 6.758111e+003
4.462772e+002, 6.851124e+003
4.467593e+002, 6.938887e+003
4.472414e+002, 7.024760e+003
4.477235e+002, 7.109496e+003
4.482057e+002, 7.190930e+003
4.486878e+002, 7.268956e+003
4.491699e+002, 7.343010e+003
4.496520e+002, 7.408776e+003
4.501341e+002, 7.464242e+003
4.506162e+002, 7.512253e+003
4.510984e+002, 7.555565e+003
4.515805e+002, 7.593866e+003
4.520626e+002, 7.625386e+003
4.525447e+002, 7.649585e+003
4.530268e+002, 7.666319e+003
4.535089e+002, 7.674132e+003
4.539911e+002, 7.673252e+003
4.544732e+002, 7.666985e+003
4.549553e+002, 7.656186e+003
4.554374e+002, 7.640205e+003
4.559195e+002, 7.618210e+003
4.564016e+002, 7.590115e+003
4.568838e+002, 7.556752e+003
4.573659e+002, 7.518263e+003
4.578480e+002, 7.474836e+003
4.583301e+002, 7.428706e+003
4.588122e+002, 7.379724e+003
4.592943e+002, 7.328473e+003
4.597765e+002, 7.273652e+003
4.602586e+002, 7.216976e+003
4.607407e+002, 7.160561e+003
4.612228e+002, 7.105327e+003
4.617049e+002, 7.050087e+003
4.621870e+002, 6.992651e+003
4.626692e+002, 6.932135e+003
4.631513e+002, 6.872739e+003
4.636334e+002, 6.814259e+003
4.641155e+002, 6.757452e+003
4.645976e+002, 6.703433e+003
4.650797e+002, 6.651365e+003
4.655619e+002, 6.598471e+003
4.660440e+002, 6.543210e+003
4.665261e+002, 6.486566e+003
4.670082e+002, 6.431671e+003
4.674903e+002, 6.377880e+003
4.679724e+002, 6.327166e+003
4.684546e+002, 6.282214e+003
4.689367e+002, 6.239176e+003
4.694188e+002, 6.196494e+003
4.699009e+002, 6.153344e+003
4.703830e+002, 6.108073e+003
4.708651e+002, 6.057937e+003
4.713473e+002, 6.004367e+003
4.718294e+002, 5.952932e+003
4.723115e+002, 5.904671e+003
4.727936e+002, 5.856210e+003
4.732757e+002, 5.805734e+003
4.737578e+002, 5.753802e+003
4.742400e+002, 5.701677e+003
4.747221e+002, 5.649567e+003
4.752042e+002, 5.597213e+003
4.756863e+002, 5.544292e+003
4.761684e+002, 5.490890e+003
4.766505e+002, 5.437781e+003
4.771327e+002, 5.384977e+003
4.776148e+002, 5.332513e+003
4.780969e+002, 5.279843e+003
4.785790e+002, 5.227356e+003
4.790611e+002, 5.173766e+003
4.795432e+002, 5.118250e+003
4.800254e+002, 5.062646e+003
4.805075e+002, 5.007506e+003
4.809896e+002, 4.953008e+003
4.814717e+002, 4.899650e+003
4.819538e+002, 4.847633e+003
4.824359e+002, 4.797009e+003
4.829181e+002, 4.747987e+003
4.834002e+002, 4.700198e+003
4.838823e+002, 4.654462e+003
4.843644e+002, 4.610630e+003
4.848465e+002, 4.568842e+003
4.853286e+002, 4.529809e+003
4.858108e+002, 4.493111e+003
4.862929e+002, 4.456912e+003
4.867750e+002, 4.418887e+003
4.872571e+002, 4.379956e+003
4.877392e+002, 4.347428e+003
4.882213e+002, 4.324592e+003
4.887035e+002, 4.303006e+003
4.891856e+002, 4.280662e+003
4.896677e+002, 4.257987e+003
4.901498e+002, 4.235067e+003
4.906319e+002, 4.211869e+003
4.911140e+002, 4.189465e+003
4.915962e+002, 4.169004e+003
4.920783e+002, 4.150338e+003
4.925604e+002, 4.132872e+003
4.930425e+002, 4.116375e+003
4.935246e+002, 4.101480e+003
4.940067e+002, 4.089969e+003
4.944889e+002, 4.080337e+003
4.949710e+002, 4.069047e+003
4.954531e+002, 4.054091e+003
4.959352e+002, 4.038678e+003
4.964173e+002, 4.026005e+003
4.968994e+002, 4.015153e+003
4.973816e+002, 4.002449e+003
4.978637e+002, 3.986523e+003
4.983458e+002, 3.969010e+003
4.988279e+002, 3.952110e+003
4.993100e+002, 3.935856e+003
4.997921e+002, 3.920075e+003
5.002743e+002, 3.907597e+003
5.007564e+002, 3.893212e+003
5.012385e+002, 3.873084e+003
5.017206e+002, 3.847971e+003
5.022027e+002, 3.820943e+003
5.026848e+002, 3.793633e+003
5.031670e+002, 3.766028e+003
5.036491e+002, 3.738527e+003
5.041312e+002, 3.711482e+003
5.046133e+002, 3.683704e+003
5.050954e+002, 3.655747e+003
5.055775e+002, 3.626696e+003
5.060597e+002, 3.595598e+003
5.065418e+002, 3.562631e+003
5.070239e+002, 3.529163e+003
5.075060e+002, 3.496162e+003
5.079881e+002, 3.463522e+003
5.084702e+002, 3.430992e+003
5.089524e+002, 3.399469e+003
5.094345e+002, 3.366021e+003
5.099166e+002, 3.326852e+003
5.103987e+002, 3.287202e+003
5.108808e+002, 3.252936e+003
5.113629e+002, 3.224978e+003
5.118451e+002, 3.196999e+003
5.123271e+002, 3.163901e+003
5.128093e+002, 3.127354e+003
5.132914e+002, 3.092724e+003
5.137735e+002, 3.060886e+003
5.142556e+002, 3.029091e+003
5.147377e+002, 2.994373e+003
5.152198e+002, 2.958381e+003
5.157020e+002, 2.926473e+003
5.161841e+002, 2.901255e+003
5.166662e+002, 2.876615e+003
5.171483e+002, 2.849480e+003
5.176304e+002, 2.821282e+003
5.181125e+002, 2.794075e+003
5.185947e+002, 2.768338e+003
5.190768e+002, 2.744155e+003
5.195589e+002, 2.721824e+003
5.200410e+002, 2.701630e+003
5.205231e+002, 2.679625e+003
5.210052e+002, 2.653205e+003
5.214874e+002, 2.628159e+003
5.219695e+002, 2.606522e+003
5.224516e+002, 2.587165e+003
5.229337e+002, 2.569040e+003
5.234158e+002, 2.551571e+003
5.238979e+002, 2.534191e+003
5.243801e+002, 2.515350e+003
5.248622e+002, 2.494326e+003
5.253443e+002, 2.476129e+003
5.258264e+002, 2.462621e+003
5.263085e+002, 2.450214e+003
5.267906e+002, 2.437364e+003
5.272728e+002, 2.424473e+003
5.277549e+002, 2.412528e+003
5.282370e+002, 2.402344e+003
5.287191e+002, 2.392292e+003
5.292012e+002, 2.379845e+003
5.296833e+002, 2.365193e+003
5.301655e+002, 2.351108e+003
5.306476e+002, 2.337969e+003
5.311297e+002, 2.326112e+003
5.316118e+002, 2.316352e+003
5.320939e+002, 2.308409e+003
5.325760e+002, 2.300740e+003
5.330582e+002, 2.292323e+003
5.335403e+002, 2.284676e+003
5.340224e+002, 2.279160e+003
5.345045e+002, 2.275439e+003
5.349866e+002, 2.272664e+003
5.354688e+002, 2.270595e+003
5.359509e+002, 2.268617e+003
5.364330e+002, 2.265399e+003
5.369151e+002, 2.259376e+003
5.373972e+002, 2.256085e+003
5.378793e+002, 2.257437e+003
5.383615e+002, 2.259496e+003
5.388436e+002, 2.259775e+003
5.393257e+002, 2.258995e+003
5.398078e+002, 2.259300e+003
5.402899e+002, 2.261944e+003
5.407720e+002, 2.266026e+003
5.412542e+002, 2.269552e+003
5.417363e+002, 2.272382e+003
5.422184e+002, 2.275013e+003
5.427005e+002, 2.276054e+003
5.431826e+002, 2.278202e+003
5.436647e+002, 2.283876e+003
5.441469e+002, 2.292261e+003
5.446290e+002, 2.300073e+003
5.451111e+002, 2.304743e+003
5.455932e+002, 2.308570e+003
5.460753e+002, 2.315874e+003
5.465574e+002, 2.326456e+003
5.470396e+002, 2.335367e+003
5.475217e+002, 2.340958e+003
5.480038e+002, 2.343705e+003
5.484859e+002, 2.343193e+003
5.489680e+002, 2.338956e+003
5.494501e+002, 2.336837e+003
5.499323e+002, 2.339321e+003
5.504144e+002, 2.343155e+003
5.508965e+002, 2.346759e+003
5.513786e+002, 2.349547e+003
5.518607e+002, 2.350372e+003
5.523428e+002, 2.348562e+003
5.528250e+002, 2.344762e+003
5.533071e+002, 2.340546e+003
5.537892e+002, 2.335892e+003
5.542713e+002, 2.330783e+003
5.547534e+002, 2.325418e+003
5.552355e+002, 2.319495e+003
5.557177e+002, 2.312927e+003
5.561998e+002, 2.305661e+003
5.566819e+002, 2.297507e+003
5.571640e+002, 2.288226e+003
5.576461e+002, 2.278343e+003
5.581282e+002, 2.269436e+003
5.586104e+002, 2.261862e+003
5.590925e+002, 2.252853e+003
5.595746e+002, 2.241637e+003
5.600567e+002, 2.228710e+003
5.605388e+002, 2.214274e+003
5.610209e+002, 2.198572e+003
5.615031e+002, 2.182820e+003
5.619852e+002, 2.166975e+003
5.624673e+002, 2.151781e+003
5.629494e+002, 2.138447e+003
5.634315e+002, 2.126605e+003
5.639136e+002, 2.114574e+003
5.643958e+002, 2.101651e+003
5.648779e+002, 2.088020e+003
5.653600e+002, 2.073929e+003
5.658421e+002, 2.059431e+003
5.663242e+002, 2.044388e+003
5.668063e+002, 2.028376e+003
5.672885e+002, 2.012126e+003
5.677706e+002, 1.996092e+003
5.682527e+002, 1.980143e+003
5.687348e+002, 1.964147e+003
5.692169e+002, 1.947987e+003
5.696990e+002, 1.931626e+003
5.701812e+002, 1.915083e+003
5.706633e+002, 1.898587e+003
5.711454e+002, 1.881176e+003
5.716275e+002, 1.862910e+003
5.721096e+002, 1.843378e+003
5.725917e+002, 1.821276e+003
5.730739e+002, 1.797919e+003
5.735560e+002, 1.776572e+003
5.740381e+002, 1.759556e+003
5.745202e+002, 1.742918e+003
5.750023e+002, 1.721994e+003
5.754844e+002, 1.697375e+003
5.759666e+002, 1.672422e+003
5.764487e+002, 1.647636e+003
5.769308e+002, 1.623526e+003
5.774129e+002, 1.600522e+003
5.778950e+002, 1.578672e+003
5.783771e+002, 1.557557e+003
5.788593e+002, 1.536503e+003
5.793414e+002, 1.516798e+003
5.798235e+002, 1.500341e+003
5.803056e+002, 1.485174e+003
5.807877e+002, 1.467947e+003
5.812698e+002, 1.447671e+003
5.817520e+002, 1.426753e+003
5.822341e+002, 1.408335e+003
5.827162e+002, 1.392570e+003
5.831984e+002, 1.376428e+003
5.836805e+002, 1.358782e+003
5.841626e+002, 1.342245e+003
5.846447e+002, 1.327851e+003
5.851268e+002, 1.314704e+003
5.856089e+002, 1.302152e+003
5.860911e+002, 1.290034e+003
5.865732e+002, 1.277189e+003
5.870553e+002, 1.261748e+003
5.875374e+002, 1.244543e+003
5.880195e+002, 1.229186e+003
5.885016e+002, 1.216055e+003
5.889838e+002, 1.204166e+003
5.894659e+002, 1.193175e+003
5.899480e+002, 1.182960e+003
5.904301e+002, 1.172997e+003
5.909122e+002, 1.163264e+003
5.913943e+002, 1.153817e+003
5.918765e+002, 1.144233e+003
5.923586e+002, 1.135164e+003
5.928407e+002, 1.127627e+003
5.933228e+002, 1.121509e+003
5.938049e+002, 1.115614e+003
5.942870e+002, 1.109079e+003
5.947692e+002, 1.101962e+003
5.952513e+002, 1.094247e+003
5.957334e+002, 1.084787e+003
5.962155e+002, 1.076865e+003
5.966976e+002, 1.071578e+003
5.971797e+002, 1.067115e+003
5.976619e+002, 1.062386e+003
5.981440e+002, 1.057327e+003
5.986261e+002, 1.052263e+003
5.991082e+002, 1.047346e+003
5.995903e+002, 1.042577e+003
6.000724e+002, 1.037854e+003
6.005546e+002, 1.033170e+003
6.010367e+002, 1.029118e+003
6.015188e+002, 1.026223e+003
6.020009e+002, 1.023506e+003
6.024830e+002, 1.019187e+003
6.029651e+002, 1.013289e+003
6.034473e+002, 1.009040e+003
6.039294e+002, 1.008426e+003
6.044115e+002, 1.008113e+003
6.048936e+002, 1.006101e+003
6.053757e+002, 1.002863e+003
6.058578e+002, 9.993547e+002
6.063400e+002, 9.959619e+002
6.068221e+002, 9.928559e+002
6.073042e+002, 9.903399e+002
6.077863e+002, 9.885408e+002
6.082684e+002, 9.865694e+002
6.087505e+002, 9.840966e+002
6.092327e+002, 9.818791e+002
6.097148e+002, 9.801274e+002
6.101969e+002, 9.787667e+002
6.106790e+002, 9.777449e+002
6.111611e+002, 9.770599e+002
6.116432e+002, 9.764883e+002
6.121254e+002, 9.759893e+002
6.126075e+002, 9.754378e+002
6.130896e+002, 9.742568e+002
6.135717e+002, 9.722721e+002
6.140538e+002, 9.706204e+002
6.145359e+002, 9.699954e+002
6.150181e+002, 9.701865e+002
6.155002e+002, 9.705851e+002
6.159823e+002, 9.711589e+002
6.164644e+002, 9.719515e+002
6.169465e+002, 9.732946e+002
6.174286e+002, 9.746088e+002
6.179108e+002, 9.752731e+002
6.183929e+002, 9.754119e+002
6.188750e+002, 9.756406e+002
6.193571e+002, 9.763596e+002
6.198392e+002, 9.773365e+002
6.203214e+002, 9.779328e+002
6.208035e+002, 9.780143e+002
6.212856e+002, 9.781406e+002
6.217677e+002, 9.784181e+002
6.222498e+002, 9.787192e+002
6.227319e+002, 9.788089e+002
6.232141e+002, 9.788762e+002
6.236962e+002, 9.794454e+002
6.241783e+002, 9.809877e+002
6.246604e+002, 9.826195e+002
6.251425e+002, 9.832206e+002
6.256246e+002, 9.831788e+002
6.261068e+002, 9.839564e+002
6.265889e+002, 9.859646e+002
6.270710e+002, 9.879798e+002
6.275531e+002, 9.887295e+002
6.280352e+002, 9.882932e+002
6.285173e+002, 9.886794e+002
6.289995e+002, 9.903565e+002
6.294816e+002, 9.921199e+002
6.299637e+002, 9.936874e+002
6.304458e+002, 9.952403e+002
6.309279e+002, 9.970948e+002
6.314100e+002, 9.991912e+002
6.318922e+002, 1.001085e+003
6.323743e+002, 1.002419e+003
6.328564e+002, 1.003254e+003
6.333385e+002, 1.003684e+003
6.338206e+002, 1.003502e+003
6.343027e+002, 1.003752e+003
6.347849e+002, 1.004974e+003
6.352670e+002, 1.006515e+003
6.357491e+002, 1.007644e+003
6.362312e+002, 1.008431e+003
6.367133e+002, 1.009556e+003
6.371954e+002, 1.011720e+003
6.376776e+002, 1.013872e+003
6.381597e+002, 1.015426e+003
6.386418e+002, 1.016291e+003
6.391239e+002, 1.016011e+003
6.396060e+002, 1.014444e+003
6.400881e+002, 1.012652e+003
6.405703e+002, 1.012017e+003
6.410524e+002, 1.012673e+003
6.415345e+002, 1.012997e+003
6.420166e+002, 1.013211e+003
6.424987e+002, 1.012798e+003
6.429808e+002, 1.011114e+003
6.434630e+002, 1.009079e+003
6.439451e+002, 1.007627e+003
6.444272e+002, 1.006924e+003
6.449093e+002, 1.006455e+003
6.453914e+002, 1.005736e+003
6.458735e+002, 1.004969e+003
6.463557e+002, 1.004966e+003
6.468378e+002, 1.005783e+003
6.473199e+002, 1.005621e+003
6.478020e+002, 1.003330e+003
6.482841e+002, 1.000249e+003
6.487662e+002, 9.986270e+002
6.492484e+002, 9.987731e+002
6.497305e+002, 9.985239e+002
6.502126e+002, 9.976810e+002
6.506947e+002, 9.964304e+002
6.511768e+002, 9.945590e+002
6.516589e+002, 9.924310e+002
6.521411e+002, 9.906812e+002
6.526232e+002, 9.895246e+002
6.531053e+002, 9.886644e+002
6.535874e+002, 9.877255e+002
6.540695e+002, 9.867068e+002
6.545516e+002, 9.859006e+002
6.550338e+002, 9.856583e+002
6.555159e+002, 9.849324e+002
6.559980e+002, 9.828082e+002
6.564801e+002, 9.801768e+002
6.569622e+002, 9.780703e+002
6.574443e+002, 9.766510e+002
6.579265e+002, 9.749844e+002
6.584086e+002, 9.723403e+002
6.588907e+002, 9.694658e+002
6.593728e+002, 9.672650e+002
6.598549e+002, 9.656210e+002
6.603370e+002, 9.637861e+002
6.608192e+002, 9.613858e+002
6.613013e+002, 9.589367e+002
6.617834e+002, 9.574714e+002
6.622655e+002, 9.574825e+002
6.627476e+002, 9.566070e+002
6.632297e+002, 9.539558e+002
6.637119e+002, 9.513785e+002
6.641940e+002, 9.493655e+002
6.646761e+002, 9.477862e+002
6.651582e+002, 9.465873e+002
6.656403e+002, 9.457531e+002
6.661224e+002, 9.447509e+002
6.666046e+002, 9.430560e+002
6.670867e+002, 9.408856e+002
6.675688e+002, 9.384907e+002
6.680509e+002, 9.358983e+002
6.685330e+002, 9.341274e+002
6.690151e+002, 9.339359e+002
6.694973e+002, 9.344962e+002
6.699794e+002, 9.341404e+002
6.704615e+002, 9.324490e+002
6.709436e+002, 9.309508e+002
6.714257e+002, 9.298728e+002
6.719078e+002, 9.287850e+002
6.723900e+002, 9.272811e+002
6.728721e+002, 9.256618e+002
6.733542e+002, 9.243851e+002
6.738363e+002, 9.236211e+002
6.743184e+002, 9.233431e+002
6.748005e+002, 9.236875e+002
6.752827e+002, 9.245759e+002
6.757648e+002, 9.253002e+002
6.762469e+002, 9.259090e+002
6.767290e+002, 9.260868e+002
6.772111e+002, 9.255403e+002
6.776932e+002, 9.245434e+002
6.781754e+002, 9.235125e+002
6.786575e+002, 9.223741e+002
6.791396e+002, 9.216026e+002
6.796217e+002, 9.214081e+002
6.801038e+002, 9.215326e+002
6.805859e+002, 9.217490e+002
6.810681e+002, 9.221362e+002
6.815502e+002, 9.229916e+002
6.820323e+002, 9.244141e+002
6.825144e+002, 9.259974e+002
6.829965e+002, 9.271119e+002
6.834786e+002, 9.277195e+002
6.839608e+002, 9.284842e+002
6.844429e+002, 9.294402e+002
6.849250e+002, 9.304804e+002
6.854071e+002, 9.312355e+002
6.858892e+002, 9.322205e+002
6.863713e+002, 9.342286e+002
6.868535e+002, 9.373851e+002
6.873356e+002, 9.402460e+002
6.878177e+002, 9.423134e+002
6.882998e+002, 9.436711e+002
6.887819e+002, 9.438809e+002
6.892640e+002, 9.434133e+002
6.897462e+002, 9.438079e+002
6.902283e+002, 9.456807e+002
6.907104e+002, 9.481365e+002
6.911925e+002, 9.498635e+002
6.916746e+002, 9.507474e+002
6.921567e+002, 9.520144e+002
6.926389e+002, 9.539186e+002
6.931210e+002, 9.558972e+002
6.936031e+002, 9.579702e+002
6.940852e+002, 9.599545e+002
6.945673e+002, 9.611877e+002
6.950494e+002, 9.617568e+002
6.955316e+002, 9.636336e+002
6.960137e+002, 9.693422e+002
6.964958e+002, 9.761297e+002
6.969779e+002, 9.801044e+002
6.974600e+002, 9.817604e+002
6.979421e+002, 9.834283e+002
6.984243e+002, 9.858228e+002
6.989064e+002, 9.893401e+002
6.993885e+002, 9.948107e+002
6.998706e+002, 1.002537e+003
7.003527e+002, 1.008269e+003
7.008348e+002, 1.010119e+003
7.013170e+002, 1.012270e+003
7.017991e+002, 1.014917e+003
7.022812e+002, 1.018528e+003
7.027633e+002, 1.023561e+003
7.032454e+002, 1.030023e+003
7.037275e+002, 1.037495e+003
7.042097e+002, 1.046080e+003
7.046918e+002, 1.055268e+003
7.051739e+002, 1.064544e+003
7.056560e+002, 1.073867e+003
7.061381e+002, 1.082303e+003
7.066202e+002, 1.089442e+003
7.071024e+002, 1.096508e+003
7.075845e+002, 1.104637e+003
7.080666e+002, 1.113879e+003
7.085487e+002, 1.123900e+003
7.090308e+002, 1.135527e+003
7.095129e+002, 1.146798e+003
7.099951e+002, 1.156691e+003
7.104772e+002, 1.166706e+003
7.109593e+002, 1.178194e+003
7.114414e+002, 1.191032e+003
7.119235e+002, 1.203951e+003
7.124056e+002, 1.216121e+003
7.128878e+002, 1.228468e+003
7.133699e+002, 1.242500e+003
7.138520e+002, 1.258093e+003
7.143341e+002, 1.274017e+003
7.148162e+002, 1.290133e+003
7.152983e+002, 1.306269e+003
7.157805e+002, 1.322119e+003
7.162626e+002, 1.337878e+003
7.167447e+002, 1.354830e+003
7.172268e+002, 1.373358e+003
7.177089e+002, 1.392433e+003
7.181910e+002, 1.411924e+003
7.186732e+002, 1.432024e+003
7.191553e+002, 1.452912e+003
7.196374e+002, 1.474511e+003
7.201195e+002, 1.496785e+003
7.206016e+002, 1.519658e+003
7.210837e+002, 1.543089e+003
7.215659e+002, 1.566948e+003
7.220480e+002, 1.591241e+003
7.225301e+002, 1.615630e+003
7.230122e+002, 1.640132e+003
7.234943e+002, 1.665291e+003
7.239764e+002, 1.691680e+003
7.244586e+002, 1.718932e+003
7.249407e+002, 1.746472e+003
7.254228e+002, 1.774555e+003
7.259049e+002, 1.802380e+003
7.263870e+002, 1.828770e+003
7.268691e+002, 1.855921e+003
7.273513e+002, 1.884891e+003
7.278334e+002, 1.915421e+003
7.283155e+002, 1.947411e+003
7.287976e+002, 1.980645e+003
7.292797e+002, 2.012867e+003
7.297618e+002, 2.039813e+003
7.302440e+002, 2.063573e+003
7.307261e+002, 2.092607e+003
7.312082e+002, 2.127360e+003
7.316903e+002, 2.162747e+003
7.321724e+002, 2.196415e+003
7.326545e+002, 2.229879e+003
7.331367e+002, 2.265989e+003
7.336188e+002, 2.305725e+003
7.341009e+002, 2.342027e+003
7.345830e+002, 2.370635e+003
7.350651e+002, 2.401043e+003
7.355472e+002, 2.437611e+003
7.360294e+002, 2.477130e+003
7.365115e+002, 2.515846e+003
7.369936e+002, 2.553080e+003
7.374757e+002, 2.590278e+003
7.379578e+002, 2.628071e+003
7.384399e+002, 2.666858e+003
7.389221e+002, 2.708173e+003
7.394042e+002, 2.751823e+003
7.398863e+002, 2.796110e+003
7.403684e+002, 2.840653e+003
7.408505e+002, 2.885331e+003
7.413326e+002, 2.929626e+003
7.418148e+002, 2.973656e+003
7.422969e+002, 3.018798e+003
7.427790e+002, 3.064535e+003
7.432611e+002, 3.112038e+003
7.437432e+002, 3.162017e+003
7.442253e+002, 3.213157e+003
7.447075e+002, 3.265365e+003
7.451896e+002, 3.318065e+003
7.456717e+002, 3.369680e+003
7.461538e+002, 3.419054e+003
7.466359e+002, 3.469279e+003
7.471180e+002, 3.524835e+003
7.476002e+002, 3.584561e+003
7.480823e+002, 3.645204e+003
7.485644e+002, 3.706515e+003
7.490465e+002, 3.768273e+003
7.495286e+002, 3.830126e+003
7.500107e+002, 3.893444e+003
7.504929e+002, 3.961883e+003
7.509750e+002, 4.038516e+003
7.514571e+002, 4.113484e+003
7.519392e+002, 4.184209e+003
7.524213e+002, 4.256088e+003
7.529034e+002, 4.330898e+003
7.533856e+002, 4.408626e+003
7.538677e+002, 4.489385e+003
7.543498e+002, 4.573158e+003
7.548319e+002, 4.659277e+003
7.553140e+002, 4.747706e+003
7.557961e+002, 4.837932e+003
7.562783e+002, 4.929281e+003
7.567604e+002, 5.021466e+003
7.572425e+002, 5.115031e+003
7.577246e+002, 5.209491e+003
7.582067e+002, 5.306063e+003
7.586888e+002, 5.405276e+003
7.591710e+002, 5.507436e+003
7.596531e+002, 5.607300e+003
7.601352e+002, 5.702331e+003
7.606173e+002, 5.798577e+003
7.610994e+002, 5.898545e+003
7.615815e+002, 5.998578e+003
7.620637e+002, 6.096546e+003
7.625458e+002, 6.192134e+003
7.630279e+002, 6.286110e+003
7.635100e+002, 6.378695e+003
7.639921e+002, 6.469078e+003
7.644742e+002, 6.556106e+003
7.649564e+002, 6.640797e+003
7.654385e+002, 6.724930e+003
7.659206e+002, 6.808845e+003
7.664027e+002, 6.889510e+003
7.668848e+002, 6.964633e+003
7.673669e+002, 7.035648e+003
7.678491e+002, 7.105836e+003
7.683312e+002, 7.176210e+003
7.688133e+002, 7.242481e+003
7.692954e+002, 7.307496e+003
7.697775e+002, 7.363644e+003
7.702596e+002, 7.402787e+003
7.707418e+002, 7.434131e+003
7.712239e+002, 7.470253e+003
7.717060e+002, 7.513457e+003
7.721881e+002, 7.551982e+003
7.726702e+002, 7.577667e+003
7.731523e+002, 7.600319e+003
7.736345e+002, 7.629602e+003
7.741166e+002, 7.661399e+003
7.745987e+002, 7.685542e+003
7.750808e+002, 7.699845e+003
7.755629e+002, 7.712499e+003
7.760450e+002, 7.731487e+003
7.765272e+002, 7.755830e+003
7.770093e+002, 7.781067e+003
7.774914e+002, 7.807378e+003
7.779735e+002, 7.833790e+003
7.784556e+002, 7.859739e+003
7.789377e+002, 7.886657e+003
7.794199e+002, 7.915386e+003
7.799020e+002, 7.946205e+003
7.803841e+002, 7.980720e+003
7.808662e+002, 8.019301e+003
7.813483e+002, 8.061115e+003
7.818304e+002, 8.108797e+003
7.823126e+002, 8.157470e+003
7.827947e+002, 8.203605e+003
7.832768e+002, 8.247269e+003
7.837589e+002, 8.289424e+003
7.842410e+002, 8.330532e+003
7.847231e+002, 8.370076e+003
7.852053e+002, 8.409201e+003
7.856874e+002, 8.446282e+003
7.861695e+002, 8.476444e+003
7.866516e+002, 8.499543e+003
7.871337e+002, 8.511324e+003
7.876158e+002, 8.510154e+003
7.880980e+002, 8.496306e+003
7.885801e+002, 8.470048e+003
7.890622e+002, 8.431763e+003
7.895443e+002, 8.379385e+003
7.900264e+002, 8.309452e+003
7.905085e+002, 8.230788e+003
7.909907e+002, 8.147724e+003
7.914728e+002, 8.054791e+003
7.919549e+002, 7.946400e+003
7.924370e+002, 7.823607e+003
7.929191e+002, 7.691021e+003
7.934012e+002, 7.551412e+003
7.938834e+002, 7.403831e+003
7.943655e+002, 7.244332e+003
7.948476e+002, 7.076890e+003
7.953297e+002, 6.910501e+003
7.958118e+002, 6.745560e+003
7.962939e+002, 6.577672e+003
7.967761e+002, 6.403315e+003
7.972582e+002, 6.225698e+003
7.977403e+002, 6.054331e+003
7.982224e+002, 5.889442e+003
7.987045e+002, 5.725180e+003
7.991866e+002, 5.559028e+003
7.996688e+002, 5.397264e+003
8.001509e+002, 5.242223e+003
8.006330e+002, 5.092724e+003
8.011151e+002, 4.947268e+003
8.015972e+002, 4.806302e+003
8.020793e+002, 4.670197e+003
8.025615e+002, 4.540825e+003
8.030436e+002, 4.415298e+003
8.035257e+002, 4.292312e+003
8.040078e+002, 4.172356e+003
8.044899e+002, 4.056902e+003
8.049720e+002, 3.946463e+003
8.054542e+002, 3.840641e+003
8.059363e+002, 3.739911e+003
8.064184e+002, 3.643449e+003
8.069005e+002, 3.549589e+003
8.073826e+002, 3.458308e+003
8.078647e+002, 3.369365e+003
8.083469e+002, 3.282343e+003
8.088290e+002, 3.199465e+003
8.093111e+002, 3.123137e+003
8.097932e+002, 3.051382e+003
8.102753e+002, 2.978800e+003
8.107574e+002, 2.901977e+003
8.112396e+002, 2.830323e+003
8.117217e+002, 2.764972e+003
8.122038e+002, 2.703148e+003
8.126859e+002, 2.646110e+003
8.131680e+002, 2.590334e+003
8.136501e+002, 2.530560e+003
8.141323e+002, 2.465902e+003
8.146144e+002, 2.403543e+003
8.150965e+002, 2.348806e+003
8.155786e+002, 2.297860e+003
8.160607e+002, 2.246820e+003
8.165428e+002, 2.196208e+003
8.170250e+002, 2.147337e+003
8.175071e+002, 2.100568e+003
8.179892e+002, 2.056367e+003
8.184713e+002, 2.015188e+003
8.189534e+002, 1.976123e+003
8.194355e+002, 1.935661e+003
8.199177e+002, 1.892822e+003
8.203998e+002, 1.852697e+003
8.208819e+002, 1.816259e+003
8.213640e+002, 1.781878e+003
8.218461e+002, 1.749038e+003
8.223282e+002, 1.717527e+003
8.228104e+002, 1.686749e+003
8.232925e+002, 1.656800e+003
8.237746e+002, 1.627058e+003
8.242567e+002, 1.596558e+003
8.247388e+002, 1.566962e+003
8.252209e+002, 1.540320e+003
8.257031e+002, 1.514635e+003
8.261852e+002, 1.486537e+003
8.266673e+002, 1.455869e+003
8.271494e+002, 1.426327e+003
8.276315e+002, 1.401031e+003
8.281136e+002, 1.378487e+003
8.285958e+002, 1.356094e+003
8.290779e+002, 1.333928e+003
8.295600e+002, 1.312133e+003
8.300421e+002, 1.290725e+003
8.305242e+002, 1.269875e+003
8.310063e+002, 1.249667e+003
8.314885e+002, 1.230119e+003
8.319706e+002, 1.211521e+003
8.324527e+002, 1.194131e+003
8.329348e+002, 1.176858e+003
8.334169e+002, 1.159511e+003
8.338990e+002, 1.142506e+003
8.343812e+002, 1.125781e+003
8.348633e+002, 1.109539e+003
8.353454e+002, 1.093885e+003
8.358275e+002, 1.078892e+003
8.363096e+002, 1.064498e+003
8.367917e+002, 1.051004e+003
8.372739e+002, 1.037867e+003
8.377560e+002, 1.024844e+003
8.382381e+002, 1.011852e+003
8.387202e+002, 9.984033e+002
8.392023e+002, 9.847205e+002
8.396844e+002, 9.720854e+002
8.401666e+002, 9.616158e+002
8.406487e+002, 9.520400e+002
8.411308e+002, 9.408977e+002
8.416129e+002, 9.285625e+002
8.420950e+002, 9.179801e+002
8.425771e+002, 9.095317e+002
8.430593e+002, 9.016970e+002
8.435414e+002, 8.938669e+002
8.440235e+002, 8.857067e+002
8.445056e+002, 8.763649e+002
8.449877e+002, 8.654522e+002
8.454698e+002, 8.555233e+002
8.459520e+002, 8.467532e+002
8.464341e+002, 8.387679e+002
8.469162e+002, 8.316912e+002
8.473983e+002, 8.252023e+002
8.478804e+002, 8.189785e+002
8.483625e+002, 8.130525e+002
8.488447e+002, 8.077092e+002
8.493268e+002, 8.039042e+002
8.498089e+002, 7.993542e+002
8.502910e+002, 7.921852e+002
8.507731e+002, 7.839449e+002
8.512552e+002, 7.756153e+002
8.517374e+002, 7.679266e+002
8.522195e+002, 7.624014e+002
8.527016e+002, 7.597469e+002
8.531837e+002, 7.583116e+002
8.536658e+002, 7.564105e+002
8.541479e+002, 7.539318e+002
8.546301e+002, 7.504882e+002
8.551122e+002, 7.461134e+002
8.555943e+002, 7.395710e+002
8.560764e+002, 7.299510e+002
8.565585e+002, 7.199668e+002
8.570406e+002, 7.125114e+002
8.575228e+002, 7.074286e+002
8.580049e+002, 7.025294e+002
8.584870e+002, 6.968232e+002
8.589691e+002, 6.930852e+002
8.594512e+002, 6.941874e+002
8.599333e+002, 6.945788e+002
8.604155e+002, 6.908195e+002
8.608976e+002, 6.844398e+002
8.613797e+002, 6.783407e+002
8.618618e+002, 6.730425e+002
8.623439e+002, 6.679657e+002
8.628260e+002, 6.625134e+002
8.633082e+002, 6.575279e+002
8.637903e+002, 6.539583e+002
8.642724e+002, 6.512288e+002
8.647545e+002, 6.482807e+002
8.652366e+002, 6.449046e+002
8.657188e+002, 6.415283e+002
8.662009e+002, 6.381765e+002
8.666830e+002, 6.355372e+002
8.671651e+002, 6.360781e+002
8.676472e+002, 6.389269e+002
8.681293e+002, 6.382934e+002
8.686115e+002, 6.332225e+002
8.690936e+002, 6.268637e+002
8.695757e+002, 6.207850e+002
8.700578e+002, 6.153785e+002
8.705399e+002, 6.115397e+002
8.710220e+002, 6.096385e+002
8.715042e+002, 6.075141e+002
8.719863e+002, 6.052635e+002
8.724684e+002, 6.026591e+002
8.729505e+002, 5.985879e+002
8.734326e+002, 5.949248e+002
8.739147e+002, 5.933643e+002
8.743969e+002, 5.937733e+002
8.748790e+002, 5.950705e+002
8.753611e+002, 5.989791e+002
8.758432e+002, 6.010240e+002
8.763253e+002, 5.989683e+002
8.768074e+002, 5.949838e+002
8.772896e+002, 5.900777e+002
8.777717e+002, 5.849955e+002
8.782538e+002, 5.807416e+002
8.787359e+002, 5.776819e+002
8.792180e+002, 5.756935e+002
8.797001e+002, 5.750085e+002
8.801823e+002, 5.751307e+002
8.806644e+002, 5.754517e+002
8.811465e+002, 5.757820e+002
8.816286e+002, 5.753199e+002
8.821107e+002, 5.738690e+002
8.825928e+002, 5.720422e+002
8.830750e+002, 5.703453e+002
8.835571e+002, 5.687764e+002
8.840392e+002, 5.673391e+002
8.845213e+002, 5.660311e+002
8.850034e+002, 5.649465e+002
8.854855e+002, 5.642866e+002
8.859677e+002, 5.634175e+002
8.864498e+002, 5.619056e+002
8.869319e+002, 5.600875e+002
8.874140e+002, 5.585227e+002
8.878961e+002, 5.572491e+002
8.883782e+002, 5.560361e+002
8.888604e+002, 5.551800e+002
8.893425e+002, 5.540132e+002
8.898246e+002, 5.525875e+002
8.903067e+002, 5.505921e+002
8.907888e+002, 5.474169e+002
8.912709e+002, 5.434341e+002
8.917531e+002, 5.398313e+002
8.922352e+002, 5.370996e+002
8.927173e+002, 5.345282e+002
8.931994e+002, 5.317457e+002
8.936815e+002, 5.287901e+002
8.941636e+002, 5.255521e+002
8.946458e+002, 5.221906e+002
8.951279e+002, 5.191570e+002
8.956100e+002, 5.165690e+002
8.960921e+002, 5.142082e+002
8.965742e+002, 5.118692e+002
8.970563e+002, 5.095679e+002
8.975385e+002, 5.073039e+002
8.980206e+002, 5.050782e+002
8.985027e+002, 5.029974e+002
8.989848e+002, 5.010862e+002
8.994669e+002, 4.992333e+002
8.999490e+002, 4.973511e+002
9.004312e+002, 4.954652e+002
9.009133e+002, 4.936310e+002
9.013954e+002, 4.918785e+002
9.018775e+002, 4.900078e+002
9.023596e+002, 4.876581e+002
9.028417e+002, 4.857943e+002
9.033239e+002, 4.849567e+002
9.038060e+002, 4.845347e+002
9.042881e+002, 4.841097e+002
9.047702e+002, 4.836325e+002
9.052523e+002, 4.828119e+002
9.057344e+002, 4.813259e+002
9.062166e+002, 4.799217e+002
9.066987e+002, 4.788476e+002
9.071808e+002, 4.778457e+002
9.076629e+002, 4.766090e+002
9.081450e+002, 4.753490e+002
9.086271e+002, 4.745335e+002
9.091093e+002, 4.742672e+002
9.095914e+002, 4.739955e+002
9.100735e+002, 4.732079e+002
9.105556e+002, 4.723383e+002
9.110377e+002, 4.721617e+002
9.115198e+002, 4.721785e+002
9.120020e+002, 4.710640e+002
9.124841e+002, 4.688485e+002
9.129662e+002, 4.670839e+002
9.134483e+002, 4.667968e+002
9.139304e+002, 4.671278e+002
9.144125e+002, 4.666186e+002
9.148947e+002, 4.653666e+002
9.153768e+002, 4.640903e+002
9.158589e+002, 4.628162e+002
9.163410e+002, 4.617402e+002
9.168231e+002, 4.610011e+002
9.173052e+002, 4.601945e+002
9.177874e+002, 4.587780e+002
9.182695e+002, 4.568709e+002
9.187516e+002, 4.557008e+002
9.192337e+002, 4.555717e+002
9.197158e+002, 4.554691e+002
9.201979e+002, 4.556080e+002
9.206801e+002, 4.553496e+002
9.211622e+002, 4.539359e+002
9.216443e+002, 4.520644e+002
9.221264e+002, 4.508068e+002
9.226085e+002, 4.502163e+002
9.230906e+002, 4.500648e+002
9.235728e+002, 4.510947e+002
9.240549e+002, 4.515882e+002
9.245370e+002, 4.505687e+002
9.250191e+002, 4.489780e+002
9.255012e+002, 4.475439e+002
9.259833e+002, 4.463765e+002
9.264655e+002, 4.454116e+002
9.269476e+002, 4.446346e+002
9.274297e+002, 4.440295e+002
9.279118e+002, 4.436779e+002
9.283939e+002, 4.434156e+002
9.288760e+002, 4.431913e+002
9.293582e+002, 4.428744e+002
9.298403e+002, 4.419950e+002
9.303224e+002, 4.405716e+002
9.308045e+002, 4.395805e+002
9.312866e+002, 4.399425e+002
9.317687e+002, 4.409301e+002
9.322509e+002, 4.414871e+002
9.327330e+002, 4.415015e+002
9.332151e+002, 4.401059e+002
9.336972e+002, 4.372957e+002
9.341793e+002, 4.348375e+002
9.346614e+002, 4.336214e+002
9.351436e+002, 4.331017e+002
9.356257e+002, 4.325410e+002
9.361078e+002, 4.319410e+002
9.365899e+002, 4.312877e+002
9.370720e+002, 4.305594e+002
9.375541e+002, 4.299504e+002
9.380363e+002, 4.297983e+002
9.385184e+002, 4.291152e+002
9.390005e+002, 4.268111e+002
9.394826e+002, 4.236060e+002
9.399647e+002, 4.215189e+002
9.404468e+002, 4.208761e+002
9.409290e+002, 4.204781e+002
9.414111e+002, 4.210260e+002
9.418932e+002, 4.209153e+002
9.423753e+002, 4.189367e+002
9.428574e+002, 4.166758e+002
9.433395e+002, 4.157627e+002
9.438217e+002, 4.159784e+002
9.443038e+002, 4.158607e+002
9.447859e+002, 4.148419e+002
9.452680e+002, 4.139297e+002
9.457501e+002, 4.136021e+002
9.462322e+002, 4.134051e+002
9.467144e+002, 4.129816e+002
9.471965e+002, 4.124529e+002
9.476786e+002, 4.121145e+002
9.481607e+002, 4.119945e+002
9.486428e+002, 4.117362e+002
9.491249e+002, 4.109771e+002
9.496071e+002, 4.101592e+002
9.500892e+002, 4.096424e+002
9.505713e+002, 4.094226e+002
9.510534e+002, 4.095562e+002
9.515355e+002, 4.099926e+002
9.520176e+002, 4.106428e+002
9.524998e+002, 4.114573e+002
9.529819e+002, 4.120701e+002
9.534640e+002, 4.120030e+002
9.539461e+002, 4.114109e+002
9.544282e+002, 4.105678e+002
9.549103e+002, 4.095637e+002
9.553925e+002, 4.091797e+002
9.558746e+002, 4.095782e+002
9.563567e+002, 4.102955e+002
9.568388e+002, 4.111064e+002
9.573209e+002, 4.116772e+002
9.578030e+002, 4.110609e+002
9.582852e+002, 4.090712e+002
9.587673e+002, 4.081287e+002
9.592494e+002, 4.084693e+002
9.597315e+002, 4.090281e+002
9.602136e+002, 4.097836e+002
9.606957e+002, 4.099923e+002
9.611779e+002, 4.086931e+002
9.616600e+002, 4.062568e+002
9.621421e+002, 4.047136e+002
9.626242e+002, 4.046253e+002
9.631063e+002, 4.043199e+002
9.635884e+002, 4.036161e+002
9.640706e+002, 4.029120e+002
9.645527e+002, 4.010596e+002
9.650348e+002, 4.001286e+002
9.655169e+002, 4.041904e+002
9.659990e+002, 4.126174e+002
9.664811e+002, 4.159019e+002
9.669633e+002, 4.082270e+002
9.674454e+002, 4.016841e+002
9.679275e+002, 3.994273e+002
9.684096e+002, 3.986677e+002
9.688917e+002, 3.979864e+002
9.693738e+002, 3.972596e+002
9.698560e+002, 3.965522e+002
9.703381e+002, 3.958766e+002
9.708202e+002, 3.952262e+002
9.713023e+002, 3.946942e+002
9.717844e+002, 3.940767e+002
9.722665e+002, 3.929709e+002
9.727487e+002, 3.918934e+002
9.732308e+002, 3.916324e+002
9.737129e+002, 3.919637e+002
9.741950e+002, 3.920979e+002
9.746771e+002, 3.917303e+002
9.751592e+002, 3.911183e+002
9.756414e+002, 3.903677e+002
9.761235e+002, 3.895995e+002
9.766056e+002, 3.888987e+002
9.770877e+002, 3.883346e+002
9.775698e+002, 3.882115e+002
9.780519e+002, 3.884653e+002
9.785341e+002, 3.883664e+002
9.790162e+002, 3.874287e+002
9.794983e+002, 3.865703e+002
9.799804e+002, 3.873212e+002
9.804625e+002, 3.892772e+002
9.809446e+002, 3.914786e+002
9.814268e+002, 3.936654e+002
9.819089e+002, 3.931157e+002
9.823910e+002, 3.890922e+002
9.828731e+002, 3.849482e+002
9.833552e+002, 3.834159e+002
9.838373e+002, 3.835471e+002
9.843195e+002, 3.826728e+002
9.848016e+002, 3.806527e+002
9.852837e+002, 3.813373e+002
9.857658e+002, 3.856123e+002
9.862479e+002, 3.881217e+002
9.867300e+002, 3.867411e+002
9.872122e+002, 3.836649e+002
9.876943e+002, 3.807440e+002
9.881764e+002, 3.781507e+002
9.886585e+002, 3.769020e+002
9.891406e+002, 3.775169e+002
9.896227e+002, 3.779881e+002
9.901049e+002, 3.783470e+002
9.905870e+002, 3.783525e+002
9.910691e+002, 3.777722e+002
9.915512e+002, 3.769166e+002
9.920333e+002, 3.760411e+002
9.925154e+002, 3.751626e+002
9.929976e+002, 3.746963e+002
9.934797e+002, 3.749046e+002
9.939618e+002, 3.751238e+002
9.944439e+002, 3.755859e+002
9.949260e+002, 3.757594e+002
9.954081e+002, 3.751771e+002
9.958903e+002, 3.742756e+002
9.963724e+002, 3.737076e+002
9.968545e+002, 3.735030e+002
9.973366e+002, 3.729991e+002
9.978187e+002, 3.713483e+002
9.983008e+002, 3.703750e+002
9.987830e+002, 3.713393e+002
9.992651e+002, 3.724283e+002
9.997472e+002, 3.722156e+002
1.000229e+003, 3.712355e+002
1.000711e+003, 3.705247e+002
1.001194e+003, 3.702884e+002
1.001676e+003, 3.701824e+002
1.002158e+003, 3.701573e+002
1.002640e+003, 3.701042e+002
1.003122e+003, 3.696300e+002
1.003604e+003, 3.693573e+002
1.004086e+003, 3.702979e+002
1.004568e+003, 3.719232e+002
1.005050e+003, 3.729723e+002
1.005533e+003, 3.730431e+002
1.006015e+003, 3.723986e+002
1.006497e+003, 3.705370e+002
1.006979e+003, 3.687141e+002
1.007461e+003, 3.683838e+002
1.007943e+003, 3.687819e+002
1.008425e+003, 3.687835e+002
1.008907e+003, 3.683172e+002
1.009390e+003, 3.677287e+002
1.009872e+003, 3.671647e+002
1.010354e+003, 3.667188e+002
1.010836e+003, 3.663027e+002
1.011318e+003, 3.661783e+002
1.011800e+003, 3.665342e+002
1.012282e+003, 3.675804e+002
1.012764e+003, 3.700891e+002
1.013246e+003, 3.739574e+002
1.013729e+003, 3.787598e+002
1.014211e+003, 3.843888e+002
1.014693e+003, 3.877881e+002
1.015175e+003, 3.821721e+002
1.015657e+003, 3.719260e+002
1.016139e+003, 3.713805e+002
1.016621e+003, 3.784730e+002
1.017103e+003, 3.825126e+002
1.017586e+003, 3.815467e+002
1.018068e+003, 3.799085e+002
1.018550e+003, 3.803309e+002
1.019032e+003, 3.810112e+002
1.019514e+003, 3.785008e+002
1.019996e+003, 3.733935e+002
1.020478e+003, 3.698084e+002
1.020960e+003, 3.677352e+002
1.021442e+003, 3.675077e+002
1.021925e+003, 3.693229e+002
1.022407e+003, 3.709615e+002
1.022889e+003, 3.708757e+002
1.023371e+003, 3.696831e+002
1.023853e+003, 3.684470e+002
1.024335e+003, 3.671629e+002
1.024817e+003, 3.666391e+002
1.025299e+003, 3.669687e+002
1.025781e+003, 3.673484e+002
1.026264e+003, 3.676016e+002
1.026746e+003, 3.677827e+002
1.027228e+003, 3.679135e+002
1.027710e+003, 3.680305e+002
1.028192e+003, 3.682517e+002
1.028674e+003, 3.686145e+002
1.029156e+003, 3.687433e+002
1.029638e+003, 3.685702e+002
1.030120e+003, 3.683864e+002
1.030603e+003, 3.682579e+002
1.031085e+003, 3.681577e+002
1.031567e+003, 3.680852e+002
1.032049e+003, 3.680093e+002
1.032531e+003, 3.678219e+002
1.033013e+003, 3.674483e+002
1.033495e+003, 3.673306e+002
1.033977e+003, 3.676552e+002
1.034460e+003, 3.678549e+002
1.034942e+003, 3.678484e+002
1.035424e+003, 3.675898e+002
1.035906e+003, 3.669293e+002
1.036388e+003, 3.660306e+002
1.036870e+003, 3.653482e+002
1.037352e+003, 3.648863e+002
1.037834e+003, 3.646503e+002
1.038317e+003, 3.649776e+002
1.038799e+003, 3.650077e+002
1.039281e+003, 3.641820e+002
1.039763e+003, 3.633572e+002
1.040245e+003, 3.632553e+002
1.040727e+003, 3.636469e+002
1.041209e+003, 3.639716e+002
1.041691e+003, 3.645026e+002
1.042173e+003, 3.640893e+002
1.042656e+003, 3.614585e+002
1.043138e+003, 3.595643e+002
1.043620e+003, 3.595642e+002
1.044102e+003, 3.601414e+002
1.044584e+003, 3.605584e+002
1.045066e+003, 3.607337e+002
1.045548e+003, 3.604866e+002
1.046030e+003, 3.596867e+002
1.046512e+003, 3.589409e+002
1.046995e+003, 3.582095e+002
1.047477e+003, 3.576786e+002
1.047959e+003, 3.573829e+002
1.048441e+003, 3.573265e+002
1.048923e+003, 3.576905e+002
1.049405e+003, 3.582583e+002
1.049887e+003, 3.585331e+002
1.050369e+003, 3.584243e+002
1.050852e+003, 3.581976e+002
1.051334e+003, 3.579257e+002
1.051816e+003, 3.575170e+002
1.052298e+003, 3.568599e+002
1.052780e+003, 3.561260e+002
1.053262e+003, 3.553676e+002
1.053744e+003, 3.546609e+002
1.054226e+003, 3.541451e+002
1.054708e+003, 3.538487e+002
1.055191e+003, 3.536656e+002
1.055673e+003, 3.535608e+002
1.056155e+003, 3.535704e+002
1.056637e+003, 3.538293e+002
1.057119e+003, 3.540978e+002
1.057601e+003, 3.535983e+002
1.058083e+003, 3.531321e+002
1.058565e+003, 3.550261e+002
1.059047e+003, 3.599462e+002
1.059530e+003, 3.624176e+002
1.060012e+003, 3.586393e+002
1.060494e+003, 3.546162e+002
1.060976e+003, 3.526496e+002
1.061458e+003, 3.517138e+002
1.061940e+003, 3.511323e+002
1.062422e+003, 3.508094e+002
1.062904e+003, 3.507557e+002
1.063387e+003, 3.509721e+002
1.063869e+003, 3.513295e+002
1.064351e+003, 3.517857e+002
1.064833e+003, 3.523694e+002
1.065315e+003, 3.537453e+002
1.065797e+003, 3.546514e+002
1.066279e+003, 3.536746e+002
1.066761e+003, 3.516078e+002
1.067244e+003, 3.496803e+002
1.067726e+003, 3.481933e+002
1.068208e+003, 3.476313e+002
1.068690e+003, 3.492401e+002
1.069172e+003, 3.504044e+002
1.069654e+003, 3.493382e+002
1.070136e+003, 3.479254e+002
1.070618e+003, 3.476804e+002
1.071100e+003, 3.481643e+002
1.071583e+003, 3.485234e+002
1.072065e+003, 3.486234e+002
1.072547e+003, 3.488138e+002
1.073029e+003, 3.494644e+002
1.073511e+003, 3.498300e+002
1.073993e+003, 3.492780e+002
1.074475e+003, 3.485822e+002
1.074957e+003, 3.482715e+002
1.075439e+003, 3.482493e+002
1.075922e+003, 3.484103e+002
1.076404e+003, 3.486721e+002
1.076886e+003, 3.487483e+002
1.077368e+003, 3.484066e+002
1.077850e+003, 3.481527e+002
1.078332e+003, 3.483226e+002
1.078814e+003, 3.485591e+002
1.079297e+003, 3.486363e+002
1.079779e+003, 3.485991e+002
1.080261e+003, 3.484526e+002
1.080743e+003, 3.482614e+002
1.081225e+003, 3.482534e+002
1.081707e+003, 3.485613e+002
1.082189e+003, 3.488646e+002
1.082671e+003, 3.491457e+002
1.083153e+003, 3.492300e+002
1.083635e+003, 3.488072e+002
1.084118e+003, 3.482652e+002
1.084600e+003, 3.477476e+002
1.085082e+003, 3.475411e+002
1.085564e+003, 3.486845e+002
1.086046e+003, 3.519818e+002
1.086528e+003, 3.537745e+002
1.087010e+003, 3.511193e+002
1.087492e+003, 3.482162e+002
1.087975e+003, 3.473186e+002
1.088457e+003, 3.473940e+002
1.088939e+003, 3.476048e+002
1.089421e+003, 3.477507e+002
1.089903e+003, 3.477057e+002
1.090385e+003, 3.474427e+002
1.090867e+003, 3.469653e+002
1.091349e+003, 3.458742e+002
1.091832e+003, 3.450863e+002
1.092314e+003, 3.453362e+002
1.092796e+003, 3.457826e+002
1.093278e+003, 3.458329e+002
1.093760e+003, 3.454860e+002
1.094242e+003, 3.446312e+002
1.094724e+003, 3.432808e+002
1.095206e+003, 3.426607e+002
1.095688e+003, 3.437106e+002
1.096171e+003, 3.447984e+002
1.096653e+003, 3.455489e+002
1.097135e+003, 3.459458e+002
1.097617e+003, 3.459469e+002
1.098099e+003, 3.456087e+002
1.098581e+003, 3.448282e+002
1.099063e+003, 3.436883e+002
1.099545e+003, 3.429920e+002
1.100027e+003, 3.432130e+002
1.100510e+003, 3.434106e+002
1.100992e+003, 3.430810e+002
1.101474e+003, 3.429705e+002
1.101956e+003, 3.439469e+002
1.102438e+003, 3.450336e+002
1.102920e+003, 3.449902e+002
1.103402e+003, 3.439558e+002
1.103884e+003, 3.430059e+002
1.104367e+003, 3.421255e+002
1.104849e+003, 3.417949e+002
1.105331e+003, 3.424901e+002
1.105813e+003, 3.432560e+002
1.106295e+003, 3.431431e+002
1.106777e+003, 3.434426e+002
1.107259e+003, 3.462196e+002
1.107741e+003, 3.502561e+002
1.108224e+003, 3.517380e+002
1.108706e+003, 3.494433e+002
1.109188e+003, 3.483179e+002
1.109670e+003, 3.496415e+002
1.110152e+003, 3.509879e+002
1.110634e+003, 3.534528e+002
1.111116e+003, 3.541066e+002
1.111598e+003, 3.491677e+002
1.112080e+003, 3.417940e+002
1.112563e+003, 3.381750e+002
1.113045e+003, 3.388380e+002
1.113527e+003, 3.390930e+002
1.114009e+003, 3.386986e+002
1.114491e+003, 3.382961e+002
1.114973e+003, 3.381401e+002
1.115455e+003, 3.376930e+002
1.115937e+003, 3.358586e+002
1.116419e+003, 3.343597e+002
1.116902e+003, 3.362196e+002
1.117384e+003, 3.409253e+002
1.117866e+003, 3.421446e+002
1.118348e+003, 3.376190e+002
1.118830e+003, 3.349284e+002
1.119312e+003, 3.352155e+002
1.119794e+003, 3.355325e+002
1.120276e+003, 3.347329e+002
1.120759e+003, 3.337604e+002
1.121241e+003, 3.335122e+002
1.121723e+003, 3.337930e+002
1.122205e+003, 3.339247e+002
1.122687e+003, 3.339106e+002
1.123169e+003, 3.336637e+002
1.123651e+003, 3.330079e+002
1.124133e+003, 3.327404e+002
1.124615e+003, 3.331927e+002
1.125098e+003, 3.336490e+002
1.125580e+003, 3.335702e+002
1.126062e+003, 3.332829e+002
1.126544e+003, 3.334965e+002
1.127026e+003, 3.341886e+002
1.127508e+003, 3.341665e+002
1.127990e+003, 3.333152e+002
1.128472e+003, 3.327693e+002
1.128954e+003, 3.327351e+002
1.129437e+003, 3.324886e+002
1.129919e+003, 3.314116e+002
1.130401e+003, 3.316288e+002
1.130883e+003, 3.365960e+002
1.131365e+003, 3.441198e+002
1.131847e+003, 3.444239e+002
1.132329e+003, 3.379889e+002
1.132811e+003, 3.341929e+002
1.133294e+003, 3.336928e+002
1.133776e+003, 3.341194e+002
1.134258e+003, 3.346852e+002
1.134740e+003, 3.349475e+002
1.135222e+003, 3.344674e+002
1.135704e+003, 3.337469e+002
1.136186e+003, 3.335449e+002
1.136668e+003, 3.339763e+002
1.137151e+003, 3.361047e+002
1.137633e+003, 3.393909e+002
1.138115e+003, 3.411617e+002
1.138597e+003, 3.409278e+002
1.139079e+003, 3.396020e+002
1.139561e+003, 3.376631e+002
1.140043e+003, 3.357491e+002
1.140525e+003, 3.346568e+002
1.141007e+003, 3.340892e+002
1.141490e+003, 3.332046e+002
1.141972e+003, 3.325033e+002
1.142454e+003, 3.335944e+002
1.142936e+003, 3.360060e+002
1.143418e+003, 3.375768e+002
1.143900e+003, 3.375956e+002
1.144382e+003, 3.369913e+002
1.144864e+003, 3.362963e+002
1.145346e+003, 3.356137e+002
1.145829e+003, 3.351145e+002
1.146311e+003, 3.346494e+002
1.146793e+003, 3.338069e+002
1.147275e+003, 3.329387e+002
1.147757e+003, 3.329110e+002
1.148239e+003, 3.336529e+002
1.148721e+003, 3.340961e+002
1.149203e+003, 3.336898e+002
1.149686e+003, 3.332806e+002
1.150168e+003, 3.335453e+002
1.150650e+003, 3.338622e+002
1.151132e+003, 3.336319e+002
1.151614e+003, 3.333138e+002
1.152096e+003, 3.335011e+002
1.152578e+003, 3.340487e+002
1.153060e+003, 3.343192e+002
1.153542e+003, 3.341405e+002
1.154025e+003, 3.347317e+002
1.154507e+003, 3.371358e+002
1.154989e+003, 3.395017e+002
1.155471e+003, 3.420515e+002
1.155953e+003, 3.434194e+002
1.156435e+003, 3.420218e+002
1.156917e+003, 3.393414e+002
1.157399e+003, 3.372628e+002
1.157881e+003, 3.358999e+002
1.158364e+003, 3.348242e+002
1.158846e+003, 3.341871e+002
1.159328e+003, 3.334630e+002
1.159810e+003, 3.323664e+002
1.160292e+003, 3.315360e+002
1.160774e+003, 3.315109e+002
1.161256e+003, 3.314125e+002
1.161738e+003, 3.302144e+002
1.162221e+003, 3.286125e+002
1.162703e+003, 3.284011e+002
1.163185e+003, 3.298304e+002
1.163667e+003, 3.305843e+002
1.164149e+003, 3.304960e+002
1.164631e+003, 3.301813e+002
1.165113e+003, 3.296351e+002
1.165595e+003, 3.291235e+002
1.166078e+003, 3.287275e+002
1.166560e+003, 3.285831e+002
1.167042e+003, 3.289592e+002
1.167524e+003, 3.296429e+002
1.168006e+003, 3.295206e+002
1.168488e+003, 3.285495e+002
1.168970e+003, 3.279083e+002
1.169452e+003, 3.276505e+002
1.169934e+003, 3.280560e+002
1.170417e+003, 3.292329e+002
1.170899e+003, 3.298551e+002
1.171381e+003, 3.287594e+002
1.171863e+003, 3.278018e+002
1.172345e+003, 3.314836e+002
1.172827e+003, 3.376054e+002
1.173309e+003, 3.373195e+002
1.173791e+003, 3.324245e+002
1.174273e+003, 3.296778e+002
1.174756e+003, 3.298346e+002
1.175238e+003, 3.313247e+002
1.175720e+003, 3.333771e+002
1.176202e+003, 3.344649e+002
1.176684e+003, 3.328900e+002
1.177166e+003, 3.304550e+002
1.177648e+003, 3.283037e+002
1.178130e+003, 3.275434e+002
1.178613e+003, 3.318545e+002
1.179095e+003, 3.379961e+002
1.179577e+003, 3.387687e+002
1.180059e+003, 3.341350e+002
1.180541e+003, 3.300795e+002
1.181023e+003, 3.292115e+002
1.181505e+003, 3.289930e+002
1.181987e+003, 3.278390e+002
1.182469e+003, 3.268599e+002
1.182952e+003, 3.270299e+002
1.183434e+003, 3.275266e+002
1.183916e+003, 3.274352e+002
1.184398e+003, 3.270662e+002
1.184880e+003, 3.273361e+002
1.185362e+003, 3.283322e+002
1.185844e+003, 3.286671e+002
1.186326e+003, 3.261643e+002
1.186808e+003, 3.258512e+002
1.187291e+003, 3.306229e+002
1.187773e+003, 3.352498e+002
1.188255e+003, 3.379020e+002
1.188737e+003, 3.389669e+002
1.189219e+003, 3.380208e+002
1.189701e+003, 3.360591e+002
1.190183e+003, 3.365495e+002
1.190665e+003, 3.406827e+002
1.191148e+003, 3.407600e+002
1.191630e+003, 3.347741e+002
1.192112e+003, 3.303781e+002
1.192594e+003, 3.291336e+002
1.193076e+003, 3.288105e+002
1.193558e+003, 3.283868e+002
1.194040e+003, 3.279484e+002
1.194522e+003, 3.275786e+002
1.195005e+003, 3.273202e+002
1.195487e+003, 3.272811e+002
1.195969e+003, 3.274742e+002
1.196451e+003, 3.285662e+002
1.196933e+003, 3.305131e+002
1.197415e+003, 3.314248e+002
1.197897e+003, 3.308881e+002
1.198379e+003, 3.310099e+002
1.198861e+003, 3.332555e+002
1.199344e+003, 3.353375e+002
1.199826e+003, 3.334247e+002
1.200308e+003, 3.296553e+002
1.200790e+003, 3.284055e+002
1.201272e+003, 3.287745e+002
1.201754e+003, 3.289383e+002
1.202236e+003, 3.287736e+002
1.202718e+003, 3.287540e+002
1.203200e+003, 3.289789e+002
1.203683e+003, 3.290640e+002
1.204165e+003, 3.287343e+002
1.204647e+003, 3.283283e+002
1.205129e+003, 3.280058e+002
1.205611e+003, 3.278161e+002
1.206093e+003, 3.277994e+002
1.206575e+003, 3.279457e+002
1.207057e+003, 3.284142e+002
1.207540e+003, 3.289985e+002
1.208022e+003, 3.291141e+002
1.208504e+003, 3.285919e+002
1.208986e+003, 3.282806e+002
1.209468e+003, 3.284685e+002
1.209950e+003, 3.287507e+002
1.210432e+003, 3.293840e+002
1.210914e+003, 3.296807e+002
1.211396e+003, 3.287801e+002
1.211879e+003, 3.278163e+002
1.212361e+003, 3.281978e+002
1.212843e+003, 3.294675e+002
1.213325e+003, 3.297083e+002
1.213807e+003, 3.285766e+002
1.214289e+003, 3.281175e+002
1.214771e+003, 3.285262e+002
1.215253e+003, 3.288307e+002
1.215735e+003, 3.288318e+002
1.216218e+003, 3.287332e+002
1.216700e+003, 3.286189e+002
1.217182e+003, 3.286064e+002
1.217664e+003, 3.289034e+002
1.218146e+003, 3.293210e+002
1.218628e+003, 3.288294e+002
1.219110e+003, 3.278806e+002
1.219592e+003, 3.289214e+002
1.220075e+003, 3.318365e+002
1.220557e+003, 3.361114e+002
1.221039e+003, 3.410438e+002
1.221521e+003, 3.434527e+002
1.222003e+003, 3.415103e+002
1.222485e+003, 3.378194e+002
1.222967e+003, 3.335311e+002
1.223449e+003, 3.303740e+002
1.223932e+003, 3.317035e+002
1.224414e+003, 3.343312e+002
1.224896e+003, 3.335929e+002
1.225378e+003, 3.309756e+002
1.225860e+003, 3.305370e+002
1.226342e+003, 3.324978e+002
1.226824e+003, 3.332094e+002
1.227306e+003, 3.309101e+002
1.227788e+003, 3.287269e+002
1.228271e+003, 3.272932e+002
1.228753e+003, 3.267352e+002
1.229235e+003, 3.278848e+002
1.229717e+003, 3.291751e+002
1.230199e+003, 3.293716e+002
1.230681e+003, 3.288534e+002
1.231163e+003, 3.282666e+002
1.231645e+003, 3.276208e+002
1.232127e+003, 3.273325e+002
1.232610e+003, 3.272910e+002
1.233092e+003, 3.281505e+002
1.233574e+003, 3.305514e+002
1.234056e+003, 3.315538e+002
1.234538e+003, 3.300275e+002
1.235020e+003, 3.279952e+002
1.235502e+003, 3.268830e+002
1.235984e+003, 3.264538e+002
1.236467e+003, 3.264926e+002
1.236949e+003, 3.267893e+002
1.237431e+003, 3.261828e+002
1.237913e+003, 3.250092e+002
1.238395e+003, 3.249530e+002
1.238877e+003, 3.259187e+002
1.239359e+003, 3.266666e+002
1.239841e+003, 3.268003e+002
1.240323e+003, 3.264612e+002
1.240806e+003, 3.256200e+002
1.241288e+003, 3.249537e+002
1.241770e+003, 3.252480e+002
1.242252e+003, 3.258817e+002
1.242734e+003, 3.263174e+002
1.243216e+003, 3.266706e+002
1.243698e+003, 3.273014e+002
1.244180e+003, 3.279167e+002
1.244662e+003, 3.277132e+002
1.245145e+003, 3.266466e+002
1.245627e+003, 3.260019e+002
1.246109e+003, 3.263249e+002
1.246591e+003, 3.267005e+002
1.247073e+003, 3.272312e+002
1.247555e+003, 3.274403e+002
1.248037e+003, 3.268003e+002
1.248519e+003, 3.262277e+002
1.249002e+003, 3.262640e+002
1.249484e+003, 3.269188e+002
1.249966e+003, 3.284778e+002
1.250448e+003, 3.307930e+002
1.250930e+003, 3.311284e+002
1.251412e+003, 3.292627e+002
1.251894e+003, 3.276956e+002
1.252376e+003, 3.265953e+002
1.252859e+003, 3.263714e+002
1.253341e+003, 3.271398e+002
1.253823e+003, 3.280953e+002
1.254305e+003, 3.287209e+002
1.254787e+003, 3.288969e+002
1.255269e+003, 3.280196e+002
1.255751e+003, 3.269136e+002
1.256233e+003, 3.273659e+002
1.256715e+003, 3.285833e+002
1.257198e+003, 3.292289e+002
1.257680e+003, 3.292770e+002
1.258162e+003, 3.288292e+002
1.258644e+003, 3.281185e+002
1.259126e+003, 3.280111e+002
1.259608e+003, 3.288391e+002
1.260090e+003, 3.304521e+002
1.260572e+003, 3.347156e+002
1.261054e+003, 3.372049e+002
1.261537e+003, 3.339929e+002
1.262019e+003, 3.300395e+002
1.262501e+003, 3.292541e+002
1.262983e+003, 3.301528e+002
1.263465e+003, 3.299774e+002
1.263947e+003, 3.289875e+002
1.264429e+003, 3.296410e+002
1.264911e+003, 3.331508e+002
1.265394e+003, 3.335564e+002
1.265876e+003, 3.294239e+002
1.266358e+003, 3.290331e+002
1.266840e+003, 3.347695e+002
1.267322e+003, 3.407179e+002
1.267804e+003, 3.437469e+002
1.268286e+003, 3.444689e+002
1.268768e+003, 3.434450e+002
1.269250e+003, 3.409822e+002
1.269733e+003, 3.369628e+002
1.270215e+003, 3.324150e+002
1.270697e+003, 3.297358e+002
1.271179e+003, 3.288241e+002
1.271661e+003, 3.290369e+002
1.272143e+003, 3.302444e+002
1.272625e+003, 3.332055e+002
1.273107e+003, 3.381905e+002
1.273589e+003, 3.411037e+002
1.274072e+003, 3.380126e+002
1.274554e+003, 3.343062e+002
1.275036e+003, 3.322874e+002
1.275518e+003, 3.309702e+002
1.276000e+003, 3.297661e+002
1.276482e+003, 3.288588e+002
1.276964e+003, 3.285399e+002
1.277446e+003, 3.287812e+002
1.277929e+003, 3.294066e+002
1.278411e+003, 3.305181e+002
1.278893e+003, 3.309172e+002
1.279375e+003, 3.303489e+002
1.279857e+003, 3.300785e+002
1.280339e+003, 3.303153e+002
1.280821e+003, 3.303707e+002
1.281303e+003, 3.299850e+002
1.281786e+003, 3.297711e+002
1.282268e+003, 3.301458e+002
##END=



