##NAMES=Curite
##RRUFFID=R130657
##IDEAL CHEMISTRY=Pb^2+^_3+x_[(U^6+^O_2_)_4_O_4+x_(OH)_3-x_]_2_&#183;2H_2_O
##LOCALITY=Musonoi mine, Kolwezi, Kolwezi District, Katanga Copper Crescent, Katanga, Democratic Republic of Congo
##OWNER=RRUFF
##SOURCE=Benjamin N. Schumer
##DESCRIPTION=Orange with dark green vandenbrandeite
##STATUS=The identification of this mineral has been confirmed by single-crystal X-ray diffraction.
##URL=rruff.info/R130657
8.813672e+001, 1.100812e+003
8.861884e+001, 1.114642e+003
8.910095e+001, 1.128454e+003
8.958307e+001, 1.147426e+003
9.006519e+001, 1.169559e+003
9.054730e+001, 1.189810e+003
9.102942e+001, 1.210077e+003
9.151154e+001, 1.225795e+003
9.199365e+001, 1.230260e+003
9.247577e+001, 1.225244e+003
9.295789e+001, 1.218091e+003
9.344000e+001, 1.214187e+003
9.392212e+001, 1.211278e+003
9.440424e+001, 1.205281e+003
9.488635e+001, 1.196469e+003
9.536847e+001, 1.186559e+003
9.585059e+001, 1.178614e+003
9.633270e+001, 1.172446e+003
9.681482e+001, 1.167931e+003
9.729694e+001, 1.164624e+003
9.777905e+001, 1.162486e+003
9.826117e+001, 1.163337e+003
9.874329e+001, 1.169181e+003
9.922540e+001, 1.178830e+003
9.970752e+001, 1.183004e+003
1.001896e+002, 1.180037e+003
1.006718e+002, 1.175002e+003
1.011539e+002, 1.174615e+003
1.016360e+002, 1.179990e+003
1.021181e+002, 1.185850e+003
1.026002e+002, 1.190160e+003
1.030823e+002, 1.192322e+003
1.035645e+002, 1.196661e+003
1.040466e+002, 1.203025e+003
1.045287e+002, 1.211662e+003
1.050108e+002, 1.223480e+003
1.054929e+002, 1.239859e+003
1.059750e+002, 1.257411e+003
1.064572e+002, 1.275294e+003
1.069393e+002, 1.296923e+003
1.074214e+002, 1.312910e+003
1.079035e+002, 1.320438e+003
1.083856e+002, 1.322165e+003
1.088677e+002, 1.326959e+003
1.093499e+002, 1.335780e+003
1.098320e+002, 1.347088e+003
1.103141e+002, 1.360205e+003
1.107962e+002, 1.375959e+003
1.112783e+002, 1.392846e+003
1.117604e+002, 1.410998e+003
1.122426e+002, 1.430502e+003
1.127247e+002, 1.450671e+003
1.132068e+002, 1.470844e+003
1.136889e+002, 1.492026e+003
1.141710e+002, 1.514710e+003
1.146531e+002, 1.542329e+003
1.151353e+002, 1.568242e+003
1.156174e+002, 1.589449e+003
1.160995e+002, 1.605861e+003
1.165816e+002, 1.624398e+003
1.170637e+002, 1.649436e+003
1.175458e+002, 1.677251e+003
1.180280e+002, 1.704140e+003
1.185101e+002, 1.726053e+003
1.189922e+002, 1.748310e+003
1.194743e+002, 1.773468e+003
1.199564e+002, 1.801822e+003
1.204385e+002, 1.833015e+003
1.209207e+002, 1.866877e+003
1.214028e+002, 1.903449e+003
1.218849e+002, 1.942618e+003
1.223670e+002, 1.989500e+003
1.228491e+002, 2.037220e+003
1.233312e+002, 2.077278e+003
1.238134e+002, 2.107528e+003
1.242955e+002, 2.135547e+003
1.247776e+002, 2.167227e+003
1.252597e+002, 2.202316e+003
1.257418e+002, 2.239888e+003
1.262239e+002, 2.279978e+003
1.267061e+002, 2.322525e+003
1.271882e+002, 2.365939e+003
1.276703e+002, 2.410354e+003
1.281524e+002, 2.456197e+003
1.286345e+002, 2.504378e+003
1.291166e+002, 2.554794e+003
1.295988e+002, 2.606285e+003
1.300809e+002, 2.657793e+003
1.305630e+002, 2.709570e+003
1.310451e+002, 2.762812e+003
1.315272e+002, 2.817095e+003
1.320093e+002, 2.872758e+003
1.324915e+002, 2.930998e+003
1.329736e+002, 2.991703e+003
1.334557e+002, 3.056128e+003
1.339378e+002, 3.124578e+003
1.344199e+002, 3.197269e+003
1.349020e+002, 3.273635e+003
1.353842e+002, 3.354739e+003
1.358663e+002, 3.438589e+003
1.363484e+002, 3.523736e+003
1.368305e+002, 3.610539e+003
1.373126e+002, 3.697248e+003
1.377947e+002, 3.783163e+003
1.382769e+002, 3.870434e+003
1.387590e+002, 3.947327e+003
1.392411e+002, 4.010637e+003
1.397232e+002, 4.060892e+003
1.402053e+002, 4.095544e+003
1.406874e+002, 4.114508e+003
1.411696e+002, 4.118843e+003
1.416517e+002, 4.110224e+003
1.421338e+002, 4.089388e+003
1.426159e+002, 4.054089e+003
1.430980e+002, 4.002431e+003
1.435801e+002, 3.933219e+003
1.440623e+002, 3.854726e+003
1.445444e+002, 3.763489e+003
1.450265e+002, 3.665132e+003
1.455086e+002, 3.571066e+003
1.459907e+002, 3.481970e+003
1.464728e+002, 3.395439e+003
1.469550e+002, 3.309266e+003
1.474371e+002, 3.221399e+003
1.479192e+002, 3.139984e+003
1.484013e+002, 3.066235e+003
1.488834e+002, 2.999070e+003
1.493655e+002, 2.934927e+003
1.498477e+002, 2.872815e+003
1.503298e+002, 2.815009e+003
1.508119e+002, 2.762891e+003
1.512940e+002, 2.718112e+003
1.517761e+002, 2.676290e+003
1.522583e+002, 2.637913e+003
1.527404e+002, 2.602948e+003
1.532225e+002, 2.571134e+003
1.537046e+002, 2.545574e+003
1.541867e+002, 2.521208e+003
1.546688e+002, 2.495781e+003
1.551510e+002, 2.466116e+003
1.556331e+002, 2.438489e+003
1.561152e+002, 2.415082e+003
1.565973e+002, 2.394908e+003
1.570794e+002, 2.374586e+003
1.575615e+002, 2.351635e+003
1.580437e+002, 2.329183e+003
1.585258e+002, 2.309135e+003
1.590079e+002, 2.295708e+003
1.594900e+002, 2.280772e+003
1.599721e+002, 2.260094e+003
1.604542e+002, 2.234966e+003
1.609364e+002, 2.212888e+003
1.614185e+002, 2.201008e+003
1.619006e+002, 2.191157e+003
1.623827e+002, 2.176764e+003
1.628648e+002, 2.150780e+003
1.633469e+002, 2.124359e+003
1.638291e+002, 2.102317e+003
1.643112e+002, 2.084564e+003
1.647933e+002, 2.067872e+003
1.652754e+002, 2.049373e+003
1.657575e+002, 2.031599e+003
1.662396e+002, 2.017215e+003
1.667218e+002, 2.009875e+003
1.672039e+002, 2.004183e+003
1.676860e+002, 1.996316e+003
1.681681e+002, 1.986392e+003
1.686502e+002, 1.977413e+003
1.691323e+002, 1.971404e+003
1.696145e+002, 1.967570e+003
1.700966e+002, 1.964876e+003
1.705787e+002, 1.963254e+003
1.710608e+002, 1.962398e+003
1.715429e+002, 1.962765e+003
1.720250e+002, 1.964455e+003
1.725072e+002, 1.964966e+003
1.729893e+002, 1.960966e+003
1.734714e+002, 1.954518e+003
1.739535e+002, 1.949432e+003
1.744356e+002, 1.948059e+003
1.749177e+002, 1.948653e+003
1.753999e+002, 1.949098e+003
1.758820e+002, 1.949263e+003
1.763641e+002, 1.949887e+003
1.768462e+002, 1.952466e+003
1.773283e+002, 1.956137e+003
1.778104e+002, 1.958711e+003
1.782926e+002, 1.958053e+003
1.787747e+002, 1.955865e+003
1.792568e+002, 1.954898e+003
1.797389e+002, 1.955318e+003
1.802210e+002, 1.956552e+003
1.807031e+002, 1.958388e+003
1.811853e+002, 1.960615e+003
1.816674e+002, 1.962434e+003
1.821495e+002, 1.963074e+003
1.826316e+002, 1.963036e+003
1.831137e+002, 1.963652e+003
1.835958e+002, 1.965178e+003
1.840780e+002, 1.966735e+003
1.845601e+002, 1.967202e+003
1.850422e+002, 1.966693e+003
1.855243e+002, 1.965831e+003
1.860064e+002, 1.964455e+003
1.864885e+002, 1.962946e+003
1.869707e+002, 1.962818e+003
1.874528e+002, 1.964407e+003
1.879349e+002, 1.966760e+003
1.884170e+002, 1.968280e+003
1.888991e+002, 1.969036e+003
1.893812e+002, 1.970208e+003
1.898634e+002, 1.972747e+003
1.903455e+002, 1.976385e+003
1.908276e+002, 1.979473e+003
1.913097e+002, 1.981785e+003
1.917918e+002, 1.983775e+003
1.922739e+002, 1.986088e+003
1.927561e+002, 1.988723e+003
1.932382e+002, 1.991900e+003
1.937203e+002, 1.996025e+003
1.942024e+002, 2.000980e+003
1.946845e+002, 2.005626e+003
1.951666e+002, 2.009863e+003
1.956488e+002, 2.013724e+003
1.961309e+002, 2.017246e+003
1.966130e+002, 2.020470e+003
1.970951e+002, 2.023422e+003
1.975772e+002, 2.026042e+003
1.980593e+002, 2.028331e+003
1.985415e+002, 2.030798e+003
1.990236e+002, 2.033426e+003
1.995057e+002, 2.036328e+003
1.999878e+002, 2.039653e+003
2.004699e+002, 2.043387e+003
2.009520e+002, 2.047641e+003
2.014342e+002, 2.052849e+003
2.019163e+002, 2.059213e+003
2.023984e+002, 2.064202e+003
2.028805e+002, 2.067273e+003
2.033626e+002, 2.069204e+003
2.038447e+002, 2.071978e+003
2.043269e+002, 2.075788e+003
2.048090e+002, 2.079746e+003
2.052911e+002, 2.083136e+003
2.057732e+002, 2.085772e+003
2.062553e+002, 2.089387e+003
2.067374e+002, 2.094656e+003
2.072196e+002, 2.100606e+003
2.077017e+002, 2.104303e+003
2.081838e+002, 2.105062e+003
2.086659e+002, 2.105487e+003
2.091480e+002, 2.106790e+003
2.096301e+002, 2.108872e+003
2.101123e+002, 2.112814e+003
2.105944e+002, 2.120112e+003
2.110765e+002, 2.128620e+003
2.115586e+002, 2.131720e+003
2.120407e+002, 2.127778e+003
2.125228e+002, 2.122121e+003
2.130050e+002, 2.117235e+003
2.134871e+002, 2.112743e+003
2.139692e+002, 2.110702e+003
2.144513e+002, 2.112276e+003
2.149334e+002, 2.115963e+003
2.154155e+002, 2.117030e+003
2.158977e+002, 2.114142e+003
2.163798e+002, 2.111180e+003
2.168619e+002, 2.110393e+003
2.173440e+002, 2.112610e+003
2.178261e+002, 2.114265e+003
2.183082e+002, 2.114866e+003
2.187904e+002, 2.114863e+003
2.192725e+002, 2.115715e+003
2.197546e+002, 2.117764e+003
2.202367e+002, 2.120032e+003
2.207188e+002, 2.122167e+003
2.212009e+002, 2.124606e+003
2.216831e+002, 2.125741e+003
2.221652e+002, 2.124967e+003
2.226473e+002, 2.123071e+003
2.231294e+002, 2.122290e+003
2.236115e+002, 2.122765e+003
2.240936e+002, 2.124204e+003
2.245758e+002, 2.126829e+003
2.250579e+002, 2.131853e+003
2.255400e+002, 2.135000e+003
2.260221e+002, 2.135457e+003
2.265042e+002, 2.134233e+003
2.269863e+002, 2.134017e+003
2.274685e+002, 2.134950e+003
2.279506e+002, 2.136677e+003
2.284327e+002, 2.138983e+003
2.289148e+002, 2.141671e+003
2.293969e+002, 2.145387e+003
2.298790e+002, 2.150006e+003
2.303612e+002, 2.155655e+003
2.308433e+002, 2.163090e+003
2.313254e+002, 2.174665e+003
2.318075e+002, 2.184505e+003
2.322896e+002, 2.189490e+003
2.327717e+002, 2.186356e+003
2.332539e+002, 2.186367e+003
2.337360e+002, 2.190532e+003
2.342181e+002, 2.197425e+003
2.347002e+002, 2.204119e+003
2.351823e+002, 2.211302e+003
2.356644e+002, 2.217088e+003
2.361466e+002, 2.220466e+003
2.366287e+002, 2.220310e+003
2.371108e+002, 2.220715e+003
2.375929e+002, 2.221681e+003
2.380750e+002, 2.223198e+003
2.385571e+002, 2.225170e+003
2.390393e+002, 2.227227e+003
2.395214e+002, 2.230378e+003
2.400035e+002, 2.235380e+003
2.404856e+002, 2.243589e+003
2.409677e+002, 2.249573e+003
2.414498e+002, 2.251700e+003
2.419320e+002, 2.252513e+003
2.424141e+002, 2.256751e+003
2.428962e+002, 2.266226e+003
2.433783e+002, 2.276294e+003
2.438604e+002, 2.285542e+003
2.443425e+002, 2.293909e+003
2.448247e+002, 2.301800e+003
2.453068e+002, 2.309040e+003
2.457889e+002, 2.315937e+003
2.462710e+002, 2.322935e+003
2.467531e+002, 2.329363e+003
2.472352e+002, 2.337059e+003
2.477174e+002, 2.347203e+003
2.481995e+002, 2.360661e+003
2.486816e+002, 2.371552e+003
2.491637e+002, 2.379143e+003
2.496458e+002, 2.384698e+003
2.501279e+002, 2.389733e+003
2.506101e+002, 2.393720e+003
2.510922e+002, 2.398220e+003
2.515743e+002, 2.403828e+003
2.520564e+002, 2.410813e+003
2.525385e+002, 2.416864e+003
2.530206e+002, 2.421418e+003
2.535028e+002, 2.425592e+003
2.539849e+002, 2.430580e+003
2.544670e+002, 2.436555e+003
2.549491e+002, 2.443104e+003
2.554312e+002, 2.450069e+003
2.559133e+002, 2.457351e+003
2.563955e+002, 2.465874e+003
2.568776e+002, 2.476145e+003
2.573597e+002, 2.487137e+003
2.578418e+002, 2.497685e+003
2.583239e+002, 2.507432e+003
2.588061e+002, 2.517707e+003
2.592882e+002, 2.528633e+003
2.597703e+002, 2.540273e+003
2.602524e+002, 2.553447e+003
2.607345e+002, 2.568612e+003
2.612166e+002, 2.584817e+003
2.616988e+002, 2.601927e+003
2.621809e+002, 2.620496e+003
2.626630e+002, 2.637478e+003
2.631451e+002, 2.651914e+003
2.636272e+002, 2.664166e+003
2.641093e+002, 2.675850e+003
2.645915e+002, 2.686192e+003
2.650736e+002, 2.697556e+003
2.655557e+002, 2.713101e+003
2.660378e+002, 2.734812e+003
2.665199e+002, 2.752629e+003
2.670020e+002, 2.764220e+003
2.674842e+002, 2.770815e+003
2.679663e+002, 2.778137e+003
2.684484e+002, 2.786701e+003
2.689305e+002, 2.794747e+003
2.694126e+002, 2.801316e+003
2.698947e+002, 2.806797e+003
2.703769e+002, 2.809182e+003
2.708590e+002, 2.807958e+003
2.713411e+002, 2.803685e+003
2.718232e+002, 2.798038e+003
2.723053e+002, 2.790862e+003
2.727874e+002, 2.782776e+003
2.732696e+002, 2.774587e+003
2.737517e+002, 2.766767e+003
2.742338e+002, 2.755260e+003
2.747159e+002, 2.739032e+003
2.751980e+002, 2.719698e+003
2.756801e+002, 2.701570e+003
2.761623e+002, 2.685122e+003
2.766444e+002, 2.667862e+003
2.771265e+002, 2.647376e+003
2.776086e+002, 2.622871e+003
2.780907e+002, 2.603955e+003
2.785728e+002, 2.592927e+003
2.790550e+002, 2.584016e+003
2.795371e+002, 2.565886e+003
2.800192e+002, 2.537397e+003
2.805013e+002, 2.508950e+003
2.809834e+002, 2.484643e+003
2.814655e+002, 2.464425e+003
2.819477e+002, 2.447268e+003
2.824298e+002, 2.433989e+003
2.829119e+002, 2.421978e+003
2.833940e+002, 2.407156e+003
2.838761e+002, 2.389395e+003
2.843582e+002, 2.372915e+003
2.848404e+002, 2.359671e+003
2.853225e+002, 2.349143e+003
2.858046e+002, 2.338402e+003
2.862867e+002, 2.327546e+003
2.867688e+002, 2.316423e+003
2.872509e+002, 2.304283e+003
2.877331e+002, 2.291304e+003
2.882152e+002, 2.279992e+003
2.886973e+002, 2.271886e+003
2.891794e+002, 2.265827e+003
2.896615e+002, 2.257973e+003
2.901436e+002, 2.248149e+003
2.906258e+002, 2.238256e+003
2.911079e+002, 2.230124e+003
2.915900e+002, 2.223487e+003
2.920721e+002, 2.216657e+003
2.925542e+002, 2.208925e+003
2.930363e+002, 2.201161e+003
2.935185e+002, 2.195562e+003
2.940006e+002, 2.192066e+003
2.944827e+002, 2.188853e+003
2.949648e+002, 2.183963e+003
2.954469e+002, 2.178065e+003
2.959290e+002, 2.173432e+003
2.964112e+002, 2.170697e+003
2.968933e+002, 2.168884e+003
2.973754e+002, 2.166440e+003
2.978575e+002, 2.163502e+003
2.983396e+002, 2.160954e+003
2.988217e+002, 2.159724e+003
2.993039e+002, 2.159233e+003
2.997860e+002, 2.158415e+003
3.002681e+002, 2.157122e+003
3.007502e+002, 2.155436e+003
3.012323e+002, 2.153164e+003
3.017144e+002, 2.150481e+003
3.021966e+002, 2.148149e+003
3.026787e+002, 2.146343e+003
3.031608e+002, 2.145164e+003
3.036429e+002, 2.145045e+003
3.041250e+002, 2.146187e+003
3.046071e+002, 2.147155e+003
3.050893e+002, 2.146369e+003
3.055714e+002, 2.144436e+003
3.060535e+002, 2.142661e+003
3.065356e+002, 2.141455e+003
3.070177e+002, 2.140757e+003
3.074998e+002, 2.140822e+003
3.079820e+002, 2.141656e+003
3.084641e+002, 2.142220e+003
3.089462e+002, 2.141337e+003
3.094283e+002, 2.139857e+003
3.099104e+002, 2.138951e+003
3.103925e+002, 2.139956e+003
3.108747e+002, 2.141017e+003
3.113568e+002, 2.139951e+003
3.118389e+002, 2.137243e+003
3.123210e+002, 2.136419e+003
3.128031e+002, 2.141505e+003
3.132852e+002, 2.148470e+003
3.137674e+002, 2.153447e+003
3.142495e+002, 2.154372e+003
3.147316e+002, 2.154352e+003
3.152137e+002, 2.153870e+003
3.156958e+002, 2.153402e+003
3.161779e+002, 2.154566e+003
3.166601e+002, 2.160591e+003
3.171422e+002, 2.166800e+003
3.176243e+002, 2.169731e+003
3.181064e+002, 2.166894e+003
3.185885e+002, 2.164587e+003
3.190706e+002, 2.165296e+003
3.195528e+002, 2.167927e+003
3.200349e+002, 2.170376e+003
3.205170e+002, 2.172433e+003
3.209991e+002, 2.173845e+003
3.214812e+002, 2.174211e+003
3.219633e+002, 2.173017e+003
3.224455e+002, 2.172599e+003
3.229276e+002, 2.173297e+003
3.234097e+002, 2.175057e+003
3.238918e+002, 2.177815e+003
3.243739e+002, 2.183208e+003
3.248560e+002, 2.188014e+003
3.253382e+002, 2.191324e+003
3.258203e+002, 2.193009e+003
3.263024e+002, 2.194469e+003
3.267845e+002, 2.195765e+003
3.272666e+002, 2.196946e+003
3.277487e+002, 2.198053e+003
3.282309e+002, 2.199233e+003
3.287130e+002, 2.200162e+003
3.291951e+002, 2.200250e+003
3.296772e+002, 2.199723e+003
3.301593e+002, 2.200920e+003
3.306414e+002, 2.205440e+003
3.311236e+002, 2.210120e+003
3.316057e+002, 2.213162e+003
3.320878e+002, 2.213052e+003
3.325699e+002, 2.213966e+003
3.330520e+002, 2.216253e+003
3.335341e+002, 2.219553e+003
3.340163e+002, 2.223032e+003
3.344984e+002, 2.227181e+003
3.349805e+002, 2.230595e+003
3.354626e+002, 2.232489e+003
3.359447e+002, 2.232270e+003
3.364268e+002, 2.232942e+003
3.369090e+002, 2.234943e+003
3.373911e+002, 2.237427e+003
3.378732e+002, 2.238811e+003
3.383553e+002, 2.238616e+003
3.388374e+002, 2.239134e+003
3.393195e+002, 2.241631e+003
3.398017e+002, 2.245975e+003
3.402838e+002, 2.248111e+003
3.407659e+002, 2.247527e+003
3.412480e+002, 2.246114e+003
3.417301e+002, 2.245724e+003
3.422122e+002, 2.246399e+003
3.426944e+002, 2.247547e+003
3.431765e+002, 2.249060e+003
3.436586e+002, 2.250926e+003
3.441407e+002, 2.253312e+003
3.446228e+002, 2.256276e+003
3.451049e+002, 2.258875e+003
3.455871e+002, 2.259990e+003
3.460692e+002, 2.259889e+003
3.465513e+002, 2.260499e+003
3.470334e+002, 2.262342e+003
3.475155e+002, 2.264421e+003
3.479977e+002, 2.264796e+003
3.484798e+002, 2.263657e+003
3.489619e+002, 2.262577e+003
3.494440e+002, 2.262546e+003
3.499261e+002, 2.263220e+003
3.504082e+002, 2.263792e+003
3.508904e+002, 2.264181e+003
3.513725e+002, 2.264687e+003
3.518546e+002, 2.265449e+003
3.523367e+002, 2.266565e+003
3.528188e+002, 2.268292e+003
3.533009e+002, 2.272047e+003
3.537831e+002, 2.275781e+003
3.542652e+002, 2.276266e+003
3.547473e+002, 2.273669e+003
3.552294e+002, 2.271648e+003
3.557115e+002, 2.273934e+003
3.561936e+002, 2.278070e+003
3.566758e+002, 2.280755e+003
3.571579e+002, 2.280108e+003
3.576400e+002, 2.278960e+003
3.581221e+002, 2.279558e+003
3.586042e+002, 2.281434e+003
3.590863e+002, 2.282903e+003
3.595685e+002, 2.282219e+003
3.600506e+002, 2.281383e+003
3.605327e+002, 2.282215e+003
3.610148e+002, 2.285965e+003
3.614969e+002, 2.288862e+003
3.619790e+002, 2.288549e+003
3.624612e+002, 2.286472e+003
3.629433e+002, 2.285064e+003
3.634254e+002, 2.285358e+003
3.639075e+002, 2.286176e+003
3.643896e+002, 2.287136e+003
3.648717e+002, 2.288216e+003
3.653539e+002, 2.289214e+003
3.658360e+002, 2.289781e+003
3.663181e+002, 2.290358e+003
3.668002e+002, 2.291357e+003
3.672823e+002, 2.293423e+003
3.677644e+002, 2.295212e+003
3.682466e+002, 2.296702e+003
3.687287e+002, 2.297832e+003
3.692108e+002, 2.298077e+003
3.696929e+002, 2.296632e+003
3.701750e+002, 2.295016e+003
3.706571e+002, 2.293962e+003
3.711393e+002, 2.293215e+003
3.716214e+002, 2.293602e+003
3.721035e+002, 2.296002e+003
3.725856e+002, 2.299288e+003
3.730677e+002, 2.300656e+003
3.735498e+002, 2.298933e+003
3.740320e+002, 2.297599e+003
3.745141e+002, 2.298146e+003
3.749962e+002, 2.300876e+003
3.754783e+002, 2.302773e+003
3.759604e+002, 2.303566e+003
3.764425e+002, 2.303948e+003
3.769247e+002, 2.304936e+003
3.774068e+002, 2.306745e+003
3.778889e+002, 2.307694e+003
3.783710e+002, 2.307111e+003
3.788531e+002, 2.305382e+003
3.793352e+002, 2.303983e+003
3.798174e+002, 2.302895e+003
3.802995e+002, 2.302324e+003
3.807816e+002, 2.302676e+003
3.812637e+002, 2.303837e+003
3.817458e+002, 2.304862e+003
3.822279e+002, 2.305671e+003
3.827101e+002, 2.306222e+003
3.831922e+002, 2.306281e+003
3.836743e+002, 2.305937e+003
3.841564e+002, 2.305781e+003
3.846385e+002, 2.306210e+003
3.851206e+002, 2.307043e+003
3.856028e+002, 2.308059e+003
3.860849e+002, 2.309288e+003
3.865670e+002, 2.310254e+003
3.870491e+002, 2.310142e+003
3.875312e+002, 2.309468e+003
3.880133e+002, 2.309245e+003
3.884955e+002, 2.309715e+003
3.889776e+002, 2.310888e+003
3.894597e+002, 2.313535e+003
3.899418e+002, 2.317277e+003
3.904239e+002, 2.319861e+003
3.909060e+002, 2.318857e+003
3.913882e+002, 2.316639e+003
3.918703e+002, 2.315334e+003
3.923524e+002, 2.315477e+003
3.928345e+002, 2.316359e+003
3.933166e+002, 2.317986e+003
3.937987e+002, 2.320100e+003
3.942809e+002, 2.322161e+003
3.947630e+002, 2.324738e+003
3.952451e+002, 2.326584e+003
3.957272e+002, 2.326812e+003
3.962093e+002, 2.325004e+003
3.966914e+002, 2.323787e+003
3.971736e+002, 2.324111e+003
3.976557e+002, 2.325022e+003
3.981378e+002, 2.325641e+003
3.986199e+002, 2.325139e+003
3.991020e+002, 2.325131e+003
3.995841e+002, 2.326010e+003
4.000663e+002, 2.327623e+003
4.005484e+002, 2.329000e+003
4.010305e+002, 2.330026e+003
4.015126e+002, 2.330951e+003
4.019947e+002, 2.331977e+003
4.024768e+002, 2.333476e+003
4.029590e+002, 2.334235e+003
4.034411e+002, 2.334120e+003
4.039232e+002, 2.333433e+003
4.044053e+002, 2.332554e+003
4.048874e+002, 2.331293e+003
4.053695e+002, 2.330552e+003
4.058517e+002, 2.330702e+003
4.063338e+002, 2.331714e+003
4.068159e+002, 2.332853e+003
4.072980e+002, 2.334031e+003
4.077801e+002, 2.335698e+003
4.082622e+002, 2.338341e+003
4.087444e+002, 2.341929e+003
4.092265e+002, 2.345851e+003
4.097086e+002, 2.350069e+003
4.101907e+002, 2.354417e+003
4.106728e+002, 2.358777e+003
4.111549e+002, 2.363099e+003
4.116371e+002, 2.366899e+003
4.121192e+002, 2.369038e+003
4.126013e+002, 2.370492e+003
4.130834e+002, 2.373635e+003
4.135655e+002, 2.378775e+003
4.140476e+002, 2.384338e+003
4.145298e+002, 2.389556e+003
4.150119e+002, 2.394047e+003
4.154940e+002, 2.397149e+003
4.159761e+002, 2.396636e+003
4.164582e+002, 2.396073e+003
4.169403e+002, 2.398639e+003
4.174225e+002, 2.404034e+003
4.179046e+002, 2.410428e+003
4.183867e+002, 2.416935e+003
4.188688e+002, 2.423831e+003
4.193509e+002, 2.431487e+003
4.198330e+002, 2.441039e+003
4.203152e+002, 2.449273e+003
4.207973e+002, 2.453855e+003
4.212794e+002, 2.456519e+003
4.217615e+002, 2.460444e+003
4.222436e+002, 2.467352e+003
4.227257e+002, 2.474821e+003
4.232079e+002, 2.481851e+003
4.236900e+002, 2.488149e+003
4.241721e+002, 2.495906e+003
4.246542e+002, 2.506680e+003
4.251363e+002, 2.518160e+003
4.256184e+002, 2.528870e+003
4.261006e+002, 2.538643e+003
4.265827e+002, 2.547483e+003
4.270648e+002, 2.554749e+003
4.275469e+002, 2.561087e+003
4.280290e+002, 2.568603e+003
4.285111e+002, 2.577642e+003
4.289933e+002, 2.587020e+003
4.294754e+002, 2.595854e+003
4.299575e+002, 2.603837e+003
4.304396e+002, 2.613784e+003
4.309217e+002, 2.626201e+003
4.314038e+002, 2.639487e+003
4.318860e+002, 2.651075e+003
4.323681e+002, 2.660865e+003
4.328502e+002, 2.672009e+003
4.333323e+002, 2.685938e+003
4.338144e+002, 2.701433e+003
4.342965e+002, 2.714948e+003
4.347787e+002, 2.726554e+003
4.352608e+002, 2.738158e+003
4.357429e+002, 2.752512e+003
4.362250e+002, 2.767886e+003
4.367071e+002, 2.779479e+003
4.371892e+002, 2.786253e+003
4.376714e+002, 2.791490e+003
4.381535e+002, 2.797053e+003
4.386356e+002, 2.803693e+003
4.391177e+002, 2.813018e+003
4.395998e+002, 2.828177e+003
4.400819e+002, 2.844583e+003
4.405641e+002, 2.858376e+003
4.410462e+002, 2.869659e+003
4.415283e+002, 2.880384e+003
4.420104e+002, 2.890948e+003
4.424925e+002, 2.901632e+003
4.429746e+002, 2.912465e+003
4.434568e+002, 2.923324e+003
4.439389e+002, 2.934629e+003
4.444210e+002, 2.947179e+003
4.449031e+002, 2.960174e+003
4.453852e+002, 2.972154e+003
4.458673e+002, 2.983475e+003
4.463495e+002, 2.992989e+003
4.468316e+002, 2.999896e+003
4.473137e+002, 3.003757e+003
4.477958e+002, 3.008376e+003
4.482779e+002, 3.014212e+003
4.487600e+002, 3.020448e+003
4.492422e+002, 3.026570e+003
4.497243e+002, 3.033038e+003
4.502064e+002, 3.038447e+003
4.506885e+002, 3.042272e+003
4.511706e+002, 3.045261e+003
4.516527e+002, 3.049698e+003
4.521349e+002, 3.056236e+003
4.526170e+002, 3.061928e+003
4.530991e+002, 3.065176e+003
4.535812e+002, 3.066078e+003
4.540633e+002, 3.066782e+003
4.545454e+002, 3.067118e+003
4.550276e+002, 3.067926e+003
4.555097e+002, 3.070927e+003
4.559918e+002, 3.075559e+003
4.564739e+002, 3.078256e+003
4.569560e+002, 3.077667e+003
4.574381e+002, 3.075548e+003
4.579203e+002, 3.074710e+003
4.584024e+002, 3.074877e+003
4.588845e+002, 3.074726e+003
4.593666e+002, 3.073232e+003
4.598488e+002, 3.071103e+003
4.603309e+002, 3.069180e+003
4.608130e+002, 3.067562e+003
4.612951e+002, 3.066031e+003
4.617772e+002, 3.065051e+003
4.622593e+002, 3.063911e+003
4.627415e+002, 3.061784e+003
4.632236e+002, 3.057120e+003
4.637057e+002, 3.052752e+003
4.641878e+002, 3.050233e+003
4.646699e+002, 3.049054e+003
4.651520e+002, 3.047340e+003
4.656342e+002, 3.045051e+003
4.661163e+002, 3.041836e+003
4.665984e+002, 3.036944e+003
4.670805e+002, 3.028680e+003
4.675626e+002, 3.023755e+003
4.680447e+002, 3.024928e+003
4.685269e+002, 3.027869e+003
4.690090e+002, 3.028126e+003
4.694911e+002, 3.024159e+003
4.699732e+002, 3.020307e+003
4.704553e+002, 3.016815e+003
4.709374e+002, 3.013905e+003
4.714196e+002, 3.012828e+003
4.719017e+002, 3.014108e+003
4.723838e+002, 3.015508e+003
4.728659e+002, 3.015833e+003
4.733480e+002, 3.015051e+003
4.738301e+002, 3.014020e+003
4.743123e+002, 3.012833e+003
4.747944e+002, 3.010952e+003
4.752765e+002, 3.007391e+003
4.757586e+002, 3.002417e+003
4.762407e+002, 2.997383e+003
4.767228e+002, 2.992437e+003
4.772050e+002, 2.987942e+003
4.776871e+002, 2.984804e+003
4.781692e+002, 2.982815e+003
4.786513e+002, 2.980967e+003
4.791334e+002, 2.978117e+003
4.796155e+002, 2.975411e+003
4.800977e+002, 2.974704e+003
4.805798e+002, 2.976639e+003
4.810619e+002, 2.977468e+003
4.815440e+002, 2.973459e+003
4.820261e+002, 2.967673e+003
4.825082e+002, 2.963618e+003
4.829904e+002, 2.963796e+003
4.834725e+002, 2.964348e+003
4.839546e+002, 2.964272e+003
4.844367e+002, 2.963631e+003
4.849188e+002, 2.962786e+003
4.854009e+002, 2.959987e+003
4.858831e+002, 2.958544e+003
4.863652e+002, 2.959990e+003
4.868473e+002, 2.965272e+003
4.873294e+002, 2.969788e+003
4.878115e+002, 2.973622e+003
4.882936e+002, 2.976505e+003
4.887758e+002, 2.978033e+003
4.892579e+002, 2.977740e+003
4.897400e+002, 2.977387e+003
4.902221e+002, 2.977081e+003
4.907042e+002, 2.976974e+003
4.911863e+002, 2.977750e+003
4.916685e+002, 2.979511e+003
4.921506e+002, 2.981221e+003
4.926327e+002, 2.982541e+003
4.931148e+002, 2.983427e+003
4.935969e+002, 2.983456e+003
4.940790e+002, 2.982646e+003
4.945612e+002, 2.981292e+003
4.950433e+002, 2.978721e+003
4.955254e+002, 2.975933e+003
4.960075e+002, 2.975187e+003
4.964896e+002, 2.978020e+003
4.969717e+002, 2.981762e+003
4.974539e+002, 2.984548e+003
4.979360e+002, 2.986293e+003
4.984181e+002, 2.986628e+003
4.989002e+002, 2.984379e+003
4.993823e+002, 2.981403e+003
4.998644e+002, 2.978800e+003
5.003466e+002, 2.976632e+003
5.008287e+002, 2.974253e+003
5.013108e+002, 2.971098e+003
5.017929e+002, 2.967771e+003
5.022750e+002, 2.964736e+003
5.027571e+002, 2.962580e+003
5.032393e+002, 2.959891e+003
5.037214e+002, 2.956582e+003
5.042035e+002, 2.952697e+003
5.046856e+002, 2.948200e+003
5.051677e+002, 2.942692e+003
5.056498e+002, 2.937379e+003
5.061320e+002, 2.932804e+003
5.066141e+002, 2.928895e+003
5.070962e+002, 2.924042e+003
5.075783e+002, 2.917966e+003
5.080604e+002, 2.912039e+003
5.085425e+002, 2.907892e+003
5.090247e+002, 2.905339e+003
5.095068e+002, 2.901328e+003
5.099889e+002, 2.895214e+003
5.104710e+002, 2.888570e+003
5.109531e+002, 2.882969e+003
5.114352e+002, 2.878574e+003
5.119174e+002, 2.875997e+003
5.123995e+002, 2.877036e+003
5.128816e+002, 2.878979e+003
5.133637e+002, 2.878585e+003
5.138458e+002, 2.876121e+003
5.143279e+002, 2.873333e+003
5.148101e+002, 2.871038e+003
5.152922e+002, 2.868892e+003
5.157743e+002, 2.866666e+003
5.162564e+002, 2.864351e+003
5.167385e+002, 2.861665e+003
5.172206e+002, 2.858873e+003
5.177028e+002, 2.855508e+003
5.181849e+002, 2.851060e+003
5.186670e+002, 2.843821e+003
5.191491e+002, 2.837402e+003
5.196312e+002, 2.832616e+003
5.201133e+002, 2.829174e+003
5.205955e+002, 2.825499e+003
5.210776e+002, 2.821252e+003
5.215597e+002, 2.817553e+003
5.220418e+002, 2.814914e+003
5.225239e+002, 2.813418e+003
5.230060e+002, 2.812867e+003
5.234882e+002, 2.813682e+003
5.239703e+002, 2.814416e+003
5.244524e+002, 2.813113e+003
5.249345e+002, 2.809969e+003
5.254166e+002, 2.807348e+003
5.258987e+002, 2.805067e+003
5.263809e+002, 2.804630e+003
5.268630e+002, 2.810408e+003
5.273451e+002, 2.820738e+003
5.278272e+002, 2.828750e+003
5.283093e+002, 2.828956e+003
5.287914e+002, 2.826215e+003
5.292736e+002, 2.825907e+003
5.297557e+002, 2.827932e+003
5.302378e+002, 2.829651e+003
5.307199e+002, 2.828056e+003
5.312020e+002, 2.826358e+003
5.316841e+002, 2.827607e+003
5.321663e+002, 2.834331e+003
5.326484e+002, 2.839592e+003
5.331305e+002, 2.840112e+003
5.336126e+002, 2.838656e+003
5.340947e+002, 2.839233e+003
5.345768e+002, 2.844662e+003
5.350590e+002, 2.849158e+003
5.355411e+002, 2.851662e+003
5.360232e+002, 2.852510e+003
5.365053e+002, 2.853352e+003
5.369874e+002, 2.854169e+003
5.374695e+002, 2.855146e+003
5.379517e+002, 2.856507e+003
5.384338e+002, 2.858324e+003
5.389159e+002, 2.859282e+003
5.393980e+002, 2.858988e+003
5.398801e+002, 2.859351e+003
5.403622e+002, 2.863542e+003
5.408444e+002, 2.870543e+003
5.413265e+002, 2.875575e+003
5.418086e+002, 2.877063e+003
5.422907e+002, 2.877234e+003
5.427728e+002, 2.878556e+003
5.432549e+002, 2.880878e+003
5.437371e+002, 2.883777e+003
5.442192e+002, 2.887878e+003
5.447013e+002, 2.891824e+003
5.451834e+002, 2.894672e+003
5.456655e+002, 2.896442e+003
5.461476e+002, 2.897509e+003
5.466298e+002, 2.897040e+003
5.471119e+002, 2.896651e+003
5.475940e+002, 2.897667e+003
5.480761e+002, 2.901957e+003
5.485582e+002, 2.904215e+003
5.490403e+002, 2.902226e+003
5.495225e+002, 2.898952e+003
5.500046e+002, 2.898030e+003
5.504867e+002, 2.900779e+003
5.509688e+002, 2.903254e+003
5.514509e+002, 2.905018e+003
5.519330e+002, 2.905941e+003
5.524152e+002, 2.905373e+003
5.528973e+002, 2.903099e+003
5.533794e+002, 2.900422e+003
5.538615e+002, 2.897678e+003
5.543436e+002, 2.894974e+003
5.548257e+002, 2.893234e+003
5.553079e+002, 2.892512e+003
5.557900e+002, 2.891773e+003
5.562721e+002, 2.890206e+003
5.567542e+002, 2.887964e+003
5.572363e+002, 2.885294e+003
5.577184e+002, 2.882193e+003
5.582006e+002, 2.878905e+003
5.586827e+002, 2.875670e+003
5.591648e+002, 2.872412e+003
5.596469e+002, 2.868920e+003
5.601290e+002, 2.865923e+003
5.606111e+002, 2.861959e+003
5.610933e+002, 2.855379e+003
5.615754e+002, 2.846817e+003
5.620575e+002, 2.840551e+003
5.625396e+002, 2.839508e+003
5.630217e+002, 2.838737e+003
5.635038e+002, 2.836480e+003
5.639860e+002, 2.832630e+003
5.644681e+002, 2.827332e+003
5.649502e+002, 2.819457e+003
5.654323e+002, 2.811863e+003
5.659144e+002, 2.808274e+003
5.663965e+002, 2.809204e+003
5.668787e+002, 2.807466e+003
5.673608e+002, 2.801493e+003
5.678429e+002, 2.793618e+003
5.683250e+002, 2.788258e+003
5.688071e+002, 2.784919e+003
5.692892e+002, 2.781098e+003
5.697714e+002, 2.774752e+003
5.702535e+002, 2.767961e+003
5.707356e+002, 2.764235e+003
5.712177e+002, 2.763005e+003
5.716998e+002, 2.761287e+003
5.721819e+002, 2.756354e+003
5.726641e+002, 2.750790e+003
5.731462e+002, 2.746607e+003
5.736283e+002, 2.744160e+003
5.741104e+002, 2.742117e+003
5.745925e+002, 2.741256e+003
5.750746e+002, 2.739937e+003
5.755568e+002, 2.736591e+003
5.760389e+002, 2.729005e+003
5.765210e+002, 2.722351e+003
5.770031e+002, 2.716759e+003
5.774852e+002, 2.712214e+003
5.779673e+002, 2.708992e+003
5.784495e+002, 2.707851e+003
5.789316e+002, 2.705512e+003
5.794137e+002, 2.700262e+003
5.798958e+002, 2.693228e+003
5.803779e+002, 2.689331e+003
5.808600e+002, 2.688730e+003
5.813422e+002, 2.688349e+003
5.818243e+002, 2.685698e+003
5.823064e+002, 2.681781e+003
5.827885e+002, 2.678851e+003
5.832706e+002, 2.677063e+003
5.837527e+002, 2.676121e+003
5.842349e+002, 2.676927e+003
5.847170e+002, 2.677946e+003
5.851991e+002, 2.677102e+003
5.856812e+002, 2.672506e+003
5.861633e+002, 2.668196e+003
5.866454e+002, 2.666033e+003
5.871276e+002, 2.665237e+003
5.876097e+002, 2.664441e+003
5.880918e+002, 2.662778e+003
5.885739e+002, 2.661749e+003
5.890560e+002, 2.661915e+003
5.895381e+002, 2.663081e+003
5.900203e+002, 2.663978e+003
5.905024e+002, 2.665108e+003
5.909845e+002, 2.665007e+003
5.914666e+002, 2.662418e+003
5.919487e+002, 2.657316e+003
5.924308e+002, 2.654073e+003
5.929130e+002, 2.652958e+003
5.933951e+002, 2.652517e+003
5.938772e+002, 2.651422e+003
5.943593e+002, 2.649870e+003
5.948414e+002, 2.648339e+003
5.953235e+002, 2.646786e+003
5.958057e+002, 2.645806e+003
5.962878e+002, 2.646287e+003
5.967699e+002, 2.647738e+003
5.972520e+002, 2.649229e+003
5.977341e+002, 2.650281e+003
5.982162e+002, 2.651352e+003
5.986984e+002, 2.652788e+003
5.991805e+002, 2.654405e+003
5.996626e+002, 2.655694e+003
6.001447e+002, 2.657082e+003
6.006268e+002, 2.657501e+003
6.011089e+002, 2.655976e+003
6.015911e+002, 2.652177e+003
6.020732e+002, 2.650618e+003
6.025553e+002, 2.652521e+003
6.030374e+002, 2.654746e+003
6.035195e+002, 2.654673e+003
6.040016e+002, 2.652015e+003
6.044838e+002, 2.651071e+003
6.049659e+002, 2.652333e+003
6.054480e+002, 2.654531e+003
6.059301e+002, 2.656183e+003
6.064122e+002, 2.657405e+003
6.068943e+002, 2.658770e+003
6.073765e+002, 2.660715e+003
6.078586e+002, 2.662372e+003
6.083407e+002, 2.662170e+003
6.088228e+002, 2.660869e+003
6.093049e+002, 2.660335e+003
6.097870e+002, 2.662383e+003
6.102692e+002, 2.664550e+003
6.107513e+002, 2.665287e+003
6.112334e+002, 2.664699e+003
6.117155e+002, 2.664542e+003
6.121976e+002, 2.665857e+003
6.126797e+002, 2.667073e+003
6.131619e+002, 2.667337e+003
6.136440e+002, 2.666263e+003
6.141261e+002, 2.666234e+003
6.146082e+002, 2.667862e+003
6.150903e+002, 2.669608e+003
6.155724e+002, 2.669748e+003
6.160546e+002, 2.668190e+003
6.165367e+002, 2.667936e+003
6.170188e+002, 2.669683e+003
6.175009e+002, 2.671923e+003
6.179830e+002, 2.672129e+003
6.184651e+002, 2.670896e+003
6.189473e+002, 2.670291e+003
6.194294e+002, 2.671311e+003
6.199115e+002, 2.672948e+003
6.203936e+002, 2.674324e+003
6.208757e+002, 2.675523e+003
6.213578e+002, 2.676820e+003
6.218400e+002, 2.678239e+003
6.223221e+002, 2.679882e+003
6.228042e+002, 2.682067e+003
6.232863e+002, 2.684824e+003
6.237684e+002, 2.686794e+003
6.242505e+002, 2.687458e+003
6.247327e+002, 2.687715e+003
6.252148e+002, 2.687925e+003
6.256969e+002, 2.688015e+003
6.261790e+002, 2.688404e+003
6.266611e+002, 2.689096e+003
6.271432e+002, 2.690094e+003
6.276254e+002, 2.691585e+003
6.281075e+002, 2.693519e+003
6.285896e+002, 2.694844e+003
6.290717e+002, 2.695058e+003
6.295538e+002, 2.695474e+003
6.300359e+002, 2.698522e+003
6.305181e+002, 2.703173e+003
6.310002e+002, 2.706943e+003
6.314823e+002, 2.708607e+003
6.319644e+002, 2.709214e+003
6.324465e+002, 2.708752e+003
6.329286e+002, 2.707708e+003
6.334108e+002, 2.707641e+003
6.338929e+002, 2.710342e+003
6.343750e+002, 2.712910e+003
6.348571e+002, 2.714021e+003
6.353392e+002, 2.713572e+003
6.358214e+002, 2.713499e+003
6.363035e+002, 2.713737e+003
6.367856e+002, 2.714500e+003
6.372677e+002, 2.716300e+003
6.377498e+002, 2.719502e+003
6.382319e+002, 2.720847e+003
6.387141e+002, 2.719994e+003
6.391962e+002, 2.718771e+003
6.396783e+002, 2.718879e+003
6.401604e+002, 2.720216e+003
6.406425e+002, 2.722565e+003
6.411246e+002, 2.726249e+003
6.416068e+002, 2.729823e+003
6.420889e+002, 2.731491e+003
6.425710e+002, 2.732087e+003
6.430531e+002, 2.733006e+003
6.435352e+002, 2.735287e+003
6.440173e+002, 2.737443e+003
6.444995e+002, 2.738264e+003
6.449816e+002, 2.738413e+003
6.454637e+002, 2.739876e+003
6.459458e+002, 2.745152e+003
6.464279e+002, 2.749214e+003
6.469100e+002, 2.750230e+003
6.473922e+002, 2.748535e+003
6.478743e+002, 2.748631e+003
6.483564e+002, 2.750944e+003
6.488385e+002, 2.753742e+003
6.493206e+002, 2.756128e+003
6.498027e+002, 2.758148e+003
6.502849e+002, 2.759808e+003
6.507670e+002, 2.761066e+003
6.512491e+002, 2.762679e+003
6.517312e+002, 2.765579e+003
6.522133e+002, 2.769182e+003
6.526954e+002, 2.773036e+003
6.531776e+002, 2.777557e+003
6.536597e+002, 2.780098e+003
6.541418e+002, 2.777371e+003
6.546239e+002, 2.772505e+003
6.551060e+002, 2.769137e+003
6.555881e+002, 2.767687e+003
6.560703e+002, 2.768376e+003
6.565524e+002, 2.773911e+003
6.570345e+002, 2.780895e+003
6.575166e+002, 2.782681e+003
6.579987e+002, 2.776299e+003
6.584808e+002, 2.772430e+003
6.589630e+002, 2.774483e+003
6.594451e+002, 2.780343e+003
6.599272e+002, 2.782529e+003
6.604093e+002, 2.781035e+003
6.608914e+002, 2.779311e+003
6.613735e+002, 2.779499e+003
6.618557e+002, 2.780612e+003
6.623378e+002, 2.780729e+003
6.628199e+002, 2.779968e+003
6.633020e+002, 2.779325e+003
6.637841e+002, 2.780147e+003
6.642662e+002, 2.780898e+003
6.647484e+002, 2.779731e+003
6.652305e+002, 2.775884e+003
6.657126e+002, 2.774112e+003
6.661947e+002, 2.776845e+003
6.666768e+002, 2.781235e+003
6.671589e+002, 2.785374e+003
6.676411e+002, 2.790127e+003
6.681232e+002, 2.792272e+003
6.686053e+002, 2.790222e+003
6.690874e+002, 2.787665e+003
6.695695e+002, 2.790541e+003
6.700516e+002, 2.798758e+003
6.705338e+002, 2.803144e+003
6.710159e+002, 2.800914e+003
6.714980e+002, 2.796387e+003
6.719801e+002, 2.795810e+003
6.724622e+002, 2.798205e+003
6.729443e+002, 2.800914e+003
6.734265e+002, 2.802907e+003
6.739086e+002, 2.804792e+003
6.743907e+002, 2.807299e+003
6.748728e+002, 2.810129e+003
6.753549e+002, 2.812275e+003
6.758370e+002, 2.813287e+003
6.763192e+002, 2.813791e+003
6.768013e+002, 2.813293e+003
6.772834e+002, 2.812042e+003
6.777655e+002, 2.813468e+003
6.782476e+002, 2.818796e+003
6.787297e+002, 2.824267e+003
6.792119e+002, 2.827790e+003
6.796940e+002, 2.829492e+003
6.801761e+002, 2.831686e+003
6.806582e+002, 2.834377e+003
6.811403e+002, 2.837286e+003
6.816224e+002, 2.840428e+003
6.821046e+002, 2.843544e+003
6.825867e+002, 2.845803e+003
6.830688e+002, 2.846952e+003
6.835509e+002, 2.848634e+003
6.840330e+002, 2.852500e+003
6.845151e+002, 2.857227e+003
6.849973e+002, 2.861403e+003
6.854794e+002, 2.863488e+003
6.859615e+002, 2.867149e+003
6.864436e+002, 2.875563e+003
6.869257e+002, 2.884656e+003
6.874078e+002, 2.889349e+003
6.878900e+002, 2.887752e+003
6.883721e+002, 2.887025e+003
6.888542e+002, 2.888390e+003
6.893363e+002, 2.890949e+003
6.898184e+002, 2.892787e+003
6.903005e+002, 2.893983e+003
6.907827e+002, 2.895528e+003
6.912648e+002, 2.897760e+003
6.917469e+002, 2.900566e+003
6.922290e+002, 2.903771e+003
6.927111e+002, 2.907392e+003
6.931932e+002, 2.911388e+003
6.936754e+002, 2.915969e+003
6.941575e+002, 2.920683e+003
6.946396e+002, 2.925383e+003
6.951217e+002, 2.929997e+003
6.956038e+002, 2.934267e+003
6.960859e+002, 2.936919e+003
6.965681e+002, 2.940432e+003
6.970502e+002, 2.946264e+003
6.975323e+002, 2.954593e+003
6.980144e+002, 2.960596e+003
6.984965e+002, 2.963983e+003
6.989786e+002, 2.966162e+003
6.994608e+002, 2.967832e+003
6.999429e+002, 2.969153e+003
7.004250e+002, 2.970442e+003
7.009071e+002, 2.971678e+003
7.013892e+002, 2.974035e+003
7.018713e+002, 2.979882e+003
7.023535e+002, 2.986887e+003
7.028356e+002, 2.991776e+003
7.033177e+002, 2.992932e+003
7.037998e+002, 2.995133e+003
7.042819e+002, 3.001406e+003
7.047640e+002, 3.009098e+003
7.052462e+002, 3.015305e+003
7.057283e+002, 3.018058e+003
7.062104e+002, 3.022361e+003
7.066925e+002, 3.029106e+003
7.071746e+002, 3.036802e+003
7.076567e+002, 3.043155e+003
7.081389e+002, 3.048070e+003
7.086210e+002, 3.052380e+003
7.091031e+002, 3.056043e+003
7.095852e+002, 3.059684e+003
7.100673e+002, 3.064118e+003
7.105494e+002, 3.069360e+003
7.110316e+002, 3.075595e+003
7.115137e+002, 3.083696e+003
7.119958e+002, 3.092025e+003
7.124779e+002, 3.099281e+003
7.129600e+002, 3.105939e+003
7.134421e+002, 3.113293e+003
7.139243e+002, 3.123463e+003
7.144064e+002, 3.132546e+003
7.148885e+002, 3.138524e+003
7.153706e+002, 3.142052e+003
7.158527e+002, 3.148184e+003
7.163348e+002, 3.157683e+003
7.168170e+002, 3.167329e+003
7.172991e+002, 3.174363e+003
7.177812e+002, 3.180082e+003
7.182633e+002, 3.192829e+003
7.187454e+002, 3.212502e+003
7.192275e+002, 3.229559e+003
7.197097e+002, 3.234247e+003
7.201918e+002, 3.234492e+003
7.206739e+002, 3.240116e+003
7.211560e+002, 3.251895e+003
7.216381e+002, 3.264609e+003
7.221202e+002, 3.276543e+003
7.226024e+002, 3.287938e+003
7.230845e+002, 3.298803e+003
7.235666e+002, 3.308753e+003
7.240487e+002, 3.319530e+003
7.245308e+002, 3.331571e+003
7.250129e+002, 3.344056e+003
7.254951e+002, 3.356304e+003
7.259772e+002, 3.368401e+003
7.264593e+002, 3.380504e+003
7.269414e+002, 3.392536e+003
7.274235e+002, 3.404949e+003
7.279056e+002, 3.418687e+003
7.283878e+002, 3.433116e+003
7.288699e+002, 3.446521e+003
7.293520e+002, 3.457901e+003
7.298341e+002, 3.470345e+003
7.303162e+002, 3.486837e+003
7.307983e+002, 3.505275e+003
7.312805e+002, 3.523240e+003
7.317626e+002, 3.539719e+003
7.322447e+002, 3.556283e+003
7.327268e+002, 3.573237e+003
7.332089e+002, 3.590214e+003
7.336910e+002, 3.606160e+003
7.341732e+002, 3.620333e+003
7.346553e+002, 3.637307e+003
7.351374e+002, 3.658694e+003
7.356195e+002, 3.682088e+003
7.361016e+002, 3.702647e+003
7.365837e+002, 3.720894e+003
7.370659e+002, 3.739126e+003
7.375480e+002, 3.758595e+003
7.380301e+002, 3.778164e+003
7.385122e+002, 3.795329e+003
7.389943e+002, 3.811563e+003
7.394764e+002, 3.830521e+003
7.399586e+002, 3.856670e+003
7.404407e+002, 3.882298e+003
7.409228e+002, 3.903977e+003
7.414049e+002, 3.922802e+003
7.418870e+002, 3.943968e+003
7.423691e+002, 3.967794e+003
7.428513e+002, 3.992075e+003
7.433334e+002, 4.016102e+003
7.438155e+002, 4.039885e+003
7.442976e+002, 4.063255e+003
7.447797e+002, 4.086365e+003
7.452618e+002, 4.109560e+003
7.457440e+002, 4.132751e+003
7.462261e+002, 4.156603e+003
7.467082e+002, 4.182271e+003
7.471903e+002, 4.209547e+003
7.476724e+002, 4.238146e+003
7.481545e+002, 4.268533e+003
7.486367e+002, 4.299622e+003
7.491188e+002, 4.331604e+003
7.496009e+002, 4.364983e+003
7.500830e+002, 4.395833e+003
7.505651e+002, 4.423282e+003
7.510472e+002, 4.450530e+003
7.515294e+002, 4.478687e+003
7.520115e+002, 4.507997e+003
7.524936e+002, 4.540405e+003
7.529757e+002, 4.576298e+003
7.534578e+002, 4.611295e+003
7.539399e+002, 4.639079e+003
7.544221e+002, 4.664054e+003
7.549042e+002, 4.692218e+003
7.553863e+002, 4.724729e+003
7.558684e+002, 4.757526e+003
7.563505e+002, 4.788599e+003
7.568326e+002, 4.819564e+003
7.573148e+002, 4.851907e+003
7.577969e+002, 4.886687e+003
7.582790e+002, 4.920483e+003
7.587611e+002, 4.953419e+003
7.592432e+002, 4.985731e+003
7.597253e+002, 5.017409e+003
7.602075e+002, 5.048665e+003
7.606896e+002, 5.080756e+003
7.611717e+002, 5.114626e+003
7.616538e+002, 5.146662e+003
7.621359e+002, 5.170738e+003
7.626180e+002, 5.191377e+003
7.631002e+002, 5.217343e+003
7.635823e+002, 5.252715e+003
7.640644e+002, 5.285521e+003
7.645465e+002, 5.308181e+003
7.650286e+002, 5.325862e+003
7.655107e+002, 5.343959e+003
7.659929e+002, 5.364634e+003
7.664750e+002, 5.384030e+003
7.669571e+002, 5.402655e+003
7.674392e+002, 5.419772e+003
7.679213e+002, 5.433856e+003
7.684034e+002, 5.444769e+003
7.688856e+002, 5.457119e+003
7.693677e+002, 5.471937e+003
7.698498e+002, 5.486909e+003
7.703319e+002, 5.498937e+003
7.708140e+002, 5.508900e+003
7.712961e+002, 5.518863e+003
7.717783e+002, 5.529785e+003
7.722604e+002, 5.540041e+003
7.727425e+002, 5.549995e+003
7.732246e+002, 5.558299e+003
7.737067e+002, 5.562919e+003
7.741888e+002, 5.559088e+003
7.746710e+002, 5.558572e+003
7.751531e+002, 5.563227e+003
7.756352e+002, 5.571028e+003
7.761173e+002, 5.578955e+003
7.765994e+002, 5.587033e+003
7.770815e+002, 5.593655e+003
7.775637e+002, 5.598171e+003
7.780458e+002, 5.601747e+003
7.785279e+002, 5.605692e+003
7.790100e+002, 5.609998e+003
7.794921e+002, 5.614675e+003
7.799742e+002, 5.619979e+003
7.804564e+002, 5.625236e+003
7.809385e+002, 5.630330e+003
7.814206e+002, 5.635119e+003
7.819027e+002, 5.639304e+003
7.823848e+002, 5.642553e+003
7.828669e+002, 5.645986e+003
7.833491e+002, 5.651239e+003
7.838312e+002, 5.655768e+003
7.843133e+002, 5.652588e+003
7.847954e+002, 5.641915e+003
7.852775e+002, 5.629788e+003
7.857596e+002, 5.618257e+003
7.862418e+002, 5.606604e+003
7.867239e+002, 5.594617e+003
7.872060e+002, 5.581826e+003
7.876881e+002, 5.566646e+003
7.881702e+002, 5.550175e+003
7.886523e+002, 5.529756e+003
7.891345e+002, 5.502894e+003
7.896166e+002, 5.471248e+003
7.900987e+002, 5.439241e+003
7.905808e+002, 5.408013e+003
7.910629e+002, 5.374912e+003
7.915450e+002, 5.339898e+003
7.920272e+002, 5.302257e+003
7.925093e+002, 5.261228e+003
7.929914e+002, 5.216548e+003
7.934735e+002, 5.171317e+003
7.939556e+002, 5.126220e+003
7.944377e+002, 5.081058e+003
7.949199e+002, 5.035898e+003
7.954020e+002, 4.989964e+003
7.958841e+002, 4.943185e+003
7.963662e+002, 4.894005e+003
7.968483e+002, 4.844993e+003
7.973304e+002, 4.797032e+003
7.978126e+002, 4.750016e+003
7.982947e+002, 4.705409e+003
7.987768e+002, 4.664100e+003
7.992589e+002, 4.622760e+003
7.997410e+002, 4.580329e+003
8.002231e+002, 4.537396e+003
8.007053e+002, 4.494567e+003
8.011874e+002, 4.452430e+003
8.016695e+002, 4.413037e+003
8.021516e+002, 4.378977e+003
8.026337e+002, 4.347223e+003
8.031158e+002, 4.315757e+003
8.035980e+002, 4.284718e+003
8.040801e+002, 4.253066e+003
8.045622e+002, 4.218030e+003
8.050443e+002, 4.185713e+003
8.055264e+002, 4.158996e+003
8.060085e+002, 4.135782e+003
8.064907e+002, 4.108798e+003
8.069728e+002, 4.076945e+003
8.074549e+002, 4.046402e+003
8.079370e+002, 4.019046e+003
8.084191e+002, 3.994009e+003
8.089012e+002, 3.969681e+003
8.093834e+002, 3.946154e+003
8.098655e+002, 3.923751e+003
8.103476e+002, 3.902172e+003
8.108297e+002, 3.882158e+003
8.113118e+002, 3.865525e+003
8.117939e+002, 3.851048e+003
8.122761e+002, 3.835291e+003
8.127582e+002, 3.817413e+003
8.132403e+002, 3.798513e+003
8.137224e+002, 3.777596e+003
8.142045e+002, 3.756360e+003
8.146866e+002, 3.740637e+003
8.151688e+002, 3.730753e+003
8.156509e+002, 3.720020e+003
8.161330e+002, 3.705520e+003
8.166151e+002, 3.689533e+003
8.170972e+002, 3.674932e+003
8.175793e+002, 3.661577e+003
8.180615e+002, 3.648724e+003
8.185436e+002, 3.635689e+003
8.190257e+002, 3.623609e+003
8.195078e+002, 3.614539e+003
8.199899e+002, 3.606717e+003
8.204720e+002, 3.595133e+003
8.209542e+002, 3.577269e+003
8.214363e+002, 3.562150e+003
8.219184e+002, 3.552542e+003
8.224005e+002, 3.545861e+003
8.228826e+002, 3.536000e+003
8.233647e+002, 3.523467e+003
8.238469e+002, 3.511695e+003
8.243290e+002, 3.502215e+003
8.248111e+002, 3.493485e+003
8.252932e+002, 3.484145e+003
8.257753e+002, 3.474357e+003
8.262574e+002, 3.464721e+003
8.267396e+002, 3.453931e+003
8.272217e+002, 3.445081e+003
8.277038e+002, 3.439642e+003
8.281859e+002, 3.435812e+003
8.286681e+002, 3.429848e+003
8.291502e+002, 3.421421e+003
8.296323e+002, 3.413525e+003
8.301144e+002, 3.406890e+003
8.305966e+002, 3.401043e+003
8.310787e+002, 3.395237e+003
8.315608e+002, 3.389495e+003
8.320429e+002, 3.383787e+003
8.325250e+002, 3.378457e+003
8.330071e+002, 3.372679e+003
8.334893e+002, 3.365319e+003
8.339714e+002, 3.357437e+003
8.344535e+002, 3.350598e+003
8.349356e+002, 3.345439e+003
8.354177e+002, 3.340068e+003
8.358998e+002, 3.333882e+003
8.363820e+002, 3.328127e+003
8.368641e+002, 3.325181e+003
8.373462e+002, 3.324672e+003
8.378283e+002, 3.323290e+003
8.383104e+002, 3.320376e+003
8.387925e+002, 3.316382e+003
8.392747e+002, 3.311263e+003
8.397568e+002, 3.305470e+003
8.402389e+002, 3.299519e+003
8.407210e+002, 3.292921e+003
8.412031e+002, 3.287291e+003
8.416852e+002, 3.283417e+003
8.421674e+002, 3.280390e+003
8.426495e+002, 3.277551e+003
8.431316e+002, 3.275018e+003
8.436137e+002, 3.272350e+003
8.440958e+002, 3.269637e+003
8.445779e+002, 3.266381e+003
8.450601e+002, 3.260978e+003
8.455422e+002, 3.254825e+003
8.460243e+002, 3.250934e+003
8.465064e+002, 3.250085e+003
8.469885e+002, 3.249882e+003
8.474706e+002, 3.249404e+003
8.479528e+002, 3.248649e+003
8.484349e+002, 3.247519e+003
8.489170e+002, 3.245686e+003
8.493991e+002, 3.244393e+003
8.498812e+002, 3.244059e+003
8.503633e+002, 3.243273e+003
8.508455e+002, 3.240184e+003
8.513276e+002, 3.235296e+003
8.518097e+002, 3.232572e+003
8.522918e+002, 3.232235e+003
8.527739e+002, 3.232184e+003
8.532560e+002, 3.230913e+003
8.537382e+002, 3.229055e+003
8.542203e+002, 3.227173e+003
8.547024e+002, 3.225375e+003
8.551845e+002, 3.223508e+003
8.556666e+002, 3.221590e+003
8.561487e+002, 3.219646e+003
8.566309e+002, 3.217620e+003
8.571130e+002, 3.215558e+003
8.575951e+002, 3.213937e+003
8.580772e+002, 3.212783e+003
8.585593e+002, 3.211639e+003
8.590414e+002, 3.209750e+003
8.595236e+002, 3.207839e+003
8.600057e+002, 3.207056e+003
8.604878e+002, 3.207344e+003
8.609699e+002, 3.208201e+003
8.614520e+002, 3.210589e+003
8.619341e+002, 3.212324e+003
8.624163e+002, 3.211594e+003
8.628984e+002, 3.208969e+003
8.633805e+002, 3.208853e+003
8.638626e+002, 3.212508e+003
8.643447e+002, 3.214274e+003
8.648268e+002, 3.210934e+003
8.653090e+002, 3.204999e+003
8.657911e+002, 3.202488e+003
8.662732e+002, 3.202953e+003
8.667553e+002, 3.204687e+003
8.672374e+002, 3.208664e+003
8.677195e+002, 3.211798e+003
8.682017e+002, 3.211159e+003
8.686838e+002, 3.208131e+003
8.691659e+002, 3.206894e+003
8.696480e+002, 3.209543e+003
8.701301e+002, 3.210625e+003
8.706122e+002, 3.208859e+003
8.710944e+002, 3.205302e+003
8.715765e+002, 3.201983e+003
8.720586e+002, 3.198925e+003
8.725407e+002, 3.196074e+003
8.730228e+002, 3.193423e+003
8.735049e+002, 3.191158e+003
8.739871e+002, 3.189729e+003
8.744692e+002, 3.188784e+003
8.749513e+002, 3.187744e+003
8.754334e+002, 3.185773e+003
8.759155e+002, 3.184801e+003
8.763976e+002, 3.185242e+003
8.768798e+002, 3.186453e+003
8.773619e+002, 3.187906e+003
8.778440e+002, 3.189627e+003
8.783261e+002, 3.190551e+003
8.788082e+002, 3.190443e+003
8.792903e+002, 3.189897e+003
8.797725e+002, 3.189043e+003
8.802546e+002, 3.188304e+003
8.807367e+002, 3.188604e+003
8.812188e+002, 3.190461e+003
8.817009e+002, 3.191313e+003
8.821830e+002, 3.189292e+003
8.826652e+002, 3.186624e+003
8.831473e+002, 3.184813e+003
8.836294e+002, 3.183932e+003
8.841115e+002, 3.183409e+003
8.845936e+002, 3.183260e+003
8.850757e+002, 3.183558e+003
8.855579e+002, 3.184245e+003
8.860400e+002, 3.185516e+003
8.865221e+002, 3.188859e+003
8.870042e+002, 3.193969e+003
8.874863e+002, 3.196535e+003
8.879684e+002, 3.192035e+003
8.884506e+002, 3.186379e+003
8.889327e+002, 3.182502e+003
8.894148e+002, 3.180479e+003
8.898969e+002, 3.179621e+003
8.903790e+002, 3.179918e+003
8.908611e+002, 3.181503e+003
8.913433e+002, 3.185212e+003
8.918254e+002, 3.189674e+003
8.923075e+002, 3.191046e+003
8.927896e+002, 3.189871e+003
8.932717e+002, 3.188629e+003
8.937538e+002, 3.187720e+003
8.942360e+002, 3.187880e+003
8.947181e+002, 3.190705e+003
8.952002e+002, 3.194838e+003
8.956823e+002, 3.196606e+003
8.961644e+002, 3.194447e+003
8.966465e+002, 3.192728e+003
8.971287e+002, 3.191981e+003
8.976108e+002, 3.192273e+003
8.980929e+002, 3.194730e+003
8.985750e+002, 3.198636e+003
8.990571e+002, 3.200352e+003
8.995392e+002, 3.198481e+003
9.000214e+002, 3.195711e+003
9.005035e+002, 3.193792e+003
9.009856e+002, 3.192404e+003
9.014677e+002, 3.191058e+003
9.019498e+002, 3.188563e+003
9.024319e+002, 3.188604e+003
9.029141e+002, 3.192942e+003
9.033962e+002, 3.197253e+003
9.038783e+002, 3.196896e+003
9.043604e+002, 3.192428e+003
9.048425e+002, 3.189323e+003
9.053246e+002, 3.187875e+003
9.058068e+002, 3.188173e+003
9.062889e+002, 3.192425e+003
9.067710e+002, 3.196927e+003
9.072531e+002, 3.197869e+003
9.077352e+002, 3.194623e+003
9.082173e+002, 3.191711e+003
9.086995e+002, 3.189216e+003
9.091816e+002, 3.187938e+003
9.096637e+002, 3.188562e+003
9.101458e+002, 3.190783e+003
9.106279e+002, 3.192745e+003
9.111100e+002, 3.194444e+003
9.115922e+002, 3.195580e+003
9.120743e+002, 3.195827e+003
9.125564e+002, 3.195594e+003
9.130385e+002, 3.194826e+003
9.135206e+002, 3.193909e+003
9.140027e+002, 3.193941e+003
9.144849e+002, 3.196813e+003
9.149670e+002, 3.198603e+003
9.154491e+002, 3.198024e+003
9.159312e+002, 3.196384e+003
9.164133e+002, 3.196583e+003
9.168954e+002, 3.198575e+003
9.173776e+002, 3.200277e+003
9.178597e+002, 3.201085e+003
9.183418e+002, 3.201730e+003
9.188239e+002, 3.202974e+003
9.193060e+002, 3.204567e+003
9.197881e+002, 3.206168e+003
9.202703e+002, 3.207665e+003
9.207524e+002, 3.209212e+003
9.212345e+002, 3.211169e+003
9.217166e+002, 3.212805e+003
9.221987e+002, 3.213324e+003
9.226808e+002, 3.212664e+003
9.231630e+002, 3.212558e+003
9.236451e+002, 3.213111e+003
9.241272e+002, 3.213675e+003
9.246093e+002, 3.213501e+003
9.250914e+002, 3.213147e+003
9.255735e+002, 3.213250e+003
9.260557e+002, 3.213849e+003
9.265378e+002, 3.214558e+003
9.270199e+002, 3.216164e+003
9.275020e+002, 3.216761e+003
9.279841e+002, 3.215011e+003
9.284662e+002, 3.211627e+003
9.289484e+002, 3.211332e+003
9.294305e+002, 3.214088e+003
9.299126e+002, 3.216509e+003
9.303947e+002, 3.216794e+003
9.308768e+002, 3.216179e+003
9.313589e+002, 3.216214e+003
9.318411e+002, 3.216465e+003
9.323232e+002, 3.215957e+003
9.328053e+002, 3.213838e+003
9.332874e+002, 3.211652e+003
9.337695e+002, 3.209162e+003
9.342516e+002, 3.207201e+003
9.347338e+002, 3.207588e+003
9.352159e+002, 3.210314e+003
9.356980e+002, 3.211450e+003
9.361801e+002, 3.210105e+003
9.366622e+002, 3.208541e+003
9.371443e+002, 3.209180e+003
9.376265e+002, 3.210850e+003
9.381086e+002, 3.212103e+003
9.385907e+002, 3.212516e+003
9.390728e+002, 3.213160e+003
9.395549e+002, 3.214656e+003
9.400370e+002, 3.215763e+003
9.405192e+002, 3.215399e+003
9.410013e+002, 3.213681e+003
9.414834e+002, 3.213437e+003
9.419655e+002, 3.214635e+003
9.424476e+002, 3.216323e+003
9.429297e+002, 3.218277e+003
9.434119e+002, 3.220105e+003
9.438940e+002, 3.221067e+003
9.443761e+002, 3.221471e+003
9.448582e+002, 3.222739e+003
9.453403e+002, 3.227512e+003
9.458224e+002, 3.229912e+003
9.463046e+002, 3.228038e+003
9.467867e+002, 3.223686e+003
9.472688e+002, 3.220504e+003
9.477509e+002, 3.218557e+003
9.482330e+002, 3.218907e+003
9.487151e+002, 3.223003e+003
9.491973e+002, 3.226411e+003
9.496794e+002, 3.223568e+003
9.501615e+002, 3.218448e+003
9.506436e+002, 3.216007e+003
9.511257e+002, 3.219618e+003
9.516078e+002, 3.221129e+003
9.520900e+002, 3.219409e+003
9.525721e+002, 3.217327e+003
9.530542e+002, 3.217242e+003
9.535363e+002, 3.218933e+003
9.540184e+002, 3.221298e+003
9.545005e+002, 3.224234e+003
9.549827e+002, 3.227039e+003
9.554648e+002, 3.229652e+003
9.559469e+002, 3.231523e+003
9.564290e+002, 3.231446e+003
9.569111e+002, 3.229654e+003
9.573932e+002, 3.230061e+003
9.578754e+002, 3.233697e+003
9.583575e+002, 3.237253e+003
9.588396e+002, 3.239634e+003
9.593217e+002, 3.241257e+003
9.598038e+002, 3.242879e+003
9.602859e+002, 3.244552e+003
9.607681e+002, 3.246581e+003
9.612502e+002, 3.249804e+003
9.617323e+002, 3.252191e+003
9.622144e+002, 3.252229e+003
9.626965e+002, 3.250968e+003
9.631786e+002, 3.249782e+003
9.636608e+002, 3.249006e+003
9.641429e+002, 3.247493e+003
9.646250e+002, 3.244832e+003
9.651071e+002, 3.242917e+003
9.655892e+002, 3.244908e+003
9.660714e+002, 3.248773e+003
9.665535e+002, 3.249723e+003
9.670356e+002, 3.247467e+003
9.675177e+002, 3.245414e+003
9.679998e+002, 3.245350e+003
9.684819e+002, 3.245946e+003
9.689641e+002, 3.246592e+003
9.694462e+002, 3.247263e+003
9.699283e+002, 3.247781e+003
9.704104e+002, 3.247978e+003
9.708925e+002, 3.249156e+003
9.713746e+002, 3.252420e+003
9.718568e+002, 3.256044e+003
9.723389e+002, 3.256970e+003
9.728210e+002, 3.256285e+003
9.733031e+002, 3.256350e+003
9.737852e+002, 3.257925e+003
9.742673e+002, 3.260396e+003
9.747495e+002, 3.264747e+003
9.752316e+002, 3.269000e+003
9.757137e+002, 3.270870e+003
9.761958e+002, 3.270282e+003
9.766779e+002, 3.270105e+003
9.771600e+002, 3.270667e+003
9.776422e+002, 3.270588e+003
9.781243e+002, 3.267049e+003
9.786064e+002, 3.263313e+003
9.790885e+002, 3.263378e+003
9.795706e+002, 3.267641e+003
9.800527e+002, 3.271202e+003
9.805349e+002, 3.273428e+003
9.810170e+002, 3.274564e+003
9.814991e+002, 3.274326e+003
9.819812e+002, 3.273228e+003
9.824633e+002, 3.273328e+003
9.829454e+002, 3.274352e+003
9.834276e+002, 3.274660e+003
9.839097e+002, 3.272963e+003
9.843918e+002, 3.271161e+003
9.848739e+002, 3.270822e+003
9.853560e+002, 3.271161e+003
9.858381e+002, 3.270894e+003
9.863203e+002, 3.269042e+003
9.868024e+002, 3.268781e+003
9.872845e+002, 3.270723e+003
9.877666e+002, 3.273123e+003
9.882487e+002, 3.274039e+003
9.887308e+002, 3.274041e+003
9.892130e+002, 3.274935e+003
9.896951e+002, 3.276806e+003
9.901772e+002, 3.277638e+003
9.906593e+002, 3.274273e+003
9.911414e+002, 3.271509e+003
9.916235e+002, 3.272458e+003
9.921057e+002, 3.276374e+003
9.925878e+002, 3.279262e+003
9.930699e+002, 3.280942e+003
9.935520e+002, 3.282814e+003
9.940341e+002, 3.285947e+003
9.945162e+002, 3.288526e+003
9.949984e+002, 3.287016e+003
9.954805e+002, 3.283230e+003
9.959626e+002, 3.280651e+003
9.964447e+002, 3.281472e+003
9.969268e+002, 3.281711e+003
9.974089e+002, 3.280117e+003
9.978911e+002, 3.278574e+003
9.983732e+002, 3.279283e+003
9.988553e+002, 3.282157e+003
9.993374e+002, 3.282913e+003
9.998195e+002, 3.281378e+003
1.000302e+003, 3.280185e+003
1.000784e+003, 3.282056e+003
1.001266e+003, 3.284506e+003
1.001748e+003, 3.284958e+003
1.002230e+003, 3.283635e+003
1.002712e+003, 3.284169e+003
1.003194e+003, 3.287555e+003
1.003676e+003, 3.290804e+003
1.004159e+003, 3.293149e+003
1.004641e+003, 3.294802e+003
1.005123e+003, 3.295701e+003
1.005605e+003, 3.296317e+003
1.006087e+003, 3.298295e+003
1.006569e+003, 3.302758e+003
1.007051e+003, 3.307050e+003
1.007533e+003, 3.310986e+003
1.008016e+003, 3.313446e+003
1.008498e+003, 3.313129e+003
1.008980e+003, 3.309122e+003
1.009462e+003, 3.308281e+003
1.009944e+003, 3.311016e+003
1.010426e+003, 3.314093e+003
1.010908e+003, 3.314371e+003
1.011390e+003, 3.313990e+003
1.011872e+003, 3.316135e+003
1.012355e+003, 3.320292e+003
1.012837e+003, 3.323981e+003
1.013319e+003, 3.325652e+003
1.013801e+003, 3.327733e+003
1.014283e+003, 3.331136e+003
1.014765e+003, 3.334710e+003
1.015247e+003, 3.336352e+003
1.015729e+003, 3.336210e+003
1.016211e+003, 3.335147e+003
1.016694e+003, 3.333067e+003
1.017176e+003, 3.331624e+003
1.017658e+003, 3.333023e+003
1.018140e+003, 3.335168e+003
1.018622e+003, 3.336190e+003
1.019104e+003, 3.335844e+003
1.019586e+003, 3.335021e+003
1.020068e+003, 3.333300e+003
1.020551e+003, 3.332748e+003
1.021033e+003, 3.335559e+003
1.021515e+003, 3.339629e+003
1.021997e+003, 3.339667e+003
1.022479e+003, 3.336903e+003
1.022961e+003, 3.334960e+003
1.023443e+003, 3.335054e+003
1.023925e+003, 3.336576e+003
1.024407e+003, 3.340207e+003
1.024890e+003, 3.344531e+003
1.025372e+003, 3.348046e+003
1.025854e+003, 3.350712e+003
1.026336e+003, 3.351846e+003
1.026818e+003, 3.351202e+003
1.027300e+003, 3.350790e+003
1.027782e+003, 3.352925e+003
1.028264e+003, 3.355771e+003
1.028746e+003, 3.357949e+003
1.029229e+003, 3.359265e+003
1.029711e+003, 3.358668e+003
1.030193e+003, 3.354938e+003
1.030675e+003, 3.351948e+003
1.031157e+003, 3.350876e+003
1.031639e+003, 3.351457e+003
1.032121e+003, 3.354165e+003
1.032603e+003, 3.358078e+003
1.033086e+003, 3.360226e+003
1.033568e+003, 3.359504e+003
1.034050e+003, 3.357403e+003
1.034532e+003, 3.352532e+003
1.035014e+003, 3.348176e+003
1.035496e+003, 3.347822e+003
1.035978e+003, 3.352554e+003
1.036460e+003, 3.353049e+003
1.036943e+003, 3.349016e+003
1.037425e+003, 3.345397e+003
1.037907e+003, 3.346243e+003
1.038389e+003, 3.349044e+003
1.038871e+003, 3.350908e+003
1.039353e+003, 3.352259e+003
1.039835e+003, 3.355196e+003
1.040317e+003, 3.362453e+003
1.040799e+003, 3.367146e+003
1.041281e+003, 3.367662e+003
1.041764e+003, 3.366064e+003
1.042246e+003, 3.365059e+003
1.042728e+003, 3.364703e+003
1.043210e+003, 3.365798e+003
1.043692e+003, 3.368833e+003
1.044174e+003, 3.370356e+003
1.044656e+003, 3.366029e+003
1.045138e+003, 3.361720e+003
1.045621e+003, 3.361580e+003
1.046103e+003, 3.365265e+003
1.046585e+003, 3.368153e+003
1.047067e+003, 3.370244e+003
1.047549e+003, 3.371290e+003
1.048031e+003, 3.370771e+003
1.048513e+003, 3.369707e+003
1.048995e+003, 3.368950e+003
1.049478e+003, 3.368599e+003
1.049960e+003, 3.368824e+003
1.050442e+003, 3.370626e+003
1.050924e+003, 3.371434e+003
1.051406e+003, 3.370693e+003
1.051888e+003, 3.369973e+003
1.052370e+003, 3.371232e+003
1.052852e+003, 3.373695e+003
1.053334e+003, 3.374354e+003
1.053817e+003, 3.373315e+003
1.054299e+003, 3.372683e+003
1.054781e+003, 3.374163e+003
1.055263e+003, 3.375755e+003
1.055745e+003, 3.376415e+003
1.056227e+003, 3.376553e+003
1.056709e+003, 3.377176e+003
1.057191e+003, 3.378302e+003
1.057673e+003, 3.379054e+003
1.058156e+003, 3.378966e+003
1.058638e+003, 3.379612e+003
1.059120e+003, 3.383972e+003
1.059602e+003, 3.389126e+003
1.060084e+003, 3.391623e+003
1.060566e+003, 3.390392e+003
1.061048e+003, 3.390017e+003
1.061530e+003, 3.391123e+003
1.062013e+003, 3.392018e+003
1.062495e+003, 3.391807e+003
1.062977e+003, 3.390926e+003
1.063459e+003, 3.390094e+003
1.063941e+003, 3.389499e+003
1.064423e+003, 3.389691e+003
1.064905e+003, 3.392386e+003
1.065387e+003, 3.393784e+003
1.065870e+003, 3.390596e+003
1.066352e+003, 3.387267e+003
1.066834e+003, 3.388110e+003
1.067316e+003, 3.393154e+003
1.067798e+003, 3.398213e+003
1.068280e+003, 3.403167e+003
1.068762e+003, 3.406510e+003
1.069244e+003, 3.406270e+003
1.069726e+003, 3.404797e+003
1.070208e+003, 3.403312e+003
1.070691e+003, 3.402157e+003
1.071173e+003, 3.402584e+003
1.071655e+003, 3.405487e+003
1.072137e+003, 3.407024e+003
1.072619e+003, 3.406272e+003
1.073101e+003, 3.404559e+003
1.073583e+003, 3.403059e+003
1.074065e+003, 3.402050e+003
1.074548e+003, 3.402265e+003
1.075030e+003, 3.404002e+003
1.075512e+003, 3.405156e+003
1.075994e+003, 3.404263e+003
1.076476e+003, 3.403941e+003
1.076958e+003, 3.405815e+003
1.077440e+003, 3.408840e+003
1.077922e+003, 3.408739e+003
1.078405e+003, 3.406091e+003
1.078887e+003, 3.403627e+003
1.079369e+003, 3.402297e+003
1.079851e+003, 3.401627e+003
1.080333e+003, 3.401546e+003
1.080815e+003, 3.401927e+003
1.081297e+003, 3.402446e+003
1.081779e+003, 3.402871e+003
1.082261e+003, 3.405583e+003
1.082744e+003, 3.410928e+003
1.083226e+003, 3.414337e+003
1.083708e+003, 3.409996e+003
1.084190e+003, 3.403978e+003
1.084672e+003, 3.403432e+003
1.085154e+003, 3.406723e+003
1.085636e+003, 3.407836e+003
1.086118e+003, 3.404528e+003
1.086601e+003, 3.401905e+003
1.087083e+003, 3.400453e+003
1.087565e+003, 3.400093e+003
1.088047e+003, 3.400987e+003
1.088529e+003, 3.402813e+003
1.089011e+003, 3.405541e+003
1.089493e+003, 3.409128e+003
1.089975e+003, 3.410743e+003
1.090458e+003, 3.406822e+003
1.090940e+003, 3.403406e+003
1.091422e+003, 3.403028e+003
1.091904e+003, 3.404546e+003
1.092386e+003, 3.404690e+003
1.092868e+003, 3.403555e+003
1.093350e+003, 3.401415e+003
1.093832e+003, 3.397601e+003
1.094314e+003, 3.395221e+003
1.094797e+003, 3.397820e+003
1.095279e+003, 3.401911e+003
1.095761e+003, 3.404457e+003
1.096243e+003, 3.405360e+003
1.096725e+003, 3.405185e+003
1.097207e+003, 3.403884e+003
1.097689e+003, 3.402380e+003
1.098171e+003, 3.400445e+003
1.098653e+003, 3.399351e+003
1.099136e+003, 3.401908e+003
1.099618e+003, 3.406081e+003
1.100100e+003, 3.407800e+003
1.100582e+003, 3.403901e+003
1.101064e+003, 3.401873e+003
1.101546e+003, 3.402220e+003
1.102028e+003, 3.403547e+003
1.102510e+003, 3.404335e+003
1.102993e+003, 3.405214e+003
1.103475e+003, 3.408950e+003
1.103957e+003, 3.414724e+003
1.104439e+003, 3.417032e+003
1.104921e+003, 3.408890e+003
1.105403e+003, 3.403118e+003
1.105885e+003, 3.403697e+003
1.106367e+003, 3.407464e+003
1.106849e+003, 3.409010e+003
1.107332e+003, 3.408789e+003
1.107814e+003, 3.408908e+003
1.108296e+003, 3.409667e+003
1.108778e+003, 3.411404e+003
1.109260e+003, 3.416241e+003
1.109742e+003, 3.420366e+003
1.110224e+003, 3.420748e+003
1.110706e+003, 3.418225e+003
1.111188e+003, 3.416674e+003
1.111671e+003, 3.416024e+003
1.112153e+003, 3.418366e+003
1.112635e+003, 3.425714e+003
1.113117e+003, 3.432730e+003
1.113599e+003, 3.433158e+003
1.114081e+003, 3.430790e+003
1.114563e+003, 3.430016e+003
1.115045e+003, 3.431667e+003
1.115528e+003, 3.432858e+003
1.116010e+003, 3.433344e+003
1.116492e+003, 3.434533e+003
1.116974e+003, 3.438362e+003
1.117456e+003, 3.442416e+003
1.117938e+003, 3.442078e+003
1.118420e+003, 3.439083e+003
1.118902e+003, 3.437109e+003
1.119385e+003, 3.439013e+003
1.119867e+003, 3.439345e+003
1.120349e+003, 3.437616e+003
1.120831e+003, 3.434857e+003
1.121313e+003, 3.430691e+003
1.121795e+003, 3.426502e+003
1.122277e+003, 3.426997e+003
1.122759e+003, 3.431605e+003
1.123241e+003, 3.436250e+003
1.123724e+003, 3.438833e+003
1.124206e+003, 3.441421e+003
1.124688e+003, 3.445137e+003
1.125170e+003, 3.448647e+003
1.125652e+003, 3.449403e+003
1.126134e+003, 3.447828e+003
1.126616e+003, 3.447151e+003
1.127098e+003, 3.447780e+003
1.127580e+003, 3.448108e+003
1.128063e+003, 3.447210e+003
1.128545e+003, 3.445521e+003
1.129027e+003, 3.442533e+003
1.129509e+003, 3.439098e+003
1.129991e+003, 3.438735e+003
1.130473e+003, 3.441570e+003
1.130955e+003, 3.443124e+003
1.131437e+003, 3.442015e+003
1.131920e+003, 3.440441e+003
1.132402e+003, 3.440636e+003
1.132884e+003, 3.441294e+003
1.133366e+003, 3.440680e+003
1.133848e+003, 3.438503e+003
1.134330e+003, 3.439056e+003
1.134812e+003, 3.442995e+003
1.135294e+003, 3.445792e+003
1.135776e+003, 3.444552e+003
1.136259e+003, 3.442569e+003
1.136741e+003, 3.444810e+003
1.137223e+003, 3.449070e+003
1.137705e+003, 3.451973e+003
1.138187e+003, 3.452251e+003
1.138669e+003, 3.451867e+003
1.139151e+003, 3.450406e+003
1.139633e+003, 3.449349e+003
1.140115e+003, 3.450134e+003
1.140598e+003, 3.451778e+003
1.141080e+003, 3.452544e+003
1.141562e+003, 3.452441e+003
1.142044e+003, 3.451510e+003
1.142526e+003, 3.449187e+003
1.143008e+003, 3.446831e+003
1.143490e+003, 3.444279e+003
1.143972e+003, 3.442393e+003
1.144455e+003, 3.442229e+003
1.144937e+003, 3.443449e+003
1.145419e+003, 3.445156e+003
1.145901e+003, 3.447206e+003
1.146383e+003, 3.448968e+003
1.146865e+003, 3.450252e+003
1.147347e+003, 3.451010e+003
1.147829e+003, 3.451369e+003
1.148312e+003, 3.451178e+003
1.148794e+003, 3.449497e+003
1.149276e+003, 3.446789e+003
1.149758e+003, 3.446622e+003
1.150240e+003, 3.449429e+003
1.150722e+003, 3.452575e+003
1.151204e+003, 3.454982e+003
1.151686e+003, 3.456574e+003
1.152168e+003, 3.457183e+003
1.152651e+003, 3.456993e+003
1.153133e+003, 3.456051e+003
1.153615e+003, 3.454426e+003
1.154097e+003, 3.454400e+003
1.154579e+003, 3.456837e+003
1.155061e+003, 3.459041e+003
1.155543e+003, 3.458132e+003
1.156025e+003, 3.456591e+003
1.156507e+003, 3.456207e+003
1.156990e+003, 3.457024e+003
1.157472e+003, 3.460172e+003
1.157954e+003, 3.465906e+003
1.158436e+003, 3.470323e+003
1.158918e+003, 3.471787e+003
1.159400e+003, 3.472285e+003
1.159882e+003, 3.473839e+003
1.160364e+003, 3.475559e+003
1.160847e+003, 3.476079e+003
1.161329e+003, 3.474859e+003
1.161811e+003, 3.475894e+003
1.162293e+003, 3.479636e+003
1.162775e+003, 3.482609e+003
1.163257e+003, 3.482093e+003
1.163739e+003, 3.480976e+003
1.164221e+003, 3.483613e+003
1.164703e+003, 3.487945e+003
1.165186e+003, 3.490456e+003
1.165668e+003, 3.489333e+003
1.166150e+003, 3.489042e+003
1.166632e+003, 3.489833e+003
1.167114e+003, 3.490462e+003
1.167596e+003, 3.489581e+003
1.168078e+003, 3.488246e+003
1.168560e+003, 3.488035e+003
1.169042e+003, 3.488834e+003
1.169525e+003, 3.490337e+003
1.170007e+003, 3.494844e+003
1.170489e+003, 3.495695e+003
1.170971e+003, 3.491323e+003
1.171453e+003, 3.486495e+003
1.171935e+003, 3.486203e+003
1.172417e+003, 3.488507e+003
1.172899e+003, 3.489130e+003
1.173382e+003, 3.488572e+003
1.173864e+003, 3.490020e+003
1.174346e+003, 3.498942e+003
1.174828e+003, 3.503140e+003
1.175310e+003, 3.499355e+003
1.175792e+003, 3.493302e+003
1.176274e+003, 3.492597e+003
1.176756e+003, 3.495203e+003
1.177239e+003, 3.496251e+003
1.177721e+003, 3.495393e+003
1.178203e+003, 3.494652e+003
1.178685e+003, 3.493918e+003
1.179167e+003, 3.494796e+003
1.179649e+003, 3.498537e+003
1.180131e+003, 3.502873e+003
1.180613e+003, 3.502801e+003
1.181095e+003, 3.500067e+003
1.181578e+003, 3.500478e+003
1.182060e+003, 3.505108e+003
1.182542e+003, 3.508139e+003
1.183024e+003, 3.505330e+003
1.183506e+003, 3.502438e+003
1.183988e+003, 3.501448e+003
1.184470e+003, 3.501847e+003
1.184952e+003, 3.502549e+003
1.185434e+003, 3.503514e+003
1.185917e+003, 3.505005e+003
1.186399e+003, 3.507584e+003
1.186881e+003, 3.507930e+003
1.187363e+003, 3.500479e+003
1.187845e+003, 3.494804e+003
1.188327e+003, 3.496142e+003
1.188809e+003, 3.502468e+003
1.189291e+003, 3.507253e+003
1.189774e+003, 3.510313e+003
1.190256e+003, 3.510522e+003
1.190738e+003, 3.506078e+003
1.191220e+003, 3.502832e+003
1.191702e+003, 3.505019e+003
1.192184e+003, 3.508028e+003
1.192666e+003, 3.509186e+003
1.193148e+003, 3.508613e+003
1.193630e+003, 3.506081e+003
1.194113e+003, 3.502206e+003
1.194595e+003, 3.500697e+003
1.195077e+003, 3.504355e+003
1.195559e+003, 3.508384e+003
1.196041e+003, 3.512271e+003
1.196523e+003, 3.513811e+003
1.197005e+003, 3.510171e+003
1.197487e+003, 3.501883e+003
1.197969e+003, 3.498114e+003
1.198452e+003, 3.498514e+003
1.198934e+003, 3.500129e+003
1.199416e+003, 3.502778e+003
1.199898e+003, 3.504571e+003
1.200380e+003, 3.503829e+003
1.200862e+003, 3.502337e+003
1.201344e+003, 3.501632e+003
1.201826e+003, 3.501707e+003
1.202309e+003, 3.503543e+003
1.202791e+003, 3.506901e+003
1.203273e+003, 3.508979e+003
1.203755e+003, 3.507364e+003
1.204237e+003, 3.504955e+003
1.204719e+003, 3.502178e+003
1.205201e+003, 3.500093e+003
1.205683e+003, 3.500302e+003
1.206166e+003, 3.502740e+003
1.206648e+003, 3.503795e+003
1.207130e+003, 3.503536e+003
1.207612e+003, 3.505871e+003
1.208094e+003, 3.518659e+003
1.208576e+003, 3.528841e+003
1.209058e+003, 3.526480e+003
1.209540e+003, 3.518604e+003
1.210022e+003, 3.514290e+003
1.210505e+003, 3.513449e+003
1.210987e+003, 3.515058e+003
1.211469e+003, 3.518954e+003
1.211951e+003, 3.521359e+003
1.212433e+003, 3.517435e+003
1.212915e+003, 3.513865e+003
1.213397e+003, 3.516020e+003
1.213879e+003, 3.520174e+003
1.214361e+003, 3.519198e+003
1.214844e+003, 3.513602e+003
1.215326e+003, 3.511470e+003
1.215808e+003, 3.513743e+003
1.216290e+003, 3.516753e+003
1.216772e+003, 3.518311e+003
1.217254e+003, 3.519565e+003
1.217736e+003, 3.521030e+003
1.218218e+003, 3.522646e+003
1.218701e+003, 3.524609e+003
1.219183e+003, 3.526766e+003
1.219665e+003, 3.527260e+003
1.220147e+003, 3.525675e+003
1.220629e+003, 3.524756e+003
1.221111e+003, 3.526522e+003
1.221593e+003, 3.529274e+003
1.222075e+003, 3.533209e+003
1.222557e+003, 3.536852e+003
1.223040e+003, 3.535567e+003
1.223522e+003, 3.530068e+003
1.224004e+003, 3.525651e+003
1.224486e+003, 3.523204e+003
1.224968e+003, 3.522741e+003
1.225450e+003, 3.526938e+003
1.225932e+003, 3.530255e+003
1.226414e+003, 3.529451e+003
1.226896e+003, 3.526061e+003
1.227379e+003, 3.524320e+003
1.227861e+003, 3.524148e+003
1.228343e+003, 3.525173e+003
1.228825e+003, 3.527512e+003
1.229307e+003, 3.529685e+003
1.229789e+003, 3.530231e+003
1.230271e+003, 3.531114e+003
1.230753e+003, 3.533723e+003
1.231236e+003, 3.537111e+003
1.231718e+003, 3.538313e+003
1.232200e+003, 3.537505e+003
1.232682e+003, 3.534992e+003
1.233164e+003, 3.530373e+003
1.233646e+003, 3.526410e+003
1.234128e+003, 3.524503e+003
1.234610e+003, 3.523697e+003
1.235093e+003, 3.523926e+003
1.235575e+003, 3.524732e+003
1.236057e+003, 3.525095e+003
1.236539e+003, 3.524777e+003
1.237021e+003, 3.522415e+003
1.237503e+003, 3.516671e+003
1.237985e+003, 3.512739e+003
1.238467e+003, 3.512966e+003
1.238949e+003, 3.515269e+003
1.239432e+003, 3.519967e+003
1.239914e+003, 3.525290e+003
1.240396e+003, 3.525310e+003
1.240878e+003, 3.521468e+003
1.241360e+003, 3.517578e+003
1.241842e+003, 3.514224e+003
1.242324e+003, 3.512368e+003
1.242806e+003, 3.512672e+003
1.243288e+003, 3.513587e+003
1.243771e+003, 3.514490e+003
1.244253e+003, 3.515387e+003
1.244735e+003, 3.516564e+003
1.245217e+003, 3.517733e+003
1.245699e+003, 3.518084e+003
1.246181e+003, 3.516802e+003
1.246663e+003, 3.516532e+003
1.247145e+003, 3.517908e+003
1.247628e+003, 3.519495e+003
1.248110e+003, 3.520654e+003
1.248592e+003, 3.521383e+003
1.249074e+003, 3.521357e+003
1.249556e+003, 3.520949e+003
1.250038e+003, 3.520915e+003
1.250520e+003, 3.521662e+003
1.251002e+003, 3.522306e+003
1.251484e+003, 3.523006e+003
1.251967e+003, 3.522915e+003
1.252449e+003, 3.520796e+003
1.252931e+003, 3.518387e+003
1.253413e+003, 3.518346e+003
1.253895e+003, 3.520032e+003
1.254377e+003, 3.522422e+003
1.254859e+003, 3.525613e+003
1.255341e+003, 3.529039e+003
1.255823e+003, 3.533251e+003
1.256306e+003, 3.534842e+003
1.256788e+003, 3.529671e+003
1.257270e+003, 3.523323e+003
1.257752e+003, 3.523629e+003
1.258234e+003, 3.527017e+003
1.258716e+003, 3.527379e+003
1.259198e+003, 3.522819e+003
1.259680e+003, 3.521882e+003
1.260163e+003, 3.525001e+003
1.260645e+003, 3.528057e+003
1.261127e+003, 3.528363e+003
1.261609e+003, 3.528126e+003
1.262091e+003, 3.530107e+003
1.262573e+003, 3.532355e+003
1.263055e+003, 3.531962e+003
1.263537e+003, 3.528412e+003
1.264020e+003, 3.525449e+003
1.264502e+003, 3.523046e+003
1.264984e+003, 3.522581e+003
1.265466e+003, 3.526209e+003
1.265948e+003, 3.530237e+003
1.266430e+003, 3.532724e+003
1.266912e+003, 3.533837e+003
1.267394e+003, 3.533703e+003
1.267876e+003, 3.532285e+003
1.268359e+003, 3.531020e+003
1.268841e+003, 3.529961e+003
1.269323e+003, 3.529646e+003
1.269805e+003, 3.531858e+003
1.270287e+003, 3.532934e+003
1.270769e+003, 3.529472e+003
1.271251e+003, 3.525776e+003
1.271733e+003, 3.525886e+003
1.272215e+003, 3.529106e+003
1.272698e+003, 3.529072e+003
1.273180e+003, 3.526461e+003
1.273662e+003, 3.524298e+003
1.274144e+003, 3.524137e+003
1.274626e+003, 3.524419e+003
1.275108e+003, 3.524820e+003
1.275590e+003, 3.525484e+003
1.276072e+003, 3.526752e+003
1.276555e+003, 3.528320e+003
1.277037e+003, 3.529099e+003
1.277519e+003, 3.529245e+003
1.278001e+003, 3.529238e+003
1.278483e+003, 3.528261e+003
1.278965e+003, 3.528801e+003
1.279447e+003, 3.531296e+003
1.279929e+003, 3.534352e+003
1.280411e+003, 3.537832e+003
1.280894e+003, 3.540546e+003
1.281376e+003, 3.539046e+003
1.281858e+003, 3.535259e+003
1.282340e+003, 3.533667e+003
1.282822e+003, 3.537430e+003
1.283304e+003, 3.538606e+003
1.283786e+003, 3.536760e+003
1.284268e+003, 3.534593e+003
1.284750e+003, 3.532961e+003
1.285233e+003, 3.532888e+003
1.285715e+003, 3.537614e+003
1.286197e+003, 3.543949e+003
1.286679e+003, 3.545891e+003
1.287161e+003, 3.541656e+003
1.287643e+003, 3.540137e+003
1.288125e+003, 3.541432e+003
1.288607e+003, 3.542079e+003
1.289090e+003, 3.539293e+003
1.289572e+003, 3.535712e+003
1.290054e+003, 3.531685e+003
1.290536e+003, 3.528918e+003
1.291018e+003, 3.529839e+003
1.291500e+003, 3.534653e+003
1.291982e+003, 3.536356e+003
1.292464e+003, 3.535261e+003
1.292947e+003, 3.534340e+003
1.293429e+003, 3.536474e+003
1.293911e+003, 3.537352e+003
1.294393e+003, 3.533979e+003
1.294875e+003, 3.529783e+003
1.295357e+003, 3.527077e+003
1.295839e+003, 3.525648e+003
1.296321e+003, 3.524952e+003
1.296803e+003, 3.524881e+003
1.297286e+003, 3.524735e+003
1.297768e+003, 3.523929e+003
1.298250e+003, 3.523680e+003
1.298732e+003, 3.524427e+003
1.299214e+003, 3.525375e+003
1.299696e+003, 3.525508e+003
1.300178e+003, 3.525348e+003
1.300660e+003, 3.527230e+003
##END=



