##NAMES=Cuspidine
##RRUFFID=R140776
##IDEAL CHEMISTRY=Ca_4_(Si_2_O_7_)F_2_
##LOCALITY=Caspar quarry, Bellerberg volcano, Ettringen, Mayen, Eifel, Rhineland-Palatinate, Germany
##OWNER=RRUFF
##SOURCE=Ch. and H. Sch√§fer
##DESCRIPTION=Colorless to gray, associated with grossular/andradite, melilite and rankinite (R140775).
##STATUS=The identification of this mineral has been confirmed only by single crystal X-ray diffraction.
##URL=rruff.info/R140776
8.813672e+001, 1.235622e+003
8.861884e+001, 1.250392e+003
8.910095e+001, 1.265603e+003
8.958307e+001, 1.286484e+003
9.006519e+001, 1.311628e+003
9.054730e+001, 1.335934e+003
9.102942e+001, 1.361001e+003
9.151154e+001, 1.383792e+003
9.199365e+001, 1.400112e+003
9.247577e+001, 1.411221e+003
9.295789e+001, 1.421569e+003
9.344000e+001, 1.434951e+003
9.392212e+001, 1.448897e+003
9.440424e+001, 1.460031e+003
9.488635e+001, 1.469402e+003
9.536847e+001, 1.477947e+003
9.585059e+001, 1.486695e+003
9.633270e+001, 1.495565e+003
9.681482e+001, 1.504229e+003
9.729694e+001, 1.511849e+003
9.777905e+001, 1.518471e+003
9.826117e+001, 1.526170e+003
9.874329e+001, 1.535987e+003
9.922540e+001, 1.547371e+003
9.970752e+001, 1.556487e+003
1.001896e+002, 1.562444e+003
1.006718e+002, 1.567539e+003
1.011539e+002, 1.574480e+003
1.016360e+002, 1.583336e+003
1.021181e+002, 1.593945e+003
1.026002e+002, 1.606734e+003
1.030823e+002, 1.622314e+003
1.035645e+002, 1.635999e+003
1.040466e+002, 1.646360e+003
1.045287e+002, 1.655978e+003
1.050108e+002, 1.670170e+003
1.054929e+002, 1.691261e+003
1.059750e+002, 1.713576e+003
1.064572e+002, 1.735109e+003
1.069393e+002, 1.756691e+003
1.074214e+002, 1.776436e+003
1.079035e+002, 1.794181e+003
1.083856e+002, 1.810387e+003
1.088677e+002, 1.825706e+003
1.093499e+002, 1.838010e+003
1.098320e+002, 1.851356e+003
1.103141e+002, 1.867455e+003
1.107962e+002, 1.889777e+003
1.112783e+002, 1.911344e+003
1.117604e+002, 1.931525e+003
1.122426e+002, 1.950676e+003
1.127247e+002, 1.969721e+003
1.132068e+002, 1.987357e+003
1.136889e+002, 2.005785e+003
1.141710e+002, 2.026344e+003
1.146531e+002, 2.053813e+003
1.151353e+002, 2.079104e+003
1.156174e+002, 2.098972e+003
1.160995e+002, 2.113269e+003
1.165816e+002, 2.127593e+003
1.170637e+002, 2.145087e+003
1.175458e+002, 2.163213e+003
1.180280e+002, 2.179434e+003
1.185101e+002, 2.190547e+003
1.189922e+002, 2.200823e+003
1.194743e+002, 2.212522e+003
1.199564e+002, 2.225886e+003
1.204385e+002, 2.239965e+003
1.209207e+002, 2.253695e+003
1.214028e+002, 2.267713e+003
1.218849e+002, 2.283102e+003
1.223670e+002, 2.302860e+003
1.228491e+002, 2.323343e+003
1.233312e+002, 2.340583e+003
1.238134e+002, 2.353958e+003
1.242955e+002, 2.365043e+003
1.247776e+002, 2.373862e+003
1.252597e+002, 2.381171e+003
1.257418e+002, 2.389519e+003
1.262239e+002, 2.400527e+003
1.267061e+002, 2.413763e+003
1.271882e+002, 2.428104e+003
1.276703e+002, 2.443733e+003
1.281524e+002, 2.460137e+003
1.286345e+002, 2.476667e+003
1.291166e+002, 2.493322e+003
1.295988e+002, 2.510196e+003
1.300809e+002, 2.527798e+003
1.305630e+002, 2.545780e+003
1.310451e+002, 2.562649e+003
1.315272e+002, 2.577381e+003
1.320093e+002, 2.591075e+003
1.324915e+002, 2.606777e+003
1.329736e+002, 2.624597e+003
1.334557e+002, 2.642818e+003
1.339378e+002, 2.659086e+003
1.344199e+002, 2.673453e+003
1.349020e+002, 2.689235e+003
1.353842e+002, 2.707664e+003
1.358663e+002, 2.727883e+003
1.363484e+002, 2.747717e+003
1.368305e+002, 2.767204e+003
1.373126e+002, 2.785853e+003
1.377947e+002, 2.803558e+003
1.382769e+002, 2.820880e+003
1.387590e+002, 2.834323e+003
1.392411e+002, 2.842292e+003
1.397232e+002, 2.844775e+003
1.402053e+002, 2.845811e+003
1.406874e+002, 2.845297e+003
1.411696e+002, 2.843630e+003
1.416517e+002, 2.841393e+003
1.421338e+002, 2.838804e+003
1.426159e+002, 2.835431e+003
1.430980e+002, 2.830944e+003
1.435801e+002, 2.825086e+003
1.440623e+002, 2.820181e+003
1.445444e+002, 2.816681e+003
1.450265e+002, 2.814097e+003
1.455086e+002, 2.811638e+003
1.459907e+002, 2.809372e+003
1.464728e+002, 2.807341e+003
1.469550e+002, 2.805920e+003
1.474371e+002, 2.806749e+003
1.479192e+002, 2.804451e+003
1.484013e+002, 2.796486e+003
1.488834e+002, 2.785694e+003
1.493655e+002, 2.778178e+003
1.498477e+002, 2.775630e+003
1.503298e+002, 2.774949e+003
1.508119e+002, 2.775103e+003
1.512940e+002, 2.776548e+003
1.517761e+002, 2.778095e+003
1.522583e+002, 2.780001e+003
1.527404e+002, 2.781995e+003
1.532225e+002, 2.783327e+003
1.537046e+002, 2.782711e+003
1.541867e+002, 2.782281e+003
1.546688e+002, 2.783039e+003
1.551510e+002, 2.786444e+003
1.556331e+002, 2.789411e+003
1.561152e+002, 2.791512e+003
1.565973e+002, 2.792833e+003
1.570794e+002, 2.793633e+003
1.575615e+002, 2.793581e+003
1.580437e+002, 2.793302e+003
1.585258e+002, 2.793177e+003
1.590079e+002, 2.792762e+003
1.594900e+002, 2.793074e+003
1.599721e+002, 2.795418e+003
1.604542e+002, 2.799245e+003
1.609364e+002, 2.801342e+003
1.614185e+002, 2.798162e+003
1.619006e+002, 2.793921e+003
1.623827e+002, 2.792010e+003
1.628648e+002, 2.795703e+003
1.633469e+002, 2.799903e+003
1.638291e+002, 2.802617e+003
1.643112e+002, 2.803870e+003
1.647933e+002, 2.804329e+003
1.652754e+002, 2.803985e+003
1.657575e+002, 2.803122e+003
1.662396e+002, 2.802039e+003
1.667218e+002, 2.799724e+003
1.672039e+002, 2.798051e+003
1.676860e+002, 2.798505e+003
1.681681e+002, 2.801055e+003
1.686502e+002, 2.804096e+003
1.691323e+002, 2.806927e+003
1.696145e+002, 2.809554e+003
1.700966e+002, 2.811963e+003
1.705787e+002, 2.814287e+003
1.710608e+002, 2.816323e+003
1.715429e+002, 2.817343e+003
1.720250e+002, 2.817278e+003
1.725072e+002, 2.818243e+003
1.729893e+002, 2.823415e+003
1.734714e+002, 2.830715e+003
1.739535e+002, 2.836296e+003
1.744356e+002, 2.836459e+003
1.749177e+002, 2.834876e+003
1.753999e+002, 2.836165e+003
1.758820e+002, 2.840702e+003
1.763641e+002, 2.846001e+003
1.768462e+002, 2.850358e+003
1.773283e+002, 2.853783e+003
1.778104e+002, 2.856352e+003
1.782926e+002, 2.856972e+003
1.787747e+002, 2.856972e+003
1.792568e+002, 2.859032e+003
1.797389e+002, 2.863536e+003
1.802210e+002, 2.868062e+003
1.807031e+002, 2.868952e+003
1.811853e+002, 2.867187e+003
1.816674e+002, 2.866364e+003
1.821495e+002, 2.869614e+003
1.826316e+002, 2.875072e+003
1.831137e+002, 2.878055e+003
1.835958e+002, 2.878084e+003
1.840780e+002, 2.876857e+003
1.845601e+002, 2.876002e+003
1.850422e+002, 2.875657e+003
1.855243e+002, 2.876402e+003
1.860064e+002, 2.879611e+003
1.864885e+002, 2.884425e+003
1.869707e+002, 2.887298e+003
1.874528e+002, 2.887735e+003
1.879349e+002, 2.887224e+003
1.884170e+002, 2.887788e+003
1.888991e+002, 2.889405e+003
1.893812e+002, 2.891706e+003
1.898634e+002, 2.894841e+003
1.903455e+002, 2.898613e+003
1.908276e+002, 2.901744e+003
1.913097e+002, 2.903850e+003
1.917918e+002, 2.905898e+003
1.922739e+002, 2.909562e+003
1.927561e+002, 2.914891e+003
1.932382e+002, 2.921083e+003
1.937203e+002, 2.928494e+003
1.942024e+002, 2.936874e+003
1.946845e+002, 2.943458e+003
1.951666e+002, 2.947903e+003
1.956488e+002, 2.950597e+003
1.961309e+002, 2.951589e+003
1.966130e+002, 2.950599e+003
1.970951e+002, 2.950402e+003
1.975772e+002, 2.953307e+003
1.980593e+002, 2.959385e+003
1.985415e+002, 2.963772e+003
1.990236e+002, 2.965960e+003
1.995057e+002, 2.966545e+003
1.999878e+002, 2.966301e+003
2.004699e+002, 2.964896e+003
2.009520e+002, 2.964330e+003
2.014342e+002, 2.966330e+003
2.019163e+002, 2.971220e+003
2.023984e+002, 2.974619e+003
2.028805e+002, 2.975726e+003
2.033626e+002, 2.975629e+003
2.038447e+002, 2.977027e+003
2.043269e+002, 2.980086e+003
2.048090e+002, 2.984016e+003
2.052911e+002, 2.988765e+003
2.057732e+002, 2.994679e+003
2.062553e+002, 2.999169e+003
2.067374e+002, 3.001825e+003
2.072196e+002, 3.003141e+003
2.077017e+002, 3.004391e+003
2.081838e+002, 3.005567e+003
2.086659e+002, 3.006737e+003
2.091480e+002, 3.007855e+003
2.096301e+002, 3.008844e+003
2.101123e+002, 3.010390e+003
2.105944e+002, 3.013026e+003
2.110765e+002, 3.016018e+003
2.115586e+002, 3.016874e+003
2.120407e+002, 3.014538e+003
2.125228e+002, 3.012465e+003
2.130050e+002, 3.012671e+003
2.134871e+002, 3.015645e+003
2.139692e+002, 3.019162e+003
2.144513e+002, 3.023641e+003
2.149334e+002, 3.028347e+003
2.154155e+002, 3.030951e+003
2.158977e+002, 3.030401e+003
2.163798e+002, 3.029717e+003
2.168619e+002, 3.030755e+003
2.173440e+002, 3.034430e+003
2.178261e+002, 3.036611e+003
2.183082e+002, 3.036100e+003
2.187904e+002, 3.034218e+003
2.192725e+002, 3.035482e+003
2.197546e+002, 3.041838e+003
2.202367e+002, 3.047832e+003
2.207188e+002, 3.050293e+003
2.212009e+002, 3.047477e+003
2.216831e+002, 3.045952e+003
2.221652e+002, 3.046018e+003
2.226473e+002, 3.047535e+003
2.231294e+002, 3.050284e+003
2.236115e+002, 3.055363e+003
2.240936e+002, 3.060045e+003
2.245758e+002, 3.062978e+003
2.250579e+002, 3.063373e+003
2.255400e+002, 3.064145e+003
2.260221e+002, 3.065912e+003
2.265042e+002, 3.067987e+003
2.269863e+002, 3.068010e+003
2.274685e+002, 3.063911e+003
2.279506e+002, 3.060985e+003
2.284327e+002, 3.062032e+003
2.289148e+002, 3.069700e+003
2.293969e+002, 3.074975e+003
2.298790e+002, 3.076331e+003
2.303612e+002, 3.075639e+003
2.308433e+002, 3.077836e+003
2.313254e+002, 3.084460e+003
2.318075e+002, 3.091590e+003
2.322896e+002, 3.097414e+003
2.327717e+002, 3.100859e+003
2.332539e+002, 3.105608e+003
2.337360e+002, 3.112440e+003
2.342181e+002, 3.120158e+003
2.347002e+002, 3.125908e+003
2.351823e+002, 3.128177e+003
2.356644e+002, 3.130618e+003
2.361466e+002, 3.135018e+003
2.366287e+002, 3.142990e+003
2.371108e+002, 3.148316e+003
2.375929e+002, 3.149842e+003
2.380750e+002, 3.149125e+003
2.385571e+002, 3.149382e+003
2.390393e+002, 3.151342e+003
2.395214e+002, 3.153174e+003
2.400035e+002, 3.154252e+003
2.404856e+002, 3.154499e+003
2.409677e+002, 3.154382e+003
2.414498e+002, 3.153739e+003
2.419320e+002, 3.152920e+003
2.424141e+002, 3.152537e+003
2.428962e+002, 3.152953e+003
2.433783e+002, 3.153344e+003
2.438604e+002, 3.153105e+003
2.443425e+002, 3.151417e+003
2.448247e+002, 3.152472e+003
2.453068e+002, 3.157610e+003
2.457889e+002, 3.164690e+003
2.462710e+002, 3.170409e+003
2.467531e+002, 3.174257e+003
2.472352e+002, 3.177554e+003
2.477174e+002, 3.180354e+003
2.481995e+002, 3.182177e+003
2.486816e+002, 3.185621e+003
2.491637e+002, 3.190962e+003
2.496458e+002, 3.197673e+003
2.501279e+002, 3.205182e+003
2.506101e+002, 3.214492e+003
2.510922e+002, 3.222747e+003
2.515743e+002, 3.228895e+003
2.520564e+002, 3.232684e+003
2.525385e+002, 3.236456e+003
2.530206e+002, 3.240228e+003
2.535028e+002, 3.243995e+003
2.539849e+002, 3.247657e+003
2.544670e+002, 3.251259e+003
2.549491e+002, 3.254767e+003
2.554312e+002, 3.257961e+003
2.559133e+002, 3.260738e+003
2.563955e+002, 3.264821e+003
2.568776e+002, 3.270772e+003
2.573597e+002, 3.277426e+003
2.578418e+002, 3.283590e+003
2.583239e+002, 3.289227e+003
2.588061e+002, 3.294445e+003
2.592882e+002, 3.298801e+003
2.597703e+002, 3.302352e+003
2.602524e+002, 3.308371e+003
2.607345e+002, 3.318375e+003
2.612166e+002, 3.328782e+003
2.616988e+002, 3.336219e+003
2.621809e+002, 3.339245e+003
2.626630e+002, 3.343181e+003
2.631451e+002, 3.349468e+003
2.636272e+002, 3.357722e+003
2.641093e+002, 3.363403e+003
2.645915e+002, 3.365250e+003
2.650736e+002, 3.366911e+003
2.655557e+002, 3.372370e+003
2.660378e+002, 3.383916e+003
2.665199e+002, 3.390658e+003
2.670020e+002, 3.389815e+003
2.674842e+002, 3.382978e+003
2.679663e+002, 3.378372e+003
2.684484e+002, 3.376824e+003
2.689305e+002, 3.375572e+003
2.694126e+002, 3.372478e+003
2.698947e+002, 3.366828e+003
2.703769e+002, 3.362233e+003
2.708590e+002, 3.359229e+003
2.713411e+002, 3.357343e+003
2.718232e+002, 3.355293e+003
2.723053e+002, 3.353150e+003
2.727874e+002, 3.350599e+003
2.732696e+002, 3.347005e+003
2.737517e+002, 3.341979e+003
2.742338e+002, 3.338449e+003
2.747159e+002, 3.336583e+003
2.751980e+002, 3.336285e+003
2.756801e+002, 3.338131e+003
2.761623e+002, 3.342882e+003
2.766444e+002, 3.346479e+003
2.771265e+002, 3.345911e+003
2.776086e+002, 3.340698e+003
2.780907e+002, 3.338341e+003
2.785728e+002, 3.339515e+003
2.790550e+002, 3.342838e+003
2.795371e+002, 3.346167e+003
2.800192e+002, 3.349527e+003
2.805013e+002, 3.352642e+003
2.809834e+002, 3.354960e+003
2.814655e+002, 3.356521e+003
2.819477e+002, 3.359630e+003
2.824298e+002, 3.364490e+003
2.829119e+002, 3.370157e+003
2.833940e+002, 3.374984e+003
2.838761e+002, 3.378883e+003
2.843582e+002, 3.383921e+003
2.848404e+002, 3.391749e+003
2.853225e+002, 3.401579e+003
2.858046e+002, 3.408528e+003
2.862867e+002, 3.412159e+003
2.867688e+002, 3.414547e+003
2.872509e+002, 3.417837e+003
2.877331e+002, 3.421984e+003
2.882152e+002, 3.426256e+003
2.886973e+002, 3.430393e+003
2.891794e+002, 3.434574e+003
2.896615e+002, 3.439725e+003
2.901436e+002, 3.446086e+003
2.906258e+002, 3.451658e+003
2.911079e+002, 3.454090e+003
2.915900e+002, 3.453974e+003
2.920721e+002, 3.454135e+003
2.925542e+002, 3.454773e+003
2.930363e+002, 3.456640e+003
2.935185e+002, 3.462192e+003
2.940006e+002, 3.471441e+003
2.944827e+002, 3.480589e+003
2.949648e+002, 3.487170e+003
2.954469e+002, 3.491505e+003
2.959290e+002, 3.494213e+003
2.964112e+002, 3.494825e+003
2.968933e+002, 3.494843e+003
2.973754e+002, 3.496375e+003
2.978575e+002, 3.499294e+003
2.983396e+002, 3.503067e+003
2.988217e+002, 3.508052e+003
2.993039e+002, 3.513497e+003
2.997860e+002, 3.517769e+003
3.002681e+002, 3.520551e+003
3.007502e+002, 3.522476e+003
3.012323e+002, 3.524765e+003
3.017144e+002, 3.526942e+003
3.021966e+002, 3.527313e+003
3.026787e+002, 3.522872e+003
3.031608e+002, 3.516910e+003
3.036429e+002, 3.514544e+003
3.041250e+002, 3.516680e+003
3.046071e+002, 3.518823e+003
3.050893e+002, 3.516140e+003
3.055714e+002, 3.510431e+003
3.060535e+002, 3.505564e+003
3.065356e+002, 3.503727e+003
3.070177e+002, 3.503206e+003
3.074998e+002, 3.502531e+003
3.079820e+002, 3.501659e+003
3.084641e+002, 3.500786e+003
3.089462e+002, 3.499497e+003
3.094283e+002, 3.498461e+003
3.099104e+002, 3.498610e+003
3.103925e+002, 3.501666e+003
3.108747e+002, 3.505001e+003
3.113568e+002, 3.506209e+003
3.118389e+002, 3.505695e+003
3.123210e+002, 3.506313e+003
3.128031e+002, 3.511891e+003
3.132852e+002, 3.518367e+003
3.137674e+002, 3.521665e+003
3.142495e+002, 3.517985e+003
3.147316e+002, 3.514384e+003
3.152137e+002, 3.515249e+003
3.156958e+002, 3.519234e+003
3.161779e+002, 3.521858e+003
3.166601e+002, 3.519882e+003
3.171422e+002, 3.516733e+003
3.176243e+002, 3.514469e+003
3.181064e+002, 3.513227e+003
3.185885e+002, 3.513336e+003
3.190706e+002, 3.516440e+003
3.195528e+002, 3.520845e+003
3.200349e+002, 3.523304e+003
3.205170e+002, 3.520486e+003
3.209991e+002, 3.517472e+003
3.214812e+002, 3.516454e+003
3.219633e+002, 3.517998e+003
3.224455e+002, 3.520211e+003
3.229276e+002, 3.523012e+003
3.234097e+002, 3.526203e+003
3.238918e+002, 3.529546e+003
3.243739e+002, 3.534359e+003
3.248560e+002, 3.538045e+003
3.253382e+002, 3.538953e+003
3.258203e+002, 3.536515e+003
3.263024e+002, 3.536975e+003
3.267845e+002, 3.543487e+003
3.272666e+002, 3.551635e+003
3.277487e+002, 3.557946e+003
3.282309e+002, 3.562394e+003
3.287130e+002, 3.564873e+003
3.291951e+002, 3.563227e+003
3.296772e+002, 3.558303e+003
3.301593e+002, 3.558859e+003
3.306414e+002, 3.569536e+003
3.311236e+002, 3.581219e+003
3.316057e+002, 3.588915e+003
3.320878e+002, 3.589898e+003
3.325699e+002, 3.591581e+003
3.330520e+002, 3.593688e+003
3.335341e+002, 3.596644e+003
3.340163e+002, 3.602180e+003
3.344984e+002, 3.612668e+003
3.349805e+002, 3.621609e+003
3.354626e+002, 3.625817e+003
3.359447e+002, 3.623602e+003
3.364268e+002, 3.623422e+003
3.369090e+002, 3.626212e+003
3.373911e+002, 3.630137e+003
3.378732e+002, 3.632120e+003
3.383553e+002, 3.631673e+003
3.388374e+002, 3.631086e+003
3.393195e+002, 3.630710e+003
3.398017e+002, 3.630625e+003
3.402838e+002, 3.632898e+003
3.407659e+002, 3.638281e+003
3.412480e+002, 3.644231e+003
3.417301e+002, 3.647830e+003
3.422122e+002, 3.648859e+003
3.426944e+002, 3.650578e+003
3.431765e+002, 3.653718e+003
3.436586e+002, 3.658035e+003
3.441407e+002, 3.662990e+003
3.446228e+002, 3.668636e+003
3.451049e+002, 3.673873e+003
3.455871e+002, 3.676983e+003
3.460692e+002, 3.678501e+003
3.465513e+002, 3.682184e+003
3.470334e+002, 3.689136e+003
3.475155e+002, 3.697168e+003
3.479977e+002, 3.702815e+003
3.484798e+002, 3.706216e+003
3.489619e+002, 3.708147e+003
3.494440e+002, 3.708650e+003
3.499261e+002, 3.708068e+003
3.504082e+002, 3.706881e+003
3.508904e+002, 3.704983e+003
3.513725e+002, 3.703448e+003
3.518546e+002, 3.703768e+003
3.523367e+002, 3.705382e+003
3.528188e+002, 3.706793e+003
3.533009e+002, 3.707756e+003
3.537831e+002, 3.707956e+003
3.542652e+002, 3.706282e+003
3.547473e+002, 3.702859e+003
3.552294e+002, 3.700298e+003
3.557115e+002, 3.700698e+003
3.561936e+002, 3.703042e+003
3.566758e+002, 3.706191e+003
3.571579e+002, 3.711302e+003
3.576400e+002, 3.715283e+003
3.581221e+002, 3.714612e+003
3.586042e+002, 3.710603e+003
3.590863e+002, 3.707944e+003
3.595685e+002, 3.709995e+003
3.600506e+002, 3.713698e+003
3.605327e+002, 3.717073e+003
3.610148e+002, 3.720178e+003
3.614969e+002, 3.721913e+003
3.619790e+002, 3.720934e+003
3.624612e+002, 3.718416e+003
3.629433e+002, 3.716320e+003
3.634254e+002, 3.714655e+003
3.639075e+002, 3.713995e+003
3.643896e+002, 3.715208e+003
3.648717e+002, 3.718744e+003
3.653539e+002, 3.720695e+003
3.658360e+002, 3.719056e+003
3.663181e+002, 3.716014e+003
3.668002e+002, 3.713539e+003
3.672823e+002, 3.711846e+003
3.677644e+002, 3.710667e+003
3.682466e+002, 3.710066e+003
3.687287e+002, 3.709998e+003
3.692108e+002, 3.710047e+003
3.696929e+002, 3.710285e+003
3.701750e+002, 3.710594e+003
3.706571e+002, 3.710930e+003
3.711393e+002, 3.711371e+003
3.716214e+002, 3.711749e+003
3.721035e+002, 3.711870e+003
3.725856e+002, 3.712039e+003
3.730677e+002, 3.713046e+003
3.735498e+002, 3.715543e+003
3.740320e+002, 3.717703e+003
3.745141e+002, 3.718722e+003
3.749962e+002, 3.718428e+003
3.754783e+002, 3.718409e+003
3.759604e+002, 3.718303e+003
3.764425e+002, 3.719062e+003
3.769247e+002, 3.722122e+003
3.774068e+002, 3.727782e+003
3.778889e+002, 3.733857e+003
3.783710e+002, 3.740417e+003
3.788531e+002, 3.746791e+003
3.793352e+002, 3.749767e+003
3.798174e+002, 3.748959e+003
3.802995e+002, 3.747192e+003
3.807816e+002, 3.746559e+003
3.812637e+002, 3.746939e+003
3.817458e+002, 3.747350e+003
3.822279e+002, 3.747648e+003
3.827101e+002, 3.747973e+003
3.831922e+002, 3.748721e+003
3.836743e+002, 3.749815e+003
3.841564e+002, 3.750622e+003
3.846385e+002, 3.750421e+003
3.851206e+002, 3.749790e+003
3.856028e+002, 3.749649e+003
3.860849e+002, 3.749993e+003
3.865670e+002, 3.751444e+003
3.870491e+002, 3.756279e+003
3.875312e+002, 3.762537e+003
3.880133e+002, 3.766235e+003
3.884955e+002, 3.762493e+003
3.889776e+002, 3.758424e+003
3.894597e+002, 3.762285e+003
3.899418e+002, 3.772700e+003
3.904239e+002, 3.781443e+003
3.909060e+002, 3.781478e+003
3.913882e+002, 3.778683e+003
3.918703e+002, 3.778561e+003
3.923524e+002, 3.783313e+003
3.928345e+002, 3.788590e+003
3.933166e+002, 3.792219e+003
3.937987e+002, 3.794906e+003
3.942809e+002, 3.798009e+003
3.947630e+002, 3.802106e+003
3.952451e+002, 3.806595e+003
3.957272e+002, 3.811457e+003
3.962093e+002, 3.816787e+003
3.966914e+002, 3.821544e+003
3.971736e+002, 3.825262e+003
3.976557e+002, 3.828397e+003
3.981378e+002, 3.831372e+003
3.986199e+002, 3.834205e+003
3.991020e+002, 3.836790e+003
3.995841e+002, 3.838891e+003
4.000663e+002, 3.840602e+003
4.005484e+002, 3.842603e+003
4.010305e+002, 3.844142e+003
4.015126e+002, 3.846796e+003
4.019947e+002, 3.851609e+003
4.024768e+002, 3.859964e+003
4.029590e+002, 3.867271e+003
4.034411e+002, 3.873633e+003
4.039232e+002, 3.878986e+003
4.044053e+002, 3.882835e+003
4.048874e+002, 3.884518e+003
4.053695e+002, 3.886987e+003
4.058517e+002, 3.891435e+003
4.063338e+002, 3.897729e+003
4.068159e+002, 3.903966e+003
4.072980e+002, 3.910137e+003
4.077801e+002, 3.916409e+003
4.082622e+002, 3.923492e+003
4.087444e+002, 3.931286e+003
4.092265e+002, 3.936631e+003
4.097086e+002, 3.938012e+003
4.101907e+002, 3.937745e+003
4.106728e+002, 3.941748e+003
4.111549e+002, 3.949482e+003
4.116371e+002, 3.955177e+003
4.121192e+002, 3.953493e+003
4.126013e+002, 3.947393e+003
4.130834e+002, 3.943281e+003
4.135655e+002, 3.941734e+003
4.140476e+002, 3.941328e+003
4.145298e+002, 3.941390e+003
4.150119e+002, 3.941525e+003
4.154940e+002, 3.940951e+003
4.159761e+002, 3.939164e+003
4.164582e+002, 3.936697e+003
4.169403e+002, 3.933668e+003
4.174225e+002, 3.930232e+003
4.179046e+002, 3.927299e+003
4.183867e+002, 3.925755e+003
4.188688e+002, 3.924848e+003
4.193509e+002, 3.924009e+003
4.198330e+002, 3.923108e+003
4.203152e+002, 3.922374e+003
4.207973e+002, 3.922566e+003
4.212794e+002, 3.922944e+003
4.217615e+002, 3.922158e+003
4.222436e+002, 3.917897e+003
4.227257e+002, 3.914333e+003
4.232079e+002, 3.912777e+003
4.236900e+002, 3.913408e+003
4.241721e+002, 3.915475e+003
4.246542e+002, 3.920605e+003
4.251363e+002, 3.926117e+003
4.256184e+002, 3.930010e+003
4.261006e+002, 3.929945e+003
4.265827e+002, 3.931733e+003
4.270648e+002, 3.936616e+003
4.275469e+002, 3.943560e+003
4.280290e+002, 3.948928e+003
4.285111e+002, 3.952279e+003
4.289933e+002, 3.954696e+003
4.294754e+002, 3.956039e+003
4.299575e+002, 3.955804e+003
4.304396e+002, 3.958483e+003
4.309217e+002, 3.965232e+003
4.314038e+002, 3.972338e+003
4.318860e+002, 3.974141e+003
4.323681e+002, 3.970402e+003
4.328502e+002, 3.968201e+003
4.333323e+002, 3.969888e+003
4.338144e+002, 3.974129e+003
4.342965e+002, 3.977486e+003
4.347787e+002, 3.980024e+003
4.352608e+002, 3.982240e+003
4.357429e+002, 3.985099e+003
4.362250e+002, 3.987962e+003
4.367071e+002, 3.988731e+003
4.371892e+002, 3.986786e+003
4.376714e+002, 3.984617e+003
4.381535e+002, 3.984933e+003
4.386356e+002, 3.987075e+003
4.391177e+002, 3.989574e+003
4.395998e+002, 3.992567e+003
4.400819e+002, 3.995036e+003
4.405641e+002, 3.995874e+003
4.410462e+002, 3.995141e+003
4.415283e+002, 3.993979e+003
4.420104e+002, 3.991139e+003
4.424925e+002, 3.989071e+003
4.429746e+002, 3.990183e+003
4.434568e+002, 3.997161e+003
4.439389e+002, 4.003220e+003
4.444210e+002, 4.005562e+003
4.449031e+002, 4.005606e+003
4.453852e+002, 4.006086e+003
4.458673e+002, 4.007489e+003
4.463495e+002, 4.009478e+003
4.468316e+002, 4.012414e+003
4.473137e+002, 4.016654e+003
4.477958e+002, 4.019527e+003
4.482779e+002, 4.020489e+003
4.487600e+002, 4.020625e+003
4.492422e+002, 4.020669e+003
4.497243e+002, 4.020517e+003
4.502064e+002, 4.020591e+003
4.506885e+002, 4.020928e+003
4.511706e+002, 4.021518e+003
4.516527e+002, 4.021981e+003
4.521349e+002, 4.021790e+003
4.526170e+002, 4.023293e+003
4.530991e+002, 4.028331e+003
4.535812e+002, 4.036732e+003
4.540633e+002, 4.042658e+003
4.545454e+002, 4.045881e+003
4.550276e+002, 4.047896e+003
4.555097e+002, 4.050502e+003
4.559918e+002, 4.053409e+003
4.564739e+002, 4.054623e+003
4.569560e+002, 4.052973e+003
4.574381e+002, 4.050462e+003
4.579203e+002, 4.050435e+003
4.584024e+002, 4.052479e+003
4.588845e+002, 4.054687e+003
4.593666e+002, 4.056039e+003
4.598488e+002, 4.056864e+003
4.603309e+002, 4.057052e+003
4.608130e+002, 4.056463e+003
4.612951e+002, 4.057147e+003
4.617772e+002, 4.062198e+003
4.622593e+002, 4.068771e+003
4.627415e+002, 4.073426e+003
4.632236e+002, 4.073114e+003
4.637057e+002, 4.072688e+003
4.641878e+002, 4.074286e+003
4.646699e+002, 4.077371e+003
4.651520e+002, 4.080076e+003
4.656342e+002, 4.082501e+003
4.661163e+002, 4.083938e+003
4.665984e+002, 4.083646e+003
4.670805e+002, 4.080217e+003
4.675626e+002, 4.079082e+003
4.680447e+002, 4.081463e+003
4.685269e+002, 4.085484e+003
4.690090e+002, 4.089356e+003
4.694911e+002, 4.093035e+003
4.699732e+002, 4.096584e+003
4.704553e+002, 4.099928e+003
4.709374e+002, 4.103122e+003
4.714196e+002, 4.106566e+003
4.719017e+002, 4.110259e+003
4.723838e+002, 4.113981e+003
4.728659e+002, 4.118073e+003
4.733480e+002, 4.122511e+003
4.738301e+002, 4.124043e+003
4.743123e+002, 4.121865e+003
4.747944e+002, 4.119591e+003
4.752765e+002, 4.122330e+003
4.757586e+002, 4.129150e+003
4.762407e+002, 4.135352e+003
4.767228e+002, 4.139739e+003
4.772050e+002, 4.142581e+003
4.776871e+002, 4.144174e+003
4.781692e+002, 4.144578e+003
4.786513e+002, 4.143892e+003
4.791334e+002, 4.140583e+003
4.796155e+002, 4.137127e+003
4.800977e+002, 4.135932e+003
4.805798e+002, 4.137271e+003
4.810619e+002, 4.141253e+003
4.815440e+002, 4.149903e+003
4.820261e+002, 4.160533e+003
4.825082e+002, 4.170085e+003
4.829904e+002, 4.178514e+003
4.834725e+002, 4.184851e+003
4.839546e+002, 4.187707e+003
4.844367e+002, 4.187877e+003
4.849188e+002, 4.188781e+003
4.854009e+002, 4.190338e+003
4.858831e+002, 4.193183e+003
4.863652e+002, 4.198097e+003
4.868473e+002, 4.206320e+003
4.873294e+002, 4.211426e+003
4.878115e+002, 4.211276e+003
4.882936e+002, 4.209851e+003
4.887758e+002, 4.211600e+003
4.892579e+002, 4.217813e+003
4.897400e+002, 4.222884e+003
4.902221e+002, 4.225753e+003
4.907042e+002, 4.226946e+003
4.911863e+002, 4.227859e+003
4.916685e+002, 4.228496e+003
4.921506e+002, 4.229025e+003
4.926327e+002, 4.229203e+003
4.931148e+002, 4.229337e+003
4.935969e+002, 4.231212e+003
4.940790e+002, 4.235133e+003
4.945612e+002, 4.238763e+003
4.950433e+002, 4.239308e+003
4.955254e+002, 4.237976e+003
4.960075e+002, 4.237267e+003
4.964896e+002, 4.237730e+003
4.969717e+002, 4.239421e+003
4.974539e+002, 4.243034e+003
4.979360e+002, 4.247992e+003
4.984181e+002, 4.252636e+003
4.989002e+002, 4.255713e+003
4.993823e+002, 4.258579e+003
4.998644e+002, 4.262334e+003
5.003466e+002, 4.267155e+003
5.008287e+002, 4.270911e+003
5.013108e+002, 4.270930e+003
5.017929e+002, 4.270671e+003
5.022750e+002, 4.272749e+003
5.027571e+002, 4.279736e+003
5.032393e+002, 4.286099e+003
5.037214e+002, 4.291460e+003
5.042035e+002, 4.296004e+003
5.046856e+002, 4.300308e+003
5.051677e+002, 4.304854e+003
5.056498e+002, 4.308243e+003
5.061320e+002, 4.310179e+003
5.066141e+002, 4.310708e+003
5.070962e+002, 4.309332e+003
5.075783e+002, 4.305520e+003
5.080604e+002, 4.301837e+003
5.085425e+002, 4.300917e+003
5.090247e+002, 4.302534e+003
5.095068e+002, 4.303025e+003
5.099889e+002, 4.301800e+003
5.104710e+002, 4.300054e+003
5.109531e+002, 4.298769e+003
5.114352e+002, 4.298230e+003
5.119174e+002, 4.299458e+003
5.123995e+002, 4.304190e+003
5.128816e+002, 4.310018e+003
5.133637e+002, 4.314982e+003
5.138458e+002, 4.318867e+003
5.143279e+002, 4.320553e+003
5.148101e+002, 4.316596e+003
5.152922e+002, 4.311770e+003
5.157743e+002, 4.310050e+003
5.162564e+002, 4.312630e+003
5.167385e+002, 4.315995e+003
5.172206e+002, 4.319553e+003
5.177028e+002, 4.322938e+003
5.181849e+002, 4.325735e+003
5.186670e+002, 4.325667e+003
5.191491e+002, 4.327642e+003
5.196312e+002, 4.334121e+003
5.201133e+002, 4.343567e+003
5.205955e+002, 4.349445e+003
5.210776e+002, 4.350382e+003
5.215597e+002, 4.350166e+003
5.220418e+002, 4.349904e+003
5.225239e+002, 4.349470e+003
5.230060e+002, 4.351710e+003
5.234882e+002, 4.357360e+003
5.239703e+002, 4.363893e+003
5.244524e+002, 4.368715e+003
5.249345e+002, 4.371912e+003
5.254166e+002, 4.374629e+003
5.258987e+002, 4.376662e+003
5.263809e+002, 4.379114e+003
5.268630e+002, 4.384132e+003
5.273451e+002, 4.391232e+003
5.278272e+002, 4.398419e+003
5.283093e+002, 4.404320e+003
5.287914e+002, 4.409942e+003
5.292736e+002, 4.416248e+003
5.297557e+002, 4.423251e+003
5.302378e+002, 4.430792e+003
5.307199e+002, 4.439688e+003
5.312020e+002, 4.448583e+003
5.316841e+002, 4.456173e+003
5.321663e+002, 4.461765e+003
5.326484e+002, 4.467236e+003
5.331305e+002, 4.473688e+003
5.336126e+002, 4.480230e+003
5.340947e+002, 4.485691e+003
5.345768e+002, 4.488540e+003
5.350590e+002, 4.492136e+003
5.355411e+002, 4.496936e+003
5.360232e+002, 4.502986e+003
5.365053e+002, 4.510355e+003
5.369874e+002, 4.519785e+003
5.374695e+002, 4.528915e+003
5.379517e+002, 4.536519e+003
5.384338e+002, 4.542658e+003
5.389159e+002, 4.548202e+003
5.393980e+002, 4.553407e+003
5.398801e+002, 4.556961e+003
5.403622e+002, 4.554918e+003
5.408444e+002, 4.549102e+003
5.413265e+002, 4.549231e+003
5.418086e+002, 4.560188e+003
5.422907e+002, 4.572274e+003
5.427728e+002, 4.570705e+003
5.432549e+002, 4.559599e+003
5.437371e+002, 4.550831e+003
5.442192e+002, 4.553578e+003
5.447013e+002, 4.558614e+003
5.451834e+002, 4.558412e+003
5.456655e+002, 4.553134e+003
5.461476e+002, 4.548784e+003
5.466298e+002, 4.548109e+003
5.471119e+002, 4.549125e+003
5.475940e+002, 4.550753e+003
5.480761e+002, 4.553809e+003
5.485582e+002, 4.555617e+003
5.490403e+002, 4.555026e+003
5.495225e+002, 4.553628e+003
5.500046e+002, 4.553257e+003
5.504867e+002, 4.554010e+003
5.509688e+002, 4.555656e+003
5.514509e+002, 4.558542e+003
5.519330e+002, 4.562149e+003
5.524152e+002, 4.564451e+003
5.528973e+002, 4.565216e+003
5.533794e+002, 4.565800e+003
5.538615e+002, 4.567421e+003
5.543436e+002, 4.569548e+003
5.548257e+002, 4.569219e+003
5.553079e+002, 4.566329e+003
5.557900e+002, 4.562382e+003
5.562721e+002, 4.558279e+003
5.567542e+002, 4.554217e+003
5.572363e+002, 4.550563e+003
5.577184e+002, 4.547361e+003
5.582006e+002, 4.544778e+003
5.586827e+002, 4.542698e+003
5.591648e+002, 4.541421e+003
5.596469e+002, 4.541382e+003
5.601290e+002, 4.545967e+003
5.606111e+002, 4.548714e+003
5.610933e+002, 4.545185e+003
5.615754e+002, 4.536632e+003
5.620575e+002, 4.531504e+003
5.625396e+002, 4.534986e+003
5.630217e+002, 4.538374e+003
5.635038e+002, 4.537720e+003
5.639860e+002, 4.531356e+003
5.644681e+002, 4.528875e+003
5.649502e+002, 4.531333e+003
5.654323e+002, 4.535991e+003
5.659144e+002, 4.540981e+003
5.663965e+002, 4.546587e+003
5.668787e+002, 4.548969e+003
5.673608e+002, 4.546567e+003
5.678429e+002, 4.542755e+003
5.683250e+002, 4.544153e+003
5.688071e+002, 4.549839e+003
5.692892e+002, 4.554763e+003
5.697714e+002, 4.555947e+003
5.702535e+002, 4.555591e+003
5.707356e+002, 4.556553e+003
5.712177e+002, 4.558664e+003
5.716998e+002, 4.560854e+003
5.721819e+002, 4.562701e+003
5.726641e+002, 4.564235e+003
5.731462e+002, 4.565064e+003
5.736283e+002, 4.564721e+003
5.741104e+002, 4.565825e+003
5.745925e+002, 4.570986e+003
5.750746e+002, 4.576917e+003
5.755568e+002, 4.580683e+003
5.760389e+002, 4.579914e+003
5.765210e+002, 4.579783e+003
5.770031e+002, 4.580698e+003
5.774852e+002, 4.582301e+003
5.779673e+002, 4.584055e+003
5.784495e+002, 4.586342e+003
5.789316e+002, 4.587647e+003
5.794137e+002, 4.586864e+003
5.798958e+002, 4.584919e+003
5.803779e+002, 4.586238e+003
5.808600e+002, 4.590985e+003
5.813422e+002, 4.595756e+003
5.818243e+002, 4.597718e+003
5.823064e+002, 4.598102e+003
5.827885e+002, 4.599679e+003
5.832706e+002, 4.602695e+003
5.837527e+002, 4.606162e+003
5.842349e+002, 4.610640e+003
5.847170e+002, 4.614551e+003
5.851991e+002, 4.615502e+003
5.856812e+002, 4.609984e+003
5.861633e+002, 4.606293e+003
5.866454e+002, 4.609779e+003
5.871276e+002, 4.617128e+003
5.876097e+002, 4.622311e+003
5.880918e+002, 4.622061e+003
5.885739e+002, 4.621932e+003
5.890560e+002, 4.623476e+003
5.895381e+002, 4.626317e+003
5.900203e+002, 4.627547e+003
5.905024e+002, 4.626339e+003
5.909845e+002, 4.625266e+003
5.914666e+002, 4.625724e+003
5.919487e+002, 4.627784e+003
5.924308e+002, 4.629862e+003
5.929130e+002, 4.632096e+003
5.933951e+002, 4.634021e+003
5.938772e+002, 4.634604e+003
5.943593e+002, 4.634469e+003
5.948414e+002, 4.635587e+003
5.953235e+002, 4.638375e+003
5.958057e+002, 4.642294e+003
5.962878e+002, 4.647866e+003
5.967699e+002, 4.654047e+003
5.972520e+002, 4.658809e+003
5.977341e+002, 4.659826e+003
5.982162e+002, 4.660681e+003
5.986984e+002, 4.663677e+003
5.991805e+002, 4.668005e+003
5.996626e+002, 4.670924e+003
6.001447e+002, 4.668148e+003
6.006268e+002, 4.667295e+003
6.011089e+002, 4.671571e+003
6.015911e+002, 4.681383e+003
6.020732e+002, 4.691541e+003
6.025553e+002, 4.704322e+003
6.030374e+002, 4.713694e+003
6.035195e+002, 4.713717e+003
6.040016e+002, 4.703474e+003
6.044838e+002, 4.696104e+003
6.049659e+002, 4.692484e+003
6.054480e+002, 4.691519e+003
6.059301e+002, 4.692339e+003
6.064122e+002, 4.694777e+003
6.068943e+002, 4.698224e+003
6.073765e+002, 4.702890e+003
6.078586e+002, 4.707818e+003
6.083407e+002, 4.712200e+003
6.088228e+002, 4.715975e+003
6.093049e+002, 4.718886e+003
6.097870e+002, 4.720171e+003
6.102692e+002, 4.721135e+003
6.107513e+002, 4.722655e+003
6.112334e+002, 4.724646e+003
6.117155e+002, 4.725947e+003
6.121976e+002, 4.725446e+003
6.126797e+002, 4.725034e+003
6.131619e+002, 4.725691e+003
6.136440e+002, 4.727808e+003
6.141261e+002, 4.729245e+003
6.146082e+002, 4.729627e+003
6.150903e+002, 4.730013e+003
6.155724e+002, 4.731488e+003
6.160546e+002, 4.734098e+003
6.165367e+002, 4.736562e+003
6.170188e+002, 4.738589e+003
6.175009e+002, 4.740771e+003
6.179830e+002, 4.744500e+003
6.184651e+002, 4.749201e+003
6.189473e+002, 4.752917e+003
6.194294e+002, 4.754971e+003
6.199115e+002, 4.755650e+003
6.203936e+002, 4.753709e+003
6.208757e+002, 4.750396e+003
6.213578e+002, 4.749438e+003
6.218400e+002, 4.753697e+003
6.223221e+002, 4.759686e+003
6.228042e+002, 4.766830e+003
6.232863e+002, 4.775130e+003
6.237684e+002, 4.780075e+003
6.242505e+002, 4.778263e+003
6.247327e+002, 4.775958e+003
6.252148e+002, 4.776338e+003
6.256969e+002, 4.780252e+003
6.261790e+002, 4.783263e+003
6.266611e+002, 4.784680e+003
6.271432e+002, 4.786634e+003
6.276254e+002, 4.792248e+003
6.281075e+002, 4.801197e+003
6.285896e+002, 4.808125e+003
6.290717e+002, 4.811739e+003
6.295538e+002, 4.813935e+003
6.300359e+002, 4.816836e+003
6.305181e+002, 4.820260e+003
6.310002e+002, 4.823861e+003
6.314823e+002, 4.827240e+003
6.319644e+002, 4.830932e+003
6.324465e+002, 4.835508e+003
6.329286e+002, 4.840731e+003
6.334108e+002, 4.845806e+003
6.338929e+002, 4.850416e+003
6.343750e+002, 4.854901e+003
6.348571e+002, 4.858959e+003
6.353392e+002, 4.862549e+003
6.358214e+002, 4.868306e+003
6.363035e+002, 4.877727e+003
6.367856e+002, 4.887354e+003
6.372677e+002, 4.895224e+003
6.377498e+002, 4.901087e+003
6.382319e+002, 4.907487e+003
6.387141e+002, 4.914852e+003
6.391962e+002, 4.921547e+003
6.396783e+002, 4.924298e+003
6.401604e+002, 4.924745e+003
6.406425e+002, 4.929419e+003
6.411246e+002, 4.940279e+003
6.416068e+002, 4.953301e+003
6.420889e+002, 4.965176e+003
6.425710e+002, 4.976252e+003
6.430531e+002, 4.986864e+003
6.435352e+002, 4.995481e+003
6.440173e+002, 5.005447e+003
6.444995e+002, 5.018452e+003
6.449816e+002, 5.033843e+003
6.454637e+002, 5.050255e+003
6.459458e+002, 5.067811e+003
6.464279e+002, 5.085579e+003
6.469100e+002, 5.102935e+003
6.473922e+002, 5.120106e+003
6.478743e+002, 5.138407e+003
6.483564e+002, 5.158295e+003
6.488385e+002, 5.178389e+003
6.493206e+002, 5.198337e+003
6.498027e+002, 5.218179e+003
6.502849e+002, 5.236007e+003
6.507670e+002, 5.251800e+003
6.512491e+002, 5.266042e+003
6.517312e+002, 5.280670e+003
6.522133e+002, 5.293345e+003
6.526954e+002, 5.300389e+003
6.531776e+002, 5.300850e+003
6.536597e+002, 5.296607e+003
6.541418e+002, 5.287714e+003
6.546239e+002, 5.275206e+003
6.551060e+002, 5.260264e+003
6.555881e+002, 5.242457e+003
6.560703e+002, 5.223138e+003
6.565524e+002, 5.201475e+003
6.570345e+002, 5.178711e+003
6.575166e+002, 5.157250e+003
6.579987e+002, 5.137086e+003
6.584808e+002, 5.117879e+003
6.589630e+002, 5.098977e+003
6.594451e+002, 5.081067e+003
6.599272e+002, 5.066327e+003
6.604093e+002, 5.054765e+003
6.608914e+002, 5.045318e+003
6.613735e+002, 5.038365e+003
6.618557e+002, 5.032865e+003
6.623378e+002, 5.026339e+003
6.628199e+002, 5.019047e+003
6.633020e+002, 5.013123e+003
6.637841e+002, 5.011563e+003
6.642662e+002, 5.010880e+003
6.647484e+002, 5.007763e+003
6.652305e+002, 5.001274e+003
6.657126e+002, 4.996520e+003
6.661947e+002, 4.995753e+003
6.666768e+002, 4.996511e+003
6.671589e+002, 4.997125e+003
6.676411e+002, 4.998268e+003
6.681232e+002, 4.997408e+003
6.686053e+002, 4.993451e+003
6.690874e+002, 4.988819e+003
6.695695e+002, 4.986900e+003
6.700516e+002, 4.987609e+003
6.705338e+002, 4.987873e+003
6.710159e+002, 4.987187e+003
6.714980e+002, 4.985492e+003
6.719801e+002, 4.981457e+003
6.724622e+002, 4.976248e+003
6.729443e+002, 4.973204e+003
6.734265e+002, 4.975078e+003
6.739086e+002, 4.978310e+003
6.743907e+002, 4.981213e+003
6.748728e+002, 4.983672e+003
6.753549e+002, 4.985210e+003
6.758370e+002, 4.984739e+003
6.763192e+002, 4.984398e+003
6.768013e+002, 4.985077e+003
6.772834e+002, 4.986711e+003
6.777655e+002, 4.988108e+003
6.782476e+002, 4.988846e+003
6.787297e+002, 4.990274e+003
6.792119e+002, 4.993906e+003
6.796940e+002, 4.999483e+003
6.801761e+002, 5.000788e+003
6.806582e+002, 4.997400e+003
6.811403e+002, 4.993869e+003
6.816224e+002, 4.994990e+003
6.821046e+002, 4.998396e+003
6.825867e+002, 4.999016e+003
6.830688e+002, 4.995784e+003
6.835509e+002, 4.993438e+003
6.840330e+002, 4.995633e+003
6.845151e+002, 5.000138e+003
6.849973e+002, 5.004784e+003
6.854794e+002, 5.009889e+003
6.859615e+002, 5.013867e+003
6.864436e+002, 5.015415e+003
6.869257e+002, 5.016264e+003
6.874078e+002, 5.018542e+003
6.878900e+002, 5.023063e+003
6.883721e+002, 5.027146e+003
6.888542e+002, 5.030653e+003
6.893363e+002, 5.033264e+003
6.898184e+002, 5.034163e+003
6.903005e+002, 5.033408e+003
6.907827e+002, 5.031241e+003
6.912648e+002, 5.026025e+003
6.917469e+002, 5.021238e+003
6.922290e+002, 5.022842e+003
6.927111e+002, 5.029310e+003
6.931932e+002, 5.035739e+003
6.936754e+002, 5.039771e+003
6.941575e+002, 5.042879e+003
6.946396e+002, 5.045424e+003
6.951217e+002, 5.047495e+003
6.956038e+002, 5.050245e+003
6.960859e+002, 5.055180e+003
6.965681e+002, 5.059268e+003
6.970502e+002, 5.061210e+003
6.975323e+002, 5.060920e+003
6.980144e+002, 5.060378e+003
6.984965e+002, 5.059228e+003
6.989786e+002, 5.059228e+003
6.994608e+002, 5.062869e+003
6.999429e+002, 5.069076e+003
7.004250e+002, 5.072555e+003
7.009071e+002, 5.072968e+003
7.013892e+002, 5.072496e+003
7.018713e+002, 5.073365e+003
7.023535e+002, 5.074359e+003
7.028356e+002, 5.073510e+003
7.033177e+002, 5.069391e+003
7.037998e+002, 5.066805e+003
7.042819e+002, 5.067640e+003
7.047640e+002, 5.070875e+003
7.052462e+002, 5.075657e+003
7.057283e+002, 5.084342e+003
7.062104e+002, 5.089961e+003
7.066925e+002, 5.090721e+003
7.071746e+002, 5.089663e+003
7.076567e+002, 5.092003e+003
7.081389e+002, 5.097981e+003
7.086210e+002, 5.103104e+003
7.091031e+002, 5.106301e+003
7.095852e+002, 5.108263e+003
7.100673e+002, 5.110118e+003
7.105494e+002, 5.111700e+003
7.110316e+002, 5.112539e+003
7.115137e+002, 5.111563e+003
7.119958e+002, 5.110567e+003
7.124779e+002, 5.110592e+003
7.129600e+002, 5.111552e+003
7.134421e+002, 5.113150e+003
7.139243e+002, 5.114944e+003
7.144064e+002, 5.117837e+003
7.148885e+002, 5.122632e+003
7.153706e+002, 5.128976e+003
7.158527e+002, 5.133842e+003
7.163348e+002, 5.136970e+003
7.168170e+002, 5.139275e+003
7.172991e+002, 5.140492e+003
7.177812e+002, 5.141143e+003
7.182633e+002, 5.144900e+003
7.187454e+002, 5.151671e+003
7.192275e+002, 5.156953e+003
7.197097e+002, 5.155450e+003
7.201918e+002, 5.151911e+003
7.206739e+002, 5.152600e+003
7.211560e+002, 5.158042e+003
7.216381e+002, 5.163144e+003
7.221202e+002, 5.164867e+003
7.226024e+002, 5.165875e+003
7.230845e+002, 5.167851e+003
7.235666e+002, 5.170900e+003
7.240487e+002, 5.175286e+003
7.245308e+002, 5.181699e+003
7.250129e+002, 5.188661e+003
7.254951e+002, 5.195517e+003
7.259772e+002, 5.202468e+003
7.264593e+002, 5.206081e+003
7.269414e+002, 5.205567e+003
7.274235e+002, 5.204135e+003
7.279056e+002, 5.204728e+003
7.283878e+002, 5.207231e+003
7.288699e+002, 5.212041e+003
7.293520e+002, 5.220579e+003
7.298341e+002, 5.227507e+003
7.303162e+002, 5.227103e+003
7.307983e+002, 5.223768e+003
7.312805e+002, 5.223053e+003
7.317626e+002, 5.229514e+003
7.322447e+002, 5.234376e+003
7.327268e+002, 5.235869e+003
7.332089e+002, 5.235905e+003
7.336910e+002, 5.237692e+003
7.341732e+002, 5.241668e+003
7.346553e+002, 5.245647e+003
7.351374e+002, 5.249162e+003
7.356195e+002, 5.252451e+003
7.361016e+002, 5.256026e+003
7.365837e+002, 5.259760e+003
7.370659e+002, 5.263142e+003
7.375480e+002, 5.266341e+003
7.380301e+002, 5.268632e+003
7.385122e+002, 5.268861e+003
7.389943e+002, 5.267585e+003
7.394764e+002, 5.266279e+003
7.399586e+002, 5.264416e+003
7.404407e+002, 5.263614e+003
7.409228e+002, 5.264760e+003
7.414049e+002, 5.267465e+003
7.418870e+002, 5.270292e+003
7.423691e+002, 5.273244e+003
7.428513e+002, 5.276282e+003
7.433334e+002, 5.279917e+003
7.438155e+002, 5.283586e+003
7.442976e+002, 5.284476e+003
7.447797e+002, 5.282736e+003
7.452618e+002, 5.280405e+003
7.457440e+002, 5.277346e+003
7.462261e+002, 5.275267e+003
7.467082e+002, 5.276748e+003
7.471903e+002, 5.281489e+003
7.476724e+002, 5.286342e+003
7.481545e+002, 5.289907e+003
7.486367e+002, 5.293182e+003
7.491188e+002, 5.297388e+003
7.496009e+002, 5.302946e+003
7.500830e+002, 5.304596e+003
7.505651e+002, 5.300576e+003
7.510472e+002, 5.295809e+003
7.515294e+002, 5.292586e+003
7.520115e+002, 5.290897e+003
7.524936e+002, 5.293031e+003
7.529757e+002, 5.299250e+003
7.534578e+002, 5.304947e+003
7.539399e+002, 5.305074e+003
7.544221e+002, 5.302578e+003
7.549042e+002, 5.301924e+003
7.553863e+002, 5.303783e+003
7.558684e+002, 5.305586e+003
7.563505e+002, 5.305372e+003
7.568326e+002, 5.305080e+003
7.573148e+002, 5.306489e+003
7.577969e+002, 5.311186e+003
7.582790e+002, 5.313682e+003
7.587611e+002, 5.312647e+003
7.592432e+002, 5.311247e+003
7.597253e+002, 5.312761e+003
7.602075e+002, 5.317280e+003
7.606896e+002, 5.319454e+003
7.611717e+002, 5.318527e+003
7.616538e+002, 5.316897e+003
7.621359e+002, 5.315946e+003
7.626180e+002, 5.316388e+003
7.631002e+002, 5.320256e+003
7.635823e+002, 5.329229e+003
7.640644e+002, 5.337140e+003
7.645465e+002, 5.340777e+003
7.650286e+002, 5.341677e+003
7.655107e+002, 5.341454e+003
7.659929e+002, 5.338818e+003
7.664750e+002, 5.337505e+003
7.669571e+002, 5.337644e+003
7.674392e+002, 5.339096e+003
7.679213e+002, 5.342327e+003
7.684034e+002, 5.347480e+003
7.688856e+002, 5.350498e+003
7.693677e+002, 5.350093e+003
7.698498e+002, 5.349311e+003
7.703319e+002, 5.351967e+003
7.708140e+002, 5.357154e+003
7.712961e+002, 5.363165e+003
7.717783e+002, 5.370101e+003
7.722604e+002, 5.376423e+003
7.727425e+002, 5.381521e+003
7.732246e+002, 5.385370e+003
7.737067e+002, 5.388029e+003
7.741888e+002, 5.389841e+003
7.746710e+002, 5.389706e+003
7.751531e+002, 5.385841e+003
7.756352e+002, 5.381487e+003
7.761173e+002, 5.383286e+003
7.765994e+002, 5.391437e+003
7.770815e+002, 5.399061e+003
7.775637e+002, 5.404711e+003
7.780458e+002, 5.408739e+003
7.785279e+002, 5.411346e+003
7.790100e+002, 5.412720e+003
7.794921e+002, 5.413254e+003
7.799742e+002, 5.411659e+003
7.804564e+002, 5.410878e+003
7.809385e+002, 5.412341e+003
7.814206e+002, 5.415465e+003
7.819027e+002, 5.419208e+003
7.823848e+002, 5.424776e+003
7.828669e+002, 5.428652e+003
7.833491e+002, 5.430310e+003
7.838312e+002, 5.429958e+003
7.843133e+002, 5.427068e+003
7.847954e+002, 5.421788e+003
7.852775e+002, 5.418681e+003
7.857596e+002, 5.419996e+003
7.862418e+002, 5.423373e+003
7.867239e+002, 5.425468e+003
7.872060e+002, 5.427025e+003
7.876881e+002, 5.429909e+003
7.881702e+002, 5.437131e+003
7.886523e+002, 5.443406e+003
7.891345e+002, 5.445231e+003
7.896166e+002, 5.444411e+003
7.900987e+002, 5.446680e+003
7.905808e+002, 5.454216e+003
7.910629e+002, 5.460479e+003
7.915450e+002, 5.463750e+003
7.920272e+002, 5.464847e+003
7.925093e+002, 5.465718e+003
7.929914e+002, 5.466375e+003
7.934735e+002, 5.466979e+003
7.939556e+002, 5.467226e+003
7.944377e+002, 5.467856e+003
7.949199e+002, 5.470196e+003
7.954020e+002, 5.473684e+003
7.958841e+002, 5.476716e+003
7.963662e+002, 5.477469e+003
7.968483e+002, 5.478991e+003
7.973304e+002, 5.482846e+003
7.978126e+002, 5.488326e+003
7.982947e+002, 5.493398e+003
7.987768e+002, 5.498675e+003
7.992589e+002, 5.501776e+003
7.997410e+002, 5.501519e+003
8.002231e+002, 5.499150e+003
8.007053e+002, 5.496859e+003
8.011874e+002, 5.495020e+003
8.016695e+002, 5.495687e+003
8.021516e+002, 5.502376e+003
8.026337e+002, 5.509806e+003
8.031158e+002, 5.512707e+003
8.035980e+002, 5.512502e+003
8.040801e+002, 5.513221e+003
8.045622e+002, 5.516242e+003
8.050443e+002, 5.520157e+003
8.055264e+002, 5.524852e+003
8.060085e+002, 5.530048e+003
8.064907e+002, 5.535442e+003
8.069728e+002, 5.541601e+003
8.074549e+002, 5.544460e+003
8.079370e+002, 5.541049e+003
8.084191e+002, 5.535306e+003
8.089012e+002, 5.536108e+003
8.093834e+002, 5.541883e+003
8.098655e+002, 5.547001e+003
8.103476e+002, 5.548966e+003
8.108297e+002, 5.549188e+003
8.113118e+002, 5.546707e+003
8.117939e+002, 5.543077e+003
8.122761e+002, 5.542945e+003
8.127582e+002, 5.550125e+003
8.132403e+002, 5.556562e+003
8.137224e+002, 5.560768e+003
8.142045e+002, 5.563188e+003
8.146866e+002, 5.564386e+003
8.151688e+002, 5.564313e+003
8.156509e+002, 5.566050e+003
8.161330e+002, 5.571381e+003
8.166151e+002, 5.578253e+003
8.170972e+002, 5.583818e+003
8.175793e+002, 5.588440e+003
8.180615e+002, 5.593263e+003
8.185436e+002, 5.599581e+003
8.190257e+002, 5.605196e+003
8.195078e+002, 5.609902e+003
8.199899e+002, 5.613064e+003
8.204720e+002, 5.612955e+003
8.209542e+002, 5.607683e+003
8.214363e+002, 5.603415e+003
8.219184e+002, 5.600923e+003
8.224005e+002, 5.600825e+003
8.228826e+002, 5.606597e+003
8.233647e+002, 5.616921e+003
8.238469e+002, 5.623766e+003
8.243290e+002, 5.623354e+003
8.248111e+002, 5.619655e+003
8.252932e+002, 5.613664e+003
8.257753e+002, 5.607423e+003
8.262574e+002, 5.605060e+003
8.267396e+002, 5.612244e+003
8.272217e+002, 5.617771e+003
8.277038e+002, 5.619167e+003
8.281859e+002, 5.618197e+003
8.286681e+002, 5.617873e+003
8.291502e+002, 5.618115e+003
8.296323e+002, 5.619675e+003
8.301144e+002, 5.623046e+003
8.305966e+002, 5.627042e+003
8.310787e+002, 5.629556e+003
8.315608e+002, 5.631316e+003
8.320429e+002, 5.634321e+003
8.325250e+002, 5.640427e+003
8.330071e+002, 5.645937e+003
8.334893e+002, 5.648533e+003
8.339714e+002, 5.649514e+003
8.344535e+002, 5.650980e+003
8.349356e+002, 5.653265e+003
8.354177e+002, 5.655665e+003
8.358998e+002, 5.658232e+003
8.363820e+002, 5.660686e+003
8.368641e+002, 5.662462e+003
8.373462e+002, 5.663651e+003
8.378283e+002, 5.665193e+003
8.383104e+002, 5.667331e+003
8.387925e+002, 5.669554e+003
8.392747e+002, 5.671213e+003
8.397568e+002, 5.672683e+003
8.402389e+002, 5.674595e+003
8.407210e+002, 5.678062e+003
8.412031e+002, 5.680196e+003
8.416852e+002, 5.679733e+003
8.421674e+002, 5.678229e+003
8.426495e+002, 5.677027e+003
8.431316e+002, 5.676203e+003
8.436137e+002, 5.675815e+003
8.440958e+002, 5.676096e+003
8.445779e+002, 5.676206e+003
8.450601e+002, 5.674085e+003
8.455422e+002, 5.671310e+003
8.460243e+002, 5.671523e+003
8.465064e+002, 5.675822e+003
8.469885e+002, 5.680292e+003
8.474706e+002, 5.683549e+003
8.479528e+002, 5.685455e+003
8.484349e+002, 5.685270e+003
8.489170e+002, 5.680869e+003
8.493991e+002, 5.680864e+003
8.498812e+002, 5.686922e+003
8.503633e+002, 5.693806e+003
8.508455e+002, 5.697448e+003
8.513276e+002, 5.698042e+003
8.518097e+002, 5.696294e+003
8.522918e+002, 5.692179e+003
8.527739e+002, 5.688870e+003
8.532560e+002, 5.689878e+003
8.537382e+002, 5.692352e+003
8.542203e+002, 5.694057e+003
8.547024e+002, 5.694885e+003
8.551845e+002, 5.693856e+003
8.556666e+002, 5.687951e+003
8.561487e+002, 5.683353e+003
8.566309e+002, 5.683489e+003
8.571130e+002, 5.688292e+003
8.575951e+002, 5.691615e+003
8.580772e+002, 5.693352e+003
8.585593e+002, 5.694815e+003
8.590414e+002, 5.696539e+003
8.595236e+002, 5.698690e+003
8.600057e+002, 5.701792e+003
8.604878e+002, 5.705662e+003
8.609699e+002, 5.709199e+003
8.614520e+002, 5.711350e+003
8.619341e+002, 5.713569e+003
8.624163e+002, 5.716271e+003
8.628984e+002, 5.719564e+003
8.633805e+002, 5.725044e+003
8.638626e+002, 5.734608e+003
8.643447e+002, 5.739825e+003
8.648268e+002, 5.735330e+003
8.653090e+002, 5.725936e+003
8.657911e+002, 5.723863e+003
8.662732e+002, 5.727746e+003
8.667553e+002, 5.732096e+003
8.672374e+002, 5.733992e+003
8.677195e+002, 5.735546e+003
8.682017e+002, 5.738591e+003
8.686838e+002, 5.742233e+003
8.691659e+002, 5.743625e+003
8.696480e+002, 5.740155e+003
8.701301e+002, 5.739000e+003
8.706122e+002, 5.742391e+003
8.710944e+002, 5.747875e+003
8.715765e+002, 5.750335e+003
8.720586e+002, 5.750079e+003
8.725407e+002, 5.749158e+003
8.730228e+002, 5.748556e+003
8.735049e+002, 5.747033e+003
8.739871e+002, 5.741827e+003
8.744692e+002, 5.735530e+003
8.749513e+002, 5.731972e+003
8.754334e+002, 5.733616e+003
8.759155e+002, 5.736577e+003
8.763976e+002, 5.741822e+003
8.768798e+002, 5.746947e+003
8.773619e+002, 5.748202e+003
8.778440e+002, 5.745148e+003
8.783261e+002, 5.746453e+003
8.788082e+002, 5.753929e+003
8.792903e+002, 5.761026e+003
8.797725e+002, 5.756834e+003
8.802546e+002, 5.749241e+003
8.807367e+002, 5.751056e+003
8.812188e+002, 5.766762e+003
8.817009e+002, 5.780491e+003
8.821830e+002, 5.785714e+003
8.826652e+002, 5.787552e+003
8.831473e+002, 5.789593e+003
8.836294e+002, 5.792151e+003
8.841115e+002, 5.792654e+003
8.845936e+002, 5.790711e+003
8.850757e+002, 5.788963e+003
8.855579e+002, 5.789310e+003
8.860400e+002, 5.791444e+003
8.865221e+002, 5.795791e+003
8.870042e+002, 5.802059e+003
8.874863e+002, 5.806499e+003
8.879684e+002, 5.803836e+003
8.884506e+002, 5.801829e+003
8.889327e+002, 5.805321e+003
8.894148e+002, 5.814099e+003
8.898969e+002, 5.823457e+003
8.903790e+002, 5.834136e+003
8.908611e+002, 5.842669e+003
8.913433e+002, 5.846182e+003
8.918254e+002, 5.847451e+003
8.923075e+002, 5.854527e+003
8.927896e+002, 5.866278e+003
8.932717e+002, 5.877787e+003
8.937538e+002, 5.883393e+003
8.942360e+002, 5.891212e+003
8.947181e+002, 5.907722e+003
8.952002e+002, 5.929806e+003
8.956823e+002, 5.948962e+003
8.961644e+002, 5.961971e+003
8.966465e+002, 5.977224e+003
8.971287e+002, 5.995844e+003
8.976108e+002, 6.017459e+003
8.980929e+002, 6.042542e+003
8.985750e+002, 6.070140e+003
8.990571e+002, 6.094988e+003
8.995392e+002, 6.114704e+003
9.000214e+002, 6.135238e+003
9.005035e+002, 6.159711e+003
9.009856e+002, 6.188735e+003
9.014677e+002, 6.223643e+003
9.019498e+002, 6.265515e+003
9.024319e+002, 6.311438e+003
9.029141e+002, 6.362842e+003
9.033962e+002, 6.416572e+003
9.038783e+002, 6.468833e+003
9.043604e+002, 6.520362e+003
9.048425e+002, 6.581170e+003
9.053246e+002, 6.652858e+003
9.058068e+002, 6.728882e+003
9.062889e+002, 6.807877e+003
9.067710e+002, 6.886752e+003
9.072531e+002, 6.964839e+003
9.077352e+002, 7.041917e+003
9.082173e+002, 7.112315e+003
9.086995e+002, 7.180161e+003
9.091816e+002, 7.235633e+003
9.096637e+002, 7.276430e+003
9.101458e+002, 7.300951e+003
9.106279e+002, 7.296299e+003
9.111100e+002, 7.262728e+003
9.115922e+002, 7.205042e+003
9.120743e+002, 7.115256e+003
9.125564e+002, 7.010277e+003
9.130385e+002, 6.900632e+003
9.135206e+002, 6.789920e+003
9.140027e+002, 6.685520e+003
9.144849e+002, 6.588973e+003
9.149670e+002, 6.500099e+003
9.154491e+002, 6.417446e+003
9.159312e+002, 6.343217e+003
9.164133e+002, 6.283040e+003
9.168954e+002, 6.236577e+003
9.173776e+002, 6.197630e+003
9.178597e+002, 6.165214e+003
9.183418e+002, 6.137130e+003
9.188239e+002, 6.111303e+003
9.193060e+002, 6.088099e+003
9.197881e+002, 6.068181e+003
9.202703e+002, 6.052708e+003
9.207524e+002, 6.038267e+003
9.212345e+002, 6.022860e+003
9.217166e+002, 6.009677e+003
9.221987e+002, 6.002131e+003
9.226808e+002, 6.000443e+003
9.231630e+002, 5.998272e+003
9.236451e+002, 5.995388e+003
9.241272e+002, 5.991909e+003
9.246093e+002, 5.986166e+003
9.250914e+002, 5.980956e+003
9.255735e+002, 5.980834e+003
9.260557e+002, 5.985936e+003
9.265378e+002, 5.988346e+003
9.270199e+002, 5.983870e+003
9.275020e+002, 5.978311e+003
9.279841e+002, 5.973080e+003
9.284662e+002, 5.968407e+003
9.289484e+002, 5.965562e+003
9.294305e+002, 5.964533e+003
9.299126e+002, 5.964791e+003
9.303947e+002, 5.967248e+003
9.308768e+002, 5.969698e+003
9.313589e+002, 5.969722e+003
9.318411e+002, 5.967750e+003
9.323232e+002, 5.964675e+003
9.328053e+002, 5.959370e+003
9.332874e+002, 5.954924e+003
9.337695e+002, 5.951263e+003
9.342516e+002, 5.949214e+003
9.347338e+002, 5.950256e+003
9.352159e+002, 5.954401e+003
9.356980e+002, 5.960367e+003
9.361801e+002, 5.968448e+003
9.366622e+002, 5.975592e+003
9.371443e+002, 5.978849e+003
9.376265e+002, 5.979237e+003
9.381086e+002, 5.976996e+003
9.385907e+002, 5.970592e+003
9.390728e+002, 5.968143e+003
9.395549e+002, 5.973370e+003
9.400370e+002, 5.979596e+003
9.405192e+002, 5.982600e+003
9.410013e+002, 5.982618e+003
9.414834e+002, 5.985586e+003
9.419655e+002, 5.991445e+003
9.424476e+002, 5.997057e+003
9.429297e+002, 6.000528e+003
9.434119e+002, 6.002619e+003
9.438940e+002, 6.004916e+003
9.443761e+002, 6.006737e+003
9.448582e+002, 6.004845e+003
9.453403e+002, 5.992195e+003
9.458224e+002, 5.984733e+003
9.463046e+002, 5.987478e+003
9.467867e+002, 5.995985e+003
9.472688e+002, 6.000339e+003
9.477509e+002, 6.000851e+003
9.482330e+002, 5.999133e+003
9.487151e+002, 5.994686e+003
9.491973e+002, 5.990901e+003
9.496794e+002, 5.992490e+003
9.501615e+002, 5.995857e+003
9.506436e+002, 5.996444e+003
9.511257e+002, 5.990643e+003
9.516078e+002, 5.987766e+003
9.520900e+002, 5.988829e+003
9.525721e+002, 5.991431e+003
9.530542e+002, 5.993612e+003
9.535363e+002, 5.995539e+003
9.540184e+002, 5.998894e+003
9.545005e+002, 6.003584e+003
9.549827e+002, 6.006817e+003
9.554648e+002, 6.004540e+003
9.559469e+002, 6.001694e+003
9.564290e+002, 6.000995e+003
9.569111e+002, 6.002789e+003
9.573932e+002, 6.008693e+003
9.578754e+002, 6.021693e+003
9.583575e+002, 6.031370e+003
9.588396e+002, 6.033220e+003
9.593217e+002, 6.030839e+003
9.598038e+002, 6.032921e+003
9.602859e+002, 6.038261e+003
9.607681e+002, 6.042621e+003
9.612502e+002, 6.043632e+003
9.617323e+002, 6.044627e+003
9.622144e+002, 6.047864e+003
9.626965e+002, 6.052073e+003
9.631786e+002, 6.055509e+003
9.636608e+002, 6.057344e+003
9.641429e+002, 6.060739e+003
9.646250e+002, 6.065876e+003
9.651071e+002, 6.072583e+003
9.655892e+002, 6.082642e+003
9.660714e+002, 6.093658e+003
9.665535e+002, 6.100567e+003
9.670356e+002, 6.103000e+003
9.675177e+002, 6.103762e+003
9.679998e+002, 6.100672e+003
9.684819e+002, 6.099813e+003
9.689641e+002, 6.105333e+003
9.694462e+002, 6.116245e+003
9.699283e+002, 6.126300e+003
9.704104e+002, 6.135418e+003
9.708925e+002, 6.143733e+003
9.713746e+002, 6.151081e+003
9.718568e+002, 6.157869e+003
9.723389e+002, 6.164154e+003
9.728210e+002, 6.170482e+003
9.733031e+002, 6.178161e+003
9.737852e+002, 6.189408e+003
9.742673e+002, 6.199475e+003
9.747495e+002, 6.207615e+003
9.752316e+002, 6.214146e+003
9.757137e+002, 6.219104e+003
9.761958e+002, 6.222485e+003
9.766779e+002, 6.226654e+003
9.771600e+002, 6.232134e+003
9.776422e+002, 6.235159e+003
9.781243e+002, 6.231576e+003
9.786064e+002, 6.224520e+003
9.790885e+002, 6.216645e+003
9.795706e+002, 6.208290e+003
9.800527e+002, 6.200962e+003
9.805349e+002, 6.195963e+003
9.810170e+002, 6.190429e+003
9.814991e+002, 6.182968e+003
9.819812e+002, 6.174325e+003
9.824633e+002, 6.165473e+003
9.829454e+002, 6.157181e+003
9.834276e+002, 6.154721e+003
9.839097e+002, 6.164488e+003
9.843918e+002, 6.174586e+003
9.848739e+002, 6.174929e+003
9.853560e+002, 6.170695e+003
9.858381e+002, 6.170155e+003
9.863203e+002, 6.176501e+003
9.868024e+002, 6.180515e+003
9.872845e+002, 6.181034e+003
9.877666e+002, 6.181485e+003
9.882487e+002, 6.187204e+003
9.887308e+002, 6.195382e+003
9.892130e+002, 6.197932e+003
9.896951e+002, 6.194356e+003
9.901772e+002, 6.190889e+003
9.906593e+002, 6.190561e+003
9.911414e+002, 6.191543e+003
9.916235e+002, 6.194042e+003
9.921057e+002, 6.197185e+003
9.925878e+002, 6.194836e+003
9.930699e+002, 6.185614e+003
9.935520e+002, 6.181095e+003
9.940341e+002, 6.187408e+003
9.945162e+002, 6.196909e+003
9.949984e+002, 6.200360e+003
9.954805e+002, 6.198515e+003
9.959626e+002, 6.192657e+003
9.964447e+002, 6.178425e+003
9.969268e+002, 6.168354e+003
9.974089e+002, 6.166671e+003
9.978911e+002, 6.167456e+003
9.983732e+002, 6.165623e+003
9.988553e+002, 6.161352e+003
9.993374e+002, 6.157339e+003
9.998195e+002, 6.153763e+003
1.000302e+003, 6.149710e+003
1.000784e+003, 6.141279e+003
1.001266e+003, 6.134581e+003
1.001748e+003, 6.136322e+003
1.002230e+003, 6.145668e+003
1.002712e+003, 6.151502e+003
1.003194e+003, 6.150505e+003
1.003676e+003, 6.151502e+003
1.004159e+003, 6.157382e+003
1.004641e+003, 6.165562e+003
1.005123e+003, 6.171923e+003
1.005605e+003, 6.176288e+003
1.006087e+003, 6.177733e+003
1.006569e+003, 6.174270e+003
1.007051e+003, 6.172656e+003
1.007533e+003, 6.180158e+003
1.008016e+003, 6.188346e+003
1.008498e+003, 6.189183e+003
1.008980e+003, 6.180792e+003
1.009462e+003, 6.176218e+003
1.009944e+003, 6.175800e+003
1.010426e+003, 6.176856e+003
1.010908e+003, 6.177526e+003
1.011390e+003, 6.178358e+003
1.011872e+003, 6.180834e+003
1.012355e+003, 6.184267e+003
1.012837e+003, 6.185834e+003
1.013319e+003, 6.180773e+003
1.013801e+003, 6.178768e+003
1.014283e+003, 6.183363e+003
1.014765e+003, 6.190291e+003
1.015247e+003, 6.190526e+003
1.015729e+003, 6.185179e+003
1.016211e+003, 6.183772e+003
1.016694e+003, 6.189156e+003
1.017176e+003, 6.193624e+003
1.017658e+003, 6.188883e+003
1.018140e+003, 6.181852e+003
1.018622e+003, 6.179401e+003
1.019104e+003, 6.183271e+003
1.019586e+003, 6.184286e+003
1.020068e+003, 6.182120e+003
1.020551e+003, 6.178430e+003
1.021033e+003, 6.172971e+003
1.021515e+003, 6.167365e+003
1.021997e+003, 6.165148e+003
1.022479e+003, 6.165851e+003
1.022961e+003, 6.168148e+003
1.023443e+003, 6.172810e+003
1.023925e+003, 6.177250e+003
1.024407e+003, 6.179768e+003
1.024890e+003, 6.182266e+003
1.025372e+003, 6.188113e+003
1.025854e+003, 6.197428e+003
1.026336e+003, 6.201809e+003
1.026818e+003, 6.199978e+003
1.027300e+003, 6.198240e+003
1.027782e+003, 6.202289e+003
1.028264e+003, 6.209052e+003
1.028746e+003, 6.216554e+003
1.029229e+003, 6.224478e+003
1.029711e+003, 6.229525e+003
1.030193e+003, 6.230178e+003
1.030675e+003, 6.231020e+003
1.031157e+003, 6.233318e+003
1.031639e+003, 6.237036e+003
1.032121e+003, 6.244096e+003
1.032603e+003, 6.252713e+003
1.033086e+003, 6.256460e+003
1.033568e+003, 6.249986e+003
1.034050e+003, 6.245940e+003
1.034532e+003, 6.253989e+003
1.035014e+003, 6.264254e+003
1.035496e+003, 6.267599e+003
1.035978e+003, 6.262732e+003
1.036460e+003, 6.260412e+003
1.036943e+003, 6.260836e+003
1.037425e+003, 6.261686e+003
1.037907e+003, 6.260569e+003
1.038389e+003, 6.259533e+003
1.038871e+003, 6.262458e+003
1.039353e+003, 6.267723e+003
1.039835e+003, 6.268446e+003
1.040317e+003, 6.258628e+003
1.040799e+003, 6.251985e+003
1.041281e+003, 6.251034e+003
1.041764e+003, 6.253102e+003
1.042246e+003, 6.254112e+003
1.042728e+003, 6.254546e+003
1.043210e+003, 6.256551e+003
1.043692e+003, 6.260898e+003
1.044174e+003, 6.263558e+003
1.044656e+003, 6.259909e+003
1.045138e+003, 6.255979e+003
1.045621e+003, 6.256159e+003
1.046103e+003, 6.260061e+003
1.046585e+003, 6.261768e+003
1.047067e+003, 6.261111e+003
1.047549e+003, 6.260772e+003
1.048031e+003, 6.262999e+003
1.048513e+003, 6.264729e+003
1.048995e+003, 6.259808e+003
1.049478e+003, 6.252489e+003
1.049960e+003, 6.250010e+003
1.050442e+003, 6.259886e+003
1.050924e+003, 6.266144e+003
1.051406e+003, 6.268336e+003
1.051888e+003, 6.267466e+003
1.052370e+003, 6.262461e+003
1.052852e+003, 6.255341e+003
1.053334e+003, 6.253941e+003
1.053817e+003, 6.257992e+003
1.054299e+003, 6.261470e+003
1.054781e+003, 6.259752e+003
1.055263e+003, 6.258110e+003
1.055745e+003, 6.258873e+003
1.056227e+003, 6.261478e+003
1.056709e+003, 6.265204e+003
1.057191e+003, 6.270154e+003
1.057673e+003, 6.273264e+003
1.058156e+003, 6.273258e+003
1.058638e+003, 6.273912e+003
1.059120e+003, 6.280245e+003
1.059602e+003, 6.288665e+003
1.060084e+003, 6.295611e+003
1.060566e+003, 6.300597e+003
1.061048e+003, 6.302781e+003
1.061530e+003, 6.300078e+003
1.062013e+003, 6.299979e+003
1.062495e+003, 6.308338e+003
1.062977e+003, 6.319992e+003
1.063459e+003, 6.320210e+003
1.063941e+003, 6.312926e+003
1.064423e+003, 6.309476e+003
1.064905e+003, 6.317415e+003
1.065387e+003, 6.325558e+003
1.065870e+003, 6.329419e+003
1.066352e+003, 6.332807e+003
1.066834e+003, 6.339735e+003
1.067316e+003, 6.350198e+003
1.067798e+003, 6.358007e+003
1.068280e+003, 6.362981e+003
1.068762e+003, 6.368146e+003
1.069244e+003, 6.374745e+003
1.069726e+003, 6.383439e+003
1.070208e+003, 6.395736e+003
1.070691e+003, 6.410761e+003
1.071173e+003, 6.424040e+003
1.071655e+003, 6.435331e+003
1.072137e+003, 6.445328e+003
1.072619e+003, 6.453836e+003
1.073101e+003, 6.462273e+003
1.073583e+003, 6.473470e+003
1.074065e+003, 6.485508e+003
1.074548e+003, 6.495634e+003
1.075030e+003, 6.503307e+003
1.075512e+003, 6.508787e+003
1.075994e+003, 6.511219e+003
1.076476e+003, 6.512563e+003
1.076958e+003, 6.513760e+003
1.077440e+003, 6.514364e+003
1.077922e+003, 6.512032e+003
1.078405e+003, 6.507379e+003
1.078887e+003, 6.503292e+003
1.079369e+003, 6.500849e+003
1.079851e+003, 6.499354e+003
1.080333e+003, 6.497458e+003
1.080815e+003, 6.497095e+003
1.081297e+003, 6.500484e+003
1.081779e+003, 6.508517e+003
1.082261e+003, 6.515352e+003
1.082744e+003, 6.520998e+003
1.083226e+003, 6.525877e+003
1.083708e+003, 6.528453e+003
1.084190e+003, 6.531830e+003
1.084672e+003, 6.539271e+003
1.085154e+003, 6.550287e+003
1.085636e+003, 6.563374e+003
1.086118e+003, 6.580499e+003
1.086601e+003, 6.594865e+003
1.087083e+003, 6.605281e+003
1.087565e+003, 6.613664e+003
1.088047e+003, 6.622369e+003
1.088529e+003, 6.630845e+003
1.089011e+003, 6.638913e+003
1.089493e+003, 6.646479e+003
1.089975e+003, 6.650024e+003
1.090458e+003, 6.647910e+003
1.090940e+003, 6.641084e+003
1.091422e+003, 6.629522e+003
1.091904e+003, 6.613961e+003
1.092386e+003, 6.597078e+003
1.092868e+003, 6.578648e+003
1.093350e+003, 6.557183e+003
1.093832e+003, 6.531046e+003
1.094314e+003, 6.505714e+003
1.094797e+003, 6.483513e+003
1.095279e+003, 6.465070e+003
1.095761e+003, 6.451659e+003
1.096243e+003, 6.443757e+003
1.096725e+003, 6.434744e+003
1.097207e+003, 6.424575e+003
1.097689e+003, 6.414419e+003
1.098171e+003, 6.403691e+003
1.098653e+003, 6.394618e+003
1.099136e+003, 6.390994e+003
1.099618e+003, 6.390538e+003
1.100100e+003, 6.388583e+003
1.100582e+003, 6.381913e+003
1.101064e+003, 6.378220e+003
1.101546e+003, 6.378565e+003
1.102028e+003, 6.379466e+003
1.102510e+003, 6.375347e+003
1.102993e+003, 6.370188e+003
1.103475e+003, 6.375268e+003
1.103957e+003, 6.388850e+003
1.104439e+003, 6.397855e+003
1.104921e+003, 6.393633e+003
1.105403e+003, 6.387924e+003
1.105885e+003, 6.383005e+003
1.106367e+003, 6.379181e+003
1.106849e+003, 6.376205e+003
1.107332e+003, 6.374708e+003
1.107814e+003, 6.378842e+003
1.108296e+003, 6.389700e+003
1.108778e+003, 6.400499e+003
1.109260e+003, 6.409343e+003
1.109742e+003, 6.414437e+003
1.110224e+003, 6.412656e+003
1.110706e+003, 6.405960e+003
1.111188e+003, 6.404697e+003
1.111671e+003, 6.408917e+003
1.112153e+003, 6.412687e+003
1.112635e+003, 6.413602e+003
1.113117e+003, 6.414568e+003
1.113599e+003, 6.420250e+003
1.114081e+003, 6.426609e+003
1.114563e+003, 6.428142e+003
1.115045e+003, 6.422857e+003
1.115528e+003, 6.421055e+003
1.116010e+003, 6.423931e+003
1.116492e+003, 6.425099e+003
1.116974e+003, 6.419368e+003
1.117456e+003, 6.411256e+003
1.117938e+003, 6.408303e+003
1.118420e+003, 6.408644e+003
1.118902e+003, 6.408225e+003
1.119385e+003, 6.404123e+003
1.119867e+003, 6.402290e+003
1.120349e+003, 6.404057e+003
1.120831e+003, 6.406154e+003
1.121313e+003, 6.404989e+003
1.121795e+003, 6.401886e+003
1.122277e+003, 6.401251e+003
1.122759e+003, 6.402626e+003
1.123241e+003, 6.402667e+003
1.123724e+003, 6.396767e+003
1.124206e+003, 6.393119e+003
1.124688e+003, 6.394366e+003
1.125170e+003, 6.398420e+003
1.125652e+003, 6.403217e+003
1.126134e+003, 6.408239e+003
1.126616e+003, 6.408896e+003
1.127098e+003, 6.404505e+003
1.127580e+003, 6.401109e+003
1.128063e+003, 6.402220e+003
1.128545e+003, 6.406329e+003
1.129027e+003, 6.415157e+003
1.129509e+003, 6.426058e+003
1.129991e+003, 6.429194e+003
1.130473e+003, 6.424492e+003
1.130955e+003, 6.417479e+003
1.131437e+003, 6.408427e+003
1.131920e+003, 6.402016e+003
1.132402e+003, 6.404784e+003
1.132884e+003, 6.410880e+003
1.133366e+003, 6.414633e+003
1.133848e+003, 6.415412e+003
1.134330e+003, 6.416061e+003
1.134812e+003, 6.416460e+003
1.135294e+003, 6.417094e+003
1.135776e+003, 6.417789e+003
1.136259e+003, 6.419253e+003
1.136741e+003, 6.422586e+003
1.137223e+003, 6.427220e+003
1.137705e+003, 6.432523e+003
1.138187e+003, 6.439232e+003
1.138669e+003, 6.444108e+003
1.139151e+003, 6.446860e+003
1.139633e+003, 6.448327e+003
1.140115e+003, 6.448351e+003
1.140598e+003, 6.447856e+003
1.141080e+003, 6.450032e+003
1.141562e+003, 6.453372e+003
1.142044e+003, 6.453719e+003
1.142526e+003, 6.444968e+003
1.143008e+003, 6.440090e+003
1.143490e+003, 6.441678e+003
1.143972e+003, 6.445672e+003
1.144455e+003, 6.449221e+003
1.144937e+003, 6.451789e+003
1.145419e+003, 6.450163e+003
1.145901e+003, 6.445038e+003
1.146383e+003, 6.441813e+003
1.146865e+003, 6.444515e+003
1.147347e+003, 6.448049e+003
1.147829e+003, 6.451228e+003
1.148312e+003, 6.453975e+003
1.148794e+003, 6.455978e+003
1.149276e+003, 6.457385e+003
1.149758e+003, 6.459578e+003
1.150240e+003, 6.462729e+003
1.150722e+003, 6.464198e+003
1.151204e+003, 6.458667e+003
1.151686e+003, 6.454701e+003
1.152168e+003, 6.458547e+003
1.152651e+003, 6.467070e+003
1.153133e+003, 6.471064e+003
1.153615e+003, 6.470712e+003
1.154097e+003, 6.471216e+003
1.154579e+003, 6.473825e+003
1.155061e+003, 6.476853e+003
1.155543e+003, 6.479743e+003
1.156025e+003, 6.481811e+003
1.156507e+003, 6.481674e+003
1.156990e+003, 6.479761e+003
1.157472e+003, 6.480385e+003
1.157954e+003, 6.483733e+003
1.158436e+003, 6.487351e+003
1.158918e+003, 6.490645e+003
1.159400e+003, 6.493437e+003
1.159882e+003, 6.494830e+003
1.160364e+003, 6.496060e+003
1.160847e+003, 6.498726e+003
1.161329e+003, 6.503206e+003
1.161811e+003, 6.507813e+003
1.162293e+003, 6.512881e+003
1.162775e+003, 6.515494e+003
1.163257e+003, 6.512450e+003
1.163739e+003, 6.508169e+003
1.164221e+003, 6.508261e+003
1.164703e+003, 6.510928e+003
1.165186e+003, 6.513234e+003
1.165668e+003, 6.514439e+003
1.166150e+003, 6.515597e+003
1.166632e+003, 6.516839e+003
1.167114e+003, 6.517375e+003
1.167596e+003, 6.515378e+003
1.168078e+003, 6.513098e+003
1.168560e+003, 6.514823e+003
1.169042e+003, 6.519337e+003
1.169525e+003, 6.523346e+003
1.170007e+003, 6.527710e+003
1.170489e+003, 6.528204e+003
1.170971e+003, 6.523278e+003
1.171453e+003, 6.518014e+003
1.171935e+003, 6.516943e+003
1.172417e+003, 6.519157e+003
1.172899e+003, 6.524163e+003
1.173382e+003, 6.531146e+003
1.173864e+003, 6.536214e+003
1.174346e+003, 6.536803e+003
1.174828e+003, 6.537195e+003
1.175310e+003, 6.538036e+003
1.175792e+003, 6.538740e+003
1.176274e+003, 6.538347e+003
1.176756e+003, 6.537264e+003
1.177239e+003, 6.535938e+003
1.177721e+003, 6.534542e+003
1.178203e+003, 6.534816e+003
1.178685e+003, 6.538169e+003
1.179167e+003, 6.542491e+003
1.179649e+003, 6.547839e+003
1.180131e+003, 6.553104e+003
1.180613e+003, 6.555232e+003
1.181095e+003, 6.555773e+003
1.181578e+003, 6.560157e+003
1.182060e+003, 6.569470e+003
1.182542e+003, 6.577039e+003
1.183024e+003, 6.578231e+003
1.183506e+003, 6.579250e+003
1.183988e+003, 6.582607e+003
1.184470e+003, 6.587099e+003
1.184952e+003, 6.589711e+003
1.185434e+003, 6.590781e+003
1.185917e+003, 6.591365e+003
1.186399e+003, 6.591669e+003
1.186881e+003, 6.591810e+003
1.187363e+003, 6.591429e+003
1.187845e+003, 6.591274e+003
1.188327e+003, 6.591257e+003
1.188809e+003, 6.591835e+003
1.189291e+003, 6.596273e+003
1.189774e+003, 6.603292e+003
1.190256e+003, 6.606922e+003
1.190738e+003, 6.604311e+003
1.191220e+003, 6.600610e+003
1.191702e+003, 6.595024e+003
1.192184e+003, 6.592600e+003
1.192666e+003, 6.598025e+003
1.193148e+003, 6.609463e+003
1.193630e+003, 6.614803e+003
1.194113e+003, 6.614613e+003
1.194595e+003, 6.611844e+003
1.195077e+003, 6.605588e+003
1.195559e+003, 6.601103e+003
1.196041e+003, 6.603150e+003
1.196523e+003, 6.606398e+003
1.197005e+003, 6.606651e+003
1.197487e+003, 6.604126e+003
1.197969e+003, 6.601929e+003
1.198452e+003, 6.600111e+003
1.198934e+003, 6.598787e+003
1.199416e+003, 6.598668e+003
1.199898e+003, 6.598288e+003
1.200380e+003, 6.595167e+003
1.200862e+003, 6.592845e+003
1.201344e+003, 6.595636e+003
1.201826e+003, 6.603542e+003
1.202309e+003, 6.607231e+003
1.202791e+003, 6.607120e+003
1.203273e+003, 6.608364e+003
1.203755e+003, 6.617852e+003
1.204237e+003, 6.625049e+003
1.204719e+003, 6.621734e+003
1.205201e+003, 6.614835e+003
1.205683e+003, 6.612679e+003
1.206166e+003, 6.615173e+003
1.206648e+003, 6.615500e+003
1.207130e+003, 6.613648e+003
1.207612e+003, 6.614531e+003
1.208094e+003, 6.625939e+003
1.208576e+003, 6.635834e+003
1.209058e+003, 6.635262e+003
1.209540e+003, 6.630432e+003
1.210022e+003, 6.630326e+003
1.210505e+003, 6.634724e+003
1.210987e+003, 6.635983e+003
1.211469e+003, 6.633661e+003
1.211951e+003, 6.631346e+003
1.212433e+003, 6.631033e+003
1.212915e+003, 6.631935e+003
1.213397e+003, 6.634505e+003
1.213879e+003, 6.637648e+003
1.214361e+003, 6.639208e+003
1.214844e+003, 6.639366e+003
1.215326e+003, 6.640931e+003
1.215808e+003, 6.644227e+003
1.216290e+003, 6.647157e+003
1.216772e+003, 6.647712e+003
1.217254e+003, 6.648062e+003
1.217736e+003, 6.648964e+003
1.218218e+003, 6.650622e+003
1.218701e+003, 6.653881e+003
1.219183e+003, 6.658538e+003
1.219665e+003, 6.662988e+003
1.220147e+003, 6.666953e+003
1.220629e+003, 6.669819e+003
1.221111e+003, 6.669342e+003
1.221593e+003, 6.669640e+003
1.222075e+003, 6.674017e+003
1.222557e+003, 6.680138e+003
1.223040e+003, 6.681489e+003
1.223522e+003, 6.678763e+003
1.224004e+003, 6.677652e+003
1.224486e+003, 6.679485e+003
1.224968e+003, 6.679999e+003
1.225450e+003, 6.673259e+003
1.225932e+003, 6.668376e+003
1.226414e+003, 6.671089e+003
1.226896e+003, 6.678390e+003
1.227379e+003, 6.680997e+003
1.227861e+003, 6.679728e+003
1.228343e+003, 6.678805e+003
1.228825e+003, 6.679142e+003
1.229307e+003, 6.679940e+003
1.229789e+003, 6.682074e+003
1.230271e+003, 6.682844e+003
1.230753e+003, 6.680070e+003
1.231236e+003, 6.675383e+003
1.231718e+003, 6.675007e+003
1.232200e+003, 6.677742e+003
1.232682e+003, 6.678477e+003
1.233164e+003, 6.675212e+003
1.233646e+003, 6.673364e+003
1.234128e+003, 6.678431e+003
1.234610e+003, 6.682262e+003
1.235093e+003, 6.680695e+003
1.235575e+003, 6.675456e+003
1.236057e+003, 6.670474e+003
1.236539e+003, 6.666583e+003
1.237021e+003, 6.667227e+003
1.237503e+003, 6.674927e+003
1.237985e+003, 6.681370e+003
1.238467e+003, 6.683202e+003
1.238949e+003, 6.683185e+003
1.239432e+003, 6.681733e+003
1.239914e+003, 6.679712e+003
1.240396e+003, 6.679707e+003
1.240878e+003, 6.681356e+003
1.241360e+003, 6.684049e+003
1.241842e+003, 6.688520e+003
1.242324e+003, 6.690866e+003
1.242806e+003, 6.688389e+003
1.243288e+003, 6.686922e+003
1.243771e+003, 6.690421e+003
1.244253e+003, 6.696045e+003
1.244735e+003, 6.695248e+003
1.245217e+003, 6.690981e+003
1.245699e+003, 6.690543e+003
1.246181e+003, 6.697864e+003
1.246663e+003, 6.703789e+003
1.247145e+003, 6.707339e+003
1.247628e+003, 6.709335e+003
1.248110e+003, 6.709487e+003
1.248592e+003, 6.709099e+003
1.249074e+003, 6.712000e+003
1.249556e+003, 6.716146e+003
1.250038e+003, 6.717252e+003
1.250520e+003, 6.711570e+003
1.251002e+003, 6.710062e+003
1.251484e+003, 6.714300e+003
1.251967e+003, 6.719021e+003
1.252449e+003, 6.721352e+003
1.252931e+003, 6.722108e+003
1.253413e+003, 6.721106e+003
1.253895e+003, 6.719961e+003
1.254377e+003, 6.721733e+003
1.254859e+003, 6.728132e+003
1.255341e+003, 6.735306e+003
1.255823e+003, 6.744474e+003
1.256306e+003, 6.748204e+003
1.256788e+003, 6.738504e+003
1.257270e+003, 6.725315e+003
1.257752e+003, 6.720885e+003
1.258234e+003, 6.721214e+003
1.258716e+003, 6.719243e+003
1.259198e+003, 6.711696e+003
1.259680e+003, 6.715443e+003
1.260163e+003, 6.732218e+003
1.260645e+003, 6.744601e+003
1.261127e+003, 6.740313e+003
1.261609e+003, 6.730708e+003
1.262091e+003, 6.723223e+003
1.262573e+003, 6.718378e+003
1.263055e+003, 6.717255e+003
1.263537e+003, 6.720479e+003
1.264020e+003, 6.720886e+003
1.264502e+003, 6.718481e+003
1.264984e+003, 6.717553e+003
1.265466e+003, 6.721348e+003
1.265948e+003, 6.726279e+003
1.266430e+003, 6.731884e+003
1.266912e+003, 6.735818e+003
1.267394e+003, 6.734858e+003
1.267876e+003, 6.728877e+003
1.268359e+003, 6.726483e+003
1.268841e+003, 6.727407e+003
1.269323e+003, 6.729270e+003
1.269805e+003, 6.733182e+003
1.270287e+003, 6.734653e+003
1.270769e+003, 6.728059e+003
1.271251e+003, 6.721430e+003
1.271733e+003, 6.722369e+003
1.272215e+003, 6.729555e+003
1.272698e+003, 6.731556e+003
1.273180e+003, 6.729143e+003
1.273662e+003, 6.725584e+003
1.274144e+003, 6.720100e+003
1.274626e+003, 6.717116e+003
1.275108e+003, 6.717845e+003
1.275590e+003, 6.720531e+003
1.276072e+003, 6.725637e+003
1.276555e+003, 6.731235e+003
1.277037e+003, 6.728022e+003
1.277519e+003, 6.719479e+003
1.278001e+003, 6.715907e+003
1.278483e+003, 6.725629e+003
1.278965e+003, 6.734014e+003
1.279447e+003, 6.740990e+003
1.279929e+003, 6.744075e+003
1.280411e+003, 6.737372e+003
1.280894e+003, 6.727776e+003
1.281376e+003, 6.729074e+003
1.281858e+003, 6.737513e+003
1.282340e+003, 6.744606e+003
1.282822e+003, 6.749534e+003
1.283304e+003, 6.750167e+003
1.283786e+003, 6.745333e+003
1.284268e+003, 6.742242e+003
1.284750e+003, 6.748477e+003
1.285233e+003, 6.756830e+003
1.285715e+003, 6.758092e+003
1.286197e+003, 6.755784e+003
1.286679e+003, 6.756128e+003
1.287161e+003, 6.760091e+003
1.287643e+003, 6.764209e+003
1.288125e+003, 6.768498e+003
1.288607e+003, 6.771101e+003
1.289090e+003, 6.769546e+003
1.289572e+003, 6.767192e+003
1.290054e+003, 6.764993e+003
1.290536e+003, 6.764234e+003
1.291018e+003, 6.766649e+003
1.291500e+003, 6.772367e+003
1.291982e+003, 6.776805e+003
1.292464e+003, 6.779982e+003
1.292947e+003, 6.782411e+003
1.293429e+003, 6.786825e+003
1.293911e+003, 6.787325e+003
1.294393e+003, 6.776955e+003
1.294875e+003, 6.765989e+003
1.295357e+003, 6.762480e+003
1.295839e+003, 6.764957e+003
1.296321e+003, 6.766133e+003
1.296803e+003, 6.766542e+003
1.297286e+003, 6.767515e+003
1.297768e+003, 6.770532e+003
1.298250e+003, 6.772578e+003
1.298732e+003, 6.772729e+003
1.299214e+003, 6.773266e+003
1.299696e+003, 6.775344e+003
1.300178e+003, 6.778459e+003
1.300660e+003, 6.784308e+003
##END=



