##NAMES=Cuspidine
##RRUFFID=R130002
##IDEAL CHEMISTRY=Ca_4_(Si_2_O_7_)F_2_
##LOCALITY=Huanggang(?), Inner Mongolia, China
##OWNER=RRUFF
##SOURCE=Robert Lavinsky
##DESCRIPTION=Colorless, striated, prismatic crystals associated with black vesuvianite
##STATUS=The identification of this mineral has been confirmed only by single crystal X-ray diffraction.
##URL=rruff.info/R130002
8.936163e+001, 0.000000e+000
8.984375e+001, 4.772020e+002
9.032587e+001, 4.808993e+002
9.080798e+001, 4.816677e+002
9.129010e+001, 4.785350e+002
9.177222e+001, 4.735951e+002
9.225433e+001, 4.692670e+002
9.273645e+001, 4.654750e+002
9.321857e+001, 4.615870e+002
9.370068e+001, 4.573486e+002
9.418280e+001, 4.526675e+002
9.466492e+001, 4.472154e+002
9.514703e+001, 4.400868e+002
9.562915e+001, 4.322706e+002
9.611127e+001, 4.265817e+002
9.659338e+001, 4.232911e+002
9.707550e+001, 4.209626e+002
9.755762e+001, 4.178214e+002
9.803973e+001, 4.138342e+002
9.852185e+001, 4.101089e+002
9.900397e+001, 4.072351e+002
9.948608e+001, 4.052266e+002
9.996820e+001, 4.030331e+002
1.004503e+002, 4.008735e+002
1.009324e+002, 3.982339e+002
1.014146e+002, 3.936779e+002
1.018967e+002, 3.864408e+002
1.023788e+002, 3.793575e+002
1.028609e+002, 3.738661e+002
1.033430e+002, 3.703766e+002
1.038251e+002, 3.673735e+002
1.043073e+002, 3.650267e+002
1.047894e+002, 3.631452e+002
1.052715e+002, 3.607668e+002
1.057536e+002, 3.578803e+002
1.062357e+002, 3.544888e+002
1.067178e+002, 3.504145e+002
1.072000e+002, 3.443828e+002
1.076821e+002, 3.395984e+002
1.081642e+002, 3.371140e+002
1.086463e+002, 3.371910e+002
1.091284e+002, 3.359357e+002
1.096105e+002, 3.326776e+002
1.100927e+002, 3.283665e+002
1.105748e+002, 3.239237e+002
1.110569e+002, 3.181079e+002
1.115390e+002, 3.133412e+002
1.120211e+002, 3.106559e+002
1.125032e+002, 3.109072e+002
1.129854e+002, 3.101635e+002
1.134675e+002, 3.072755e+002
1.139496e+002, 3.032101e+002
1.144317e+002, 2.993209e+002
1.149138e+002, 2.951382e+002
1.153959e+002, 2.918112e+002
1.158781e+002, 2.902099e+002
1.163602e+002, 2.917075e+002
1.168423e+002, 2.922701e+002
1.173244e+002, 2.898392e+002
1.178065e+002, 2.853212e+002
1.182886e+002, 2.810231e+002
1.187708e+002, 2.777933e+002
1.192529e+002, 2.752250e+002
1.197350e+002, 2.730876e+002
1.202171e+002, 2.716600e+002
1.206992e+002, 2.702285e+002
1.211813e+002, 2.681609e+002
1.216635e+002, 2.655912e+002
1.221456e+002, 2.633131e+002
1.226277e+002, 2.624332e+002
1.231098e+002, 2.620009e+002
1.235919e+002, 2.607512e+002
1.240740e+002, 2.576856e+002
1.245562e+002, 2.539235e+002
1.250383e+002, 2.504842e+002
1.255204e+002, 2.473509e+002
1.260025e+002, 2.446867e+002
1.264846e+002, 2.427095e+002
1.269667e+002, 2.413212e+002
1.274489e+002, 2.402756e+002
1.279310e+002, 2.400833e+002
1.284131e+002, 2.400631e+002
1.288952e+002, 2.386499e+002
1.293773e+002, 2.355970e+002
1.298594e+002, 2.321136e+002
1.303416e+002, 2.295934e+002
1.308237e+002, 2.279700e+002
1.313058e+002, 2.265900e+002
1.317879e+002, 2.251407e+002
1.322700e+002, 2.236548e+002
1.327521e+002, 2.223282e+002
1.332343e+002, 2.212231e+002
1.337164e+002, 2.201900e+002
1.341985e+002, 2.188918e+002
1.346806e+002, 2.173149e+002
1.351627e+002, 2.156426e+002
1.356448e+002, 2.139992e+002
1.361270e+002, 2.123782e+002
1.366091e+002, 2.107285e+002
1.370912e+002, 2.089903e+002
1.375733e+002, 2.072525e+002
1.380554e+002, 2.057250e+002
1.385375e+002, 2.044484e+002
1.390197e+002, 2.032523e+002
1.395018e+002, 2.019190e+002
1.399839e+002, 2.003571e+002
1.404660e+002, 1.991411e+002
1.409481e+002, 1.985120e+002
1.414302e+002, 1.984017e+002
1.419124e+002, 1.978582e+002
1.423945e+002, 1.967723e+002
1.428766e+002, 1.954122e+002
1.433587e+002, 1.940232e+002
1.438408e+002, 1.926165e+002
1.443229e+002, 1.911788e+002
1.448051e+002, 1.896946e+002
1.452872e+002, 1.881216e+002
1.457693e+002, 1.866793e+002
1.462514e+002, 1.852817e+002
1.467335e+002, 1.840484e+002
1.472156e+002, 1.831207e+002
1.476978e+002, 1.826819e+002
1.481799e+002, 1.823420e+002
1.486620e+002, 1.821548e+002
1.491441e+002, 1.825629e+002
1.496262e+002, 1.818936e+002
1.501083e+002, 1.788669e+002
1.505905e+002, 1.749787e+002
1.510726e+002, 1.728552e+002
1.515547e+002, 1.747487e+002
1.520368e+002, 1.764770e+002
1.525189e+002, 1.767520e+002
1.530010e+002, 1.747357e+002
1.534832e+002, 1.726548e+002
1.539653e+002, 1.702616e+002
1.544474e+002, 1.678748e+002
1.549295e+002, 1.662595e+002
1.554116e+002, 1.663803e+002
1.558937e+002, 1.666617e+002
1.563759e+002, 1.663647e+002
1.568580e+002, 1.647079e+002
1.573401e+002, 1.633840e+002
1.578222e+002, 1.628772e+002
1.583043e+002, 1.630041e+002
1.587864e+002, 1.630878e+002
1.592686e+002, 1.616980e+002
1.597507e+002, 1.609342e+002
1.602328e+002, 1.621745e+002
1.607149e+002, 1.694725e+002
1.611970e+002, 1.750621e+002
1.616791e+002, 1.753977e+002
1.621613e+002, 1.712162e+002
1.626434e+002, 1.674136e+002
1.631255e+002, 1.654695e+002
1.636076e+002, 1.650116e+002
1.640897e+002, 1.657082e+002
1.645718e+002, 1.683490e+002
1.650540e+002, 1.713794e+002
1.655361e+002, 1.738971e+002
1.660182e+002, 1.759438e+002
1.665003e+002, 1.783913e+002
1.669824e+002, 1.818951e+002
1.674645e+002, 1.860574e+002
1.679467e+002, 1.903337e+002
1.684288e+002, 1.935914e+002
1.689109e+002, 1.975596e+002
1.693930e+002, 2.034919e+002
1.698751e+002, 2.114904e+002
1.703572e+002, 2.207682e+002
1.708394e+002, 2.306800e+002
1.713215e+002, 2.416305e+002
1.718036e+002, 2.541222e+002
1.722857e+002, 2.693699e+002
1.727678e+002, 2.858597e+002
1.732499e+002, 3.019630e+002
1.737321e+002, 3.176031e+002
1.742142e+002, 3.336364e+002
1.746963e+002, 3.516362e+002
1.751784e+002, 3.709496e+002
1.756605e+002, 3.901122e+002
1.761426e+002, 4.075271e+002
1.766248e+002, 4.244623e+002
1.771069e+002, 4.427907e+002
1.775890e+002, 4.630302e+002
1.780711e+002, 4.834941e+002
1.785532e+002, 5.026616e+002
1.790353e+002, 5.207595e+002
1.795175e+002, 5.378531e+002
1.799996e+002, 5.533447e+002
1.804817e+002, 5.680410e+002
1.809638e+002, 5.840352e+002
1.814459e+002, 6.019520e+002
1.819280e+002, 6.202772e+002
1.824102e+002, 6.372230e+002
1.828923e+002, 6.527263e+002
1.833744e+002, 6.684308e+002
1.838565e+002, 6.846686e+002
1.843386e+002, 7.017735e+002
1.848207e+002, 7.203603e+002
1.853029e+002, 7.410563e+002
1.857850e+002, 7.625880e+002
1.862671e+002, 7.829801e+002
1.867492e+002, 8.022365e+002
1.872313e+002, 8.222355e+002
1.877134e+002, 8.442333e+002
1.881956e+002, 8.682054e+002
1.886777e+002, 8.929920e+002
1.891598e+002, 9.187654e+002
1.896419e+002, 9.452493e+002
1.901240e+002, 9.720867e+002
1.906061e+002, 9.996386e+002
1.910883e+002, 1.027256e+003
1.915704e+002, 1.054693e+003
1.920525e+002, 1.082208e+003
1.925346e+002, 1.109922e+003
1.930167e+002, 1.137849e+003
1.934988e+002, 1.165195e+003
1.939810e+002, 1.187314e+003
1.944631e+002, 1.202897e+003
1.949452e+002, 1.218220e+003
1.954273e+002, 1.234073e+003
1.959094e+002, 1.250421e+003
1.963915e+002, 1.265170e+003
1.968737e+002, 1.277805e+003
1.973558e+002, 1.288654e+003
1.978379e+002, 1.299050e+003
1.983200e+002, 1.309061e+003
1.988021e+002, 1.318349e+003
1.992842e+002, 1.326413e+003
1.997664e+002, 1.333302e+003
2.002485e+002, 1.339754e+003
2.007306e+002, 1.345929e+003
2.012127e+002, 1.351882e+003
2.016948e+002, 1.358289e+003
2.021769e+002, 1.365637e+003
2.026591e+002, 1.372152e+003
2.031412e+002, 1.375639e+003
2.036233e+002, 1.375724e+003
2.041054e+002, 1.376095e+003
2.045875e+002, 1.377627e+003
2.050696e+002, 1.380180e+003
2.055518e+002, 1.382491e+003
2.060339e+002, 1.384344e+003
2.065160e+002, 1.386387e+003
2.069981e+002, 1.389537e+003
2.074802e+002, 1.394090e+003
2.079623e+002, 1.398051e+003
2.084445e+002, 1.400529e+003
2.089266e+002, 1.401639e+003
2.094087e+002, 1.404551e+003
2.098908e+002, 1.409815e+003
2.103729e+002, 1.415828e+003
2.108550e+002, 1.420709e+003
2.113372e+002, 1.423923e+003
2.118193e+002, 1.427759e+003
2.123014e+002, 1.433074e+003
2.127835e+002, 1.439824e+003
2.132656e+002, 1.445596e+003
2.137477e+002, 1.450168e+003
2.142299e+002, 1.454103e+003
2.147120e+002, 1.457799e+003
2.151941e+002, 1.460908e+003
2.156762e+002, 1.464814e+003
2.161583e+002, 1.470207e+003
2.166404e+002, 1.477149e+003
2.171226e+002, 1.483175e+003
2.176047e+002, 1.488170e+003
2.180868e+002, 1.492387e+003
2.185689e+002, 1.496253e+003
2.190510e+002, 1.499987e+003
2.195331e+002, 1.502882e+003
2.200153e+002, 1.504535e+003
2.204974e+002, 1.504779e+003
2.209795e+002, 1.505974e+003
2.214616e+002, 1.508611e+003
2.219437e+002, 1.511743e+003
2.224258e+002, 1.514188e+003
2.229080e+002, 1.515567e+003
2.233901e+002, 1.517101e+003
2.238722e+002, 1.519169e+003
2.243543e+002, 1.521892e+003
2.248364e+002, 1.524225e+003
2.253185e+002, 1.526082e+003
2.258007e+002, 1.527561e+003
2.262828e+002, 1.528694e+003
2.267649e+002, 1.529017e+003
2.272470e+002, 1.529796e+003
2.277291e+002, 1.531504e+003
2.282112e+002, 1.534347e+003
2.286934e+002, 1.536487e+003
2.291755e+002, 1.537721e+003
2.296576e+002, 1.538413e+003
2.301397e+002, 1.538850e+003
2.306218e+002, 1.538366e+003
2.311039e+002, 1.538916e+003
2.315861e+002, 1.541227e+003
2.320682e+002, 1.545660e+003
2.325503e+002, 1.549818e+003
2.330324e+002, 1.554009e+003
2.335145e+002, 1.557740e+003
2.339966e+002, 1.560277e+003
2.344788e+002, 1.560774e+003
2.349609e+002, 1.561652e+003
2.354430e+002, 1.563793e+003
2.359251e+002, 1.567540e+003
2.364072e+002, 1.570119e+003
2.368893e+002, 1.570909e+003
2.373715e+002, 1.571028e+003
2.378536e+002, 1.571786e+003
2.383357e+002, 1.573105e+003
2.388178e+002, 1.575161e+003
2.392999e+002, 1.578140e+003
2.397820e+002, 1.582127e+003
2.402642e+002, 1.586049e+003
2.407463e+002, 1.590223e+003
2.412284e+002, 1.594002e+003
2.417105e+002, 1.596475e+003
2.421926e+002, 1.596812e+003
2.426747e+002, 1.597279e+003
2.431569e+002, 1.598492e+003
2.436390e+002, 1.600579e+003
2.441211e+002, 1.602274e+003
2.446032e+002, 1.603417e+003
2.450853e+002, 1.604323e+003
2.455674e+002, 1.605386e+003
2.460496e+002, 1.606817e+003
2.465317e+002, 1.608063e+003
2.470138e+002, 1.609042e+003
2.474959e+002, 1.609775e+003
2.479780e+002, 1.610220e+003
2.484601e+002, 1.610083e+003
2.489423e+002, 1.610015e+003
2.494244e+002, 1.610717e+003
2.499065e+002, 1.612306e+003
2.503886e+002, 1.614545e+003
2.508707e+002, 1.617621e+003
2.513528e+002, 1.621570e+003
2.518350e+002, 1.625155e+003
2.523171e+002, 1.628364e+003
2.527992e+002, 1.631175e+003
2.532813e+002, 1.633403e+003
2.537634e+002, 1.634455e+003
2.542455e+002, 1.636122e+003
2.547277e+002, 1.638948e+003
2.552098e+002, 1.642951e+003
2.556919e+002, 1.646389e+003
2.561740e+002, 1.649057e+003
2.566561e+002, 1.651349e+003
2.571382e+002, 1.653534e+003
2.576204e+002, 1.655461e+003
2.581025e+002, 1.657639e+003
2.585846e+002, 1.660207e+003
2.590667e+002, 1.663149e+003
2.595488e+002, 1.665976e+003
2.600309e+002, 1.668593e+003
2.605131e+002, 1.671178e+003
2.609952e+002, 1.673825e+003
2.614773e+002, 1.676551e+003
2.619594e+002, 1.679399e+003
2.624415e+002, 1.682261e+003
2.629236e+002, 1.685229e+003
2.634058e+002, 1.688911e+003
2.638879e+002, 1.693621e+003
2.643700e+002, 1.698619e+003
2.648521e+002, 1.703788e+003
2.653342e+002, 1.709687e+003
2.658163e+002, 1.713638e+003
2.662985e+002, 1.714643e+003
2.667806e+002, 1.713288e+003
2.672627e+002, 1.713135e+003
2.677448e+002, 1.714790e+003
2.682269e+002, 1.716339e+003
2.687090e+002, 1.716211e+003
2.691912e+002, 1.713956e+003
2.696733e+002, 1.711872e+003
2.701554e+002, 1.710261e+003
2.706375e+002, 1.708983e+003
2.711196e+002, 1.707454e+003
2.716017e+002, 1.705422e+003
2.720839e+002, 1.703784e+003
2.725660e+002, 1.703342e+003
2.730481e+002, 1.704305e+003
2.735302e+002, 1.705003e+003
2.740123e+002, 1.705054e+003
2.744944e+002, 1.704907e+003
2.749766e+002, 1.706060e+003
2.754587e+002, 1.708828e+003
2.759408e+002, 1.711716e+003
2.764229e+002, 1.713697e+003
2.769050e+002, 1.714705e+003
2.773871e+002, 1.715837e+003
2.778693e+002, 1.717031e+003
2.783514e+002, 1.718576e+003
2.788335e+002, 1.721213e+003
2.793156e+002, 1.725094e+003
2.797977e+002, 1.729341e+003
2.802798e+002, 1.734031e+003
2.807620e+002, 1.739134e+003
2.812441e+002, 1.741989e+003
2.817262e+002, 1.741740e+003
2.822083e+002, 1.740475e+003
2.826904e+002, 1.742083e+003
2.831725e+002, 1.746707e+003
2.836547e+002, 1.751890e+003
2.841368e+002, 1.756581e+003
2.846189e+002, 1.760768e+003
2.851010e+002, 1.764859e+003
2.855831e+002, 1.768861e+003
2.860652e+002, 1.772759e+003
2.865474e+002, 1.776308e+003
2.870295e+002, 1.779525e+003
2.875116e+002, 1.783262e+003
2.879937e+002, 1.788485e+003
2.884758e+002, 1.794805e+003
2.889579e+002, 1.799339e+003
2.894401e+002, 1.801876e+003
2.899222e+002, 1.804029e+003
2.904043e+002, 1.807929e+003
2.908864e+002, 1.813375e+003
2.913685e+002, 1.818703e+003
2.918506e+002, 1.822990e+003
2.923328e+002, 1.826716e+003
2.928149e+002, 1.831345e+003
2.932970e+002, 1.836970e+003
2.937791e+002, 1.842572e+003
2.942612e+002, 1.846607e+003
2.947433e+002, 1.849550e+003
2.952255e+002, 1.853320e+003
2.957076e+002, 1.859076e+003
2.961897e+002, 1.865729e+003
2.966718e+002, 1.871177e+003
2.971539e+002, 1.875410e+003
2.976360e+002, 1.878727e+003
2.981182e+002, 1.881479e+003
2.986003e+002, 1.883485e+003
2.990824e+002, 1.884289e+003
2.995645e+002, 1.883384e+003
3.000466e+002, 1.881630e+003
3.005287e+002, 1.880270e+003
3.010109e+002, 1.879230e+003
3.014930e+002, 1.877926e+003
3.019751e+002, 1.875816e+003
3.024572e+002, 1.873195e+003
3.029393e+002, 1.870652e+003
3.034214e+002, 1.868427e+003
3.039036e+002, 1.866075e+003
3.043857e+002, 1.862870e+003
3.048678e+002, 1.859070e+003
3.053499e+002, 1.855514e+003
3.058320e+002, 1.852272e+003
3.063141e+002, 1.849782e+003
3.067963e+002, 1.848562e+003
3.072784e+002, 1.848622e+003
3.077605e+002, 1.850136e+003
3.082426e+002, 1.854369e+003
3.087247e+002, 1.860247e+003
3.092068e+002, 1.865211e+003
3.096890e+002, 1.866733e+003
3.101711e+002, 1.867422e+003
3.106532e+002, 1.869446e+003
3.111353e+002, 1.873102e+003
3.116174e+002, 1.877573e+003
3.120995e+002, 1.883255e+003
3.125817e+002, 1.889201e+003
3.130638e+002, 1.893984e+003
3.135459e+002, 1.897064e+003
3.140280e+002, 1.898810e+003
3.145101e+002, 1.899304e+003
3.149922e+002, 1.898539e+003
3.154744e+002, 1.897149e+003
3.159565e+002, 1.894316e+003
3.164386e+002, 1.891448e+003
3.169207e+002, 1.890178e+003
3.174028e+002, 1.894043e+003
3.178849e+002, 1.896880e+003
3.183671e+002, 1.895393e+003
3.188492e+002, 1.889777e+003
3.193313e+002, 1.884876e+003
3.198134e+002, 1.881687e+003
3.202955e+002, 1.880175e+003
3.207776e+002, 1.880326e+003
3.212598e+002, 1.883124e+003
3.217419e+002, 1.886462e+003
3.222240e+002, 1.889995e+003
3.227061e+002, 1.893681e+003
3.231882e+002, 1.897424e+003
3.236703e+002, 1.900613e+003
3.241525e+002, 1.904238e+003
3.246346e+002, 1.908836e+003
3.251167e+002, 1.915536e+003
3.255988e+002, 1.921781e+003
3.260809e+002, 1.926941e+003
3.265630e+002, 1.931466e+003
3.270452e+002, 1.936601e+003
3.275273e+002, 1.941787e+003
3.280094e+002, 1.948119e+003
3.284915e+002, 1.956385e+003
3.289736e+002, 1.968439e+003
3.294557e+002, 1.978086e+003
3.299379e+002, 1.983225e+003
3.304200e+002, 1.986649e+003
3.309021e+002, 1.992739e+003
3.313842e+002, 2.002738e+003
3.318663e+002, 2.013795e+003
3.323484e+002, 2.025762e+003
3.328306e+002, 2.038862e+003
3.333127e+002, 2.049844e+003
3.337948e+002, 2.058035e+003
3.342769e+002, 2.064714e+003
3.347590e+002, 2.071186e+003
3.352411e+002, 2.077679e+003
3.357233e+002, 2.083681e+003
3.362054e+002, 2.089489e+003
3.366875e+002, 2.095023e+003
3.371696e+002, 2.097558e+003
3.376517e+002, 2.096226e+003
3.381339e+002, 2.093656e+003
3.386160e+002, 2.091840e+003
3.390981e+002, 2.090809e+003
3.395802e+002, 2.090407e+003
3.400623e+002, 2.090702e+003
3.405444e+002, 2.091562e+003
3.410266e+002, 2.092285e+003
3.415087e+002, 2.092619e+003
3.419908e+002, 2.093894e+003
3.424729e+002, 2.097022e+003
3.429550e+002, 2.101940e+003
3.434371e+002, 2.107888e+003
3.439193e+002, 2.114974e+003
3.444014e+002, 2.122587e+003
3.448835e+002, 2.129041e+003
3.453656e+002, 2.134354e+003
3.458477e+002, 2.140878e+003
3.463298e+002, 2.150889e+003
3.468120e+002, 2.163419e+003
3.472941e+002, 2.173403e+003
3.477762e+002, 2.180516e+003
3.482583e+002, 2.186910e+003
3.487404e+002, 2.196271e+003
3.492225e+002, 2.207566e+003
3.497047e+002, 2.216356e+003
3.501868e+002, 2.221174e+003
3.506689e+002, 2.222336e+003
3.511510e+002, 2.219291e+003
3.516331e+002, 2.212101e+003
3.521152e+002, 2.204280e+003
3.525974e+002, 2.198268e+003
3.530795e+002, 2.193728e+003
3.535616e+002, 2.189969e+003
3.540437e+002, 2.186367e+003
3.545258e+002, 2.184015e+003
3.550079e+002, 2.184785e+003
3.554901e+002, 2.188095e+003
3.559722e+002, 2.191309e+003
3.564543e+002, 2.191835e+003
3.569364e+002, 2.191923e+003
3.574185e+002, 2.194417e+003
3.579006e+002, 2.201057e+003
3.583828e+002, 2.206789e+003
3.588649e+002, 2.207830e+003
3.593470e+002, 2.205720e+003
3.598291e+002, 2.203603e+003
3.603112e+002, 2.204992e+003
3.607933e+002, 2.205169e+003
3.612755e+002, 2.200397e+003
3.617576e+002, 2.189544e+003
3.622397e+002, 2.179546e+003
3.627218e+002, 2.174269e+003
3.632039e+002, 2.170771e+003
3.636860e+002, 2.165773e+003
3.641682e+002, 2.155982e+003
3.646503e+002, 2.146866e+003
3.651324e+002, 2.140770e+003
3.656145e+002, 2.137533e+003
3.660966e+002, 2.133815e+003
3.665787e+002, 2.128004e+003
3.670609e+002, 2.122219e+003
3.675430e+002, 2.117823e+003
3.680251e+002, 2.116374e+003
3.685072e+002, 2.114614e+003
3.689893e+002, 2.112389e+003
3.694714e+002, 2.109736e+003
3.699536e+002, 2.106756e+003
3.704357e+002, 2.102928e+003
3.709178e+002, 2.099325e+003
3.713999e+002, 2.096371e+003
3.718820e+002, 2.094055e+003
3.723641e+002, 2.092343e+003
3.728463e+002, 2.091085e+003
3.733284e+002, 2.090532e+003
3.738105e+002, 2.091155e+003
3.742926e+002, 2.093318e+003
3.747747e+002, 2.095817e+003
3.752568e+002, 2.098286e+003
3.757390e+002, 2.100718e+003
3.762211e+002, 2.103792e+003
3.767032e+002, 2.107963e+003
3.771853e+002, 2.111826e+003
3.776674e+002, 2.113846e+003
3.781495e+002, 2.113787e+003
3.786317e+002, 2.114010e+003
3.791138e+002, 2.115161e+003
3.795959e+002, 2.116784e+003
3.800780e+002, 2.117536e+003
3.805601e+002, 2.117399e+003
3.810422e+002, 2.116667e+003
3.815244e+002, 2.115266e+003
3.820065e+002, 2.113365e+003
3.824886e+002, 2.112026e+003
3.829707e+002, 2.111546e+003
3.834528e+002, 2.111147e+003
3.839349e+002, 2.109337e+003
3.844171e+002, 2.106427e+003
3.848992e+002, 2.104053e+003
3.853813e+002, 2.103754e+003
3.858634e+002, 2.104251e+003
3.863455e+002, 2.102751e+003
3.868276e+002, 2.099062e+003
3.873098e+002, 2.096013e+003
3.877919e+002, 2.097228e+003
3.882740e+002, 2.100577e+003
3.887561e+002, 2.102190e+003
3.892382e+002, 2.099154e+003
3.897203e+002, 2.095439e+003
3.902025e+002, 2.094214e+003
3.906846e+002, 2.095172e+003
3.911667e+002, 2.096940e+003
3.916488e+002, 2.099985e+003
3.921309e+002, 2.102803e+003
3.926130e+002, 2.103959e+003
3.930952e+002, 2.102444e+003
3.935773e+002, 2.100865e+003
3.940594e+002, 2.099995e+003
3.945415e+002, 2.099869e+003
3.950236e+002, 2.100540e+003
3.955057e+002, 2.102486e+003
3.959879e+002, 2.104874e+003
3.964700e+002, 2.107626e+003
3.969521e+002, 2.110912e+003
3.974342e+002, 2.113513e+003
3.979163e+002, 2.114862e+003
3.983984e+002, 2.115649e+003
3.988806e+002, 2.116503e+003
3.993627e+002, 2.117868e+003
3.998448e+002, 2.118816e+003
4.003269e+002, 2.118485e+003
4.008090e+002, 2.117276e+003
4.012911e+002, 2.118312e+003
4.017733e+002, 2.122865e+003
4.022554e+002, 2.128146e+003
4.027375e+002, 2.132814e+003
4.032196e+002, 2.136909e+003
4.037017e+002, 2.140211e+003
4.041838e+002, 2.142266e+003
4.046660e+002, 2.143871e+003
4.051481e+002, 2.146668e+003
4.056302e+002, 2.151094e+003
4.061123e+002, 2.155196e+003
4.065944e+002, 2.158290e+003
4.070765e+002, 2.160413e+003
4.075587e+002, 2.161923e+003
4.080408e+002, 2.162631e+003
4.085229e+002, 2.163424e+003
4.090050e+002, 2.165253e+003
4.094871e+002, 2.168050e+003
4.099692e+002, 2.171317e+003
4.104514e+002, 2.175528e+003
4.109335e+002, 2.179473e+003
4.114156e+002, 2.179884e+003
4.118977e+002, 2.177051e+003
4.123798e+002, 2.174519e+003
4.128619e+002, 2.175593e+003
4.133441e+002, 2.178480e+003
4.138262e+002, 2.179597e+003
4.143083e+002, 2.178370e+003
4.147904e+002, 2.176343e+003
4.152725e+002, 2.174424e+003
4.157546e+002, 2.172855e+003
4.162368e+002, 2.172077e+003
4.167189e+002, 2.173375e+003
4.172010e+002, 2.174806e+003
4.176831e+002, 2.174462e+003
4.181652e+002, 2.172450e+003
4.186473e+002, 2.170857e+003
4.191295e+002, 2.171280e+003
4.196116e+002, 2.172404e+003
4.200937e+002, 2.173032e+003
4.205758e+002, 2.172390e+003
4.210579e+002, 2.171921e+003
4.215400e+002, 2.171836e+003
4.220222e+002, 2.172261e+003
4.225043e+002, 2.173498e+003
4.229864e+002, 2.177056e+003
4.234685e+002, 2.180213e+003
4.239506e+002, 2.181913e+003
4.244327e+002, 2.181759e+003
4.249149e+002, 2.181268e+003
4.253970e+002, 2.179310e+003
4.258791e+002, 2.177704e+003
4.263612e+002, 2.178372e+003
4.268433e+002, 2.183111e+003
4.273254e+002, 2.187193e+003
4.278076e+002, 2.189551e+003
4.282897e+002, 2.190522e+003
4.287718e+002, 2.192609e+003
4.292539e+002, 2.196295e+003
4.297360e+002, 2.199961e+003
4.302181e+002, 2.202780e+003
4.307003e+002, 2.204806e+003
4.311824e+002, 2.205142e+003
4.316645e+002, 2.203106e+003
4.321466e+002, 2.200468e+003
4.326287e+002, 2.200523e+003
4.331108e+002, 2.203336e+003
4.335930e+002, 2.206320e+003
4.340751e+002, 2.208821e+003
4.345572e+002, 2.210743e+003
4.350393e+002, 2.211247e+003
4.355214e+002, 2.210312e+003
4.360035e+002, 2.209692e+003
4.364857e+002, 2.211265e+003
4.369678e+002, 2.214349e+003
4.374499e+002, 2.217383e+003
4.379320e+002, 2.220127e+003
4.384141e+002, 2.222474e+003
4.388962e+002, 2.223958e+003
4.393784e+002, 2.224863e+003
4.398605e+002, 2.226048e+003
4.403426e+002, 2.228449e+003
4.408247e+002, 2.230986e+003
4.413068e+002, 2.232771e+003
4.417889e+002, 2.233668e+003
4.422711e+002, 2.234192e+003
4.427532e+002, 2.233925e+003
4.432353e+002, 2.233676e+003
4.437174e+002, 2.234288e+003
4.441995e+002, 2.237072e+003
4.446816e+002, 2.239599e+003
4.451638e+002, 2.240824e+003
4.456459e+002, 2.241098e+003
4.461280e+002, 2.242102e+003
4.466101e+002, 2.244527e+003
4.470922e+002, 2.247365e+003
4.475743e+002, 2.250401e+003
4.480565e+002, 2.254313e+003
4.485386e+002, 2.256607e+003
4.490207e+002, 2.256574e+003
4.495028e+002, 2.255358e+003
4.499849e+002, 2.254280e+003
4.504670e+002, 2.252974e+003
4.509492e+002, 2.252728e+003
4.514313e+002, 2.254304e+003
4.519134e+002, 2.257337e+003
4.523955e+002, 2.258933e+003
4.528776e+002, 2.258858e+003
4.533597e+002, 2.258174e+003
4.538419e+002, 2.257114e+003
4.543240e+002, 2.255739e+003
4.548061e+002, 2.256094e+003
4.552882e+002, 2.258689e+003
4.557703e+002, 2.262164e+003
4.562524e+002, 2.264500e+003
4.567346e+002, 2.265833e+003
4.572167e+002, 2.266858e+003
4.576988e+002, 2.267301e+003
4.581809e+002, 2.267865e+003
4.586630e+002, 2.270355e+003
4.591451e+002, 2.274587e+003
4.596273e+002, 2.278287e+003
4.601094e+002, 2.279061e+003
4.605915e+002, 2.278446e+003
4.610736e+002, 2.278499e+003
4.615557e+002, 2.279990e+003
4.620378e+002, 2.281526e+003
4.625200e+002, 2.281387e+003
4.630021e+002, 2.280724e+003
4.634842e+002, 2.281771e+003
4.639663e+002, 2.288151e+003
4.644484e+002, 2.294112e+003
4.649305e+002, 2.296113e+003
4.654127e+002, 2.293730e+003
4.658948e+002, 2.292774e+003
4.663769e+002, 2.295926e+003
4.668590e+002, 2.300051e+003
4.673411e+002, 2.302877e+003
4.678232e+002, 2.303133e+003
4.683054e+002, 2.303626e+003
4.687875e+002, 2.304252e+003
4.692696e+002, 2.305181e+003
4.697517e+002, 2.306953e+003
4.702338e+002, 2.310017e+003
4.707159e+002, 2.313029e+003
4.711981e+002, 2.315478e+003
4.716802e+002, 2.317332e+003
4.721623e+002, 2.319133e+003
4.726444e+002, 2.320672e+003
4.731265e+002, 2.322634e+003
4.736086e+002, 2.326233e+003
4.740908e+002, 2.331414e+003
4.745729e+002, 2.335061e+003
4.750550e+002, 2.336262e+003
4.755371e+002, 2.336161e+003
4.760192e+002, 2.336494e+003
4.765013e+002, 2.337293e+003
4.769835e+002, 2.338894e+003
4.774656e+002, 2.342372e+003
4.779477e+002, 2.346448e+003
4.784298e+002, 2.348759e+003
4.789119e+002, 2.349155e+003
4.793940e+002, 2.349449e+003
4.798762e+002, 2.351068e+003
4.803583e+002, 2.353451e+003
4.808404e+002, 2.355921e+003
4.813225e+002, 2.358817e+003
4.818046e+002, 2.361107e+003
4.822867e+002, 2.361823e+003
4.827689e+002, 2.361539e+003
4.832510e+002, 2.361683e+003
4.837331e+002, 2.362539e+003
4.842152e+002, 2.364171e+003
4.846973e+002, 2.366888e+003
4.851794e+002, 2.371058e+003
4.856616e+002, 2.374687e+003
4.861437e+002, 2.377374e+003
4.866258e+002, 2.379596e+003
4.871079e+002, 2.381685e+003
4.875900e+002, 2.383340e+003
4.880721e+002, 2.385368e+003
4.885543e+002, 2.387963e+003
4.890364e+002, 2.390883e+003
4.895185e+002, 2.393543e+003
4.900006e+002, 2.395987e+003
4.904827e+002, 2.397807e+003
4.909648e+002, 2.398811e+003
4.914470e+002, 2.398993e+003
4.919291e+002, 2.397922e+003
4.924112e+002, 2.395253e+003
4.928933e+002, 2.393047e+003
4.933754e+002, 2.394214e+003
4.938575e+002, 2.397927e+003
4.943397e+002, 2.400297e+003
4.948218e+002, 2.400034e+003
4.953039e+002, 2.398981e+003
4.957860e+002, 2.399563e+003
4.962681e+002, 2.401499e+003
4.967502e+002, 2.403779e+003
4.972324e+002, 2.405804e+003
4.977145e+002, 2.407990e+003
4.981966e+002, 2.410729e+003
4.986787e+002, 2.414054e+003
4.991608e+002, 2.417648e+003
4.996429e+002, 2.422011e+003
5.001251e+002, 2.426187e+003
5.006072e+002, 2.429366e+003
5.010893e+002, 2.429971e+003
5.015714e+002, 2.431363e+003
5.020535e+002, 2.435469e+003
5.025356e+002, 2.440802e+003
5.030178e+002, 2.444005e+003
5.034999e+002, 2.441890e+003
5.039820e+002, 2.440929e+003
5.044641e+002, 2.443545e+003
5.049462e+002, 2.450011e+003
5.054283e+002, 2.453524e+003
5.059105e+002, 2.453142e+003
5.063926e+002, 2.451318e+003
5.068747e+002, 2.449840e+003
5.073568e+002, 2.448846e+003
5.078389e+002, 2.447406e+003
5.083210e+002, 2.445297e+003
5.088032e+002, 2.443017e+003
5.092853e+002, 2.441585e+003
5.097674e+002, 2.440928e+003
5.102495e+002, 2.440017e+003
5.107316e+002, 2.437818e+003
5.112137e+002, 2.435283e+003
5.116959e+002, 2.434792e+003
5.121780e+002, 2.436182e+003
5.126601e+002, 2.437657e+003
5.131422e+002, 2.437723e+003
5.136243e+002, 2.437142e+003
5.141064e+002, 2.437074e+003
5.145886e+002, 2.438026e+003
5.150707e+002, 2.438412e+003
5.155528e+002, 2.436493e+003
5.160349e+002, 2.433623e+003
5.165170e+002, 2.431716e+003
5.169991e+002, 2.432218e+003
5.174813e+002, 2.433009e+003
5.179634e+002, 2.433300e+003
5.184455e+002, 2.433222e+003
5.189276e+002, 2.433785e+003
5.194097e+002, 2.435561e+003
5.198918e+002, 2.437631e+003
5.203740e+002, 2.439598e+003
5.208561e+002, 2.441345e+003
5.213382e+002, 2.443325e+003
5.218203e+002, 2.445446e+003
5.223024e+002, 2.447821e+003
5.227845e+002, 2.450757e+003
5.232667e+002, 2.454390e+003
5.237488e+002, 2.457595e+003
5.242309e+002, 2.460127e+003
5.247130e+002, 2.462038e+003
5.251951e+002, 2.463521e+003
5.256772e+002, 2.464580e+003
5.261594e+002, 2.465151e+003
5.266415e+002, 2.464718e+003
5.271236e+002, 2.463899e+003
5.276057e+002, 2.464157e+003
5.280878e+002, 2.465572e+003
5.285699e+002, 2.467409e+003
5.290521e+002, 2.469129e+003
5.295342e+002, 2.470907e+003
5.300163e+002, 2.472894e+003
5.304984e+002, 2.474833e+003
5.309805e+002, 2.477544e+003
5.314626e+002, 2.482231e+003
5.319448e+002, 2.487921e+003
5.324269e+002, 2.492712e+003
5.329090e+002, 2.494748e+003
5.333911e+002, 2.497057e+003
5.338732e+002, 2.501324e+003
5.343553e+002, 2.507640e+003
5.348375e+002, 2.511728e+003
5.353196e+002, 2.511811e+003
5.358017e+002, 2.511205e+003
5.362838e+002, 2.511643e+003
5.367659e+002, 2.513308e+003
5.372480e+002, 2.515391e+003
5.377302e+002, 2.517819e+003
5.382123e+002, 2.520701e+003
5.386944e+002, 2.524972e+003
5.391765e+002, 2.530962e+003
5.396586e+002, 2.534002e+003
5.401407e+002, 2.531714e+003
5.406229e+002, 2.526708e+003
5.411050e+002, 2.525408e+003
5.415871e+002, 2.527545e+003
5.420692e+002, 2.530055e+003
5.425513e+002, 2.531448e+003
5.430334e+002, 2.531936e+003
5.435156e+002, 2.531497e+003
5.439977e+002, 2.530118e+003
5.444798e+002, 2.529113e+003
5.449619e+002, 2.529664e+003
5.454440e+002, 2.530983e+003
5.459261e+002, 2.532115e+003
5.464083e+002, 2.531580e+003
5.468904e+002, 2.532484e+003
5.473725e+002, 2.537479e+003
5.478546e+002, 2.544454e+003
5.483367e+002, 2.549056e+003
5.488188e+002, 2.547637e+003
5.493010e+002, 2.546854e+003
5.497831e+002, 2.548615e+003
5.502652e+002, 2.552856e+003
5.507473e+002, 2.556295e+003
5.512294e+002, 2.559060e+003
5.517115e+002, 2.560814e+003
5.521937e+002, 2.560946e+003
5.526758e+002, 2.559186e+003
5.531579e+002, 2.558978e+003
5.536400e+002, 2.560918e+003
5.541221e+002, 2.563334e+003
5.546042e+002, 2.564081e+003
5.550864e+002, 2.563317e+003
5.555685e+002, 2.561768e+003
5.560506e+002, 2.559125e+003
5.565327e+002, 2.556498e+003
5.570148e+002, 2.555753e+003
5.574969e+002, 2.556463e+003
5.579791e+002, 2.557082e+003
5.584612e+002, 2.556166e+003
5.589433e+002, 2.555123e+003
5.594254e+002, 2.555519e+003
5.599075e+002, 2.557474e+003
5.603896e+002, 2.558490e+003
5.608718e+002, 2.556689e+003
5.613539e+002, 2.554075e+003
5.618360e+002, 2.552087e+003
5.623181e+002, 2.550519e+003
5.628002e+002, 2.550344e+003
5.632823e+002, 2.552749e+003
5.637645e+002, 2.556116e+003
5.642466e+002, 2.557926e+003
5.647287e+002, 2.557633e+003
5.652108e+002, 2.557010e+003
5.656929e+002, 2.556055e+003
5.661750e+002, 2.555145e+003
5.666572e+002, 2.556386e+003
5.671393e+002, 2.560089e+003
5.676214e+002, 2.563559e+003
5.681035e+002, 2.564646e+003
5.685856e+002, 2.564083e+003
5.690677e+002, 2.565151e+003
5.695499e+002, 2.568034e+003
5.700320e+002, 2.570759e+003
5.705141e+002, 2.571034e+003
5.709962e+002, 2.569978e+003
5.714783e+002, 2.569414e+003
5.719604e+002, 2.569867e+003
5.724426e+002, 2.570725e+003
5.729247e+002, 2.571845e+003
5.734068e+002, 2.573076e+003
5.738889e+002, 2.574169e+003
5.743710e+002, 2.574956e+003
5.748531e+002, 2.575726e+003
5.753353e+002, 2.576493e+003
5.758174e+002, 2.577304e+003
5.762995e+002, 2.578570e+003
5.767816e+002, 2.581117e+003
5.772637e+002, 2.583158e+003
5.777458e+002, 2.583630e+003
5.782280e+002, 2.581969e+003
5.787101e+002, 2.581777e+003
5.791922e+002, 2.583293e+003
5.796743e+002, 2.585738e+003
5.801564e+002, 2.588836e+003
5.806385e+002, 2.592471e+003
5.811207e+002, 2.594575e+003
5.816028e+002, 2.594412e+003
5.820849e+002, 2.593357e+003
5.825670e+002, 2.593042e+003
5.830491e+002, 2.593498e+003
5.835313e+002, 2.594843e+003
5.840134e+002, 2.597829e+003
5.844955e+002, 2.601219e+003
5.849776e+002, 2.603491e+003
5.854597e+002, 2.604961e+003
5.859418e+002, 2.607434e+003
5.864240e+002, 2.614126e+003
5.869061e+002, 2.620222e+003
5.873882e+002, 2.622560e+003
5.878703e+002, 2.619658e+003
5.883524e+002, 2.617339e+003
5.888345e+002, 2.615980e+003
5.893167e+002, 2.615663e+003
5.897988e+002, 2.616657e+003
5.902809e+002, 2.619913e+003
5.907630e+002, 2.622189e+003
5.912451e+002, 2.622792e+003
5.917272e+002, 2.622802e+003
5.922094e+002, 2.624492e+003
5.926915e+002, 2.627974e+003
5.931736e+002, 2.631257e+003
5.936557e+002, 2.633917e+003
5.941378e+002, 2.635784e+003
5.946199e+002, 2.635943e+003
5.951021e+002, 2.634614e+003
5.955842e+002, 2.633561e+003
5.960663e+002, 2.633802e+003
5.965484e+002, 2.635024e+003
5.970305e+002, 2.637138e+003
5.975126e+002, 2.640168e+003
5.979948e+002, 2.643030e+003
5.984769e+002, 2.645102e+003
5.989590e+002, 2.646720e+003
5.994411e+002, 2.648251e+003
5.999232e+002, 2.650431e+003
6.004053e+002, 2.651439e+003
6.008875e+002, 2.649960e+003
6.013696e+002, 2.647529e+003
6.018517e+002, 2.646243e+003
6.023338e+002, 2.646354e+003
6.028159e+002, 2.647230e+003
6.032980e+002, 2.649089e+003
6.037802e+002, 2.651530e+003
6.042623e+002, 2.652937e+003
6.047444e+002, 2.653131e+003
6.052265e+002, 2.653637e+003
6.057086e+002, 2.655434e+003
6.061907e+002, 2.658140e+003
6.066729e+002, 2.660654e+003
6.071550e+002, 2.662938e+003
6.076371e+002, 2.664703e+003
6.081192e+002, 2.665064e+003
6.086013e+002, 2.664985e+003
6.090834e+002, 2.665911e+003
6.095656e+002, 2.668398e+003
6.100477e+002, 2.670595e+003
6.105298e+002, 2.671427e+003
6.110119e+002, 2.671497e+003
6.114940e+002, 2.671490e+003
6.119761e+002, 2.671413e+003
6.124583e+002, 2.671562e+003
6.129404e+002, 2.671760e+003
6.134225e+002, 2.672323e+003
6.139046e+002, 2.674105e+003
6.143867e+002, 2.677885e+003
6.148688e+002, 2.681246e+003
6.153510e+002, 2.683303e+003
6.158331e+002, 2.684324e+003
6.163152e+002, 2.686084e+003
6.167973e+002, 2.688560e+003
6.172794e+002, 2.691429e+003
6.177615e+002, 2.694746e+003
6.182437e+002, 2.698143e+003
6.187258e+002, 2.700646e+003
6.192079e+002, 2.702148e+003
6.196900e+002, 2.703322e+003
6.201721e+002, 2.704633e+003
6.206542e+002, 2.705959e+003
6.211364e+002, 2.707188e+003
6.216185e+002, 2.708395e+003
6.221006e+002, 2.709321e+003
6.225827e+002, 2.710191e+003
6.230648e+002, 2.710688e+003
6.235469e+002, 2.710367e+003
6.240291e+002, 2.708075e+003
6.245112e+002, 2.706420e+003
6.249933e+002, 2.705950e+003
6.254754e+002, 2.706460e+003
6.259575e+002, 2.707198e+003
6.264396e+002, 2.708282e+003
6.269218e+002, 2.709406e+003
6.274039e+002, 2.710319e+003
6.278860e+002, 2.711162e+003
6.283681e+002, 2.712853e+003
6.288502e+002, 2.715407e+003
6.293323e+002, 2.718212e+003
6.298145e+002, 2.721033e+003
6.302966e+002, 2.723694e+003
6.307787e+002, 2.725575e+003
6.312608e+002, 2.726487e+003
6.317429e+002, 2.728093e+003
6.322250e+002, 2.732802e+003
6.327072e+002, 2.738278e+003
6.331893e+002, 2.741899e+003
6.336714e+002, 2.741227e+003
6.341535e+002, 2.741579e+003
6.346356e+002, 2.745418e+003
6.351177e+002, 2.750791e+003
6.355999e+002, 2.754597e+003
6.360820e+002, 2.755551e+003
6.365641e+002, 2.756945e+003
6.370462e+002, 2.759541e+003
6.375283e+002, 2.762889e+003
6.380104e+002, 2.765261e+003
6.384926e+002, 2.766427e+003
6.389747e+002, 2.768317e+003
6.394568e+002, 2.771975e+003
6.399389e+002, 2.777071e+003
6.404210e+002, 2.782489e+003
6.409031e+002, 2.788293e+003
6.413853e+002, 2.794313e+003
6.418674e+002, 2.799805e+003
6.423495e+002, 2.805814e+003
6.428316e+002, 2.813980e+003
6.433137e+002, 2.824811e+003
6.437958e+002, 2.835015e+003
6.442780e+002, 2.842168e+003
6.447601e+002, 2.848486e+003
6.452422e+002, 2.855783e+003
6.457243e+002, 2.863785e+003
6.462064e+002, 2.873732e+003
6.466885e+002, 2.886302e+003
6.471707e+002, 2.900333e+003
6.476528e+002, 2.914130e+003
6.481349e+002, 2.927766e+003
6.486170e+002, 2.941059e+003
6.490991e+002, 2.953800e+003
6.495812e+002, 2.966516e+003
6.500634e+002, 2.981212e+003
6.505455e+002, 2.997864e+003
6.510276e+002, 3.014274e+003
6.515097e+002, 3.030777e+003
6.519918e+002, 3.045851e+003
6.524739e+002, 3.057758e+003
6.529561e+002, 3.066280e+003
6.534382e+002, 3.071032e+003
6.539203e+002, 3.072669e+003
6.544024e+002, 3.069645e+003
6.548845e+002, 3.059968e+003
6.553666e+002, 3.043057e+003
6.558488e+002, 3.024628e+003
6.563309e+002, 3.004119e+003
6.568130e+002, 2.983887e+003
6.572951e+002, 2.965394e+003
6.577772e+002, 2.949172e+003
6.582593e+002, 2.933056e+003
6.587415e+002, 2.916293e+003
6.592236e+002, 2.900862e+003
6.597057e+002, 2.889622e+003
6.601878e+002, 2.882524e+003
6.606699e+002, 2.875303e+003
6.611520e+002, 2.867036e+003
6.616342e+002, 2.859149e+003
6.621163e+002, 2.854117e+003
6.625984e+002, 2.851150e+003
6.630805e+002, 2.848177e+003
6.635626e+002, 2.844211e+003
6.640447e+002, 2.840072e+003
6.645269e+002, 2.835510e+003
6.650090e+002, 2.831158e+003
6.654911e+002, 2.828749e+003
6.659732e+002, 2.831046e+003
6.664553e+002, 2.833205e+003
6.669374e+002, 2.833189e+003
6.674196e+002, 2.831194e+003
6.679017e+002, 2.829972e+003
6.683838e+002, 2.829808e+003
6.688659e+002, 2.829958e+003
6.693480e+002, 2.829800e+003
6.698301e+002, 2.829375e+003
6.703123e+002, 2.831053e+003
6.707944e+002, 2.835152e+003
6.712765e+002, 2.839018e+003
6.717586e+002, 2.839560e+003
6.722407e+002, 2.838251e+003
6.727228e+002, 2.838798e+003
6.732050e+002, 2.842058e+003
6.736871e+002, 2.844641e+003
6.741692e+002, 2.842652e+003
6.746513e+002, 2.839074e+003
6.751334e+002, 2.837451e+003
6.756155e+002, 2.839851e+003
6.760977e+002, 2.842375e+003
6.765798e+002, 2.844554e+003
6.770619e+002, 2.846166e+003
6.775440e+002, 2.846715e+003
6.780261e+002, 2.845205e+003
6.785082e+002, 2.844885e+003
6.789904e+002, 2.846745e+003
6.794725e+002, 2.849891e+003
6.799546e+002, 2.851937e+003
6.804367e+002, 2.852868e+003
6.809188e+002, 2.853967e+003
6.814009e+002, 2.856105e+003
6.818831e+002, 2.858573e+003
6.823652e+002, 2.860327e+003
6.828473e+002, 2.861317e+003
6.833294e+002, 2.861114e+003
6.838115e+002, 2.857149e+003
6.842936e+002, 2.853695e+003
6.847758e+002, 2.854511e+003
6.852579e+002, 2.859778e+003
6.857400e+002, 2.864349e+003
6.862221e+002, 2.866349e+003
6.867042e+002, 2.867685e+003
6.871863e+002, 2.869250e+003
6.876685e+002, 2.870955e+003
6.881506e+002, 2.873244e+003
6.886327e+002, 2.876299e+003
6.891148e+002, 2.879563e+003
6.895969e+002, 2.882386e+003
6.900790e+002, 2.884821e+003
6.905612e+002, 2.888030e+003
6.910433e+002, 2.892302e+003
6.915254e+002, 2.896203e+003
6.920075e+002, 2.897827e+003
6.924896e+002, 2.897840e+003
6.929717e+002, 2.897393e+003
6.934539e+002, 2.896534e+003
6.939360e+002, 2.895801e+003
6.944181e+002, 2.895880e+003
6.949002e+002, 2.896211e+003
6.953823e+002, 2.895930e+003
6.958644e+002, 2.893498e+003
6.963466e+002, 2.892251e+003
6.968287e+002, 2.893179e+003
6.973108e+002, 2.895547e+003
6.977929e+002, 2.897373e+003
6.982750e+002, 2.898603e+003
6.987571e+002, 2.899820e+003
6.992393e+002, 2.901344e+003
6.997214e+002, 2.902990e+003
7.002035e+002, 2.903938e+003
7.006856e+002, 2.904287e+003
7.011677e+002, 2.904773e+003
7.016498e+002, 2.905988e+003
7.021320e+002, 2.907437e+003
7.026141e+002, 2.908101e+003
7.030962e+002, 2.908149e+003
7.035783e+002, 2.909359e+003
7.040604e+002, 2.913434e+003
7.045425e+002, 2.918091e+003
7.050247e+002, 2.922352e+003
7.055068e+002, 2.926344e+003
7.059889e+002, 2.928031e+003
7.064710e+002, 2.925563e+003
7.069531e+002, 2.923111e+003
7.074352e+002, 2.923994e+003
7.079174e+002, 2.928737e+003
7.083995e+002, 2.930287e+003
7.088816e+002, 2.927957e+003
7.093637e+002, 2.925302e+003
7.098458e+002, 2.926658e+003
7.103279e+002, 2.930561e+003
7.108101e+002, 2.933452e+003
7.112922e+002, 2.934724e+003
7.117743e+002, 2.934965e+003
7.122564e+002, 2.933153e+003
7.127385e+002, 2.931229e+003
7.132206e+002, 2.931609e+003
7.137028e+002, 2.938050e+003
7.141849e+002, 2.942561e+003
7.146670e+002, 2.941788e+003
7.151491e+002, 2.939037e+003
7.156312e+002, 2.938904e+003
7.161133e+002, 2.942665e+003
7.165955e+002, 2.945312e+003
7.170776e+002, 2.945478e+003
7.175597e+002, 2.944621e+003
7.180418e+002, 2.946056e+003
7.185239e+002, 2.949551e+003
7.190060e+002, 2.952962e+003
7.194882e+002, 2.955203e+003
7.199703e+002, 2.957106e+003
7.204524e+002, 2.960008e+003
7.209345e+002, 2.963444e+003
7.214166e+002, 2.966207e+003
7.218987e+002, 2.967474e+003
7.223809e+002, 2.968116e+003
7.228630e+002, 2.967962e+003
7.233451e+002, 2.967258e+003
7.238272e+002, 2.967968e+003
7.243093e+002, 2.971422e+003
7.247914e+002, 2.974450e+003
7.252736e+002, 2.975778e+003
7.257557e+002, 2.975588e+003
7.262378e+002, 2.975836e+003
7.267199e+002, 2.976617e+003
7.272020e+002, 2.977418e+003
7.276841e+002, 2.977936e+003
7.281663e+002, 2.978277e+003
7.286484e+002, 2.978487e+003
7.291305e+002, 2.978605e+003
7.296126e+002, 2.979098e+003
7.300947e+002, 2.980537e+003
7.305768e+002, 2.982287e+003
7.310590e+002, 2.983869e+003
7.315411e+002, 2.985204e+003
7.320232e+002, 2.986301e+003
7.325053e+002, 2.986260e+003
7.329874e+002, 2.986634e+003
7.334695e+002, 2.988627e+003
7.339517e+002, 2.993083e+003
7.344338e+002, 2.995884e+003
7.349159e+002, 2.996742e+003
7.353980e+002, 2.996730e+003
7.358801e+002, 2.996596e+003
7.363622e+002, 2.996516e+003
7.368444e+002, 2.997438e+003
7.373265e+002, 2.999733e+003
7.378086e+002, 3.002057e+003
7.382907e+002, 3.003033e+003
7.387728e+002, 3.003371e+003
7.392549e+002, 3.003997e+003
7.397371e+002, 3.005479e+003
7.402192e+002, 3.006823e+003
7.407013e+002, 3.007519e+003
7.411834e+002, 3.008059e+003
7.416655e+002, 3.009063e+003
7.421476e+002, 3.010515e+003
7.426298e+002, 3.012378e+003
7.431119e+002, 3.014598e+003
7.435940e+002, 3.017180e+003
7.440761e+002, 3.020383e+003
7.445582e+002, 3.024046e+003
7.450403e+002, 3.027271e+003
7.455225e+002, 3.029720e+003
7.460046e+002, 3.031596e+003
7.464867e+002, 3.032977e+003
7.469688e+002, 3.033974e+003
7.474509e+002, 3.034856e+003
7.479330e+002, 3.035548e+003
7.484152e+002, 3.036335e+003
7.488973e+002, 3.037913e+003
7.493794e+002, 3.039752e+003
7.498615e+002, 3.039987e+003
7.503436e+002, 3.037206e+003
7.508257e+002, 3.035575e+003
7.513079e+002, 3.036741e+003
7.517900e+002, 3.039650e+003
7.522721e+002, 3.039940e+003
7.527542e+002, 3.037651e+003
7.532363e+002, 3.036146e+003
7.537184e+002, 3.037917e+003
7.542006e+002, 3.040954e+003
7.546827e+002, 3.041777e+003
7.551648e+002, 3.040934e+003
7.556469e+002, 3.040640e+003
7.561290e+002, 3.042823e+003
7.566111e+002, 3.045141e+003
7.570933e+002, 3.046076e+003
7.575754e+002, 3.045658e+003
7.580575e+002, 3.046124e+003
7.585396e+002, 3.048287e+003
7.590217e+002, 3.050177e+003
7.595038e+002, 3.050760e+003
7.599860e+002, 3.050215e+003
7.604681e+002, 3.050827e+003
7.609502e+002, 3.052604e+003
7.614323e+002, 3.055249e+003
7.619144e+002, 3.059398e+003
7.623965e+002, 3.063959e+003
7.628787e+002, 3.066755e+003
7.633608e+002, 3.067823e+003
7.638429e+002, 3.068599e+003
7.643250e+002, 3.070019e+003
7.648071e+002, 3.071362e+003
7.652892e+002, 3.071836e+003
7.657714e+002, 3.071151e+003
7.662535e+002, 3.071751e+003
7.667356e+002, 3.074437e+003
7.672177e+002, 3.077560e+003
7.676998e+002, 3.080547e+003
7.681819e+002, 3.083527e+003
7.686641e+002, 3.084336e+003
7.691462e+002, 3.082696e+003
7.696283e+002, 3.081065e+003
7.701104e+002, 3.081532e+003
7.705925e+002, 3.083458e+003
7.710746e+002, 3.085807e+003
7.715568e+002, 3.088487e+003
7.720389e+002, 3.091027e+003
7.725210e+002, 3.092696e+003
7.730031e+002, 3.094359e+003
7.734852e+002, 3.096897e+003
7.739673e+002, 3.101035e+003
7.744495e+002, 3.103849e+003
7.749316e+002, 3.104728e+003
7.754137e+002, 3.104834e+003
7.758958e+002, 3.105007e+003
7.763779e+002, 3.105272e+003
7.768600e+002, 3.104927e+003
7.773422e+002, 3.103762e+003
7.778243e+002, 3.103224e+003
7.783064e+002, 3.106283e+003
7.787885e+002, 3.110668e+003
7.792706e+002, 3.111510e+003
7.797527e+002, 3.107486e+003
7.802349e+002, 3.103663e+003
7.807170e+002, 3.103206e+003
7.811991e+002, 3.104293e+003
7.816812e+002, 3.105390e+003
7.821633e+002, 3.106445e+003
7.826454e+002, 3.107148e+003
7.831276e+002, 3.106931e+003
7.836097e+002, 3.107081e+003
7.840918e+002, 3.109419e+003
7.845739e+002, 3.113999e+003
7.850560e+002, 3.116552e+003
7.855381e+002, 3.116393e+003
7.860203e+002, 3.115504e+003
7.865024e+002, 3.116076e+003
7.869845e+002, 3.117430e+003
7.874666e+002, 3.118247e+003
7.879487e+002, 3.117867e+003
7.884308e+002, 3.118126e+003
7.889130e+002, 3.119521e+003
7.893951e+002, 3.122178e+003
7.898772e+002, 3.126433e+003
7.903593e+002, 3.134563e+003
7.908414e+002, 3.139793e+003
7.913235e+002, 3.140919e+003
7.918057e+002, 3.140605e+003
7.922878e+002, 3.142077e+003
7.927699e+002, 3.145187e+003
7.932520e+002, 3.147603e+003
7.937341e+002, 3.148891e+003
7.942162e+002, 3.149875e+003
7.946984e+002, 3.151868e+003
7.951805e+002, 3.154045e+003
7.956626e+002, 3.155002e+003
7.961447e+002, 3.153900e+003
7.966268e+002, 3.152826e+003
7.971089e+002, 3.152545e+003
7.975911e+002, 3.152720e+003
7.980732e+002, 3.152980e+003
7.985553e+002, 3.153462e+003
7.990374e+002, 3.153816e+003
7.995195e+002, 3.154050e+003
8.000016e+002, 3.154210e+003
8.004838e+002, 3.154252e+003
8.009659e+002, 3.154262e+003
8.014480e+002, 3.154762e+003
8.019301e+002, 3.156029e+003
8.024122e+002, 3.157128e+003
8.028943e+002, 3.156718e+003
8.033765e+002, 3.155757e+003
8.038586e+002, 3.155438e+003
8.043407e+002, 3.155854e+003
8.048228e+002, 3.157267e+003
8.053049e+002, 3.160744e+003
8.057870e+002, 3.164612e+003
8.062692e+002, 3.166907e+003
8.067513e+002, 3.166692e+003
8.072334e+002, 3.168891e+003
8.077155e+002, 3.174595e+003
8.081976e+002, 3.180691e+003
8.086797e+002, 3.182835e+003
8.091619e+002, 3.182033e+003
8.096440e+002, 3.181135e+003
8.101261e+002, 3.180612e+003
8.106082e+002, 3.180530e+003
8.110903e+002, 3.181076e+003
8.115724e+002, 3.182051e+003
8.120546e+002, 3.183263e+003
8.125367e+002, 3.184912e+003
8.130188e+002, 3.186561e+003
8.135009e+002, 3.188522e+003
8.139830e+002, 3.190268e+003
8.144651e+002, 3.190969e+003
8.149473e+002, 3.190563e+003
8.154294e+002, 3.191092e+003
8.159115e+002, 3.192936e+003
8.163936e+002, 3.195106e+003
8.168757e+002, 3.196617e+003
8.173578e+002, 3.197609e+003
8.178400e+002, 3.198061e+003
8.183221e+002, 3.197466e+003
8.188042e+002, 3.198020e+003
8.192863e+002, 3.201215e+003
8.197684e+002, 3.205702e+003
8.202505e+002, 3.210341e+003
8.207327e+002, 3.215710e+003
8.212148e+002, 3.219223e+003
8.216969e+002, 3.219976e+003
8.221790e+002, 3.220355e+003
8.226611e+002, 3.223904e+003
8.231432e+002, 3.229733e+003
8.236254e+002, 3.231434e+003
8.241075e+002, 3.227941e+003
8.245896e+002, 3.223699e+003
8.250717e+002, 3.222488e+003
8.255538e+002, 3.222983e+003
8.260359e+002, 3.223985e+003
8.265181e+002, 3.225715e+003
8.270002e+002, 3.226557e+003
8.274823e+002, 3.225641e+003
8.279644e+002, 3.224268e+003
8.284465e+002, 3.223121e+003
8.289286e+002, 3.222102e+003
8.294108e+002, 3.222512e+003
8.298929e+002, 3.224705e+003
8.303750e+002, 3.227129e+003
8.308571e+002, 3.228342e+003
8.313392e+002, 3.228754e+003
8.318214e+002, 3.229077e+003
8.323035e+002, 3.229372e+003
8.327856e+002, 3.229952e+003
8.332677e+002, 3.230462e+003
8.337498e+002, 3.231654e+003
8.342319e+002, 3.234360e+003
8.347141e+002, 3.239237e+003
8.351962e+002, 3.242793e+003
8.356783e+002, 3.244273e+003
8.361604e+002, 3.245522e+003
8.366425e+002, 3.248061e+003
8.371246e+002, 3.251684e+003
8.376068e+002, 3.253029e+003
8.380889e+002, 3.252050e+003
8.385710e+002, 3.251923e+003
8.390531e+002, 3.256275e+003
8.395352e+002, 3.262059e+003
8.400173e+002, 3.265736e+003
8.404995e+002, 3.267145e+003
8.409816e+002, 3.269088e+003
8.414637e+002, 3.274269e+003
8.419458e+002, 3.278417e+003
8.424279e+002, 3.279208e+003
8.429100e+002, 3.276716e+003
8.433922e+002, 3.275808e+003
8.438743e+002, 3.276618e+003
8.443564e+002, 3.278101e+003
8.448385e+002, 3.279982e+003
8.453206e+002, 3.281952e+003
8.458027e+002, 3.283427e+003
8.462849e+002, 3.284373e+003
8.467670e+002, 3.284618e+003
8.472491e+002, 3.282942e+003
8.477312e+002, 3.281607e+003
8.482133e+002, 3.282866e+003
8.486954e+002, 3.286257e+003
8.491776e+002, 3.286656e+003
8.496597e+002, 3.281793e+003
8.501418e+002, 3.278546e+003
8.506239e+002, 3.279655e+003
8.511060e+002, 3.283897e+003
8.515881e+002, 3.287696e+003
8.520703e+002, 3.290980e+003
8.525524e+002, 3.292929e+003
8.530345e+002, 3.291846e+003
8.535166e+002, 3.290397e+003
8.539987e+002, 3.290958e+003
8.544808e+002, 3.293036e+003
8.549630e+002, 3.295423e+003
8.554451e+002, 3.298304e+003
8.559272e+002, 3.300613e+003
8.564093e+002, 3.301972e+003
8.568914e+002, 3.302624e+003
8.573735e+002, 3.303332e+003
8.578557e+002, 3.304139e+003
8.583378e+002, 3.303880e+003
8.588199e+002, 3.301593e+003
8.593020e+002, 3.299454e+003
8.597841e+002, 3.301626e+003
8.602662e+002, 3.306305e+003
8.607484e+002, 3.309708e+003
8.612305e+002, 3.309902e+003
8.617126e+002, 3.309636e+003
8.621947e+002, 3.309631e+003
8.626768e+002, 3.309919e+003
8.631589e+002, 3.310486e+003
8.636411e+002, 3.311345e+003
8.641232e+002, 3.312650e+003
8.646053e+002, 3.314684e+003
8.650874e+002, 3.316504e+003
8.655695e+002, 3.317152e+003
8.660516e+002, 3.316562e+003
8.665338e+002, 3.313695e+003
8.670159e+002, 3.307422e+003
8.674980e+002, 3.303561e+003
8.679801e+002, 3.308354e+003
8.684622e+002, 3.316323e+003
8.689443e+002, 3.322366e+003
8.694265e+002, 3.325911e+003
8.699086e+002, 3.326639e+003
8.703907e+002, 3.322723e+003
8.708728e+002, 3.318938e+003
8.713549e+002, 3.319943e+003
8.718370e+002, 3.325230e+003
8.723192e+002, 3.328644e+003
8.728013e+002, 3.329980e+003
8.732834e+002, 3.330148e+003
8.737655e+002, 3.328806e+003
8.742476e+002, 3.327351e+003
8.747297e+002, 3.327305e+003
8.752119e+002, 3.328816e+003
8.756940e+002, 3.330372e+003
8.761761e+002, 3.330987e+003
8.766582e+002, 3.332231e+003
8.771403e+002, 3.335258e+003
8.776224e+002, 3.339778e+003
8.781046e+002, 3.341438e+003
8.785867e+002, 3.340115e+003
8.790688e+002, 3.338883e+003
8.795509e+002, 3.339905e+003
8.800330e+002, 3.341994e+003
8.805151e+002, 3.344178e+003
8.809973e+002, 3.346135e+003
8.814794e+002, 3.346562e+003
8.819615e+002, 3.342209e+003
8.824436e+002, 3.339233e+003
8.829257e+002, 3.340652e+003
8.834078e+002, 3.345102e+003
8.838900e+002, 3.349183e+003
8.843721e+002, 3.353033e+003
8.848542e+002, 3.355598e+003
8.853363e+002, 3.356134e+003
8.858184e+002, 3.355889e+003
8.863005e+002, 3.356625e+003
8.867827e+002, 3.358338e+003
8.872648e+002, 3.361086e+003
8.877469e+002, 3.365413e+003
8.882290e+002, 3.369884e+003
8.887111e+002, 3.374374e+003
8.891932e+002, 3.378384e+003
8.896754e+002, 3.381130e+003
8.901575e+002, 3.381812e+003
8.906396e+002, 3.383430e+003
8.911217e+002, 3.386566e+003
8.916038e+002, 3.389850e+003
8.920859e+002, 3.390797e+003
8.925681e+002, 3.390524e+003
8.930502e+002, 3.392645e+003
8.935323e+002, 3.397929e+003
8.940144e+002, 3.404145e+003
8.944965e+002, 3.410051e+003
8.949786e+002, 3.415939e+003
8.954608e+002, 3.421842e+003
8.959429e+002, 3.427149e+003
8.964250e+002, 3.434963e+003
8.969071e+002, 3.445968e+003
8.973892e+002, 3.457926e+003
8.978713e+002, 3.469118e+003
8.983535e+002, 3.479848e+003
8.988356e+002, 3.491180e+003
8.993177e+002, 3.503153e+003
8.997998e+002, 3.516195e+003
9.002819e+002, 3.530552e+003
9.007640e+002, 3.546257e+003
9.012462e+002, 3.563800e+003
9.017283e+002, 3.582957e+003
9.022104e+002, 3.602810e+003
9.026925e+002, 3.621596e+003
9.031746e+002, 3.643108e+003
9.036567e+002, 3.668522e+003
9.041389e+002, 3.697540e+003
9.046210e+002, 3.729771e+003
9.051031e+002, 3.765250e+003
9.055852e+002, 3.805191e+003
9.060673e+002, 3.849843e+003
9.065494e+002, 3.899481e+003
9.070316e+002, 3.955901e+003
9.075137e+002, 4.016882e+003
9.079958e+002, 4.079395e+003
9.084779e+002, 4.147558e+003
9.089600e+002, 4.210455e+003
9.094421e+002, 4.272484e+003
9.099243e+002, 4.323046e+003
9.104064e+002, 4.350907e+003
9.108885e+002, 4.355751e+003
9.113706e+002, 4.334303e+003
9.118527e+002, 4.284933e+003
9.123348e+002, 4.216859e+003
9.128170e+002, 4.126905e+003
9.132991e+002, 4.029663e+003
9.137812e+002, 3.940496e+003
9.142633e+002, 3.861480e+003
9.147454e+002, 3.793289e+003
9.152275e+002, 3.737542e+003
9.157097e+002, 3.690128e+003
9.161918e+002, 3.649019e+003
9.166739e+002, 3.614224e+003
9.171560e+002, 3.586932e+003
9.176381e+002, 3.567386e+003
9.181202e+002, 3.551240e+003
9.186024e+002, 3.535570e+003
9.190845e+002, 3.521731e+003
9.195666e+002, 3.511991e+003
9.200487e+002, 3.505805e+003
9.205308e+002, 3.499453e+003
9.210129e+002, 3.490371e+003
9.214951e+002, 3.482817e+003
9.219772e+002, 3.477981e+003
9.224593e+002, 3.475236e+003
9.229414e+002, 3.472999e+003
9.234235e+002, 3.471249e+003
9.239056e+002, 3.469364e+003
9.243878e+002, 3.467046e+003
9.248699e+002, 3.464634e+003
9.253520e+002, 3.462207e+003
9.258341e+002, 3.460016e+003
9.263162e+002, 3.458413e+003
9.267983e+002, 3.457042e+003
9.272805e+002, 3.457198e+003
9.277626e+002, 3.460548e+003
9.282447e+002, 3.463959e+003
9.287268e+002, 3.464083e+003
9.292089e+002, 3.460969e+003
9.296910e+002, 3.456988e+003
9.301732e+002, 3.452204e+003
9.306553e+002, 3.448703e+003
9.311374e+002, 3.448926e+003
9.316195e+002, 3.451207e+003
9.321016e+002, 3.453781e+003
9.325837e+002, 3.456394e+003
9.330659e+002, 3.459614e+003
9.335480e+002, 3.465509e+003
9.340301e+002, 3.469440e+003
9.345122e+002, 3.468387e+003
9.349943e+002, 3.463471e+003
9.354764e+002, 3.463372e+003
9.359586e+002, 3.467896e+003
9.364407e+002, 3.472190e+003
9.369228e+002, 3.473927e+003
9.374049e+002, 3.474123e+003
9.378870e+002, 3.473077e+003
9.383691e+002, 3.471388e+003
9.388513e+002, 3.470481e+003
9.393334e+002, 3.471368e+003
9.398155e+002, 3.472467e+003
9.402976e+002, 3.474092e+003
9.407797e+002, 3.475453e+003
9.412618e+002, 3.474912e+003
9.417440e+002, 3.472695e+003
9.422261e+002, 3.470957e+003
9.427082e+002, 3.469959e+003
9.431903e+002, 3.470243e+003
9.436724e+002, 3.472300e+003
9.441545e+002, 3.475862e+003
9.446367e+002, 3.481181e+003
9.451188e+002, 3.489161e+003
9.456009e+002, 3.494689e+003
9.460830e+002, 3.496525e+003
9.465651e+002, 3.497035e+003
9.470472e+002, 3.497384e+003
9.475294e+002, 3.497496e+003
9.480115e+002, 3.497350e+003
9.484936e+002, 3.496872e+003
9.489757e+002, 3.495529e+003
9.494578e+002, 3.492373e+003
9.499399e+002, 3.488816e+003
9.504221e+002, 3.486100e+003
9.509042e+002, 3.484029e+003
9.513863e+002, 3.481624e+003
9.518684e+002, 3.478554e+003
9.523505e+002, 3.476007e+003
9.528326e+002, 3.474582e+003
9.533148e+002, 3.473554e+003
9.537969e+002, 3.471246e+003
9.542790e+002, 3.468061e+003
9.547611e+002, 3.465335e+003
9.552432e+002, 3.463165e+003
9.557253e+002, 3.462498e+003
9.562075e+002, 3.465361e+003
9.566896e+002, 3.469219e+003
9.571717e+002, 3.471315e+003
9.576538e+002, 3.470309e+003
9.581359e+002, 3.470835e+003
9.586180e+002, 3.473037e+003
9.591002e+002, 3.476148e+003
9.595823e+002, 3.480027e+003
9.600644e+002, 3.484242e+003
9.605465e+002, 3.487144e+003
9.610286e+002, 3.488924e+003
9.615107e+002, 3.491327e+003
9.619929e+002, 3.496888e+003
9.624750e+002, 3.501844e+003
9.629571e+002, 3.502669e+003
9.634392e+002, 3.501193e+003
9.639213e+002, 3.504703e+003
9.644034e+002, 3.514912e+003
9.648856e+002, 3.523117e+003
9.653677e+002, 3.526910e+003
9.658498e+002, 3.528421e+003
9.663319e+002, 3.529802e+003
9.668140e+002, 3.531754e+003
9.672961e+002, 3.536149e+003
9.677783e+002, 3.545071e+003
9.682604e+002, 3.552255e+003
9.687425e+002, 3.553961e+003
9.692246e+002, 3.554053e+003
9.697067e+002, 3.555557e+003
9.701888e+002, 3.558637e+003
9.706710e+002, 3.561412e+003
9.711531e+002, 3.563680e+003
9.716352e+002, 3.567164e+003
9.721173e+002, 3.574685e+003
9.725994e+002, 3.583171e+003
9.730815e+002, 3.588015e+003
9.735637e+002, 3.589761e+003
9.740458e+002, 3.592631e+003
9.745279e+002, 3.599456e+003
9.750100e+002, 3.605837e+003
9.754921e+002, 3.611052e+003
9.759742e+002, 3.614990e+003
9.764564e+002, 3.617898e+003
9.769385e+002, 3.619727e+003
9.774206e+002, 3.617913e+003
9.779027e+002, 3.610975e+003
9.783848e+002, 3.603167e+003
9.788669e+002, 3.599289e+003
9.793491e+002, 3.596576e+003
9.798312e+002, 3.591547e+003
9.803133e+002, 3.582529e+003
9.807954e+002, 3.573712e+003
9.812775e+002, 3.564081e+003
9.817596e+002, 3.556514e+003
9.822418e+002, 3.553899e+003
9.827239e+002, 3.555141e+003
9.832060e+002, 3.553990e+003
9.836881e+002, 3.550768e+003
9.841702e+002, 3.549031e+003
9.846523e+002, 3.553013e+003
9.851345e+002, 3.557036e+003
9.856166e+002, 3.556897e+003
9.860987e+002, 3.553855e+003
9.865808e+002, 3.553098e+003
9.870629e+002, 3.555413e+003
9.875450e+002, 3.557627e+003
9.880272e+002, 3.559252e+003
9.885093e+002, 3.560324e+003
9.889914e+002, 3.560526e+003
9.894735e+002, 3.560324e+003
9.899556e+002, 3.560539e+003
9.904377e+002, 3.561275e+003
9.909199e+002, 3.562953e+003
9.914020e+002, 3.566456e+003
9.918841e+002, 3.570458e+003
9.923662e+002, 3.574094e+003
9.928483e+002, 3.577303e+003
9.933304e+002, 3.581050e+003
9.938126e+002, 3.585425e+003
9.942947e+002, 3.588673e+003
9.947768e+002, 3.589611e+003
9.952589e+002, 3.588831e+003
9.957410e+002, 3.586329e+003
9.962231e+002, 3.582663e+003
9.967053e+002, 3.579378e+003
9.971874e+002, 3.578852e+003
9.976695e+002, 3.575640e+003
9.981516e+002, 3.566828e+003
9.986337e+002, 3.557514e+003
9.991158e+002, 3.556956e+003
9.995980e+002, 3.563652e+003
1.000080e+003, 3.566914e+003
1.000562e+003, 3.565009e+003
1.001044e+003, 3.561404e+003
1.001526e+003, 3.557486e+003
1.002009e+003, 3.553966e+003
1.002491e+003, 3.551532e+003
1.002973e+003, 3.550329e+003
1.003455e+003, 3.549613e+003
1.003937e+003, 3.549302e+003
1.004419e+003, 3.550001e+003
1.004901e+003, 3.552855e+003
1.005383e+003, 3.556177e+003
1.005865e+003, 3.555218e+003
1.006348e+003, 3.551588e+003
1.006830e+003, 3.549853e+003
1.007312e+003, 3.554488e+003
1.007794e+003, 3.558179e+003
1.008276e+003, 3.557042e+003
1.008758e+003, 3.554821e+003
1.009240e+003, 3.555667e+003
1.009722e+003, 3.559894e+003
1.010205e+003, 3.563924e+003
1.010687e+003, 3.567685e+003
1.011169e+003, 3.570018e+003
1.011651e+003, 3.568269e+003
1.012133e+003, 3.565722e+003
1.012615e+003, 3.566696e+003
1.013097e+003, 3.571192e+003
1.013579e+003, 3.573261e+003
1.014061e+003, 3.569700e+003
1.014544e+003, 3.567560e+003
1.015026e+003, 3.569505e+003
1.015508e+003, 3.573559e+003
1.015990e+003, 3.574654e+003
1.016472e+003, 3.573487e+003
1.016954e+003, 3.572944e+003
1.017436e+003, 3.574114e+003
1.017918e+003, 3.575559e+003
1.018401e+003, 3.576392e+003
1.018883e+003, 3.577050e+003
1.019365e+003, 3.578005e+003
1.019847e+003, 3.579363e+003
1.020329e+003, 3.580747e+003
1.020811e+003, 3.582258e+003
1.021293e+003, 3.583368e+003
1.021775e+003, 3.583136e+003
1.022257e+003, 3.582583e+003
1.022740e+003, 3.584079e+003
1.023222e+003, 3.586831e+003
1.023704e+003, 3.587768e+003
1.024186e+003, 3.582020e+003
1.024668e+003, 3.579419e+003
1.025150e+003, 3.583510e+003
1.025632e+003, 3.590130e+003
1.026114e+003, 3.591619e+003
1.026596e+003, 3.588667e+003
1.027079e+003, 3.588510e+003
1.027561e+003, 3.592668e+003
1.028043e+003, 3.596416e+003
1.028525e+003, 3.595153e+003
1.029007e+003, 3.592368e+003
1.029489e+003, 3.590892e+003
1.029971e+003, 3.591059e+003
1.030453e+003, 3.592026e+003
1.030936e+003, 3.594134e+003
1.031418e+003, 3.595962e+003
1.031900e+003, 3.596561e+003
1.032382e+003, 3.596943e+003
1.032864e+003, 3.599254e+003
1.033346e+003, 3.602927e+003
1.033828e+003, 3.606622e+003
1.034310e+003, 3.610774e+003
1.034792e+003, 3.613438e+003
1.035275e+003, 3.613405e+003
1.035757e+003, 3.612356e+003
1.036239e+003, 3.611510e+003
1.036721e+003, 3.610892e+003
1.037203e+003, 3.611252e+003
1.037685e+003, 3.612626e+003
1.038167e+003, 3.613530e+003
1.038649e+003, 3.612198e+003
1.039132e+003, 3.610581e+003
1.039614e+003, 3.610808e+003
1.040096e+003, 3.612320e+003
1.040578e+003, 3.611802e+003
1.041060e+003, 3.607995e+003
1.041542e+003, 3.604862e+003
1.042024e+003, 3.602789e+003
1.042506e+003, 3.602274e+003
1.042989e+003, 3.605623e+003
1.043471e+003, 3.610656e+003
1.043953e+003, 3.612312e+003
1.044435e+003, 3.608850e+003
1.044917e+003, 3.606550e+003
1.045399e+003, 3.609732e+003
1.045881e+003, 3.612680e+003
1.046363e+003, 3.612163e+003
1.046845e+003, 3.608787e+003
1.047328e+003, 3.607339e+003
1.047810e+003, 3.607757e+003
1.048292e+003, 3.608713e+003
1.048774e+003, 3.610229e+003
1.049256e+003, 3.611281e+003
1.049738e+003, 3.611396e+003
1.050220e+003, 3.610433e+003
1.050702e+003, 3.607809e+003
1.051184e+003, 3.601307e+003
1.051667e+003, 3.598839e+003
1.052149e+003, 3.601323e+003
1.052631e+003, 3.605270e+003
1.053113e+003, 3.608292e+003
1.053595e+003, 3.610337e+003
1.054077e+003, 3.611165e+003
1.054559e+003, 3.610867e+003
1.055041e+003, 3.610187e+003
1.055523e+003, 3.608508e+003
1.056006e+003, 3.607728e+003
1.056488e+003, 3.608841e+003
1.056970e+003, 3.610760e+003
1.057452e+003, 3.611293e+003
1.057934e+003, 3.610566e+003
1.058416e+003, 3.609293e+003
1.058898e+003, 3.607524e+003
1.059380e+003, 3.605992e+003
1.059863e+003, 3.604551e+003
1.060345e+003, 3.604199e+003
1.060827e+003, 3.606573e+003
1.061309e+003, 3.611808e+003
1.061791e+003, 3.614577e+003
1.062273e+003, 3.614529e+003
1.062755e+003, 3.613364e+003
1.063237e+003, 3.611191e+003
1.063719e+003, 3.609080e+003
1.064202e+003, 3.608903e+003
1.064684e+003, 3.609955e+003
1.065166e+003, 3.610920e+003
1.065648e+003, 3.611140e+003
1.066130e+003, 3.611794e+003
1.066612e+003, 3.613603e+003
1.067094e+003, 3.615004e+003
1.067576e+003, 3.613583e+003
1.068059e+003, 3.610382e+003
1.068541e+003, 3.612352e+003
1.069023e+003, 3.618970e+003
1.069505e+003, 3.625249e+003
1.069987e+003, 3.628783e+003
1.070469e+003, 3.630574e+003
1.070951e+003, 3.630588e+003
1.071433e+003, 3.629282e+003
1.071916e+003, 3.626970e+003
1.072398e+003, 3.623363e+003
1.072880e+003, 3.621496e+003
1.073362e+003, 3.621862e+003
1.073844e+003, 3.623570e+003
1.074326e+003, 3.627522e+003
1.074808e+003, 3.631186e+003
1.075290e+003, 3.630617e+003
1.075772e+003, 3.625554e+003
1.076255e+003, 3.625113e+003
1.076737e+003, 3.632424e+003
1.077219e+003, 3.638191e+003
1.077701e+003, 3.639011e+003
1.078183e+003, 3.637149e+003
1.078665e+003, 3.635883e+003
1.079147e+003, 3.635599e+003
1.079629e+003, 3.637705e+003
1.080111e+003, 3.644042e+003
1.080594e+003, 3.648271e+003
1.081076e+003, 3.645544e+003
1.081558e+003, 3.642500e+003
1.082040e+003, 3.643197e+003
1.082522e+003, 3.647141e+003
1.083004e+003, 3.649193e+003
1.083486e+003, 3.649600e+003
1.083968e+003, 3.650772e+003
1.084450e+003, 3.656049e+003
1.084933e+003, 3.660292e+003
1.085415e+003, 3.658862e+003
1.085897e+003, 3.654838e+003
1.086379e+003, 3.653371e+003
1.086861e+003, 3.655544e+003
1.087343e+003, 3.656198e+003
1.087825e+003, 3.654894e+003
1.088307e+003, 3.653712e+003
1.088790e+003, 3.655750e+003
1.089272e+003, 3.658130e+003
1.089754e+003, 3.655960e+003
1.090236e+003, 3.650379e+003
1.090718e+003, 3.648630e+003
1.091200e+003, 3.655351e+003
1.091682e+003, 3.659800e+003
1.092164e+003, 3.659723e+003
1.092646e+003, 3.657414e+003
1.093129e+003, 3.655393e+003
1.093611e+003, 3.654077e+003
1.094093e+003, 3.655260e+003
1.094575e+003, 3.659457e+003
1.095057e+003, 3.661714e+003
1.095539e+003, 3.656142e+003
1.096021e+003, 3.652246e+003
1.096503e+003, 3.655297e+003
1.096986e+003, 3.662741e+003
1.097468e+003, 3.664025e+003
1.097950e+003, 3.660001e+003
1.098432e+003, 3.657927e+003
1.098914e+003, 3.660583e+003
1.099396e+003, 3.664539e+003
1.099878e+003, 3.669531e+003
1.100360e+003, 3.673098e+003
1.100843e+003, 3.672124e+003
1.101325e+003, 3.665962e+003
1.101807e+003, 3.662591e+003
1.102289e+003, 3.662175e+003
1.102771e+003, 3.662643e+003
1.103253e+003, 3.663137e+003
1.103735e+003, 3.663606e+003
1.104217e+003, 3.663669e+003
1.104699e+003, 3.663733e+003
1.105182e+003, 3.664651e+003
1.105664e+003, 3.668406e+003
1.106146e+003, 3.669299e+003
1.106628e+003, 3.666353e+003
1.107110e+003, 3.662794e+003
1.107592e+003, 3.660947e+003
1.108074e+003, 3.660769e+003
1.108556e+003, 3.662810e+003
1.109038e+003, 3.666599e+003
1.109521e+003, 3.669734e+003
1.110003e+003, 3.669925e+003
1.110485e+003, 3.671391e+003
1.110967e+003, 3.676285e+003
1.111449e+003, 3.681289e+003
1.111931e+003, 3.679765e+003
1.112413e+003, 3.673694e+003
1.112895e+003, 3.672820e+003
1.113377e+003, 3.678364e+003
1.113860e+003, 3.683957e+003
1.114342e+003, 3.686728e+003
1.114824e+003, 3.687402e+003
1.115306e+003, 3.685255e+003
1.115788e+003, 3.681640e+003
1.116270e+003, 3.681176e+003
1.116752e+003, 3.683817e+003
1.117234e+003, 3.686224e+003
1.117717e+003, 3.687577e+003
1.118199e+003, 3.688414e+003
1.118681e+003, 3.688363e+003
1.119163e+003, 3.688581e+003
1.119645e+003, 3.690512e+003
1.120127e+003, 3.694256e+003
1.120609e+003, 3.696941e+003
1.121091e+003, 3.698498e+003
1.121573e+003, 3.699242e+003
1.122056e+003, 3.699601e+003
1.122538e+003, 3.698682e+003
1.123020e+003, 3.693542e+003
1.123502e+003, 3.686986e+003
1.123984e+003, 3.683610e+003
1.124466e+003, 3.686766e+003
1.124948e+003, 3.687245e+003
1.125430e+003, 3.683496e+003
1.125913e+003, 3.680971e+003
1.126395e+003, 3.685438e+003
1.126877e+003, 3.692746e+003
1.127359e+003, 3.692543e+003
1.127841e+003, 3.687221e+003
1.128323e+003, 3.683331e+003
1.128805e+003, 3.684098e+003
1.129287e+003, 3.685598e+003
1.129770e+003, 3.688061e+003
1.130252e+003, 3.689828e+003
1.130734e+003, 3.688795e+003
1.131216e+003, 3.685633e+003
1.131698e+003, 3.682469e+003
1.132180e+003, 3.679571e+003
1.132662e+003, 3.678471e+003
1.133144e+003, 3.680720e+003
1.133626e+003, 3.684006e+003
1.134109e+003, 3.688188e+003
1.134591e+003, 3.692257e+003
1.135073e+003, 3.694786e+003
1.135555e+003, 3.695774e+003
1.136037e+003, 3.695146e+003
1.136519e+003, 3.692854e+003
1.137001e+003, 3.691103e+003
1.137483e+003, 3.692986e+003
1.137965e+003, 3.694590e+003
1.138448e+003, 3.693119e+003
1.138930e+003, 3.689446e+003
1.139412e+003, 3.685583e+003
1.139894e+003, 3.681446e+003
1.140376e+003, 3.679798e+003
1.140858e+003, 3.681587e+003
1.141340e+003, 3.684242e+003
1.141822e+003, 3.686255e+003
1.142304e+003, 3.687386e+003
1.142787e+003, 3.686966e+003
1.143269e+003, 3.685003e+003
1.143751e+003, 3.684008e+003
1.144233e+003, 3.683930e+003
1.144715e+003, 3.684889e+003
1.145197e+003, 3.687038e+003
1.145679e+003, 3.689745e+003
1.146161e+003, 3.692640e+003
1.146644e+003, 3.695273e+003
1.147126e+003, 3.696890e+003
1.147608e+003, 3.696788e+003
1.148090e+003, 3.698136e+003
1.148572e+003, 3.701900e+003
1.149054e+003, 3.704133e+003
1.149536e+003, 3.702441e+003
1.150018e+003, 3.698665e+003
1.150500e+003, 3.695054e+003
1.150983e+003, 3.692045e+003
1.151465e+003, 3.690559e+003
1.151947e+003, 3.692223e+003
1.152429e+003, 3.692511e+003
1.152911e+003, 3.690335e+003
1.153393e+003, 3.688522e+003
1.153875e+003, 3.689421e+003
1.154357e+003, 3.692013e+003
1.154840e+003, 3.694065e+003
1.155322e+003, 3.695431e+003
1.155804e+003, 3.695569e+003
1.156286e+003, 3.692567e+003
1.156768e+003, 3.690841e+003
1.157250e+003, 3.691614e+003
1.157732e+003, 3.692836e+003
1.158214e+003, 3.692263e+003
1.158697e+003, 3.690489e+003
1.159179e+003, 3.690367e+003
1.159661e+003, 3.691668e+003
1.160143e+003, 3.692679e+003
1.160625e+003, 3.691677e+003
1.161107e+003, 3.691367e+003
1.161589e+003, 3.693049e+003
1.162071e+003, 3.695260e+003
1.162553e+003, 3.695899e+003
1.163036e+003, 3.695264e+003
1.163518e+003, 3.695831e+003
1.164000e+003, 3.697688e+003
1.164482e+003, 3.699188e+003
1.164964e+003, 3.699809e+003
1.165446e+003, 3.699310e+003
1.165928e+003, 3.696840e+003
1.166410e+003, 3.693700e+003
1.166892e+003, 3.692197e+003
1.167375e+003, 3.692291e+003
1.167857e+003, 3.693809e+003
1.168339e+003, 3.696859e+003
1.168821e+003, 3.698477e+003
1.169303e+003, 3.693182e+003
1.169785e+003, 3.688916e+003
1.170267e+003, 3.692461e+003
1.170749e+003, 3.700802e+003
1.171231e+003, 3.705766e+003
1.171714e+003, 3.707357e+003
1.172196e+003, 3.707551e+003
1.172678e+003, 3.706413e+003
1.173160e+003, 3.705924e+003
1.173642e+003, 3.709554e+003
1.174124e+003, 3.713055e+003
1.174606e+003, 3.711737e+003
1.175088e+003, 3.706774e+003
1.175571e+003, 3.705714e+003
1.176053e+003, 3.708801e+003
1.176535e+003, 3.711169e+003
1.177017e+003, 3.711364e+003
1.177499e+003, 3.710814e+003
1.177981e+003, 3.710581e+003
1.178463e+003, 3.710506e+003
1.178945e+003, 3.710568e+003
1.179427e+003, 3.710739e+003
1.179910e+003, 3.709786e+003
1.180392e+003, 3.707390e+003
1.180874e+003, 3.707112e+003
1.181356e+003, 3.711351e+003
1.181838e+003, 3.715680e+003
1.182320e+003, 3.714205e+003
1.182802e+003, 3.710816e+003
1.183284e+003, 3.710489e+003
1.183767e+003, 3.714246e+003
1.184249e+003, 3.716380e+003
1.184731e+003, 3.716958e+003
1.185213e+003, 3.715501e+003
1.185695e+003, 3.710597e+003
1.186177e+003, 3.705490e+003
1.186659e+003, 3.704816e+003
1.187141e+003, 3.706063e+003
1.187624e+003, 3.705548e+003
1.188106e+003, 3.702352e+003
1.188588e+003, 3.699075e+003
1.189070e+003, 3.695479e+003
1.189552e+003, 3.693594e+003
1.190034e+003, 3.695087e+003
1.190516e+003, 3.698438e+003
1.190998e+003, 3.703422e+003
1.191480e+003, 3.708348e+003
1.191963e+003, 3.709943e+003
1.192445e+003, 3.705021e+003
1.192927e+003, 3.704252e+003
1.193409e+003, 3.708573e+003
1.193891e+003, 3.712492e+003
1.194373e+003, 3.710457e+003
1.194855e+003, 3.707095e+003
1.195337e+003, 3.708902e+003
1.195819e+003, 3.714010e+003
1.196302e+003, 3.718380e+003
1.196784e+003, 3.721357e+003
1.197266e+003, 3.723448e+003
1.197748e+003, 3.724552e+003
1.198230e+003, 3.725169e+003
1.198712e+003, 3.725694e+003
1.199194e+003, 3.725995e+003
1.199676e+003, 3.726067e+003
1.200158e+003, 3.725799e+003
1.200641e+003, 3.724760e+003
1.201123e+003, 3.722359e+003
1.201605e+003, 3.720534e+003
1.202087e+003, 3.719273e+003
1.202569e+003, 3.719260e+003
1.203051e+003, 3.722574e+003
1.203533e+003, 3.726509e+003
1.204015e+003, 3.726547e+003
1.204498e+003, 3.723961e+003
1.204980e+003, 3.723891e+003
1.205462e+003, 3.729477e+003
1.205944e+003, 3.731086e+003
1.206426e+003, 3.726941e+003
1.206908e+003, 3.722509e+003
1.207390e+003, 3.723761e+003
1.207872e+003, 3.727504e+003
1.208354e+003, 3.730035e+003
1.208837e+003, 3.731293e+003
1.209319e+003, 3.731946e+003
1.209801e+003, 3.731895e+003
1.210283e+003, 3.731754e+003
1.210765e+003, 3.731550e+003
1.211247e+003, 3.731334e+003
1.211729e+003, 3.730052e+003
1.212211e+003, 3.729511e+003
1.212694e+003, 3.734188e+003
1.213176e+003, 3.742577e+003
1.213658e+003, 3.744070e+003
1.214140e+003, 3.734666e+003
1.214622e+003, 3.729028e+003
1.215104e+003, 3.730009e+003
1.215586e+003, 3.732265e+003
1.216068e+003, 3.730034e+003
1.216551e+003, 3.725822e+003
1.217033e+003, 3.722084e+003
1.217515e+003, 3.719156e+003
1.217997e+003, 3.717840e+003
1.218479e+003, 3.718457e+003
1.218961e+003, 3.719322e+003
1.219443e+003, 3.720015e+003
1.219925e+003, 3.721430e+003
1.220407e+003, 3.726229e+003
1.220890e+003, 3.731090e+003
1.221372e+003, 3.731202e+003
1.221854e+003, 3.726913e+003
1.222336e+003, 3.725578e+003
1.222818e+003, 3.728366e+003
1.223300e+003, 3.729886e+003
1.223782e+003, 3.728716e+003
1.224264e+003, 3.727695e+003
1.224746e+003, 3.731632e+003
1.225229e+003, 3.736167e+003
1.225711e+003, 3.736114e+003
1.226193e+003, 3.731575e+003
1.226675e+003, 3.728953e+003
1.227157e+003, 3.728649e+003
1.227639e+003, 3.728468e+003
1.228121e+003, 3.727925e+003
1.228603e+003, 3.727546e+003
1.229085e+003, 3.727818e+003
1.229568e+003, 3.728581e+003
1.230050e+003, 3.729909e+003
1.230532e+003, 3.731666e+003
1.231014e+003, 3.732661e+003
1.231496e+003, 3.732696e+003
1.231978e+003, 3.733944e+003
1.232460e+003, 3.737348e+003
1.232942e+003, 3.739792e+003
1.233425e+003, 3.737167e+003
1.233907e+003, 3.733163e+003
1.234389e+003, 3.731565e+003
1.234871e+003, 3.731812e+003
1.235353e+003, 3.728191e+003
1.235835e+003, 3.720347e+003
1.236317e+003, 3.719160e+003
1.236799e+003, 3.728721e+003
1.237281e+003, 3.737385e+003
1.237764e+003, 3.732798e+003
1.238246e+003, 3.725490e+003
1.238728e+003, 3.724581e+003
1.239210e+003, 3.728411e+003
1.239692e+003, 3.728993e+003
1.240174e+003, 3.726509e+003
1.240656e+003, 3.726581e+003
1.241138e+003, 3.731052e+003
1.241621e+003, 3.735046e+003
1.242103e+003, 3.733306e+003
1.242585e+003, 3.731384e+003
1.243067e+003, 3.733587e+003
1.243549e+003, 3.738415e+003
1.244031e+003, 3.740000e+003
1.244513e+003, 3.738794e+003
1.244995e+003, 3.738591e+003
1.245478e+003, 3.740382e+003
1.245960e+003, 3.742395e+003
1.246442e+003, 3.744363e+003
1.246924e+003, 3.745244e+003
1.247406e+003, 3.744055e+003
1.247888e+003, 3.741801e+003
1.248370e+003, 3.742315e+003
1.248852e+003, 3.744687e+003
1.249334e+003, 3.744340e+003
1.249817e+003, 3.739616e+003
1.250299e+003, 3.736767e+003
1.250781e+003, 3.742453e+003
1.251263e+003, 3.746219e+003
1.251745e+003, 3.742990e+003
1.252227e+003, 3.736098e+003
1.252709e+003, 3.733738e+003
1.253191e+003, 3.734538e+003
1.253673e+003, 3.734281e+003
1.254156e+003, 3.731874e+003
1.254638e+003, 3.730425e+003
1.255120e+003, 3.731335e+003
1.255602e+003, 3.732642e+003
1.256084e+003, 3.733508e+003
1.256566e+003, 3.734658e+003
1.257048e+003, 3.738158e+003
1.257530e+003, 3.742855e+003
1.258012e+003, 3.746327e+003
1.258495e+003, 3.748052e+003
1.258977e+003, 3.749438e+003
1.259459e+003, 3.750296e+003
1.259941e+003, 3.751821e+003
1.260423e+003, 3.754723e+003
1.260905e+003, 3.757695e+003
1.261387e+003, 3.759326e+003
1.261869e+003, 3.759346e+003
1.262352e+003, 3.756485e+003
1.262834e+003, 3.750320e+003
1.263316e+003, 3.747630e+003
1.263798e+003, 3.749834e+003
1.264280e+003, 3.751542e+003
1.264762e+003, 3.751234e+003
1.265244e+003, 3.749741e+003
1.265726e+003, 3.746754e+003
1.266208e+003, 3.744029e+003
1.266691e+003, 3.743737e+003
1.267173e+003, 3.746099e+003
1.267655e+003, 3.749014e+003
1.268137e+003, 3.752757e+003
1.268619e+003, 3.754676e+003
1.269101e+003, 3.753756e+003
1.269583e+003, 3.752125e+003
1.270065e+003, 3.751929e+003
1.270548e+003, 3.751785e+003
1.271030e+003, 3.749978e+003
1.271512e+003, 3.747074e+003
1.271994e+003, 3.745927e+003
1.272476e+003, 3.746509e+003
1.272958e+003, 3.746174e+003
1.273440e+003, 3.744083e+003
1.273922e+003, 3.743191e+003
1.274405e+003, 3.748863e+003
1.274887e+003, 3.752969e+003
1.275369e+003, 3.749389e+003
1.275851e+003, 3.741567e+003
1.276333e+003, 3.739155e+003
1.276815e+003, 3.741291e+003
1.277297e+003, 3.743856e+003
1.277779e+003, 3.746132e+003
1.278261e+003, 3.747660e+003
1.278744e+003, 3.747715e+003
1.279226e+003, 3.747240e+003
1.279708e+003, 3.745849e+003
1.280190e+003, 3.744923e+003
1.280672e+003, 3.748690e+003
1.281154e+003, 3.754739e+003
1.281636e+003, 3.756206e+003
1.282118e+003, 3.752133e+003
1.282600e+003, 3.749561e+003
1.283083e+003, 3.752379e+003
1.283565e+003, 3.753499e+003
1.284047e+003, 3.750729e+003
1.284529e+003, 3.747138e+003
1.285011e+003, 3.747878e+003
1.285493e+003, 3.750320e+003
1.285975e+003, 3.750025e+003
1.286457e+003, 3.746883e+003
1.286939e+003, 3.745325e+003
1.287422e+003, 3.746369e+003
1.287904e+003, 3.746940e+003
1.288386e+003, 3.746375e+003
1.288868e+003, 3.745823e+003
1.289350e+003, 3.746495e+003
1.289832e+003, 3.747819e+003
1.290314e+003, 3.749812e+003
1.290796e+003, 3.751912e+003
1.291279e+003, 3.751453e+003
1.291761e+003, 3.747805e+003
1.292243e+003, 3.748247e+003
1.292725e+003, 3.754073e+003
1.293207e+003, 3.758824e+003
1.293689e+003, 3.755031e+003
1.294171e+003, 3.750585e+003
1.294653e+003, 3.752466e+003
1.295135e+003, 3.756445e+003
1.295618e+003, 3.754038e+003
1.296100e+003, 3.746246e+003
1.296582e+003, 3.743431e+003
1.297064e+003, 3.746710e+003
1.297546e+003, 3.751078e+003
1.298028e+003, 3.754671e+003
1.298510e+003, 3.755638e+003
1.298992e+003, 3.752927e+003
1.299475e+003, 3.749289e+003
1.299957e+003, 3.747567e+003
1.300439e+003, 3.748086e+003
1.300921e+003, 3.751753e+003
1.301403e+003, 3.758419e+003
1.301885e+003, 3.766163e+003
##END=



