##NAMES=Cuspidine
##RRUFFID=R130002
##IDEAL CHEMISTRY=Ca_4_(Si_2_O_7_)F_2_
##LOCALITY=Huanggang(?), Inner Mongolia, China
##OWNER=RRUFF
##SOURCE=Robert Lavinsky
##DESCRIPTION=Colorless, striated, prismatic crystals associated with black vesuvianite
##STATUS=The identification of this mineral has been confirmed only by single crystal X-ray diffraction.
##URL=rruff.info/R130002
8.975323e+001, 0.000000e+000
9.023535e+001, 1.080968e+002
9.071747e+001, 1.087580e+002
9.119958e+001, 1.085814e+002
9.168170e+001, 1.087640e+002
9.216382e+001, 1.081945e+002
9.264594e+001, 1.070817e+002
9.312805e+001, 1.058860e+002
9.361017e+001, 1.047686e+002
9.409229e+001, 1.033746e+002
9.457440e+001, 1.015867e+002
9.505651e+001, 9.970894e+001
9.553863e+001, 9.770053e+001
9.602074e+001, 9.573404e+001
9.650286e+001, 9.399620e+001
9.698498e+001, 9.250613e+001
9.746709e+001, 9.099720e+001
9.794921e+001, 8.937514e+001
9.843133e+001, 8.733920e+001
9.891344e+001, 8.556245e+001
9.939556e+001, 8.431340e+001
9.987768e+001, 8.344202e+001
1.003598e+002, 8.254848e+001
1.008419e+002, 8.129192e+001
1.013240e+002, 7.986102e+001
1.018061e+002, 7.893990e+001
1.022883e+002, 7.878808e+001
1.027704e+002, 7.894639e+001
1.032525e+002, 7.905759e+001
1.037346e+002, 7.913382e+001
1.042167e+002, 7.908823e+001
1.046988e+002, 7.874268e+001
1.051810e+002, 7.822990e+001
1.056631e+002, 7.774110e+001
1.061452e+002, 7.731789e+001
1.066273e+002, 7.697250e+001
1.071094e+002, 7.677158e+001
1.075915e+002, 7.682198e+001
1.080737e+002, 7.689131e+001
1.085558e+002, 7.687920e+001
1.090379e+002, 7.680276e+001
1.095200e+002, 7.671154e+001
1.100021e+002, 7.662271e+001
1.104842e+002, 7.650420e+001
1.109664e+002, 7.656611e+001
1.114485e+002, 7.693098e+001
1.119306e+002, 7.735896e+001
1.124127e+002, 7.782437e+001
1.128948e+002, 7.827928e+001
1.133769e+002, 7.861553e+001
1.138591e+002, 7.867000e+001
1.143412e+002, 7.828871e+001
1.148233e+002, 7.784957e+001
1.153054e+002, 7.738529e+001
1.157875e+002, 7.685113e+001
1.162696e+002, 7.616021e+001
1.167517e+002, 7.526965e+001
1.172339e+002, 7.429683e+001
1.177160e+002, 7.351965e+001
1.181981e+002, 7.287832e+001
1.186802e+002, 7.246284e+001
1.191623e+002, 7.245428e+001
1.196444e+002, 7.271816e+001
1.201266e+002, 7.287083e+001
1.206087e+002, 7.268741e+001
1.210908e+002, 7.232743e+001
1.215729e+002, 7.215445e+001
1.220550e+002, 7.227708e+001
1.225371e+002, 7.239977e+001
1.230193e+002, 7.220926e+001
1.235014e+002, 7.166089e+001
1.239835e+002, 7.117643e+001
1.244656e+002, 7.102642e+001
1.249477e+002, 7.102345e+001
1.254298e+002, 7.103320e+001
1.259120e+002, 7.103966e+001
1.263941e+002, 7.099795e+001
1.268762e+002, 7.076548e+001
1.273583e+002, 7.011742e+001
1.278404e+002, 6.966869e+001
1.283225e+002, 6.969942e+001
1.288047e+002, 6.998490e+001
1.292868e+002, 7.023296e+001
1.297689e+002, 7.025955e+001
1.302510e+002, 7.007867e+001
1.307331e+002, 6.988995e+001
1.312152e+002, 6.957362e+001
1.316974e+002, 6.936565e+001
1.321795e+002, 6.937357e+001
1.326616e+002, 6.954964e+001
1.331437e+002, 6.976271e+001
1.336258e+002, 6.988515e+001
1.341079e+002, 6.987462e+001
1.345901e+002, 7.009767e+001
1.350722e+002, 7.079340e+001
1.355543e+002, 7.148652e+001
1.360364e+002, 7.186040e+001
1.365185e+002, 7.190347e+001
1.370006e+002, 7.186328e+001
1.374828e+002, 7.201721e+001
1.379649e+002, 7.241301e+001
1.384470e+002, 7.279686e+001
1.389291e+002, 7.315328e+001
1.394112e+002, 7.349326e+001
1.398933e+002, 7.380930e+001
1.403755e+002, 7.408308e+001
1.408576e+002, 7.439385e+001
1.413397e+002, 7.482990e+001
1.418218e+002, 7.537117e+001
1.423039e+002, 7.604152e+001
1.427860e+002, 7.697797e+001
1.432681e+002, 7.808161e+001
1.437503e+002, 7.900991e+001
1.442324e+002, 7.970458e+001
1.447145e+002, 8.014590e+001
1.451966e+002, 8.044073e+001
1.456787e+002, 8.058411e+001
1.461608e+002, 8.039370e+001
1.466430e+002, 7.960176e+001
1.471251e+002, 7.814176e+001
1.476072e+002, 7.671113e+001
1.480893e+002, 7.533567e+001
1.485714e+002, 7.408631e+001
1.490535e+002, 7.302218e+001
1.495357e+002, 7.215772e+001
1.500178e+002, 7.143880e+001
1.504999e+002, 7.079166e+001
1.509820e+002, 7.018163e+001
1.514641e+002, 6.972807e+001
1.519462e+002, 6.958400e+001
1.524284e+002, 6.948707e+001
1.529105e+002, 6.920515e+001
1.533926e+002, 6.865716e+001
1.538747e+002, 6.795896e+001
1.543568e+002, 6.739987e+001
1.548389e+002, 6.707585e+001
1.553211e+002, 6.680074e+001
1.558032e+002, 6.660379e+001
1.562853e+002, 6.643805e+001
1.567674e+002, 6.625282e+001
1.572495e+002, 6.602267e+001
1.577316e+002, 6.575454e+001
1.582138e+002, 6.547554e+001
1.586959e+002, 6.518570e+001
1.591780e+002, 6.488657e+001
1.596601e+002, 6.454552e+001
1.601422e+002, 6.419302e+001
1.606243e+002, 6.390353e+001
1.611065e+002, 6.373251e+001
1.615886e+002, 6.365445e+001
1.620707e+002, 6.354448e+001
1.625528e+002, 6.345589e+001
1.630349e+002, 6.329299e+001
1.635170e+002, 6.302199e+001
1.639991e+002, 6.264027e+001
1.644813e+002, 6.211083e+001
1.649634e+002, 6.132164e+001
1.654455e+002, 6.038084e+001
1.659276e+002, 5.954696e+001
1.664097e+002, 5.889487e+001
1.668918e+002, 5.831778e+001
1.673740e+002, 5.769673e+001
1.678561e+002, 5.702089e+001
1.683382e+002, 5.635744e+001
1.688203e+002, 5.573560e+001
1.693024e+002, 5.515459e+001
1.697845e+002, 5.461310e+001
1.702667e+002, 5.409253e+001
1.707488e+002, 5.362474e+001
1.712309e+002, 5.328534e+001
1.717130e+002, 5.309386e+001
1.721951e+002, 5.301265e+001
1.726772e+002, 5.315680e+001
1.731594e+002, 5.335831e+001
1.736415e+002, 5.335592e+001
1.741236e+002, 5.294171e+001
1.746057e+002, 5.220535e+001
1.750878e+002, 5.169567e+001
1.755699e+002, 5.152539e+001
1.760521e+002, 5.148965e+001
1.765342e+002, 5.162810e+001
1.770163e+002, 5.185260e+001
1.774984e+002, 5.202424e+001
1.779805e+002, 5.203833e+001
1.784626e+002, 5.189351e+001
1.789448e+002, 5.174615e+001
1.794269e+002, 5.157682e+001
1.799090e+002, 5.142345e+001
1.803911e+002, 5.130053e+001
1.808732e+002, 5.120404e+001
1.813553e+002, 5.111931e+001
1.818375e+002, 5.102925e+001
1.823196e+002, 5.092650e+001
1.828017e+002, 5.090114e+001
1.832838e+002, 5.100890e+001
1.837659e+002, 5.112516e+001
1.842480e+002, 5.115158e+001
1.847301e+002, 5.110844e+001
1.852123e+002, 5.112572e+001
1.856944e+002, 5.134699e+001
1.861765e+002, 5.181313e+001
1.866586e+002, 5.211402e+001
1.871407e+002, 5.212589e+001
1.876228e+002, 5.206599e+001
1.881050e+002, 5.208049e+001
1.885871e+002, 5.218650e+001
1.890692e+002, 5.234570e+001
1.895513e+002, 5.257189e+001
1.900334e+002, 5.285352e+001
1.905155e+002, 5.295828e+001
1.909977e+002, 5.271593e+001
1.914798e+002, 5.235056e+001
1.919619e+002, 5.209808e+001
1.924440e+002, 5.198675e+001
1.929261e+002, 5.197906e+001
1.934082e+002, 5.206855e+001
1.938904e+002, 5.223731e+001
1.943725e+002, 5.246371e+001
1.948546e+002, 5.278716e+001
1.953367e+002, 5.315749e+001
1.958188e+002, 5.347924e+001
1.963009e+002, 5.374217e+001
1.967831e+002, 5.395901e+001
1.972652e+002, 5.418121e+001
1.977473e+002, 5.438038e+001
1.982294e+002, 5.446075e+001
1.987115e+002, 5.422649e+001
1.991936e+002, 5.379516e+001
1.996758e+002, 5.369448e+001
2.001579e+002, 5.410468e+001
2.006400e+002, 5.463649e+001
2.011221e+002, 5.511987e+001
2.016042e+002, 5.554757e+001
2.020863e+002, 5.590636e+001
2.025685e+002, 5.620012e+001
2.030506e+002, 5.642650e+001
2.035327e+002, 5.652202e+001
2.040148e+002, 5.632323e+001
2.044969e+002, 5.615683e+001
2.049790e+002, 5.615261e+001
2.054612e+002, 5.628184e+001
2.059433e+002, 5.646078e+001
2.064254e+002, 5.663338e+001
2.069075e+002, 5.680129e+001
2.073896e+002, 5.692813e+001
2.078717e+002, 5.699894e+001
2.083539e+002, 5.703902e+001
2.088360e+002, 5.698170e+001
2.093181e+002, 5.688661e+001
2.098002e+002, 5.690948e+001
2.102823e+002, 5.723612e+001
2.107644e+002, 5.793991e+001
2.112466e+002, 5.826606e+001
2.117287e+002, 5.789299e+001
2.122108e+002, 5.748217e+001
2.126929e+002, 5.729613e+001
2.131750e+002, 5.731542e+001
2.136571e+002, 5.737749e+001
2.141393e+002, 5.733834e+001
2.146214e+002, 5.718667e+001
2.151035e+002, 5.699951e+001
2.155856e+002, 5.675176e+001
2.160677e+002, 5.649918e+001
2.165498e+002, 5.622673e+001
2.170320e+002, 5.595977e+001
2.175141e+002, 5.578206e+001
2.179962e+002, 5.579137e+001
2.184783e+002, 5.602106e+001
2.189604e+002, 5.612622e+001
2.194425e+002, 5.607409e+001
2.199247e+002, 5.594227e+001
2.204068e+002, 5.569440e+001
2.208889e+002, 5.536584e+001
2.213710e+002, 5.515017e+001
2.218531e+002, 5.524309e+001
2.223352e+002, 5.567174e+001
2.228174e+002, 5.600267e+001
2.232995e+002, 5.621348e+001
2.237816e+002, 5.634602e+001
2.242637e+002, 5.633792e+001
2.247458e+002, 5.620623e+001
2.252279e+002, 5.621865e+001
2.257100e+002, 5.664770e+001
2.261922e+002, 5.745362e+001
2.266743e+002, 5.819934e+001
2.271564e+002, 5.880879e+001
2.276385e+002, 5.937794e+001
2.281206e+002, 5.995696e+001
2.286027e+002, 6.054476e+001
2.290849e+002, 6.121839e+001
2.295670e+002, 6.211681e+001
2.300491e+002, 6.314217e+001
2.305312e+002, 6.402605e+001
2.310133e+002, 6.469256e+001
2.314954e+002, 6.521270e+001
2.319776e+002, 6.561802e+001
2.324597e+002, 6.588657e+001
2.329418e+002, 6.619614e+001
2.334239e+002, 6.678608e+001
2.339060e+002, 6.746916e+001
2.343881e+002, 6.794207e+001
2.348703e+002, 6.804411e+001
2.353524e+002, 6.797456e+001
2.358345e+002, 6.797435e+001
2.363166e+002, 6.803585e+001
2.367987e+002, 6.820141e+001
2.372808e+002, 6.869920e+001
2.377630e+002, 6.925084e+001
2.382451e+002, 6.952031e+001
2.387272e+002, 6.934268e+001
2.392093e+002, 6.892809e+001
2.396914e+002, 6.854836e+001
2.401735e+002, 6.813895e+001
2.406557e+002, 6.797871e+001
2.411378e+002, 6.837611e+001
2.416199e+002, 6.897874e+001
2.421020e+002, 6.946960e+001
2.425841e+002, 6.973592e+001
2.430662e+002, 6.986126e+001
2.435484e+002, 6.996233e+001
2.440305e+002, 7.000098e+001
2.445126e+002, 7.012435e+001
2.449947e+002, 7.047185e+001
2.454768e+002, 7.086349e+001
2.459589e+002, 7.114106e+001
2.464410e+002, 7.124892e+001
2.469232e+002, 7.125843e+001
2.474053e+002, 7.128934e+001
2.478874e+002, 7.134989e+001
2.483695e+002, 7.141263e+001
2.488516e+002, 7.142122e+001
2.493337e+002, 7.145772e+001
2.498159e+002, 7.162949e+001
2.502980e+002, 7.196233e+001
2.507801e+002, 7.231743e+001
2.512622e+002, 7.246729e+001
2.517443e+002, 7.236893e+001
2.522264e+002, 7.214066e+001
2.527086e+002, 7.165206e+001
2.531907e+002, 7.115175e+001
2.536728e+002, 7.084619e+001
2.541549e+002, 7.077541e+001
2.546370e+002, 7.078638e+001
2.551191e+002, 7.065027e+001
2.556013e+002, 7.033377e+001
2.560834e+002, 6.992637e+001
2.565655e+002, 6.943465e+001
2.570476e+002, 6.887255e+001
2.575297e+002, 6.823478e+001
2.580118e+002, 6.752746e+001
2.584940e+002, 6.676824e+001
2.589761e+002, 6.595141e+001
2.594582e+002, 6.493977e+001
2.599403e+002, 6.424429e+001
2.604224e+002, 6.405051e+001
2.609045e+002, 6.395318e+001
2.613867e+002, 6.372560e+001
2.618688e+002, 6.333319e+001
2.623509e+002, 6.285520e+001
2.628330e+002, 6.235449e+001
2.633151e+002, 6.175496e+001
2.637972e+002, 6.144149e+001
2.642794e+002, 6.169794e+001
2.647615e+002, 6.194643e+001
2.652436e+002, 6.185979e+001
2.657257e+002, 6.143987e+001
2.662078e+002, 6.087876e+001
2.666899e+002, 6.034521e+001
2.671721e+002, 5.982877e+001
2.676542e+002, 5.943707e+001
2.681363e+002, 5.930107e+001
2.686184e+002, 5.914484e+001
2.691005e+002, 5.879761e+001
2.695826e+002, 5.829490e+001
2.700648e+002, 5.780281e+001
2.705469e+002, 5.746341e+001
2.710290e+002, 5.728637e+001
2.715111e+002, 5.703511e+001
2.719932e+002, 5.663244e+001
2.724753e+002, 5.624813e+001
2.729575e+002, 5.588610e+001
2.734396e+002, 5.559277e+001
2.739217e+002, 5.549189e+001
2.744038e+002, 5.569370e+001
2.748859e+002, 5.616590e+001
2.753680e+002, 5.650410e+001
2.758501e+002, 5.665233e+001
2.763322e+002, 5.676476e+001
2.768144e+002, 5.678884e+001
2.772965e+002, 5.681425e+001
2.777786e+002, 5.705388e+001
2.782607e+002, 5.765119e+001
2.787428e+002, 5.850863e+001
2.792249e+002, 5.921278e+001
2.797071e+002, 5.955070e+001
2.801892e+002, 6.001723e+001
2.806713e+002, 6.084093e+001
2.811534e+002, 6.186437e+001
2.816355e+002, 6.282829e+001
2.821176e+002, 6.362976e+001
2.825998e+002, 6.428222e+001
2.830819e+002, 6.477599e+001
2.835640e+002, 6.502564e+001
2.840461e+002, 6.531013e+001
2.845282e+002, 6.576562e+001
2.850103e+002, 6.626931e+001
2.854925e+002, 6.658741e+001
2.859746e+002, 6.661954e+001
2.864567e+002, 6.659751e+001
2.869388e+002, 6.694006e+001
2.874209e+002, 6.772654e+001
2.879030e+002, 6.855552e+001
2.883852e+002, 6.931398e+001
2.888673e+002, 7.010145e+001
2.893494e+002, 7.105376e+001
2.898315e+002, 7.220557e+001
2.903136e+002, 7.343450e+001
2.907957e+002, 7.456262e+001
2.912779e+002, 7.553985e+001
2.917600e+002, 7.682156e+001
2.922421e+002, 7.877793e+001
2.927242e+002, 8.087554e+001
2.932063e+002, 8.263026e+001
2.936884e+002, 8.398388e+001
2.941706e+002, 8.505312e+001
2.946527e+002, 8.594432e+001
2.951348e+002, 8.663089e+001
2.956169e+002, 8.703396e+001
2.960990e+002, 8.705715e+001
2.965811e+002, 8.686286e+001
2.970633e+002, 8.647803e+001
2.975454e+002, 8.593565e+001
2.980275e+002, 8.547175e+001
2.985096e+002, 8.529365e+001
2.989917e+002, 8.534605e+001
2.994738e+002, 8.523286e+001
2.999560e+002, 8.501385e+001
3.004381e+002, 8.458396e+001
3.009202e+002, 8.387790e+001
3.014023e+002, 8.290401e+001
3.018844e+002, 8.167799e+001
3.023665e+002, 8.014596e+001
3.028487e+002, 7.839397e+001
3.033308e+002, 7.670054e+001
3.038129e+002, 7.513226e+001
3.042950e+002, 7.349984e+001
3.047771e+002, 7.148241e+001
3.052592e+002, 6.931776e+001
3.057414e+002, 6.765785e+001
3.062235e+002, 6.681023e+001
3.067056e+002, 6.647231e+001
3.071877e+002, 6.609342e+001
3.076698e+002, 6.564306e+001
3.081519e+002, 6.526521e+001
3.086341e+002, 6.500066e+001
3.091162e+002, 6.484023e+001
3.095983e+002, 6.477327e+001
3.100804e+002, 6.479768e+001
3.105625e+002, 6.491393e+001
3.110446e+002, 6.514808e+001
3.115268e+002, 6.549930e+001
3.120089e+002, 6.587350e+001
3.124910e+002, 6.641064e+001
3.129731e+002, 6.688781e+001
3.134552e+002, 6.703558e+001
3.139373e+002, 6.681095e+001
3.144195e+002, 6.634902e+001
3.149016e+002, 6.571253e+001
3.153837e+002, 6.490671e+001
3.158658e+002, 6.410676e+001
3.163479e+002, 6.329864e+001
3.168300e+002, 6.252084e+001
3.173121e+002, 6.180019e+001
3.177943e+002, 6.113584e+001
3.182764e+002, 6.052308e+001
3.187585e+002, 5.992334e+001
3.192406e+002, 5.939024e+001
3.197227e+002, 5.908126e+001
3.202048e+002, 5.910226e+001
3.206870e+002, 5.923120e+001
3.211691e+002, 5.942033e+001
3.216512e+002, 5.963488e+001
3.221333e+002, 5.972068e+001
3.226154e+002, 5.954300e+001
3.230975e+002, 5.926884e+001
3.235797e+002, 5.934777e+001
3.240618e+002, 5.993370e+001
3.245439e+002, 6.046964e+001
3.250260e+002, 6.065809e+001
3.255081e+002, 6.067739e+001
3.259902e+002, 6.085787e+001
3.264724e+002, 6.130241e+001
3.269545e+002, 6.194276e+001
3.274366e+002, 6.273869e+001
3.279187e+002, 6.373441e+001
3.284008e+002, 6.460625e+001
3.288829e+002, 6.512336e+001
3.293651e+002, 6.556167e+001
3.298472e+002, 6.629615e+001
3.303293e+002, 6.739146e+001
3.308114e+002, 6.851973e+001
3.312935e+002, 6.930333e+001
3.317756e+002, 6.970840e+001
3.322578e+002, 7.042757e+001
3.327399e+002, 7.182312e+001
3.332220e+002, 7.327488e+001
3.337041e+002, 7.432153e+001
3.341862e+002, 7.496786e+001
3.346683e+002, 7.551427e+001
3.351505e+002, 7.617345e+001
3.356326e+002, 7.690467e+001
3.361147e+002, 7.742038e+001
3.365968e+002, 7.762112e+001
3.370789e+002, 7.774665e+001
3.375610e+002, 7.781789e+001
3.380432e+002, 7.788889e+001
3.385253e+002, 7.808488e+001
3.390074e+002, 7.846835e+001
3.394895e+002, 7.899937e+001
3.399716e+002, 7.958401e+001
3.404537e+002, 8.023511e+001
3.409359e+002, 8.090458e+001
3.414180e+002, 8.146399e+001
3.419001e+002, 8.208046e+001
3.423822e+002, 8.301836e+001
3.428643e+002, 8.434966e+001
3.433464e+002, 8.584170e+001
3.438286e+002, 8.715537e+001
3.443107e+002, 8.815684e+001
3.447928e+002, 8.939540e+001
3.452749e+002, 9.107008e+001
3.457570e+002, 9.283701e+001
3.462391e+002, 9.446828e+001
3.467213e+002, 9.592288e+001
3.472034e+002, 9.726808e+001
3.476855e+002, 9.856101e+001
3.481676e+002, 9.981014e+001
3.486497e+002, 1.007749e+002
3.491318e+002, 1.015851e+002
3.496140e+002, 1.020425e+002
3.500961e+002, 1.019302e+002
3.505782e+002, 1.013901e+002
3.510603e+002, 1.007388e+002
3.515424e+002, 1.001642e+002
3.520245e+002, 9.961742e+001
3.525067e+002, 9.887257e+001
3.529888e+002, 9.757011e+001
3.534709e+002, 9.651721e+001
3.539530e+002, 9.589444e+001
3.544351e+002, 9.553989e+001
3.549172e+002, 9.525755e+001
3.553994e+002, 9.498110e+001
3.558815e+002, 9.478645e+001
3.563636e+002, 9.482298e+001
3.568457e+002, 9.533597e+001
3.573278e+002, 9.556870e+001
3.578099e+002, 9.531194e+001
3.582920e+002, 9.495849e+001
3.587741e+002, 9.483012e+001
3.592563e+002, 9.491486e+001
3.597384e+002, 9.494320e+001
3.602205e+002, 9.464829e+001
3.607026e+002, 9.400400e+001
3.611847e+002, 9.327589e+001
3.616668e+002, 9.241717e+001
3.621490e+002, 9.153197e+001
3.626311e+002, 9.060867e+001
3.631132e+002, 8.968465e+001
3.635953e+002, 8.881380e+001
3.640774e+002, 8.801611e+001
3.645595e+002, 8.732559e+001
3.650417e+002, 8.689297e+001
3.655238e+002, 8.686127e+001
3.660059e+002, 8.691792e+001
3.664880e+002, 8.706449e+001
3.669701e+002, 8.725584e+001
3.674522e+002, 8.742761e+001
3.679344e+002, 8.756514e+001
3.684165e+002, 8.774573e+001
3.688986e+002, 8.812037e+001
3.693807e+002, 8.880289e+001
3.698628e+002, 8.936674e+001
3.703449e+002, 8.960793e+001
3.708271e+002, 8.989474e+001
3.713092e+002, 9.038737e+001
3.717913e+002, 9.110865e+001
3.722734e+002, 9.204230e+001
3.727555e+002, 9.321506e+001
3.732376e+002, 9.461626e+001
3.737198e+002, 9.595362e+001
3.742019e+002, 9.708228e+001
3.746840e+002, 9.833850e+001
3.751661e+002, 9.993426e+001
3.756482e+002, 1.017009e+002
3.761303e+002, 1.033623e+002
3.766125e+002, 1.047850e+002
3.770946e+002, 1.060526e+002
3.775767e+002, 1.073921e+002
3.780588e+002, 1.089078e+002
3.785409e+002, 1.101918e+002
3.790230e+002, 1.111708e+002
3.795052e+002, 1.118568e+002
3.799873e+002, 1.122512e+002
3.804694e+002, 1.123529e+002
3.809515e+002, 1.121186e+002
3.814336e+002, 1.113963e+002
3.819157e+002, 1.101950e+002
3.823979e+002, 1.090600e+002
3.828800e+002, 1.081795e+002
3.833621e+002, 1.072270e+002
3.838442e+002, 1.059262e+002
3.843263e+002, 1.043654e+002
3.848084e+002, 1.028319e+002
3.852906e+002, 1.015501e+002
3.857727e+002, 1.004042e+002
3.862548e+002, 9.908923e+001
3.867369e+002, 9.755025e+001
3.872190e+002, 9.605443e+001
3.877011e+002, 9.471078e+001
3.881833e+002, 9.351638e+001
3.886654e+002, 9.248808e+001
3.891475e+002, 9.164318e+001
3.896296e+002, 9.094044e+001
3.901117e+002, 9.044527e+001
3.905938e+002, 9.011449e+001
3.910760e+002, 8.958188e+001
3.915581e+002, 8.858324e+001
3.920402e+002, 8.751582e+001
3.925223e+002, 8.697786e+001
3.930044e+002, 8.700217e+001
3.934865e+002, 8.698776e+001
3.939687e+002, 8.666621e+001
3.944508e+002, 8.617258e+001
3.949329e+002, 8.573028e+001
3.954150e+002, 8.537326e+001
3.958971e+002, 8.499985e+001
3.963792e+002, 8.450713e+001
3.968614e+002, 8.390239e+001
3.973435e+002, 8.331492e+001
3.978256e+002, 8.265107e+001
3.983077e+002, 8.208559e+001
3.987898e+002, 8.171894e+001
3.992719e+002, 8.154408e+001
3.997540e+002, 8.154891e+001
4.002361e+002, 8.175639e+001
4.007183e+002, 8.209219e+001
4.012004e+002, 8.233562e+001
4.016825e+002, 8.241035e+001
4.021646e+002, 8.254109e+001
4.026467e+002, 8.280075e+001
4.031288e+002, 8.312132e+001
4.036110e+002, 8.338909e+001
4.040931e+002, 8.358704e+001
4.045752e+002, 8.385761e+001
4.050573e+002, 8.439137e+001
4.055394e+002, 8.526701e+001
4.060215e+002, 8.599958e+001
4.065037e+002, 8.646257e+001
4.069858e+002, 8.691994e+001
4.074679e+002, 8.746940e+001
4.079500e+002, 8.812228e+001
4.084321e+002, 8.887283e+001
4.089142e+002, 8.972778e+001
4.093964e+002, 9.067534e+001
4.098785e+002, 9.167599e+001
4.103606e+002, 9.277096e+001
4.108427e+002, 9.386613e+001
4.113248e+002, 9.490181e+001
4.118069e+002, 9.596146e+001
4.122891e+002, 9.717977e+001
4.127712e+002, 9.856871e+001
4.132533e+002, 9.994975e+001
4.137354e+002, 1.010647e+002
4.142175e+002, 1.018432e+002
4.146996e+002, 1.026556e+002
4.151818e+002, 1.035093e+002
4.156639e+002, 1.043881e+002
4.161460e+002, 1.053717e+002
4.166281e+002, 1.063819e+002
4.171102e+002, 1.072614e+002
4.175923e+002, 1.079731e+002
4.180745e+002, 1.084335e+002
4.185566e+002, 1.083056e+002
4.190387e+002, 1.073626e+002
4.195208e+002, 1.063262e+002
4.200029e+002, 1.054627e+002
4.204850e+002, 1.045960e+002
4.209672e+002, 1.036034e+002
4.214493e+002, 1.024618e+002
4.219314e+002, 1.010977e+002
4.224135e+002, 9.930822e+001
4.228956e+002, 9.712552e+001
4.233777e+002, 9.513349e+001
4.238599e+002, 9.338297e+001
4.243420e+002, 9.191373e+001
4.248241e+002, 9.081165e+001
4.253062e+002, 8.999731e+001
4.257883e+002, 8.917747e+001
4.262704e+002, 8.816147e+001
4.267526e+002, 8.709911e+001
4.272347e+002, 8.620267e+001
4.277168e+002, 8.546880e+001
4.281989e+002, 8.488968e+001
4.286810e+002, 8.450521e+001
4.291631e+002, 8.426550e+001
4.296453e+002, 8.402750e+001
4.301274e+002, 8.376216e+001
4.306095e+002, 8.356300e+001
4.310916e+002, 8.358924e+001
4.315737e+002, 8.369810e+001
4.320558e+002, 8.352775e+001
4.325380e+002, 8.295076e+001
4.330201e+002, 8.236026e+001
4.335022e+002, 8.223071e+001
4.339843e+002, 8.263197e+001
4.344664e+002, 8.302702e+001
4.349485e+002, 8.350518e+001
4.354307e+002, 8.388090e+001
4.359128e+002, 8.393093e+001
4.363949e+002, 8.374899e+001
4.368770e+002, 8.366006e+001
4.373591e+002, 8.386228e+001
4.378412e+002, 8.428019e+001
4.383234e+002, 8.462407e+001
4.388055e+002, 8.481611e+001
4.392876e+002, 8.503432e+001
4.397697e+002, 8.522102e+001
4.402518e+002, 8.547805e+001
4.407339e+002, 8.598303e+001
4.412160e+002, 8.672682e+001
4.416982e+002, 8.744714e+001
4.421803e+002, 8.781951e+001
4.426624e+002, 8.778512e+001
4.431445e+002, 8.784161e+001
4.436266e+002, 8.814449e+001
4.441087e+002, 8.837756e+001
4.445909e+002, 8.832629e+001
4.450730e+002, 8.816123e+001
4.455551e+002, 8.818952e+001
4.460372e+002, 8.858546e+001
4.465193e+002, 8.916975e+001
4.470014e+002, 8.951940e+001
4.474836e+002, 8.951987e+001
4.479657e+002, 8.962745e+001
4.484478e+002, 9.005185e+001
4.489299e+002, 9.051922e+001
4.494120e+002, 9.087791e+001
4.498941e+002, 9.111207e+001
4.503763e+002, 9.126712e+001
4.508584e+002, 9.133578e+001
4.513405e+002, 9.134558e+001
4.518226e+002, 9.143160e+001
4.523047e+002, 9.164355e+001
4.527868e+002, 9.181096e+001
4.532690e+002, 9.170439e+001
4.537511e+002, 9.152013e+001
4.542332e+002, 9.156641e+001
4.547153e+002, 9.198966e+001
4.551974e+002, 9.249459e+001
4.556795e+002, 9.285638e+001
4.561617e+002, 9.309525e+001
4.566438e+002, 9.329097e+001
4.571259e+002, 9.344092e+001
4.576080e+002, 9.360954e+001
4.580901e+002, 9.389883e+001
4.585722e+002, 9.430516e+001
4.590544e+002, 9.471646e+001
4.595365e+002, 9.511651e+001
4.600186e+002, 9.551070e+001
4.605007e+002, 9.583891e+001
4.609828e+002, 9.613939e+001
4.614649e+002, 9.660606e+001
4.619471e+002, 9.738197e+001
4.624292e+002, 9.839579e+001
4.629113e+002, 9.937284e+001
4.633934e+002, 1.002836e+002
4.638755e+002, 1.011994e+002
4.643576e+002, 1.021271e+002
4.648398e+002, 1.030725e+002
4.653219e+002, 1.040056e+002
4.658040e+002, 1.049405e+002
4.662861e+002, 1.059546e+002
4.667682e+002, 1.071173e+002
4.672503e+002, 1.084297e+002
4.677325e+002, 1.099755e+002
4.682146e+002, 1.119890e+002
4.686967e+002, 1.139900e+002
4.691788e+002, 1.158041e+002
4.696609e+002, 1.175337e+002
4.701430e+002, 1.192795e+002
4.706252e+002, 1.210781e+002
4.711073e+002, 1.230417e+002
4.715894e+002, 1.254285e+002
4.720715e+002, 1.283436e+002
4.725536e+002, 1.312003e+002
4.730357e+002, 1.336886e+002
4.735179e+002, 1.362913e+002
4.740000e+002, 1.392660e+002
4.744821e+002, 1.425874e+002
4.749642e+002, 1.461642e+002
4.754463e+002, 1.500290e+002
4.759284e+002, 1.540603e+002
4.764106e+002, 1.579466e+002
4.768927e+002, 1.615927e+002
4.773748e+002, 1.656052e+002
4.778569e+002, 1.704228e+002
4.783390e+002, 1.757197e+002
4.788211e+002, 1.808614e+002
4.793033e+002, 1.856811e+002
4.797854e+002, 1.908332e+002
4.802675e+002, 1.968420e+002
4.807496e+002, 2.033533e+002
4.812317e+002, 2.097504e+002
4.817138e+002, 2.159221e+002
4.821959e+002, 2.220520e+002
4.826780e+002, 2.283494e+002
4.831602e+002, 2.347956e+002
4.836423e+002, 2.411457e+002
4.841244e+002, 2.474863e+002
4.846065e+002, 2.536284e+002
4.850886e+002, 2.594254e+002
4.855707e+002, 2.650169e+002
4.860529e+002, 2.707628e+002
4.865350e+002, 2.768092e+002
4.870171e+002, 2.826737e+002
4.874992e+002, 2.875584e+002
4.879813e+002, 2.915219e+002
4.884634e+002, 2.943340e+002
4.889456e+002, 2.959273e+002
4.894277e+002, 2.966466e+002
4.899098e+002, 2.966165e+002
4.903919e+002, 2.958463e+002
4.908740e+002, 2.943022e+002
4.913561e+002, 2.919661e+002
4.918383e+002, 2.888489e+002
4.923204e+002, 2.849785e+002
4.928025e+002, 2.803784e+002
4.932846e+002, 2.749875e+002
4.937667e+002, 2.682563e+002
4.942488e+002, 2.611431e+002
4.947310e+002, 2.543237e+002
4.952131e+002, 2.478112e+002
4.956952e+002, 2.410204e+002
4.961773e+002, 2.332812e+002
4.966594e+002, 2.250287e+002
4.971415e+002, 2.175437e+002
4.976237e+002, 2.109455e+002
4.981058e+002, 2.046269e+002
4.985879e+002, 1.981408e+002
4.990700e+002, 1.917162e+002
4.995521e+002, 1.858300e+002
5.000342e+002, 1.806517e+002
5.005164e+002, 1.756063e+002
5.009985e+002, 1.701052e+002
5.014806e+002, 1.645891e+002
5.019627e+002, 1.598667e+002
5.024448e+002, 1.561228e+002
5.029269e+002, 1.527228e+002
5.034091e+002, 1.490841e+002
5.038912e+002, 1.451690e+002
5.043733e+002, 1.414944e+002
5.048554e+002, 1.380959e+002
5.053375e+002, 1.348692e+002
5.058196e+002, 1.318568e+002
5.063018e+002, 1.289643e+002
5.067839e+002, 1.260502e+002
5.072660e+002, 1.230680e+002
5.077481e+002, 1.201423e+002
5.082302e+002, 1.175069e+002
5.087123e+002, 1.152587e+002
5.091945e+002, 1.129398e+002
5.096766e+002, 1.103967e+002
5.101587e+002, 1.079422e+002
5.106408e+002, 1.056610e+002
5.111229e+002, 1.035538e+002
5.116050e+002, 1.016103e+002
5.120872e+002, 9.983201e+001
5.125693e+002, 9.818356e+001
5.130514e+002, 9.659889e+001
5.135335e+002, 9.506886e+001
5.140156e+002, 9.363462e+001
5.144977e+002, 9.237351e+001
5.149799e+002, 9.113518e+001
5.154620e+002, 8.978955e+001
5.159441e+002, 8.835148e+001
5.164262e+002, 8.693140e+001
5.169083e+002, 8.556976e+001
5.173904e+002, 8.424743e+001
5.178726e+002, 8.286008e+001
5.183547e+002, 8.143027e+001
5.188368e+002, 8.028130e+001
5.193189e+002, 7.964006e+001
5.198010e+002, 7.928170e+001
5.202831e+002, 7.871257e+001
5.207653e+002, 7.788599e+001
5.212474e+002, 7.703361e+001
5.217295e+002, 7.611031e+001
5.222116e+002, 7.523769e+001
5.226937e+002, 7.457084e+001
5.231758e+002, 7.408579e+001
5.236580e+002, 7.359120e+001
5.241401e+002, 7.293565e+001
5.246222e+002, 7.218343e+001
5.251043e+002, 7.166319e+001
5.255864e+002, 7.163738e+001
5.260685e+002, 7.147871e+001
5.265507e+002, 7.101485e+001
5.270328e+002, 7.048473e+001
5.275149e+002, 7.007918e+001
5.279970e+002, 6.982056e+001
5.284791e+002, 6.961769e+001
5.289612e+002, 6.938439e+001
5.294434e+002, 6.913655e+001
5.299255e+002, 6.898402e+001
5.304076e+002, 6.897955e+001
5.308897e+002, 6.894930e+001
5.313718e+002, 6.874622e+001
5.318539e+002, 6.851456e+001
5.323361e+002, 6.840809e+001
5.328182e+002, 6.845969e+001
5.333003e+002, 6.856798e+001
5.337824e+002, 6.869400e+001
5.342645e+002, 6.882433e+001
5.347466e+002, 6.889365e+001
5.352288e+002, 6.888204e+001
5.357109e+002, 6.897285e+001
5.361930e+002, 6.933633e+001
5.366751e+002, 6.992746e+001
5.371572e+002, 7.043230e+001
5.376393e+002, 7.077292e+001
5.381215e+002, 7.113242e+001
5.386036e+002, 7.174932e+001
5.390857e+002, 7.232989e+001
5.395678e+002, 7.243579e+001
5.400499e+002, 7.201360e+001
5.405320e+002, 7.143836e+001
5.410142e+002, 7.110578e+001
5.414963e+002, 7.102498e+001
5.419784e+002, 7.086753e+001
5.424604e+002, 7.069028e+001
5.429426e+002, 7.035594e+001
5.434247e+002, 6.964360e+001
5.439068e+002, 6.885405e+001
5.443889e+002, 6.837480e+001
5.448710e+002, 6.829504e+001
5.453531e+002, 6.828660e+001
5.458353e+002, 6.792557e+001
5.463174e+002, 6.725689e+001
5.467995e+002, 6.686137e+001
5.472816e+002, 6.687570e+001
5.477637e+002, 6.693859e+001
5.482458e+002, 6.684175e+001
5.487280e+002, 6.664165e+001
5.492101e+002, 6.640718e+001
5.496922e+002, 6.611672e+001
5.501743e+002, 6.586587e+001
5.506564e+002, 6.575912e+001
5.511385e+002, 6.572682e+001
5.516207e+002, 6.563949e+001
5.521028e+002, 6.547154e+001
5.525849e+002, 6.520210e+001
5.530670e+002, 6.478828e+001
5.535491e+002, 6.422810e+001
5.540313e+002, 6.375663e+001
5.545134e+002, 6.339335e+001
5.549955e+002, 6.308113e+001
5.554776e+002, 6.289044e+001
5.559597e+002, 6.270115e+001
5.564418e+002, 6.232657e+001
5.569240e+002, 6.173885e+001
5.574061e+002, 6.114187e+001
5.578882e+002, 6.080168e+001
5.583703e+002, 6.073569e+001
5.588524e+002, 6.046064e+001
5.593345e+002, 5.971152e+001
5.598167e+002, 5.914177e+001
5.602988e+002, 5.915424e+001
5.607809e+002, 5.936240e+001
5.612630e+002, 5.927523e+001
5.617451e+002, 5.875260e+001
5.622272e+002, 5.811907e+001
5.627094e+002, 5.762189e+001
5.631915e+002, 5.723970e+001
5.636736e+002, 5.689004e+001
5.641557e+002, 5.655001e+001
5.646378e+002, 5.631072e+001
5.651199e+002, 5.628667e+001
5.656021e+002, 5.642054e+001
5.660842e+002, 5.644401e+001
5.665663e+002, 5.631393e+001
5.670484e+002, 5.613772e+001
5.675305e+002, 5.591584e+001
5.680126e+002, 5.568583e+001
5.684948e+002, 5.548815e+001
5.689769e+002, 5.533315e+001
5.694590e+002, 5.523089e+001
5.699411e+002, 5.522196e+001
5.704232e+002, 5.528824e+001
5.709053e+002, 5.507305e+001
5.713875e+002, 5.423610e+001
5.718696e+002, 5.357091e+001
5.723517e+002, 5.318468e+001
5.728338e+002, 5.302178e+001
5.733159e+002, 5.313863e+001
5.737980e+002, 5.348773e+001
5.742802e+002, 5.374806e+001
5.747623e+002, 5.349859e+001
5.752444e+002, 5.291003e+001
5.757265e+002, 5.276448e+001
5.762086e+002, 5.318541e+001
5.766907e+002, 5.352916e+001
5.771729e+002, 5.344596e+001
5.776550e+002, 5.312697e+001
5.781371e+002, 5.287685e+001
5.786192e+002, 5.269909e+001
5.791013e+002, 5.259723e+001
5.795834e+002, 5.266849e+001
5.800656e+002, 5.275981e+001
5.805477e+002, 5.266515e+001
5.810298e+002, 5.239545e+001
5.815119e+002, 5.212989e+001
5.819940e+002, 5.198541e+001
5.824761e+002, 5.192080e+001
5.829583e+002, 5.178986e+001
5.834404e+002, 5.142671e+001
5.839225e+002, 5.125604e+001
5.844046e+002, 5.135880e+001
5.848867e+002, 5.158043e+001
5.853688e+002, 5.194118e+001
5.858510e+002, 5.233863e+001
5.863331e+002, 5.252118e+001
5.868152e+002, 5.229429e+001
5.872973e+002, 5.182464e+001
5.877794e+002, 5.145938e+001
5.882615e+002, 5.119042e+001
5.887437e+002, 5.109830e+001
5.892258e+002, 5.134665e+001
5.897079e+002, 5.162000e+001
5.901900e+002, 5.155623e+001
5.906721e+002, 5.122028e+001
5.911542e+002, 5.103828e+001
5.916364e+002, 5.129352e+001
5.921185e+002, 5.162379e+001
5.926006e+002, 5.173006e+001
5.930827e+002, 5.165641e+001
5.935648e+002, 5.151090e+001
5.940469e+002, 5.132184e+001
5.945291e+002, 5.118977e+001
5.950112e+002, 5.126645e+001
5.954933e+002, 5.160486e+001
5.959754e+002, 5.191948e+001
5.964575e+002, 5.229578e+001
5.969396e+002, 5.255915e+001
5.974218e+002, 5.253848e+001
5.979039e+002, 5.240750e+001
5.983860e+002, 5.241183e+001
5.988681e+002, 5.263457e+001
5.993502e+002, 5.296790e+001
5.998323e+002, 5.330354e+001
6.003145e+002, 5.364158e+001
6.007966e+002, 5.395293e+001
6.012787e+002, 5.422795e+001
6.017608e+002, 5.449179e+001
6.022429e+002, 5.486875e+001
6.027250e+002, 5.520666e+001
6.032072e+002, 5.518380e+001
6.036893e+002, 5.458009e+001
6.041714e+002, 5.415918e+001
6.046535e+002, 5.445706e+001
6.051356e+002, 5.510744e+001
6.056177e+002, 5.558097e+001
6.060999e+002, 5.582042e+001
6.065820e+002, 5.603759e+001
6.070641e+002, 5.638820e+001
6.075462e+002, 5.683119e+001
6.080283e+002, 5.718223e+001
6.085104e+002, 5.732484e+001
6.089926e+002, 5.753994e+001
6.094747e+002, 5.787238e+001
6.099568e+002, 5.825039e+001
6.104389e+002, 5.861000e+001
6.109210e+002, 5.896582e+001
6.114031e+002, 5.939171e+001
6.118853e+002, 5.995774e+001
6.123674e+002, 6.058419e+001
6.128495e+002, 6.109951e+001
6.133316e+002, 6.149693e+001
6.138137e+002, 6.188979e+001
6.142958e+002, 6.227573e+001
6.147780e+002, 6.270907e+001
6.152601e+002, 6.331454e+001
6.157422e+002, 6.405065e+001
6.162243e+002, 6.463725e+001
6.167064e+002, 6.490662e+001
6.171885e+002, 6.511924e+001
6.176707e+002, 6.540268e+001
6.181528e+002, 6.575676e+001
6.186349e+002, 6.619764e+001
6.191170e+002, 6.672594e+001
6.195991e+002, 6.725826e+001
6.200812e+002, 6.767434e+001
6.205634e+002, 6.795528e+001
6.210455e+002, 6.843545e+001
6.215276e+002, 6.940445e+001
6.220097e+002, 7.021794e+001
6.224918e+002, 7.058517e+001
6.229739e+002, 7.082195e+001
6.234561e+002, 7.127346e+001
6.239382e+002, 7.199358e+001
6.244203e+002, 7.274294e+001
6.249023e+002, 7.338288e+001
6.253845e+002, 7.389403e+001
6.258666e+002, 7.417005e+001
6.263487e+002, 7.418880e+001
6.268308e+002, 7.422121e+001
6.273129e+002, 7.438665e+001
6.277950e+002, 7.464159e+001
6.282772e+002, 7.494761e+001
6.287593e+002, 7.535718e+001
6.292414e+002, 7.557877e+001
6.297235e+002, 7.541940e+001
6.302056e+002, 7.519359e+001
6.306877e+002, 7.508720e+001
6.311699e+002, 7.509568e+001
6.316520e+002, 7.516237e+001
6.321341e+002, 7.526103e+001
6.326162e+002, 7.540609e+001
6.330983e+002, 7.568710e+001
6.335804e+002, 7.620265e+001
6.340626e+002, 7.633646e+001
6.345447e+002, 7.583325e+001
6.350268e+002, 7.526109e+001
6.355089e+002, 7.476212e+001
6.359910e+002, 7.439468e+001
6.364731e+002, 7.429209e+001
6.369553e+002, 7.454385e+001
6.374374e+002, 7.479757e+001
6.379195e+002, 7.475928e+001
6.384016e+002, 7.456285e+001
6.388837e+002, 7.444659e+001
6.393658e+002, 7.443933e+001
6.398480e+002, 7.448567e+001
6.403301e+002, 7.452995e+001
6.408122e+002, 7.462229e+001
6.412943e+002, 7.493650e+001
6.417764e+002, 7.566091e+001
6.422585e+002, 7.633753e+001
6.427407e+002, 7.676831e+001
6.432228e+002, 7.732411e+001
6.437049e+002, 7.818568e+001
6.441870e+002, 7.937681e+001
6.446691e+002, 8.092564e+001
6.451512e+002, 8.287245e+001
6.456334e+002, 8.502567e+001
6.461155e+002, 8.697636e+001
6.465976e+002, 8.873006e+001
6.470797e+002, 9.095574e+001
6.475618e+002, 9.378004e+001
6.480439e+002, 9.701794e+001
6.485261e+002, 1.006765e+002
6.490082e+002, 1.046491e+002
6.494903e+002, 1.085087e+002
6.499724e+002, 1.123527e+002
6.504545e+002, 1.158798e+002
6.509366e+002, 1.190708e+002
6.514188e+002, 1.218132e+002
6.519009e+002, 1.242264e+002
6.523830e+002, 1.261403e+002
6.528651e+002, 1.267665e+002
6.533472e+002, 1.254595e+002
6.538293e+002, 1.225498e+002
6.543115e+002, 1.192340e+002
6.547936e+002, 1.156250e+002
6.552757e+002, 1.113517e+002
6.557578e+002, 1.055760e+002
6.562399e+002, 9.978086e+001
6.567220e+002, 9.470238e+001
6.572042e+002, 9.027205e+001
6.576863e+002, 8.617873e+001
6.581684e+002, 8.224334e+001
6.586505e+002, 7.866656e+001
6.591326e+002, 7.564640e+001
6.596147e+002, 7.314211e+001
6.600969e+002, 7.104727e+001
6.605790e+002, 6.935145e+001
6.610611e+002, 6.790911e+001
6.615432e+002, 6.661066e+001
6.620253e+002, 6.544626e+001
6.625074e+002, 6.433416e+001
6.629896e+002, 6.310972e+001
6.634717e+002, 6.216474e+001
6.639538e+002, 6.169347e+001
6.644359e+002, 6.138752e+001
6.649180e+002, 6.099560e+001
6.654001e+002, 6.052942e+001
6.658823e+002, 6.015197e+001
6.663644e+002, 5.995949e+001
6.668465e+002, 5.991722e+001
6.673286e+002, 6.004306e+001
6.678107e+002, 6.032661e+001
6.682928e+002, 6.035148e+001
6.687750e+002, 5.991290e+001
6.692571e+002, 5.946646e+001
6.697392e+002, 5.948923e+001
6.702213e+002, 5.993162e+001
6.707034e+002, 6.021698e+001
6.711855e+002, 6.011131e+001
6.716677e+002, 6.012397e+001
6.721498e+002, 6.054064e+001
6.726319e+002, 6.108086e+001
6.731140e+002, 6.142033e+001
6.735961e+002, 6.154180e+001
6.740782e+002, 6.165044e+001
6.745604e+002, 6.189668e+001
6.750425e+002, 6.225832e+001
6.755246e+002, 6.269140e+001
6.760067e+002, 6.323393e+001
6.764888e+002, 6.366755e+001
6.769709e+002, 6.382438e+001
6.774531e+002, 6.400703e+001
6.779352e+002, 6.453250e+001
6.784173e+002, 6.529238e+001
6.788994e+002, 6.589086e+001
6.793815e+002, 6.615746e+001
6.798636e+002, 6.634629e+001
6.803458e+002, 6.661961e+001
6.808279e+002, 6.690664e+001
6.813100e+002, 6.705003e+001
6.817921e+002, 6.704802e+001
6.822742e+002, 6.711580e+001
6.827563e+002, 6.744772e+001
6.832385e+002, 6.797355e+001
6.837206e+002, 6.834830e+001
6.842027e+002, 6.852113e+001
6.846848e+002, 6.865135e+001
6.851669e+002, 6.869972e+001
6.856490e+002, 6.876181e+001
6.861312e+002, 6.890705e+001
6.866133e+002, 6.911275e+001
6.870954e+002, 6.930366e+001
6.875775e+002, 6.943388e+001
6.880596e+002, 6.957133e+001
6.885417e+002, 6.978593e+001
6.890239e+002, 7.005167e+001
6.895060e+002, 7.034825e+001
6.899881e+002, 7.066818e+001
6.904702e+002, 7.085965e+001
6.909523e+002, 7.079025e+001
6.914344e+002, 7.050636e+001
6.919166e+002, 7.024008e+001
6.923987e+002, 7.004625e+001
6.928808e+002, 6.977959e+001
6.933629e+002, 6.937449e+001
6.938450e+002, 6.895536e+001
6.943271e+002, 6.850410e+001
6.948093e+002, 6.810461e+001
6.952914e+002, 6.798997e+001
6.957735e+002, 6.836140e+001
6.962556e+002, 6.873760e+001
6.967377e+002, 6.847660e+001
6.972198e+002, 6.776490e+001
6.977020e+002, 6.725407e+001
6.981841e+002, 6.704812e+001
6.986662e+002, 6.698333e+001
6.991483e+002, 6.696687e+001
6.996304e+002, 6.699089e+001
7.001125e+002, 6.702818e+001
7.005947e+002, 6.719894e+001
7.010768e+002, 6.719351e+001
7.015589e+002, 6.694211e+001
7.020410e+002, 6.657600e+001
7.025231e+002, 6.611723e+001
7.030052e+002, 6.561771e+001
7.034874e+002, 6.516382e+001
7.039695e+002, 6.480035e+001
7.044516e+002, 6.445052e+001
7.049337e+002, 6.400431e+001
7.054158e+002, 6.348970e+001
7.058979e+002, 6.302683e+001
7.063801e+002, 6.262230e+001
7.068622e+002, 6.231808e+001
7.073442e+002, 6.217678e+001
7.078264e+002, 6.212208e+001
7.083085e+002, 6.195767e+001
7.087906e+002, 6.165109e+001
7.092727e+002, 6.132297e+001
7.097548e+002, 6.098377e+001
7.102369e+002, 6.061917e+001
7.107191e+002, 6.017348e+001
7.112012e+002, 5.971000e+001
7.116833e+002, 5.937153e+001
7.121654e+002, 5.920315e+001
7.126475e+002, 5.902956e+001
7.131296e+002, 5.858805e+001
7.136118e+002, 5.794631e+001
7.140939e+002, 5.750631e+001
7.145760e+002, 5.732273e+001
7.150581e+002, 5.707377e+001
7.155402e+002, 5.658018e+001
7.160223e+002, 5.598019e+001
7.165045e+002, 5.548247e+001
7.169866e+002, 5.507719e+001
7.174687e+002, 5.481684e+001
7.179508e+002, 5.489329e+001
7.184329e+002, 5.491759e+001
7.189150e+002, 5.470493e+001
7.193972e+002, 5.431470e+001
7.198793e+002, 5.379895e+001
7.203614e+002, 5.319469e+001
7.208435e+002, 5.261283e+001
7.213256e+002, 5.216016e+001
7.218077e+002, 5.181706e+001
7.222899e+002, 5.151670e+001
7.227720e+002, 5.125862e+001
7.232541e+002, 5.103693e+001
7.237362e+002, 5.087659e+001
7.242183e+002, 5.071364e+001
7.247004e+002, 5.047836e+001
7.251826e+002, 5.016939e+001
7.256647e+002, 4.981891e+001
7.261468e+002, 4.934570e+001
7.266289e+002, 4.892898e+001
7.271110e+002, 4.866489e+001
7.275931e+002, 4.847213e+001
7.280753e+002, 4.821517e+001
7.285574e+002, 4.791540e+001
7.290395e+002, 4.778082e+001
7.295216e+002, 4.801893e+001
7.300037e+002, 4.841985e+001
7.304858e+002, 4.848183e+001
7.309680e+002, 4.819356e+001
7.314501e+002, 4.785392e+001
7.319322e+002, 4.745614e+001
7.324143e+002, 4.716977e+001
7.328964e+002, 4.719729e+001
7.333785e+002, 4.746766e+001
7.338607e+002, 4.758816e+001
7.343428e+002, 4.746393e+001
7.348249e+002, 4.733706e+001
7.353070e+002, 4.721636e+001
7.357891e+002, 4.714307e+001
7.362712e+002, 4.719484e+001
7.367534e+002, 4.732277e+001
7.372355e+002, 4.738707e+001
7.377176e+002, 4.731435e+001
7.381997e+002, 4.719340e+001
7.386818e+002, 4.713721e+001
7.391639e+002, 4.714626e+001
7.396461e+002, 4.725529e+001
7.401282e+002, 4.750219e+001
7.406103e+002, 4.767921e+001
7.410924e+002, 4.762619e+001
7.415745e+002, 4.746104e+001
7.420566e+002, 4.746451e+001
7.425388e+002, 4.771268e+001
7.430209e+002, 4.785288e+001
7.435030e+002, 4.772918e+001
7.439851e+002, 4.762385e+001
7.444672e+002, 4.764646e+001
7.449493e+002, 4.780077e+001
7.454315e+002, 4.810327e+001
7.459136e+002, 4.854590e+001
7.463957e+002, 4.903405e+001
7.468778e+002, 4.954027e+001
7.473599e+002, 5.000800e+001
7.478420e+002, 5.021852e+001
7.483242e+002, 5.016567e+001
7.488063e+002, 5.008626e+001
7.492884e+002, 5.000666e+001
7.497705e+002, 5.006558e+001
7.502526e+002, 5.050586e+001
7.507347e+002, 5.136214e+001
7.512169e+002, 5.187156e+001
7.516990e+002, 5.173242e+001
7.521811e+002, 5.166790e+001
7.526632e+002, 5.189095e+001
7.531453e+002, 5.221632e+001
7.536274e+002, 5.251789e+001
7.541096e+002, 5.275786e+001
7.545917e+002, 5.289210e+001
7.550738e+002, 5.284760e+001
7.555559e+002, 5.278964e+001
7.560380e+002, 5.296555e+001
7.565201e+002, 5.333357e+001
7.570023e+002, 5.374375e+001
7.574844e+002, 5.418189e+001
7.579665e+002, 5.451114e+001
7.584486e+002, 5.461225e+001
7.589307e+002, 5.455288e+001
7.594128e+002, 5.456002e+001
7.598950e+002, 5.465869e+001
7.603771e+002, 5.478090e+001
7.608592e+002, 5.495649e+001
7.613413e+002, 5.512164e+001
7.618234e+002, 5.521387e+001
7.623055e+002, 5.528676e+001
7.627877e+002, 5.547881e+001
7.632698e+002, 5.583812e+001
7.637519e+002, 5.605433e+001
7.642340e+002, 5.574852e+001
7.647161e+002, 5.523221e+001
7.651982e+002, 5.501170e+001
7.656804e+002, 5.505988e+001
7.661625e+002, 5.511742e+001
7.666446e+002, 5.508551e+001
7.671267e+002, 5.501611e+001
7.676088e+002, 5.498573e+001
7.680909e+002, 5.499929e+001
7.685731e+002, 5.491297e+001
7.690552e+002, 5.468822e+001
7.695373e+002, 5.442348e+001
7.700194e+002, 5.408441e+001
7.705015e+002, 5.375835e+001
7.709836e+002, 5.354356e+001
7.714658e+002, 5.341645e+001
7.719479e+002, 5.324288e+001
7.724300e+002, 5.295508e+001
7.729121e+002, 5.263596e+001
7.733942e+002, 5.232460e+001
7.738763e+002, 5.202886e+001
7.743585e+002, 5.175771e+001
7.748406e+002, 5.151442e+001
7.753227e+002, 5.130548e+001
7.758048e+002, 5.113492e+001
7.762869e+002, 5.099788e+001
7.767690e+002, 5.092896e+001
7.772512e+002, 5.097776e+001
7.777333e+002, 5.072369e+001
7.782154e+002, 4.991610e+001
7.786975e+002, 4.922061e+001
7.791796e+002, 4.915812e+001
7.796617e+002, 4.936690e+001
7.801439e+002, 4.920825e+001
7.806260e+002, 4.856505e+001
7.811081e+002, 4.804363e+001
7.815902e+002, 4.784556e+001
7.820723e+002, 4.775782e+001
7.825544e+002, 4.772017e+001
7.830366e+002, 4.766888e+001
7.835187e+002, 4.750746e+001
7.840008e+002, 4.721783e+001
7.844829e+002, 4.687418e+001
7.849650e+002, 4.651464e+001
7.854471e+002, 4.617154e+001
7.859293e+002, 4.598582e+001
7.864114e+002, 4.596166e+001
7.868935e+002, 4.584545e+001
7.873756e+002, 4.556206e+001
7.878577e+002, 4.520184e+001
7.883398e+002, 4.480542e+001
7.888220e+002, 4.439574e+001
7.893040e+002, 4.418150e+001
7.897861e+002, 4.425986e+001
7.902682e+002, 4.438378e+001
7.907504e+002, 4.475567e+001
7.912325e+002, 4.496432e+001
7.917146e+002, 4.458509e+001
7.921967e+002, 4.386659e+001
7.926788e+002, 4.334179e+001
7.931609e+002, 4.320780e+001
7.936431e+002, 4.325100e+001
7.941252e+002, 4.338275e+001
7.946073e+002, 4.352355e+001
7.950894e+002, 4.347506e+001
7.955715e+002, 4.326363e+001
7.960536e+002, 4.315069e+001
7.965358e+002, 4.325248e+001
7.970179e+002, 4.340215e+001
7.975000e+002, 4.335536e+001
7.979821e+002, 4.309889e+001
7.984642e+002, 4.297163e+001
7.989464e+002, 4.309871e+001
7.994285e+002, 4.312731e+001
7.999106e+002, 4.279882e+001
8.003927e+002, 4.247697e+001
8.008748e+002, 4.246848e+001
8.013569e+002, 4.272335e+001
8.018391e+002, 4.295496e+001
8.023212e+002, 4.301892e+001
8.028033e+002, 4.314651e+001
8.032854e+002, 4.359140e+001
8.037675e+002, 4.408008e+001
8.042496e+002, 4.423889e+001
8.047318e+002, 4.411431e+001
8.052139e+002, 4.401399e+001
8.056960e+002, 4.410468e+001
8.061781e+002, 4.428799e+001
8.066602e+002, 4.440879e+001
8.071423e+002, 4.447319e+001
8.076245e+002, 4.457342e+001
8.081066e+002, 4.472915e+001
8.085887e+002, 4.483982e+001
8.090708e+002, 4.485680e+001
8.095529e+002, 4.481074e+001
8.100350e+002, 4.473921e+001
8.105172e+002, 4.463642e+001
8.109993e+002, 4.454557e+001
8.114814e+002, 4.437215e+001
8.119635e+002, 4.433012e+001
8.124456e+002, 4.461660e+001
8.129277e+002, 4.496102e+001
8.134099e+002, 4.509824e+001
8.138920e+002, 4.503703e+001
8.143741e+002, 4.494404e+001
8.148562e+002, 4.486142e+001
8.153383e+002, 4.486559e+001
8.158204e+002, 4.515546e+001
8.163026e+002, 4.556264e+001
8.167847e+002, 4.569583e+001
8.172668e+002, 4.552604e+001
8.177489e+002, 4.522652e+001
8.182310e+002, 4.487358e+001
8.187131e+002, 4.458108e+001
8.191953e+002, 4.460525e+001
8.196774e+002, 4.501531e+001
8.201595e+002, 4.531453e+001
8.206416e+002, 4.552994e+001
8.211237e+002, 4.558376e+001
8.216058e+002, 4.533992e+001
8.220880e+002, 4.499191e+001
8.225701e+002, 4.472657e+001
8.230522e+002, 4.454706e+001
8.235343e+002, 4.446509e+001
8.240164e+002, 4.453963e+001
8.244985e+002, 4.464522e+001
8.249807e+002, 4.482254e+001
8.254628e+002, 4.494073e+001
8.259449e+002, 4.478674e+001
8.264270e+002, 4.441880e+001
8.269091e+002, 4.411609e+001
8.273912e+002, 4.403870e+001
8.278734e+002, 4.407082e+001
8.283555e+002, 4.407126e+001
8.288376e+002, 4.404134e+001
8.293197e+002, 4.398054e+001
8.298018e+002, 4.388908e+001
8.302839e+002, 4.380645e+001
8.307661e+002, 4.377061e+001
8.312482e+002, 4.369336e+001
8.317303e+002, 4.338815e+001
8.322124e+002, 4.278169e+001
8.326945e+002, 4.249540e+001
8.331766e+002, 4.274872e+001
8.336588e+002, 4.301366e+001
8.341409e+002, 4.323363e+001
8.346230e+002, 4.336900e+001
8.351051e+002, 4.330346e+001
8.355872e+002, 4.310236e+001
8.360693e+002, 4.308131e+001
8.365515e+002, 4.348077e+001
8.370336e+002, 4.384617e+001
8.375157e+002, 4.388255e+001
8.379978e+002, 4.378456e+001
8.384799e+002, 4.376503e+001
8.389620e+002, 4.382861e+001
8.394442e+002, 4.389653e+001
8.399263e+002, 4.393169e+001
8.404084e+002, 4.395488e+001
8.408905e+002, 4.395909e+001
8.413726e+002, 4.396758e+001
8.418547e+002, 4.412819e+001
8.423369e+002, 4.444777e+001
8.428190e+002, 4.486145e+001
8.433011e+002, 4.540569e+001
8.437832e+002, 4.585291e+001
8.442653e+002, 4.589264e+001
8.447474e+002, 4.553811e+001
8.452296e+002, 4.535886e+001
8.457117e+002, 4.538995e+001
8.461938e+002, 4.555325e+001
8.466759e+002, 4.591898e+001
8.471580e+002, 4.633732e+001
8.476401e+002, 4.672948e+001
8.481223e+002, 4.710044e+001
8.486044e+002, 4.750217e+001
8.490865e+002, 4.798536e+001
8.495686e+002, 4.833016e+001
8.500507e+002, 4.830872e+001
8.505328e+002, 4.818013e+001
8.510150e+002, 4.816500e+001
8.514971e+002, 4.827070e+001
8.519792e+002, 4.848616e+001
8.524613e+002, 4.879820e+001
8.529434e+002, 4.916377e+001
8.534255e+002, 4.958561e+001
8.539077e+002, 4.998420e+001
8.543898e+002, 5.005225e+001
8.548719e+002, 4.979025e+001
8.553540e+002, 4.956628e+001
8.558361e+002, 4.943832e+001
8.563182e+002, 4.943229e+001
8.568004e+002, 4.959933e+001
8.572825e+002, 4.987974e+001
8.577646e+002, 5.007538e+001
8.582467e+002, 5.007401e+001
8.587288e+002, 5.023171e+001
8.592109e+002, 5.071618e+001
8.596931e+002, 5.115875e+001
8.601752e+002, 5.142662e+001
8.606573e+002, 5.158555e+001
8.611394e+002, 5.174148e+001
8.616215e+002, 5.189907e+001
8.621036e+002, 5.191887e+001
8.625858e+002, 5.169195e+001
8.630679e+002, 5.136694e+001
8.635500e+002, 5.094949e+001
8.640321e+002, 5.054891e+001
8.645142e+002, 5.038099e+001
8.649963e+002, 5.040530e+001
8.654785e+002, 5.034578e+001
8.659606e+002, 5.003419e+001
8.664427e+002, 4.962334e+001
8.669248e+002, 4.936685e+001
8.674069e+002, 4.922609e+001
8.678890e+002, 4.896063e+001
8.683712e+002, 4.855125e+001
8.688533e+002, 4.824784e+001
8.693354e+002, 4.819018e+001
8.698175e+002, 4.814814e+001
8.702996e+002, 4.779270e+001
8.707817e+002, 4.711932e+001
8.712639e+002, 4.660380e+001
8.717459e+002, 4.634914e+001
8.722280e+002, 4.607102e+001
8.727101e+002, 4.570037e+001
8.731923e+002, 4.531784e+001
8.736744e+002, 4.492885e+001
8.741565e+002, 4.457198e+001
8.746386e+002, 4.435366e+001
8.751207e+002, 4.436974e+001
8.756028e+002, 4.428700e+001
8.760850e+002, 4.388919e+001
8.765671e+002, 4.344871e+001
8.770492e+002, 4.316921e+001
8.775313e+002, 4.298945e+001
8.780134e+002, 4.279838e+001
8.784955e+002, 4.256291e+001
8.789777e+002, 4.228794e+001
8.794598e+002, 4.198357e+001
8.799419e+002, 4.163390e+001
8.804240e+002, 4.109190e+001
8.809061e+002, 4.047485e+001
8.813882e+002, 4.030041e+001
8.818704e+002, 4.062404e+001
8.823525e+002, 4.093836e+001
8.828346e+002, 4.092285e+001
8.833167e+002, 4.070028e+001
8.837988e+002, 4.047270e+001
8.842809e+002, 4.019302e+001
8.847631e+002, 4.033339e+001
8.852452e+002, 4.120787e+001
8.857273e+002, 4.171279e+001
8.862094e+002, 4.130720e+001
8.866915e+002, 4.053128e+001
8.871736e+002, 3.987031e+001
8.876558e+002, 3.933809e+001
8.881379e+002, 3.910448e+001
8.886200e+002, 3.933351e+001
8.891021e+002, 3.963631e+001
8.895842e+002, 4.008754e+001
8.900663e+002, 4.046004e+001
8.905485e+002, 4.048302e+001
8.910306e+002, 4.034073e+001
8.915127e+002, 4.042411e+001
8.919948e+002, 4.084916e+001
8.924769e+002, 4.129771e+001
8.929590e+002, 4.152349e+001
8.934412e+002, 4.170904e+001
8.939233e+002, 4.205281e+001
8.944054e+002, 4.250622e+001
8.948875e+002, 4.291056e+001
8.953696e+002, 4.326085e+001
8.958517e+002, 4.375676e+001
8.963339e+002, 4.454608e+001
8.968160e+002, 4.555996e+001
8.972981e+002, 4.671111e+001
8.977802e+002, 4.797806e+001
8.982623e+002, 4.910598e+001
8.987444e+002, 5.003180e+001
8.992266e+002, 5.129216e+001
8.997087e+002, 5.315715e+001
9.001908e+002, 5.545538e+001
9.006729e+002, 5.792567e+001
9.011550e+002, 6.055599e+001
9.016371e+002, 6.361443e+001
9.021193e+002, 6.709026e+001
9.026014e+002, 7.103474e+001
9.030835e+002, 7.518094e+001
9.035656e+002, 8.009978e+001
9.040477e+002, 8.608221e+001
9.045298e+002, 9.311045e+001
9.050120e+002, 1.010713e+002
9.054941e+002, 1.099205e+002
9.059762e+002, 1.197206e+002
9.064583e+002, 1.306011e+002
9.069404e+002, 1.422723e+002
9.074225e+002, 1.555365e+002
9.079047e+002, 1.688466e+002
9.083868e+002, 1.810835e+002
9.088689e+002, 1.914915e+002
9.093510e+002, 1.982915e+002
9.098331e+002, 2.006738e+002
9.103152e+002, 1.985411e+002
9.107974e+002, 1.907718e+002
9.112795e+002, 1.788171e+002
9.117616e+002, 1.642693e+002
9.122437e+002, 1.481120e+002
9.127258e+002, 1.325257e+002
9.132079e+002, 1.185533e+002
9.136901e+002, 1.062309e+002
9.141722e+002, 9.556554e+001
9.146543e+002, 8.657320e+001
9.151364e+002, 7.909748e+001
9.156185e+002, 7.314926e+001
9.161006e+002, 6.820478e+001
9.165828e+002, 6.414611e+001
9.170649e+002, 6.083346e+001
9.175470e+002, 5.820324e+001
9.180291e+002, 5.613785e+001
9.185112e+002, 5.419828e+001
9.189933e+002, 5.234556e+001
9.194755e+002, 5.067229e+001
9.199576e+002, 4.907679e+001
9.204397e+002, 4.780985e+001
9.209218e+002, 4.721815e+001
9.214039e+002, 4.684630e+001
9.218860e+002, 4.615972e+001
9.223682e+002, 4.517213e+001
9.228503e+002, 4.439894e+001
9.233324e+002, 4.404295e+001
9.238145e+002, 4.373061e+001
9.242966e+002, 4.335638e+001
9.247787e+002, 4.299029e+001
9.252609e+002, 4.267770e+001
9.257430e+002, 4.242161e+001
9.262251e+002, 4.222274e+001
9.267072e+002, 4.208193e+001
9.271893e+002, 4.196932e+001
9.276714e+002, 4.189314e+001
9.281536e+002, 4.181163e+001
9.286357e+002, 4.171779e+001
9.291178e+002, 4.157273e+001
9.295999e+002, 4.125079e+001
9.300820e+002, 4.077597e+001
9.305641e+002, 4.037487e+001
9.310463e+002, 4.019666e+001
9.315284e+002, 4.013612e+001
9.320105e+002, 4.005032e+001
9.324926e+002, 3.994157e+001
9.329747e+002, 3.980410e+001
9.334568e+002, 3.964220e+001
9.339390e+002, 3.953069e+001
9.344211e+002, 3.950254e+001
9.349032e+002, 3.948762e+001
9.353853e+002, 3.940522e+001
9.358674e+002, 3.927217e+001
9.363495e+002, 3.918463e+001
9.368317e+002, 3.914436e+001
9.373138e+002, 3.914228e+001
9.377959e+002, 3.917666e+001
9.382780e+002, 3.925060e+001
9.387601e+002, 3.936940e+001
9.392422e+002, 3.952726e+001
9.397244e+002, 3.972496e+001
9.402065e+002, 3.997715e+001
9.406886e+002, 4.017833e+001
9.411707e+002, 4.033647e+001
9.416528e+002, 4.043487e+001
9.421349e+002, 4.039855e+001
9.426171e+002, 4.036560e+001
9.430992e+002, 4.043709e+001
9.435813e+002, 4.059336e+001
9.440634e+002, 4.078378e+001
9.445455e+002, 4.102486e+001
9.450276e+002, 4.119996e+001
9.455098e+002, 4.134016e+001
9.459919e+002, 4.132675e+001
9.464740e+002, 4.096443e+001
9.469561e+002, 4.046501e+001
9.474382e+002, 4.011399e+001
9.479203e+002, 3.993629e+001
9.484025e+002, 3.976384e+001
9.488846e+002, 3.948519e+001
9.493667e+002, 3.923854e+001
9.498488e+002, 3.921622e+001
9.503309e+002, 3.927502e+001
9.508130e+002, 3.915368e+001
9.512952e+002, 3.890444e+001
9.517773e+002, 3.875372e+001
9.522594e+002, 3.877685e+001
9.527415e+002, 3.888791e+001
9.532236e+002, 3.903131e+001
9.537057e+002, 3.917072e+001
9.541878e+002, 3.920735e+001
9.546699e+002, 3.915451e+001
9.551520e+002, 3.907188e+001
9.556342e+002, 3.896861e+001
9.561163e+002, 3.897780e+001
9.565984e+002, 3.918371e+001
9.570805e+002, 3.946915e+001
9.575626e+002, 3.964143e+001
9.580447e+002, 3.970463e+001
9.585269e+002, 3.980769e+001
9.590090e+002, 3.994922e+001
9.594911e+002, 4.014391e+001
9.599732e+002, 4.040842e+001
9.604553e+002, 4.069200e+001
9.609374e+002, 4.093529e+001
9.614196e+002, 4.117943e+001
9.619017e+002, 4.154581e+001
9.623838e+002, 4.207486e+001
9.628659e+002, 4.259847e+001
9.633480e+002, 4.309080e+001
9.638301e+002, 4.360991e+001
9.643123e+002, 4.417561e+001
9.647944e+002, 4.476758e+001
9.652765e+002, 4.540004e+001
9.657586e+002, 4.605123e+001
9.662407e+002, 4.661599e+001
9.667228e+002, 4.697247e+001
9.672050e+002, 4.746729e+001
9.676871e+002, 4.831293e+001
9.681692e+002, 4.916752e+001
9.686513e+002, 4.984394e+001
9.691334e+002, 5.040425e+001
9.696155e+002, 5.088364e+001
9.700977e+002, 5.132253e+001
9.705798e+002, 5.188652e+001
9.710619e+002, 5.264603e+001
9.715440e+002, 5.355061e+001
9.720261e+002, 5.472654e+001
9.725082e+002, 5.590880e+001
9.729904e+002, 5.674743e+001
9.734725e+002, 5.736188e+001
9.739546e+002, 5.805302e+001
9.744367e+002, 5.891397e+001
9.749188e+002, 5.988802e+001
9.754009e+002, 6.114982e+001
9.758831e+002, 6.224905e+001
9.763652e+002, 6.254993e+001
9.768473e+002, 6.223680e+001
9.773294e+002, 6.163883e+001
9.778115e+002, 6.082910e+001
9.782936e+002, 5.985014e+001
9.787758e+002, 5.871784e+001
9.792579e+002, 5.755908e+001
9.797400e+002, 5.651679e+001
9.802221e+002, 5.557548e+001
9.807042e+002, 5.470474e+001
9.811863e+002, 5.391067e+001
9.816685e+002, 5.324540e+001
9.821506e+002, 5.272200e+001
9.826327e+002, 5.223006e+001
9.831148e+002, 5.169186e+001
9.835969e+002, 5.118515e+001
9.840790e+002, 5.087675e+001
9.845612e+002, 5.076870e+001
9.850433e+002, 5.061999e+001
9.855254e+002, 5.041699e+001
9.860075e+002, 5.025517e+001
9.864896e+002, 5.016096e+001
9.869717e+002, 5.010128e+001
9.874539e+002, 5.003363e+001
9.879360e+002, 4.999451e+001
9.884181e+002, 5.012001e+001
9.889002e+002, 5.050014e+001
9.893823e+002, 5.070879e+001
9.898644e+002, 5.061134e+001
9.903466e+002, 5.060549e+001
9.908287e+002, 5.087570e+001
9.913108e+002, 5.121949e+001
9.917929e+002, 5.142103e+001
9.922750e+002, 5.151897e+001
9.927571e+002, 5.174744e+001
9.932393e+002, 5.229121e+001
9.937214e+002, 5.263222e+001
9.942035e+002, 5.278092e+001
9.946856e+002, 5.270714e+001
9.951677e+002, 5.219957e+001
9.956498e+002, 5.160242e+001
9.961320e+002, 5.130931e+001
9.966141e+002, 5.129509e+001
9.970962e+002, 5.123369e+001
9.975783e+002, 5.106298e+001
9.980604e+002, 5.084346e+001
9.985425e+002, 5.056355e+001
9.990247e+002, 5.026726e+001
9.995068e+002, 4.993551e+001
9.999889e+002, 4.963163e+001
1.000471e+003, 4.942297e+001
1.000953e+003, 4.932602e+001
1.001435e+003, 4.937719e+001
1.001917e+003, 4.975464e+001
1.002399e+003, 5.003490e+001
1.002882e+003, 4.983236e+001
1.003364e+003, 4.956261e+001
1.003846e+003, 4.965956e+001
1.004328e+003, 4.998040e+001
1.004810e+003, 5.018456e+001
1.005292e+003, 5.019424e+001
1.005774e+003, 5.017983e+001
1.006256e+003, 5.022251e+001
1.006739e+003, 5.032227e+001
1.007221e+003, 5.047306e+001
1.007703e+003, 5.068437e+001
1.008185e+003, 5.103111e+001
1.008667e+003, 5.144542e+001
1.009149e+003, 5.173314e+001
1.009631e+003, 5.183070e+001
1.010113e+003, 5.186403e+001
1.010595e+003, 5.193161e+001
1.011078e+003, 5.201054e+001
1.011560e+003, 5.197070e+001
1.012042e+003, 5.194321e+001
1.012524e+003, 5.234340e+001
1.013006e+003, 5.310400e+001
1.013488e+003, 5.370902e+001
1.013970e+003, 5.393437e+001
1.014452e+003, 5.395412e+001
1.014935e+003, 5.387354e+001
1.015417e+003, 5.380417e+001
1.015899e+003, 5.410412e+001
1.016381e+003, 5.468267e+001
1.016863e+003, 5.510567e+001
1.017345e+003, 5.531567e+001
1.017827e+003, 5.546231e+001
1.018309e+003, 5.561776e+001
1.018791e+003, 5.583258e+001
1.019274e+003, 5.624788e+001
1.019756e+003, 5.676210e+001
1.020238e+003, 5.678214e+001
1.020720e+003, 5.633455e+001
1.021202e+003, 5.612739e+001
1.021684e+003, 5.628679e+001
1.022166e+003, 5.664853e+001
1.022648e+003, 5.713776e+001
1.023130e+003, 5.768978e+001
1.023613e+003, 5.825475e+001
1.024095e+003, 5.880896e+001
1.024577e+003, 5.885069e+001
1.025059e+003, 5.828500e+001
1.025541e+003, 5.804195e+001
1.026023e+003, 5.836008e+001
1.026505e+003, 5.871674e+001
1.026987e+003, 5.880013e+001
1.027469e+003, 5.868861e+001
1.027952e+003, 5.849624e+001
1.028434e+003, 5.821069e+001
1.028916e+003, 5.814943e+001
1.029398e+003, 5.841415e+001
1.029880e+003, 5.852690e+001
1.030362e+003, 5.832390e+001
1.030844e+003, 5.813162e+001
1.031326e+003, 5.817221e+001
1.031809e+003, 5.835441e+001
1.032291e+003, 5.850457e+001
1.032773e+003, 5.862840e+001
1.033255e+003, 5.866541e+001
1.033737e+003, 5.852941e+001
1.034219e+003, 5.850050e+001
1.034701e+003, 5.866846e+001
1.035183e+003, 5.890587e+001
1.035666e+003, 5.920860e+001
1.036148e+003, 5.947462e+001
1.036630e+003, 5.946083e+001
1.037112e+003, 5.910042e+001
1.037594e+003, 5.883173e+001
1.038076e+003, 5.864521e+001
1.038558e+003, 5.856958e+001
1.039040e+003, 5.871179e+001
1.039522e+003, 5.885390e+001
1.040005e+003, 5.883863e+001
1.040487e+003, 5.872949e+001
1.040969e+003, 5.866287e+001
1.041451e+003, 5.865065e+001
1.041933e+003, 5.861504e+001
1.042415e+003, 5.842515e+001
1.042897e+003, 5.839356e+001
1.043379e+003, 5.871439e+001
1.043861e+003, 5.907499e+001
1.044344e+003, 5.930895e+001
1.044826e+003, 5.942881e+001
1.045308e+003, 5.942582e+001
1.045790e+003, 5.926092e+001
1.046272e+003, 5.925750e+001
1.046754e+003, 5.953579e+001
1.047236e+003, 5.986135e+001
1.047718e+003, 6.026820e+001
1.048201e+003, 6.061486e+001
1.048683e+003, 6.073280e+001
1.049165e+003, 6.074957e+001
1.049647e+003, 6.092617e+001
1.050129e+003, 6.130654e+001
1.050611e+003, 6.164277e+001
1.051093e+003, 6.189770e+001
1.051575e+003, 6.208454e+001
1.052057e+003, 6.210593e+001
1.052540e+003, 6.215696e+001
1.053022e+003, 6.241242e+001
1.053504e+003, 6.278516e+001
1.053986e+003, 6.310956e+001
1.054468e+003, 6.336236e+001
1.054950e+003, 6.360231e+001
1.055432e+003, 6.389598e+001
1.055914e+003, 6.411034e+001
1.056396e+003, 6.406486e+001
1.056879e+003, 6.405492e+001
1.057361e+003, 6.435066e+001
1.057843e+003, 6.481872e+001
1.058325e+003, 6.523067e+001
1.058807e+003, 6.554842e+001
1.059289e+003, 6.579365e+001
1.059771e+003, 6.590129e+001
1.060253e+003, 6.603580e+001
1.060736e+003, 6.620716e+001
1.061218e+003, 6.648068e+001
1.061700e+003, 6.698674e+001
1.062182e+003, 6.759367e+001
1.062664e+003, 6.810432e+001
1.063146e+003, 6.848380e+001
1.063628e+003, 6.876236e+001
1.064110e+003, 6.888615e+001
1.064593e+003, 6.900564e+001
1.065075e+003, 6.916882e+001
1.065557e+003, 6.936511e+001
1.066039e+003, 6.950012e+001
1.066521e+003, 6.970644e+001
1.067003e+003, 7.029301e+001
1.067485e+003, 7.122868e+001
1.067967e+003, 7.193450e+001
1.068449e+003, 7.212341e+001
1.068932e+003, 7.216920e+001
1.069414e+003, 7.202038e+001
1.069896e+003, 7.201265e+001
1.070378e+003, 7.255013e+001
1.070860e+003, 7.330387e+001
1.071342e+003, 7.380505e+001
1.071824e+003, 7.401234e+001
1.072306e+003, 7.417395e+001
1.072788e+003, 7.433456e+001
1.073271e+003, 7.456668e+001
1.073753e+003, 7.494358e+001
1.074235e+003, 7.536305e+001
1.074717e+003, 7.580025e+001
1.075199e+003, 7.620372e+001
1.075681e+003, 7.644291e+001
1.076163e+003, 7.657737e+001
1.076645e+003, 7.692840e+001
1.077127e+003, 7.771262e+001
1.077610e+003, 7.837914e+001
1.078092e+003, 7.859462e+001
1.078574e+003, 7.869407e+001
1.079056e+003, 7.884758e+001
1.079538e+003, 7.905710e+001
1.080020e+003, 7.926885e+001
1.080502e+003, 7.952427e+001
1.080984e+003, 7.999046e+001
1.081467e+003, 8.076854e+001
1.081949e+003, 8.150059e+001
1.082431e+003, 8.201095e+001
1.082913e+003, 8.244835e+001
1.083395e+003, 8.276826e+001
1.083877e+003, 8.316451e+001
1.084359e+003, 8.395108e+001
1.084841e+003, 8.497089e+001
1.085323e+003, 8.579815e+001
1.085806e+003, 8.632003e+001
1.086288e+003, 8.664143e+001
1.086770e+003, 8.661900e+001
1.087252e+003, 8.663938e+001
1.087734e+003, 8.675584e+001
1.088216e+003, 8.713674e+001
1.088698e+003, 8.821642e+001
1.089180e+003, 8.959047e+001
1.089662e+003, 9.034095e+001
1.090145e+003, 9.028263e+001
1.090627e+003, 9.033255e+001
1.091109e+003, 9.084319e+001
1.091591e+003, 9.152293e+001
1.092073e+003, 9.242654e+001
1.092555e+003, 9.327787e+001
1.093037e+003, 9.367510e+001
1.093519e+003, 9.394502e+001
1.094002e+003, 9.471514e+001
1.094484e+003, 9.603201e+001
1.094966e+003, 9.723174e+001
1.095448e+003, 9.796643e+001
1.095930e+003, 9.875446e+001
1.096412e+003, 9.979285e+001
1.096894e+003, 1.009056e+002
1.097376e+003, 1.019641e+002
1.097859e+003, 1.030492e+002
1.098341e+003, 1.043157e+002
1.098823e+003, 1.057395e+002
1.099305e+003, 1.070923e+002
1.099787e+003, 1.081742e+002
1.100269e+003, 1.094941e+002
1.100751e+003, 1.114441e+002
1.101233e+003, 1.133420e+002
1.101715e+003, 1.146199e+002
1.102198e+003, 1.158639e+002
1.102680e+003, 1.178333e+002
1.103162e+003, 1.203352e+002
1.103644e+003, 1.224633e+002
1.104126e+003, 1.238982e+002
1.104608e+003, 1.255862e+002
1.105090e+003, 1.278381e+002
1.105572e+003, 1.301744e+002
1.106054e+003, 1.322888e+002
1.106537e+003, 1.345565e+002
1.107019e+003, 1.374583e+002
1.107501e+003, 1.407263e+002
1.107983e+003, 1.436505e+002
1.108465e+003, 1.460962e+002
1.108947e+003, 1.487160e+002
1.109429e+003, 1.517164e+002
1.109911e+003, 1.546851e+002
1.110394e+003, 1.574698e+002
1.110876e+003, 1.602565e+002
1.111358e+003, 1.631115e+002
1.111840e+003, 1.660755e+002
1.112322e+003, 1.691592e+002
1.112804e+003, 1.723439e+002
1.113286e+003, 1.758961e+002
1.113768e+003, 1.803191e+002
1.114250e+003, 1.842409e+002
1.114733e+003, 1.870740e+002
1.115215e+003, 1.900584e+002
1.115697e+003, 1.938521e+002
1.116179e+003, 1.979356e+002
1.116661e+003, 2.017140e+002
1.117143e+003, 2.052364e+002
1.117625e+003, 2.088700e+002
1.118107e+003, 2.126567e+002
1.118589e+003, 2.164134e+002
1.119072e+003, 2.201134e+002
1.119554e+003, 2.238367e+002
1.120036e+003, 2.277009e+002
1.120518e+003, 2.314619e+002
1.121000e+003, 2.348324e+002
1.121482e+003, 2.380307e+002
1.121964e+003, 2.417443e+002
1.122446e+003, 2.461519e+002
1.122929e+003, 2.499189e+002
1.123411e+003, 2.528256e+002
1.123893e+003, 2.559459e+002
1.124375e+003, 2.596917e+002
1.124857e+003, 2.631046e+002
1.125339e+003, 2.655006e+002
1.125821e+003, 2.673572e+002
1.126303e+003, 2.694776e+002
1.126786e+003, 2.718356e+002
1.127268e+003, 2.739886e+002
1.127750e+003, 2.759278e+002
1.128232e+003, 2.777800e+002
1.128714e+003, 2.796652e+002
1.129196e+003, 2.803910e+002
1.129678e+003, 2.792296e+002
1.130160e+003, 2.778200e+002
1.130642e+003, 2.781699e+002
1.131125e+003, 2.795638e+002
1.131607e+003, 2.793617e+002
1.132089e+003, 2.776628e+002
1.132571e+003, 2.762594e+002
1.133053e+003, 2.752322e+002
1.133535e+003, 2.738618e+002
1.134017e+003, 2.719274e+002
1.134499e+003, 2.696261e+002
1.134981e+003, 2.671071e+002
1.135464e+003, 2.643304e+002
1.135946e+003, 2.610492e+002
1.136428e+003, 2.574671e+002
1.136910e+003, 2.546031e+002
1.137392e+003, 2.522132e+002
1.137874e+003, 2.488357e+002
1.138356e+003, 2.443851e+002
1.138838e+003, 2.404210e+002
1.139321e+003, 2.377255e+002
1.139803e+003, 2.354316e+002
1.140285e+003, 2.326654e+002
1.140767e+003, 2.295054e+002
1.141249e+003, 2.259115e+002
1.141731e+003, 2.220978e+002
1.142213e+003, 2.184289e+002
1.142695e+003, 2.150195e+002
1.143177e+003, 2.120922e+002
1.143660e+003, 2.096674e+002
1.144142e+003, 2.073237e+002
1.144624e+003, 2.047268e+002
1.145106e+003, 2.021464e+002
1.145588e+003, 1.999050e+002
1.146070e+003, 1.978062e+002
1.146552e+003, 1.955414e+002
1.147034e+003, 1.932570e+002
1.147516e+003, 1.913516e+002
1.147999e+003, 1.897554e+002
1.148481e+003, 1.878843e+002
1.148963e+003, 1.854152e+002
1.149445e+003, 1.830835e+002
1.149927e+003, 1.812380e+002
1.150409e+003, 1.798212e+002
1.150891e+003, 1.790503e+002
1.151373e+003, 1.784715e+002
1.151856e+003, 1.776093e+002
1.152338e+003, 1.765332e+002
1.152820e+003, 1.755186e+002
1.153302e+003, 1.746228e+002
1.153784e+003, 1.736964e+002
1.154266e+003, 1.726596e+002
1.154748e+003, 1.716195e+002
1.155230e+003, 1.704745e+002
1.155713e+003, 1.694888e+002
1.156195e+003, 1.689407e+002
1.156677e+003, 1.685713e+002
1.157159e+003, 1.680249e+002
1.157641e+003, 1.673146e+002
1.158123e+003, 1.666980e+002
1.158605e+003, 1.662274e+002
1.159087e+003, 1.657840e+002
1.159569e+003, 1.653457e+002
1.160052e+003, 1.649525e+002
1.160534e+003, 1.645266e+002
1.161016e+003, 1.642542e+002
1.161498e+003, 1.644467e+002
1.161980e+003, 1.647901e+002
1.162462e+003, 1.645413e+002
1.162944e+003, 1.636140e+002
1.163426e+003, 1.630310e+002
1.163908e+003, 1.629184e+002
1.164391e+003, 1.628052e+002
1.164873e+003, 1.626904e+002
1.165355e+003, 1.623576e+002
1.165837e+003, 1.616020e+002
1.166319e+003, 1.608521e+002
1.166801e+003, 1.606469e+002
1.167283e+003, 1.608362e+002
1.167765e+003, 1.608318e+002
1.168247e+003, 1.606341e+002
1.168730e+003, 1.601637e+002
1.169212e+003, 1.594092e+002
1.169694e+003, 1.587691e+002
1.170176e+003, 1.583565e+002
1.170658e+003, 1.579854e+002
1.171140e+003, 1.575251e+002
1.171622e+003, 1.570549e+002
1.172104e+003, 1.567285e+002
1.172587e+003, 1.564854e+002
1.173069e+003, 1.560965e+002
1.173551e+003, 1.556080e+002
1.174033e+003, 1.552008e+002
1.174515e+003, 1.548811e+002
1.174997e+003, 1.544852e+002
1.175479e+003, 1.539746e+002
1.175961e+003, 1.537225e+002
1.176443e+003, 1.541629e+002
1.176926e+003, 1.547180e+002
1.177408e+003, 1.545793e+002
1.177890e+003, 1.541634e+002
1.178372e+003, 1.541586e+002
1.178854e+003, 1.543237e+002
1.179336e+003, 1.540347e+002
1.179818e+003, 1.533137e+002
1.180300e+003, 1.527243e+002
1.180782e+003, 1.525043e+002
1.181265e+003, 1.523965e+002
1.181747e+003, 1.522418e+002
1.182229e+003, 1.521558e+002
1.182711e+003, 1.523314e+002
1.183193e+003, 1.525087e+002
1.183675e+003, 1.523489e+002
1.184157e+003, 1.520419e+002
1.184639e+003, 1.519813e+002
1.185122e+003, 1.522131e+002
1.185604e+003, 1.524489e+002
1.186086e+003, 1.526887e+002
1.186568e+003, 1.528232e+002
1.187050e+003, 1.526324e+002
1.187532e+003, 1.525837e+002
1.188014e+003, 1.530098e+002
1.188496e+003, 1.535466e+002
1.188979e+003, 1.538695e+002
1.189461e+003, 1.540328e+002
1.189943e+003, 1.541892e+002
1.190425e+003, 1.543524e+002
1.190907e+003, 1.544075e+002
1.191389e+003, 1.542596e+002
1.191871e+003, 1.542900e+002
1.192353e+003, 1.546326e+002
1.192835e+003, 1.549636e+002
1.193318e+003, 1.551707e+002
1.193800e+003, 1.551153e+002
1.194282e+003, 1.545315e+002
1.194764e+003, 1.536579e+002
1.195246e+003, 1.534710e+002
1.195728e+003, 1.539478e+002
1.196210e+003, 1.545691e+002
1.196692e+003, 1.552955e+002
1.197174e+003, 1.559487e+002
1.197657e+003, 1.564727e+002
1.198139e+003, 1.567159e+002
1.198621e+003, 1.565629e+002
1.199103e+003, 1.563762e+002
1.199585e+003, 1.567477e+002
1.200067e+003, 1.573363e+002
1.200549e+003, 1.573773e+002
1.201031e+003, 1.571361e+002
1.201514e+003, 1.571934e+002
1.201996e+003, 1.575310e+002
1.202478e+003, 1.579062e+002
1.202960e+003, 1.582404e+002
1.203442e+003, 1.585290e+002
1.203924e+003, 1.587409e+002
1.204406e+003, 1.589980e+002
1.204888e+003, 1.594282e+002
1.205370e+003, 1.599033e+002
1.205853e+003, 1.602524e+002
1.206335e+003, 1.606309e+002
1.206817e+003, 1.613043e+002
1.207299e+003, 1.621608e+002
1.207781e+003, 1.628618e+002
1.208263e+003, 1.633310e+002
1.208745e+003, 1.637987e+002
1.209227e+003, 1.641712e+002
1.209709e+003, 1.647646e+002
1.210192e+003, 1.660193e+002
1.210674e+003, 1.670692e+002
1.211156e+003, 1.670311e+002
1.211638e+003, 1.669790e+002
1.212120e+003, 1.681995e+002
1.212602e+003, 1.702619e+002
1.213084e+003, 1.714332e+002
1.213566e+003, 1.713822e+002
1.214049e+003, 1.721718e+002
1.214531e+003, 1.740639e+002
1.215013e+003, 1.757540e+002
1.215495e+003, 1.769827e+002
1.215977e+003, 1.780726e+002
1.216459e+003, 1.791902e+002
1.216941e+003, 1.802110e+002
1.217423e+003, 1.808819e+002
1.217906e+003, 1.815002e+002
1.218388e+003, 1.831239e+002
1.218870e+003, 1.855336e+002
1.219352e+003, 1.877404e+002
1.219834e+003, 1.896703e+002
1.220316e+003, 1.911134e+002
1.220798e+003, 1.921480e+002
1.221280e+003, 1.935720e+002
1.221762e+003, 1.958371e+002
1.222245e+003, 1.982258e+002
1.222727e+003, 1.998020e+002
1.223209e+003, 2.013397e+002
1.223691e+003, 2.037251e+002
1.224173e+003, 2.066157e+002
1.224655e+003, 2.097889e+002
1.225137e+003, 2.129733e+002
1.225619e+003, 2.157027e+002
1.226101e+003, 2.179556e+002
1.226584e+003, 2.201981e+002
1.227066e+003, 2.224861e+002
1.227548e+003, 2.250351e+002
1.228030e+003, 2.278926e+002
1.228512e+003, 2.310451e+002
1.228994e+003, 2.347244e+002
1.229476e+003, 2.384704e+002
1.229958e+003, 2.416987e+002
1.230441e+003, 2.448766e+002
1.230923e+003, 2.489576e+002
1.231405e+003, 2.539164e+002
1.231887e+003, 2.583174e+002
1.232369e+003, 2.617428e+002
1.232851e+003, 2.659263e+002
1.233333e+003, 2.711483e+002
1.233815e+003, 2.764161e+002
1.234297e+003, 2.813900e+002
1.234780e+003, 2.865706e+002
1.235262e+003, 2.923536e+002
1.235744e+003, 2.985220e+002
1.236226e+003, 3.047665e+002
1.236708e+003, 3.110402e+002
1.237190e+003, 3.172794e+002
1.237672e+003, 3.234418e+002
1.238154e+003, 3.293331e+002
1.238636e+003, 3.350890e+002
1.239119e+003, 3.414974e+002
1.239601e+003, 3.487477e+002
1.240083e+003, 3.564836e+002
1.240565e+003, 3.645494e+002
1.241047e+003, 3.726950e+002
1.241529e+003, 3.805036e+002
1.242011e+003, 3.884712e+002
1.242493e+003, 3.974107e+002
1.242975e+003, 4.066592e+002
1.243458e+003, 4.152611e+002
1.243940e+003, 4.235815e+002
1.244422e+003, 4.324733e+002
1.244904e+003, 4.421104e+002
1.245386e+003, 4.519997e+002
1.245868e+003, 4.625962e+002
1.246350e+003, 4.723060e+002
1.246832e+003, 4.802961e+002
1.247315e+003, 4.881696e+002
1.247797e+003, 4.965901e+002
1.248279e+003, 5.049136e+002
1.248761e+003, 5.125316e+002
1.249243e+003, 5.199315e+002
1.249725e+003, 5.282703e+002
1.250207e+003, 5.373793e+002
1.250689e+003, 5.445786e+002
1.251172e+003, 5.497375e+002
1.251654e+003, 5.541237e+002
1.252136e+003, 5.578099e+002
1.252618e+003, 5.619070e+002
1.253100e+003, 5.667420e+002
1.253582e+003, 5.708210e+002
1.254064e+003, 5.731022e+002
1.254546e+003, 5.740959e+002
1.255028e+003, 5.742740e+002
1.255510e+003, 5.737919e+002
1.255993e+003, 5.729327e+002
1.256475e+003, 5.716354e+002
1.256957e+003, 5.696611e+002
1.257439e+003, 5.672037e+002
1.257921e+003, 5.650431e+002
1.258403e+003, 5.630560e+002
1.258885e+003, 5.594761e+002
1.259367e+003, 5.530531e+002
1.259850e+003, 5.469482e+002
1.260332e+003, 5.435446e+002
1.260814e+003, 5.396082e+002
1.261296e+003, 5.328391e+002
1.261778e+003, 5.256995e+002
1.262260e+003, 5.201561e+002
1.262742e+003, 5.154453e+002
1.263224e+003, 5.104215e+002
1.263707e+003, 5.050247e+002
1.264189e+003, 4.991570e+002
1.264671e+003, 4.926516e+002
1.265153e+003, 4.861141e+002
1.265635e+003, 4.794431e+002
1.266117e+003, 4.733954e+002
1.266599e+003, 4.682252e+002
1.267081e+003, 4.629840e+002
1.267563e+003, 4.570979e+002
1.268046e+003, 4.512897e+002
1.268528e+003, 4.464509e+002
1.269010e+003, 4.421154e+002
1.269492e+003, 4.371669e+002
1.269974e+003, 4.318350e+002
1.270456e+003, 4.265067e+002
1.270938e+003, 4.213197e+002
1.271420e+003, 4.166865e+002
1.271902e+003, 4.124947e+002
1.272385e+003, 4.080354e+002
1.272867e+003, 4.030436e+002
1.273349e+003, 3.982016e+002
1.273831e+003, 3.940104e+002
1.274313e+003, 3.899117e+002
1.274795e+003, 3.851904e+002
1.275277e+003, 3.809090e+002
1.275759e+003, 3.784850e+002
1.276242e+003, 3.762928e+002
1.276724e+003, 3.721386e+002
1.277206e+003, 3.666685e+002
1.277688e+003, 3.623368e+002
1.278170e+003, 3.592880e+002
1.278652e+003, 3.560114e+002
1.279134e+003, 3.522622e+002
1.279616e+003, 3.493522e+002
1.280099e+003, 3.476939e+002
1.280581e+003, 3.453057e+002
1.281063e+003, 3.413675e+002
1.281545e+003, 3.374064e+002
1.282027e+003, 3.346063e+002
1.282509e+003, 3.324404e+002
1.282991e+003, 3.302154e+002
1.283473e+003, 3.278464e+002
1.283955e+003, 3.252272e+002
##END=



