##NAMES=Cyrilovite
##RRUFFID=R060504
##IDEAL CHEMISTRY=NaFe^3+^_3_(PO_4_)_2_(OH)_4_&#183;2H_2_O
##LOCALITY=Gunheath pit, St. Austell, Cornwall, England
##OWNER=RRUFF
##SOURCE=Michael Scott
##DESCRIPTION=Group of yellowish-brown indistinct small crystals associated with leucophosphite, R060338, and green chalcosiderite, R060339
##STATUS=The identification of this mineral has been confirmed by single-crystal X-ray diffraction.
##URL=rruff.info/R060504
8.806445e+001, 1.323240e+003
8.854657e+001, 1.314512e+003
8.902869e+001, 1.311544e+003
8.951080e+001, 1.317512e+003
8.999292e+001, 1.327810e+003
9.047504e+001, 1.338260e+003
9.095715e+001, 1.348056e+003
9.143927e+001, 1.356909e+003
9.192139e+001, 1.363964e+003
9.240350e+001, 1.369197e+003
9.288562e+001, 1.374834e+003
9.336774e+001, 1.373914e+003
9.384985e+001, 1.357391e+003
9.433197e+001, 1.322766e+003
9.481409e+001, 1.287588e+003
9.529620e+001, 1.249540e+003
9.577832e+001, 1.213407e+003
9.626044e+001, 1.179779e+003
9.674255e+001, 1.149747e+003
9.722467e+001, 1.124622e+003
9.770679e+001, 1.104650e+003
9.818890e+001, 1.087314e+003
9.867102e+001, 1.073269e+003
9.915314e+001, 1.060103e+003
9.963525e+001, 1.045416e+003
1.001174e+002, 1.027998e+003
1.005995e+002, 1.008937e+003
1.010816e+002, 9.921943e+002
1.015637e+002, 9.782719e+002
1.020458e+002, 9.660539e+002
1.025280e+002, 9.556381e+002
1.030101e+002, 9.465455e+002
1.034922e+002, 9.380958e+002
1.039743e+002, 9.298500e+002
1.044564e+002, 9.217437e+002
1.049385e+002, 9.146290e+002
1.054207e+002, 9.093966e+002
1.059028e+002, 9.039908e+002
1.063849e+002, 8.979435e+002
1.068670e+002, 8.910378e+002
1.073491e+002, 8.820557e+002
1.078312e+002, 8.684241e+002
1.083134e+002, 8.505540e+002
1.087955e+002, 8.362548e+002
1.092776e+002, 8.280068e+002
1.097597e+002, 8.233953e+002
1.102418e+002, 8.191793e+002
1.107239e+002, 8.150457e+002
1.112061e+002, 8.110086e+002
1.116882e+002, 8.067844e+002
1.121703e+002, 8.024765e+002
1.126524e+002, 7.989423e+002
1.131345e+002, 7.971813e+002
1.136166e+002, 7.970485e+002
1.140988e+002, 7.961591e+002
1.145809e+002, 7.939771e+002
1.150630e+002, 7.910544e+002
1.155451e+002, 7.873124e+002
1.160272e+002, 7.828760e+002
1.165093e+002, 7.785118e+002
1.169915e+002, 7.752393e+002
1.174736e+002, 7.735538e+002
1.179557e+002, 7.716857e+002
1.184378e+002, 7.685971e+002
1.189199e+002, 7.658422e+002
1.194020e+002, 7.644778e+002
1.198842e+002, 7.648571e+002
1.203663e+002, 7.666343e+002
1.208484e+002, 7.690514e+002
1.213305e+002, 7.724163e+002
1.218126e+002, 7.761725e+002
1.222947e+002, 7.813143e+002
1.227769e+002, 7.865854e+002
1.232590e+002, 7.900127e+002
1.237411e+002, 7.903685e+002
1.242232e+002, 7.886309e+002
1.247053e+002, 7.895131e+002
1.251874e+002, 7.935356e+002
1.256696e+002, 7.988197e+002
1.261517e+002, 8.050234e+002
1.266338e+002, 8.120356e+002
1.271159e+002, 8.195916e+002
1.275980e+002, 8.275639e+002
1.280801e+002, 8.359789e+002
1.285623e+002, 8.446966e+002
1.290444e+002, 8.533823e+002
1.295265e+002, 8.625982e+002
1.300086e+002, 8.730997e+002
1.304907e+002, 8.850183e+002
1.309728e+002, 8.974620e+002
1.314550e+002, 9.093987e+002
1.319371e+002, 9.215688e+002
1.324192e+002, 9.350597e+002
1.329013e+002, 9.501161e+002
1.333834e+002, 9.668347e+002
1.338655e+002, 9.856156e+002
1.343477e+002, 1.007084e+003
1.348298e+002, 1.030012e+003
1.353119e+002, 1.054218e+003
1.357940e+002, 1.079159e+003
1.362761e+002, 1.103789e+003
1.367582e+002, 1.127264e+003
1.372404e+002, 1.149405e+003
1.377225e+002, 1.172099e+003
1.382046e+002, 1.197364e+003
1.386867e+002, 1.221213e+003
1.391688e+002, 1.242375e+003
1.396509e+002, 1.260854e+003
1.401331e+002, 1.277347e+003
1.406152e+002, 1.292754e+003
1.410973e+002, 1.307098e+003
1.415794e+002, 1.319566e+003
1.420615e+002, 1.332925e+003
1.425436e+002, 1.342979e+003
1.430258e+002, 1.347002e+003
1.435079e+002, 1.344589e+003
1.439900e+002, 1.337462e+003
1.444721e+002, 1.327681e+003
1.449542e+002, 1.314592e+003
1.454363e+002, 1.299694e+003
1.459185e+002, 1.281974e+003
1.464006e+002, 1.262782e+003
1.468827e+002, 1.243427e+003
1.473648e+002, 1.224195e+003
1.478469e+002, 1.205232e+003
1.483290e+002, 1.186258e+003
1.488112e+002, 1.166700e+003
1.492933e+002, 1.149629e+003
1.497754e+002, 1.136532e+003
1.502575e+002, 1.126862e+003
1.507396e+002, 1.118950e+003
1.512217e+002, 1.112749e+003
1.517039e+002, 1.107896e+003
1.521860e+002, 1.103465e+003
1.526681e+002, 1.099329e+003
1.531502e+002, 1.096434e+003
1.536323e+002, 1.095643e+003
1.541144e+002, 1.096999e+003
1.545966e+002, 1.099344e+003
1.550787e+002, 1.103289e+003
1.555608e+002, 1.107607e+003
1.560429e+002, 1.111376e+003
1.565250e+002, 1.114413e+003
1.570071e+002, 1.117302e+003
1.574893e+002, 1.121089e+003
1.579714e+002, 1.126491e+003
1.584535e+002, 1.130800e+003
1.589356e+002, 1.133772e+003
1.594177e+002, 1.135533e+003
1.598998e+002, 1.136054e+003
1.603820e+002, 1.135328e+003
1.608641e+002, 1.133466e+003
1.613462e+002, 1.130718e+003
1.618283e+002, 1.126839e+003
1.623104e+002, 1.122233e+003
1.627925e+002, 1.116042e+003
1.632747e+002, 1.109537e+003
1.637568e+002, 1.103973e+003
1.642389e+002, 1.100010e+003
1.647210e+002, 1.097441e+003
1.652031e+002, 1.095516e+003
1.656852e+002, 1.093692e+003
1.661674e+002, 1.093125e+003
1.666495e+002, 1.094434e+003
1.671316e+002, 1.097114e+003
1.676137e+002, 1.100375e+003
1.680958e+002, 1.103852e+003
1.685779e+002, 1.107492e+003
1.690601e+002, 1.111013e+003
1.695422e+002, 1.115653e+003
1.700243e+002, 1.119009e+003
1.705064e+002, 1.121019e+003
1.709885e+002, 1.121239e+003
1.714706e+002, 1.117942e+003
1.719528e+002, 1.109512e+003
1.724349e+002, 1.096355e+003
1.729170e+002, 1.082642e+003
1.733991e+002, 1.068988e+003
1.738812e+002, 1.054260e+003
1.743633e+002, 1.037316e+003
1.748455e+002, 1.018088e+003
1.753276e+002, 9.978170e+002
1.758097e+002, 9.764865e+002
1.762918e+002, 9.546580e+002
1.767739e+002, 9.332773e+002
1.772560e+002, 9.122805e+002
1.777382e+002, 8.920767e+002
1.782203e+002, 8.734718e+002
1.787024e+002, 8.567162e+002
1.791845e+002, 8.409604e+002
1.796666e+002, 8.257145e+002
1.801487e+002, 8.112463e+002
1.806309e+002, 7.981004e+002
1.811130e+002, 7.865912e+002
1.815951e+002, 7.764525e+002
1.820772e+002, 7.666889e+002
1.825593e+002, 7.566841e+002
1.830414e+002, 7.483536e+002
1.835236e+002, 7.421003e+002
1.840057e+002, 7.376398e+002
1.844878e+002, 7.347172e+002
1.849699e+002, 7.334225e+002
1.854520e+002, 7.334769e+002
1.859341e+002, 7.330750e+002
1.864163e+002, 7.312246e+002
1.868984e+002, 7.300466e+002
1.873805e+002, 7.302140e+002
1.878626e+002, 7.313610e+002
1.883447e+002, 7.329191e+002
1.888268e+002, 7.345896e+002
1.893090e+002, 7.363434e+002
1.897911e+002, 7.373072e+002
1.902732e+002, 7.371146e+002
1.907553e+002, 7.365202e+002
1.912374e+002, 7.356534e+002
1.917195e+002, 7.345370e+002
1.922017e+002, 7.332256e+002
1.926838e+002, 7.318366e+002
1.931659e+002, 7.304020e+002
1.936480e+002, 7.276502e+002
1.941301e+002, 7.231829e+002
1.946122e+002, 7.181361e+002
1.950944e+002, 7.126696e+002
1.955765e+002, 7.069744e+002
1.960586e+002, 7.014285e+002
1.965407e+002, 6.963828e+002
1.970228e+002, 6.918602e+002
1.975049e+002, 6.873307e+002
1.979871e+002, 6.823196e+002
1.984692e+002, 6.776526e+002
1.989513e+002, 6.739544e+002
1.994334e+002, 6.712092e+002
1.999155e+002, 6.688416e+002
2.003976e+002, 6.664628e+002
2.008798e+002, 6.640807e+002
2.013619e+002, 6.617661e+002
2.018440e+002, 6.596605e+002
2.023261e+002, 6.575448e+002
2.028082e+002, 6.551038e+002
2.032903e+002, 6.523115e+002
2.037725e+002, 6.497189e+002
2.042546e+002, 6.479166e+002
2.047367e+002, 6.466988e+002
2.052188e+002, 6.454948e+002
2.057009e+002, 6.439566e+002
2.061830e+002, 6.424772e+002
2.066652e+002, 6.416512e+002
2.071473e+002, 6.415977e+002
2.076294e+002, 6.417676e+002
2.081115e+002, 6.416713e+002
2.085936e+002, 6.415535e+002
2.090757e+002, 6.418658e+002
2.095579e+002, 6.429906e+002
2.100400e+002, 6.445575e+002
2.105221e+002, 6.457730e+002
2.110042e+002, 6.464125e+002
2.114863e+002, 6.472109e+002
2.119685e+002, 6.487247e+002
2.124506e+002, 6.505794e+002
2.129327e+002, 6.522100e+002
2.134148e+002, 6.532592e+002
2.138969e+002, 6.539506e+002
2.143790e+002, 6.550132e+002
2.148612e+002, 6.567939e+002
2.153433e+002, 6.583752e+002
2.158254e+002, 6.594739e+002
2.163075e+002, 6.601989e+002
2.167896e+002, 6.606140e+002
2.172717e+002, 6.606129e+002
2.177539e+002, 6.604301e+002
2.182360e+002, 6.611455e+002
2.187181e+002, 6.633361e+002
2.192002e+002, 6.657613e+002
2.196823e+002, 6.677774e+002
2.201644e+002, 6.698791e+002
2.206466e+002, 6.727775e+002
2.211287e+002, 6.769150e+002
2.216108e+002, 6.821345e+002
2.220929e+002, 6.875063e+002
2.225750e+002, 6.928450e+002
2.230571e+002, 6.985995e+002
2.235393e+002, 7.048414e+002
2.240214e+002, 7.115057e+002
2.245035e+002, 7.186004e+002
2.249856e+002, 7.261414e+002
2.254677e+002, 7.339924e+002
2.259498e+002, 7.411799e+002
2.264320e+002, 7.472618e+002
2.269141e+002, 7.531445e+002
2.273962e+002, 7.590175e+002
2.278783e+002, 7.647858e+002
2.283604e+002, 7.703428e+002
2.288425e+002, 7.756341e+002
2.293247e+002, 7.806485e+002
2.298068e+002, 7.853530e+002
2.302889e+002, 7.902811e+002
2.307710e+002, 7.943333e+002
2.312531e+002, 7.969653e+002
2.317352e+002, 7.985834e+002
2.322174e+002, 7.999915e+002
2.326995e+002, 8.016768e+002
2.331816e+002, 8.033558e+002
2.336637e+002, 8.036637e+002
2.341458e+002, 8.024782e+002
2.346279e+002, 8.003839e+002
2.351101e+002, 7.975412e+002
2.355922e+002, 7.938859e+002
2.360743e+002, 7.892462e+002
2.365564e+002, 7.835425e+002
2.370385e+002, 7.768367e+002
2.375206e+002, 7.694059e+002
2.380028e+002, 7.609988e+002
2.384849e+002, 7.524266e+002
2.389670e+002, 7.440694e+002
2.394491e+002, 7.358056e+002
2.399312e+002, 7.269754e+002
2.404133e+002, 7.169901e+002
2.408955e+002, 7.069528e+002
2.413776e+002, 6.992637e+002
2.418597e+002, 6.943094e+002
2.423418e+002, 6.901853e+002
2.428239e+002, 6.860750e+002
2.433060e+002, 6.822026e+002
2.437882e+002, 6.791649e+002
2.442703e+002, 6.772150e+002
2.447524e+002, 6.762242e+002
2.452345e+002, 6.758729e+002
2.457166e+002, 6.761024e+002
2.461987e+002, 6.769873e+002
2.466809e+002, 6.787662e+002
2.471630e+002, 6.812631e+002
2.476451e+002, 6.839411e+002
2.481272e+002, 6.866657e+002
2.486093e+002, 6.894814e+002
2.490914e+002, 6.924238e+002
2.495736e+002, 6.954695e+002
2.500557e+002, 6.986202e+002
2.505378e+002, 7.021846e+002
2.510199e+002, 7.059265e+002
2.515020e+002, 7.090013e+002
2.519841e+002, 7.115709e+002
2.524663e+002, 7.128503e+002
2.529484e+002, 7.121117e+002
2.534305e+002, 7.095266e+002
2.539126e+002, 7.064653e+002
2.543947e+002, 7.040837e+002
2.548768e+002, 7.020143e+002
2.553590e+002, 6.985111e+002
2.558411e+002, 6.929504e+002
2.563232e+002, 6.863679e+002
2.568053e+002, 6.792230e+002
2.572874e+002, 6.717174e+002
2.577695e+002, 6.645677e+002
2.582516e+002, 6.582104e+002
2.587338e+002, 6.525547e+002
2.592159e+002, 6.473092e+002
2.596980e+002, 6.422930e+002
2.601801e+002, 6.380109e+002
2.606622e+002, 6.346306e+002
2.611443e+002, 6.320509e+002
2.616265e+002, 6.300634e+002
2.621086e+002, 6.287194e+002
2.625907e+002, 6.278845e+002
2.630728e+002, 6.269407e+002
2.635549e+002, 6.256396e+002
2.640370e+002, 6.246282e+002
2.645192e+002, 6.244019e+002
2.650013e+002, 6.245582e+002
2.654834e+002, 6.245118e+002
2.659655e+002, 6.240764e+002
2.664476e+002, 6.231257e+002
2.669297e+002, 6.210455e+002
2.674119e+002, 6.169013e+002
2.678940e+002, 6.131446e+002
2.683761e+002, 6.113902e+002
2.688582e+002, 6.101456e+002
2.693403e+002, 6.075099e+002
2.698224e+002, 6.024991e+002
2.703046e+002, 5.957518e+002
2.707867e+002, 5.889701e+002
2.712688e+002, 5.822266e+002
2.717509e+002, 5.753211e+002
2.722330e+002, 5.679558e+002
2.727151e+002, 5.605389e+002
2.731973e+002, 5.534192e+002
2.736794e+002, 5.467295e+002
2.741615e+002, 5.403765e+002
2.746436e+002, 5.340236e+002
2.751257e+002, 5.272473e+002
2.756078e+002, 5.213677e+002
2.760900e+002, 5.170844e+002
2.765721e+002, 5.132800e+002
2.770542e+002, 5.089374e+002
2.775363e+002, 5.037815e+002
2.780184e+002, 4.985063e+002
2.785005e+002, 4.943643e+002
2.789827e+002, 4.919203e+002
2.794648e+002, 4.893964e+002
2.799469e+002, 4.865596e+002
2.804290e+002, 4.837178e+002
2.809111e+002, 4.813092e+002
2.813932e+002, 4.792998e+002
2.818754e+002, 4.770674e+002
2.823575e+002, 4.736277e+002
2.828396e+002, 4.682424e+002
2.833217e+002, 4.638228e+002
2.838038e+002, 4.610503e+002
2.842859e+002, 4.585451e+002
2.847681e+002, 4.557020e+002
2.852502e+002, 4.524240e+002
2.857323e+002, 4.488609e+002
2.862144e+002, 4.451089e+002
2.866965e+002, 4.410743e+002
2.871786e+002, 4.373743e+002
2.876608e+002, 4.341743e+002
2.881429e+002, 4.311023e+002
2.886250e+002, 4.280480e+002
2.891071e+002, 4.249986e+002
2.895892e+002, 4.219655e+002
2.900714e+002, 4.189378e+002
2.905535e+002, 4.159271e+002
2.910356e+002, 4.129740e+002
2.915177e+002, 4.097549e+002
2.919998e+002, 4.069451e+002
2.924819e+002, 4.050036e+002
2.929641e+002, 4.035905e+002
2.934462e+002, 4.020459e+002
2.939283e+002, 3.999117e+002
2.944104e+002, 3.973187e+002
2.948925e+002, 3.950797e+002
2.953746e+002, 3.933756e+002
2.958568e+002, 3.918544e+002
2.963389e+002, 3.906119e+002
2.968210e+002, 3.894795e+002
2.973031e+002, 3.882733e+002
2.977852e+002, 3.869019e+002
2.982673e+002, 3.853534e+002
2.987495e+002, 3.836075e+002
2.992316e+002, 3.812762e+002
2.997137e+002, 3.792090e+002
3.001958e+002, 3.775891e+002
3.006779e+002, 3.761647e+002
3.011600e+002, 3.747283e+002
3.016422e+002, 3.731966e+002
3.021243e+002, 3.715414e+002
3.026064e+002, 3.696823e+002
3.030885e+002, 3.671685e+002
3.035706e+002, 3.653011e+002
3.040527e+002, 3.646067e+002
3.045349e+002, 3.641519e+002
3.050170e+002, 3.632208e+002
3.054991e+002, 3.617051e+002
3.059812e+002, 3.599843e+002
3.064633e+002, 3.584920e+002
3.069454e+002, 3.572076e+002
3.074276e+002, 3.562971e+002
3.079097e+002, 3.558006e+002
3.083918e+002, 3.555793e+002
3.088739e+002, 3.556738e+002
3.093560e+002, 3.560093e+002
3.098381e+002, 3.563657e+002
3.103203e+002, 3.565327e+002
3.108024e+002, 3.564821e+002
3.112845e+002, 3.567037e+002
3.117666e+002, 3.572696e+002
3.122487e+002, 3.579896e+002
3.127308e+002, 3.587299e+002
3.132130e+002, 3.595766e+002
3.136951e+002, 3.606676e+002
3.141772e+002, 3.620649e+002
3.146593e+002, 3.638160e+002
3.151414e+002, 3.662311e+002
3.156235e+002, 3.708724e+002
3.161057e+002, 3.743839e+002
3.165878e+002, 3.752271e+002
3.170699e+002, 3.748924e+002
3.175520e+002, 3.753563e+002
3.180341e+002, 3.775063e+002
3.185162e+002, 3.808953e+002
3.189984e+002, 3.843727e+002
3.194805e+002, 3.882206e+002
3.199626e+002, 3.917694e+002
3.204447e+002, 3.949453e+002
3.209268e+002, 3.978628e+002
3.214089e+002, 4.004300e+002
3.218911e+002, 4.026983e+002
3.223732e+002, 4.051240e+002
3.228553e+002, 4.084927e+002
3.233374e+002, 4.135210e+002
3.238195e+002, 4.176629e+002
3.243016e+002, 4.203798e+002
3.247838e+002, 4.227396e+002
3.252659e+002, 4.253676e+002
3.257480e+002, 4.283153e+002
3.262301e+002, 4.312717e+002
3.267122e+002, 4.339854e+002
3.271943e+002, 4.364661e+002
3.276765e+002, 4.384831e+002
3.281586e+002, 4.399569e+002
3.286407e+002, 4.411050e+002
3.291228e+002, 4.419060e+002
3.296049e+002, 4.424407e+002
3.300870e+002, 4.428707e+002
3.305692e+002, 4.433146e+002
3.310513e+002, 4.437382e+002
3.315334e+002, 4.438742e+002
3.320155e+002, 4.436439e+002
3.324976e+002, 4.431903e+002
3.329797e+002, 4.425915e+002
3.334619e+002, 4.417634e+002
3.339440e+002, 4.405803e+002
3.344261e+002, 4.389843e+002
3.349082e+002, 4.370634e+002
3.353904e+002, 4.349326e+002
3.358725e+002, 4.318211e+002
3.363546e+002, 4.298163e+002
3.368367e+002, 4.297238e+002
3.373188e+002, 4.302018e+002
3.378009e+002, 4.302032e+002
3.382831e+002, 4.294918e+002
3.387652e+002, 4.284732e+002
3.392473e+002, 4.276877e+002
3.397294e+002, 4.272264e+002
3.402115e+002, 4.267060e+002
3.406936e+002, 4.257042e+002
3.411758e+002, 4.250123e+002
3.416579e+002, 4.252426e+002
3.421400e+002, 4.261990e+002
3.426221e+002, 4.271703e+002
3.431042e+002, 4.275417e+002
3.435863e+002, 4.273126e+002
3.440685e+002, 4.271347e+002
3.445506e+002, 4.267214e+002
3.450327e+002, 4.266751e+002
3.455148e+002, 4.275497e+002
3.459969e+002, 4.288083e+002
3.464790e+002, 4.295757e+002
3.469612e+002, 4.293472e+002
3.474433e+002, 4.284507e+002
3.479254e+002, 4.279923e+002
3.484075e+002, 4.287039e+002
3.488896e+002, 4.286162e+002
3.493717e+002, 4.271277e+002
3.498539e+002, 4.250206e+002
3.503360e+002, 4.228853e+002
3.508181e+002, 4.209304e+002
3.513002e+002, 4.190997e+002
3.517823e+002, 4.173938e+002
3.522644e+002, 4.159875e+002
3.527466e+002, 4.141298e+002
3.532287e+002, 4.115503e+002
3.537108e+002, 4.086977e+002
3.541929e+002, 4.055957e+002
3.546750e+002, 4.023689e+002
3.551571e+002, 3.993531e+002
3.556393e+002, 3.969786e+002
3.561214e+002, 3.952299e+002
3.566035e+002, 3.929908e+002
3.570856e+002, 3.896153e+002
3.575677e+002, 3.865396e+002
3.580498e+002, 3.845332e+002
3.585320e+002, 3.831264e+002
3.590141e+002, 3.814321e+002
3.594962e+002, 3.788577e+002
3.599783e+002, 3.758784e+002
3.604604e+002, 3.738676e+002
3.609425e+002, 3.732311e+002
3.614247e+002, 3.726139e+002
3.619068e+002, 3.717633e+002
3.623889e+002, 3.706754e+002
3.628710e+002, 3.691782e+002
3.633531e+002, 3.672015e+002
3.638352e+002, 3.653340e+002
3.643174e+002, 3.644570e+002
3.647995e+002, 3.647028e+002
3.652816e+002, 3.645365e+002
3.657637e+002, 3.631497e+002
3.662458e+002, 3.617608e+002
3.667279e+002, 3.612169e+002
3.672101e+002, 3.614566e+002
3.676922e+002, 3.618371e+002
3.681743e+002, 3.619486e+002
3.686564e+002, 3.618379e+002
3.691385e+002, 3.617075e+002
3.696206e+002, 3.615436e+002
3.701028e+002, 3.613997e+002
3.705849e+002, 3.613797e+002
3.710670e+002, 3.613939e+002
3.715491e+002, 3.612733e+002
3.720312e+002, 3.609348e+002
3.725133e+002, 3.604561e+002
3.729955e+002, 3.599235e+002
3.734776e+002, 3.593330e+002
3.739597e+002, 3.587484e+002
3.744418e+002, 3.583705e+002
3.749239e+002, 3.578890e+002
3.754060e+002, 3.568758e+002
3.758882e+002, 3.551969e+002
3.763703e+002, 3.534066e+002
3.768524e+002, 3.520038e+002
3.773345e+002, 3.508388e+002
3.778166e+002, 3.492525e+002
3.782987e+002, 3.470042e+002
3.787809e+002, 3.444599e+002
3.792630e+002, 3.419629e+002
3.797451e+002, 3.395019e+002
3.802272e+002, 3.370982e+002
3.807093e+002, 3.349846e+002
3.811914e+002, 3.328385e+002
3.816736e+002, 3.301363e+002
3.821557e+002, 3.268365e+002
3.826378e+002, 3.234662e+002
3.831199e+002, 3.203426e+002
3.836020e+002, 3.174888e+002
3.840841e+002, 3.148598e+002
3.845663e+002, 3.125772e+002
3.850484e+002, 3.103839e+002
3.855305e+002, 3.080612e+002
3.860126e+002, 3.056947e+002
3.864947e+002, 3.035514e+002
3.869768e+002, 3.017603e+002
3.874590e+002, 3.002173e+002
3.879411e+002, 2.987711e+002
3.884232e+002, 2.975284e+002
3.889053e+002, 2.960703e+002
3.893874e+002, 2.939402e+002
3.898695e+002, 2.917295e+002
3.903517e+002, 2.901454e+002
3.908338e+002, 2.893035e+002
3.913159e+002, 2.888315e+002
3.917980e+002, 2.883373e+002
3.922801e+002, 2.877955e+002
3.927622e+002, 2.876089e+002
3.932444e+002, 2.881214e+002
3.937265e+002, 2.886299e+002
3.942086e+002, 2.886398e+002
3.946907e+002, 2.883392e+002
3.951728e+002, 2.883056e+002
3.956549e+002, 2.889091e+002
3.961371e+002, 2.899421e+002
3.966192e+002, 2.905514e+002
3.971013e+002, 2.901500e+002
3.975834e+002, 2.900479e+002
3.980655e+002, 2.903485e+002
3.985476e+002, 2.909849e+002
3.990298e+002, 2.919111e+002
3.995119e+002, 2.931050e+002
3.999940e+002, 2.945399e+002
4.004761e+002, 2.961945e+002
4.009582e+002, 2.981089e+002
4.014403e+002, 3.001048e+002
4.019225e+002, 3.025033e+002
4.024046e+002, 3.046695e+002
4.028867e+002, 3.060397e+002
4.033688e+002, 3.069109e+002
4.038509e+002, 3.080481e+002
4.043330e+002, 3.100046e+002
4.048152e+002, 3.126513e+002
4.052973e+002, 3.152532e+002
4.057794e+002, 3.178841e+002
4.062615e+002, 3.203538e+002
4.067436e+002, 3.227085e+002
4.072257e+002, 3.248678e+002
4.077079e+002, 3.266023e+002
4.081900e+002, 3.278729e+002
4.086721e+002, 3.291390e+002
4.091542e+002, 3.311027e+002
4.096363e+002, 3.339257e+002
4.101184e+002, 3.366328e+002
4.106006e+002, 3.392722e+002
4.110827e+002, 3.416269e+002
4.115648e+002, 3.433488e+002
4.120469e+002, 3.446404e+002
4.125290e+002, 3.461325e+002
4.130111e+002, 3.482338e+002
4.134933e+002, 3.508469e+002
4.139754e+002, 3.537361e+002
4.144575e+002, 3.570438e+002
4.149396e+002, 3.602423e+002
4.154217e+002, 3.628461e+002
4.159038e+002, 3.652830e+002
4.163860e+002, 3.680860e+002
4.168681e+002, 3.714798e+002
4.173502e+002, 3.749340e+002
4.178323e+002, 3.778044e+002
4.183144e+002, 3.801851e+002
4.187965e+002, 3.827848e+002
4.192787e+002, 3.858108e+002
4.197608e+002, 3.890879e+002
4.202429e+002, 3.925535e+002
4.207250e+002, 3.961730e+002
4.212071e+002, 3.995217e+002
4.216892e+002, 4.022079e+002
4.221714e+002, 4.046703e+002
4.226535e+002, 4.077827e+002
4.231356e+002, 4.116107e+002
4.236177e+002, 4.147209e+002
4.240998e+002, 4.159861e+002
4.245819e+002, 4.157265e+002
4.250641e+002, 4.156762e+002
4.255462e+002, 4.160326e+002
4.260283e+002, 4.163482e+002
4.265104e+002, 4.165760e+002
4.269925e+002, 4.166121e+002
4.274746e+002, 4.163371e+002
4.279568e+002, 4.157362e+002
4.284389e+002, 4.145884e+002
4.289210e+002, 4.125510e+002
4.294031e+002, 4.094319e+002
4.298852e+002, 4.057114e+002
4.303673e+002, 4.007259e+002
4.308495e+002, 3.956425e+002
4.313316e+002, 3.912171e+002
4.318137e+002, 3.874419e+002
4.322958e+002, 3.839720e+002
4.327779e+002, 3.806123e+002
4.332600e+002, 3.772814e+002
4.337422e+002, 3.733847e+002
4.342243e+002, 3.681392e+002
4.347064e+002, 3.632396e+002
4.351885e+002, 3.589068e+002
4.356706e+002, 3.550217e+002
4.361527e+002, 3.515611e+002
4.366349e+002, 3.484822e+002
4.371170e+002, 3.455797e+002
4.375991e+002, 3.425222e+002
4.380812e+002, 3.391740e+002
4.385633e+002, 3.361812e+002
4.390454e+002, 3.339649e+002
4.395276e+002, 3.317352e+002
4.400097e+002, 3.290692e+002
4.404918e+002, 3.261519e+002
4.409739e+002, 3.233777e+002
4.414560e+002, 3.209753e+002
4.419381e+002, 3.189271e+002
4.424203e+002, 3.171825e+002
4.429024e+002, 3.158328e+002
4.433845e+002, 3.145730e+002
4.438666e+002, 3.135073e+002
4.443487e+002, 3.123783e+002
4.448308e+002, 3.107878e+002
4.453130e+002, 3.086778e+002
4.457951e+002, 3.068270e+002
4.462772e+002, 3.058160e+002
4.467593e+002, 3.056026e+002
4.472414e+002, 3.060566e+002
4.477235e+002, 3.073276e+002
4.482057e+002, 3.089330e+002
4.486878e+002, 3.107303e+002
4.491699e+002, 3.125926e+002
4.496520e+002, 3.141348e+002
4.501341e+002, 3.148217e+002
4.506162e+002, 3.155619e+002
4.510984e+002, 3.173785e+002
4.515805e+002, 3.201032e+002
4.520626e+002, 3.225876e+002
4.525447e+002, 3.241522e+002
4.530268e+002, 3.255468e+002
4.535089e+002, 3.284110e+002
4.539911e+002, 3.330457e+002
4.544732e+002, 3.373138e+002
4.549553e+002, 3.404017e+002
4.554374e+002, 3.430908e+002
4.559195e+002, 3.462921e+002
4.564016e+002, 3.500606e+002
4.568838e+002, 3.537150e+002
4.573659e+002, 3.567190e+002
4.578480e+002, 3.591006e+002
4.583301e+002, 3.614817e+002
4.588122e+002, 3.642640e+002
4.592943e+002, 3.665889e+002
4.597765e+002, 3.681778e+002
4.602586e+002, 3.692221e+002
4.607407e+002, 3.700975e+002
4.612228e+002, 3.708965e+002
4.617049e+002, 3.712169e+002
4.621870e+002, 3.704024e+002
4.626692e+002, 3.681709e+002
4.631513e+002, 3.656742e+002
4.636334e+002, 3.628936e+002
4.641155e+002, 3.599082e+002
4.645976e+002, 3.567605e+002
4.650797e+002, 3.534316e+002
4.655619e+002, 3.498020e+002
4.660440e+002, 3.457894e+002
4.665261e+002, 3.415029e+002
4.670082e+002, 3.373168e+002
4.674903e+002, 3.333054e+002
4.679724e+002, 3.291525e+002
4.684546e+002, 3.245771e+002
4.689367e+002, 3.199765e+002
4.694188e+002, 3.155590e+002
4.699009e+002, 3.113382e+002
4.703830e+002, 3.074881e+002
4.708651e+002, 3.043116e+002
4.713473e+002, 3.016203e+002
4.718294e+002, 2.986217e+002
4.723115e+002, 2.950668e+002
4.727936e+002, 2.918423e+002
4.732757e+002, 2.898500e+002
4.737578e+002, 2.885600e+002
4.742400e+002, 2.869886e+002
4.747221e+002, 2.847533e+002
4.752042e+002, 2.826045e+002
4.756863e+002, 2.808819e+002
4.761684e+002, 2.796406e+002
4.766505e+002, 2.792035e+002
4.771327e+002, 2.797900e+002
4.776148e+002, 2.806550e+002
4.780969e+002, 2.808321e+002
4.785790e+002, 2.801972e+002
4.790611e+002, 2.797490e+002
4.795432e+002, 2.796043e+002
4.800254e+002, 2.796032e+002
4.805075e+002, 2.796080e+002
4.809896e+002, 2.796662e+002
4.814717e+002, 2.799664e+002
4.819538e+002, 2.806339e+002
4.824359e+002, 2.815194e+002
4.829181e+002, 2.821936e+002
4.834002e+002, 2.825103e+002
4.838823e+002, 2.828179e+002
4.843644e+002, 2.829223e+002
4.848465e+002, 2.831648e+002
4.853286e+002, 2.839381e+002
4.858108e+002, 2.851528e+002
4.862929e+002, 2.862901e+002
4.867750e+002, 2.868540e+002
4.872571e+002, 2.869358e+002
4.877392e+002, 2.874053e+002
4.882213e+002, 2.886020e+002
4.887035e+002, 2.896258e+002
4.891856e+002, 2.902451e+002
4.896677e+002, 2.905913e+002
4.901498e+002, 2.907513e+002
4.906319e+002, 2.907473e+002
4.911140e+002, 2.907036e+002
4.915962e+002, 2.908513e+002
4.920783e+002, 2.911284e+002
4.925604e+002, 2.909734e+002
4.930425e+002, 2.901680e+002
4.935246e+002, 2.892447e+002
4.940067e+002, 2.886827e+002
4.944889e+002, 2.882971e+002
4.949710e+002, 2.876542e+002
4.954531e+002, 2.866295e+002
4.959352e+002, 2.853535e+002
4.964173e+002, 2.836906e+002
4.968994e+002, 2.818133e+002
4.973816e+002, 2.804907e+002
4.978637e+002, 2.801463e+002
4.983458e+002, 2.799239e+002
4.988279e+002, 2.785395e+002
4.993100e+002, 2.757501e+002
4.997921e+002, 2.729526e+002
5.002743e+002, 2.700278e+002
5.007564e+002, 2.672956e+002
5.012385e+002, 2.651172e+002
5.017206e+002, 2.633314e+002
5.022027e+002, 2.614886e+002
5.026848e+002, 2.593218e+002
5.031670e+002, 2.569783e+002
5.036491e+002, 2.549273e+002
5.041312e+002, 2.533277e+002
5.046133e+002, 2.517663e+002
5.050954e+002, 2.504743e+002
5.055775e+002, 2.490232e+002
5.060597e+002, 2.469119e+002
5.065418e+002, 2.442918e+002
5.070239e+002, 2.418830e+002
5.075060e+002, 2.403055e+002
5.079881e+002, 2.393753e+002
5.084702e+002, 2.381757e+002
5.089524e+002, 2.365033e+002
5.094345e+002, 2.350277e+002
5.099166e+002, 2.339378e+002
5.103987e+002, 2.331663e+002
5.108808e+002, 2.328559e+002
5.113629e+002, 2.330313e+002
5.118451e+002, 2.329801e+002
5.123271e+002, 2.318343e+002
5.128093e+002, 2.300657e+002
5.132914e+002, 2.290955e+002
5.137735e+002, 2.291534e+002
5.142556e+002, 2.294970e+002
5.147377e+002, 2.297837e+002
5.152198e+002, 2.299372e+002
5.157020e+002, 2.297414e+002
5.161841e+002, 2.288335e+002
5.166662e+002, 2.280922e+002
5.171483e+002, 2.279860e+002
5.176304e+002, 2.282753e+002
5.181125e+002, 2.286006e+002
5.185947e+002, 2.288697e+002
5.190768e+002, 2.291029e+002
5.195589e+002, 2.293091e+002
5.200410e+002, 2.294742e+002
5.205231e+002, 2.297620e+002
5.210052e+002, 2.302628e+002
5.214874e+002, 2.307651e+002
5.219695e+002, 2.311279e+002
5.224516e+002, 2.314797e+002
5.229337e+002, 2.319828e+002
5.234158e+002, 2.327028e+002
5.238979e+002, 2.336164e+002
5.243801e+002, 2.347293e+002
5.248622e+002, 2.360775e+002
5.253443e+002, 2.374274e+002
5.258264e+002, 2.389981e+002
5.263085e+002, 2.403105e+002
5.267906e+002, 2.409399e+002
5.272728e+002, 2.412054e+002
5.277549e+002, 2.417231e+002
5.282370e+002, 2.427756e+002
5.287191e+002, 2.440997e+002
5.292012e+002, 2.454238e+002
5.296833e+002, 2.467422e+002
5.301655e+002, 2.479708e+002
5.306476e+002, 2.490584e+002
5.311297e+002, 2.500971e+002
5.316118e+002, 2.512969e+002
5.320939e+002, 2.526133e+002
5.325760e+002, 2.535651e+002
5.330582e+002, 2.540415e+002
5.335403e+002, 2.541348e+002
5.340224e+002, 2.535838e+002
5.345045e+002, 2.526748e+002
5.349866e+002, 2.524086e+002
5.354688e+002, 2.533108e+002
5.359509e+002, 2.545284e+002
5.364330e+002, 2.544258e+002
5.369151e+002, 2.522690e+002
5.373972e+002, 2.504902e+002
5.378793e+002, 2.494869e+002
5.383615e+002, 2.484523e+002
5.388436e+002, 2.469887e+002
5.393257e+002, 2.451294e+002
5.398078e+002, 2.429959e+002
5.402899e+002, 2.406246e+002
5.407720e+002, 2.381913e+002
5.412542e+002, 2.361077e+002
5.417363e+002, 2.344699e+002
5.422184e+002, 2.328754e+002
5.427005e+002, 2.315416e+002
5.431826e+002, 2.299856e+002
5.436647e+002, 2.277964e+002
5.441469e+002, 2.251020e+002
5.446290e+002, 2.223827e+002
5.451111e+002, 2.196938e+002
5.455932e+002, 2.172553e+002
5.460753e+002, 2.155835e+002
5.465574e+002, 2.146529e+002
5.470396e+002, 2.135014e+002
5.475217e+002, 2.116851e+002
5.480038e+002, 2.096106e+002
5.484859e+002, 2.079170e+002
5.489680e+002, 2.066398e+002
5.494501e+002, 2.053053e+002
5.499323e+002, 2.036773e+002
5.504144e+002, 2.020861e+002
5.508965e+002, 2.008566e+002
5.513786e+002, 1.999116e+002
5.518607e+002, 1.989112e+002
5.523428e+002, 1.976606e+002
5.528250e+002, 1.963104e+002
5.533071e+002, 1.952407e+002
5.537892e+002, 1.945966e+002
5.542713e+002, 1.939758e+002
5.547534e+002, 1.930447e+002
5.552355e+002, 1.924274e+002
5.557177e+002, 1.926581e+002
5.561998e+002, 1.935140e+002
5.566819e+002, 1.943196e+002
5.571640e+002, 1.945959e+002
5.576461e+002, 1.947436e+002
5.581282e+002, 1.957096e+002
5.586104e+002, 1.976244e+002
5.590925e+002, 1.995534e+002
5.595746e+002, 2.015310e+002
5.600567e+002, 2.031694e+002
5.605388e+002, 2.039457e+002
5.610209e+002, 2.039979e+002
5.615031e+002, 2.043525e+002
5.619852e+002, 2.051878e+002
5.624673e+002, 2.066410e+002
5.629494e+002, 2.091003e+002
5.634315e+002, 2.123885e+002
5.639136e+002, 2.156593e+002
5.643958e+002, 2.185687e+002
5.648779e+002, 2.213310e+002
5.653600e+002, 2.243085e+002
5.658421e+002, 2.274993e+002
5.663242e+002, 2.309186e+002
5.668063e+002, 2.348551e+002
5.672885e+002, 2.387641e+002
5.677706e+002, 2.421411e+002
5.682527e+002, 2.452717e+002
5.687348e+002, 2.487937e+002
5.692169e+002, 2.530425e+002
5.696990e+002, 2.576312e+002
5.701812e+002, 2.617612e+002
5.706633e+002, 2.652384e+002
5.711454e+002, 2.690030e+002
5.716275e+002, 2.733751e+002
5.721096e+002, 2.778228e+002
5.725917e+002, 2.820024e+002
5.730739e+002, 2.860424e+002
5.735560e+002, 2.902133e+002
5.740381e+002, 2.945298e+002
5.745202e+002, 2.992129e+002
5.750023e+002, 3.048413e+002
5.754844e+002, 3.111824e+002
5.759666e+002, 3.166283e+002
5.764487e+002, 3.204811e+002
5.769308e+002, 3.243992e+002
5.774129e+002, 3.303551e+002
5.778950e+002, 3.384199e+002
5.783771e+002, 3.458625e+002
5.788593e+002, 3.520795e+002
5.793414e+002, 3.582784e+002
5.798235e+002, 3.651624e+002
5.803056e+002, 3.723486e+002
5.807877e+002, 3.790758e+002
5.812698e+002, 3.851700e+002
5.817520e+002, 3.911636e+002
5.822341e+002, 3.978769e+002
5.827162e+002, 4.055684e+002
5.831984e+002, 4.119793e+002
5.836805e+002, 4.168133e+002
5.841626e+002, 4.206126e+002
5.846447e+002, 4.235755e+002
5.851268e+002, 4.256434e+002
5.856089e+002, 4.266206e+002
5.860911e+002, 4.264516e+002
5.865732e+002, 4.256333e+002
5.870553e+002, 4.249908e+002
5.875374e+002, 4.241187e+002
5.880195e+002, 4.213534e+002
5.885016e+002, 4.163790e+002
5.889838e+002, 4.103863e+002
5.894659e+002, 4.038131e+002
5.899480e+002, 3.968305e+002
5.904301e+002, 3.899854e+002
5.909122e+002, 3.833586e+002
5.913943e+002, 3.767036e+002
5.918765e+002, 3.700473e+002
5.923586e+002, 3.632390e+002
5.928407e+002, 3.559309e+002
5.933228e+002, 3.482221e+002
5.938049e+002, 3.406845e+002
5.942870e+002, 3.336952e+002
5.947692e+002, 3.272256e+002
5.952513e+002, 3.210344e+002
5.957334e+002, 3.154016e+002
5.962155e+002, 3.095824e+002
5.966976e+002, 3.030916e+002
5.971797e+002, 2.967458e+002
5.976619e+002, 2.910790e+002
5.981440e+002, 2.860692e+002
5.986261e+002, 2.813380e+002
5.991082e+002, 2.766471e+002
5.995903e+002, 2.721030e+002
6.000724e+002, 2.679176e+002
6.005546e+002, 2.640902e+002
6.010367e+002, 2.604607e+002
6.015188e+002, 2.569828e+002
6.020009e+002, 2.536711e+002
6.024830e+002, 2.504756e+002
6.029651e+002, 2.473783e+002
6.034473e+002, 2.446844e+002
6.039294e+002, 2.428613e+002
6.044115e+002, 2.410540e+002
6.048936e+002, 2.385263e+002
6.053757e+002, 2.356676e+002
6.058578e+002, 2.333549e+002
6.063400e+002, 2.319067e+002
6.068221e+002, 2.308061e+002
6.073042e+002, 2.292667e+002
6.077863e+002, 2.271396e+002
6.082684e+002, 2.255843e+002
6.087505e+002, 2.253120e+002
6.092327e+002, 2.247939e+002
6.097148e+002, 2.234253e+002
6.101969e+002, 2.216447e+002
6.106790e+002, 2.199431e+002
6.111611e+002, 2.184507e+002
6.116432e+002, 2.171921e+002
6.121254e+002, 2.164162e+002
6.126075e+002, 2.158807e+002
6.130896e+002, 2.146977e+002
6.135717e+002, 2.126944e+002
6.140538e+002, 2.108336e+002
6.145359e+002, 2.097607e+002
6.150181e+002, 2.092134e+002
6.155002e+002, 2.084410e+002
6.159823e+002, 2.073936e+002
6.164644e+002, 2.062605e+002
6.169465e+002, 2.049013e+002
6.174286e+002, 2.036057e+002
6.179108e+002, 2.026553e+002
6.183929e+002, 2.020110e+002
6.188750e+002, 2.014751e+002
6.193571e+002, 2.009364e+002
6.198392e+002, 2.003775e+002
6.203214e+002, 1.997939e+002
6.208035e+002, 1.992987e+002
6.212856e+002, 1.984247e+002
6.217677e+002, 1.965807e+002
6.222498e+002, 1.948683e+002
6.227319e+002, 1.940736e+002
6.232141e+002, 1.938651e+002
6.236962e+002, 1.933494e+002
6.241783e+002, 1.921040e+002
6.246604e+002, 1.905976e+002
6.251425e+002, 1.891794e+002
6.256246e+002, 1.878647e+002
6.261068e+002, 1.867569e+002
6.265889e+002, 1.858942e+002
6.270710e+002, 1.850631e+002
6.275531e+002, 1.840445e+002
6.280352e+002, 1.828570e+002
6.285173e+002, 1.818514e+002
6.289995e+002, 1.810279e+002
6.294816e+002, 1.803637e+002
6.299637e+002, 1.801149e+002
6.304458e+002, 1.798593e+002
6.309279e+002, 1.791291e+002
6.314100e+002, 1.779141e+002
6.318922e+002, 1.765988e+002
6.323743e+002, 1.755412e+002
6.328564e+002, 1.745959e+002
6.333385e+002, 1.730610e+002
6.338206e+002, 1.706406e+002
6.343027e+002, 1.688605e+002
6.347849e+002, 1.684972e+002
6.352670e+002, 1.686396e+002
6.357491e+002, 1.684918e+002
6.362312e+002, 1.680532e+002
6.367133e+002, 1.673626e+002
6.371954e+002, 1.663401e+002
6.376776e+002, 1.651490e+002
6.381597e+002, 1.637946e+002
6.386418e+002, 1.623839e+002
6.391239e+002, 1.611895e+002
6.396060e+002, 1.603062e+002
6.400881e+002, 1.595855e+002
6.405703e+002, 1.588817e+002
6.410524e+002, 1.582193e+002
6.415345e+002, 1.573145e+002
6.420166e+002, 1.556389e+002
6.424987e+002, 1.543630e+002
6.429808e+002, 1.540667e+002
6.434630e+002, 1.540827e+002
6.439451e+002, 1.536915e+002
6.444272e+002, 1.527856e+002
6.449093e+002, 1.518259e+002
6.453914e+002, 1.509068e+002
6.458735e+002, 1.502580e+002
6.463557e+002, 1.506692e+002
6.468378e+002, 1.521916e+002
6.473199e+002, 1.536030e+002
6.478020e+002, 1.545811e+002
6.482841e+002, 1.549451e+002
6.487662e+002, 1.542838e+002
6.492484e+002, 1.524523e+002
6.497305e+002, 1.504702e+002
6.502126e+002, 1.472037e+002
6.506947e+002, 1.450243e+002
6.511768e+002, 1.460705e+002
6.516589e+002, 1.489001e+002
6.521411e+002, 1.511596e+002
6.526232e+002, 1.519673e+002
6.531053e+002, 1.516157e+002
6.535874e+002, 1.501754e+002
6.540695e+002, 1.476318e+002
6.545516e+002, 1.457265e+002
6.550338e+002, 1.445605e+002
6.555159e+002, 1.438607e+002
6.559980e+002, 1.438430e+002
6.564801e+002, 1.440738e+002
6.569622e+002, 1.441529e+002
6.574443e+002, 1.440569e+002
6.579265e+002, 1.436639e+002
6.584086e+002, 1.425716e+002
6.588907e+002, 1.413946e+002
6.593728e+002, 1.408236e+002
6.598549e+002, 1.408052e+002
6.603370e+002, 1.410608e+002
6.608192e+002, 1.415007e+002
6.613013e+002, 1.417884e+002
6.617834e+002, 1.412708e+002
6.622655e+002, 1.396439e+002
6.627476e+002, 1.383444e+002
6.632297e+002, 1.375186e+002
6.637119e+002, 1.368613e+002
6.641940e+002, 1.362691e+002
6.646761e+002, 1.357983e+002
6.651582e+002, 1.355877e+002
6.656403e+002, 1.356738e+002
6.661224e+002, 1.357761e+002
6.666046e+002, 1.355656e+002
6.670867e+002, 1.352201e+002
6.675688e+002, 1.352495e+002
6.680509e+002, 1.356847e+002
6.685330e+002, 1.359770e+002
6.690151e+002, 1.358388e+002
6.694973e+002, 1.354219e+002
6.699794e+002, 1.350236e+002
6.704615e+002, 1.346870e+002
6.709436e+002, 1.342469e+002
6.714257e+002, 1.333891e+002
6.719078e+002, 1.327453e+002
6.723900e+002, 1.328626e+002
6.728721e+002, 1.333564e+002
6.733542e+002, 1.335290e+002
6.738363e+002, 1.331392e+002
6.743184e+002, 1.325908e+002
6.748005e+002, 1.323308e+002
6.752827e+002, 1.323424e+002
6.757648e+002, 1.325229e+002
6.762469e+002, 1.329656e+002
6.767290e+002, 1.332160e+002
6.772111e+002, 1.329076e+002
6.776932e+002, 1.323685e+002
6.781754e+002, 1.322073e+002
6.786575e+002, 1.325108e+002
6.791396e+002, 1.327069e+002
6.796217e+002, 1.325819e+002
6.801038e+002, 1.323763e+002
6.805859e+002, 1.322170e+002
6.810681e+002, 1.321317e+002
6.815502e+002, 1.322012e+002
6.820323e+002, 1.324483e+002
6.825144e+002, 1.326738e+002
6.829965e+002, 1.325187e+002
6.834786e+002, 1.319400e+002
6.839608e+002, 1.317536e+002
6.844429e+002, 1.322603e+002
6.849250e+002, 1.326164e+002
6.854071e+002, 1.322793e+002
6.858892e+002, 1.317248e+002
6.863713e+002, 1.314561e+002
6.868535e+002, 1.315301e+002
6.873356e+002, 1.316775e+002
6.878177e+002, 1.318449e+002
6.882998e+002, 1.319822e+002
6.887819e+002, 1.320281e+002
6.892640e+002, 1.319978e+002
6.897462e+002, 1.319391e+002
6.902283e+002, 1.318697e+002
6.907104e+002, 1.318056e+002
6.911925e+002, 1.317800e+002
6.916746e+002, 1.318075e+002
6.921567e+002, 1.317366e+002
6.926389e+002, 1.313825e+002
6.931210e+002, 1.311867e+002
6.936031e+002, 1.313588e+002
6.940852e+002, 1.316741e+002
6.945673e+002, 1.319589e+002
6.950494e+002, 1.321760e+002
6.955316e+002, 1.322363e+002
6.960137e+002, 1.319066e+002
6.964958e+002, 1.315058e+002
6.969779e+002, 1.315542e+002
6.974600e+002, 1.319433e+002
6.979421e+002, 1.320620e+002
6.984243e+002, 1.316554e+002
6.989064e+002, 1.312906e+002
6.993885e+002, 1.317633e+002
6.998706e+002, 1.331847e+002
7.003527e+002, 1.339911e+002
7.008348e+002, 1.339446e+002
7.013170e+002, 1.335495e+002
7.017991e+002, 1.325196e+002
7.022812e+002, 1.314261e+002
7.027633e+002, 1.307576e+002
7.032454e+002, 1.305674e+002
7.037275e+002, 1.306662e+002
7.042097e+002, 1.310560e+002
7.046918e+002, 1.315594e+002
7.051739e+002, 1.319345e+002
7.056560e+002, 1.321848e+002
7.061381e+002, 1.322733e+002
7.066202e+002, 1.321582e+002
7.071024e+002, 1.320696e+002
7.075845e+002, 1.323042e+002
7.080666e+002, 1.328506e+002
7.085487e+002, 1.329762e+002
7.090308e+002, 1.319819e+002
7.095129e+002, 1.315152e+002
7.099951e+002, 1.323926e+002
7.104772e+002, 1.334561e+002
7.109593e+002, 1.336510e+002
7.114414e+002, 1.330634e+002
7.119235e+002, 1.325219e+002
7.124056e+002, 1.325595e+002
7.128878e+002, 1.327804e+002
7.133699e+002, 1.325232e+002
7.138520e+002, 1.318598e+002
7.143341e+002, 1.312804e+002
7.148162e+002, 1.308566e+002
7.152983e+002, 1.306432e+002
7.157805e+002, 1.307622e+002
7.162626e+002, 1.311301e+002
7.167447e+002, 1.312616e+002
7.172268e+002, 1.307897e+002
7.177089e+002, 1.306232e+002
7.181910e+002, 1.312220e+002
7.186732e+002, 1.318161e+002
7.191553e+002, 1.318033e+002
7.196374e+002, 1.313232e+002
7.201195e+002, 1.308021e+002
7.206016e+002, 1.304207e+002
7.210837e+002, 1.302248e+002
7.215659e+002, 1.304597e+002
7.220480e+002, 1.309891e+002
7.225301e+002, 1.309525e+002
7.230122e+002, 1.301688e+002
7.234943e+002, 1.294172e+002
7.239764e+002, 1.291674e+002
7.244586e+002, 1.292517e+002
7.249407e+002, 1.292249e+002
7.254228e+002, 1.289211e+002
7.259049e+002, 1.289175e+002
7.263870e+002, 1.297609e+002
7.268691e+002, 1.303923e+002
7.273513e+002, 1.299025e+002
7.278334e+002, 1.288990e+002
7.283155e+002, 1.285185e+002
7.287976e+002, 1.291142e+002
7.292797e+002, 1.298891e+002
7.297618e+002, 1.299864e+002
7.302440e+002, 1.295756e+002
7.307261e+002, 1.292602e+002
7.312082e+002, 1.290596e+002
7.316903e+002, 1.288738e+002
7.321724e+002, 1.286747e+002
7.326545e+002, 1.284531e+002
7.331367e+002, 1.281981e+002
7.336188e+002, 1.279111e+002
7.341009e+002, 1.275693e+002
7.345830e+002, 1.269509e+002
7.350651e+002, 1.265395e+002
7.355472e+002, 1.266126e+002
7.360294e+002, 1.269167e+002
7.365115e+002, 1.272206e+002
7.369936e+002, 1.274513e+002
7.374757e+002, 1.275624e+002
7.379578e+002, 1.274909e+002
7.384399e+002, 1.273031e+002
7.389221e+002, 1.270633e+002
7.394042e+002, 1.267885e+002
7.398863e+002, 1.268097e+002
7.403684e+002, 1.273066e+002
7.408505e+002, 1.277277e+002
7.413326e+002, 1.275023e+002
7.418148e+002, 1.266989e+002
7.422969e+002, 1.261139e+002
7.427790e+002, 1.258759e+002
7.432611e+002, 1.256595e+002
7.437432e+002, 1.255210e+002
7.442253e+002, 1.253160e+002
7.447075e+002, 1.247829e+002
7.451896e+002, 1.240947e+002
7.456717e+002, 1.237443e+002
7.461538e+002, 1.240171e+002
7.466359e+002, 1.244780e+002
7.471180e+002, 1.246065e+002
7.476002e+002, 1.244856e+002
7.480823e+002, 1.244377e+002
7.485644e+002, 1.245045e+002
7.490465e+002, 1.244929e+002
7.495286e+002, 1.242752e+002
7.500107e+002, 1.239228e+002
7.504929e+002, 1.235832e+002
7.509750e+002, 1.231374e+002
7.514571e+002, 1.230113e+002
7.519392e+002, 1.236106e+002
7.524213e+002, 1.240510e+002
7.529034e+002, 1.237400e+002
7.533856e+002, 1.231687e+002
7.538677e+002, 1.231207e+002
7.543498e+002, 1.237440e+002
7.548319e+002, 1.242647e+002
7.553140e+002, 1.239228e+002
7.557961e+002, 1.232108e+002
7.562783e+002, 1.229973e+002
7.567604e+002, 1.232013e+002
7.572425e+002, 1.232262e+002
7.577246e+002, 1.228529e+002
7.582067e+002, 1.224702e+002
7.586888e+002, 1.225769e+002
7.591710e+002, 1.231672e+002
7.596531e+002, 1.234168e+002
7.601352e+002, 1.229972e+002
7.606173e+002, 1.227342e+002
7.610994e+002, 1.229372e+002
7.615815e+002, 1.231691e+002
7.620637e+002, 1.230153e+002
7.625458e+002, 1.225909e+002
7.630279e+002, 1.224093e+002
7.635100e+002, 1.228957e+002
7.639921e+002, 1.232647e+002
7.644742e+002, 1.225685e+002
7.649564e+002, 1.214106e+002
7.654385e+002, 1.209312e+002
7.659206e+002, 1.212245e+002
7.664027e+002, 1.217926e+002
7.668848e+002, 1.223614e+002
7.673669e+002, 1.228090e+002
7.678491e+002, 1.227671e+002
7.683312e+002, 1.220155e+002
7.688133e+002, 1.216228e+002
7.692954e+002, 1.219310e+002
7.697775e+002, 1.221466e+002
7.702596e+002, 1.217525e+002
7.707418e+002, 1.211471e+002
7.712239e+002, 1.208674e+002
7.717060e+002, 1.209940e+002
7.721881e+002, 1.211546e+002
7.726702e+002, 1.211616e+002
7.731523e+002, 1.211894e+002
7.736345e+002, 1.214717e+002
7.741166e+002, 1.218613e+002
7.745987e+002, 1.220443e+002
7.750808e+002, 1.219406e+002
7.755629e+002, 1.217112e+002
7.760450e+002, 1.214881e+002
7.765272e+002, 1.212899e+002
7.770093e+002, 1.212358e+002
7.774914e+002, 1.213682e+002
7.779735e+002, 1.214091e+002
7.784556e+002, 1.212441e+002
7.789377e+002, 1.210484e+002
7.794199e+002, 1.209874e+002
7.799020e+002, 1.210314e+002
7.803841e+002, 1.210263e+002
7.808662e+002, 1.208503e+002
7.813483e+002, 1.207974e+002
7.818304e+002, 1.211180e+002
7.823126e+002, 1.214384e+002
7.827947e+002, 1.213500e+002
7.832768e+002, 1.210015e+002
7.837589e+002, 1.208342e+002
7.842410e+002, 1.210485e+002
7.847231e+002, 1.214218e+002
7.852053e+002, 1.217338e+002
7.856874e+002, 1.219783e+002
7.861695e+002, 1.220708e+002
7.866516e+002, 1.219944e+002
7.871337e+002, 1.221438e+002
7.876158e+002, 1.228121e+002
7.880980e+002, 1.235052e+002
7.885801e+002, 1.234173e+002
7.890622e+002, 1.223879e+002
7.895443e+002, 1.216242e+002
7.900264e+002, 1.211540e+002
7.905085e+002, 1.209078e+002
7.909907e+002, 1.209115e+002
7.914728e+002, 1.211062e+002
7.919549e+002, 1.215921e+002
7.924370e+002, 1.222549e+002
7.929191e+002, 1.226410e+002
7.934012e+002, 1.224063e+002
7.938834e+002, 1.219890e+002
7.943655e+002, 1.217855e+002
7.948476e+002, 1.217274e+002
7.953297e+002, 1.216052e+002
7.958118e+002, 1.214219e+002
7.962939e+002, 1.215372e+002
7.967761e+002, 1.222371e+002
7.972582e+002, 1.231684e+002
7.977403e+002, 1.234246e+002
7.982224e+002, 1.228003e+002
7.987045e+002, 1.223693e+002
7.991866e+002, 1.221409e+002
7.996688e+002, 1.221265e+002
8.001509e+002, 1.224017e+002
8.006330e+002, 1.228623e+002
8.011151e+002, 1.233800e+002
8.015972e+002, 1.239384e+002
8.020793e+002, 1.246746e+002
8.025615e+002, 1.260192e+002
8.030436e+002, 1.271405e+002
8.035257e+002, 1.274250e+002
8.040078e+002, 1.271949e+002
8.044899e+002, 1.269486e+002
8.049720e+002, 1.267667e+002
8.054542e+002, 1.263687e+002
8.059363e+002, 1.254583e+002
8.064184e+002, 1.243314e+002
8.069005e+002, 1.236290e+002
8.073826e+002, 1.233417e+002
8.078647e+002, 1.233148e+002
8.083469e+002, 1.235758e+002
8.088290e+002, 1.238607e+002
8.093111e+002, 1.240194e+002
8.097932e+002, 1.240440e+002
8.102753e+002, 1.239007e+002
8.107574e+002, 1.234355e+002
8.112396e+002, 1.231143e+002
8.117217e+002, 1.229038e+002
8.122038e+002, 1.228689e+002
8.126859e+002, 1.231632e+002
8.131680e+002, 1.235891e+002
8.136501e+002, 1.239226e+002
8.141323e+002, 1.241129e+002
8.146144e+002, 1.241404e+002
8.150965e+002, 1.238661e+002
8.155786e+002, 1.235227e+002
8.160607e+002, 1.233842e+002
8.165428e+002, 1.233973e+002
8.170250e+002, 1.234558e+002
8.175071e+002, 1.235207e+002
8.179892e+002, 1.234753e+002
8.184713e+002, 1.231926e+002
8.189534e+002, 1.227754e+002
8.194355e+002, 1.226277e+002
8.199177e+002, 1.228271e+002
8.203998e+002, 1.228999e+002
8.208819e+002, 1.225922e+002
8.213640e+002, 1.225012e+002
8.218461e+002, 1.233774e+002
8.223282e+002, 1.245822e+002
8.228104e+002, 1.247488e+002
8.232925e+002, 1.234816e+002
8.237746e+002, 1.226080e+002
8.242567e+002, 1.227571e+002
8.247388e+002, 1.231006e+002
8.252209e+002, 1.233003e+002
8.257031e+002, 1.233284e+002
8.261852e+002, 1.231042e+002
8.266673e+002, 1.226677e+002
8.271494e+002, 1.223319e+002
8.276315e+002, 1.224335e+002
8.281136e+002, 1.226709e+002
8.285958e+002, 1.224669e+002
8.290779e+002, 1.219191e+002
8.295600e+002, 1.214873e+002
8.300421e+002, 1.212596e+002
8.305242e+002, 1.211789e+002
8.310063e+002, 1.212127e+002
8.314885e+002, 1.213467e+002
8.319706e+002, 1.215560e+002
8.324527e+002, 1.219289e+002
8.329348e+002, 1.221401e+002
8.334169e+002, 1.221152e+002
8.338990e+002, 1.220141e+002
8.343812e+002, 1.217617e+002
8.348633e+002, 1.215471e+002
8.353454e+002, 1.217205e+002
8.358275e+002, 1.223273e+002
8.363096e+002, 1.226149e+002
8.367917e+002, 1.219863e+002
8.372739e+002, 1.213411e+002
8.377560e+002, 1.212744e+002
8.382381e+002, 1.215238e+002
8.387202e+002, 1.217899e+002
8.392023e+002, 1.219690e+002
8.396844e+002, 1.219350e+002
8.401666e+002, 1.215572e+002
8.406487e+002, 1.210820e+002
8.411308e+002, 1.209599e+002
8.416129e+002, 1.211463e+002
8.420950e+002, 1.213722e+002
8.425771e+002, 1.216234e+002
8.430593e+002, 1.217214e+002
8.435414e+002, 1.215429e+002
8.440235e+002, 1.212095e+002
8.445056e+002, 1.209366e+002
8.449877e+002, 1.207313e+002
8.454698e+002, 1.205563e+002
8.459520e+002, 1.203161e+002
8.464341e+002, 1.202392e+002
8.469162e+002, 1.204288e+002
8.473983e+002, 1.207591e+002
8.478804e+002, 1.211934e+002
8.483625e+002, 1.216848e+002
8.488447e+002, 1.220689e+002
8.493268e+002, 1.224639e+002
8.498089e+002, 1.224743e+002
8.502910e+002, 1.213457e+002
8.507731e+002, 1.200658e+002
8.512552e+002, 1.199820e+002
8.517374e+002, 1.208558e+002
8.522195e+002, 1.216137e+002
8.527016e+002, 1.217618e+002
8.531837e+002, 1.214032e+002
8.536658e+002, 1.203562e+002
8.541479e+002, 1.188794e+002
8.546301e+002, 1.183451e+002
8.551122e+002, 1.187942e+002
8.555943e+002, 1.190603e+002
8.560764e+002, 1.187239e+002
8.565585e+002, 1.181759e+002
8.570406e+002, 1.178068e+002
8.575228e+002, 1.176101e+002
8.580049e+002, 1.175035e+002
8.584870e+002, 1.175921e+002
8.589691e+002, 1.175945e+002
8.594512e+002, 1.172859e+002
8.599333e+002, 1.170942e+002
8.604155e+002, 1.174722e+002
8.608976e+002, 1.180613e+002
8.613797e+002, 1.180117e+002
8.618618e+002, 1.169621e+002
8.623439e+002, 1.165743e+002
8.628260e+002, 1.185677e+002
8.633082e+002, 1.205113e+002
8.637903e+002, 1.202266e+002
8.642724e+002, 1.186114e+002
8.647545e+002, 1.172072e+002
8.652366e+002, 1.164103e+002
8.657188e+002, 1.159315e+002
8.662009e+002, 1.155721e+002
8.666830e+002, 1.153334e+002
8.671651e+002, 1.152368e+002
8.676472e+002, 1.152674e+002
8.681293e+002, 1.154015e+002
8.686115e+002, 1.156483e+002
8.690936e+002, 1.156488e+002
8.695757e+002, 1.151113e+002
8.700578e+002, 1.143914e+002
8.705399e+002, 1.142590e+002
8.710220e+002, 1.148848e+002
8.715042e+002, 1.152428e+002
8.719863e+002, 1.152267e+002
8.724684e+002, 1.151122e+002
8.729505e+002, 1.149791e+002
8.734326e+002, 1.147839e+002
8.739147e+002, 1.143842e+002
8.743969e+002, 1.138464e+002
8.748790e+002, 1.135952e+002
8.753611e+002, 1.140495e+002
8.758432e+002, 1.143234e+002
8.763253e+002, 1.140160e+002
8.768074e+002, 1.134785e+002
8.772896e+002, 1.128748e+002
8.777717e+002, 1.123252e+002
8.782538e+002, 1.120552e+002
8.787359e+002, 1.121427e+002
8.792180e+002, 1.122675e+002
8.797001e+002, 1.121043e+002
8.801823e+002, 1.117920e+002
8.806644e+002, 1.115681e+002
8.811465e+002, 1.114274e+002
8.816286e+002, 1.113567e+002
8.821107e+002, 1.113478e+002
8.825928e+002, 1.112877e+002
8.830750e+002, 1.110667e+002
8.835571e+002, 1.107416e+002
8.840392e+002, 1.104887e+002
8.845213e+002, 1.102937e+002
8.850034e+002, 1.103039e+002
8.854855e+002, 1.107093e+002
8.859677e+002, 1.109020e+002
8.864498e+002, 1.104457e+002
8.869319e+002, 1.096869e+002
8.874140e+002, 1.091881e+002
8.878961e+002, 1.089675e+002
8.883782e+002, 1.089034e+002
8.888604e+002, 1.091352e+002
8.893425e+002, 1.093426e+002
8.898246e+002, 1.094971e+002
8.903067e+002, 1.095465e+002
8.907888e+002, 1.094351e+002
8.912709e+002, 1.091819e+002
8.917531e+002, 1.088279e+002
8.922352e+002, 1.083290e+002
8.927173e+002, 1.079252e+002
8.931994e+002, 1.077869e+002
8.936815e+002, 1.078279e+002
8.941636e+002, 1.080492e+002
8.946458e+002, 1.083508e+002
8.951279e+002, 1.085007e+002
8.956100e+002, 1.084301e+002
8.960921e+002, 1.082623e+002
8.965742e+002, 1.081278e+002
8.970563e+002, 1.079707e+002
8.975385e+002, 1.075272e+002
8.980206e+002, 1.068430e+002
8.985027e+002, 1.066065e+002
8.989848e+002, 1.069807e+002
8.994669e+002, 1.073471e+002
8.999490e+002, 1.073302e+002
9.004312e+002, 1.069829e+002
9.009133e+002, 1.063412e+002
9.013954e+002, 1.051811e+002
9.018775e+002, 1.048083e+002
9.023596e+002, 1.058004e+002
9.028417e+002, 1.065965e+002
9.033239e+002, 1.066082e+002
9.038060e+002, 1.063059e+002
9.042881e+002, 1.060513e+002
9.047702e+002, 1.058594e+002
9.052523e+002, 1.058060e+002
9.057344e+002, 1.061301e+002
9.062166e+002, 1.062528e+002
9.066987e+002, 1.058460e+002
9.071808e+002, 1.053726e+002
9.076629e+002, 1.051099e+002
9.081450e+002, 1.050463e+002
9.086271e+002, 1.051582e+002
9.091093e+002, 1.054261e+002
9.095914e+002, 1.056297e+002
9.100735e+002, 1.056663e+002
9.105556e+002, 1.055181e+002
9.110377e+002, 1.049808e+002
9.115198e+002, 1.042996e+002
9.120020e+002, 1.040280e+002
9.124841e+002, 1.042053e+002
9.129662e+002, 1.044577e+002
9.134483e+002, 1.045580e+002
9.139304e+002, 1.045469e+002
9.144125e+002, 1.044574e+002
9.148947e+002, 1.043067e+002
9.153768e+002, 1.042334e+002
9.158589e+002, 1.042451e+002
9.163410e+002, 1.043059e+002
9.168231e+002, 1.044144e+002
9.173052e+002, 1.045226e+002
9.177874e+002, 1.045796e+002
9.182695e+002, 1.045867e+002
9.187516e+002, 1.045412e+002
9.192337e+002, 1.043724e+002
9.197158e+002, 1.043244e+002
9.201979e+002, 1.044960e+002
9.206801e+002, 1.046947e+002
9.211622e+002, 1.048813e+002
9.216443e+002, 1.049994e+002
9.221264e+002, 1.048693e+002
9.226085e+002, 1.044035e+002
9.230906e+002, 1.042980e+002
9.235728e+002, 1.049657e+002
9.240549e+002, 1.056130e+002
9.245370e+002, 1.060143e+002
9.250191e+002, 1.062044e+002
9.255012e+002, 1.060780e+002
9.259833e+002, 1.057811e+002
9.264655e+002, 1.057274e+002
9.269476e+002, 1.061149e+002
9.274297e+002, 1.065829e+002
9.279118e+002, 1.069859e+002
9.283939e+002, 1.072566e+002
9.288760e+002, 1.071569e+002
9.293582e+002, 1.068989e+002
9.298403e+002, 1.070319e+002
9.303224e+002, 1.076405e+002
9.308045e+002, 1.081910e+002
9.312866e+002, 1.081767e+002
9.317687e+002, 1.080084e+002
9.322509e+002, 1.085997e+002
9.327330e+002, 1.097400e+002
9.332151e+002, 1.103764e+002
9.336972e+002, 1.104202e+002
9.341793e+002, 1.106698e+002
9.346614e+002, 1.115494e+002
9.351436e+002, 1.125802e+002
9.356257e+002, 1.129931e+002
9.361078e+002, 1.128421e+002
9.365899e+002, 1.132605e+002
9.370720e+002, 1.143562e+002
9.375541e+002, 1.156059e+002
9.380363e+002, 1.170097e+002
9.385184e+002, 1.183134e+002
9.390005e+002, 1.192991e+002
9.394826e+002, 1.200565e+002
9.399647e+002, 1.208193e+002
9.404468e+002, 1.214373e+002
9.409290e+002, 1.224676e+002
9.414111e+002, 1.241077e+002
9.418932e+002, 1.259001e+002
9.423753e+002, 1.278316e+002
9.428574e+002, 1.297715e+002
9.433395e+002, 1.314832e+002
9.438217e+002, 1.330707e+002
9.443038e+002, 1.350195e+002
9.447859e+002, 1.375704e+002
9.452680e+002, 1.402370e+002
9.457501e+002, 1.430019e+002
9.462322e+002, 1.456693e+002
9.467144e+002, 1.478484e+002
9.471965e+002, 1.499245e+002
9.476786e+002, 1.526899e+002
9.481607e+002, 1.562200e+002
9.486428e+002, 1.596006e+002
9.491249e+002, 1.621624e+002
9.496071e+002, 1.644146e+002
9.500892e+002, 1.667557e+002
9.505713e+002, 1.691787e+002
9.510534e+002, 1.717791e+002
9.515355e+002, 1.744583e+002
9.520176e+002, 1.768999e+002
9.524998e+002, 1.789606e+002
9.529819e+002, 1.806806e+002
9.534640e+002, 1.820898e+002
9.539461e+002, 1.832104e+002
9.544282e+002, 1.840630e+002
9.549103e+002, 1.846765e+002
9.553925e+002, 1.853630e+002
9.558746e+002, 1.861940e+002
9.563567e+002, 1.866290e+002
9.568388e+002, 1.862917e+002
9.573209e+002, 1.853185e+002
9.578030e+002, 1.838855e+002
9.582852e+002, 1.819248e+002
9.587673e+002, 1.803681e+002
9.592494e+002, 1.794014e+002
9.597315e+002, 1.780541e+002
9.602136e+002, 1.757968e+002
9.606957e+002, 1.735303e+002
9.611779e+002, 1.721521e+002
9.616600e+002, 1.715074e+002
9.621421e+002, 1.708033e+002
9.626242e+002, 1.701507e+002
9.631063e+002, 1.692145e+002
9.635884e+002, 1.675369e+002
9.640706e+002, 1.661561e+002
9.645527e+002, 1.657678e+002
9.650348e+002, 1.656571e+002
9.655169e+002, 1.648918e+002
9.659990e+002, 1.635260e+002
9.664811e+002, 1.626627e+002
9.669633e+002, 1.627799e+002
9.674454e+002, 1.629525e+002
9.679275e+002, 1.630190e+002
9.684096e+002, 1.630313e+002
9.688917e+002, 1.629320e+002
9.693738e+002, 1.628427e+002
9.698560e+002, 1.630320e+002
9.703381e+002, 1.635340e+002
9.708202e+002, 1.638524e+002
9.713023e+002, 1.636416e+002
9.717844e+002, 1.632967e+002
9.722665e+002, 1.629572e+002
9.727487e+002, 1.627136e+002
9.732308e+002, 1.626559e+002
9.737129e+002, 1.627942e+002
9.741950e+002, 1.631754e+002
9.746771e+002, 1.638149e+002
9.751592e+002, 1.644142e+002
9.756414e+002, 1.646847e+002
9.761235e+002, 1.647686e+002
9.766056e+002, 1.647937e+002
9.770877e+002, 1.648158e+002
9.775698e+002, 1.650368e+002
9.780519e+002, 1.654279e+002
9.785341e+002, 1.656079e+002
9.790162e+002, 1.653309e+002
9.794983e+002, 1.649658e+002
9.799804e+002, 1.651231e+002
9.804625e+002, 1.656452e+002
9.809446e+002, 1.658712e+002
9.814268e+002, 1.658312e+002
9.819089e+002, 1.659717e+002
9.823910e+002, 1.664114e+002
9.828731e+002, 1.669166e+002
9.833552e+002, 1.672687e+002
9.838373e+002, 1.676480e+002
9.843195e+002, 1.686294e+002
9.848016e+002, 1.702596e+002
9.852837e+002, 1.713664e+002
9.857658e+002, 1.718233e+002
9.862479e+002, 1.722524e+002
9.867300e+002, 1.728586e+002
9.872122e+002, 1.735178e+002
9.876943e+002, 1.740469e+002
9.881764e+002, 1.745496e+002
9.886585e+002, 1.756469e+002
9.891406e+002, 1.776899e+002
9.896227e+002, 1.793221e+002
9.901049e+002, 1.804655e+002
9.905870e+002, 1.812241e+002
9.910691e+002, 1.813903e+002
9.915512e+002, 1.814283e+002
9.920333e+002, 1.819159e+002
9.925154e+002, 1.828392e+002
9.929976e+002, 1.837614e+002
9.934797e+002, 1.846883e+002
9.939618e+002, 1.856056e+002
9.944439e+002, 1.865790e+002
9.949260e+002, 1.874746e+002
9.954081e+002, 1.881158e+002
9.958903e+002, 1.887048e+002
9.963724e+002, 1.895798e+002
9.968545e+002, 1.907513e+002
9.973366e+002, 1.917150e+002
9.978187e+002, 1.922414e+002
9.983008e+002, 1.927320e+002
9.987830e+002, 1.932458e+002
9.992651e+002, 1.938172e+002
9.997472e+002, 1.943588e+002
1.000229e+003, 1.950184e+002
1.000711e+003, 1.961304e+002
1.001194e+003, 1.977401e+002
1.001676e+003, 1.992713e+002
1.002158e+003, 2.005759e+002
1.002640e+003, 2.016122e+002
1.003122e+003, 2.020950e+002
1.003604e+003, 2.025046e+002
1.004086e+003, 2.033516e+002
1.004568e+003, 2.045572e+002
1.005050e+003, 2.058347e+002
1.005533e+003, 2.070914e+002
1.006015e+003, 2.083316e+002
1.006497e+003, 2.096236e+002
1.006979e+003, 2.108378e+002
1.007461e+003, 2.117761e+002
1.007943e+003, 2.125932e+002
1.008425e+003, 2.136249e+002
1.008907e+003, 2.147784e+002
1.009390e+003, 2.155690e+002
1.009872e+003, 2.157967e+002
1.010354e+003, 2.158627e+002
1.010836e+003, 2.161982e+002
1.011318e+003, 2.165980e+002
1.011800e+003, 2.167118e+002
1.012282e+003, 2.166208e+002
1.012764e+003, 2.164840e+002
1.013246e+003, 2.163542e+002
1.013729e+003, 2.162921e+002
1.014211e+003, 2.163272e+002
1.014693e+003, 2.165220e+002
1.015175e+003, 2.171165e+002
1.015657e+003, 2.178933e+002
1.016139e+003, 2.180124e+002
1.016621e+003, 2.176780e+002
1.017103e+003, 2.179077e+002
1.017586e+003, 2.188999e+002
1.018068e+003, 2.204198e+002
1.018550e+003, 2.223261e+002
1.019032e+003, 2.245604e+002
1.019514e+003, 2.271388e+002
1.019996e+003, 2.299710e+002
1.020478e+003, 2.321108e+002
1.020960e+003, 2.335983e+002
1.021442e+003, 2.359171e+002
1.021925e+003, 2.394246e+002
1.022407e+003, 2.433023e+002
1.022889e+003, 2.470146e+002
1.023371e+003, 2.505593e+002
1.023853e+003, 2.537630e+002
1.024335e+003, 2.566078e+002
1.024817e+003, 2.607582e+002
1.025299e+003, 2.663581e+002
1.025781e+003, 2.721609e+002
1.026264e+003, 2.778937e+002
1.026746e+003, 2.838028e+002
1.027228e+003, 2.901456e+002
1.027710e+003, 2.965965e+002
1.028192e+003, 3.023447e+002
1.028674e+003, 3.072298e+002
1.029156e+003, 3.124421e+002
1.029638e+003, 3.180519e+002
1.030120e+003, 3.237328e+002
1.030603e+003, 3.295916e+002
1.031085e+003, 3.350785e+002
1.031567e+003, 3.397042e+002
1.032049e+003, 3.436640e+002
1.032531e+003, 3.475067e+002
1.033013e+003, 3.512992e+002
1.033495e+003, 3.547359e+002
1.033977e+003, 3.580194e+002
1.034460e+003, 3.605063e+002
1.034942e+003, 3.618564e+002
1.035424e+003, 3.626397e+002
1.035906e+003, 3.634446e+002
1.036388e+003, 3.639615e+002
1.036870e+003, 3.632010e+002
1.037352e+003, 3.606945e+002
1.037834e+003, 3.585897e+002
1.038317e+003, 3.577088e+002
1.038799e+003, 3.559626e+002
1.039281e+003, 3.523302e+002
1.039763e+003, 3.482134e+002
1.040245e+003, 3.443694e+002
1.040727e+003, 3.408808e+002
1.041209e+003, 3.380128e+002
1.041691e+003, 3.361710e+002
1.042173e+003, 3.336879e+002
1.042656e+003, 3.301024e+002
1.043138e+003, 3.264234e+002
1.043620e+003, 3.225810e+002
1.044102e+003, 3.190137e+002
1.044584e+003, 3.164477e+002
1.045066e+003, 3.143404e+002
1.045548e+003, 3.112370e+002
1.046030e+003, 3.066957e+002
1.046512e+003, 3.025485e+002
1.046995e+003, 2.993820e+002
1.047477e+003, 2.961165e+002
1.047959e+003, 2.921715e+002
1.048441e+003, 2.882422e+002
1.048923e+003, 2.850440e+002
1.049405e+003, 2.822734e+002
1.049887e+003, 2.791126e+002
1.050369e+003, 2.753273e+002
1.050852e+003, 2.718680e+002
1.051334e+003, 2.692012e+002
1.051816e+003, 2.664953e+002
1.052298e+003, 2.633767e+002
1.052780e+003, 2.601724e+002
1.053262e+003, 2.571516e+002
1.053744e+003, 2.542432e+002
1.054226e+003, 2.511818e+002
1.054708e+003, 2.478572e+002
1.055191e+003, 2.448518e+002
1.055673e+003, 2.425748e+002
1.056155e+003, 2.403107e+002
1.056637e+003, 2.378604e+002
1.057119e+003, 2.352393e+002
1.057601e+003, 2.322525e+002
1.058083e+003, 2.291759e+002
1.058565e+003, 2.266371e+002
1.059047e+003, 2.248045e+002
1.059530e+003, 2.227513e+002
1.060012e+003, 2.202090e+002
1.060494e+003, 2.173640e+002
1.060976e+003, 2.138809e+002
1.061458e+003, 2.105318e+002
1.061940e+003, 2.080770e+002
1.062422e+003, 2.061661e+002
1.062904e+003, 2.040363e+002
1.063387e+003, 2.015453e+002
1.063869e+003, 1.990394e+002
1.064351e+003, 1.964534e+002
1.064833e+003, 1.941307e+002
1.065315e+003, 1.924131e+002
1.065797e+003, 1.908422e+002
1.066279e+003, 1.890212e+002
1.066761e+003, 1.870782e+002
1.067244e+003, 1.853712e+002
1.067726e+003, 1.839377e+002
1.068208e+003, 1.823261e+002
1.068690e+003, 1.799540e+002
1.069172e+003, 1.778990e+002
1.069654e+003, 1.769550e+002
1.070136e+003, 1.762378e+002
1.070618e+003, 1.748773e+002
1.071100e+003, 1.733194e+002
1.071583e+003, 1.724790e+002
1.072065e+003, 1.724156e+002
1.072547e+003, 1.722380e+002
1.073029e+003, 1.715264e+002
1.073511e+003, 1.707507e+002
1.073993e+003, 1.700896e+002
1.074475e+003, 1.694950e+002
1.074957e+003, 1.689190e+002
1.075439e+003, 1.683921e+002
1.075922e+003, 1.679004e+002
1.076404e+003, 1.674865e+002
1.076886e+003, 1.673575e+002
1.077368e+003, 1.676816e+002
1.077850e+003, 1.680928e+002
1.078332e+003, 1.685847e+002
1.078814e+003, 1.689315e+002
1.079297e+003, 1.686511e+002
1.079779e+003, 1.683243e+002
1.080261e+003, 1.688213e+002
1.080743e+003, 1.700544e+002
1.081225e+003, 1.711686e+002
1.081707e+003, 1.718109e+002
1.082189e+003, 1.725372e+002
1.082671e+003, 1.734753e+002
1.083153e+003, 1.747140e+002
1.083635e+003, 1.766255e+002
1.084118e+003, 1.786389e+002
1.084600e+003, 1.798783e+002
1.085082e+003, 1.806240e+002
1.085564e+003, 1.819610e+002
1.086046e+003, 1.842435e+002
1.086528e+003, 1.868708e+002
1.087010e+003, 1.898680e+002
1.087492e+003, 1.928025e+002
1.087975e+003, 1.949229e+002
1.088457e+003, 1.972928e+002
1.088939e+003, 2.013604e+002
1.089421e+003, 2.065199e+002
1.089903e+003, 2.110800e+002
1.090385e+003, 2.145975e+002
1.090867e+003, 2.182971e+002
1.091349e+003, 2.226698e+002
1.091832e+003, 2.272731e+002
1.092314e+003, 2.316590e+002
1.092796e+003, 2.363931e+002
1.093278e+003, 2.420473e+002
1.093760e+003, 2.483557e+002
1.094242e+003, 2.549980e+002
1.094724e+003, 2.618793e+002
1.095206e+003, 2.680325e+002
1.095688e+003, 2.723646e+002
1.096171e+003, 2.769666e+002
1.096653e+003, 2.830756e+002
1.097135e+003, 2.891633e+002
1.097617e+003, 2.941071e+002
1.098099e+003, 2.983986e+002
1.098581e+003, 3.029741e+002
1.099063e+003, 3.078728e+002
1.099545e+003, 3.122521e+002
1.100027e+003, 3.158478e+002
1.100510e+003, 3.190758e+002
1.100992e+003, 3.220263e+002
1.101474e+003, 3.246786e+002
1.101956e+003, 3.270131e+002
1.102438e+003, 3.290506e+002
1.102920e+003, 3.307554e+002
1.103402e+003, 3.321684e+002
1.103884e+003, 3.335434e+002
1.104367e+003, 3.352477e+002
1.104849e+003, 3.360894e+002
1.105331e+003, 3.356777e+002
1.105813e+003, 3.345944e+002
1.106295e+003, 3.333757e+002
1.106777e+003, 3.313103e+002
1.107259e+003, 3.274393e+002
1.107741e+003, 3.222448e+002
1.108224e+003, 3.172093e+002
1.108706e+003, 3.127193e+002
1.109188e+003, 3.073956e+002
1.109670e+003, 3.002058e+002
1.110152e+003, 2.934609e+002
1.110634e+003, 2.883460e+002
1.111116e+003, 2.831525e+002
1.111598e+003, 2.765625e+002
1.112080e+003, 2.691486e+002
1.112563e+003, 2.619958e+002
1.113045e+003, 2.551409e+002
1.113527e+003, 2.483994e+002
1.114009e+003, 2.415331e+002
1.114491e+003, 2.351236e+002
1.114973e+003, 2.292834e+002
1.115455e+003, 2.238370e+002
1.115937e+003, 2.187838e+002
1.116419e+003, 2.140114e+002
1.116902e+003, 2.094067e+002
1.117384e+003, 2.049872e+002
1.117866e+003, 2.007615e+002
1.118348e+003, 1.966968e+002
1.118830e+003, 1.928863e+002
1.119312e+003, 1.892169e+002
1.119794e+003, 1.860474e+002
1.120276e+003, 1.836645e+002
1.120759e+003, 1.816152e+002
1.121241e+003, 1.795424e+002
1.121723e+003, 1.773962e+002
1.122205e+003, 1.749249e+002
1.122687e+003, 1.719396e+002
1.123169e+003, 1.694468e+002
1.123651e+003, 1.674482e+002
1.124133e+003, 1.659141e+002
1.124615e+003, 1.648630e+002
1.125098e+003, 1.642238e+002
1.125580e+003, 1.640170e+002
1.126062e+003, 1.640582e+002
1.126544e+003, 1.640011e+002
1.127026e+003, 1.638484e+002
1.127508e+003, 1.636566e+002
1.127990e+003, 1.633903e+002
1.128472e+003, 1.633877e+002
1.128954e+003, 1.636980e+002
1.129437e+003, 1.643328e+002
1.129919e+003, 1.653396e+002
1.130401e+003, 1.664599e+002
1.130883e+003, 1.673744e+002
1.131365e+003, 1.681566e+002
1.131847e+003, 1.691347e+002
1.132329e+003, 1.702992e+002
1.132811e+003, 1.714801e+002
1.133294e+003, 1.726571e+002
1.133776e+003, 1.735031e+002
1.134258e+003, 1.739100e+002
1.134740e+003, 1.738978e+002
1.135222e+003, 1.734494e+002
1.135704e+003, 1.727425e+002
1.136186e+003, 1.723452e+002
1.136668e+003, 1.719750e+002
1.137151e+003, 1.703378e+002
1.137633e+003, 1.676357e+002
1.138115e+003, 1.648872e+002
1.138597e+003, 1.623523e+002
1.139079e+003, 1.600430e+002
1.139561e+003, 1.579876e+002
1.140043e+003, 1.558827e+002
1.140525e+003, 1.532835e+002
1.141007e+003, 1.504463e+002
1.141490e+003, 1.477872e+002
1.141972e+003, 1.453216e+002
1.142454e+003, 1.431337e+002
1.142936e+003, 1.411575e+002
1.143418e+003, 1.391456e+002
1.143900e+003, 1.370314e+002
1.144382e+003, 1.350343e+002
1.144864e+003, 1.333459e+002
1.145346e+003, 1.318144e+002
1.145829e+003, 1.303839e+002
1.146311e+003, 1.289439e+002
1.146793e+003, 1.273054e+002
1.147275e+003, 1.255587e+002
1.147757e+003, 1.238208e+002
1.148239e+003, 1.221699e+002
1.148721e+003, 1.208691e+002
1.149203e+003, 1.201687e+002
1.149686e+003, 1.192096e+002
1.150168e+003, 1.170452e+002
1.150650e+003, 1.148741e+002
1.151132e+003, 1.136384e+002
1.151614e+003, 1.128268e+002
1.152096e+003, 1.119639e+002
1.152578e+003, 1.109676e+002
1.153060e+003, 1.097550e+002
1.153542e+003, 1.083005e+002
1.154025e+003, 1.070567e+002
1.154507e+003, 1.065187e+002
1.154989e+003, 1.057479e+002
1.155471e+003, 1.041961e+002
1.155953e+003, 1.025437e+002
1.156435e+003, 1.010621e+002
1.156917e+003, 9.984383e+001
1.157399e+003, 9.908519e+001
1.157881e+003, 9.873071e+001
1.158364e+003, 9.820846e+001
1.158846e+003, 9.734660e+001
1.159328e+003, 9.653675e+001
1.159810e+003, 9.581277e+001
1.160292e+003, 9.513487e+001
1.160774e+003, 9.450591e+001
1.161256e+003, 9.390916e+001
1.161738e+003, 9.335332e+001
1.162221e+003, 9.280772e+001
1.162703e+003, 9.214822e+001
1.163185e+003, 9.130878e+001
1.163667e+003, 9.095289e+001
1.164149e+003, 9.132505e+001
1.164631e+003, 9.146172e+001
1.165113e+003, 9.117027e+001
1.165595e+003, 9.076782e+001
1.166078e+003, 9.037326e+001
1.166560e+003, 9.003327e+001
1.167042e+003, 8.979591e+001
1.167524e+003, 8.966613e+001
1.168006e+003, 8.973173e+001
1.168488e+003, 9.000935e+001
1.168970e+003, 8.996784e+001
1.169452e+003, 8.957107e+001
1.169934e+003, 8.913114e+001
1.170417e+003, 8.873472e+001
1.170899e+003, 8.838303e+001
1.171381e+003, 8.806387e+001
1.171863e+003, 8.788233e+001
1.172345e+003, 8.814797e+001
1.172827e+003, 8.866959e+001
1.173309e+003, 8.868826e+001
1.173791e+003, 8.835072e+001
1.174273e+003, 8.827294e+001
1.174756e+003, 8.846922e+001
1.175238e+003, 8.849072e+001
1.175720e+003, 8.817324e+001
1.176202e+003, 8.784863e+001
1.176684e+003, 8.785201e+001
1.177166e+003, 8.789421e+001
1.177648e+003, 8.749393e+001
1.178130e+003, 8.698234e+001
1.178613e+003, 8.698566e+001
1.179095e+003, 8.721027e+001
1.179577e+003, 8.688635e+001
1.180059e+003, 8.605260e+001
1.180541e+003, 8.551717e+001
1.181023e+003, 8.566525e+001
1.181505e+003, 8.591358e+001
1.181987e+003, 8.605633e+001
1.182469e+003, 8.600376e+001
1.182952e+003, 8.547977e+001
1.183434e+003, 8.492219e+001
1.183916e+003, 8.482024e+001
1.184398e+003, 8.499191e+001
1.184880e+003, 8.501614e+001
1.185362e+003, 8.483450e+001
1.185844e+003, 8.469026e+001
1.186326e+003, 8.487571e+001
1.186808e+003, 8.473719e+001
1.187291e+003, 8.373222e+001
1.187773e+003, 8.291140e+001
1.188255e+003, 8.273557e+001
1.188737e+003, 8.295238e+001
1.189219e+003, 8.342208e+001
1.189701e+003, 8.405814e+001
1.190183e+003, 8.466128e+001
1.190665e+003, 8.536926e+001
1.191148e+003, 8.525874e+001
1.191630e+003, 8.388828e+001
1.192112e+003, 8.294633e+001
1.192594e+003, 8.279725e+001
1.193076e+003, 8.287544e+001
1.193558e+003, 8.292645e+001
1.194040e+003, 8.296178e+001
1.194522e+003, 8.301354e+001
1.195005e+003, 8.304201e+001
1.195487e+003, 8.283676e+001
1.195969e+003, 8.241161e+001
1.196451e+003, 8.210064e+001
1.196933e+003, 8.192156e+001
1.197415e+003, 8.182210e+001
1.197897e+003, 8.179523e+001
1.198379e+003, 8.209178e+001
1.198861e+003, 8.291981e+001
1.199344e+003, 8.357597e+001
1.199826e+003, 8.282777e+001
1.200308e+003, 8.142516e+001
1.200790e+003, 8.088235e+001
1.201272e+003, 8.091171e+001
1.201754e+003, 8.093089e+001
1.202236e+003, 8.089928e+001
1.202718e+003, 8.103059e+001
1.203200e+003, 8.133163e+001
1.203683e+003, 8.137271e+001
1.204165e+003, 8.079087e+001
1.204647e+003, 8.017318e+001
1.205129e+003, 7.987025e+001
1.205611e+003, 7.981457e+001
1.206093e+003, 7.999632e+001
1.206575e+003, 8.035950e+001
1.207057e+003, 8.108768e+001
1.207540e+003, 8.189327e+001
1.208022e+003, 8.195368e+001
1.208504e+003, 8.102116e+001
1.208986e+003, 8.044296e+001
1.209468e+003, 8.098511e+001
1.209950e+003, 8.124071e+001
1.210432e+003, 8.065425e+001
1.210914e+003, 8.000193e+001
1.211396e+003, 7.956007e+001
1.211879e+003, 7.934707e+001
1.212361e+003, 7.948589e+001
1.212843e+003, 7.985302e+001
1.213325e+003, 7.993174e+001
1.213807e+003, 7.963503e+001
1.214289e+003, 7.945681e+001
1.214771e+003, 7.938639e+001
1.215253e+003, 7.955103e+001
1.215735e+003, 8.008526e+001
1.216218e+003, 8.024815e+001
1.216700e+003, 7.955640e+001
1.217182e+003, 7.873772e+001
1.217664e+003, 7.872540e+001
1.218146e+003, 7.925606e+001
1.218628e+003, 7.952038e+001
1.219110e+003, 7.956688e+001
1.219592e+003, 7.967307e+001
1.220075e+003, 7.981889e+001
1.220557e+003, 7.979382e+001
1.221039e+003, 7.957076e+001
1.221521e+003, 7.932988e+001
1.222003e+003, 7.917281e+001
1.222485e+003, 7.898981e+001
1.222967e+003, 7.852171e+001
1.223449e+003, 7.811771e+001
1.223932e+003, 7.824576e+001
1.224414e+003, 7.863276e+001
1.224896e+003, 7.905727e+001
1.225378e+003, 7.939282e+001
1.225860e+003, 7.941827e+001
1.226342e+003, 7.915273e+001
1.226824e+003, 7.892309e+001
1.227306e+003, 7.880439e+001
1.227788e+003, 7.883691e+001
1.228271e+003, 7.924416e+001
1.228753e+003, 7.952995e+001
1.229235e+003, 7.935440e+001
1.229717e+003, 7.909842e+001
1.230199e+003, 7.911156e+001
1.230681e+003, 7.922952e+001
1.231163e+003, 7.911047e+001
1.231645e+003, 7.876225e+001
1.232127e+003, 7.857752e+001
1.232610e+003, 7.863230e+001
1.233092e+003, 7.861144e+001
1.233574e+003, 7.847275e+001
1.234056e+003, 7.833215e+001
1.234538e+003, 7.818821e+001
1.235020e+003, 7.828255e+001
1.235502e+003, 7.888023e+001
1.235984e+003, 7.943787e+001
1.236467e+003, 7.883152e+001
1.236949e+003, 7.745924e+001
1.237431e+003, 7.708244e+001
1.237913e+003, 7.749062e+001
1.238395e+003, 7.779906e+001
1.238877e+003, 7.793164e+001
1.239359e+003, 7.813313e+001
1.239841e+003, 7.843042e+001
1.240323e+003, 7.841142e+001
1.240806e+003, 7.773156e+001
1.241288e+003, 7.706555e+001
1.241770e+003, 7.707909e+001
1.242252e+003, 7.739560e+001
1.242734e+003, 7.783543e+001
1.243216e+003, 7.820831e+001
1.243698e+003, 7.821062e+001
1.244180e+003, 7.800237e+001
1.244662e+003, 7.796707e+001
1.245145e+003, 7.815529e+001
1.245627e+003, 7.827402e+001
1.246109e+003, 7.814259e+001
1.246591e+003, 7.813174e+001
1.247073e+003, 7.858976e+001
1.247555e+003, 7.878535e+001
1.248037e+003, 7.826630e+001
1.248519e+003, 7.765992e+001
1.249002e+003, 7.739439e+001
1.249484e+003, 7.733707e+001
1.249966e+003, 7.725159e+001
1.250448e+003, 7.714102e+001
1.250930e+003, 7.704749e+001
1.251412e+003, 7.696524e+001
1.251894e+003, 7.695939e+001
1.252376e+003, 7.703474e+001
1.252859e+003, 7.723974e+001
1.253341e+003, 7.758556e+001
1.253823e+003, 7.772087e+001
1.254305e+003, 7.738168e+001
1.254787e+003, 7.694929e+001
1.255269e+003, 7.699503e+001
1.255751e+003, 7.727375e+001
1.256233e+003, 7.738576e+001
1.256715e+003, 7.735899e+001
1.257198e+003, 7.721088e+001
1.257680e+003, 7.698306e+001
1.258162e+003, 7.666945e+001
1.258644e+003, 7.633861e+001
1.259126e+003, 7.635837e+001
1.259608e+003, 7.703130e+001
1.260090e+003, 7.749166e+001
1.260572e+003, 7.713206e+001
1.261054e+003, 7.673660e+001
1.261537e+003, 7.658659e+001
1.262019e+003, 7.663817e+001
1.262501e+003, 7.715556e+001
1.262983e+003, 7.766331e+001
1.263465e+003, 7.720724e+001
1.263947e+003, 7.598695e+001
1.264429e+003, 7.562733e+001
1.264911e+003, 7.646880e+001
1.265394e+003, 7.702881e+001
1.265876e+003, 7.730067e+001
1.266358e+003, 7.722499e+001
1.266840e+003, 7.672046e+001
1.267322e+003, 7.636215e+001
1.267804e+003, 7.647478e+001
1.268286e+003, 7.681608e+001
1.268768e+003, 7.716500e+001
1.269250e+003, 7.738764e+001
1.269733e+003, 7.694792e+001
1.270215e+003, 7.624098e+001
1.270697e+003, 7.636751e+001
1.271179e+003, 7.706477e+001
1.271661e+003, 7.756726e+001
1.272143e+003, 7.774193e+001
1.272625e+003, 7.772016e+001
1.273107e+003, 7.755222e+001
1.273589e+003, 7.737392e+001
1.274072e+003, 7.730996e+001
1.274554e+003, 7.719649e+001
1.275036e+003, 7.685408e+001
1.275518e+003, 7.654607e+001
1.276000e+003, 7.649830e+001
1.276482e+003, 7.653699e+001
1.276964e+003, 7.641905e+001
1.277446e+003, 7.623677e+001
1.277929e+003, 7.630911e+001
1.278411e+003, 7.668633e+001
1.278893e+003, 7.680093e+001
1.279375e+003, 7.660941e+001
1.279857e+003, 7.627438e+001
1.280339e+003, 7.574178e+001
1.280821e+003, 7.548238e+001
1.281303e+003, 7.568752e+001
1.281786e+003, 7.605488e+001
1.282268e+003, 7.635359e+001
##END=



