##NAMES=Cyrilovite
##RRUFFID=R060504
##IDEAL CHEMISTRY=NaFe^3+^_3_(PO_4_)_2_(OH)_4_&#183;2H_2_O
##LOCALITY=Gunheath pit, St. Austell, Cornwall, England
##OWNER=RRUFF
##SOURCE=Michael Scott
##DESCRIPTION=Group of yellowish-brown indistinct small crystals associated with leucophosphite, R060338, and green chalcosiderite, R060339
##STATUS=The identification of this mineral has been confirmed by single-crystal X-ray diffraction.
##URL=rruff.info/R060504
8.813672e+001, 5.132436e+002
8.861884e+001, 5.175870e+002
8.910095e+001, 5.232106e+002
8.958307e+001, 5.329128e+002
9.006519e+001, 5.453920e+002
9.054730e+001, 5.579390e+002
9.102942e+001, 5.716207e+002
9.151154e+001, 5.835375e+002
9.199365e+001, 5.896514e+002
9.247577e+001, 5.909081e+002
9.295789e+001, 5.914111e+002
9.344000e+001, 5.945336e+002
9.392212e+001, 5.987274e+002
9.440424e+001, 6.009037e+002
9.488635e+001, 6.009747e+002
9.536847e+001, 5.998698e+002
9.585059e+001, 5.990383e+002
9.633270e+001, 5.983887e+002
9.681482e+001, 5.981972e+002
9.729694e+001, 5.982562e+002
9.777905e+001, 5.985673e+002
9.826117e+001, 6.009166e+002
9.874329e+001, 6.065479e+002
9.922540e+001, 6.147948e+002
9.970752e+001, 6.209664e+002
1.001896e+002, 6.245791e+002
1.006718e+002, 6.269587e+002
1.011539e+002, 6.293148e+002
1.016360e+002, 6.312106e+002
1.021181e+002, 6.347175e+002
1.026002e+002, 6.410013e+002
1.030823e+002, 6.507510e+002
1.035645e+002, 6.587532e+002
1.040466e+002, 6.641930e+002
1.045287e+002, 6.685521e+002
1.050108e+002, 6.748307e+002
1.054929e+002, 6.842082e+002
1.059750e+002, 6.938113e+002
1.064572e+002, 7.027830e+002
1.069393e+002, 7.127106e+002
1.074214e+002, 7.192839e+002
1.079035e+002, 7.207133e+002
1.083856e+002, 7.186492e+002
1.088677e+002, 7.187440e+002
1.093499e+002, 7.220698e+002
1.098320e+002, 7.267951e+002
1.103141e+002, 7.321309e+002
1.107962e+002, 7.376087e+002
1.112783e+002, 7.443213e+002
1.117604e+002, 7.528566e+002
1.122426e+002, 7.630498e+002
1.127247e+002, 7.731672e+002
1.132068e+002, 7.824399e+002
1.136889e+002, 7.918541e+002
1.141710e+002, 8.019943e+002
1.146531e+002, 8.143359e+002
1.151353e+002, 8.261033e+002
1.156174e+002, 8.361478e+002
1.160995e+002, 8.444211e+002
1.165816e+002, 8.534636e+002
1.170637e+002, 8.649904e+002
1.175458e+002, 8.774736e+002
1.180280e+002, 8.894085e+002
1.185101e+002, 8.984960e+002
1.189922e+002, 9.079992e+002
1.194743e+002, 9.194284e+002
1.199564e+002, 9.329021e+002
1.204385e+002, 9.486666e+002
1.209207e+002, 9.670238e+002
1.214028e+002, 9.877997e+002
1.218849e+002, 1.010573e+003
1.223670e+002, 1.038224e+003
1.228491e+002, 1.066751e+003
1.233312e+002, 1.091106e+003
1.238134e+002, 1.109954e+003
1.242955e+002, 1.128143e+003
1.247776e+002, 1.149861e+003
1.252597e+002, 1.174668e+003
1.257418e+002, 1.201022e+003
1.262239e+002, 1.227601e+003
1.267061e+002, 1.255428e+003
1.271882e+002, 1.285724e+003
1.276703e+002, 1.319556e+003
1.281524e+002, 1.355155e+003
1.286345e+002, 1.389696e+003
1.291166e+002, 1.423382e+003
1.295988e+002, 1.458283e+003
1.300809e+002, 1.496142e+003
1.305630e+002, 1.536587e+003
1.310451e+002, 1.578063e+003
1.315272e+002, 1.619673e+003
1.320093e+002, 1.662054e+003
1.324915e+002, 1.707362e+003
1.329736e+002, 1.755666e+003
1.334557e+002, 1.806328e+003
1.339378e+002, 1.857667e+003
1.344199e+002, 1.909899e+003
1.349020e+002, 1.965510e+003
1.353842e+002, 2.026471e+003
1.358663e+002, 2.090724e+003
1.363484e+002, 2.153899e+003
1.368305e+002, 2.215769e+003
1.373126e+002, 2.276906e+003
1.377947e+002, 2.337860e+003
1.382769e+002, 2.399523e+003
1.387590e+002, 2.457535e+003
1.392411e+002, 2.510286e+003
1.397232e+002, 2.558315e+003
1.402053e+002, 2.600997e+003
1.406874e+002, 2.638919e+003
1.411696e+002, 2.671728e+003
1.416517e+002, 2.698971e+003
1.421338e+002, 2.721979e+003
1.426159e+002, 2.737173e+003
1.430980e+002, 2.744149e+003
1.435801e+002, 2.743371e+003
1.440623e+002, 2.731807e+003
1.445444e+002, 2.707227e+003
1.450265e+002, 2.673321e+003
1.455086e+002, 2.636634e+003
1.459907e+002, 2.595944e+003
1.464728e+002, 2.553872e+003
1.469550e+002, 2.510201e+003
1.474371e+002, 2.462694e+003
1.479192e+002, 2.419379e+003
1.484013e+002, 2.380023e+003
1.488834e+002, 2.345003e+003
1.493655e+002, 2.314589e+003
1.498477e+002, 2.289402e+003
1.503298e+002, 2.268505e+003
1.508119e+002, 2.251890e+003
1.512940e+002, 2.241389e+003
1.517761e+002, 2.232322e+003
1.522583e+002, 2.223378e+003
1.527404e+002, 2.215702e+003
1.532225e+002, 2.212611e+003
1.537046e+002, 2.218350e+003
1.541867e+002, 2.225930e+003
1.546688e+002, 2.232112e+003
1.551510e+002, 2.234583e+003
1.556331e+002, 2.238171e+003
1.561152e+002, 2.244058e+003
1.565973e+002, 2.251787e+003
1.570794e+002, 2.259425e+003
1.575615e+002, 2.267132e+003
1.580437e+002, 2.274379e+003
1.585258e+002, 2.280877e+003
1.590079e+002, 2.287898e+003
1.594900e+002, 2.292798e+003
1.599721e+002, 2.294710e+003
1.604542e+002, 2.293805e+003
1.609364e+002, 2.291034e+003
1.614185e+002, 2.286609e+003
1.619006e+002, 2.280528e+003
1.623827e+002, 2.272791e+003
1.628648e+002, 2.260882e+003
1.633469e+002, 2.249521e+003
1.638291e+002, 2.240407e+003
1.643112e+002, 2.233607e+003
1.647933e+002, 2.228812e+003
1.652754e+002, 2.226236e+003
1.657575e+002, 2.225468e+003
1.662396e+002, 2.226074e+003
1.667218e+002, 2.227500e+003
1.672039e+002, 2.230545e+003
1.676860e+002, 2.236596e+003
1.681681e+002, 2.245514e+003
1.686502e+002, 2.254216e+003
1.691323e+002, 2.262298e+003
1.696145e+002, 2.268596e+003
1.700966e+002, 2.271447e+003
1.705787e+002, 2.271176e+003
1.710608e+002, 2.266602e+003
1.715429e+002, 2.256551e+003
1.720250e+002, 2.240830e+003
1.725072e+002, 2.220687e+003
1.729893e+002, 2.196014e+003
1.734714e+002, 2.167389e+003
1.739535e+002, 2.135874e+003
1.744356e+002, 2.100570e+003
1.749177e+002, 2.063300e+003
1.753999e+002, 2.025302e+003
1.758820e+002, 1.986193e+003
1.763641e+002, 1.947623e+003
1.768462e+002, 1.909173e+003
1.773283e+002, 1.871479e+003
1.778104e+002, 1.836063e+003
1.782926e+002, 1.804320e+003
1.787747e+002, 1.775390e+003
1.792568e+002, 1.747940e+003
1.797389e+002, 1.722065e+003
1.802210e+002, 1.698028e+003
1.807031e+002, 1.676956e+003
1.811853e+002, 1.658488e+003
1.816674e+002, 1.642036e+003
1.821495e+002, 1.627107e+003
1.826316e+002, 1.614047e+003
1.831137e+002, 1.604488e+003
1.835958e+002, 1.598789e+003
1.840780e+002, 1.595166e+003
1.845601e+002, 1.591184e+003
1.850422e+002, 1.587115e+003
1.855243e+002, 1.584150e+003
1.860064e+002, 1.583722e+003
1.864885e+002, 1.585104e+003
1.869707e+002, 1.585282e+003
1.874528e+002, 1.583631e+003
1.879349e+002, 1.582112e+003
1.884170e+002, 1.584223e+003
1.888991e+002, 1.589778e+003
1.893812e+002, 1.595518e+003
1.898634e+002, 1.600370e+003
1.903455e+002, 1.604149e+003
1.908276e+002, 1.605659e+003
1.913097e+002, 1.604451e+003
1.917918e+002, 1.601722e+003
1.922739e+002, 1.599716e+003
1.927561e+002, 1.598441e+003
1.932382e+002, 1.596396e+003
1.937203e+002, 1.592505e+003
1.942024e+002, 1.586892e+003
1.946845e+002, 1.581039e+003
1.951666e+002, 1.575147e+003
1.956488e+002, 1.568960e+003
1.961309e+002, 1.561725e+003
1.966130e+002, 1.553197e+003
1.970951e+002, 1.544935e+003
1.975772e+002, 1.537708e+003
1.980593e+002, 1.531531e+003
1.985415e+002, 1.525870e+003
1.990236e+002, 1.520724e+003
1.995057e+002, 1.516052e+003
1.999878e+002, 1.511804e+003
2.004699e+002, 1.507920e+003
2.009520e+002, 1.504750e+003
2.014342e+002, 1.502926e+003
2.019163e+002, 1.502623e+003
2.023984e+002, 1.501523e+003
2.028805e+002, 1.499648e+003
2.033626e+002, 1.496737e+003
2.038447e+002, 1.491537e+003
2.043269e+002, 1.483258e+003
2.048090e+002, 1.475481e+003
2.052911e+002, 1.470527e+003
2.057732e+002, 1.468764e+003
2.062553e+002, 1.467010e+003
2.067374e+002, 1.464721e+003
2.072196e+002, 1.462560e+003
2.077017e+002, 1.462538e+003
2.081838e+002, 1.465165e+003
2.086659e+002, 1.468551e+003
2.091480e+002, 1.471478e+003
2.096301e+002, 1.473641e+003
2.101123e+002, 1.476990e+003
2.105944e+002, 1.482021e+003
2.110765e+002, 1.488133e+003
2.115586e+002, 1.493495e+003
2.120407e+002, 1.497725e+003
2.125228e+002, 1.502102e+003
2.130050e+002, 1.507403e+003
2.134871e+002, 1.513898e+003
2.139692e+002, 1.520170e+003
2.144513e+002, 1.526031e+003
2.149334e+002, 1.531628e+003
2.154155e+002, 1.537633e+003
2.158977e+002, 1.544216e+003
2.163798e+002, 1.550852e+003
2.168619e+002, 1.557095e+003
2.173440e+002, 1.562572e+003
2.178261e+002, 1.568608e+003
2.183082e+002, 1.574851e+003
2.187904e+002, 1.581736e+003
2.192725e+002, 1.590793e+003
2.197546e+002, 1.602756e+003
2.202367e+002, 1.615428e+003
2.207188e+002, 1.627409e+003
2.212009e+002, 1.638111e+003
2.216831e+002, 1.650136e+003
2.221652e+002, 1.663882e+003
2.226473e+002, 1.678984e+003
2.231294e+002, 1.693895e+003
2.236115e+002, 1.708624e+003
2.240936e+002, 1.723439e+003
2.245758e+002, 1.738918e+003
2.250579e+002, 1.756008e+003
2.255400e+002, 1.771218e+003
2.260221e+002, 1.784037e+003
2.265042e+002, 1.795138e+003
2.269863e+002, 1.805924e+003
2.274685e+002, 1.816622e+003
2.279506e+002, 1.826855e+003
2.284327e+002, 1.836446e+003
2.289148e+002, 1.845499e+003
2.293969e+002, 1.853855e+003
2.298790e+002, 1.861480e+003
2.303612e+002, 1.868384e+003
2.308433e+002, 1.874659e+003
2.313254e+002, 1.880650e+003
2.318075e+002, 1.885527e+003
2.322896e+002, 1.889032e+003
2.327717e+002, 1.891426e+003
2.332539e+002, 1.891758e+003
2.337360e+002, 1.890123e+003
2.342181e+002, 1.886374e+003
2.347002e+002, 1.879935e+003
2.351823e+002, 1.869950e+003
2.356644e+002, 1.858575e+003
2.361466e+002, 1.846853e+003
2.366287e+002, 1.835774e+003
2.371108e+002, 1.821454e+003
2.375929e+002, 1.802519e+003
2.380750e+002, 1.781125e+003
2.385571e+002, 1.761950e+003
2.390393e+002, 1.746266e+003
2.395214e+002, 1.730822e+003
2.400035e+002, 1.714238e+003
2.404856e+002, 1.695244e+003
2.409677e+002, 1.678576e+003
2.414498e+002, 1.664417e+003
2.419320e+002, 1.652568e+003
2.424141e+002, 1.642376e+003
2.428962e+002, 1.633652e+003
2.433783e+002, 1.626966e+003
2.438604e+002, 1.622720e+003
2.443425e+002, 1.621419e+003
2.448247e+002, 1.620724e+003
2.453068e+002, 1.620218e+003
2.457889e+002, 1.620596e+003
2.462710e+002, 1.623043e+003
2.467531e+002, 1.628229e+003
2.472352e+002, 1.634324e+003
2.477174e+002, 1.640988e+003
2.481995e+002, 1.648335e+003
2.486816e+002, 1.655203e+003
2.491637e+002, 1.661145e+003
2.496458e+002, 1.666938e+003
2.501279e+002, 1.673801e+003
2.506101e+002, 1.682900e+003
2.510922e+002, 1.691002e+003
2.515743e+002, 1.697511e+003
2.520564e+002, 1.702673e+003
2.525385e+002, 1.704518e+003
2.530206e+002, 1.702291e+003
2.535028e+002, 1.697399e+003
2.539849e+002, 1.691656e+003
2.544670e+002, 1.685227e+003
2.549491e+002, 1.677483e+003
2.554312e+002, 1.668102e+003
2.559133e+002, 1.657118e+003
2.563955e+002, 1.645469e+003
2.568776e+002, 1.632761e+003
2.573597e+002, 1.619767e+003
2.578418e+002, 1.607168e+003
2.583239e+002, 1.594593e+003
2.588061e+002, 1.582994e+003
2.592882e+002, 1.572439e+003
2.597703e+002, 1.562889e+003
2.602524e+002, 1.554443e+003
2.607345e+002, 1.546863e+003
2.612166e+002, 1.540613e+003
2.616988e+002, 1.536134e+003
2.621809e+002, 1.533903e+003
2.626630e+002, 1.532330e+003
2.631451e+002, 1.531211e+003
2.636272e+002, 1.530549e+003
2.641093e+002, 1.530482e+003
2.645915e+002, 1.531209e+003
2.650736e+002, 1.532209e+003
2.655557e+002, 1.533547e+003
2.660378e+002, 1.536008e+003
2.665199e+002, 1.535940e+003
2.670020e+002, 1.532479e+003
2.674842e+002, 1.526090e+003
2.679663e+002, 1.519159e+003
2.684484e+002, 1.511620e+003
2.689305e+002, 1.503713e+003
2.694126e+002, 1.496042e+003
2.698947e+002, 1.488998e+003
2.703769e+002, 1.479875e+003
2.708590e+002, 1.468193e+003
2.713411e+002, 1.454274e+003
2.718232e+002, 1.439162e+003
2.723053e+002, 1.422377e+003
2.727874e+002, 1.405897e+003
2.732696e+002, 1.390833e+003
2.737517e+002, 1.377414e+003
2.742338e+002, 1.363930e+003
2.747159e+002, 1.349929e+003
2.751980e+002, 1.336019e+003
2.756801e+002, 1.324222e+003
2.761623e+002, 1.314943e+003
2.766444e+002, 1.306010e+003
2.771265e+002, 1.295980e+003
2.776086e+002, 1.284524e+003
2.780907e+002, 1.275125e+003
2.785728e+002, 1.268272e+003
2.790550e+002, 1.262747e+003
2.795371e+002, 1.256389e+003
2.800192e+002, 1.249080e+003
2.805013e+002, 1.241902e+003
2.809834e+002, 1.235328e+003
2.814655e+002, 1.229342e+003
2.819477e+002, 1.223577e+003
2.824298e+002, 1.218138e+003
2.829119e+002, 1.212751e+003
2.833940e+002, 1.207090e+003
2.838761e+002, 1.201140e+003
2.843582e+002, 1.194997e+003
2.848404e+002, 1.188916e+003
2.853225e+002, 1.182717e+003
2.858046e+002, 1.175069e+003
2.862867e+002, 1.165806e+003
2.867688e+002, 1.156186e+003
2.872509e+002, 1.147650e+003
2.877331e+002, 1.140144e+003
2.882152e+002, 1.132875e+003
2.886973e+002, 1.125555e+003
2.891794e+002, 1.118295e+003
2.896615e+002, 1.111681e+003
2.901436e+002, 1.105709e+003
2.906258e+002, 1.099968e+003
2.911079e+002, 1.093954e+003
2.915900e+002, 1.087762e+003
2.920721e+002, 1.081814e+003
2.925542e+002, 1.076297e+003
2.930363e+002, 1.071116e+003
2.935185e+002, 1.065917e+003
2.940006e+002, 1.060678e+003
2.944827e+002, 1.056212e+003
2.949648e+002, 1.053734e+003
2.954469e+002, 1.052507e+003
2.959290e+002, 1.050148e+003
2.964112e+002, 1.045804e+003
2.968933e+002, 1.040787e+003
2.973754e+002, 1.037273e+003
2.978575e+002, 1.035064e+003
2.983396e+002, 1.032856e+003
2.988217e+002, 1.029691e+003
2.993039e+002, 1.025948e+003
2.997860e+002, 1.022418e+003
3.002681e+002, 1.019147e+003
3.007502e+002, 1.016164e+003
3.012323e+002, 1.013865e+003
3.017144e+002, 1.011975e+003
3.021966e+002, 1.009695e+003
3.026787e+002, 1.005974e+003
3.031608e+002, 1.001808e+003
3.036429e+002, 9.985189e+002
3.041250e+002, 9.962958e+002
3.046071e+002, 9.945449e+002
3.050893e+002, 9.925873e+002
3.055714e+002, 9.907164e+002
3.060535e+002, 9.896145e+002
3.065356e+002, 9.902215e+002
3.070177e+002, 9.913390e+002
3.074998e+002, 9.915766e+002
3.079820e+002, 9.908995e+002
3.084641e+002, 9.906621e+002
3.089462e+002, 9.919805e+002
3.094283e+002, 9.943037e+002
3.099104e+002, 9.968723e+002
3.103925e+002, 9.992210e+002
3.108747e+002, 1.001857e+003
3.113568e+002, 1.005140e+003
3.118389e+002, 1.009037e+003
3.123210e+002, 1.013232e+003
3.128031e+002, 1.017463e+003
3.132852e+002, 1.022000e+003
3.137674e+002, 1.027089e+003
3.142495e+002, 1.032320e+003
3.147316e+002, 1.038647e+003
3.152137e+002, 1.047606e+003
3.156958e+002, 1.058266e+003
3.161779e+002, 1.067515e+003
3.166601e+002, 1.072082e+003
3.171422e+002, 1.076061e+003
3.176243e+002, 1.082155e+003
3.181064e+002, 1.091446e+003
3.185885e+002, 1.101446e+003
3.190706e+002, 1.111734e+003
3.195528e+002, 1.122119e+003
3.200349e+002, 1.132245e+003
3.205170e+002, 1.141947e+003
3.209991e+002, 1.151409e+003
3.214812e+002, 1.160446e+003
3.219633e+002, 1.168689e+003
3.224455e+002, 1.177982e+003
3.229276e+002, 1.189832e+003
3.234097e+002, 1.202628e+003
3.238918e+002, 1.214394e+003
3.243739e+002, 1.224356e+003
3.248560e+002, 1.233741e+003
3.253382e+002, 1.243198e+003
3.258203e+002, 1.252982e+003
3.263024e+002, 1.260888e+003
3.267845e+002, 1.265305e+003
3.272666e+002, 1.268663e+003
3.277487e+002, 1.272909e+003
3.282309e+002, 1.279499e+003
3.287130e+002, 1.285268e+003
3.291951e+002, 1.290015e+003
3.296772e+002, 1.293738e+003
3.301593e+002, 1.296351e+003
3.306414e+002, 1.297340e+003
3.311236e+002, 1.297668e+003
3.316057e+002, 1.297910e+003
3.320878e+002, 1.298721e+003
3.325699e+002, 1.298207e+003
3.330520e+002, 1.296105e+003
3.335341e+002, 1.292662e+003
3.340163e+002, 1.288371e+003
3.344984e+002, 1.282380e+003
3.349805e+002, 1.277017e+003
3.354626e+002, 1.273400e+003
3.359447e+002, 1.272097e+003
3.364268e+002, 1.270285e+003
3.369090e+002, 1.267740e+003
3.373911e+002, 1.264915e+003
3.378732e+002, 1.262594e+003
3.383553e+002, 1.260926e+003
3.388374e+002, 1.259264e+003
3.393195e+002, 1.257138e+003
3.398017e+002, 1.254630e+003
3.402838e+002, 1.253699e+003
3.407659e+002, 1.254736e+003
3.412480e+002, 1.256390e+003
3.417301e+002, 1.257211e+003
3.422122e+002, 1.257128e+003
3.426944e+002, 1.257246e+003
3.431765e+002, 1.257853e+003
3.436586e+002, 1.258806e+003
3.441407e+002, 1.259575e+003
3.446228e+002, 1.260129e+003
3.451049e+002, 1.260761e+003
3.455871e+002, 1.261520e+003
3.460692e+002, 1.262476e+003
3.465513e+002, 1.264343e+003
3.470334e+002, 1.267679e+003
3.475155e+002, 1.270999e+003
3.479977e+002, 1.271820e+003
3.484798e+002, 1.270276e+003
3.489619e+002, 1.267424e+003
3.494440e+002, 1.263246e+003
3.499261e+002, 1.258274e+003
3.504082e+002, 1.253907e+003
3.508904e+002, 1.250364e+003
3.513725e+002, 1.246574e+003
3.518546e+002, 1.241310e+003
3.523367e+002, 1.234871e+003
3.528188e+002, 1.227990e+003
3.533009e+002, 1.220426e+003
3.537831e+002, 1.212877e+003
3.542652e+002, 1.206616e+003
3.547473e+002, 1.201556e+003
3.552294e+002, 1.195861e+003
3.557115e+002, 1.187334e+003
3.561936e+002, 1.177634e+003
3.566758e+002, 1.168953e+003
3.571579e+002, 1.161964e+003
3.576400e+002, 1.155992e+003
3.581221e+002, 1.151125e+003
3.586042e+002, 1.147048e+003
3.590863e+002, 1.142449e+003
3.595685e+002, 1.135507e+003
3.600506e+002, 1.128529e+003
3.605327e+002, 1.123467e+003
3.610148e+002, 1.121428e+003
3.614969e+002, 1.119228e+003
3.619790e+002, 1.115009e+003
3.624612e+002, 1.109857e+003
3.629433e+002, 1.105531e+003
3.634254e+002, 1.102650e+003
3.639075e+002, 1.100613e+003
3.643896e+002, 1.099401e+003
3.648717e+002, 1.099122e+003
3.653539e+002, 1.098676e+003
3.658360e+002, 1.098056e+003
3.663181e+002, 1.097057e+003
3.668002e+002, 1.095483e+003
3.672823e+002, 1.092193e+003
3.677644e+002, 1.089537e+003
3.682466e+002, 1.088134e+003
3.687287e+002, 1.087865e+003
3.692108e+002, 1.087317e+003
3.696929e+002, 1.086155e+003
3.701750e+002, 1.085006e+003
3.706571e+002, 1.084254e+003
3.711393e+002, 1.084574e+003
3.716214e+002, 1.084074e+003
3.721035e+002, 1.082300e+003
3.725856e+002, 1.079846e+003
3.730677e+002, 1.078208e+003
3.735498e+002, 1.078074e+003
3.740320e+002, 1.077424e+003
3.745141e+002, 1.075336e+003
3.749962e+002, 1.071598e+003
3.754783e+002, 1.068569e+003
3.759604e+002, 1.066700e+003
3.764425e+002, 1.064863e+003
3.769247e+002, 1.061414e+003
3.774068e+002, 1.056033e+003
3.778889e+002, 1.051268e+003
3.783710e+002, 1.048065e+003
3.788531e+002, 1.045943e+003
3.793352e+002, 1.042853e+003
3.798174e+002, 1.038787e+003
3.802995e+002, 1.033978e+003
3.807816e+002, 1.028725e+003
3.812637e+002, 1.022947e+003
3.817458e+002, 1.016155e+003
3.822279e+002, 1.007832e+003
3.827101e+002, 9.992205e+002
3.831922e+002, 9.917543e+002
3.836743e+002, 9.854299e+002
3.841564e+002, 9.807028e+002
3.846385e+002, 9.792796e+002
3.851206e+002, 9.792862e+002
3.856028e+002, 9.766243e+002
3.860849e+002, 9.709607e+002
3.865670e+002, 9.645375e+002
3.870491e+002, 9.586613e+002
3.875312e+002, 9.535494e+002
3.880133e+002, 9.495837e+002
3.884955e+002, 9.471542e+002
3.889776e+002, 9.457066e+002
3.894597e+002, 9.453851e+002
3.899418e+002, 9.459246e+002
3.904239e+002, 9.457447e+002
3.909060e+002, 9.429377e+002
3.913882e+002, 9.394755e+002
3.918703e+002, 9.371700e+002
3.923524e+002, 9.365930e+002
3.928345e+002, 9.367419e+002
3.933166e+002, 9.371205e+002
3.937987e+002, 9.378835e+002
3.942809e+002, 9.393272e+002
3.947630e+002, 9.417059e+002
3.952451e+002, 9.446404e+002
3.957272e+002, 9.482283e+002
3.962093e+002, 9.526237e+002
3.966914e+002, 9.565292e+002
3.971736e+002, 9.591221e+002
3.976557e+002, 9.613698e+002
3.981378e+002, 9.641718e+002
3.986199e+002, 9.675182e+002
3.991020e+002, 9.714886e+002
3.995841e+002, 9.763654e+002
4.000663e+002, 9.819870e+002
4.005484e+002, 9.873043e+002
4.010305e+002, 9.919130e+002
4.015126e+002, 9.966544e+002
4.019947e+002, 1.001950e+003
4.024768e+002, 1.007830e+003
4.029590e+002, 1.014161e+003
4.034411e+002, 1.021261e+003
4.039232e+002, 1.028606e+003
4.044053e+002, 1.035172e+003
4.048874e+002, 1.040707e+003
4.053695e+002, 1.046337e+003
4.058517e+002, 1.052460e+003
4.063338e+002, 1.059025e+003
4.068159e+002, 1.065898e+003
4.072980e+002, 1.073053e+003
4.077801e+002, 1.080674e+003
4.082622e+002, 1.089239e+003
4.087444e+002, 1.098704e+003
4.092265e+002, 1.107141e+003
4.097086e+002, 1.113842e+003
4.101907e+002, 1.119788e+003
4.106728e+002, 1.127228e+003
4.111549e+002, 1.136040e+003
4.116371e+002, 1.144710e+003
4.121192e+002, 1.151892e+003
4.126013e+002, 1.158242e+003
4.130834e+002, 1.165048e+003
4.135655e+002, 1.172346e+003
4.140476e+002, 1.180215e+003
4.145298e+002, 1.189315e+003
4.150119e+002, 1.199030e+003
4.154940e+002, 1.208353e+003
4.159761e+002, 1.216388e+003
4.164582e+002, 1.224138e+003
4.169403e+002, 1.232282e+003
4.174225e+002, 1.240821e+003
4.179046e+002, 1.249604e+003
4.183867e+002, 1.258899e+003
4.188688e+002, 1.268064e+003
4.193509e+002, 1.276270e+003
4.198330e+002, 1.282922e+003
4.203152e+002, 1.289773e+003
4.207973e+002, 1.298248e+003
4.212794e+002, 1.307358e+003
4.217615e+002, 1.315368e+003
4.222436e+002, 1.321557e+003
4.227257e+002, 1.326840e+003
4.232079e+002, 1.331542e+003
4.236900e+002, 1.335662e+003
4.241721e+002, 1.339179e+003
4.246542e+002, 1.342496e+003
4.251363e+002, 1.344982e+003
4.256184e+002, 1.346195e+003
4.261006e+002, 1.345774e+003
4.265827e+002, 1.344609e+003
4.270648e+002, 1.343128e+003
4.275469e+002, 1.340900e+003
4.280290e+002, 1.336448e+003
4.285111e+002, 1.329287e+003
4.289933e+002, 1.320807e+003
4.294754e+002, 1.311389e+003
4.299575e+002, 1.300794e+003
4.304396e+002, 1.290875e+003
4.309217e+002, 1.282056e+003
4.314038e+002, 1.272913e+003
4.318860e+002, 1.261189e+003
4.323681e+002, 1.246753e+003
4.328502e+002, 1.233486e+003
4.333323e+002, 1.222620e+003
4.338144e+002, 1.213494e+003
4.342965e+002, 1.204340e+003
4.347787e+002, 1.195183e+003
4.352608e+002, 1.186488e+003
4.357429e+002, 1.178745e+003
4.362250e+002, 1.171727e+003
4.367071e+002, 1.164947e+003
4.371892e+002, 1.158434e+003
4.376714e+002, 1.151813e+003
4.381535e+002, 1.143941e+003
4.386356e+002, 1.135697e+003
4.391177e+002, 1.129087e+003
4.395998e+002, 1.126468e+003
4.400819e+002, 1.124815e+003
4.405641e+002, 1.121371e+003
4.410462e+002, 1.116284e+003
4.415283e+002, 1.111521e+003
4.420104e+002, 1.107873e+003
4.424925e+002, 1.105176e+003
4.429746e+002, 1.103345e+003
4.434568e+002, 1.102323e+003
4.439389e+002, 1.102155e+003
4.444210e+002, 1.103172e+003
4.449031e+002, 1.105012e+003
4.453852e+002, 1.107001e+003
4.458673e+002, 1.108474e+003
4.463495e+002, 1.110573e+003
4.468316e+002, 1.113705e+003
4.473137e+002, 1.117977e+003
4.477958e+002, 1.122745e+003
4.482779e+002, 1.127764e+003
4.487600e+002, 1.133453e+003
4.492422e+002, 1.140242e+003
4.497243e+002, 1.149015e+003
4.502064e+002, 1.157014e+003
4.506885e+002, 1.163514e+003
4.511706e+002, 1.169479e+003
4.516527e+002, 1.177689e+003
4.521349e+002, 1.188792e+003
4.526170e+002, 1.199972e+003
4.530991e+002, 1.209584e+003
4.535812e+002, 1.217840e+003
4.540633e+002, 1.227564e+003
4.545454e+002, 1.239097e+003
4.550276e+002, 1.250881e+003
4.555097e+002, 1.261031e+003
4.559918e+002, 1.269843e+003
4.564739e+002, 1.278590e+003
4.569560e+002, 1.287872e+003
4.574381e+002, 1.296952e+003
4.579203e+002, 1.305110e+003
4.584024e+002, 1.312206e+003
4.588845e+002, 1.317748e+003
4.593666e+002, 1.321234e+003
4.598488e+002, 1.323039e+003
4.603309e+002, 1.323611e+003
4.608130e+002, 1.323025e+003
4.612951e+002, 1.320890e+003
4.617772e+002, 1.316893e+003
4.622593e+002, 1.311239e+003
4.627415e+002, 1.304223e+003
4.632236e+002, 1.296031e+003
4.637057e+002, 1.286424e+003
4.641878e+002, 1.274648e+003
4.646699e+002, 1.261326e+003
4.651520e+002, 1.248309e+003
4.656342e+002, 1.236968e+003
4.661163e+002, 1.225635e+003
4.665984e+002, 1.213350e+003
4.670805e+002, 1.199533e+003
4.675626e+002, 1.186501e+003
4.680447e+002, 1.174773e+003
4.685269e+002, 1.163614e+003
4.690090e+002, 1.152056e+003
4.694911e+002, 1.139406e+003
4.699732e+002, 1.127752e+003
4.704553e+002, 1.117300e+003
4.709374e+002, 1.108040e+003
4.714196e+002, 1.099760e+003
4.719017e+002, 1.092563e+003
4.723838e+002, 1.086138e+003
4.728659e+002, 1.080334e+003
4.733480e+002, 1.075122e+003
4.738301e+002, 1.070515e+003
4.743123e+002, 1.066452e+003
4.747944e+002, 1.063066e+003
4.752765e+002, 1.060723e+003
4.757586e+002, 1.059277e+003
4.762407e+002, 1.057927e+003
4.767228e+002, 1.056124e+003
4.772050e+002, 1.054643e+003
4.776871e+002, 1.055119e+003
4.781692e+002, 1.057200e+003
4.786513e+002, 1.059140e+003
4.791334e+002, 1.059477e+003
4.796155e+002, 1.059321e+003
4.800977e+002, 1.059767e+003
4.805798e+002, 1.060943e+003
4.810619e+002, 1.062797e+003
4.815440e+002, 1.065706e+003
4.820261e+002, 1.069118e+003
4.825082e+002, 1.072418e+003
4.829904e+002, 1.075414e+003
4.834725e+002, 1.078281e+003
4.839546e+002, 1.081019e+003
4.844367e+002, 1.083663e+003
4.849188e+002, 1.086289e+003
4.854009e+002, 1.088801e+003
4.858831e+002, 1.091390e+003
4.863652e+002, 1.094230e+003
4.868473e+002, 1.097475e+003
4.873294e+002, 1.100209e+003
4.878115e+002, 1.102168e+003
4.882936e+002, 1.103825e+003
4.887758e+002, 1.105764e+003
4.892579e+002, 1.108218e+003
4.897400e+002, 1.110161e+003
4.902221e+002, 1.111338e+003
4.907042e+002, 1.111946e+003
4.911863e+002, 1.112633e+003
4.916685e+002, 1.113460e+003
4.921506e+002, 1.113861e+003
4.926327e+002, 1.113576e+003
4.931148e+002, 1.112623e+003
4.935969e+002, 1.111065e+003
4.940790e+002, 1.108891e+003
4.945612e+002, 1.106246e+003
4.950433e+002, 1.103075e+003
4.955254e+002, 1.099558e+003
4.960075e+002, 1.096055e+003
4.964896e+002, 1.093021e+003
4.969717e+002, 1.089540e+003
4.974539e+002, 1.084449e+003
4.979360e+002, 1.078224e+003
4.984181e+002, 1.072299e+003
4.989002e+002, 1.067991e+003
4.993823e+002, 1.063605e+003
4.998644e+002, 1.057905e+003
5.003466e+002, 1.050645e+003
5.008287e+002, 1.043489e+003
5.013108e+002, 1.036965e+003
5.017929e+002, 1.030691e+003
5.022750e+002, 1.024400e+003
5.027571e+002, 1.017737e+003
5.032393e+002, 1.011335e+003
5.037214e+002, 1.005161e+003
5.042035e+002, 9.992838e+002
5.046856e+002, 9.937978e+002
5.051677e+002, 9.889446e+002
5.056498e+002, 9.840815e+002
5.061320e+002, 9.788992e+002
5.066141e+002, 9.733968e+002
5.070962e+002, 9.685357e+002
5.075783e+002, 9.644091e+002
5.080604e+002, 9.606701e+002
5.085425e+002, 9.571371e+002
5.090247e+002, 9.538041e+002
5.095068e+002, 9.503672e+002
5.099889e+002, 9.466863e+002
5.104710e+002, 9.432500e+002
5.109531e+002, 9.408057e+002
5.114352e+002, 9.392108e+002
5.119174e+002, 9.379391e+002
5.123995e+002, 9.369508e+002
5.128816e+002, 9.360395e+002
5.133637e+002, 9.347341e+002
5.138458e+002, 9.331530e+002
5.143279e+002, 9.320504e+002
5.148101e+002, 9.320585e+002
5.152922e+002, 9.325871e+002
5.157743e+002, 9.332396e+002
5.162564e+002, 9.340355e+002
5.167385e+002, 9.346044e+002
5.172206e+002, 9.341639e+002
5.177028e+002, 9.336629e+002
5.181849e+002, 9.341893e+002
5.186670e+002, 9.367357e+002
5.191491e+002, 9.393808e+002
5.196312e+002, 9.420112e+002
5.201133e+002, 9.445543e+002
5.205955e+002, 9.467718e+002
5.210776e+002, 9.485530e+002
5.215597e+002, 9.501972e+002
5.220418e+002, 9.517036e+002
5.225239e+002, 9.530201e+002
5.230060e+002, 9.551552e+002
5.234882e+002, 9.583355e+002
5.239703e+002, 9.617852e+002
5.244524e+002, 9.643879e+002
5.249345e+002, 9.662612e+002
5.254166e+002, 9.693495e+002
5.258987e+002, 9.744193e+002
5.263809e+002, 9.801012e+002
5.268630e+002, 9.842314e+002
5.273451e+002, 9.871216e+002
5.278272e+002, 9.899908e+002
5.283093e+002, 9.934059e+002
5.287914e+002, 9.971645e+002
5.292736e+002, 1.001214e+003
5.297557e+002, 1.005529e+003
5.302378e+002, 1.009552e+003
5.307199e+002, 1.012758e+003
5.312020e+002, 1.015699e+003
5.316841e+002, 1.018853e+003
5.321663e+002, 1.022658e+003
5.326484e+002, 1.025965e+003
5.331305e+002, 1.029107e+003
5.336126e+002, 1.031451e+003
5.340947e+002, 1.032125e+003
5.345768e+002, 1.029906e+003
5.350590e+002, 1.027450e+003
5.355411e+002, 1.025294e+003
5.360232e+002, 1.023289e+003
5.365053e+002, 1.020513e+003
5.369874e+002, 1.016757e+003
5.374695e+002, 1.012835e+003
5.379517e+002, 1.009387e+003
5.384338e+002, 1.006455e+003
5.389159e+002, 1.002588e+003
5.393980e+002, 9.977662e+002
5.398801e+002, 9.921506e+002
5.403622e+002, 9.856355e+002
5.408444e+002, 9.784615e+002
5.413265e+002, 9.715691e+002
5.418086e+002, 9.652090e+002
5.422907e+002, 9.589563e+002
5.427728e+002, 9.520991e+002
5.432549e+002, 9.448096e+002
5.437371e+002, 9.377860e+002
5.442192e+002, 9.314510e+002
5.447013e+002, 9.254529e+002
5.451834e+002, 9.194844e+002
5.456655e+002, 9.134979e+002
5.461476e+002, 9.076912e+002
5.466298e+002, 9.021447e+002
5.471119e+002, 8.968116e+002
5.475940e+002, 8.916379e+002
5.480761e+002, 8.864463e+002
5.485582e+002, 8.817775e+002
5.490403e+002, 8.777777e+002
5.495225e+002, 8.742211e+002
5.500046e+002, 8.709003e+002
5.504867e+002, 8.677867e+002
5.509688e+002, 8.649577e+002
5.514509e+002, 8.624080e+002
5.519330e+002, 8.601391e+002
5.524152e+002, 8.581940e+002
5.528973e+002, 8.565391e+002
5.533794e+002, 8.552754e+002
5.538615e+002, 8.544122e+002
5.543436e+002, 8.539620e+002
5.548257e+002, 8.539701e+002
5.553079e+002, 8.544203e+002
5.557900e+002, 8.555174e+002
5.562721e+002, 8.577803e+002
5.567542e+002, 8.607465e+002
5.572363e+002, 8.635275e+002
5.577184e+002, 8.658478e+002
5.582006e+002, 8.682333e+002
5.586827e+002, 8.706555e+002
5.591648e+002, 8.734957e+002
5.596469e+002, 8.774528e+002
5.601290e+002, 8.839063e+002
5.606111e+002, 8.903948e+002
5.610933e+002, 8.952985e+002
5.615754e+002, 8.990452e+002
5.620575e+002, 9.044154e+002
5.625396e+002, 9.130532e+002
5.630217e+002, 9.222355e+002
5.635038e+002, 9.309207e+002
5.639860e+002, 9.388749e+002
5.644681e+002, 9.475824e+002
5.649502e+002, 9.570491e+002
5.654323e+002, 9.672269e+002
5.659144e+002, 9.778650e+002
5.663965e+002, 9.889770e+002
5.668787e+002, 1.001071e+003
5.673608e+002, 1.014313e+003
5.678429e+002, 1.028235e+003
5.683250e+002, 1.041322e+003
5.688071e+002, 1.053894e+003
5.692892e+002, 1.067174e+003
5.697714e+002, 1.081801e+003
5.702535e+002, 1.097279e+003
5.707356e+002, 1.112709e+003
5.712177e+002, 1.128313e+003
5.716998e+002, 1.144020e+003
5.721819e+002, 1.159801e+003
5.726641e+002, 1.176066e+003
5.731462e+002, 1.193134e+003
5.736283e+002, 1.211238e+003
5.741104e+002, 1.229808e+003
5.745925e+002, 1.249389e+003
5.750746e+002, 1.269080e+003
5.755568e+002, 1.288422e+003
5.760389e+002, 1.306219e+003
5.765210e+002, 1.324707e+003
5.770031e+002, 1.344246e+003
5.774852e+002, 1.364555e+003
5.779673e+002, 1.385372e+003
5.784495e+002, 1.407353e+003
5.789316e+002, 1.428382e+003
5.794137e+002, 1.447645e+003
5.798958e+002, 1.465385e+003
5.803779e+002, 1.484254e+003
5.808600e+002, 1.504270e+003
5.813422e+002, 1.523237e+003
5.818243e+002, 1.539451e+003
5.823064e+002, 1.553615e+003
5.827885e+002, 1.567194e+003
5.832706e+002, 1.580425e+003
5.837527e+002, 1.591748e+003
5.842349e+002, 1.600744e+003
5.847170e+002, 1.606909e+003
5.851991e+002, 1.609524e+003
5.856812e+002, 1.607840e+003
5.861633e+002, 1.603567e+003
5.866454e+002, 1.597950e+003
5.871276e+002, 1.590101e+003
5.876097e+002, 1.578550e+003
5.880918e+002, 1.560758e+003
5.885739e+002, 1.541607e+003
5.890560e+002, 1.522188e+003
5.895381e+002, 1.502368e+003
5.900203e+002, 1.481097e+003
5.905024e+002, 1.458028e+003
5.909845e+002, 1.434132e+003
5.914666e+002, 1.409840e+003
5.919487e+002, 1.385053e+003
5.924308e+002, 1.361267e+003
5.929130e+002, 1.338617e+003
5.933951e+002, 1.316270e+003
5.938772e+002, 1.293314e+003
5.943593e+002, 1.270123e+003
5.948414e+002, 1.248017e+003
5.953235e+002, 1.227319e+003
5.958057e+002, 1.208223e+003
5.962878e+002, 1.191632e+003
5.967699e+002, 1.176705e+003
5.972520e+002, 1.162127e+003
5.977341e+002, 1.146823e+003
5.982162e+002, 1.132057e+003
5.986984e+002, 1.118448e+003
5.991805e+002, 1.106017e+003
5.996626e+002, 1.093900e+003
6.001447e+002, 1.081027e+003
6.006268e+002, 1.069265e+003
6.011089e+002, 1.059652e+003
6.015911e+002, 1.052332e+003
6.020732e+002, 1.044659e+003
6.025553e+002, 1.036428e+003
6.030374e+002, 1.028280e+003
6.035195e+002, 1.020762e+003
6.040016e+002, 1.013938e+003
6.044838e+002, 1.007247e+003
6.049659e+002, 1.000639e+003
6.054480e+002, 9.944639e+002
6.059301e+002, 9.891959e+002
6.064122e+002, 9.847893e+002
6.068943e+002, 9.810939e+002
6.073765e+002, 9.785486e+002
6.078586e+002, 9.758650e+002
6.083407e+002, 9.711213e+002
6.088228e+002, 9.651018e+002
6.093049e+002, 9.598660e+002
6.097870e+002, 9.568901e+002
6.102692e+002, 9.543928e+002
6.107513e+002, 9.513588e+002
6.112334e+002, 9.478260e+002
6.117155e+002, 9.446476e+002
6.121976e+002, 9.428729e+002
6.126797e+002, 9.406566e+002
6.131619e+002, 9.369274e+002
6.136440e+002, 9.310248e+002
6.141261e+002, 9.266498e+002
6.146082e+002, 9.243419e+002
6.150903e+002, 9.226476e+002
6.155724e+002, 9.201218e+002
6.160546e+002, 9.167327e+002
6.165367e+002, 9.138535e+002
6.170188e+002, 9.118246e+002
6.175009e+002, 9.099221e+002
6.179830e+002, 9.068126e+002
6.184651e+002, 9.028785e+002
6.189473e+002, 8.994943e+002
6.194294e+002, 8.977352e+002
6.199115e+002, 8.960609e+002
6.203936e+002, 8.925714e+002
6.208757e+002, 8.878607e+002
6.213578e+002, 8.836706e+002
6.218400e+002, 8.812434e+002
6.223221e+002, 8.791088e+002
6.228042e+002, 8.764920e+002
6.232863e+002, 8.733371e+002
6.237684e+002, 8.705519e+002
6.242505e+002, 8.690471e+002
6.247327e+002, 8.671346e+002
6.252148e+002, 8.637839e+002
6.256969e+002, 8.583597e+002
6.261790e+002, 8.541462e+002
6.266611e+002, 8.514142e+002
6.271432e+002, 8.494167e+002
6.276254e+002, 8.476951e+002
6.281075e+002, 8.461921e+002
6.285896e+002, 8.438148e+002
6.290717e+002, 8.401470e+002
6.295538e+002, 8.362818e+002
6.300359e+002, 8.338618e+002
6.305181e+002, 8.324366e+002
6.310002e+002, 8.308227e+002
6.314823e+002, 8.285139e+002
6.319644e+002, 8.258721e+002
6.324465e+002, 8.229396e+002
6.329286e+002, 8.198345e+002
6.334108e+002, 8.169929e+002
6.338929e+002, 8.152777e+002
6.343750e+002, 8.131459e+002
6.348571e+002, 8.096185e+002
6.353392e+002, 8.045695e+002
6.358214e+002, 8.005012e+002
6.363035e+002, 7.978302e+002
6.367856e+002, 7.955222e+002
6.372677e+002, 7.930154e+002
6.377498e+002, 7.902946e+002
6.382319e+002, 7.876840e+002
6.387141e+002, 7.851956e+002
6.391962e+002, 7.827264e+002
6.396783e+002, 7.800323e+002
6.401604e+002, 7.772109e+002
6.406425e+002, 7.746849e+002
6.411246e+002, 7.725123e+002
6.416068e+002, 7.706308e+002
6.420889e+002, 7.693644e+002
6.425710e+002, 7.682617e+002
6.430531e+002, 7.665760e+002
6.435352e+002, 7.630903e+002
6.440173e+002, 7.599075e+002
6.444995e+002, 7.580300e+002
6.449816e+002, 7.571196e+002
6.454637e+002, 7.561400e+002
6.459458e+002, 7.551324e+002
6.464279e+002, 7.538192e+002
6.469100e+002, 7.520698e+002
6.473922e+002, 7.499023e+002
6.478743e+002, 7.477640e+002
6.483564e+002, 7.455980e+002
6.488385e+002, 7.435595e+002
6.493206e+002, 7.417932e+002
6.498027e+002, 7.402418e+002
6.502849e+002, 7.385135e+002
6.507670e+002, 7.365786e+002
6.512491e+002, 7.349006e+002
6.517312e+002, 7.343715e+002
6.522133e+002, 7.342592e+002
6.526954e+002, 7.332428e+002
6.531776e+002, 7.308762e+002
6.536597e+002, 7.285155e+002
6.541418e+002, 7.269623e+002
6.546239e+002, 7.258506e+002
6.551060e+002, 7.247441e+002
6.555881e+002, 7.232999e+002
6.560703e+002, 7.221525e+002
6.565524e+002, 7.218448e+002
6.570345e+002, 7.217682e+002
6.575166e+002, 7.207119e+002
6.579987e+002, 7.180060e+002
6.584808e+002, 7.160460e+002
6.589630e+002, 7.156189e+002
6.594451e+002, 7.162074e+002
6.599272e+002, 7.160088e+002
6.604093e+002, 7.150225e+002
6.608914e+002, 7.139212e+002
6.613735e+002, 7.128867e+002
6.618557e+002, 7.120524e+002
6.623378e+002, 7.118759e+002
6.628199e+002, 7.122646e+002
6.633020e+002, 7.123632e+002
6.637841e+002, 7.113201e+002
6.642662e+002, 7.099797e+002
6.647484e+002, 7.089598e+002
6.652305e+002, 7.083510e+002
6.657126e+002, 7.080328e+002
6.661947e+002, 7.082079e+002
6.666768e+002, 7.085078e+002
6.671589e+002, 7.086896e+002
6.676411e+002, 7.088552e+002
6.681232e+002, 7.086091e+002
6.686053e+002, 7.077323e+002
6.690874e+002, 7.067199e+002
6.695695e+002, 7.062902e+002
6.700516e+002, 7.064273e+002
6.705338e+002, 7.062948e+002
6.710159e+002, 7.056108e+002
6.714980e+002, 7.048535e+002
6.719801e+002, 7.048450e+002
6.724622e+002, 7.053600e+002
6.729443e+002, 7.057822e+002
6.734265e+002, 7.057122e+002
6.739086e+002, 7.056068e+002
6.743907e+002, 7.057733e+002
6.748728e+002, 7.061653e+002
6.753549e+002, 7.066245e+002
6.758370e+002, 7.077548e+002
6.763192e+002, 7.083000e+002
6.768013e+002, 7.074668e+002
6.772834e+002, 7.054205e+002
6.777655e+002, 7.041859e+002
6.782476e+002, 7.041630e+002
6.787297e+002, 7.041419e+002
6.792119e+002, 7.032367e+002
6.796940e+002, 7.015428e+002
6.801761e+002, 7.013754e+002
6.806582e+002, 7.028588e+002
6.811403e+002, 7.045254e+002
6.816224e+002, 7.050743e+002
6.821046e+002, 7.049424e+002
6.825867e+002, 7.049342e+002
6.830688e+002, 7.051611e+002
6.835509e+002, 7.053835e+002
6.840330e+002, 7.052032e+002
6.845151e+002, 7.050500e+002
6.849973e+002, 7.054186e+002
6.854794e+002, 7.071458e+002
6.859615e+002, 7.081700e+002
6.864436e+002, 7.074788e+002
6.869257e+002, 7.062566e+002
6.874078e+002, 7.059410e+002
6.878900e+002, 7.069997e+002
6.883721e+002, 7.076564e+002
6.888542e+002, 7.074317e+002
6.893363e+002, 7.069575e+002
6.898184e+002, 7.078201e+002
6.903005e+002, 7.098801e+002
6.907827e+002, 7.113950e+002
6.912648e+002, 7.113572e+002
6.917469e+002, 7.107538e+002
6.922290e+002, 7.110492e+002
6.927111e+002, 7.119955e+002
6.931932e+002, 7.127913e+002
6.936754e+002, 7.128868e+002
6.941575e+002, 7.128339e+002
6.946396e+002, 7.128895e+002
6.951217e+002, 7.130594e+002
6.956038e+002, 7.133127e+002
6.960859e+002, 7.136800e+002
6.965681e+002, 7.140816e+002
6.970502e+002, 7.145280e+002
6.975323e+002, 7.150289e+002
6.980144e+002, 7.152507e+002
6.984965e+002, 7.150801e+002
6.989786e+002, 7.150533e+002
6.994608e+002, 7.158607e+002
6.999429e+002, 7.172200e+002
7.004250e+002, 7.177706e+002
7.009071e+002, 7.174219e+002
7.013892e+002, 7.167123e+002
7.018713e+002, 7.156625e+002
7.023535e+002, 7.147278e+002
7.028356e+002, 7.145046e+002
7.033177e+002, 7.152208e+002
7.037998e+002, 7.163082e+002
7.042819e+002, 7.180325e+002
7.047640e+002, 7.197856e+002
7.052462e+002, 7.208935e+002
7.057283e+002, 7.210174e+002
7.062104e+002, 7.210018e+002
7.066925e+002, 7.208507e+002
7.071746e+002, 7.205953e+002
7.076567e+002, 7.202295e+002
7.081389e+002, 7.197375e+002
7.086210e+002, 7.194141e+002
7.091031e+002, 7.193611e+002
7.095852e+002, 7.194407e+002
7.100673e+002, 7.193696e+002
7.105494e+002, 7.192343e+002
7.110316e+002, 7.192930e+002
7.115137e+002, 7.198289e+002
7.119958e+002, 7.204526e+002
7.124779e+002, 7.210224e+002
7.129600e+002, 7.214909e+002
7.134421e+002, 7.217032e+002
7.139243e+002, 7.213330e+002
7.144064e+002, 7.210080e+002
7.148885e+002, 7.208915e+002
7.153706e+002, 7.209738e+002
7.158527e+002, 7.212652e+002
7.163348e+002, 7.219172e+002
7.168170e+002, 7.223104e+002
7.172991e+002, 7.220391e+002
7.177812e+002, 7.212405e+002
7.182633e+002, 7.205120e+002
7.187454e+002, 7.198521e+002
7.192275e+002, 7.195816e+002
7.197097e+002, 7.202917e+002
7.201918e+002, 7.213093e+002
7.206739e+002, 7.216739e+002
7.211560e+002, 7.213060e+002
7.216381e+002, 7.213043e+002
7.221202e+002, 7.235280e+002
7.226024e+002, 7.253339e+002
7.230845e+002, 7.244601e+002
7.235666e+002, 7.190536e+002
7.240487e+002, 7.164779e+002
7.245308e+002, 7.179953e+002
7.250129e+002, 7.206498e+002
7.254951e+002, 7.221055e+002
7.259772e+002, 7.223300e+002
7.264593e+002, 7.221418e+002
7.269414e+002, 7.215927e+002
7.274235e+002, 7.206516e+002
7.279056e+002, 7.187542e+002
7.283878e+002, 7.165013e+002
7.288699e+002, 7.153049e+002
7.293520e+002, 7.157469e+002
7.298341e+002, 7.164744e+002
7.303162e+002, 7.164705e+002
7.307983e+002, 7.162501e+002
7.312805e+002, 7.164619e+002
7.317626e+002, 7.183353e+002
7.322447e+002, 7.192125e+002
7.327268e+002, 7.183309e+002
7.332089e+002, 7.166395e+002
7.336910e+002, 7.156872e+002
7.341732e+002, 7.156155e+002
7.346553e+002, 7.157199e+002
7.351374e+002, 7.159629e+002
7.356195e+002, 7.161459e+002
7.361016e+002, 7.156463e+002
7.365837e+002, 7.146678e+002
7.370659e+002, 7.141176e+002
7.375480e+002, 7.147730e+002
7.380301e+002, 7.155869e+002
7.385122e+002, 7.155740e+002
7.389943e+002, 7.149623e+002
7.394764e+002, 7.143416e+002
7.399586e+002, 7.138810e+002
7.404407e+002, 7.134655e+002
7.409228e+002, 7.128746e+002
7.414049e+002, 7.122507e+002
7.418870e+002, 7.124430e+002
7.423691e+002, 7.139821e+002
7.428513e+002, 7.148870e+002
7.433334e+002, 7.141479e+002
7.438155e+002, 7.122405e+002
7.442976e+002, 7.111229e+002
7.447797e+002, 7.107711e+002
7.452618e+002, 7.107039e+002
7.457440e+002, 7.109313e+002
7.462261e+002, 7.110905e+002
7.467082e+002, 7.106244e+002
7.471903e+002, 7.095966e+002
7.476724e+002, 7.086680e+002
7.481545e+002, 7.080820e+002
7.486367e+002, 7.077146e+002
7.491188e+002, 7.075359e+002
7.496009e+002, 7.075557e+002
7.500830e+002, 7.076263e+002
7.505651e+002, 7.079811e+002
7.510472e+002, 7.079511e+002
7.515294e+002, 7.068735e+002
7.520115e+002, 7.047910e+002
7.524936e+002, 7.036519e+002
7.529757e+002, 7.034978e+002
7.534578e+002, 7.034707e+002
7.539399e+002, 7.026444e+002
7.544221e+002, 7.015654e+002
7.549042e+002, 7.010779e+002
7.553863e+002, 7.012997e+002
7.558684e+002, 7.017797e+002
7.563505e+002, 7.027715e+002
7.568326e+002, 7.036162e+002
7.573148e+002, 7.037714e+002
7.577969e+002, 7.029474e+002
7.582790e+002, 7.020056e+002
7.587611e+002, 7.006984e+002
7.592432e+002, 6.995944e+002
7.597253e+002, 6.992686e+002
7.602075e+002, 6.997327e+002
7.606896e+002, 7.002300e+002
7.611717e+002, 7.007480e+002
7.616538e+002, 7.010435e+002
7.621359e+002, 7.006595e+002
7.626180e+002, 6.999178e+002
7.631002e+002, 6.994539e+002
7.635823e+002, 6.995090e+002
7.640644e+002, 6.994664e+002
7.645465e+002, 6.986530e+002
7.650286e+002, 6.977343e+002
7.655107e+002, 6.974377e+002
7.659929e+002, 6.985301e+002
7.664750e+002, 6.992725e+002
7.669571e+002, 6.996843e+002
7.674392e+002, 6.997311e+002
7.679213e+002, 6.991503e+002
7.684034e+002, 6.978973e+002
7.688856e+002, 6.973220e+002
7.693677e+002, 6.977542e+002
7.698498e+002, 6.985534e+002
7.703319e+002, 6.988036e+002
7.708140e+002, 6.988100e+002
7.712961e+002, 6.992759e+002
7.717783e+002, 7.007462e+002
7.722604e+002, 7.020847e+002
7.727425e+002, 7.028411e+002
7.732246e+002, 7.030361e+002
7.737067e+002, 7.026879e+002
7.741888e+002, 7.010798e+002
7.746710e+002, 7.000558e+002
7.751531e+002, 6.999743e+002
7.756352e+002, 7.003903e+002
7.761173e+002, 7.003531e+002
7.765994e+002, 6.998389e+002
7.770815e+002, 7.001482e+002
7.775637e+002, 7.019747e+002
7.780458e+002, 7.039713e+002
7.785279e+002, 7.038585e+002
7.790100e+002, 7.024295e+002
7.794921e+002, 7.014838e+002
7.799742e+002, 7.023023e+002
7.804564e+002, 7.031181e+002
7.809385e+002, 7.030320e+002
7.814206e+002, 7.023998e+002
7.819027e+002, 7.019631e+002
7.823848e+002, 7.015222e+002
7.828669e+002, 7.017764e+002
7.833491e+002, 7.032592e+002
7.838312e+002, 7.052068e+002
7.843133e+002, 7.055306e+002
7.847954e+002, 7.042769e+002
7.852775e+002, 7.032493e+002
7.857596e+002, 7.031995e+002
7.862418e+002, 7.034994e+002
7.867239e+002, 7.032136e+002
7.872060e+002, 7.025880e+002
7.876881e+002, 7.022125e+002
7.881702e+002, 7.023404e+002
7.886523e+002, 7.027806e+002
7.891345e+002, 7.037081e+002
7.896166e+002, 7.048912e+002
7.900987e+002, 7.056892e+002
7.905808e+002, 7.059833e+002
7.910629e+002, 7.060845e+002
7.915450e+002, 7.060410e+002
7.920272e+002, 7.058546e+002
7.925093e+002, 7.054088e+002
7.929914e+002, 7.047397e+002
7.934735e+002, 7.043844e+002
7.939556e+002, 7.047314e+002
7.944377e+002, 7.053190e+002
7.949199e+002, 7.056301e+002
7.954020e+002, 7.057388e+002
7.958841e+002, 7.058273e+002
7.963662e+002, 7.059860e+002
7.968483e+002, 7.061199e+002
7.973304e+002, 7.058484e+002
7.978126e+002, 7.055204e+002
7.982947e+002, 7.064213e+002
7.987768e+002, 7.092480e+002
7.992589e+002, 7.113111e+002
7.997410e+002, 7.116379e+002
8.002231e+002, 7.108937e+002
8.007053e+002, 7.106301e+002
8.011874e+002, 7.108223e+002
8.016695e+002, 7.113347e+002
8.021516e+002, 7.126020e+002
8.026337e+002, 7.137155e+002
8.031158e+002, 7.136078e+002
8.035980e+002, 7.126811e+002
8.040801e+002, 7.120342e+002
8.045622e+002, 7.120642e+002
8.050443e+002, 7.123622e+002
8.055264e+002, 7.129083e+002
8.060085e+002, 7.136122e+002
8.064907e+002, 7.141787e+002
8.069728e+002, 7.145742e+002
8.074549e+002, 7.150006e+002
8.079370e+002, 7.155840e+002
8.084191e+002, 7.161741e+002
8.089012e+002, 7.164547e+002
8.093834e+002, 7.164699e+002
8.098655e+002, 7.163799e+002
8.103476e+002, 7.160617e+002
8.108297e+002, 7.158591e+002
8.113118e+002, 7.162736e+002
8.117939e+002, 7.169984e+002
8.122761e+002, 7.170847e+002
8.127582e+002, 7.154874e+002
8.132403e+002, 7.145439e+002
8.137224e+002, 7.148685e+002
8.142045e+002, 7.160820e+002
8.146866e+002, 7.172454e+002
8.151688e+002, 7.183458e+002
8.156509e+002, 7.189847e+002
8.161330e+002, 7.189843e+002
8.166151e+002, 7.184731e+002
8.170972e+002, 7.168651e+002
8.175793e+002, 7.148789e+002
8.180615e+002, 7.143320e+002
8.185436e+002, 7.179138e+002
8.190257e+002, 7.210511e+002
8.195078e+002, 7.216379e+002
8.199899e+002, 7.204169e+002
8.204720e+002, 7.194920e+002
8.209542e+002, 7.186848e+002
8.214363e+002, 7.187556e+002
8.219184e+002, 7.203641e+002
8.224005e+002, 7.223975e+002
8.228826e+002, 7.218343e+002
8.233647e+002, 7.191750e+002
8.238469e+002, 7.173500e+002
8.243290e+002, 7.177897e+002
8.248111e+002, 7.189796e+002
8.252932e+002, 7.201120e+002
8.257753e+002, 7.209131e+002
8.262574e+002, 7.208227e+002
8.267396e+002, 7.183895e+002
8.272217e+002, 7.167017e+002
8.277038e+002, 7.164711e+002
8.281859e+002, 7.171539e+002
8.286681e+002, 7.178802e+002
8.291502e+002, 7.187190e+002
8.296323e+002, 7.190496e+002
8.301144e+002, 7.186675e+002
8.305966e+002, 7.178348e+002
8.310787e+002, 7.163383e+002
8.315608e+002, 7.147302e+002
8.320429e+002, 7.144266e+002
8.325250e+002, 7.170114e+002
8.330071e+002, 7.192263e+002
8.334893e+002, 7.190149e+002
8.339714e+002, 7.175267e+002
8.344535e+002, 7.166088e+002
8.349356e+002, 7.169283e+002
8.354177e+002, 7.166761e+002
8.358998e+002, 7.154266e+002
8.363820e+002, 7.139439e+002
8.368641e+002, 7.134343e+002
8.373462e+002, 7.137957e+002
8.378283e+002, 7.140910e+002
8.383104e+002, 7.140784e+002
8.387925e+002, 7.141141e+002
8.392747e+002, 7.147396e+002
8.397568e+002, 7.155602e+002
8.402389e+002, 7.160291e+002
8.407210e+002, 7.158506e+002
8.412031e+002, 7.155912e+002
8.416852e+002, 7.153641e+002
8.421674e+002, 7.151105e+002
8.426495e+002, 7.147357e+002
8.431316e+002, 7.141859e+002
8.436137e+002, 7.139467e+002
8.440958e+002, 7.141410e+002
8.445779e+002, 7.143312e+002
8.450601e+002, 7.139199e+002
8.455422e+002, 7.131498e+002
8.460243e+002, 7.125110e+002
8.465064e+002, 7.120964e+002
8.469885e+002, 7.117556e+002
8.474706e+002, 7.111422e+002
8.479528e+002, 7.107169e+002
8.484349e+002, 7.109948e+002
8.489170e+002, 7.124567e+002
8.493991e+002, 7.131532e+002
8.498812e+002, 7.127901e+002
8.503633e+002, 7.122220e+002
8.508455e+002, 7.123482e+002
8.513276e+002, 7.129782e+002
8.518097e+002, 7.125845e+002
8.522918e+002, 7.110624e+002
8.527739e+002, 7.098429e+002
8.532560e+002, 7.106271e+002
8.537382e+002, 7.119005e+002
8.542203e+002, 7.120969e+002
8.547024e+002, 7.109395e+002
8.551845e+002, 7.101536e+002
8.556666e+002, 7.107993e+002
8.561487e+002, 7.111324e+002
8.566309e+002, 7.100351e+002
8.571130e+002, 7.075615e+002
8.575951e+002, 7.066306e+002
8.580772e+002, 7.073456e+002
8.585593e+002, 7.083266e+002
8.590414e+002, 7.090258e+002
8.595236e+002, 7.092109e+002
8.600057e+002, 7.079041e+002
8.604878e+002, 7.054298e+002
8.609699e+002, 7.040332e+002
8.614520e+002, 7.060458e+002
8.619341e+002, 7.080889e+002
8.624163e+002, 7.082589e+002
8.628984e+002, 7.069011e+002
8.633805e+002, 7.065333e+002
8.638626e+002, 7.075060e+002
8.643447e+002, 7.082712e+002
8.648268e+002, 7.081124e+002
8.653090e+002, 7.074296e+002
8.657911e+002, 7.072297e+002
8.662732e+002, 7.074006e+002
8.667553e+002, 7.074976e+002
8.672374e+002, 7.070256e+002
8.677195e+002, 7.066553e+002
8.682017e+002, 7.070922e+002
8.686838e+002, 7.079484e+002
8.691659e+002, 7.080461e+002
8.696480e+002, 7.067398e+002
8.701301e+002, 7.057018e+002
8.706122e+002, 7.052040e+002
8.710944e+002, 7.051805e+002
8.715765e+002, 7.060085e+002
8.720586e+002, 7.074432e+002
8.725407e+002, 7.073645e+002
8.730228e+002, 7.044961e+002
8.735049e+002, 7.013863e+002
8.739871e+002, 7.006915e+002
8.744692e+002, 7.012923e+002
8.749513e+002, 7.014738e+002
8.754334e+002, 7.002578e+002
8.759155e+002, 6.993077e+002
8.763976e+002, 6.986564e+002
8.768798e+002, 6.984173e+002
8.773619e+002, 6.989913e+002
8.778440e+002, 7.004651e+002
8.783261e+002, 7.008883e+002
8.788082e+002, 6.998796e+002
8.792903e+002, 6.985951e+002
8.797725e+002, 6.981805e+002
8.802546e+002, 6.983068e+002
8.807367e+002, 6.986194e+002
8.812188e+002, 6.991654e+002
8.817009e+002, 6.992775e+002
8.821830e+002, 6.981589e+002
8.826652e+002, 6.969553e+002
8.831473e+002, 6.965408e+002
8.836294e+002, 6.971105e+002
8.841115e+002, 6.970972e+002
8.845936e+002, 6.963777e+002
8.850757e+002, 6.957151e+002
8.855579e+002, 6.960995e+002
8.860400e+002, 6.968398e+002
8.865221e+002, 6.962009e+002
8.870042e+002, 6.942667e+002
8.874863e+002, 6.928346e+002
8.879684e+002, 6.932352e+002
8.884506e+002, 6.941025e+002
8.889327e+002, 6.949029e+002
8.894148e+002, 6.955758e+002
8.898969e+002, 6.954637e+002
8.903790e+002, 6.941790e+002
8.908611e+002, 6.932953e+002
8.913433e+002, 6.936527e+002
8.918254e+002, 6.947191e+002
8.923075e+002, 6.950901e+002
8.927896e+002, 6.949008e+002
8.932717e+002, 6.947613e+002
8.937538e+002, 6.949894e+002
8.942360e+002, 6.953342e+002
8.947181e+002, 6.959153e+002
8.952002e+002, 6.964777e+002
8.956823e+002, 6.962484e+002
8.961644e+002, 6.943561e+002
8.966465e+002, 6.935004e+002
8.971287e+002, 6.943978e+002
8.976108e+002, 6.961431e+002
8.980929e+002, 6.973179e+002
8.985750e+002, 6.979210e+002
8.990571e+002, 6.978287e+002
8.995392e+002, 6.968055e+002
9.000214e+002, 6.957078e+002
9.005035e+002, 6.951213e+002
9.009856e+002, 6.948941e+002
9.014677e+002, 6.948508e+002
9.019498e+002, 6.951454e+002
9.024319e+002, 6.952964e+002
9.029141e+002, 6.952227e+002
9.033962e+002, 6.951227e+002
9.038783e+002, 6.952695e+002
9.043604e+002, 6.956074e+002
9.048425e+002, 6.954022e+002
9.053246e+002, 6.945657e+002
9.058068e+002, 6.940743e+002
9.062889e+002, 6.952059e+002
9.067710e+002, 6.967203e+002
9.072531e+002, 6.976113e+002
9.077352e+002, 6.977650e+002
9.082173e+002, 6.970999e+002
9.086995e+002, 6.947468e+002
9.091816e+002, 6.928010e+002
9.096637e+002, 6.923055e+002
9.101458e+002, 6.930361e+002
9.106279e+002, 6.935957e+002
9.111100e+002, 6.939893e+002
9.115922e+002, 6.942765e+002
9.120743e+002, 6.945486e+002
9.125564e+002, 6.946959e+002
9.130385e+002, 6.945695e+002
9.135206e+002, 6.942269e+002
9.140027e+002, 6.938344e+002
9.144849e+002, 6.932068e+002
9.149670e+002, 6.928497e+002
9.154491e+002, 6.929231e+002
9.159312e+002, 6.932654e+002
9.164133e+002, 6.934611e+002
9.168954e+002, 6.935208e+002
9.173776e+002, 6.940865e+002
9.178597e+002, 6.955169e+002
9.183418e+002, 6.968767e+002
9.188239e+002, 6.969996e+002
9.193060e+002, 6.964421e+002
9.197881e+002, 6.959138e+002
9.202703e+002, 6.951882e+002
9.207524e+002, 6.954014e+002
9.212345e+002, 6.975112e+002
9.217166e+002, 6.997259e+002
9.221987e+002, 7.003752e+002
9.226808e+002, 6.993766e+002
9.231630e+002, 6.989930e+002
9.236451e+002, 6.993028e+002
9.241272e+002, 7.002738e+002
9.246093e+002, 7.026272e+002
9.250914e+002, 7.051579e+002
9.255735e+002, 7.062078e+002
9.260557e+002, 7.056853e+002
9.265378e+002, 7.056318e+002
9.270199e+002, 7.070258e+002
9.275020e+002, 7.085535e+002
9.279841e+002, 7.098227e+002
9.284662e+002, 7.108495e+002
9.289484e+002, 7.117039e+002
9.294305e+002, 7.123931e+002
9.299126e+002, 7.131358e+002
9.303947e+002, 7.139135e+002
9.308768e+002, 7.149240e+002
9.313589e+002, 7.165813e+002
9.318411e+002, 7.186346e+002
9.323232e+002, 7.204941e+002
9.328053e+002, 7.220026e+002
9.332874e+002, 7.232295e+002
9.337695e+002, 7.237988e+002
9.342516e+002, 7.244415e+002
9.347338e+002, 7.263302e+002
9.352159e+002, 7.294774e+002
9.356980e+002, 7.327752e+002
9.361801e+002, 7.360496e+002
9.366622e+002, 7.394525e+002
9.371443e+002, 7.429905e+002
9.376265e+002, 7.468206e+002
9.381086e+002, 7.511403e+002
9.385907e+002, 7.561544e+002
9.390728e+002, 7.610754e+002
9.395549e+002, 7.653729e+002
9.400370e+002, 7.699537e+002
9.405192e+002, 7.753092e+002
9.410013e+002, 7.814080e+002
9.414834e+002, 7.876351e+002
9.419655e+002, 7.940433e+002
9.424476e+002, 8.009657e+002
9.429297e+002, 8.090722e+002
9.434119e+002, 8.174716e+002
9.438940e+002, 8.254124e+002
9.443761e+002, 8.328986e+002
9.448582e+002, 8.400538e+002
9.453403e+002, 8.461945e+002
9.458224e+002, 8.529933e+002
9.463046e+002, 8.608010e+002
9.467867e+002, 8.694339e+002
9.472688e+002, 8.787341e+002
9.477509e+002, 8.885642e+002
9.482330e+002, 8.973441e+002
9.487151e+002, 9.043750e+002
9.491973e+002, 9.109498e+002
9.496794e+002, 9.181254e+002
9.501615e+002, 9.255922e+002
9.506436e+002, 9.330742e+002
9.511257e+002, 9.410991e+002
9.516078e+002, 9.477951e+002
9.520900e+002, 9.532167e+002
9.525721e+002, 9.572075e+002
9.530542e+002, 9.592856e+002
9.535363e+002, 9.597089e+002
9.540184e+002, 9.599980e+002
9.545005e+002, 9.602041e+002
9.549827e+002, 9.602077e+002
9.554648e+002, 9.605963e+002
9.559469e+002, 9.601708e+002
9.564290e+002, 9.576272e+002
9.569111e+002, 9.530553e+002
9.573932e+002, 9.491324e+002
9.578754e+002, 9.465728e+002
9.583575e+002, 9.430624e+002
9.588396e+002, 9.374750e+002
9.593217e+002, 9.309408e+002
9.598038e+002, 9.264709e+002
9.602859e+002, 9.235428e+002
9.607681e+002, 9.203824e+002
9.612502e+002, 9.160523e+002
9.617323e+002, 9.117700e+002
9.622144e+002, 9.083862e+002
9.626965e+002, 9.053855e+002
9.631786e+002, 9.019973e+002
9.636608e+002, 8.976371e+002
9.641429e+002, 8.946820e+002
9.646250e+002, 8.934682e+002
9.651071e+002, 8.929521e+002
9.655892e+002, 8.923665e+002
9.660714e+002, 8.916613e+002
9.665535e+002, 8.904499e+002
9.670356e+002, 8.887520e+002
9.675177e+002, 8.876461e+002
9.679998e+002, 8.882531e+002
9.684819e+002, 8.890635e+002
9.689641e+002, 8.887167e+002
9.694462e+002, 8.876292e+002
9.699283e+002, 8.897363e+002
9.704104e+002, 8.956885e+002
9.708925e+002, 8.997249e+002
9.713746e+002, 8.987782e+002
9.718568e+002, 8.958392e+002
9.723389e+002, 8.954974e+002
9.728210e+002, 8.966691e+002
9.733031e+002, 8.970509e+002
9.737852e+002, 8.942492e+002
9.742673e+002, 8.927365e+002
9.747495e+002, 8.941783e+002
9.752316e+002, 8.965385e+002
9.757137e+002, 8.975921e+002
9.761958e+002, 8.972781e+002
9.766779e+002, 8.977881e+002
9.771600e+002, 8.993846e+002
9.776422e+002, 9.007783e+002
9.781243e+002, 9.004725e+002
9.786064e+002, 8.996453e+002
9.790885e+002, 8.994428e+002
9.795706e+002, 8.999825e+002
9.800527e+002, 9.011015e+002
9.805349e+002, 9.032499e+002
9.810170e+002, 9.052073e+002
9.814991e+002, 9.064005e+002
9.819812e+002, 9.071702e+002
9.824633e+002, 9.088417e+002
9.829454e+002, 9.112571e+002
9.834276e+002, 9.134368e+002
9.839097e+002, 9.145815e+002
9.843918e+002, 9.159519e+002
9.848739e+002, 9.185854e+002
9.853560e+002, 9.219974e+002
9.858381e+002, 9.254813e+002
9.863203e+002, 9.291077e+002
9.868024e+002, 9.325045e+002
9.872845e+002, 9.356513e+002
9.877666e+002, 9.386149e+002
9.882487e+002, 9.412992e+002
9.887308e+002, 9.438812e+002
9.892130e+002, 9.472050e+002
9.896951e+002, 9.512612e+002
9.901772e+002, 9.544965e+002
9.906593e+002, 9.553212e+002
9.911414e+002, 9.557817e+002
9.916235e+002, 9.570698e+002
9.921057e+002, 9.589864e+002
9.925878e+002, 9.603799e+002
9.930699e+002, 9.611887e+002
9.935520e+002, 9.618360e+002
9.940341e+002, 9.623934e+002
9.945162e+002, 9.629877e+002
9.949984e+002, 9.639064e+002
9.954805e+002, 9.649794e+002
9.959626e+002, 9.658802e+002
9.964447e+002, 9.662407e+002
9.969268e+002, 9.669279e+002
9.974089e+002, 9.682333e+002
9.978911e+002, 9.697542e+002
9.983732e+002, 9.712255e+002
9.988553e+002, 9.726413e+002
9.993374e+002, 9.736134e+002
9.998195e+002, 9.741247e+002
1.000302e+003, 9.748787e+002
1.000784e+003, 9.764657e+002
1.001266e+003, 9.784796e+002
1.001748e+003, 9.807830e+002
1.002230e+003, 9.832937e+002
1.002712e+003, 9.852996e+002
1.003194e+003, 9.860252e+002
1.003676e+003, 9.878496e+002
1.004159e+003, 9.916143e+002
1.004641e+003, 9.965168e+002
1.005123e+003, 1.001326e+003
1.005605e+003, 1.005971e+003
1.006087e+003, 1.010275e+003
1.006569e+003, 1.014180e+003
1.007051e+003, 1.017901e+003
1.007533e+003, 1.021230e+003
1.008016e+003, 1.024772e+003
1.008498e+003, 1.029188e+003
1.008980e+003, 1.034680e+003
1.009462e+003, 1.039888e+003
1.009944e+003, 1.044861e+003
1.010426e+003, 1.049610e+003
1.010908e+003, 1.053521e+003
1.011390e+003, 1.057541e+003
1.011872e+003, 1.063350e+003
1.012355e+003, 1.070536e+003
1.012837e+003, 1.077258e+003
1.013319e+003, 1.082383e+003
1.013801e+003, 1.087746e+003
1.014283e+003, 1.093826e+003
1.014765e+003, 1.100205e+003
1.015247e+003, 1.105739e+003
1.015729e+003, 1.110760e+003
1.016211e+003, 1.117706e+003
1.016694e+003, 1.127288e+003
1.017176e+003, 1.137649e+003
1.017658e+003, 1.147592e+003
1.018140e+003, 1.157420e+003
1.018622e+003, 1.167450e+003
1.019104e+003, 1.177694e+003
1.019586e+003, 1.188391e+003
1.020068e+003, 1.199327e+003
1.020551e+003, 1.211507e+003
1.021033e+003, 1.225815e+003
1.021515e+003, 1.241587e+003
1.021997e+003, 1.257096e+003
1.022479e+003, 1.272634e+003
1.022961e+003, 1.288892e+003
1.023443e+003, 1.305398e+003
1.023925e+003, 1.323633e+003
1.024407e+003, 1.345008e+003
1.024890e+003, 1.367641e+003
1.025372e+003, 1.389442e+003
1.025854e+003, 1.410215e+003
1.026336e+003, 1.430644e+003
1.026818e+003, 1.450805e+003
1.027300e+003, 1.471119e+003
1.027782e+003, 1.492492e+003
1.028264e+003, 1.514120e+003
1.028746e+003, 1.535336e+003
1.029229e+003, 1.555971e+003
1.029711e+003, 1.576432e+003
1.030193e+003, 1.597331e+003
1.030675e+003, 1.617128e+003
1.031157e+003, 1.635556e+003
1.031639e+003, 1.652296e+003
1.032121e+003, 1.667046e+003
1.032603e+003, 1.679946e+003
1.033086e+003, 1.690960e+003
1.033568e+003, 1.700405e+003
1.034050e+003, 1.707815e+003
1.034532e+003, 1.712756e+003
1.035014e+003, 1.715548e+003
1.035496e+003, 1.716758e+003
1.035978e+003, 1.716603e+003
1.036460e+003, 1.712837e+003
1.036943e+003, 1.705362e+003
1.037425e+003, 1.696854e+003
1.037907e+003, 1.689967e+003
1.038389e+003, 1.682616e+003
1.038871e+003, 1.672224e+003
1.039353e+003, 1.659308e+003
1.039835e+003, 1.646475e+003
1.040317e+003, 1.633559e+003
1.040799e+003, 1.622030e+003
1.041281e+003, 1.612597e+003
1.041764e+003, 1.603628e+003
1.042246e+003, 1.592472e+003
1.042728e+003, 1.579500e+003
1.043210e+003, 1.566197e+003
1.043692e+003, 1.552610e+003
1.044174e+003, 1.539015e+003
1.044656e+003, 1.525274e+003
1.045138e+003, 1.511647e+003
1.045621e+003, 1.498563e+003
1.046103e+003, 1.486002e+003
1.046585e+003, 1.472463e+003
1.047067e+003, 1.457870e+003
1.047549e+003, 1.444257e+003
1.048031e+003, 1.433378e+003
1.048513e+003, 1.423034e+003
1.048995e+003, 1.410898e+003
1.049478e+003, 1.397603e+003
1.049960e+003, 1.384225e+003
1.050442e+003, 1.371139e+003
1.050924e+003, 1.357773e+003
1.051406e+003, 1.343609e+003
1.051888e+003, 1.329855e+003
1.052370e+003, 1.317396e+003
1.052852e+003, 1.306092e+003
1.053334e+003, 1.295676e+003
1.053817e+003, 1.286059e+003
1.054299e+003, 1.276551e+003
1.054781e+003, 1.266613e+003
1.055263e+003, 1.256880e+003
1.055745e+003, 1.247995e+003
1.056227e+003, 1.239325e+003
1.056709e+003, 1.229020e+003
1.057191e+003, 1.216940e+003
1.057673e+003, 1.205883e+003
1.058156e+003, 1.196491e+003
1.058638e+003, 1.187828e+003
1.059120e+003, 1.179062e+003
1.059602e+003, 1.170260e+003
1.060084e+003, 1.161433e+003
1.060566e+003, 1.152498e+003
1.061048e+003, 1.143964e+003
1.061530e+003, 1.135795e+003
1.062013e+003, 1.128047e+003
1.062495e+003, 1.120908e+003
1.062977e+003, 1.114102e+003
1.063459e+003, 1.106686e+003
1.063941e+003, 1.098905e+003
1.064423e+003, 1.091250e+003
1.064905e+003, 1.083866e+003
1.065387e+003, 1.076707e+003
1.065870e+003, 1.069386e+003
1.066352e+003, 1.062681e+003
1.066834e+003, 1.057524e+003
1.067316e+003, 1.053973e+003
1.067798e+003, 1.049749e+003
1.068280e+003, 1.044760e+003
1.068762e+003, 1.039901e+003
1.069244e+003, 1.035711e+003
1.069726e+003, 1.031919e+003
1.070208e+003, 1.028288e+003
1.070691e+003, 1.024910e+003
1.071173e+003, 1.022378e+003
1.071655e+003, 1.020973e+003
1.072137e+003, 1.019367e+003
1.072619e+003, 1.017166e+003
1.073101e+003, 1.015067e+003
1.073583e+003, 1.014138e+003
1.074065e+003, 1.013881e+003
1.074548e+003, 1.013305e+003
1.075030e+003, 1.012105e+003
1.075512e+003, 1.011953e+003
1.075994e+003, 1.014032e+003
1.076476e+003, 1.016308e+003
1.076958e+003, 1.018059e+003
1.077440e+003, 1.019352e+003
1.077922e+003, 1.020073e+003
1.078405e+003, 1.020466e+003
1.078887e+003, 1.021711e+003
1.079369e+003, 1.024384e+003
1.079851e+003, 1.027857e+003
1.080333e+003, 1.032137e+003
1.080815e+003, 1.036873e+003
1.081297e+003, 1.041328e+003
1.081779e+003, 1.045104e+003
1.082261e+003, 1.051320e+003
1.082744e+003, 1.060203e+003
1.083226e+003, 1.069237e+003
1.083708e+003, 1.075598e+003
1.084190e+003, 1.081978e+003
1.084672e+003, 1.091891e+003
1.085154e+003, 1.104289e+003
1.085636e+003, 1.115334e+003
1.086118e+003, 1.122624e+003
1.086601e+003, 1.132617e+003
1.087083e+003, 1.146606e+003
1.087565e+003, 1.162219e+003
1.088047e+003, 1.175957e+003
1.088529e+003, 1.189174e+003
1.089011e+003, 1.205335e+003
1.089493e+003, 1.224737e+003
1.089975e+003, 1.244554e+003
1.090458e+003, 1.262621e+003
1.090940e+003, 1.282044e+003
1.091422e+003, 1.304213e+003
1.091904e+003, 1.328201e+003
1.092386e+003, 1.350103e+003
1.092868e+003, 1.370445e+003
1.093350e+003, 1.392144e+003
1.093832e+003, 1.416309e+003
1.094314e+003, 1.441116e+003
1.094797e+003, 1.465864e+003
1.095279e+003, 1.490280e+003
1.095761e+003, 1.514556e+003
1.096243e+003, 1.538452e+003
1.096725e+003, 1.560380e+003
1.097207e+003, 1.580280e+003
1.097689e+003, 1.599083e+003
1.098171e+003, 1.617743e+003
1.098653e+003, 1.635145e+003
1.099136e+003, 1.651012e+003
1.099618e+003, 1.664649e+003
1.100100e+003, 1.674870e+003
1.100582e+003, 1.679121e+003
1.101064e+003, 1.684048e+003
1.101546e+003, 1.690102e+003
1.102028e+003, 1.696108e+003
1.102510e+003, 1.701914e+003
1.102993e+003, 1.706603e+003
1.103475e+003, 1.708096e+003
1.103957e+003, 1.706546e+003
1.104439e+003, 1.703333e+003
1.104921e+003, 1.699381e+003
1.105403e+003, 1.693255e+003
1.105885e+003, 1.684846e+003
1.106367e+003, 1.674165e+003
1.106849e+003, 1.661317e+003
1.107332e+003, 1.646346e+003
1.107814e+003, 1.629295e+003
1.108296e+003, 1.609971e+003
1.108778e+003, 1.589565e+003
1.109260e+003, 1.568924e+003
1.109742e+003, 1.547094e+003
1.110224e+003, 1.522746e+003
1.110706e+003, 1.496568e+003
1.111188e+003, 1.470108e+003
1.111671e+003, 1.443126e+003
1.112153e+003, 1.416909e+003
1.112635e+003, 1.391587e+003
1.113117e+003, 1.367058e+003
1.113599e+003, 1.343297e+003
1.114081e+003, 1.319980e+003
1.114563e+003, 1.297340e+003
1.115045e+003, 1.275217e+003
1.115528e+003, 1.253918e+003
1.116010e+003, 1.233256e+003
1.116492e+003, 1.213454e+003
1.116974e+003, 1.194404e+003
1.117456e+003, 1.176446e+003
1.117938e+003, 1.160421e+003
1.118420e+003, 1.145881e+003
1.118902e+003, 1.131858e+003
1.119385e+003, 1.117643e+003
1.119867e+003, 1.104748e+003
1.120349e+003, 1.093506e+003
1.120831e+003, 1.083082e+003
1.121313e+003, 1.072359e+003
1.121795e+003, 1.062079e+003
1.122277e+003, 1.054525e+003
1.122759e+003, 1.049412e+003
1.123241e+003, 1.044711e+003
1.123724e+003, 1.039070e+003
1.124206e+003, 1.034243e+003
1.124688e+003, 1.030653e+003
1.125170e+003, 1.028059e+003
1.125652e+003, 1.026322e+003
1.126134e+003, 1.025333e+003
1.126616e+003, 1.024262e+003
1.127098e+003, 1.022988e+003
1.127580e+003, 1.022486e+003
1.128063e+003, 1.023669e+003
1.128545e+003, 1.025628e+003
1.129027e+003, 1.028057e+003
1.129509e+003, 1.030766e+003
1.129991e+003, 1.032969e+003
1.130473e+003, 1.034652e+003
1.130955e+003, 1.037181e+003
1.131437e+003, 1.041234e+003
1.131920e+003, 1.044985e+003
1.132402e+003, 1.046147e+003
1.132884e+003, 1.046582e+003
1.133366e+003, 1.048525e+003
1.133848e+003, 1.052292e+003
1.134330e+003, 1.054183e+003
1.134812e+003, 1.054103e+003
1.135294e+003, 1.052547e+003
1.135776e+003, 1.049453e+003
1.136259e+003, 1.045409e+003
1.136741e+003, 1.041583e+003
1.137223e+003, 1.037164e+003
1.137705e+003, 1.030721e+003
1.138187e+003, 1.021052e+003
1.138669e+003, 1.011326e+003
1.139151e+003, 1.001614e+003
1.139633e+003, 9.916349e+002
1.140115e+003, 9.809075e+002
1.140598e+003, 9.699399e+002
1.141080e+003, 9.596544e+002
1.141562e+003, 9.499664e+002
1.142044e+003, 9.403353e+002
1.142526e+003, 9.298544e+002
1.143008e+003, 9.207971e+002
1.143490e+003, 9.140231e+002
1.143972e+003, 9.077797e+002
1.144455e+003, 9.000021e+002
1.144937e+003, 8.913815e+002
1.145419e+003, 8.843741e+002
1.145901e+003, 8.788799e+002
1.146383e+003, 8.729494e+002
1.146865e+003, 8.648324e+002
1.147347e+003, 8.572408e+002
1.147829e+003, 8.509915e+002
1.148312e+003, 8.454822e+002
1.148794e+003, 8.398774e+002
1.149276e+003, 8.341243e+002
1.149758e+003, 8.280482e+002
1.150240e+003, 8.216157e+002
1.150722e+003, 8.155165e+002
1.151204e+003, 8.105597e+002
1.151686e+003, 8.056776e+002
1.152168e+003, 8.000941e+002
1.152651e+003, 7.941678e+002
1.153133e+003, 7.890295e+002
1.153615e+003, 7.846630e+002
1.154097e+003, 7.801875e+002
1.154579e+003, 7.754195e+002
1.155061e+003, 7.708099e+002
1.155543e+003, 7.667677e+002
1.156025e+003, 7.630205e+002
1.156507e+003, 7.594012e+002
1.156990e+003, 7.558790e+002
1.157472e+003, 7.520525e+002
1.157954e+003, 7.478002e+002
1.158436e+003, 7.453951e+002
1.158918e+003, 7.466254e+002
1.159400e+003, 7.474850e+002
1.159882e+003, 7.427705e+002
1.160364e+003, 7.360775e+002
1.160847e+003, 7.316607e+002
1.161329e+003, 7.301876e+002
1.161811e+003, 7.290361e+002
1.162293e+003, 7.283355e+002
1.162775e+003, 7.271565e+002
1.163257e+003, 7.245936e+002
1.163739e+003, 7.218225e+002
1.164221e+003, 7.202634e+002
1.164703e+003, 7.195160e+002
1.165186e+003, 7.189605e+002
1.165668e+003, 7.187949e+002
1.166150e+003, 7.180148e+002
1.166632e+003, 7.165020e+002
1.167114e+003, 7.148230e+002
1.167596e+003, 7.131747e+002
1.168078e+003, 7.117527e+002
1.168560e+003, 7.110613e+002
1.169042e+003, 7.108675e+002
1.169525e+003, 7.105738e+002
1.170007e+003, 7.100920e+002
1.170489e+003, 7.093281e+002
1.170971e+003, 7.081035e+002
1.171453e+003, 7.070479e+002
1.171935e+003, 7.069932e+002
1.172417e+003, 7.074284e+002
1.172899e+003, 7.073156e+002
1.173382e+003, 7.067244e+002
1.173864e+003, 7.062064e+002
1.174346e+003, 7.061863e+002
1.174828e+003, 7.058839e+002
1.175310e+003, 7.051526e+002
1.175792e+003, 7.041708e+002
1.176274e+003, 7.029777e+002
1.176756e+003, 7.017541e+002
1.177239e+003, 7.007094e+002
1.177721e+003, 6.999163e+002
1.178203e+003, 6.999258e+002
1.178685e+003, 7.017540e+002
1.179167e+003, 7.034962e+002
1.179649e+003, 7.051376e+002
1.180131e+003, 7.058900e+002
1.180613e+003, 7.035203e+002
1.181095e+003, 6.991877e+002
1.181578e+003, 6.962723e+002
1.182060e+003, 6.952897e+002
1.182542e+003, 6.950291e+002
1.183024e+003, 6.955440e+002
1.183506e+003, 6.960369e+002
1.183988e+003, 6.963312e+002
1.184470e+003, 6.963363e+002
1.184952e+003, 6.955565e+002
1.185434e+003, 6.942748e+002
1.185917e+003, 6.935610e+002
1.186399e+003, 6.938035e+002
1.186881e+003, 6.938990e+002
1.187363e+003, 6.930411e+002
1.187845e+003, 6.922128e+002
1.188327e+003, 6.919523e+002
1.188809e+003, 6.920563e+002
1.189291e+003, 6.917094e+002
1.189774e+003, 6.910087e+002
1.190256e+003, 6.904504e+002
1.190738e+003, 6.902831e+002
1.191220e+003, 6.899900e+002
1.191702e+003, 6.888829e+002
1.192184e+003, 6.879987e+002
1.192666e+003, 6.881039e+002
1.193148e+003, 6.890108e+002
1.193630e+003, 6.894775e+002
1.194113e+003, 6.895632e+002
1.194595e+003, 6.896625e+002
1.195077e+003, 6.903449e+002
1.195559e+003, 6.903165e+002
1.196041e+003, 6.876928e+002
1.196523e+003, 6.851940e+002
1.197005e+003, 6.853680e+002
1.197487e+003, 6.879610e+002
1.197969e+003, 6.882814e+002
1.198452e+003, 6.866031e+002
1.198934e+003, 6.850090e+002
1.199416e+003, 6.846588e+002
1.199898e+003, 6.845673e+002
1.200380e+003, 6.844445e+002
1.200862e+003, 6.842297e+002
1.201344e+003, 6.838445e+002
1.201826e+003, 6.832862e+002
1.202309e+003, 6.826132e+002
1.202791e+003, 6.818720e+002
1.203273e+003, 6.816216e+002
1.203755e+003, 6.828976e+002
1.204237e+003, 6.839301e+002
1.204719e+003, 6.835843e+002
1.205201e+003, 6.826238e+002
1.205683e+003, 6.819021e+002
1.206166e+003, 6.814226e+002
1.206648e+003, 6.807130e+002
1.207130e+003, 6.798046e+002
1.207612e+003, 6.794658e+002
1.208094e+003, 6.808803e+002
1.208576e+003, 6.822490e+002
1.209058e+003, 6.826149e+002
1.209540e+003, 6.823113e+002
1.210022e+003, 6.815392e+002
1.210505e+003, 6.803338e+002
1.210987e+003, 6.801360e+002
1.211469e+003, 6.810152e+002
1.211951e+003, 6.815367e+002
1.212433e+003, 6.801548e+002
1.212915e+003, 6.787796e+002
1.213397e+003, 6.785132e+002
1.213879e+003, 6.789509e+002
1.214361e+003, 6.796764e+002
1.214844e+003, 6.806400e+002
1.215326e+003, 6.809726e+002
1.215808e+003, 6.805710e+002
1.216290e+003, 6.799208e+002
1.216772e+003, 6.788827e+002
1.217254e+003, 6.781908e+002
1.217736e+003, 6.782982e+002
1.218218e+003, 6.789788e+002
1.218701e+003, 6.800402e+002
1.219183e+003, 6.813975e+002
1.219665e+003, 6.821223e+002
1.220147e+003, 6.820486e+002
1.220629e+003, 6.816887e+002
1.221111e+003, 6.812092e+002
1.221593e+003, 6.806887e+002
1.222075e+003, 6.800941e+002
1.222557e+003, 6.795234e+002
1.223040e+003, 6.791960e+002
1.223522e+003, 6.791205e+002
1.224004e+003, 6.794285e+002
1.224486e+003, 6.801838e+002
1.224968e+003, 6.809008e+002
1.225450e+003, 6.819897e+002
1.225932e+003, 6.820668e+002
1.226414e+003, 6.796354e+002
1.226896e+003, 6.762155e+002
1.227379e+003, 6.775114e+002
1.227861e+003, 6.823409e+002
1.228343e+003, 6.839208e+002
1.228825e+003, 6.802507e+002
1.229307e+003, 6.767156e+002
1.229789e+003, 6.765342e+002
1.230271e+003, 6.770378e+002
1.230753e+003, 6.768410e+002
1.231236e+003, 6.762588e+002
1.231718e+003, 6.764473e+002
1.232200e+003, 6.772045e+002
1.232682e+003, 6.777350e+002
1.233164e+003, 6.778242e+002
1.233646e+003, 6.777392e+002
1.234128e+003, 6.774714e+002
1.234610e+003, 6.772235e+002
1.235093e+003, 6.771901e+002
1.235575e+003, 6.771921e+002
1.236057e+003, 6.764206e+002
1.236539e+003, 6.751832e+002
1.237021e+003, 6.745844e+002
1.237503e+003, 6.751623e+002
1.237985e+003, 6.755364e+002
1.238467e+003, 6.748807e+002
1.238949e+003, 6.743011e+002
1.239432e+003, 6.743278e+002
1.239914e+003, 6.747372e+002
1.240396e+003, 6.749531e+002
1.240878e+003, 6.749777e+002
1.241360e+003, 6.747402e+002
1.241842e+003, 6.739727e+002
1.242324e+003, 6.737717e+002
1.242806e+003, 6.748588e+002
1.243288e+003, 6.757179e+002
1.243771e+003, 6.754365e+002
1.244253e+003, 6.745559e+002
1.244735e+003, 6.744988e+002
1.245217e+003, 6.749540e+002
1.245699e+003, 6.751715e+002
1.246181e+003, 6.748563e+002
1.246663e+003, 6.745847e+002
1.247145e+003, 6.746346e+002
1.247628e+003, 6.742576e+002
1.248110e+003, 6.727094e+002
1.248592e+003, 6.708046e+002
1.249074e+003, 6.701864e+002
1.249556e+003, 6.705684e+002
1.250038e+003, 6.714347e+002
1.250520e+003, 6.729345e+002
1.251002e+003, 6.742935e+002
1.251484e+003, 6.756707e+002
1.251967e+003, 6.763016e+002
1.252449e+003, 6.754485e+002
1.252931e+003, 6.738890e+002
1.253413e+003, 6.723217e+002
1.253895e+003, 6.711134e+002
1.254377e+003, 6.711307e+002
1.254859e+003, 6.735683e+002
1.255341e+003, 6.739574e+002
1.255823e+003, 6.717789e+002
1.256306e+003, 6.700201e+002
1.256788e+003, 6.709369e+002
1.257270e+003, 6.726135e+002
1.257752e+003, 6.728276e+002
1.258234e+003, 6.721813e+002
1.258716e+003, 6.715668e+002
1.259198e+003, 6.709904e+002
1.259680e+003, 6.709721e+002
1.260163e+003, 6.716083e+002
1.260645e+003, 6.719551e+002
1.261127e+003, 6.714249e+002
1.261609e+003, 6.704590e+002
1.262091e+003, 6.688817e+002
1.262573e+003, 6.674404e+002
1.263055e+003, 6.673243e+002
1.263537e+003, 6.688393e+002
1.264020e+003, 6.691054e+002
1.264502e+003, 6.681390e+002
1.264984e+003, 6.674004e+002
1.265466e+003, 6.680294e+002
1.265948e+003, 6.687773e+002
1.266430e+003, 6.686492e+002
1.266912e+003, 6.683152e+002
1.267394e+003, 6.686728e+002
1.267876e+003, 6.697343e+002
1.268359e+003, 6.697382e+002
1.268841e+003, 6.688149e+002
1.269323e+003, 6.681456e+002
1.269805e+003, 6.686989e+002
1.270287e+003, 6.692118e+002
1.270769e+003, 6.693728e+002
1.271251e+003, 6.690195e+002
1.271733e+003, 6.675070e+002
1.272215e+003, 6.651776e+002
1.272698e+003, 6.654575e+002
1.273180e+003, 6.677426e+002
1.273662e+003, 6.692083e+002
1.274144e+003, 6.680598e+002
1.274626e+003, 6.665987e+002
1.275108e+003, 6.648827e+002
1.275590e+003, 6.636688e+002
1.276072e+003, 6.638751e+002
1.276555e+003, 6.650095e+002
1.277037e+003, 6.654603e+002
1.277519e+003, 6.653885e+002
1.278001e+003, 6.652796e+002
1.278483e+003, 6.652730e+002
1.278965e+003, 6.652533e+002
1.279447e+003, 6.651057e+002
1.279929e+003, 6.651836e+002
1.280411e+003, 6.662950e+002
1.280894e+003, 6.674879e+002
1.281376e+003, 6.663440e+002
1.281858e+003, 6.639903e+002
1.282340e+003, 6.630367e+002
1.282822e+003, 6.653749e+002
1.283304e+003, 6.661591e+002
1.283786e+003, 6.650729e+002
1.284268e+003, 6.640195e+002
1.284750e+003, 6.644877e+002
1.285233e+003, 6.655251e+002
1.285715e+003, 6.661555e+002
1.286197e+003, 6.665112e+002
1.286679e+003, 6.668589e+002
1.287161e+003, 6.673520e+002
1.287643e+003, 6.671006e+002
1.288125e+003, 6.660598e+002
1.288607e+003, 6.652947e+002
1.289090e+003, 6.656857e+002
1.289572e+003, 6.663358e+002
1.290054e+003, 6.668392e+002
1.290536e+003, 6.670704e+002
1.291018e+003, 6.668668e+002
1.291500e+003, 6.662056e+002
1.291982e+003, 6.658016e+002
1.292464e+003, 6.656095e+002
1.292947e+003, 6.651682e+002
1.293429e+003, 6.636656e+002
1.293911e+003, 6.626666e+002
1.294393e+003, 6.634178e+002
1.294875e+003, 6.644844e+002
1.295357e+003, 6.649238e+002
1.295839e+003, 6.647559e+002
1.296321e+003, 6.638558e+002
1.296803e+003, 6.625211e+002
1.297286e+003, 6.617961e+002
1.297768e+003, 6.625854e+002
1.298250e+003, 6.632458e+002
1.298732e+003, 6.636290e+002
1.299214e+003, 6.636852e+002
1.299696e+003, 6.629460e+002
1.300178e+003, 6.620560e+002
1.300660e+003, 6.624693e+002
##END=



