##NAMES=Davidite-(La)
##RRUFFID=R070698
##IDEAL CHEMISTRY=La^3+^(Y^3+^,U^4+^)Fe^3+^_2_(Ti^4+^,Fe^3+^,Cr^3+^,V^5+^)_18_(O,OH,F)_38_
##LOCALITY=Pandora prospect, Covered Wells, Quijotoa District, Quijotoa Mts, Pima County, Arizona, USA
##OWNER=RRUFF
##SOURCE=Michael Scott
##DESCRIPTION=Black submetallic massive
##STATUS=The identification of this mineral is confirmed by single-crystal X-ray diffraction and chemical analysis.
##URL=rruff.info/R070698
##MEASURED CHEMISTRY=(La_0.48_Ce_0.35_Nd_0.03_Pr_0.01_Ca_0.13_)_∑=1.00_(U_0.32_Y_0.23_Sc_0.07_Ca_0.07_Th_0.05_)_∑=0.74_Fe_2_(Ti_12.42_Fe_4.24_Mg_0.29_Cr_0.25_Al_0.18_Zr_0.07_Mn_0.05_)_∑=17.50_O_38_
154.4830, 322.1385
154.9651, 323.2771
155.4472, 321.6441
155.9293, 313.7418
156.4115, 307.9761
156.8936, 305.7864
157.3757, 306.9615
157.8578, 310.6563
158.3399, 321.0575
158.8221, 331.3479
159.3042, 337.1600
159.7863, 331.2535
160.2684, 326.7746
160.7505, 328.8431
161.2326, 336.7608
161.7148, 345.0269
162.1969, 354.4148
162.6790, 361.8803
163.1611, 364.4057
163.6432, 355.2470
164.1253, 345.5336
164.6075, 341.2279
165.0896, 342.5461
165.5717, 345.5548
166.0538, 349.4272
166.5359, 353.3768
167.0180, 356.2976
167.5002, 357.0294
167.9823, 357.0298
168.4644, 357.5366
168.9465, 358.7677
169.4286, 359.6157
169.9107, 359.1715
170.3929, 357.7425
170.8750, 355.9625
171.3571, 351.7784
171.8392, 348.4503
172.3213, 350.8930
172.8034, 361.5511
173.2856, 371.8510
173.7677, 373.7300
174.2498, 368.4887
174.7319, 360.6223
175.2140, 348.9932
175.6961, 337.3284
176.1783, 331.4285
176.6604, 332.7270
177.1425, 339.5119
177.6246, 354.4177
178.1067, 375.5507
178.5888, 391.5676
179.0710, 390.6873
179.5531, 378.4657
180.0352, 366.6288
180.5173, 357.2112
180.9994, 350.3857
181.4815, 346.8288
181.9637, 346.4848
182.4458, 348.5512
182.9279, 354.0854
183.4100, 361.9375
183.8921, 367.8708
184.3742, 370.4617
184.8564, 370.4641
185.3385, 368.3545
185.8206, 363.8323
186.3027, 360.6287
186.7848, 364.3794
187.2669, 373.9903
187.7491, 381.2431
188.2312, 382.6723
188.7133, 379.4982
189.1954, 375.7455
189.6775, 371.2663
190.1596, 366.9814
190.6418, 363.8888
191.1239, 361.9982
191.6060, 360.9456
192.0881, 361.0501
192.5702, 362.1149
193.0524, 362.2272
193.5345, 361.1279
194.0166, 359.7498
194.4987, 359.7034
194.9808, 361.0792
195.4629, 362.4249
195.9451, 362.9441
196.4272, 362.6642
196.9093, 362.5671
197.3914, 362.5738
197.8735, 362.9364
198.3556, 364.9995
198.8378, 369.3429
199.3199, 371.7139
199.8020, 367.8616
200.2841, 357.0478
200.7662, 352.0601
201.2483, 355.0908
201.7305, 363.0099
202.2126, 368.4746
202.6947, 371.3007
203.1768, 372.3585
203.6589, 371.6574
204.1410, 368.8654
204.6232, 366.7303
205.1053, 365.5746
205.5874, 365.1949
206.0695, 365.0212
206.5516, 365.1778
207.0337, 365.2141
207.5159, 364.6423
207.9980, 363.2173
208.4801, 362.5368
208.9622, 363.3279
209.4443, 365.0033
209.9264, 364.1127
210.4086, 359.1877
210.8907, 354.6386
211.3728, 354.8699
211.8549, 362.2768
212.3370, 366.0607
212.8191, 363.5030
213.3013, 355.5675
213.7834, 349.8768
214.2655, 346.0955
214.7476, 345.1080
215.2297, 348.2804
215.7118, 357.3021
216.1940, 366.0594
216.6761, 374.2480
217.1582, 381.7615
217.6403, 384.7689
218.1224, 381.7856
218.6045, 376.2473
219.0867, 371.2609
219.5688, 367.0197
220.0509, 362.7719
220.5330, 357.2282
221.0151, 350.1476
221.4972, 350.4976
221.9794, 362.6790
222.4615, 377.3755
222.9436, 384.4962
223.4257, 381.0031
223.9078, 376.0344
224.3899, 371.1034
224.8721, 366.0006
225.3542, 362.6815
225.8363, 360.7389
226.3184, 360.9267
226.8005, 364.7900
227.2827, 375.2295
227.7648, 383.7650
228.2469, 388.2153
228.7290, 388.2481
229.2111, 386.2509
229.6932, 379.6155
230.1754, 373.0832
230.6575, 373.7319
231.1396, 387.0822
231.6217, 397.7958
232.1038, 400.9609
232.5859, 394.8560
233.0681, 390.4614
233.5502, 388.4133
234.0323, 387.6256
234.5144, 386.1964
234.9965, 382.2816
235.4786, 380.9968
235.9608, 385.3997
236.4429, 398.1543
236.9250, 403.5032
237.4071, 397.4288
237.8892, 386.3892
238.3713, 380.6963
238.8535, 382.7893
239.3356, 386.2238
239.8177, 389.8194
240.2998, 394.8792
240.7819, 394.5354
241.2640, 385.3103
241.7462, 372.6996
242.2283, 366.4426
242.7104, 369.9973
243.1925, 374.2087
243.6746, 375.7442
244.1567, 373.0840
244.6389, 373.3285
245.1210, 378.7170
245.6031, 385.6759
246.0852, 387.2244
246.5673, 379.3763
247.0494, 372.9513
247.5316, 372.6719
248.0137, 381.7534
248.4958, 385.7281
248.9779, 381.9218
249.4600, 374.4844
249.9421, 371.2067
250.4243, 373.3982
250.9064, 377.3855
251.3885, 382.7361
251.8706, 391.3949
252.3527, 394.3952
252.8348, 388.9476
253.3170, 379.5866
253.7991, 374.8447
254.2812, 375.7571
254.7633, 379.4361
255.2454, 386.1221
255.7275, 398.2407
256.2097, 403.5250
256.6918, 398.7476
257.1739, 389.2981
257.6560, 385.2532
258.1381, 388.4645
258.6202, 393.3002
259.1024, 398.1118
259.5845, 403.2432
260.0666, 406.6811
260.5487, 408.0911
261.0308, 408.0491
261.5129, 407.6641
261.9951, 407.0911
262.4772, 405.8062
262.9593, 403.4867
263.4414, 399.8747
263.9235, 396.1307
264.4056, 391.5185
264.8878, 387.4269
265.3699, 386.5848
265.8520, 390.0510
266.3341, 393.7199
266.8162, 395.7970
267.2983, 395.8198
267.7805, 397.5122
268.2626, 402.0622
268.7447, 406.9369
269.2268, 406.7852
269.7089, 399.7550
270.1910, 394.3863
270.6732, 395.3344
271.1553, 403.7375
271.6374, 406.5052
272.1195, 401.7947
272.6016, 394.1487
273.0837, 391.4466
273.5659, 394.6467
274.0480, 397.7790
274.5301, 398.2093
275.0122, 395.7968
275.4943, 394.7604
275.9764, 395.3644
276.4586, 396.8476
276.9407, 398.1450
277.4228, 399.2124
277.9049, 400.3825
278.3870, 402.6469
278.8691, 405.8092
279.3513, 404.2747
279.8334, 396.5703
280.3155, 387.9576
280.7976, 386.2381
281.2798, 391.7090
281.7619, 397.4751
282.2440, 401.4979
282.7261, 403.7669
283.2082, 403.3628
283.6903, 399.5394
284.1725, 395.7901
284.6546, 397.4739
285.1367, 404.3361
285.6188, 410.0172
286.1009, 411.6716
286.5830, 410.2648
287.0652, 409.9158
287.5473, 410.7243
288.0294, 412.0117
288.5115, 413.3380
288.9936, 414.6356
289.4757, 415.2741
289.9579, 414.5553
290.4400, 413.1506
290.9221, 413.6645
291.4042, 416.3352
291.8863, 417.9498
292.3684, 413.2645
292.8506, 404.0685
293.3327, 398.1365
293.8148, 399.1545
294.2969, 404.1824
294.7790, 407.7407
295.2611, 409.8384
295.7433, 411.5006
296.2254, 414.7962
296.7075, 418.5305
297.1896, 419.0095
297.6717, 413.1118
298.1538, 405.2329
298.6360, 402.5054
299.1181, 404.5538
299.6002, 407.2288
300.0823, 407.1428
300.5644, 405.4586
301.0465, 404.3782
301.5287, 404.5910
302.0108, 405.4966
302.4929, 406.8250
302.9750, 408.4474
303.4571, 409.5512
303.9392, 409.2834
304.4214, 408.2701
304.9035, 407.1753
305.3856, 405.6036
305.8677, 404.9303
306.3498, 407.0358
306.8319, 411.2632
307.3141, 415.3528
307.7962, 418.3090
308.2783, 420.2733
308.7604, 421.2390
309.2425, 420.7328
309.7246, 420.2135
310.2068, 421.1914
310.6889, 422.9564
311.1710, 423.6825
311.6531, 420.8219
312.1352, 417.6019
312.6173, 416.9230
313.0995, 420.4811
313.5816, 422.9826
314.0637, 420.1718
314.5458, 414.6888
315.0279, 411.4815
315.5100, 413.8357
315.9922, 417.9166
316.4743, 422.3598
316.9564, 427.6506
317.4385, 430.6148
317.9206, 428.7287
318.4027, 424.2231
318.8849, 420.2154
319.3670, 417.6260
319.8491, 415.6016
320.3312, 413.0373
320.8133, 409.1650
321.2954, 409.0471
321.7776, 417.5280
322.2597, 428.7453
322.7418, 436.4501
323.2239, 439.0092
323.7060, 438.7104
324.1881, 433.9163
324.6703, 423.8474
325.1524, 419.1975
325.6345, 426.1483
326.1166, 435.9688
326.5987, 441.6750
327.0808, 438.6181
327.5630, 436.9148
328.0451, 439.6996
328.5272, 446.5139
329.0093, 446.9529
329.4914, 434.9147
329.9735, 422.0437
330.4557, 416.1960
330.9378, 422.2361
331.4199, 426.9163
331.9020, 429.4393
332.3841, 429.8678
332.8662, 428.2384
333.3484, 423.4165
333.8305, 418.2817
334.3126, 414.4671
334.7947, 412.5980
335.2768, 410.0204
335.7589, 405.7241
336.2411, 401.1400
336.7232, 400.3556
337.2053, 404.7095
337.6874, 408.9711
338.1695, 409.8044
338.6516, 406.3914
339.1338, 407.3465
339.6159, 414.3528
340.0980, 423.3028
340.5801, 426.7445
341.0622, 424.1853
341.5443, 420.9204
342.0265, 418.4707
342.5086, 416.9519
342.9907, 417.8825
343.4728, 421.7965
343.9549, 426.0353
344.4370, 426.6884
344.9192, 424.1627
345.4013, 422.3570
345.8834, 422.7335
346.3655, 424.7966
346.8476, 428.5735
347.3297, 434.2036
347.8119, 437.4331
348.2940, 430.8446
348.7761, 418.1270
349.2582, 410.7693
349.7403, 414.2510
350.2225, 422.1020
350.7046, 424.7590
351.1867, 422.8857
351.6688, 421.4192
352.1509, 425.2073
352.6331, 431.3465
353.1152, 435.3952
353.5973, 435.8686
354.0794, 434.9640
354.5615, 435.3621
355.0436, 436.1506
355.5258, 434.5536
356.0079, 424.3312
356.4900, 413.6698
356.9721, 411.0664
357.4542, 420.5230
357.9363, 428.8849
358.4185, 427.2772
358.9006, 419.7414
359.3827, 413.2703
359.8648, 408.8296
360.3469, 407.5508
360.8290, 411.7625
361.3112, 422.8216
361.7933, 430.6914
362.2754, 428.8992
362.7575, 423.5705
363.2396, 421.3540
363.7217, 428.2086
364.2039, 433.8875
364.6860, 435.6867
365.1681, 433.5049
365.6502, 429.9599
366.1323, 422.0975
366.6144, 414.9060
367.0966, 411.8437
367.5787, 416.6594
368.0608, 421.2316
368.5429, 426.5289
369.0250, 431.6602
369.5071, 431.4673
369.9893, 419.5814
370.4714, 409.7673
370.9535, 409.5837
371.4356, 425.5133
371.9177, 436.1958
372.3998, 439.9999
372.8820, 439.1203
373.3641, 437.9526
373.8462, 435.9943
374.3283, 435.1031
374.8104, 437.0540
375.2925, 442.4728
375.7747, 442.3107
376.2568, 434.2104
376.7389, 425.1942
377.2210, 426.9535
377.7031, 440.5116
378.1852, 449.8498
378.6674, 448.2578
379.1495, 438.6399
379.6316, 433.3524
380.1137, 432.7005
380.5958, 434.0186
381.0779, 435.7463
381.5601, 437.6343
382.0422, 438.1430
382.5243, 436.2660
383.0064, 433.7271
383.4885, 434.2670
383.9706, 437.3658
384.4528, 439.1598
384.9349, 433.8251
385.4170, 426.2812
385.8991, 425.5719
386.3812, 434.7632
386.8633, 445.2347
387.3455, 449.5789
387.8276, 449.0838
388.3097, 446.7211
388.7918, 441.6394
389.2739, 436.7935
389.7560, 434.6658
390.2382, 435.5664
390.7203, 437.7356
391.2024, 440.9683
391.6845, 444.6835
392.1666, 448.2554
392.6487, 453.4226
393.1309, 456.5478
393.6130, 454.6204
394.0951, 448.2124
394.5772, 443.9564
395.0593, 445.5756
395.5414, 448.5845
396.0236, 450.1727
396.5057, 450.7241
396.9878, 448.9186
397.4699, 442.4954
397.9520, 433.3288
398.4341, 427.2899
398.9163, 424.2118
399.3984, 424.4939
399.8805, 429.4158
400.3626, 442.5746
400.8447, 449.3012
401.3268, 446.2880
401.8090, 439.2766
402.2911, 436.2768
402.7732, 438.3117
403.2553, 441.8782
403.7374, 446.8477
404.2195, 453.0123
404.7017, 456.5088
405.1838, 457.0771
405.6659, 455.6634
406.1480, 452.5518
406.6301, 447.6967
407.1122, 443.3250
407.5944, 439.6212
408.0765, 436.8452
408.5586, 435.5021
409.0407, 435.5825
409.5228, 437.3865
410.0049, 443.2095
410.4871, 450.9369
410.9692, 454.2893
411.4513, 452.1129
411.9334, 447.6429
412.4155, 442.3848
412.8976, 437.4669
413.3798, 436.2254
413.8619, 444.0219
414.3440, 453.9641
414.8261, 459.0534
415.3082, 459.1289
415.7903, 456.9170
416.2725, 451.8733
416.7546, 446.4151
417.2367, 443.2259
417.7188, 444.8564
418.2009, 447.1377
418.6830, 448.8139
419.1652, 449.7578
419.6473, 449.4332
420.1294, 445.3129
420.6115, 441.6118
421.0937, 441.0632
421.5758, 446.6541
422.0579, 449.7321
422.5400, 446.1906
423.0221, 440.0928
423.5042, 438.0868
423.9864, 444.6898
424.4685, 450.5939
424.9506, 454.1106
425.4327, 455.1799
425.9148, 453.6367
426.3969, 447.3698
426.8791, 440.8974
427.3612, 438.3995
427.8433, 441.0636
428.3254, 444.1825
428.8075, 447.8317
429.2896, 451.2121
429.7718, 450.2679
430.2539, 443.7525
430.7360, 439.4314
431.2181, 444.5263
431.7002, 458.0175
432.1823, 463.8972
432.6645, 460.0078
433.1466, 453.0558
433.6287, 453.0021
434.1108, 458.4276
434.5929, 462.2419
435.0750, 460.2290
435.5572, 455.3119
436.0393, 452.3467
436.5214, 451.2890
437.0035, 451.1898
437.4856, 450.4157
437.9677, 450.3996
438.4499, 453.8432
438.9320, 464.5564
439.4141, 473.5563
439.8962, 472.6399
440.3783, 464.8402
440.8604, 457.9479
441.3426, 456.3300
441.8247, 455.9695
442.3068, 454.2627
442.7889, 450.2943
443.2710, 448.0406
443.7531, 450.8456
444.2353, 455.0160
444.7174, 456.5156
445.1995, 449.4217
445.6816, 445.4691
446.1637, 447.8360
446.6458, 455.8585
447.1280, 463.0321
447.6101, 470.4033
448.0922, 475.7812
448.5743, 477.3344
449.0564, 472.5647
449.5385, 471.2484
450.0207, 475.9694
450.5028, 482.1331
450.9849, 479.5706
451.4670, 466.2242
451.9491, 454.7847
452.4312, 451.2025
452.9134, 454.2422
453.3955, 452.9259
453.8776, 446.4574
454.3597, 441.3107
454.8418, 445.9100
455.3239, 457.8675
455.8061, 467.1876
456.2882, 471.7111
456.7703, 472.6124
457.2524, 470.5128
457.7345, 465.9455
458.2166, 461.0091
458.6988, 454.0565
459.1809, 448.8862
459.6630, 451.8588
460.1451, 465.0795
460.6272, 475.6311
461.1093, 471.7707
461.5915, 461.5562
462.0736, 455.0653
462.5557, 458.4680
463.0378, 463.3689
463.5199, 467.2666
464.0020, 470.1353
464.4842, 472.3858
464.9663, 475.3553
465.4484, 476.7587
465.9305, 475.1476
466.4126, 467.3017
466.8947, 462.0775
467.3769, 461.1559
467.8590, 462.1290
468.3411, 460.6193
468.8232, 454.0502
469.3053, 450.2932
469.7874, 452.3805
470.2696, 459.8807
470.7517, 464.6899
471.2338, 466.3310
471.7159, 466.7316
472.1980, 467.5159
472.6801, 468.6599
473.1623, 468.9065
473.6444, 467.7603
474.1265, 466.2735
474.6086, 466.3041
475.0907, 467.6923
475.5728, 469.4046
476.0550, 470.2379
476.5371, 471.2860
477.0192, 476.1183
477.5013, 484.9765
477.9834, 490.2474
478.4655, 481.5827
478.9477, 467.1669
479.4298, 457.9963
479.9119, 460.9377
480.3940, 465.1711
480.8761, 464.6429
481.3582, 460.9010
481.8404, 458.3935
482.3225, 459.4094
482.8046, 461.2971
483.2867, 462.8949
483.7688, 463.9865
484.2509, 465.1936
484.7331, 467.1042
485.2152, 468.8678
485.6973, 469.7167
486.1794, 469.4083
486.6615, 468.4485
487.1436, 465.9826
487.6258, 462.8655
488.1079, 463.9116
488.5900, 470.8568
489.0721, 477.1462
489.5542, 479.2896
490.0363, 477.2922
490.5185, 472.5341
491.0006, 464.2592
491.4827, 455.9933
491.9648, 452.3358
492.4470, 452.8376
492.9291, 455.3865
493.4112, 460.2187
493.8933, 465.8391
494.3754, 470.7698
494.8575, 474.7720
495.3397, 476.0552
495.8218, 470.0983
496.3039, 462.4361
496.7860, 460.0887
497.2681, 465.7525
497.7502, 469.9561
498.2324, 464.8587
498.7145, 456.0695
499.1966, 451.1185
499.6787, 455.6375
500.1608, 460.9421
500.6429, 464.2951
501.1251, 465.8016
501.6072, 468.2050
502.0893, 474.6913
502.5714, 479.5051
503.0535, 479.8990
503.5356, 474.7233
504.0178, 467.3206
504.4999, 455.1270
504.9820, 443.1321
505.4641, 439.3237
505.9462, 444.9104
506.4283, 452.5659
506.9105, 461.1226
507.3926, 469.9120
507.8747, 476.6953
508.3568, 481.5306
508.8389, 483.4417
509.3210, 479.4916
509.8032, 472.1036
510.2853, 467.9615
510.7674, 468.1058
511.2495, 470.6235
511.7316, 475.3540
512.2137, 480.9344
512.6959, 484.5334
513.1780, 485.0587
513.6601, 483.1927
514.1422, 478.2447
514.6243, 470.7272
515.1064, 464.0046
515.5886, 456.1397
516.0707, 451.7507
516.5528, 454.7112
517.0349, 471.5111
517.5170, 483.1113
517.9991, 485.4515
518.4813, 482.4361
518.9634, 478.6058
519.4455, 473.4684
519.9276, 468.1124
520.4097, 461.0941
520.8918, 453.6977
521.3740, 455.5426
521.8561, 469.6933
522.3382, 482.9355
522.8203, 484.8282
523.3024, 476.2265
523.7845, 472.9829
524.2667, 476.9960
524.7488, 482.3883
525.2309, 480.7750
525.7130, 474.2442
526.1951, 470.2977
526.6772, 474.0898
527.1594, 479.2476
527.6415, 476.9550
528.1236, 468.9171
528.6057, 462.5681
529.0878, 461.1740
529.5699, 463.7986
530.0521, 471.4478
530.5342, 486.3500
531.0163, 496.8730
531.4984, 496.2016
531.9805, 490.6943
532.4626, 487.1297
532.9448, 486.8690
533.4269, 488.1501
533.9090, 492.6242
534.3911, 498.7004
534.8732, 499.4474
535.3553, 491.5699
535.8375, 484.5652
536.3196, 483.5211
536.8017, 488.8749
537.2838, 490.0072
537.7659, 485.9641
538.2480, 480.8754
538.7302, 479.9028
539.2123, 482.2848
539.6944, 482.5794
540.1765, 478.9064
540.6586, 473.9278
541.1407, 470.1788
541.6229, 467.9930
542.1050, 468.4612
542.5871, 474.4750
543.0692, 481.8960
543.5513, 486.2972
544.0334, 487.4543
544.5156, 490.1704
544.9977, 502.4876
545.4798, 513.9555
545.9619, 515.6567
546.4440, 495.5442
546.9261, 481.0798
547.4083, 479.1754
547.8904, 484.6511
548.3725, 488.4168
548.8546, 491.0276
549.3367, 490.8797
549.8188, 486.1228
550.3010, 477.4939
550.7831, 474.0859
551.2652, 476.9243
551.7473, 481.5783
552.2294, 486.1718
552.7115, 490.4003
553.1937, 489.4410
553.6758, 481.5509
554.1579, 474.1332
554.6400, 478.7806
555.1221, 491.6235
555.6042, 501.4642
556.0864, 503.2018
556.5685, 501.4697
557.0506, 499.8665
557.5327, 498.3518
558.0148, 496.7989
558.4969, 494.2348
558.9791, 492.2974
559.4612, 492.3857
559.9433, 495.1682
560.4254, 497.1949
560.9075, 497.6315
561.3896, 497.1426
561.8718, 496.3104
562.3539, 494.6948
562.8360, 493.4818
563.3181, 492.8041
563.8002, 492.5695
564.2823, 492.8864
564.7645, 494.1404
565.2466, 494.0074
565.7287, 489.6837
566.2108, 483.0719
566.6929, 486.1029
567.1750, 499.2379
567.6572, 511.0015
568.1393, 509.1847
568.6214, 499.3749
569.1035, 492.7820
569.5856, 491.5085
570.0677, 491.8955
570.5499, 491.3159
571.0320, 490.2856
571.5141, 489.6179
571.9962, 489.6795
572.4783, 490.0899
572.9604, 490.0327
573.4426, 489.9375
573.9247, 492.0313
574.4068, 503.5957
574.8889, 510.8631
575.3710, 505.7637
575.8531, 483.4118
576.3353, 475.9532
576.8174, 490.3523
577.2995, 509.4234
577.7816, 515.8325
578.2637, 508.1078
578.7458, 503.3999
579.2280, 505.0962
579.7101, 509.1877
580.1922, 508.3372
580.6743, 503.2603
581.1564, 497.9997
581.6385, 493.0656
582.1207, 489.7233
582.6028, 490.6917
583.0849, 495.4658
583.5670, 500.1517
584.0491, 501.9860
584.5313, 503.1093
585.0134, 505.6536
585.4955, 511.0994
585.9776, 514.1252
586.4597, 510.1208
586.9418, 504.3516
587.4240, 503.0336
587.9061, 511.4929
588.3882, 516.1965
588.8703, 514.1737
589.3524, 507.8864
589.8345, 504.7776
590.3167, 505.6413
590.7988, 506.7034
591.2809, 507.1499
591.7630, 506.5639
592.2451, 500.4890
592.7272, 488.5714
593.2094, 479.8158
593.6915, 484.7744
594.1736, 497.6049
594.6557, 507.5312
595.1378, 512.5930
595.6199, 514.8341
596.1021, 513.4333
596.5842, 510.7408
597.0663, 510.1078
597.5485, 516.0646
598.0306, 520.6598
598.5127, 520.1855
598.9948, 515.9276
599.4769, 513.6027
599.9590, 515.2716
600.4412, 516.8218
600.9233, 516.9693
601.4054, 515.6580
601.8875, 513.8182
602.3696, 511.3604
602.8517, 508.6190
603.3339, 505.6830
603.8160, 502.5960
604.2981, 500.1844
604.7802, 498.4456
605.2623, 497.8123
605.7444, 499.8452
606.2266, 503.5315
606.7087, 506.0627
607.1908, 506.0921
607.6729, 504.9623
608.1550, 503.4644
608.6371, 501.6513
609.1193, 499.6429
609.6014, 495.0143
610.0835, 492.3536
610.5656, 495.2376
611.0477, 505.0266
611.5298, 510.9954
612.0120, 511.2368
612.4941, 509.1220
612.9762, 506.3354
613.4583, 502.0380
613.9404, 500.4775
614.4225, 502.7455
614.9047, 506.1858
615.3868, 506.9067
615.8689, 505.0929
616.3510, 502.8465
616.8331, 499.8120
617.3152, 497.9242
617.7974, 502.4919
618.2795, 511.4642
618.7616, 517.1328
619.2437, 510.2592
619.7258, 502.1704
620.2079, 503.0277
620.6901, 513.2362
621.1722, 520.3713
621.6543, 518.4886
622.1364, 513.2685
622.6185, 507.9579
623.1006, 501.0483
623.5828, 498.0121
624.0649, 500.6715
624.5470, 505.5332
625.0291, 508.5490
625.5112, 509.4947
625.9933, 509.6138
626.4755, 508.7008
626.9576, 507.6566
627.4397, 507.6245
627.9218, 508.8146
628.4039, 512.8265
628.8860, 526.1379
629.3682, 539.7610
629.8503, 537.8176
630.3324, 522.5410
630.8145, 510.8780
631.2966, 518.1934
631.7787, 528.9422
632.2609, 531.2986
632.7430, 521.0794
633.2251, 513.0409
633.7072, 510.3884
634.1893, 510.9354
634.6714, 513.3140
635.1536, 519.9056
635.6357, 522.8738
636.1178, 520.7277
636.5999, 515.6624
637.0820, 511.2584
637.5641, 507.5314
638.0463, 504.6175
638.5284, 502.3616
639.0105, 501.0876
639.4926, 501.6051
639.9747, 503.7692
640.4568, 506.6838
640.9390, 511.0034
641.4211, 515.0750
641.9032, 516.9185
642.3853, 516.3963
642.8674, 516.3670
643.3495, 517.1471
643.8317, 519.3718
644.3138, 523.7553
644.7959, 532.7050
645.2780, 539.5966
645.7601, 546.5353
646.2422, 549.5882
646.7244, 541.2304
647.2065, 517.5443
647.6886, 503.7180
648.1707, 506.1593
648.6528, 517.9593
649.1349, 528.9000
649.6171, 538.1369
650.0992, 540.1976
650.5813, 524.0078
651.0634, 504.5379
651.5455, 502.1395
652.0276, 514.0877
652.5098, 525.8895
652.9919, 529.7697
653.4740, 531.1319
653.9561, 533.4763
654.4382, 537.6019
654.9203, 539.9180
655.4025, 541.5443
655.8846, 539.9797
656.3667, 532.1031
656.8488, 512.8965
657.3309, 502.8443
657.8130, 503.9609
658.2952, 511.8201
658.7773, 524.0547
659.2594, 539.7352
659.7415, 545.3037
660.2236, 533.3069
660.7057, 516.1375
661.1879, 512.8466
661.6700, 519.1567
662.1521, 523.1990
662.6342, 514.5480
663.1163, 505.8289
663.5984, 505.3503
664.0806, 512.4525
664.5627, 520.1060
665.0448, 531.3069
665.5269, 538.1105
666.0090, 535.3935
666.4911, 520.9775
666.9733, 513.9307
667.4554, 516.5213
667.9375, 521.9861
668.4196, 524.7560
668.9017, 524.9617
669.3839, 526.7792
669.8660, 530.9506
670.3481, 534.9780
670.8302, 535.5955
671.3123, 533.8926
671.7944, 532.2131
672.2766, 531.4109
672.7587, 530.6306
673.2408, 528.4579
673.7229, 525.9998
674.2050, 525.3749
674.6871, 530.2555
675.1693, 533.6707
675.6514, 531.6233
676.1335, 525.9342
676.6156, 527.2236
677.0977, 539.8104
677.5798, 549.4436
678.0620, 548.1573
678.5441, 537.4371
679.0262, 532.7440
679.5083, 534.4173
679.9904, 535.9113
680.4725, 528.9407
680.9547, 519.1215
681.4368, 518.1268
681.9189, 528.3756
682.4010, 537.1173
682.8831, 532.1070
683.3652, 522.9859
683.8474, 519.7128
684.3295, 529.4324
684.8116, 537.2460
685.2937, 539.8848
685.7758, 539.9728
686.2579, 540.8165
686.7401, 543.0305
687.2222, 544.2671
687.7043, 543.9222
688.1864, 542.5233
688.6685, 541.1494
689.1506, 539.8140
689.6328, 538.7023
690.1149, 537.1167
690.5970, 536.3035
691.0791, 538.9899
691.5612, 544.5079
692.0433, 549.3612
692.5255, 552.6287
693.0076, 553.9700
693.4897, 552.0866
693.9718, 546.4587
694.4539, 543.5178
694.9360, 548.5226
695.4182, 552.3223
695.9003, 548.1996
696.3824, 531.6160
696.8645, 528.7835
697.3466, 543.9919
697.8287, 561.6933
698.3109, 564.0947
698.7930, 553.7552
699.2751, 543.5794
699.7572, 535.3158
700.2393, 529.7469
700.7214, 527.8840
701.2036, 529.2808
701.6857, 533.2943
702.1678, 544.3757
702.6499, 552.5689
703.1320, 552.3955
703.6141, 546.6290
704.0963, 542.1041
704.5784, 537.8314
705.0605, 537.1073
705.5426, 542.4102
706.0247, 551.6871
706.5068, 555.2668
706.9890, 552.6457
707.4711, 548.7704
707.9532, 546.2212
708.4353, 544.2884
708.9174, 540.3858
709.3995, 534.8359
709.8817, 531.0063
710.3638, 532.8535
710.8459, 536.4137
711.3280, 538.6678
711.8101, 539.3906
712.2922, 537.9280
712.7744, 529.6912
713.2565, 522.5010
713.7386, 521.6531
714.2207, 529.8034
714.7028, 537.9322
715.1849, 547.1030
715.6671, 554.5308
716.1492, 556.7639
716.6313, 554.1221
717.1134, 550.4353
717.5955, 546.1653
718.0776, 541.7175
718.5598, 536.6943
719.0419, 532.0265
719.5240, 529.5759
720.0061, 531.4628
720.4882, 533.8960
720.9703, 534.5256
721.4525, 534.4810
721.9346, 536.3720
722.4167, 543.7560
722.8988, 549.0053
723.3809, 550.9990
723.8630, 549.7780
724.3452, 543.7488
724.8273, 531.6979
725.3094, 523.7211
725.7915, 526.7964
726.2736, 536.6133
726.7557, 543.0153
727.2379, 546.0853
727.7200, 546.4804
728.2021, 540.4824
728.6842, 534.9338
729.1663, 537.0079
729.6484, 547.5512
730.1306, 555.4342
730.6127, 557.9448
731.0948, 556.3475
731.5769, 550.3588
732.0590, 537.3132
732.5411, 531.2666
733.0233, 533.6784
733.5054, 539.8154
733.9875, 548.2921
734.4696, 557.8484
734.9517, 556.9236
735.4338, 542.6793
735.9160, 527.4646
736.3981, 523.8609
736.8802, 527.3771
737.3623, 531.8711
737.8444, 537.6525
738.3266, 540.4044
738.8087, 534.0023
739.2908, 525.1147
739.7729, 523.9771
740.2551, 537.5743
740.7372, 546.5767
741.2193, 547.6234
741.7014, 543.8986
742.1835, 541.3885
742.6656, 540.1068
743.1478, 540.8238
743.6299, 545.0580
744.1120, 549.8253
744.5941, 550.2409
745.0762, 547.1757
745.5583, 543.3416
746.0405, 537.7538
746.5226, 533.9588
747.0047, 535.6727
747.4868, 541.6440
747.9689, 544.5107
748.4510, 541.6901
748.9332, 537.7655
749.4153, 533.1403
749.8974, 528.2086
750.3795, 528.2792
750.8616, 534.0304
751.3438, 539.4825
751.8259, 540.6253
752.3080, 538.7327
752.7901, 536.0909
753.2722, 532.8800
753.7543, 530.9536
754.2365, 531.0779
754.7186, 533.3174
755.2007, 539.3364
755.6828, 550.9305
756.1649, 556.4973
756.6470, 549.5794
757.1292, 540.1335
757.6113, 533.9718
758.0934, 531.9189
758.5755, 529.0127
759.0576, 524.5350
759.5397, 521.5231
760.0219, 525.5216
760.5040, 533.6896
760.9861, 535.7222
761.4682, 528.7770
761.9503, 522.4688
762.4324, 526.7253
762.9146, 534.9166
763.3967, 539.1518
763.8788, 535.0343
764.3609, 530.9231
764.8430, 527.1290
765.3251, 524.6238
765.8073, 525.0112
766.2894, 529.3716
766.7715, 532.2113
767.2536, 532.3636
767.7357, 531.4348
768.2178, 532.1819
768.7000, 534.2355
769.1821, 536.0968
769.6642, 537.5722
770.1463, 538.2335
770.6284, 537.1195
771.1105, 535.0025
771.5927, 533.3757
772.0748, 533.3969
772.5569, 533.1677
773.0390, 532.9705
773.5211, 532.1034
774.0032, 527.4927
774.4854, 516.7626
774.9675, 511.9570
775.4496, 519.8449
775.9317, 533.1860
776.4138, 530.3787
776.8959, 514.8046
777.3781, 504.6854
777.8602, 515.8754
778.3423, 531.5062
778.8244, 537.6586
779.3065, 535.9464
779.7886, 533.9877
780.2708, 536.3356
780.7529, 536.2310
781.2350, 529.8383
781.7171, 518.2965
782.1992, 512.7830
782.6813, 514.4936
783.1635, 517.7160
783.6456, 520.8433
784.1277, 523.0548
784.6098, 520.0338
785.0919, 512.4688
785.5740, 507.0334
786.0562, 510.3399
786.5383, 515.8925
787.0204, 518.1320
787.5025, 516.7339
787.9846, 515.6315
788.4667, 516.0106
788.9489, 516.6482
789.4310, 516.9432
789.9131, 516.8323
790.3952, 517.6876
790.8773, 519.7063
791.3594, 521.7396
791.8416, 522.8395
792.3237, 523.2910
792.8058, 525.0934
793.2879, 528.2603
793.7700, 527.5230
794.2521, 511.4097
794.7343, 495.1066
795.2164, 494.1640
795.6985, 516.0366
796.1806, 526.3625
796.6627, 513.0505
797.1448, 497.0352
797.6270, 492.1642
798.1091, 500.0841
798.5912, 506.4388
799.0733, 511.3804
799.5554, 513.6569
800.0375, 510.6631
800.5197, 504.5312
801.0018, 498.4222
801.4839, 492.4214
801.9660, 489.8148
802.4481, 495.9875
802.9302, 504.3276
803.4124, 509.2721
803.8945, 508.8473
804.3766, 507.3133
804.8587, 503.6809
805.3408, 500.2471
805.8229, 499.8110
806.3051, 502.3399
806.7872, 502.4167
807.2693, 499.3404
807.7514, 495.2458
808.2335, 492.3099
808.7156, 489.7764
809.1978, 485.9032
809.6799, 479.0722
810.1620, 475.1614
810.6441, 479.0683
811.1262, 485.7019
811.6083, 490.2512
812.0905, 493.2776
812.5726, 491.7200
813.0547, 482.7472
813.5368, 474.5616
814.0189, 480.6273
814.5010, 497.5550
814.9832, 503.8265
815.4653, 494.0800
815.9474, 482.6091
816.4295, 483.0312
816.9116, 489.2851
817.3937, 494.1407
817.8759, 496.7322
818.3580, 495.9866
818.8401, 488.6215
819.3222, 479.8156
819.8043, 473.7964
820.2864, 470.2036
820.7686, 472.1808
821.2507, 481.5668
821.7328, 491.8062
822.2149, 494.2755
822.6970, 490.8170
823.1791, 484.8065
823.6613, 474.9914
824.1434, 469.6867
824.6255, 480.4982
825.1076, 496.1406
825.5897, 503.8962
826.0718, 492.5398
826.5540, 486.4149
827.0361, 488.4616
827.5182, 492.3838
828.0003, 489.6071
828.4824, 480.2650
828.9645, 474.3754
829.4467, 473.9221
829.9288, 475.1647
830.4109, 474.8032
830.8930, 473.0193
831.3751, 469.6407
831.8572, 462.9487
832.3394, 458.5934
832.8215, 460.4915
833.3036, 464.6779
833.7857, 466.3938
834.2678, 463.7637
834.7499, 464.7014
835.2321, 471.0876
835.7142, 477.8299
836.1963, 478.2478
836.6784, 473.5634
837.1605, 467.1346
837.6426, 458.5407
838.1248, 453.3957
838.6069, 460.8600
839.0890, 471.8895
839.5711, 475.7801
840.0532, 461.4747
840.5353, 456.9803
841.0175, 470.4289
841.4996, 487.3237
841.9817, 492.8146
842.4638, 486.5968
842.9459, 476.5760
843.4280, 462.4163
843.9102, 450.1448
844.3923, 447.7462
844.8744, 451.2284
845.3565, 454.6742
845.8386, 457.3844
846.3207, 458.2216
846.8029, 454.4175
847.2850, 450.0202
847.7671, 448.7734
848.2492, 452.5862
848.7313, 454.0697
849.2134, 452.2178
849.6956, 450.5793
850.1777, 453.9335
850.6598, 460.5394
851.1419, 464.4823
851.6240, 465.0538
852.1061, 463.0389
852.5883, 456.7619
853.0704, 449.5843
853.5525, 444.3128
854.0346, 441.3318
854.5167, 441.0398
854.9988, 445.6098
855.4810, 449.9418
855.9631, 449.8008
856.4452, 445.0866
856.9273, 442.1594
857.4094, 441.1604
857.8915, 442.0823
858.3737, 446.9940
858.8558, 452.7756
859.3379, 454.8358
859.8200, 452.3361
860.3021, 450.6292
860.7842, 454.6711
861.2664, 457.3930
861.7485, 453.8863
862.2306, 443.0161
862.7127, 437.7853
863.1948, 439.1725
863.6769, 441.7095
864.1591, 441.1150
864.6412, 438.8680
865.1233, 439.0583
865.6054, 441.5612
866.0875, 443.0349
866.5696, 441.2570
867.0518, 438.0077
867.5339, 433.0843
868.0160, 426.3683
868.4981, 425.1639
868.9802, 432.2484
869.4623, 438.9235
869.9445, 440.2293
870.4266, 437.8073
870.9087, 441.2586
871.3908, 449.7089
871.8729, 453.6149
872.3550, 439.8239
872.8372, 425.0370
873.3193, 426.4414
873.8014, 440.9236
874.2835, 449.0679
874.7656, 438.4401
875.2477, 430.7190
875.7299, 432.7207
876.2120, 441.4047
876.6941, 444.3905
877.1762, 441.6877
877.6583, 439.7437
878.1404, 442.6818
878.6226, 446.4731
879.1047, 444.6158
879.5869, 439.2893
880.0690, 436.0579
880.5511, 438.1170
881.0332, 441.3666
881.5153, 446.5052
881.9974, 451.4557
882.4796, 451.2637
882.9617, 444.7747
883.4438, 440.0516
883.9259, 439.9952
884.4080, 440.5906
884.8901, 432.8470
885.3723, 420.9487
885.8544, 414.9630
886.3365, 421.8072
886.8186, 429.6537
887.3007, 435.0092
887.7828, 437.5127
888.2650, 436.1528
888.7471, 427.7540
889.2292, 425.0580
889.7113, 431.1934
890.1934, 438.5334
890.6755, 435.3046
891.1577, 425.0762
891.6398, 419.4193
892.1219, 421.2809
892.6040, 423.9473
893.0861, 422.1576
893.5682, 419.3209
894.0504, 418.8351
894.5325, 422.6368
895.0146, 424.8068
895.4967, 424.2491
895.9788, 424.0756
896.4609, 428.3879
896.9431, 435.9075
897.4252, 437.4448
897.9073, 432.4420
898.3894, 427.6763
898.8715, 431.1562
899.3536, 435.0017
899.8358, 430.2149
900.3179, 414.8334
900.8000, 407.9231
901.2821, 417.5813
901.7642, 426.5354
902.2463, 425.9859
902.7285, 417.6108
903.2106, 414.5518
903.6927, 416.6400
904.1748, 418.9110
904.6569, 417.4295
905.1390, 415.3323
905.6212, 416.3371
906.1033, 419.6880
906.5854, 421.9094
907.0675, 420.3110
907.5496, 419.5550
908.0317, 420.9815
908.5139, 423.8948
908.9960, 427.1549
909.4781, 430.7527
909.9602, 430.3220
910.4423, 421.7261
910.9244, 412.6193
911.4066, 412.5023
911.8887, 418.5630
912.3708, 425.6613
912.8529, 434.6907
913.3350, 441.2646
913.8171, 445.5891
914.2993, 446.4799
914.7814, 440.5612
915.2635, 427.0111
915.7456, 417.7065
916.2277, 414.5887
916.7098, 414.8648
917.1920, 417.6331
917.6741, 420.8138
918.1562, 421.1180
918.6383, 417.2425
919.1204, 412.7808
919.6025, 405.3592
920.0847, 400.6568
920.5668, 404.1961
921.0489, 418.3488
921.5310, 421.7662
922.0131, 413.0290
922.4952, 405.3091
922.9774, 412.4935
923.4595, 425.9048
923.9416, 433.3876
924.4237, 434.2556
924.9058, 431.5171
925.3879, 419.9935
925.8701, 411.8678
926.3522, 414.0314
926.8343, 424.6212
927.3164, 427.6809
927.7985, 422.3960
928.2806, 417.1563
928.7628, 415.0267
929.2449, 415.9465
929.7270, 422.4479
930.2091, 431.9940
930.6912, 437.8946
931.1733, 434.0026
931.6555, 429.9537
932.1376, 429.0957
932.6197, 429.6441
933.1018, 428.4029
933.5839, 424.9810
934.0660, 423.1540
934.5482, 424.4087
935.0303, 424.8921
935.5124, 416.6584
935.9945, 404.9413
936.4766, 399.3815
936.9587, 404.1823
937.4409, 409.4645
937.9230, 413.3417
938.4051, 415.4965
938.8872, 414.9496
939.3693, 410.5602
939.8514, 411.1902
940.3336, 417.5917
940.8157, 423.4825
941.2978, 423.2646
941.7799, 419.4486
942.2620, 414.7814
942.7441, 409.6488
943.2263, 406.0886
943.7084, 405.6739
944.1905, 406.3365
944.6726, 406.9819
945.1547, 407.8879
945.6368, 411.8005
946.1190, 419.0762
946.6011, 423.6913
947.0832, 421.5865
947.5653, 416.8888
948.0474, 414.9990
948.5295, 414.8683
949.0117, 414.0568
949.4938, 407.9409
949.9759, 406.1632
950.4580, 412.6423
950.9401, 422.5588
951.4222, 429.3978
951.9044, 433.2155
952.3865, 432.4854
952.8686, 426.2649
953.3507, 418.8318
953.8328, 411.6203
954.3149, 407.3950
954.7971, 412.0698
955.2792, 431.8100
955.7613, 440.0533
956.2434, 424.1734
956.7255, 406.4451
957.2076, 400.2740
957.6898, 405.3532
958.1719, 411.5012
958.6540, 418.7264
959.1361, 424.3524
959.6182, 427.5768
960.1003, 427.6306
960.5825, 420.9287
961.0646, 409.3250
961.5467, 403.7563
962.0288, 410.5318
962.5109, 417.1357
962.9930, 421.4276
963.4752, 423.0294
963.9573, 419.1797
964.4394, 410.9615
964.9215, 405.0521
965.4036, 404.6236
965.8857, 405.2169
966.3679, 401.6908
966.8500, 397.6649
967.3321, 398.0183
967.8142, 405.8417
968.2963, 414.5162
968.7784, 426.2919
969.2606, 434.1808
969.7427, 426.8110
970.2248, 409.4075
970.7069, 401.7928
971.1890, 405.3905
971.6711, 410.4160
972.1533, 411.0108
972.6354, 410.4103
973.1175, 410.7080
973.5996, 411.9782
974.0817, 412.9727
974.5638, 413.8769
975.0460, 413.6685
975.5281, 410.7963
976.0102, 407.5870
976.4923, 410.0909
976.9744, 416.5141
977.4565, 421.5865
977.9387, 421.1197
978.4208, 421.1232
978.9029, 425.7571
979.3850, 431.0264
979.8671, 431.5007
980.3492, 426.6628
980.8314, 418.8683
981.3135, 407.2797
981.7956, 397.6275
982.2777, 396.2683
982.7598, 400.6933
983.2419, 409.7240
983.7241, 424.6007
984.2062, 431.5757
984.6883, 415.3171
985.1704, 401.8021
985.6525, 404.5710
986.1346, 421.4946
986.6168, 429.3159
987.0989, 428.2879
987.5810, 426.3585
988.0631, 428.2845
988.5452, 431.2407
989.0273, 433.0512
989.5095, 433.7499
989.9916, 433.3686
990.4737, 430.7729
990.9558, 429.0247
991.4379, 429.0629
991.9200, 429.2808
992.4022, 426.2636
992.8843, 421.0732
993.3664, 418.6765
993.8485, 420.4833
994.3306, 422.0934
994.8127, 418.7294
995.2949, 415.0208
995.7770, 415.4752
996.2591, 420.9090
996.7412, 425.9806
997.2233, 431.2563
997.7054, 433.9460
998.1876, 430.8881
998.6697, 424.6299
999.1518, 420.8279
999.6339, 418.8939
1000.116, 416.4208
1000.598, 408.4455
1001.080, 404.2985
1001.562, 409.9889
1002.044, 420.1640
1002.527, 425.5774
1003.009, 425.9419
1003.491, 424.7105
1003.973, 422.1009
1004.455, 419.7936
1004.937, 419.7699
1005.419, 421.1319
1005.901, 423.3152
1006.384, 427.1235
1006.866, 427.5517
1007.348, 422.1888
1007.830, 416.3868
1008.312, 413.0712
1008.794, 411.9087
1009.276, 410.8950
1009.758, 410.0920
1010.240, 409.9573
1010.723, 412.8141
1011.205, 414.3951
1011.687, 408.5799
1012.169, 399.7906
1012.651, 400.5378
1013.133, 416.1576
1013.615, 425.6094
1014.097, 424.4232
1014.580, 419.7183
1015.062, 421.7085
1015.544, 427.2403
1016.026, 430.4701
1016.508, 430.2224
1016.990, 428.0745
1017.472, 421.1277
1017.954, 415.8691
1018.436, 416.7068
1018.919, 423.2607
1019.401, 427.5890
1019.883, 429.6905
1020.365, 429.8771
1020.847, 427.3302
1021.329, 423.7834
1021.811, 419.3161
1022.293, 415.3254
1022.776, 415.2721
1023.258, 422.7790
1023.740, 429.4631
1024.222, 434.6759
1024.704, 438.5468
1025.186, 441.6638
1025.668, 443.5775
1026.150, 442.1876
1026.632, 437.0208
1027.115, 431.2025
1027.597, 425.0943
1028.079, 420.3059
1028.561, 418.2074
1029.043, 418.6365
1029.525, 419.2503
1030.007, 420.0969
1030.489, 420.5167
1030.972, 419.0291
1031.454, 418.2805
1031.936, 425.4144
1032.418, 435.7094
1032.900, 438.9847
1033.382, 422.6522
1033.864, 412.5967
1034.346, 413.4471
1034.828, 418.5089
1035.311, 420.5208
1035.793, 420.0015
1036.275, 419.8589
1036.757, 420.3236
1037.239, 422.4100
1037.721, 431.9269
1038.203, 438.9600
1038.685, 432.9824
1039.167, 415.9223
1039.650, 408.9032
1040.132, 414.0249
1040.614, 420.4288
1041.096, 424.6783
1041.578, 427.8147
1042.060, 432.5702
1042.542, 437.0639
1043.024, 437.4993
1043.507, 429.9322
1043.989, 423.7535
1044.471, 419.7151
1044.953, 418.5280
1045.435, 421.7592
1045.917, 428.9577
1046.399, 434.6866
1046.881, 438.8076
1047.364, 441.2489
1047.846, 443.1664
1048.328, 442.2749
1048.810, 433.3820
1049.292, 419.8735
1049.774, 416.7373
1050.256, 428.4790
1050.738, 434.4353
1051.220, 429.3043
1051.703, 420.0657
1052.185, 414.7303
1052.667, 413.0712
1053.149, 415.5992
1053.631, 423.5722
1054.113, 430.1816
1054.595, 434.7397
1055.077, 436.0282
1055.559, 431.4066
1056.042, 422.5719
1056.524, 422.5383
1057.006, 430.2188
1057.488, 436.7219
1057.970, 436.9719
1058.452, 434.7566
1058.934, 430.2575
1059.416, 425.6022
1059.899, 425.2002
1060.381, 431.1978
1060.863, 433.0741
1061.345, 428.8441
1061.827, 425.3087
1062.309, 433.7485
1062.791, 445.2865
1063.273, 443.6890
1063.755, 428.0952
1064.238, 419.4500
1064.720, 431.5219
1065.202, 440.7259
1065.684, 438.9205
1066.166, 430.5009
1066.648, 427.3298
1067.130, 428.6725
1067.612, 431.2263
1068.094, 435.0710
1068.577, 437.1677
1069.059, 433.8927
1069.541, 429.1958
1070.023, 426.8953
1070.505, 427.3733
1070.987, 428.4728
1071.469, 430.2794
1071.951, 431.9991
1072.434, 433.3206
1072.916, 434.0999
1073.398, 432.0987
1073.880, 429.2054
1074.362, 432.1559
1074.844, 452.8511
1075.326, 460.8830
1075.808, 448.4837
1076.291, 429.3673
1076.773, 422.1620
1077.255, 423.9442
1077.737, 427.4863
1078.219, 431.8549
1078.701, 435.2700
1079.183, 435.5994
1079.665, 435.9840
1080.147, 439.0299
1080.630, 443.6050
1081.112, 440.9088
1081.594, 431.3422
1082.076, 427.9459
1082.558, 439.2637
1083.040, 451.5898
1083.522, 451.3877
1084.004, 445.3153
1084.486, 442.2762
1084.969, 444.0673
1085.451, 446.9273
1085.933, 451.7014
1086.415, 454.2822
1086.897, 449.9494
1087.379, 442.1026
1087.861, 435.4716
1088.343, 430.4950
1088.826, 428.3592
1089.308, 434.0449
1089.790, 436.2627
1090.272, 431.3813
1090.754, 424.2005
1091.236, 422.5708
1091.718, 425.3615
1092.200, 427.4948
1092.682, 428.1972
1093.165, 428.4230
1093.647, 427.7948
1094.129, 427.8028
1094.611, 430.0160
1095.093, 433.8827
1095.575, 435.1709
1096.057, 433.7653
1096.539, 432.3640
1097.022, 430.9924
1097.504, 431.9988
1097.986, 442.4567
1098.468, 454.8440
1098.950, 457.8431
1099.432, 444.0345
1099.914, 436.8724
1100.396, 438.0714
1100.879, 440.7266
1101.361, 439.5533
1101.843, 436.5855
1102.325, 435.1710
1102.807, 435.4017
1103.289, 437.4442
1103.771, 443.9242
1104.253, 448.8270
1104.735, 451.4352
1105.218, 451.8589
1105.700, 449.5802
1106.182, 445.1191
1106.664, 440.9393
1107.146, 437.2627
1107.628, 433.9606
1108.110, 429.8177
1108.592, 427.1292
1109.074, 427.4180
1109.557, 430.1747
1110.039, 434.1822
1110.521, 439.5035
1111.003, 443.4434
1111.485, 445.0149
1111.967, 445.4724
1112.449, 446.7649
1112.931, 447.1051
1113.414, 443.2956
1113.896, 433.0540
1114.378, 430.8727
1114.860, 438.7108
1115.342, 446.0468
1115.824, 446.3513
1116.306, 443.0847
1116.788, 440.8616
1117.271, 439.5092
1117.753, 438.6152
1118.235, 437.4686
1118.717, 437.9488
1119.199, 440.8570
1119.681, 444.0500
1120.163, 445.4230
1120.645, 445.3730
1121.127, 445.3446
1121.609, 445.2445
1122.092, 443.6089
1122.574, 438.2767
1123.056, 432.8718
1123.538, 427.2388
1124.020, 423.2327
1124.502, 426.4672
1124.984, 435.7338
1125.466, 440.7293
1125.949, 439.3914
1126.431, 434.9887
1126.913, 423.8329
1127.395, 415.6003
1127.877, 420.2303
1128.359, 435.3864
1128.841, 442.7471
1129.323, 442.0372
1129.806, 438.0712
1130.288, 431.3368
1130.770, 424.8249
1131.252, 420.7706
1131.734, 419.1737
1132.216, 420.9024
1132.698, 428.2941
1133.180, 429.0909
1133.662, 421.0885
1134.145, 415.8111
1134.627, 423.3505
1135.109, 436.3040
1135.591, 445.5321
1136.073, 450.5145
1136.555, 449.6934
1137.037, 434.6018
1137.519, 426.0234
1138.001, 426.7320
1138.484, 430.8503
1138.966, 432.7239
1139.448, 433.1873
1139.930, 433.8590
1140.412, 434.9423
1140.894, 437.0497
1141.376, 445.5283
1141.858, 447.7169
1142.341, 436.3641
1142.823, 421.5168
1143.305, 424.6006
1143.787, 441.0194
1144.269, 449.8939
1144.751, 447.3542
1145.233, 441.5723
1145.715, 432.7816
1146.198, 426.6087
1146.680, 426.4198
1147.162, 431.0657
1147.644, 435.7159
1148.126, 440.3516
1148.608, 444.6230
1149.090, 448.9347
1149.572, 451.6750
1150.054, 451.0688
1150.536, 448.6674
1151.019, 445.2762
1151.501, 440.6362
1151.983, 440.9998
1152.465, 446.6730
1152.947, 449.7563
1153.429, 443.1417
1153.911, 435.2399
1154.393, 434.5262
1154.876, 437.9875
1155.358, 440.6213
1155.840, 442.4987
1156.322, 441.2239
1156.804, 435.8272
1157.286, 432.3643
1157.768, 438.3436
1158.250, 447.2197
1158.733, 450.9567
1159.215, 450.3184
1159.697, 449.1812
1160.179, 448.5323
1160.661, 445.8908
1161.143, 439.3974
1161.625, 435.3565
1162.107, 445.8685
1162.589, 461.5509
1163.072, 464.9835
1163.554, 455.6799
1164.036, 448.6686
1164.518, 449.1781
1165.000, 449.7757
1165.482, 448.7964
1165.964, 446.9527
1166.446, 445.7199
1166.928, 444.6049
1167.411, 441.5730
1167.893, 435.4715
1168.375, 433.4018
1168.857, 441.1237
1169.339, 449.1792
1169.821, 454.5612
1170.303, 457.3354
1170.785, 456.8198
1171.268, 453.8477
1171.750, 451.0375
1172.232, 448.9994
1172.714, 447.8317
1173.196, 449.9135
1173.678, 450.4840
1174.160, 445.6344
1174.642, 436.5766
1175.125, 430.4405
1175.607, 427.5177
1176.089, 429.7907
1176.571, 442.8663
1177.053, 455.1466
1177.535, 463.7443
1178.017, 467.2974
1178.499, 462.6801
1178.981, 449.9980
1179.464, 440.6852
1179.946, 435.0227
1180.428, 435.1004
1180.910, 449.0904
1181.392, 461.6412
1181.874, 463.9479
1182.356, 459.9108
1182.838, 454.1446
1183.320, 446.3818
1183.803, 445.5071
1184.285, 452.4612
1184.767, 457.2725
1185.249, 446.6351
1185.731, 436.8302
1186.213, 442.1283
1186.695, 456.8979
1187.177, 465.6211
1187.660, 468.2278
1188.142, 464.2644
1188.624, 452.7202
1189.106, 442.4495
1189.588, 441.8748
1190.070, 445.3382
1190.552, 449.3996
1191.034, 453.4820
1191.516, 455.8543
1191.999, 456.5229
1192.481, 454.8141
1192.963, 449.6956
1193.445, 445.4311
1193.927, 447.4894
1194.409, 451.7353
1194.891, 454.5009
1195.373, 455.4934
1195.855, 452.7189
1196.338, 445.2249
1196.820, 442.4181
1197.302, 449.5843
1197.784, 459.5545
1198.266, 468.3702
1198.748, 473.2805
1199.230, 468.4637
1199.712, 450.6662
1200.195, 443.5676
1200.677, 448.6111
1201.159, 454.2447
1201.641, 453.8430
1202.123, 451.4871
1202.605, 450.0254
1203.087, 450.4691
1203.569, 455.4119
1204.052, 469.6624
1204.534, 472.5571
1205.016, 461.9704
1205.498, 452.8939
1205.980, 458.1636
1206.462, 468.4697
1206.944, 475.1450
1207.426, 478.1674
1207.908, 476.8856
1208.391, 469.6655
1208.873, 463.3636
1209.355, 458.0720
1209.837, 454.4298
1210.319, 454.1312
1210.801, 454.9057
1211.283, 453.8260
1211.765, 451.5685
1212.247, 451.2080
1212.730, 454.8015
1213.212, 453.3954
1213.694, 444.7289
1214.176, 437.4928
1214.658, 442.3286
1215.140, 451.5335
1215.622, 457.7501
1216.104, 460.3123
1216.587, 457.8022
1217.069, 447.2500
1217.551, 443.0313
1218.033, 448.5602
1218.515, 456.2043
1218.997, 455.9614
1219.479, 454.1608
1219.961, 460.1277
1220.443, 473.3969
1220.926, 478.1468
1221.408, 471.6276
1221.890, 465.0669
1222.372, 460.5542
1222.854, 458.6475
1223.336, 463.5203
1223.818, 469.1460
1224.300, 467.5948
1224.782, 457.6061
1225.265, 450.3704
1225.747, 445.9126
1226.229, 444.1165
1226.711, 444.6741
1227.193, 448.6325
1227.675, 462.9081
1228.157, 478.0080
1228.639, 480.8918
1229.122, 468.8333
1229.604, 461.2311
1230.086, 458.4181
1230.568, 457.7962
1231.050, 459.2112
1231.532, 460.6040
1232.014, 460.0213
1232.496, 457.7934
1232.979, 452.7398
1233.461, 443.6329
1233.943, 445.9589
1234.425, 461.2660
1234.907, 472.0243
1235.389, 467.4717
1235.871, 458.8941
1236.353, 456.8999
1236.835, 457.9319
1237.318, 457.1048
1237.800, 453.6496
1238.282, 452.3421
1238.764, 453.2110
1239.246, 455.9099
1239.728, 461.6957
1240.210, 467.3452
1240.692, 471.6274
1241.175, 473.1121
1241.657, 468.7320
1242.139, 456.3046
1242.621, 454.6440
1243.103, 463.8445
1243.585, 471.0904
1244.067, 464.6142
1244.549, 457.8003
1245.031, 461.4898
1245.514, 469.4267
1245.996, 472.5641
1246.478, 470.4560
1246.960, 468.9828
1247.442, 468.2650
1247.924, 468.7198
1248.406, 471.7931
1248.888, 474.8108
1249.370, 476.9268
1249.853, 477.6683
1250.335, 475.3535
1250.817, 470.2267
1251.299, 471.4838
1251.781, 478.8194
1252.263, 482.0307
1252.745, 468.7393
1253.227, 457.1321
1253.710, 456.8785
1254.192, 461.4104
1254.674, 462.7428
1255.156, 461.4739
1255.638, 462.3162
1256.120, 465.3168
1256.602, 467.5454
1257.084, 466.2107
1257.567, 465.1853
1258.049, 464.4298
1258.531, 466.0039
1259.013, 476.0633
1259.495, 490.8373
1259.977, 495.8300
1260.459, 490.5497
1260.941, 482.8671
1261.423, 470.4026
1261.906, 464.9536
1262.388, 471.6244
1262.870, 481.9085
1263.352, 483.8200
1263.834, 479.7635
1264.316, 472.5294
1264.798, 463.3100
1265.280, 461.7867
1265.762, 480.1872
1266.245, 490.9573
1266.727, 487.8887
1267.209, 478.6566
1267.691, 471.1702
1268.173, 465.9570
1268.655, 463.9043
1269.137, 465.0274
1269.619, 469.1599
1270.102, 478.2692
1270.584, 484.2440
1271.066, 485.0019
1271.548, 483.3608
1272.030, 483.8396
1272.512, 483.2827
1272.994, 475.2010
1273.476, 460.4483
1273.958, 455.8618
1274.441, 464.0555
1274.923, 471.4781
1275.405, 475.1190
1275.887, 477.3340
1276.369, 482.0104
1276.851, 485.3377
1277.333, 481.5059
1277.815, 472.2508
1278.297, 470.2722
1278.780, 476.1390
1279.262, 475.8672
1279.744, 464.7519
1280.226, 456.6424
1280.708, 467.3618
1281.190, 481.0829
1281.672, 486.2752
1282.154, 485.0021
1282.637, 484.5115
1283.119, 484.6239
1283.601, 482.8763
1284.083, 478.0725
1284.565, 476.3234
1285.047, 488.4396
1285.529, 496.0117
1286.011, 487.5890
1286.494, 470.6028
1286.976, 467.1343
1287.458, 473.3448
1287.940, 475.6430
1288.422, 470.3913
1288.904, 468.6362
1289.386, 478.7837
1289.868, 487.1888
1290.350, 488.5689
1290.833, 486.8716
1291.315, 491.1909
1291.797, 497.9311
1292.279, 499.3692
1292.761, 493.3680
1293.243, 488.6847
1293.725, 486.1801
1294.207, 485.9622
1294.689, 489.5058
1295.172, 491.9278
1295.654, 481.6599
1296.136, 468.3502
1296.618, 465.3192
1297.100, 475.5977
1297.582, 487.0919
1298.064, 501.0031
1298.546, 508.5267
1299.029, 506.1977
1299.511, 498.8649
1299.993, 488.0898
1300.475, 477.4717
1300.957, 470.4823
##END=



