##NAMES=Davidite-(Ce)
##RRUFFID=R120009
##IDEAL CHEMISTRY=Ce^3+^(Y^3+^,U^4+^)Fe^3+^_2_(Ti^4+^,Fe^3+^,Cr^3+^,V^5+^)_18_(O,OH,F)_38_
##LOCALITY=Mount Kaskasnyunchorr, Khibiny Massif, Kola Peninsula, Russia
##OWNER=RRUFF
##SOURCE=Marcus Origlieri
##DESCRIPTION=Black rhombohedral grains associated with red rutile and colorless orthoclase
##STATUS=The identification of this mineral has been confirmed only by single crystal X-ray diffraction.
##URL=rruff.info/R120009
9.112140e+001, 0.000000e+000
9.160352e+001, 1.043573e+006
9.208563e+001, 1.015231e+006
9.256775e+001, 1.011779e+006
9.304987e+001, 1.046554e+006
9.353198e+001, 1.088793e+006
9.401410e+001, 1.116556e+006
9.449622e+001, 1.130671e+006
9.497833e+001, 1.137523e+006
9.546045e+001, 1.142279e+006
9.594257e+001, 1.144902e+006
9.642468e+001, 1.146006e+006
9.690680e+001, 1.146435e+006
9.738892e+001, 1.146428e+006
9.787103e+001, 1.146081e+006
9.835315e+001, 1.144115e+006
9.883527e+001, 1.140069e+006
9.931738e+001, 1.136689e+006
9.979950e+001, 1.134477e+006
1.002816e+002, 1.132794e+006
1.007637e+002, 1.131136e+006
1.012458e+002, 1.129763e+006
1.017280e+002, 1.128886e+006
1.022101e+002, 1.128493e+006
1.026922e+002, 1.128587e+006
1.031743e+002, 1.129282e+006
1.036564e+002, 1.130451e+006
1.041385e+002, 1.131690e+006
1.046207e+002, 1.132736e+006
1.051028e+002, 1.133641e+006
1.055849e+002, 1.134637e+006
1.060670e+002, 1.135414e+006
1.065491e+002, 1.136237e+006
1.070313e+002, 1.137429e+006
1.075134e+002, 1.139011e+006
1.079955e+002, 1.140715e+006
1.084776e+002, 1.142200e+006
1.089597e+002, 1.143327e+006
1.094418e+002, 1.144665e+006
1.099240e+002, 1.146602e+006
1.104061e+002, 1.148635e+006
1.108882e+002, 1.150327e+006
1.113703e+002, 1.151488e+006
1.118524e+002, 1.152353e+006
1.123345e+002, 1.153580e+006
1.128167e+002, 1.155563e+006
1.132988e+002, 1.157409e+006
1.137809e+002, 1.158882e+006
1.142630e+002, 1.160158e+006
1.147451e+002, 1.161467e+006
1.152272e+002, 1.162942e+006
1.157094e+002, 1.164584e+006
1.161915e+002, 1.166277e+006
1.166736e+002, 1.168427e+006
1.171557e+002, 1.170221e+006
1.176378e+002, 1.171123e+006
1.181199e+002, 1.171327e+006
1.186021e+002, 1.171500e+006
1.190842e+002, 1.172173e+006
1.195663e+002, 1.173400e+006
1.200484e+002, 1.174764e+006
1.205305e+002, 1.176343e+006
1.210126e+002, 1.177992e+006
1.214948e+002, 1.179578e+006
1.219769e+002, 1.181075e+006
1.224590e+002, 1.182539e+006
1.229411e+002, 1.184062e+006
1.234232e+002, 1.185606e+006
1.239053e+002, 1.187010e+006
1.243875e+002, 1.188201e+006
1.248696e+002, 1.189206e+006
1.253517e+002, 1.190043e+006
1.258338e+002, 1.190506e+006
1.263159e+002, 1.191120e+006
1.267980e+002, 1.192345e+006
1.272802e+002, 1.194076e+006
1.277623e+002, 1.195791e+006
1.282444e+002, 1.197029e+006
1.287265e+002, 1.197729e+006
1.292086e+002, 1.198557e+006
1.296907e+002, 1.199568e+006
1.301729e+002, 1.200729e+006
1.306550e+002, 1.202162e+006
1.311371e+002, 1.203824e+006
1.316192e+002, 1.205455e+006
1.321013e+002, 1.206648e+006
1.325834e+002, 1.207062e+006
1.330656e+002, 1.207732e+006
1.335477e+002, 1.208644e+006
1.340298e+002, 1.209788e+006
1.345119e+002, 1.211258e+006
1.349940e+002, 1.213063e+006
1.354761e+002, 1.215013e+006
1.359583e+002, 1.216659e+006
1.364404e+002, 1.217508e+006
1.369225e+002, 1.218659e+006
1.374046e+002, 1.220351e+006
1.378867e+002, 1.222353e+006
1.383688e+002, 1.224296e+006
1.388510e+002, 1.226002e+006
1.393331e+002, 1.227593e+006
1.398152e+002, 1.229472e+006
1.402973e+002, 1.231844e+006
1.407794e+002, 1.234144e+006
1.412615e+002, 1.236283e+006
1.417437e+002, 1.238202e+006
1.422258e+002, 1.239653e+006
1.427079e+002, 1.240322e+006
1.431900e+002, 1.240470e+006
1.436721e+002, 1.240749e+006
1.441542e+002, 1.241243e+006
1.446364e+002, 1.241797e+006
1.451185e+002, 1.242240e+006
1.456006e+002, 1.242549e+006
1.460827e+002, 1.242891e+006
1.465648e+002, 1.243185e+006
1.470469e+002, 1.243616e+006
1.475291e+002, 1.244471e+006
1.480112e+002, 1.245993e+006
1.484933e+002, 1.247853e+006
1.489754e+002, 1.249266e+006
1.494575e+002, 1.249907e+006
1.499396e+002, 1.250673e+006
1.504218e+002, 1.251921e+006
1.509039e+002, 1.253438e+006
1.513860e+002, 1.254939e+006
1.518681e+002, 1.256259e+006
1.523502e+002, 1.257425e+006
1.528323e+002, 1.258613e+006
1.533145e+002, 1.259730e+006
1.537966e+002, 1.260962e+006
1.542787e+002, 1.262436e+006
1.547608e+002, 1.264057e+006
1.552429e+002, 1.265648e+006
1.557250e+002, 1.267072e+006
1.562072e+002, 1.268307e+006
1.566893e+002, 1.269572e+006
1.571714e+002, 1.270853e+006
1.576535e+002, 1.272157e+006
1.581356e+002, 1.273481e+006
1.586177e+002, 1.274824e+006
1.590999e+002, 1.276212e+006
1.595820e+002, 1.277691e+006
1.600641e+002, 1.279298e+006
1.605462e+002, 1.280663e+006
1.610283e+002, 1.281601e+006
1.615104e+002, 1.282432e+006
1.619926e+002, 1.283382e+006
1.624747e+002, 1.284482e+006
1.629568e+002, 1.285665e+006
1.634389e+002, 1.286904e+006
1.639210e+002, 1.288196e+006
1.644031e+002, 1.289352e+006
1.648853e+002, 1.290117e+006
1.653674e+002, 1.290797e+006
1.658495e+002, 1.291904e+006
1.663316e+002, 1.293646e+006
1.668137e+002, 1.295463e+006
1.672958e+002, 1.296768e+006
1.677780e+002, 1.297684e+006
1.682601e+002, 1.298628e+006
1.687422e+002, 1.299850e+006
1.692243e+002, 1.301277e+006
1.697064e+002, 1.302575e+006
1.701885e+002, 1.303588e+006
1.706707e+002, 1.304620e+006
1.711528e+002, 1.305883e+006
1.716349e+002, 1.307341e+006
1.721170e+002, 1.308840e+006
1.725991e+002, 1.310318e+006
1.730812e+002, 1.311782e+006
1.735634e+002, 1.313045e+006
1.740455e+002, 1.313656e+006
1.745276e+002, 1.314422e+006
1.750097e+002, 1.315718e+006
1.754918e+002, 1.317522e+006
1.759739e+002, 1.319563e+006
1.764561e+002, 1.321599e+006
1.769382e+002, 1.323724e+006
1.774203e+002, 1.325534e+006
1.779024e+002, 1.326899e+006
1.783845e+002, 1.328083e+006
1.788666e+002, 1.329116e+006
1.793488e+002, 1.330048e+006
1.798309e+002, 1.331019e+006
1.803130e+002, 1.332225e+006
1.807951e+002, 1.333854e+006
1.812772e+002, 1.335282e+006
1.817593e+002, 1.336360e+006
1.822415e+002, 1.337363e+006
1.827236e+002, 1.338527e+006
1.832057e+002, 1.339899e+006
1.836878e+002, 1.341297e+006
1.841699e+002, 1.342420e+006
1.846520e+002, 1.342931e+006
1.851342e+002, 1.343901e+006
1.856163e+002, 1.345812e+006
1.860984e+002, 1.348006e+006
1.865805e+002, 1.349731e+006
1.870626e+002, 1.350754e+006
1.875447e+002, 1.351473e+006
1.880269e+002, 1.352544e+006
1.885090e+002, 1.354016e+006
1.889911e+002, 1.355557e+006
1.894732e+002, 1.357106e+006
1.899553e+002, 1.358671e+006
1.904374e+002, 1.360250e+006
1.909196e+002, 1.361861e+006
1.914017e+002, 1.363468e+006
1.918838e+002, 1.364981e+006
1.923659e+002, 1.366352e+006
1.928480e+002, 1.367891e+006
1.933301e+002, 1.369975e+006
1.938123e+002, 1.372387e+006
1.942944e+002, 1.374319e+006
1.947765e+002, 1.375363e+006
1.952586e+002, 1.376059e+006
1.957407e+002, 1.376976e+006
1.962228e+002, 1.378113e+006
1.967050e+002, 1.379378e+006
1.971871e+002, 1.380804e+006
1.976692e+002, 1.382377e+006
1.981513e+002, 1.383778e+006
1.986334e+002, 1.384861e+006
1.991155e+002, 1.385821e+006
1.995977e+002, 1.386772e+006
2.000798e+002, 1.387733e+006
2.005619e+002, 1.388709e+006
2.010440e+002, 1.389600e+006
2.015261e+002, 1.390338e+006
2.020082e+002, 1.391556e+006
2.024904e+002, 1.394053e+006
2.029725e+002, 1.396566e+006
2.034546e+002, 1.398467e+006
2.039367e+002, 1.399690e+006
2.044188e+002, 1.400573e+006
2.049009e+002, 1.401416e+006
2.053831e+002, 1.402028e+006
2.058652e+002, 1.403205e+006
2.063473e+002, 1.405555e+006
2.068294e+002, 1.407977e+006
2.073115e+002, 1.409832e+006
2.077936e+002, 1.411016e+006
2.082758e+002, 1.411849e+006
2.087579e+002, 1.412722e+006
2.092400e+002, 1.413529e+006
2.097221e+002, 1.414631e+006
2.102042e+002, 1.416252e+006
2.106863e+002, 1.417949e+006
2.111685e+002, 1.419385e+006
2.116506e+002, 1.420513e+006
2.121327e+002, 1.421572e+006
2.126148e+002, 1.422935e+006
2.130969e+002, 1.424848e+006
2.135790e+002, 1.426528e+006
2.140612e+002, 1.427858e+006
2.145433e+002, 1.429042e+006
2.150254e+002, 1.430226e+006
2.155075e+002, 1.431442e+006
2.159896e+002, 1.432685e+006
2.164717e+002, 1.433935e+006
2.169539e+002, 1.435175e+006
2.174360e+002, 1.436491e+006
2.179181e+002, 1.437980e+006
2.184002e+002, 1.439500e+006
2.188823e+002, 1.440940e+006
2.193644e+002, 1.442272e+006
2.198466e+002, 1.443502e+006
2.203287e+002, 1.444631e+006
2.208108e+002, 1.445661e+006
2.212929e+002, 1.446616e+006
2.217750e+002, 1.447457e+006
2.222571e+002, 1.448245e+006
2.227393e+002, 1.449047e+006
2.232214e+002, 1.449872e+006
2.237035e+002, 1.450735e+006
2.241856e+002, 1.451648e+006
2.246677e+002, 1.452604e+006
2.251498e+002, 1.453629e+006
2.256320e+002, 1.454808e+006
2.261141e+002, 1.456042e+006
2.265962e+002, 1.457184e+006
2.270783e+002, 1.458227e+006
2.275604e+002, 1.459130e+006
2.280425e+002, 1.459686e+006
2.285247e+002, 1.459997e+006
2.290068e+002, 1.460568e+006
2.294889e+002, 1.461798e+006
2.299710e+002, 1.463398e+006
2.304531e+002, 1.464722e+006
2.309352e+002, 1.465642e+006
2.314174e+002, 1.466396e+006
2.318995e+002, 1.467088e+006
2.323816e+002, 1.467751e+006
2.328637e+002, 1.468492e+006
2.333458e+002, 1.469409e+006
2.338279e+002, 1.470444e+006
2.343101e+002, 1.471441e+006
2.347922e+002, 1.472396e+006
2.352743e+002, 1.473287e+006
2.357564e+002, 1.474126e+006
2.362385e+002, 1.474900e+006
2.367206e+002, 1.475584e+006
2.372028e+002, 1.476081e+006
2.376849e+002, 1.476465e+006
2.381670e+002, 1.477092e+006
2.386491e+002, 1.478173e+006
2.391312e+002, 1.479186e+006
2.396133e+002, 1.480020e+006
2.400955e+002, 1.480649e+006
2.405776e+002, 1.480991e+006
2.410597e+002, 1.480869e+006
2.415418e+002, 1.480456e+006
2.420239e+002, 1.480637e+006
2.425060e+002, 1.481917e+006
2.429882e+002, 1.483127e+006
2.434703e+002, 1.483908e+006
2.439524e+002, 1.484412e+006
2.444345e+002, 1.484840e+006
2.449166e+002, 1.485272e+006
2.453987e+002, 1.485756e+006
2.458809e+002, 1.486525e+006
2.463630e+002, 1.487923e+006
2.468451e+002, 1.489167e+006
2.473272e+002, 1.490114e+006
2.478093e+002, 1.490822e+006
2.482914e+002, 1.491349e+006
2.487736e+002, 1.491721e+006
2.492557e+002, 1.491964e+006
2.497378e+002, 1.492172e+006
2.502199e+002, 1.492171e+006
2.507020e+002, 1.492369e+006
2.511841e+002, 1.492973e+006
2.516663e+002, 1.493750e+006
2.521484e+002, 1.494457e+006
2.526305e+002, 1.494983e+006
2.531126e+002, 1.495321e+006
2.535947e+002, 1.495431e+006
2.540768e+002, 1.494694e+006
2.545590e+002, 1.494511e+006
2.550411e+002, 1.495319e+006
2.555232e+002, 1.496583e+006
2.560053e+002, 1.497722e+006
2.564874e+002, 1.498489e+006
2.569695e+002, 1.499044e+006
2.574517e+002, 1.499766e+006
2.579338e+002, 1.500831e+006
2.584159e+002, 1.501871e+006
2.588980e+002, 1.502897e+006
2.593801e+002, 1.503886e+006
2.598622e+002, 1.504810e+006
2.603444e+002, 1.505657e+006
2.608265e+002, 1.506461e+006
2.613086e+002, 1.507290e+006
2.617907e+002, 1.508267e+006
2.622728e+002, 1.509037e+006
2.627549e+002, 1.509323e+006
2.632371e+002, 1.509527e+006
2.637192e+002, 1.510136e+006
2.642013e+002, 1.511268e+006
2.646834e+002, 1.512510e+006
2.651655e+002, 1.513214e+006
2.656476e+002, 1.513000e+006
2.661298e+002, 1.513174e+006
2.666119e+002, 1.514056e+006
2.670940e+002, 1.515183e+006
2.675761e+002, 1.516111e+006
2.680582e+002, 1.516763e+006
2.685403e+002, 1.517399e+006
2.690225e+002, 1.518385e+006
2.695046e+002, 1.519884e+006
2.699867e+002, 1.520932e+006
2.704688e+002, 1.521238e+006
2.709509e+002, 1.521263e+006
2.714330e+002, 1.521298e+006
2.719152e+002, 1.521401e+006
2.723973e+002, 1.521684e+006
2.728794e+002, 1.522305e+006
2.733615e+002, 1.523298e+006
2.738436e+002, 1.524150e+006
2.743257e+002, 1.524719e+006
2.748079e+002, 1.525237e+006
2.752900e+002, 1.525831e+006
2.757721e+002, 1.526518e+006
2.762542e+002, 1.527352e+006
2.767363e+002, 1.528469e+006
2.772184e+002, 1.529791e+006
2.777006e+002, 1.530799e+006
2.781827e+002, 1.531279e+006
2.786648e+002, 1.531600e+006
2.791469e+002, 1.531990e+006
2.796290e+002, 1.532444e+006
2.801111e+002, 1.532844e+006
2.805933e+002, 1.532961e+006
2.810754e+002, 1.533053e+006
2.815575e+002, 1.533892e+006
2.820396e+002, 1.536288e+006
2.825217e+002, 1.538447e+006
2.830038e+002, 1.539024e+006
2.834860e+002, 1.538291e+006
2.839681e+002, 1.537675e+006
2.844502e+002, 1.537835e+006
2.849323e+002, 1.538499e+006
2.854144e+002, 1.539037e+006
2.858965e+002, 1.539416e+006
2.863787e+002, 1.539764e+006
2.868608e+002, 1.540012e+006
2.873429e+002, 1.540253e+006
2.878250e+002, 1.540866e+006
2.883071e+002, 1.542106e+006
2.887892e+002, 1.543602e+006
2.892714e+002, 1.544804e+006
2.897535e+002, 1.545677e+006
2.902356e+002, 1.546542e+006
2.907177e+002, 1.547706e+006
2.911998e+002, 1.548978e+006
2.916819e+002, 1.549811e+006
2.921641e+002, 1.549940e+006
2.926462e+002, 1.549877e+006
2.931283e+002, 1.550158e+006
2.936104e+002, 1.550743e+006
2.940925e+002, 1.551459e+006
2.945746e+002, 1.552365e+006
2.950568e+002, 1.553335e+006
2.955389e+002, 1.554092e+006
2.960210e+002, 1.554555e+006
2.965031e+002, 1.554951e+006
2.969852e+002, 1.555431e+006
2.974673e+002, 1.555991e+006
2.979495e+002, 1.556662e+006
2.984316e+002, 1.557591e+006
2.989137e+002, 1.558582e+006
2.993958e+002, 1.559306e+006
2.998779e+002, 1.559708e+006
3.003600e+002, 1.560070e+006
3.008422e+002, 1.560583e+006
3.013243e+002, 1.561181e+006
3.018064e+002, 1.561749e+006
3.022885e+002, 1.562245e+006
3.027706e+002, 1.562727e+006
3.032527e+002, 1.563196e+006
3.037349e+002, 1.563638e+006
3.042170e+002, 1.564327e+006
3.046991e+002, 1.565692e+006
3.051812e+002, 1.567239e+006
3.056633e+002, 1.568254e+006
3.061454e+002, 1.568490e+006
3.066276e+002, 1.568585e+006
3.071097e+002, 1.569090e+006
3.075918e+002, 1.569987e+006
3.080739e+002, 1.570950e+006
3.085560e+002, 1.571896e+006
3.090381e+002, 1.572845e+006
3.095203e+002, 1.573856e+006
3.100024e+002, 1.574947e+006
3.104845e+002, 1.575922e+006
3.109666e+002, 1.576485e+006
3.114487e+002, 1.576754e+006
3.119308e+002, 1.577347e+006
3.124130e+002, 1.578473e+006
3.128951e+002, 1.579811e+006
3.133772e+002, 1.581107e+006
3.138593e+002, 1.582351e+006
3.143414e+002, 1.583449e+006
3.148235e+002, 1.584229e+006
3.153057e+002, 1.584831e+006
3.157878e+002, 1.585716e+006
3.162699e+002, 1.587088e+006
3.167520e+002, 1.588324e+006
3.172341e+002, 1.588810e+006
3.177162e+002, 1.588819e+006
3.181984e+002, 1.588917e+006
3.186805e+002, 1.589362e+006
3.191626e+002, 1.589996e+006
3.196447e+002, 1.590560e+006
3.201268e+002, 1.591035e+006
3.206089e+002, 1.591575e+006
3.210911e+002, 1.592360e+006
3.215732e+002, 1.593251e+006
3.220553e+002, 1.594070e+006
3.225374e+002, 1.594834e+006
3.230195e+002, 1.595439e+006
3.235016e+002, 1.595642e+006
3.239838e+002, 1.595438e+006
3.244659e+002, 1.595452e+006
3.249480e+002, 1.596024e+006
3.254301e+002, 1.596876e+006
3.259122e+002, 1.597627e+006
3.263943e+002, 1.598229e+006
3.268765e+002, 1.598909e+006
3.273586e+002, 1.599897e+006
3.278407e+002, 1.601139e+006
3.283228e+002, 1.602290e+006
3.288049e+002, 1.603237e+006
3.292870e+002, 1.604114e+006
3.297692e+002, 1.605097e+006
3.302513e+002, 1.606166e+006
3.307334e+002, 1.607120e+006
3.312155e+002, 1.607816e+006
3.316976e+002, 1.608327e+006
3.321797e+002, 1.608760e+006
3.326619e+002, 1.609041e+006
3.331440e+002, 1.609479e+006
3.336261e+002, 1.610516e+006
3.341082e+002, 1.611918e+006
3.345903e+002, 1.613153e+006
3.350724e+002, 1.613806e+006
3.355546e+002, 1.614326e+006
3.360367e+002, 1.615412e+006
3.365188e+002, 1.617129e+006
3.370009e+002, 1.618701e+006
3.374830e+002, 1.619567e+006
3.379651e+002, 1.620026e+006
3.384473e+002, 1.620644e+006
3.389294e+002, 1.621537e+006
3.394115e+002, 1.622517e+006
3.398936e+002, 1.623501e+006
3.403757e+002, 1.624475e+006
3.408578e+002, 1.625260e+006
3.413400e+002, 1.625695e+006
3.418221e+002, 1.626009e+006
3.423042e+002, 1.626541e+006
3.427863e+002, 1.627311e+006
3.432684e+002, 1.628164e+006
3.437505e+002, 1.629043e+006
3.442327e+002, 1.629947e+006
3.447148e+002, 1.630888e+006
3.451969e+002, 1.631889e+006
3.456790e+002, 1.632864e+006
3.461611e+002, 1.633656e+006
3.466432e+002, 1.634295e+006
3.471254e+002, 1.635015e+006
3.476075e+002, 1.635901e+006
3.480896e+002, 1.636884e+006
3.485717e+002, 1.637985e+006
3.490538e+002, 1.639223e+006
3.495359e+002, 1.640181e+006
3.500181e+002, 1.640392e+006
3.505002e+002, 1.640037e+006
3.509823e+002, 1.640009e+006
3.514644e+002, 1.640403e+006
3.519465e+002, 1.641095e+006
3.524286e+002, 1.642219e+006
3.529108e+002, 1.643650e+006
3.533929e+002, 1.644769e+006
3.538750e+002, 1.645149e+006
3.543571e+002, 1.645147e+006
3.548392e+002, 1.645667e+006
3.553214e+002, 1.646833e+006
3.558035e+002, 1.648130e+006
3.562856e+002, 1.649617e+006
3.567677e+002, 1.651065e+006
3.572498e+002, 1.651977e+006
3.577319e+002, 1.652163e+006
3.582141e+002, 1.652062e+006
3.586962e+002, 1.652268e+006
3.591783e+002, 1.652841e+006
3.596604e+002, 1.653377e+006
3.601425e+002, 1.653731e+006
3.606246e+002, 1.654099e+006
3.611068e+002, 1.654726e+006
3.615889e+002, 1.655618e+006
3.620710e+002, 1.656496e+006
3.625531e+002, 1.657118e+006
3.630352e+002, 1.657489e+006
3.635173e+002, 1.657928e+006
3.639995e+002, 1.658525e+006
3.644816e+002, 1.659099e+006
3.649637e+002, 1.659455e+006
3.654458e+002, 1.659707e+006
3.659279e+002, 1.660183e+006
3.664100e+002, 1.661079e+006
3.668922e+002, 1.662240e+006
3.673743e+002, 1.663131e+006
3.678564e+002, 1.663211e+006
3.683385e+002, 1.663790e+006
3.688206e+002, 1.665593e+006
3.693027e+002, 1.667738e+006
3.697849e+002, 1.669163e+006
3.702670e+002, 1.669577e+006
3.707491e+002, 1.669496e+006
3.712312e+002, 1.669628e+006
3.717133e+002, 1.670104e+006
3.721954e+002, 1.670377e+006
3.726776e+002, 1.670251e+006
3.731597e+002, 1.670105e+006
3.736418e+002, 1.670149e+006
3.741239e+002, 1.670396e+006
3.746060e+002, 1.670771e+006
3.750881e+002, 1.671221e+006
3.755703e+002, 1.671749e+006
3.760524e+002, 1.672387e+006
3.765345e+002, 1.673424e+006
3.770166e+002, 1.674260e+006
3.774987e+002, 1.674614e+006
3.779808e+002, 1.674727e+006
3.784630e+002, 1.674904e+006
3.789451e+002, 1.675285e+006
3.794272e+002, 1.675898e+006
3.799093e+002, 1.676835e+006
3.803914e+002, 1.678431e+006
3.808735e+002, 1.679804e+006
3.813557e+002, 1.680816e+006
3.818378e+002, 1.681684e+006
3.823199e+002, 1.682569e+006
3.828020e+002, 1.683493e+006
3.832841e+002, 1.684364e+006
3.837662e+002, 1.685015e+006
3.842484e+002, 1.685360e+006
3.847305e+002, 1.686073e+006
3.852126e+002, 1.687651e+006
3.856947e+002, 1.689115e+006
3.861768e+002, 1.690024e+006
3.866589e+002, 1.690578e+006
3.871411e+002, 1.691231e+006
3.876232e+002, 1.692278e+006
3.881053e+002, 1.693585e+006
3.885874e+002, 1.694676e+006
3.890695e+002, 1.695509e+006
3.895516e+002, 1.696183e+006
3.900338e+002, 1.696522e+006
3.905159e+002, 1.696853e+006
3.909980e+002, 1.697567e+006
3.914801e+002, 1.698769e+006
3.919622e+002, 1.700028e+006
3.924443e+002, 1.700654e+006
3.929265e+002, 1.700524e+006
3.934086e+002, 1.701004e+006
3.938907e+002, 1.702833e+006
3.943728e+002, 1.704806e+006
3.948549e+002, 1.706243e+006
3.953370e+002, 1.707210e+006
3.958192e+002, 1.708077e+006
3.963013e+002, 1.709073e+006
3.967834e+002, 1.710155e+006
3.972655e+002, 1.711142e+006
3.977476e+002, 1.711991e+006
3.982297e+002, 1.712862e+006
3.987119e+002, 1.713819e+006
3.991940e+002, 1.714850e+006
3.996761e+002, 1.715944e+006
4.001582e+002, 1.717104e+006
4.006403e+002, 1.718303e+006
4.011224e+002, 1.719453e+006
4.016046e+002, 1.720573e+006
4.020867e+002, 1.721911e+006
4.025688e+002, 1.723694e+006
4.030509e+002, 1.725547e+006
4.035330e+002, 1.726967e+006
4.040151e+002, 1.727942e+006
4.044973e+002, 1.729010e+006
4.049794e+002, 1.730413e+006
4.054615e+002, 1.732061e+006
4.059436e+002, 1.733878e+006
4.064257e+002, 1.735878e+006
4.069078e+002, 1.737790e+006
4.073900e+002, 1.739369e+006
4.078721e+002, 1.740650e+006
4.083542e+002, 1.741879e+006
4.088363e+002, 1.742793e+006
4.093184e+002, 1.743919e+006
4.098005e+002, 1.745739e+006
4.102827e+002, 1.748089e+006
4.107648e+002, 1.750362e+006
4.112469e+002, 1.752278e+006
4.117290e+002, 1.753986e+006
4.122111e+002, 1.755799e+006
4.126932e+002, 1.757705e+006
4.131754e+002, 1.759699e+006
4.136575e+002, 1.761761e+006
4.141396e+002, 1.763909e+006
4.146217e+002, 1.766252e+006
4.151038e+002, 1.768773e+006
4.155859e+002, 1.771226e+006
4.160681e+002, 1.773349e+006
4.165502e+002, 1.775096e+006
4.170323e+002, 1.776915e+006
4.175144e+002, 1.778763e+006
4.179965e+002, 1.780705e+006
4.184786e+002, 1.782659e+006
4.189608e+002, 1.784735e+006
4.194429e+002, 1.787180e+006
4.199250e+002, 1.790136e+006
4.204071e+002, 1.793446e+006
4.208892e+002, 1.796692e+006
4.213713e+002, 1.800042e+006
4.218535e+002, 1.803039e+006
4.223356e+002, 1.805620e+006
4.228177e+002, 1.807933e+006
4.232998e+002, 1.809979e+006
4.237819e+002, 1.811829e+006
4.242640e+002, 1.813655e+006
4.247462e+002, 1.815593e+006
4.252283e+002, 1.817632e+006
4.257104e+002, 1.820025e+006
4.261925e+002, 1.823273e+006
4.266746e+002, 1.826332e+006
4.271567e+002, 1.828766e+006
4.276389e+002, 1.830851e+006
4.281210e+002, 1.832966e+006
4.286031e+002, 1.835268e+006
4.290852e+002, 1.837808e+006
4.295673e+002, 1.840801e+006
4.300494e+002, 1.844495e+006
4.305316e+002, 1.847783e+006
4.310137e+002, 1.850181e+006
4.314958e+002, 1.852215e+006
4.319779e+002, 1.854105e+006
4.324600e+002, 1.855901e+006
4.329421e+002, 1.857679e+006
4.334243e+002, 1.859352e+006
4.339064e+002, 1.861026e+006
4.343885e+002, 1.863279e+006
4.348706e+002, 1.866432e+006
4.353527e+002, 1.869499e+006
4.358348e+002, 1.871749e+006
4.363170e+002, 1.873507e+006
4.367991e+002, 1.875326e+006
4.372812e+002, 1.877461e+006
4.377633e+002, 1.879498e+006
4.382454e+002, 1.881006e+006
4.387275e+002, 1.882040e+006
4.392097e+002, 1.882917e+006
4.396918e+002, 1.883645e+006
4.401739e+002, 1.884393e+006
4.406560e+002, 1.885395e+006
4.411381e+002, 1.886631e+006
4.416202e+002, 1.888085e+006
4.421024e+002, 1.890219e+006
4.425845e+002, 1.892312e+006
4.430666e+002, 1.893530e+006
4.435487e+002, 1.893810e+006
4.440308e+002, 1.893510e+006
4.445129e+002, 1.892782e+006
4.449951e+002, 1.891690e+006
4.454772e+002, 1.890816e+006
4.459593e+002, 1.890362e+006
4.464414e+002, 1.889871e+006
4.469235e+002, 1.889281e+006
4.474056e+002, 1.888551e+006
4.478878e+002, 1.887613e+006
4.483699e+002, 1.886448e+006
4.488520e+002, 1.885121e+006
4.493341e+002, 1.883729e+006
4.498162e+002, 1.882326e+006
4.502983e+002, 1.880692e+006
4.507805e+002, 1.878654e+006
4.512626e+002, 1.876586e+006
4.517447e+002, 1.874745e+006
4.522268e+002, 1.873041e+006
4.527089e+002, 1.871175e+006
4.531910e+002, 1.868944e+006
4.536732e+002, 1.866428e+006
4.541553e+002, 1.863974e+006
4.546374e+002, 1.861580e+006
4.551195e+002, 1.859245e+006
4.556016e+002, 1.856938e+006
4.560837e+002, 1.854699e+006
4.565659e+002, 1.852635e+006
4.570480e+002, 1.850724e+006
4.575301e+002, 1.848784e+006
4.580122e+002, 1.846586e+006
4.584943e+002, 1.844127e+006
4.589764e+002, 1.841745e+006
4.594586e+002, 1.839510e+006
4.599407e+002, 1.837265e+006
4.604228e+002, 1.834741e+006
4.609049e+002, 1.832188e+006
4.613870e+002, 1.830120e+006
4.618691e+002, 1.828968e+006
4.623513e+002, 1.827962e+006
4.628334e+002, 1.826082e+006
4.633155e+002, 1.823364e+006
4.637976e+002, 1.820723e+006
4.642797e+002, 1.818442e+006
4.647618e+002, 1.816367e+006
4.652440e+002, 1.814237e+006
4.657261e+002, 1.812035e+006
4.662082e+002, 1.810123e+006
4.666903e+002, 1.808733e+006
4.671724e+002, 1.807632e+006
4.676545e+002, 1.806585e+006
4.681367e+002, 1.805571e+006
4.686188e+002, 1.804550e+006
4.691009e+002, 1.803521e+006
4.695830e+002, 1.802466e+006
4.700651e+002, 1.801270e+006
4.705472e+002, 1.799775e+006
4.710294e+002, 1.798365e+006
4.715115e+002, 1.797064e+006
4.719936e+002, 1.795929e+006
4.724757e+002, 1.795069e+006
4.729578e+002, 1.794499e+006
4.734399e+002, 1.794069e+006
4.739221e+002, 1.793622e+006
4.744042e+002, 1.793188e+006
4.748863e+002, 1.792543e+006
4.753684e+002, 1.791515e+006
4.758505e+002, 1.790477e+006
4.763326e+002, 1.789540e+006
4.768148e+002, 1.788692e+006
4.772969e+002, 1.787910e+006
4.777790e+002, 1.787192e+006
4.782611e+002, 1.786495e+006
4.787432e+002, 1.785728e+006
4.792253e+002, 1.784860e+006
4.797075e+002, 1.784037e+006
4.801896e+002, 1.783060e+006
4.806717e+002, 1.782329e+006
4.811538e+002, 1.782303e+006
4.816359e+002, 1.782813e+006
4.821180e+002, 1.783128e+006
4.826002e+002, 1.782648e+006
4.830823e+002, 1.781658e+006
4.835644e+002, 1.780950e+006
4.840465e+002, 1.780570e+006
4.845286e+002, 1.780329e+006
4.850107e+002, 1.780211e+006
4.854929e+002, 1.780159e+006
4.859750e+002, 1.780111e+006
4.864571e+002, 1.780062e+006
4.869392e+002, 1.780005e+006
4.874213e+002, 1.779893e+006
4.879034e+002, 1.779772e+006
4.883856e+002, 1.779781e+006
4.888677e+002, 1.779962e+006
4.893498e+002, 1.780091e+006
4.898319e+002, 1.779888e+006
4.903140e+002, 1.779408e+006
4.907961e+002, 1.779321e+006
4.912783e+002, 1.780090e+006
4.917604e+002, 1.780759e+006
4.922425e+002, 1.780801e+006
4.927246e+002, 1.780459e+006
4.932067e+002, 1.780162e+006
4.936888e+002, 1.780063e+006
4.941710e+002, 1.780125e+006
4.946531e+002, 1.780290e+006
4.951352e+002, 1.780547e+006
4.956173e+002, 1.780973e+006
4.960994e+002, 1.781821e+006
4.965815e+002, 1.782565e+006
4.970637e+002, 1.782844e+006
4.975458e+002, 1.782820e+006
4.980279e+002, 1.782900e+006
4.985100e+002, 1.783337e+006
4.989921e+002, 1.783898e+006
4.994742e+002, 1.783939e+006
4.999564e+002, 1.783178e+006
5.004385e+002, 1.782591e+006
5.009206e+002, 1.782219e+006
5.014027e+002, 1.782118e+006
5.018848e+002, 1.782415e+006
5.023669e+002, 1.783060e+006
5.028491e+002, 1.783815e+006
5.033312e+002, 1.784573e+006
5.038133e+002, 1.785314e+006
5.042954e+002, 1.786040e+006
5.047775e+002, 1.786817e+006
5.052596e+002, 1.787263e+006
5.057418e+002, 1.786918e+006
5.062239e+002, 1.786295e+006
5.067060e+002, 1.786156e+006
5.071881e+002, 1.786643e+006
5.076702e+002, 1.787189e+006
5.081523e+002, 1.787424e+006
5.086345e+002, 1.787568e+006
5.091166e+002, 1.788022e+006
5.095987e+002, 1.788847e+006
5.100808e+002, 1.789785e+006
5.105629e+002, 1.790709e+006
5.110450e+002, 1.791571e+006
5.115272e+002, 1.791962e+006
5.120093e+002, 1.791528e+006
5.124914e+002, 1.791096e+006
5.129735e+002, 1.790653e+006
5.134556e+002, 1.790448e+006
5.139377e+002, 1.790988e+006
5.144199e+002, 1.792335e+006
5.149020e+002, 1.793796e+006
5.153841e+002, 1.794489e+006
5.158662e+002, 1.794337e+006
5.163483e+002, 1.793996e+006
5.168304e+002, 1.793169e+006
5.173126e+002, 1.792480e+006
5.177947e+002, 1.791972e+006
5.182768e+002, 1.791760e+006
5.187589e+002, 1.792101e+006
5.192410e+002, 1.793125e+006
5.197231e+002, 1.794312e+006
5.202053e+002, 1.794850e+006
5.206874e+002, 1.794680e+006
5.211695e+002, 1.794658e+006
5.216516e+002, 1.794950e+006
5.221337e+002, 1.795331e+006
5.226158e+002, 1.795794e+006
5.230980e+002, 1.796228e+006
5.235801e+002, 1.796295e+006
5.240622e+002, 1.795506e+006
5.245443e+002, 1.794670e+006
5.250264e+002, 1.794654e+006
5.255085e+002, 1.795379e+006
5.259907e+002, 1.796480e+006
5.264728e+002, 1.798029e+006
5.269549e+002, 1.799492e+006
5.274370e+002, 1.799918e+006
5.279191e+002, 1.799102e+006
5.284012e+002, 1.798720e+006
5.288834e+002, 1.799248e+006
5.293655e+002, 1.800003e+006
5.298476e+002, 1.800518e+006
5.303297e+002, 1.800853e+006
5.308118e+002, 1.801305e+006
5.312939e+002, 1.802046e+006
5.317761e+002, 1.802906e+006
5.322582e+002, 1.803443e+006
5.327403e+002, 1.803267e+006
5.332224e+002, 1.803440e+006
5.337045e+002, 1.804033e+006
5.341866e+002, 1.804846e+006
5.346688e+002, 1.805990e+006
5.351509e+002, 1.807259e+006
5.356330e+002, 1.808133e+006
5.361151e+002, 1.808160e+006
5.365972e+002, 1.807705e+006
5.370793e+002, 1.807811e+006
5.375615e+002, 1.808658e+006
5.380436e+002, 1.809364e+006
5.385257e+002, 1.809494e+006
5.390078e+002, 1.809550e+006
5.394899e+002, 1.810002e+006
5.399720e+002, 1.810860e+006
5.404542e+002, 1.811739e+006
5.409363e+002, 1.812691e+006
5.414184e+002, 1.813451e+006
5.419005e+002, 1.813426e+006
5.423826e+002, 1.812657e+006
5.428647e+002, 1.812092e+006
5.433469e+002, 1.812220e+006
5.438290e+002, 1.812873e+006
5.443111e+002, 1.813682e+006
5.447932e+002, 1.814772e+006
5.452753e+002, 1.815670e+006
5.457574e+002, 1.816093e+006
5.462396e+002, 1.816438e+006
5.467217e+002, 1.817016e+006
5.472038e+002, 1.817843e+006
5.476859e+002, 1.818815e+006
5.481680e+002, 1.819880e+006
5.486501e+002, 1.820992e+006
5.491323e+002, 1.821927e+006
5.496144e+002, 1.822382e+006
5.500965e+002, 1.823192e+006
5.505786e+002, 1.824797e+006
5.510607e+002, 1.826485e+006
5.515428e+002, 1.827730e+006
5.520250e+002, 1.828525e+006
5.525071e+002, 1.829184e+006
5.529892e+002, 1.829891e+006
5.534713e+002, 1.830649e+006
5.539534e+002, 1.831478e+006
5.544355e+002, 1.832371e+006
5.549177e+002, 1.833353e+006
5.553998e+002, 1.834472e+006
5.558819e+002, 1.835662e+006
5.563640e+002, 1.836890e+006
5.568461e+002, 1.838185e+006
5.573282e+002, 1.839247e+006
5.578104e+002, 1.839676e+006
5.582925e+002, 1.839978e+006
5.587746e+002, 1.840887e+006
5.592567e+002, 1.842358e+006
5.597388e+002, 1.843611e+006
5.602209e+002, 1.844121e+006
5.607031e+002, 1.844183e+006
5.611852e+002, 1.844748e+006
5.616673e+002, 1.846349e+006
5.621494e+002, 1.847726e+006
5.626315e+002, 1.848667e+006
5.631136e+002, 1.849537e+006
5.635958e+002, 1.850631e+006
5.640779e+002, 1.851921e+006
5.645600e+002, 1.853143e+006
5.650421e+002, 1.854079e+006
5.655242e+002, 1.854869e+006
5.660063e+002, 1.856055e+006
5.664885e+002, 1.857801e+006
5.669706e+002, 1.859424e+006
5.674527e+002, 1.860685e+006
5.679348e+002, 1.861816e+006
5.684169e+002, 1.862927e+006
5.688990e+002, 1.864032e+006
5.693812e+002, 1.865199e+006
5.698633e+002, 1.866606e+006
5.703454e+002, 1.868011e+006
5.708275e+002, 1.868958e+006
5.713096e+002, 1.869485e+006
5.717917e+002, 1.870137e+006
5.722739e+002, 1.871165e+006
5.727560e+002, 1.872431e+006
5.732381e+002, 1.873683e+006
5.737202e+002, 1.874884e+006
5.742023e+002, 1.876265e+006
5.746844e+002, 1.878025e+006
5.751666e+002, 1.879836e+006
5.756487e+002, 1.881407e+006
5.761308e+002, 1.882842e+006
5.766129e+002, 1.884465e+006
5.770950e+002, 1.886462e+006
5.775771e+002, 1.888637e+006
5.780593e+002, 1.890580e+006
5.785414e+002, 1.892236e+006
5.790235e+002, 1.893779e+006
5.795056e+002, 1.894821e+006
5.799877e+002, 1.896102e+006
5.804698e+002, 1.898219e+006
5.809520e+002, 1.900815e+006
5.814341e+002, 1.903056e+006
5.819162e+002, 1.904465e+006
5.823983e+002, 1.905566e+006
5.828804e+002, 1.906916e+006
5.833625e+002, 1.908533e+006
5.838447e+002, 1.910638e+006
5.843268e+002, 1.913434e+006
5.848089e+002, 1.916393e+006
5.852910e+002, 1.919095e+006
5.857731e+002, 1.921523e+006
5.862552e+002, 1.923390e+006
5.867374e+002, 1.924046e+006
5.872195e+002, 1.924799e+006
5.877016e+002, 1.926305e+006
5.881837e+002, 1.928377e+006
5.886658e+002, 1.930750e+006
5.891479e+002, 1.933324e+006
5.896301e+002, 1.935916e+006
5.901122e+002, 1.938295e+006
5.905943e+002, 1.940419e+006
5.910764e+002, 1.942680e+006
5.915585e+002, 1.945274e+006
5.920406e+002, 1.947770e+006
5.925228e+002, 1.950079e+006
5.930049e+002, 1.952221e+006
5.934870e+002, 1.954107e+006
5.939691e+002, 1.955737e+006
5.944512e+002, 1.957500e+006
5.949333e+002, 1.959952e+006
5.954155e+002, 1.962893e+006
5.958976e+002, 1.965313e+006
5.963797e+002, 1.966977e+006
5.968618e+002, 1.968971e+006
5.973439e+002, 1.972390e+006
5.978260e+002, 1.976379e+006
5.983082e+002, 1.978768e+006
5.987903e+002, 1.978799e+006
5.992724e+002, 1.979176e+006
5.997545e+002, 1.981069e+006
6.002366e+002, 1.983559e+006
6.007188e+002, 1.985661e+006
6.012009e+002, 1.987334e+006
6.016830e+002, 1.989065e+006
6.021651e+002, 1.991206e+006
6.026472e+002, 1.993615e+006
6.031293e+002, 1.995785e+006
6.036115e+002, 1.997724e+006
6.040936e+002, 1.999376e+006
6.045757e+002, 2.000621e+006
6.050578e+002, 2.001702e+006
6.055399e+002, 2.002803e+006
6.060220e+002, 2.003869e+006
6.065042e+002, 2.004689e+006
6.069863e+002, 2.005057e+006
6.074684e+002, 2.005244e+006
6.079505e+002, 2.005755e+006
6.084326e+002, 2.006581e+006
6.089147e+002, 2.007227e+006
6.093969e+002, 2.007522e+006
6.098790e+002, 2.007688e+006
6.103611e+002, 2.008067e+006
6.108432e+002, 2.008622e+006
6.113253e+002, 2.008728e+006
6.118074e+002, 2.007994e+006
6.122896e+002, 2.007141e+006
6.127717e+002, 2.006637e+006
6.132538e+002, 2.006240e+006
6.137359e+002, 2.005463e+006
6.142180e+002, 2.004178e+006
6.147001e+002, 2.002756e+006
6.151823e+002, 2.001664e+006
6.156644e+002, 2.000926e+006
6.161465e+002, 1.999886e+006
6.166286e+002, 1.998591e+006
6.171107e+002, 1.996890e+006
6.175928e+002, 1.994534e+006
6.180750e+002, 1.991913e+006
6.185571e+002, 1.989344e+006
6.190392e+002, 1.986908e+006
6.195213e+002, 1.984729e+006
6.200034e+002, 1.983074e+006
6.204855e+002, 1.981712e+006
6.209677e+002, 1.980089e+006
6.214498e+002, 1.978189e+006
6.219319e+002, 1.976233e+006
6.224140e+002, 1.974277e+006
6.228961e+002, 1.972406e+006
6.233782e+002, 1.970840e+006
6.238604e+002, 1.969765e+006
6.243425e+002, 1.968409e+006
6.248246e+002, 1.966401e+006
6.253067e+002, 1.964352e+006
6.257888e+002, 1.962767e+006
6.262709e+002, 1.961470e+006
6.267531e+002, 1.959913e+006
6.272352e+002, 1.957828e+006
6.277173e+002, 1.955485e+006
6.281994e+002, 1.953340e+006
6.286815e+002, 1.951354e+006
6.291636e+002, 1.949736e+006
6.296458e+002, 1.949010e+006
6.301279e+002, 1.947965e+006
6.306100e+002, 1.945498e+006
6.310921e+002, 1.942444e+006
6.315742e+002, 1.940384e+006
6.320563e+002, 1.939968e+006
6.325385e+002, 1.939808e+006
6.330206e+002, 1.938898e+006
6.335027e+002, 1.937543e+006
6.339848e+002, 1.936381e+006
6.344669e+002, 1.935505e+006
6.349490e+002, 1.934506e+006
6.354312e+002, 1.933051e+006
6.359133e+002, 1.931263e+006
6.363954e+002, 1.929686e+006
6.368775e+002, 1.928264e+006
6.373596e+002, 1.927183e+006
6.378417e+002, 1.926787e+006
6.383239e+002, 1.926467e+006
6.388060e+002, 1.925796e+006
6.392881e+002, 1.924798e+006
6.397702e+002, 1.923692e+006
6.402523e+002, 1.922570e+006
6.407344e+002, 1.921503e+006
6.412166e+002, 1.920664e+006
6.416987e+002, 1.920054e+006
6.421808e+002, 1.919464e+006
6.426629e+002, 1.918881e+006
6.431450e+002, 1.918243e+006
6.436271e+002, 1.917338e+006
6.441093e+002, 1.916290e+006
6.445914e+002, 1.915635e+006
6.450735e+002, 1.915919e+006
6.455556e+002, 1.916076e+006
6.460377e+002, 1.915393e+006
6.465198e+002, 1.914376e+006
6.470020e+002, 1.913794e+006
6.474841e+002, 1.913767e+006
6.479662e+002, 1.913865e+006
6.484483e+002, 1.913727e+006
6.489304e+002, 1.913366e+006
6.494125e+002, 1.912833e+006
6.498947e+002, 1.912052e+006
6.503768e+002, 1.911246e+006
6.508589e+002, 1.910184e+006
6.513410e+002, 1.909323e+006
6.518231e+002, 1.909220e+006
6.523052e+002, 1.909698e+006
6.527874e+002, 1.909834e+006
6.532695e+002, 1.908917e+006
6.537516e+002, 1.907655e+006
6.542337e+002, 1.906811e+006
6.547158e+002, 1.906362e+006
6.551979e+002, 1.906253e+006
6.556801e+002, 1.906500e+006
6.561622e+002, 1.906934e+006
6.566443e+002, 1.907464e+006
6.571264e+002, 1.908123e+006
6.576085e+002, 1.908201e+006
6.580906e+002, 1.907133e+006
6.585728e+002, 1.906287e+006
6.590549e+002, 1.906268e+006
6.595370e+002, 1.906463e+006
6.600191e+002, 1.906225e+006
6.605012e+002, 1.905472e+006
6.609833e+002, 1.904534e+006
6.614655e+002, 1.903652e+006
6.619476e+002, 1.902808e+006
6.624297e+002, 1.901855e+006
6.629118e+002, 1.900716e+006
6.633939e+002, 1.900183e+006
6.638760e+002, 1.900897e+006
6.643582e+002, 1.901852e+006
6.648403e+002, 1.901620e+006
6.653224e+002, 1.900319e+006
6.658045e+002, 1.899626e+006
6.662866e+002, 1.900107e+006
6.667687e+002, 1.900943e+006
6.672509e+002, 1.902128e+006
6.677330e+002, 1.903217e+006
6.682151e+002, 1.903393e+006
6.686972e+002, 1.902504e+006
6.691793e+002, 1.901227e+006
6.696614e+002, 1.900130e+006
6.701436e+002, 1.899258e+006
6.706257e+002, 1.899324e+006
6.711078e+002, 1.900984e+006
6.715899e+002, 1.902223e+006
6.720720e+002, 1.902122e+006
6.725541e+002, 1.901637e+006
6.730363e+002, 1.901464e+006
6.735184e+002, 1.901628e+006
6.740005e+002, 1.901847e+006
6.744826e+002, 1.902033e+006
6.749647e+002, 1.902184e+006
6.754468e+002, 1.902415e+006
6.759290e+002, 1.902612e+006
6.764111e+002, 1.902308e+006
6.768932e+002, 1.901346e+006
6.773753e+002, 1.900382e+006
6.778574e+002, 1.900218e+006
6.783395e+002, 1.900889e+006
6.788217e+002, 1.901502e+006
6.793038e+002, 1.902474e+006
6.797859e+002, 1.902842e+006
6.802680e+002, 1.902067e+006
6.807501e+002, 1.900893e+006
6.812322e+002, 1.899836e+006
6.817144e+002, 1.899036e+006
6.821965e+002, 1.898616e+006
6.826786e+002, 1.898857e+006
6.831607e+002, 1.899401e+006
6.836428e+002, 1.899663e+006
6.841249e+002, 1.899673e+006
6.846071e+002, 1.899638e+006
6.850892e+002, 1.899584e+006
6.855713e+002, 1.899613e+006
6.860534e+002, 1.899845e+006
6.865355e+002, 1.900282e+006
6.870176e+002, 1.900732e+006
6.874998e+002, 1.901535e+006
6.879819e+002, 1.901896e+006
6.884640e+002, 1.901330e+006
6.889461e+002, 1.900401e+006
6.894282e+002, 1.899543e+006
6.899103e+002, 1.898900e+006
6.903925e+002, 1.898587e+006
6.908746e+002, 1.898795e+006
6.913567e+002, 1.899309e+006
6.918388e+002, 1.899659e+006
6.923209e+002, 1.899853e+006
6.928030e+002, 1.899849e+006
6.932852e+002, 1.899588e+006
6.937673e+002, 1.899251e+006
6.942494e+002, 1.899049e+006
6.947315e+002, 1.898971e+006
6.952136e+002, 1.898776e+006
6.956957e+002, 1.898235e+006
6.961779e+002, 1.897849e+006
6.966600e+002, 1.898024e+006
6.971421e+002, 1.898301e+006
6.976242e+002, 1.897988e+006
6.981063e+002, 1.897141e+006
6.985884e+002, 1.896548e+006
6.990706e+002, 1.896833e+006
6.995527e+002, 1.897745e+006
7.000348e+002, 1.898691e+006
7.005169e+002, 1.899742e+006
7.009990e+002, 1.900294e+006
7.014811e+002, 1.900016e+006
7.019633e+002, 1.899502e+006
7.024454e+002, 1.899115e+006
7.029275e+002, 1.898880e+006
7.034096e+002, 1.898950e+006
7.038917e+002, 1.899694e+006
7.043738e+002, 1.900252e+006
7.048560e+002, 1.899928e+006
7.053381e+002, 1.899413e+006
7.058202e+002, 1.899614e+006
7.063023e+002, 1.900533e+006
7.067844e+002, 1.901556e+006
7.072665e+002, 1.902293e+006
7.077487e+002, 1.902731e+006
7.082308e+002, 1.902758e+006
7.087129e+002, 1.902261e+006
7.091950e+002, 1.901902e+006
7.096771e+002, 1.901987e+006
7.101592e+002, 1.901916e+006
7.106414e+002, 1.901086e+006
7.111235e+002, 1.899871e+006
7.116056e+002, 1.899088e+006
7.120877e+002, 1.899053e+006
7.125698e+002, 1.899056e+006
7.130519e+002, 1.898547e+006
7.135341e+002, 1.898028e+006
7.140162e+002, 1.898258e+006
7.144983e+002, 1.899123e+006
7.149804e+002, 1.899945e+006
7.154625e+002, 1.900369e+006
7.159446e+002, 1.900286e+006
7.164268e+002, 1.899140e+006
7.169089e+002, 1.896308e+006
7.173910e+002, 1.895295e+006
7.178731e+002, 1.897596e+006
7.183552e+002, 1.899797e+006
7.188373e+002, 1.900143e+006
7.193195e+002, 1.899482e+006
7.198016e+002, 1.899009e+006
7.202837e+002, 1.898935e+006
7.207658e+002, 1.898790e+006
7.212479e+002, 1.898035e+006
7.217300e+002, 1.897317e+006
7.222122e+002, 1.897531e+006
7.226943e+002, 1.898446e+006
7.231764e+002, 1.899169e+006
7.236585e+002, 1.899310e+006
7.241406e+002, 1.899036e+006
7.246227e+002, 1.898489e+006
7.251049e+002, 1.897571e+006
7.255870e+002, 1.897327e+006
7.260691e+002, 1.898239e+006
7.265512e+002, 1.899036e+006
7.270333e+002, 1.899334e+006
7.275154e+002, 1.899279e+006
7.279976e+002, 1.898811e+006
7.284797e+002, 1.897951e+006
7.289618e+002, 1.897465e+006
7.294439e+002, 1.897831e+006
7.299260e+002, 1.898565e+006
7.304081e+002, 1.899533e+006
7.308903e+002, 1.900483e+006
7.313724e+002, 1.900771e+006
7.318545e+002, 1.900241e+006
7.323366e+002, 1.899474e+006
7.328187e+002, 1.899069e+006
7.333008e+002, 1.899004e+006
7.337830e+002, 1.898990e+006
7.342651e+002, 1.899191e+006
7.347472e+002, 1.899106e+006
7.352293e+002, 1.898218e+006
7.357114e+002, 1.897357e+006
7.361935e+002, 1.897347e+006
7.366757e+002, 1.897957e+006
7.371578e+002, 1.898045e+006
7.376399e+002, 1.896700e+006
7.381220e+002, 1.895472e+006
7.386041e+002, 1.895788e+006
7.390862e+002, 1.896740e+006
7.395684e+002, 1.896749e+006
7.400505e+002, 1.895696e+006
7.405326e+002, 1.894640e+006
7.410147e+002, 1.894348e+006
7.414968e+002, 1.894595e+006
7.419789e+002, 1.894702e+006
7.424611e+002, 1.894593e+006
7.429432e+002, 1.894597e+006
7.434253e+002, 1.894757e+006
7.439074e+002, 1.895013e+006
7.443895e+002, 1.895631e+006
7.448716e+002, 1.896242e+006
7.453538e+002, 1.896036e+006
7.458359e+002, 1.894577e+006
7.463180e+002, 1.893332e+006
7.468001e+002, 1.892812e+006
7.472822e+002, 1.892944e+006
7.477643e+002, 1.894156e+006
7.482465e+002, 1.895983e+006
7.487286e+002, 1.897007e+006
7.492107e+002, 1.896581e+006
7.496928e+002, 1.895599e+006
7.501749e+002, 1.895485e+006
7.506570e+002, 1.896311e+006
7.511392e+002, 1.896477e+006
7.516213e+002, 1.895617e+006
7.521034e+002, 1.894952e+006
7.525855e+002, 1.895263e+006
7.530676e+002, 1.895798e+006
7.535497e+002, 1.895483e+006
7.540319e+002, 1.894266e+006
7.545140e+002, 1.893508e+006
7.549961e+002, 1.893735e+006
7.554782e+002, 1.894281e+006
7.559603e+002, 1.895006e+006
7.564424e+002, 1.895670e+006
7.569246e+002, 1.895809e+006
7.574067e+002, 1.895408e+006
7.578888e+002, 1.895107e+006
7.583709e+002, 1.895612e+006
7.588530e+002, 1.896456e+006
7.593351e+002, 1.895723e+006
7.598173e+002, 1.893099e+006
7.602994e+002, 1.891710e+006
7.607815e+002, 1.892722e+006
7.612636e+002, 1.894250e+006
7.617457e+002, 1.894839e+006
7.622278e+002, 1.894611e+006
7.627100e+002, 1.894217e+006
7.631921e+002, 1.893526e+006
7.636742e+002, 1.892922e+006
7.641563e+002, 1.892636e+006
7.646384e+002, 1.892383e+006
7.651205e+002, 1.891836e+006
7.656027e+002, 1.891129e+006
7.660848e+002, 1.890694e+006
7.665669e+002, 1.890748e+006
7.670490e+002, 1.890903e+006
7.675311e+002, 1.890573e+006
7.680132e+002, 1.889865e+006
7.684954e+002, 1.889321e+006
7.689775e+002, 1.888946e+006
7.694596e+002, 1.888976e+006
7.699417e+002, 1.889620e+006
7.704238e+002, 1.890580e+006
7.709059e+002, 1.891329e+006
7.713881e+002, 1.891726e+006
7.718702e+002, 1.892423e+006
7.723523e+002, 1.894077e+006
7.728344e+002, 1.895221e+006
7.733165e+002, 1.894813e+006
7.737986e+002, 1.893939e+006
7.742808e+002, 1.893919e+006
7.747629e+002, 1.894851e+006
7.752450e+002, 1.895747e+006
7.757271e+002, 1.895915e+006
7.762092e+002, 1.895700e+006
7.766913e+002, 1.895495e+006
7.771735e+002, 1.895339e+006
7.776556e+002, 1.895411e+006
7.781377e+002, 1.895757e+006
7.786198e+002, 1.896228e+006
7.791019e+002, 1.896709e+006
7.795840e+002, 1.897192e+006
7.800662e+002, 1.897657e+006
7.805483e+002, 1.898397e+006
7.810304e+002, 1.898549e+006
7.815125e+002, 1.897346e+006
7.819946e+002, 1.896274e+006
7.824767e+002, 1.896228e+006
7.829589e+002, 1.896787e+006
7.834410e+002, 1.897066e+006
7.839231e+002, 1.896775e+006
7.844052e+002, 1.896606e+006
7.848873e+002, 1.897291e+006
7.853694e+002, 1.898126e+006
7.858516e+002, 1.898117e+006
7.863337e+002, 1.897454e+006
7.868158e+002, 1.896932e+006
7.872979e+002, 1.896872e+006
7.877800e+002, 1.897138e+006
7.882621e+002, 1.897654e+006
7.887443e+002, 1.898400e+006
7.892264e+002, 1.898494e+006
7.897085e+002, 1.897522e+006
7.901906e+002, 1.897090e+006
7.906727e+002, 1.898077e+006
7.911548e+002, 1.899385e+006
7.916370e+002, 1.899881e+006
7.921191e+002, 1.899674e+006
7.926012e+002, 1.899507e+006
7.930833e+002, 1.899177e+006
7.935654e+002, 1.899277e+006
7.940475e+002, 1.900336e+006
7.945297e+002, 1.901709e+006
7.950118e+002, 1.902864e+006
7.954939e+002, 1.903692e+006
7.959760e+002, 1.904179e+006
7.964581e+002, 1.904312e+006
7.969402e+002, 1.904142e+006
7.974224e+002, 1.903544e+006
7.979045e+002, 1.902636e+006
7.983866e+002, 1.902414e+006
7.988687e+002, 1.903054e+006
7.993508e+002, 1.903430e+006
7.998329e+002, 1.902881e+006
8.003151e+002, 1.901862e+006
8.007972e+002, 1.901249e+006
8.012793e+002, 1.901226e+006
8.017614e+002, 1.900890e+006
8.022435e+002, 1.899881e+006
8.027256e+002, 1.899046e+006
8.032078e+002, 1.898611e+006
8.036899e+002, 1.898500e+006
8.041720e+002, 1.898464e+006
8.046541e+002, 1.898593e+006
8.051362e+002, 1.899539e+006
8.056183e+002, 1.902411e+006
8.061005e+002, 1.905384e+006
8.065826e+002, 1.906483e+006
8.070647e+002, 1.906251e+006
8.075468e+002, 1.905699e+006
8.080289e+002, 1.905081e+006
8.085110e+002, 1.904757e+006
8.089932e+002, 1.905035e+006
8.094753e+002, 1.905602e+006
8.099574e+002, 1.905550e+006
8.104395e+002, 1.904663e+006
8.109216e+002, 1.904139e+006
8.114037e+002, 1.904218e+006
8.118859e+002, 1.904349e+006
8.123680e+002, 1.904408e+006
8.128501e+002, 1.904277e+006
8.133322e+002, 1.903565e+006
8.138143e+002, 1.902061e+006
8.142964e+002, 1.901416e+006
8.147786e+002, 1.902428e+006
8.152607e+002, 1.903947e+006
8.157428e+002, 1.905819e+006
8.162249e+002, 1.907528e+006
8.167070e+002, 1.908261e+006
8.171891e+002, 1.907983e+006
8.176713e+002, 1.907462e+006
8.181534e+002, 1.907211e+006
8.186355e+002, 1.907175e+006
8.191176e+002, 1.907325e+006
8.195997e+002, 1.907622e+006
8.200818e+002, 1.907781e+006
8.205640e+002, 1.907729e+006
8.210461e+002, 1.907660e+006
8.215282e+002, 1.907674e+006
8.220103e+002, 1.907804e+006
8.224924e+002, 1.908183e+006
8.229745e+002, 1.909042e+006
8.234567e+002, 1.909629e+006
8.239388e+002, 1.909748e+006
8.244209e+002, 1.909833e+006
8.249030e+002, 1.910332e+006
8.253851e+002, 1.910754e+006
8.258672e+002, 1.910185e+006
8.263494e+002, 1.908551e+006
8.268315e+002, 1.907589e+006
8.273136e+002, 1.908846e+006
8.277957e+002, 1.910441e+006
8.282778e+002, 1.910822e+006
8.287599e+002, 1.910397e+006
8.292421e+002, 1.909807e+006
8.297242e+002, 1.909263e+006
8.302063e+002, 1.908925e+006
8.306884e+002, 1.908911e+006
8.311705e+002, 1.909178e+006
8.316526e+002, 1.909777e+006
8.321348e+002, 1.910725e+006
8.326169e+002, 1.910982e+006
8.330990e+002, 1.910170e+006
8.335811e+002, 1.909400e+006
8.340632e+002, 1.909262e+006
8.345453e+002, 1.909604e+006
8.350275e+002, 1.910144e+006
8.355096e+002, 1.910951e+006
8.359917e+002, 1.911682e+006
8.364738e+002, 1.912474e+006
8.369559e+002, 1.913004e+006
8.374380e+002, 1.912976e+006
8.379202e+002, 1.912735e+006
8.384023e+002, 1.912743e+006
8.388844e+002, 1.913002e+006
8.393665e+002, 1.913048e+006
8.398486e+002, 1.912456e+006
8.403307e+002, 1.911792e+006
8.408129e+002, 1.911767e+006
8.412950e+002, 1.912072e+006
8.417771e+002, 1.912162e+006
8.422592e+002, 1.911934e+006
8.427413e+002, 1.911252e+006
8.432234e+002, 1.909977e+006
8.437056e+002, 1.908587e+006
8.441877e+002, 1.908135e+006
8.446698e+002, 1.908702e+006
8.451519e+002, 1.909162e+006
8.456340e+002, 1.909431e+006
8.461161e+002, 1.909731e+006
8.465983e+002, 1.910281e+006
8.470804e+002, 1.910772e+006
8.475625e+002, 1.910628e+006
8.480446e+002, 1.909769e+006
8.485267e+002, 1.909408e+006
8.490089e+002, 1.910143e+006
8.494910e+002, 1.910652e+006
8.499731e+002, 1.910231e+006
8.504552e+002, 1.909684e+006
8.509373e+002, 1.909888e+006
8.514194e+002, 1.910657e+006
8.519016e+002, 1.911136e+006
8.523837e+002, 1.910913e+006
8.528658e+002, 1.910497e+006
8.533479e+002, 1.910343e+006
8.538300e+002, 1.910324e+006
8.543121e+002, 1.910132e+006
8.547943e+002, 1.909831e+006
8.552764e+002, 1.909845e+006
8.557585e+002, 1.910361e+006
8.562406e+002, 1.911077e+006
8.567227e+002, 1.911654e+006
8.572048e+002, 1.912073e+006
8.576870e+002, 1.912097e+006
8.581691e+002, 1.911526e+006
8.586512e+002, 1.911375e+006
8.591333e+002, 1.912227e+006
8.596154e+002, 1.913007e+006
8.600975e+002, 1.912531e+006
8.605797e+002, 1.911103e+006
8.610618e+002, 1.910463e+006
8.615439e+002, 1.911214e+006
8.620260e+002, 1.911738e+006
8.625081e+002, 1.911626e+006
8.629902e+002, 1.911503e+006
8.634724e+002, 1.911976e+006
8.639545e+002, 1.912616e+006
8.644366e+002, 1.912595e+006
8.649187e+002, 1.911736e+006
8.654008e+002, 1.910928e+006
8.658829e+002, 1.910820e+006
8.663651e+002, 1.911030e+006
8.668472e+002, 1.911229e+006
8.673293e+002, 1.911370e+006
8.678114e+002, 1.911293e+006
8.682935e+002, 1.910999e+006
8.687756e+002, 1.910797e+006
8.692578e+002, 1.910921e+006
8.697399e+002, 1.911276e+006
8.702220e+002, 1.911714e+006
8.707041e+002, 1.912239e+006
8.711862e+002, 1.912433e+006
8.716683e+002, 1.912116e+006
8.721505e+002, 1.911968e+006
8.726326e+002, 1.912434e+006
8.731147e+002, 1.913142e+006
8.735968e+002, 1.913465e+006
8.740789e+002, 1.913322e+006
8.745610e+002, 1.913197e+006
8.750432e+002, 1.912981e+006
8.755253e+002, 1.912917e+006
8.760074e+002, 1.913339e+006
8.764895e+002, 1.913709e+006
8.769716e+002, 1.913590e+006
8.774537e+002, 1.913013e+006
8.779359e+002, 1.912172e+006
8.784180e+002, 1.910908e+006
8.789001e+002, 1.909965e+006
8.793822e+002, 1.909964e+006
8.798643e+002, 1.910412e+006
8.803464e+002, 1.910986e+006
8.808286e+002, 1.911493e+006
8.813107e+002, 1.911403e+006
8.817928e+002, 1.910590e+006
8.822749e+002, 1.910011e+006
8.827570e+002, 1.911062e+006
8.832391e+002, 1.912994e+006
8.837213e+002, 1.913153e+006
8.842034e+002, 1.911669e+006
8.846855e+002, 1.910715e+006
8.851676e+002, 1.910835e+006
8.856497e+002, 1.911266e+006
8.861318e+002, 1.911474e+006
8.866140e+002, 1.911457e+006
8.870961e+002, 1.911204e+006
8.875782e+002, 1.910667e+006
8.880603e+002, 1.909963e+006
8.885424e+002, 1.908492e+006
8.890245e+002, 1.907672e+006
8.895067e+002, 1.908648e+006
8.899888e+002, 1.910205e+006
8.904709e+002, 1.910864e+006
8.909530e+002, 1.910573e+006
8.914351e+002, 1.910563e+006
8.919172e+002, 1.911503e+006
8.923994e+002, 1.912240e+006
8.928815e+002, 1.912168e+006
8.933636e+002, 1.911778e+006
8.938457e+002, 1.911624e+006
8.943278e+002, 1.911604e+006
8.948099e+002, 1.911228e+006
8.952921e+002, 1.910263e+006
8.957742e+002, 1.909170e+006
8.962563e+002, 1.908277e+006
8.967384e+002, 1.907616e+006
8.972205e+002, 1.907338e+006
8.977026e+002, 1.907373e+006
8.981848e+002, 1.907445e+006
8.986669e+002, 1.907468e+006
8.991490e+002, 1.907577e+006
8.996311e+002, 1.907966e+006
9.001132e+002, 1.908454e+006
9.005953e+002, 1.908105e+006
9.010775e+002, 1.906756e+006
9.015596e+002, 1.906589e+006
9.020417e+002, 1.908323e+006
9.025238e+002, 1.909824e+006
9.030059e+002, 1.909652e+006
9.034880e+002, 1.908605e+006
9.039702e+002, 1.908329e+006
9.044523e+002, 1.909030e+006
9.049344e+002, 1.909624e+006
9.054165e+002, 1.910063e+006
9.058986e+002, 1.910429e+006
9.063807e+002, 1.910767e+006
9.068629e+002, 1.911011e+006
9.073450e+002, 1.910947e+006
9.078271e+002, 1.910713e+006
9.083092e+002, 1.910911e+006
9.087913e+002, 1.912046e+006
9.092734e+002, 1.912912e+006
9.097556e+002, 1.912604e+006
9.102377e+002, 1.912131e+006
9.107198e+002, 1.912495e+006
9.112019e+002, 1.913384e+006
9.116840e+002, 1.914111e+006
9.121661e+002, 1.914455e+006
9.126483e+002, 1.914520e+006
9.131304e+002, 1.914348e+006
9.136125e+002, 1.913996e+006
9.140946e+002, 1.913391e+006
9.145767e+002, 1.912691e+006
9.150588e+002, 1.912526e+006
9.155410e+002, 1.912941e+006
9.160231e+002, 1.913222e+006
9.165052e+002, 1.912883e+006
9.169873e+002, 1.912349e+006
9.174694e+002, 1.912569e+006
9.179515e+002, 1.913590e+006
9.184337e+002, 1.914011e+006
9.189158e+002, 1.913695e+006
9.193979e+002, 1.913349e+006
9.198800e+002, 1.913146e+006
9.203621e+002, 1.913147e+006
9.208442e+002, 1.913557e+006
9.213264e+002, 1.914285e+006
9.218085e+002, 1.914348e+006
9.222906e+002, 1.913139e+006
9.227727e+002, 1.912265e+006
9.232548e+002, 1.911857e+006
9.237369e+002, 1.911727e+006
9.242191e+002, 1.912067e+006
9.247012e+002, 1.912514e+006
9.251833e+002, 1.912448e+006
9.256654e+002, 1.911778e+006
9.261475e+002, 1.911273e+006
9.266296e+002, 1.910908e+006
9.271118e+002, 1.911065e+006
9.275939e+002, 1.912516e+006
9.280760e+002, 1.914177e+006
9.285581e+002, 1.914746e+006
9.290402e+002, 1.914382e+006
9.295223e+002, 1.914115e+006
9.300045e+002, 1.914407e+006
9.304866e+002, 1.914791e+006
9.309687e+002, 1.914674e+006
9.314508e+002, 1.914467e+006
9.319329e+002, 1.915068e+006
9.324150e+002, 1.916141e+006
9.328972e+002, 1.916430e+006
9.333793e+002, 1.915659e+006
9.338614e+002, 1.914875e+006
9.343435e+002, 1.915054e+006
9.348256e+002, 1.915702e+006
9.353077e+002, 1.915414e+006
9.357899e+002, 1.914293e+006
9.362720e+002, 1.913988e+006
9.367541e+002, 1.914755e+006
9.372362e+002, 1.915351e+006
9.377183e+002, 1.915094e+006
9.382004e+002, 1.914597e+006
9.386826e+002, 1.914869e+006
9.391647e+002, 1.915943e+006
9.396468e+002, 1.916220e+006
9.401289e+002, 1.915271e+006
9.406110e+002, 1.914590e+006
9.410931e+002, 1.914707e+006
9.415753e+002, 1.914841e+006
9.420574e+002, 1.914300e+006
9.425395e+002, 1.913397e+006
9.430216e+002, 1.912984e+006
9.435037e+002, 1.913217e+006
9.439858e+002, 1.913497e+006
9.444680e+002, 1.914038e+006
9.449501e+002, 1.914317e+006
9.454322e+002, 1.913822e+006
9.459143e+002, 1.913211e+006
9.463964e+002, 1.913205e+006
9.468785e+002, 1.913750e+006
9.473607e+002, 1.914280e+006
9.478428e+002, 1.914625e+006
9.483249e+002, 1.914868e+006
9.488070e+002, 1.914865e+006
9.492891e+002, 1.914921e+006
9.497712e+002, 1.915315e+006
9.502534e+002, 1.915982e+006
9.507355e+002, 1.916890e+006
9.512176e+002, 1.917951e+006
9.516997e+002, 1.918698e+006
9.521818e+002, 1.918604e+006
9.526639e+002, 1.918217e+006
9.531461e+002, 1.918331e+006
9.536282e+002, 1.918727e+006
9.541103e+002, 1.918892e+006
9.545924e+002, 1.918794e+006
9.550745e+002, 1.918691e+006
9.555566e+002, 1.918716e+006
9.560388e+002, 1.918729e+006
9.565209e+002, 1.918505e+006
9.570030e+002, 1.918113e+006
9.574851e+002, 1.917936e+006
9.579672e+002, 1.917978e+006
9.584493e+002, 1.917688e+006
9.589315e+002, 1.916868e+006
9.594136e+002, 1.916389e+006
9.598957e+002, 1.917049e+006
9.603778e+002, 1.918171e+006
9.608599e+002, 1.917802e+006
9.613420e+002, 1.915371e+006
9.618242e+002, 1.914485e+006
9.623063e+002, 1.915929e+006
9.627884e+002, 1.916959e+006
9.632705e+002, 1.916534e+006
9.637526e+002, 1.915523e+006
9.642347e+002, 1.914625e+006
9.647169e+002, 1.913870e+006
9.651990e+002, 1.913511e+006
9.656811e+002, 1.913851e+006
9.661632e+002, 1.914126e+006
9.666453e+002, 1.914637e+006
9.671274e+002, 1.914745e+006
9.676096e+002, 1.913711e+006
9.680917e+002, 1.912398e+006
9.685738e+002, 1.911971e+006
9.690559e+002, 1.912467e+006
9.695380e+002, 1.912856e+006
9.700201e+002, 1.912565e+006
9.705023e+002, 1.912563e+006
9.709844e+002, 1.913733e+006
9.714665e+002, 1.914836e+006
9.719486e+002, 1.914682e+006
9.724307e+002, 1.913739e+006
9.729128e+002, 1.913100e+006
9.733950e+002, 1.913049e+006
9.738771e+002, 1.912961e+006
9.743592e+002, 1.912345e+006
9.748413e+002, 1.911656e+006
9.753234e+002, 1.911328e+006
9.758055e+002, 1.911165e+006
9.762877e+002, 1.910815e+006
9.767698e+002, 1.910323e+006
9.772519e+002, 1.910032e+006
9.777340e+002, 1.910110e+006
9.782161e+002, 1.910251e+006
9.786982e+002, 1.909912e+006
9.791804e+002, 1.909518e+006
9.796625e+002, 1.910196e+006
9.801446e+002, 1.911538e+006
9.806267e+002, 1.911991e+006
9.811088e+002, 1.911318e+006
9.815909e+002, 1.910681e+006
9.820731e+002, 1.910875e+006
9.825552e+002, 1.911551e+006
9.830373e+002, 1.912170e+006
9.835194e+002, 1.912722e+006
9.840015e+002, 1.913102e+006
9.844836e+002, 1.913310e+006
9.849658e+002, 1.913487e+006
9.854479e+002, 1.913683e+006
9.859300e+002, 1.913844e+006
9.864121e+002, 1.913932e+006
9.868942e+002, 1.913935e+006
9.873763e+002, 1.913691e+006
9.878585e+002, 1.913049e+006
9.883406e+002, 1.913294e+006
9.888227e+002, 1.914831e+006
9.893048e+002, 1.916088e+006
9.897869e+002, 1.916463e+006
9.902690e+002, 1.916158e+006
9.907512e+002, 1.915231e+006
9.912333e+002, 1.913772e+006
9.917154e+002, 1.913011e+006
9.921975e+002, 1.913267e+006
9.926796e+002, 1.913521e+006
9.931617e+002, 1.913510e+006
9.936439e+002, 1.913761e+006
9.941260e+002, 1.915006e+006
9.946081e+002, 1.916384e+006
9.950902e+002, 1.916453e+006
9.955723e+002, 1.915151e+006
9.960544e+002, 1.914510e+006
9.965366e+002, 1.915517e+006
9.970187e+002, 1.915892e+006
9.975008e+002, 1.914449e+006
9.979829e+002, 1.913121e+006
9.984650e+002, 1.913253e+006
9.989471e+002, 1.914234e+006
9.994293e+002, 1.915105e+006
9.999114e+002, 1.915757e+006
1.000393e+003, 1.915816e+006
1.000876e+003, 1.914767e+006
1.001358e+003, 1.913624e+006
1.001840e+003, 1.912375e+006
1.002322e+003, 1.911589e+006
1.002804e+003, 1.912256e+006
1.003286e+003, 1.913679e+006
1.003768e+003, 1.914116e+006
1.004250e+003, 1.913033e+006
1.004733e+003, 1.912164e+006
1.005215e+003, 1.912731e+006
1.005697e+003, 1.913556e+006
1.006179e+003, 1.913811e+006
1.006661e+003, 1.913769e+006
1.007143e+003, 1.913744e+006
1.007625e+003, 1.913794e+006
1.008107e+003, 1.913902e+006
1.008589e+003, 1.914056e+006
1.009072e+003, 1.914267e+006
1.009554e+003, 1.914652e+006
1.010036e+003, 1.914991e+006
1.010518e+003, 1.914907e+006
1.011000e+003, 1.914596e+006
1.011482e+003, 1.914490e+006
1.011964e+003, 1.914604e+006
1.012446e+003, 1.914597e+006
1.012929e+003, 1.914259e+006
1.013411e+003, 1.913941e+006
1.013893e+003, 1.914272e+006
1.014375e+003, 1.914827e+006
1.014857e+003, 1.914638e+006
1.015339e+003, 1.913902e+006
1.015821e+003, 1.913378e+006
1.016303e+003, 1.913227e+006
1.016785e+003, 1.913081e+006
1.017268e+003, 1.912665e+006
1.017750e+003, 1.912295e+006
1.018232e+003, 1.912755e+006
1.018714e+003, 1.913701e+006
1.019196e+003, 1.913372e+006
1.019678e+003, 1.911939e+006
1.020160e+003, 1.911558e+006
1.020642e+003, 1.912811e+006
1.021125e+003, 1.913985e+006
1.021607e+003, 1.913682e+006
1.022089e+003, 1.912477e+006
1.022571e+003, 1.911621e+006
1.023053e+003, 1.911091e+006
1.023535e+003, 1.910513e+006
1.024017e+003, 1.909844e+006
1.024499e+003, 1.910103e+006
1.024981e+003, 1.911757e+006
1.025464e+003, 1.913349e+006
1.025946e+003, 1.913512e+006
1.026428e+003, 1.912676e+006
1.026910e+003, 1.912186e+006
1.027392e+003, 1.912093e+006
1.027874e+003, 1.911771e+006
1.028356e+003, 1.911080e+006
1.028838e+003, 1.910774e+006
1.029321e+003, 1.911242e+006
1.029803e+003, 1.911755e+006
1.030285e+003, 1.911510e+006
1.030767e+003, 1.910763e+006
1.031249e+003, 1.910765e+006
1.031731e+003, 1.911800e+006
1.032213e+003, 1.912426e+006
1.032695e+003, 1.912438e+006
1.033177e+003, 1.912452e+006
1.033660e+003, 1.912772e+006
1.034142e+003, 1.913015e+006
1.034624e+003, 1.912625e+006
1.035106e+003, 1.911807e+006
1.035588e+003, 1.911931e+006
1.036070e+003, 1.913715e+006
1.036552e+003, 1.914711e+006
1.037034e+003, 1.914519e+006
1.037516e+003, 1.914182e+006
1.037999e+003, 1.914248e+006
1.038481e+003, 1.914181e+006
1.038963e+003, 1.913241e+006
1.039445e+003, 1.911591e+006
1.039927e+003, 1.910485e+006
1.040409e+003, 1.910285e+006
1.040891e+003, 1.910004e+006
1.041373e+003, 1.909747e+006
1.041855e+003, 1.909283e+006
1.042338e+003, 1.908318e+006
1.042820e+003, 1.907278e+006
1.043302e+003, 1.906628e+006
1.043784e+003, 1.906327e+006
1.044266e+003, 1.905968e+006
1.044748e+003, 1.905570e+006
1.045230e+003, 1.905087e+006
1.045712e+003, 1.904209e+006
1.046195e+003, 1.903625e+006
1.046677e+003, 1.903868e+006
1.047159e+003, 1.904357e+006
1.047641e+003, 1.904381e+006
1.048123e+003, 1.904021e+006
1.048605e+003, 1.903996e+006
1.049087e+003, 1.904601e+006
1.049569e+003, 1.905131e+006
1.050052e+003, 1.905427e+006
1.050534e+003, 1.905674e+006
1.051016e+003, 1.906215e+006
1.051498e+003, 1.906555e+006
1.051980e+003, 1.905841e+006
1.052462e+003, 1.904300e+006
1.052944e+003, 1.903448e+006
1.053426e+003, 1.903784e+006
1.053908e+003, 1.904328e+006
1.054391e+003, 1.905357e+006
1.054873e+003, 1.905962e+006
1.055355e+003, 1.905252e+006
1.055837e+003, 1.904175e+006
1.056319e+003, 1.903902e+006
1.056801e+003, 1.904344e+006
1.057283e+003, 1.904524e+006
1.057765e+003, 1.904153e+006
1.058248e+003, 1.903674e+006
1.058730e+003, 1.902815e+006
1.059212e+003, 1.902353e+006
1.059694e+003, 1.903184e+006
1.060176e+003, 1.904337e+006
1.060658e+003, 1.904611e+006
1.061140e+003, 1.904112e+006
1.061622e+003, 1.903824e+006
1.062104e+003, 1.904179e+006
1.062587e+003, 1.904299e+006
1.063069e+003, 1.903579e+006
1.063551e+003, 1.902868e+006
1.064033e+003, 1.902648e+006
1.064515e+003, 1.902711e+006
1.064997e+003, 1.902893e+006
1.065479e+003, 1.903104e+006
1.065961e+003, 1.903154e+006
1.066443e+003, 1.902913e+006
1.066926e+003, 1.902755e+006
1.067408e+003, 1.903134e+006
1.067890e+003, 1.903282e+006
1.068372e+003, 1.902387e+006
1.068854e+003, 1.901256e+006
1.069336e+003, 1.900935e+006
1.069818e+003, 1.901239e+006
1.070300e+003, 1.901173e+006
1.070782e+003, 1.900326e+006
1.071265e+003, 1.899714e+006
1.071747e+003, 1.900245e+006
1.072229e+003, 1.900610e+006
1.072711e+003, 1.899709e+006
1.073193e+003, 1.898465e+006
1.073675e+003, 1.897903e+006
1.074157e+003, 1.897937e+006
1.074639e+003, 1.897964e+006
1.075122e+003, 1.897794e+006
1.075604e+003, 1.897800e+006
1.076086e+003, 1.898802e+006
1.076568e+003, 1.899265e+006
1.077050e+003, 1.897740e+006
1.077532e+003, 1.895667e+006
1.078014e+003, 1.894442e+006
1.078496e+003, 1.893999e+006
1.078979e+003, 1.893802e+006
1.079461e+003, 1.893722e+006
1.079943e+003, 1.893676e+006
1.080425e+003, 1.893796e+006
1.080907e+003, 1.893731e+006
1.081389e+003, 1.893177e+006
1.081871e+003, 1.892438e+006
1.082353e+003, 1.891587e+006
1.082835e+003, 1.890856e+006
1.083318e+003, 1.890747e+006
1.083800e+003, 1.891362e+006
1.084282e+003, 1.891888e+006
1.084764e+003, 1.892049e+006
1.085246e+003, 1.891945e+006
1.085728e+003, 1.891411e+006
1.086210e+003, 1.890839e+006
1.086692e+003, 1.890482e+006
1.087175e+003, 1.890372e+006
1.087657e+003, 1.890644e+006
1.088139e+003, 1.891266e+006
1.088621e+003, 1.891567e+006
1.089103e+003, 1.890955e+006
1.089585e+003, 1.890412e+006
1.090067e+003, 1.890477e+006
1.090549e+003, 1.890637e+006
1.091031e+003, 1.890481e+006
1.091514e+003, 1.890143e+006
1.091996e+003, 1.889796e+006
1.092478e+003, 1.889492e+006
1.092960e+003, 1.889382e+006
1.093442e+003, 1.889787e+006
1.093924e+003, 1.889879e+006
1.094406e+003, 1.889262e+006
1.094888e+003, 1.888331e+006
1.095370e+003, 1.887051e+006
1.095853e+003, 1.885816e+006
1.096335e+003, 1.885137e+006
1.096817e+003, 1.884991e+006
1.097299e+003, 1.885009e+006
1.097781e+003, 1.885366e+006
1.098263e+003, 1.885245e+006
1.098745e+003, 1.883695e+006
1.099227e+003, 1.882457e+006
1.099709e+003, 1.882987e+006
1.100192e+003, 1.883894e+006
1.100674e+003, 1.883432e+006
1.101156e+003, 1.881995e+006
1.101638e+003, 1.881362e+006
1.102120e+003, 1.882119e+006
1.102602e+003, 1.882660e+006
1.103084e+003, 1.882369e+006
1.103566e+003, 1.882028e+006
1.104049e+003, 1.881982e+006
1.104531e+003, 1.881938e+006
1.105013e+003, 1.881471e+006
1.105495e+003, 1.880818e+006
1.105977e+003, 1.880575e+006
1.106459e+003, 1.880839e+006
1.106941e+003, 1.881256e+006
1.107423e+003, 1.882132e+006
1.107906e+003, 1.882644e+006
1.108388e+003, 1.882606e+006
1.108870e+003, 1.882127e+006
1.109352e+003, 1.880822e+006
1.109834e+003, 1.879352e+006
1.110316e+003, 1.879039e+006
1.110798e+003, 1.880047e+006
1.111280e+003, 1.880383e+006
1.111762e+003, 1.879639e+006
1.112245e+003, 1.878643e+006
1.112727e+003, 1.877096e+006
1.113209e+003, 1.875798e+006
1.113691e+003, 1.875141e+006
1.114173e+003, 1.874946e+006
1.114655e+003, 1.875190e+006
1.115137e+003, 1.875797e+006
1.115619e+003, 1.875823e+006
1.116102e+003, 1.874577e+006
1.116584e+003, 1.873947e+006
1.117066e+003, 1.874477e+006
1.117548e+003, 1.874808e+006
1.118030e+003, 1.874178e+006
1.118512e+003, 1.873447e+006
1.118994e+003, 1.873465e+006
1.119476e+003, 1.874058e+006
1.119958e+003, 1.874591e+006
1.120441e+003, 1.875237e+006
1.120923e+003, 1.875167e+006
1.121405e+003, 1.873657e+006
1.121887e+003, 1.873111e+006
1.122369e+003, 1.874635e+006
1.122851e+003, 1.876406e+006
1.123333e+003, 1.877186e+006
1.123815e+003, 1.877175e+006
1.124297e+003, 1.876744e+006
1.124780e+003, 1.875862e+006
1.125262e+003, 1.875024e+006
1.125744e+003, 1.874149e+006
1.126226e+003, 1.873686e+006
1.126708e+003, 1.873787e+006
1.127190e+003, 1.874047e+006
1.127672e+003, 1.874254e+006
1.128154e+003, 1.874473e+006
1.128636e+003, 1.874845e+006
1.129119e+003, 1.875306e+006
1.129601e+003, 1.875278e+006
1.130083e+003, 1.874677e+006
1.130565e+003, 1.874443e+006
1.131047e+003, 1.874703e+006
1.131529e+003, 1.874930e+006
1.132011e+003, 1.874890e+006
1.132493e+003, 1.874852e+006
1.132976e+003, 1.875076e+006
1.133458e+003, 1.875542e+006
1.133940e+003, 1.876390e+006
1.134422e+003, 1.877542e+006
1.134904e+003, 1.877916e+006
1.135386e+003, 1.877491e+006
1.135868e+003, 1.876649e+006
1.136350e+003, 1.875509e+006
1.136833e+003, 1.874299e+006
1.137315e+003, 1.873131e+006
1.137797e+003, 1.872308e+006
1.138279e+003, 1.872655e+006
1.138761e+003, 1.873707e+006
1.139243e+003, 1.873586e+006
1.139725e+003, 1.872658e+006
1.140207e+003, 1.872734e+006
1.140689e+003, 1.873897e+006
1.141172e+003, 1.874480e+006
1.141654e+003, 1.873702e+006
1.142136e+003, 1.872659e+006
1.142618e+003, 1.872501e+006
1.143100e+003, 1.872835e+006
1.143582e+003, 1.873125e+006
1.144064e+003, 1.873343e+006
1.144546e+003, 1.873426e+006
1.145029e+003, 1.873384e+006
1.145511e+003, 1.873111e+006
1.145993e+003, 1.872668e+006
1.146475e+003, 1.872790e+006
1.146957e+003, 1.874285e+006
1.147439e+003, 1.875722e+006
1.147921e+003, 1.875425e+006
1.148403e+003, 1.874490e+006
1.148885e+003, 1.874220e+006
1.149368e+003, 1.874322e+006
1.149850e+003, 1.874261e+006
1.150332e+003, 1.873893e+006
1.150814e+003, 1.872999e+006
1.151296e+003, 1.871313e+006
1.151778e+003, 1.870271e+006
1.152260e+003, 1.871536e+006
1.152742e+003, 1.872834e+006
1.153224e+003, 1.872321e+006
1.153707e+003, 1.871295e+006
1.154189e+003, 1.871291e+006
1.154671e+003, 1.871940e+006
1.155153e+003, 1.872022e+006
1.155635e+003, 1.871289e+006
1.156117e+003, 1.870789e+006
1.156599e+003, 1.871143e+006
1.157081e+003, 1.871367e+006
1.157563e+003, 1.870830e+006
1.158046e+003, 1.870427e+006
1.158528e+003, 1.870950e+006
1.159010e+003, 1.871791e+006
1.159492e+003, 1.872117e+006
1.159974e+003, 1.871940e+006
1.160456e+003, 1.871820e+006
1.160938e+003, 1.871819e+006
1.161420e+003, 1.871826e+006
1.161903e+003, 1.871755e+006
1.162385e+003, 1.871789e+006
1.162867e+003, 1.872045e+006
1.163349e+003, 1.872334e+006
1.163831e+003, 1.872576e+006
1.164313e+003, 1.872693e+006
1.164795e+003, 1.872444e+006
1.165277e+003, 1.871727e+006
1.165760e+003, 1.871481e+006
1.166242e+003, 1.871858e+006
1.166724e+003, 1.872263e+006
1.167206e+003, 1.872698e+006
1.167688e+003, 1.872828e+006
1.168170e+003, 1.872351e+006
1.168652e+003, 1.871925e+006
1.169134e+003, 1.872536e+006
1.169616e+003, 1.873808e+006
1.170099e+003, 1.873759e+006
1.170581e+003, 1.872370e+006
1.171063e+003, 1.871442e+006
1.171545e+003, 1.871084e+006
1.172027e+003, 1.871411e+006
1.172509e+003, 1.872468e+006
1.172991e+003, 1.873417e+006
1.173473e+003, 1.873606e+006
1.173956e+003, 1.873395e+006
1.174438e+003, 1.873452e+006
1.174920e+003, 1.873604e+006
1.175402e+003, 1.873273e+006
1.175884e+003, 1.872547e+006
1.176366e+003, 1.871564e+006
1.176848e+003, 1.870509e+006
1.177330e+003, 1.870209e+006
1.177813e+003, 1.870981e+006
1.178295e+003, 1.871756e+006
1.178777e+003, 1.871455e+006
1.179259e+003, 1.870869e+006
1.179741e+003, 1.871167e+006
1.180223e+003, 1.871685e+006
1.180705e+003, 1.871427e+006
1.181187e+003, 1.870616e+006
1.181669e+003, 1.869753e+006
1.182151e+003, 1.869016e+006
1.182634e+003, 1.868597e+006
1.183116e+003, 1.868641e+006
1.183598e+003, 1.868791e+006
1.184080e+003, 1.868846e+006
1.184562e+003, 1.868916e+006
1.185044e+003, 1.869157e+006
1.185526e+003, 1.869373e+006
1.186008e+003, 1.869192e+006
1.186490e+003, 1.868855e+006
1.186973e+003, 1.869081e+006
1.187455e+003, 1.870035e+006
1.187937e+003, 1.870520e+006
1.188419e+003, 1.869760e+006
1.188901e+003, 1.869318e+006
1.189383e+003, 1.869625e+006
1.189865e+003, 1.870165e+006
1.190347e+003, 1.871127e+006
1.190830e+003, 1.871830e+006
1.191312e+003, 1.871352e+006
1.191794e+003, 1.869961e+006
1.192276e+003, 1.868997e+006
1.192758e+003, 1.868513e+006
1.193240e+003, 1.868306e+006
1.193722e+003, 1.868523e+006
1.194204e+003, 1.868547e+006
1.194687e+003, 1.868118e+006
1.195169e+003, 1.867946e+006
1.195651e+003, 1.868615e+006
1.196133e+003, 1.869429e+006
1.196615e+003, 1.869254e+006
1.197097e+003, 1.868231e+006
1.197579e+003, 1.867064e+006
1.198061e+003, 1.865774e+006
1.198543e+003, 1.864922e+006
1.199026e+003, 1.864521e+006
1.199508e+003, 1.863786e+006
1.199990e+003, 1.862505e+006
1.200472e+003, 1.861988e+006
1.200954e+003, 1.863425e+006
1.201436e+003, 1.865462e+006
1.201918e+003, 1.866241e+006
1.202400e+003, 1.866032e+006
1.202883e+003, 1.865120e+006
1.203365e+003, 1.863769e+006
1.203847e+003, 1.862241e+006
1.204329e+003, 1.860845e+006
1.204811e+003, 1.860497e+006
1.205293e+003, 1.861490e+006
1.205775e+003, 1.862357e+006
1.206257e+003, 1.862037e+006
1.206740e+003, 1.861323e+006
1.207222e+003, 1.860618e+006
1.207704e+003, 1.859956e+006
1.208186e+003, 1.859107e+006
1.208668e+003, 1.858494e+006
1.209150e+003, 1.859112e+006
1.209632e+003, 1.860635e+006
1.210114e+003, 1.861052e+006
1.210596e+003, 1.859356e+006
1.211078e+003, 1.858430e+006
1.211561e+003, 1.859420e+006
1.212043e+003, 1.860440e+006
1.212525e+003, 1.861207e+006
1.213007e+003, 1.861488e+006
1.213489e+003, 1.860939e+006
1.213971e+003, 1.859948e+006
1.214453e+003, 1.858982e+006
1.214935e+003, 1.858067e+006
1.215417e+003, 1.858008e+006
1.215900e+003, 1.859212e+006
1.216382e+003, 1.859619e+006
1.216864e+003, 1.858948e+006
1.217346e+003, 1.858266e+006
1.217828e+003, 1.857974e+006
1.218310e+003, 1.857307e+006
1.218792e+003, 1.855553e+006
1.219274e+003, 1.853571e+006
1.219757e+003, 1.853083e+006
1.220239e+003, 1.853736e+006
1.220721e+003, 1.853733e+006
1.221203e+003, 1.853241e+006
1.221685e+003, 1.853138e+006
1.222167e+003, 1.853421e+006
1.222649e+003, 1.853365e+006
1.223131e+003, 1.852736e+006
1.223614e+003, 1.851941e+006
1.224096e+003, 1.851235e+006
1.224578e+003, 1.850651e+006
1.225060e+003, 1.850096e+006
1.225542e+003, 1.849786e+006
1.226024e+003, 1.850269e+006
1.226506e+003, 1.850997e+006
1.226988e+003, 1.850953e+006
1.227470e+003, 1.850367e+006
1.227953e+003, 1.850354e+006
1.228435e+003, 1.851247e+006
1.228917e+003, 1.851769e+006
1.229399e+003, 1.851259e+006
1.229881e+003, 1.850531e+006
1.230363e+003, 1.849333e+006
1.230845e+003, 1.848567e+006
1.231327e+003, 1.849087e+006
1.231810e+003, 1.850074e+006
1.232292e+003, 1.850643e+006
1.232774e+003, 1.850824e+006
1.233256e+003, 1.850784e+006
1.233738e+003, 1.850555e+006
1.234220e+003, 1.849863e+006
1.234702e+003, 1.848365e+006
1.235184e+003, 1.847658e+006
1.235667e+003, 1.848321e+006
1.236149e+003, 1.848678e+006
1.236631e+003, 1.847834e+006
1.237113e+003, 1.846420e+006
1.237595e+003, 1.845069e+006
1.238077e+003, 1.843944e+006
1.238559e+003, 1.843721e+006
1.239041e+003, 1.844160e+006
1.239523e+003, 1.844008e+006
1.240005e+003, 1.843283e+006
1.240488e+003, 1.842243e+006
1.240970e+003, 1.841049e+006
1.241452e+003, 1.840120e+006
1.241934e+003, 1.839659e+006
1.242416e+003, 1.839561e+006
1.242898e+003, 1.839885e+006
1.243380e+003, 1.840336e+006
1.243862e+003, 1.840678e+006
1.244344e+003, 1.840922e+006
1.244827e+003, 1.840926e+006
1.245309e+003, 1.840915e+006
1.245791e+003, 1.841380e+006
1.246273e+003, 1.842230e+006
1.246755e+003, 1.842790e+006
1.247237e+003, 1.842913e+006
1.247719e+003, 1.842640e+006
1.248201e+003, 1.841599e+006
1.248684e+003, 1.840701e+006
1.249166e+003, 1.840560e+006
1.249648e+003, 1.840219e+006
1.250130e+003, 1.838755e+006
1.250612e+003, 1.837198e+006
1.251094e+003, 1.837021e+006
1.251576e+003, 1.837996e+006
1.252058e+003, 1.838754e+006
1.252541e+003, 1.839441e+006
1.253023e+003, 1.838530e+006
1.253505e+003, 1.835755e+006
1.253987e+003, 1.834180e+006
1.254469e+003, 1.834526e+006
1.254951e+003, 1.835586e+006
1.255433e+003, 1.836698e+006
1.255915e+003, 1.837580e+006
1.256397e+003, 1.837892e+006
1.256880e+003, 1.837739e+006
1.257362e+003, 1.837020e+006
1.257844e+003, 1.836159e+006
1.258326e+003, 1.836108e+006
1.258808e+003, 1.836616e+006
1.259290e+003, 1.836885e+006
1.259772e+003, 1.836869e+006
1.260254e+003, 1.837210e+006
1.260737e+003, 1.838255e+006
1.261219e+003, 1.839001e+006
1.261701e+003, 1.838784e+006
1.262183e+003, 1.838334e+006
1.262665e+003, 1.837671e+006
1.263147e+003, 1.837261e+006
1.263629e+003, 1.837676e+006
1.264111e+003, 1.838388e+006
1.264594e+003, 1.838659e+006
1.265076e+003, 1.838520e+006
1.265558e+003, 1.838309e+006
1.266040e+003, 1.837926e+006
1.266522e+003, 1.837833e+006
1.267004e+003, 1.838170e+006
1.267486e+003, 1.838213e+006
1.267968e+003, 1.837721e+006
1.268450e+003, 1.837451e+006
1.268932e+003, 1.837821e+006
1.269415e+003, 1.838394e+006
1.269897e+003, 1.838758e+006
1.270379e+003, 1.838785e+006
1.270861e+003, 1.837803e+006
1.271343e+003, 1.836356e+006
1.271825e+003, 1.836238e+006
1.272307e+003, 1.837098e+006
1.272789e+003, 1.837873e+006
1.273271e+003, 1.838281e+006
1.273754e+003, 1.838134e+006
1.274236e+003, 1.837371e+006
1.274718e+003, 1.836543e+006
1.275200e+003, 1.835960e+006
1.275682e+003, 1.835570e+006
1.276164e+003, 1.835101e+006
1.276646e+003, 1.835072e+006
1.277128e+003, 1.836482e+006
1.277611e+003, 1.838073e+006
1.278093e+003, 1.838231e+006
1.278575e+003, 1.837347e+006
1.279057e+003, 1.836942e+006
1.279539e+003, 1.837219e+006
1.280021e+003, 1.837465e+006
1.280503e+003, 1.837137e+006
1.280985e+003, 1.837353e+006
1.281468e+003, 1.838991e+006
1.281950e+003, 1.840402e+006
1.282432e+003, 1.840885e+006
1.282914e+003, 1.841157e+006
1.283396e+003, 1.841847e+006
1.283878e+003, 1.842778e+006
1.284360e+003, 1.843582e+006
1.284842e+003, 1.843505e+006
1.285324e+003, 1.840746e+006
##END=



