##NAMES=Davidite-(Ce)
##RRUFFID=R120009
##IDEAL CHEMISTRY=Ce^3+^(Y^3+^,U^4+^)Fe^3+^_2_(Ti^4+^,Fe^3+^,Cr^3+^,V^5+^)_18_(O,OH,F)_38_
##LOCALITY=Mount Kaskasnyunchorr, Khibiny Massif, Kola Peninsula, Russia
##OWNER=RRUFF
##SOURCE=Marcus Origlieri
##DESCRIPTION=Black rhombohedral grains associated with red rutile and colorless orthoclase
##STATUS=The identification of this mineral has been confirmed only by single crystal X-ray diffraction.
##URL=rruff.info/R120009
9.001007e+001, 0.000000e+000
9.049219e+001, 1.425810e+002
9.097430e+001, 1.429660e+002
9.145642e+001, 1.432056e+002
9.193854e+001, 1.432307e+002
9.242065e+001, 1.424701e+002
9.290277e+001, 1.399321e+002
9.338489e+001, 1.362336e+002
9.386700e+001, 1.328078e+002
9.434912e+001, 1.301076e+002
9.483124e+001, 1.280325e+002
9.531335e+001, 1.264315e+002
9.579547e+001, 1.253062e+002
9.627759e+001, 1.246220e+002
9.675970e+001, 1.247707e+002
9.724182e+001, 1.256460e+002
9.772394e+001, 1.258184e+002
9.820605e+001, 1.242135e+002
9.868817e+001, 1.210148e+002
9.917029e+001, 1.186346e+002
9.965240e+001, 1.171965e+002
1.001345e+002, 1.163934e+002
1.006166e+002, 1.158539e+002
1.010988e+002, 1.157151e+002
1.015809e+002, 1.152130e+002
1.020630e+002, 1.136857e+002
1.025451e+002, 1.107577e+002
1.030272e+002, 1.086342e+002
1.035093e+002, 1.075650e+002
1.039915e+002, 1.073842e+002
1.044736e+002, 1.074527e+002
1.049557e+002, 1.080482e+002
1.054378e+002, 1.084889e+002
1.059199e+002, 1.082739e+002
1.064020e+002, 1.070480e+002
1.068842e+002, 1.058118e+002
1.073663e+002, 1.046060e+002
1.078484e+002, 1.034375e+002
1.083305e+002, 1.025448e+002
1.088126e+002, 1.025367e+002
1.092947e+002, 1.024636e+002
1.097769e+002, 1.014433e+002
1.102590e+002, 9.771688e+001
1.107411e+002, 9.482815e+001
1.112232e+002, 9.366869e+001
1.117053e+002, 9.473168e+001
1.121874e+002, 9.539326e+001
1.126696e+002, 9.495265e+001
1.131517e+002, 9.415523e+001
1.136338e+002, 9.396696e+001
1.141159e+002, 9.573959e+001
1.145980e+002, 9.715291e+001
1.150801e+002, 9.725955e+001
1.155623e+002, 9.540659e+001
1.160444e+002, 9.355052e+001
1.165265e+002, 9.204759e+001
1.170086e+002, 9.088540e+001
1.174907e+002, 9.009583e+001
1.179728e+002, 9.022013e+001
1.184550e+002, 9.038216e+001
1.189371e+002, 8.995681e+001
1.194192e+002, 8.833923e+001
1.199013e+002, 8.684969e+001
1.203834e+002, 8.652921e+001
1.208655e+002, 8.704642e+001
1.213477e+002, 8.710388e+001
1.218298e+002, 8.520823e+001
1.223119e+002, 8.275700e+001
1.227940e+002, 8.126421e+001
1.232761e+002, 8.178213e+001
1.237582e+002, 8.289383e+001
1.242404e+002, 8.343999e+001
1.247225e+002, 8.345740e+001
1.252046e+002, 8.340127e+001
1.256867e+002, 8.388188e+001
1.261688e+002, 8.452068e+001
1.266509e+002, 8.462341e+001
1.271331e+002, 8.352492e+001
1.276152e+002, 8.187112e+001
1.280973e+002, 8.060497e+001
1.285794e+002, 7.974424e+001
1.290615e+002, 7.905642e+001
1.295436e+002, 7.859138e+001
1.300258e+002, 7.819997e+001
1.305079e+002, 7.725717e+001
1.309900e+002, 7.431782e+001
1.314721e+002, 7.050277e+001
1.319542e+002, 6.977810e+001
1.324363e+002, 7.292446e+001
1.329185e+002, 7.711485e+001
1.334006e+002, 7.775356e+001
1.338827e+002, 7.484360e+001
1.343648e+002, 7.193958e+001
1.348469e+002, 7.113491e+001
1.353290e+002, 7.226789e+001
1.358112e+002, 7.295096e+001
1.362933e+002, 7.290411e+001
1.367754e+002, 7.245047e+001
1.372575e+002, 7.245985e+001
1.377396e+002, 7.309844e+001
1.382217e+002, 7.343715e+001
1.387039e+002, 7.257435e+001
1.391860e+002, 7.021217e+001
1.396681e+002, 6.884309e+001
1.401502e+002, 6.910040e+001
1.406323e+002, 7.049261e+001
1.411144e+002, 7.078159e+001
1.415966e+002, 6.955493e+001
1.420787e+002, 6.800608e+001
1.425608e+002, 6.718699e+001
1.430429e+002, 6.763001e+001
1.435250e+002, 6.720635e+001
1.440071e+002, 6.491335e+001
1.444893e+002, 6.092933e+001
1.449714e+002, 5.959256e+001
1.454535e+002, 6.235217e+001
1.459356e+002, 6.637076e+001
1.464177e+002, 6.900134e+001
1.468998e+002, 7.003643e+001
1.473820e+002, 7.006535e+001
1.478641e+002, 6.886594e+001
1.483462e+002, 6.617403e+001
1.488283e+002, 6.416106e+001
1.493104e+002, 6.332292e+001
1.497925e+002, 6.292175e+001
1.502747e+002, 6.203843e+001
1.507568e+002, 5.849523e+001
1.512389e+002, 5.673055e+001
1.517210e+002, 5.842453e+001
1.522031e+002, 6.535960e+001
1.526852e+002, 7.004121e+001
1.531674e+002, 7.083247e+001
1.536495e+002, 6.967139e+001
1.541316e+002, 6.937811e+001
1.546137e+002, 7.029395e+001
1.550958e+002, 7.199296e+001
1.555779e+002, 7.438455e+001
1.560601e+002, 7.755147e+001
1.565422e+002, 8.117917e+001
1.570243e+002, 8.524375e+001
1.575064e+002, 8.972507e+001
1.579885e+002, 9.458413e+001
1.584706e+002, 9.967665e+001
1.589528e+002, 1.052446e+002
1.594349e+002, 1.113144e+002
1.599170e+002, 1.174716e+002
1.603991e+002, 1.248775e+002
1.608812e+002, 1.336839e+002
1.613633e+002, 1.439567e+002
1.618455e+002, 1.558688e+002
1.623276e+002, 1.701945e+002
1.628097e+002, 1.856616e+002
1.632918e+002, 2.017673e+002
1.637739e+002, 2.181572e+002
1.642560e+002, 2.352915e+002
1.647382e+002, 2.530670e+002
1.652203e+002, 2.716517e+002
1.657024e+002, 2.916874e+002
1.661845e+002, 3.148293e+002
1.666666e+002, 3.390561e+002
1.671487e+002, 3.622910e+002
1.676309e+002, 3.838791e+002
1.681130e+002, 4.047798e+002
1.685951e+002, 4.255198e+002
1.690772e+002, 4.460622e+002
1.695593e+002, 4.656110e+002
1.700414e+002, 4.835549e+002
1.705236e+002, 5.003508e+002
1.710057e+002, 5.163000e+002
1.714878e+002, 5.313153e+002
1.719699e+002, 5.459156e+002
1.724520e+002, 5.598895e+002
1.729341e+002, 5.733914e+002
1.734163e+002, 5.876610e+002
1.738984e+002, 6.034830e+002
1.743805e+002, 6.208353e+002
1.748626e+002, 6.391397e+002
1.753447e+002, 6.579239e+002
1.758268e+002, 6.780099e+002
1.763090e+002, 7.009753e+002
1.767911e+002, 7.266451e+002
1.772732e+002, 7.529037e+002
1.777553e+002, 7.738109e+002
1.782374e+002, 7.901669e+002
1.787195e+002, 8.074550e+002
1.792017e+002, 8.279307e+002
1.796838e+002, 8.508912e+002
1.801659e+002, 8.753553e+002
1.806480e+002, 9.016276e+002
1.811301e+002, 9.280401e+002
1.816122e+002, 9.536639e+002
1.820944e+002, 9.786176e+002
1.825765e+002, 1.002600e+003
1.830586e+002, 1.025562e+003
1.835407e+002, 1.047546e+003
1.840228e+002, 1.069960e+003
1.845049e+002, 1.092799e+003
1.849871e+002, 1.115225e+003
1.854692e+002, 1.135662e+003
1.859513e+002, 1.154507e+003
1.864334e+002, 1.172730e+003
1.869155e+002, 1.191078e+003
1.873976e+002, 1.209303e+003
1.878798e+002, 1.226963e+003
1.883619e+002, 1.244039e+003
1.888440e+002, 1.260362e+003
1.893261e+002, 1.274989e+003
1.898082e+002, 1.288156e+003
1.902903e+002, 1.301250e+003
1.907725e+002, 1.314882e+003
1.912546e+002, 1.329173e+003
1.917367e+002, 1.343759e+003
1.922188e+002, 1.358778e+003
1.927009e+002, 1.373860e+003
1.931830e+002, 1.387891e+003
1.936652e+002, 1.400808e+003
1.941473e+002, 1.413977e+003
1.946294e+002, 1.427876e+003
1.951115e+002, 1.442497e+003
1.955936e+002, 1.458113e+003
1.960757e+002, 1.475122e+003
1.965579e+002, 1.492461e+003
1.970400e+002, 1.508017e+003
1.975221e+002, 1.521693e+003
1.980042e+002, 1.534677e+003
1.984863e+002, 1.547211e+003
1.989684e+002, 1.559221e+003
1.994506e+002, 1.573087e+003
1.999327e+002, 1.589141e+003
2.004148e+002, 1.606690e+003
2.008969e+002, 1.624194e+003
2.013790e+002, 1.641851e+003
2.018611e+002, 1.659386e+003
2.023433e+002, 1.676951e+003
2.028254e+002, 1.694667e+003
2.033075e+002, 1.711043e+003
2.037896e+002, 1.725341e+003
2.042717e+002, 1.738597e+003
2.047538e+002, 1.753625e+003
2.052360e+002, 1.770982e+003
2.057181e+002, 1.787945e+003
2.062002e+002, 1.802691e+003
2.066823e+002, 1.814858e+003
2.071644e+002, 1.826900e+003
2.076465e+002, 1.838778e+003
2.081287e+002, 1.850705e+003
2.086108e+002, 1.863938e+003
2.090929e+002, 1.878909e+003
2.095750e+002, 1.893994e+003
2.100571e+002, 1.908226e+003
2.105392e+002, 1.921781e+003
2.110214e+002, 1.933976e+003
2.115035e+002, 1.944401e+003
2.119856e+002, 1.953552e+003
2.124677e+002, 1.963526e+003
2.129498e+002, 1.974717e+003
2.134319e+002, 1.986020e+003
2.139140e+002, 1.997050e+003
2.143962e+002, 2.008056e+003
2.148783e+002, 2.017942e+003
2.153604e+002, 2.025822e+003
2.158425e+002, 2.032633e+003
2.163246e+002, 2.042009e+003
2.168067e+002, 2.055052e+003
2.172889e+002, 2.068655e+003
2.177710e+002, 2.081116e+003
2.182531e+002, 2.092319e+003
2.187352e+002, 2.102594e+003
2.192173e+002, 2.111365e+003
2.196994e+002, 2.119297e+003
2.201816e+002, 2.129302e+003
2.206637e+002, 2.142446e+003
2.211458e+002, 2.155963e+003
2.216279e+002, 2.167987e+003
2.221100e+002, 2.178217e+003
2.225921e+002, 2.187869e+003
2.230743e+002, 2.196685e+003
2.235564e+002, 2.204988e+003
2.240385e+002, 2.215096e+003
2.245206e+002, 2.228235e+003
2.250027e+002, 2.240987e+003
2.254848e+002, 2.251021e+003
2.259670e+002, 2.256929e+003
2.264491e+002, 2.263550e+003
2.269312e+002, 2.271805e+003
2.274133e+002, 2.281148e+003
2.278954e+002, 2.289149e+003
2.283775e+002, 2.294983e+003
2.288597e+002, 2.300496e+003
2.293418e+002, 2.306751e+003
2.298239e+002, 2.314103e+003
2.303060e+002, 2.321356e+003
2.307881e+002, 2.328714e+003
2.312702e+002, 2.335894e+003
2.317524e+002, 2.341099e+003
2.322345e+002, 2.342899e+003
2.327166e+002, 2.344541e+003
2.331987e+002, 2.348122e+003
2.336808e+002, 2.355267e+003
2.341629e+002, 2.360624e+003
2.346451e+002, 2.363867e+003
2.351272e+002, 2.365051e+003
2.356093e+002, 2.364472e+003
2.360914e+002, 2.361652e+003
2.365735e+002, 2.357745e+003
2.370556e+002, 2.353219e+003
2.375378e+002, 2.347411e+003
2.380199e+002, 2.342624e+003
2.385020e+002, 2.339739e+003
2.389841e+002, 2.338040e+003
2.394662e+002, 2.334481e+003
2.399483e+002, 2.327851e+003
2.404305e+002, 2.321157e+003
2.409126e+002, 2.316223e+003
2.413947e+002, 2.314845e+003
2.418768e+002, 2.311363e+003
2.423589e+002, 2.305084e+003
2.428410e+002, 2.296626e+003
2.433232e+002, 2.287897e+003
2.438053e+002, 2.278901e+003
2.442874e+002, 2.269638e+003
2.447695e+002, 2.260116e+003
2.452516e+002, 2.249915e+003
2.457337e+002, 2.240192e+003
2.462159e+002, 2.231445e+003
2.466980e+002, 2.223020e+003
2.471801e+002, 2.213043e+003
2.476622e+002, 2.200801e+003
2.481443e+002, 2.187851e+003
2.486264e+002, 2.174959e+003
2.491086e+002, 2.161861e+003
2.495907e+002, 2.149310e+003
2.500728e+002, 2.137792e+003
2.505549e+002, 2.126721e+003
2.510370e+002, 2.114203e+003
2.515191e+002, 2.098559e+003
2.520013e+002, 2.084182e+003
2.524834e+002, 2.073373e+003
2.529655e+002, 2.068633e+003
2.534476e+002, 2.061165e+003
2.539297e+002, 2.049798e+003
2.544118e+002, 2.036285e+003
2.548940e+002, 2.024294e+003
2.553761e+002, 2.014459e+003
2.558582e+002, 2.004958e+003
2.563403e+002, 1.995060e+003
2.568224e+002, 1.984552e+003
2.573046e+002, 1.974282e+003
2.577867e+002, 1.964141e+003
2.582688e+002, 1.954338e+003
2.587509e+002, 1.945547e+003
2.592330e+002, 1.938507e+003
2.597151e+002, 1.931078e+003
2.601973e+002, 1.922162e+003
2.606794e+002, 1.911407e+003
2.611615e+002, 1.901455e+003
2.616436e+002, 1.892592e+003
2.621257e+002, 1.884423e+003
2.626078e+002, 1.876319e+003
2.630900e+002, 1.868297e+003
2.635721e+002, 1.860574e+003
2.640542e+002, 1.853303e+003
2.645363e+002, 1.846412e+003
2.650184e+002, 1.840242e+003
2.655005e+002, 1.834991e+003
2.659827e+002, 1.830182e+003
2.664648e+002, 1.824980e+003
2.669469e+002, 1.819262e+003
2.674290e+002, 1.813658e+003
2.679111e+002, 1.808490e+003
2.683932e+002, 1.803852e+003
2.688754e+002, 1.798074e+003
2.693575e+002, 1.790767e+003
2.698396e+002, 1.782854e+003
2.703217e+002, 1.775414e+003
2.708038e+002, 1.768309e+003
2.712859e+002, 1.762174e+003
2.717681e+002, 1.757554e+003
2.722502e+002, 1.754372e+003
2.727323e+002, 1.750209e+003
2.732144e+002, 1.744851e+003
2.736965e+002, 1.739061e+003
2.741786e+002, 1.733843e+003
2.746608e+002, 1.729365e+003
2.751429e+002, 1.724279e+003
2.756250e+002, 1.718114e+003
2.761071e+002, 1.711053e+003
2.765892e+002, 1.703971e+003
2.770714e+002, 1.696796e+003
2.775535e+002, 1.690137e+003
2.780356e+002, 1.684901e+003
2.785177e+002, 1.681262e+003
2.789998e+002, 1.677132e+003
2.794819e+002, 1.672013e+003
2.799641e+002, 1.666066e+003
2.804462e+002, 1.660341e+003
2.809283e+002, 1.654962e+003
2.814104e+002, 1.649173e+003
2.818925e+002, 1.641953e+003
2.823746e+002, 1.633283e+003
2.828568e+002, 1.625246e+003
2.833389e+002, 1.618240e+003
2.838210e+002, 1.612096e+003
2.843031e+002, 1.606514e+003
2.847852e+002, 1.601586e+003
2.852673e+002, 1.596641e+003
2.857495e+002, 1.591097e+003
2.862316e+002, 1.585027e+003
2.867137e+002, 1.579020e+003
2.871958e+002, 1.573073e+003
2.876779e+002, 1.567378e+003
2.881600e+002, 1.562265e+003
2.886422e+002, 1.557725e+003
2.891243e+002, 1.553755e+003
2.896064e+002, 1.550602e+003
2.900885e+002, 1.548098e+003
2.905706e+002, 1.545542e+003
2.910527e+002, 1.542756e+003
2.915349e+002, 1.540075e+003
2.920170e+002, 1.538446e+003
2.924991e+002, 1.537719e+003
2.929812e+002, 1.536288e+003
2.934633e+002, 1.532036e+003
2.939454e+002, 1.526276e+003
2.944276e+002, 1.523682e+003
2.949097e+002, 1.524951e+003
2.953918e+002, 1.527517e+003
2.958739e+002, 1.528359e+003
2.963560e+002, 1.527731e+003
2.968381e+002, 1.526841e+003
2.973203e+002, 1.526204e+003
2.978024e+002, 1.525726e+003
2.982845e+002, 1.525226e+003
2.987666e+002, 1.524705e+003
2.992487e+002, 1.524138e+003
2.997308e+002, 1.523112e+003
3.002130e+002, 1.521951e+003
3.006951e+002, 1.521597e+003
3.011772e+002, 1.522784e+003
3.016593e+002, 1.524801e+003
3.021414e+002, 1.526743e+003
3.026235e+002, 1.528590e+003
3.031057e+002, 1.530387e+003
3.035878e+002, 1.531797e+003
3.040699e+002, 1.533206e+003
3.045520e+002, 1.535373e+003
3.050341e+002, 1.539342e+003
3.055162e+002, 1.543438e+003
3.059984e+002, 1.545882e+003
3.064805e+002, 1.546801e+003
3.069626e+002, 1.547212e+003
3.074447e+002, 1.546527e+003
3.079268e+002, 1.546130e+003
3.084089e+002, 1.548212e+003
3.088911e+002, 1.555219e+003
3.093732e+002, 1.561936e+003
3.098553e+002, 1.562906e+003
3.103374e+002, 1.559732e+003
3.108195e+002, 1.557849e+003
3.113016e+002, 1.561815e+003
3.117838e+002, 1.567688e+003
3.122659e+002, 1.571885e+003
3.127480e+002, 1.573120e+003
3.132301e+002, 1.573973e+003
3.137122e+002, 1.575807e+003
3.141943e+002, 1.578395e+003
3.146765e+002, 1.581230e+003
3.151586e+002, 1.584996e+003
3.156407e+002, 1.588299e+003
3.161228e+002, 1.590049e+003
3.166049e+002, 1.589717e+003
3.170870e+002, 1.589482e+003
3.175692e+002, 1.591033e+003
3.180513e+002, 1.593110e+003
3.185334e+002, 1.593936e+003
3.190155e+002, 1.591327e+003
3.194976e+002, 1.588737e+003
3.199797e+002, 1.587686e+003
3.204619e+002, 1.588357e+003
3.209440e+002, 1.589533e+003
3.214261e+002, 1.591532e+003
3.219082e+002, 1.593547e+003
3.223903e+002, 1.594801e+003
3.228724e+002, 1.594691e+003
3.233546e+002, 1.594212e+003
3.238367e+002, 1.593486e+003
3.243188e+002, 1.592526e+003
3.248009e+002, 1.591606e+003
3.252830e+002, 1.590650e+003
3.257651e+002, 1.589855e+003
3.262473e+002, 1.589360e+003
3.267294e+002, 1.589542e+003
3.272115e+002, 1.589676e+003
3.276936e+002, 1.589676e+003
3.281757e+002, 1.589612e+003
3.286578e+002, 1.589721e+003
3.291400e+002, 1.590089e+003
3.296221e+002, 1.590624e+003
3.301042e+002, 1.591340e+003
3.305863e+002, 1.592758e+003
3.310684e+002, 1.593491e+003
3.315505e+002, 1.592970e+003
3.320327e+002, 1.591836e+003
3.325148e+002, 1.591541e+003
3.329969e+002, 1.592444e+003
3.334790e+002, 1.593604e+003
3.339611e+002, 1.594710e+003
3.344432e+002, 1.595713e+003
3.349254e+002, 1.596656e+003
3.354075e+002, 1.597556e+003
3.358896e+002, 1.598285e+003
3.363717e+002, 1.598500e+003
3.368538e+002, 1.597647e+003
3.373359e+002, 1.597630e+003
3.378180e+002, 1.599471e+003
3.383001e+002, 1.603116e+003
3.387823e+002, 1.604488e+003
3.392644e+002, 1.602578e+003
3.397465e+002, 1.600434e+003
3.402286e+002, 1.601645e+003
3.407107e+002, 1.607055e+003
3.411928e+002, 1.610837e+003
3.416750e+002, 1.611424e+003
3.421571e+002, 1.609718e+003
3.426392e+002, 1.609065e+003
3.431213e+002, 1.609574e+003
3.436034e+002, 1.610612e+003
3.440855e+002, 1.611799e+003
3.445677e+002, 1.613133e+003
3.450498e+002, 1.614552e+003
3.455319e+002, 1.615886e+003
3.460140e+002, 1.617563e+003
3.464961e+002, 1.620964e+003
3.469782e+002, 1.625984e+003
3.474604e+002, 1.630301e+003
3.479425e+002, 1.632282e+003
3.484246e+002, 1.632430e+003
3.489067e+002, 1.632073e+003
3.493888e+002, 1.631028e+003
3.498709e+002, 1.630744e+003
3.503531e+002, 1.633436e+003
3.508352e+002, 1.638516e+003
3.513173e+002, 1.643786e+003
3.517994e+002, 1.648906e+003
3.522815e+002, 1.653443e+003
3.527636e+002, 1.656563e+003
3.532458e+002, 1.658251e+003
3.537279e+002, 1.659262e+003
3.542100e+002, 1.659819e+003
3.546921e+002, 1.660170e+003
3.551742e+002, 1.660790e+003
3.556563e+002, 1.662160e+003
3.561385e+002, 1.663478e+003
3.566206e+002, 1.663766e+003
3.571027e+002, 1.663220e+003
3.575848e+002, 1.662835e+003
3.580669e+002, 1.663274e+003
3.585490e+002, 1.664124e+003
3.590312e+002, 1.664984e+003
3.595133e+002, 1.665729e+003
3.599954e+002, 1.666649e+003
3.604775e+002, 1.668511e+003
3.609596e+002, 1.670704e+003
3.614417e+002, 1.671889e+003
3.619239e+002, 1.670561e+003
3.624060e+002, 1.668871e+003
3.628881e+002, 1.668117e+003
3.633702e+002, 1.668661e+003
3.638523e+002, 1.668968e+003
3.643344e+002, 1.668474e+003
3.648166e+002, 1.667510e+003
3.652987e+002, 1.666444e+003
3.657808e+002, 1.664327e+003
3.662629e+002, 1.663188e+003
3.667450e+002, 1.664117e+003
3.672271e+002, 1.667097e+003
3.677093e+002, 1.669296e+003
3.681914e+002, 1.669681e+003
3.686735e+002, 1.669604e+003
3.691556e+002, 1.669937e+003
3.696377e+002, 1.670910e+003
3.701198e+002, 1.672021e+003
3.706020e+002, 1.673771e+003
3.710841e+002, 1.675697e+003
3.715662e+002, 1.675999e+003
3.720483e+002, 1.672773e+003
3.725304e+002, 1.670214e+003
3.730125e+002, 1.670557e+003
3.734947e+002, 1.675978e+003
3.739768e+002, 1.677747e+003
3.744589e+002, 1.674179e+003
3.749410e+002, 1.668325e+003
3.754231e+002, 1.665125e+003
3.759052e+002, 1.665224e+003
3.763874e+002, 1.666197e+003
3.768695e+002, 1.667533e+003
3.773516e+002, 1.669265e+003
3.778337e+002, 1.670953e+003
3.783158e+002, 1.672719e+003
3.787979e+002, 1.674292e+003
3.792801e+002, 1.675113e+003
3.797622e+002, 1.675137e+003
3.802443e+002, 1.675973e+003
3.807264e+002, 1.678114e+003
3.812085e+002, 1.681131e+003
3.816906e+002, 1.683948e+003
3.821728e+002, 1.686534e+003
3.826549e+002, 1.689062e+003
3.831370e+002, 1.691314e+003
3.836191e+002, 1.693490e+003
3.841012e+002, 1.696427e+003
3.845833e+002, 1.700304e+003
3.850655e+002, 1.704601e+003
3.855476e+002, 1.708827e+003
3.860297e+002, 1.712941e+003
3.865118e+002, 1.716620e+003
3.869939e+002, 1.719129e+003
3.874760e+002, 1.721396e+003
3.879582e+002, 1.725175e+003
3.884403e+002, 1.730559e+003
3.889224e+002, 1.735629e+003
3.894045e+002, 1.738095e+003
3.898866e+002, 1.739448e+003
3.903687e+002, 1.741869e+003
3.908509e+002, 1.747056e+003
3.913330e+002, 1.752479e+003
3.918151e+002, 1.756006e+003
3.922972e+002, 1.758151e+003
3.927793e+002, 1.761023e+003
3.932614e+002, 1.765688e+003
3.937436e+002, 1.771432e+003
3.942257e+002, 1.777972e+003
3.947078e+002, 1.785520e+003
3.951899e+002, 1.793059e+003
3.956720e+002, 1.800283e+003
3.961541e+002, 1.807231e+003
3.966363e+002, 1.813973e+003
3.971184e+002, 1.819452e+003
3.976005e+002, 1.825700e+003
3.980826e+002, 1.833629e+003
3.985647e+002, 1.843474e+003
3.990468e+002, 1.853277e+003
3.995290e+002, 1.863338e+003
4.000111e+002, 1.873002e+003
4.004932e+002, 1.881700e+003
4.009753e+002, 1.887216e+003
4.014574e+002, 1.894857e+003
4.019395e+002, 1.906164e+003
4.024217e+002, 1.920176e+003
4.029038e+002, 1.931820e+003
4.033859e+002, 1.938892e+003
4.038680e+002, 1.946851e+003
4.043501e+002, 1.958710e+003
4.048322e+002, 1.975698e+003
4.053144e+002, 1.991882e+003
4.057965e+002, 2.006753e+003
4.062786e+002, 2.021201e+003
4.067607e+002, 2.036638e+003
4.072428e+002, 2.053248e+003
4.077249e+002, 2.069849e+003
4.082071e+002, 2.085569e+003
4.086892e+002, 2.100779e+003
4.091713e+002, 2.117594e+003
4.096534e+002, 2.136211e+003
4.101355e+002, 2.155661e+003
4.106176e+002, 2.175171e+003
4.110998e+002, 2.194819e+003
4.115819e+002, 2.214640e+003
4.120640e+002, 2.234716e+003
4.125461e+002, 2.254871e+003
4.130282e+002, 2.275548e+003
4.135103e+002, 2.296515e+003
4.139925e+002, 2.316862e+003
4.144746e+002, 2.335295e+003
4.149567e+002, 2.353250e+003
4.154388e+002, 2.372472e+003
4.159209e+002, 2.393234e+003
4.164030e+002, 2.415567e+003
4.168852e+002, 2.440862e+003
4.173673e+002, 2.467772e+003
4.178494e+002, 2.494161e+003
4.183315e+002, 2.519461e+003
4.188136e+002, 2.544037e+003
4.192957e+002, 2.567771e+003
4.197779e+002, 2.590797e+003
4.202600e+002, 2.615316e+003
4.207421e+002, 2.642048e+003
4.212242e+002, 2.670794e+003
4.217063e+002, 2.701039e+003
4.221884e+002, 2.734898e+003
4.226706e+002, 2.767119e+003
4.231527e+002, 2.795149e+003
4.236348e+002, 2.821063e+003
4.241169e+002, 2.848860e+003
4.245990e+002, 2.881741e+003
4.250811e+002, 2.914404e+003
4.255633e+002, 2.944980e+003
4.260454e+002, 2.973037e+003
4.265275e+002, 3.001785e+003
4.270096e+002, 3.031388e+003
4.274917e+002, 3.061769e+003
4.279738e+002, 3.092912e+003
4.284560e+002, 3.124427e+003
4.289381e+002, 3.157392e+003
4.294202e+002, 3.192782e+003
4.299023e+002, 3.229038e+003
4.303844e+002, 3.262754e+003
4.308665e+002, 3.293441e+003
4.313487e+002, 3.322378e+003
4.318308e+002, 3.349965e+003
4.323129e+002, 3.376063e+003
4.327950e+002, 3.401590e+003
4.332771e+002, 3.426255e+003
4.337592e+002, 3.451018e+003
4.342414e+002, 3.478657e+003
4.347235e+002, 3.508772e+003
4.352056e+002, 3.536131e+003
4.356877e+002, 3.558459e+003
4.361698e+002, 3.577419e+003
4.366519e+002, 3.596612e+003
4.371341e+002, 3.616035e+003
4.376162e+002, 3.635078e+003
4.380983e+002, 3.654555e+003
4.385804e+002, 3.673297e+003
4.390625e+002, 3.688965e+003
4.395446e+002, 3.700711e+003
4.400268e+002, 3.710980e+003
4.405089e+002, 3.722687e+003
4.409910e+002, 3.734535e+003
4.414731e+002, 3.743707e+003
4.419552e+002, 3.748624e+003
4.424373e+002, 3.750777e+003
4.429195e+002, 3.750895e+003
4.434016e+002, 3.748997e+003
4.438837e+002, 3.745487e+003
4.443658e+002, 3.741144e+003
4.448479e+002, 3.734790e+003
4.453300e+002, 3.725568e+003
4.458122e+002, 3.712946e+003
4.462943e+002, 3.697741e+003
4.467764e+002, 3.679116e+003
4.472585e+002, 3.657886e+003
4.477406e+002, 3.636167e+003
4.482227e+002, 3.616053e+003
4.487049e+002, 3.593469e+003
4.491870e+002, 3.566358e+003
4.496691e+002, 3.534063e+003
4.501512e+002, 3.503039e+003
4.506333e+002, 3.475610e+003
4.511154e+002, 3.447442e+003
4.515976e+002, 3.414089e+003
4.520797e+002, 3.374599e+003
4.525618e+002, 3.334484e+003
4.530439e+002, 3.294592e+003
4.535260e+002, 3.254872e+003
4.540081e+002, 3.211792e+003
4.544903e+002, 3.164476e+003
4.549724e+002, 3.118601e+003
4.554545e+002, 3.078134e+003
4.559366e+002, 3.042323e+003
4.564187e+002, 3.002637e+003
4.569008e+002, 2.958664e+003
4.573830e+002, 2.913150e+003
4.578651e+002, 2.870663e+003
4.583472e+002, 2.829946e+003
4.588293e+002, 2.789006e+003
4.593114e+002, 2.745932e+003
4.597935e+002, 2.703013e+003
4.602757e+002, 2.662758e+003
4.607578e+002, 2.624864e+003
4.612399e+002, 2.587009e+003
4.617220e+002, 2.546727e+003
4.622041e+002, 2.506306e+003
4.626862e+002, 2.468863e+003
4.631684e+002, 2.435664e+003
4.636505e+002, 2.402279e+003
4.641326e+002, 2.365562e+003
4.646147e+002, 2.328103e+003
4.650968e+002, 2.292613e+003
4.655789e+002, 2.262219e+003
4.660611e+002, 2.232653e+003
4.665432e+002, 2.201909e+003
4.670253e+002, 2.170377e+003
4.675074e+002, 2.140990e+003
4.679895e+002, 2.116006e+003
4.684716e+002, 2.091699e+003
4.689538e+002, 2.066284e+003
4.694359e+002, 2.038536e+003
4.699180e+002, 2.012999e+003
4.704001e+002, 1.989817e+003
4.708822e+002, 1.968454e+003
4.713643e+002, 1.948240e+003
4.718465e+002, 1.929706e+003
4.723286e+002, 1.910570e+003
4.728107e+002, 1.889561e+003
4.732928e+002, 1.867551e+003
4.737749e+002, 1.848266e+003
4.742570e+002, 1.832147e+003
4.747392e+002, 1.816901e+003
4.752213e+002, 1.800461e+003
4.757034e+002, 1.783194e+003
4.761855e+002, 1.767755e+003
4.766676e+002, 1.754632e+003
4.771497e+002, 1.742649e+003
4.776319e+002, 1.730875e+003
4.781140e+002, 1.719139e+003
4.785961e+002, 1.706990e+003
4.790782e+002, 1.693025e+003
4.795603e+002, 1.679301e+003
4.800424e+002, 1.668665e+003
4.805246e+002, 1.660764e+003
4.810067e+002, 1.653104e+003
4.814888e+002, 1.644493e+003
4.819709e+002, 1.635199e+003
4.824530e+002, 1.625347e+003
4.829352e+002, 1.614593e+003
4.834173e+002, 1.604170e+003
4.838994e+002, 1.593498e+003
4.843815e+002, 1.583636e+003
4.848636e+002, 1.576308e+003
4.853457e+002, 1.575633e+003
4.858279e+002, 1.573696e+003
4.863100e+002, 1.567372e+003
4.867921e+002, 1.556616e+003
4.872742e+002, 1.548483e+003
4.877563e+002, 1.544613e+003
4.882384e+002, 1.541666e+003
4.887206e+002, 1.537934e+003
4.892027e+002, 1.533410e+003
4.896848e+002, 1.527961e+003
4.901669e+002, 1.520521e+003
4.906490e+002, 1.513342e+003
4.911311e+002, 1.510564e+003
4.916133e+002, 1.512934e+003
4.920954e+002, 1.514687e+003
4.925775e+002, 1.513824e+003
4.930596e+002, 1.511038e+003
4.935417e+002, 1.508841e+003
4.940238e+002, 1.507228e+003
4.945060e+002, 1.505842e+003
4.949881e+002, 1.504826e+003
4.954702e+002, 1.503792e+003
4.959523e+002, 1.501354e+003
4.964344e+002, 1.496947e+003
4.969165e+002, 1.492886e+003
4.973987e+002, 1.492052e+003
4.978808e+002, 1.493154e+003
4.983629e+002, 1.493788e+003
4.988450e+002, 1.492057e+003
4.993271e+002, 1.490302e+003
4.998092e+002, 1.490380e+003
5.002914e+002, 1.491966e+003
5.007735e+002, 1.493165e+003
5.012556e+002, 1.492800e+003
5.017377e+002, 1.492211e+003
5.022198e+002, 1.492177e+003
5.027019e+002, 1.492911e+003
5.031841e+002, 1.493951e+003
5.036662e+002, 1.495157e+003
5.041483e+002, 1.496711e+003
5.046304e+002, 1.498866e+003
5.051125e+002, 1.502420e+003
5.055946e+002, 1.505200e+003
5.060768e+002, 1.506506e+003
5.065589e+002, 1.506738e+003
5.070410e+002, 1.508124e+003
5.075231e+002, 1.511112e+003
5.080052e+002, 1.513941e+003
5.084873e+002, 1.515307e+003
5.089695e+002, 1.515163e+003
5.094516e+002, 1.516664e+003
5.099337e+002, 1.520092e+003
5.104158e+002, 1.524013e+003
5.108979e+002, 1.526490e+003
5.113800e+002, 1.527941e+003
5.118622e+002, 1.530277e+003
5.123443e+002, 1.534449e+003
5.128264e+002, 1.539083e+003
5.133085e+002, 1.542517e+003
5.137906e+002, 1.544914e+003
5.142728e+002, 1.546850e+003
5.147549e+002, 1.549105e+003
5.152370e+002, 1.550766e+003
5.157191e+002, 1.550180e+003
5.162012e+002, 1.547054e+003
5.166833e+002, 1.545856e+003
5.171655e+002, 1.550259e+003
5.176476e+002, 1.556654e+003
5.181297e+002, 1.561974e+003
5.186118e+002, 1.565923e+003
5.190939e+002, 1.568362e+003
5.195760e+002, 1.566967e+003
5.200582e+002, 1.564165e+003
5.205403e+002, 1.565768e+003
5.210224e+002, 1.575164e+003
5.215045e+002, 1.584174e+003
5.219866e+002, 1.590288e+003
5.224688e+002, 1.593526e+003
5.229509e+002, 1.598321e+003
5.234330e+002, 1.605500e+003
5.239151e+002, 1.612334e+003
5.243972e+002, 1.616044e+003
5.248793e+002, 1.616502e+003
5.253615e+002, 1.618974e+003
5.258436e+002, 1.624238e+003
5.263257e+002, 1.630779e+003
5.268078e+002, 1.636584e+003
5.272899e+002, 1.641719e+003
5.277720e+002, 1.646447e+003
5.282542e+002, 1.651066e+003
5.287363e+002, 1.655106e+003
5.292184e+002, 1.656821e+003
5.297005e+002, 1.656871e+003
5.301826e+002, 1.658939e+003
5.306647e+002, 1.667294e+003
5.311469e+002, 1.677438e+003
5.316290e+002, 1.685531e+003
5.321111e+002, 1.690639e+003
5.325932e+002, 1.695538e+003
5.330753e+002, 1.701024e+003
5.335574e+002, 1.707029e+003
5.340396e+002, 1.713388e+003
5.345217e+002, 1.720272e+003
5.350038e+002, 1.727389e+003
5.354859e+002, 1.734905e+003
5.359680e+002, 1.742688e+003
5.364501e+002, 1.750299e+003
5.369323e+002, 1.756982e+003
5.374144e+002, 1.764815e+003
5.378965e+002, 1.775106e+003
5.383786e+002, 1.787913e+003
5.388607e+002, 1.797950e+003
5.393428e+002, 1.804252e+003
5.398250e+002, 1.810441e+003
5.403071e+002, 1.819988e+003
5.407892e+002, 1.832468e+003
5.412713e+002, 1.845273e+003
5.417534e+002, 1.857947e+003
5.422355e+002, 1.870738e+003
5.427177e+002, 1.884100e+003
5.431998e+002, 1.897955e+003
5.436819e+002, 1.911721e+003
5.441640e+002, 1.925010e+003
5.446461e+002, 1.937985e+003
5.451282e+002, 1.950278e+003
5.456104e+002, 1.962150e+003
5.460925e+002, 1.975472e+003
5.465746e+002, 1.992863e+003
5.470567e+002, 2.010829e+003
5.475388e+002, 2.026820e+003
5.480209e+002, 2.039396e+003
5.485031e+002, 2.053552e+003
5.489852e+002, 2.071092e+003
5.494673e+002, 2.090447e+003
5.499494e+002, 2.110001e+003
5.504315e+002, 2.129785e+003
5.509136e+002, 2.149575e+003
5.513958e+002, 2.169224e+003
5.518779e+002, 2.188944e+003
5.523600e+002, 2.208769e+003
5.528421e+002, 2.228422e+003
5.533242e+002, 2.249476e+003
5.538063e+002, 2.273204e+003
5.542885e+002, 2.299139e+003
5.547706e+002, 2.323020e+003
5.552527e+002, 2.344594e+003
5.557348e+002, 2.366845e+003
5.562169e+002, 2.393360e+003
5.566990e+002, 2.422458e+003
5.571812e+002, 2.450249e+003
5.576633e+002, 2.475802e+003
5.581454e+002, 2.501246e+003
5.586275e+002, 2.528573e+003
5.591096e+002, 2.557165e+003
5.595917e+002, 2.586546e+003
5.600739e+002, 2.616057e+003
5.605560e+002, 2.646320e+003
5.610381e+002, 2.677863e+003
5.615202e+002, 2.710290e+003
5.620023e+002, 2.743112e+003
5.624844e+002, 2.775453e+003
5.629666e+002, 2.808874e+003
5.634487e+002, 2.843934e+003
5.639308e+002, 2.880648e+003
5.644129e+002, 2.918189e+003
5.648950e+002, 2.957210e+003
5.653771e+002, 2.996302e+003
5.658593e+002, 3.034213e+003
5.663414e+002, 3.070121e+003
5.668235e+002, 3.109078e+003
5.673056e+002, 3.152642e+003
5.677877e+002, 3.198515e+003
5.682698e+002, 3.242813e+003
5.687520e+002, 3.285983e+003
5.692341e+002, 3.328723e+003
5.697162e+002, 3.370598e+003
5.701983e+002, 3.413163e+003
5.706804e+002, 3.461466e+003
5.711625e+002, 3.514627e+003
5.716447e+002, 3.567606e+003
5.721268e+002, 3.615922e+003
5.726089e+002, 3.663322e+003
5.730910e+002, 3.712514e+003
5.735731e+002, 3.764355e+003
5.740552e+002, 3.817511e+003
5.745374e+002, 3.872238e+003
5.750195e+002, 3.928194e+003
5.755016e+002, 3.985249e+003
5.759837e+002, 4.044207e+003
5.764658e+002, 4.102853e+003
5.769479e+002, 4.160355e+003
5.774301e+002, 4.217825e+003
5.779122e+002, 4.277643e+003
5.783943e+002, 4.339942e+003
5.788764e+002, 4.405434e+003
5.793585e+002, 4.475296e+003
5.798406e+002, 4.548662e+003
5.803228e+002, 4.619935e+003
5.808049e+002, 4.688980e+003
5.812870e+002, 4.756293e+003
5.817691e+002, 4.821322e+003
5.822512e+002, 4.885120e+003
5.827333e+002, 4.953769e+003
5.832155e+002, 5.028366e+003
5.836975e+002, 5.103374e+003
5.841796e+002, 5.174458e+003
5.846617e+002, 5.243906e+003
5.851439e+002, 5.315894e+003
5.856260e+002, 5.391716e+003
5.861081e+002, 5.470282e+003
5.865902e+002, 5.552573e+003
5.870723e+002, 5.637359e+003
5.875544e+002, 5.720552e+003
5.880366e+002, 5.798112e+003
5.885187e+002, 5.878770e+003
5.890008e+002, 5.966616e+003
5.894829e+002, 6.061331e+003
5.899650e+002, 6.154430e+003
5.904471e+002, 6.244604e+003
5.909293e+002, 6.334844e+003
5.914114e+002, 6.425300e+003
5.918935e+002, 6.516085e+003
5.923756e+002, 6.608374e+003
5.928577e+002, 6.702377e+003
5.933398e+002, 6.797773e+003
5.938220e+002, 6.896719e+003
5.943041e+002, 6.998564e+003
5.947862e+002, 7.097949e+003
5.952683e+002, 7.193961e+003
5.957504e+002, 7.287931e+003
5.962325e+002, 7.382922e+003
5.967147e+002, 7.478952e+003
5.971968e+002, 7.574152e+003
5.976789e+002, 7.666612e+003
5.981610e+002, 7.760158e+003
5.986431e+002, 7.860667e+003
5.991252e+002, 7.965678e+003
5.996074e+002, 8.065136e+003
6.000895e+002, 8.153673e+003
6.005716e+002, 8.238278e+003
6.010537e+002, 8.322343e+003
6.015358e+002, 8.405380e+003
6.020179e+002, 8.487435e+003
6.025001e+002, 8.571093e+003
6.029822e+002, 8.651438e+003
6.034643e+002, 8.724229e+003
6.039464e+002, 8.788326e+003
6.044285e+002, 8.852563e+003
6.049106e+002, 8.919807e+003
6.053928e+002, 8.984181e+003
6.058749e+002, 9.036528e+003
6.063570e+002, 9.077714e+003
6.068391e+002, 9.116959e+003
6.073212e+002, 9.159037e+003
6.078033e+002, 9.198025e+003
6.082855e+002, 9.224739e+003
6.087676e+002, 9.240468e+003
6.092497e+002, 9.251110e+003
6.097318e+002, 9.262798e+003
6.102139e+002, 9.268187e+003
6.106960e+002, 9.260463e+003
6.111782e+002, 9.239513e+003
6.116603e+002, 9.212710e+003
6.121424e+002, 9.184467e+003
6.126245e+002, 9.149596e+003
6.131066e+002, 9.104405e+003
6.135887e+002, 9.044058e+003
6.140709e+002, 8.983460e+003
6.145530e+002, 8.925157e+003
6.150351e+002, 8.863895e+003
6.155172e+002, 8.793426e+003
6.159993e+002, 8.712455e+003
6.164814e+002, 8.625093e+003
6.169636e+002, 8.530964e+003
6.174457e+002, 8.432493e+003
6.179278e+002, 8.333096e+003
6.184099e+002, 8.232393e+003
6.188920e+002, 8.127986e+003
6.193741e+002, 8.015868e+003
6.198563e+002, 7.900198e+003
6.203384e+002, 7.790391e+003
6.208205e+002, 7.684863e+003
6.213026e+002, 7.575942e+003
6.217847e+002, 7.458689e+003
6.222668e+002, 7.336091e+003
6.227490e+002, 7.211736e+003
6.232311e+002, 7.085068e+003
6.237132e+002, 6.960269e+003
6.241953e+002, 6.838920e+003
6.246774e+002, 6.719800e+003
6.251595e+002, 6.602153e+003
6.256417e+002, 6.488146e+003
6.261238e+002, 6.370898e+003
6.266059e+002, 6.249078e+003
6.270880e+002, 6.127202e+003
6.275701e+002, 6.011734e+003
6.280522e+002, 5.902942e+003
6.285344e+002, 5.798498e+003
6.290165e+002, 5.698756e+003
6.294986e+002, 5.601760e+003
6.299807e+002, 5.503241e+003
6.304628e+002, 5.403344e+003
6.309449e+002, 5.306005e+003
6.314271e+002, 5.212123e+003
6.319092e+002, 5.121188e+003
6.323913e+002, 5.032453e+003
6.328734e+002, 4.945627e+003
6.333555e+002, 4.862198e+003
6.338376e+002, 4.783446e+003
6.343198e+002, 4.706844e+003
6.348019e+002, 4.629976e+003
6.352840e+002, 4.551913e+003
6.357661e+002, 4.476112e+003
6.362482e+002, 4.402436e+003
6.367303e+002, 4.330802e+003
6.372125e+002, 4.261240e+003
6.376946e+002, 4.193748e+003
6.381767e+002, 4.127722e+003
6.386588e+002, 4.063363e+003
6.391409e+002, 4.000371e+003
6.396230e+002, 3.939385e+003
6.401052e+002, 3.880211e+003
6.405873e+002, 3.823308e+003
6.410694e+002, 3.769492e+003
6.415515e+002, 3.717788e+003
6.420336e+002, 3.668438e+003
6.425157e+002, 3.621049e+003
6.429979e+002, 3.573492e+003
6.434800e+002, 3.523133e+003
6.439621e+002, 3.474077e+003
6.444442e+002, 3.430196e+003
6.449263e+002, 3.390812e+003
6.454084e+002, 3.352673e+003
6.458906e+002, 3.316167e+003
6.463727e+002, 3.279836e+003
6.468548e+002, 3.242744e+003
6.473369e+002, 3.204810e+003
6.478190e+002, 3.167744e+003
6.483011e+002, 3.131530e+003
6.487833e+002, 3.096679e+003
6.492654e+002, 3.064489e+003
6.497475e+002, 3.034805e+003
6.502296e+002, 3.004434e+003
6.507117e+002, 2.972750e+003
6.511938e+002, 2.941730e+003
6.516760e+002, 2.914677e+003
6.521581e+002, 2.890594e+003
6.526402e+002, 2.867246e+003
6.531223e+002, 2.843965e+003
6.536044e+002, 2.821284e+003
6.540865e+002, 2.799987e+003
6.545687e+002, 2.779148e+003
6.550508e+002, 2.756933e+003
6.555329e+002, 2.729620e+003
6.560150e+002, 2.703606e+003
6.564971e+002, 2.681874e+003
6.569792e+002, 2.663698e+003
6.574614e+002, 2.644972e+003
6.579435e+002, 2.624870e+003
6.584256e+002, 2.605070e+003
6.589077e+002, 2.585896e+003
6.593898e+002, 2.567375e+003
6.598719e+002, 2.550660e+003
6.603541e+002, 2.536122e+003
6.608362e+002, 2.521696e+003
6.613183e+002, 2.505616e+003
6.618004e+002, 2.488400e+003
6.622825e+002, 2.470749e+003
6.627646e+002, 2.452604e+003
6.632468e+002, 2.435887e+003
6.637289e+002, 2.423313e+003
6.642110e+002, 2.412804e+003
6.646931e+002, 2.401725e+003
6.651752e+002, 2.389438e+003
6.656573e+002, 2.376688e+003
6.661395e+002, 2.363149e+003
6.666216e+002, 2.349506e+003
6.671037e+002, 2.336597e+003
6.675858e+002, 2.324124e+003
6.680679e+002, 2.313011e+003
6.685500e+002, 2.303935e+003
6.690322e+002, 2.296047e+003
6.695143e+002, 2.287940e+003
6.699964e+002, 2.279712e+003
6.704785e+002, 2.270479e+003
6.709606e+002, 2.259663e+003
6.714427e+002, 2.247802e+003
6.719249e+002, 2.235991e+003
6.724070e+002, 2.224348e+003
6.728891e+002, 2.214305e+003
6.733712e+002, 2.208191e+003
6.738533e+002, 2.203330e+003
6.743354e+002, 2.196322e+003
6.748176e+002, 2.187338e+003
6.752997e+002, 2.179295e+003
6.757818e+002, 2.175132e+003
6.762639e+002, 2.171358e+003
6.767460e+002, 2.165539e+003
6.772281e+002, 2.156735e+003
6.777103e+002, 2.149138e+003
6.781924e+002, 2.144073e+003
6.786745e+002, 2.139072e+003
6.791566e+002, 2.131958e+003
6.796387e+002, 2.121958e+003
6.801208e+002, 2.113277e+003
6.806030e+002, 2.105895e+003
6.810851e+002, 2.100212e+003
6.815672e+002, 2.098155e+003
6.820493e+002, 2.098460e+003
6.825314e+002, 2.095122e+003
6.830135e+002, 2.085399e+003
6.834957e+002, 2.074699e+003
6.839778e+002, 2.069358e+003
6.844599e+002, 2.067094e+003
6.849420e+002, 2.063825e+003
6.854241e+002, 2.056758e+003
6.859063e+002, 2.049651e+003
6.863884e+002, 2.044140e+003
6.868705e+002, 2.039737e+003
6.873526e+002, 2.034587e+003
6.878347e+002, 2.028253e+003
6.883168e+002, 2.021629e+003
6.887990e+002, 2.015065e+003
6.892811e+002, 2.008445e+003
6.897632e+002, 2.001609e+003
6.902453e+002, 1.994684e+003
6.907274e+002, 1.986930e+003
6.912095e+002, 1.976672e+003
6.916917e+002, 1.965425e+003
6.921738e+002, 1.958637e+003
6.926559e+002, 1.956200e+003
6.931380e+002, 1.952764e+003
6.936201e+002, 1.943289e+003
6.941022e+002, 1.931590e+003
6.945844e+002, 1.921108e+003
6.950665e+002, 1.912430e+003
6.955486e+002, 1.904301e+003
6.960307e+002, 1.896730e+003
6.965128e+002, 1.889239e+003
6.969949e+002, 1.881347e+003
6.974771e+002, 1.872837e+003
6.979592e+002, 1.864517e+003
6.984413e+002, 1.856820e+003
6.989234e+002, 1.848882e+003
6.994055e+002, 1.839345e+003
6.998876e+002, 1.828195e+003
7.003698e+002, 1.817843e+003
7.008519e+002, 1.809111e+003
7.013340e+002, 1.800616e+003
7.018161e+002, 1.790432e+003
7.022982e+002, 1.779007e+003
7.027803e+002, 1.767370e+003
7.032625e+002, 1.755247e+003
7.037446e+002, 1.743821e+003
7.042267e+002, 1.734652e+003
7.047088e+002, 1.726786e+003
7.051909e+002, 1.718187e+003
7.056730e+002, 1.706195e+003
7.061552e+002, 1.695959e+003
7.066373e+002, 1.689934e+003
7.071194e+002, 1.686770e+003
7.076015e+002, 1.679878e+003
7.080836e+002, 1.667986e+003
7.085657e+002, 1.656258e+003
7.090479e+002, 1.646915e+003
7.095300e+002, 1.639324e+003
7.100121e+002, 1.631203e+003
7.104942e+002, 1.622474e+003
7.109763e+002, 1.612627e+003
7.114584e+002, 1.599753e+003
7.119406e+002, 1.586267e+003
7.124227e+002, 1.575531e+003
7.129048e+002, 1.567601e+003
7.133869e+002, 1.559666e+003
7.138690e+002, 1.550304e+003
7.143511e+002, 1.540559e+003
7.148333e+002, 1.531197e+003
7.153154e+002, 1.522958e+003
7.157975e+002, 1.512995e+003
7.162796e+002, 1.499657e+003
7.167617e+002, 1.486578e+003
7.172438e+002, 1.476949e+003
7.177260e+002, 1.471317e+003
7.182081e+002, 1.463777e+003
7.186902e+002, 1.453526e+003
7.191723e+002, 1.443564e+003
7.196544e+002, 1.438631e+003
7.201365e+002, 1.436789e+003
7.206187e+002, 1.433239e+003
7.211008e+002, 1.426797e+003
7.215829e+002, 1.418659e+003
7.220650e+002, 1.408225e+003
7.225471e+002, 1.397074e+003
7.230292e+002, 1.387094e+003
7.235114e+002, 1.379760e+003
7.239935e+002, 1.372761e+003
7.244756e+002, 1.366085e+003
7.249577e+002, 1.359354e+003
7.254398e+002, 1.351635e+003
7.259219e+002, 1.342513e+003
7.264041e+002, 1.333619e+003
7.268862e+002, 1.324950e+003
7.273683e+002, 1.317054e+003
7.278504e+002, 1.312923e+003
7.283325e+002, 1.311787e+003
7.288146e+002, 1.308272e+003
7.292968e+002, 1.298286e+003
7.297789e+002, 1.286165e+003
7.302610e+002, 1.276114e+003
7.307431e+002, 1.267973e+003
7.312252e+002, 1.261209e+003
7.317073e+002, 1.257328e+003
7.321895e+002, 1.253102e+003
7.326716e+002, 1.246693e+003
7.331537e+002, 1.238266e+003
7.336358e+002, 1.231050e+003
7.341179e+002, 1.225500e+003
7.346000e+002, 1.220297e+003
7.350822e+002, 1.215194e+003
7.355643e+002, 1.210089e+003
7.360464e+002, 1.203896e+003
7.365285e+002, 1.196588e+003
7.370106e+002, 1.188929e+003
7.374927e+002, 1.180646e+003
7.379749e+002, 1.172684e+003
7.384570e+002, 1.167059e+003
7.389391e+002, 1.163844e+003
7.394212e+002, 1.160694e+003
7.399033e+002, 1.156816e+003
7.403854e+002, 1.152065e+003
7.408676e+002, 1.145976e+003
7.413497e+002, 1.137821e+003
7.418318e+002, 1.131061e+003
7.423139e+002, 1.126399e+003
7.427960e+002, 1.122503e+003
7.432781e+002, 1.118586e+003
7.437603e+002, 1.114713e+003
7.442424e+002, 1.110348e+003
7.447245e+002, 1.105443e+003
7.452066e+002, 1.100154e+003
7.456887e+002, 1.093694e+003
7.461708e+002, 1.086966e+003
7.466530e+002, 1.082801e+003
7.471351e+002, 1.082142e+003
7.476172e+002, 1.081672e+003
7.480993e+002, 1.078936e+003
7.485814e+002, 1.075056e+003
7.490635e+002, 1.071287e+003
7.495457e+002, 1.067697e+003
7.500278e+002, 1.064514e+003
7.505099e+002, 1.062225e+003
7.509920e+002, 1.060081e+003
7.514741e+002, 1.057221e+003
7.519562e+002, 1.053537e+003
7.524384e+002, 1.049425e+003
7.529205e+002, 1.044668e+003
7.534026e+002, 1.040101e+003
7.538847e+002, 1.037551e+003
7.543668e+002, 1.036479e+003
7.548489e+002, 1.034769e+003
7.553311e+002, 1.031858e+003
7.558132e+002, 1.027944e+003
7.562953e+002, 1.021885e+003
7.567774e+002, 1.015207e+003
7.572595e+002, 1.010718e+003
7.577416e+002, 1.012011e+003
7.582238e+002, 1.012360e+003
7.587059e+002, 1.009541e+003
7.591880e+002, 1.004945e+003
7.596701e+002, 1.001582e+003
7.601522e+002, 1.000136e+003
7.606343e+002, 9.974774e+002
7.611165e+002, 9.920322e+002
7.615986e+002, 9.856630e+002
7.620807e+002, 9.834728e+002
7.625628e+002, 9.847980e+002
7.630449e+002, 9.857360e+002
7.635270e+002, 9.840840e+002
7.640092e+002, 9.815859e+002
7.644913e+002, 9.797639e+002
7.649734e+002, 9.784254e+002
7.654555e+002, 9.769485e+002
7.659376e+002, 9.745576e+002
7.664197e+002, 9.725831e+002
7.669019e+002, 9.719469e+002
7.673840e+002, 9.722137e+002
7.678661e+002, 9.713837e+002
7.683482e+002, 9.693109e+002
7.688303e+002, 9.665003e+002
7.693124e+002, 9.627392e+002
7.697946e+002, 9.585535e+002
7.702767e+002, 9.558233e+002
7.707588e+002, 9.544345e+002
7.712409e+002, 9.533284e+002
7.717230e+002, 9.514063e+002
7.722051e+002, 9.497836e+002
7.726873e+002, 9.501852e+002
7.731694e+002, 9.522599e+002
7.736515e+002, 9.532617e+002
7.741336e+002, 9.514315e+002
7.746157e+002, 9.491035e+002
7.750978e+002, 9.474356e+002
7.755800e+002, 9.463928e+002
7.760621e+002, 9.441346e+002
7.765442e+002, 9.401210e+002
7.770263e+002, 9.364214e+002
7.775084e+002, 9.340951e+002
7.779905e+002, 9.330241e+002
7.784727e+002, 9.330231e+002
7.789548e+002, 9.340332e+002
7.794369e+002, 9.351023e+002
7.799190e+002, 9.357571e+002
7.804011e+002, 9.359872e+002
7.808832e+002, 9.357830e+002
7.813654e+002, 9.351390e+002
7.818475e+002, 9.340821e+002
7.823296e+002, 9.318734e+002
7.828117e+002, 9.299395e+002
7.832938e+002, 9.291238e+002
7.837759e+002, 9.295856e+002
7.842581e+002, 9.292585e+002
7.847402e+002, 9.278658e+002
7.852223e+002, 9.266053e+002
7.857044e+002, 9.269922e+002
7.861865e+002, 9.282737e+002
7.866686e+002, 9.271058e+002
7.871508e+002, 9.234207e+002
7.876329e+002, 9.193445e+002
7.881150e+002, 9.154407e+002
7.885971e+002, 9.124974e+002
7.890792e+002, 9.117244e+002
7.895613e+002, 9.134724e+002
7.900435e+002, 9.148511e+002
7.905256e+002, 9.147441e+002
7.910077e+002, 9.144317e+002
7.914898e+002, 9.145803e+002
7.919719e+002, 9.152521e+002
7.924540e+002, 9.160056e+002
7.929362e+002, 9.170181e+002
7.934183e+002, 9.172617e+002
7.939004e+002, 9.152318e+002
7.943825e+002, 9.117865e+002
7.948646e+002, 9.094145e+002
7.953467e+002, 9.082821e+002
7.958289e+002, 9.076153e+002
7.963110e+002, 9.072477e+002
7.967931e+002, 9.068602e+002
7.972752e+002, 9.063223e+002
7.977573e+002, 9.057786e+002
7.982394e+002, 9.043034e+002
7.987216e+002, 9.008366e+002
7.992037e+002, 8.975172e+002
7.996858e+002, 8.958948e+002
8.001679e+002, 8.962838e+002
8.006500e+002, 8.959862e+002
8.011321e+002, 8.949648e+002
8.016143e+002, 8.935079e+002
8.020964e+002, 8.913811e+002
8.025785e+002, 8.891451e+002
8.030606e+002, 8.882287e+002
8.035427e+002, 8.889031e+002
8.040248e+002, 8.889078e+002
8.045070e+002, 8.853478e+002
8.049891e+002, 8.816393e+002
8.054712e+002, 8.809141e+002
8.059533e+002, 8.854318e+002
8.064354e+002, 8.862471e+002
8.069175e+002, 8.809554e+002
8.073997e+002, 8.753991e+002
8.078818e+002, 8.745197e+002
8.083639e+002, 8.781801e+002
8.088460e+002, 8.797478e+002
8.093281e+002, 8.789374e+002
8.098102e+002, 8.768339e+002
8.102924e+002, 8.738635e+002
8.107745e+002, 8.704563e+002
8.112566e+002, 8.667845e+002
8.117387e+002, 8.627360e+002
8.122208e+002, 8.602814e+002
8.127029e+002, 8.626326e+002
8.131851e+002, 8.650795e+002
8.136672e+002, 8.639802e+002
8.141493e+002, 8.581035e+002
8.146314e+002, 8.541214e+002
8.151135e+002, 8.525696e+002
8.155956e+002, 8.516531e+002
8.160778e+002, 8.499158e+002
8.165599e+002, 8.475771e+002
8.170420e+002, 8.457913e+002
8.175241e+002, 8.446163e+002
8.180062e+002, 8.434081e+002
8.184883e+002, 8.414310e+002
8.189705e+002, 8.392727e+002
8.194526e+002, 8.376073e+002
8.199347e+002, 8.366138e+002
8.204168e+002, 8.353326e+002
8.208989e+002, 8.337801e+002
8.213810e+002, 8.316531e+002
8.218632e+002, 8.284705e+002
8.223453e+002, 8.239904e+002
8.228274e+002, 8.212589e+002
8.233095e+002, 8.206558e+002
8.237916e+002, 8.198411e+002
8.242737e+002, 8.166736e+002
8.247559e+002, 8.120947e+002
8.252380e+002, 8.077767e+002
8.257201e+002, 8.038829e+002
8.262022e+002, 8.005569e+002
8.266843e+002, 7.990546e+002
8.271664e+002, 7.972907e+002
8.276486e+002, 7.933422e+002
8.281307e+002, 7.864514e+002
8.286128e+002, 7.819398e+002
8.290949e+002, 7.811046e+002
8.295770e+002, 7.803550e+002
8.300591e+002, 7.775046e+002
8.305413e+002, 7.727859e+002
8.310234e+002, 7.688128e+002
8.315055e+002, 7.655709e+002
8.319876e+002, 7.624196e+002
8.324697e+002, 7.594083e+002
8.329518e+002, 7.558922e+002
8.334340e+002, 7.503223e+002
8.339161e+002, 7.429039e+002
8.343982e+002, 7.371562e+002
8.348803e+002, 7.366815e+002
8.353624e+002, 7.357968e+002
8.358445e+002, 7.318240e+002
8.363267e+002, 7.249371e+002
8.368088e+002, 7.185043e+002
8.372909e+002, 7.125261e+002
8.377730e+002, 7.071844e+002
8.382551e+002, 7.028817e+002
8.387372e+002, 6.992027e+002
8.392194e+002, 6.950707e+002
8.397015e+002, 6.905627e+002
8.401836e+002, 6.861133e+002
8.406657e+002, 6.821415e+002
8.411478e+002, 6.781511e+002
8.416299e+002, 6.737012e+002
8.421121e+002, 6.688665e+002
8.425942e+002, 6.645816e+002
8.430763e+002, 6.610988e+002
8.435584e+002, 6.577379e+002
8.440405e+002, 6.543306e+002
8.445226e+002, 6.508613e+002
8.450048e+002, 6.473242e+002
8.454869e+002, 6.437048e+002
8.459690e+002, 6.398116e+002
8.464511e+002, 6.351059e+002
8.469332e+002, 6.305043e+002
8.474153e+002, 6.274623e+002
8.478975e+002, 6.253956e+002
8.483796e+002, 6.226435e+002
8.488617e+002, 6.181377e+002
8.493438e+002, 6.134125e+002
8.498259e+002, 6.087277e+002
8.503080e+002, 6.042115e+002
8.507902e+002, 6.001937e+002
8.512723e+002, 5.967008e+002
8.517544e+002, 5.939017e+002
8.522365e+002, 5.922403e+002
8.527186e+002, 5.906910e+002
8.532007e+002, 5.867769e+002
8.536829e+002, 5.814487e+002
8.541650e+002, 5.773046e+002
8.546471e+002, 5.763176e+002
8.551292e+002, 5.754576e+002
8.556113e+002, 5.733444e+002
8.560934e+002, 5.703630e+002
8.565756e+002, 5.671545e+002
8.570577e+002, 5.635345e+002
8.575398e+002, 5.600869e+002
8.580219e+002, 5.567115e+002
8.585040e+002, 5.536845e+002
8.589861e+002, 5.518597e+002
8.594683e+002, 5.509367e+002
8.599504e+002, 5.491945e+002
8.604325e+002, 5.459954e+002
8.609146e+002, 5.427135e+002
8.613967e+002, 5.407744e+002
8.618788e+002, 5.394554e+002
8.623610e+002, 5.378315e+002
8.628431e+002, 5.354428e+002
8.633252e+002, 5.332440e+002
8.638073e+002, 5.316680e+002
8.642894e+002, 5.299789e+002
8.647715e+002, 5.272747e+002
8.652537e+002, 5.234784e+002
8.657358e+002, 5.205621e+002
8.662179e+002, 5.187823e+002
8.667000e+002, 5.170206e+002
8.671821e+002, 5.135483e+002
8.676642e+002, 5.096138e+002
8.681464e+002, 5.072762e+002
8.686285e+002, 5.070453e+002
8.691106e+002, 5.067965e+002
8.695927e+002, 5.059335e+002
8.700748e+002, 5.045596e+002
8.705569e+002, 5.026320e+002
8.710391e+002, 4.999814e+002
8.715212e+002, 4.979909e+002
8.720033e+002, 4.967701e+002
8.724854e+002, 4.957401e+002
8.729675e+002, 4.946445e+002
8.734496e+002, 4.933611e+002
8.739318e+002, 4.914370e+002
8.744139e+002, 4.889282e+002
8.748960e+002, 4.866953e+002
8.753781e+002, 4.852595e+002
8.758602e+002, 4.842440e+002
8.763423e+002, 4.837632e+002
8.768245e+002, 4.837741e+002
8.773066e+002, 4.826739e+002
8.777887e+002, 4.798416e+002
8.782708e+002, 4.773745e+002
8.787529e+002, 4.762566e+002
8.792350e+002, 4.761108e+002
8.797172e+002, 4.759300e+002
8.801993e+002, 4.756321e+002
8.806814e+002, 4.746157e+002
8.811635e+002, 4.716717e+002
8.816456e+002, 4.686862e+002
8.821277e+002, 4.671306e+002
8.826099e+002, 4.666696e+002
8.830920e+002, 4.662935e+002
8.835741e+002, 4.661392e+002
8.840562e+002, 4.655026e+002
8.845383e+002, 4.639706e+002
8.850204e+002, 4.621024e+002
8.855026e+002, 4.612534e+002
8.859847e+002, 4.613430e+002
8.864668e+002, 4.613873e+002
8.869489e+002, 4.613002e+002
8.874310e+002, 4.605835e+002
8.879131e+002, 4.577943e+002
8.883953e+002, 4.543119e+002
8.888774e+002, 4.522490e+002
8.893595e+002, 4.539733e+002
8.898416e+002, 4.544268e+002
8.903237e+002, 4.519221e+002
8.908058e+002, 4.487343e+002
8.912880e+002, 4.473445e+002
8.917701e+002, 4.479429e+002
8.922522e+002, 4.479982e+002
8.927343e+002, 4.472495e+002
8.932164e+002, 4.462538e+002
8.936985e+002, 4.457350e+002
8.941807e+002, 4.452784e+002
8.946628e+002, 4.440455e+002
8.951449e+002, 4.417269e+002
8.956270e+002, 4.400573e+002
8.961091e+002, 4.396574e+002
8.965912e+002, 4.401500e+002
8.970734e+002, 4.417732e+002
8.975555e+002, 4.448203e+002
8.980376e+002, 4.447379e+002
8.985197e+002, 4.410120e+002
8.990018e+002, 4.373260e+002
8.994839e+002, 4.371542e+002
8.999661e+002, 4.384475e+002
9.004482e+002, 4.368454e+002
9.009303e+002, 4.327793e+002
9.014124e+002, 4.295979e+002
9.018945e+002, 4.299879e+002
9.023766e+002, 4.305819e+002
9.028588e+002, 4.293921e+002
9.033409e+002, 4.269346e+002
9.038230e+002, 4.258073e+002
9.043051e+002, 4.264147e+002
9.047872e+002, 4.266026e+002
9.052693e+002, 4.252638e+002
9.057515e+002, 4.235595e+002
9.062336e+002, 4.243782e+002
9.067157e+002, 4.268448e+002
9.071978e+002, 4.284247e+002
9.076799e+002, 4.276410e+002
9.081620e+002, 4.262878e+002
9.086442e+002, 4.249912e+002
9.091263e+002, 4.236921e+002
9.096084e+002, 4.223045e+002
9.100905e+002, 4.208970e+002
9.105726e+002, 4.190928e+002
9.110547e+002, 4.165557e+002
9.115369e+002, 4.142882e+002
9.120190e+002, 4.141031e+002
9.125011e+002, 4.152303e+002
9.129832e+002, 4.152827e+002
9.134653e+002, 4.136548e+002
9.139474e+002, 4.122828e+002
9.144296e+002, 4.130335e+002
9.149117e+002, 4.141403e+002
9.153938e+002, 4.138857e+002
9.158759e+002, 4.115935e+002
9.163580e+002, 4.106390e+002
9.168401e+002, 4.116638e+002
9.173223e+002, 4.124215e+002
9.178044e+002, 4.109515e+002
9.182865e+002, 4.079515e+002
9.187686e+002, 4.060013e+002
9.192507e+002, 4.050391e+002
9.197328e+002, 4.042338e+002
9.202150e+002, 4.028128e+002
9.206971e+002, 4.016241e+002
9.211792e+002, 4.015203e+002
9.216613e+002, 4.022920e+002
9.221434e+002, 4.021665e+002
9.226255e+002, 4.006149e+002
9.231077e+002, 3.993169e+002
9.235898e+002, 3.987051e+002
9.240719e+002, 3.986954e+002
9.245540e+002, 3.995460e+002
9.250361e+002, 4.009131e+002
9.255182e+002, 4.013302e+002
9.260004e+002, 3.996577e+002
9.264825e+002, 3.978555e+002
9.269646e+002, 3.976001e+002
9.274467e+002, 3.978186e+002
9.279288e+002, 3.967408e+002
9.284109e+002, 3.925092e+002
9.288931e+002, 3.909056e+002
9.293752e+002, 3.932080e+002
9.298573e+002, 3.961280e+002
9.303394e+002, 3.956041e+002
9.308215e+002, 3.925509e+002
9.313036e+002, 3.901101e+002
9.317858e+002, 3.886477e+002
9.322679e+002, 3.878602e+002
9.327500e+002, 3.881486e+002
9.332321e+002, 3.885613e+002
9.337142e+002, 3.883397e+002
9.341964e+002, 3.873419e+002
9.346785e+002, 3.862997e+002
9.351606e+002, 3.850838e+002
9.356427e+002, 3.841872e+002
9.361248e+002, 3.840579e+002
9.366069e+002, 3.843980e+002
9.370891e+002, 3.841299e+002
9.375712e+002, 3.833682e+002
9.380533e+002, 3.827130e+002
9.385354e+002, 3.827039e+002
9.390175e+002, 3.826712e+002
9.394996e+002, 3.820392e+002
9.399818e+002, 3.810865e+002
9.404639e+002, 3.807477e+002
9.409460e+002, 3.816406e+002
9.414281e+002, 3.814565e+002
9.419102e+002, 3.794632e+002
9.423923e+002, 3.768419e+002
9.428745e+002, 3.754205e+002
9.433566e+002, 3.749484e+002
9.438387e+002, 3.747602e+002
9.443208e+002, 3.747100e+002
9.448029e+002, 3.748871e+002
9.452850e+002, 3.759416e+002
9.457672e+002, 3.768741e+002
9.462493e+002, 3.766431e+002
9.467314e+002, 3.749299e+002
9.472135e+002, 3.732491e+002
9.476956e+002, 3.714042e+002
9.481777e+002, 3.702794e+002
9.486599e+002, 3.706972e+002
9.491420e+002, 3.723324e+002
9.496241e+002, 3.754483e+002
9.501062e+002, 3.795813e+002
9.505883e+002, 3.813297e+002
9.510704e+002, 3.762821e+002
9.515526e+002, 3.709008e+002
9.520347e+002, 3.688096e+002
9.525168e+002, 3.691737e+002
9.529989e+002, 3.688300e+002
9.534810e+002, 3.675796e+002
9.539631e+002, 3.665296e+002
9.544453e+002, 3.659382e+002
9.549274e+002, 3.658127e+002
9.554095e+002, 3.669116e+002
9.558916e+002, 3.683807e+002
9.563737e+002, 3.682404e+002
9.568558e+002, 3.645664e+002
9.573380e+002, 3.616808e+002
9.578201e+002, 3.618995e+002
9.583022e+002, 3.630110e+002
9.587843e+002, 3.628225e+002
9.592664e+002, 3.609092e+002
9.597485e+002, 3.603420e+002
9.602307e+002, 3.613946e+002
9.607128e+002, 3.624330e+002
9.611949e+002, 3.614783e+002
9.616770e+002, 3.598767e+002
9.621591e+002, 3.597458e+002
9.626412e+002, 3.611301e+002
9.631234e+002, 3.622529e+002
9.636055e+002, 3.622331e+002
9.640876e+002, 3.621578e+002
9.645697e+002, 3.627194e+002
9.650518e+002, 3.635030e+002
9.655339e+002, 3.622669e+002
9.660161e+002, 3.590030e+002
9.664982e+002, 3.563436e+002
9.669803e+002, 3.552736e+002
9.674624e+002, 3.552765e+002
9.679445e+002, 3.566875e+002
9.684266e+002, 3.585463e+002
9.689088e+002, 3.592401e+002
9.693909e+002, 3.571557e+002
9.698730e+002, 3.555538e+002
9.703551e+002, 3.547131e+002
9.708372e+002, 3.543253e+002
9.713193e+002, 3.544242e+002
9.718015e+002, 3.548524e+002
9.722836e+002, 3.536032e+002
9.727657e+002, 3.504697e+002
9.732478e+002, 3.479072e+002
9.737299e+002, 3.483009e+002
9.742120e+002, 3.497125e+002
9.746942e+002, 3.506728e+002
9.751763e+002, 3.510442e+002
9.756584e+002, 3.512064e+002
9.761405e+002, 3.513835e+002
9.766226e+002, 3.508635e+002
9.771047e+002, 3.489963e+002
9.775869e+002, 3.465673e+002
9.780690e+002, 3.459328e+002
9.785511e+002, 3.467218e+002
9.790332e+002, 3.475383e+002
9.795153e+002, 3.478979e+002
9.799974e+002, 3.480377e+002
9.804796e+002, 3.481906e+002
9.809617e+002, 3.481395e+002
9.814438e+002, 3.474727e+002
9.819259e+002, 3.455989e+002
9.824080e+002, 3.452614e+002
9.828901e+002, 3.470842e+002
9.833723e+002, 3.485620e+002
9.838544e+002, 3.462122e+002
9.843365e+002, 3.420755e+002
9.848186e+002, 3.402536e+002
9.853007e+002, 3.410289e+002
9.857828e+002, 3.416139e+002
9.862650e+002, 3.402301e+002
9.867471e+002, 3.389899e+002
9.872292e+002, 3.390203e+002
9.877113e+002, 3.399838e+002
9.881934e+002, 3.400563e+002
9.886755e+002, 3.392030e+002
9.891577e+002, 3.381105e+002
9.896398e+002, 3.366867e+002
9.901219e+002, 3.357417e+002
9.906040e+002, 3.368876e+002
9.910861e+002, 3.390329e+002
9.915682e+002, 3.403401e+002
9.920504e+002, 3.401618e+002
9.925325e+002, 3.391815e+002
9.930146e+002, 3.369030e+002
9.934967e+002, 3.346345e+002
9.939788e+002, 3.337539e+002
9.944609e+002, 3.340765e+002
9.949431e+002, 3.340859e+002
9.954252e+002, 3.337004e+002
9.959073e+002, 3.327926e+002
9.963894e+002, 3.301779e+002
9.968715e+002, 3.279175e+002
9.973536e+002, 3.279149e+002
9.978358e+002, 3.300547e+002
9.983179e+002, 3.314881e+002
9.988000e+002, 3.321505e+002
9.992821e+002, 3.320522e+002
9.997642e+002, 3.309424e+002
1.000246e+003, 3.294445e+002
1.000728e+003, 3.287446e+002
1.001211e+003, 3.287015e+002
1.001693e+003, 3.291151e+002
1.002175e+003, 3.304894e+002
1.002657e+003, 3.310533e+002
1.003139e+003, 3.289523e+002
1.003621e+003, 3.264501e+002
1.004103e+003, 3.258008e+002
1.004585e+003, 3.275499e+002
1.005068e+003, 3.279257e+002
1.005550e+003, 3.268488e+002
1.006032e+003, 3.251639e+002
1.006514e+003, 3.227046e+002
1.006996e+003, 3.205117e+002
1.007478e+003, 3.201937e+002
1.007960e+003, 3.214683e+002
1.008442e+003, 3.224793e+002
1.008924e+003, 3.224552e+002
1.009407e+003, 3.224904e+002
1.009889e+003, 3.230744e+002
1.010371e+003, 3.235823e+002
1.010853e+003, 3.220641e+002
1.011335e+003, 3.190000e+002
1.011817e+003, 3.179824e+002
1.012299e+003, 3.203464e+002
1.012781e+003, 3.226382e+002
1.013263e+003, 3.219079e+002
1.013746e+003, 3.200951e+002
1.014228e+003, 3.191188e+002
1.014710e+003, 3.193608e+002
1.015192e+003, 3.192505e+002
1.015674e+003, 3.188287e+002
1.016156e+003, 3.179059e+002
1.016638e+003, 3.156949e+002
1.017120e+003, 3.132088e+002
1.017603e+003, 3.131777e+002
1.018085e+003, 3.149078e+002
1.018567e+003, 3.159618e+002
1.019049e+003, 3.144902e+002
1.019531e+003, 3.130668e+002
1.020013e+003, 3.120525e+002
1.020495e+003, 3.117480e+002
1.020977e+003, 3.130884e+002
1.021459e+003, 3.161360e+002
1.021942e+003, 3.178029e+002
1.022424e+003, 3.176432e+002
1.022906e+003, 3.165186e+002
1.023388e+003, 3.144745e+002
1.023870e+003, 3.123795e+002
1.024352e+003, 3.113122e+002
1.024834e+003, 3.114890e+002
1.025316e+003, 3.109213e+002
1.025799e+003, 3.087287e+002
1.026281e+003, 3.074291e+002
1.026763e+003, 3.084461e+002
1.027245e+003, 3.106817e+002
1.027727e+003, 3.113077e+002
1.028209e+003, 3.106840e+002
1.028691e+003, 3.100178e+002
1.029173e+003, 3.100376e+002
1.029656e+003, 3.096925e+002
1.030138e+003, 3.081931e+002
1.030620e+003, 3.062636e+002
1.031102e+003, 3.045868e+002
1.031584e+003, 3.030963e+002
1.032066e+003, 3.021919e+002
1.032548e+003, 3.018780e+002
1.033030e+003, 3.020789e+002
1.033512e+003, 3.031277e+002
1.033995e+003, 3.043904e+002
1.034477e+003, 3.051122e+002
1.034959e+003, 3.053132e+002
1.035441e+003, 3.053836e+002
1.035923e+003, 3.054632e+002
1.036405e+003, 3.052877e+002
1.036887e+003, 3.046268e+002
1.037369e+003, 3.038968e+002
1.037851e+003, 3.043251e+002
1.038334e+003, 3.054408e+002
1.038816e+003, 3.051835e+002
1.039298e+003, 3.026910e+002
1.039780e+003, 3.006544e+002
1.040262e+003, 3.014996e+002
1.040744e+003, 3.028726e+002
1.041226e+003, 3.028242e+002
1.041708e+003, 3.012448e+002
1.042191e+003, 2.997860e+002
1.042673e+003, 2.983846e+002
1.043155e+003, 2.974938e+002
1.043637e+003, 2.974690e+002
1.044119e+003, 2.979854e+002
1.044601e+003, 2.990175e+002
1.045083e+003, 3.001999e+002
1.045565e+003, 3.006599e+002
1.046047e+003, 2.994750e+002
1.046530e+003, 2.985038e+002
1.047012e+003, 2.979777e+002
1.047494e+003, 2.976107e+002
1.047976e+003, 2.971212e+002
1.048458e+003, 2.965113e+002
1.048940e+003, 2.956342e+002
1.049422e+003, 2.944999e+002
1.049904e+003, 2.939524e+002
1.050386e+003, 2.956924e+002
1.050869e+003, 2.970849e+002
1.051351e+003, 2.958698e+002
1.051833e+003, 2.928582e+002
1.052315e+003, 2.914391e+002
1.052797e+003, 2.918065e+002
1.053279e+003, 2.923398e+002
1.053761e+003, 2.927094e+002
1.054243e+003, 2.927881e+002
1.054726e+003, 2.918222e+002
1.055208e+003, 2.907206e+002
1.055690e+003, 2.909383e+002
1.056172e+003, 2.934444e+002
1.056654e+003, 2.950995e+002
1.057136e+003, 2.956736e+002
1.057618e+003, 2.953797e+002
1.058100e+003, 2.941078e+002
1.058583e+003, 2.921118e+002
1.059065e+003, 2.899386e+002
1.059547e+003, 2.878273e+002
1.060029e+003, 2.868788e+002
1.060511e+003, 2.890978e+002
1.060993e+003, 2.909692e+002
1.061475e+003, 2.908253e+002
1.061957e+003, 2.895584e+002
1.062439e+003, 2.881781e+002
1.062922e+003, 2.865820e+002
1.063404e+003, 2.860487e+002
1.063886e+003, 2.868102e+002
1.064368e+003, 2.873833e+002
1.064850e+003, 2.859181e+002
1.065332e+003, 2.839863e+002
1.065814e+003, 2.832036e+002
1.066296e+003, 2.836102e+002
1.066778e+003, 2.841148e+002
1.067261e+003, 2.850961e+002
1.067743e+003, 2.849983e+002
1.068225e+003, 2.830825e+002
1.068707e+003, 2.804603e+002
1.069189e+003, 2.788744e+002
1.069671e+003, 2.782718e+002
1.070153e+003, 2.788213e+002
1.070635e+003, 2.810453e+002
1.071118e+003, 2.825602e+002
1.071600e+003, 2.821113e+002
1.072082e+003, 2.808597e+002
1.072564e+003, 2.792254e+002
1.073046e+003, 2.773004e+002
1.073528e+003, 2.760541e+002
1.074010e+003, 2.754797e+002
1.074492e+003, 2.752949e+002
1.074974e+003, 2.754727e+002
1.075457e+003, 2.758631e+002
1.075939e+003, 2.766730e+002
1.076421e+003, 2.775107e+002
1.076903e+003, 2.776234e+002
1.077385e+003, 2.765292e+002
1.077867e+003, 2.762009e+002
1.078349e+003, 2.768686e+002
1.078831e+003, 2.776754e+002
1.079313e+003, 2.780283e+002
1.079796e+003, 2.779020e+002
1.080278e+003, 2.769645e+002
1.080760e+003, 2.753678e+002
1.081242e+003, 2.742330e+002
1.081724e+003, 2.742998e+002
1.082206e+003, 2.743983e+002
1.082688e+003, 2.744427e+002
1.083170e+003, 2.742358e+002
1.083652e+003, 2.730695e+002
1.084135e+003, 2.713009e+002
1.084617e+003, 2.703794e+002
1.085099e+003, 2.706499e+002
1.085581e+003, 2.712170e+002
1.086063e+003, 2.722357e+002
1.086545e+003, 2.727291e+002
1.087027e+003, 2.718551e+002
1.087509e+003, 2.698195e+002
1.087992e+003, 2.686401e+002
1.088474e+003, 2.683221e+002
1.088956e+003, 2.685050e+002
1.089438e+003, 2.694214e+002
1.089920e+003, 2.701141e+002
1.090402e+003, 2.691947e+002
1.090884e+003, 2.676675e+002
1.091366e+003, 2.669386e+002
1.091849e+003, 2.674606e+002
1.092331e+003, 2.681600e+002
1.092813e+003, 2.692166e+002
1.093295e+003, 2.698405e+002
1.093777e+003, 2.691673e+002
1.094259e+003, 2.678030e+002
1.094741e+003, 2.664098e+002
1.095223e+003, 2.652628e+002
1.095705e+003, 2.652619e+002
1.096188e+003, 2.682996e+002
1.096670e+003, 2.703603e+002
1.097152e+003, 2.706343e+002
1.097634e+003, 2.699234e+002
1.098116e+003, 2.689666e+002
1.098598e+003, 2.678920e+002
1.099080e+003, 2.674942e+002
1.099562e+003, 2.678283e+002
1.100044e+003, 2.679243e+002
1.100527e+003, 2.667448e+002
1.101009e+003, 2.656142e+002
1.101491e+003, 2.652702e+002
1.101973e+003, 2.655402e+002
1.102455e+003, 2.660880e+002
1.102937e+003, 2.669286e+002
1.103419e+003, 2.672585e+002
1.103901e+003, 2.668925e+002
1.104384e+003, 2.659193e+002
1.104866e+003, 2.634722e+002
1.105348e+003, 2.610907e+002
1.105830e+003, 2.606246e+002
1.106312e+003, 2.625750e+002
1.106794e+003, 2.633783e+002
1.107276e+003, 2.627604e+002
1.107758e+003, 2.620625e+002
1.108240e+003, 2.618358e+002
1.108723e+003, 2.619476e+002
1.109205e+003, 2.624257e+002
1.109687e+003, 2.630190e+002
1.110169e+003, 2.632150e+002
1.110651e+003, 2.622595e+002
1.111133e+003, 2.621336e+002
1.111615e+003, 2.634476e+002
1.112097e+003, 2.647168e+002
1.112579e+003, 2.647509e+002
1.113062e+003, 2.638145e+002
1.113544e+003, 2.625542e+002
1.114026e+003, 2.611058e+002
1.114508e+003, 2.601313e+002
1.114990e+003, 2.605500e+002
1.115472e+003, 2.607437e+002
1.115954e+003, 2.600529e+002
1.116436e+003, 2.590168e+002
1.116919e+003, 2.583029e+002
1.117401e+003, 2.578884e+002
1.117883e+003, 2.573500e+002
1.118365e+003, 2.566523e+002
1.118847e+003, 2.565454e+002
1.119329e+003, 2.586262e+002
1.119811e+003, 2.604910e+002
1.120293e+003, 2.599529e+002
1.120776e+003, 2.578719e+002
1.121258e+003, 2.574008e+002
1.121740e+003, 2.587443e+002
1.122222e+003, 2.595942e+002
1.122704e+003, 2.593627e+002
1.123186e+003, 2.589704e+002
1.123668e+003, 2.597819e+002
1.124150e+003, 2.606632e+002
1.124632e+003, 2.601021e+002
1.125115e+003, 2.577269e+002
1.125597e+003, 2.567422e+002
1.126079e+003, 2.576088e+002
1.126561e+003, 2.584548e+002
1.127043e+003, 2.586192e+002
1.127525e+003, 2.583231e+002
1.128007e+003, 2.574396e+002
1.128489e+003, 2.565217e+002
1.128971e+003, 2.567343e+002
1.129454e+003, 2.593706e+002
1.129936e+003, 2.602437e+002
1.130418e+003, 2.583156e+002
1.130900e+003, 2.559510e+002
1.131382e+003, 2.543034e+002
1.131864e+003, 2.534086e+002
1.132346e+003, 2.535616e+002
1.132828e+003, 2.545455e+002
1.133311e+003, 2.556465e+002
1.133793e+003, 2.571307e+002
1.134275e+003, 2.578726e+002
1.134757e+003, 2.571474e+002
1.135239e+003, 2.561387e+002
1.135721e+003, 2.560666e+002
1.136203e+003, 2.567735e+002
1.136685e+003, 2.569488e+002
1.137167e+003, 2.565739e+002
1.137650e+003, 2.559238e+002
1.138132e+003, 2.544545e+002
1.138614e+003, 2.535267e+002
1.139096e+003, 2.544984e+002
1.139578e+003, 2.561226e+002
1.140060e+003, 2.562794e+002
1.140542e+003, 2.549340e+002
1.141024e+003, 2.541454e+002
1.141506e+003, 2.541587e+002
1.141989e+003, 2.542307e+002
1.142471e+003, 2.536297e+002
1.142953e+003, 2.529855e+002
1.143435e+003, 2.529046e+002
1.143917e+003, 2.532370e+002
1.144399e+003, 2.531192e+002
1.144881e+003, 2.524781e+002
1.145363e+003, 2.517755e+002
1.145846e+003, 2.509872e+002
1.146328e+003, 2.507401e+002
1.146810e+003, 2.525473e+002
1.147292e+003, 2.547341e+002
1.147774e+003, 2.552500e+002
1.148256e+003, 2.536775e+002
1.148738e+003, 2.533553e+002
1.149220e+003, 2.547759e+002
1.149703e+003, 2.558211e+002
1.150185e+003, 2.556790e+002
1.150667e+003, 2.549444e+002
1.151149e+003, 2.543511e+002
1.151631e+003, 2.538225e+002
1.152113e+003, 2.532021e+002
1.152595e+003, 2.523661e+002
1.153077e+003, 2.517906e+002
1.153559e+003, 2.515150e+002
1.154042e+003, 2.514615e+002
1.154524e+003, 2.515882e+002
1.155006e+003, 2.519137e+002
1.155488e+003, 2.528946e+002
1.155970e+003, 2.540724e+002
1.156452e+003, 2.542787e+002
1.156934e+003, 2.526113e+002
1.157416e+003, 2.508121e+002
1.157898e+003, 2.485601e+002
1.158381e+003, 2.471190e+002
1.158863e+003, 2.479831e+002
1.159345e+003, 2.504293e+002
1.159827e+003, 2.515515e+002
1.160309e+003, 2.515796e+002
1.160791e+003, 2.514223e+002
1.161273e+003, 2.510950e+002
1.161755e+003, 2.511869e+002
1.162238e+003, 2.521097e+002
1.162720e+003, 2.531860e+002
1.163202e+003, 2.535915e+002
1.163684e+003, 2.534674e+002
1.164166e+003, 2.540277e+002
1.164648e+003, 2.551865e+002
1.165130e+003, 2.556233e+002
1.165612e+003, 2.535247e+002
1.166094e+003, 2.517720e+002
1.166577e+003, 2.519056e+002
1.167059e+003, 2.529058e+002
1.167541e+003, 2.532816e+002
1.168023e+003, 2.530755e+002
1.168505e+003, 2.526862e+002
1.168987e+003, 2.521546e+002
1.169469e+003, 2.517208e+002
1.169951e+003, 2.513539e+002
1.170433e+003, 2.513375e+002
1.170916e+003, 2.521786e+002
1.171398e+003, 2.534162e+002
1.171880e+003, 2.539315e+002
1.172362e+003, 2.537336e+002
1.172844e+003, 2.532124e+002
1.173326e+003, 2.523883e+002
1.173808e+003, 2.516593e+002
1.174290e+003, 2.513237e+002
1.174773e+003, 2.512482e+002
1.175255e+003, 2.514006e+002
1.175737e+003, 2.517297e+002
1.176219e+003, 2.521148e+002
1.176701e+003, 2.525753e+002
1.177183e+003, 2.526695e+002
1.177665e+003, 2.521445e+002
1.178147e+003, 2.517120e+002
1.178630e+003, 2.526145e+002
1.179112e+003, 2.535534e+002
1.179594e+003, 2.528627e+002
1.180076e+003, 2.505004e+002
1.180558e+003, 2.498028e+002
1.181040e+003, 2.509772e+002
1.181522e+003, 2.516990e+002
1.182004e+003, 2.508003e+002
1.182486e+003, 2.496936e+002
1.182969e+003, 2.501378e+002
1.183451e+003, 2.511237e+002
1.183933e+003, 2.513515e+002
1.184415e+003, 2.505282e+002
1.184897e+003, 2.499629e+002
1.185379e+003, 2.495948e+002
1.185861e+003, 2.498811e+002
1.186343e+003, 2.514911e+002
1.186825e+003, 2.532738e+002
1.187308e+003, 2.536013e+002
1.187790e+003, 2.532712e+002
1.188272e+003, 2.536065e+002
1.188754e+003, 2.552919e+002
1.189236e+003, 2.560535e+002
1.189718e+003, 2.557768e+002
1.190200e+003, 2.551480e+002
1.190682e+003, 2.544369e+002
1.191165e+003, 2.537689e+002
1.191647e+003, 2.535307e+002
1.192129e+003, 2.534137e+002
1.192611e+003, 2.527063e+002
1.193093e+003, 2.504871e+002
1.193575e+003, 2.496778e+002
1.194057e+003, 2.506174e+002
1.194539e+003, 2.517442e+002
1.195021e+003, 2.515732e+002
1.195504e+003, 2.510405e+002
1.195986e+003, 2.518022e+002
1.196468e+003, 2.532750e+002
1.196950e+003, 2.535914e+002
1.197432e+003, 2.511870e+002
1.197914e+003, 2.506751e+002
1.198396e+003, 2.528056e+002
1.198878e+003, 2.551214e+002
1.199360e+003, 2.549483e+002
1.199843e+003, 2.537120e+002
1.200325e+003, 2.536201e+002
1.200807e+003, 2.543664e+002
1.201289e+003, 2.542761e+002
1.201771e+003, 2.523108e+002
1.202253e+003, 2.513275e+002
1.202735e+003, 2.518494e+002
1.203217e+003, 2.527531e+002
1.203700e+003, 2.527610e+002
1.204182e+003, 2.523830e+002
1.204664e+003, 2.523602e+002
1.205146e+003, 2.526817e+002
1.205628e+003, 2.529032e+002
1.206110e+003, 2.526945e+002
1.206592e+003, 2.530638e+002
1.207074e+003, 2.544106e+002
1.207557e+003, 2.556614e+002
1.208039e+003, 2.551764e+002
1.208521e+003, 2.538990e+002
1.209003e+003, 2.530448e+002
1.209485e+003, 2.527336e+002
1.209967e+003, 2.530136e+002
1.210449e+003, 2.542145e+002
1.210931e+003, 2.551586e+002
1.211413e+003, 2.556559e+002
1.211896e+003, 2.556854e+002
1.212378e+003, 2.547228e+002
1.212860e+003, 2.535529e+002
1.213342e+003, 2.534882e+002
1.213824e+003, 2.546741e+002
1.214306e+003, 2.555811e+002
1.214788e+003, 2.560397e+002
1.215270e+003, 2.562996e+002
1.215752e+003, 2.564801e+002
1.216235e+003, 2.563650e+002
1.216717e+003, 2.554392e+002
1.217199e+003, 2.541164e+002
1.217681e+003, 2.528091e+002
1.218163e+003, 2.515281e+002
1.218645e+003, 2.513124e+002
1.219127e+003, 2.525350e+002
1.219609e+003, 2.537728e+002
1.220092e+003, 2.546252e+002
1.220574e+003, 2.551931e+002
1.221056e+003, 2.557979e+002
1.221538e+003, 2.561374e+002
1.222020e+003, 2.554521e+002
1.222502e+003, 2.533586e+002
1.222984e+003, 2.530173e+002
1.223466e+003, 2.553381e+002
1.223948e+003, 2.565546e+002
1.224431e+003, 2.547715e+002
1.224913e+003, 2.522844e+002
1.225395e+003, 2.528365e+002
1.225877e+003, 2.546308e+002
1.226359e+003, 2.550386e+002
1.226841e+003, 2.531870e+002
1.227323e+003, 2.522849e+002
1.227805e+003, 2.525205e+002
1.228287e+003, 2.530684e+002
1.228770e+003, 2.537350e+002
1.229252e+003, 2.542673e+002
1.229734e+003, 2.542396e+002
1.230216e+003, 2.538951e+002
1.230698e+003, 2.535378e+002
1.231180e+003, 2.532009e+002
1.231662e+003, 2.528894e+002
1.232144e+003, 2.525722e+002
1.232627e+003, 2.524830e+002
1.233109e+003, 2.528853e+002
1.233591e+003, 2.533071e+002
1.234073e+003, 2.532492e+002
1.234555e+003, 2.528352e+002
1.235037e+003, 2.519757e+002
1.235519e+003, 2.503363e+002
1.236001e+003, 2.508618e+002
1.236484e+003, 2.538736e+002
1.236966e+003, 2.561713e+002
1.237448e+003, 2.559653e+002
1.237930e+003, 2.546080e+002
1.238412e+003, 2.526959e+002
1.238894e+003, 2.508547e+002
1.239376e+003, 2.500504e+002
1.239858e+003, 2.503967e+002
1.240340e+003, 2.510076e+002
1.240823e+003, 2.519167e+002
1.241305e+003, 2.519314e+002
1.241787e+003, 2.493663e+002
1.242269e+003, 2.471378e+002
1.242751e+003, 2.483239e+002
1.243233e+003, 2.509812e+002
1.243715e+003, 2.527023e+002
1.244197e+003, 2.533693e+002
1.244679e+003, 2.535721e+002
1.245162e+003, 2.533254e+002
1.245644e+003, 2.532160e+002
1.246126e+003, 2.535509e+002
1.246608e+003, 2.541486e+002
1.247090e+003, 2.555570e+002
1.247572e+003, 2.566924e+002
1.248054e+003, 2.563517e+002
1.248536e+003, 2.544909e+002
1.249019e+003, 2.520481e+002
1.249501e+003, 2.491965e+002
1.249983e+003, 2.477397e+002
1.250465e+003, 2.500320e+002
1.250947e+003, 2.522955e+002
1.251429e+003, 2.522741e+002
1.251911e+003, 2.515379e+002
1.252393e+003, 2.517332e+002
1.252875e+003, 2.527431e+002
1.253358e+003, 2.519724e+002
1.253840e+003, 2.497070e+002
1.254322e+003, 2.478757e+002
1.254804e+003, 2.470596e+002
1.255286e+003, 2.474510e+002
1.255768e+003, 2.504151e+002
1.256250e+003, 2.532404e+002
1.256732e+003, 2.531273e+002
1.257214e+003, 2.507321e+002
1.257697e+003, 2.499866e+002
1.258179e+003, 2.507106e+002
1.258661e+003, 2.519684e+002
1.259143e+003, 2.542323e+002
1.259625e+003, 2.557237e+002
1.260107e+003, 2.562850e+002
1.260589e+003, 2.558615e+002
1.261071e+003, 2.536171e+002
1.261554e+003, 2.505054e+002
1.262036e+003, 2.499738e+002
1.262518e+003, 2.513307e+002
1.263000e+003, 2.521331e+002
1.263482e+003, 2.508307e+002
1.263964e+003, 2.498850e+002
1.264446e+003, 2.495564e+002
1.264928e+003, 2.494884e+002
1.265411e+003, 2.494060e+002
1.265893e+003, 2.493683e+002
1.266375e+003, 2.495711e+002
1.266857e+003, 2.499128e+002
1.267339e+003, 2.501160e+002
1.267821e+003, 2.500058e+002
1.268303e+003, 2.500458e+002
1.268785e+003, 2.504104e+002
1.269267e+003, 2.503232e+002
1.269750e+003, 2.480207e+002
1.270232e+003, 2.458035e+002
1.270714e+003, 2.476304e+002
1.271196e+003, 2.517213e+002
1.271678e+003, 2.537993e+002
1.272160e+003, 2.530654e+002
1.272642e+003, 2.516363e+002
1.273124e+003, 2.494216e+002
1.273606e+003, 2.477135e+002
1.274089e+003, 2.478174e+002
1.274571e+003, 2.484751e+002
1.275053e+003, 2.486359e+002
1.275535e+003, 2.485363e+002
1.276017e+003, 2.486917e+002
1.276499e+003, 2.492272e+002
1.276981e+003, 2.492106e+002
1.277463e+003, 2.486311e+002
1.277946e+003, 2.477918e+002
1.278428e+003, 2.459249e+002
1.278910e+003, 2.449539e+002
1.279392e+003, 2.466620e+002
1.279874e+003, 2.496048e+002
1.280356e+003, 2.526383e+002
1.280838e+003, 2.556682e+002
1.281320e+003, 2.554953e+002
1.281802e+003, 2.524412e+002
1.282285e+003, 2.496350e+002
1.282767e+003, 2.492297e+002
1.283249e+003, 2.487465e+002
1.283731e+003, 2.467700e+002
1.284213e+003, 2.449130e+002
1.284695e+003, 2.448773e+002
1.285177e+003, 2.462046e+002
1.285659e+003, 2.467791e+002
1.286141e+003, 2.466963e+002
1.286624e+003, 2.464247e+002
1.287106e+003, 2.459011e+002
1.287588e+003, 2.456137e+002
1.288070e+003, 2.456845e+002
1.288552e+003, 2.458513e+002
1.289034e+003, 2.460357e+002
1.289516e+003, 2.460993e+002
1.289998e+003, 2.454457e+002
1.290481e+003, 2.444333e+002
1.290963e+003, 2.439861e+002
1.291445e+003, 2.449243e+002
1.291927e+003, 2.455092e+002
1.292409e+003, 2.457553e+002
1.292891e+003, 2.455676e+002
1.293373e+003, 2.442283e+002
1.293855e+003, 2.429483e+002
1.294338e+003, 2.436842e+002
1.294820e+003, 2.454839e+002
1.295302e+003, 2.464840e+002
1.295784e+003, 2.463200e+002
1.296266e+003, 2.463697e+002
1.296748e+003, 2.466380e+002
1.297230e+003, 2.470336e+002
1.297712e+003, 2.477649e+002
1.298194e+003, 2.482881e+002
1.298677e+003, 2.479037e+002
1.299159e+003, 2.472206e+002
1.299641e+003, 2.470451e+002
1.300123e+003, 2.473959e+002
1.300605e+003, 2.472660e+002
1.301087e+003, 2.466886e+002
1.301569e+003, 2.459518e+002
1.302051e+003, 2.449249e+002
1.302533e+003, 2.441629e+002
1.303016e+003, 2.438658e+002
##END=



