##NAMES=Dawsonite
##RRUFFID=R120093
##IDEAL CHEMISTRY=NaAlCO_3_(OH)_2_
##LOCALITY=Francon Quarry, Montréal, Québec, Canada
##OWNER=RRUFF
##SOURCE=Don Doell
##DESCRIPTION=Colorless short prismatic crystals associated with calcite, orthoclase, strontiodresserite and quartz
##STATUS=The identification of this mineral has been confirmed only by single crystal X-ray diffraction.
##URL=rruff.info/R120093
9.001007e+001, 0.000000e+000
9.049219e+001, 2.455314e+001
9.097430e+001, 2.501127e+001
9.145642e+001, 2.487900e+001
9.193854e+001, 2.421000e+001
9.242065e+001, 2.345182e+001
9.290277e+001, 2.286099e+001
9.338489e+001, 2.244291e+001
9.386700e+001, 2.222537e+001
9.434912e+001, 2.232657e+001
9.483124e+001, 2.260402e+001
9.531335e+001, 2.281117e+001
9.579547e+001, 2.295932e+001
9.627759e+001, 2.295374e+001
9.675970e+001, 2.249433e+001
9.724182e+001, 2.163331e+001
9.772394e+001, 2.105670e+001
9.820605e+001, 2.123859e+001
9.868817e+001, 2.210096e+001
9.917029e+001, 2.266237e+001
9.965240e+001, 2.289086e+001
1.001345e+002, 2.285621e+001
1.006166e+002, 2.265487e+001
1.010988e+002, 2.225994e+001
1.015809e+002, 2.180660e+001
1.020630e+002, 2.133033e+001
1.025451e+002, 2.079295e+001
1.030272e+002, 2.042072e+001
1.035093e+002, 2.029374e+001
1.039915e+002, 2.033482e+001
1.044736e+002, 2.020517e+001
1.049557e+002, 1.984420e+001
1.054378e+002, 1.940051e+001
1.059199e+002, 1.895689e+001
1.064020e+002, 1.843151e+001
1.068842e+002, 1.805504e+001
1.073663e+002, 1.790411e+001
1.078484e+002, 1.798379e+001
1.083305e+002, 1.798664e+001
1.088126e+002, 1.791012e+001
1.092947e+002, 1.775764e+001
1.097769e+002, 1.753097e+001
1.102590e+002, 1.707581e+001
1.107411e+002, 1.670317e+001
1.112232e+002, 1.653439e+001
1.117053e+002, 1.666815e+001
1.121874e+002, 1.657839e+001
1.126696e+002, 1.591511e+001
1.131517e+002, 1.508877e+001
1.136338e+002, 1.463127e+001
1.141159e+002, 1.494893e+001
1.145980e+002, 1.537950e+001
1.150801e+002, 1.567897e+001
1.155623e+002, 1.573768e+001
1.160444e+002, 1.585728e+001
1.165265e+002, 1.629698e+001
1.170086e+002, 1.686040e+001
1.174907e+002, 1.712440e+001
1.179728e+002, 1.677880e+001
1.184550e+002, 1.618999e+001
1.189371e+002, 1.555060e+001
1.194192e+002, 1.473908e+001
1.199013e+002, 1.413479e+001
1.203834e+002, 1.408869e+001
1.208655e+002, 1.447463e+001
1.213477e+002, 1.480041e+001
1.218298e+002, 1.472004e+001
1.223119e+002, 1.446247e+001
1.227940e+002, 1.427659e+001
1.232761e+002, 1.436843e+001
1.237582e+002, 1.444226e+001
1.242404e+002, 1.409130e+001
1.247225e+002, 1.336283e+001
1.252046e+002, 1.283940e+001
1.256867e+002, 1.329980e+001
1.261688e+002, 1.426420e+001
1.266509e+002, 1.485804e+001
1.271331e+002, 1.445714e+001
1.276152e+002, 1.358821e+001
1.280973e+002, 1.296457e+001
1.285794e+002, 1.258625e+001
1.290615e+002, 1.245317e+001
1.295436e+002, 1.277008e+001
1.300258e+002, 1.341469e+001
1.305079e+002, 1.384575e+001
1.309900e+002, 1.367161e+001
1.314721e+002, 1.308175e+001
1.319542e+002, 1.265752e+001
1.324363e+002, 1.243717e+001
1.329185e+002, 1.232335e+001
1.334006e+002, 1.219227e+001
1.338827e+002, 1.204254e+001
1.343648e+002, 1.187688e+001
1.348469e+002, 1.164340e+001
1.353290e+002, 1.135598e+001
1.358112e+002, 1.123556e+001
1.362933e+002, 1.133735e+001
1.367754e+002, 1.156734e+001
1.372575e+002, 1.166976e+001
1.377396e+002, 1.159556e+001
1.382217e+002, 1.162306e+001
1.387039e+002, 1.207209e+001
1.391860e+002, 1.306713e+001
1.396681e+002, 1.357676e+001
1.401502e+002, 1.337650e+001
1.406323e+002, 1.262751e+001
1.411144e+002, 1.201405e+001
1.415966e+002, 1.156862e+001
1.420787e+002, 1.119336e+001
1.425608e+002, 1.078390e+001
1.430429e+002, 1.025828e+001
1.435250e+002, 9.942525e+000
1.440071e+002, 9.956883e+000
1.444893e+002, 1.028349e+001
1.449714e+002, 1.046654e+001
1.454535e+002, 1.044929e+001
1.459356e+002, 1.034157e+001
1.464177e+002, 1.023842e+001
1.468998e+002, 1.010241e+001
1.473820e+002, 1.002779e+001
1.478641e+002, 1.004674e+001
1.483462e+002, 1.017526e+001
1.488283e+002, 1.028623e+001
1.493104e+002, 1.038473e+001
1.497925e+002, 1.046390e+001
1.502747e+002, 1.051424e+001
1.507568e+002, 1.039386e+001
1.512389e+002, 1.038922e+001
1.517210e+002, 1.063796e+001
1.522031e+002, 1.131569e+001
1.526852e+002, 1.168470e+001
1.531674e+002, 1.133609e+001
1.536495e+002, 1.076099e+001
1.541316e+002, 1.066732e+001
1.546137e+002, 1.199923e+001
1.550958e+002, 1.305444e+001
1.555779e+002, 1.316248e+001
1.560601e+002, 1.167459e+001
1.565422e+002, 1.065244e+001
1.570243e+002, 1.064830e+001
1.575064e+002, 1.129649e+001
1.579885e+002, 1.188893e+001
1.584706e+002, 1.204062e+001
1.589528e+002, 1.227292e+001
1.594349e+002, 1.285884e+001
1.599170e+002, 1.406291e+001
1.603991e+002, 1.522603e+001
1.608812e+002, 1.612989e+001
1.613633e+002, 1.685153e+001
1.618455e+002, 1.759318e+001
1.623276e+002, 1.821074e+001
1.628097e+002, 1.899631e+001
1.632918e+002, 2.015914e+001
1.637739e+002, 2.185966e+001
1.642560e+002, 2.377755e+001
1.647382e+002, 2.552230e+001
1.652203e+002, 2.728450e+001
1.657024e+002, 2.979332e+001
1.661845e+002, 3.359541e+001
1.666666e+002, 3.823029e+001
1.671487e+002, 4.322926e+001
1.676309e+002, 4.833650e+001
1.681130e+002, 5.398042e+001
1.685951e+002, 6.035679e+001
1.690772e+002, 6.746664e+001
1.695593e+002, 7.517869e+001
1.700414e+002, 8.340687e+001
1.705236e+002, 9.223458e+001
1.710057e+002, 1.016568e+002
1.714878e+002, 1.122195e+002
1.719699e+002, 1.230911e+002
1.724520e+002, 1.334151e+002
1.729341e+002, 1.432734e+002
1.734163e+002, 1.531288e+002
1.738984e+002, 1.634895e+002
1.743805e+002, 1.741400e+002
1.748626e+002, 1.843999e+002
1.753447e+002, 1.940637e+002
1.758268e+002, 2.033921e+002
1.763090e+002, 2.124713e+002
1.767911e+002, 2.212176e+002
1.772732e+002, 2.303671e+002
1.777553e+002, 2.397096e+002
1.782374e+002, 2.487730e+002
1.787195e+002, 2.576081e+002
1.792017e+002, 2.656808e+002
1.796838e+002, 2.738436e+002
1.801659e+002, 2.832408e+002
1.806480e+002, 2.939793e+002
1.811301e+002, 3.055024e+002
1.816122e+002, 3.170199e+002
1.820944e+002, 3.289358e+002
1.825765e+002, 3.423221e+002
1.830586e+002, 3.581519e+002
1.835407e+002, 3.756587e+002
1.840228e+002, 3.940728e+002
1.845049e+002, 4.132160e+002
1.849871e+002, 4.332199e+002
1.854692e+002, 4.541471e+002
1.859513e+002, 4.760370e+002
1.864334e+002, 4.979430e+002
1.869155e+002, 5.201340e+002
1.873976e+002, 5.422107e+002
1.878798e+002, 5.637673e+002
1.883619e+002, 5.852084e+002
1.888440e+002, 6.044567e+002
1.893261e+002, 6.192454e+002
1.898082e+002, 6.296469e+002
1.902903e+002, 6.339581e+002
1.907725e+002, 6.315806e+002
1.912546e+002, 6.225293e+002
1.917367e+002, 6.063933e+002
1.922188e+002, 5.825497e+002
1.927009e+002, 5.534911e+002
1.931830e+002, 5.227166e+002
1.936652e+002, 4.903522e+002
1.941473e+002, 4.576835e+002
1.946294e+002, 4.247054e+002
1.951115e+002, 3.916475e+002
1.955936e+002, 3.618159e+002
1.960757e+002, 3.354224e+002
1.965579e+002, 3.121593e+002
1.970400e+002, 2.916369e+002
1.975221e+002, 2.738686e+002
1.980042e+002, 2.584222e+002
1.984863e+002, 2.449910e+002
1.989684e+002, 2.336277e+002
1.994506e+002, 2.240655e+002
1.999327e+002, 2.165289e+002
2.004148e+002, 2.105751e+002
2.008969e+002, 2.054438e+002
2.013790e+002, 2.010949e+002
2.018611e+002, 1.974881e+002
2.023433e+002, 1.947170e+002
2.028254e+002, 1.928334e+002
2.033075e+002, 1.910497e+002
2.037896e+002, 1.891670e+002
2.042717e+002, 1.874838e+002
2.047538e+002, 1.869243e+002
2.052360e+002, 1.876949e+002
2.057181e+002, 1.887960e+002
2.062002e+002, 1.895539e+002
2.066823e+002, 1.898335e+002
2.071644e+002, 1.906063e+002
2.076465e+002, 1.919298e+002
2.081287e+002, 1.937923e+002
2.086108e+002, 1.961759e+002
2.090929e+002, 1.990188e+002
2.095750e+002, 2.025475e+002
2.100571e+002, 2.069430e+002
2.105392e+002, 2.123500e+002
2.110214e+002, 2.179739e+002
2.115035e+002, 2.236246e+002
2.119856e+002, 2.294668e+002
2.124677e+002, 2.362514e+002
2.129498e+002, 2.440275e+002
2.134319e+002, 2.526782e+002
2.139140e+002, 2.622936e+002
2.143962e+002, 2.730341e+002
2.148783e+002, 2.843189e+002
2.153604e+002, 2.963556e+002
2.158425e+002, 3.088604e+002
2.163246e+002, 3.204316e+002
2.168067e+002, 3.317388e+002
2.172889e+002, 3.410571e+002
2.177710e+002, 3.478100e+002
2.182531e+002, 3.527437e+002
2.187352e+002, 3.528705e+002
2.192173e+002, 3.475933e+002
2.196994e+002, 3.372443e+002
2.201816e+002, 3.236650e+002
2.206637e+002, 3.057846e+002
2.211458e+002, 2.861813e+002
2.216279e+002, 2.662304e+002
2.221100e+002, 2.447469e+002
2.225921e+002, 2.256114e+002
2.230743e+002, 2.091851e+002
2.235564e+002, 1.953211e+002
2.240385e+002, 1.825359e+002
2.245206e+002, 1.708934e+002
2.250027e+002, 1.606477e+002
2.254848e+002, 1.521254e+002
2.259670e+002, 1.459144e+002
2.264491e+002, 1.401548e+002
2.269312e+002, 1.345726e+002
2.274133e+002, 1.293170e+002
2.278954e+002, 1.248762e+002
2.283775e+002, 1.215362e+002
2.288597e+002, 1.187129e+002
2.293418e+002, 1.160722e+002
2.298239e+002, 1.134398e+002
2.303060e+002, 1.114227e+002
2.307881e+002, 1.102739e+002
2.312702e+002, 1.097982e+002
2.317524e+002, 1.091038e+002
2.322345e+002, 1.080003e+002
2.327166e+002, 1.069536e+002
2.331987e+002, 1.062443e+002
2.336808e+002, 1.059450e+002
2.341629e+002, 1.058107e+002
2.346451e+002, 1.057896e+002
2.351272e+002, 1.059164e+002
2.356093e+002, 1.063537e+002
2.360914e+002, 1.071717e+002
2.365735e+002, 1.082010e+002
2.370556e+002, 1.093275e+002
2.375378e+002, 1.104287e+002
2.380199e+002, 1.118881e+002
2.385020e+002, 1.136938e+002
2.389841e+002, 1.158791e+002
2.394662e+002, 1.184910e+002
2.399483e+002, 1.214838e+002
2.404305e+002, 1.249738e+002
2.409126e+002, 1.290727e+002
2.413947e+002, 1.339139e+002
2.418768e+002, 1.391111e+002
2.423589e+002, 1.448710e+002
2.428410e+002, 1.509434e+002
2.433232e+002, 1.565671e+002
2.438053e+002, 1.616269e+002
2.442874e+002, 1.663608e+002
2.447695e+002, 1.707863e+002
2.452516e+002, 1.747088e+002
2.457337e+002, 1.788172e+002
2.462159e+002, 1.831850e+002
2.466980e+002, 1.877588e+002
2.471801e+002, 1.922426e+002
2.476622e+002, 1.964605e+002
2.481443e+002, 2.009117e+002
2.486264e+002, 2.058552e+002
2.491086e+002, 2.116814e+002
2.495907e+002, 2.170812e+002
2.500728e+002, 2.217106e+002
2.505549e+002, 2.259929e+002
2.510370e+002, 2.310560e+002
2.515191e+002, 2.370783e+002
2.520013e+002, 2.436187e+002
2.524834e+002, 2.504394e+002
2.529655e+002, 2.569859e+002
2.534476e+002, 2.651122e+002
2.539297e+002, 2.751415e+002
2.544118e+002, 2.865873e+002
2.548940e+002, 2.986433e+002
2.553761e+002, 3.113661e+002
2.558582e+002, 3.246624e+002
2.563403e+002, 3.385728e+002
2.568224e+002, 3.534212e+002
2.573046e+002, 3.677714e+002
2.577867e+002, 3.818875e+002
2.582688e+002, 3.951970e+002
2.587509e+002, 4.068215e+002
2.592330e+002, 4.175154e+002
2.597151e+002, 4.247909e+002
2.601973e+002, 4.281953e+002
2.606794e+002, 4.283909e+002
2.611615e+002, 4.213133e+002
2.616436e+002, 4.056417e+002
2.621257e+002, 3.839931e+002
2.626078e+002, 3.601106e+002
2.630900e+002, 3.332070e+002
2.635721e+002, 3.064308e+002
2.640542e+002, 2.808001e+002
2.645363e+002, 2.557829e+002
2.650184e+002, 2.334948e+002
2.655005e+002, 2.137438e+002
2.659827e+002, 1.964614e+002
2.664648e+002, 1.812331e+002
2.669469e+002, 1.682034e+002
2.674290e+002, 1.571448e+002
2.679111e+002, 1.481889e+002
2.683932e+002, 1.414904e+002
2.688754e+002, 1.349606e+002
2.693575e+002, 1.284193e+002
2.698396e+002, 1.223237e+002
2.703217e+002, 1.174125e+002
2.708038e+002, 1.138650e+002
2.712859e+002, 1.108564e+002
2.717681e+002, 1.083125e+002
2.722502e+002, 1.062240e+002
2.727323e+002, 1.039805e+002
2.732144e+002, 1.015299e+002
2.736965e+002, 9.910674e+001
2.741786e+002, 9.693609e+001
2.746608e+002, 9.498109e+001
2.751429e+002, 9.339606e+001
2.756250e+002, 9.231880e+001
2.761071e+002, 9.167503e+001
2.765892e+002, 9.085523e+001
2.770714e+002, 8.984132e+001
2.775535e+002, 8.874026e+001
2.780356e+002, 8.757595e+001
2.785177e+002, 8.631642e+001
2.789998e+002, 8.535233e+001
2.794819e+002, 8.489082e+001
2.799641e+002, 8.475737e+001
2.804462e+002, 8.411942e+001
2.809283e+002, 8.285281e+001
2.814104e+002, 8.160548e+001
2.818925e+002, 8.091013e+001
2.823746e+002, 8.077231e+001
2.828568e+002, 8.079337e+001
2.833389e+002, 8.099528e+001
2.838210e+002, 8.124960e+001
2.843031e+002, 8.115590e+001
2.847852e+002, 8.068459e+001
2.852673e+002, 8.012997e+001
2.857495e+002, 7.964039e+001
2.862316e+002, 7.922289e+001
2.867137e+002, 7.898331e+001
2.871958e+002, 7.898069e+001
2.876779e+002, 7.909591e+001
2.881600e+002, 7.907948e+001
2.886422e+002, 7.892931e+001
2.891243e+002, 7.876416e+001
2.896064e+002, 7.867233e+001
2.900885e+002, 7.863436e+001
2.905706e+002, 7.860679e+001
2.910527e+002, 7.864352e+001
2.915349e+002, 7.854030e+001
2.920170e+002, 7.782128e+001
2.924991e+002, 7.654757e+001
2.929812e+002, 7.534277e+001
2.934633e+002, 7.459863e+001
2.939454e+002, 7.420107e+001
2.944276e+002, 7.382171e+001
2.949097e+002, 7.345335e+001
2.953918e+002, 7.307443e+001
2.958739e+002, 7.258401e+001
2.963560e+002, 7.203271e+001
2.968381e+002, 7.163611e+001
2.973203e+002, 7.159518e+001
2.978024e+002, 7.176584e+001
2.982845e+002, 7.191553e+001
2.987666e+002, 7.205522e+001
2.992487e+002, 7.201845e+001
2.997308e+002, 7.151744e+001
3.002130e+002, 7.068397e+001
3.006951e+002, 6.990346e+001
3.011772e+002, 6.929527e+001
3.016593e+002, 6.884566e+001
3.021414e+002, 6.852093e+001
3.026235e+002, 6.832425e+001
3.031057e+002, 6.828645e+001
3.035878e+002, 6.854947e+001
3.040699e+002, 6.898089e+001
3.045520e+002, 6.934032e+001
3.050341e+002, 6.961730e+001
3.055162e+002, 6.972701e+001
3.059984e+002, 6.945638e+001
3.064805e+002, 6.886604e+001
3.069626e+002, 6.835239e+001
3.074447e+002, 6.830781e+001
3.079268e+002, 6.846709e+001
3.084089e+002, 6.848973e+001
3.088911e+002, 6.826411e+001
3.093732e+002, 6.791647e+001
3.098553e+002, 6.733340e+001
3.103374e+002, 6.665589e+001
3.108195e+002, 6.635459e+001
3.113016e+002, 6.716454e+001
3.117838e+002, 6.823255e+001
3.122659e+002, 6.876283e+001
3.127480e+002, 6.843022e+001
3.132301e+002, 6.794856e+001
3.137122e+002, 6.763811e+001
3.141943e+002, 6.748460e+001
3.146765e+002, 6.746642e+001
3.151586e+002, 6.780845e+001
3.156407e+002, 6.811780e+001
3.161228e+002, 6.808204e+001
3.166049e+002, 6.755936e+001
3.170870e+002, 6.713506e+001
3.175692e+002, 6.721262e+001
3.180513e+002, 6.751572e+001
3.185334e+002, 6.765769e+001
3.190155e+002, 6.712204e+001
3.194976e+002, 6.673491e+001
3.199797e+002, 6.709217e+001
3.204619e+002, 6.833189e+001
3.209440e+002, 6.902036e+001
3.214261e+002, 6.810979e+001
3.219082e+002, 6.671265e+001
3.223903e+002, 6.588515e+001
3.228724e+002, 6.639855e+001
3.233546e+002, 6.695054e+001
3.238367e+002, 6.718525e+001
3.243188e+002, 6.710740e+001
3.248009e+002, 6.709328e+001
3.252830e+002, 6.729791e+001
3.257651e+002, 6.752721e+001
3.262473e+002, 6.765554e+001
3.267294e+002, 6.747959e+001
3.272115e+002, 6.742648e+001
3.276936e+002, 6.767570e+001
3.281757e+002, 6.813189e+001
3.286578e+002, 6.832314e+001
3.291400e+002, 6.790352e+001
3.296221e+002, 6.750658e+001
3.301042e+002, 6.741013e+001
3.305863e+002, 6.788887e+001
3.310684e+002, 6.821491e+001
3.315505e+002, 6.832247e+001
3.320327e+002, 6.828700e+001
3.325148e+002, 6.827347e+001
3.329969e+002, 6.830571e+001
3.334790e+002, 6.832083e+001
3.339611e+002, 6.826346e+001
3.344432e+002, 6.806101e+001
3.349254e+002, 6.808481e+001
3.354075e+002, 6.843722e+001
3.358896e+002, 6.892497e+001
3.363717e+002, 6.925476e+001
3.368538e+002, 6.929968e+001
3.373359e+002, 6.949422e+001
3.378180e+002, 7.003346e+001
3.383001e+002, 7.090608e+001
3.387823e+002, 7.146931e+001
3.392644e+002, 7.163014e+001
3.397465e+002, 7.165803e+001
3.402286e+002, 7.183846e+001
3.407107e+002, 7.221741e+001
3.411928e+002, 7.246143e+001
3.416750e+002, 7.244845e+001
3.421571e+002, 7.227108e+001
3.426392e+002, 7.231200e+001
3.431213e+002, 7.260649e+001
3.436034e+002, 7.293673e+001
3.440855e+002, 7.313113e+001
3.445677e+002, 7.319575e+001
3.450498e+002, 7.331166e+001
3.455319e+002, 7.349381e+001
3.460140e+002, 7.374630e+001
3.464961e+002, 7.407185e+001
3.469782e+002, 7.446899e+001
3.474604e+002, 7.495541e+001
3.479425e+002, 7.556686e+001
3.484246e+002, 7.627967e+001
3.489067e+002, 7.701125e+001
3.493888e+002, 7.777206e+001
3.498709e+002, 7.847942e+001
3.503531e+002, 7.895258e+001
3.508352e+002, 7.926337e+001
3.513173e+002, 7.967671e+001
3.517994e+002, 8.035738e+001
3.522815e+002, 8.119832e+001
3.527636e+002, 8.206030e+001
3.532458e+002, 8.294211e+001
3.537279e+002, 8.377625e+001
3.542100e+002, 8.451107e+001
3.546921e+002, 8.515733e+001
3.551742e+002, 8.572275e+001
3.556563e+002, 8.613731e+001
3.561385e+002, 8.655691e+001
3.566206e+002, 8.720528e+001
3.571027e+002, 8.802747e+001
3.575848e+002, 8.873436e+001
3.580669e+002, 8.922212e+001
3.585490e+002, 8.948740e+001
3.590312e+002, 8.949683e+001
3.595133e+002, 8.916133e+001
3.599954e+002, 8.876420e+001
3.604775e+002, 8.852873e+001
3.609596e+002, 8.835078e+001
3.614417e+002, 8.801368e+001
3.619239e+002, 8.717445e+001
3.624060e+002, 8.634708e+001
3.628881e+002, 8.583949e+001
3.633702e+002, 8.573445e+001
3.638523e+002, 8.567603e+001
3.643344e+002, 8.568580e+001
3.648166e+002, 8.563387e+001
3.652987e+002, 8.536958e+001
3.657808e+002, 8.451834e+001
3.662629e+002, 8.379811e+001
3.667450e+002, 8.341548e+001
3.672271e+002, 8.337382e+001
3.677093e+002, 8.343489e+001
3.681914e+002, 8.363393e+001
3.686735e+002, 8.388655e+001
3.691556e+002, 8.413680e+001
3.696377e+002, 8.398803e+001
3.701198e+002, 8.433385e+001
3.706020e+002, 8.554629e+001
3.710841e+002, 8.732453e+001
3.715662e+002, 8.855722e+001
3.720483e+002, 8.877672e+001
3.725304e+002, 8.900115e+001
3.730125e+002, 8.968748e+001
3.734947e+002, 9.106996e+001
3.739768e+002, 9.220947e+001
3.744589e+002, 9.298936e+001
3.749410e+002, 9.363246e+001
3.754231e+002, 9.450741e+001
3.759052e+002, 9.572026e+001
3.763874e+002, 9.688073e+001
3.768695e+002, 9.779939e+001
3.773516e+002, 9.850215e+001
3.778337e+002, 9.950490e+001
3.783158e+002, 1.008494e+002
3.787979e+002, 1.024138e+002
3.792801e+002, 1.041154e+002
3.797622e+002, 1.059787e+002
3.802443e+002, 1.077518e+002
3.807264e+002, 1.093080e+002
3.812085e+002, 1.108329e+002
3.816906e+002, 1.128567e+002
3.821728e+002, 1.153728e+002
3.826549e+002, 1.181532e+002
3.831370e+002, 1.210947e+002
3.836191e+002, 1.241776e+002
3.841012e+002, 1.272551e+002
3.845833e+002, 1.303839e+002
3.850655e+002, 1.333677e+002
3.855476e+002, 1.360805e+002
3.860297e+002, 1.384756e+002
3.865118e+002, 1.402342e+002
3.869939e+002, 1.414095e+002
3.874760e+002, 1.417949e+002
3.879582e+002, 1.410856e+002
3.884403e+002, 1.392705e+002
3.889224e+002, 1.365337e+002
3.894045e+002, 1.327916e+002
3.898866e+002, 1.283283e+002
3.903687e+002, 1.234706e+002
3.908509e+002, 1.180101e+002
3.913330e+002, 1.126129e+002
3.918151e+002, 1.076432e+002
3.922972e+002, 1.030913e+002
3.927793e+002, 9.882317e+001
3.932614e+002, 9.455631e+001
3.937436e+002, 9.070582e+001
3.942257e+002, 8.748086e+001
3.947078e+002, 8.498254e+001
3.951899e+002, 8.303062e+001
3.956720e+002, 8.202952e+001
3.961541e+002, 8.145231e+001
3.966363e+002, 8.045255e+001
3.971184e+002, 7.804760e+001
3.976005e+002, 7.591016e+001
3.980826e+002, 7.471505e+001
3.985647e+002, 7.461160e+001
3.990468e+002, 7.443884e+001
3.995290e+002, 7.416488e+001
4.000111e+002, 7.373491e+001
4.004932e+002, 7.309413e+001
4.009753e+002, 7.181260e+001
4.014574e+002, 7.090700e+001
4.019395e+002, 7.064560e+001
4.024217e+002, 7.086883e+001
4.029038e+002, 7.081812e+001
4.033859e+002, 7.033302e+001
4.038680e+002, 6.980981e+001
4.043501e+002, 6.940903e+001
4.048322e+002, 6.910571e+001
4.053144e+002, 6.907805e+001
4.057965e+002, 6.948918e+001
4.062786e+002, 6.998239e+001
4.067607e+002, 6.988722e+001
4.072428e+002, 6.906824e+001
4.077249e+002, 6.840054e+001
4.082071e+002, 6.821198e+001
4.086892e+002, 6.843119e+001
4.091713e+002, 6.861236e+001
4.096534e+002, 6.874095e+001
4.101355e+002, 6.892049e+001
4.106176e+002, 6.942639e+001
4.110998e+002, 7.014571e+001
4.115819e+002, 7.032915e+001
4.120640e+002, 6.966048e+001
4.125461e+002, 6.868001e+001
4.130282e+002, 6.824072e+001
4.135103e+002, 6.828504e+001
4.139925e+002, 6.845541e+001
4.144746e+002, 6.858161e+001
4.149567e+002, 6.868913e+001
4.154388e+002, 6.886586e+001
4.159209e+002, 6.914246e+001
4.164030e+002, 6.928410e+001
4.168852e+002, 6.900439e+001
4.173673e+002, 6.847472e+001
4.178494e+002, 6.797543e+001
4.183315e+002, 6.754576e+001
4.188136e+002, 6.723555e+001
4.192957e+002, 6.701153e+001
4.197779e+002, 6.690251e+001
4.202600e+002, 6.707703e+001
4.207421e+002, 6.810236e+001
4.212242e+002, 6.914554e+001
4.217063e+002, 6.951137e+001
4.221884e+002, 6.857880e+001
4.226706e+002, 6.793119e+001
4.231527e+002, 6.812579e+001
4.236348e+002, 6.884150e+001
4.241169e+002, 6.946985e+001
4.245990e+002, 6.994936e+001
4.250811e+002, 7.030965e+001
4.255633e+002, 7.051624e+001
4.260454e+002, 7.053700e+001
4.265275e+002, 7.063316e+001
4.270096e+002, 7.078929e+001
4.274917e+002, 7.103213e+001
4.279738e+002, 7.138491e+001
4.284560e+002, 7.185747e+001
4.289381e+002, 7.243161e+001
4.294202e+002, 7.320065e+001
4.299023e+002, 7.404189e+001
4.303844e+002, 7.450849e+001
4.308665e+002, 7.445109e+001
4.313487e+002, 7.443584e+001
4.318308e+002, 7.487527e+001
4.323129e+002, 7.581402e+001
4.327950e+002, 7.617082e+001
4.332771e+002, 7.577425e+001
4.337592e+002, 7.522477e+001
4.342414e+002, 7.536374e+001
4.347235e+002, 7.613552e+001
4.352056e+002, 7.684802e+001
4.356877e+002, 7.717885e+001
4.361698e+002, 7.738442e+001
4.366519e+002, 7.814580e+001
4.371341e+002, 7.942944e+001
4.376162e+002, 8.061115e+001
4.380983e+002, 8.122863e+001
4.385804e+002, 8.144630e+001
4.390625e+002, 8.149307e+001
4.395446e+002, 8.134561e+001
4.400268e+002, 8.124150e+001
4.405089e+002, 8.142646e+001
4.409910e+002, 8.181099e+001
4.414731e+002, 8.220777e+001
4.419552e+002, 8.279137e+001
4.424373e+002, 8.315887e+001
4.429195e+002, 8.299334e+001
4.434016e+002, 8.229529e+001
4.438837e+002, 8.146738e+001
4.443658e+002, 8.045793e+001
4.448479e+002, 7.950166e+001
4.453300e+002, 7.879752e+001
4.458122e+002, 7.856934e+001
4.462943e+002, 7.834032e+001
4.467764e+002, 7.811813e+001
4.472585e+002, 7.783923e+001
4.477406e+002, 7.734055e+001
4.482227e+002, 7.634869e+001
4.487049e+002, 7.539523e+001
4.491870e+002, 7.460946e+001
4.496691e+002, 7.400465e+001
4.501512e+002, 7.353504e+001
4.506333e+002, 7.323898e+001
4.511154e+002, 7.304367e+001
4.515976e+002, 7.287855e+001
4.520797e+002, 7.272883e+001
4.525618e+002, 7.267786e+001
4.530439e+002, 7.277827e+001
4.535260e+002, 7.296693e+001
4.540081e+002, 7.307920e+001
4.544903e+002, 7.312469e+001
4.549724e+002, 7.303183e+001
4.554545e+002, 7.253828e+001
4.559366e+002, 7.177309e+001
4.564187e+002, 7.178903e+001
4.569008e+002, 7.273342e+001
4.573830e+002, 7.382195e+001
4.578651e+002, 7.410218e+001
4.583472e+002, 7.375399e+001
4.588293e+002, 7.332479e+001
4.593114e+002, 7.289539e+001
4.597935e+002, 7.256812e+001
4.602757e+002, 7.248557e+001
4.607578e+002, 7.262547e+001
4.612399e+002, 7.287196e+001
4.617220e+002, 7.333377e+001
4.622041e+002, 7.376977e+001
4.626862e+002, 7.391994e+001
4.631684e+002, 7.370342e+001
4.636505e+002, 7.340544e+001
4.641326e+002, 7.305325e+001
4.646147e+002, 7.274423e+001
4.650968e+002, 7.260045e+001
4.655789e+002, 7.295558e+001
4.660611e+002, 7.318623e+001
4.665432e+002, 7.307243e+001
4.670253e+002, 7.263610e+001
4.675074e+002, 7.216819e+001
4.679895e+002, 7.157458e+001
4.684716e+002, 7.106029e+001
4.689538e+002, 7.072761e+001
4.694359e+002, 7.063146e+001
4.699180e+002, 7.060662e+001
4.704001e+002, 7.068258e+001
4.708822e+002, 7.080797e+001
4.713643e+002, 7.094903e+001
4.718465e+002, 7.119907e+001
4.723286e+002, 7.116253e+001
4.728107e+002, 7.058630e+001
4.732928e+002, 6.962849e+001
4.737749e+002, 6.921619e+001
4.742570e+002, 6.941714e+001
4.747392e+002, 6.982361e+001
4.752213e+002, 7.020500e+001
4.757034e+002, 7.055134e+001
4.761855e+002, 7.080949e+001
4.766676e+002, 7.098939e+001
4.771497e+002, 7.102939e+001
4.776319e+002, 7.069129e+001
4.781140e+002, 7.011231e+001
4.785961e+002, 6.974480e+001
4.790782e+002, 6.992249e+001
4.795603e+002, 7.033013e+001
4.800424e+002, 7.067268e+001
4.805246e+002, 7.094353e+001
4.810067e+002, 7.108130e+001
4.814888e+002, 7.093398e+001
4.819709e+002, 7.070006e+001
4.824530e+002, 7.053901e+001
4.829352e+002, 7.045515e+001
4.834173e+002, 7.051092e+001
4.838994e+002, 7.097987e+001
4.843815e+002, 7.154965e+001
4.848636e+002, 7.174059e+001
4.853457e+002, 7.091768e+001
4.858279e+002, 7.024616e+001
4.863100e+002, 7.012923e+001
4.867921e+002, 7.057485e+001
4.872742e+002, 7.082322e+001
4.877563e+002, 7.068850e+001
4.882384e+002, 7.054990e+001
4.887206e+002, 7.063631e+001
4.892027e+002, 7.107139e+001
4.896848e+002, 7.139820e+001
4.901669e+002, 7.159296e+001
4.906490e+002, 7.169968e+001
4.911311e+002, 7.177604e+001
4.916133e+002, 7.181442e+001
4.920954e+002, 7.187399e+001
4.925775e+002, 7.198920e+001
4.930596e+002, 7.213438e+001
4.935417e+002, 7.217176e+001
4.940238e+002, 7.209705e+001
4.945060e+002, 7.210355e+001
4.949881e+002, 7.234914e+001
4.954702e+002, 7.278318e+001
4.959523e+002, 7.330788e+001
4.964344e+002, 7.392151e+001
4.969165e+002, 7.455724e+001
4.973987e+002, 7.524749e+001
4.978808e+002, 7.590547e+001
4.983629e+002, 7.635372e+001
4.988450e+002, 7.616328e+001
4.993271e+002, 7.604116e+001
4.998092e+002, 7.648556e+001
5.002914e+002, 7.743212e+001
5.007735e+002, 7.846812e+001
5.012556e+002, 7.950669e+001
5.017377e+002, 8.055267e+001
5.022198e+002, 8.161510e+001
5.027019e+002, 8.273049e+001
5.031841e+002, 8.380187e+001
5.036662e+002, 8.482164e+001
5.041483e+002, 8.579362e+001
5.046304e+002, 8.670052e+001
5.051125e+002, 8.741598e+001
5.055946e+002, 8.825103e+001
5.060768e+002, 8.926957e+001
5.065589e+002, 9.044908e+001
5.070410e+002, 9.169949e+001
5.075231e+002, 9.302080e+001
5.080052e+002, 9.440453e+001
5.084873e+002, 9.588931e+001
5.089695e+002, 9.745719e+001
5.094516e+002, 9.899841e+001
5.099337e+002, 1.005143e+002
5.104158e+002, 1.019902e+002
5.108979e+002, 1.032639e+002
5.113800e+002, 1.044441e+002
5.118622e+002, 1.059984e+002
5.123443e+002, 1.081744e+002
5.128264e+002, 1.106043e+002
5.133085e+002, 1.128788e+002
5.137906e+002, 1.150243e+002
5.142728e+002, 1.171349e+002
5.147549e+002, 1.192110e+002
5.152370e+002, 1.213107e+002
5.157191e+002, 1.237383e+002
5.162012e+002, 1.265741e+002
5.166833e+002, 1.286056e+002
5.171655e+002, 1.292045e+002
5.176476e+002, 1.288182e+002
5.181297e+002, 1.278294e+002
5.186118e+002, 1.264532e+002
5.190939e+002, 1.243128e+002
5.195760e+002, 1.211137e+002
5.200582e+002, 1.171183e+002
5.205403e+002, 1.128609e+002
5.210224e+002, 1.079476e+002
5.215045e+002, 1.033819e+002
5.219866e+002, 9.939175e+001
5.224688e+002, 9.596400e+001
5.229509e+002, 9.318362e+001
5.234330e+002, 9.117680e+001
5.239151e+002, 8.947737e+001
5.243972e+002, 8.765357e+001
5.248793e+002, 8.570177e+001
5.253615e+002, 8.427421e+001
5.258436e+002, 8.348824e+001
5.263257e+002, 8.304251e+001
5.268078e+002, 8.258048e+001
5.272899e+002, 8.209557e+001
5.277720e+002, 8.156047e+001
5.282542e+002, 8.092503e+001
5.287363e+002, 8.027151e+001
5.292184e+002, 7.965476e+001
5.297005e+002, 7.909667e+001
5.301826e+002, 7.868555e+001
5.306647e+002, 7.861887e+001
5.311469e+002, 7.863899e+001
5.316290e+002, 7.854832e+001
5.321111e+002, 7.833138e+001
5.325932e+002, 7.794735e+001
5.330753e+002, 7.695602e+001
5.335574e+002, 7.597287e+001
5.340396e+002, 7.565203e+001
5.345217e+002, 7.695146e+001
5.350038e+002, 7.792353e+001
5.354859e+002, 7.821306e+001
5.359680e+002, 7.798064e+001
5.364501e+002, 7.771420e+001
5.369323e+002, 7.738557e+001
5.374144e+002, 7.707011e+001
5.378965e+002, 7.678440e+001
5.383786e+002, 7.652735e+001
5.388607e+002, 7.636785e+001
5.393428e+002, 7.632478e+001
5.398250e+002, 7.632201e+001
5.403071e+002, 7.625307e+001
5.407892e+002, 7.613748e+001
5.412713e+002, 7.619549e+001
5.417534e+002, 7.650558e+001
5.422355e+002, 7.687145e+001
5.427177e+002, 7.698762e+001
5.431998e+002, 7.692464e+001
5.436819e+002, 7.690420e+001
5.441640e+002, 7.705930e+001
5.446461e+002, 7.728146e+001
5.451282e+002, 7.743279e+001
5.456104e+002, 7.754044e+001
5.460925e+002, 7.777340e+001
5.465746e+002, 7.838540e+001
5.470567e+002, 7.903487e+001
5.475388e+002, 7.950010e+001
5.480209e+002, 7.972102e+001
5.485031e+002, 7.984681e+001
5.489852e+002, 7.976839e+001
5.494673e+002, 7.967722e+001
5.499494e+002, 7.978421e+001
5.504315e+002, 8.031021e+001
5.509136e+002, 8.068351e+001
5.513958e+002, 8.076412e+001
5.518779e+002, 8.067406e+001
5.523600e+002, 8.073705e+001
5.528421e+002, 8.091575e+001
5.533242e+002, 8.138560e+001
5.538063e+002, 8.239185e+001
5.542885e+002, 8.381745e+001
5.547706e+002, 8.466761e+001
5.552527e+002, 8.490422e+001
5.557348e+002, 8.497286e+001
5.562169e+002, 8.517058e+001
5.566990e+002, 8.550388e+001
5.571812e+002, 8.603479e+001
5.576633e+002, 8.682008e+001
5.581454e+002, 8.762131e+001
5.586275e+002, 8.809056e+001
5.591096e+002, 8.843053e+001
5.595917e+002, 8.900948e+001
5.600739e+002, 9.029973e+001
5.605560e+002, 9.154985e+001
5.610381e+002, 9.220678e+001
5.615202e+002, 9.244170e+001
5.620023e+002, 9.304269e+001
5.624844e+002, 9.446706e+001
5.629666e+002, 9.608152e+001
5.634487e+002, 9.761443e+001
5.639308e+002, 9.903236e+001
5.644129e+002, 1.004587e+002
5.648950e+002, 1.018129e+002
5.653771e+002, 1.032625e+002
5.658593e+002, 1.049615e+002
5.663414e+002, 1.069376e+002
5.668235e+002, 1.090405e+002
5.673056e+002, 1.112126e+002
5.677877e+002, 1.136087e+002
5.682698e+002, 1.164381e+002
5.687520e+002, 1.197331e+002
5.692341e+002, 1.236466e+002
5.697162e+002, 1.285700e+002
5.701983e+002, 1.339572e+002
5.706804e+002, 1.386658e+002
5.711625e+002, 1.428448e+002
5.716447e+002, 1.476423e+002
5.721268e+002, 1.541461e+002
5.726089e+002, 1.614482e+002
5.730910e+002, 1.685265e+002
5.735731e+002, 1.752670e+002
5.740552e+002, 1.823018e+002
5.745374e+002, 1.905648e+002
5.750195e+002, 1.990238e+002
5.755016e+002, 2.067444e+002
5.759837e+002, 2.124697e+002
5.764658e+002, 2.187504e+002
5.769479e+002, 2.260148e+002
5.774301e+002, 2.339696e+002
5.779122e+002, 2.420933e+002
5.783943e+002, 2.504225e+002
5.788764e+002, 2.589863e+002
5.793585e+002, 2.677338e+002
5.798406e+002, 2.767077e+002
5.803228e+002, 2.862459e+002
5.808049e+002, 2.963593e+002
5.812870e+002, 3.068946e+002
5.817691e+002, 3.178873e+002
5.822512e+002, 3.292894e+002
5.827333e+002, 3.411527e+002
5.832155e+002, 3.535613e+002
5.836975e+002, 3.660602e+002
5.841796e+002, 3.788753e+002
5.846617e+002, 3.916138e+002
5.851439e+002, 4.038288e+002
5.856260e+002, 4.159047e+002
5.861081e+002, 4.265284e+002
5.865902e+002, 4.353365e+002
5.870723e+002, 4.421111e+002
5.875544e+002, 4.463028e+002
5.880366e+002, 4.494459e+002
5.885187e+002, 4.484159e+002
5.890008e+002, 4.418721e+002
5.894829e+002, 4.297860e+002
5.899650e+002, 4.145300e+002
5.904471e+002, 3.952572e+002
5.909293e+002, 3.737739e+002
5.914114e+002, 3.506446e+002
5.918935e+002, 3.253519e+002
5.923756e+002, 3.011757e+002
5.928577e+002, 2.778629e+002
5.933398e+002, 2.562197e+002
5.938220e+002, 2.368637e+002
5.943041e+002, 2.197167e+002
5.947862e+002, 2.041443e+002
5.952683e+002, 1.899680e+002
5.957504e+002, 1.774219e+002
5.962325e+002, 1.667955e+002
5.967147e+002, 1.578397e+002
5.971968e+002, 1.500766e+002
5.976789e+002, 1.435063e+002
5.981610e+002, 1.377615e+002
5.986431e+002, 1.327351e+002
5.991252e+002, 1.283663e+002
5.996074e+002, 1.242972e+002
6.000895e+002, 1.202561e+002
6.005716e+002, 1.165618e+002
6.010537e+002, 1.134024e+002
6.015358e+002, 1.109151e+002
6.020179e+002, 1.085384e+002
6.025001e+002, 1.060942e+002
6.029822e+002, 1.039218e+002
6.034643e+002, 1.023592e+002
6.039464e+002, 1.016146e+002
6.044285e+002, 1.005759e+002
6.049106e+002, 9.907287e+001
6.053928e+002, 9.742970e+001
6.058749e+002, 9.604980e+001
6.063570e+002, 9.493099e+001
6.068391e+002, 9.415872e+001
6.073212e+002, 9.397679e+001
6.078033e+002, 9.387468e+001
6.082855e+002, 9.294759e+001
6.087676e+002, 9.138730e+001
6.092497e+002, 8.986648e+001
6.097318e+002, 8.866300e+001
6.102139e+002, 8.772817e+001
6.106960e+002, 8.708553e+001
6.111782e+002, 8.672734e+001
6.116603e+002, 8.647830e+001
6.121424e+002, 8.656004e+001
6.126245e+002, 8.652258e+001
6.131066e+002, 8.602760e+001
6.135887e+002, 8.465849e+001
6.140709e+002, 8.376846e+001
6.145530e+002, 8.371428e+001
6.150351e+002, 8.381196e+001
6.155172e+002, 8.324468e+001
6.159993e+002, 8.177710e+001
6.164814e+002, 8.072060e+001
6.169636e+002, 8.034703e+001
6.174457e+002, 8.034459e+001
6.179278e+002, 8.012579e+001
6.184099e+002, 7.971062e+001
6.188920e+002, 7.931208e+001
6.193741e+002, 7.897327e+001
6.198563e+002, 7.872771e+001
6.203384e+002, 7.870100e+001
6.208205e+002, 7.884622e+001
6.213026e+002, 7.893164e+001
6.217847e+002, 7.882233e+001
6.222668e+002, 7.860185e+001
6.227490e+002, 7.829719e+001
6.232311e+002, 7.789846e+001
6.237132e+002, 7.756909e+001
6.241953e+002, 7.737048e+001
6.246774e+002, 7.724690e+001
6.251595e+002, 7.715708e+001
6.256417e+002, 7.706905e+001
6.261238e+002, 7.710416e+001
6.266059e+002, 7.739439e+001
6.270880e+002, 7.766686e+001
6.275701e+002, 7.748315e+001
6.280522e+002, 7.678282e+001
6.285344e+002, 7.620427e+001
6.290165e+002, 7.585868e+001
6.294986e+002, 7.573909e+001
6.299807e+002, 7.593952e+001
6.304628e+002, 7.640020e+001
6.309449e+002, 7.679372e+001
6.314271e+002, 7.698956e+001
6.319092e+002, 7.701759e+001
6.323913e+002, 7.680457e+001
6.328734e+002, 7.640057e+001
6.333555e+002, 7.612402e+001
6.338376e+002, 7.626783e+001
6.343198e+002, 7.647832e+001
6.348019e+002, 7.654739e+001
6.352840e+002, 7.643594e+001
6.357661e+002, 7.627280e+001
6.362482e+002, 7.592697e+001
6.367303e+002, 7.565257e+001
6.372125e+002, 7.565333e+001
6.376946e+002, 7.607308e+001
6.381767e+002, 7.636250e+001
6.386588e+002, 7.650806e+001
6.391409e+002, 7.650974e+001
6.396230e+002, 7.624818e+001
6.401052e+002, 7.575467e+001
6.405873e+002, 7.556323e+001
6.410694e+002, 7.592676e+001
6.415515e+002, 7.645560e+001
6.420336e+002, 7.655073e+001
6.425157e+002, 7.631872e+001
6.429979e+002, 7.607043e+001
6.434800e+002, 7.593240e+001
6.439621e+002, 7.585532e+001
6.444442e+002, 7.577750e+001
6.449263e+002, 7.571738e+001
6.454084e+002, 7.578956e+001
6.458906e+002, 7.623664e+001
6.463727e+002, 7.664539e+001
6.468548e+002, 7.682922e+001
6.473369e+002, 7.678139e+001
6.478190e+002, 7.655926e+001
6.483011e+002, 7.603492e+001
6.487833e+002, 7.553112e+001
6.492654e+002, 7.531017e+001
6.497475e+002, 7.539221e+001
6.502296e+002, 7.550050e+001
6.507117e+002, 7.563154e+001
6.511938e+002, 7.574094e+001
6.516760e+002, 7.576034e+001
6.521581e+002, 7.571015e+001
6.526402e+002, 7.565430e+001
6.531223e+002, 7.561454e+001
6.536044e+002, 7.556197e+001
6.540865e+002, 7.548079e+001
6.545687e+002, 7.536523e+001
6.550508e+002, 7.520509e+001
6.555329e+002, 7.476591e+001
6.560150e+002, 7.451623e+001
6.564971e+002, 7.472164e+001
6.569792e+002, 7.529861e+001
6.574614e+002, 7.580311e+001
6.579435e+002, 7.626045e+001
6.584256e+002, 7.658188e+001
6.589077e+002, 7.673121e+001
6.593898e+002, 7.671120e+001
6.598719e+002, 7.658847e+001
6.603541e+002, 7.635854e+001
6.608362e+002, 7.604750e+001
6.613183e+002, 7.554215e+001
6.618004e+002, 7.495467e+001
6.622825e+002, 7.475838e+001
6.627646e+002, 7.499572e+001
6.632468e+002, 7.533199e+001
6.637289e+002, 7.543804e+001
6.642110e+002, 7.547903e+001
6.646931e+002, 7.572290e+001
6.651752e+002, 7.638878e+001
6.656573e+002, 7.683472e+001
6.661395e+002, 7.652717e+001
6.666216e+002, 7.594431e+001
6.671037e+002, 7.567436e+001
6.675858e+002, 7.615025e+001
6.680679e+002, 7.650002e+001
6.685500e+002, 7.661324e+001
6.690322e+002, 7.658159e+001
6.695143e+002, 7.660658e+001
6.699964e+002, 7.670701e+001
6.704785e+002, 7.676842e+001
6.709606e+002, 7.674247e+001
6.714427e+002, 7.666234e+001
6.719249e+002, 7.662898e+001
6.724070e+002, 7.663443e+001
6.728891e+002, 7.661803e+001
6.733712e+002, 7.656438e+001
6.738533e+002, 7.645720e+001
6.743354e+002, 7.617815e+001
6.748176e+002, 7.576189e+001
6.752997e+002, 7.557304e+001
6.757818e+002, 7.609732e+001
6.762639e+002, 7.667866e+001
6.767460e+002, 7.689067e+001
6.772281e+002, 7.657943e+001
6.777103e+002, 7.629434e+001
6.781924e+002, 7.595168e+001
6.786745e+002, 7.574850e+001
6.791566e+002, 7.587075e+001
6.796387e+002, 7.640881e+001
6.801208e+002, 7.684797e+001
6.806030e+002, 7.716300e+001
6.810851e+002, 7.738359e+001
6.815672e+002, 7.756144e+001
6.820493e+002, 7.768558e+001
6.825314e+002, 7.770902e+001
6.830135e+002, 7.760007e+001
6.834957e+002, 7.743251e+001
6.839778e+002, 7.718169e+001
6.844599e+002, 7.694059e+001
6.849420e+002, 7.689165e+001
6.854241e+002, 7.738042e+001
6.859063e+002, 7.777673e+001
6.863884e+002, 7.775552e+001
6.868705e+002, 7.744244e+001
6.873526e+002, 7.728554e+001
6.878347e+002, 7.741641e+001
6.883168e+002, 7.755118e+001
6.887990e+002, 7.763280e+001
6.892811e+002, 7.765926e+001
6.897632e+002, 7.754891e+001
6.902453e+002, 7.726286e+001
6.907274e+002, 7.711058e+001
6.912095e+002, 7.743938e+001
6.916917e+002, 7.802922e+001
6.921738e+002, 7.813662e+001
6.926559e+002, 7.777433e+001
6.931380e+002, 7.745655e+001
6.936201e+002, 7.765379e+001
6.941022e+002, 7.802054e+001
6.945844e+002, 7.820500e+001
6.950665e+002, 7.812682e+001
6.955486e+002, 7.809104e+001
6.960307e+002, 7.816589e+001
6.965128e+002, 7.834743e+001
6.969949e+002, 7.865582e+001
6.974771e+002, 7.928202e+001
6.979592e+002, 7.960757e+001
6.984413e+002, 7.950912e+001
6.989234e+002, 7.926688e+001
6.994055e+002, 7.923198e+001
6.998876e+002, 7.940995e+001
7.003698e+002, 7.955692e+001
7.008519e+002, 7.963662e+001
7.013340e+002, 7.965781e+001
7.018161e+002, 7.959284e+001
7.022982e+002, 7.947873e+001
7.027803e+002, 7.940804e+001
7.032625e+002, 7.944233e+001
7.037446e+002, 7.949911e+001
7.042267e+002, 7.943832e+001
7.047088e+002, 7.936290e+001
7.051909e+002, 7.950237e+001
7.056730e+002, 8.013536e+001
7.061552e+002, 8.074316e+001
7.066373e+002, 8.119639e+001
7.071194e+002, 8.152147e+001
7.076015e+002, 8.184461e+001
7.080836e+002, 8.216631e+001
7.085657e+002, 8.247559e+001
7.090479e+002, 8.279761e+001
7.095300e+002, 8.310055e+001
7.100121e+002, 8.318303e+001
7.104942e+002, 8.305668e+001
7.109763e+002, 8.301280e+001
7.114584e+002, 8.326103e+001
7.119406e+002, 8.369789e+001
7.124227e+002, 8.419850e+001
7.129048e+002, 8.475773e+001
7.133869e+002, 8.541064e+001
7.138690e+002, 8.613904e+001
7.143511e+002, 8.699407e+001
7.148333e+002, 8.805737e+001
7.153154e+002, 8.943922e+001
7.157975e+002, 9.068171e+001
7.162796e+002, 9.178175e+001
7.167617e+002, 9.275953e+001
7.172438e+002, 9.357048e+001
7.177260e+002, 9.416668e+001
7.182081e+002, 9.510684e+001
7.186902e+002, 9.647108e+001
7.191723e+002, 9.795752e+001
7.196544e+002, 9.920309e+001
7.201365e+002, 1.002788e+002
7.206187e+002, 1.013276e+002
7.211008e+002, 1.023400e+002
7.215829e+002, 1.034865e+002
7.220650e+002, 1.048574e+002
7.225471e+002, 1.064606e+002
7.230292e+002, 1.083413e+002
7.235114e+002, 1.105022e+002
7.239935e+002, 1.129003e+002
7.244756e+002, 1.156205e+002
7.249577e+002, 1.185442e+002
7.254398e+002, 1.215531e+002
7.259219e+002, 1.246394e+002
7.264041e+002, 1.277850e+002
7.268862e+002, 1.309838e+002
7.273683e+002, 1.342517e+002
7.278504e+002, 1.376915e+002
7.283325e+002, 1.412118e+002
7.288146e+002, 1.442059e+002
7.292968e+002, 1.466216e+002
7.297789e+002, 1.481365e+002
7.302610e+002, 1.485844e+002
7.307431e+002, 1.478573e+002
7.312252e+002, 1.455975e+002
7.317073e+002, 1.406217e+002
7.321895e+002, 1.350774e+002
7.326716e+002, 1.295275e+002
7.331537e+002, 1.240819e+002
7.336358e+002, 1.195236e+002
7.341179e+002, 1.158625e+002
7.346000e+002, 1.130053e+002
7.350822e+002, 1.110706e+002
7.355643e+002, 1.099719e+002
7.360464e+002, 1.089648e+002
7.365285e+002, 1.080470e+002
7.370106e+002, 1.072782e+002
7.374927e+002, 1.066080e+002
7.379749e+002, 1.061498e+002
7.384570e+002, 1.061390e+002
7.389391e+002, 1.065805e+002
7.394212e+002, 1.072311e+002
7.399033e+002, 1.080923e+002
7.403854e+002, 1.090049e+002
7.408676e+002, 1.098200e+002
7.413497e+002, 1.104464e+002
7.418318e+002, 1.113144e+002
7.423139e+002, 1.127682e+002
7.427960e+002, 1.141148e+002
7.432781e+002, 1.148065e+002
7.437603e+002, 1.147069e+002
7.442424e+002, 1.149973e+002
7.447245e+002, 1.158047e+002
7.452066e+002, 1.166073e+002
7.456887e+002, 1.169331e+002
7.461708e+002, 1.168286e+002
7.466530e+002, 1.163960e+002
7.471351e+002, 1.156438e+002
7.476172e+002, 1.146362e+002
7.480993e+002, 1.133686e+002
7.485814e+002, 1.118904e+002
7.490635e+002, 1.102663e+002
7.495457e+002, 1.083947e+002
7.500278e+002, 1.065273e+002
7.505099e+002, 1.047495e+002
7.509920e+002, 1.029870e+002
7.514741e+002, 1.011226e+002
7.519562e+002, 9.909045e+001
7.524384e+002, 9.730020e+001
7.529205e+002, 9.584849e+001
7.534026e+002, 9.460509e+001
7.538847e+002, 9.333717e+001
7.543668e+002, 9.210023e+001
7.548489e+002, 9.113283e+001
7.553311e+002, 9.066549e+001
7.558132e+002, 9.019557e+001
7.562953e+002, 8.907446e+001
7.567774e+002, 8.768433e+001
7.572595e+002, 8.672010e+001
7.577416e+002, 8.688276e+001
7.582238e+002, 8.691444e+001
7.587059e+002, 8.630181e+001
7.591880e+002, 8.541999e+001
7.596701e+002, 8.512421e+001
7.601522e+002, 8.567715e+001
7.606343e+002, 8.594777e+001
7.611165e+002, 8.557620e+001
7.615986e+002, 8.482582e+001
7.620807e+002, 8.425521e+001
7.625628e+002, 8.386579e+001
7.630449e+002, 8.366751e+001
7.635270e+002, 8.378648e+001
7.640092e+002, 8.398978e+001
7.644913e+002, 8.408345e+001
7.649734e+002, 8.408289e+001
7.654555e+002, 8.403915e+001
7.659376e+002, 8.398813e+001
7.664197e+002, 8.387648e+001
7.669019e+002, 8.362830e+001
7.673840e+002, 8.329046e+001
7.678661e+002, 8.303329e+001
7.683482e+002, 8.275298e+001
7.688303e+002, 8.289067e+001
7.693124e+002, 8.389134e+001
7.697946e+002, 8.535091e+001
7.702767e+002, 8.574259e+001
7.707588e+002, 8.516441e+001
7.712409e+002, 8.453355e+001
7.717230e+002, 8.442666e+001
7.722051e+002, 8.452213e+001
7.726873e+002, 8.459431e+001
7.731694e+002, 8.461169e+001
7.736515e+002, 8.443103e+001
7.741336e+002, 8.360650e+001
7.746157e+002, 8.296003e+001
7.750978e+002, 8.292958e+001
7.755800e+002, 8.348664e+001
7.760621e+002, 8.388374e+001
7.765442e+002, 8.410696e+001
7.770263e+002, 8.420930e+001
7.775084e+002, 8.415588e+001
7.779905e+002, 8.399759e+001
7.784727e+002, 8.402549e+001
7.789548e+002, 8.422543e+001
7.794369e+002, 8.435290e+001
7.799190e+002, 8.405987e+001
7.804011e+002, 8.372169e+001
7.808832e+002, 8.378933e+001
7.813654e+002, 8.428307e+001
7.818475e+002, 8.462211e+001
7.823296e+002, 8.452053e+001
7.828117e+002, 8.430233e+001
7.832938e+002, 8.409933e+001
7.837759e+002, 8.390108e+001
7.842581e+002, 8.384257e+001
7.847402e+002, 8.392660e+001
7.852223e+002, 8.414799e+001
7.857044e+002, 8.463632e+001
7.861865e+002, 8.527190e+001
7.866686e+002, 8.555856e+001
7.871508e+002, 8.548644e+001
7.876329e+002, 8.531548e+001
7.881150e+002, 8.522502e+001
7.885971e+002, 8.513792e+001
7.890792e+002, 8.497305e+001
7.895613e+002, 8.471017e+001
7.900435e+002, 8.445699e+001
7.905256e+002, 8.415298e+001
7.910077e+002, 8.393803e+001
7.914898e+002, 8.386488e+001
7.919719e+002, 8.392074e+001
7.924540e+002, 8.428931e+001
7.929362e+002, 8.506458e+001
7.934183e+002, 8.573289e+001
7.939004e+002, 8.568079e+001
7.943825e+002, 8.519053e+001
7.948646e+002, 8.510800e+001
7.953467e+002, 8.549757e+001
7.958289e+002, 8.589787e+001
7.963110e+002, 8.618053e+001
7.967931e+002, 8.619044e+001
7.972752e+002, 8.560210e+001
7.977573e+002, 8.406918e+001
7.982394e+002, 8.336977e+001
7.987216e+002, 8.413366e+001
7.992037e+002, 8.528059e+001
7.996858e+002, 8.619694e+001
8.001679e+002, 8.687678e+001
8.006500e+002, 8.737017e+001
8.011321e+002, 8.766811e+001
8.016143e+002, 8.788413e+001
8.020964e+002, 8.813380e+001
8.025785e+002, 8.837229e+001
8.030606e+002, 8.847841e+001
8.035427e+002, 8.842670e+001
8.040248e+002, 8.843476e+001
8.045070e+002, 8.850904e+001
8.049891e+002, 8.877753e+001
8.054712e+002, 8.939738e+001
8.059533e+002, 9.058390e+001
8.064354e+002, 9.147817e+001
8.069175e+002, 9.193419e+001
8.073997e+002, 9.230210e+001
8.078818e+002, 9.283365e+001
8.083639e+002, 9.352119e+001
8.088460e+002, 9.422643e+001
8.093281e+002, 9.494337e+001
8.098102e+002, 9.569361e+001
8.102924e+002, 9.634590e+001
8.107745e+002, 9.711253e+001
8.112566e+002, 9.847911e+001
8.117387e+002, 1.005987e+002
8.122208e+002, 1.022521e+002
8.127029e+002, 1.023503e+002
8.131851e+002, 1.022429e+002
8.136672e+002, 1.028999e+002
8.141493e+002, 1.045232e+002
8.146314e+002, 1.061128e+002
8.151135e+002, 1.077055e+002
8.155956e+002, 1.091407e+002
8.160778e+002, 1.101416e+002
8.165599e+002, 1.108349e+002
8.170420e+002, 1.118289e+002
8.175241e+002, 1.131646e+002
8.180062e+002, 1.145251e+002
8.184883e+002, 1.156447e+002
8.189705e+002, 1.166964e+002
8.194526e+002, 1.179376e+002
8.199347e+002, 1.194739e+002
8.204168e+002, 1.205614e+002
8.208989e+002, 1.205965e+002
8.213810e+002, 1.205539e+002
8.218632e+002, 1.210482e+002
8.223453e+002, 1.222133e+002
8.228274e+002, 1.226236e+002
8.233095e+002, 1.222641e+002
8.237916e+002, 1.212268e+002
8.242737e+002, 1.193743e+002
8.247559e+002, 1.169681e+002
8.252380e+002, 1.145011e+002
8.257201e+002, 1.120259e+002
8.262022e+002, 1.094616e+002
8.266843e+002, 1.064523e+002
8.271664e+002, 1.036084e+002
8.276486e+002, 1.014079e+002
8.281307e+002, 9.997386e+001
8.286128e+002, 9.853190e+001
8.290949e+002, 9.705044e+001
8.295770e+002, 9.558274e+001
8.300591e+002, 9.401933e+001
8.305413e+002, 9.242248e+001
8.310234e+002, 9.155520e+001
8.315055e+002, 9.140787e+001
8.319876e+002, 9.129720e+001
8.324697e+002, 9.073817e+001
8.329518e+002, 8.995286e+001
8.334340e+002, 8.902053e+001
8.339161e+002, 8.799174e+001
8.343982e+002, 8.735342e+001
8.348803e+002, 8.771996e+001
8.353624e+002, 8.807956e+001
8.358445e+002, 8.796046e+001
8.363267e+002, 8.738827e+001
8.368088e+002, 8.690194e+001
8.372909e+002, 8.648676e+001
8.377730e+002, 8.624494e+001
8.382551e+002, 8.634949e+001
8.387372e+002, 8.663390e+001
8.392194e+002, 8.665260e+001
8.397015e+002, 8.644447e+001
8.401836e+002, 8.623309e+001
8.406657e+002, 8.615395e+001
8.411478e+002, 8.610559e+001
8.416299e+002, 8.605855e+001
8.421121e+002, 8.599877e+001
8.425942e+002, 8.582959e+001
8.430763e+002, 8.541528e+001
8.435584e+002, 8.512748e+001
8.440405e+002, 8.512720e+001
8.445226e+002, 8.532702e+001
8.450048e+002, 8.537069e+001
8.454869e+002, 8.526831e+001
8.459690e+002, 8.518596e+001
8.464511e+002, 8.529971e+001
8.469332e+002, 8.539793e+001
8.474153e+002, 8.510472e+001
8.478975e+002, 8.459746e+001
8.483796e+002, 8.437718e+001
8.488617e+002, 8.502770e+001
8.493438e+002, 8.551679e+001
8.498259e+002, 8.545056e+001
8.503080e+002, 8.505138e+001
8.507902e+002, 8.489820e+001
8.512723e+002, 8.503590e+001
8.517544e+002, 8.515650e+001
8.522365e+002, 8.516058e+001
8.527186e+002, 8.512150e+001
8.532007e+002, 8.522100e+001
8.536829e+002, 8.538578e+001
8.541650e+002, 8.540730e+001
8.546471e+002, 8.496004e+001
8.551292e+002, 8.466331e+001
8.556113e+002, 8.492990e+001
8.560934e+002, 8.551826e+001
8.565756e+002, 8.599821e+001
8.570577e+002, 8.638578e+001
8.575398e+002, 8.656424e+001
8.580219e+002, 8.644582e+001
8.585040e+002, 8.623502e+001
8.589861e+002, 8.635262e+001
8.594683e+002, 8.670760e+001
8.599504e+002, 8.674257e+001
8.604325e+002, 8.621429e+001
8.609146e+002, 8.570980e+001
8.613967e+002, 8.575288e+001
8.618788e+002, 8.614171e+001
8.623610e+002, 8.666586e+001
8.628431e+002, 8.766093e+001
8.633252e+002, 8.805750e+001
8.638073e+002, 8.746658e+001
8.642894e+002, 8.659238e+001
8.647715e+002, 8.610374e+001
8.652537e+002, 8.601521e+001
8.657358e+002, 8.613654e+001
8.662179e+002, 8.651740e+001
8.667000e+002, 8.669241e+001
8.671821e+002, 8.579298e+001
8.676642e+002, 8.455582e+001
8.681464e+002, 8.416393e+001
8.686285e+002, 8.491512e+001
8.691106e+002, 8.562634e+001
8.695927e+002, 8.583292e+001
8.700748e+002, 8.585081e+001
8.705569e+002, 8.585267e+001
8.710391e+002, 8.580852e+001
8.715212e+002, 8.598166e+001
8.720033e+002, 8.642287e+001
8.724854e+002, 8.686502e+001
8.729675e+002, 8.707791e+001
8.734496e+002, 8.714256e+001
8.739318e+002, 8.726130e+001
8.744139e+002, 8.742948e+001
8.748960e+002, 8.752924e+001
8.753781e+002, 8.737960e+001
8.758602e+002, 8.723542e+001
8.763423e+002, 8.725516e+001
8.768245e+002, 8.745263e+001
8.773066e+002, 8.772005e+001
8.777887e+002, 8.816337e+001
8.782708e+002, 8.843611e+001
8.787529e+002, 8.833224e+001
8.792350e+002, 8.798785e+001
8.797172e+002, 8.773608e+001
8.801993e+002, 8.761958e+001
8.806814e+002, 8.787357e+001
8.811635e+002, 8.917117e+001
8.816456e+002, 9.039944e+001
8.821277e+002, 9.048462e+001
8.826099e+002, 8.981165e+001
8.830920e+002, 8.954309e+001
8.835741e+002, 9.009626e+001
8.840562e+002, 9.081243e+001
8.845383e+002, 9.167097e+001
8.850204e+002, 9.256908e+001
8.855026e+002, 9.323653e+001
8.859847e+002, 9.369177e+001
8.864668e+002, 9.423478e+001
8.869489e+002, 9.494706e+001
8.874310e+002, 9.578938e+001
8.879131e+002, 9.685925e+001
8.883953e+002, 9.797627e+001
8.888774e+002, 9.887050e+001
8.893595e+002, 9.921591e+001
8.898416e+002, 9.971677e+001
8.903237e+002, 1.005015e+002
8.908058e+002, 1.014546e+002
8.912880e+002, 1.024638e+002
8.917701e+002, 1.035168e+002
8.922522e+002, 1.047794e+002
8.927343e+002, 1.062982e+002
8.932164e+002, 1.078576e+002
8.936985e+002, 1.092423e+002
8.941807e+002, 1.105153e+002
8.946628e+002, 1.118324e+002
8.951449e+002, 1.132406e+002
8.956270e+002, 1.144455e+002
8.961091e+002, 1.153587e+002
8.965912e+002, 1.160239e+002
8.970734e+002, 1.165701e+002
8.975555e+002, 1.170440e+002
8.980376e+002, 1.167644e+002
8.985197e+002, 1.156998e+002
8.990018e+002, 1.141023e+002
8.994839e+002, 1.119967e+002
8.999661e+002, 1.095527e+002
9.004482e+002, 1.069248e+002
9.009303e+002, 1.041733e+002
9.014124e+002, 1.017663e+002
9.018945e+002, 9.997705e+001
9.023766e+002, 9.850879e+001
9.028588e+002, 9.737990e+001
9.033409e+002, 9.647740e+001
9.038230e+002, 9.516207e+001
9.043051e+002, 9.319898e+001
9.047872e+002, 9.172001e+001
9.052693e+002, 9.118570e+001
9.057515e+002, 9.122249e+001
9.062336e+002, 9.114575e+001
9.067157e+002, 9.099813e+001
9.071978e+002, 9.090952e+001
9.076799e+002, 9.108320e+001
9.081620e+002, 9.113802e+001
9.086442e+002, 9.078034e+001
9.091263e+002, 9.023342e+001
9.096084e+002, 8.986036e+001
9.100905e+002, 8.968102e+001
9.105726e+002, 8.967796e+001
9.110547e+002, 8.991972e+001
9.115369e+002, 9.016985e+001
9.120190e+002, 9.008109e+001
9.125011e+002, 8.975000e+001
9.129832e+002, 8.943523e+001
9.134653e+002, 8.917678e+001
9.139474e+002, 8.896875e+001
9.144296e+002, 8.864516e+001
9.149117e+002, 8.847813e+001
9.153938e+002, 8.882500e+001
9.158759e+002, 8.995501e+001
9.163580e+002, 9.038306e+001
9.168401e+002, 8.984448e+001
9.173223e+002, 8.925416e+001
9.178044e+002, 8.934029e+001
9.182865e+002, 8.989030e+001
9.187686e+002, 9.006795e+001
9.192507e+002, 8.990884e+001
9.197328e+002, 8.980998e+001
9.202150e+002, 9.011497e+001
9.206971e+002, 9.047427e+001
9.211792e+002, 9.066048e+001
9.216613e+002, 9.069150e+001
9.221434e+002, 9.077035e+001
9.226255e+002, 9.089906e+001
9.231077e+002, 9.108691e+001
9.235898e+002, 9.134348e+001
9.240719e+002, 9.165379e+001
9.245540e+002, 9.204935e+001
9.250361e+002, 9.248646e+001
9.255182e+002, 9.276087e+001
9.260004e+002, 9.263451e+001
9.264825e+002, 9.259398e+001
9.269646e+002, 9.303308e+001
9.274467e+002, 9.372091e+001
9.279288e+002, 9.431536e+001
9.284109e+002, 9.485871e+001
9.288931e+002, 9.514114e+001
9.293752e+002, 9.505145e+001
9.298573e+002, 9.490276e+001
9.303394e+002, 9.506963e+001
9.308215e+002, 9.547841e+001
9.313036e+002, 9.595240e+001
9.317858e+002, 9.649390e+001
9.322679e+002, 9.675404e+001
9.327500e+002, 9.608248e+001
9.332321e+002, 9.534544e+001
9.337142e+002, 9.530434e+001
9.341964e+002, 9.615444e+001
9.346785e+002, 9.659893e+001
9.351606e+002, 9.655738e+001
9.356427e+002, 9.629983e+001
9.361248e+002, 9.593652e+001
9.366069e+002, 9.547105e+001
9.370891e+002, 9.486549e+001
9.375712e+002, 9.415700e+001
9.380533e+002, 9.357511e+001
9.385354e+002, 9.337190e+001
9.390175e+002, 9.319968e+001
9.394996e+002, 9.281884e+001
9.399818e+002, 9.231640e+001
9.404639e+002, 9.196333e+001
9.409460e+002, 9.182241e+001
9.414281e+002, 9.170271e+001
9.419102e+002, 9.160833e+001
9.423923e+002, 9.144908e+001
9.428745e+002, 9.095557e+001
9.433566e+002, 9.027591e+001
9.438387e+002, 8.990437e+001
9.443208e+002, 9.006796e+001
9.448029e+002, 9.015945e+001
9.452850e+002, 8.962407e+001
9.457672e+002, 8.898978e+001
9.462493e+002, 8.880079e+001
9.467314e+002, 8.923347e+001
9.472135e+002, 8.941026e+001
9.476956e+002, 8.927510e+001
9.481777e+002, 8.907894e+001
9.486599e+002, 8.905435e+001
9.491420e+002, 8.910597e+001
9.496241e+002, 8.894194e+001
9.501062e+002, 8.859336e+001
9.505883e+002, 8.835982e+001
9.510704e+002, 8.850874e+001
9.515526e+002, 8.870773e+001
9.520347e+002, 8.880042e+001
9.525168e+002, 8.880225e+001
9.529989e+002, 8.877226e+001
9.534810e+002, 8.870666e+001
9.539631e+002, 8.861298e+001
9.544453e+002, 8.845876e+001
9.549274e+002, 8.834053e+001
9.554095e+002, 8.856496e+001
9.558916e+002, 8.892760e+001
9.563737e+002, 8.895546e+001
9.568558e+002, 8.820318e+001
9.573380e+002, 8.766195e+001
9.578201e+002, 8.790530e+001
9.583022e+002, 8.835622e+001
9.587843e+002, 8.848425e+001
9.592664e+002, 8.823962e+001
9.597485e+002, 8.787154e+001
9.602307e+002, 8.734345e+001
9.607128e+002, 8.702489e+001
9.611949e+002, 8.753139e+001
9.616770e+002, 8.830698e+001
9.621591e+002, 8.847829e+001
9.626412e+002, 8.802633e+001
9.631234e+002, 8.767103e+001
9.636055e+002, 8.768812e+001
9.640876e+002, 8.783057e+001
9.645697e+002, 8.809907e+001
9.650518e+002, 8.840714e+001
9.655339e+002, 8.825499e+001
9.660161e+002, 8.764183e+001
9.664982e+002, 8.733486e+001
9.669803e+002, 8.777956e+001
9.674624e+002, 8.840770e+001
9.679445e+002, 8.852650e+001
9.684266e+002, 8.839760e+001
9.689088e+002, 8.845094e+001
9.693909e+002, 8.918948e+001
9.698730e+002, 8.953674e+001
9.703551e+002, 8.924121e+001
9.708372e+002, 8.878702e+001
9.713193e+002, 8.878125e+001
9.718015e+002, 8.914087e+001
9.722836e+002, 8.890855e+001
9.727657e+002, 8.799141e+001
9.732478e+002, 8.726389e+001
9.737299e+002, 8.768588e+001
9.742120e+002, 8.837535e+001
9.746942e+002, 8.858543e+001
9.751763e+002, 8.824979e+001
9.756584e+002, 8.792170e+001
9.761405e+002, 8.748682e+001
9.766226e+002, 8.737758e+001
9.771047e+002, 8.786965e+001
9.775869e+002, 8.869588e+001
9.780690e+002, 8.916169e+001
9.785511e+002, 8.930726e+001
9.790332e+002, 8.929428e+001
9.795153e+002, 8.910159e+001
9.799974e+002, 8.888954e+001
9.804796e+002, 8.878943e+001
9.809617e+002, 8.869889e+001
9.814438e+002, 8.842970e+001
9.819259e+002, 8.776032e+001
9.824080e+002, 8.766785e+001
9.828901e+002, 8.832926e+001
9.833723e+002, 8.906693e+001
9.838544e+002, 8.904306e+001
9.843365e+002, 8.866830e+001
9.848186e+002, 8.881009e+001
9.853007e+002, 8.952410e+001
9.857828e+002, 9.005928e+001
9.862650e+002, 8.979631e+001
9.867471e+002, 8.960056e+001
9.872292e+002, 8.996570e+001
9.877113e+002, 9.072477e+001
9.881934e+002, 9.092854e+001
9.886755e+002, 9.055029e+001
9.891577e+002, 9.020984e+001
9.896398e+002, 9.010737e+001
9.901219e+002, 9.021410e+001
9.906040e+002, 9.075264e+001
9.910861e+002, 9.140897e+001
9.915682e+002, 9.164544e+001
9.920504e+002, 9.083733e+001
9.925325e+002, 9.032834e+001
9.930146e+002, 9.029678e+001
9.934967e+002, 9.048203e+001
9.939788e+002, 9.067278e+001
9.944609e+002, 9.086799e+001
9.949431e+002, 9.110165e+001
9.954252e+002, 9.137520e+001
9.959073e+002, 9.148795e+001
9.963894e+002, 9.107286e+001
9.968715e+002, 9.062850e+001
9.973536e+002, 9.063868e+001
9.978358e+002, 9.105939e+001
9.983179e+002, 9.103233e+001
9.988000e+002, 9.022493e+001
9.992821e+002, 8.983804e+001
9.997642e+002, 9.035297e+001
1.000246e+003, 9.129262e+001
1.000728e+003, 9.180960e+001
1.001211e+003, 9.195226e+001
1.001693e+003, 9.178041e+001
1.002175e+003, 9.113405e+001
1.002657e+003, 9.057694e+001
1.003139e+003, 9.021379e+001
1.003621e+003, 9.016749e+001
1.004103e+003, 9.060887e+001
1.004585e+003, 9.167950e+001
1.005068e+003, 9.244250e+001
1.005550e+003, 9.290281e+001
1.006032e+003, 9.305405e+001
1.006514e+003, 9.274216e+001
1.006996e+003, 9.221848e+001
1.007478e+003, 9.155324e+001
1.007960e+003, 9.088151e+001
1.008442e+003, 9.085665e+001
1.008924e+003, 9.245711e+001
1.009407e+003, 9.370785e+001
1.009889e+003, 9.425207e+001
1.010371e+003, 9.420481e+001
1.010853e+003, 9.359936e+001
1.011335e+003, 9.254423e+001
1.011817e+003, 9.180202e+001
1.012299e+003, 9.156084e+001
1.012781e+003, 9.158668e+001
1.013263e+003, 9.188120e+001
1.013746e+003, 9.224696e+001
1.014228e+003, 9.248860e+001
1.014710e+003, 9.257119e+001
1.015192e+003, 9.267159e+001
1.015674e+003, 9.282075e+001
1.016156e+003, 9.288577e+001
1.016638e+003, 9.268339e+001
1.017120e+003, 9.238897e+001
1.017603e+003, 9.236902e+001
1.018085e+003, 9.259099e+001
1.018567e+003, 9.294390e+001
1.019049e+003, 9.331702e+001
1.019531e+003, 9.390318e+001
1.020013e+003, 9.513425e+001
1.020495e+003, 9.635944e+001
1.020977e+003, 9.648026e+001
1.021459e+003, 9.546377e+001
1.021942e+003, 9.465543e+001
1.022424e+003, 9.421172e+001
1.022906e+003, 9.407385e+001
1.023388e+003, 9.440226e+001
1.023870e+003, 9.486096e+001
1.024352e+003, 9.506351e+001
1.024834e+003, 9.494321e+001
1.025316e+003, 9.508168e+001
1.025799e+003, 9.575266e+001
1.026281e+003, 9.617316e+001
1.026763e+003, 9.588232e+001
1.027245e+003, 9.526134e+001
1.027727e+003, 9.529189e+001
1.028209e+003, 9.584978e+001
1.028691e+003, 9.654286e+001
1.029173e+003, 9.745468e+001
1.029656e+003, 9.809349e+001
1.030138e+003, 9.792651e+001
1.030620e+003, 9.755116e+001
1.031102e+003, 9.762012e+001
1.031584e+003, 9.823087e+001
1.032066e+003, 9.876608e+001
1.032548e+003, 9.922128e+001
1.033030e+003, 9.953249e+001
1.033512e+003, 9.957064e+001
1.033995e+003, 9.948055e+001
1.034477e+003, 9.933697e+001
1.034959e+003, 9.918965e+001
1.035441e+003, 9.930150e+001
1.035923e+003, 9.996439e+001
1.036405e+003, 1.005488e+002
1.036887e+003, 1.009445e+002
1.037369e+003, 1.011855e+002
1.037851e+003, 1.012605e+002
1.038334e+003, 1.012349e+002
1.038816e+003, 1.013805e+002
1.039298e+003, 1.017889e+002
1.039780e+003, 1.022388e+002
1.040262e+003, 1.026505e+002
1.040744e+003, 1.030108e+002
1.041226e+003, 1.033237e+002
1.041708e+003, 1.035999e+002
1.042191e+003, 1.036981e+002
1.042673e+003, 1.035892e+002
1.043155e+003, 1.035689e+002
1.043637e+003, 1.038530e+002
1.044119e+003, 1.042700e+002
1.044601e+003, 1.046214e+002
1.045083e+003, 1.049180e+002
1.045565e+003, 1.051718e+002
1.046047e+003, 1.053536e+002
1.046530e+003, 1.055200e+002
1.047012e+003, 1.055695e+002
1.047494e+003, 1.057589e+002
1.047976e+003, 1.064780e+002
1.048458e+003, 1.076134e+002
1.048940e+003, 1.085619e+002
1.049422e+003, 1.092851e+002
1.049904e+003, 1.099739e+002
1.050386e+003, 1.106828e+002
1.050869e+003, 1.114649e+002
1.051351e+003, 1.124083e+002
1.051833e+003, 1.134597e+002
1.052315e+003, 1.143341e+002
1.052797e+003, 1.149637e+002
1.053279e+003, 1.159750e+002
1.053761e+003, 1.176100e+002
1.054243e+003, 1.195444e+002
1.054726e+003, 1.213089e+002
1.055208e+003, 1.231426e+002
1.055690e+003, 1.254542e+002
1.056172e+003, 1.285887e+002
1.056654e+003, 1.313475e+002
1.057136e+003, 1.335064e+002
1.057618e+003, 1.355534e+002
1.058100e+003, 1.377823e+002
1.058583e+003, 1.401337e+002
1.059065e+003, 1.421744e+002
1.059547e+003, 1.440604e+002
1.060029e+003, 1.465347e+002
1.060511e+003, 1.502780e+002
1.060993e+003, 1.542658e+002
1.061475e+003, 1.581526e+002
1.061957e+003, 1.619912e+002
1.062439e+003, 1.657675e+002
1.062922e+003, 1.694181e+002
1.063404e+003, 1.737409e+002
1.063886e+003, 1.788553e+002
1.064368e+003, 1.838873e+002
1.064850e+003, 1.883082e+002
1.065332e+003, 1.921326e+002
1.065814e+003, 1.954807e+002
1.066296e+003, 1.982886e+002
1.066778e+003, 2.001131e+002
1.067261e+003, 2.011279e+002
1.067743e+003, 2.007921e+002
1.068225e+003, 1.986790e+002
1.068707e+003, 1.956380e+002
1.069189e+003, 1.930444e+002
1.069671e+003, 1.908241e+002
1.070153e+003, 1.887949e+002
1.070635e+003, 1.868655e+002
1.071118e+003, 1.853685e+002
1.071600e+003, 1.845396e+002
1.072082e+003, 1.841479e+002
1.072564e+003, 1.838713e+002
1.073046e+003, 1.838192e+002
1.073528e+003, 1.854062e+002
1.074010e+003, 1.885833e+002
1.074492e+003, 1.928361e+002
1.074974e+003, 1.980234e+002
1.075457e+003, 2.040024e+002
1.075939e+003, 2.106332e+002
1.076421e+003, 2.179816e+002
1.076903e+003, 2.262685e+002
1.077385e+003, 2.353447e+002
1.077867e+003, 2.454146e+002
1.078349e+003, 2.564366e+002
1.078831e+003, 2.684697e+002
1.079313e+003, 2.816391e+002
1.079796e+003, 2.958120e+002
1.080278e+003, 3.108793e+002
1.080760e+003, 3.268753e+002
1.081242e+003, 3.432852e+002
1.081724e+003, 3.594766e+002
1.082206e+003, 3.768438e+002
1.082688e+003, 3.955186e+002
1.083170e+003, 4.152201e+002
1.083652e+003, 4.352621e+002
1.084135e+003, 4.558571e+002
1.084617e+003, 4.771372e+002
1.085099e+003, 4.991461e+002
1.085581e+003, 5.218293e+002
1.086063e+003, 5.463470e+002
1.086545e+003, 5.703309e+002
1.087027e+003, 5.929161e+002
1.087509e+003, 6.140413e+002
1.087992e+003, 6.344147e+002
1.088474e+003, 6.540633e+002
1.088956e+003, 6.710242e+002
1.089438e+003, 6.851833e+002
1.089920e+003, 6.951545e+002
1.090402e+003, 6.996188e+002
1.090884e+003, 6.992264e+002
1.091366e+003, 6.947239e+002
1.091849e+003, 6.865517e+002
1.092331e+003, 6.731391e+002
1.092813e+003, 6.536198e+002
1.093295e+003, 6.317779e+002
1.093777e+003, 6.097277e+002
1.094259e+003, 5.875939e+002
1.094741e+003, 5.649955e+002
1.095223e+003, 5.421191e+002
1.095705e+003, 5.195361e+002
1.096188e+003, 4.970931e+002
1.096670e+003, 4.759025e+002
1.097152e+003, 4.561209e+002
1.097634e+003, 4.375961e+002
1.098116e+003, 4.199544e+002
1.098598e+003, 4.030985e+002
1.099080e+003, 3.869282e+002
1.099562e+003, 3.713636e+002
1.100044e+003, 3.567885e+002
1.100527e+003, 3.437697e+002
1.101009e+003, 3.314639e+002
1.101491e+003, 3.194810e+002
1.101973e+003, 3.077441e+002
1.102455e+003, 2.963926e+002
1.102937e+003, 2.853806e+002
1.103419e+003, 2.750712e+002
1.103901e+003, 2.657562e+002
1.104384e+003, 2.567235e+002
1.104866e+003, 2.469409e+002
1.105348e+003, 2.374938e+002
1.105830e+003, 2.296013e+002
1.106312e+003, 2.236659e+002
1.106794e+003, 2.172142e+002
1.107276e+003, 2.100692e+002
1.107758e+003, 2.029875e+002
1.108240e+003, 1.960102e+002
1.108723e+003, 1.895520e+002
1.109205e+003, 1.841964e+002
1.109687e+003, 1.796410e+002
1.110169e+003, 1.752852e+002
1.110651e+003, 1.709775e+002
1.111133e+003, 1.667486e+002
1.111615e+003, 1.624377e+002
1.112097e+003, 1.584077e+002
1.112579e+003, 1.549641e+002
1.113062e+003, 1.520136e+002
1.113544e+003, 1.494127e+002
1.114026e+003, 1.470410e+002
1.114508e+003, 1.444444e+002
1.114990e+003, 1.408704e+002
1.115472e+003, 1.376987e+002
1.115954e+003, 1.355800e+002
1.116436e+003, 1.339538e+002
1.116919e+003, 1.321489e+002
1.117401e+003, 1.301761e+002
1.117883e+003, 1.283794e+002
1.118365e+003, 1.267896e+002
1.118847e+003, 1.252843e+002
1.119329e+003, 1.237319e+002
1.119811e+003, 1.222767e+002
1.120293e+003, 1.210636e+002
1.120776e+003, 1.200279e+002
1.121258e+003, 1.189499e+002
1.121740e+003, 1.178168e+002
1.122222e+003, 1.167647e+002
1.122704e+003, 1.158312e+002
1.123186e+003, 1.149267e+002
1.123668e+003, 1.138515e+002
1.124150e+003, 1.127952e+002
1.124632e+003, 1.119955e+002
1.125115e+003, 1.115108e+002
1.125597e+003, 1.108838e+002
1.126079e+003, 1.100418e+002
1.126561e+003, 1.092887e+002
1.127043e+003, 1.087570e+002
1.127525e+003, 1.083477e+002
1.128007e+003, 1.079377e+002
1.128489e+003, 1.075184e+002
1.128971e+003, 1.070659e+002
1.129454e+003, 1.065304e+002
1.129936e+003, 1.060964e+002
1.130418e+003, 1.057856e+002
1.130900e+003, 1.055635e+002
1.131382e+003, 1.054427e+002
1.131864e+003, 1.053792e+002
1.132346e+003, 1.052928e+002
1.132828e+003, 1.051468e+002
1.133311e+003, 1.048209e+002
1.133793e+003, 1.039636e+002
1.134275e+003, 1.033209e+002
1.134757e+003, 1.031422e+002
1.135239e+003, 1.031265e+002
1.135721e+003, 1.030514e+002
1.136203e+003, 1.029044e+002
1.136685e+003, 1.024917e+002
1.137167e+003, 1.018435e+002
1.137650e+003, 1.013608e+002
1.138132e+003, 1.015264e+002
1.138614e+003, 1.016505e+002
1.139096e+003, 1.013154e+002
1.139578e+003, 1.007569e+002
1.140060e+003, 1.002730e+002
1.140542e+003, 9.985595e+001
1.141024e+003, 9.988815e+001
1.141506e+003, 1.004338e+002
1.141989e+003, 1.009895e+002
1.142471e+003, 1.011585e+002
1.142953e+003, 1.011857e+002
1.143435e+003, 1.013845e+002
1.143917e+003, 1.016240e+002
1.144399e+003, 1.011524e+002
1.144881e+003, 9.979737e+001
1.145363e+003, 9.893429e+001
1.145846e+003, 9.890624e+001
1.146328e+003, 9.931458e+001
1.146810e+003, 1.001246e+002
1.147292e+003, 1.008811e+002
1.147774e+003, 1.009868e+002
1.148256e+003, 1.003043e+002
1.148738e+003, 1.000492e+002
1.149220e+003, 1.004244e+002
1.149703e+003, 1.005230e+002
1.150185e+003, 9.990800e+001
1.150667e+003, 9.910133e+001
1.151149e+003, 9.888990e+001
1.151631e+003, 9.900794e+001
1.152113e+003, 9.901478e+001
1.152595e+003, 9.874026e+001
1.153077e+003, 9.864964e+001
1.153559e+003, 9.878887e+001
1.154042e+003, 9.907841e+001
1.154524e+003, 9.959895e+001
1.155006e+003, 1.001395e+002
1.155488e+003, 1.002492e+002
1.155970e+003, 9.999356e+001
1.156452e+003, 9.951126e+001
1.156934e+003, 9.859868e+001
1.157416e+003, 9.791653e+001
1.157898e+003, 9.750125e+001
1.158381e+003, 9.736791e+001
1.158863e+003, 9.764103e+001
1.159345e+003, 9.820271e+001
1.159827e+003, 9.858817e+001
1.160309e+003, 9.882497e+001
1.160791e+003, 9.901846e+001
1.161273e+003, 9.934628e+001
1.161755e+003, 9.944413e+001
1.162238e+003, 9.907005e+001
1.162720e+003, 9.860693e+001
1.163202e+003, 9.845531e+001
1.163684e+003, 9.858103e+001
1.164166e+003, 9.877703e+001
1.164648e+003, 9.903038e+001
1.165130e+003, 9.932080e+001
1.165612e+003, 9.987893e+001
1.166094e+003, 1.001837e+002
1.166577e+003, 9.988884e+001
1.167059e+003, 9.929829e+001
1.167541e+003, 9.877850e+001
1.168023e+003, 9.834639e+001
1.168505e+003, 9.835354e+001
1.168987e+003, 9.883883e+001
1.169469e+003, 9.926412e+001
1.169951e+003, 9.923528e+001
1.170433e+003, 9.905132e+001
1.170916e+003, 9.875005e+001
1.171398e+003, 9.846703e+001
1.171880e+003, 9.862634e+001
1.172362e+003, 9.921969e+001
1.172844e+003, 9.958038e+001
1.173326e+003, 9.956593e+001
1.173808e+003, 9.942650e+001
1.174290e+003, 9.923241e+001
1.174773e+003, 9.910800e+001
1.175255e+003, 9.921929e+001
1.175737e+003, 9.950279e+001
1.176219e+003, 9.963390e+001
1.176701e+003, 9.960815e+001
1.177183e+003, 9.952586e+001
1.177665e+003, 9.938628e+001
1.178147e+003, 9.930106e+001
1.178630e+003, 9.946975e+001
1.179112e+003, 9.968075e+001
1.179594e+003, 9.966125e+001
1.180076e+003, 9.940334e+001
1.180558e+003, 9.951084e+001
1.181040e+003, 1.000407e+002
1.181522e+003, 1.003761e+002
1.182004e+003, 1.001983e+002
1.182486e+003, 9.991122e+001
1.182969e+003, 9.990331e+001
1.183451e+003, 1.000637e+002
1.183933e+003, 1.002969e+002
1.184415e+003, 1.006253e+002
1.184897e+003, 1.007694e+002
1.185379e+003, 1.007112e+002
1.185861e+003, 1.005592e+002
1.186343e+003, 1.001744e+002
1.186825e+003, 9.998579e+001
1.187308e+003, 1.010624e+002
1.187790e+003, 1.024716e+002
1.188272e+003, 1.025784e+002
1.188754e+003, 1.003662e+002
1.189236e+003, 9.939339e+001
1.189718e+003, 9.983593e+001
1.190200e+003, 1.006540e+002
1.190682e+003, 1.014416e+002
1.191165e+003, 1.020119e+002
1.191647e+003, 1.019563e+002
1.192129e+003, 1.015384e+002
1.192611e+003, 1.013057e+002
1.193093e+003, 1.016314e+002
1.193575e+003, 1.014421e+002
1.194057e+003, 1.005774e+002
1.194539e+003, 9.979374e+001
1.195021e+003, 9.978580e+001
1.195504e+003, 1.001340e+002
1.195986e+003, 1.002227e+002
1.196468e+003, 1.001835e+002
1.196950e+003, 1.004522e+002
1.197432e+003, 1.013801e+002
1.197914e+003, 1.019956e+002
1.198396e+003, 1.022330e+002
1.198878e+003, 1.021758e+002
1.199360e+003, 1.017197e+002
1.199843e+003, 1.011334e+002
1.200325e+003, 1.007469e+002
1.200807e+003, 1.005783e+002
1.201289e+003, 1.006796e+002
1.201771e+003, 1.013390e+002
1.202253e+003, 1.015902e+002
1.202735e+003, 1.012403e+002
1.203217e+003, 1.007494e+002
1.203700e+003, 1.006203e+002
1.204182e+003, 1.006795e+002
1.204664e+003, 1.006636e+002
1.205146e+003, 1.005803e+002
1.205628e+003, 1.006121e+002
1.206110e+003, 1.008231e+002
1.206592e+003, 1.010800e+002
1.207074e+003, 1.014119e+002
1.207557e+003, 1.016328e+002
1.208039e+003, 1.012212e+002
1.208521e+003, 1.007084e+002
1.209003e+003, 1.010530e+002
1.209485e+003, 1.022574e+002
1.209967e+003, 1.029620e+002
1.210449e+003, 1.028205e+002
1.210931e+003, 1.026350e+002
1.211413e+003, 1.025624e+002
1.211896e+003, 1.025339e+002
1.212378e+003, 1.024582e+002
1.212860e+003, 1.023650e+002
1.213342e+003, 1.022895e+002
1.213824e+003, 1.022371e+002
1.214306e+003, 1.022615e+002
1.214788e+003, 1.024900e+002
1.215270e+003, 1.024228e+002
1.215752e+003, 1.018036e+002
1.216235e+003, 1.011548e+002
1.216717e+003, 1.013910e+002
1.217199e+003, 1.019977e+002
1.217681e+003, 1.022070e+002
1.218163e+003, 1.018838e+002
1.218645e+003, 1.015802e+002
1.219127e+003, 1.012523e+002
1.219609e+003, 1.012441e+002
1.220092e+003, 1.017850e+002
1.220574e+003, 1.024229e+002
1.221056e+003, 1.024931e+002
1.221538e+003, 1.022212e+002
1.222020e+003, 1.018534e+002
1.222502e+003, 1.013927e+002
1.222984e+003, 1.013075e+002
1.223466e+003, 1.017975e+002
1.223948e+003, 1.019859e+002
1.224431e+003, 1.013896e+002
1.224913e+003, 1.006695e+002
1.225395e+003, 1.009636e+002
1.225877e+003, 1.016645e+002
1.226359e+003, 1.018564e+002
1.226841e+003, 1.012012e+002
1.227323e+003, 1.011476e+002
1.227805e+003, 1.019027e+002
1.228287e+003, 1.024143e+002
1.228770e+003, 1.020918e+002
1.229252e+003, 1.015906e+002
1.229734e+003, 1.019255e+002
1.230216e+003, 1.025893e+002
1.230698e+003, 1.028823e+002
1.231180e+003, 1.026270e+002
1.231662e+003, 1.023348e+002
1.232144e+003, 1.019685e+002
1.232627e+003, 1.017875e+002
1.233109e+003, 1.020050e+002
1.233591e+003, 1.023064e+002
1.234073e+003, 1.022162e+002
1.234555e+003, 1.020286e+002
1.235037e+003, 1.022453e+002
1.235519e+003, 1.030715e+002
1.236001e+003, 1.031496e+002
1.236484e+003, 1.023805e+002
1.236966e+003, 1.017613e+002
1.237448e+003, 1.018830e+002
1.237930e+003, 1.022374e+002
1.238412e+003, 1.022786e+002
1.238894e+003, 1.022542e+002
1.239376e+003, 1.025884e+002
1.239858e+003, 1.034116e+002
1.240340e+003, 1.035938e+002
1.240823e+003, 1.031004e+002
1.241305e+003, 1.026351e+002
1.241787e+003, 1.026103e+002
1.242269e+003, 1.027048e+002
1.242751e+003, 1.025357e+002
1.243233e+003, 1.024012e+002
1.243715e+003, 1.027664e+002
1.244197e+003, 1.037360e+002
1.244679e+003, 1.040434e+002
1.245162e+003, 1.037013e+002
1.245644e+003, 1.032083e+002
1.246126e+003, 1.026821e+002
1.246608e+003, 1.022946e+002
1.247090e+003, 1.021162e+002
1.247572e+003, 1.021902e+002
1.248054e+003, 1.026372e+002
1.248536e+003, 1.034982e+002
1.249019e+003, 1.036346e+002
1.249501e+003, 1.031181e+002
1.249983e+003, 1.027108e+002
1.250465e+003, 1.028985e+002
1.250947e+003, 1.032232e+002
1.251429e+003, 1.035778e+002
1.251911e+003, 1.038554e+002
1.252393e+003, 1.039105e+002
1.252875e+003, 1.037598e+002
1.253358e+003, 1.037489e+002
1.253840e+003, 1.038711e+002
1.254322e+003, 1.040903e+002
1.254804e+003, 1.046102e+002
1.255286e+003, 1.049236e+002
1.255768e+003, 1.047012e+002
1.256250e+003, 1.043656e+002
1.256732e+003, 1.042501e+002
1.257214e+003, 1.043298e+002
1.257697e+003, 1.045504e+002
1.258179e+003, 1.048489e+002
1.258661e+003, 1.049352e+002
1.259143e+003, 1.043680e+002
1.259625e+003, 1.040450e+002
1.260107e+003, 1.042481e+002
1.260589e+003, 1.045403e+002
1.261071e+003, 1.044335e+002
1.261554e+003, 1.041454e+002
1.262036e+003, 1.045777e+002
1.262518e+003, 1.054655e+002
1.263000e+003, 1.059091e+002
1.263482e+003, 1.050009e+002
1.263964e+003, 1.045276e+002
1.264446e+003, 1.047731e+002
1.264928e+003, 1.051515e+002
1.265411e+003, 1.051733e+002
1.265893e+003, 1.049896e+002
1.266375e+003, 1.047855e+002
1.266857e+003, 1.046290e+002
1.267339e+003, 1.047001e+002
1.267821e+003, 1.053305e+002
1.268303e+003, 1.056768e+002
1.268785e+003, 1.057063e+002
1.269267e+003, 1.055197e+002
1.269750e+003, 1.049412e+002
1.270232e+003, 1.043928e+002
1.270714e+003, 1.045052e+002
1.271196e+003, 1.050628e+002
1.271678e+003, 1.055683e+002
1.272160e+003, 1.059755e+002
1.272642e+003, 1.063377e+002
1.273124e+003, 1.066679e+002
1.273606e+003, 1.068200e+002
1.274089e+003, 1.065692e+002
1.274571e+003, 1.062063e+002
1.275053e+003, 1.057756e+002
1.275535e+003, 1.055156e+002
1.276017e+003, 1.059441e+002
1.276499e+003, 1.073066e+002
1.276981e+003, 1.075250e+002
1.277463e+003, 1.065762e+002
1.277946e+003, 1.056129e+002
1.278428e+003, 1.052730e+002
1.278910e+003, 1.052929e+002
1.279392e+003, 1.058911e+002
1.279874e+003, 1.065138e+002
1.280356e+003, 1.064109e+002
1.280838e+003, 1.056107e+002
1.281320e+003, 1.053117e+002
1.281802e+003, 1.054923e+002
1.282285e+003, 1.057773e+002
1.282767e+003, 1.059953e+002
1.283249e+003, 1.062445e+002
1.283731e+003, 1.066321e+002
1.284213e+003, 1.069852e+002
1.284695e+003, 1.071258e+002
1.285177e+003, 1.070961e+002
1.285659e+003, 1.070944e+002
1.286141e+003, 1.071118e+002
1.286624e+003, 1.071064e+002
1.287106e+003, 1.069298e+002
1.287588e+003, 1.069689e+002
1.288070e+003, 1.074380e+002
1.288552e+003, 1.077716e+002
1.289034e+003, 1.072777e+002
1.289516e+003, 1.064098e+002
1.289998e+003, 1.061840e+002
1.290481e+003, 1.064437e+002
1.290963e+003, 1.067767e+002
1.291445e+003, 1.071436e+002
1.291927e+003, 1.074400e+002
1.292409e+003, 1.076546e+002
1.292891e+003, 1.078428e+002
1.293373e+003, 1.081276e+002
1.293855e+003, 1.083417e+002
1.294338e+003, 1.080923e+002
1.294820e+003, 1.076705e+002
1.295302e+003, 1.076950e+002
1.295784e+003, 1.083989e+002
1.296266e+003, 1.086868e+002
1.296748e+003, 1.085438e+002
1.297230e+003, 1.082400e+002
1.297712e+003, 1.076793e+002
1.298194e+003, 1.073245e+002
1.298677e+003, 1.077890e+002
1.299159e+003, 1.085125e+002
1.299641e+003, 1.087628e+002
1.300123e+003, 1.085221e+002
1.300605e+003, 1.085908e+002
1.301087e+003, 1.089087e+002
1.301569e+003, 1.089257e+002
1.302051e+003, 1.081170e+002
1.302533e+003, 1.073237e+002
1.303016e+003, 1.068141e+002
##END=



