##NAMES=Dawsonite
##RRUFFID=R120093
##IDEAL CHEMISTRY=NaAlCO_3_(OH)_2_
##LOCALITY=Francon Quarry, Montréal, Québec, Canada
##OWNER=RRUFF
##SOURCE=Don Doell
##DESCRIPTION=Colorless short prismatic crystals associated with calcite, orthoclase, strontiodresserite and quartz
##STATUS=The identification of this mineral has been confirmed only by single crystal X-ray diffraction.
##URL=rruff.info/R120093
9.112140e+001, 0.000000e+000
9.160352e+001, 1.934080e+002
9.208563e+001, 1.900931e+002
9.256775e+001, 1.897143e+002
9.304987e+001, 1.938303e+002
9.353198e+001, 1.988575e+002
9.401410e+001, 2.014935e+002
9.449622e+001, 2.018133e+002
9.497833e+001, 2.007772e+002
9.546045e+001, 1.991488e+002
9.594257e+001, 1.969226e+002
9.642468e+001, 1.946027e+002
9.690680e+001, 1.920334e+002
9.738892e+001, 1.897617e+002
9.787103e+001, 1.880603e+002
9.835315e+001, 1.866414e+002
9.883527e+001, 1.851099e+002
9.931738e+001, 1.835742e+002
9.979950e+001, 1.820235e+002
1.002816e+002, 1.807693e+002
1.007637e+002, 1.798808e+002
1.012458e+002, 1.791377e+002
1.017280e+002, 1.783529e+002
1.022101e+002, 1.774599e+002
1.026922e+002, 1.765343e+002
1.031743e+002, 1.756015e+002
1.036564e+002, 1.745809e+002
1.041385e+002, 1.738412e+002
1.046207e+002, 1.735141e+002
1.051028e+002, 1.735542e+002
1.055849e+002, 1.738585e+002
1.060670e+002, 1.745290e+002
1.065491e+002, 1.752644e+002
1.070313e+002, 1.758005e+002
1.075134e+002, 1.761353e+002
1.079955e+002, 1.762056e+002
1.084776e+002, 1.757153e+002
1.089597e+002, 1.743897e+002
1.094418e+002, 1.737033e+002
1.099240e+002, 1.745263e+002
1.104061e+002, 1.758676e+002
1.108882e+002, 1.770515e+002
1.113703e+002, 1.778187e+002
1.118524e+002, 1.782950e+002
1.123345e+002, 1.788017e+002
1.128167e+002, 1.792550e+002
1.132988e+002, 1.798731e+002
1.137809e+002, 1.807835e+002
1.142630e+002, 1.818412e+002
1.147451e+002, 1.828693e+002
1.152272e+002, 1.837455e+002
1.157094e+002, 1.844866e+002
1.161915e+002, 1.852814e+002
1.166736e+002, 1.857771e+002
1.171557e+002, 1.866518e+002
1.176378e+002, 1.885991e+002
1.181199e+002, 1.912843e+002
1.186021e+002, 1.935459e+002
1.190842e+002, 1.942690e+002
1.195663e+002, 1.933001e+002
1.200484e+002, 1.930049e+002
1.205305e+002, 1.938098e+002
1.210126e+002, 1.950057e+002
1.214948e+002, 1.958955e+002
1.219769e+002, 1.963472e+002
1.224590e+002, 1.969247e+002
1.229411e+002, 1.983010e+002
1.234232e+002, 2.002941e+002
1.239053e+002, 2.025005e+002
1.243875e+002, 2.048669e+002
1.248696e+002, 2.073530e+002
1.253517e+002, 2.097761e+002
1.258338e+002, 2.119145e+002
1.263159e+002, 2.143204e+002
1.267980e+002, 2.171310e+002
1.272802e+002, 2.204032e+002
1.277623e+002, 2.243397e+002
1.282444e+002, 2.294218e+002
1.287265e+002, 2.357751e+002
1.292086e+002, 2.417151e+002
1.296907e+002, 2.463367e+002
1.301729e+002, 2.510887e+002
1.306550e+002, 2.570929e+002
1.311371e+002, 2.642698e+002
1.316192e+002, 2.712978e+002
1.321013e+002, 2.765242e+002
1.325834e+002, 2.803404e+002
1.330656e+002, 2.811451e+002
1.335477e+002, 2.782296e+002
1.340298e+002, 2.733412e+002
1.345119e+002, 2.673754e+002
1.349940e+002, 2.607455e+002
1.354761e+002, 2.538223e+002
1.359583e+002, 2.475114e+002
1.364404e+002, 2.418969e+002
1.369225e+002, 2.368973e+002
1.374046e+002, 2.324263e+002
1.378867e+002, 2.285721e+002
1.383688e+002, 2.255595e+002
1.388510e+002, 2.235067e+002
1.393331e+002, 2.222941e+002
1.398152e+002, 2.215913e+002
1.402973e+002, 2.216970e+002
1.407794e+002, 2.217563e+002
1.412615e+002, 2.212979e+002
1.417437e+002, 2.204400e+002
1.422258e+002, 2.196782e+002
1.427079e+002, 2.191443e+002
1.431900e+002, 2.189915e+002
1.436721e+002, 2.193891e+002
1.441542e+002, 2.205093e+002
1.446364e+002, 2.219856e+002
1.451185e+002, 2.233540e+002
1.456006e+002, 2.245136e+002
1.460827e+002, 2.261810e+002
1.465648e+002, 2.292186e+002
1.470469e+002, 2.328279e+002
1.475291e+002, 2.361880e+002
1.480112e+002, 2.388485e+002
1.484933e+002, 2.412648e+002
1.489754e+002, 2.445678e+002
1.494575e+002, 2.494865e+002
1.499396e+002, 2.540832e+002
1.504218e+002, 2.583778e+002
1.509039e+002, 2.619357e+002
1.513860e+002, 2.642036e+002
1.518681e+002, 2.648983e+002
1.523502e+002, 2.640269e+002
1.528323e+002, 2.616750e+002
1.533145e+002, 2.561982e+002
1.537966e+002, 2.506777e+002
1.542787e+002, 2.453287e+002
1.547608e+002, 2.403773e+002
1.552429e+002, 2.360118e+002
1.557250e+002, 2.323335e+002
1.562072e+002, 2.293369e+002
1.566893e+002, 2.273949e+002
1.571714e+002, 2.267682e+002
1.576535e+002, 2.266991e+002
1.581356e+002, 2.269699e+002
1.586177e+002, 2.275314e+002
1.590999e+002, 2.283546e+002
1.595820e+002, 2.293813e+002
1.600641e+002, 2.306258e+002
1.605462e+002, 2.324436e+002
1.610283e+002, 2.349951e+002
1.615104e+002, 2.379592e+002
1.619926e+002, 2.410804e+002
1.624747e+002, 2.443187e+002
1.629568e+002, 2.478445e+002
1.634389e+002, 2.517652e+002
1.639210e+002, 2.560917e+002
1.644031e+002, 2.610013e+002
1.648853e+002, 2.666744e+002
1.653674e+002, 2.729135e+002
1.658495e+002, 2.792534e+002
1.663316e+002, 2.855359e+002
1.668137e+002, 2.923059e+002
1.672958e+002, 3.000534e+002
1.677780e+002, 3.086551e+002
1.682601e+002, 3.179676e+002
1.687422e+002, 3.280400e+002
1.692243e+002, 3.388070e+002
1.697064e+002, 3.498284e+002
1.701885e+002, 3.610494e+002
1.706707e+002, 3.725657e+002
1.711528e+002, 3.846524e+002
1.716349e+002, 3.971451e+002
1.721170e+002, 4.094751e+002
1.725991e+002, 4.210834e+002
1.730812e+002, 4.319278e+002
1.735634e+002, 4.429378e+002
1.740455e+002, 4.546264e+002
1.745276e+002, 4.661920e+002
1.750097e+002, 4.768815e+002
1.754918e+002, 4.869189e+002
1.759739e+002, 4.972684e+002
1.764561e+002, 5.089065e+002
1.769382e+002, 5.221654e+002
1.774203e+002, 5.359719e+002
1.779024e+002, 5.500062e+002
1.783845e+002, 5.647186e+002
1.788666e+002, 5.802794e+002
1.793488e+002, 5.966639e+002
1.798309e+002, 6.139462e+002
1.803130e+002, 6.319456e+002
1.807951e+002, 6.503878e+002
1.812772e+002, 6.704012e+002
1.817593e+002, 6.923648e+002
1.822415e+002, 7.153533e+002
1.827236e+002, 7.384729e+002
1.832057e+002, 7.615615e+002
1.836878e+002, 7.852033e+002
1.841699e+002, 8.102634e+002
1.846520e+002, 8.370533e+002
1.851342e+002, 8.650764e+002
1.856163e+002, 8.953856e+002
1.860984e+002, 9.264219e+002
1.865805e+002, 9.569550e+002
1.870626e+002, 9.867021e+002
1.875447e+002, 1.015066e+003
1.880269e+002, 1.041282e+003
1.885090e+002, 1.066416e+003
1.889911e+002, 1.086669e+003
1.894732e+002, 1.102971e+003
1.899553e+002, 1.113506e+003
1.904374e+002, 1.115270e+003
1.909196e+002, 1.107657e+003
1.914017e+002, 1.089827e+003
1.918838e+002, 1.059728e+003
1.923659e+002, 1.017985e+003
1.928480e+002, 9.702252e+002
1.933301e+002, 9.164277e+002
1.938123e+002, 8.580655e+002
1.942944e+002, 7.996924e+002
1.947765e+002, 7.407424e+002
1.952586e+002, 6.847732e+002
1.957407e+002, 6.341183e+002
1.962228e+002, 5.889210e+002
1.967050e+002, 5.481936e+002
1.971871e+002, 5.115013e+002
1.976692e+002, 4.788255e+002
1.981513e+002, 4.497039e+002
1.986334e+002, 4.251520e+002
1.991155e+002, 4.037034e+002
1.995977e+002, 3.843110e+002
2.000798e+002, 3.668755e+002
2.005619e+002, 3.516879e+002
2.010440e+002, 3.393111e+002
2.015261e+002, 3.299832e+002
2.020082e+002, 3.214766e+002
2.024904e+002, 3.137953e+002
2.029725e+002, 3.066880e+002
2.034546e+002, 3.000059e+002
2.039367e+002, 2.937487e+002
2.044188e+002, 2.880370e+002
2.049009e+002, 2.829854e+002
2.053831e+002, 2.784966e+002
2.058652e+002, 2.750783e+002
2.063473e+002, 2.731571e+002
2.068294e+002, 2.718799e+002
2.073115e+002, 2.708221e+002
2.077936e+002, 2.699011e+002
2.082758e+002, 2.692761e+002
2.087579e+002, 2.691982e+002
2.092400e+002, 2.698642e+002
2.097221e+002, 2.707076e+002
2.102042e+002, 2.714641e+002
2.106863e+002, 2.725298e+002
2.111685e+002, 2.742300e+002
2.116506e+002, 2.766041e+002
2.121327e+002, 2.793825e+002
2.126148e+002, 2.821413e+002
2.130969e+002, 2.842990e+002
2.135790e+002, 2.878273e+002
2.140612e+002, 2.933120e+002
2.145433e+002, 2.996665e+002
2.150254e+002, 3.062791e+002
2.155075e+002, 3.129126e+002
2.159896e+002, 3.195406e+002
2.164717e+002, 3.261241e+002
2.169539e+002, 3.329918e+002
2.174360e+002, 3.389039e+002
2.179181e+002, 3.448587e+002
2.184002e+002, 3.493611e+002
2.188823e+002, 3.510981e+002
2.193644e+002, 3.497387e+002
2.198466e+002, 3.455096e+002
2.203287e+002, 3.382252e+002
2.208108e+002, 3.274932e+002
2.212929e+002, 3.158164e+002
2.217750e+002, 3.025612e+002
2.222571e+002, 2.888868e+002
2.227393e+002, 2.761473e+002
2.232214e+002, 2.646373e+002
2.237035e+002, 2.540836e+002
2.241856e+002, 2.442141e+002
2.246677e+002, 2.349649e+002
2.251498e+002, 2.270391e+002
2.256320e+002, 2.208700e+002
2.261141e+002, 2.160842e+002
2.265962e+002, 2.121991e+002
2.270783e+002, 2.092639e+002
2.275604e+002, 2.068758e+002
2.280425e+002, 2.048191e+002
2.285247e+002, 2.030208e+002
2.290068e+002, 2.011038e+002
2.294889e+002, 1.986581e+002
2.299710e+002, 1.960315e+002
2.304531e+002, 1.939426e+002
2.309352e+002, 1.924271e+002
2.314174e+002, 1.915946e+002
2.318995e+002, 1.918787e+002
2.323816e+002, 1.929138e+002
2.328637e+002, 1.937087e+002
2.333458e+002, 1.936143e+002
2.338279e+002, 1.928935e+002
2.343101e+002, 1.923420e+002
2.347922e+002, 1.918446e+002
2.352743e+002, 1.917996e+002
2.357564e+002, 1.923214e+002
2.362385e+002, 1.933750e+002
2.367206e+002, 1.949377e+002
2.372028e+002, 1.971082e+002
2.376849e+002, 1.997790e+002
2.381670e+002, 2.025195e+002
2.386491e+002, 2.052287e+002
2.391312e+002, 2.081891e+002
2.396133e+002, 2.114702e+002
2.400955e+002, 2.150490e+002
2.405776e+002, 2.189231e+002
2.410597e+002, 2.230561e+002
2.415418e+002, 2.274815e+002
2.420239e+002, 2.323488e+002
2.425060e+002, 2.384269e+002
2.429882e+002, 2.438791e+002
2.434703e+002, 2.481402e+002
2.439524e+002, 2.515270e+002
2.444345e+002, 2.544244e+002
2.449166e+002, 2.569435e+002
2.453987e+002, 2.592668e+002
2.458809e+002, 2.622145e+002
2.463630e+002, 2.661125e+002
2.468451e+002, 2.702956e+002
2.473272e+002, 2.747994e+002
2.478093e+002, 2.794411e+002
2.482914e+002, 2.838933e+002
2.487736e+002, 2.879489e+002
2.492557e+002, 2.918326e+002
2.497378e+002, 2.964046e+002
2.502199e+002, 3.019818e+002
2.507020e+002, 3.079861e+002
2.511841e+002, 3.143230e+002
2.516663e+002, 3.210057e+002
2.521484e+002, 3.279896e+002
2.526305e+002, 3.352920e+002
2.531126e+002, 3.428989e+002
2.535947e+002, 3.509529e+002
2.540768e+002, 3.588769e+002
2.545590e+002, 3.680205e+002
2.550411e+002, 3.788632e+002
2.555232e+002, 3.907974e+002
2.560053e+002, 4.033179e+002
2.564874e+002, 4.161674e+002
2.569695e+002, 4.293550e+002
2.574517e+002, 4.428786e+002
2.579338e+002, 4.580420e+002
2.584159e+002, 4.719790e+002
2.588980e+002, 4.854286e+002
2.593801e+002, 4.973467e+002
2.598622e+002, 5.076579e+002
2.603444e+002, 5.162241e+002
2.608265e+002, 5.211907e+002
2.613086e+002, 5.190214e+002
2.617907e+002, 5.070198e+002
2.622728e+002, 4.907408e+002
2.627549e+002, 4.680739e+002
2.632371e+002, 4.421312e+002
2.637192e+002, 4.152557e+002
2.642013e+002, 3.881324e+002
2.646834e+002, 3.618124e+002
2.651655e+002, 3.377666e+002
2.656476e+002, 3.163348e+002
2.661298e+002, 2.972682e+002
2.666119e+002, 2.809066e+002
2.670940e+002, 2.666300e+002
2.675761e+002, 2.540603e+002
2.680582e+002, 2.430448e+002
2.685403e+002, 2.335645e+002
2.690225e+002, 2.257340e+002
2.695046e+002, 2.199638e+002
2.699867e+002, 2.144944e+002
2.704688e+002, 2.090960e+002
2.709509e+002, 2.041291e+002
2.714330e+002, 1.999336e+002
2.719152e+002, 1.965473e+002
2.723973e+002, 1.937453e+002
2.728794e+002, 1.914891e+002
2.733615e+002, 1.898206e+002
2.738436e+002, 1.878135e+002
2.743257e+002, 1.847142e+002
2.748079e+002, 1.817773e+002
2.752900e+002, 1.803416e+002
2.757721e+002, 1.803601e+002
2.762542e+002, 1.802816e+002
2.767363e+002, 1.787887e+002
2.772184e+002, 1.760718e+002
2.777006e+002, 1.741048e+002
2.781827e+002, 1.734415e+002
2.786648e+002, 1.731074e+002
2.791469e+002, 1.724753e+002
2.796290e+002, 1.715644e+002
2.801111e+002, 1.706196e+002
2.805933e+002, 1.697655e+002
2.810754e+002, 1.689985e+002
2.815575e+002, 1.682669e+002
2.820396e+002, 1.676285e+002
2.825217e+002, 1.669589e+002
2.830038e+002, 1.659384e+002
2.834860e+002, 1.647121e+002
2.839681e+002, 1.641039e+002
2.844502e+002, 1.647545e+002
2.849323e+002, 1.660430e+002
2.854144e+002, 1.666244e+002
2.858965e+002, 1.662920e+002
2.863787e+002, 1.658030e+002
2.868608e+002, 1.655812e+002
2.873429e+002, 1.655473e+002
2.878250e+002, 1.653786e+002
2.883071e+002, 1.648863e+002
2.887892e+002, 1.643329e+002
2.892714e+002, 1.641223e+002
2.897535e+002, 1.642868e+002
2.902356e+002, 1.644593e+002
2.907177e+002, 1.645140e+002
2.911998e+002, 1.644485e+002
2.916819e+002, 1.642506e+002
2.921641e+002, 1.639029e+002
2.926462e+002, 1.634421e+002
2.931283e+002, 1.628989e+002
2.936104e+002, 1.622827e+002
2.940925e+002, 1.616096e+002
2.945746e+002, 1.607260e+002
2.950568e+002, 1.598182e+002
2.955389e+002, 1.593288e+002
2.960210e+002, 1.594237e+002
2.965031e+002, 1.595968e+002
2.969852e+002, 1.593300e+002
2.974673e+002, 1.587769e+002
2.979495e+002, 1.583541e+002
2.984316e+002, 1.583018e+002
2.989137e+002, 1.584172e+002
2.993958e+002, 1.584295e+002
2.998779e+002, 1.583397e+002
3.003600e+002, 1.581065e+002
3.008422e+002, 1.575606e+002
3.013243e+002, 1.568688e+002
3.018064e+002, 1.563307e+002
3.022885e+002, 1.560696e+002
3.027706e+002, 1.559258e+002
3.032527e+002, 1.556497e+002
3.037349e+002, 1.552151e+002
3.042170e+002, 1.550178e+002
3.046991e+002, 1.554007e+002
3.051812e+002, 1.560683e+002
3.056633e+002, 1.566643e+002
3.061454e+002, 1.572092e+002
3.066276e+002, 1.575183e+002
3.071097e+002, 1.572301e+002
3.075918e+002, 1.563938e+002
3.080739e+002, 1.559155e+002
3.085560e+002, 1.564343e+002
3.090381e+002, 1.571363e+002
3.095203e+002, 1.570186e+002
3.100024e+002, 1.559784e+002
3.104845e+002, 1.549245e+002
3.109666e+002, 1.544211e+002
3.114487e+002, 1.544134e+002
3.119308e+002, 1.547068e+002
3.124130e+002, 1.554805e+002
3.128951e+002, 1.562272e+002
3.133772e+002, 1.564252e+002
3.138593e+002, 1.561495e+002
3.143414e+002, 1.558666e+002
3.148235e+002, 1.558061e+002
3.153057e+002, 1.559092e+002
3.157878e+002, 1.560796e+002
3.162699e+002, 1.564090e+002
3.167520e+002, 1.565590e+002
3.172341e+002, 1.559955e+002
3.177162e+002, 1.550596e+002
3.181984e+002, 1.545274e+002
3.186805e+002, 1.550282e+002
3.191626e+002, 1.559343e+002
3.196447e+002, 1.561618e+002
3.201268e+002, 1.555616e+002
3.206089e+002, 1.550337e+002
3.210911e+002, 1.552688e+002
3.215732e+002, 1.558454e+002
3.220553e+002, 1.561858e+002
3.225374e+002, 1.561217e+002
3.230195e+002, 1.558806e+002
3.235016e+002, 1.556515e+002
3.239838e+002, 1.554327e+002
3.244659e+002, 1.552683e+002
3.249480e+002, 1.551130e+002
3.254301e+002, 1.550809e+002
3.259122e+002, 1.553539e+002
3.263943e+002, 1.560090e+002
3.268765e+002, 1.566227e+002
3.273586e+002, 1.568609e+002
3.278407e+002, 1.567796e+002
3.283228e+002, 1.566825e+002
3.288049e+002, 1.566374e+002
3.292870e+002, 1.565956e+002
3.297692e+002, 1.565189e+002
3.302513e+002, 1.564082e+002
3.307334e+002, 1.562547e+002
3.312155e+002, 1.559970e+002
3.316976e+002, 1.556985e+002
3.321797e+002, 1.554905e+002
3.326619e+002, 1.553699e+002
3.331440e+002, 1.553883e+002
3.336261e+002, 1.556687e+002
3.341082e+002, 1.561248e+002
3.345903e+002, 1.565722e+002
3.350724e+002, 1.569788e+002
3.355546e+002, 1.573327e+002
3.360367e+002, 1.575933e+002
3.365188e+002, 1.577498e+002
3.370009e+002, 1.579144e+002
3.374830e+002, 1.581160e+002
3.379651e+002, 1.583852e+002
3.384473e+002, 1.587977e+002
3.389294e+002, 1.594966e+002
3.394115e+002, 1.601281e+002
3.398936e+002, 1.603159e+002
3.403757e+002, 1.601247e+002
3.408578e+002, 1.600413e+002
3.413400e+002, 1.602816e+002
3.418221e+002, 1.606860e+002
3.423042e+002, 1.609854e+002
3.427863e+002, 1.611532e+002
3.432684e+002, 1.613703e+002
3.437505e+002, 1.618570e+002
3.442327e+002, 1.624545e+002
3.447148e+002, 1.627136e+002
3.451969e+002, 1.624397e+002
3.456790e+002, 1.620797e+002
3.461611e+002, 1.621585e+002
3.466432e+002, 1.626096e+002
3.471254e+002, 1.631822e+002
3.476075e+002, 1.639081e+002
3.480896e+002, 1.646738e+002
3.485717e+002, 1.653213e+002
3.490538e+002, 1.658376e+002
3.495359e+002, 1.663071e+002
3.500181e+002, 1.667321e+002
3.505002e+002, 1.671649e+002
3.509823e+002, 1.677971e+002
3.514644e+002, 1.689717e+002
3.519465e+002, 1.700608e+002
3.524286e+002, 1.705709e+002
3.529108e+002, 1.705947e+002
3.533929e+002, 1.705560e+002
3.538750e+002, 1.705845e+002
3.543571e+002, 1.707545e+002
3.548392e+002, 1.712721e+002
3.553214e+002, 1.722965e+002
3.558035e+002, 1.732529e+002
3.562856e+002, 1.739529e+002
3.567677e+002, 1.744413e+002
3.572498e+002, 1.747725e+002
3.577319e+002, 1.749493e+002
3.582141e+002, 1.750413e+002
3.586962e+002, 1.751250e+002
3.591783e+002, 1.751892e+002
3.596604e+002, 1.753185e+002
3.601425e+002, 1.757601e+002
3.606246e+002, 1.761259e+002
3.611068e+002, 1.760203e+002
3.615889e+002, 1.754191e+002
3.620710e+002, 1.745817e+002
3.625531e+002, 1.736625e+002
3.630352e+002, 1.726715e+002
3.635173e+002, 1.719151e+002
3.639995e+002, 1.713469e+002
3.644816e+002, 1.710267e+002
3.649637e+002, 1.711792e+002
3.654458e+002, 1.716178e+002
3.659279e+002, 1.718630e+002
3.664100e+002, 1.716445e+002
3.668922e+002, 1.711124e+002
3.673743e+002, 1.707512e+002
3.678564e+002, 1.703984e+002
3.683385e+002, 1.704232e+002
3.688206e+002, 1.711490e+002
3.693027e+002, 1.721609e+002
3.697849e+002, 1.729559e+002
3.702670e+002, 1.733965e+002
3.707491e+002, 1.737364e+002
3.712312e+002, 1.743338e+002
3.717133e+002, 1.753022e+002
3.721954e+002, 1.761867e+002
3.726776e+002, 1.769377e+002
3.731597e+002, 1.776500e+002
3.736418e+002, 1.783511e+002
3.741239e+002, 1.790634e+002
3.746060e+002, 1.798456e+002
3.750881e+002, 1.807728e+002
3.755703e+002, 1.818333e+002
3.760524e+002, 1.827160e+002
3.765345e+002, 1.831060e+002
3.770166e+002, 1.836871e+002
3.774987e+002, 1.847073e+002
3.779808e+002, 1.859953e+002
3.784630e+002, 1.872374e+002
3.789451e+002, 1.882868e+002
3.794272e+002, 1.893651e+002
3.799093e+002, 1.910176e+002
3.803914e+002, 1.936438e+002
3.808735e+002, 1.962313e+002
3.813557e+002, 1.988462e+002
3.818378e+002, 2.013391e+002
3.823199e+002, 2.033835e+002
3.828020e+002, 2.050718e+002
3.832841e+002, 2.070275e+002
3.837662e+002, 2.100763e+002
3.842484e+002, 2.144758e+002
3.847305e+002, 2.182408e+002
3.852126e+002, 2.206013e+002
3.856947e+002, 2.230594e+002
3.861768e+002, 2.266808e+002
3.866589e+002, 2.307250e+002
3.871411e+002, 2.337509e+002
3.876232e+002, 2.348895e+002
3.881053e+002, 2.344048e+002
3.885874e+002, 2.332589e+002
3.890695e+002, 2.316385e+002
3.895516e+002, 2.289038e+002
3.900338e+002, 2.245409e+002
3.905159e+002, 2.193661e+002
3.909980e+002, 2.140594e+002
3.914801e+002, 2.088028e+002
3.919622e+002, 2.035184e+002
3.924443e+002, 1.979069e+002
3.929265e+002, 1.918779e+002
3.934086e+002, 1.864798e+002
3.938907e+002, 1.819080e+002
3.943728e+002, 1.780333e+002
3.948549e+002, 1.748382e+002
3.953370e+002, 1.722756e+002
3.958192e+002, 1.702321e+002
3.963013e+002, 1.689342e+002
3.967834e+002, 1.680921e+002
3.972655e+002, 1.666522e+002
3.977476e+002, 1.643147e+002
3.982297e+002, 1.621663e+002
3.987119e+002, 1.607979e+002
3.991940e+002, 1.599491e+002
3.996761e+002, 1.593970e+002
4.001582e+002, 1.591836e+002
4.006403e+002, 1.590316e+002
4.011224e+002, 1.586459e+002
4.016046e+002, 1.580365e+002
4.020867e+002, 1.574367e+002
4.025688e+002, 1.569321e+002
4.030509e+002, 1.564453e+002
4.035330e+002, 1.558032e+002
4.040151e+002, 1.549933e+002
4.044973e+002, 1.544293e+002
4.049794e+002, 1.543641e+002
4.054615e+002, 1.546419e+002
4.059436e+002, 1.551365e+002
4.064257e+002, 1.558919e+002
4.069078e+002, 1.563600e+002
4.073900e+002, 1.559103e+002
4.078721e+002, 1.547282e+002
4.083542e+002, 1.538555e+002
4.088363e+002, 1.534417e+002
4.093184e+002, 1.532885e+002
4.098005e+002, 1.534352e+002
4.102827e+002, 1.537758e+002
4.107648e+002, 1.539354e+002
4.112469e+002, 1.537259e+002
4.117290e+002, 1.532882e+002
4.122111e+002, 1.529078e+002
4.126932e+002, 1.525131e+002
4.131754e+002, 1.523296e+002
4.136575e+002, 1.527062e+002
4.141396e+002, 1.531475e+002
4.146217e+002, 1.529118e+002
4.151038e+002, 1.519548e+002
4.155859e+002, 1.512006e+002
4.160681e+002, 1.516771e+002
4.165502e+002, 1.535663e+002
4.170323e+002, 1.546526e+002
4.175144e+002, 1.546321e+002
4.179965e+002, 1.542713e+002
4.184786e+002, 1.536240e+002
4.189608e+002, 1.528923e+002
4.194429e+002, 1.524089e+002
4.199250e+002, 1.523529e+002
4.204071e+002, 1.525947e+002
4.208892e+002, 1.527796e+002
4.213713e+002, 1.528896e+002
4.218535e+002, 1.529634e+002
4.223356e+002, 1.529828e+002
4.228177e+002, 1.529844e+002
4.232998e+002, 1.529029e+002
4.237819e+002, 1.527865e+002
4.242640e+002, 1.528723e+002
4.247462e+002, 1.534957e+002
4.252283e+002, 1.547258e+002
4.257104e+002, 1.554971e+002
4.261925e+002, 1.553691e+002
4.266746e+002, 1.552297e+002
4.271567e+002, 1.553130e+002
4.276389e+002, 1.555553e+002
4.281210e+002, 1.558171e+002
4.286031e+002, 1.560179e+002
4.290852e+002, 1.562621e+002
4.295673e+002, 1.568368e+002
4.300494e+002, 1.579048e+002
4.305316e+002, 1.587219e+002
4.310137e+002, 1.589105e+002
4.314958e+002, 1.589164e+002
4.319779e+002, 1.589788e+002
4.324600e+002, 1.591246e+002
4.329421e+002, 1.592950e+002
4.334243e+002, 1.593864e+002
4.339064e+002, 1.594529e+002
4.343885e+002, 1.597553e+002
4.348706e+002, 1.603815e+002
4.353527e+002, 1.610708e+002
4.358348e+002, 1.616696e+002
4.363170e+002, 1.622169e+002
4.367991e+002, 1.627789e+002
4.372812e+002, 1.633565e+002
4.377633e+002, 1.639705e+002
4.382454e+002, 1.647427e+002
4.387275e+002, 1.656232e+002
4.392097e+002, 1.662072e+002
4.396918e+002, 1.662558e+002
4.401739e+002, 1.660904e+002
4.406560e+002, 1.662325e+002
4.411381e+002, 1.667122e+002
4.416202e+002, 1.670578e+002
4.421024e+002, 1.670385e+002
4.425845e+002, 1.668716e+002
4.430666e+002, 1.668746e+002
4.435487e+002, 1.670535e+002
4.440308e+002, 1.670512e+002
4.445129e+002, 1.665619e+002
4.449951e+002, 1.656389e+002
4.454772e+002, 1.648105e+002
4.459593e+002, 1.643159e+002
4.464414e+002, 1.636330e+002
4.469235e+002, 1.622513e+002
4.474056e+002, 1.606832e+002
4.478878e+002, 1.598341e+002
4.483699e+002, 1.599962e+002
4.488520e+002, 1.604705e+002
4.493341e+002, 1.601505e+002
4.498162e+002, 1.586180e+002
4.502983e+002, 1.574613e+002
4.507805e+002, 1.567474e+002
4.512626e+002, 1.562864e+002
4.517447e+002, 1.560352e+002
4.522268e+002, 1.559541e+002
4.527089e+002, 1.560023e+002
4.531910e+002, 1.561709e+002
4.536732e+002, 1.564122e+002
4.541553e+002, 1.565355e+002
4.546374e+002, 1.565899e+002
4.551195e+002, 1.564189e+002
4.556016e+002, 1.556595e+002
4.560837e+002, 1.549112e+002
4.565659e+002, 1.548235e+002
4.570480e+002, 1.554539e+002
4.575301e+002, 1.561237e+002
4.580122e+002, 1.560262e+002
4.584943e+002, 1.551801e+002
4.589764e+002, 1.546396e+002
4.594586e+002, 1.545452e+002
4.599407e+002, 1.546109e+002
4.604228e+002, 1.547210e+002
4.609049e+002, 1.548625e+002
4.613870e+002, 1.550249e+002
4.618691e+002, 1.552430e+002
4.623513e+002, 1.554170e+002
4.628334e+002, 1.554142e+002
4.633155e+002, 1.552389e+002
4.637976e+002, 1.550084e+002
4.642797e+002, 1.547923e+002
4.647618e+002, 1.544902e+002
4.652440e+002, 1.538589e+002
4.657261e+002, 1.528796e+002
4.662082e+002, 1.522294e+002
4.666903e+002, 1.522491e+002
4.671724e+002, 1.526562e+002
4.676545e+002, 1.532691e+002
4.681367e+002, 1.540353e+002
4.686188e+002, 1.545395e+002
4.691009e+002, 1.544519e+002
4.695830e+002, 1.538837e+002
4.700651e+002, 1.534050e+002
4.705472e+002, 1.529060e+002
4.710294e+002, 1.526197e+002
4.715115e+002, 1.528073e+002
4.719936e+002, 1.531565e+002
4.724757e+002, 1.532499e+002
4.729578e+002, 1.529886e+002
4.734399e+002, 1.525942e+002
4.739221e+002, 1.523239e+002
4.744042e+002, 1.521919e+002
4.748863e+002, 1.521067e+002
4.753684e+002, 1.521943e+002
4.758505e+002, 1.521896e+002
4.763326e+002, 1.518901e+002
4.768148e+002, 1.514519e+002
4.772969e+002, 1.511519e+002
4.777790e+002, 1.511292e+002
4.782611e+002, 1.512596e+002
4.787432e+002, 1.512793e+002
4.792253e+002, 1.511428e+002
4.797075e+002, 1.510242e+002
4.801896e+002, 1.509006e+002
4.806717e+002, 1.508360e+002
4.811538e+002, 1.508690e+002
4.816359e+002, 1.509981e+002
4.821180e+002, 1.512061e+002
4.826002e+002, 1.515518e+002
4.830823e+002, 1.519462e+002
4.835644e+002, 1.521612e+002
4.840465e+002, 1.522081e+002
4.845286e+002, 1.520155e+002
4.850107e+002, 1.512895e+002
4.854929e+002, 1.504381e+002
4.859750e+002, 1.499648e+002
4.864571e+002, 1.499739e+002
4.869392e+002, 1.500967e+002
4.874213e+002, 1.500549e+002
4.879034e+002, 1.499740e+002
4.883856e+002, 1.501666e+002
4.888677e+002, 1.507055e+002
4.893498e+002, 1.513593e+002
4.898319e+002, 1.520561e+002
4.903140e+002, 1.527269e+002
4.907961e+002, 1.528618e+002
4.912783e+002, 1.518695e+002
4.917604e+002, 1.509718e+002
4.922425e+002, 1.508321e+002
4.927246e+002, 1.511574e+002
4.932067e+002, 1.513904e+002
4.936888e+002, 1.513347e+002
4.941710e+002, 1.511541e+002
4.946531e+002, 1.510767e+002
4.951352e+002, 1.510492e+002
4.956173e+002, 1.513277e+002
4.960994e+002, 1.523189e+002
4.965815e+002, 1.531779e+002
4.970637e+002, 1.533513e+002
4.975458e+002, 1.530767e+002
4.980279e+002, 1.529333e+002
4.985100e+002, 1.532619e+002
4.989921e+002, 1.538440e+002
4.994742e+002, 1.541038e+002
4.999564e+002, 1.538703e+002
5.004385e+002, 1.537425e+002
5.009206e+002, 1.537486e+002
5.014027e+002, 1.539282e+002
5.018848e+002, 1.544692e+002
5.023669e+002, 1.552754e+002
5.028491e+002, 1.558898e+002
5.033312e+002, 1.558466e+002
5.038133e+002, 1.554199e+002
5.042954e+002, 1.553629e+002
5.047775e+002, 1.557279e+002
5.052596e+002, 1.562257e+002
5.057418e+002, 1.567920e+002
5.062239e+002, 1.573813e+002
5.067060e+002, 1.579159e+002
5.071881e+002, 1.583662e+002
5.076702e+002, 1.588673e+002
5.081523e+002, 1.596671e+002
5.086345e+002, 1.605038e+002
5.091166e+002, 1.608123e+002
5.095987e+002, 1.605084e+002
5.100808e+002, 1.602434e+002
5.105629e+002, 1.605385e+002
5.110450e+002, 1.613647e+002
5.115272e+002, 1.622991e+002
5.120093e+002, 1.635466e+002
5.124914e+002, 1.646495e+002
5.129735e+002, 1.653112e+002
5.134556e+002, 1.658206e+002
5.139377e+002, 1.665366e+002
5.144199e+002, 1.675594e+002
5.149020e+002, 1.688501e+002
5.153841e+002, 1.704659e+002
5.158662e+002, 1.725889e+002
5.163483e+002, 1.737733e+002
5.168304e+002, 1.732572e+002
5.173126e+002, 1.725728e+002
5.177947e+002, 1.720987e+002
5.182768e+002, 1.717322e+002
5.187589e+002, 1.713695e+002
5.192410e+002, 1.709879e+002
5.197231e+002, 1.703171e+002
5.202053e+002, 1.687853e+002
5.206874e+002, 1.663139e+002
5.211695e+002, 1.641720e+002
5.216516e+002, 1.626389e+002
5.221337e+002, 1.613377e+002
5.226158e+002, 1.599482e+002
5.230980e+002, 1.585535e+002
5.235801e+002, 1.574091e+002
5.240622e+002, 1.568410e+002
5.245443e+002, 1.563350e+002
5.250264e+002, 1.550331e+002
5.255085e+002, 1.531606e+002
5.259907e+002, 1.522770e+002
5.264728e+002, 1.532027e+002
5.269549e+002, 1.547194e+002
5.274370e+002, 1.548823e+002
5.279191e+002, 1.533989e+002
5.284012e+002, 1.525338e+002
5.288834e+002, 1.529593e+002
5.293655e+002, 1.536875e+002
5.298476e+002, 1.541678e+002
5.303297e+002, 1.543697e+002
5.308118e+002, 1.543875e+002
5.312939e+002, 1.542757e+002
5.317761e+002, 1.539862e+002
5.322582e+002, 1.533176e+002
5.327403e+002, 1.514895e+002
5.332224e+002, 1.507644e+002
5.337045e+002, 1.520892e+002
5.341866e+002, 1.535801e+002
5.346688e+002, 1.541618e+002
5.351509e+002, 1.539012e+002
5.356330e+002, 1.533405e+002
5.361151e+002, 1.527230e+002
5.365972e+002, 1.521899e+002
5.370793e+002, 1.522322e+002
5.375615e+002, 1.530541e+002
5.380436e+002, 1.536050e+002
5.385257e+002, 1.532863e+002
5.390078e+002, 1.528002e+002
5.394899e+002, 1.528482e+002
5.399720e+002, 1.534175e+002
5.404542e+002, 1.538209e+002
5.409363e+002, 1.535692e+002
5.414184e+002, 1.530325e+002
5.419005e+002, 1.526470e+002
5.423826e+002, 1.524420e+002
5.428647e+002, 1.525920e+002
5.433469e+002, 1.533212e+002
5.438290e+002, 1.543292e+002
5.443111e+002, 1.547865e+002
5.447932e+002, 1.543686e+002
5.452753e+002, 1.542389e+002
5.457574e+002, 1.548992e+002
5.462396e+002, 1.556695e+002
5.467217e+002, 1.559464e+002
5.472038e+002, 1.557432e+002
5.476859e+002, 1.553849e+002
5.481680e+002, 1.550660e+002
5.486501e+002, 1.548401e+002
5.491323e+002, 1.549793e+002
5.496144e+002, 1.558309e+002
5.500965e+002, 1.564449e+002
5.505786e+002, 1.566580e+002
5.510607e+002, 1.566791e+002
5.515428e+002, 1.564675e+002
5.520250e+002, 1.561469e+002
5.525071e+002, 1.561761e+002
5.529892e+002, 1.571237e+002
5.534713e+002, 1.585912e+002
5.539534e+002, 1.593504e+002
5.544355e+002, 1.592558e+002
5.549177e+002, 1.591777e+002
5.553998e+002, 1.594985e+002
5.558819e+002, 1.599873e+002
5.563640e+002, 1.602724e+002
5.568461e+002, 1.603004e+002
5.573282e+002, 1.605279e+002
5.578104e+002, 1.611077e+002
5.582925e+002, 1.619962e+002
5.587746e+002, 1.633297e+002
5.592567e+002, 1.650264e+002
5.597388e+002, 1.664439e+002
5.602209e+002, 1.671548e+002
5.607031e+002, 1.673946e+002
5.611852e+002, 1.679195e+002
5.616673e+002, 1.689976e+002
5.621494e+002, 1.700057e+002
5.626315e+002, 1.709229e+002
5.631136e+002, 1.717783e+002
5.635958e+002, 1.723984e+002
5.640779e+002, 1.729453e+002
5.645600e+002, 1.739009e+002
5.650421e+002, 1.756492e+002
5.655242e+002, 1.779828e+002
5.660063e+002, 1.801738e+002
5.664885e+002, 1.820420e+002
5.669706e+002, 1.842509e+002
5.674527e+002, 1.868308e+002
5.679348e+002, 1.899182e+002
5.684169e+002, 1.937921e+002
5.688990e+002, 1.983497e+002
5.693812e+002, 2.030393e+002
5.698633e+002, 2.074902e+002
5.703454e+002, 2.119026e+002
5.708275e+002, 2.163863e+002
5.713096e+002, 2.209771e+002
5.717917e+002, 2.262891e+002
5.722739e+002, 2.328026e+002
5.727560e+002, 2.399274e+002
5.732381e+002, 2.465946e+002
5.737202e+002, 2.526253e+002
5.742023e+002, 2.590520e+002
5.746844e+002, 2.665809e+002
5.751666e+002, 2.740444e+002
5.756487e+002, 2.804385e+002
5.761308e+002, 2.860969e+002
5.766129e+002, 2.920775e+002
5.770950e+002, 2.989860e+002
5.775771e+002, 3.062467e+002
5.780593e+002, 3.123548e+002
5.785414e+002, 3.162079e+002
5.790235e+002, 3.219252e+002
5.795056e+002, 3.307268e+002
5.799877e+002, 3.405354e+002
5.804698e+002, 3.505649e+002
5.809520e+002, 3.608732e+002
5.814341e+002, 3.718976e+002
5.819162e+002, 3.839587e+002
5.823983e+002, 3.965554e+002
5.828804e+002, 4.087823e+002
5.833625e+002, 4.207813e+002
5.838447e+002, 4.336729e+002
5.843268e+002, 4.478984e+002
5.848089e+002, 4.626352e+002
5.852910e+002, 4.772626e+002
5.857731e+002, 4.916956e+002
5.862552e+002, 5.048247e+002
5.867374e+002, 5.175562e+002
5.872195e+002, 5.279153e+002
5.877016e+002, 5.356125e+002
5.881837e+002, 5.399951e+002
5.886658e+002, 5.400458e+002
5.891479e+002, 5.354500e+002
5.896301e+002, 5.264495e+002
5.901122e+002, 5.130659e+002
5.905943e+002, 4.950535e+002
5.910764e+002, 4.748217e+002
5.915585e+002, 4.510058e+002
5.920406e+002, 4.263285e+002
5.925228e+002, 4.002473e+002
5.930049e+002, 3.741821e+002
5.934870e+002, 3.494986e+002
5.939691e+002, 3.264890e+002
5.944512e+002, 3.058880e+002
5.949333e+002, 2.886716e+002
5.954155e+002, 2.743910e+002
5.958976e+002, 2.612594e+002
5.963797e+002, 2.491768e+002
5.968618e+002, 2.383365e+002
5.973439e+002, 2.290312e+002
5.978260e+002, 2.211260e+002
5.983082e+002, 2.140864e+002
5.987903e+002, 2.079719e+002
5.992724e+002, 2.025759e+002
5.997545e+002, 1.978515e+002
6.002366e+002, 1.937975e+002
6.007188e+002, 1.906991e+002
6.012009e+002, 1.883952e+002
6.016830e+002, 1.860940e+002
6.021651e+002, 1.831973e+002
6.026472e+002, 1.800081e+002
6.031293e+002, 1.776961e+002
6.036115e+002, 1.768759e+002
6.040936e+002, 1.758146e+002
6.045757e+002, 1.741294e+002
6.050578e+002, 1.724298e+002
6.055399e+002, 1.711605e+002
6.060220e+002, 1.702226e+002
6.065042e+002, 1.691754e+002
6.069863e+002, 1.677158e+002
6.074684e+002, 1.661173e+002
6.079505e+002, 1.647928e+002
6.084326e+002, 1.637381e+002
6.089147e+002, 1.628403e+002
6.093969e+002, 1.620412e+002
6.098790e+002, 1.614477e+002
6.103611e+002, 1.613879e+002
6.108432e+002, 1.617896e+002
6.113253e+002, 1.616524e+002
6.118074e+002, 1.604520e+002
6.122896e+002, 1.591260e+002
6.127717e+002, 1.581245e+002
6.132538e+002, 1.573438e+002
6.137359e+002, 1.565480e+002
6.142180e+002, 1.556772e+002
6.147001e+002, 1.549366e+002
6.151823e+002, 1.546133e+002
6.156644e+002, 1.547401e+002
6.161465e+002, 1.545967e+002
6.166286e+002, 1.540574e+002
6.171107e+002, 1.534050e+002
6.175928e+002, 1.525142e+002
6.180750e+002, 1.516683e+002
6.185571e+002, 1.511585e+002
6.190392e+002, 1.510401e+002
6.195213e+002, 1.511591e+002
6.200034e+002, 1.516414e+002
6.204855e+002, 1.522204e+002
6.209677e+002, 1.522675e+002
6.214498e+002, 1.517470e+002
6.219319e+002, 1.509457e+002
6.224140e+002, 1.498289e+002
6.228961e+002, 1.487048e+002
6.233782e+002, 1.483100e+002
6.238604e+002, 1.488915e+002
6.243425e+002, 1.493210e+002
6.248246e+002, 1.493928e+002
6.253067e+002, 1.493439e+002
6.257888e+002, 1.493721e+002
6.262709e+002, 1.494095e+002
6.267531e+002, 1.491479e+002
6.272352e+002, 1.484224e+002
6.277173e+002, 1.477148e+002
6.281994e+002, 1.481364e+002
6.286815e+002, 1.500647e+002
6.291636e+002, 1.509898e+002
6.296458e+002, 1.500384e+002
6.301279e+002, 1.490034e+002
6.306100e+002, 1.490674e+002
6.310921e+002, 1.495977e+002
6.315742e+002, 1.493472e+002
6.320563e+002, 1.476885e+002
6.325385e+002, 1.461776e+002
6.330206e+002, 1.462568e+002
6.335027e+002, 1.471986e+002
6.339848e+002, 1.474655e+002
6.344669e+002, 1.468482e+002
6.349490e+002, 1.462610e+002
6.354312e+002, 1.464186e+002
6.359133e+002, 1.471177e+002
6.363954e+002, 1.473904e+002
6.368775e+002, 1.466181e+002
6.373596e+002, 1.462459e+002
6.378417e+002, 1.466718e+002
6.383239e+002, 1.472250e+002
6.388060e+002, 1.474289e+002
6.392881e+002, 1.473176e+002
6.397702e+002, 1.472087e+002
6.402523e+002, 1.473391e+002
6.407344e+002, 1.474582e+002
6.412166e+002, 1.468935e+002
6.416987e+002, 1.455880e+002
6.421808e+002, 1.448994e+002
6.426629e+002, 1.453351e+002
6.431450e+002, 1.460540e+002
6.436271e+002, 1.463159e+002
6.441093e+002, 1.462341e+002
6.445914e+002, 1.461951e+002
6.450735e+002, 1.464917e+002
6.455556e+002, 1.465659e+002
6.460377e+002, 1.460198e+002
6.465198e+002, 1.451489e+002
6.470020e+002, 1.442717e+002
6.474841e+002, 1.435023e+002
6.479662e+002, 1.430069e+002
6.484483e+002, 1.429664e+002
6.489304e+002, 1.433172e+002
6.494125e+002, 1.436267e+002
6.498947e+002, 1.439782e+002
6.503768e+002, 1.441194e+002
6.508589e+002, 1.438324e+002
6.513410e+002, 1.434695e+002
6.518231e+002, 1.432745e+002
6.523052e+002, 1.432386e+002
6.527874e+002, 1.432130e+002
6.532695e+002, 1.431633e+002
6.537516e+002, 1.430480e+002
6.542337e+002, 1.427272e+002
6.547158e+002, 1.422702e+002
6.551979e+002, 1.419804e+002
6.556801e+002, 1.419341e+002
6.561622e+002, 1.421580e+002
6.566443e+002, 1.427950e+002
6.571264e+002, 1.438966e+002
6.576085e+002, 1.443688e+002
6.580906e+002, 1.435899e+002
6.585728e+002, 1.430502e+002
6.590549e+002, 1.433074e+002
6.595370e+002, 1.438532e+002
6.600191e+002, 1.441819e+002
6.605012e+002, 1.442060e+002
6.609833e+002, 1.440959e+002
6.614655e+002, 1.439273e+002
6.619476e+002, 1.437671e+002
6.624297e+002, 1.439006e+002
6.629118e+002, 1.443869e+002
6.633939e+002, 1.446909e+002
6.638760e+002, 1.445785e+002
6.643582e+002, 1.442979e+002
6.648403e+002, 1.441444e+002
6.653224e+002, 1.441056e+002
6.658045e+002, 1.440128e+002
6.662866e+002, 1.436884e+002
6.667687e+002, 1.434610e+002
6.672509e+002, 1.436556e+002
6.677330e+002, 1.440245e+002
6.682151e+002, 1.441296e+002
6.686972e+002, 1.438723e+002
6.691793e+002, 1.435180e+002
6.696614e+002, 1.433197e+002
6.701436e+002, 1.432774e+002
6.706257e+002, 1.434253e+002
6.711078e+002, 1.440117e+002
6.715899e+002, 1.442750e+002
6.720720e+002, 1.436006e+002
6.725541e+002, 1.428015e+002
6.730363e+002, 1.425291e+002
6.735184e+002, 1.427882e+002
6.740005e+002, 1.431489e+002
6.744826e+002, 1.435855e+002
6.749647e+002, 1.439159e+002
6.754468e+002, 1.439023e+002
6.759290e+002, 1.436297e+002
6.764111e+002, 1.433147e+002
6.768932e+002, 1.430216e+002
6.773753e+002, 1.428418e+002
6.778574e+002, 1.429021e+002
6.783395e+002, 1.432138e+002
6.788217e+002, 1.434898e+002
6.793038e+002, 1.439427e+002
6.797859e+002, 1.440730e+002
6.802680e+002, 1.435899e+002
6.807501e+002, 1.428914e+002
6.812322e+002, 1.422081e+002
6.817144e+002, 1.416376e+002
6.821965e+002, 1.413905e+002
6.826786e+002, 1.418862e+002
6.831607e+002, 1.425988e+002
6.836428e+002, 1.424677e+002
6.841249e+002, 1.416243e+002
6.846071e+002, 1.413136e+002
6.850892e+002, 1.420410e+002
6.855713e+002, 1.429288e+002
6.860534e+002, 1.429182e+002
6.865355e+002, 1.419334e+002
6.870176e+002, 1.413523e+002
6.874998e+002, 1.413043e+002
6.879819e+002, 1.414549e+002
6.884640e+002, 1.419826e+002
6.889461e+002, 1.425040e+002
6.894282e+002, 1.425170e+002
6.899103e+002, 1.420561e+002
6.903925e+002, 1.417012e+002
6.908746e+002, 1.419469e+002
6.913567e+002, 1.425505e+002
6.918388e+002, 1.429611e+002
6.923209e+002, 1.431768e+002
6.928030e+002, 1.432375e+002
6.932852e+002, 1.430674e+002
6.937673e+002, 1.429121e+002
6.942494e+002, 1.431172e+002
6.947315e+002, 1.436417e+002
6.952136e+002, 1.438338e+002
6.956957e+002, 1.432830e+002
6.961779e+002, 1.428663e+002
6.966600e+002, 1.431090e+002
6.971421e+002, 1.435107e+002
6.976242e+002, 1.433534e+002
6.981063e+002, 1.426767e+002
6.985884e+002, 1.422786e+002
6.990706e+002, 1.428783e+002
6.995527e+002, 1.439972e+002
7.000348e+002, 1.441085e+002
7.005169e+002, 1.429824e+002
7.009990e+002, 1.423613e+002
7.014811e+002, 1.428692e+002
7.019633e+002, 1.435670e+002
7.024454e+002, 1.435554e+002
7.029275e+002, 1.430612e+002
7.034096e+002, 1.428572e+002
7.038917e+002, 1.434306e+002
7.043738e+002, 1.437775e+002
7.048560e+002, 1.430936e+002
7.053381e+002, 1.421759e+002
7.058202e+002, 1.420742e+002
7.063023e+002, 1.427929e+002
7.067844e+002, 1.435831e+002
7.072665e+002, 1.439342e+002
7.077487e+002, 1.439858e+002
7.082308e+002, 1.440618e+002
7.087129e+002, 1.441156e+002
7.091950e+002, 1.444540e+002
7.096771e+002, 1.454992e+002
7.101592e+002, 1.463192e+002
7.106414e+002, 1.460535e+002
7.111235e+002, 1.451822e+002
7.116056e+002, 1.447231e+002
7.120877e+002, 1.449169e+002
7.125698e+002, 1.453639e+002
7.130519e+002, 1.458738e+002
7.135341e+002, 1.465299e+002
7.140162e+002, 1.475382e+002
7.144983e+002, 1.488177e+002
7.149804e+002, 1.500052e+002
7.154625e+002, 1.508947e+002
7.159446e+002, 1.516093e+002
7.164268e+002, 1.524946e+002
7.169089e+002, 1.537215e+002
7.173910e+002, 1.543319e+002
7.178731e+002, 1.538633e+002
7.183552e+002, 1.533723e+002
7.188373e+002, 1.531160e+002
7.193195e+002, 1.532326e+002
7.198016e+002, 1.540643e+002
7.202837e+002, 1.558010e+002
7.207658e+002, 1.574255e+002
7.212479e+002, 1.583622e+002
7.217300e+002, 1.590053e+002
7.222122e+002, 1.596762e+002
7.226943e+002, 1.604378e+002
7.231764e+002, 1.613497e+002
7.236585e+002, 1.624359e+002
7.241406e+002, 1.637814e+002
7.246227e+002, 1.656052e+002
7.251049e+002, 1.680269e+002
7.255870e+002, 1.698050e+002
7.260691e+002, 1.700873e+002
7.265512e+002, 1.711073e+002
7.270333e+002, 1.742816e+002
7.275154e+002, 1.781272e+002
7.279976e+002, 1.812661e+002
7.284797e+002, 1.835626e+002
7.289618e+002, 1.853399e+002
7.294439e+002, 1.867001e+002
7.299260e+002, 1.876125e+002
7.304081e+002, 1.885033e+002
7.308903e+002, 1.888604e+002
7.313724e+002, 1.871511e+002
7.318545e+002, 1.830266e+002
7.323366e+002, 1.781839e+002
7.328187e+002, 1.743503e+002
7.333008e+002, 1.714619e+002
7.337830e+002, 1.686615e+002
7.342651e+002, 1.659938e+002
7.347472e+002, 1.633159e+002
7.352293e+002, 1.602250e+002
7.357114e+002, 1.574318e+002
7.361935e+002, 1.553476e+002
7.366757e+002, 1.540006e+002
7.371578e+002, 1.533987e+002
7.376399e+002, 1.540723e+002
7.381220e+002, 1.548064e+002
7.386041e+002, 1.547176e+002
7.390862e+002, 1.541889e+002
7.395684e+002, 1.536827e+002
7.400505e+002, 1.533454e+002
7.405326e+002, 1.534549e+002
7.410147e+002, 1.542791e+002
7.414968e+002, 1.555097e+002
7.419789e+002, 1.561625e+002
7.424611e+002, 1.560341e+002
7.429432e+002, 1.560747e+002
7.434253e+002, 1.564565e+002
7.439074e+002, 1.569164e+002
7.443895e+002, 1.575064e+002
7.448716e+002, 1.580187e+002
7.453538e+002, 1.579732e+002
7.458359e+002, 1.570721e+002
7.463180e+002, 1.563508e+002
7.468001e+002, 1.564582e+002
7.472822e+002, 1.568433e+002
7.477643e+002, 1.570953e+002
7.482465e+002, 1.571095e+002
7.487286e+002, 1.567204e+002
7.492107e+002, 1.558527e+002
7.496928e+002, 1.547280e+002
7.501749e+002, 1.536346e+002
7.506570e+002, 1.525668e+002
7.511392e+002, 1.516922e+002
7.516213e+002, 1.512870e+002
7.521034e+002, 1.503955e+002
7.525855e+002, 1.479032e+002
7.530676e+002, 1.452426e+002
7.535497e+002, 1.444504e+002
7.540319e+002, 1.456143e+002
7.545140e+002, 1.461231e+002
7.549961e+002, 1.445778e+002
7.554782e+002, 1.430107e+002
7.559603e+002, 1.428474e+002
7.564424e+002, 1.433867e+002
7.569246e+002, 1.434683e+002
7.574067e+002, 1.428786e+002
7.578888e+002, 1.421996e+002
7.583709e+002, 1.418707e+002
7.588530e+002, 1.419006e+002
7.593351e+002, 1.426070e+002
7.598173e+002, 1.442022e+002
7.602994e+002, 1.445054e+002
7.607815e+002, 1.423937e+002
7.612636e+002, 1.400676e+002
7.617457e+002, 1.394551e+002
7.622278e+002, 1.402516e+002
7.627100e+002, 1.408518e+002
7.631921e+002, 1.412910e+002
7.636742e+002, 1.414307e+002
7.641563e+002, 1.408168e+002
7.646384e+002, 1.402353e+002
7.651205e+002, 1.405211e+002
7.656027e+002, 1.413977e+002
7.660848e+002, 1.419680e+002
7.665669e+002, 1.418053e+002
7.670490e+002, 1.413945e+002
7.675311e+002, 1.414168e+002
7.680132e+002, 1.417710e+002
7.684954e+002, 1.418816e+002
7.689775e+002, 1.416972e+002
7.694596e+002, 1.413964e+002
7.699417e+002, 1.410202e+002
7.704238e+002, 1.406368e+002
7.709059e+002, 1.403555e+002
7.713881e+002, 1.401726e+002
7.718702e+002, 1.401285e+002
7.723523e+002, 1.403918e+002
7.728344e+002, 1.405877e+002
7.733165e+002, 1.404749e+002
7.737986e+002, 1.402923e+002
7.742808e+002, 1.403912e+002
7.747629e+002, 1.407637e+002
7.752450e+002, 1.409778e+002
7.757271e+002, 1.405493e+002
7.762092e+002, 1.399877e+002
7.766913e+002, 1.402103e+002
7.771735e+002, 1.409953e+002
7.776556e+002, 1.413809e+002
7.781377e+002, 1.411380e+002
7.786198e+002, 1.407351e+002
7.791019e+002, 1.405577e+002
7.795840e+002, 1.405688e+002
7.800662e+002, 1.405796e+002
7.805483e+002, 1.405436e+002
7.810304e+002, 1.405970e+002
7.815125e+002, 1.408846e+002
7.819946e+002, 1.411226e+002
7.824767e+002, 1.410763e+002
7.829589e+002, 1.409057e+002
7.834410e+002, 1.409954e+002
7.839231e+002, 1.415409e+002
7.844052e+002, 1.418249e+002
7.848873e+002, 1.411983e+002
7.853694e+002, 1.402198e+002
7.858516e+002, 1.394185e+002
7.863337e+002, 1.388871e+002
7.868158e+002, 1.388076e+002
7.872979e+002, 1.392477e+002
7.877800e+002, 1.398834e+002
7.882621e+002, 1.403229e+002
7.887443e+002, 1.405650e+002
7.892264e+002, 1.406129e+002
7.897085e+002, 1.403661e+002
7.901906e+002, 1.402029e+002
7.906727e+002, 1.402136e+002
7.911548e+002, 1.403730e+002
7.916370e+002, 1.407856e+002
7.921191e+002, 1.413822e+002
7.926012e+002, 1.416358e+002
7.930833e+002, 1.411413e+002
7.935654e+002, 1.407005e+002
7.940475e+002, 1.405689e+002
7.945297e+002, 1.406689e+002
7.950118e+002, 1.411363e+002
7.954939e+002, 1.417769e+002
7.959760e+002, 1.419526e+002
7.964581e+002, 1.412524e+002
7.969402e+002, 1.403176e+002
7.974224e+002, 1.400985e+002
7.979045e+002, 1.405203e+002
7.983866e+002, 1.411971e+002
7.988687e+002, 1.421501e+002
7.993508e+002, 1.428529e+002
7.998329e+002, 1.430131e+002
8.003151e+002, 1.427918e+002
8.007972e+002, 1.424025e+002
8.012793e+002, 1.416330e+002
8.017614e+002, 1.415484e+002
8.022435e+002, 1.431015e+002
8.027256e+002, 1.441088e+002
8.032078e+002, 1.432999e+002
8.036899e+002, 1.420470e+002
8.041720e+002, 1.417919e+002
8.046541e+002, 1.426290e+002
8.051362e+002, 1.437149e+002
8.056183e+002, 1.446814e+002
8.061005e+002, 1.455984e+002
8.065826e+002, 1.466254e+002
8.070647e+002, 1.476356e+002
8.075468e+002, 1.483086e+002
8.080289e+002, 1.486109e+002
8.085110e+002, 1.486972e+002
8.089932e+002, 1.486105e+002
8.094753e+002, 1.486075e+002
8.099574e+002, 1.494738e+002
8.104395e+002, 1.514719e+002
8.109216e+002, 1.532016e+002
8.114037e+002, 1.546620e+002
8.118859e+002, 1.557253e+002
8.123680e+002, 1.560865e+002
8.128501e+002, 1.561148e+002
8.133322e+002, 1.562574e+002
8.138143e+002, 1.564936e+002
8.142964e+002, 1.571312e+002
8.147786e+002, 1.586465e+002
8.152607e+002, 1.601543e+002
8.157428e+002, 1.609831e+002
8.162249e+002, 1.615513e+002
8.167070e+002, 1.624249e+002
8.171891e+002, 1.637237e+002
8.176713e+002, 1.653549e+002
8.181534e+002, 1.674588e+002
8.186355e+002, 1.695140e+002
8.191176e+002, 1.701222e+002
8.195997e+002, 1.695511e+002
8.200818e+002, 1.701479e+002
8.205640e+002, 1.724643e+002
8.210461e+002, 1.746997e+002
8.215282e+002, 1.755783e+002
8.220103e+002, 1.754535e+002
8.224924e+002, 1.753998e+002
8.229745e+002, 1.755828e+002
8.234567e+002, 1.754621e+002
8.239388e+002, 1.752852e+002
8.244209e+002, 1.745246e+002
8.249030e+002, 1.728382e+002
8.253851e+002, 1.705345e+002
8.258672e+002, 1.678532e+002
8.263494e+002, 1.648452e+002
8.268315e+002, 1.620810e+002
8.273136e+002, 1.600321e+002
8.277957e+002, 1.581406e+002
8.282778e+002, 1.557886e+002
8.287599e+002, 1.533166e+002
8.292421e+002, 1.514205e+002
8.297242e+002, 1.501808e+002
8.302063e+002, 1.490790e+002
8.306884e+002, 1.476765e+002
8.311705e+002, 1.462410e+002
8.316526e+002, 1.455702e+002
8.321348e+002, 1.457033e+002
8.326169e+002, 1.454226e+002
8.330990e+002, 1.444585e+002
8.335811e+002, 1.434953e+002
8.340632e+002, 1.429736e+002
8.345453e+002, 1.426841e+002
8.350275e+002, 1.421307e+002
8.355096e+002, 1.411423e+002
8.359917e+002, 1.404093e+002
8.364738e+002, 1.399472e+002
8.369559e+002, 1.397222e+002
8.374380e+002, 1.400553e+002
8.379202e+002, 1.404128e+002
8.384023e+002, 1.401179e+002
8.388844e+002, 1.391692e+002
8.393665e+002, 1.382122e+002
8.398486e+002, 1.374333e+002
8.403307e+002, 1.369963e+002
8.408129e+002, 1.372822e+002
8.412950e+002, 1.379666e+002
8.417771e+002, 1.383736e+002
8.422592e+002, 1.384393e+002
8.427413e+002, 1.385780e+002
8.432234e+002, 1.390817e+002
8.437056e+002, 1.395989e+002
8.441877e+002, 1.392902e+002
8.446698e+002, 1.380613e+002
8.451519e+002, 1.372073e+002
8.456340e+002, 1.368421e+002
8.461161e+002, 1.366379e+002
8.465983e+002, 1.364607e+002
8.470804e+002, 1.363694e+002
8.475625e+002, 1.365100e+002
8.480446e+002, 1.369072e+002
8.485267e+002, 1.371027e+002
8.490089e+002, 1.369975e+002
8.494910e+002, 1.367911e+002
8.499731e+002, 1.362096e+002
8.504552e+002, 1.358047e+002
8.509373e+002, 1.364217e+002
8.514194e+002, 1.376788e+002
8.519016e+002, 1.382063e+002
8.523837e+002, 1.372359e+002
8.528658e+002, 1.360218e+002
8.533479e+002, 1.357847e+002
8.538300e+002, 1.360459e+002
8.543121e+002, 1.358097e+002
8.547943e+002, 1.351925e+002
8.552764e+002, 1.352270e+002
8.557585e+002, 1.363668e+002
8.562406e+002, 1.376941e+002
8.567227e+002, 1.379571e+002
8.572048e+002, 1.372487e+002
8.576870e+002, 1.367694e+002
8.581691e+002, 1.364886e+002
8.586512e+002, 1.366286e+002
8.591333e+002, 1.375316e+002
8.596154e+002, 1.384229e+002
8.600975e+002, 1.387083e+002
8.605797e+002, 1.383982e+002
8.610618e+002, 1.376032e+002
8.615439e+002, 1.355211e+002
8.620260e+002, 1.343041e+002
8.625081e+002, 1.349584e+002
8.629902e+002, 1.357482e+002
8.634724e+002, 1.355309e+002
8.639545e+002, 1.347866e+002
8.644366e+002, 1.343954e+002
8.649187e+002, 1.345698e+002
8.654008e+002, 1.348876e+002
8.658829e+002, 1.350865e+002
8.663651e+002, 1.352685e+002
8.668472e+002, 1.356513e+002
8.673293e+002, 1.360954e+002
8.678114e+002, 1.362390e+002
8.682935e+002, 1.360249e+002
8.687756e+002, 1.356789e+002
8.692578e+002, 1.353504e+002
8.697399e+002, 1.350840e+002
8.702220e+002, 1.350656e+002
8.707041e+002, 1.353183e+002
8.711862e+002, 1.352193e+002
8.716683e+002, 1.345399e+002
8.721505e+002, 1.341849e+002
8.726326e+002, 1.347841e+002
8.731147e+002, 1.357848e+002
8.735968e+002, 1.362356e+002
8.740789e+002, 1.359963e+002
8.745610e+002, 1.359537e+002
8.750432e+002, 1.364853e+002
8.755253e+002, 1.367090e+002
8.760074e+002, 1.360511e+002
8.764895e+002, 1.353060e+002
8.769716e+002, 1.352001e+002
8.774537e+002, 1.356280e+002
8.779359e+002, 1.359740e+002
8.784180e+002, 1.359526e+002
8.789001e+002, 1.360151e+002
8.793822e+002, 1.366704e+002
8.798643e+002, 1.373913e+002
8.803464e+002, 1.374743e+002
8.808286e+002, 1.370991e+002
8.813107e+002, 1.368005e+002
8.817928e+002, 1.367947e+002
8.822749e+002, 1.371495e+002
8.827570e+002, 1.380818e+002
8.832391e+002, 1.393686e+002
8.837213e+002, 1.402382e+002
8.842034e+002, 1.407220e+002
8.846855e+002, 1.413745e+002
8.851676e+002, 1.423447e+002
8.856497e+002, 1.433618e+002
8.861318e+002, 1.442580e+002
8.866140e+002, 1.449959e+002
8.870961e+002, 1.454179e+002
8.875782e+002, 1.453325e+002
8.880603e+002, 1.454137e+002
8.885424e+002, 1.455718e+002
8.890245e+002, 1.460258e+002
8.895067e+002, 1.471891e+002
8.899888e+002, 1.484957e+002
8.904709e+002, 1.491345e+002
8.909530e+002, 1.490898e+002
8.914351e+002, 1.495432e+002
8.919172e+002, 1.512598e+002
8.923994e+002, 1.528730e+002
8.928815e+002, 1.536509e+002
8.933636e+002, 1.541991e+002
8.938457e+002, 1.550969e+002
8.943278e+002, 1.563224e+002
8.948099e+002, 1.575793e+002
8.952921e+002, 1.587357e+002
8.957742e+002, 1.599556e+002
8.962563e+002, 1.615439e+002
8.967384e+002, 1.632187e+002
8.972205e+002, 1.647255e+002
8.977026e+002, 1.658755e+002
8.981848e+002, 1.659780e+002
8.986669e+002, 1.648352e+002
8.991490e+002, 1.629070e+002
8.996311e+002, 1.605383e+002
9.001132e+002, 1.578630e+002
9.005953e+002, 1.553728e+002
9.010775e+002, 1.530654e+002
9.015596e+002, 1.510410e+002
9.020417e+002, 1.493913e+002
9.025238e+002, 1.477789e+002
9.030059e+002, 1.459531e+002
9.034880e+002, 1.440869e+002
9.039702e+002, 1.425095e+002
9.044523e+002, 1.412180e+002
9.049344e+002, 1.402448e+002
9.054165e+002, 1.398171e+002
9.058986e+002, 1.394117e+002
9.063807e+002, 1.390418e+002
9.068629e+002, 1.385393e+002
9.073450e+002, 1.375588e+002
9.078271e+002, 1.362860e+002
9.083092e+002, 1.355080e+002
9.087913e+002, 1.356578e+002
9.092734e+002, 1.358319e+002
9.097556e+002, 1.354792e+002
9.102377e+002, 1.351043e+002
9.107198e+002, 1.352345e+002
9.112019e+002, 1.356749e+002
9.116840e+002, 1.360143e+002
9.121661e+002, 1.361194e+002
9.126483e+002, 1.360531e+002
9.131304e+002, 1.358591e+002
9.136125e+002, 1.355334e+002
9.140946e+002, 1.348992e+002
9.145767e+002, 1.341333e+002
9.150588e+002, 1.339168e+002
9.155410e+002, 1.343082e+002
9.160231e+002, 1.346118e+002
9.165052e+002, 1.343571e+002
9.169873e+002, 1.339403e+002
9.174694e+002, 1.342309e+002
9.179515e+002, 1.352693e+002
9.184337e+002, 1.358847e+002
9.189158e+002, 1.360003e+002
9.193979e+002, 1.360379e+002
9.198800e+002, 1.361847e+002
9.203621e+002, 1.362009e+002
9.208442e+002, 1.357186e+002
9.213264e+002, 1.348249e+002
9.218085e+002, 1.344667e+002
9.222906e+002, 1.350097e+002
9.227727e+002, 1.354951e+002
9.232548e+002, 1.358551e+002
9.237369e+002, 1.361811e+002
9.242191e+002, 1.366462e+002
9.247012e+002, 1.370451e+002
9.251833e+002, 1.369139e+002
9.256654e+002, 1.361644e+002
9.261475e+002, 1.358748e+002
9.266296e+002, 1.369614e+002
9.271118e+002, 1.378845e+002
9.275939e+002, 1.374734e+002
9.280760e+002, 1.367678e+002
9.285581e+002, 1.371307e+002
9.290402e+002, 1.383144e+002
9.295223e+002, 1.389909e+002
9.300045e+002, 1.385146e+002
9.304866e+002, 1.378352e+002
9.309687e+002, 1.377204e+002
9.314508e+002, 1.380114e+002
9.319329e+002, 1.386503e+002
9.324150e+002, 1.394665e+002
9.328972e+002, 1.400261e+002
9.333793e+002, 1.401990e+002
9.338614e+002, 1.400202e+002
9.343435e+002, 1.394563e+002
9.348256e+002, 1.387041e+002
9.353077e+002, 1.382259e+002
9.357899e+002, 1.380151e+002
9.362720e+002, 1.380705e+002
9.367541e+002, 1.384377e+002
9.372362e+002, 1.385061e+002
9.377183e+002, 1.379294e+002
9.382004e+002, 1.370336e+002
9.386826e+002, 1.362662e+002
9.391647e+002, 1.356237e+002
9.396468e+002, 1.352670e+002
9.401289e+002, 1.352958e+002
9.406110e+002, 1.353981e+002
9.410931e+002, 1.358196e+002
9.415753e+002, 1.358989e+002
9.420574e+002, 1.348179e+002
9.425395e+002, 1.331037e+002
9.430216e+002, 1.321843e+002
9.435037e+002, 1.322571e+002
9.439858e+002, 1.325357e+002
9.444680e+002, 1.333999e+002
9.449501e+002, 1.339241e+002
9.454322e+002, 1.333891e+002
9.459143e+002, 1.326148e+002
9.463964e+002, 1.325946e+002
9.468785e+002, 1.331908e+002
9.473607e+002, 1.333544e+002
9.478428e+002, 1.325046e+002
9.483249e+002, 1.316705e+002
9.488070e+002, 1.315169e+002
9.492891e+002, 1.315376e+002
9.497712e+002, 1.311011e+002
9.502534e+002, 1.305103e+002
9.507355e+002, 1.305486e+002
9.512176e+002, 1.313415e+002
9.516997e+002, 1.320780e+002
9.521818e+002, 1.320434e+002
9.526639e+002, 1.317514e+002
9.531461e+002, 1.319913e+002
9.536282e+002, 1.324959e+002
9.541103e+002, 1.325994e+002
9.545924e+002, 1.322785e+002
9.550745e+002, 1.319414e+002
9.555566e+002, 1.317900e+002
9.560388e+002, 1.316567e+002
9.565209e+002, 1.312319e+002
9.570030e+002, 1.306294e+002
9.574851e+002, 1.304473e+002
9.579672e+002, 1.306845e+002
9.584493e+002, 1.311587e+002
9.589315e+002, 1.318906e+002
9.594136e+002, 1.323504e+002
9.598957e+002, 1.320982e+002
9.603778e+002, 1.314026e+002
9.608599e+002, 1.309350e+002
9.613420e+002, 1.307115e+002
9.618242e+002, 1.306667e+002
9.623063e+002, 1.309099e+002
9.627884e+002, 1.310567e+002
9.632705e+002, 1.309354e+002
9.637526e+002, 1.307266e+002
9.642347e+002, 1.305656e+002
9.647169e+002, 1.304661e+002
9.651990e+002, 1.305312e+002
9.656811e+002, 1.310831e+002
9.661632e+002, 1.313017e+002
9.666453e+002, 1.308787e+002
9.671274e+002, 1.304750e+002
9.676096e+002, 1.304216e+002
9.680917e+002, 1.305108e+002
9.685738e+002, 1.304541e+002
9.690559e+002, 1.302416e+002
9.695380e+002, 1.301187e+002
9.700201e+002, 1.302359e+002
9.705023e+002, 1.303295e+002
9.709844e+002, 1.304842e+002
9.714665e+002, 1.304188e+002
9.719486e+002, 1.294851e+002
9.724307e+002, 1.282823e+002
9.729128e+002, 1.281429e+002
9.733950e+002, 1.293889e+002
9.738771e+002, 1.305296e+002
9.743592e+002, 1.306431e+002
9.748413e+002, 1.303184e+002
9.753234e+002, 1.299114e+002
9.758055e+002, 1.294921e+002
9.762877e+002, 1.290451e+002
9.767698e+002, 1.286709e+002
9.772519e+002, 1.287354e+002
9.777340e+002, 1.294251e+002
9.782161e+002, 1.301647e+002
9.786982e+002, 1.303702e+002
9.791804e+002, 1.301783e+002
9.796625e+002, 1.296247e+002
9.801446e+002, 1.289028e+002
9.806267e+002, 1.286550e+002
9.811088e+002, 1.289975e+002
9.815909e+002, 1.296616e+002
9.820731e+002, 1.305162e+002
9.825552e+002, 1.312716e+002
9.830373e+002, 1.313201e+002
9.835194e+002, 1.307588e+002
9.840015e+002, 1.301674e+002
9.844836e+002, 1.295686e+002
9.849658e+002, 1.296903e+002
9.854479e+002, 1.308684e+002
9.859300e+002, 1.317894e+002
9.864121e+002, 1.311167e+002
9.868942e+002, 1.294191e+002
9.873763e+002, 1.288382e+002
9.878585e+002, 1.295908e+002
9.883406e+002, 1.300644e+002
9.888227e+002, 1.301842e+002
9.893048e+002, 1.299515e+002
9.897869e+002, 1.291667e+002
9.902690e+002, 1.283925e+002
9.907512e+002, 1.283247e+002
9.912333e+002, 1.289109e+002
9.917154e+002, 1.295333e+002
9.921975e+002, 1.304580e+002
9.926796e+002, 1.308309e+002
9.931617e+002, 1.301615e+002
9.936439e+002, 1.295321e+002
9.941260e+002, 1.294379e+002
9.946081e+002, 1.296861e+002
9.950902e+002, 1.300446e+002
9.955723e+002, 1.305180e+002
9.960544e+002, 1.309598e+002
9.965366e+002, 1.317440e+002
9.970187e+002, 1.319559e+002
9.975008e+002, 1.307098e+002
9.979829e+002, 1.296038e+002
9.984650e+002, 1.298634e+002
9.989471e+002, 1.308244e+002
9.994293e+002, 1.311938e+002
9.999114e+002, 1.307566e+002
1.000393e+003, 1.308071e+002
1.000876e+003, 1.327974e+002
1.001358e+003, 1.339467e+002
1.001840e+003, 1.321718e+002
1.002322e+003, 1.298300e+002
1.002804e+003, 1.288334e+002
1.003286e+003, 1.290650e+002
1.003768e+003, 1.300006e+002
1.004250e+003, 1.315648e+002
1.004733e+003, 1.325149e+002
1.005215e+003, 1.316047e+002
1.005697e+003, 1.304523e+002
1.006179e+003, 1.303498e+002
1.006661e+003, 1.306794e+002
1.007143e+003, 1.305476e+002
1.007625e+003, 1.300308e+002
1.008107e+003, 1.297655e+002
1.008589e+003, 1.300254e+002
1.009072e+003, 1.304746e+002
1.009554e+003, 1.309265e+002
1.010036e+003, 1.313320e+002
1.010518e+003, 1.316764e+002
1.011000e+003, 1.319122e+002
1.011482e+003, 1.318744e+002
1.011964e+003, 1.316135e+002
1.012446e+003, 1.314940e+002
1.012929e+003, 1.317388e+002
1.013411e+003, 1.319588e+002
1.013893e+003, 1.314949e+002
1.014375e+003, 1.307647e+002
1.014857e+003, 1.306600e+002
1.015339e+003, 1.310561e+002
1.015821e+003, 1.315407e+002
1.016303e+003, 1.319671e+002
1.016785e+003, 1.320371e+002
1.017268e+003, 1.314971e+002
1.017750e+003, 1.308102e+002
1.018232e+003, 1.308325e+002
1.018714e+003, 1.313603e+002
1.019196e+003, 1.314073e+002
1.019678e+003, 1.310440e+002
1.020160e+003, 1.312963e+002
1.020642e+003, 1.324416e+002
1.021125e+003, 1.334862e+002
1.021607e+003, 1.336112e+002
1.022089e+003, 1.331996e+002
1.022571e+003, 1.332048e+002
1.023053e+003, 1.335808e+002
1.023535e+003, 1.333793e+002
1.024017e+003, 1.325473e+002
1.024499e+003, 1.315074e+002
1.024981e+003, 1.302994e+002
1.025464e+003, 1.296415e+002
1.025946e+003, 1.303121e+002
1.026428e+003, 1.318117e+002
1.026910e+003, 1.325494e+002
1.027392e+003, 1.324486e+002
1.027874e+003, 1.322564e+002
1.028356e+003, 1.319206e+002
1.028838e+003, 1.318903e+002
1.029321e+003, 1.323845e+002
1.029803e+003, 1.330594e+002
1.030285e+003, 1.336157e+002
1.030767e+003, 1.340520e+002
1.031249e+003, 1.343987e+002
1.031731e+003, 1.347489e+002
1.032213e+003, 1.345724e+002
1.032695e+003, 1.335226e+002
1.033177e+003, 1.328218e+002
1.033660e+003, 1.330573e+002
1.034142e+003, 1.335879e+002
1.034624e+003, 1.337376e+002
1.035106e+003, 1.335921e+002
1.035588e+003, 1.337011e+002
1.036070e+003, 1.342962e+002
1.036552e+003, 1.345687e+002
1.037034e+003, 1.342334e+002
1.037516e+003, 1.340471e+002
1.037999e+003, 1.343771e+002
1.038481e+003, 1.348963e+002
1.038963e+003, 1.353206e+002
1.039445e+003, 1.356376e+002
1.039927e+003, 1.357387e+002
1.040409e+003, 1.352751e+002
1.040891e+003, 1.352174e+002
1.041373e+003, 1.359824e+002
1.041855e+003, 1.366265e+002
1.042338e+003, 1.367671e+002
1.042820e+003, 1.366474e+002
1.043302e+003, 1.363270e+002
1.043784e+003, 1.358958e+002
1.044266e+003, 1.360301e+002
1.044748e+003, 1.373426e+002
1.045230e+003, 1.382222e+002
1.045712e+003, 1.385597e+002
1.046195e+003, 1.384814e+002
1.046677e+003, 1.375419e+002
1.047159e+003, 1.365625e+002
1.047641e+003, 1.365871e+002
1.048123e+003, 1.374680e+002
1.048605e+003, 1.379602e+002
1.049087e+003, 1.374827e+002
1.049569e+003, 1.374314e+002
1.050052e+003, 1.382747e+002
1.050534e+003, 1.392631e+002
1.051016e+003, 1.402477e+002
1.051498e+003, 1.410636e+002
1.051980e+003, 1.414428e+002
1.052462e+003, 1.414639e+002
1.052944e+003, 1.416454e+002
1.053426e+003, 1.422118e+002
1.053908e+003, 1.426724e+002
1.054391e+003, 1.427142e+002
1.054873e+003, 1.428566e+002
1.055355e+003, 1.432287e+002
1.055837e+003, 1.439367e+002
1.056319e+003, 1.453469e+002
1.056801e+003, 1.472503e+002
1.057283e+003, 1.486353e+002
1.057765e+003, 1.491474e+002
1.058248e+003, 1.493980e+002
1.058730e+003, 1.489023e+002
1.059212e+003, 1.489497e+002
1.059694e+003, 1.505842e+002
1.060176e+003, 1.529264e+002
1.060658e+003, 1.551360e+002
1.061140e+003, 1.570780e+002
1.061622e+003, 1.587260e+002
1.062104e+003, 1.600024e+002
1.062587e+003, 1.611673e+002
1.063069e+003, 1.620843e+002
1.063551e+003, 1.631669e+002
1.064033e+003, 1.647179e+002
1.064515e+003, 1.665237e+002
1.064997e+003, 1.682104e+002
1.065479e+003, 1.698985e+002
1.065961e+003, 1.723163e+002
1.066443e+003, 1.761306e+002
1.066926e+003, 1.789896e+002
1.067408e+003, 1.794632e+002
1.067890e+003, 1.792391e+002
1.068372e+003, 1.790368e+002
1.068854e+003, 1.788960e+002
1.069336e+003, 1.787297e+002
1.069818e+003, 1.786094e+002
1.070300e+003, 1.787704e+002
1.070782e+003, 1.793164e+002
1.071265e+003, 1.799719e+002
1.071747e+003, 1.802490e+002
1.072229e+003, 1.810276e+002
1.072711e+003, 1.829219e+002
1.073193e+003, 1.855350e+002
1.073675e+003, 1.883567e+002
1.074157e+003, 1.914753e+002
1.074639e+003, 1.953435e+002
1.075122e+003, 2.001402e+002
1.075604e+003, 2.053270e+002
1.076086e+003, 2.105435e+002
1.076568e+003, 2.162206e+002
1.077050e+003, 2.226932e+002
1.077532e+003, 2.296903e+002
1.078014e+003, 2.367117e+002
1.078496e+003, 2.440322e+002
1.078979e+003, 2.524685e+002
1.079461e+003, 2.622876e+002
1.079943e+003, 2.721988e+002
1.080425e+003, 2.811494e+002
1.080907e+003, 2.904998e+002
1.081389e+003, 3.004729e+002
1.081871e+003, 3.115793e+002
1.082353e+003, 3.246362e+002
1.082835e+003, 3.391040e+002
1.083318e+003, 3.537428e+002
1.083800e+003, 3.682548e+002
1.084282e+003, 3.833299e+002
1.084764e+003, 3.988451e+002
1.085246e+003, 4.155600e+002
1.085728e+003, 4.352255e+002
1.086210e+003, 4.550116e+002
1.086692e+003, 4.724280e+002
1.087175e+003, 4.881795e+002
1.087657e+003, 5.038506e+002
1.088139e+003, 5.196691e+002
1.088621e+003, 5.343253e+002
1.089103e+003, 5.485939e+002
1.089585e+003, 5.597728e+002
1.090067e+003, 5.663759e+002
1.090549e+003, 5.697589e+002
1.091031e+003, 5.709887e+002
1.091514e+003, 5.696525e+002
1.091996e+003, 5.648552e+002
1.092478e+003, 5.565881e+002
1.092960e+003, 5.458731e+002
1.093442e+003, 5.326501e+002
1.093924e+003, 5.178184e+002
1.094406e+003, 5.007095e+002
1.094888e+003, 4.830085e+002
1.095370e+003, 4.655668e+002
1.095853e+003, 4.483128e+002
1.096335e+003, 4.307720e+002
1.096817e+003, 4.131377e+002
1.097299e+003, 3.967345e+002
1.097781e+003, 3.820241e+002
1.098263e+003, 3.682650e+002
1.098745e+003, 3.550559e+002
1.099227e+003, 3.429417e+002
1.099709e+003, 3.326601e+002
1.100192e+003, 3.232584e+002
1.100674e+003, 3.139353e+002
1.101156e+003, 3.046134e+002
1.101638e+003, 2.953506e+002
1.102120e+003, 2.859676e+002
1.102602e+003, 2.773240e+002
1.103084e+003, 2.697684e+002
1.103566e+003, 2.627537e+002
1.104049e+003, 2.565188e+002
1.104531e+003, 2.502867e+002
1.105013e+003, 2.429755e+002
1.105495e+003, 2.352178e+002
1.105977e+003, 2.285490e+002
1.106459e+003, 2.232153e+002
1.106941e+003, 2.183590e+002
1.107423e+003, 2.143044e+002
1.107906e+003, 2.100554e+002
1.108388e+003, 2.050948e+002
1.108870e+003, 2.001481e+002
1.109352e+003, 1.954612e+002
1.109834e+003, 1.912392e+002
1.110316e+003, 1.880688e+002
1.110798e+003, 1.860269e+002
1.111280e+003, 1.833400e+002
1.111762e+003, 1.792227e+002
1.112245e+003, 1.754168e+002
1.112727e+003, 1.719825e+002
1.113209e+003, 1.690587e+002
1.113691e+003, 1.668725e+002
1.114173e+003, 1.651488e+002
1.114655e+003, 1.635815e+002
1.115137e+003, 1.621702e+002
1.115619e+003, 1.608608e+002
1.116102e+003, 1.599380e+002
1.116584e+003, 1.586020e+002
1.117066e+003, 1.564215e+002
1.117548e+003, 1.544527e+002
1.118030e+003, 1.531280e+002
1.118512e+003, 1.520759e+002
1.118994e+003, 1.509167e+002
1.119476e+003, 1.497303e+002
1.119958e+003, 1.488817e+002
1.120441e+003, 1.486212e+002
1.120923e+003, 1.478596e+002
1.121405e+003, 1.462651e+002
1.121887e+003, 1.449230e+002
1.122369e+003, 1.442434e+002
1.122851e+003, 1.436453e+002
1.123333e+003, 1.426718e+002
1.123815e+003, 1.415123e+002
1.124297e+003, 1.405672e+002
1.124780e+003, 1.398401e+002
1.125262e+003, 1.393236e+002
1.125744e+003, 1.390603e+002
1.126226e+003, 1.389050e+002
1.126708e+003, 1.389357e+002
1.127190e+003, 1.386660e+002
1.127672e+003, 1.376744e+002
1.128154e+003, 1.366360e+002
1.128636e+003, 1.366144e+002
1.129119e+003, 1.374504e+002
1.129601e+003, 1.378143e+002
1.130083e+003, 1.376830e+002
1.130565e+003, 1.373145e+002
1.131047e+003, 1.367158e+002
1.131529e+003, 1.360295e+002
1.132011e+003, 1.352970e+002
1.132493e+003, 1.346120e+002
1.132976e+003, 1.340454e+002
1.133458e+003, 1.336525e+002
1.133940e+003, 1.337633e+002
1.134422e+003, 1.342943e+002
1.134904e+003, 1.339322e+002
1.135386e+003, 1.326968e+002
1.135868e+003, 1.323640e+002
1.136350e+003, 1.333908e+002
1.136833e+003, 1.341897e+002
1.137315e+003, 1.335916e+002
1.137797e+003, 1.324377e+002
1.138279e+003, 1.321266e+002
1.138761e+003, 1.324404e+002
1.139243e+003, 1.327386e+002
1.139725e+003, 1.329773e+002
1.140207e+003, 1.329352e+002
1.140689e+003, 1.326271e+002
1.141172e+003, 1.324112e+002
1.141654e+003, 1.324545e+002
1.142136e+003, 1.324515e+002
1.142618e+003, 1.320405e+002
1.143100e+003, 1.314178e+002
1.143582e+003, 1.307683e+002
1.144064e+003, 1.302243e+002
1.144546e+003, 1.300796e+002
1.145029e+003, 1.302992e+002
1.145511e+003, 1.307096e+002
1.145993e+003, 1.312460e+002
1.146475e+003, 1.319191e+002
1.146957e+003, 1.328935e+002
1.147439e+003, 1.335995e+002
1.147921e+003, 1.333743e+002
1.148403e+003, 1.326471e+002
1.148885e+003, 1.317031e+002
1.149368e+003, 1.307624e+002
1.149850e+003, 1.299839e+002
1.150332e+003, 1.295167e+002
1.150814e+003, 1.298555e+002
1.151296e+003, 1.314026e+002
1.151778e+003, 1.325558e+002
1.152260e+003, 1.319082e+002
1.152742e+003, 1.310524e+002
1.153224e+003, 1.310832e+002
1.153707e+003, 1.314594e+002
1.154189e+003, 1.317186e+002
1.154671e+003, 1.317662e+002
1.155153e+003, 1.315213e+002
1.155635e+003, 1.309646e+002
1.156117e+003, 1.303664e+002
1.156599e+003, 1.297211e+002
1.157081e+003, 1.291760e+002
1.157563e+003, 1.282337e+002
1.158046e+003, 1.279980e+002
1.158528e+003, 1.301158e+002
1.159010e+003, 1.327413e+002
1.159492e+003, 1.332159e+002
1.159974e+003, 1.316955e+002
1.160456e+003, 1.307196e+002
1.160938e+003, 1.307536e+002
1.161420e+003, 1.308161e+002
1.161903e+003, 1.309093e+002
1.162385e+003, 1.309696e+002
1.162867e+003, 1.310049e+002
1.163349e+003, 1.309695e+002
1.163831e+003, 1.308079e+002
1.164313e+003, 1.305568e+002
1.164795e+003, 1.302699e+002
1.165277e+003, 1.298981e+002
1.165760e+003, 1.299305e+002
1.166242e+003, 1.305212e+002
1.166724e+003, 1.310930e+002
1.167206e+003, 1.317278e+002
1.167688e+003, 1.316796e+002
1.168170e+003, 1.303124e+002
1.168652e+003, 1.288118e+002
1.169134e+003, 1.288115e+002
1.169616e+003, 1.299002e+002
1.170099e+003, 1.299271e+002
1.170581e+003, 1.288678e+002
1.171063e+003, 1.292542e+002
1.171545e+003, 1.312576e+002
1.172027e+003, 1.320339e+002
1.172509e+003, 1.306996e+002
1.172991e+003, 1.294536e+002
1.173473e+003, 1.300194e+002
1.173956e+003, 1.313582e+002
1.174438e+003, 1.317105e+002
1.174920e+003, 1.313591e+002
1.175402e+003, 1.310824e+002
1.175884e+003, 1.309328e+002
1.176366e+003, 1.311532e+002
1.176848e+003, 1.316876e+002
1.177330e+003, 1.321262e+002
1.177813e+003, 1.322893e+002
1.178295e+003, 1.322085e+002
1.178777e+003, 1.317850e+002
1.179259e+003, 1.313236e+002
1.179741e+003, 1.312885e+002
1.180223e+003, 1.313988e+002
1.180705e+003, 1.310562e+002
1.181187e+003, 1.305997e+002
1.181669e+003, 1.310302e+002
1.182151e+003, 1.322810e+002
1.182634e+003, 1.329987e+002
1.183116e+003, 1.324693e+002
1.183598e+003, 1.316965e+002
1.184080e+003, 1.311075e+002
1.184562e+003, 1.306573e+002
1.185044e+003, 1.301315e+002
1.185526e+003, 1.298815e+002
1.186008e+003, 1.305873e+002
1.186490e+003, 1.317806e+002
1.186973e+003, 1.322962e+002
1.187455e+003, 1.319071e+002
1.187937e+003, 1.315237e+002
1.188419e+003, 1.312168e+002
1.188901e+003, 1.310889e+002
1.189383e+003, 1.312744e+002
1.189865e+003, 1.315085e+002
1.190347e+003, 1.317078e+002
1.190830e+003, 1.318469e+002
1.191312e+003, 1.318379e+002
1.191794e+003, 1.317423e+002
1.192276e+003, 1.318939e+002
1.192758e+003, 1.324682e+002
1.193240e+003, 1.326551e+002
1.193722e+003, 1.322551e+002
1.194204e+003, 1.320517e+002
1.194687e+003, 1.322092e+002
1.195169e+003, 1.326963e+002
1.195651e+003, 1.336026e+002
1.196133e+003, 1.345369e+002
1.196615e+003, 1.349007e+002
1.197097e+003, 1.347204e+002
1.197579e+003, 1.339139e+002
1.198061e+003, 1.325522e+002
1.198543e+003, 1.322736e+002
1.199026e+003, 1.331445e+002
1.199508e+003, 1.337867e+002
1.199990e+003, 1.337330e+002
1.200472e+003, 1.333433e+002
1.200954e+003, 1.328548e+002
1.201436e+003, 1.324191e+002
1.201918e+003, 1.321980e+002
1.202400e+003, 1.322331e+002
1.202883e+003, 1.328657e+002
1.203365e+003, 1.337306e+002
1.203847e+003, 1.339905e+002
1.204329e+003, 1.336297e+002
1.204811e+003, 1.330279e+002
1.205293e+003, 1.323421e+002
1.205775e+003, 1.317794e+002
1.206257e+003, 1.314674e+002
1.206740e+003, 1.313490e+002
1.207222e+003, 1.312837e+002
1.207704e+003, 1.314905e+002
1.208186e+003, 1.327009e+002
1.208668e+003, 1.339974e+002
1.209150e+003, 1.337663e+002
1.209632e+003, 1.322359e+002
1.210114e+003, 1.313181e+002
1.210596e+003, 1.315925e+002
1.211078e+003, 1.319710e+002
1.211561e+003, 1.322074e+002
1.212043e+003, 1.325647e+002
1.212525e+003, 1.336735e+002
1.213007e+003, 1.343113e+002
1.213489e+003, 1.331759e+002
1.213971e+003, 1.314891e+002
1.214453e+003, 1.312309e+002
1.214935e+003, 1.323078e+002
1.215417e+003, 1.330600e+002
1.215900e+003, 1.335516e+002
1.216382e+003, 1.333224e+002
1.216864e+003, 1.320497e+002
1.217346e+003, 1.314778e+002
1.217828e+003, 1.322978e+002
1.218310e+003, 1.331313e+002
1.218792e+003, 1.328663e+002
1.219274e+003, 1.322396e+002
1.219757e+003, 1.328581e+002
1.220239e+003, 1.342713e+002
1.220721e+003, 1.340459e+002
1.221203e+003, 1.325759e+002
1.221685e+003, 1.318063e+002
1.222167e+003, 1.318923e+002
1.222649e+003, 1.321515e+002
1.223131e+003, 1.323327e+002
1.223614e+003, 1.326054e+002
1.224096e+003, 1.332113e+002
1.224578e+003, 1.336123e+002
1.225060e+003, 1.328499e+002
1.225542e+003, 1.318757e+002
1.226024e+003, 1.320609e+002
1.226506e+003, 1.326895e+002
1.226988e+003, 1.325123e+002
1.227470e+003, 1.316660e+002
1.227953e+003, 1.309729e+002
1.228435e+003, 1.306540e+002
1.228917e+003, 1.307308e+002
1.229399e+003, 1.316418e+002
1.229881e+003, 1.323290e+002
1.230363e+003, 1.322614e+002
1.230845e+003, 1.320864e+002
1.231327e+003, 1.323811e+002
1.231810e+003, 1.326314e+002
1.232292e+003, 1.318987e+002
1.232774e+003, 1.305808e+002
1.233256e+003, 1.303828e+002
1.233738e+003, 1.317789e+002
1.234220e+003, 1.321935e+002
1.234702e+003, 1.312705e+002
1.235184e+003, 1.304801e+002
1.235667e+003, 1.300307e+002
1.236149e+003, 1.300008e+002
1.236631e+003, 1.304803e+002
1.237113e+003, 1.311961e+002
1.237595e+003, 1.318841e+002
1.238077e+003, 1.324479e+002
1.238559e+003, 1.325697e+002
1.239041e+003, 1.323109e+002
1.239523e+003, 1.318480e+002
1.240005e+003, 1.312958e+002
1.240488e+003, 1.312558e+002
1.240970e+003, 1.317333e+002
1.241452e+003, 1.319442e+002
1.241934e+003, 1.314986e+002
1.242416e+003, 1.310258e+002
1.242898e+003, 1.309856e+002
1.243380e+003, 1.313337e+002
1.243862e+003, 1.325304e+002
1.244344e+003, 1.336549e+002
1.244827e+003, 1.333833e+002
1.245309e+003, 1.324251e+002
1.245791e+003, 1.320264e+002
1.246273e+003, 1.322963e+002
1.246755e+003, 1.327606e+002
1.247237e+003, 1.335063e+002
1.247719e+003, 1.337178e+002
1.248201e+003, 1.324515e+002
1.248684e+003, 1.316978e+002
1.249166e+003, 1.327455e+002
1.249648e+003, 1.336363e+002
1.250130e+003, 1.329607e+002
1.250612e+003, 1.318300e+002
1.251094e+003, 1.318050e+002
1.251576e+003, 1.326668e+002
1.252058e+003, 1.329780e+002
1.252541e+003, 1.326630e+002
1.253023e+003, 1.322989e+002
1.253505e+003, 1.318774e+002
1.253987e+003, 1.317352e+002
1.254469e+003, 1.319562e+002
1.254951e+003, 1.320727e+002
1.255433e+003, 1.317948e+002
1.255915e+003, 1.316729e+002
1.256397e+003, 1.325516e+002
1.256880e+003, 1.337941e+002
1.257362e+003, 1.342157e+002
1.257844e+003, 1.340317e+002
1.258326e+003, 1.333513e+002
1.258808e+003, 1.325388e+002
1.259290e+003, 1.324452e+002
1.259772e+003, 1.330502e+002
1.260254e+003, 1.334989e+002
1.260737e+003, 1.334239e+002
1.261219e+003, 1.333449e+002
1.261701e+003, 1.334873e+002
1.262183e+003, 1.337586e+002
1.262665e+003, 1.343600e+002
1.263147e+003, 1.348156e+002
1.263629e+003, 1.344823e+002
1.264111e+003, 1.339808e+002
1.264594e+003, 1.344310e+002
1.265076e+003, 1.355871e+002
1.265558e+003, 1.358814e+002
1.266040e+003, 1.350997e+002
1.266522e+003, 1.341119e+002
1.267004e+003, 1.325827e+002
1.267486e+003, 1.321430e+002
1.267968e+003, 1.333258e+002
1.268450e+003, 1.345760e+002
1.268932e+003, 1.351285e+002
1.269415e+003, 1.352070e+002
1.269897e+003, 1.349703e+002
1.270379e+003, 1.346639e+002
1.270861e+003, 1.351474e+002
1.271343e+003, 1.359689e+002
1.271825e+003, 1.355936e+002
1.272307e+003, 1.343542e+002
1.272789e+003, 1.332200e+002
1.273271e+003, 1.324691e+002
1.273754e+003, 1.323876e+002
1.274236e+003, 1.330560e+002
1.274718e+003, 1.337048e+002
1.275200e+003, 1.338517e+002
1.275682e+003, 1.338106e+002
1.276164e+003, 1.336289e+002
1.276646e+003, 1.334779e+002
1.277128e+003, 1.334498e+002
1.277611e+003, 1.335472e+002
1.278093e+003, 1.337845e+002
1.278575e+003, 1.341414e+002
1.279057e+003, 1.346635e+002
1.279539e+003, 1.354678e+002
1.280021e+003, 1.354554e+002
1.280503e+003, 1.340840e+002
1.280985e+003, 1.334050e+002
1.281468e+003, 1.338209e+002
1.281950e+003, 1.343680e+002
1.282432e+003, 1.347159e+002
1.282914e+003, 1.349417e+002
1.283396e+003, 1.351109e+002
1.283878e+003, 1.352104e+002
1.284360e+003, 1.351563e+002
1.284842e+003, 1.349727e+002
1.285324e+003, 1.347513e+002
##END=



