##NAMES=Defernite
##RRUFFID=R060619
##IDEAL CHEMISTRY=Ca_6_(CO_3_)_1.58_(Si_2_O_7_)_0.21_(OH)_7_[Cl_0.50_(OH)_0.08_(H_2_O)_0.42_]
##LOCALITY=Kombat mine, Kombat, Grootfontein District, Otjozondjupa Region, Namibia
##OWNER=RRUFF
##SOURCE=Michael Scott
##DESCRIPTION=Deep brownish-red color massive embedded in hausmannite, associated with tephroite.
##STATUS=The identification of this mineral is confirmed by single-crystal X-ray diffraction and chemical analysis.
##URL=rruff.info/R060619
##MEASURED CHEMISTRY=(Ca_5.86_Mn_0.14_)_Σ=6_((CO_3_)_1.62_(SiO_4_)_0.38_)_Σ=2_((OH)_6.87_Cl_0.37_)_Σ=7.24_; OH estimated by charge balance; CO_3_ estimated by difference (2-SiO_4_)
9.059570e+001, 1.163446e+003
9.107782e+001, 1.158569e+003
9.155994e+001, 1.156891e+003
9.204205e+001, 1.161496e+003
9.252417e+001, 1.167171e+003
9.300629e+001, 1.171709e+003
9.348840e+001, 1.168601e+003
9.397052e+001, 1.151688e+003
9.445264e+001, 1.120901e+003
9.493475e+001, 1.093371e+003
9.541687e+001, 1.065380e+003
9.589898e+001, 1.036621e+003
9.638110e+001, 1.008737e+003
9.686321e+001, 9.830345e+002
9.734533e+001, 9.592974e+002
9.782745e+001, 9.355688e+002
9.830956e+001, 9.146685e+002
9.879168e+001, 8.964155e+002
9.927380e+001, 8.802899e+002
9.975591e+001, 8.665704e+002
1.002380e+002, 8.546129e+002
1.007201e+002, 8.430872e+002
1.012023e+002, 8.309708e+002
1.016844e+002, 8.186982e+002
1.021665e+002, 8.078187e+002
1.026486e+002, 7.982283e+002
1.031307e+002, 7.898270e+002
1.036128e+002, 7.826329e+002
1.040950e+002, 7.765900e+002
1.045771e+002, 7.714987e+002
1.050592e+002, 7.668914e+002
1.055413e+002, 7.628723e+002
1.060234e+002, 7.599257e+002
1.065055e+002, 7.586521e+002
1.069877e+002, 7.586269e+002
1.074698e+002, 7.582742e+002
1.079519e+002, 7.580836e+002
1.084340e+002, 7.567106e+002
1.089161e+002, 7.532169e+002
1.093982e+002, 7.481057e+002
1.098804e+002, 7.426320e+002
1.103625e+002, 7.379161e+002
1.108446e+002, 7.341698e+002
1.113267e+002, 7.301072e+002
1.118088e+002, 7.259051e+002
1.122909e+002, 7.212759e+002
1.127731e+002, 7.161005e+002
1.132552e+002, 7.103577e+002
1.137373e+002, 7.040029e+002
1.142194e+002, 6.970402e+002
1.147015e+002, 6.892115e+002
1.151836e+002, 6.809453e+002
1.156658e+002, 6.726143e+002
1.161479e+002, 6.636921e+002
1.166300e+002, 6.533274e+002
1.171121e+002, 6.411112e+002
1.175942e+002, 6.280227e+002
1.180763e+002, 6.165219e+002
1.185584e+002, 6.068953e+002
1.190406e+002, 5.977090e+002
1.195227e+002, 5.884043e+002
1.200048e+002, 5.792125e+002
1.204869e+002, 5.706641e+002
1.209690e+002, 5.629391e+002
1.214511e+002, 5.562453e+002
1.219333e+002, 5.505511e+002
1.224154e+002, 5.460833e+002
1.228975e+002, 5.422053e+002
1.233796e+002, 5.386290e+002
1.238617e+002, 5.354075e+002
1.243438e+002, 5.319323e+002
1.248260e+002, 5.277546e+002
1.253081e+002, 5.232349e+002
1.257902e+002, 5.185094e+002
1.262723e+002, 5.134500e+002
1.267544e+002, 5.084843e+002
1.272365e+002, 5.046551e+002
1.277187e+002, 5.022693e+002
1.282008e+002, 5.006523e+002
1.286829e+002, 4.999435e+002
1.291650e+002, 4.996532e+002
1.296471e+002, 4.991212e+002
1.301292e+002, 4.978817e+002
1.306114e+002, 4.960042e+002
1.310935e+002, 4.944923e+002
1.315756e+002, 4.940822e+002
1.320577e+002, 4.933427e+002
1.325398e+002, 4.918745e+002
1.330219e+002, 4.897652e+002
1.335041e+002, 4.873145e+002
1.339862e+002, 4.847545e+002
1.344683e+002, 4.820553e+002
1.349504e+002, 4.793658e+002
1.354325e+002, 4.763203e+002
1.359146e+002, 4.735526e+002
1.363968e+002, 4.716053e+002
1.368789e+002, 4.704600e+002
1.373610e+002, 4.695081e+002
1.378431e+002, 4.680420e+002
1.383252e+002, 4.658928e+002
1.388073e+002, 4.640699e+002
1.392895e+002, 4.627069e+002
1.397716e+002, 4.616589e+002
1.402537e+002, 4.609394e+002
1.407358e+002, 4.606864e+002
1.412179e+002, 4.602426e+002
1.417000e+002, 4.584582e+002
1.421821e+002, 4.554634e+002
1.426643e+002, 4.526953e+002
1.431464e+002, 4.507822e+002
1.436285e+002, 4.495797e+002
1.441106e+002, 4.485048e+002
1.445927e+002, 4.472187e+002
1.450748e+002, 4.463485e+002
1.455570e+002, 4.465075e+002
1.460391e+002, 4.476910e+002
1.465212e+002, 4.490376e+002
1.470033e+002, 4.496118e+002
1.474854e+002, 4.492671e+002
1.479675e+002, 4.496026e+002
1.484497e+002, 4.521327e+002
1.489318e+002, 4.546855e+002
1.494139e+002, 4.557891e+002
1.498960e+002, 4.551976e+002
1.503781e+002, 4.541609e+002
1.508602e+002, 4.546642e+002
1.513424e+002, 4.577160e+002
1.518245e+002, 4.601497e+002
1.523066e+002, 4.609238e+002
1.527887e+002, 4.614931e+002
1.532708e+002, 4.631747e+002
1.537529e+002, 4.664246e+002
1.542351e+002, 4.705410e+002
1.547172e+002, 4.737610e+002
1.551993e+002, 4.750620e+002
1.556814e+002, 4.765914e+002
1.561635e+002, 4.786928e+002
1.566456e+002, 4.810085e+002
1.571278e+002, 4.831208e+002
1.576099e+002, 4.848277e+002
1.580920e+002, 4.861628e+002
1.585741e+002, 4.872308e+002
1.590562e+002, 4.881530e+002
1.595383e+002, 4.887284e+002
1.600205e+002, 4.886493e+002
1.605026e+002, 4.881567e+002
1.609847e+002, 4.878564e+002
1.614668e+002, 4.881985e+002
1.619489e+002, 4.889279e+002
1.624310e+002, 4.889499e+002
1.629131e+002, 4.879982e+002
1.633953e+002, 4.866782e+002
1.638774e+002, 4.851997e+002
1.643595e+002, 4.835820e+002
1.648416e+002, 4.820522e+002
1.653237e+002, 4.808483e+002
1.658058e+002, 4.798078e+002
1.662880e+002, 4.785469e+002
1.667701e+002, 4.768693e+002
1.672522e+002, 4.750718e+002
1.677343e+002, 4.735057e+002
1.682164e+002, 4.722133e+002
1.686985e+002, 4.709647e+002
1.691807e+002, 4.695820e+002
1.696628e+002, 4.681785e+002
1.701449e+002, 4.669159e+002
1.706270e+002, 4.659668e+002
1.711091e+002, 4.651357e+002
1.715912e+002, 4.639224e+002
1.720734e+002, 4.620648e+002
1.725555e+002, 4.603026e+002
1.730376e+002, 4.589140e+002
1.735197e+002, 4.577771e+002
1.740018e+002, 4.567149e+002
1.744839e+002, 4.556269e+002
1.749661e+002, 4.545340e+002
1.754482e+002, 4.535729e+002
1.759303e+002, 4.527744e+002
1.764124e+002, 4.521015e+002
1.768945e+002, 4.513447e+002
1.773766e+002, 4.507095e+002
1.778588e+002, 4.506139e+002
1.783409e+002, 4.514654e+002
1.788230e+002, 4.532783e+002
1.793051e+002, 4.543832e+002
1.797872e+002, 4.540456e+002
1.802693e+002, 4.537274e+002
1.807515e+002, 4.537326e+002
1.812336e+002, 4.541073e+002
1.817157e+002, 4.548189e+002
1.821978e+002, 4.558482e+002
1.826799e+002, 4.572065e+002
1.831620e+002, 4.588178e+002
1.836441e+002, 4.608659e+002
1.841263e+002, 4.629373e+002
1.846084e+002, 4.648312e+002
1.850905e+002, 4.665429e+002
1.855726e+002, 4.681707e+002
1.860547e+002, 4.697831e+002
1.865368e+002, 4.713760e+002
1.870190e+002, 4.730130e+002
1.875011e+002, 4.747333e+002
1.879832e+002, 4.764569e+002
1.884653e+002, 4.781657e+002
1.889474e+002, 4.798451e+002
1.894296e+002, 4.814281e+002
1.899117e+002, 4.829091e+002
1.903938e+002, 4.842609e+002
1.908759e+002, 4.851866e+002
1.913580e+002, 4.854009e+002
1.918401e+002, 4.852840e+002
1.923223e+002, 4.852134e+002
1.928044e+002, 4.852194e+002
1.932865e+002, 4.853383e+002
1.937686e+002, 4.856938e+002
1.942507e+002, 4.862141e+002
1.947328e+002, 4.866867e+002
1.952150e+002, 4.872174e+002
1.956971e+002, 4.876302e+002
1.961792e+002, 4.874632e+002
1.966613e+002, 4.864044e+002
1.971434e+002, 4.853643e+002
1.976255e+002, 4.851484e+002
1.981077e+002, 4.854906e+002
1.985898e+002, 4.857370e+002
1.990719e+002, 4.856715e+002
1.995540e+002, 4.852638e+002
2.000361e+002, 4.843073e+002
2.005182e+002, 4.823258e+002
2.010004e+002, 4.804434e+002
2.014825e+002, 4.794095e+002
2.019646e+002, 4.789597e+002
2.024467e+002, 4.784492e+002
2.029288e+002, 4.774747e+002
2.034109e+002, 4.760488e+002
2.038930e+002, 4.743843e+002
2.043752e+002, 4.726273e+002
2.048573e+002, 4.704280e+002
2.053394e+002, 4.677783e+002
2.058215e+002, 4.646263e+002
2.063036e+002, 4.608285e+002
2.067857e+002, 4.561617e+002
2.072679e+002, 4.505735e+002
2.077500e+002, 4.451504e+002
2.082321e+002, 4.403844e+002
2.087142e+002, 4.353273e+002
2.091963e+002, 4.294820e+002
2.096784e+002, 4.230511e+002
2.101606e+002, 4.166244e+002
2.106427e+002, 4.107568e+002
2.111248e+002, 4.055902e+002
2.116069e+002, 4.000118e+002
2.120890e+002, 3.935943e+002
2.125711e+002, 3.872176e+002
2.130533e+002, 3.810393e+002
2.135354e+002, 3.751764e+002
2.140175e+002, 3.697656e+002
2.144996e+002, 3.650173e+002
2.149817e+002, 3.610887e+002
2.154638e+002, 3.566524e+002
2.159460e+002, 3.512891e+002
2.164281e+002, 3.459010e+002
2.169102e+002, 3.408899e+002
2.173923e+002, 3.362757e+002
2.178744e+002, 3.317879e+002
2.183565e+002, 3.271627e+002
2.188387e+002, 3.223484e+002
2.193208e+002, 3.181660e+002
2.198029e+002, 3.151735e+002
2.202850e+002, 3.122620e+002
2.207671e+002, 3.085387e+002
2.212492e+002, 3.040790e+002
2.217314e+002, 2.998462e+002
2.222135e+002, 2.967558e+002
2.226956e+002, 2.949065e+002
2.231777e+002, 2.926446e+002
2.236598e+002, 2.897349e+002
2.241419e+002, 2.865905e+002
2.246240e+002, 2.833593e+002
2.251062e+002, 2.800791e+002
2.255883e+002, 2.771353e+002
2.260704e+002, 2.750333e+002
2.265525e+002, 2.736461e+002
2.270346e+002, 2.717937e+002
2.275167e+002, 2.690600e+002
2.279989e+002, 2.660518e+002
2.284810e+002, 2.632868e+002
2.289631e+002, 2.607936e+002
2.294452e+002, 2.585201e+002
2.299273e+002, 2.565638e+002
2.304094e+002, 2.548209e+002
2.308916e+002, 2.529848e+002
2.313737e+002, 2.508729e+002
2.318558e+002, 2.487265e+002
2.323379e+002, 2.468200e+002
2.328200e+002, 2.451706e+002
2.333021e+002, 2.436428e+002
2.337843e+002, 2.422112e+002
2.342664e+002, 2.408315e+002
2.347485e+002, 2.394270e+002
2.352306e+002, 2.378988e+002
2.357127e+002, 2.364050e+002
2.361948e+002, 2.351546e+002
2.366770e+002, 2.341627e+002
2.371591e+002, 2.333267e+002
2.376412e+002, 2.325981e+002
2.381233e+002, 2.319916e+002
2.386054e+002, 2.315691e+002
2.390875e+002, 2.314212e+002
2.395697e+002, 2.313618e+002
2.400518e+002, 2.310806e+002
2.405339e+002, 2.305117e+002
2.410160e+002, 2.299245e+002
2.414981e+002, 2.292888e+002
2.419802e+002, 2.287406e+002
2.424624e+002, 2.284698e+002
2.429445e+002, 2.285874e+002
2.434266e+002, 2.288632e+002
2.439087e+002, 2.288858e+002
2.443908e+002, 2.285550e+002
2.448729e+002, 2.282384e+002
2.453550e+002, 2.279338e+002
2.458372e+002, 2.277347e+002
2.463193e+002, 2.277934e+002
2.468014e+002, 2.281761e+002
2.472835e+002, 2.286486e+002
2.477656e+002, 2.287957e+002
2.482477e+002, 2.284935e+002
2.487299e+002, 2.281436e+002
2.492120e+002, 2.277577e+002
2.496941e+002, 2.273940e+002
2.501762e+002, 2.270602e+002
2.506583e+002, 2.267650e+002
2.511404e+002, 2.265917e+002
2.516226e+002, 2.268015e+002
2.521047e+002, 2.279005e+002
2.525868e+002, 2.281849e+002
2.530689e+002, 2.269321e+002
2.535510e+002, 2.253275e+002
2.540331e+002, 2.242463e+002
2.545153e+002, 2.238916e+002
2.549974e+002, 2.237977e+002
2.554795e+002, 2.232102e+002
2.559616e+002, 2.217608e+002
2.564437e+002, 2.206192e+002
2.569258e+002, 2.199707e+002
2.574080e+002, 2.194586e+002
2.578901e+002, 2.189933e+002
2.583722e+002, 2.184885e+002
2.588543e+002, 2.177142e+002
2.593364e+002, 2.162426e+002
2.598185e+002, 2.134237e+002
2.603007e+002, 2.116016e+002
2.607828e+002, 2.112532e+002
2.612649e+002, 2.112908e+002
2.617470e+002, 2.111815e+002
2.622291e+002, 2.107975e+002
2.627112e+002, 2.102021e+002
2.631934e+002, 2.094598e+002
2.636755e+002, 2.085600e+002
2.641576e+002, 2.075217e+002
2.646397e+002, 2.061567e+002
2.651218e+002, 2.048389e+002
2.656039e+002, 2.038093e+002
2.660861e+002, 2.030539e+002
2.665682e+002, 2.023756e+002
2.670503e+002, 2.015649e+002
2.675324e+002, 2.005640e+002
2.680145e+002, 1.998468e+002
2.684966e+002, 1.996515e+002
2.689788e+002, 1.994624e+002
2.694609e+002, 1.990493e+002
2.699430e+002, 1.984146e+002
2.704251e+002, 1.976523e+002
2.709072e+002, 1.968150e+002
2.713893e+002, 1.959013e+002
2.718715e+002, 1.951319e+002
2.723536e+002, 1.944574e+002
2.728357e+002, 1.939390e+002
2.733178e+002, 1.937109e+002
2.737999e+002, 1.936776e+002
2.742820e+002, 1.935746e+002
2.747642e+002, 1.931947e+002
2.752463e+002, 1.925801e+002
2.757284e+002, 1.922785e+002
2.762105e+002, 1.926757e+002
2.766926e+002, 1.928925e+002
2.771747e+002, 1.925985e+002
2.776568e+002, 1.918989e+002
2.781389e+002, 1.909809e+002
2.786211e+002, 1.898830e+002
2.791032e+002, 1.887336e+002
2.795853e+002, 1.881211e+002
2.800674e+002, 1.886249e+002
2.805495e+002, 1.888734e+002
2.810316e+002, 1.882536e+002
2.815138e+002, 1.871806e+002
2.819959e+002, 1.864093e+002
2.824780e+002, 1.862853e+002
2.829601e+002, 1.865767e+002
2.834422e+002, 1.867135e+002
2.839243e+002, 1.866936e+002
2.844065e+002, 1.865645e+002
2.848886e+002, 1.862866e+002
2.853707e+002, 1.859181e+002
2.858528e+002, 1.855190e+002
2.863349e+002, 1.850988e+002
2.868170e+002, 1.847125e+002
2.872992e+002, 1.844539e+002
2.877813e+002, 1.843277e+002
2.882634e+002, 1.842955e+002
2.887455e+002, 1.843486e+002
2.892276e+002, 1.844959e+002
2.897097e+002, 1.847849e+002
2.901919e+002, 1.852315e+002
2.906740e+002, 1.857113e+002
2.911561e+002, 1.860910e+002
2.916382e+002, 1.863667e+002
2.921203e+002, 1.865356e+002
2.926024e+002, 1.863960e+002
2.930846e+002, 1.862620e+002
2.935667e+002, 1.865063e+002
2.940488e+002, 1.871708e+002
2.945309e+002, 1.878940e+002
2.950130e+002, 1.883225e+002
2.954951e+002, 1.884520e+002
2.959773e+002, 1.887228e+002
2.964594e+002, 1.890576e+002
2.969415e+002, 1.896045e+002
2.974236e+002, 1.906540e+002
2.979057e+002, 1.921490e+002
2.983878e+002, 1.934891e+002
2.988700e+002, 1.941790e+002
2.993521e+002, 1.943267e+002
2.998342e+002, 1.947695e+002
3.003163e+002, 1.957640e+002
3.007984e+002, 1.968076e+002
3.012805e+002, 1.975986e+002
3.017627e+002, 1.981801e+002
3.022448e+002, 1.987886e+002
3.027269e+002, 1.995881e+002
3.032090e+002, 2.004692e+002
3.036911e+002, 2.011029e+002
3.041732e+002, 2.013150e+002
3.046554e+002, 2.015934e+002
3.051375e+002, 2.022599e+002
3.056196e+002, 2.031677e+002
3.061017e+002, 2.038994e+002
3.065838e+002, 2.042413e+002
3.070659e+002, 2.044430e+002
3.075481e+002, 2.050242e+002
3.080302e+002, 2.060698e+002
3.085123e+002, 2.070606e+002
3.089944e+002, 2.077402e+002
3.094765e+002, 2.082741e+002
3.099586e+002, 2.089644e+002
3.104408e+002, 2.099079e+002
3.109229e+002, 2.109160e+002
3.114050e+002, 2.116989e+002
3.118871e+002, 2.122495e+002
3.123692e+002, 2.128802e+002
3.128513e+002, 2.137976e+002
3.133335e+002, 2.147573e+002
3.138156e+002, 2.153808e+002
3.142977e+002, 2.155955e+002
3.147798e+002, 2.158608e+002
3.152619e+002, 2.165931e+002
3.157440e+002, 2.177938e+002
3.162262e+002, 2.191742e+002
3.167083e+002, 2.208818e+002
3.171904e+002, 2.226410e+002
3.176725e+002, 2.242496e+002
3.181546e+002, 2.257043e+002
3.186367e+002, 2.270148e+002
3.191188e+002, 2.281151e+002
3.196010e+002, 2.290818e+002
3.200831e+002, 2.302853e+002
3.205652e+002, 2.319204e+002
3.210473e+002, 2.335965e+002
3.215294e+002, 2.350702e+002
3.220115e+002, 2.363965e+002
3.224937e+002, 2.378088e+002
3.229758e+002, 2.394320e+002
3.234579e+002, 2.411762e+002
3.239400e+002, 2.427486e+002
3.244221e+002, 2.440193e+002
3.249042e+002, 2.454342e+002
3.253864e+002, 2.474380e+002
3.258685e+002, 2.496574e+002
3.263506e+002, 2.512976e+002
3.268327e+002, 2.520179e+002
3.273148e+002, 2.524430e+002
3.277969e+002, 2.536569e+002
3.282791e+002, 2.558316e+002
3.287612e+002, 2.576408e+002
3.292433e+002, 2.586490e+002
3.297254e+002, 2.592502e+002
3.302075e+002, 2.599438e+002
3.306896e+002, 2.608164e+002
3.311718e+002, 2.615302e+002
3.316539e+002, 2.617138e+002
3.321360e+002, 2.613130e+002
3.326181e+002, 2.608929e+002
3.331002e+002, 2.605894e+002
3.335823e+002, 2.601845e+002
3.340645e+002, 2.594797e+002
3.345466e+002, 2.584960e+002
3.350287e+002, 2.574616e+002
3.355108e+002, 2.566492e+002
3.359929e+002, 2.559045e+002
3.364750e+002, 2.543034e+002
3.369572e+002, 2.513026e+002
3.374393e+002, 2.481094e+002
3.379214e+002, 2.451582e+002
3.384035e+002, 2.423902e+002
3.388856e+002, 2.397041e+002
3.393677e+002, 2.370759e+002
3.398499e+002, 2.344519e+002
3.403320e+002, 2.316880e+002
3.408141e+002, 2.287634e+002
3.412962e+002, 2.257740e+002
3.417783e+002, 2.226939e+002
3.422604e+002, 2.195705e+002
3.427426e+002, 2.164859e+002
3.432247e+002, 2.134757e+002
3.437068e+002, 2.104818e+002
3.441889e+002, 2.074002e+002
3.446710e+002, 2.041012e+002
3.451531e+002, 2.011671e+002
3.456353e+002, 1.989565e+002
3.461174e+002, 1.968906e+002
3.465995e+002, 1.944733e+002
3.470816e+002, 1.917138e+002
3.475637e+002, 1.889505e+002
3.480458e+002, 1.865067e+002
3.485280e+002, 1.843893e+002
3.490101e+002, 1.824191e+002
3.494922e+002, 1.807419e+002
3.499743e+002, 1.790415e+002
3.504564e+002, 1.769702e+002
3.509385e+002, 1.747782e+002
3.514207e+002, 1.730951e+002
3.519028e+002, 1.723530e+002
3.523849e+002, 1.722793e+002
3.528670e+002, 1.716883e+002
3.533491e+002, 1.701079e+002
3.538312e+002, 1.686028e+002
3.543134e+002, 1.672174e+002
3.547955e+002, 1.660074e+002
3.552776e+002, 1.650955e+002
3.557597e+002, 1.645152e+002
3.562418e+002, 1.640605e+002
3.567239e+002, 1.633718e+002
3.572061e+002, 1.623030e+002
3.576882e+002, 1.612819e+002
3.581703e+002, 1.601879e+002
3.586524e+002, 1.592216e+002
3.591345e+002, 1.586446e+002
3.596166e+002, 1.583969e+002
3.600987e+002, 1.580986e+002
3.605808e+002, 1.573247e+002
3.610630e+002, 1.559783e+002
3.615451e+002, 1.551032e+002
3.620272e+002, 1.552508e+002
3.625093e+002, 1.552670e+002
3.629914e+002, 1.546442e+002
3.634735e+002, 1.536128e+002
3.639557e+002, 1.526684e+002
3.644378e+002, 1.521173e+002
3.649199e+002, 1.518601e+002
3.654020e+002, 1.514702e+002
3.658841e+002, 1.508062e+002
3.663662e+002, 1.502009e+002
3.668484e+002, 1.496629e+002
3.673305e+002, 1.492156e+002
3.678126e+002, 1.489292e+002
3.682947e+002, 1.488134e+002
3.687768e+002, 1.487273e+002
3.692589e+002, 1.484361e+002
3.697411e+002, 1.478522e+002
3.702232e+002, 1.472997e+002
3.707053e+002, 1.467644e+002
3.711874e+002, 1.462795e+002
3.716695e+002, 1.458977e+002
3.721516e+002, 1.455945e+002
3.726338e+002, 1.452679e+002
3.731159e+002, 1.448237e+002
3.735980e+002, 1.442664e+002
3.740801e+002, 1.437048e+002
3.745622e+002, 1.430414e+002
3.750443e+002, 1.425036e+002
3.755265e+002, 1.422621e+002
3.760086e+002, 1.421640e+002
3.764907e+002, 1.419544e+002
3.769728e+002, 1.414744e+002
3.774549e+002, 1.408933e+002
3.779370e+002, 1.406546e+002
3.784192e+002, 1.409652e+002
3.789013e+002, 1.410272e+002
3.793834e+002, 1.404257e+002
3.798655e+002, 1.396134e+002
3.803476e+002, 1.388699e+002
3.808297e+002, 1.382551e+002
3.813119e+002, 1.378122e+002
3.817940e+002, 1.377259e+002
3.822761e+002, 1.379834e+002
3.827582e+002, 1.378978e+002
3.832403e+002, 1.371751e+002
3.837224e+002, 1.363200e+002
3.842046e+002, 1.356026e+002
3.846867e+002, 1.350355e+002
3.851688e+002, 1.346309e+002
3.856509e+002, 1.345038e+002
3.861330e+002, 1.345300e+002
3.866151e+002, 1.343963e+002
3.870973e+002, 1.340446e+002
3.875794e+002, 1.337433e+002
3.880615e+002, 1.337549e+002
3.885436e+002, 1.338820e+002
3.890257e+002, 1.338324e+002
3.895078e+002, 1.334904e+002
3.899900e+002, 1.330701e+002
3.904721e+002, 1.327293e+002
3.909542e+002, 1.324653e+002
3.914363e+002, 1.322585e+002
3.919184e+002, 1.320651e+002
3.924005e+002, 1.319805e+002
3.928827e+002, 1.322268e+002
3.933648e+002, 1.328492e+002
3.938469e+002, 1.332304e+002
3.943290e+002, 1.329473e+002
3.948111e+002, 1.323325e+002
3.952932e+002, 1.318780e+002
3.957754e+002, 1.316478e+002
3.962575e+002, 1.316091e+002
3.967396e+002, 1.317951e+002
3.972217e+002, 1.321868e+002
3.977038e+002, 1.325005e+002
3.981859e+002, 1.327513e+002
3.986681e+002, 1.329009e+002
3.991501e+002, 1.329119e+002
3.996323e+002, 1.327978e+002
4.001144e+002, 1.325506e+002
4.005965e+002, 1.320964e+002
4.010786e+002, 1.316176e+002
4.015607e+002, 1.317102e+002
4.020428e+002, 1.328004e+002
4.025250e+002, 1.336189e+002
4.030071e+002, 1.339334e+002
4.034892e+002, 1.338685e+002
4.039713e+002, 1.334084e+002
4.044534e+002, 1.325930e+002
4.049355e+002, 1.318175e+002
4.054177e+002, 1.315637e+002
4.058998e+002, 1.319524e+002
4.063819e+002, 1.323106e+002
4.068640e+002, 1.328392e+002
4.073461e+002, 1.331542e+002
4.078282e+002, 1.329020e+002
4.083104e+002, 1.322728e+002
4.087925e+002, 1.317770e+002
4.092746e+002, 1.317546e+002
4.097567e+002, 1.320544e+002
4.102388e+002, 1.319693e+002
4.107209e+002, 1.309784e+002
4.112031e+002, 1.302707e+002
4.116852e+002, 1.299962e+002
4.121673e+002, 1.300117e+002
4.126494e+002, 1.302508e+002
4.131315e+002, 1.306648e+002
4.136136e+002, 1.311146e+002
4.140958e+002, 1.314383e+002
4.145779e+002, 1.316559e+002
4.150600e+002, 1.316686e+002
4.155421e+002, 1.310994e+002
4.160242e+002, 1.306748e+002
4.165063e+002, 1.308455e+002
4.169885e+002, 1.314004e+002
4.174706e+002, 1.317829e+002
4.179527e+002, 1.315721e+002
4.184348e+002, 1.309923e+002
4.189169e+002, 1.308626e+002
4.193990e+002, 1.314451e+002
4.198812e+002, 1.318982e+002
4.203633e+002, 1.320053e+002
4.208454e+002, 1.318530e+002
4.213275e+002, 1.314365e+002
4.218096e+002, 1.307467e+002
4.222917e+002, 1.300257e+002
4.227739e+002, 1.296436e+002
4.232560e+002, 1.295667e+002
4.237381e+002, 1.290401e+002
4.242202e+002, 1.276692e+002
4.247023e+002, 1.262089e+002
4.251844e+002, 1.253644e+002
4.256666e+002, 1.249497e+002
4.261487e+002, 1.242738e+002
4.266308e+002, 1.227905e+002
4.271129e+002, 1.209936e+002
4.275950e+002, 1.196578e+002
4.280771e+002, 1.188023e+002
4.285593e+002, 1.179935e+002
4.290414e+002, 1.170038e+002
4.295235e+002, 1.159207e+002
4.300056e+002, 1.149563e+002
4.304877e+002, 1.141695e+002
4.309698e+002, 1.133686e+002
4.314520e+002, 1.123540e+002
4.319341e+002, 1.112790e+002
4.324162e+002, 1.104955e+002
4.328983e+002, 1.101217e+002
4.333804e+002, 1.098513e+002
4.338625e+002, 1.093212e+002
4.343447e+002, 1.084878e+002
4.348268e+002, 1.077305e+002
4.353089e+002, 1.071534e+002
4.357910e+002, 1.065770e+002
4.362731e+002, 1.057865e+002
4.367552e+002, 1.048752e+002
4.372374e+002, 1.041772e+002
4.377195e+002, 1.039074e+002
4.382016e+002, 1.039549e+002
4.386837e+002, 1.039046e+002
4.391658e+002, 1.038472e+002
4.396479e+002, 1.035678e+002
4.401301e+002, 1.028575e+002
4.406122e+002, 1.020301e+002
4.410943e+002, 1.014115e+002
4.415764e+002, 1.010530e+002
4.420585e+002, 1.007406e+002
4.425406e+002, 1.002254e+002
4.430227e+002, 9.947062e+001
4.435049e+002, 9.877608e+001
4.439870e+002, 9.795539e+001
4.444691e+002, 9.739565e+001
4.449512e+002, 9.742561e+001
4.454333e+002, 9.776306e+001
4.459154e+002, 9.795363e+001
4.463976e+002, 9.776049e+001
4.468797e+002, 9.731400e+001
4.473618e+002, 9.688640e+001
4.478439e+002, 9.647544e+001
4.483260e+002, 9.609056e+001
4.488081e+002, 9.567155e+001
4.492903e+002, 9.532316e+001
4.497724e+002, 9.513970e+001
4.502545e+002, 9.511344e+001
4.507366e+002, 9.513220e+001
4.512187e+002, 9.512392e+001
4.517008e+002, 9.509202e+001
4.521830e+002, 9.504285e+001
4.526651e+002, 9.495789e+001
4.531472e+002, 9.490221e+001
4.536293e+002, 9.496194e+001
4.541114e+002, 9.506355e+001
4.545935e+002, 9.511028e+001
4.550757e+002, 9.510416e+001
4.555578e+002, 9.499461e+001
4.560399e+002, 9.463435e+001
4.565220e+002, 9.410458e+001
4.570041e+002, 9.378853e+001
4.574862e+002, 9.385966e+001
4.579684e+002, 9.404070e+001
4.584505e+002, 9.391652e+001
4.589326e+002, 9.348652e+001
4.594147e+002, 9.321940e+001
4.598968e+002, 9.332716e+001
4.603789e+002, 9.354041e+001
4.608611e+002, 9.366160e+001
4.613432e+002, 9.367599e+001
4.618253e+002, 9.359518e+001
4.623074e+002, 9.340942e+001
4.627895e+002, 9.315049e+001
4.632716e+002, 9.294564e+001
4.637538e+002, 9.278280e+001
4.642359e+002, 9.268522e+001
4.647180e+002, 9.263612e+001
4.652001e+002, 9.266305e+001
4.656822e+002, 9.287338e+001
4.661643e+002, 9.324829e+001
4.666465e+002, 9.354078e+001
4.671286e+002, 9.343572e+001
4.676107e+002, 9.285683e+001
4.680928e+002, 9.260987e+001
4.685749e+002, 9.294477e+001
4.690570e+002, 9.335156e+001
4.695392e+002, 9.369856e+001
4.700213e+002, 9.403214e+001
4.705034e+002, 9.448286e+001
4.709855e+002, 9.511856e+001
4.714676e+002, 9.573866e+001
4.719497e+002, 9.589480e+001
4.724319e+002, 9.541018e+001
4.729140e+002, 9.524117e+001
4.733961e+002, 9.574627e+001
4.738782e+002, 9.642945e+001
4.743603e+002, 9.712550e+001
4.748424e+002, 9.777455e+001
4.753246e+002, 9.824533e+001
4.758067e+002, 9.832549e+001
4.762888e+002, 9.821864e+001
4.767709e+002, 9.840100e+001
4.772530e+002, 9.891634e+001
4.777351e+002, 9.943587e+001
4.782173e+002, 9.973931e+001
4.786994e+002, 9.999963e+001
4.791815e+002, 1.005231e+002
4.796636e+002, 1.014182e+002
4.801457e+002, 1.022170e+002
4.806278e+002, 1.026601e+002
4.811100e+002, 1.028540e+002
4.815920e+002, 1.029490e+002
4.820742e+002, 1.029647e+002
4.825563e+002, 1.030050e+002
4.830384e+002, 1.031333e+002
4.835205e+002, 1.033636e+002
4.840026e+002, 1.038140e+002
4.844847e+002, 1.047845e+002
4.849669e+002, 1.056346e+002
4.854490e+002, 1.061123e+002
4.859311e+002, 1.062928e+002
4.864132e+002, 1.062015e+002
4.868953e+002, 1.058546e+002
4.873774e+002, 1.055850e+002
4.878596e+002, 1.059969e+002
4.883417e+002, 1.075242e+002
4.888238e+002, 1.085483e+002
4.893059e+002, 1.088349e+002
4.897880e+002, 1.089319e+002
4.902701e+002, 1.089400e+002
4.907523e+002, 1.089788e+002
4.912344e+002, 1.092883e+002
4.917165e+002, 1.100717e+002
4.921986e+002, 1.110508e+002
4.926807e+002, 1.113949e+002
4.931628e+002, 1.108289e+002
4.936450e+002, 1.103878e+002
4.941271e+002, 1.105308e+002
4.946092e+002, 1.106958e+002
4.950913e+002, 1.104421e+002
4.955734e+002, 1.097832e+002
4.960555e+002, 1.091395e+002
4.965377e+002, 1.087889e+002
4.970198e+002, 1.086781e+002
4.975019e+002, 1.087181e+002
4.979840e+002, 1.089551e+002
4.984661e+002, 1.091172e+002
4.989482e+002, 1.090782e+002
4.994304e+002, 1.088495e+002
4.999125e+002, 1.084546e+002
5.003946e+002, 1.078241e+002
5.008767e+002, 1.071983e+002
5.013588e+002, 1.066783e+002
5.018409e+002, 1.062446e+002
5.023231e+002, 1.058413e+002
5.028052e+002, 1.054579e+002
5.032873e+002, 1.051763e+002
5.037694e+002, 1.051339e+002
5.042515e+002, 1.053421e+002
5.047336e+002, 1.051930e+002
5.052158e+002, 1.041963e+002
5.056979e+002, 1.034306e+002
5.061800e+002, 1.035108e+002
5.066621e+002, 1.039990e+002
5.071442e+002, 1.042511e+002
5.076263e+002, 1.040307e+002
5.081085e+002, 1.034848e+002
5.085906e+002, 1.028005e+002
5.090727e+002, 1.018929e+002
5.095548e+002, 1.011516e+002
5.100369e+002, 1.007805e+002
5.105190e+002, 1.003732e+002
5.110012e+002, 9.955000e+001
5.114833e+002, 9.860629e+001
5.119654e+002, 9.818694e+001
5.124475e+002, 9.871798e+001
5.129296e+002, 9.957628e+001
5.134117e+002, 9.958558e+001
5.138939e+002, 9.863714e+001
5.143760e+002, 9.765852e+001
5.148581e+002, 9.669263e+001
5.153402e+002, 9.592307e+001
5.158223e+002, 9.559285e+001
5.163044e+002, 9.563073e+001
5.167866e+002, 9.556599e+001
5.172687e+002, 9.509846e+001
5.177508e+002, 9.447975e+001
5.182329e+002, 9.399508e+001
5.187150e+002, 9.364966e+001
5.191971e+002, 9.345398e+001
5.196793e+002, 9.347261e+001
5.201614e+002, 9.357320e+001
5.206435e+002, 9.341389e+001
5.211256e+002, 9.285573e+001
5.216077e+002, 9.249219e+001
5.220898e+002, 9.258879e+001
5.225720e+002, 9.280421e+001
5.230541e+002, 9.282154e+001
5.235362e+002, 9.264758e+001
5.240183e+002, 9.247739e+001
5.245004e+002, 9.244148e+001
5.249825e+002, 9.253896e+001
5.254647e+002, 9.278349e+001
5.259468e+002, 9.344716e+001
5.264289e+002, 9.385721e+001
5.269110e+002, 9.378016e+001
5.273931e+002, 9.356507e+001
5.278752e+002, 9.347272e+001
5.283574e+002, 9.354387e+001
5.288395e+002, 9.369095e+001
5.293216e+002, 9.385363e+001
5.298037e+002, 9.402785e+001
5.302858e+002, 9.418758e+001
5.307679e+002, 9.432197e+001
5.312501e+002, 9.446617e+001
5.317322e+002, 9.464944e+001
5.322143e+002, 9.484312e+001
5.326964e+002, 9.500901e+001
5.331785e+002, 9.513292e+001
5.336606e+002, 9.528767e+001
5.341428e+002, 9.559303e+001
5.346249e+002, 9.594967e+001
5.351070e+002, 9.611900e+001
5.355891e+002, 9.605918e+001
5.360712e+002, 9.596404e+001
5.365533e+002, 9.597350e+001
5.370355e+002, 9.607309e+001
5.375176e+002, 9.615949e+001
5.379997e+002, 9.617520e+001
5.384818e+002, 9.624893e+001
5.389639e+002, 9.650943e+001
5.394460e+002, 9.680608e+001
5.399282e+002, 9.694456e+001
5.404103e+002, 9.688946e+001
5.408924e+002, 9.674378e+001
5.413745e+002, 9.661420e+001
5.418566e+002, 9.650278e+001
5.423387e+002, 9.633296e+001
5.428209e+002, 9.590683e+001
5.433029e+002, 9.566732e+001
5.437850e+002, 9.589744e+001
5.442672e+002, 9.626580e+001
5.447493e+002, 9.637574e+001
5.452314e+002, 9.612914e+001
5.457135e+002, 9.578010e+001
5.461956e+002, 9.561259e+001
5.466777e+002, 9.560805e+001
5.471599e+002, 9.553960e+001
5.476420e+002, 9.534790e+001
5.481241e+002, 9.519350e+001
5.486062e+002, 9.514463e+001
5.490883e+002, 9.520727e+001
5.495704e+002, 9.544370e+001
5.500526e+002, 9.598589e+001
5.505347e+002, 9.644105e+001
5.510168e+002, 9.651067e+001
5.514989e+002, 9.632608e+001
5.519810e+002, 9.614867e+001
5.524631e+002, 9.603237e+001
5.529453e+002, 9.592847e+001
5.534274e+002, 9.577108e+001
5.539095e+002, 9.555979e+001
5.543916e+002, 9.552605e+001
5.548737e+002, 9.588577e+001
5.553558e+002, 9.613691e+001
5.558380e+002, 9.601197e+001
5.563201e+002, 9.576173e+001
5.568022e+002, 9.572290e+001
5.572843e+002, 9.596835e+001
5.577664e+002, 9.628861e+001
5.582485e+002, 9.645565e+001
5.587307e+002, 9.646635e+001
5.592128e+002, 9.639288e+001
5.596949e+002, 9.618468e+001
5.601770e+002, 9.596242e+001
5.606591e+002, 9.570124e+001
5.611412e+002, 9.547914e+001
5.616234e+002, 9.542875e+001
5.621055e+002, 9.560094e+001
5.625876e+002, 9.575559e+001
5.630697e+002, 9.562341e+001
5.635518e+002, 9.530099e+001
5.640339e+002, 9.514529e+001
5.645161e+002, 9.523409e+001
5.649982e+002, 9.528889e+001
5.654803e+002, 9.503757e+001
5.659624e+002, 9.459011e+001
5.664445e+002, 9.443311e+001
5.669266e+002, 9.486046e+001
5.674088e+002, 9.515820e+001
5.678909e+002, 9.499959e+001
5.683730e+002, 9.461663e+001
5.688551e+002, 9.423038e+001
5.693372e+002, 9.391366e+001
5.698193e+002, 9.376997e+001
5.703015e+002, 9.394688e+001
5.707836e+002, 9.441171e+001
5.712657e+002, 9.451293e+001
5.717478e+002, 9.379391e+001
5.722299e+002, 9.332151e+001
5.727120e+002, 9.349511e+001
5.731942e+002, 9.382870e+001
5.736763e+002, 9.385194e+001
5.741584e+002, 9.350417e+001
5.746405e+002, 9.307822e+001
5.751226e+002, 9.283504e+001
5.756047e+002, 9.272611e+001
5.760869e+002, 9.254029e+001
5.765690e+002, 9.225629e+001
5.770511e+002, 9.198103e+001
5.775332e+002, 9.173274e+001
5.780153e+002, 9.154771e+001
5.784974e+002, 9.149657e+001
5.789796e+002, 9.161819e+001
5.794617e+002, 9.170241e+001
5.799438e+002, 9.166923e+001
5.804259e+002, 9.155833e+001
5.809080e+002, 9.138350e+001
5.813901e+002, 9.116384e+001
5.818723e+002, 9.098027e+001
5.823544e+002, 9.089230e+001
5.828365e+002, 9.086214e+001
5.833186e+002, 9.076375e+001
5.838007e+002, 9.064646e+001
5.842828e+002, 9.037336e+001
5.847650e+002, 8.974534e+001
5.852471e+002, 8.913560e+001
5.857292e+002, 8.886480e+001
5.862113e+002, 8.884470e+001
5.866934e+002, 8.871170e+001
5.871755e+002, 8.818007e+001
5.876577e+002, 8.750450e+001
5.881398e+002, 8.735821e+001
5.886219e+002, 8.784715e+001
5.891040e+002, 8.813139e+001
5.895861e+002, 8.793718e+001
5.900682e+002, 8.754516e+001
5.905504e+002, 8.720058e+001
5.910325e+002, 8.689713e+001
5.915146e+002, 8.659891e+001
5.919967e+002, 8.619613e+001
5.924788e+002, 8.587851e+001
5.929609e+002, 8.594170e+001
5.934431e+002, 8.623595e+001
5.939252e+002, 8.628106e+001
5.944073e+002, 8.589002e+001
5.948894e+002, 8.533029e+001
5.953715e+002, 8.496909e+001
5.958536e+002, 8.484605e+001
5.963358e+002, 8.474852e+001
5.968179e+002, 8.468452e+001
5.973000e+002, 8.463322e+001
5.977821e+002, 8.468190e+001
5.982642e+002, 8.470413e+001
5.987463e+002, 8.446635e+001
5.992285e+002, 8.389978e+001
5.997106e+002, 8.329700e+001
6.001927e+002, 8.303047e+001
6.006748e+002, 8.308733e+001
6.011569e+002, 8.314426e+001
6.016390e+002, 8.319121e+001
6.021212e+002, 8.323116e+001
6.026033e+002, 8.335983e+001
6.030854e+002, 8.345157e+001
6.035675e+002, 8.326679e+001
6.040496e+002, 8.267944e+001
6.045317e+002, 8.210658e+001
6.050139e+002, 8.176857e+001
6.054960e+002, 8.156767e+001
6.059781e+002, 8.136743e+001
6.064602e+002, 8.115244e+001
6.069423e+002, 8.096407e+001
6.074244e+002, 8.082836e+001
6.079066e+002, 8.074925e+001
6.083887e+002, 8.074715e+001
6.088708e+002, 8.097465e+001
6.093529e+002, 8.105791e+001
6.098350e+002, 8.089011e+001
6.103171e+002, 8.065520e+001
6.107993e+002, 8.045019e+001
6.112814e+002, 8.029578e+001
6.117635e+002, 8.020576e+001
6.122456e+002, 8.021581e+001
6.127277e+002, 8.025039e+001
6.132098e+002, 8.015899e+001
6.136920e+002, 7.993842e+001
6.141741e+002, 7.958883e+001
6.146562e+002, 7.897630e+001
6.151383e+002, 7.840907e+001
6.156204e+002, 7.828420e+001
6.161025e+002, 7.851785e+001
6.165847e+002, 7.860864e+001
6.170668e+002, 7.827026e+001
6.175489e+002, 7.794179e+001
6.180310e+002, 7.794344e+001
6.185131e+002, 7.815197e+001
6.189952e+002, 7.833987e+001
6.194774e+002, 7.843452e+001
6.199595e+002, 7.842135e+001
6.204416e+002, 7.826173e+001
6.209237e+002, 7.793810e+001
6.214058e+002, 7.772986e+001
6.218879e+002, 7.774689e+001
6.223701e+002, 7.774899e+001
6.228522e+002, 7.762163e+001
6.233343e+002, 7.749291e+001
6.238164e+002, 7.751908e+001
6.242985e+002, 7.772030e+001
6.247806e+002, 7.794758e+001
6.252628e+002, 7.812806e+001
6.257448e+002, 7.823564e+001
6.262269e+002, 7.812568e+001
6.267090e+002, 7.776552e+001
6.271912e+002, 7.757528e+001
6.276733e+002, 7.784109e+001
6.281554e+002, 7.829654e+001
6.286375e+002, 7.838930e+001
6.291196e+002, 7.802403e+001
6.296017e+002, 7.782294e+001
6.300839e+002, 7.805156e+001
6.305660e+002, 7.831624e+001
6.310481e+002, 7.827481e+001
6.315302e+002, 7.805064e+001
6.320123e+002, 7.797713e+001
6.324944e+002, 7.820729e+001
6.329766e+002, 7.861186e+001
6.334587e+002, 7.900874e+001
6.339408e+002, 7.943066e+001
6.344229e+002, 7.966958e+001
6.349050e+002, 7.953622e+001
6.353871e+002, 7.946273e+001
6.358693e+002, 7.964355e+001
6.363514e+002, 7.999519e+001
6.368335e+002, 8.042155e+001
6.373156e+002, 8.092988e+001
6.377977e+002, 8.136746e+001
6.382798e+002, 8.154832e+001
6.387620e+002, 8.160437e+001
6.392441e+002, 8.179916e+001
6.397262e+002, 8.215852e+001
6.402083e+002, 8.250741e+001
6.406904e+002, 8.267245e+001
6.411725e+002, 8.280959e+001
6.416547e+002, 8.345890e+001
6.421368e+002, 8.549818e+001
6.426189e+002, 8.673381e+001
6.431010e+002, 8.644714e+001
6.435831e+002, 8.599831e+001
6.440652e+002, 8.627592e+001
6.445474e+002, 8.712387e+001
6.450295e+002, 8.793464e+001
6.455116e+002, 8.837961e+001
6.459937e+002, 8.867774e+001
6.464758e+002, 8.918779e+001
6.469579e+002, 8.990792e+001
6.474401e+002, 9.060879e+001
6.479222e+002, 9.124767e+001
6.484043e+002, 9.187528e+001
6.488864e+002, 9.247136e+001
6.493685e+002, 9.308822e+001
6.498506e+002, 9.387571e+001
6.503328e+002, 9.491337e+001
6.508149e+002, 9.601799e+001
6.512970e+002, 9.721790e+001
6.517791e+002, 9.838919e+001
6.522612e+002, 9.930094e+001
6.527433e+002, 9.998254e+001
6.532255e+002, 1.007473e+002
6.537076e+002, 1.018477e+002
6.541897e+002, 1.031641e+002
6.546718e+002, 1.042534e+002
6.551539e+002, 1.050331e+002
6.556360e+002, 1.057767e+002
6.561182e+002, 1.063879e+002
6.566003e+002, 1.070883e+002
6.570824e+002, 1.081359e+002
6.575645e+002, 1.093885e+002
6.580466e+002, 1.103969e+002
6.585287e+002, 1.109114e+002
6.590109e+002, 1.112556e+002
6.594930e+002, 1.118602e+002
6.599751e+002, 1.125343e+002
6.604572e+002, 1.126740e+002
6.609393e+002, 1.121373e+002
6.614214e+002, 1.114283e+002
6.619036e+002, 1.109942e+002
6.623857e+002, 1.107941e+002
6.628678e+002, 1.103904e+002
6.633499e+002, 1.098162e+002
6.638320e+002, 1.089866e+002
6.643141e+002, 1.075936e+002
6.647963e+002, 1.061698e+002
6.652784e+002, 1.052166e+002
6.657605e+002, 1.046543e+002
6.662426e+002, 1.040164e+002
6.667247e+002, 1.030128e+002
6.672068e+002, 1.017641e+002
6.676890e+002, 1.003989e+002
6.681711e+002, 9.892503e+001
6.686532e+002, 9.762114e+001
6.691353e+002, 9.657076e+001
6.696174e+002, 9.567148e+001
6.700995e+002, 9.491622e+001
6.705817e+002, 9.426942e+001
6.710638e+002, 9.343592e+001
6.715459e+002, 9.215385e+001
6.720280e+002, 9.100124e+001
6.725101e+002, 9.019894e+001
6.729922e+002, 8.960518e+001
6.734744e+002, 8.910776e+001
6.739565e+002, 8.866280e+001
6.744386e+002, 8.819697e+001
6.749207e+002, 8.762418e+001
6.754028e+002, 8.703480e+001
6.758849e+002, 8.677684e+001
6.763671e+002, 8.695971e+001
6.768492e+002, 8.698351e+001
6.773313e+002, 8.664901e+001
6.778134e+002, 8.621088e+001
6.782955e+002, 8.582835e+001
6.787776e+002, 8.550854e+001
6.792598e+002, 8.528835e+001
6.797419e+002, 8.526795e+001
6.802240e+002, 8.523156e+001
6.807061e+002, 8.502851e+001
6.811882e+002, 8.473698e+001
6.816703e+002, 8.441889e+001
6.821525e+002, 8.411523e+001
6.826346e+002, 8.399828e+001
6.831167e+002, 8.425293e+001
6.835988e+002, 8.475964e+001
6.840809e+002, 8.488174e+001
6.845630e+002, 8.428365e+001
6.850452e+002, 8.403573e+001
6.855273e+002, 8.464550e+001
6.860094e+002, 8.532328e+001
6.864915e+002, 8.562411e+001
6.869736e+002, 8.561234e+001
6.874557e+002, 8.553092e+001
6.879379e+002, 8.536046e+001
6.884200e+002, 8.534368e+001
6.889021e+002, 8.586539e+001
6.893842e+002, 8.667769e+001
6.898663e+002, 8.714254e+001
6.903484e+002, 8.715525e+001
6.908306e+002, 8.716002e+001
6.913127e+002, 8.751958e+001
6.917948e+002, 8.815219e+001
6.922769e+002, 8.865696e+001
6.927590e+002, 8.905321e+001
6.932411e+002, 8.928012e+001
6.937233e+002, 8.913419e+001
6.942054e+002, 8.901444e+001
6.946875e+002, 8.915724e+001
6.951696e+002, 8.952876e+001
6.956517e+002, 8.999879e+001
6.961339e+002, 9.052569e+001
6.966160e+002, 9.108425e+001
6.970981e+002, 9.164927e+001
6.975802e+002, 9.222334e+001
6.980623e+002, 9.288979e+001
6.985444e+002, 9.367641e+001
6.990266e+002, 9.425646e+001
6.995087e+002, 9.436360e+001
6.999908e+002, 9.410836e+001
7.004729e+002, 9.391238e+001
7.009550e+002, 9.397218e+001
7.014371e+002, 9.378216e+001
7.019193e+002, 9.297099e+001
7.024014e+002, 9.224550e+001
7.028835e+002, 9.243153e+001
7.033656e+002, 9.298339e+001
7.038477e+002, 9.260697e+001
7.043298e+002, 9.068320e+001
7.048120e+002, 8.831144e+001
7.052941e+002, 8.685774e+001
7.057762e+002, 8.615727e+001
7.062583e+002, 8.535817e+001
7.067404e+002, 8.434805e+001
7.072225e+002, 8.351533e+001
7.077046e+002, 8.314820e+001
7.081867e+002, 8.306029e+001
7.086688e+002, 8.276940e+001
7.091509e+002, 8.217624e+001
7.096331e+002, 8.164489e+001
7.101152e+002, 8.118417e+001
7.105973e+002, 8.080171e+001
7.110794e+002, 8.046772e+001
7.115615e+002, 8.022472e+001
7.120436e+002, 8.020143e+001
7.125258e+002, 8.043652e+001
7.130079e+002, 8.067880e+001
7.134900e+002, 8.056462e+001
7.139721e+002, 8.018233e+001
7.144542e+002, 8.005630e+001
7.149363e+002, 8.024433e+001
7.154185e+002, 8.042024e+001
7.159006e+002, 8.044328e+001
7.163827e+002, 8.036510e+001
7.168648e+002, 8.022393e+001
7.173469e+002, 7.997141e+001
7.178290e+002, 7.994399e+001
7.183112e+002, 8.043649e+001
7.187933e+002, 8.087617e+001
7.192754e+002, 8.089378e+001
7.197575e+002, 8.071394e+001
7.202396e+002, 8.072346e+001
7.207217e+002, 8.099516e+001
7.212039e+002, 8.121345e+001
7.216860e+002, 8.104501e+001
7.221681e+002, 8.057864e+001
7.226502e+002, 8.011506e+001
7.231323e+002, 7.962708e+001
7.236144e+002, 7.937704e+001
7.240966e+002, 7.957990e+001
7.245787e+002, 7.985820e+001
7.250608e+002, 7.973643e+001
7.255429e+002, 7.922282e+001
7.260250e+002, 7.879798e+001
7.265071e+002, 7.856896e+001
7.269893e+002, 7.833315e+001
7.274714e+002, 7.799821e+001
7.279535e+002, 7.762931e+001
7.284356e+002, 7.728901e+001
7.289177e+002, 7.699535e+001
7.293998e+002, 7.675727e+001
7.298820e+002, 7.658550e+001
7.303641e+002, 7.646550e+001
7.308462e+002, 7.640299e+001
7.313283e+002, 7.640455e+001
7.318104e+002, 7.623186e+001
7.322925e+002, 7.576232e+001
7.327747e+002, 7.528506e+001
7.332568e+002, 7.502567e+001
7.337389e+002, 7.496281e+001
7.342210e+002, 7.495020e+001
7.347031e+002, 7.507478e+001
7.351852e+002, 7.511391e+001
7.356674e+002, 7.495765e+001
7.361495e+002, 7.475020e+001
7.366316e+002, 7.459732e+001
7.371137e+002, 7.449985e+001
7.375958e+002, 7.441014e+001
7.380779e+002, 7.430036e+001
7.385601e+002, 7.422238e+001
7.390422e+002, 7.434220e+001
7.395243e+002, 7.461314e+001
7.400064e+002, 7.453014e+001
7.404885e+002, 7.398400e+001
7.409706e+002, 7.339577e+001
7.414528e+002, 7.295130e+001
7.419349e+002, 7.264956e+001
7.424170e+002, 7.253024e+001
7.428991e+002, 7.268760e+001
7.433812e+002, 7.268898e+001
7.438633e+002, 7.232014e+001
7.443455e+002, 7.197503e+001
7.448276e+002, 7.191602e+001
7.453097e+002, 7.199718e+001
7.457918e+002, 7.193650e+001
7.462739e+002, 7.167431e+001
7.467560e+002, 7.147527e+001
7.472382e+002, 7.168343e+001
7.477203e+002, 7.213954e+001
7.482024e+002, 7.237120e+001
7.486845e+002, 7.237692e+001
7.491666e+002, 7.216924e+001
7.496487e+002, 7.166032e+001
7.501309e+002, 7.116834e+001
7.506130e+002, 7.110671e+001
7.510951e+002, 7.150876e+001
7.515772e+002, 7.172485e+001
7.520593e+002, 7.160913e+001
7.525414e+002, 7.151102e+001
7.530236e+002, 7.156526e+001
7.535057e+002, 7.162569e+001
7.539878e+002, 7.150008e+001
7.544699e+002, 7.123589e+001
7.549520e+002, 7.108715e+001
7.554341e+002, 7.123855e+001
7.559163e+002, 7.148379e+001
7.563984e+002, 7.153614e+001
7.568805e+002, 7.142972e+001
7.573626e+002, 7.132382e+001
7.578447e+002, 7.124815e+001
7.583268e+002, 7.109371e+001
7.588090e+002, 7.074162e+001
7.592911e+002, 7.029408e+001
7.597732e+002, 7.009866e+001
7.602553e+002, 7.037206e+001
7.607374e+002, 7.050697e+001
7.612195e+002, 7.037454e+001
7.617017e+002, 7.025181e+001
7.621838e+002, 7.027870e+001
7.626659e+002, 7.039966e+001
7.631480e+002, 7.054806e+001
7.636301e+002, 7.071110e+001
7.641122e+002, 7.077000e+001
7.645944e+002, 7.059687e+001
7.650765e+002, 7.028476e+001
7.655586e+002, 6.989629e+001
7.660407e+002, 6.948059e+001
7.665228e+002, 6.931422e+001
7.670049e+002, 6.951794e+001
7.674871e+002, 6.980479e+001
7.679692e+002, 6.978756e+001
7.684513e+002, 6.945046e+001
7.689334e+002, 6.918364e+001
7.694155e+002, 6.901149e+001
7.698976e+002, 6.886755e+001
7.703798e+002, 6.873274e+001
7.708619e+002, 6.862157e+001
7.713440e+002, 6.852247e+001
7.718261e+002, 6.845206e+001
7.723082e+002, 6.849506e+001
7.727903e+002, 6.887155e+001
7.732725e+002, 6.911402e+001
7.737546e+002, 6.867098e+001
7.742367e+002, 6.798161e+001
7.747188e+002, 6.781818e+001
7.752009e+002, 6.819950e+001
7.756830e+002, 6.852355e+001
7.761652e+002, 6.838371e+001
7.766473e+002, 6.798535e+001
7.771294e+002, 6.781533e+001
7.776115e+002, 6.790539e+001
7.780936e+002, 6.801753e+001
7.785757e+002, 6.816736e+001
7.790579e+002, 6.828311e+001
7.795400e+002, 6.832236e+001
7.800221e+002, 6.830321e+001
7.805042e+002, 6.826189e+001
7.809863e+002, 6.820776e+001
7.814684e+002, 6.808817e+001
7.819506e+002, 6.775031e+001
7.824327e+002, 6.748306e+001
7.829148e+002, 6.749747e+001
7.833969e+002, 6.770110e+001
7.838790e+002, 6.797726e+001
7.843611e+002, 6.826969e+001
7.848433e+002, 6.847649e+001
7.853254e+002, 6.849422e+001
7.858075e+002, 6.836076e+001
7.862896e+002, 6.817279e+001
7.867717e+002, 6.793027e+001
7.872538e+002, 6.766028e+001
7.877360e+002, 6.733627e+001
7.882181e+002, 6.709010e+001
7.887002e+002, 6.706580e+001
7.891823e+002, 6.723676e+001
7.896644e+002, 6.737742e+001
7.901465e+002, 6.749477e+001
7.906286e+002, 6.757433e+001
7.911107e+002, 6.765614e+001
7.915928e+002, 6.766189e+001
7.920750e+002, 6.744536e+001
7.925571e+002, 6.713248e+001
7.930392e+002, 6.700361e+001
7.935213e+002, 6.717759e+001
7.940034e+002, 6.739024e+001
7.944855e+002, 6.746301e+001
7.949677e+002, 6.739501e+001
7.954498e+002, 6.708558e+001
7.959319e+002, 6.658822e+001
7.964140e+002, 6.629257e+001
7.968961e+002, 6.637013e+001
7.973782e+002, 6.658839e+001
7.978604e+002, 6.662038e+001
7.983425e+002, 6.645424e+001
7.988246e+002, 6.639546e+001
7.993067e+002, 6.654868e+001
7.997888e+002, 6.661845e+001
8.002709e+002, 6.648503e+001
8.007531e+002, 6.627710e+001
8.012352e+002, 6.604476e+001
8.017173e+002, 6.581089e+001
8.021994e+002, 6.566908e+001
8.026815e+002, 6.572247e+001
8.031636e+002, 6.575793e+001
8.036458e+002, 6.561082e+001
8.041279e+002, 6.542028e+001
8.046100e+002, 6.535902e+001
8.050921e+002, 6.541914e+001
8.055742e+002, 6.549325e+001
8.060563e+002, 6.552316e+001
8.065385e+002, 6.554484e+001
8.070206e+002, 6.569601e+001
8.075027e+002, 6.594563e+001
8.079848e+002, 6.572617e+001
8.084669e+002, 6.486248e+001
8.089490e+002, 6.435478e+001
8.094312e+002, 6.482138e+001
8.099133e+002, 6.563377e+001
8.103954e+002, 6.585097e+001
8.108775e+002, 6.537411e+001
8.113596e+002, 6.490441e+001
8.118417e+002, 6.425285e+001
8.123239e+002, 6.384945e+001
8.128060e+002, 6.399142e+001
8.132881e+002, 6.430570e+001
8.137702e+002, 6.447161e+001
8.142523e+002, 6.446602e+001
8.147344e+002, 6.440401e+001
8.152166e+002, 6.433138e+001
8.156987e+002, 6.424919e+001
8.161808e+002, 6.413780e+001
8.166629e+002, 6.402375e+001
8.171450e+002, 6.395908e+001
8.176271e+002, 6.395192e+001
8.181093e+002, 6.403199e+001
8.185914e+002, 6.423237e+001
8.190735e+002, 6.443140e+001
8.195556e+002, 6.436617e+001
8.200377e+002, 6.397713e+001
8.205198e+002, 6.369887e+001
8.210020e+002, 6.358175e+001
8.214841e+002, 6.347270e+001
8.219662e+002, 6.323480e+001
8.224483e+002, 6.303599e+001
8.229304e+002, 6.311644e+001
8.234125e+002, 6.346473e+001
8.238947e+002, 6.370190e+001
8.243768e+002, 6.365819e+001
8.248589e+002, 6.360345e+001
8.253410e+002, 6.371292e+001
8.258231e+002, 6.383634e+001
8.263052e+002, 6.376820e+001
8.267874e+002, 6.353810e+001
8.272695e+002, 6.334586e+001
8.277516e+002, 6.330718e+001
8.282337e+002, 6.333353e+001
8.287158e+002, 6.333599e+001
8.291979e+002, 6.329858e+001
8.296801e+002, 6.308437e+001
8.301622e+002, 6.268068e+001
8.306443e+002, 6.248299e+001
8.311264e+002, 6.274416e+001
8.316085e+002, 6.314683e+001
8.320906e+002, 6.314998e+001
8.325728e+002, 6.268135e+001
8.330549e+002, 6.233312e+001
8.335370e+002, 6.206477e+001
8.340191e+002, 6.198569e+001
8.345012e+002, 6.228168e+001
8.349833e+002, 6.263532e+001
8.354655e+002, 6.281533e+001
8.359476e+002, 6.281836e+001
8.364297e+002, 6.270787e+001
8.369118e+002, 6.234412e+001
8.373939e+002, 6.212446e+001
8.378760e+002, 6.243955e+001
8.383582e+002, 6.289942e+001
8.388403e+002, 6.305797e+001
8.393224e+002, 6.292643e+001
8.398045e+002, 6.269830e+001
8.402866e+002, 6.246432e+001
8.407687e+002, 6.225774e+001
8.412509e+002, 6.210819e+001
8.417330e+002, 6.202394e+001
8.422151e+002, 6.210695e+001
8.426972e+002, 6.237562e+001
8.431793e+002, 6.249431e+001
8.436614e+002, 6.228598e+001
8.441436e+002, 6.204743e+001
8.446257e+002, 6.216565e+001
8.451078e+002, 6.262638e+001
8.455899e+002, 6.280704e+001
8.460720e+002, 6.238530e+001
8.465541e+002, 6.215293e+001
8.470363e+002, 6.236943e+001
8.475184e+002, 6.260831e+001
8.480005e+002, 6.258941e+001
8.484826e+002, 6.238809e+001
8.489647e+002, 6.218546e+001
8.494468e+002, 6.200258e+001
8.499290e+002, 6.193272e+001
8.504111e+002, 6.220384e+001
8.508932e+002, 6.247035e+001
8.513753e+002, 6.220858e+001
8.518574e+002, 6.168263e+001
8.523395e+002, 6.162836e+001
8.528217e+002, 6.221971e+001
8.533038e+002, 6.283475e+001
8.537859e+002, 6.283440e+001
8.542680e+002, 6.241107e+001
8.547501e+002, 6.211035e+001
8.552322e+002, 6.193152e+001
8.557144e+002, 6.202211e+001
8.561965e+002, 6.249590e+001
8.566786e+002, 6.286750e+001
8.571607e+002, 6.274847e+001
8.576428e+002, 6.226930e+001
8.581249e+002, 6.182830e+001
8.586071e+002, 6.129418e+001
8.590892e+002, 6.109145e+001
8.595713e+002, 6.156431e+001
8.600534e+002, 6.195620e+001
8.605355e+002, 6.190606e+001
8.610176e+002, 6.168438e+001
8.614998e+002, 6.163154e+001
8.619819e+002, 6.177996e+001
8.624640e+002, 6.191277e+001
8.629461e+002, 6.193221e+001
8.634282e+002, 6.192001e+001
8.639103e+002, 6.188025e+001
8.643925e+002, 6.187121e+001
8.648746e+002, 6.202006e+001
8.653567e+002, 6.229600e+001
8.658388e+002, 6.249343e+001
8.663209e+002, 6.248020e+001
8.668030e+002, 6.243258e+001
8.672852e+002, 6.272157e+001
8.677673e+002, 6.323886e+001
8.682494e+002, 6.333453e+001
8.687315e+002, 6.295696e+001
8.692136e+002, 6.265551e+001
8.696957e+002, 6.266893e+001
8.701779e+002, 6.281377e+001
8.706600e+002, 6.284520e+001
8.711421e+002, 6.276184e+001
8.716242e+002, 6.275306e+001
8.721063e+002, 6.299413e+001
8.725884e+002, 6.300036e+001
8.730705e+002, 6.232396e+001
8.735526e+002, 6.173392e+001
8.740347e+002, 6.185940e+001
8.745168e+002, 6.240660e+001
8.749990e+002, 6.261257e+001
8.754811e+002, 6.222503e+001
8.759632e+002, 6.189381e+001
8.764453e+002, 6.191148e+001
8.769274e+002, 6.200311e+001
8.774095e+002, 6.195835e+001
8.778917e+002, 6.184624e+001
8.783738e+002, 6.187280e+001
8.788559e+002, 6.204350e+001
8.793380e+002, 6.203947e+001
8.798201e+002, 6.153542e+001
8.803022e+002, 6.080423e+001
8.807844e+002, 6.022784e+001
8.812665e+002, 5.980821e+001
8.817486e+002, 5.961546e+001
8.822307e+002, 5.964359e+001
8.827128e+002, 5.962542e+001
8.831949e+002, 5.938438e+001
8.836771e+002, 5.902958e+001
8.841592e+002, 5.879744e+001
8.846413e+002, 5.871069e+001
8.851234e+002, 5.855233e+001
8.856055e+002, 5.824424e+001
8.860876e+002, 5.806868e+001
8.865698e+002, 5.824451e+001
8.870519e+002, 5.846935e+001
8.875340e+002, 5.840772e+001
8.880161e+002, 5.807119e+001
8.884982e+002, 5.765503e+001
8.889803e+002, 5.693974e+001
8.894625e+002, 5.646282e+001
8.899446e+002, 5.642585e+001
8.904267e+002, 5.655067e+001
8.909088e+002, 5.676524e+001
8.913909e+002, 5.696313e+001
8.918730e+002, 5.694239e+001
8.923552e+002, 5.663794e+001
8.928373e+002, 5.636427e+001
8.933194e+002, 5.637271e+001
8.938015e+002, 5.646964e+001
8.942836e+002, 5.643617e+001
8.947657e+002, 5.633391e+001
8.952479e+002, 5.631940e+001
8.957300e+002, 5.641276e+001
8.962121e+002, 5.649688e+001
8.966942e+002, 5.648041e+001
8.971763e+002, 5.641549e+001
8.976584e+002, 5.638293e+001
8.981406e+002, 5.638886e+001
8.986227e+002, 5.655019e+001
8.991048e+002, 5.690086e+001
8.995869e+002, 5.710208e+001
9.000690e+002, 5.698199e+001
9.005511e+002, 5.665680e+001
9.010333e+002, 5.625724e+001
9.015154e+002, 5.576832e+001
9.019975e+002, 5.556319e+001
9.024796e+002, 5.587363e+001
9.029617e+002, 5.603554e+001
9.034438e+002, 5.582130e+001
9.039260e+002, 5.552337e+001
9.044081e+002, 5.535626e+001
9.048902e+002, 5.525843e+001
9.053723e+002, 5.505658e+001
9.058544e+002, 5.466975e+001
9.063365e+002, 5.436161e+001
9.068187e+002, 5.411254e+001
9.073008e+002, 5.404953e+001
9.077829e+002, 5.442524e+001
9.082650e+002, 5.494365e+001
9.087471e+002, 5.515182e+001
9.092292e+002, 5.502542e+001
9.097114e+002, 5.497978e+001
9.101935e+002, 5.531801e+001
9.106756e+002, 5.574392e+001
9.111577e+002, 5.566963e+001
9.116398e+002, 5.558686e+001
9.121219e+002, 5.676870e+001
9.126041e+002, 5.896909e+001
9.130862e+002, 6.049969e+001
9.135683e+002, 6.055968e+001
9.140504e+002, 6.004066e+001
9.145325e+002, 6.006429e+001
9.150146e+002, 6.056386e+001
9.154968e+002, 6.118428e+001
9.159789e+002, 6.193068e+001
9.164610e+002, 6.267434e+001
9.169431e+002, 6.336397e+001
9.174252e+002, 6.417075e+001
9.179073e+002, 6.526287e+001
9.183895e+002, 6.657089e+001
9.188716e+002, 6.780832e+001
9.193537e+002, 6.874962e+001
9.198358e+002, 7.023753e+001
9.203179e+002, 7.255161e+001
9.208000e+002, 7.501321e+001
9.212822e+002, 7.747622e+001
9.217643e+002, 7.987710e+001
9.222464e+002, 8.207391e+001
9.227285e+002, 8.407883e+001
9.232106e+002, 8.620307e+001
9.236927e+002, 8.865897e+001
9.241749e+002, 9.100649e+001
9.246570e+002, 9.317681e+001
9.251391e+002, 9.513741e+001
9.256212e+002, 9.672331e+001
9.261033e+002, 9.810990e+001
9.265854e+002, 9.971548e+001
9.270676e+002, 1.016758e+002
9.275497e+002, 1.033773e+002
9.280318e+002, 1.040975e+002
9.285139e+002, 1.046366e+002
9.289960e+002, 1.058837e+002
9.294781e+002, 1.075445e+002
9.299603e+002, 1.089955e+002
9.304424e+002, 1.101777e+002
9.309245e+002, 1.114840e+002
9.314066e+002, 1.131913e+002
9.318887e+002, 1.149909e+002
9.323708e+002, 1.164468e+002
9.328530e+002, 1.175668e+002
9.333351e+002, 1.183559e+002
9.338172e+002, 1.188208e+002
9.342993e+002, 1.191566e+002
9.347814e+002, 1.194660e+002
9.352635e+002, 1.192889e+002
9.357457e+002, 1.180510e+002
9.362278e+002, 1.159294e+002
9.367099e+002, 1.140763e+002
9.371920e+002, 1.127591e+002
9.376741e+002, 1.104641e+002
9.381563e+002, 1.067277e+002
9.386384e+002, 1.026117e+002
9.391205e+002, 9.849342e+001
9.396026e+002, 9.446866e+001
9.400847e+002, 9.072556e+001
9.405668e+002, 8.734998e+001
9.410490e+002, 8.379052e+001
9.415311e+002, 7.968415e+001
9.420132e+002, 7.588524e+001
9.424953e+002, 7.243471e+001
9.429774e+002, 6.945072e+001
9.434595e+002, 6.719195e+001
9.439417e+002, 6.544028e+001
9.444238e+002, 6.367104e+001
9.449059e+002, 6.173937e+001
9.453880e+002, 5.994560e+001
9.458701e+002, 5.835038e+001
9.463522e+002, 5.696275e+001
9.468344e+002, 5.579189e+001
9.473165e+002, 5.484655e+001
9.477986e+002, 5.424438e+001
9.482807e+002, 5.391430e+001
9.487628e+002, 5.347479e+001
9.492449e+002, 5.263234e+001
9.497271e+002, 5.184539e+001
9.502092e+002, 5.168755e+001
9.506913e+002, 5.178624e+001
9.511734e+002, 5.150861e+001
9.516555e+002, 5.094322e+001
9.521376e+002, 5.055068e+001
9.526198e+002, 5.047865e+001
9.531019e+002, 5.048559e+001
9.535840e+002, 5.034308e+001
9.540661e+002, 5.010979e+001
9.545482e+002, 4.982850e+001
9.550303e+002, 4.955524e+001
9.555124e+002, 4.983596e+001
9.559945e+002, 5.074360e+001
9.564766e+002, 5.121438e+001
9.569587e+002, 5.061868e+001
9.574409e+002, 4.961184e+001
9.579230e+002, 4.925066e+001
9.584051e+002, 4.952075e+001
9.588872e+002, 4.972266e+001
9.593693e+002, 4.983428e+001
9.598514e+002, 4.998331e+001
9.603336e+002, 5.022479e+001
9.608157e+002, 5.044276e+001
9.612978e+002, 5.052960e+001
9.617799e+002, 5.053805e+001
9.622620e+002, 5.060347e+001
9.627441e+002, 5.067900e+001
9.632263e+002, 5.096097e+001
9.637084e+002, 5.175566e+001
9.641905e+002, 5.233837e+001
9.646726e+002, 5.239063e+001
9.651547e+002, 5.226252e+001
9.656368e+002, 5.224736e+001
9.661190e+002, 5.231761e+001
9.666011e+002, 5.230219e+001
9.670832e+002, 5.209863e+001
9.675653e+002, 5.197465e+001
9.680474e+002, 5.209694e+001
9.685295e+002, 5.219489e+001
9.690117e+002, 5.208165e+001
9.694938e+002, 5.186819e+001
9.699759e+002, 5.171505e+001
9.704580e+002, 5.163432e+001
9.709401e+002, 5.151606e+001
9.714222e+002, 5.122709e+001
9.719044e+002, 5.102778e+001
9.723865e+002, 5.122771e+001
9.728686e+002, 5.148646e+001
9.733507e+002, 5.137568e+001
9.738328e+002, 5.103065e+001
9.743149e+002, 5.084114e+001
9.747971e+002, 5.091142e+001
9.752792e+002, 5.098714e+001
9.757613e+002, 5.082640e+001
9.762434e+002, 5.060724e+001
9.767255e+002, 5.060203e+001
9.772076e+002, 5.070919e+001
9.776898e+002, 5.065307e+001
9.781719e+002, 5.046115e+001
9.786540e+002, 5.046172e+001
9.791361e+002, 5.080975e+001
9.796182e+002, 5.124894e+001
9.801003e+002, 5.150867e+001
9.805825e+002, 5.158725e+001
9.810646e+002, 5.137133e+001
9.815467e+002, 5.091726e+001
9.820288e+002, 5.070621e+001
9.825109e+002, 5.083352e+001
9.829930e+002, 5.106221e+001
9.834752e+002, 5.126243e+001
9.839573e+002, 5.135604e+001
9.844394e+002, 5.112959e+001
9.849215e+002, 5.057954e+001
9.854036e+002, 5.033165e+001
9.858857e+002, 5.044273e+001
9.863679e+002, 5.051232e+001
9.868500e+002, 5.040934e+001
9.873321e+002, 5.033609e+001
9.878142e+002, 5.049465e+001
9.882963e+002, 5.077349e+001
9.887784e+002, 5.081095e+001
9.892606e+002, 5.053095e+001
9.897427e+002, 5.027308e+001
9.902248e+002, 5.002064e+001
9.907069e+002, 4.982977e+001
9.911890e+002, 4.981822e+001
9.916711e+002, 4.975973e+001
9.921533e+002, 4.933610e+001
9.926354e+002, 4.864732e+001
9.931175e+002, 4.830444e+001
9.935996e+002, 4.863118e+001
9.940817e+002, 4.872114e+001
9.945638e+002, 4.839489e+001
9.950460e+002, 4.802964e+001
9.955281e+002, 4.777268e+001
9.960102e+002, 4.754816e+001
9.964923e+002, 4.722083e+001
9.969744e+002, 4.682155e+001
9.974565e+002, 4.661302e+001
9.979387e+002, 4.682185e+001
9.984208e+002, 4.692952e+001
9.989029e+002, 4.680499e+001
9.993850e+002, 4.654143e+001
9.998671e+002, 4.606727e+001
1.000349e+003, 4.556008e+001
1.000831e+003, 4.528089e+001
1.001313e+003, 4.524507e+001
1.001796e+003, 4.523305e+001
1.002278e+003, 4.520392e+001
1.002760e+003, 4.510328e+001
1.003242e+003, 4.484102e+001
1.003724e+003, 4.454702e+001
1.004206e+003, 4.429242e+001
1.004688e+003, 4.411733e+001
1.005170e+003, 4.411784e+001
1.005653e+003, 4.429062e+001
1.006135e+003, 4.439192e+001
1.006617e+003, 4.419484e+001
1.007099e+003, 4.396105e+001
1.007581e+003, 4.395607e+001
1.008063e+003, 4.405626e+001
1.008545e+003, 4.414147e+001
1.009027e+003, 4.416355e+001
1.009509e+003, 4.398623e+001
1.009992e+003, 4.358956e+001
1.010474e+003, 4.331139e+001
1.010956e+003, 4.355764e+001
1.011438e+003, 4.397514e+001
1.011920e+003, 4.400689e+001
1.012402e+003, 4.379968e+001
1.012884e+003, 4.366881e+001
1.013366e+003, 4.365338e+001
1.013849e+003, 4.372046e+001
1.014331e+003, 4.385303e+001
1.014813e+003, 4.397583e+001
1.015295e+003, 4.399095e+001
1.015777e+003, 4.394470e+001
1.016259e+003, 4.394978e+001
1.016741e+003, 4.399878e+001
1.017223e+003, 4.406465e+001
1.017705e+003, 4.414042e+001
1.018188e+003, 4.418541e+001
1.018670e+003, 4.417350e+001
1.019152e+003, 4.422132e+001
1.019634e+003, 4.456539e+001
1.020116e+003, 4.508609e+001
1.020598e+003, 4.511327e+001
1.021080e+003, 4.467186e+001
1.021562e+003, 4.444122e+001
1.022044e+003, 4.454333e+001
1.022527e+003, 4.480048e+001
1.023009e+003, 4.513413e+001
1.023491e+003, 4.545368e+001
1.023973e+003, 4.562619e+001
1.024455e+003, 4.565050e+001
1.024937e+003, 4.544567e+001
1.025419e+003, 4.496010e+001
1.025901e+003, 4.472912e+001
1.026384e+003, 4.491451e+001
1.026866e+003, 4.506477e+001
1.027348e+003, 4.487108e+001
1.027830e+003, 4.453231e+001
1.028312e+003, 4.442492e+001
1.028794e+003, 4.455989e+001
1.029276e+003, 4.463847e+001
1.029758e+003, 4.464445e+001
1.030240e+003, 4.465993e+001
1.030723e+003, 4.472836e+001
1.031205e+003, 4.473494e+001
1.031687e+003, 4.456238e+001
1.032169e+003, 4.432494e+001
1.032651e+003, 4.425930e+001
1.033133e+003, 4.438539e+001
1.033615e+003, 4.453014e+001
1.034097e+003, 4.480630e+001
1.034579e+003, 4.483686e+001
1.035062e+003, 4.439061e+001
1.035544e+003, 4.392162e+001
1.036026e+003, 4.370026e+001
1.036508e+003, 4.368020e+001
1.036990e+003, 4.380617e+001
1.037472e+003, 4.414221e+001
1.037954e+003, 4.425276e+001
1.038436e+003, 4.380723e+001
1.038919e+003, 4.367245e+001
1.039401e+003, 4.431731e+001
1.039883e+003, 4.496403e+001
1.040365e+003, 4.509607e+001
1.040847e+003, 4.488555e+001
1.041329e+003, 4.468618e+001
1.041811e+003, 4.450873e+001
1.042293e+003, 4.428412e+001
1.042776e+003, 4.385351e+001
1.043258e+003, 4.359651e+001
1.043740e+003, 4.370330e+001
1.044222e+003, 4.388445e+001
1.044704e+003, 4.398621e+001
1.045186e+003, 4.401973e+001
1.045668e+003, 4.399964e+001
1.046150e+003, 4.391279e+001
1.046632e+003, 4.387487e+001
1.047115e+003, 4.396400e+001
1.047597e+003, 4.401216e+001
1.048079e+003, 4.386196e+001
1.048561e+003, 4.377121e+001
1.049043e+003, 4.398406e+001
1.049525e+003, 4.435803e+001
1.050007e+003, 4.462759e+001
1.050489e+003, 4.475770e+001
1.050971e+003, 4.483452e+001
1.051454e+003, 4.473949e+001
1.051936e+003, 4.477636e+001
1.052418e+003, 4.526249e+001
1.052900e+003, 4.569191e+001
1.053382e+003, 4.549187e+001
1.053864e+003, 4.505190e+001
1.054346e+003, 4.517167e+001
1.054828e+003, 4.597923e+001
1.055311e+003, 4.664693e+001
1.055793e+003, 4.682309e+001
1.056275e+003, 4.700689e+001
1.056757e+003, 4.735201e+001
1.057239e+003, 4.778302e+001
1.057721e+003, 4.824916e+001
1.058203e+003, 4.875431e+001
1.058685e+003, 4.929269e+001
1.059167e+003, 4.986740e+001
1.059650e+003, 5.059569e+001
1.060132e+003, 5.160983e+001
1.060614e+003, 5.265785e+001
1.061096e+003, 5.349400e+001
1.061578e+003, 5.447903e+001
1.062060e+003, 5.597991e+001
1.062542e+003, 5.778771e+001
1.063024e+003, 5.938799e+001
1.063506e+003, 6.076505e+001
1.063989e+003, 6.277053e+001
1.064471e+003, 6.612508e+001
1.064953e+003, 6.959358e+001
1.065435e+003, 7.247449e+001
1.065917e+003, 7.547065e+001
1.066399e+003, 7.892997e+001
1.066881e+003, 8.296674e+001
1.067363e+003, 8.766032e+001
1.067846e+003, 9.300650e+001
1.068328e+003, 9.898837e+001
1.068810e+003, 1.056315e+002
1.069292e+003, 1.128481e+002
1.069774e+003, 1.202446e+002
1.070256e+003, 1.285615e+002
1.070738e+003, 1.381769e+002
1.071220e+003, 1.491880e+002
1.071703e+003, 1.619111e+002
1.072185e+003, 1.762534e+002
1.072667e+003, 1.917276e+002
1.073149e+003, 2.080503e+002
1.073631e+003, 2.256532e+002
1.074113e+003, 2.460320e+002
1.074595e+003, 2.664269e+002
1.075077e+003, 2.856605e+002
1.075559e+003, 3.031744e+002
1.076042e+003, 3.184936e+002
1.076524e+003, 3.316313e+002
1.077006e+003, 3.429896e+002
1.077488e+003, 3.527918e+002
1.077970e+003, 3.606964e+002
1.078452e+003, 3.664893e+002
1.078934e+003, 3.704432e+002
1.079416e+003, 3.721323e+002
1.079898e+003, 3.725627e+002
1.080380e+003, 3.728836e+002
1.080863e+003, 3.730735e+002
1.081345e+003, 3.724339e+002
1.081827e+003, 3.706145e+002
1.082309e+003, 3.686533e+002
1.082791e+003, 3.685725e+002
1.083273e+003, 3.666693e+002
1.083755e+003, 3.611196e+002
1.084237e+003, 3.522298e+002
1.084720e+003, 3.402196e+002
1.085202e+003, 3.253100e+002
1.085684e+003, 3.075502e+002
1.086166e+003, 2.868470e+002
1.086648e+003, 2.647603e+002
1.087130e+003, 2.407097e+002
1.087612e+003, 2.170110e+002
1.088094e+003, 1.939056e+002
1.088577e+003, 1.722417e+002
1.089059e+003, 1.526982e+002
1.089541e+003, 1.352442e+002
1.090023e+003, 1.199194e+002
1.090505e+003, 1.066066e+002
1.090987e+003, 9.516868e+001
1.091469e+003, 8.569070e+001
1.091951e+003, 7.777937e+001
1.092433e+003, 7.163988e+001
1.092916e+003, 6.662307e+001
1.093398e+003, 6.243422e+001
1.093880e+003, 5.898750e+001
1.094362e+003, 5.634819e+001
1.094844e+003, 5.447546e+001
1.095326e+003, 5.277756e+001
1.095808e+003, 5.103272e+001
1.096290e+003, 4.950268e+001
1.096772e+003, 4.841565e+001
1.097255e+003, 4.741822e+001
1.097737e+003, 4.612900e+001
1.098219e+003, 4.487487e+001
1.098701e+003, 4.418382e+001
1.099183e+003, 4.401379e+001
1.099665e+003, 4.374411e+001
1.100147e+003, 4.319086e+001
1.100629e+003, 4.261581e+001
1.101112e+003, 4.195897e+001
1.101594e+003, 4.144900e+001
1.102076e+003, 4.132198e+001
1.102558e+003, 4.130156e+001
1.103040e+003, 4.104209e+001
1.103522e+003, 4.062310e+001
1.104004e+003, 4.044030e+001
1.104486e+003, 4.067022e+001
1.104969e+003, 4.075142e+001
1.105451e+003, 4.043848e+001
1.105933e+003, 4.015286e+001
1.106415e+003, 4.013361e+001
1.106897e+003, 4.011360e+001
1.107379e+003, 3.982463e+001
1.107861e+003, 3.937508e+001
1.108343e+003, 3.904913e+001
1.108825e+003, 3.888791e+001
1.109307e+003, 3.872766e+001
1.109790e+003, 3.851249e+001
1.110272e+003, 3.835637e+001
1.110754e+003, 3.824968e+001
1.111236e+003, 3.824330e+001
1.111718e+003, 3.851424e+001
1.112200e+003, 3.883660e+001
1.112682e+003, 3.877213e+001
1.113164e+003, 3.828767e+001
1.113647e+003, 3.805177e+001
1.114129e+003, 3.836217e+001
1.114611e+003, 3.842163e+001
1.115093e+003, 3.790318e+001
1.115575e+003, 3.750398e+001
1.116057e+003, 3.760657e+001
1.116539e+003, 3.789735e+001
1.117021e+003, 3.807633e+001
1.117504e+003, 3.812957e+001
1.117986e+003, 3.792241e+001
1.118468e+003, 3.714967e+001
1.118950e+003, 3.687275e+001
1.119432e+003, 3.739254e+001
1.119914e+003, 3.781793e+001
1.120396e+003, 3.782331e+001
1.120878e+003, 3.772755e+001
1.121360e+003, 3.783880e+001
1.121843e+003, 3.803198e+001
1.122325e+003, 3.790184e+001
1.122807e+003, 3.734906e+001
1.123289e+003, 3.710570e+001
1.123771e+003, 3.728549e+001
1.124253e+003, 3.737309e+001
1.124735e+003, 3.722099e+001
1.125217e+003, 3.707030e+001
1.125699e+003, 3.706290e+001
1.126182e+003, 3.718044e+001
1.126664e+003, 3.744380e+001
1.127146e+003, 3.782560e+001
1.127628e+003, 3.774409e+001
1.128110e+003, 3.711974e+001
1.128592e+003, 3.676847e+001
1.129074e+003, 3.682091e+001
1.129556e+003, 3.699017e+001
1.130039e+003, 3.716906e+001
1.130521e+003, 3.727436e+001
1.131003e+003, 3.719123e+001
1.131485e+003, 3.698735e+001
1.131967e+003, 3.688855e+001
1.132449e+003, 3.689386e+001
1.132931e+003, 3.703120e+001
1.133413e+003, 3.729539e+001
1.133896e+003, 3.741314e+001
1.134378e+003, 3.730140e+001
1.134860e+003, 3.718256e+001
1.135342e+003, 3.723729e+001
1.135824e+003, 3.734449e+001
1.136306e+003, 3.725307e+001
1.136788e+003, 3.702972e+001
1.137270e+003, 3.694798e+001
1.137752e+003, 3.697951e+001
1.138234e+003, 3.695552e+001
1.138717e+003, 3.685683e+001
1.139199e+003, 3.681068e+001
1.139681e+003, 3.688257e+001
1.140163e+003, 3.693732e+001
1.140645e+003, 3.672871e+001
1.141127e+003, 3.649178e+001
1.141609e+003, 3.678467e+001
1.142091e+003, 3.733270e+001
1.142574e+003, 3.751715e+001
1.143056e+003, 3.736275e+001
1.143538e+003, 3.716733e+001
1.144020e+003, 3.704272e+001
1.144502e+003, 3.702826e+001
1.144984e+003, 3.720715e+001
1.145466e+003, 3.737336e+001
1.145948e+003, 3.723724e+001
1.146431e+003, 3.702364e+001
1.146913e+003, 3.701916e+001
1.147395e+003, 3.715399e+001
1.147877e+003, 3.730325e+001
1.148359e+003, 3.742324e+001
1.148841e+003, 3.745122e+001
1.149323e+003, 3.733550e+001
1.149805e+003, 3.728492e+001
1.150287e+003, 3.754481e+001
1.150770e+003, 3.778759e+001
1.151252e+003, 3.771667e+001
1.151734e+003, 3.755214e+001
1.152216e+003, 3.758465e+001
1.152698e+003, 3.771529e+001
1.153180e+003, 3.760326e+001
1.153662e+003, 3.718029e+001
1.154144e+003, 3.697918e+001
1.154626e+003, 3.744452e+001
1.155109e+003, 3.778054e+001
1.155591e+003, 3.759221e+001
1.156073e+003, 3.734175e+001
1.156555e+003, 3.731266e+001
1.157037e+003, 3.739436e+001
1.157519e+003, 3.746793e+001
1.158001e+003, 3.750826e+001
1.158483e+003, 3.742078e+001
1.158966e+003, 3.709298e+001
1.159448e+003, 3.685900e+001
1.159930e+003, 3.672778e+001
1.160412e+003, 3.671037e+001
1.160894e+003, 3.690306e+001
1.161376e+003, 3.710321e+001
1.161858e+003, 3.713419e+001
1.162340e+003, 3.708273e+001
1.162822e+003, 3.714321e+001
1.163305e+003, 3.732869e+001
1.163787e+003, 3.749011e+001
1.164269e+003, 3.763894e+001
1.164751e+003, 3.772813e+001
1.165233e+003, 3.774809e+001
1.165715e+003, 3.769934e+001
1.166197e+003, 3.753524e+001
1.166679e+003, 3.743339e+001
1.167161e+003, 3.763744e+001
1.167644e+003, 3.804414e+001
1.168126e+003, 3.821120e+001
1.168608e+003, 3.812892e+001
1.169090e+003, 3.809957e+001
1.169572e+003, 3.813601e+001
1.170054e+003, 3.823040e+001
1.170536e+003, 3.838194e+001
1.171018e+003, 3.851183e+001
1.171500e+003, 3.855980e+001
1.171983e+003, 3.860080e+001
1.172465e+003, 3.878754e+001
1.172947e+003, 3.905370e+001
1.173429e+003, 3.909898e+001
1.173911e+003, 3.902925e+001
1.174393e+003, 3.935221e+001
1.174875e+003, 4.001612e+001
1.175357e+003, 4.039208e+001
1.175840e+003, 4.026775e+001
1.176322e+003, 4.011616e+001
1.176804e+003, 4.032940e+001
1.177286e+003, 4.070601e+001
1.177768e+003, 4.104000e+001
1.178250e+003, 4.134501e+001
1.178732e+003, 4.160147e+001
1.179214e+003, 4.186168e+001
1.179697e+003, 4.228446e+001
1.180179e+003, 4.282539e+001
1.180661e+003, 4.317138e+001
1.181143e+003, 4.315920e+001
1.181625e+003, 4.322284e+001
1.182107e+003, 4.372057e+001
1.182589e+003, 4.426524e+001
1.183071e+003, 4.459306e+001
1.183553e+003, 4.485474e+001
1.184036e+003, 4.516778e+001
1.184518e+003, 4.554201e+001
1.185000e+003, 4.601772e+001
1.185482e+003, 4.658467e+001
1.185964e+003, 4.699783e+001
1.186446e+003, 4.719410e+001
1.186928e+003, 4.724929e+001
1.187410e+003, 4.709813e+001
1.187892e+003, 4.690591e+001
1.188375e+003, 4.664095e+001
1.188857e+003, 4.645882e+001
1.189339e+003, 4.662433e+001
1.189821e+003, 4.694989e+001
1.190303e+003, 4.685785e+001
1.190785e+003, 4.624546e+001
1.191267e+003, 4.583290e+001
1.191749e+003, 4.569898e+001
1.192232e+003, 4.555137e+001
1.192714e+003, 4.535272e+001
1.193196e+003, 4.511115e+001
1.193678e+003, 4.482811e+001
1.194160e+003, 4.450532e+001
1.194642e+003, 4.412825e+001
1.195124e+003, 4.373606e+001
1.195606e+003, 4.352678e+001
1.196089e+003, 4.348838e+001
1.196571e+003, 4.327061e+001
1.197053e+003, 4.286924e+001
1.197535e+003, 4.252400e+001
1.198017e+003, 4.229278e+001
1.198499e+003, 4.204149e+001
1.198981e+003, 4.168164e+001
1.199463e+003, 4.134624e+001
1.199945e+003, 4.124620e+001
1.200427e+003, 4.127013e+001
1.200910e+003, 4.125353e+001
1.201392e+003, 4.115937e+001
1.201874e+003, 4.081330e+001
1.202356e+003, 4.032410e+001
1.202838e+003, 4.005677e+001
1.203320e+003, 4.008440e+001
1.203802e+003, 4.013933e+001
1.204284e+003, 4.006216e+001
1.204767e+003, 3.997697e+001
1.205249e+003, 4.002850e+001
1.205731e+003, 4.005674e+001
1.206213e+003, 3.982050e+001
1.206695e+003, 3.956481e+001
1.207177e+003, 3.963763e+001
1.207659e+003, 3.994048e+001
1.208141e+003, 4.014158e+001
1.208624e+003, 4.017014e+001
1.209106e+003, 4.020100e+001
1.209588e+003, 4.038873e+001
1.210070e+003, 4.041271e+001
1.210552e+003, 4.004309e+001
1.211034e+003, 3.968795e+001
1.211516e+003, 3.948502e+001
1.211998e+003, 3.945422e+001
1.212480e+003, 3.970440e+001
1.212963e+003, 4.012801e+001
1.213445e+003, 4.030492e+001
1.213927e+003, 4.018336e+001
1.214409e+003, 4.007312e+001
1.214891e+003, 3.998570e+001
1.215373e+003, 3.984663e+001
1.215855e+003, 3.961683e+001
1.216337e+003, 3.946119e+001
1.216819e+003, 3.947372e+001
1.217302e+003, 3.957751e+001
1.217784e+003, 3.970646e+001
1.218266e+003, 3.980624e+001
1.218748e+003, 3.961638e+001
1.219230e+003, 3.923792e+001
1.219712e+003, 3.920815e+001
1.220194e+003, 3.949943e+001
1.220676e+003, 3.985371e+001
1.221159e+003, 4.018406e+001
1.221641e+003, 4.036607e+001
1.222123e+003, 4.032591e+001
1.222605e+003, 4.031300e+001
1.223087e+003, 4.069116e+001
1.223569e+003, 4.111483e+001
1.224051e+003, 4.116101e+001
1.224533e+003, 4.103176e+001
1.225016e+003, 4.090389e+001
1.225498e+003, 4.085147e+001
1.225980e+003, 4.103651e+001
1.226462e+003, 4.141530e+001
1.226944e+003, 4.159176e+001
1.227426e+003, 4.131006e+001
1.227908e+003, 4.116499e+001
1.228390e+003, 4.156366e+001
1.228872e+003, 4.187140e+001
1.229354e+003, 4.164066e+001
1.229837e+003, 4.139385e+001
1.230319e+003, 4.159144e+001
1.230801e+003, 4.203553e+001
1.231283e+003, 4.243646e+001
1.231765e+003, 4.278446e+001
1.232247e+003, 4.263680e+001
1.232729e+003, 4.163787e+001
1.233211e+003, 4.132150e+001
1.233694e+003, 4.204240e+001
1.234176e+003, 4.234519e+001
1.234658e+003, 4.167849e+001
1.235140e+003, 4.103288e+001
1.235622e+003, 4.115569e+001
1.236104e+003, 4.158438e+001
1.236586e+003, 4.149391e+001
1.237068e+003, 4.104687e+001
1.237551e+003, 4.093372e+001
1.238033e+003, 4.108736e+001
1.238515e+003, 4.123951e+001
1.238997e+003, 4.135299e+001
1.239479e+003, 4.141765e+001
1.239961e+003, 4.143466e+001
1.240443e+003, 4.142788e+001
1.240925e+003, 4.140663e+001
1.241407e+003, 4.139709e+001
1.241890e+003, 4.139980e+001
1.242372e+003, 4.145214e+001
1.242854e+003, 4.163035e+001
1.243336e+003, 4.184954e+001
1.243818e+003, 4.200171e+001
1.244300e+003, 4.211116e+001
1.244782e+003, 4.226085e+001
1.245264e+003, 4.245939e+001
1.245746e+003, 4.261188e+001
1.246229e+003, 4.264927e+001
1.246711e+003, 4.272082e+001
1.247193e+003, 4.294990e+001
1.247675e+003, 4.308103e+001
1.248157e+003, 4.290543e+001
1.248639e+003, 4.275394e+001
1.249121e+003, 4.287695e+001
1.249603e+003, 4.315813e+001
1.250085e+003, 4.341010e+001
1.250568e+003, 4.362679e+001
1.251050e+003, 4.368325e+001
1.251532e+003, 4.355205e+001
1.252014e+003, 4.357613e+001
1.252496e+003, 4.378724e+001
1.252978e+003, 4.399735e+001
1.253460e+003, 4.414964e+001
1.253942e+003, 4.421766e+001
1.254425e+003, 4.417702e+001
1.254907e+003, 4.410639e+001
1.255389e+003, 4.410669e+001
1.255871e+003, 4.415880e+001
1.256353e+003, 4.419952e+001
1.256835e+003, 4.428068e+001
1.257317e+003, 4.459988e+001
1.257799e+003, 4.501461e+001
1.258281e+003, 4.511990e+001
1.258764e+003, 4.489166e+001
1.259246e+003, 4.472377e+001
1.259728e+003, 4.477022e+001
1.260210e+003, 4.494598e+001
1.260692e+003, 4.531118e+001
1.261174e+003, 4.566506e+001
1.261656e+003, 4.589704e+001
1.262138e+003, 4.609865e+001
1.262620e+003, 4.639123e+001
1.263103e+003, 4.667139e+001
1.263585e+003, 4.673302e+001
1.264067e+003, 4.661253e+001
1.264549e+003, 4.662641e+001
1.265031e+003, 4.685684e+001
1.265513e+003, 4.689917e+001
1.265995e+003, 4.664996e+001
1.266477e+003, 4.671019e+001
1.266960e+003, 4.726324e+001
1.267442e+003, 4.780798e+001
1.267924e+003, 4.807316e+001
1.268406e+003, 4.812211e+001
1.268888e+003, 4.797517e+001
1.269370e+003, 4.777541e+001
1.269852e+003, 4.788667e+001
1.270334e+003, 4.819402e+001
1.270817e+003, 4.845057e+001
1.271299e+003, 4.863486e+001
1.271781e+003, 4.872108e+001
1.272263e+003, 4.873006e+001
1.272745e+003, 4.874030e+001
1.273227e+003, 4.878177e+001
1.273709e+003, 4.883071e+001
1.274191e+003, 4.884724e+001
1.274673e+003, 4.890419e+001
1.275156e+003, 4.901438e+001
1.275638e+003, 4.920451e+001
1.276120e+003, 4.961064e+001
1.276602e+003, 5.001405e+001
1.277084e+003, 5.017804e+001
1.277566e+003, 5.012651e+001
1.278048e+003, 4.993838e+001
1.278530e+003, 4.956982e+001
1.279012e+003, 4.948619e+001
1.279495e+003, 4.973848e+001
1.279977e+003, 5.010595e+001
1.280459e+003, 5.060114e+001
1.280941e+003, 5.104297e+001
1.281423e+003, 5.137112e+001
1.281905e+003, 5.155822e+001
1.282387e+003, 5.156097e+001
1.282869e+003, 5.154830e+001
1.283352e+003, 5.185093e+001
1.283834e+003, 5.232372e+001
1.284316e+003, 5.265128e+001
1.284798e+003, 5.283635e+001
##END=



