##NAMES=Derbylite
##RRUFFID=R070382
##IDEAL CHEMISTRY=Fe^3+^_4_Ti^4+^_3_Sb^3+^O_13_(OH)
##LOCALITY=Buca della Vena Mine,  Stazzema,  Apuan Alps,  Lucca Province,  Tuscany,  Italy
##OWNER=RRUFF
##SOURCE=Michael Scott
##DESCRIPTION=Black prismatic crystal in barite vug
##STATUS=The identification of this mineral has been confirmed only by single crystal X-ray diffraction.
##URL=rruff.info/R070382
149.4643, 544.1647
149.9464, 566.1694
150.4285, 587.4067
150.9106, 602.4011
151.3928, 610.4883
151.8749, 612.5402
152.3570, 603.2824
152.8391, 591.1822
153.3212, 584.3162
153.8033, 583.3886
154.2855, 583.3216
154.7676, 580.0623
155.2497, 574.2399
155.7318, 568.6447
156.2139, 563.7963
156.6960, 559.3335
157.1782, 554.4722
157.6603, 548.9664
158.1424, 544.5153
158.6245, 542.8128
159.1066, 543.2433
159.5887, 544.6838
160.0709, 549.1494
160.5530, 553.6246
161.0351, 552.7894
161.5172, 545.2128
161.9993, 537.2795
162.4814, 532.8912
162.9636, 531.3753
163.4457, 532.1697
163.9278, 537.7560
164.4099, 544.8228
164.8920, 546.6337
165.3741, 541.4643
165.8563, 535.8392
166.3384, 532.7209
166.8205, 531.9625
167.3026, 533.9436
167.7847, 541.4480
168.2668, 550.9694
168.7490, 553.9462
169.2311, 547.2660
169.7132, 541.0831
170.1953, 542.7167
170.6774, 548.0868
171.1595, 550.5416
171.6417, 545.0200
172.1238, 535.4755
172.6059, 532.9047
173.0880, 541.9133
173.5701, 548.6006
174.0522, 545.2283
174.5344, 536.2265
175.0165, 527.5078
175.4986, 520.9368
175.9807, 517.0655
176.4628, 518.4169
176.9449, 529.4072
177.4271, 537.3649
177.9092, 535.1036
178.3913, 527.8982
178.8734, 522.9683
179.3555, 524.2877
179.8376, 529.6878
180.3197, 532.5895
180.8019, 531.2424
181.2840, 530.4413
181.7661, 531.5352
182.2482, 533.9941
182.7303, 537.3520
183.2124, 541.5983
183.6946, 546.2582
184.1767, 549.9357
184.6588, 552.1479
185.1409, 554.1110
185.6230, 556.4459
186.1051, 558.6571
186.5873, 560.2791
187.0694, 561.1470
187.5515, 561.1472
188.0336, 559.3725
188.5157, 552.4186
188.9978, 549.9723
189.4800, 558.9111
189.9621, 570.6791
190.4442, 575.8435
190.9263, 569.8463
191.4084, 557.2415
191.8905, 548.8307
192.3727, 545.6611
192.8548, 545.3024
193.3369, 549.3151
193.8190, 554.4738
194.3011, 557.5364
194.7832, 557.1955
195.2654, 554.9214
195.7475, 554.1866
196.2296, 557.3511
196.7117, 557.4103
197.1938, 550.4787
197.6759, 542.2128
198.1581, 537.9294
198.6402, 539.3409
199.1223, 543.5720
199.6044, 545.1630
200.0865, 542.2260
200.5686, 540.3677
201.0508, 540.2539
201.5329, 541.0752
202.0150, 543.3165
202.4971, 546.7867
202.9792, 549.0489
203.4613, 544.7760
203.9435, 527.0712
204.4256, 518.8113
204.9077, 527.0115
205.3898, 539.2371
205.8719, 548.2104
206.3540, 552.0360
206.8362, 552.1487
207.3183, 550.1838
207.8004, 545.5234
208.2825, 540.2670
208.7646, 530.8004
209.2467, 523.5189
209.7289, 524.6563
210.2110, 533.5084
210.6931, 542.4861
211.1752, 541.7115
211.6573, 527.1207
212.1395, 517.7729
212.6216, 516.6440
213.1037, 517.8153
213.5858, 519.4681
214.0679, 520.9861
214.5500, 521.9426
215.0322, 521.7126
215.5143, 519.9756
215.9964, 519.2114
216.4785, 519.7500
216.9606, 520.9324
217.4427, 522.8340
217.9249, 525.2332
218.4070, 527.6743
218.8891, 529.7557
219.3712, 531.4622
219.8533, 533.3688
220.3354, 534.6923
220.8176, 537.0317
221.2997, 543.7024
221.7818, 551.7194
222.2639, 554.7217
222.7460, 547.1715
223.2281, 530.5625
223.7103, 521.6613
224.1924, 526.7348
224.6745, 533.4274
225.1566, 541.0615
225.6387, 548.3303
226.1208, 553.7256
226.6030, 556.3406
227.0851, 556.4589
227.5672, 555.0202
228.0493, 548.7704
228.5314, 545.5153
229.0135, 549.4781
229.4957, 555.8766
229.9778, 559.1537
230.4599, 556.7608
230.9420, 550.6112
231.4241, 544.8826
231.9062, 537.2022
232.3884, 534.5986
232.8705, 541.9161
233.3526, 551.7165
233.8347, 557.1011
234.3168, 555.8762
234.7989, 551.8090
235.2811, 551.8184
235.7632, 558.9199
236.2453, 562.8699
236.7274, 561.6240
237.2095, 558.2414
237.6916, 553.5571
238.1738, 548.2266
238.6559, 544.1797
239.1380, 544.9530
239.6201, 553.0535
240.1022, 556.5743
240.5843, 550.0235
241.0665, 542.9705
241.5486, 539.9454
242.0307, 541.0391
242.5128, 543.6865
242.9949, 545.8079
243.4770, 547.4379
243.9592, 548.1182
244.4413, 547.1120
244.9234, 545.7733
245.4055, 544.2146
245.8876, 542.6924
246.3697, 541.8310
246.8519, 542.6960
247.3340, 544.8281
247.8161, 543.9171
248.2982, 537.7369
248.7803, 531.2930
249.2624, 523.8893
249.7446, 517.7531
250.2267, 517.1002
250.7088, 525.8019
251.1909, 539.6671
251.6730, 546.0662
252.1551, 541.2179
252.6373, 536.4437
253.1194, 534.7507
253.6015, 535.2502
254.0836, 537.8171
254.5657, 542.9956
255.0478, 547.9545
255.5300, 547.0786
256.0121, 538.2029
256.4942, 531.7471
256.9763, 531.7704
257.4584, 534.7961
257.9406, 539.0242
258.4227, 544.1352
258.9048, 549.3654
259.3869, 554.3516
259.8690, 559.1570
260.3511, 562.4343
260.8333, 564.8153
261.3154, 564.5133
261.7975, 558.7191
262.2796, 547.8771
262.7617, 538.3037
263.2438, 534.4619
263.7260, 535.7806
264.2081, 539.2596
264.6902, 545.7379
265.1723, 552.6570
265.6544, 557.4866
266.1365, 561.0245
266.6187, 565.9440
267.1008, 576.0935
267.5829, 588.0172
268.0650, 593.6370
268.5471, 591.2408
269.0292, 587.5219
269.5114, 586.4432
269.9935, 587.2291
270.4756, 588.8492
270.9577, 590.8848
271.4398, 593.7751
271.9219, 597.9049
272.4041, 603.2821
272.8862, 610.3552
273.3683, 621.3068
273.8504, 633.1196
274.3325, 640.0307
274.8146, 639.8060
275.2968, 638.2543
275.7789, 637.8898
276.2610, 639.0630
276.7431, 643.7163
277.2252, 653.6774
277.7073, 665.9551
278.1895, 675.1711
278.6716, 680.4644
279.1537, 687.1975
279.6358, 701.8335
280.1179, 718.1319
280.6000, 722.9723
281.0822, 712.0863
281.5643, 698.2942
282.0464, 697.5325
282.5285, 710.9134
283.0106, 723.0701
283.4927, 731.3186
283.9749, 738.2574
284.4570, 747.0087
284.9391, 757.5510
285.4212, 766.5873
285.9033, 771.4661
286.3854, 772.0156
286.8676, 770.6752
287.3497, 763.8365
287.8318, 758.7567
288.3139, 761.3129
288.7960, 768.7289
289.2781, 772.9623
289.7603, 769.0210
290.2424, 759.4316
290.7245, 754.9513
291.2066, 762.3400
291.6887, 766.1358
292.1708, 761.7852
292.6530, 753.3812
293.1351, 745.7141
293.6172, 740.4937
294.0993, 736.8800
294.5814, 733.4059
295.0635, 729.5613
295.5457, 726.9440
296.0278, 727.1740
296.5099, 727.3906
296.9920, 726.5375
297.4741, 723.9442
297.9562, 718.0069
298.4384, 705.8587
298.9205, 685.4199
299.4026, 673.3939
299.8847, 677.7747
300.3668, 682.3105
300.8489, 681.9204
301.3311, 677.2848
301.8131, 670.7278
302.2953, 663.4444
302.7774, 655.8295
303.2595, 649.9649
303.7416, 646.8057
304.2237, 644.1357
304.7058, 641.2448
305.1880, 638.6472
305.6701, 637.0544
306.1522, 636.7545
306.6343, 637.0395
307.1164, 637.2440
307.5985, 638.0437
308.0807, 636.2120
308.5628, 629.2480
309.0449, 620.7319
309.5270, 611.9182
310.0091, 603.1967
310.4912, 595.8669
310.9734, 591.5956
311.4555, 590.0903
311.9376, 588.1465
312.4197, 584.9266
312.9018, 582.2102
313.3839, 580.9552
313.8661, 580.9690
314.3482, 581.8864
314.8303, 585.3469
315.3124, 588.8217
315.7945, 586.7194
316.2766, 577.9369
316.7588, 570.0823
317.2409, 568.0067
317.7230, 569.3185
318.2051, 570.5177
318.6872, 572.7300
319.1693, 572.0797
319.6515, 561.7496
320.1336, 544.7841
320.6157, 535.5660
321.0978, 541.0693
321.5799, 553.1791
322.0620, 558.9050
322.5442, 557.5180
323.0263, 556.3224
323.5084, 559.9319
323.9905, 563.7982
324.4726, 560.5243
324.9547, 548.9019
325.4369, 536.4974
325.9190, 530.4706
326.4011, 531.5822
326.8832, 533.1240
327.3653, 534.9288
327.8474, 537.2969
328.3296, 542.3847
328.8117, 548.4661
329.2938, 549.9720
329.7759, 542.9579
330.2580, 530.0588
330.7401, 523.4617
331.2223, 529.5740
331.7044, 534.0601
332.1865, 534.7114
332.6686, 533.3666
333.1507, 531.4738
333.6328, 529.6462
334.1150, 528.6713
334.5971, 530.0021
335.0792, 535.0482
335.5613, 538.5516
336.0434, 540.3944
336.5255, 541.0124
337.0077, 539.9601
337.4898, 537.7448
337.9719, 535.6335
338.4540, 534.6376
338.9361, 534.6512
339.4182, 534.7078
339.9004, 534.5778
340.3825, 534.8664
340.8646, 533.5829
341.3467, 533.4991
341.8288, 539.6843
342.3109, 555.2788
342.7931, 571.8850
343.2752, 575.5851
343.7573, 564.4247
344.2394, 554.1967
344.7215, 548.9731
345.2036, 545.7802
345.6858, 542.4668
346.1679, 538.8909
346.6500, 535.2321
347.1321, 530.6844
347.6142, 526.1490
348.0963, 524.1104
348.5785, 524.9328
349.0606, 527.9517
349.5427, 535.2376
350.0248, 544.6513
350.5069, 549.3662
350.9890, 543.9194
351.4712, 536.7348
351.9533, 534.4166
352.4354, 536.4286
352.9175, 539.7342
353.3996, 542.8342
353.8817, 546.4316
354.3639, 553.4692
354.8460, 568.9444
355.3281, 577.0237
355.8102, 566.9436
356.2923, 550.8655
356.7744, 544.5436
357.2566, 550.8966
357.7387, 559.9138
358.2208, 559.6495
358.7029, 546.9578
359.1850, 542.9183
359.6671, 557.2853
360.1493, 569.3264
360.6314, 567.3724
361.1135, 555.8839
361.5956, 545.3788
362.0777, 541.9463
362.5598, 544.2913
363.0420, 547.8185
363.5241, 553.6157
364.0062, 558.8677
364.4883, 563.7288
364.9704, 567.6843
365.4525, 569.6623
365.9347, 569.6898
366.4168, 569.8478
366.8989, 573.7310
367.3810, 581.8781
367.8631, 584.9007
368.3452, 578.9407
368.8274, 571.7879
369.3095, 567.2761
369.7916, 564.7160
370.2737, 561.9612
370.7558, 555.4528
371.2379, 550.2566
371.7201, 558.6639
372.2022, 582.7725
372.6843, 599.8217
373.1664, 596.0228
373.6485, 581.8546
374.1306, 573.2545
374.6128, 571.1644
375.0949, 572.9077
375.5770, 580.4251
376.0591, 590.2623
376.5412, 594.6777
377.0233, 591.6285
377.5055, 586.8742
377.9876, 586.8959
378.4697, 592.3798
378.9518, 593.3818
379.4339, 583.0049
379.9160, 574.2157
380.3982, 577.7570
380.8803, 589.6367
381.3624, 597.4955
381.8445, 594.1957
382.3266, 583.9220
382.8087, 579.3626
383.2909, 587.7372
383.7730, 592.6074
384.2551, 591.6682
384.7372, 588.4124
385.2193, 584.9643
385.7014, 582.0632
386.1836, 580.2315
386.6657, 580.2928
387.1478, 582.3834
387.6299, 583.7567
388.1120, 584.5389
388.5941, 584.3503
389.0763, 581.7802
389.5584, 578.4985
390.0405, 577.5131
390.5226, 580.6992
391.0047, 584.9222
391.4868, 585.0444
391.9690, 580.7053
392.4511, 575.3250
392.9332, 566.3973
393.4153, 560.0855
393.8974, 564.8865
394.3795, 580.6174
394.8617, 591.3049
395.3438, 583.4395
395.8259, 567.4991
396.3080, 562.1489
396.7901, 569.5081
397.2722, 578.0500
397.7544, 579.9482
398.2365, 576.2120
398.7186, 573.5107
399.2007, 572.9229
399.6828, 572.1649
400.1649, 570.8229
400.6471, 568.6276
401.1292, 564.4098
401.6113, 557.7427
402.0934, 551.1713
402.5755, 548.6876
403.0576, 552.4888
403.5398, 553.7309
404.0219, 549.9757
404.5040, 546.3029
404.9861, 546.3216
405.4682, 548.6545
405.9503, 549.1911
406.4325, 544.9781
406.9146, 537.8536
407.3967, 534.8340
407.8788, 538.9830
408.3609, 540.9254
408.8430, 536.8651
409.3252, 531.3909
409.8073, 527.8889
410.2894, 526.9180
410.7715, 527.1984
411.2536, 527.4503
411.7357, 527.9497
412.2179, 530.5604
412.7000, 536.3925
413.1821, 541.9396
413.6642, 545.8116
414.1463, 547.5851
414.6284, 545.4382
415.1106, 535.2455
415.5927, 525.6703
416.0748, 523.5833
416.5569, 527.3385
417.0390, 532.3628
417.5211, 537.4670
418.0033, 541.9255
418.4854, 544.6226
418.9675, 545.2203
419.4496, 544.9159
419.9317, 542.2360
420.4138, 539.8963
420.8960, 540.3330
421.3781, 542.8579
421.8602, 544.8909
422.3423, 544.7188
422.8244, 542.8725
423.3065, 541.5386
423.7887, 539.7013
424.2708, 540.1414
424.7529, 544.7169
425.2350, 550.3951
425.7171, 555.5143
426.1992, 559.4503
426.6814, 561.1908
427.1635, 558.8088
427.6456, 552.7200
428.1277, 547.8709
428.6098, 543.6236
429.0919, 541.9298
429.5741, 546.9457
430.0562, 554.2489
430.5383, 556.8424
431.0204, 551.7271
431.5025, 544.5397
431.9846, 537.8378
432.4668, 532.5779
432.9489, 533.8898
433.4310, 544.9746
433.9131, 556.4041
434.3952, 555.6063
434.8773, 540.9416
435.3595, 531.3306
435.8416, 530.1212
436.3237, 532.1345
436.8058, 536.0621
437.2879, 540.6028
437.7701, 543.1105
438.2522, 542.1313
438.7343, 538.9254
439.2164, 536.4919
439.6985, 533.5928
440.1806, 533.9146
440.6628, 539.8985
441.1449, 546.7381
441.6270, 552.4305
442.1091, 556.2427
442.5912, 557.2317
443.0733, 553.8318
443.5555, 547.3658
444.0376, 543.3566
444.5197, 543.1187
445.0018, 541.6249
445.4839, 534.2504
445.9660, 526.0626
446.4482, 522.1147
446.9303, 523.2850
447.4124, 526.7375
447.8945, 532.6639
448.3766, 539.2816
448.8587, 542.8857
449.3409, 542.9620
449.8230, 540.3748
450.3051, 534.6903
450.7872, 526.5405
451.2693, 522.0250
451.7514, 525.0115
452.2336, 526.8458
452.7157, 522.5914
453.1978, 516.2408
453.6799, 513.8378
454.1620, 516.9745
454.6441, 522.0970
455.1263, 524.2625
455.6084, 522.3007
456.0905, 524.0024
456.5726, 537.8562
457.0547, 546.5980
457.5368, 541.2505
458.0190, 528.1575
458.5011, 517.3552
458.9832, 512.9809
459.4653, 512.7427
459.9474, 514.8853
460.4295, 519.4848
460.9117, 520.3090
461.3938, 513.8441
461.8759, 506.4250
462.3580, 504.6218
462.8401, 507.2384
463.3222, 507.9050
463.8044, 501.9981
464.2865, 495.6904
464.7686, 495.3107
465.2507, 499.5802
465.7328, 503.0335
466.2149, 503.2037
466.6971, 501.6838
467.1792, 501.6610
467.6613, 504.8616
468.1434, 505.8142
468.6255, 503.1713
469.1076, 499.5038
469.5898, 496.2766
470.0719, 493.4413
470.5540, 489.9764
471.0361, 484.8480
471.5182, 479.6505
472.0003, 479.9829
472.4825, 489.2034
472.9646, 494.7687
473.4467, 490.0721
473.9288, 483.6272
474.4109, 481.5359
474.8930, 483.6131
475.3752, 484.3979
475.8573, 478.1514
476.3394, 469.6599
476.8215, 467.7129
477.3036, 472.5608
477.7857, 478.7206
478.2679, 484.5205
478.7500, 489.0316
479.2321, 489.5180
479.7142, 484.3665
480.1963, 479.9553
480.6784, 477.4715
481.1606, 476.2572
481.6427, 476.0862
482.1248, 476.6994
482.6069, 477.3981
483.0890, 477.6403
483.5711, 477.5547
484.0533, 477.9685
484.5354, 480.0309
485.0175, 480.6297
485.4996, 478.0003
485.9817, 474.8539
486.4638, 467.3762
486.9460, 474.6245
487.4281, 478.6832
487.9102, 479.7235
488.3923, 468.7055
488.8744, 473.2584
489.3565, 471.5711
489.8387, 469.6280
490.3208, 476.3724
490.8029, 467.1083
491.2850, 473.7149
491.7671, 473.9862
492.2492, 477.1571
492.7314, 474.0492
493.2135, 472.8807
493.6956, 477.9928
494.1777, 479.6273
494.6598, 475.7967
495.1419, 479.1518
495.6241, 469.6683
496.1062, 471.4509
496.5883, 478.0943
497.0704, 474.5794
497.5525, 478.0493
498.0346, 478.8590
498.5168, 467.5792
498.9989, 477.3243
499.4810, 477.9768
499.9631, 469.2932
500.4452, 478.3180
500.9273, 470.9214
501.4095, 469.3863
501.8916, 472.2622
502.3737, 470.5397
502.8558, 476.0672
503.3379, 474.6103
503.8200, 472.5293
504.3022, 473.1716
504.7843, 466.0971
505.2664, 473.3389
505.7485, 470.8014
506.2306, 475.1136
506.7127, 478.2605
507.1949, 478.8940
507.6770, 477.5881
508.1591, 476.9013
508.6412, 478.6271
509.1233, 478.2439
509.6054, 473.5405
510.0876, 468.2715
510.5697, 464.6745
511.0518, 463.1393
511.5339, 463.5724
512.0161, 466.8258
512.4982, 471.4107
512.9803, 472.9183
513.4624, 470.8227
513.9445, 468.7077
514.4266, 467.4210
514.9088, 467.0831
515.3909, 468.2569
515.8730, 471.1669
516.3551, 472.7382
516.8372, 470.7554
517.3193, 467.9837
517.8015, 467.8332
518.2836, 469.4886
518.7657, 468.7698
519.2478, 463.1938
519.7299, 455.1453
520.2120, 450.3264
520.6942, 450.1692
521.1763, 450.6128
521.6584, 452.1410
522.1405, 453.7341
522.6226, 454.2232
523.1047, 454.3323
523.5869, 456.1344
524.0690, 461.3308
524.5511, 467.4096
525.0332, 470.7490
525.5153, 471.3477
525.9974, 468.3646
526.4796, 459.2286
526.9617, 450.3026
527.4438, 450.2254
527.9259, 457.7324
528.4080, 461.8530
528.8901, 458.5020
529.3723, 453.8919
529.8544, 449.4626
530.3365, 446.8464
530.8186, 450.8856
531.3007, 462.9509
531.7828, 475.1821
532.2650, 475.5792
532.7471, 461.1241
533.2292, 453.6904
533.7113, 458.5372
534.1934, 464.6847
534.6755, 471.9950
535.1577, 477.3784
535.6398, 475.5573
536.1219, 464.3124
536.6040, 452.5191
537.0861, 447.8448
537.5682, 449.2437
538.0504, 454.9167
538.5325, 465.4366
539.0146, 474.0577
539.4967, 475.5877
539.9788, 471.2010
540.4609, 466.9746
540.9431, 461.2246
541.4252, 457.8336
541.9073, 458.2856
542.3894, 460.9825
542.8715, 465.6318
543.3536, 471.3560
543.8358, 475.3477
544.3179, 474.9072
544.8000, 471.3963
545.2821, 471.0543
545.7642, 475.1723
546.2463, 478.9699
546.7285, 483.6115
547.2106, 485.5697
547.6927, 479.8394
548.1748, 467.2725
548.6569, 457.8521
549.1390, 458.4388
549.6211, 462.6270
550.1032, 463.2960
550.5853, 461.2174
551.0674, 460.3138
551.5496, 462.1451
552.0317, 465.9562
552.5138, 470.9120
552.9959, 478.4288
553.4780, 482.2004
553.9601, 480.6737
554.4423, 477.6597
554.9244, 472.4474
555.4065, 467.4496
555.8886, 466.9047
556.3707, 472.4893
556.8528, 479.2167
557.3350, 480.8587
557.8171, 478.0019
558.2992, 474.7930
558.7813, 470.6336
559.2634, 469.4409
559.7455, 476.6479
560.2277, 488.4506
560.7098, 492.5754
561.1919, 484.1975
561.6740, 476.4717
562.1561, 473.2802
562.6382, 472.9037
563.1204, 473.9791
563.6025, 476.0828
564.0846, 478.9508
564.5667, 482.6296
565.0488, 486.5516
565.5309, 488.3736
566.0131, 487.2269
566.4952, 486.1702
566.9773, 485.0645
567.4594, 484.7693
567.9415, 486.6796
568.4236, 490.1612
568.9058, 492.2965
569.3879, 489.4436
569.8700, 486.8882
570.3521, 492.6196
570.8342, 503.4934
571.3163, 508.1206
571.7985, 502.6801
572.2806, 493.4348
572.7627, 487.6411
573.2448, 485.5373
573.7269, 484.5403
574.2090, 485.4531
574.6912, 486.4432
575.1733, 486.3195
575.6554, 486.4214
576.1375, 488.9424
576.6196, 494.0857
577.1017, 498.7255
577.5839, 498.4839
578.0660, 495.4890
578.5481, 498.0118
579.0302, 506.9563
579.5123, 514.1129
579.9944, 514.5874
580.4766, 512.1014
580.9587, 514.2040
581.4408, 522.0153
581.9229, 528.7152
582.4050, 535.6039
582.8871, 539.0464
583.3693, 532.5004
583.8514, 521.0844
584.3335, 517.2472
584.8156, 526.8090
585.2977, 539.6895
585.7798, 537.6581
586.2620, 518.7669
586.7441, 508.2968
587.2262, 510.7229
587.7083, 516.1805
588.1904, 521.0186
588.6725, 524.6581
589.1547, 525.2357
589.6368, 520.2463
590.1189, 518.2283
590.6010, 526.8709
591.0831, 538.8624
591.5652, 544.9770
592.0474, 544.7049
592.5295, 541.7070
593.0116, 538.0772
593.4937, 534.3536
593.9758, 531.9991
594.4579, 530.5198
594.9401, 531.6144
595.4222, 539.7448
595.9043, 546.5310
596.3864, 546.6303
596.8685, 542.0281
597.3506, 537.7405
597.8328, 534.4735
598.3149, 534.3608
598.7970, 542.7892
599.2791, 555.5948
599.7612, 560.7643
600.2433, 555.9767
600.7255, 550.1627
601.2076, 550.9716
601.6897, 557.4991
602.1718, 562.3649
602.6539, 564.6579
603.1360, 566.4316
603.6182, 568.9407
604.1003, 570.1332
604.5824, 567.1282
605.0645, 561.0465
605.5466, 556.6810
606.0287, 557.6461
606.5109, 560.6058
606.9930, 559.5741
607.4751, 555.3341
607.9572, 554.6248
608.4393, 559.7628
608.9214, 566.3798
609.4036, 570.6041
609.8857, 572.4100
610.3678, 571.5873
610.8499, 564.7706
611.3320, 559.8469
611.8141, 559.3217
612.2963, 561.1216
612.7784, 563.9163
613.2605, 567.0383
613.7426, 569.2401
614.2247, 569.0389
614.7068, 567.6974
615.1890, 568.0873
615.6711, 570.2053
616.1532, 574.8439
616.6353, 584.1913
617.1174, 592.5463
617.5995, 591.8251
618.0817, 581.7987
618.5638, 576.8691
619.0459, 582.6915
619.5280, 587.7921
620.0101, 586.2915
620.4922, 582.3033
620.9744, 580.7965
621.4565, 582.8505
621.9386, 587.1730
622.4207, 593.9921
622.9028, 601.5654
623.3849, 601.9072
623.8671, 593.6226
624.3492, 585.9512
624.8313, 580.3120
625.3134, 578.0024
625.7955, 583.0983
626.2776, 595.0860
626.7598, 601.9049
627.2419, 597.5639
627.7240, 592.3559
628.2061, 589.7278
628.6882, 590.2084
629.1703, 596.3955
629.6525, 607.7148
630.1346, 617.0713
630.6167, 616.7845
631.0988, 608.6505
631.5809, 602.8971
632.0630, 600.2538
632.5452, 596.8063
633.0273, 588.9910
633.5094, 582.2090
633.9915, 584.6083
634.4736, 595.5236
634.9557, 601.0950
635.4379, 593.3973
635.9200, 585.1057
636.4021, 583.7188
636.8842, 586.2562
637.3663, 588.3672
637.8484, 588.7460
638.3306, 587.2452
638.8127, 582.3972
639.2948, 575.7692
639.7769, 579.1891
640.2590, 597.5392
640.7411, 608.1929
641.2233, 599.2612
641.7054, 585.1382
642.1875, 582.1569
642.6696, 589.1663
643.1517, 591.7111
643.6339, 582.1870
644.1160, 572.4141
644.5981, 569.3018
645.0802, 569.9666
645.5623, 569.1006
646.0444, 566.0348
646.5266, 565.6426
647.0087, 573.6166
647.4908, 587.3452
647.9729, 594.0290
648.4550, 592.0967
648.9371, 588.8673
649.4193, 583.4561
649.9014, 580.3861
650.3835, 587.6089
650.8656, 602.8324
651.3477, 609.2592
651.8298, 595.8193
652.3120, 582.4241
652.7941, 580.4028
653.2762, 582.9892
653.7583, 580.3830
654.2404, 571.6273
654.7225, 563.1252
655.2047, 560.1019
655.6868, 561.2014
656.1689, 562.9103
656.6510, 565.9439
657.1331, 564.6475
657.6152, 555.1389
658.0974, 544.8825
658.5795, 540.0992
659.0616, 540.2097
659.5437, 543.3340
660.0258, 554.0059
660.5079, 561.8203
660.9901, 561.8438
661.4722, 558.1584
661.9543, 554.2266
662.4364, 550.8879
662.9185, 548.2634
663.4006, 546.4459
663.8828, 545.3694
664.3649, 544.6896
664.8470, 544.3724
665.3291, 545.9255
665.8112, 550.4992
666.2933, 554.7921
666.7755, 556.0720
667.2576, 555.0128
667.7397, 554.8960
668.2218, 558.7311
668.7039, 558.6506
669.1860, 549.4532
669.6682, 538.8223
670.1503, 530.7449
670.6324, 526.6321
671.1145, 529.1285
671.5966, 540.2646
672.0787, 553.1170
672.5609, 557.5522
673.0430, 554.6268
673.5251, 551.2905
674.0072, 547.7942
674.4893, 546.8191
674.9714, 552.1321
675.4536, 559.3509
675.9357, 556.2986
676.4178, 534.7929
676.8999, 520.9268
677.3820, 519.4447
677.8641, 521.5685
678.3463, 525.2675
678.8284, 528.5894
679.3105, 527.9656
679.7926, 522.2762
680.2747, 517.8448
680.7568, 522.7769
681.2390, 532.8613
681.7211, 537.9710
682.2032, 537.8466
682.6853, 536.1932
683.1674, 534.4296
683.6495, 532.4417
684.1317, 530.1030
684.6138, 527.5477
685.0959, 523.9536
685.5780, 514.3636
686.0601, 509.7050
686.5422, 517.9612
687.0244, 529.1836
687.5065, 532.3760
687.9886, 526.6225
688.4707, 520.1231
688.9528, 517.1241
689.4349, 516.0541
689.9171, 509.6886
690.3992, 516.6966
690.8813, 520.5149
691.3634, 521.3149
691.8455, 510.0565
692.3276, 514.3690
692.8098, 512.4413
693.2919, 510.2579
693.7740, 516.7620
694.2561, 507.2574
694.7382, 513.6237
695.2203, 513.6547
695.7025, 516.5851
696.1846, 513.2369
696.6667, 511.8280
697.1488, 514.7511
697.6309, 519.4116
698.1130, 524.7786
698.5952, 529.6047
699.0773, 532.3766
699.5594, 532.9915
700.0415, 531.8898
700.5236, 529.2178
701.0057, 525.6380
701.4879, 522.7795
701.9700, 520.7430
702.4521, 516.6304
702.9342, 508.5431
703.4163, 502.5804
703.8984, 502.5118
704.3806, 507.0126
704.8627, 513.3591
705.3448, 523.2312
705.8269, 530.0500
706.3090, 531.8724
706.7911, 531.4844
707.2733, 530.8447
707.7554, 529.0613
708.2375, 522.8876
708.7196, 511.7393
709.2017, 502.7405
709.6838, 505.0745
710.1660, 514.0835
710.6481, 518.2929
711.1302, 517.6735
711.6123, 513.6119
712.0944, 505.5495
712.5765, 498.7875
713.0587, 500.6258
713.5408, 511.6221
714.0229, 519.3454
714.5050, 522.6879
714.9871, 524.0712
715.4692, 523.0007
715.9514, 520.8476
716.4335, 518.4387
716.9156, 515.9329
717.3977, 513.3831
717.8798, 509.9211
718.3619, 507.7104
718.8441, 510.6826
719.3262, 515.2164
719.8083, 512.8428
720.2904, 504.0945
720.7725, 500.1161
721.2546, 509.1517
721.7368, 524.6307
722.2189, 529.8743
722.7010, 523.0236
723.1831, 518.9590
723.6652, 520.1236
724.1473, 521.4651
724.6295, 519.9318
725.1116, 516.7758
725.5937, 514.4700
726.0758, 512.9853
726.5579, 512.5446
727.0400, 515.5773
727.5222, 517.2404
728.0043, 511.9240
728.4864, 504.2971
728.9685, 503.3533
729.4506, 510.8107
729.9327, 517.6235
730.4149, 514.2104
730.8970, 504.8989
731.3791, 498.5378
731.8612, 495.1633
732.3433, 495.9215
732.8254, 501.6933
733.3076, 508.2154
733.7897, 511.3416
734.2718, 511.1775
734.7539, 508.9004
735.2360, 499.6207
735.7181, 496.5124
736.2003, 510.3663
736.6824, 521.9734
737.1645, 514.5377
737.6466, 495.4420
738.1287, 486.4414
738.6108, 497.3286
739.0930, 509.1642
739.5751, 510.5787
740.0572, 507.7352
740.5393, 508.3736
741.0214, 511.5508
741.5035, 511.4111
741.9857, 505.1907
742.4678, 496.7133
742.9499, 490.7938
743.4320, 487.4267
743.9141, 486.9312
744.3962, 489.9978
744.8784, 492.1330
745.3605, 491.3721
745.8426, 489.1630
746.3247, 486.7917
746.8068, 483.8605
747.2889, 484.9125
747.7711, 493.8169
748.2532, 501.4681
748.7353, 506.6050
749.2174, 508.9723
749.6995, 506.2811
750.1816, 500.3065
750.6638, 498.0635
751.1459, 505.4417
751.6280, 512.7791
752.1101, 508.3558
752.5922, 498.5463
753.0743, 496.4175
753.5565, 502.4359
754.0386, 508.0436
754.5207, 508.2134
755.0028, 505.1758
755.4849, 502.1712
755.9670, 498.6365
756.4492, 502.1712
756.9313, 518.0648
757.4134, 527.6191
757.8955, 518.2079
758.3776, 501.4237
758.8597, 495.3695
759.3419, 500.9116
759.8240, 505.6975
760.3061, 508.6777
760.7882, 510.8433
761.2703, 513.4009
761.7524, 514.7903
762.2346, 510.7993
762.7167, 503.1683
763.1988, 501.5132
763.6809, 514.8195
764.1630, 530.1150
764.6451, 530.5566
765.1273, 521.6534
765.6094, 517.6882
766.0915, 520.1510
766.5736, 521.2918
767.0557, 516.0250
767.5378, 507.9493
768.0200, 505.0208
768.5021, 508.0265
768.9842, 511.8725
769.4663, 517.9534
769.9484, 521.5582
770.4305, 517.7499
770.9127, 512.3110
771.3948, 515.1223
771.8769, 527.1764
772.3590, 533.7930
772.8411, 528.4545
773.3232, 523.1768
773.8054, 523.1090
774.2875, 525.0807
774.7696, 525.1390
775.2517, 523.4785
775.7338, 523.6350
776.2159, 528.4857
776.6981, 533.9359
777.1802, 536.1268
777.6623, 535.2363
778.1444, 530.9018
778.6265, 523.5008
779.1086, 515.0234
779.5908, 506.3011
780.0729, 499.4109
780.5550, 498.7064
781.0371, 504.7573
781.5192, 511.9033
782.0013, 521.6177
782.4835, 528.6053
782.9656, 530.9543
783.4477, 529.4729
783.9298, 523.2488
784.4119, 512.0519
784.8940, 506.4632
785.3762, 512.7255
785.8583, 517.1595
786.3404, 513.1800
786.8225, 508.1800
787.3046, 509.9861
787.7867, 516.7682
788.2689, 520.0413
788.7510, 514.7856
789.2331, 509.9860
789.7152, 515.5685
790.1973, 525.3157
790.6794, 529.8846
791.1616, 528.9935
791.6437, 525.0157
792.1258, 518.9434
792.6079, 512.5274
793.0900, 508.2682
793.5721, 505.9030
794.0543, 502.3908
794.5364, 497.2079
795.0185, 494.1422
795.5006, 494.4473
795.9827, 496.9043
796.4648, 500.8031
796.9470, 505.9632
797.4291, 510.2925
797.9112, 517.4357
798.3933, 518.3350
798.8754, 503.7648
799.3575, 491.5990
799.8397, 497.0575
800.3218, 510.8805
800.8039, 513.3553
801.2860, 498.0190
801.7681, 485.5441
802.2502, 490.4037
802.7324, 499.0302
803.2145, 497.7662
803.6966, 491.3711
804.1787, 491.8479
804.6608, 500.9395
805.1429, 506.9518
805.6251, 497.7239
806.1072, 482.0696
806.5893, 481.2953
807.0714, 492.9373
807.5535, 497.5763
808.0356, 491.5731
808.5178, 484.2108
808.9999, 481.4943
809.4820, 481.8770
809.9641, 481.9039
810.4462, 482.4302
810.9283, 479.1145
811.4105, 468.3889
811.8926, 459.6331
812.3747, 458.5697
812.8568, 459.9265
813.3389, 456.6800
813.8210, 448.8298
814.3032, 445.0612
814.7853, 450.7348
815.2674, 455.4768
815.7495, 454.6589
816.2316, 452.2351
816.7137, 452.4549
817.1959, 454.4263
817.6780, 454.1460
818.1601, 449.5999
818.6422, 444.0592
819.1243, 440.3412
819.6064, 437.3441
820.0886, 432.4725
820.5707, 426.6580
821.0528, 424.2625
821.5349, 426.6524
822.0170, 429.5661
822.4991, 428.3997
822.9813, 423.7888
823.4634, 417.5649
823.9455, 409.4661
824.4276, 404.6927
824.9097, 404.8963
825.3918, 406.3633
825.8740, 406.6281
826.3561, 405.7661
826.8382, 403.8232
827.3203, 399.0980
827.8024, 397.3102
828.2845, 403.5277
828.7667, 406.4125
829.2488, 397.4430
829.7309, 385.6478
830.2130, 383.4670
830.6951, 391.4934
831.1772, 394.9494
831.6594, 384.3909
832.1415, 375.8206
832.6236, 379.0509
833.1057, 385.4998
833.5878, 385.9547
834.0699, 381.2742
834.5521, 377.7809
835.0342, 378.4356
835.5163, 380.1030
835.9984, 379.7445
836.4805, 378.5800
836.9626, 379.9329
837.4448, 382.4657
837.9269, 379.6672
838.4090, 369.7307
838.8911, 360.4060
839.3732, 360.8583
839.8553, 367.6418
840.3375, 367.0177
840.8196, 358.7871
841.3017, 354.0051
841.7838, 355.3182
842.2659, 356.4477
842.7480, 352.3115
843.2302, 346.1699
843.7123, 347.0967
844.1944, 359.6903
844.6765, 363.5587
845.1586, 351.0518
845.6407, 341.2337
846.1229, 344.9163
846.6050, 351.1181
847.0871, 346.1510
847.5692, 331.4524
848.0513, 326.5774
848.5334, 346.9690
849.0156, 360.1393
849.4977, 351.3692
849.9798, 337.4202
850.4619, 328.3718
850.9440, 325.2475
851.4261, 329.0536
851.9083, 340.6870
852.3904, 350.0263
852.8725, 348.9970
853.3546, 343.6381
853.8367, 338.7044
854.3188, 334.9295
854.8010, 334.0596
855.2831, 335.8122
855.7652, 336.5264
856.2473, 333.1449
856.7294, 328.3185
857.2115, 326.7776
857.6937, 327.9183
858.1758, 330.1562
858.6579, 333.1266
859.1400, 331.1038
859.6221, 320.5656
860.1042, 310.1758
860.5864, 314.1822
861.0685, 331.6403
861.5506, 334.8159
862.0327, 318.3768
862.5148, 308.7825
862.9969, 313.5060
863.4791, 323.4214
863.9612, 334.7729
864.4433, 344.7694
864.9254, 342.3405
865.4075, 315.2545
865.8896, 301.3368
866.3718, 310.8470
866.8539, 320.6235
867.3360, 321.2194
867.8181, 318.7817
868.3002, 320.9841
868.7823, 327.8968
869.2645, 332.7205
869.7466, 334.6375
870.2287, 332.9677
870.7108, 322.6656
871.1929, 312.6213
871.6750, 312.7173
872.1572, 319.3191
872.6393, 322.7512
873.1214, 319.7355
873.6035, 314.9864
874.0856, 309.9030
874.5677, 306.5164
875.0499, 308.5298
875.5320, 313.5743
876.0141, 316.9730
876.4962, 317.7690
876.9783, 316.9940
877.4604, 315.0849
877.9426, 313.0470
878.4247, 312.3534
878.9068, 312.9263
879.3889, 315.2235
879.8710, 318.9710
880.3531, 320.8945
880.8353, 319.6175
881.3174, 316.7405
881.7995, 314.0788
882.2816, 311.5330
882.7637, 308.3637
883.2458, 304.4604
883.7280, 300.5119
884.2101, 295.9930
884.6922, 293.5891
885.1743, 295.1469
885.6564, 299.9398
886.1385, 307.2793
886.6207, 319.4073
887.1028, 323.5364
887.5849, 314.2060
888.0670, 305.6444
888.5491, 301.2399
889.0313, 299.3559
889.5134, 298.4055
889.9955, 298.6602
890.4776, 301.5349
890.9597, 310.4382
891.4418, 315.9266
891.9240, 314.0631
892.4061, 311.3980
892.8882, 311.3854
893.3703, 312.6907
893.8524, 313.7653
894.3345, 314.2322
894.8167, 313.0128
895.2988, 308.2000
895.7809, 303.3936
896.2630, 298.3825
896.7451, 295.9429
897.2272, 301.7527
897.7094, 312.2799
898.1915, 318.3024
898.6736, 316.5099
899.1557, 312.0992
899.6378, 308.8485
900.1199, 305.5563
900.6021, 299.0300
901.0842, 291.8215
901.5663, 290.3549
902.0484, 294.7327
902.5305, 299.0895
903.0126, 299.8988
903.4948, 298.0894
903.9769, 293.4438
904.4590, 287.5022
904.9411, 285.9115
905.4232, 288.2841
905.9053, 290.0141
906.3875, 289.5964
906.8696, 288.2643
907.3517, 287.0650
907.8338, 286.0908
908.3159, 285.5043
908.7980, 285.2997
909.2802, 286.1822
909.7623, 288.2587
910.2444, 291.1923
910.7265, 294.8412
911.2086, 299.2630
911.6907, 305.0783
912.1729, 312.2100
912.6550, 315.4001
913.1371, 314.8138
913.6192, 309.0483
914.1013, 293.8817
914.5834, 280.9582
915.0656, 278.1434
915.5477, 282.7078
916.0298, 288.9345
916.5119, 298.1008
916.9940, 304.1454
917.4761, 305.8746
917.9583, 306.1550
918.4404, 306.9801
918.9225, 305.4802
919.4046, 296.1203
919.8867, 282.2730
920.3688, 276.8589
920.8510, 286.1157
921.3331, 291.9937
921.8152, 290.3392
922.2973, 286.6062
922.7794, 280.2112
923.2615, 275.1050
923.7437, 276.8788
924.2258, 284.9318
924.7079, 292.1528
925.1900, 298.7891
925.6721, 300.3648
926.1542, 287.8352
926.6364, 276.2887
927.1185, 282.2941
927.6006, 296.2225
928.0827, 298.5158
928.5648, 286.0223
929.0469, 276.6257
929.5291, 283.3761
930.0112, 293.2687
930.4933, 299.1022
930.9754, 300.7896
931.4575, 295.3920
931.9396, 286.0585
932.4218, 281.3148
932.9039, 284.1575
933.3860, 288.5285
933.8681, 289.0753
934.3502, 288.3290
934.8323, 290.5862
935.3145, 293.6944
935.7966, 291.9341
936.2787, 285.8495
936.7608, 282.1241
937.2429, 284.4457
937.7250, 288.1199
938.2072, 286.9238
938.6893, 283.0193
939.1714, 281.3433
939.6535, 281.5261
940.1356, 282.0865
940.6177, 282.5211
941.0999, 281.5036
941.5820, 277.7874
942.0641, 273.7533
942.5462, 274.6103
943.0283, 279.1250
943.5104, 280.5129
943.9926, 278.7502
944.4747, 277.5507
944.9568, 278.0783
945.4389, 278.5432
945.9210, 277.3511
946.4031, 274.8809
946.8853, 271.8828
947.3674, 268.3596
947.8495, 264.8130
948.3316, 260.8365
948.8137, 263.0894
949.2958, 275.2800
949.7780, 289.0693
950.2601, 295.4140
950.7422, 295.0273
951.2243, 290.2517
951.7064, 279.4303
952.1885, 275.6327
952.6707, 281.6235
953.1528, 289.5435
953.6349, 297.3949
954.1170, 301.6493
954.5991, 295.9892
955.0812, 281.2363
955.5634, 275.7373
956.0455, 283.6272
956.5276, 287.8473
957.0097, 284.5883
957.4918, 281.2836
957.9739, 282.8716
958.4561, 285.6886
958.9382, 283.0481
959.4203, 274.2388
959.9024, 270.0652
960.3845, 271.8946
960.8666, 275.8003
961.3488, 283.3736
961.8309, 289.9790
962.3130, 293.2760
962.7951, 293.4104
963.2772, 289.6488
963.7593, 280.2266
964.2415, 276.4094
964.7236, 283.7938
965.2057, 288.6453
965.6878, 286.2429
966.1699, 282.9941
966.6520, 284.0487
967.1342, 287.0266
967.6163, 285.3943
968.0984, 276.0674
968.5805, 274.0101
969.0626, 292.5441
969.5447, 301.5236
970.0269, 283.2360
970.5090, 261.9195
970.9911, 256.5767
971.4732, 262.8483
971.9553, 267.9267
972.4374, 270.2380
972.9196, 272.7938
973.4017, 276.3756
973.8838, 279.8334
974.3659, 283.6770
974.8480, 286.4528
975.3301, 285.3039
975.8123, 282.0785
976.2944, 283.0641
976.7765, 291.4913
977.2586, 296.5971
977.7407, 292.9674
978.2228, 289.1938
978.7050, 289.8169
979.1871, 291.4799
979.6692, 290.6612
980.1513, 287.7581
980.6334, 284.7943
981.1155, 281.1597
981.5977, 280.8032
982.0798, 288.6412
982.5619, 295.6567
983.0440, 295.3459
983.5261, 293.2155
984.0082, 297.6130
984.4904, 306.2072
984.9725, 307.0558
985.4546, 292.8045
985.9367, 283.2977
986.4188, 290.5083
986.9009, 298.9910
987.3831, 300.5474
987.8652, 297.7727
988.3473, 292.3036
988.8294, 285.7432
989.3115, 282.4962
989.7936, 284.8945
990.2758, 287.7012
990.7579, 290.1519
991.2400, 290.8116
991.7221, 286.0785
992.2042, 280.7933
992.6863, 282.7780
993.1685, 290.3318
993.6506, 292.4485
994.1327, 282.6508
994.6148, 275.4535
995.0969, 282.3647
995.5790, 288.6221
996.0612, 279.8470
996.5433, 267.2519
997.0254, 267.3593
997.5075, 278.6487
997.9896, 285.4449
998.4717, 281.0285
998.9539, 275.7497
999.4360, 273.1100
999.9181, 272.6172
1000.400, 274.9931
1000.882, 278.6433
1001.364, 283.1952
1001.847, 287.2943
1002.329, 286.0163
1002.811, 275.0658
1003.293, 266.7895
1003.775, 268.7704
1004.257, 273.4313
1004.739, 276.4915
1005.221, 278.5584
1005.703, 281.4766
1006.186, 284.5872
1006.668, 284.3405
1007.150, 278.0377
1007.632, 273.4347
1008.114, 275.5698
1008.596, 278.9031
1009.078, 280.4327
1009.560, 280.6880
1010.043, 280.9756
1010.525, 280.8751
1011.007, 277.3940
1011.489, 267.0004
1011.971, 262.9418
1012.453, 280.1549
1012.935, 294.8490
1013.417, 288.6353
1013.899, 274.8417
1014.382, 267.1436
1014.864, 266.4237
1015.346, 269.7881
1015.828, 278.1466
1016.310, 283.1349
1016.792, 277.7065
1017.274, 272.6050
1017.756, 275.0266
1018.239, 279.6440
1018.721, 281.0331
1019.203, 279.5413
1019.685, 277.7749
1020.167, 276.1262
1020.649, 275.2867
1021.131, 276.5198
1021.613, 277.3161
1022.095, 277.3446
1022.578, 275.7107
1023.060, 268.8712
1023.542, 260.2546
1024.024, 259.4302
1024.506, 269.9072
1024.988, 276.5170
1025.470, 269.4349
1025.952, 265.5394
1026.435, 277.1522
1026.917, 288.8284
1027.399, 285.0855
1027.881, 272.6506
1028.363, 267.5667
1028.845, 272.8534
1029.327, 277.0930
1029.809, 279.1631
1030.292, 278.6397
1030.774, 272.7798
1031.256, 266.9258
1031.738, 263.5456
1032.220, 263.1441
1032.702, 267.4225
1033.184, 277.0057
1033.666, 283.6853
1034.148, 287.3063
1034.630, 286.9601
1035.113, 277.4520
1035.595, 269.4127
1036.077, 269.7209
1036.559, 274.5802
1037.041, 279.7054
1037.523, 285.1594
1038.005, 285.0783
1038.487, 270.8484
1038.970, 265.1217
1039.452, 278.0736
1039.934, 288.0850
1040.416, 282.8909
1040.898, 272.3431
1041.380, 268.3861
1041.862, 270.3096
1042.344, 269.9997
1042.826, 265.2693
1043.309, 263.0636
1043.791, 263.4062
1044.273, 267.1268
1044.755, 278.1826
1045.237, 287.4014
1045.719, 283.4918
1046.201, 270.3245
1046.683, 266.7328
1047.166, 277.7668
1047.648, 280.0162
1048.130, 268.6767
1048.612, 263.0721
1049.094, 271.4719
1049.576, 280.8737
1050.058, 280.0025
1050.540, 272.4124
1051.022, 267.4357
1051.505, 265.1882
1051.987, 264.3831
1052.469, 264.9456
1052.951, 267.9332
1053.433, 274.1407
1053.915, 279.9268
1054.397, 283.0016
1054.879, 283.8290
1055.361, 283.1885
1055.844, 281.1089
1056.326, 277.3591
1056.808, 271.9295
1057.290, 268.2416
1057.772, 266.8649
1058.254, 269.3821
1058.736, 277.1337
1059.218, 282.9158
1059.701, 275.0103
1060.183, 259.2888
1060.665, 256.9617
1061.147, 265.4457
1061.629, 270.7166
1062.111, 271.5375
1062.593, 273.2495
1063.075, 277.7750
1063.557, 279.4370
1064.040, 271.1704
1064.522, 259.9144
1065.004, 258.9978
1065.486, 264.8940
1065.968, 270.4987
1066.450, 274.6777
1066.932, 275.4794
1067.414, 272.9656
1067.896, 271.1859
1068.379, 273.1810
1068.861, 275.9630
1069.343, 277.1164
1069.825, 276.2433
1070.307, 269.5608
1070.789, 261.7376
1071.271, 264.5310
1071.753, 276.3417
1072.236, 282.1717
1072.718, 274.5393
1073.200, 265.3906
1073.682, 262.6243
1074.164, 262.7799
1074.646, 263.5784
1075.128, 265.1232
1075.610, 268.5055
1076.093, 272.7105
1076.575, 275.7021
1077.057, 277.0192
1077.539, 274.8910
1078.021, 264.3711
1078.503, 255.7613
1078.985, 254.2435
1079.467, 255.9115
1079.949, 258.9220
1080.432, 262.3847
1080.914, 265.1721
1081.396, 267.2065
1081.878, 269.7534
1082.360, 274.9463
1082.842, 277.7573
1083.324, 276.4891
1083.806, 273.8058
1084.288, 269.1495
1084.771, 264.9901
1085.253, 265.7392
1085.735, 269.6200
1086.217, 267.1206
1086.699, 251.6073
1087.181, 248.0591
1087.663, 264.2340
1088.145, 276.6058
1088.628, 278.1199
1089.110, 276.0261
1089.592, 274.9257
1090.074, 274.6470
1090.556, 274.8760
1091.038, 275.6296
1091.520, 276.5886
1092.002, 278.0062
1092.484, 277.8688
1092.967, 275.7358
1093.449, 272.1618
1093.931, 266.7810
1094.413, 263.7446
1094.895, 269.2223
1095.377, 280.2694
1095.859, 286.5040
1096.341, 288.1824
1096.823, 285.7484
1097.306, 279.9586
1097.788, 276.9489
1098.270, 278.6052
1098.752, 282.0980
1099.234, 285.5724
1099.716, 288.0037
1100.198, 287.3037
1100.680, 284.6938
1101.163, 281.8311
1101.645, 279.4255
1102.127, 280.0433
1102.609, 282.9337
1103.091, 283.1680
1103.573, 278.3485
1104.055, 272.1705
1104.537, 264.1249
1105.020, 259.9272
1105.502, 269.7933
1105.984, 282.8183
1106.466, 285.2171
1106.948, 279.7592
1107.430, 274.8117
1107.912, 272.3311
1108.394, 270.9167
1108.876, 270.6047
1109.359, 270.3321
1109.841, 268.4624
1110.323, 267.9055
1110.805, 273.5559
1111.287, 279.3727
1111.769, 276.3318
1112.251, 266.1894
1112.733, 260.1010
1113.215, 259.7586
1113.698, 261.8285
1114.180, 268.9486
1114.662, 274.0323
1115.144, 274.8890
1115.626, 274.2098
1116.108, 273.8328
1116.590, 273.0051
1117.072, 269.7794
1117.555, 264.1264
1118.037, 262.6301
1118.519, 266.0101
1119.001, 269.9691
1119.483, 274.4423
1119.965, 276.3542
1120.447, 274.1510
1120.929, 270.4951
1121.411, 267.7608
1121.894, 266.5040
1122.376, 270.1266
1122.858, 276.7467
1123.340, 275.1907
1123.822, 266.7287
1124.304, 260.2566
1124.786, 257.8920
1125.268, 258.3370
1125.750, 261.0402
1126.233, 263.1211
1126.715, 259.0529
1127.197, 254.3830
1127.679, 256.8828
1128.161, 264.0556
1128.643, 276.0566
1129.125, 288.1018
1129.607, 288.1120
1130.090, 274.1367
1130.572, 260.2301
1131.054, 250.1615
1131.536, 247.6533
1132.018, 262.2068
1132.500, 276.5453
1132.982, 278.0566
1133.464, 273.1984
1133.947, 268.7733
1134.429, 265.7083
1134.911, 264.6424
1135.393, 266.6974
1135.875, 267.1577
1136.357, 263.0839
1136.839, 261.3374
1137.321, 265.1128
1137.803, 268.4779
1138.286, 267.9188
1138.768, 265.1261
1139.250, 262.0561
1139.732, 259.0337
1140.214, 259.5870
1140.696, 264.4272
1141.178, 267.6075
1141.660, 268.8136
1142.142, 266.7102
1142.625, 260.5435
1143.107, 256.9107
1143.589, 261.3749
1144.071, 269.1338
1144.553, 271.7234
1145.035, 270.8488
1145.517, 271.8456
1145.999, 273.8467
1146.482, 273.9951
1146.964, 272.1547
1147.446, 269.2644
1147.928, 265.8292
1148.410, 263.3637
1148.892, 262.8107
1149.374, 263.9836
1149.856, 268.7767
1150.339, 273.2737
1150.821, 272.9089
1151.303, 269.9785
1151.785, 267.8224
1152.267, 266.8405
1152.749, 266.2397
1153.231, 265.8692
1153.713, 265.7294
1154.195, 266.6186
1154.677, 266.6232
1155.160, 264.0294
1155.642, 261.6683
1156.124, 262.2345
1156.606, 263.1961
1157.088, 259.6516
1157.570, 252.5257
1158.052, 253.7632
1158.534, 266.3747
1159.017, 273.1965
1159.499, 272.5523
1159.981, 270.6955
1160.463, 269.2618
1160.945, 268.9144
1161.427, 270.2622
1161.909, 272.3030
1162.391, 274.2288
1162.874, 275.1323
1163.356, 269.7400
1163.838, 254.9218
1164.320, 262.1708
1164.802, 266.2301
1165.284, 267.2712
1165.766, 256.2538
1166.248, 260.8073
1166.730, 259.1208
1167.213, 257.1783
1167.695, 263.9234
1168.177, 254.6599
1168.659, 261.2672
1169.141, 261.5392
1169.623, 264.7107
1170.105, 261.6035
1170.587, 260.4356
1171.069, 265.5485
1171.552, 267.1835
1172.034, 263.3536
1172.516, 266.7094
1172.998, 257.2266
1173.480, 259.0098
1173.962, 265.6539
1174.444, 262.1397
1174.926, 265.6103
1175.409, 266.4206
1175.891, 255.1414
1176.373, 264.8872
1176.855, 265.5404
1177.337, 256.8575
1177.819, 265.8829
1178.301, 258.4871
1178.783, 256.9526
1179.266, 259.8291
1179.748, 258.1073
1180.230, 263.6354
1180.712, 262.1792
1181.194, 260.0989
1181.676, 260.7419
1182.158, 253.6681
1182.640, 260.9105
1183.122, 260.0313
1183.604, 256.8775
1184.087, 254.5431
1184.569, 254.6961
1185.051, 255.0703
1185.533, 252.8723
1186.015, 253.0761
1186.497, 261.0872
1186.979, 268.7032
1187.461, 268.2570
1187.944, 265.2545
1188.426, 269.6489
1188.908, 279.2275
1189.390, 279.1423
1189.872, 264.1689
1190.354, 259.0001
1190.836, 266.5221
1191.318, 270.4486
1191.801, 266.5273
1192.283, 264.4420
1192.765, 270.3377
1193.247, 274.9203
1193.729, 263.9014
1194.211, 247.0869
1194.693, 251.2726
1195.175, 268.0579
1195.657, 277.3870
1196.140, 278.4066
1196.622, 269.9881
1197.104, 255.5535
1197.586, 249.9126
1198.068, 260.5247
1198.550, 270.5991
1199.032, 268.6049
1199.514, 264.3791
1199.996, 262.1635
1200.479, 261.3487
1200.961, 262.9966
1201.443, 264.6885
1201.925, 262.5934
1202.407, 257.0485
1202.889, 251.7713
1203.371, 244.6280
1203.853, 245.5009
1204.336, 257.8299
1204.818, 267.1603
1205.300, 270.6757
1205.782, 270.1198
1206.264, 265.8063
1206.746, 261.9263
1207.228, 264.2687
1207.710, 269.1048
1208.193, 265.6516
1208.675, 257.4968
1209.157, 254.9238
1209.639, 257.0554
1210.121, 260.9781
1210.603, 265.1271
1211.085, 266.1172
1211.567, 262.5378
1212.049, 259.6049
1212.531, 261.9313
1213.014, 263.8407
1213.496, 260.2424
1213.978, 257.4858
1214.460, 260.6679
1214.942, 266.7545
1215.424, 273.9766
1215.906, 280.4371
1216.388, 279.3640
1216.871, 268.7235
1217.353, 263.2342
1217.835, 263.8233
1218.317, 265.8235
1218.799, 268.8034
1219.281, 272.1005
1219.763, 275.6071
1220.245, 277.3137
1220.728, 275.3368
1221.210, 270.7271
1221.692, 262.4423
1222.174, 254.6710
1222.656, 259.2046
1223.138, 269.5362
1223.620, 271.6853
1224.102, 266.7794
1224.584, 263.5859
1225.067, 264.2411
1225.549, 263.8890
1226.031, 257.9806
1226.513, 255.7045
1226.995, 264.4722
##END=



