##NAMES=Descloizite
##RRUFFID=R120097
##IDEAL CHEMISTRY=Pb^2+^Zn^2+^V^5+^O_4_(OH)
##LOCALITY=Collins Vein, Mammoth mine, Tiger, Arizona
##OWNER=RRUFF
##SOURCE=Bob Downs and Hexiong Yang
##DESCRIPTION=Brown transparent closed pyramids, like flattened octahedra, associated with vanadinite
##STATUS=The identification of this mineral has been confirmed only by single crystal X-ray diffraction.
##URL=rruff.info/R120097
9.001007e+001, 0.000000e+000
9.049219e+001, 3.745124e+001
9.097430e+001, 3.806675e+001
9.145642e+001, 3.789968e+001
9.193854e+001, 3.701865e+001
9.242065e+001, 3.599595e+001
9.290277e+001, 3.517925e+001
9.338489e+001, 3.455773e+001
9.386700e+001, 3.412188e+001
9.434912e+001, 3.396396e+001
9.483124e+001, 3.396491e+001
9.531335e+001, 3.391578e+001
9.579547e+001, 3.382307e+001
9.627759e+001, 3.362696e+001
9.675970e+001, 3.316581e+001
9.724182e+001, 3.246564e+001
9.772394e+001, 3.185975e+001
9.820605e+001, 3.153305e+001
9.868817e+001, 3.146021e+001
9.917029e+001, 3.134079e+001
9.965240e+001, 3.116087e+001
1.001345e+002, 3.094789e+001
1.006166e+002, 3.070632e+001
1.010988e+002, 3.039041e+001
1.015809e+002, 3.023757e+001
1.020630e+002, 3.053209e+001
1.025451e+002, 3.148016e+001
1.030272e+002, 3.180268e+001
1.035093e+002, 3.119254e+001
1.039915e+002, 2.992286e+001
1.044736e+002, 2.916762e+001
1.049557e+002, 2.923257e+001
1.054378e+002, 2.937855e+001
1.059199e+002, 2.905612e+001
1.064020e+002, 2.785055e+001
1.068842e+002, 2.694320e+001
1.073663e+002, 2.653633e+001
1.078484e+002, 2.663945e+001
1.083305e+002, 2.672158e+001
1.088126e+002, 2.669905e+001
1.092947e+002, 2.670276e+001
1.097769e+002, 2.685602e+001
1.102590e+002, 2.761378e+001
1.107411e+002, 2.805848e+001
1.112232e+002, 2.791755e+001
1.117053e+002, 2.700972e+001
1.121874e+002, 2.630965e+001
1.126696e+002, 2.604324e+001
1.131517e+002, 2.597978e+001
1.136338e+002, 2.582032e+001
1.141159e+002, 2.548238e+001
1.145980e+002, 2.507383e+001
1.150801e+002, 2.459622e+001
1.155623e+002, 2.396948e+001
1.160444e+002, 2.347978e+001
1.165265e+002, 2.332928e+001
1.170086e+002, 2.336975e+001
1.174907e+002, 2.330028e+001
1.179728e+002, 2.275375e+001
1.184550e+002, 2.222141e+001
1.189371e+002, 2.204598e+001
1.194192e+002, 2.252533e+001
1.199013e+002, 2.302197e+001
1.203834e+002, 2.324441e+001
1.208655e+002, 2.321977e+001
1.213477e+002, 2.305331e+001
1.218298e+002, 2.258680e+001
1.223119e+002, 2.208646e+001
1.227940e+002, 2.186020e+001
1.232761e+002, 2.235361e+001
1.237582e+002, 2.283906e+001
1.242404e+002, 2.250299e+001
1.247225e+002, 2.141676e+001
1.252046e+002, 2.045823e+001
1.256867e+002, 2.051962e+001
1.261688e+002, 2.117348e+001
1.266509e+002, 2.164559e+001
1.271331e+002, 2.153143e+001
1.276152e+002, 2.109835e+001
1.280973e+002, 2.071200e+001
1.285794e+002, 2.037332e+001
1.290615e+002, 2.007017e+001
1.295436e+002, 1.967445e+001
1.300258e+002, 1.925692e+001
1.305079e+002, 1.913027e+001
1.309900e+002, 1.982876e+001
1.314721e+002, 2.096164e+001
1.319542e+002, 2.118223e+001
1.324363e+002, 2.026165e+001
1.329185e+002, 1.900962e+001
1.334006e+002, 1.876153e+001
1.338827e+002, 1.951478e+001
1.343648e+002, 2.018582e+001
1.348469e+002, 2.015528e+001
1.353290e+002, 1.946682e+001
1.358112e+002, 1.868211e+001
1.362933e+002, 1.773083e+001
1.367754e+002, 1.684678e+001
1.372575e+002, 1.676280e+001
1.377396e+002, 1.767972e+001
1.382217e+002, 1.848732e+001
1.387039e+002, 1.835972e+001
1.391860e+002, 1.712615e+001
1.396681e+002, 1.614215e+001
1.401502e+002, 1.553242e+001
1.406323e+002, 1.528231e+001
1.411144e+002, 1.539218e+001
1.415966e+002, 1.605758e+001
1.420787e+002, 1.671057e+001
1.425608e+002, 1.681572e+001
1.430429e+002, 1.603468e+001
1.435250e+002, 1.569022e+001
1.440071e+002, 1.619259e+001
1.444893e+002, 1.748294e+001
1.449714e+002, 1.813253e+001
1.454535e+002, 1.788501e+001
1.459356e+002, 1.723750e+001
1.464177e+002, 1.663401e+001
1.468998e+002, 1.597046e+001
1.473820e+002, 1.550142e+001
1.478641e+002, 1.532118e+001
1.483462e+002, 1.548254e+001
1.488283e+002, 1.556417e+001
1.493104e+002, 1.537592e+001
1.497925e+002, 1.519683e+001
1.502747e+002, 1.536520e+001
1.507568e+002, 1.657584e+001
1.512389e+002, 1.741347e+001
1.517210e+002, 1.740629e+001
1.522031e+002, 1.611007e+001
1.526852e+002, 1.538432e+001
1.531674e+002, 1.574054e+001
1.536495e+002, 1.657252e+001
1.541316e+002, 1.700359e+001
1.546137e+002, 1.630407e+001
1.550958e+002, 1.576529e+001
1.555779e+002, 1.588504e+001
1.560601e+002, 1.711851e+001
1.565422e+002, 1.802311e+001
1.570243e+002, 1.808136e+001
1.575064e+002, 1.768440e+001
1.579885e+002, 1.758968e+001
1.584706e+002, 1.816493e+001
1.589528e+002, 1.892883e+001
1.594349e+002, 1.965299e+001
1.599170e+002, 2.021972e+001
1.603991e+002, 2.089205e+001
1.608812e+002, 2.158414e+001
1.613633e+002, 2.241489e+001
1.618455e+002, 2.369632e+001
1.623276e+002, 2.562417e+001
1.628097e+002, 2.797308e+001
1.632918e+002, 3.066882e+001
1.637739e+002, 3.387096e+001
1.642560e+002, 3.714437e+001
1.647382e+002, 4.019543e+001
1.652203e+002, 4.312559e+001
1.657024e+002, 4.632303e+001
1.661845e+002, 4.999454e+001
1.666666e+002, 5.402368e+001
1.671487e+002, 5.825131e+001
1.676309e+002, 6.253878e+001
1.681130e+002, 6.717788e+001
1.685951e+002, 7.254685e+001
1.690772e+002, 7.853574e+001
1.695593e+002, 8.434199e+001
1.700414e+002, 8.882090e+001
1.705236e+002, 9.306583e+001
1.710057e+002, 9.833890e+001
1.714878e+002, 1.059131e+002
1.719699e+002, 1.140912e+002
1.724520e+002, 1.216453e+002
1.729341e+002, 1.286008e+002
1.734163e+002, 1.348044e+002
1.738984e+002, 1.395115e+002
1.743805e+002, 1.435025e+002
1.748626e+002, 1.479262e+002
1.753447e+002, 1.535175e+002
1.758268e+002, 1.596755e+002
1.763090e+002, 1.660267e+002
1.767911e+002, 1.725223e+002
1.772732e+002, 1.785515e+002
1.777553e+002, 1.825345e+002
1.782374e+002, 1.847680e+002
1.787195e+002, 1.867962e+002
1.792017e+002, 1.888816e+002
1.796838e+002, 1.913202e+002
1.801659e+002, 1.947137e+002
1.806480e+002, 1.991439e+002
1.811301e+002, 2.037406e+002
1.816122e+002, 2.076143e+002
1.820944e+002, 2.109950e+002
1.825765e+002, 2.145367e+002
1.830586e+002, 2.187630e+002
1.835407e+002, 2.233156e+002
1.840228e+002, 2.276518e+002
1.845049e+002, 2.317212e+002
1.849871e+002, 2.356157e+002
1.854692e+002, 2.394445e+002
1.859513e+002, 2.431969e+002
1.864334e+002, 2.465885e+002
1.869155e+002, 2.492747e+002
1.873976e+002, 2.514921e+002
1.878798e+002, 2.541555e+002
1.883619e+002, 2.573683e+002
1.888440e+002, 2.606990e+002
1.893261e+002, 2.635847e+002
1.898082e+002, 2.660554e+002
1.902903e+002, 2.681183e+002
1.907725e+002, 2.695457e+002
1.912546e+002, 2.704975e+002
1.917367e+002, 2.719365e+002
1.922188e+002, 2.741118e+002
1.927009e+002, 2.762789e+002
1.931830e+002, 2.770040e+002
1.936652e+002, 2.762868e+002
1.941473e+002, 2.753684e+002
1.946294e+002, 2.750194e+002
1.951115e+002, 2.751681e+002
1.955936e+002, 2.748275e+002
1.960757e+002, 2.738114e+002
1.965579e+002, 2.725111e+002
1.970400e+002, 2.717892e+002
1.975221e+002, 2.717148e+002
1.980042e+002, 2.714794e+002
1.984863e+002, 2.704790e+002
1.989684e+002, 2.687069e+002
1.994506e+002, 2.672204e+002
1.999327e+002, 2.660906e+002
2.004148e+002, 2.652970e+002
2.008969e+002, 2.649676e+002
2.013790e+002, 2.652172e+002
2.018611e+002, 2.653098e+002
2.023433e+002, 2.646412e+002
2.028254e+002, 2.631085e+002
2.033075e+002, 2.620983e+002
2.037896e+002, 2.618391e+002
2.042717e+002, 2.620522e+002
2.047538e+002, 2.620477e+002
2.052360e+002, 2.617824e+002
2.057181e+002, 2.614451e+002
2.062002e+002, 2.610992e+002
2.066823e+002, 2.607125e+002
2.071644e+002, 2.605037e+002
2.076465e+002, 2.605224e+002
2.081287e+002, 2.607046e+002
2.086108e+002, 2.608518e+002
2.090929e+002, 2.609241e+002
2.095750e+002, 2.610636e+002
2.100571e+002, 2.615063e+002
2.105392e+002, 2.624670e+002
2.110214e+002, 2.627233e+002
2.115035e+002, 2.620568e+002
2.119856e+002, 2.606644e+002
2.124677e+002, 2.589764e+002
2.129498e+002, 2.565667e+002
2.134319e+002, 2.548155e+002
2.139140e+002, 2.548609e+002
2.143962e+002, 2.574547e+002
2.148783e+002, 2.591592e+002
2.153604e+002, 2.595577e+002
2.158425e+002, 2.588745e+002
2.163246e+002, 2.579024e+002
2.168067e+002, 2.564698e+002
2.172889e+002, 2.550575e+002
2.177710e+002, 2.539826e+002
2.182531e+002, 2.533891e+002
2.187352e+002, 2.526233e+002
2.192173e+002, 2.513401e+002
2.196994e+002, 2.498209e+002
2.201816e+002, 2.496060e+002
2.206637e+002, 2.513925e+002
2.211458e+002, 2.532542e+002
2.216279e+002, 2.539186e+002
2.221100e+002, 2.529415e+002
2.225921e+002, 2.519174e+002
2.230743e+002, 2.507932e+002
2.235564e+002, 2.497085e+002
2.240385e+002, 2.493315e+002
2.245206e+002, 2.499379e+002
2.250027e+002, 2.508302e+002
2.254848e+002, 2.517714e+002
2.259670e+002, 2.533167e+002
2.264491e+002, 2.534653e+002
2.269312e+002, 2.513932e+002
2.274133e+002, 2.477527e+002
2.278954e+002, 2.456501e+002
2.283775e+002, 2.457076e+002
2.288597e+002, 2.464467e+002
2.293418e+002, 2.470748e+002
2.298239e+002, 2.477390e+002
2.303060e+002, 2.478920e+002
2.307881e+002, 2.471264e+002
2.312702e+002, 2.457665e+002
2.317524e+002, 2.455053e+002
2.322345e+002, 2.470379e+002
2.327166e+002, 2.486701e+002
2.331987e+002, 2.493596e+002
2.336808e+002, 2.486305e+002
2.341629e+002, 2.479887e+002
2.346451e+002, 2.474832e+002
2.351272e+002, 2.471251e+002
2.356093e+002, 2.470005e+002
2.360914e+002, 2.473216e+002
2.365735e+002, 2.475859e+002
2.370556e+002, 2.474529e+002
2.375378e+002, 2.465473e+002
2.380199e+002, 2.460853e+002
2.385020e+002, 2.462550e+002
2.389841e+002, 2.469241e+002
2.394662e+002, 2.475610e+002
2.399483e+002, 2.482151e+002
2.404305e+002, 2.487866e+002
2.409126e+002, 2.492055e+002
2.413947e+002, 2.493433e+002
2.418768e+002, 2.496476e+002
2.423589e+002, 2.502987e+002
2.428410e+002, 2.511234e+002
2.433232e+002, 2.514571e+002
2.438053e+002, 2.509278e+002
2.442874e+002, 2.504138e+002
2.447695e+002, 2.503965e+002
2.452516e+002, 2.511890e+002
2.457337e+002, 2.517509e+002
2.462159e+002, 2.519529e+002
2.466980e+002, 2.519087e+002
2.471801e+002, 2.519508e+002
2.476622e+002, 2.519424e+002
2.481443e+002, 2.522160e+002
2.486264e+002, 2.530243e+002
2.491086e+002, 2.548384e+002
2.495907e+002, 2.560356e+002
2.500728e+002, 2.563524e+002
2.505549e+002, 2.561077e+002
2.510370e+002, 2.561282e+002
2.515191e+002, 2.564356e+002
2.520013e+002, 2.569835e+002
2.524834e+002, 2.577828e+002
2.529655e+002, 2.589056e+002
2.534476e+002, 2.600709e+002
2.539297e+002, 2.612263e+002
2.544118e+002, 2.624490e+002
2.548940e+002, 2.640025e+002
2.553761e+002, 2.661696e+002
2.558582e+002, 2.681706e+002
2.563403e+002, 2.695707e+002
2.568224e+002, 2.700356e+002
2.573046e+002, 2.709447e+002
2.577867e+002, 2.722000e+002
2.582688e+002, 2.739388e+002
2.587509e+002, 2.766365e+002
2.592330e+002, 2.809427e+002
2.597151e+002, 2.848080e+002
2.601973e+002, 2.873169e+002
2.606794e+002, 2.880373e+002
2.611615e+002, 2.891038e+002
2.616436e+002, 2.904760e+002
2.621257e+002, 2.922152e+002
2.626078e+002, 2.944834e+002
2.630900e+002, 2.974193e+002
2.635721e+002, 3.005199e+002
2.640542e+002, 3.035463e+002
2.645363e+002, 3.064816e+002
2.650184e+002, 3.098161e+002
2.655005e+002, 3.138101e+002
2.659827e+002, 3.179764e+002
2.664648e+002, 3.214716e+002
2.669469e+002, 3.237500e+002
2.674290e+002, 3.269077e+002
2.679111e+002, 3.319313e+002
2.683932e+002, 3.389580e+002
2.688754e+002, 3.450823e+002
2.693575e+002, 3.498731e+002
2.698396e+002, 3.544015e+002
2.703217e+002, 3.600193e+002
2.708038e+002, 3.669466e+002
2.712859e+002, 3.739879e+002
2.717681e+002, 3.806874e+002
2.722502e+002, 3.870375e+002
2.727323e+002, 3.939638e+002
2.732144e+002, 4.014240e+002
2.736965e+002, 4.093021e+002
2.741786e+002, 4.172943e+002
2.746608e+002, 4.253443e+002
2.751429e+002, 4.342892e+002
2.756250e+002, 4.446794e+002
2.761071e+002, 4.561980e+002
2.765892e+002, 4.666195e+002
2.770714e+002, 4.753411e+002
2.775535e+002, 4.842210e+002
2.780356e+002, 4.952165e+002
2.785177e+002, 5.085435e+002
2.789998e+002, 5.216469e+002
2.794819e+002, 5.337628e+002
2.799641e+002, 5.453401e+002
2.804462e+002, 5.578553e+002
2.809283e+002, 5.714442e+002
2.814104e+002, 5.855424e+002
2.818925e+002, 5.998396e+002
2.823746e+002, 6.143310e+002
2.828568e+002, 6.293822e+002
2.833389e+002, 6.453562e+002
2.838210e+002, 6.617097e+002
2.843031e+002, 6.766451e+002
2.847852e+002, 6.900670e+002
2.852673e+002, 7.035147e+002
2.857495e+002, 7.180377e+002
2.862316e+002, 7.336418e+002
2.867137e+002, 7.504075e+002
2.871958e+002, 7.686135e+002
2.876779e+002, 7.876198e+002
2.881600e+002, 8.063737e+002
2.886422e+002, 8.248873e+002
2.891243e+002, 8.428626e+002
2.896064e+002, 8.591885e+002
2.900885e+002, 8.743800e+002
2.905706e+002, 8.906971e+002
2.910527e+002, 9.087233e+002
2.915349e+002, 9.269423e+002
2.920170e+002, 9.429358e+002
2.924991e+002, 9.566797e+002
2.929812e+002, 9.696900e+002
2.934633e+002, 9.833380e+002
2.939454e+002, 9.968547e+002
2.944276e+002, 1.007485e+003
2.949097e+002, 1.014812e+003
2.953918e+002, 1.020030e+003
2.958739e+002, 1.024438e+003
2.963560e+002, 1.027936e+003
2.968381e+002, 1.030237e+003
2.973203e+002, 1.031747e+003
2.978024e+002, 1.031855e+003
2.982845e+002, 1.029031e+003
2.987666e+002, 1.023112e+003
2.992487e+002, 1.015457e+003
2.997308e+002, 1.007042e+003
3.002130e+002, 9.978499e+002
3.006951e+002, 9.879670e+002
3.011772e+002, 9.770031e+002
3.016593e+002, 9.656042e+002
3.021414e+002, 9.545084e+002
3.026235e+002, 9.438011e+002
3.031057e+002, 9.331823e+002
3.035878e+002, 9.217859e+002
3.040699e+002, 9.104283e+002
3.045520e+002, 9.009166e+002
3.050341e+002, 8.946847e+002
3.055162e+002, 8.897762e+002
3.059984e+002, 8.836180e+002
3.064805e+002, 8.765910e+002
3.069626e+002, 8.708929e+002
3.074447e+002, 8.685193e+002
3.079268e+002, 8.682692e+002
3.084089e+002, 8.686504e+002
3.088911e+002, 8.692189e+002
3.093732e+002, 8.704053e+002
3.098553e+002, 8.727210e+002
3.103374e+002, 8.759764e+002
3.108195e+002, 8.795941e+002
3.113016e+002, 8.827310e+002
3.117838e+002, 8.862950e+002
3.122659e+002, 8.911837e+002
3.127480e+002, 8.977386e+002
3.132301e+002, 9.051818e+002
3.137122e+002, 9.132381e+002
3.141943e+002, 9.219211e+002
3.146765e+002, 9.310902e+002
3.151586e+002, 9.413459e+002
3.156407e+002, 9.515801e+002
3.161228e+002, 9.612880e+002
3.166049e+002, 9.703839e+002
3.170870e+002, 9.788192e+002
3.175692e+002, 9.858844e+002
3.180513e+002, 9.923701e+002
3.185334e+002, 9.993373e+002
3.190155e+002, 1.007051e+003
3.194976e+002, 1.015393e+003
3.199797e+002, 1.024428e+003
3.204619e+002, 1.034217e+003
3.209440e+002, 1.043997e+003
3.214261e+002, 1.053409e+003
3.219082e+002, 1.062664e+003
3.223903e+002, 1.071921e+003
3.228724e+002, 1.081624e+003
3.233546e+002, 1.090897e+003
3.238367e+002, 1.099299e+003
3.243188e+002, 1.106861e+003
3.248009e+002, 1.114642e+003
3.252830e+002, 1.123227e+003
3.257651e+002, 1.131764e+003
3.262473e+002, 1.139680e+003
3.267294e+002, 1.146177e+003
3.272115e+002, 1.152966e+003
3.276936e+002, 1.160340e+003
3.281757e+002, 1.168174e+003
3.286578e+002, 1.176094e+003
3.291400e+002, 1.184602e+003
3.296221e+002, 1.192830e+003
3.301042e+002, 1.200502e+003
3.305863e+002, 1.207684e+003
3.310684e+002, 1.214220e+003
3.315505e+002, 1.219607e+003
3.320327e+002, 1.224386e+003
3.325148e+002, 1.229800e+003
3.329969e+002, 1.236849e+003
3.334790e+002, 1.243124e+003
3.339611e+002, 1.247928e+003
3.344432e+002, 1.251156e+003
3.349254e+002, 1.253212e+003
3.354075e+002, 1.254392e+003
3.358896e+002, 1.254064e+003
3.363717e+002, 1.250919e+003
3.368538e+002, 1.243618e+003
3.373359e+002, 1.236828e+003
3.378180e+002, 1.232412e+003
3.383001e+002, 1.230325e+003
3.387823e+002, 1.225480e+003
3.392644e+002, 1.217306e+003
3.397465e+002, 1.207686e+003
3.402286e+002, 1.198623e+003
3.407107e+002, 1.190551e+003
3.411928e+002, 1.180964e+003
3.416750e+002, 1.169325e+003
3.421571e+002, 1.155991e+003
3.426392e+002, 1.142821e+003
3.431213e+002, 1.129681e+003
3.436034e+002, 1.116884e+003
3.440855e+002, 1.104638e+003
3.445677e+002, 1.093016e+003
3.450498e+002, 1.080862e+003
3.455319e+002, 1.067679e+003
3.460140e+002, 1.054661e+003
3.464961e+002, 1.044608e+003
3.469782e+002, 1.037444e+003
3.474604e+002, 1.030272e+003
3.479425e+002, 1.020627e+003
3.484246e+002, 1.009528e+003
3.489067e+002, 1.001402e+003
3.493888e+002, 9.968289e+002
3.498709e+002, 9.934683e+002
3.503531e+002, 9.882885e+002
3.508352e+002, 9.818407e+002
3.513173e+002, 9.761998e+002
3.517994e+002, 9.732053e+002
3.522815e+002, 9.712006e+002
3.527636e+002, 9.673908e+002
3.532458e+002, 9.617646e+002
3.537279e+002, 9.552419e+002
3.542100e+002, 9.487531e+002
3.546921e+002, 9.418633e+002
3.551742e+002, 9.338718e+002
3.556563e+002, 9.244926e+002
3.561385e+002, 9.138606e+002
3.566206e+002, 9.021422e+002
3.571027e+002, 8.892322e+002
3.575848e+002, 8.750037e+002
3.580669e+002, 8.592128e+002
3.585490e+002, 8.420228e+002
3.590312e+002, 8.235535e+002
3.595133e+002, 8.033659e+002
3.599954e+002, 7.825392e+002
3.604775e+002, 7.611902e+002
3.609596e+002, 7.395485e+002
3.614417e+002, 7.184559e+002
3.619239e+002, 6.966360e+002
3.624060e+002, 6.764672e+002
3.628881e+002, 6.596685e+002
3.633702e+002, 6.469294e+002
3.638523e+002, 6.347696e+002
3.643344e+002, 6.211215e+002
3.648166e+002, 6.077796e+002
3.652987e+002, 5.967010e+002
3.657808e+002, 5.899107e+002
3.662629e+002, 5.841614e+002
3.667450e+002, 5.785998e+002
3.672271e+002, 5.732049e+002
3.677093e+002, 5.687971e+002
3.681914e+002, 5.653625e+002
3.686735e+002, 5.630014e+002
3.691556e+002, 5.617809e+002
3.696377e+002, 5.623418e+002
3.701198e+002, 5.632523e+002
3.706020e+002, 5.642245e+002
3.710841e+002, 5.654661e+002
3.715662e+002, 5.677973e+002
3.720483e+002, 5.717502e+002
3.725304e+002, 5.760941e+002
3.730125e+002, 5.803320e+002
3.734947e+002, 5.842960e+002
3.739768e+002, 5.885091e+002
3.744589e+002, 5.928898e+002
3.749410e+002, 5.976317e+002
3.754231e+002, 6.029554e+002
3.759052e+002, 6.088854e+002
3.763874e+002, 6.154851e+002
3.768695e+002, 6.229342e+002
3.773516e+002, 6.313054e+002
3.778337e+002, 6.389962e+002
3.783158e+002, 6.458846e+002
3.787979e+002, 6.527576e+002
3.792801e+002, 6.605346e+002
3.797622e+002, 6.693598e+002
3.802443e+002, 6.774720e+002
3.807264e+002, 6.844283e+002
3.812085e+002, 6.906533e+002
3.816906e+002, 6.978192e+002
3.821728e+002, 7.059378e+002
3.826549e+002, 7.129183e+002
3.831370e+002, 7.170714e+002
3.836191e+002, 7.188027e+002
3.841012e+002, 7.196042e+002
3.845833e+002, 7.196754e+002
3.850655e+002, 7.186273e+002
3.855476e+002, 7.160378e+002
3.860297e+002, 7.119133e+002
3.865118e+002, 7.064208e+002
3.869939e+002, 6.996141e+002
3.874760e+002, 6.914446e+002
3.879582e+002, 6.817532e+002
3.884403e+002, 6.704614e+002
3.889224e+002, 6.579760e+002
3.894045e+002, 6.447107e+002
3.898866e+002, 6.306046e+002
3.903687e+002, 6.153802e+002
3.908509e+002, 5.983489e+002
3.913330e+002, 5.810889e+002
3.918151e+002, 5.644980e+002
3.922972e+002, 5.485181e+002
3.927793e+002, 5.326138e+002
3.932614e+002, 5.163409e+002
3.937436e+002, 5.002445e+002
3.942257e+002, 4.843236e+002
3.947078e+002, 4.685958e+002
3.951899e+002, 4.533106e+002
3.956720e+002, 4.384911e+002
3.961541e+002, 4.241723e+002
3.966363e+002, 4.104132e+002
3.971184e+002, 3.968075e+002
3.976005e+002, 3.841492e+002
3.980826e+002, 3.729461e+002
3.985647e+002, 3.633838e+002
3.990468e+002, 3.538339e+002
3.995290e+002, 3.439086e+002
4.000111e+002, 3.340742e+002
4.004932e+002, 3.246760e+002
4.009753e+002, 3.154969e+002
4.014574e+002, 3.070402e+002
4.019395e+002, 2.996439e+002
4.024217e+002, 2.930891e+002
4.029038e+002, 2.864593e+002
4.033859e+002, 2.794585e+002
4.038680e+002, 2.728178e+002
4.043501e+002, 2.668075e+002
4.048322e+002, 2.614124e+002
4.053144e+002, 2.569752e+002
4.057965e+002, 2.538356e+002
4.062786e+002, 2.513079e+002
4.067607e+002, 2.483098e+002
4.072428e+002, 2.447480e+002
4.077249e+002, 2.411816e+002
4.082071e+002, 2.376694e+002
4.086892e+002, 2.342918e+002
4.091713e+002, 2.317655e+002
4.096534e+002, 2.301574e+002
4.101355e+002, 2.289615e+002
4.106176e+002, 2.277478e+002
4.110998e+002, 2.265374e+002
4.115819e+002, 2.255050e+002
4.120640e+002, 2.247115e+002
4.125461e+002, 2.240610e+002
4.130282e+002, 2.233414e+002
4.135103e+002, 2.225880e+002
4.139925e+002, 2.219904e+002
4.144746e+002, 2.216550e+002
4.149567e+002, 2.215400e+002
4.154388e+002, 2.215323e+002
4.159209e+002, 2.215992e+002
4.164030e+002, 2.219842e+002
4.168852e+002, 2.232930e+002
4.173673e+002, 2.249940e+002
4.178494e+002, 2.262257e+002
4.183315e+002, 2.258495e+002
4.188136e+002, 2.255778e+002
4.192957e+002, 2.267390e+002
4.197779e+002, 2.291257e+002
4.202600e+002, 2.314036e+002
4.207421e+002, 2.327798e+002
4.212242e+002, 2.339268e+002
4.217063e+002, 2.352970e+002
4.221884e+002, 2.370938e+002
4.226706e+002, 2.389374e+002
4.231527e+002, 2.407853e+002
4.236348e+002, 2.426257e+002
4.241169e+002, 2.444421e+002
4.245990e+002, 2.461813e+002
4.250811e+002, 2.479658e+002
4.255633e+002, 2.500125e+002
4.260454e+002, 2.524726e+002
4.265275e+002, 2.540931e+002
4.270096e+002, 2.543557e+002
4.274917e+002, 2.541945e+002
4.279738e+002, 2.544120e+002
4.284560e+002, 2.553739e+002
4.289381e+002, 2.559462e+002
4.294202e+002, 2.560182e+002
4.299023e+002, 2.556063e+002
4.303844e+002, 2.547627e+002
4.308665e+002, 2.535104e+002
4.313487e+002, 2.517673e+002
4.318308e+002, 2.494083e+002
4.323129e+002, 2.464228e+002
4.327950e+002, 2.433215e+002
4.332771e+002, 2.401249e+002
4.337592e+002, 2.368003e+002
4.342414e+002, 2.332620e+002
4.347235e+002, 2.295141e+002
4.352056e+002, 2.255612e+002
4.356877e+002, 2.212867e+002
4.361698e+002, 2.169114e+002
4.366519e+002, 2.127833e+002
4.371341e+002, 2.089068e+002
4.376162e+002, 2.053170e+002
4.380983e+002, 2.022191e+002
4.385804e+002, 1.993434e+002
4.390625e+002, 1.961089e+002
4.395446e+002, 1.922495e+002
4.400268e+002, 1.886039e+002
4.405089e+002, 1.861238e+002
4.409910e+002, 1.843931e+002
4.414731e+002, 1.825993e+002
4.419552e+002, 1.802664e+002
4.424373e+002, 1.778147e+002
4.429195e+002, 1.754860e+002
4.434016e+002, 1.732852e+002
4.438837e+002, 1.710753e+002
4.443658e+002, 1.684752e+002
4.448479e+002, 1.660114e+002
4.453300e+002, 1.641395e+002
4.458122e+002, 1.635122e+002
4.462943e+002, 1.627111e+002
4.467764e+002, 1.614054e+002
4.472585e+002, 1.597457e+002
4.477406e+002, 1.581180e+002
4.482227e+002, 1.563229e+002
4.487049e+002, 1.547905e+002
4.491870e+002, 1.536990e+002
4.496691e+002, 1.531539e+002
4.501512e+002, 1.524658e+002
4.506333e+002, 1.515329e+002
4.511154e+002, 1.505808e+002
4.515976e+002, 1.498954e+002
4.520797e+002, 1.496725e+002
4.525618e+002, 1.490606e+002
4.530439e+002, 1.477815e+002
4.535260e+002, 1.461144e+002
4.540081e+002, 1.447816e+002
4.544903e+002, 1.437728e+002
4.549724e+002, 1.431539e+002
4.554545e+002, 1.432106e+002
4.559366e+002, 1.437971e+002
4.564187e+002, 1.438431e+002
4.569008e+002, 1.432763e+002
4.573830e+002, 1.423754e+002
4.578651e+002, 1.413952e+002
4.583472e+002, 1.403401e+002
4.588293e+002, 1.392549e+002
4.593114e+002, 1.380025e+002
4.597935e+002, 1.368659e+002
4.602757e+002, 1.362893e+002
4.607578e+002, 1.361827e+002
4.612399e+002, 1.360792e+002
4.617220e+002, 1.357082e+002
4.622041e+002, 1.351932e+002
4.626862e+002, 1.346311e+002
4.631684e+002, 1.340196e+002
4.636505e+002, 1.334496e+002
4.641326e+002, 1.331130e+002
4.646147e+002, 1.328127e+002
4.650968e+002, 1.322846e+002
4.655789e+002, 1.313843e+002
4.660611e+002, 1.303329e+002
4.665432e+002, 1.289604e+002
4.670253e+002, 1.273504e+002
4.675074e+002, 1.262959e+002
4.679895e+002, 1.265668e+002
4.684716e+002, 1.268680e+002
4.689538e+002, 1.265495e+002
4.694359e+002, 1.251747e+002
4.699180e+002, 1.241673e+002
4.704001e+002, 1.237406e+002
4.708822e+002, 1.235220e+002
4.713643e+002, 1.229637e+002
4.718465e+002, 1.220253e+002
4.723286e+002, 1.208299e+002
4.728107e+002, 1.192572e+002
4.732928e+002, 1.174504e+002
4.737749e+002, 1.161958e+002
4.742570e+002, 1.155790e+002
4.747392e+002, 1.150991e+002
4.752213e+002, 1.144522e+002
4.757034e+002, 1.136374e+002
4.761855e+002, 1.125763e+002
4.766676e+002, 1.111844e+002
4.771497e+002, 1.098071e+002
4.776319e+002, 1.090957e+002
4.781140e+002, 1.088344e+002
4.785961e+002, 1.083246e+002
4.790782e+002, 1.069781e+002
4.795603e+002, 1.054012e+002
4.800424e+002, 1.042320e+002
4.805246e+002, 1.034535e+002
4.810067e+002, 1.029609e+002
4.814888e+002, 1.029470e+002
4.819709e+002, 1.030422e+002
4.824530e+002, 1.029181e+002
4.829352e+002, 1.024704e+002
4.834173e+002, 1.019009e+002
4.838994e+002, 1.013199e+002
4.843815e+002, 1.006558e+002
4.848636e+002, 9.980656e+001
4.853457e+002, 9.834473e+001
4.858279e+002, 9.711303e+001
4.863100e+002, 9.634844e+001
4.867921e+002, 9.606238e+001
4.872742e+002, 9.598803e+001
4.877563e+002, 9.642949e+001
4.882384e+002, 9.677666e+001
4.887206e+002, 9.667845e+001
4.892027e+002, 9.600542e+001
4.896848e+002, 9.519213e+001
4.901669e+002, 9.405612e+001
4.906490e+002, 9.298611e+001
4.911311e+002, 9.272421e+001
4.916133e+002, 9.341508e+001
4.920954e+002, 9.392565e+001
4.925775e+002, 9.386703e+001
4.930596e+002, 9.337169e+001
4.935417e+002, 9.281416e+001
4.940238e+002, 9.218926e+001
4.945060e+002, 9.182146e+001
4.949881e+002, 9.210606e+001
4.954702e+002, 9.282437e+001
4.959523e+002, 9.353994e+001
4.964344e+002, 9.426502e+001
4.969165e+002, 9.463534e+001
4.973987e+002, 9.391918e+001
4.978808e+002, 9.261991e+001
4.983629e+002, 9.170129e+001
4.988450e+002, 9.198667e+001
4.993271e+002, 9.242447e+001
4.998092e+002, 9.232212e+001
5.002914e+002, 9.175656e+001
5.007735e+002, 9.118178e+001
5.012556e+002, 9.071636e+001
5.017377e+002, 9.033115e+001
5.022198e+002, 8.997961e+001
5.027019e+002, 8.955686e+001
5.031841e+002, 8.942361e+001
5.036662e+002, 8.981528e+001
5.041483e+002, 9.044349e+001
5.046304e+002, 9.099191e+001
5.051125e+002, 9.161118e+001
5.055946e+002, 9.187743e+001
5.060768e+002, 9.154917e+001
5.065589e+002, 9.079892e+001
5.070410e+002, 9.056612e+001
5.075231e+002, 9.105727e+001
5.080052e+002, 9.148238e+001
5.084873e+002, 9.140961e+001
5.089695e+002, 9.083505e+001
5.094516e+002, 9.010953e+001
5.099337e+002, 8.917203e+001
5.104158e+002, 8.834478e+001
5.108979e+002, 8.812412e+001
5.113800e+002, 8.837409e+001
5.118622e+002, 8.845393e+001
5.123443e+002, 8.803072e+001
5.128264e+002, 8.759989e+001
5.133085e+002, 8.806645e+001
5.137906e+002, 8.916077e+001
5.142728e+002, 8.991483e+001
5.147549e+002, 8.954832e+001
5.152370e+002, 8.876087e+001
5.157191e+002, 8.806855e+001
5.162012e+002, 8.750708e+001
5.166833e+002, 8.714176e+001
5.171655e+002, 8.715444e+001
5.176476e+002, 8.729118e+001
5.181297e+002, 8.733682e+001
5.186118e+002, 8.730379e+001
5.190939e+002, 8.710735e+001
5.195760e+002, 8.662230e+001
5.200582e+002, 8.597000e+001
5.205403e+002, 8.542153e+001
5.210224e+002, 8.494497e+001
5.215045e+002, 8.462451e+001
5.219866e+002, 8.449118e+001
5.224688e+002, 8.454483e+001
5.229509e+002, 8.475298e+001
5.234330e+002, 8.520939e+001
5.239151e+002, 8.560319e+001
5.243972e+002, 8.567916e+001
5.248793e+002, 8.543043e+001
5.253615e+002, 8.506599e+001
5.258436e+002, 8.455093e+001
5.263257e+002, 8.406374e+001
5.268078e+002, 8.394613e+001
5.272899e+002, 8.412234e+001
5.277720e+002, 8.423737e+001
5.282542e+002, 8.412563e+001
5.287363e+002, 8.389670e+001
5.292184e+002, 8.369935e+001
5.297005e+002, 8.352135e+001
5.301826e+002, 8.328667e+001
5.306647e+002, 8.275869e+001
5.311469e+002, 8.227127e+001
5.316290e+002, 8.219604e+001
5.321111e+002, 8.270300e+001
5.325932e+002, 8.303802e+001
5.330753e+002, 8.266517e+001
5.335574e+002, 8.207613e+001
5.340396e+002, 8.178692e+001
5.345217e+002, 8.223946e+001
5.350038e+002, 8.258223e+001
5.354859e+002, 8.270798e+001
5.359680e+002, 8.264190e+001
5.364501e+002, 8.241696e+001
5.369323e+002, 8.178859e+001
5.374144e+002, 8.142883e+001
5.378965e+002, 8.173571e+001
5.383786e+002, 8.273621e+001
5.388607e+002, 8.308144e+001
5.393428e+002, 8.261441e+001
5.398250e+002, 8.196422e+001
5.403071e+002, 8.171245e+001
5.407892e+002, 8.182337e+001
5.412713e+002, 8.193903e+001
5.417534e+002, 8.200243e+001
5.422355e+002, 8.206363e+001
5.427177e+002, 8.234399e+001
5.431998e+002, 8.271058e+001
5.436819e+002, 8.273006e+001
5.441640e+002, 8.189275e+001
5.446461e+002, 8.083939e+001
5.451282e+002, 8.000920e+001
5.456104e+002, 7.943766e+001
5.460925e+002, 7.929697e+001
5.465746e+002, 8.013311e+001
5.470567e+002, 8.110844e+001
5.475388e+002, 8.166427e+001
5.480209e+002, 8.163651e+001
5.485031e+002, 8.146712e+001
5.489852e+002, 8.111286e+001
5.494673e+002, 8.072425e+001
5.499494e+002, 8.046471e+001
5.504315e+002, 8.046835e+001
5.509136e+002, 8.037447e+001
5.513958e+002, 7.999230e+001
5.518779e+002, 7.952572e+001
5.523600e+002, 7.966560e+001
5.528421e+002, 8.059510e+001
5.533242e+002, 8.149487e+001
5.538063e+002, 8.208164e+001
5.542885e+002, 8.235644e+001
5.547706e+002, 8.224189e+001
5.552527e+002, 8.170805e+001
5.557348e+002, 8.110497e+001
5.562169e+002, 8.070016e+001
5.566990e+002, 8.046596e+001
5.571812e+002, 8.032071e+001
5.576633e+002, 8.025105e+001
5.581454e+002, 8.027418e+001
5.586275e+002, 8.057809e+001
5.591096e+002, 8.096190e+001
5.595917e+002, 8.107694e+001
5.600739e+002, 8.034129e+001
5.605560e+002, 7.971902e+001
5.610381e+002, 7.986530e+001
5.615202e+002, 8.059138e+001
5.620023e+002, 8.105846e+001
5.624844e+002, 8.094563e+001
5.629666e+002, 8.062019e+001
5.634487e+002, 8.016862e+001
5.639308e+002, 7.952115e+001
5.644129e+002, 7.913055e+001
5.648950e+002, 7.907587e+001
5.653771e+002, 7.919054e+001
5.658593e+002, 7.933296e+001
5.663414e+002, 7.948026e+001
5.668235e+002, 7.980061e+001
5.673056e+002, 8.041825e+001
5.677877e+002, 8.105527e+001
5.682698e+002, 8.109648e+001
5.687520e+002, 8.058273e+001
5.692341e+002, 8.020545e+001
5.697162e+002, 8.036988e+001
5.701983e+002, 8.073732e+001
5.706804e+002, 8.061326e+001
5.711625e+002, 8.006699e+001
5.716447e+002, 7.957366e+001
5.721268e+002, 7.952217e+001
5.726089e+002, 7.962916e+001
5.730910e+002, 7.961481e+001
5.735731e+002, 7.943136e+001
5.740552e+002, 7.925709e+001
5.745374e+002, 7.898975e+001
5.750195e+002, 7.885986e+001
5.755016e+002, 7.908033e+001
5.759837e+002, 8.034936e+001
5.764658e+002, 8.114835e+001
5.769479e+002, 8.107514e+001
5.774301e+002, 8.051067e+001
5.779122e+002, 8.017106e+001
5.783943e+002, 8.002559e+001
5.788764e+002, 8.017717e+001
5.793585e+002, 8.077457e+001
5.798406e+002, 8.171716e+001
5.803228e+002, 8.232399e+001
5.808049e+002, 8.258800e+001
5.812870e+002, 8.256030e+001
5.817691e+002, 8.215168e+001
5.822512e+002, 8.146106e+001
5.827333e+002, 8.081142e+001
5.832155e+002, 8.019891e+001
5.836975e+002, 7.985152e+001
5.841796e+002, 8.022585e+001
5.846617e+002, 8.094812e+001
5.851439e+002, 8.137166e+001
5.856260e+002, 8.115038e+001
5.861081e+002, 8.090296e+001
5.865902e+002, 8.114535e+001
5.870723e+002, 8.161606e+001
5.875544e+002, 8.180732e+001
5.880366e+002, 8.099745e+001
5.885187e+002, 8.047178e+001
5.890008e+002, 8.086102e+001
5.894829e+002, 8.210549e+001
5.899650e+002, 8.286437e+001
5.904471e+002, 8.294193e+001
5.909293e+002, 8.277891e+001
5.914114e+002, 8.252365e+001
5.918935e+002, 8.213538e+001
5.923756e+002, 8.193378e+001
5.928577e+002, 8.193623e+001
5.933398e+002, 8.207793e+001
5.938220e+002, 8.235050e+001
5.943041e+002, 8.273058e+001
5.947862e+002, 8.303519e+001
5.952683e+002, 8.323293e+001
5.957504e+002, 8.334441e+001
5.962325e+002, 8.338271e+001
5.967147e+002, 8.335886e+001
5.971968e+002, 8.330003e+001
5.976789e+002, 8.311398e+001
5.981610e+002, 8.298588e+001
5.986431e+002, 8.306335e+001
5.991252e+002, 8.332198e+001
5.996074e+002, 8.364053e+001
6.000895e+002, 8.411489e+001
6.005716e+002, 8.452269e+001
6.010537e+002, 8.472830e+001
6.015358e+002, 8.466323e+001
6.020179e+002, 8.466230e+001
6.025001e+002, 8.471376e+001
6.029822e+002, 8.484627e+001
6.034643e+002, 8.516528e+001
6.039464e+002, 8.584961e+001
6.044285e+002, 8.590990e+001
6.049106e+002, 8.502281e+001
6.053928e+002, 8.397865e+001
6.058749e+002, 8.422972e+001
6.063570e+002, 8.565410e+001
6.068391e+002, 8.659635e+001
6.073212e+002, 8.633496e+001
6.078033e+002, 8.560828e+001
6.082855e+002, 8.556877e+001
6.087676e+002, 8.605317e+001
6.092497e+002, 8.646004e+001
6.097318e+002, 8.631647e+001
6.102139e+002, 8.606270e+001
6.106960e+002, 8.612683e+001
6.111782e+002, 8.650893e+001
6.116603e+002, 8.665847e+001
6.121424e+002, 8.598704e+001
6.126245e+002, 8.531090e+001
6.131066e+002, 8.518166e+001
6.135887e+002, 8.600615e+001
6.140709e+002, 8.652233e+001
6.145530e+002, 8.659747e+001
6.150351e+002, 8.649076e+001
6.155172e+002, 8.647099e+001
6.159993e+002, 8.656114e+001
6.164814e+002, 8.662241e+001
6.169636e+002, 8.659952e+001
6.174457e+002, 8.659118e+001
6.179278e+002, 8.685845e+001
6.184099e+002, 8.736814e+001
6.188920e+002, 8.777401e+001
6.193741e+002, 8.782302e+001
6.198563e+002, 8.776801e+001
6.203384e+002, 8.805083e+001
6.208205e+002, 8.859615e+001
6.213026e+002, 8.902989e+001
6.217847e+002, 8.906957e+001
6.222668e+002, 8.896329e+001
6.227490e+002, 8.888145e+001
6.232311e+002, 8.884361e+001
6.237132e+002, 8.879491e+001
6.241953e+002, 8.868221e+001
6.246774e+002, 8.858287e+001
6.251595e+002, 8.855295e+001
6.256417e+002, 8.862973e+001
6.261238e+002, 8.869970e+001
6.266059e+002, 8.871849e+001
6.270880e+002, 8.878105e+001
6.275701e+002, 8.902818e+001
6.280522e+002, 8.947543e+001
6.285344e+002, 8.998357e+001
6.290165e+002, 9.057117e+001
6.294986e+002, 9.113309e+001
6.299807e+002, 9.136034e+001
6.304628e+002, 9.133040e+001
6.309449e+002, 9.145506e+001
6.314271e+002, 9.216231e+001
6.319092e+002, 9.298248e+001
6.323913e+002, 9.334921e+001
6.328734e+002, 9.332640e+001
6.333555e+002, 9.333208e+001
6.338376e+002, 9.376233e+001
6.343198e+002, 9.413826e+001
6.348019e+002, 9.405391e+001
6.352840e+002, 9.330020e+001
6.357661e+002, 9.300077e+001
6.362482e+002, 9.353471e+001
6.367303e+002, 9.433155e+001
6.372125e+002, 9.504401e+001
6.376946e+002, 9.571770e+001
6.381767e+002, 9.613640e+001
6.386588e+002, 9.618107e+001
6.391409e+002, 9.616380e+001
6.396230e+002, 9.660448e+001
6.401052e+002, 9.746799e+001
6.405873e+002, 9.819283e+001
6.410694e+002, 9.863449e+001
6.415515e+002, 9.886565e+001
6.420336e+002, 9.884306e+001
6.425157e+002, 9.867422e+001
6.429979e+002, 9.867453e+001
6.434800e+002, 9.912847e+001
6.439621e+002, 9.969923e+001
6.444442e+002, 1.001491e+002
6.449263e+002, 1.004990e+002
6.454084e+002, 1.008908e+002
6.458906e+002, 1.013989e+002
6.463727e+002, 1.019302e+002
6.468548e+002, 1.024275e+002
6.473369e+002, 1.028708e+002
6.478190e+002, 1.034232e+002
6.483011e+002, 1.041659e+002
6.487833e+002, 1.048901e+002
6.492654e+002, 1.054307e+002
6.497475e+002, 1.057843e+002
6.502296e+002, 1.060312e+002
6.507117e+002, 1.061392e+002
6.511938e+002, 1.062870e+002
6.516760e+002, 1.067665e+002
6.521581e+002, 1.074746e+002
6.526402e+002, 1.080397e+002
6.531223e+002, 1.082417e+002
6.536044e+002, 1.085331e+002
6.540865e+002, 1.095352e+002
6.545687e+002, 1.109031e+002
6.550508e+002, 1.119765e+002
6.555329e+002, 1.122117e+002
6.560150e+002, 1.124288e+002
6.564971e+002, 1.128854e+002
6.569792e+002, 1.135722e+002
6.574614e+002, 1.144113e+002
6.579435e+002, 1.155297e+002
6.584256e+002, 1.166051e+002
6.589077e+002, 1.174927e+002
6.593898e+002, 1.182065e+002
6.598719e+002, 1.191592e+002
6.603541e+002, 1.204217e+002
6.608362e+002, 1.215866e+002
6.613183e+002, 1.223523e+002
6.618004e+002, 1.227810e+002
6.622825e+002, 1.231137e+002
6.627646e+002, 1.233550e+002
6.632468e+002, 1.236503e+002
6.637289e+002, 1.240131e+002
6.642110e+002, 1.245531e+002
6.646931e+002, 1.253906e+002
6.651752e+002, 1.265084e+002
6.656573e+002, 1.280560e+002
6.661395e+002, 1.308630e+002
6.666216e+002, 1.338588e+002
6.671037e+002, 1.357253e+002
6.675858e+002, 1.348241e+002
6.680679e+002, 1.346458e+002
6.685500e+002, 1.356584e+002
6.690322e+002, 1.374532e+002
6.695143e+002, 1.391668e+002
6.699964e+002, 1.408115e+002
6.704785e+002, 1.423535e+002
6.709606e+002, 1.437684e+002
6.714427e+002, 1.450874e+002
6.719249e+002, 1.462171e+002
6.724070e+002, 1.472206e+002
6.728891e+002, 1.485944e+002
6.733712e+002, 1.510466e+002
6.738533e+002, 1.537713e+002
6.743354e+002, 1.557249e+002
6.748176e+002, 1.569563e+002
6.752997e+002, 1.581811e+002
6.757818e+002, 1.594886e+002
6.762639e+002, 1.610909e+002
6.767460e+002, 1.632020e+002
6.772281e+002, 1.659568e+002
6.777103e+002, 1.686265e+002
6.781924e+002, 1.710840e+002
6.786745e+002, 1.735444e+002
6.791566e+002, 1.762993e+002
6.796387e+002, 1.795542e+002
6.801208e+002, 1.820177e+002
6.806030e+002, 1.834195e+002
6.810851e+002, 1.846309e+002
6.815672e+002, 1.869338e+002
6.820493e+002, 1.900713e+002
6.825314e+002, 1.930234e+002
6.830135e+002, 1.954431e+002
6.834957e+002, 1.977669e+002
6.839778e+002, 2.003838e+002
6.844599e+002, 2.032327e+002
6.849420e+002, 2.060946e+002
6.854241e+002, 2.092347e+002
6.859063e+002, 2.120733e+002
6.863884e+002, 2.142517e+002
6.868705e+002, 2.159487e+002
6.873526e+002, 2.178138e+002
6.878347e+002, 2.199050e+002
6.883168e+002, 2.221975e+002
6.887990e+002, 2.248205e+002
6.892811e+002, 2.276768e+002
6.897632e+002, 2.297342e+002
6.902453e+002, 2.308583e+002
6.907274e+002, 2.320763e+002
6.912095e+002, 2.341051e+002
6.916917e+002, 2.366577e+002
6.921738e+002, 2.389323e+002
6.926559e+002, 2.409004e+002
6.931380e+002, 2.427900e+002
6.936201e+002, 2.448481e+002
6.941022e+002, 2.468414e+002
6.945844e+002, 2.485120e+002
6.950665e+002, 2.497624e+002
6.955486e+002, 2.510441e+002
6.960307e+002, 2.525589e+002
6.965128e+002, 2.541283e+002
6.969949e+002, 2.556786e+002
6.974771e+002, 2.576091e+002
6.979592e+002, 2.585993e+002
6.984413e+002, 2.582177e+002
6.989234e+002, 2.574464e+002
6.994055e+002, 2.575469e+002
6.998876e+002, 2.585412e+002
7.003698e+002, 2.594928e+002
7.008519e+002, 2.603765e+002
7.013340e+002, 2.607919e+002
7.018161e+002, 2.596466e+002
7.022982e+002, 2.575760e+002
7.027803e+002, 2.561943e+002
7.032625e+002, 2.566077e+002
7.037446e+002, 2.572867e+002
7.042267e+002, 2.571319e+002
7.047088e+002, 2.564924e+002
7.051909e+002, 2.561349e+002
7.056730e+002, 2.564263e+002
7.061552e+002, 2.568500e+002
7.066373e+002, 2.575421e+002
7.071194e+002, 2.582986e+002
7.076015e+002, 2.580990e+002
7.080836e+002, 2.566858e+002
7.085657e+002, 2.550602e+002
7.090479e+002, 2.534855e+002
7.095300e+002, 2.520303e+002
7.100121e+002, 2.509970e+002
7.104942e+002, 2.503783e+002
7.109763e+002, 2.500937e+002
7.114584e+002, 2.505915e+002
7.119406e+002, 2.511146e+002
7.124227e+002, 2.505292e+002
7.129048e+002, 2.488147e+002
7.133869e+002, 2.471970e+002
7.138690e+002, 2.464126e+002
7.143511e+002, 2.458335e+002
7.148333e+002, 2.450632e+002
7.153154e+002, 2.440560e+002
7.157975e+002, 2.428698e+002
7.162796e+002, 2.413827e+002
7.167617e+002, 2.398681e+002
7.172438e+002, 2.384993e+002
7.177260e+002, 2.372888e+002
7.182081e+002, 2.362354e+002
7.186902e+002, 2.353482e+002
7.191723e+002, 2.346275e+002
7.196544e+002, 2.340612e+002
7.201365e+002, 2.336730e+002
7.206187e+002, 2.335998e+002
7.211008e+002, 2.340183e+002
7.215829e+002, 2.342941e+002
7.220650e+002, 2.338419e+002
7.225471e+002, 2.329908e+002
7.230292e+002, 2.321720e+002
7.235114e+002, 2.309053e+002
7.239935e+002, 2.304445e+002
7.244756e+002, 2.315733e+002
7.249577e+002, 2.333938e+002
7.254398e+002, 2.343287e+002
7.259219e+002, 2.339317e+002
7.264041e+002, 2.340245e+002
7.268862e+002, 2.351214e+002
7.273683e+002, 2.368117e+002
7.278504e+002, 2.381529e+002
7.283325e+002, 2.391661e+002
7.288146e+002, 2.399806e+002
7.292968e+002, 2.404541e+002
7.297789e+002, 2.409176e+002
7.302610e+002, 2.418657e+002
7.307431e+002, 2.431440e+002
7.312252e+002, 2.442419e+002
7.317073e+002, 2.443342e+002
7.321895e+002, 2.447847e+002
7.326716e+002, 2.463194e+002
7.331537e+002, 2.489014e+002
7.336358e+002, 2.514341e+002
7.341179e+002, 2.540311e+002
7.346000e+002, 2.564397e+002
7.350822e+002, 2.585034e+002
7.355643e+002, 2.602635e+002
7.360464e+002, 2.619144e+002
7.365285e+002, 2.634382e+002
7.370106e+002, 2.652429e+002
7.374927e+002, 2.679030e+002
7.379749e+002, 2.709329e+002
7.384570e+002, 2.733490e+002
7.389391e+002, 2.751126e+002
7.394212e+002, 2.772061e+002
7.399033e+002, 2.805308e+002
7.403854e+002, 2.841659e+002
7.408676e+002, 2.873524e+002
7.413497e+002, 2.897487e+002
7.418318e+002, 2.928039e+002
7.423139e+002, 2.970386e+002
7.427960e+002, 3.014656e+002
7.432781e+002, 3.053481e+002
7.437603e+002, 3.085148e+002
7.442424e+002, 3.123985e+002
7.447245e+002, 3.171261e+002
7.452066e+002, 3.222644e+002
7.456887e+002, 3.276548e+002
7.461708e+002, 3.331601e+002
7.466530e+002, 3.380999e+002
7.471351e+002, 3.421082e+002
7.476172e+002, 3.468049e+002
7.480993e+002, 3.538647e+002
7.485814e+002, 3.620750e+002
7.490635e+002, 3.700018e+002
7.495457e+002, 3.773069e+002
7.500278e+002, 3.844717e+002
7.505099e+002, 3.906881e+002
7.509920e+002, 3.972179e+002
7.514741e+002, 4.057201e+002
7.519562e+002, 4.166502e+002
7.524384e+002, 4.272570e+002
7.529205e+002, 4.369434e+002
7.534026e+002, 4.463906e+002
7.538847e+002, 4.563512e+002
7.543668e+002, 4.668934e+002
7.548489e+002, 4.784521e+002
7.553311e+002, 4.911349e+002
7.558132e+002, 5.048619e+002
7.562953e+002, 5.194216e+002
7.567774e+002, 5.349091e+002
7.572595e+002, 5.511693e+002
7.577416e+002, 5.694396e+002
7.582238e+002, 5.871686e+002
7.587059e+002, 6.030366e+002
7.591880e+002, 6.184208e+002
7.596701e+002, 6.364166e+002
7.601522e+002, 6.577807e+002
7.606343e+002, 6.798401e+002
7.611165e+002, 7.021877e+002
7.615986e+002, 7.249006e+002
7.620807e+002, 7.480157e+002
7.625628e+002, 7.717106e+002
7.630449e+002, 7.970097e+002
7.635270e+002, 8.251419e+002
7.640092e+002, 8.543104e+002
7.644913e+002, 8.832359e+002
7.649734e+002, 9.120080e+002
7.654555e+002, 9.413825e+002
7.659376e+002, 9.702051e+002
7.664197e+002, 1.000740e+003
7.669019e+002, 1.034605e+003
7.673840e+002, 1.070848e+003
7.678661e+002, 1.105088e+003
7.683482e+002, 1.136471e+003
7.688303e+002, 1.168060e+003
7.693124e+002, 1.201057e+003
7.697946e+002, 1.234805e+003
7.702767e+002, 1.268193e+003
7.707588e+002, 1.301217e+003
7.712409e+002, 1.333857e+003
7.717230e+002, 1.367068e+003
7.722051e+002, 1.399217e+003
7.726873e+002, 1.428681e+003
7.731694e+002, 1.455651e+003
7.736515e+002, 1.480824e+003
7.741336e+002, 1.506132e+003
7.746157e+002, 1.528329e+003
7.750978e+002, 1.546035e+003
7.755800e+002, 1.559377e+003
7.760621e+002, 1.569751e+003
7.765442e+002, 1.577198e+003
7.770263e+002, 1.581608e+003
7.775084e+002, 1.583231e+003
7.779905e+002, 1.581789e+003
7.784727e+002, 1.575030e+003
7.789548e+002, 1.563138e+003
7.794369e+002, 1.549545e+003
7.799190e+002, 1.537619e+003
7.804011e+002, 1.524571e+003
7.808832e+002, 1.507401e+003
7.813654e+002, 1.486042e+003
7.818475e+002, 1.462217e+003
7.823296e+002, 1.433771e+003
7.828117e+002, 1.405447e+003
7.832938e+002, 1.379349e+003
7.837759e+002, 1.355666e+003
7.842581e+002, 1.332113e+003
7.847402e+002, 1.308508e+003
7.852223e+002, 1.286166e+003
7.857044e+002, 1.266317e+003
7.861865e+002, 1.248498e+003
7.866686e+002, 1.229759e+003
7.871508e+002, 1.209987e+003
7.876329e+002, 1.191370e+003
7.881150e+002, 1.174867e+003
7.885971e+002, 1.160360e+003
7.890792e+002, 1.148451e+003
7.895613e+002, 1.139205e+003
7.900435e+002, 1.130477e+003
7.905256e+002, 1.121382e+003
7.910077e+002, 1.112886e+003
7.914898e+002, 1.105240e+003
7.919719e+002, 1.098367e+003
7.924540e+002, 1.093234e+003
7.929362e+002, 1.090039e+003
7.934183e+002, 1.088038e+003
7.939004e+002, 1.087105e+003
7.943825e+002, 1.086872e+003
7.948646e+002, 1.086111e+003
7.953467e+002, 1.084715e+003
7.958289e+002, 1.084031e+003
7.963110e+002, 1.084517e+003
7.967931e+002, 1.086505e+003
7.972752e+002, 1.090598e+003
7.977573e+002, 1.097443e+003
7.982394e+002, 1.103987e+003
7.987216e+002, 1.109349e+003
7.992037e+002, 1.114936e+003
7.996858e+002, 1.121443e+003
8.001679e+002, 1.128868e+003
8.006500e+002, 1.137723e+003
8.011321e+002, 1.148264e+003
8.016143e+002, 1.159394e+003
8.020964e+002, 1.169143e+003
8.025785e+002, 1.179023e+003
8.030606e+002, 1.192393e+003
8.035427e+002, 1.209755e+003
8.040248e+002, 1.228494e+003
8.045070e+002, 1.247155e+003
8.049891e+002, 1.266674e+003
8.054712e+002, 1.287710e+003
8.059533e+002, 1.310776e+003
8.064354e+002, 1.334535e+003
8.069175e+002, 1.357784e+003
8.073997e+002, 1.383417e+003
8.078818e+002, 1.415244e+003
8.083639e+002, 1.452794e+003
8.088460e+002, 1.484908e+003
8.093281e+002, 1.510710e+003
8.098102e+002, 1.537241e+003
8.102924e+002, 1.570980e+003
8.107745e+002, 1.609292e+003
8.112566e+002, 1.649062e+003
8.117387e+002, 1.689589e+003
8.122208e+002, 1.731020e+003
8.127029e+002, 1.773360e+003
8.131851e+002, 1.816638e+003
8.136672e+002, 1.861335e+003
8.141493e+002, 1.908256e+003
8.146314e+002, 1.953279e+003
8.151135e+002, 1.996208e+003
8.155956e+002, 2.036838e+003
8.160778e+002, 2.075096e+003
8.165599e+002, 2.110644e+003
8.170420e+002, 2.140807e+003
8.175241e+002, 2.165484e+003
8.180062e+002, 2.186486e+003
8.184883e+002, 2.205526e+003
8.189705e+002, 2.221758e+003
8.194526e+002, 2.233172e+003
8.199347e+002, 2.238695e+003
8.204168e+002, 2.245671e+003
8.208989e+002, 2.255609e+003
8.213810e+002, 2.267397e+003
8.218632e+002, 2.279654e+003
8.223453e+002, 2.291614e+003
8.228274e+002, 2.312600e+003
8.233095e+002, 2.342954e+003
8.237916e+002, 2.378256e+003
8.242737e+002, 2.413698e+003
8.247559e+002, 2.451528e+003
8.252380e+002, 2.495864e+003
8.257201e+002, 2.546640e+003
8.262022e+002, 2.604059e+003
8.266843e+002, 2.670155e+003
8.271664e+002, 2.740870e+003
8.276486e+002, 2.813192e+003
8.281307e+002, 2.887351e+003
8.286128e+002, 2.964818e+003
8.290949e+002, 3.046028e+003
8.295770e+002, 3.130750e+003
8.300591e+002, 3.220948e+003
8.305413e+002, 3.315732e+003
8.310234e+002, 3.409760e+003
8.315055e+002, 3.502995e+003
8.319876e+002, 3.594197e+003
8.324697e+002, 3.681413e+003
8.329518e+002, 3.767561e+003
8.334340e+002, 3.856882e+003
8.339161e+002, 3.949256e+003
8.343982e+002, 4.044286e+003
8.348803e+002, 4.148970e+003
8.353624e+002, 4.249050e+003
8.358445e+002, 4.338011e+003
8.363267e+002, 4.415914e+003
8.368088e+002, 4.494503e+003
8.372909e+002, 4.575157e+003
8.377730e+002, 4.648452e+003
8.382551e+002, 4.710476e+003
8.387372e+002, 4.761007e+003
8.392194e+002, 4.800440e+003
8.397015e+002, 4.828270e+003
8.401836e+002, 4.841474e+003
8.406657e+002, 4.841520e+003
8.411478e+002, 4.823554e+003
8.416299e+002, 4.784945e+003
8.421121e+002, 4.725072e+003
8.425942e+002, 4.643958e+003
8.430763e+002, 4.540661e+003
8.435584e+002, 4.419381e+003
8.440405e+002, 4.279536e+003
8.445226e+002, 4.123246e+003
8.450048e+002, 3.957337e+003
8.454869e+002, 3.782022e+003
8.459690e+002, 3.600025e+003
8.464511e+002, 3.410503e+003
8.469332e+002, 3.219314e+003
8.474153e+002, 3.029997e+003
8.478975e+002, 2.844689e+003
8.483796e+002, 2.669381e+003
8.488617e+002, 2.505570e+003
8.493438e+002, 2.352711e+003
8.498259e+002, 2.212339e+003
8.503080e+002, 2.082764e+003
8.507902e+002, 1.961166e+003
8.512723e+002, 1.848411e+003
8.517544e+002, 1.744713e+003
8.522365e+002, 1.650658e+003
8.527186e+002, 1.565141e+003
8.532007e+002, 1.486764e+003
8.536829e+002, 1.415377e+003
8.541650e+002, 1.349933e+003
8.546471e+002, 1.290349e+003
8.551292e+002, 1.235326e+003
8.556113e+002, 1.184637e+003
8.560934e+002, 1.138229e+003
8.565756e+002, 1.095044e+003
8.570577e+002, 1.055229e+003
8.575398e+002, 1.017493e+003
8.580219e+002, 9.810282e+002
8.585040e+002, 9.465346e+002
8.589861e+002, 9.160657e+002
8.594683e+002, 8.890607e+002
8.599504e+002, 8.630439e+002
8.604325e+002, 8.375327e+002
8.609146e+002, 8.133430e+002
8.613967e+002, 7.917460e+002
8.618788e+002, 7.720986e+002
8.623610e+002, 7.534095e+002
8.628431e+002, 7.362744e+002
8.633252e+002, 7.189730e+002
8.638073e+002, 7.009205e+002
8.642894e+002, 6.832175e+002
8.647715e+002, 6.673168e+002
8.652537e+002, 6.533171e+002
8.657358e+002, 6.392422e+002
8.662179e+002, 6.247446e+002
8.667000e+002, 6.107713e+002
8.671821e+002, 5.983265e+002
8.676642e+002, 5.869146e+002
8.681464e+002, 5.759205e+002
8.686285e+002, 5.649869e+002
8.691106e+002, 5.553807e+002
8.695927e+002, 5.487931e+002
8.700748e+002, 5.425886e+002
8.705569e+002, 5.350475e+002
8.710391e+002, 5.259678e+002
8.715212e+002, 5.169097e+002
8.720033e+002, 5.077594e+002
8.724854e+002, 4.991687e+002
8.729675e+002, 4.917899e+002
8.734496e+002, 4.853285e+002
8.739318e+002, 4.796147e+002
8.744139e+002, 4.745558e+002
8.748960e+002, 4.693325e+002
8.753781e+002, 4.628278e+002
8.758602e+002, 4.565527e+002
8.763423e+002, 4.517683e+002
8.768245e+002, 4.485541e+002
8.773066e+002, 4.445161e+002
8.777887e+002, 4.391026e+002
8.782708e+002, 4.342283e+002
8.787529e+002, 4.310971e+002
8.792350e+002, 4.289401e+002
8.797172e+002, 4.245797e+002
8.801993e+002, 4.184531e+002
8.806814e+002, 4.129899e+002
8.811635e+002, 4.098828e+002
8.816456e+002, 4.076084e+002
8.821277e+002, 4.049708e+002
8.826099e+002, 4.022358e+002
8.830920e+002, 4.002584e+002
8.835741e+002, 4.005566e+002
8.840562e+002, 3.995367e+002
8.845383e+002, 3.958810e+002
8.850204e+002, 3.911590e+002
8.855026e+002, 3.892569e+002
8.859847e+002, 3.899379e+002
8.864668e+002, 3.896506e+002
8.869489e+002, 3.870167e+002
8.874310e+002, 3.838466e+002
8.879131e+002, 3.826768e+002
8.883953e+002, 3.821568e+002
8.888774e+002, 3.801807e+002
8.893595e+002, 3.744632e+002
8.898416e+002, 3.698887e+002
8.903237e+002, 3.678956e+002
8.908058e+002, 3.666654e+002
8.912880e+002, 3.642313e+002
8.917701e+002, 3.604969e+002
8.922522e+002, 3.570523e+002
8.927343e+002, 3.540984e+002
8.932164e+002, 3.509245e+002
8.936985e+002, 3.465788e+002
8.941807e+002, 3.416342e+002
8.946628e+002, 3.369714e+002
8.951449e+002, 3.328727e+002
8.956270e+002, 3.281342e+002
8.961091e+002, 3.213933e+002
8.965912e+002, 3.146572e+002
8.970734e+002, 3.092985e+002
8.975555e+002, 3.055869e+002
8.980376e+002, 3.001945e+002
8.985197e+002, 2.928762e+002
8.990018e+002, 2.856497e+002
8.994839e+002, 2.801242e+002
8.999661e+002, 2.756519e+002
9.004482e+002, 2.713001e+002
9.009303e+002, 2.669388e+002
9.014124e+002, 2.622105e+002
9.018945e+002, 2.559465e+002
9.023766e+002, 2.501860e+002
9.028588e+002, 2.461087e+002
9.033409e+002, 2.434053e+002
9.038230e+002, 2.405434e+002
9.043051e+002, 2.375053e+002
9.047872e+002, 2.342435e+002
9.052693e+002, 2.306123e+002
9.057515e+002, 2.268403e+002
9.062336e+002, 2.232174e+002
9.067157e+002, 2.198124e+002
9.071978e+002, 2.168395e+002
9.076799e+002, 2.147296e+002
9.081620e+002, 2.126472e+002
9.086442e+002, 2.101108e+002
9.091263e+002, 2.073820e+002
9.096084e+002, 2.048791e+002
9.100905e+002, 2.026742e+002
9.105726e+002, 2.004991e+002
9.110547e+002, 1.982442e+002
9.115369e+002, 1.961394e+002
9.120190e+002, 1.947044e+002
9.125011e+002, 1.936472e+002
9.129832e+002, 1.920537e+002
9.134653e+002, 1.896868e+002
9.139474e+002, 1.873305e+002
9.144296e+002, 1.853237e+002
9.149117e+002, 1.836473e+002
9.153938e+002, 1.822973e+002
9.158759e+002, 1.812618e+002
9.163580e+002, 1.806543e+002
9.168401e+002, 1.807504e+002
9.173223e+002, 1.805855e+002
9.178044e+002, 1.793224e+002
9.182865e+002, 1.772583e+002
9.187686e+002, 1.753591e+002
9.192507e+002, 1.736434e+002
9.197328e+002, 1.721574e+002
9.202150e+002, 1.710599e+002
9.206971e+002, 1.700889e+002
9.211792e+002, 1.691119e+002
9.216613e+002, 1.681125e+002
9.221434e+002, 1.670615e+002
9.226255e+002, 1.659351e+002
9.231077e+002, 1.647834e+002
9.235898e+002, 1.635313e+002
9.240719e+002, 1.623585e+002
9.245540e+002, 1.618626e+002
9.250361e+002, 1.618383e+002
9.255182e+002, 1.614456e+002
9.260004e+002, 1.601470e+002
9.264825e+002, 1.587480e+002
9.269646e+002, 1.577549e+002
9.274467e+002, 1.569639e+002
9.279288e+002, 1.560556e+002
9.284109e+002, 1.546396e+002
9.288931e+002, 1.539430e+002
9.293752e+002, 1.543484e+002
9.298573e+002, 1.548248e+002
9.303394e+002, 1.541099e+002
9.308215e+002, 1.524799e+002
9.313036e+002, 1.508084e+002
9.317858e+002, 1.491781e+002
9.322679e+002, 1.477929e+002
9.327500e+002, 1.467549e+002
9.332321e+002, 1.460356e+002
9.337142e+002, 1.457027e+002
9.341964e+002, 1.458461e+002
9.346785e+002, 1.456664e+002
9.351606e+002, 1.451325e+002
9.356427e+002, 1.443517e+002
9.361248e+002, 1.432717e+002
9.366069e+002, 1.420167e+002
9.370891e+002, 1.410632e+002
9.375712e+002, 1.403671e+002
9.380533e+002, 1.397774e+002
9.385354e+002, 1.394685e+002
9.390175e+002, 1.389775e+002
9.394996e+002, 1.377707e+002
9.399818e+002, 1.361823e+002
9.404639e+002, 1.352222e+002
9.409460e+002, 1.351884e+002
9.414281e+002, 1.350814e+002
9.419102e+002, 1.347335e+002
9.423923e+002, 1.342279e+002
9.428745e+002, 1.336499e+002
9.433566e+002, 1.330247e+002
9.438387e+002, 1.324315e+002
9.443208e+002, 1.318832e+002
9.448029e+002, 1.314161e+002
9.452850e+002, 1.312835e+002
9.457672e+002, 1.310918e+002
9.462493e+002, 1.304226e+002
9.467314e+002, 1.291381e+002
9.472135e+002, 1.279413e+002
9.476956e+002, 1.268282e+002
9.481777e+002, 1.258272e+002
9.486599e+002, 1.248805e+002
9.491420e+002, 1.241027e+002
9.496241e+002, 1.239137e+002
9.501062e+002, 1.242488e+002
9.505883e+002, 1.245388e+002
9.510704e+002, 1.246735e+002
9.515526e+002, 1.244924e+002
9.520347e+002, 1.236463e+002
9.525168e+002, 1.223889e+002
9.529989e+002, 1.217424e+002
9.534810e+002, 1.218825e+002
9.539631e+002, 1.217747e+002
9.544453e+002, 1.210369e+002
9.549274e+002, 1.200581e+002
9.554095e+002, 1.193622e+002
9.558916e+002, 1.189393e+002
9.563737e+002, 1.187823e+002
9.568558e+002, 1.190942e+002
9.573380e+002, 1.192849e+002
9.578201e+002, 1.190723e+002
9.583022e+002, 1.187006e+002
9.587843e+002, 1.184578e+002
9.592664e+002, 1.184543e+002
9.597485e+002, 1.177666e+002
9.602307e+002, 1.162506e+002
9.607128e+002, 1.149419e+002
9.611949e+002, 1.150946e+002
9.616770e+002, 1.158585e+002
9.621591e+002, 1.159963e+002
9.626412e+002, 1.154576e+002
9.631234e+002, 1.149508e+002
9.636055e+002, 1.148480e+002
9.640876e+002, 1.146649e+002
9.645697e+002, 1.141609e+002
9.650518e+002, 1.134465e+002
9.655339e+002, 1.130477e+002
9.660161e+002, 1.129621e+002
9.664982e+002, 1.127773e+002
9.669803e+002, 1.122311e+002
9.674624e+002, 1.116853e+002
9.679445e+002, 1.116530e+002
9.684266e+002, 1.118804e+002
9.689088e+002, 1.119491e+002
9.693909e+002, 1.120542e+002
9.698730e+002, 1.114676e+002
9.703551e+002, 1.096965e+002
9.708372e+002, 1.078242e+002
9.713193e+002, 1.070438e+002
9.718015e+002, 1.072413e+002
9.722836e+002, 1.072934e+002
9.727657e+002, 1.071146e+002
9.732478e+002, 1.068265e+002
9.737299e+002, 1.062877e+002
9.742120e+002, 1.058568e+002
9.746942e+002, 1.059458e+002
9.751763e+002, 1.065850e+002
9.756584e+002, 1.069681e+002
9.761405e+002, 1.071493e+002
9.766226e+002, 1.068551e+002
9.771047e+002, 1.057680e+002
9.775869e+002, 1.043134e+002
9.780690e+002, 1.037244e+002
9.785511e+002, 1.038374e+002
9.790332e+002, 1.040364e+002
9.795153e+002, 1.042430e+002
9.799974e+002, 1.042270e+002
9.804796e+002, 1.036889e+002
9.809617e+002, 1.029277e+002
9.814438e+002, 1.023445e+002
9.819259e+002, 1.019004e+002
9.824080e+002, 1.018433e+002
9.828901e+002, 1.022921e+002
9.833723e+002, 1.027182e+002
9.838544e+002, 1.025271e+002
9.843365e+002, 1.019597e+002
9.848186e+002, 1.014055e+002
9.853007e+002, 1.009038e+002
9.857828e+002, 1.005478e+002
9.862650e+002, 1.005396e+002
9.867471e+002, 1.005144e+002
9.872292e+002, 1.003172e+002
9.877113e+002, 9.996851e+001
9.881934e+002, 9.951717e+001
9.886755e+002, 9.895029e+001
9.891577e+002, 9.857564e+001
9.896398e+002, 9.858632e+001
9.901219e+002, 9.872097e+001
9.906040e+002, 9.864156e+001
9.910861e+002, 9.847170e+001
9.915682e+002, 9.842442e+001
9.920504e+002, 9.875336e+001
9.925325e+002, 9.890200e+001
9.930146e+002, 9.877848e+001
9.934967e+002, 9.853845e+001
9.939788e+002, 9.834477e+001
9.944609e+002, 9.817803e+001
9.949431e+002, 9.781483e+001
9.954252e+002, 9.724409e+001
9.959073e+002, 9.671792e+001
9.963894e+002, 9.623408e+001
9.968715e+002, 9.601657e+001
9.973536e+002, 9.643521e+001
9.978358e+002, 9.740938e+001
9.983179e+002, 9.787794e+001
9.988000e+002, 9.768464e+001
9.992821e+002, 9.733705e+001
9.997642e+002, 9.694773e+001
1.000246e+003, 9.653488e+001
1.000728e+003, 9.610528e+001
1.001211e+003, 9.569066e+001
1.001693e+003, 9.541784e+001
1.002175e+003, 9.546254e+001
1.002657e+003, 9.534371e+001
1.003139e+003, 9.452398e+001
1.003621e+003, 9.368389e+001
1.004103e+003, 9.350476e+001
1.004585e+003, 9.416521e+001
1.005068e+003, 9.435385e+001
1.005550e+003, 9.400891e+001
1.006032e+003, 9.380042e+001
1.006514e+003, 9.455541e+001
1.006996e+003, 9.553039e+001
1.007478e+003, 9.574330e+001
1.007960e+003, 9.527956e+001
1.008442e+003, 9.484293e+001
1.008924e+003, 9.453918e+001
1.009407e+003, 9.440608e+001
1.009889e+003, 9.449804e+001
1.010371e+003, 9.471983e+001
1.010853e+003, 9.497156e+001
1.011335e+003, 9.520998e+001
1.011817e+003, 9.505587e+001
1.012299e+003, 9.431303e+001
1.012781e+003, 9.365222e+001
1.013263e+003, 9.378064e+001
1.013746e+003, 9.410561e+001
1.014228e+003, 9.395438e+001
1.014710e+003, 9.309287e+001
1.015192e+003, 9.293616e+001
1.015674e+003, 9.375684e+001
1.016156e+003, 9.439160e+001
1.016638e+003, 9.389221e+001
1.017120e+003, 9.283253e+001
1.017603e+003, 9.250506e+001
1.018085e+003, 9.272756e+001
1.018567e+003, 9.287040e+001
1.019049e+003, 9.250975e+001
1.019531e+003, 9.218922e+001
1.020013e+003, 9.189955e+001
1.020495e+003, 9.184177e+001
1.020977e+003, 9.257811e+001
1.021459e+003, 9.414478e+001
1.021942e+003, 9.463441e+001
1.022424e+003, 9.367470e+001
1.022906e+003, 9.267072e+001
1.023388e+003, 9.321879e+001
1.023870e+003, 9.418448e+001
1.024352e+003, 9.438615e+001
1.024834e+003, 9.364013e+001
1.025316e+003, 9.295995e+001
1.025799e+003, 9.227473e+001
1.026281e+003, 9.198738e+001
1.026763e+003, 9.242250e+001
1.027245e+003, 9.322948e+001
1.027727e+003, 9.354717e+001
1.028209e+003, 9.345734e+001
1.028691e+003, 9.321049e+001
1.029173e+003, 9.271275e+001
1.029656e+003, 9.238352e+001
1.030138e+003, 9.269499e+001
1.030620e+003, 9.309670e+001
1.031102e+003, 9.291722e+001
1.031584e+003, 9.194372e+001
1.032066e+003, 9.169051e+001
1.032548e+003, 9.225621e+001
1.033030e+003, 9.286415e+001
1.033512e+003, 9.275578e+001
1.033995e+003, 9.240112e+001
1.034477e+003, 9.245613e+001
1.034959e+003, 9.284174e+001
1.035441e+003, 9.287546e+001
1.035923e+003, 9.198167e+001
1.036405e+003, 9.135635e+001
1.036887e+003, 9.124996e+001
1.037369e+003, 9.151591e+001
1.037851e+003, 9.222401e+001
1.038334e+003, 9.309176e+001
1.038816e+003, 9.286222e+001
1.039298e+003, 9.094394e+001
1.039780e+003, 8.933968e+001
1.040262e+003, 8.971431e+001
1.040744e+003, 9.056435e+001
1.041226e+003, 9.061949e+001
1.041708e+003, 8.979591e+001
1.042191e+003, 8.945760e+001
1.042673e+003, 8.966424e+001
1.043155e+003, 8.979736e+001
1.043637e+003, 8.930302e+001
1.044119e+003, 8.873428e+001
1.044601e+003, 8.902499e+001
1.045083e+003, 8.982812e+001
1.045565e+003, 9.033793e+001
1.046047e+003, 9.017622e+001
1.046530e+003, 8.987129e+001
1.047012e+003, 8.934394e+001
1.047494e+003, 8.888100e+001
1.047976e+003, 8.888457e+001
1.048458e+003, 8.924887e+001
1.048940e+003, 8.950906e+001
1.049422e+003, 8.962673e+001
1.049904e+003, 8.954720e+001
1.050386e+003, 8.909106e+001
1.050869e+003, 8.856004e+001
1.051351e+003, 8.794047e+001
1.051833e+003, 8.738119e+001
1.052315e+003, 8.768820e+001
1.052797e+003, 8.904447e+001
1.053279e+003, 8.984477e+001
1.053761e+003, 8.957339e+001
1.054243e+003, 8.883249e+001
1.054726e+003, 8.808636e+001
1.055208e+003, 8.748763e+001
1.055690e+003, 8.732932e+001
1.056172e+003, 8.792867e+001
1.056654e+003, 8.808904e+001
1.057136e+003, 8.748756e+001
1.057618e+003, 8.687148e+001
1.058100e+003, 8.675905e+001
1.058583e+003, 8.697947e+001
1.059065e+003, 8.675690e+001
1.059547e+003, 8.621307e+001
1.060029e+003, 8.590932e+001
1.060511e+003, 8.615607e+001
1.060993e+003, 8.668436e+001
1.061475e+003, 8.783519e+001
1.061957e+003, 8.896830e+001
1.062439e+003, 8.909680e+001
1.062922e+003, 8.807288e+001
1.063404e+003, 8.740818e+001
1.063886e+003, 8.725557e+001
1.064368e+003, 8.715530e+001
1.064850e+003, 8.666956e+001
1.065332e+003, 8.604903e+001
1.065814e+003, 8.546462e+001
1.066296e+003, 8.495409e+001
1.066778e+003, 8.475033e+001
1.067261e+003, 8.507649e+001
1.067743e+003, 8.520084e+001
1.068225e+003, 8.485976e+001
1.068707e+003, 8.434882e+001
1.069189e+003, 8.410867e+001
1.069671e+003, 8.414807e+001
1.070153e+003, 8.463322e+001
1.070635e+003, 8.585818e+001
1.071118e+003, 8.654129e+001
1.071600e+003, 8.579753e+001
1.072082e+003, 8.465238e+001
1.072564e+003, 8.342966e+001
1.073046e+003, 8.223035e+001
1.073528e+003, 8.259724e+001
1.074010e+003, 8.439928e+001
1.074492e+003, 8.577763e+001
1.074974e+003, 8.544101e+001
1.075457e+003, 8.465244e+001
1.075939e+003, 8.423093e+001
1.076421e+003, 8.402950e+001
1.076903e+003, 8.379807e+001
1.077385e+003, 8.353452e+001
1.077867e+003, 8.314993e+001
1.078349e+003, 8.257204e+001
1.078831e+003, 8.217268e+001
1.079313e+003, 8.249728e+001
1.079796e+003, 8.310882e+001
1.080278e+003, 8.332693e+001
1.080760e+003, 8.317237e+001
1.081242e+003, 8.304086e+001
1.081724e+003, 8.306172e+001
1.082206e+003, 8.312482e+001
1.082688e+003, 8.327359e+001
1.083170e+003, 8.337444e+001
1.083652e+003, 8.298995e+001
1.084135e+003, 8.232433e+001
1.084617e+003, 8.230529e+001
1.085099e+003, 8.322227e+001
1.085581e+003, 8.389249e+001
1.086063e+003, 8.325260e+001
1.086545e+003, 8.248560e+001
1.087027e+003, 8.240904e+001
1.087509e+003, 8.293204e+001
1.087992e+003, 8.302552e+001
1.088474e+003, 8.268443e+001
1.088956e+003, 8.236734e+001
1.089438e+003, 8.228548e+001
1.089920e+003, 8.225879e+001
1.090402e+003, 8.213174e+001
1.090884e+003, 8.193801e+001
1.091366e+003, 8.170583e+001
1.091849e+003, 8.134458e+001
1.092331e+003, 8.126038e+001
1.092813e+003, 8.156667e+001
1.093295e+003, 8.176569e+001
1.093777e+003, 8.114046e+001
1.094259e+003, 8.033064e+001
1.094741e+003, 8.087268e+001
1.095223e+003, 8.233758e+001
1.095705e+003, 8.319160e+001
1.096188e+003, 8.221017e+001
1.096670e+003, 8.143798e+001
1.097152e+003, 8.121790e+001
1.097634e+003, 8.132228e+001
1.098116e+003, 8.154308e+001
1.098598e+003, 8.184025e+001
1.099080e+003, 8.211551e+001
1.099562e+003, 8.235471e+001
1.100044e+003, 8.219398e+001
1.100527e+003, 8.087209e+001
1.101009e+003, 7.963049e+001
1.101491e+003, 7.921696e+001
1.101973e+003, 7.939826e+001
1.102455e+003, 7.947279e+001
1.102937e+003, 7.943906e+001
1.103419e+003, 7.958398e+001
1.103901e+003, 8.001917e+001
1.104384e+003, 8.048415e+001
1.104866e+003, 8.087755e+001
1.105348e+003, 8.107065e+001
1.105830e+003, 8.086020e+001
1.106312e+003, 8.016788e+001
1.106794e+003, 7.961091e+001
1.107276e+003, 7.916463e+001
1.107758e+003, 7.896255e+001
1.108240e+003, 7.916343e+001
1.108723e+003, 7.951589e+001
1.109205e+003, 7.969145e+001
1.109687e+003, 7.970414e+001
1.110169e+003, 7.958243e+001
1.110651e+003, 7.929118e+001
1.111133e+003, 7.891882e+001
1.111615e+003, 7.840662e+001
1.112097e+003, 7.793287e+001
1.112579e+003, 7.754485e+001
1.113062e+003, 7.731361e+001
1.113544e+003, 7.761604e+001
1.114026e+003, 7.835141e+001
1.114508e+003, 7.901437e+001
1.114990e+003, 7.944353e+001
1.115472e+003, 7.965196e+001
1.115954e+003, 7.962154e+001
1.116436e+003, 7.939631e+001
1.116919e+003, 7.890080e+001
1.117401e+003, 7.817537e+001
1.117883e+003, 7.790032e+001
1.118365e+003, 7.813613e+001
1.118847e+003, 7.842363e+001
1.119329e+003, 7.848052e+001
1.119811e+003, 7.843645e+001
1.120293e+003, 7.832317e+001
1.120776e+003, 7.818051e+001
1.121258e+003, 7.815260e+001
1.121740e+003, 7.825988e+001
1.122222e+003, 7.827487e+001
1.122704e+003, 7.814712e+001
1.123186e+003, 7.792078e+001
1.123668e+003, 7.747829e+001
1.124150e+003, 7.706050e+001
1.124632e+003, 7.695056e+001
1.125115e+003, 7.721461e+001
1.125597e+003, 7.746779e+001
1.126079e+003, 7.773184e+001
1.126561e+003, 7.789448e+001
1.127043e+003, 7.790855e+001
1.127525e+003, 7.780832e+001
1.128007e+003, 7.756312e+001
1.128489e+003, 7.727445e+001
1.128971e+003, 7.712580e+001
1.129454e+003, 7.721756e+001
1.129936e+003, 7.732364e+001
1.130418e+003, 7.750318e+001
1.130900e+003, 7.753909e+001
1.131382e+003, 7.719134e+001
1.131864e+003, 7.664465e+001
1.132346e+003, 7.646131e+001
1.132828e+003, 7.656709e+001
1.133311e+003, 7.671750e+001
1.133793e+003, 7.682731e+001
1.134275e+003, 7.693422e+001
1.134757e+003, 7.695068e+001
1.135239e+003, 7.706816e+001
1.135721e+003, 7.765627e+001
1.136203e+003, 7.858807e+001
1.136685e+003, 7.865575e+001
1.137167e+003, 7.790910e+001
1.137650e+003, 7.726276e+001
1.138132e+003, 7.733271e+001
1.138614e+003, 7.756567e+001
1.139096e+003, 7.784252e+001
1.139578e+003, 7.804013e+001
1.140060e+003, 7.788197e+001
1.140542e+003, 7.735590e+001
1.141024e+003, 7.712662e+001
1.141506e+003, 7.728145e+001
1.141989e+003, 7.741332e+001
1.142471e+003, 7.693024e+001
1.142953e+003, 7.653582e+001
1.143435e+003, 7.698650e+001
1.143917e+003, 7.804800e+001
1.144399e+003, 7.847710e+001
1.144881e+003, 7.817884e+001
1.145363e+003, 7.785817e+001
1.145846e+003, 7.766422e+001
1.146328e+003, 7.752195e+001
1.146810e+003, 7.731055e+001
1.147292e+003, 7.713612e+001
1.147774e+003, 7.713158e+001
1.148256e+003, 7.732803e+001
1.148738e+003, 7.749208e+001
1.149220e+003, 7.760442e+001
1.149703e+003, 7.777147e+001
1.150185e+003, 7.813886e+001
1.150667e+003, 7.836353e+001
1.151149e+003, 7.767949e+001
1.151631e+003, 7.660152e+001
1.152113e+003, 7.592505e+001
1.152595e+003, 7.584959e+001
1.153077e+003, 7.619468e+001
1.153559e+003, 7.723845e+001
1.154042e+003, 7.795251e+001
1.154524e+003, 7.761072e+001
1.155006e+003, 7.673738e+001
1.155488e+003, 7.477649e+001
1.155970e+003, 7.339793e+001
1.156452e+003, 7.719164e+001
1.156934e+003, 9.563009e+001
1.157416e+003, 1.037036e+002
1.157898e+003, 9.330531e+001
1.158381e+003, 8.135909e+001
1.158863e+003, 8.297416e+001
1.159345e+003, 9.350430e+001
1.159827e+003, 9.310088e+001
1.160309e+003, 8.422920e+001
1.160791e+003, 7.686588e+001
1.161273e+003, 7.651072e+001
1.161755e+003, 7.711205e+001
1.162238e+003, 7.744224e+001
1.162720e+003, 7.768522e+001
1.163202e+003, 7.819518e+001
1.163684e+003, 7.884133e+001
1.164166e+003, 7.861486e+001
1.164648e+003, 7.757073e+001
1.165130e+003, 7.665121e+001
1.165612e+003, 7.638974e+001
1.166094e+003, 7.638161e+001
1.166577e+003, 7.657314e+001
1.167059e+003, 7.683232e+001
1.167541e+003, 7.700037e+001
1.168023e+003, 7.707120e+001
1.168505e+003, 7.686565e+001
1.168987e+003, 7.636346e+001
1.169469e+003, 7.596194e+001
1.169951e+003, 7.599048e+001
1.170433e+003, 7.615407e+001
1.170916e+003, 7.640488e+001
1.171398e+003, 7.662209e+001
1.171880e+003, 7.635133e+001
1.172362e+003, 7.560341e+001
1.172844e+003, 7.549911e+001
1.173326e+003, 7.633758e+001
1.173808e+003, 7.713551e+001
1.174290e+003, 7.693936e+001
1.174773e+003, 7.648219e+001
1.175255e+003, 7.632531e+001
1.175737e+003, 7.642769e+001
1.176219e+003, 7.661215e+001
1.176701e+003, 7.690518e+001
1.177183e+003, 7.662389e+001
1.177665e+003, 7.536989e+001
1.178147e+003, 7.425061e+001
1.178630e+003, 7.452067e+001
1.179112e+003, 7.530593e+001
1.179594e+003, 7.575842e+001
1.180076e+003, 7.582803e+001
1.180558e+003, 7.607809e+001
1.181040e+003, 7.653757e+001
1.181522e+003, 7.694579e+001
1.182004e+003, 7.728441e+001
1.182486e+003, 7.735632e+001
1.182969e+003, 7.660567e+001
1.183451e+003, 7.565517e+001
1.183933e+003, 7.534351e+001
1.184415e+003, 7.589514e+001
1.184897e+003, 7.604389e+001
1.185379e+003, 7.571373e+001
1.185861e+003, 7.546361e+001
1.186343e+003, 7.559343e+001
1.186825e+003, 7.592753e+001
1.187308e+003, 7.648133e+001
1.187790e+003, 7.701497e+001
1.188272e+003, 7.708220e+001
1.188754e+003, 7.634093e+001
1.189236e+003, 7.605118e+001
1.189718e+003, 7.628706e+001
1.190200e+003, 7.660735e+001
1.190682e+003, 7.679110e+001
1.191165e+003, 7.684819e+001
1.191647e+003, 7.686135e+001
1.192129e+003, 7.674390e+001
1.192611e+003, 7.627187e+001
1.193093e+003, 7.500443e+001
1.193575e+003, 7.434388e+001
1.194057e+003, 7.438652e+001
1.194539e+003, 7.472050e+001
1.195021e+003, 7.512894e+001
1.195504e+003, 7.555954e+001
1.195986e+003, 7.604316e+001
1.196468e+003, 7.648686e+001
1.196950e+003, 7.659763e+001
1.197432e+003, 7.613283e+001
1.197914e+003, 7.579933e+001
1.198396e+003, 7.567358e+001
1.198878e+003, 7.555367e+001
1.199360e+003, 7.508200e+001
1.199843e+003, 7.460350e+001
1.200325e+003, 7.486880e+001
1.200807e+003, 7.562912e+001
1.201289e+003, 7.573653e+001
1.201771e+003, 7.449651e+001
1.202253e+003, 7.376900e+001
1.202735e+003, 7.382473e+001
1.203217e+003, 7.422475e+001
1.203700e+003, 7.451448e+001
1.204182e+003, 7.482118e+001
1.204664e+003, 7.558113e+001
1.205146e+003, 7.664470e+001
1.205628e+003, 7.684717e+001
1.206110e+003, 7.538846e+001
1.206592e+003, 7.458022e+001
1.207074e+003, 7.494422e+001
1.207557e+003, 7.557471e+001
1.208039e+003, 7.519936e+001
1.208521e+003, 7.443642e+001
1.209003e+003, 7.423618e+001
1.209485e+003, 7.464041e+001
1.209967e+003, 7.489878e+001
1.210449e+003, 7.494009e+001
1.210931e+003, 7.474754e+001
1.211413e+003, 7.424003e+001
1.211896e+003, 7.370251e+001
1.212378e+003, 7.356292e+001
1.212860e+003, 7.360925e+001
1.213342e+003, 7.345792e+001
1.213824e+003, 7.306882e+001
1.214306e+003, 7.314967e+001
1.214788e+003, 7.414722e+001
1.215270e+003, 7.451218e+001
1.215752e+003, 7.367025e+001
1.216235e+003, 7.245406e+001
1.216717e+003, 7.202195e+001
1.217199e+003, 7.199963e+001
1.217681e+003, 7.177430e+001
1.218163e+003, 7.122643e+001
1.218645e+003, 7.120123e+001
1.219127e+003, 7.199596e+001
1.219609e+003, 7.254465e+001
1.220092e+003, 7.248286e+001
1.220574e+003, 7.208753e+001
1.221056e+003, 7.163457e+001
1.221538e+003, 7.118414e+001
1.222020e+003, 7.081539e+001
1.222502e+003, 7.054895e+001
1.222984e+003, 7.034128e+001
1.223466e+003, 7.011406e+001
1.223948e+003, 7.024611e+001
1.224431e+003, 7.106314e+001
1.224913e+003, 7.191927e+001
1.225395e+003, 7.173275e+001
1.225877e+003, 7.105118e+001
1.226359e+003, 7.064223e+001
1.226841e+003, 7.071249e+001
1.227323e+003, 7.061643e+001
1.227805e+003, 7.027338e+001
1.228287e+003, 7.010184e+001
1.228770e+003, 7.038721e+001
1.229252e+003, 7.072523e+001
1.229734e+003, 7.042368e+001
1.230216e+003, 6.989426e+001
1.230698e+003, 6.974171e+001
1.231180e+003, 7.017016e+001
1.231662e+003, 7.032683e+001
1.232144e+003, 7.016846e+001
1.232627e+003, 6.999939e+001
1.233109e+003, 6.998022e+001
1.233591e+003, 6.998140e+001
1.234073e+003, 6.971337e+001
1.234555e+003, 6.943697e+001
1.235037e+003, 6.960851e+001
1.235519e+003, 7.042146e+001
1.236001e+003, 7.059665e+001
1.236484e+003, 7.006220e+001
1.236966e+003, 6.953258e+001
1.237448e+003, 6.941057e+001
1.237930e+003, 6.938517e+001
1.238412e+003, 6.905867e+001
1.238894e+003, 6.867541e+001
1.239376e+003, 6.862015e+001
1.239858e+003, 6.896832e+001
1.240340e+003, 6.907259e+001
1.240823e+003, 6.891776e+001
1.241305e+003, 6.878970e+001
1.241787e+003, 6.882421e+001
1.242269e+003, 6.896590e+001
1.242751e+003, 6.930774e+001
1.243233e+003, 6.964291e+001
1.243715e+003, 6.969241e+001
1.244197e+003, 6.942264e+001
1.244679e+003, 6.921431e+001
1.245162e+003, 6.906503e+001
1.245644e+003, 6.892236e+001
1.246126e+003, 6.873000e+001
1.246608e+003, 6.857186e+001
1.247090e+003, 6.847603e+001
1.247572e+003, 6.847369e+001
1.248054e+003, 6.868613e+001
1.248536e+003, 6.914700e+001
1.249019e+003, 6.877664e+001
1.249501e+003, 6.767151e+001
1.249983e+003, 6.685216e+001
1.250465e+003, 6.709942e+001
1.250947e+003, 6.751220e+001
1.251429e+003, 6.780502e+001
1.251911e+003, 6.789913e+001
1.252393e+003, 6.765006e+001
1.252875e+003, 6.708409e+001
1.253358e+003, 6.663873e+001
1.253840e+003, 6.633717e+001
1.254322e+003, 6.632176e+001
1.254804e+003, 6.701443e+001
1.255286e+003, 6.755406e+001
1.255768e+003, 6.766835e+001
1.256250e+003, 6.748850e+001
1.256732e+003, 6.691419e+001
1.257214e+003, 6.609065e+001
1.257697e+003, 6.604633e+001
1.258179e+003, 6.662366e+001
1.258661e+003, 6.707841e+001
1.259143e+003, 6.710037e+001
1.259625e+003, 6.689872e+001
1.260107e+003, 6.634593e+001
1.260589e+003, 6.587853e+001
1.261071e+003, 6.601451e+001
1.261554e+003, 6.650108e+001
1.262036e+003, 6.645657e+001
1.262518e+003, 6.603426e+001
1.263000e+003, 6.577682e+001
1.263482e+003, 6.611769e+001
1.263964e+003, 6.625990e+001
1.264446e+003, 6.606367e+001
1.264928e+003, 6.582722e+001
1.265411e+003, 6.591928e+001
1.265893e+003, 6.607983e+001
1.266375e+003, 6.558074e+001
1.266857e+003, 6.473849e+001
1.267339e+003, 6.442809e+001
1.267821e+003, 6.538615e+001
1.268303e+003, 6.596465e+001
1.268785e+003, 6.609362e+001
1.269267e+003, 6.598483e+001
1.269750e+003, 6.552324e+001
1.270232e+003, 6.513906e+001
1.270714e+003, 6.575910e+001
1.271196e+003, 6.683083e+001
1.271678e+003, 6.695114e+001
1.272160e+003, 6.552449e+001
1.272642e+003, 6.479589e+001
1.273124e+003, 6.487002e+001
1.273606e+003, 6.521366e+001
1.274089e+003, 6.558527e+001
1.274571e+003, 6.591419e+001
1.275053e+003, 6.620595e+001
1.275535e+003, 6.637024e+001
1.276017e+003, 6.625726e+001
1.276499e+003, 6.582588e+001
1.276981e+003, 6.533277e+001
1.277463e+003, 6.478920e+001
1.277946e+003, 6.450062e+001
1.278428e+003, 6.501417e+001
1.278910e+003, 6.546513e+001
1.279392e+003, 6.520716e+001
1.279874e+003, 6.465711e+001
1.280356e+003, 6.423883e+001
1.280838e+003, 6.396161e+001
1.281320e+003, 6.407487e+001
1.281802e+003, 6.452788e+001
1.282285e+003, 6.486706e+001
1.282767e+003, 6.465999e+001
1.283249e+003, 6.454333e+001
1.283731e+003, 6.490441e+001
1.284213e+003, 6.527463e+001
1.284695e+003, 6.511829e+001
1.285177e+003, 6.460810e+001
1.285659e+003, 6.470555e+001
1.286141e+003, 6.524559e+001
1.286624e+003, 6.552540e+001
1.287106e+003, 6.494429e+001
1.287588e+003, 6.451948e+001
1.288070e+003, 6.439602e+001
1.288552e+003, 6.442479e+001
1.289034e+003, 6.450887e+001
1.289516e+003, 6.464834e+001
1.289998e+003, 6.495428e+001
1.290481e+003, 6.530643e+001
1.290963e+003, 6.539204e+001
1.291445e+003, 6.473423e+001
1.291927e+003, 6.453203e+001
1.292409e+003, 6.486787e+001
1.292891e+003, 6.535291e+001
1.293373e+003, 6.594329e+001
1.293855e+003, 6.633344e+001
1.294338e+003, 6.587044e+001
1.294820e+003, 6.500092e+001
1.295302e+003, 6.461393e+001
1.295784e+003, 6.489400e+001
1.296266e+003, 6.507726e+001
1.296748e+003, 6.515825e+001
1.297230e+003, 6.523801e+001
1.297712e+003, 6.537293e+001
1.298194e+003, 6.553604e+001
1.298677e+003, 6.579494e+001
1.299159e+003, 6.600068e+001
1.299641e+003, 6.591483e+001
1.300123e+003, 6.551991e+001
1.300605e+003, 6.562482e+001
1.301087e+003, 6.616072e+001
1.301569e+003, 6.649210e+001
1.302051e+003, 6.590639e+001
1.302533e+003, 6.564969e+001
1.303016e+003, 6.615302e+001
##END=



