##NAMES=Descloizite
##RRUFFID=R120097
##IDEAL CHEMISTRY=Pb^2+^Zn^2+^V^5+^O_4_(OH)
##LOCALITY=Collins Vein, Mammoth mine, Tiger, Arizona
##OWNER=RRUFF
##SOURCE=Bob Downs and Hexiong Yang
##DESCRIPTION=Brown transparent closed pyramids, like flattened octahedra, associated with vanadinite
##STATUS=The identification of this mineral has been confirmed only by single crystal X-ray diffraction.
##URL=rruff.info/R120097
9.112140e+001, 0.000000e+000
9.160352e+001, 7.077455e+002
9.208563e+001, 6.841475e+002
9.256775e+001, 6.810546e+002
9.304987e+001, 7.080652e+002
9.353198e+001, 7.437284e+002
9.401410e+001, 7.721168e+002
9.449622e+001, 7.935076e+002
9.497833e+001, 8.122278e+002
9.546045e+001, 8.319877e+002
9.594257e+001, 8.526591e+002
9.642468e+001, 8.723468e+002
9.690680e+001, 8.907722e+002
9.738892e+001, 9.098635e+002
9.787103e+001, 9.300621e+002
9.835315e+001, 9.503622e+002
9.883527e+001, 9.706588e+002
9.931738e+001, 9.939434e+002
9.979950e+001, 1.022104e+003
1.002816e+002, 1.048536e+003
1.007637e+002, 1.074683e+003
1.012458e+002, 1.098459e+003
1.017280e+002, 1.118198e+003
1.022101e+002, 1.133836e+003
1.026922e+002, 1.145002e+003
1.031743e+002, 1.150719e+003
1.036564e+002, 1.152424e+003
1.041385e+002, 1.147587e+003
1.046207e+002, 1.135060e+003
1.051028e+002, 1.115300e+003
1.055849e+002, 1.089075e+003
1.060670e+002, 1.054267e+003
1.065491e+002, 1.014171e+003
1.070313e+002, 9.729105e+002
1.075134e+002, 9.303593e+002
1.079955e+002, 8.872939e+002
1.084776e+002, 8.439436e+002
1.089597e+002, 7.995471e+002
1.094418e+002, 7.579524e+002
1.099240e+002, 7.203301e+002
1.104061e+002, 6.856619e+002
1.108882e+002, 6.538431e+002
1.113703e+002, 6.248187e+002
1.118524e+002, 5.983609e+002
1.123345e+002, 5.739006e+002
1.128167e+002, 5.515635e+002
1.132988e+002, 5.315109e+002
1.137809e+002, 5.139817e+002
1.142630e+002, 4.985108e+002
1.147451e+002, 4.844030e+002
1.152272e+002, 4.713476e+002
1.157094e+002, 4.592496e+002
1.161915e+002, 4.486046e+002
1.166736e+002, 4.399333e+002
1.171557e+002, 4.318395e+002
1.176378e+002, 4.238174e+002
1.181199e+002, 4.159243e+002
1.186021e+002, 4.085540e+002
1.190842e+002, 4.020938e+002
1.195663e+002, 3.966643e+002
1.200484e+002, 3.915205e+002
1.205305e+002, 3.866385e+002
1.210126e+002, 3.820115e+002
1.214948e+002, 3.777119e+002
1.219769e+002, 3.737665e+002
1.224590e+002, 3.699514e+002
1.229411e+002, 3.660421e+002
1.234232e+002, 3.620786e+002
1.239053e+002, 3.582485e+002
1.243875e+002, 3.545479e+002
1.248696e+002, 3.510266e+002
1.253517e+002, 3.478881e+002
1.258338e+002, 3.453050e+002
1.263159e+002, 3.429195e+002
1.267980e+002, 3.404203e+002
1.272802e+002, 3.378399e+002
1.277623e+002, 3.353672e+002
1.282444e+002, 3.332788e+002
1.287265e+002, 3.316600e+002
1.292086e+002, 3.296239e+002
1.296907e+002, 3.265759e+002
1.301729e+002, 3.234547e+002
1.306550e+002, 3.205913e+002
1.311371e+002, 3.180714e+002
1.316192e+002, 3.158815e+002
1.321013e+002, 3.140892e+002
1.325834e+002, 3.130973e+002
1.330656e+002, 3.116566e+002
1.335477e+002, 3.094952e+002
1.340298e+002, 3.071150e+002
1.345119e+002, 3.048751e+002
1.349940e+002, 3.029056e+002
1.354761e+002, 3.011115e+002
1.359583e+002, 2.993025e+002
1.364404e+002, 2.978367e+002
1.369225e+002, 2.959037e+002
1.374046e+002, 2.928379e+002
1.378867e+002, 2.893907e+002
1.383688e+002, 2.867199e+002
1.388510e+002, 2.854080e+002
1.393331e+002, 2.850760e+002
1.398152e+002, 2.845345e+002
1.402973e+002, 2.839515e+002
1.407794e+002, 2.830079e+002
1.412615e+002, 2.813140e+002
1.417437e+002, 2.790413e+002
1.422258e+002, 2.769398e+002
1.427079e+002, 2.754677e+002
1.431900e+002, 2.744174e+002
1.436721e+002, 2.732703e+002
1.441542e+002, 2.719620e+002
1.446364e+002, 2.705993e+002
1.451185e+002, 2.693046e+002
1.456006e+002, 2.680998e+002
1.460827e+002, 2.668317e+002
1.465648e+002, 2.652702e+002
1.470469e+002, 2.636429e+002
1.475291e+002, 2.622087e+002
1.480112e+002, 2.611273e+002
1.484933e+002, 2.602214e+002
1.489754e+002, 2.590575e+002
1.494575e+002, 2.573849e+002
1.499396e+002, 2.558824e+002
1.504218e+002, 2.548742e+002
1.509039e+002, 2.541076e+002
1.513860e+002, 2.532666e+002
1.518681e+002, 2.521688e+002
1.523502e+002, 2.508241e+002
1.528323e+002, 2.493904e+002
1.533145e+002, 2.476398e+002
1.537966e+002, 2.460184e+002
1.542787e+002, 2.445754e+002
1.547608e+002, 2.433241e+002
1.552429e+002, 2.422611e+002
1.557250e+002, 2.413861e+002
1.562072e+002, 2.407080e+002
1.566893e+002, 2.401216e+002
1.571714e+002, 2.398748e+002
1.576535e+002, 2.394740e+002
1.581356e+002, 2.386116e+002
1.586177e+002, 2.373514e+002
1.590999e+002, 2.360368e+002
1.595820e+002, 2.350167e+002
1.600641e+002, 2.343625e+002
1.605462e+002, 2.333605e+002
1.610283e+002, 2.317005e+002
1.615104e+002, 2.299288e+002
1.619926e+002, 2.283985e+002
1.624747e+002, 2.271643e+002
1.629568e+002, 2.262089e+002
1.634389e+002, 2.257301e+002
1.639210e+002, 2.256876e+002
1.644031e+002, 2.252028e+002
1.648853e+002, 2.237211e+002
1.653674e+002, 2.218282e+002
1.658495e+002, 2.204478e+002
1.663316e+002, 2.198143e+002
1.668137e+002, 2.193963e+002
1.672958e+002, 2.186955e+002
1.677780e+002, 2.177757e+002
1.682601e+002, 2.168550e+002
1.687422e+002, 2.159250e+002
1.692243e+002, 2.150484e+002
1.697064e+002, 2.145514e+002
1.701885e+002, 2.147981e+002
1.706707e+002, 2.150132e+002
1.711528e+002, 2.144434e+002
1.716349e+002, 2.133036e+002
1.721170e+002, 2.124911e+002
1.725991e+002, 2.129729e+002
1.730812e+002, 2.148345e+002
1.735634e+002, 2.161624e+002
1.740455e+002, 2.166080e+002
1.745276e+002, 2.166483e+002
1.750097e+002, 2.163619e+002
1.754918e+002, 2.158039e+002
1.759739e+002, 2.150733e+002
1.764561e+002, 2.141756e+002
1.769382e+002, 2.128862e+002
1.774203e+002, 2.122051e+002
1.779024e+002, 2.124894e+002
1.783845e+002, 2.130253e+002
1.788666e+002, 2.136151e+002
1.793488e+002, 2.141413e+002
1.798309e+002, 2.144395e+002
1.803130e+002, 2.142465e+002
1.807951e+002, 2.132628e+002
1.812772e+002, 2.124329e+002
1.817593e+002, 2.119688e+002
1.822415e+002, 2.115064e+002
1.827236e+002, 2.107231e+002
1.832057e+002, 2.095622e+002
1.836878e+002, 2.082851e+002
1.841699e+002, 2.073153e+002
1.846520e+002, 2.070440e+002
1.851342e+002, 2.062656e+002
1.856163e+002, 2.046271e+002
1.860984e+002, 2.026160e+002
1.865805e+002, 2.007269e+002
1.870626e+002, 1.991054e+002
1.875447e+002, 1.976311e+002
1.880269e+002, 1.961115e+002
1.885090e+002, 1.945259e+002
1.889911e+002, 1.929751e+002
1.894732e+002, 1.916796e+002
1.899553e+002, 1.904041e+002
1.904374e+002, 1.886554e+002
1.909196e+002, 1.861163e+002
1.914017e+002, 1.834053e+002
1.918838e+002, 1.813946e+002
1.923659e+002, 1.800827e+002
1.928480e+002, 1.789860e+002
1.933301e+002, 1.780701e+002
1.938123e+002, 1.772369e+002
1.942944e+002, 1.760719e+002
1.947765e+002, 1.742597e+002
1.952586e+002, 1.723362e+002
1.957407e+002, 1.709043e+002
1.962228e+002, 1.699758e+002
1.967050e+002, 1.690793e+002
1.971871e+002, 1.677619e+002
1.976692e+002, 1.660549e+002
1.981513e+002, 1.646878e+002
1.986334e+002, 1.641512e+002
1.991155e+002, 1.637158e+002
1.995977e+002, 1.628676e+002
2.000798e+002, 1.615843e+002
2.005619e+002, 1.601980e+002
2.010440e+002, 1.589746e+002
2.015261e+002, 1.579012e+002
2.020082e+002, 1.570440e+002
2.024904e+002, 1.565490e+002
2.029725e+002, 1.561831e+002
2.034546e+002, 1.559337e+002
2.039367e+002, 1.557563e+002
2.044188e+002, 1.554825e+002
2.049009e+002, 1.548114e+002
2.053831e+002, 1.534797e+002
2.058652e+002, 1.525765e+002
2.063473e+002, 1.524675e+002
2.068294e+002, 1.525090e+002
2.073115e+002, 1.523168e+002
2.077936e+002, 1.518414e+002
2.082758e+002, 1.513071e+002
2.087579e+002, 1.510535e+002
2.092400e+002, 1.513008e+002
2.097221e+002, 1.513462e+002
2.102042e+002, 1.510574e+002
2.106863e+002, 1.506965e+002
2.111685e+002, 1.504441e+002
2.116506e+002, 1.503336e+002
2.121327e+002, 1.502659e+002
2.126148e+002, 1.500771e+002
2.130969e+002, 1.495639e+002
2.135790e+002, 1.493994e+002
2.140612e+002, 1.496529e+002
2.145433e+002, 1.501779e+002
2.150254e+002, 1.509742e+002
2.155075e+002, 1.520067e+002
2.159896e+002, 1.530514e+002
2.164717e+002, 1.537656e+002
2.169539e+002, 1.539441e+002
2.174360e+002, 1.542697e+002
2.179181e+002, 1.548175e+002
2.184002e+002, 1.554859e+002
2.188823e+002, 1.561519e+002
2.193644e+002, 1.567834e+002
2.198466e+002, 1.575092e+002
2.203287e+002, 1.585796e+002
2.208108e+002, 1.601037e+002
2.212929e+002, 1.613726e+002
2.217750e+002, 1.622371e+002
2.222571e+002, 1.628177e+002
2.227393e+002, 1.632768e+002
2.232214e+002, 1.636577e+002
2.237035e+002, 1.638597e+002
2.241856e+002, 1.636803e+002
2.246677e+002, 1.631570e+002
2.251498e+002, 1.625476e+002
2.256320e+002, 1.621531e+002
2.261141e+002, 1.616561e+002
2.265962e+002, 1.604603e+002
2.270783e+002, 1.583474e+002
2.275604e+002, 1.558765e+002
2.280425e+002, 1.533350e+002
2.285247e+002, 1.508042e+002
2.290068e+002, 1.487289e+002
2.294889e+002, 1.475435e+002
2.299710e+002, 1.469298e+002
2.304531e+002, 1.461130e+002
2.309352e+002, 1.448526e+002
2.314174e+002, 1.437617e+002
2.318995e+002, 1.433671e+002
2.323816e+002, 1.435008e+002
2.328637e+002, 1.437521e+002
2.333458e+002, 1.440123e+002
2.338279e+002, 1.442461e+002
2.343101e+002, 1.443373e+002
2.347922e+002, 1.442547e+002
2.352743e+002, 1.440610e+002
2.357564e+002, 1.435929e+002
2.362385e+002, 1.430505e+002
2.367206e+002, 1.428593e+002
2.372028e+002, 1.433898e+002
2.376849e+002, 1.444735e+002
2.381670e+002, 1.454249e+002
2.386491e+002, 1.463174e+002
2.391312e+002, 1.469277e+002
2.396133e+002, 1.469690e+002
2.400955e+002, 1.467370e+002
2.405776e+002, 1.467533e+002
2.410597e+002, 1.474115e+002
2.415418e+002, 1.485405e+002
2.420239e+002, 1.492549e+002
2.425060e+002, 1.490537e+002
2.429882e+002, 1.491321e+002
2.434703e+002, 1.501693e+002
2.439524e+002, 1.516174e+002
2.444345e+002, 1.526325e+002
2.449166e+002, 1.526573e+002
2.453987e+002, 1.519598e+002
2.458809e+002, 1.518179e+002
2.463630e+002, 1.526839e+002
2.468451e+002, 1.535699e+002
2.473272e+002, 1.543399e+002
2.478093e+002, 1.549909e+002
2.482914e+002, 1.554949e+002
2.487736e+002, 1.558235e+002
2.492557e+002, 1.560500e+002
2.497378e+002, 1.564856e+002
2.502199e+002, 1.576110e+002
2.507020e+002, 1.583323e+002
2.511841e+002, 1.579566e+002
2.516663e+002, 1.572873e+002
2.521484e+002, 1.573563e+002
2.526305e+002, 1.586748e+002
2.531126e+002, 1.608178e+002
2.535947e+002, 1.624769e+002
2.540768e+002, 1.632053e+002
2.545590e+002, 1.639165e+002
2.550411e+002, 1.644582e+002
2.555232e+002, 1.650923e+002
2.560053e+002, 1.661106e+002
2.564874e+002, 1.676336e+002
2.569695e+002, 1.695627e+002
2.574517e+002, 1.716567e+002
2.579338e+002, 1.744668e+002
2.584159e+002, 1.767663e+002
2.588980e+002, 1.782939e+002
2.593801e+002, 1.794202e+002
2.598622e+002, 1.804172e+002
2.603444e+002, 1.813920e+002
2.608265e+002, 1.825271e+002
2.613086e+002, 1.841702e+002
2.617907e+002, 1.866361e+002
2.622728e+002, 1.892022e+002
2.627549e+002, 1.919291e+002
2.632371e+002, 1.947297e+002
2.637192e+002, 1.974842e+002
2.642013e+002, 2.001713e+002
2.646834e+002, 2.028819e+002
2.651655e+002, 2.057926e+002
2.656476e+002, 2.091328e+002
2.661298e+002, 2.120455e+002
2.666119e+002, 2.139639e+002
2.670940e+002, 2.157654e+002
2.675761e+002, 2.183305e+002
2.680582e+002, 2.218285e+002
2.685403e+002, 2.256555e+002
2.690225e+002, 2.290734e+002
2.695046e+002, 2.319002e+002
2.699867e+002, 2.352440e+002
2.704688e+002, 2.391578e+002
2.709509e+002, 2.435733e+002
2.714330e+002, 2.485915e+002
2.719152e+002, 2.541781e+002
2.723973e+002, 2.599419e+002
2.728794e+002, 2.655917e+002
2.733615e+002, 2.711120e+002
2.738436e+002, 2.760687e+002
2.743257e+002, 2.796280e+002
2.748079e+002, 2.832310e+002
2.752900e+002, 2.880227e+002
2.757721e+002, 2.940483e+002
2.762542e+002, 3.005368e+002
2.767363e+002, 3.070279e+002
2.772184e+002, 3.135056e+002
2.777006e+002, 3.201445e+002
2.781827e+002, 3.269357e+002
2.786648e+002, 3.338462e+002
2.791469e+002, 3.408830e+002
2.796290e+002, 3.480097e+002
2.801111e+002, 3.550316e+002
2.805933e+002, 3.616441e+002
2.810754e+002, 3.681468e+002
2.815575e+002, 3.755000e+002
2.820396e+002, 3.843477e+002
2.825217e+002, 3.932349e+002
2.830038e+002, 4.010611e+002
2.834860e+002, 4.080559e+002
2.839681e+002, 4.155492e+002
2.844502e+002, 4.243201e+002
2.849323e+002, 4.338250e+002
2.854144e+002, 4.428799e+002
2.858965e+002, 4.513772e+002
2.863787e+002, 4.597121e+002
2.868608e+002, 4.680630e+002
2.873429e+002, 4.764009e+002
2.878250e+002, 4.847386e+002
2.883071e+002, 4.930387e+002
2.887892e+002, 5.013904e+002
2.892714e+002, 5.102906e+002
2.897535e+002, 5.199609e+002
2.902356e+002, 5.284475e+002
2.907177e+002, 5.347106e+002
2.911998e+002, 5.391009e+002
2.916819e+002, 5.423929e+002
2.921641e+002, 5.443169e+002
2.926462e+002, 5.460258e+002
2.931283e+002, 5.491666e+002
2.936104e+002, 5.535263e+002
2.940925e+002, 5.571598e+002
2.945746e+002, 5.591447e+002
2.950568e+002, 5.598958e+002
2.955389e+002, 5.602305e+002
2.960210e+002, 5.602727e+002
2.965031e+002, 5.597984e+002
2.969852e+002, 5.582437e+002
2.974673e+002, 5.559612e+002
2.979495e+002, 5.538594e+002
2.984316e+002, 5.525469e+002
2.989137e+002, 5.514698e+002
2.993958e+002, 5.497160e+002
2.998779e+002, 5.471391e+002
3.003600e+002, 5.444963e+002
3.008422e+002, 5.424323e+002
3.013243e+002, 5.406262e+002
3.018064e+002, 5.385162e+002
3.022885e+002, 5.355937e+002
3.027706e+002, 5.326629e+002
3.032527e+002, 5.307767e+002
3.037349e+002, 5.300015e+002
3.042170e+002, 5.291954e+002
3.046991e+002, 5.272952e+002
3.051812e+002, 5.253477e+002
3.056633e+002, 5.248909e+002
3.061454e+002, 5.265302e+002
3.066276e+002, 5.286533e+002
3.071097e+002, 5.296264e+002
3.075918e+002, 5.295480e+002
3.080739e+002, 5.302652e+002
3.085560e+002, 5.328387e+002
3.090381e+002, 5.360929e+002
3.095203e+002, 5.386262e+002
3.100024e+002, 5.403560e+002
3.104845e+002, 5.419699e+002
3.109666e+002, 5.437896e+002
3.114487e+002, 5.458387e+002
3.119308e+002, 5.481925e+002
3.124130e+002, 5.507183e+002
3.128951e+002, 5.537983e+002
3.133772e+002, 5.580684e+002
3.138593e+002, 5.633232e+002
3.143414e+002, 5.680670e+002
3.148235e+002, 5.708235e+002
3.153057e+002, 5.725508e+002
3.157878e+002, 5.760535e+002
3.162699e+002, 5.822438e+002
3.167520e+002, 5.885311e+002
3.172341e+002, 5.927138e+002
3.177162e+002, 5.955297e+002
3.181984e+002, 5.985480e+002
3.186805e+002, 6.026899e+002
3.191626e+002, 6.071776e+002
3.196447e+002, 6.106559e+002
3.201268e+002, 6.129320e+002
3.206089e+002, 6.151745e+002
3.210911e+002, 6.182224e+002
3.215732e+002, 6.216170e+002
3.220553e+002, 6.246648e+002
3.225374e+002, 6.270279e+002
3.230195e+002, 6.293630e+002
3.235016e+002, 6.326529e+002
3.239838e+002, 6.369317e+002
3.244659e+002, 6.403392e+002
3.249480e+002, 6.412305e+002
3.254301e+002, 6.415475e+002
3.259122e+002, 6.438666e+002
3.263943e+002, 6.487164e+002
3.268765e+002, 6.535941e+002
3.273586e+002, 6.567607e+002
3.278407e+002, 6.584152e+002
3.283228e+002, 6.594876e+002
3.288049e+002, 6.598533e+002
3.292870e+002, 6.601531e+002
3.297692e+002, 6.610998e+002
3.302513e+002, 6.626329e+002
3.307334e+002, 6.641506e+002
3.312155e+002, 6.655842e+002
3.316976e+002, 6.667704e+002
3.321797e+002, 6.673801e+002
3.326619e+002, 6.674367e+002
3.331440e+002, 6.667406e+002
3.336261e+002, 6.646479e+002
3.341082e+002, 6.616454e+002
3.345903e+002, 6.587993e+002
3.350724e+002, 6.570325e+002
3.355546e+002, 6.553124e+002
3.360367e+002, 6.523907e+002
3.365188e+002, 6.482585e+002
3.370009e+002, 6.430710e+002
3.374830e+002, 6.365111e+002
3.379651e+002, 6.289971e+002
3.384473e+002, 6.213098e+002
3.389294e+002, 6.131842e+002
3.394115e+002, 6.054545e+002
3.398936e+002, 5.993983e+002
3.403757e+002, 5.946874e+002
3.408578e+002, 5.889607e+002
3.413400e+002, 5.809254e+002
3.418221e+002, 5.717869e+002
3.423042e+002, 5.634670e+002
3.427863e+002, 5.560690e+002
3.432684e+002, 5.486663e+002
3.437505e+002, 5.404275e+002
3.442327e+002, 5.318534e+002
3.447148e+002, 5.243566e+002
3.451969e+002, 5.185422e+002
3.456790e+002, 5.130288e+002
3.461611e+002, 5.058951e+002
3.466432e+002, 4.974279e+002
3.471254e+002, 4.895032e+002
3.476075e+002, 4.828082e+002
3.480896e+002, 4.768294e+002
3.485717e+002, 4.710865e+002
3.490538e+002, 4.655146e+002
3.495359e+002, 4.602217e+002
3.500181e+002, 4.554350e+002
3.505002e+002, 4.509935e+002
3.509823e+002, 4.461689e+002
3.514644e+002, 4.404525e+002
3.519465e+002, 4.347717e+002
3.524286e+002, 4.297359e+002
3.529108e+002, 4.252841e+002
3.533929e+002, 4.211037e+002
3.538750e+002, 4.172740e+002
3.543571e+002, 4.134163e+002
3.548392e+002, 4.085301e+002
3.553214e+002, 4.022115e+002
3.558035e+002, 3.959656e+002
3.562856e+002, 3.907846e+002
3.567677e+002, 3.859756e+002
3.572498e+002, 3.801193e+002
3.577319e+002, 3.726851e+002
3.582141e+002, 3.648073e+002
3.586962e+002, 3.582384e+002
3.591783e+002, 3.534321e+002
3.596604e+002, 3.470421e+002
3.601425e+002, 3.371066e+002
3.606246e+002, 3.263595e+002
3.611068e+002, 3.174492e+002
3.615889e+002, 3.105228e+002
3.620710e+002, 3.042616e+002
3.625531e+002, 2.975910e+002
3.630352e+002, 2.905052e+002
3.635173e+002, 2.838178e+002
3.639995e+002, 2.773160e+002
3.644816e+002, 2.713383e+002
3.649637e+002, 2.662993e+002
3.654458e+002, 2.619469e+002
3.659279e+002, 2.575676e+002
3.664100e+002, 2.527307e+002
3.668922e+002, 2.477637e+002
3.673743e+002, 2.438520e+002
3.678564e+002, 2.416016e+002
3.683385e+002, 2.394564e+002
3.688206e+002, 2.371851e+002
3.693027e+002, 2.349305e+002
3.697849e+002, 2.328706e+002
3.702670e+002, 2.310614e+002
3.707491e+002, 2.294256e+002
3.712312e+002, 2.278697e+002
3.717133e+002, 2.264330e+002
3.721954e+002, 2.249943e+002
3.726776e+002, 2.233089e+002
3.731597e+002, 2.218267e+002
3.736418e+002, 2.208486e+002
3.741239e+002, 2.203461e+002
3.746060e+002, 2.201042e+002
3.750881e+002, 2.199747e+002
3.755703e+002, 2.199540e+002
3.760524e+002, 2.198741e+002
3.765345e+002, 2.194255e+002
3.770166e+002, 2.192702e+002
3.774987e+002, 2.198170e+002
3.779808e+002, 2.206862e+002
3.784630e+002, 2.214389e+002
3.789451e+002, 2.218764e+002
3.794272e+002, 2.218729e+002
3.799093e+002, 2.210395e+002
3.803914e+002, 2.183598e+002
3.808735e+002, 2.165576e+002
3.813557e+002, 2.164823e+002
3.818378e+002, 2.166937e+002
3.823199e+002, 2.161557e+002
3.828020e+002, 2.147124e+002
3.832841e+002, 2.128385e+002
3.837662e+002, 2.110723e+002
3.842484e+002, 2.094613e+002
3.847305e+002, 2.075686e+002
3.852126e+002, 2.052405e+002
3.856947e+002, 2.027467e+002
3.861768e+002, 2.001722e+002
3.866589e+002, 1.974892e+002
3.871411e+002, 1.946275e+002
3.876232e+002, 1.915342e+002
3.881053e+002, 1.882206e+002
3.885874e+002, 1.847247e+002
3.890695e+002, 1.808917e+002
3.895516e+002, 1.771790e+002
3.900338e+002, 1.738042e+002
3.905159e+002, 1.704984e+002
3.909980e+002, 1.669793e+002
3.914801e+002, 1.631645e+002
3.919622e+002, 1.593355e+002
3.924443e+002, 1.557711e+002
3.929265e+002, 1.524748e+002
3.934086e+002, 1.494862e+002
3.938907e+002, 1.472097e+002
3.943728e+002, 1.448789e+002
3.948549e+002, 1.418298e+002
3.953370e+002, 1.382785e+002
3.958192e+002, 1.351097e+002
3.963013e+002, 1.332202e+002
3.967834e+002, 1.321350e+002
3.972655e+002, 1.301805e+002
3.977476e+002, 1.269835e+002
3.982297e+002, 1.238960e+002
3.987119e+002, 1.215673e+002
3.991940e+002, 1.197851e+002
3.996761e+002, 1.184289e+002
4.001582e+002, 1.176347e+002
4.006403e+002, 1.168833e+002
4.011224e+002, 1.154988e+002
4.016046e+002, 1.135241e+002
4.020867e+002, 1.119142e+002
4.025688e+002, 1.111019e+002
4.030509e+002, 1.106214e+002
4.035330e+002, 1.099126e+002
4.040151e+002, 1.089741e+002
4.044973e+002, 1.079958e+002
4.049794e+002, 1.069565e+002
4.054615e+002, 1.059604e+002
4.059436e+002, 1.053046e+002
4.064257e+002, 1.050868e+002
4.069078e+002, 1.047163e+002
4.073900e+002, 1.035704e+002
4.078721e+002, 1.018197e+002
4.083542e+002, 1.003919e+002
4.088363e+002, 9.936733e+001
4.093184e+002, 9.867207e+001
4.098005e+002, 9.837228e+001
4.102827e+002, 9.839332e+001
4.107648e+002, 9.854415e+001
4.112469e+002, 9.880859e+001
4.117290e+002, 9.902132e+001
4.122111e+002, 9.873502e+001
4.126932e+002, 9.773202e+001
4.131754e+002, 9.686024e+001
4.136575e+002, 9.619013e+001
4.141396e+002, 9.576003e+001
4.146217e+002, 9.573727e+001
4.151038e+002, 9.610517e+001
4.155859e+002, 9.647272e+001
4.160681e+002, 9.645992e+001
4.165502e+002, 9.603860e+001
4.170323e+002, 9.546328e+001
4.175144e+002, 9.422500e+001
4.179965e+002, 9.337954e+001
4.184786e+002, 9.349252e+001
4.189608e+002, 9.429832e+001
4.194429e+002, 9.533345e+001
4.199250e+002, 9.637817e+001
4.204071e+002, 9.733469e+001
4.208892e+002, 9.792032e+001
4.213713e+002, 9.784663e+001
4.218535e+002, 9.781103e+001
4.223356e+002, 9.781046e+001
4.228177e+002, 9.787032e+001
4.232998e+002, 9.797740e+001
4.237819e+002, 9.814965e+001
4.242640e+002, 9.847876e+001
4.247462e+002, 9.916222e+001
4.252283e+002, 1.002683e+002
4.257104e+002, 1.007482e+002
4.261925e+002, 1.002030e+002
4.266746e+002, 9.940620e+001
4.271567e+002, 9.837893e+001
4.276389e+002, 9.729156e+001
4.281210e+002, 9.638880e+001
4.286031e+002, 9.579615e+001
4.290852e+002, 9.540567e+001
4.295673e+002, 9.512880e+001
4.300494e+002, 9.516077e+001
4.305316e+002, 9.460779e+001
4.310137e+002, 9.278384e+001
4.314958e+002, 9.060889e+001
4.319779e+002, 8.853819e+001
4.324600e+002, 8.664031e+001
4.329421e+002, 8.495666e+001
4.334243e+002, 8.373755e+001
4.339064e+002, 8.280704e+001
4.343885e+002, 8.128067e+001
4.348706e+002, 7.880843e+001
4.353527e+002, 7.644789e+001
4.358348e+002, 7.502944e+001
4.363170e+002, 7.415031e+001
4.367991e+002, 7.314973e+001
4.372812e+002, 7.180785e+001
4.377633e+002, 7.038610e+001
4.382454e+002, 6.911925e+001
4.387275e+002, 6.798753e+001
4.392097e+002, 6.689721e+001
4.396918e+002, 6.584128e+001
4.401739e+002, 6.478465e+001
4.406560e+002, 6.364044e+001
4.411381e+002, 6.238347e+001
4.416202e+002, 6.125437e+001
4.421024e+002, 6.035278e+001
4.425845e+002, 5.959801e+001
4.430666e+002, 5.898915e+001
4.435487e+002, 5.850020e+001
4.440308e+002, 5.787817e+001
4.445129e+002, 5.687219e+001
4.449951e+002, 5.555139e+001
4.454772e+002, 5.453954e+001
4.459593e+002, 5.411237e+001
4.464414e+002, 5.363209e+001
4.469235e+002, 5.265499e+001
4.474056e+002, 5.157617e+001
4.478878e+002, 5.112935e+001
4.483699e+002, 5.154819e+001
4.488520e+002, 5.219511e+001
4.493341e+002, 5.206115e+001
4.498162e+002, 5.076033e+001
4.502983e+002, 4.974859e+001
4.507805e+002, 4.908172e+001
4.512626e+002, 4.860578e+001
4.517447e+002, 4.832188e+001
4.522268e+002, 4.816330e+001
4.527089e+002, 4.801350e+001
4.531910e+002, 4.780566e+001
4.536732e+002, 4.752725e+001
4.541553e+002, 4.711831e+001
4.546374e+002, 4.650796e+001
4.551195e+002, 4.587934e+001
4.556016e+002, 4.513983e+001
4.560837e+002, 4.447447e+001
4.565659e+002, 4.403910e+001
4.570480e+002, 4.385949e+001
4.575301e+002, 4.387130e+001
4.580122e+002, 4.415404e+001
4.584943e+002, 4.469576e+001
4.589764e+002, 4.476682e+001
4.594586e+002, 4.404811e+001
4.599407e+002, 4.329221e+001
4.604228e+002, 4.281849e+001
4.609049e+002, 4.259222e+001
4.613870e+002, 4.259148e+001
4.618691e+002, 4.291814e+001
4.623513e+002, 4.328611e+001
4.628334e+002, 4.335743e+001
4.633155e+002, 4.313770e+001
4.637976e+002, 4.273974e+001
4.642797e+002, 4.205241e+001
4.647618e+002, 4.137706e+001
4.652440e+002, 4.118057e+001
4.657261e+002, 4.147384e+001
4.662082e+002, 4.158717e+001
4.666903e+002, 4.116334e+001
4.671724e+002, 4.050985e+001
4.676545e+002, 3.993013e+001
4.681367e+002, 3.946229e+001
4.686188e+002, 3.920323e+001
4.691009e+002, 3.929214e+001
4.695830e+002, 3.962685e+001
4.700651e+002, 3.968674e+001
4.705472e+002, 3.923360e+001
4.710294e+002, 3.884681e+001
4.715115e+002, 3.869314e+001
4.719936e+002, 3.867810e+001
4.724757e+002, 3.873497e+001
4.729578e+002, 3.883101e+001
4.734399e+002, 3.884882e+001
4.739221e+002, 3.862346e+001
4.744042e+002, 3.808541e+001
4.748863e+002, 3.770834e+001
4.753684e+002, 3.754118e+001
4.758505e+002, 3.745842e+001
4.763326e+002, 3.745458e+001
4.768148e+002, 3.749604e+001
4.772969e+002, 3.756429e+001
4.777790e+002, 3.765461e+001
4.782611e+002, 3.769676e+001
4.787432e+002, 3.749485e+001
4.792253e+002, 3.689855e+001
4.797075e+002, 3.648886e+001
4.801896e+002, 3.645384e+001
4.806717e+002, 3.652160e+001
4.811538e+002, 3.660023e+001
4.816359e+002, 3.666016e+001
4.821180e+002, 3.665514e+001
4.826002e+002, 3.651361e+001
4.830823e+002, 3.629741e+001
4.835644e+002, 3.619541e+001
4.840465e+002, 3.624286e+001
4.845286e+002, 3.628022e+001
4.850107e+002, 3.628863e+001
4.854929e+002, 3.621845e+001
4.859750e+002, 3.593453e+001
4.864571e+002, 3.534918e+001
4.869392e+002, 3.494371e+001
4.874213e+002, 3.516672e+001
4.879034e+002, 3.575872e+001
4.883856e+002, 3.617906e+001
4.888677e+002, 3.635300e+001
4.893498e+002, 3.628008e+001
4.898319e+002, 3.585258e+001
4.903140e+002, 3.511553e+001
4.907961e+002, 3.467806e+001
4.912783e+002, 3.479379e+001
4.917604e+002, 3.493435e+001
4.922425e+002, 3.481833e+001
4.927246e+002, 3.456488e+001
4.932067e+002, 3.438585e+001
4.936888e+002, 3.435570e+001
4.941710e+002, 3.446211e+001
4.946531e+002, 3.472930e+001
4.951352e+002, 3.534656e+001
4.956173e+002, 3.549577e+001
4.960994e+002, 3.469955e+001
4.965815e+002, 3.396709e+001
4.970637e+002, 3.385534e+001
4.975458e+002, 3.418998e+001
4.980279e+002, 3.455968e+001
4.985100e+002, 3.475032e+001
4.989921e+002, 3.474235e+001
4.994742e+002, 3.443469e+001
4.999564e+002, 3.364346e+001
5.004385e+002, 3.302043e+001
5.009206e+002, 3.273351e+001
5.014027e+002, 3.257734e+001
5.018848e+002, 3.245659e+001
5.023669e+002, 3.235897e+001
5.028491e+002, 3.230216e+001
5.033312e+002, 3.236936e+001
5.038133e+002, 3.247041e+001
5.042954e+002, 3.230444e+001
5.047775e+002, 3.179946e+001
5.052596e+002, 3.136933e+001
5.057418e+002, 3.120451e+001
5.062239e+002, 3.123535e+001
5.067060e+002, 3.140928e+001
5.071881e+002, 3.179888e+001
5.076702e+002, 3.201178e+001
5.081523e+002, 3.167078e+001
5.086345e+002, 3.108389e+001
5.091166e+002, 3.081629e+001
5.095987e+002, 3.095201e+001
5.100808e+002, 3.108873e+001
5.105629e+002, 3.085325e+001
5.110450e+002, 3.029980e+001
5.115272e+002, 3.005952e+001
5.120093e+002, 3.047755e+001
5.124914e+002, 3.075464e+001
5.129735e+002, 3.064520e+001
5.134556e+002, 3.026699e+001
5.139377e+002, 2.965621e+001
5.144199e+002, 2.887131e+001
5.149020e+002, 2.820946e+001
5.153841e+002, 2.808478e+001
5.158662e+002, 2.858676e+001
5.163483e+002, 2.901197e+001
5.168304e+002, 2.938586e+001
5.173126e+002, 2.964868e+001
5.177947e+002, 2.980963e+001
5.182768e+002, 2.983703e+001
5.187589e+002, 2.965121e+001
5.192410e+002, 2.921192e+001
5.197231e+002, 2.868272e+001
5.202053e+002, 2.825743e+001
5.206874e+002, 2.793251e+001
5.211695e+002, 2.779950e+001
5.216516e+002, 2.800042e+001
5.221337e+002, 2.823437e+001
5.226158e+002, 2.829310e+001
5.230980e+002, 2.821967e+001
5.235801e+002, 2.813922e+001
5.240622e+002, 2.813693e+001
5.245443e+002, 2.810578e+001
5.250264e+002, 2.784948e+001
5.255085e+002, 2.742466e+001
5.259907e+002, 2.719350e+001
5.264728e+002, 2.730948e+001
5.269549e+002, 2.761017e+001
5.274370e+002, 2.786359e+001
5.279191e+002, 2.805785e+001
5.284012e+002, 2.829897e+001
5.288834e+002, 2.874626e+001
5.293655e+002, 2.911661e+001
5.298476e+002, 2.923185e+001
5.303297e+002, 2.910221e+001
5.308118e+002, 2.875191e+001
5.312939e+002, 2.817539e+001
5.317761e+002, 2.750510e+001
5.322582e+002, 2.707415e+001
5.327403e+002, 2.691958e+001
5.332224e+002, 2.695867e+001
5.337045e+002, 2.744680e+001
5.341866e+002, 2.787760e+001
5.346688e+002, 2.789271e+001
5.351509e+002, 2.757281e+001
5.356330e+002, 2.723166e+001
5.361151e+002, 2.705701e+001
5.365972e+002, 2.702217e+001
5.370793e+002, 2.706319e+001
5.375615e+002, 2.718835e+001
5.380436e+002, 2.735729e+001
5.385257e+002, 2.761498e+001
5.390078e+002, 2.786724e+001
5.394899e+002, 2.809406e+001
5.399720e+002, 2.828142e+001
5.404542e+002, 2.824417e+001
5.409363e+002, 2.757839e+001
5.414184e+002, 2.679013e+001
5.419005e+002, 2.676340e+001
5.423826e+002, 2.747953e+001
5.428647e+002, 2.800142e+001
5.433469e+002, 2.778999e+001
5.438290e+002, 2.712463e+001
5.443111e+002, 2.672774e+001
5.447932e+002, 2.672184e+001
5.452753e+002, 2.665519e+001
5.457574e+002, 2.631543e+001
5.462396e+002, 2.599537e+001
5.467217e+002, 2.603809e+001
5.472038e+002, 2.637742e+001
5.476859e+002, 2.662190e+001
5.481680e+002, 2.647935e+001
5.486501e+002, 2.605616e+001
5.491323e+002, 2.582081e+001
5.496144e+002, 2.580633e+001
5.500965e+002, 2.594062e+001
5.505786e+002, 2.640327e+001
5.510607e+002, 2.684773e+001
5.515428e+002, 2.697516e+001
5.520250e+002, 2.680718e+001
5.525071e+002, 2.661771e+001
5.529892e+002, 2.658135e+001
5.534713e+002, 2.667906e+001
5.539534e+002, 2.691838e+001
5.544355e+002, 2.736285e+001
5.549177e+002, 2.761157e+001
5.553998e+002, 2.737014e+001
5.558819e+002, 2.694324e+001
5.563640e+002, 2.675555e+001
5.568461e+002, 2.683969e+001
5.573282e+002, 2.694118e+001
5.578104e+002, 2.703991e+001
5.582925e+002, 2.705818e+001
5.587746e+002, 2.677245e+001
5.592567e+002, 2.623948e+001
5.597388e+002, 2.597965e+001
5.602209e+002, 2.637451e+001
5.607031e+002, 2.715511e+001
5.611852e+002, 2.746071e+001
5.616673e+002, 2.674474e+001
5.621494e+002, 2.631489e+001
5.626315e+002, 2.653982e+001
5.631136e+002, 2.678141e+001
5.635958e+002, 2.641811e+001
5.640779e+002, 2.559377e+001
5.645600e+002, 2.497383e+001
5.650421e+002, 2.503923e+001
5.655242e+002, 2.563254e+001
5.660063e+002, 2.631557e+001
5.664885e+002, 2.725947e+001
5.669706e+002, 2.778277e+001
5.674527e+002, 2.731637e+001
5.679348e+002, 2.666496e+001
5.684169e+002, 2.637171e+001
5.688990e+002, 2.643218e+001
5.693812e+002, 2.653132e+001
5.698633e+002, 2.656674e+001
5.703454e+002, 2.651376e+001
5.708275e+002, 2.625620e+001
5.713096e+002, 2.581723e+001
5.717917e+002, 2.553932e+001
5.722739e+002, 2.561192e+001
5.727560e+002, 2.584538e+001
5.732381e+002, 2.587451e+001
5.737202e+002, 2.560644e+001
5.742023e+002, 2.551220e+001
5.746844e+002, 2.585209e+001
5.751666e+002, 2.619138e+001
5.756487e+002, 2.614614e+001
5.761308e+002, 2.584780e+001
5.766129e+002, 2.567364e+001
5.770950e+002, 2.582046e+001
5.775771e+002, 2.619877e+001
5.780593e+002, 2.666407e+001
5.785414e+002, 2.737479e+001
5.790235e+002, 2.773637e+001
5.795056e+002, 2.743574e+001
5.799877e+002, 2.703746e+001
5.804698e+002, 2.672113e+001
5.809520e+002, 2.650842e+001
5.814341e+002, 2.641524e+001
5.819162e+002, 2.649234e+001
5.823983e+002, 2.660059e+001
5.828804e+002, 2.649079e+001
5.833625e+002, 2.619611e+001
5.838447e+002, 2.609475e+001
5.843268e+002, 2.631571e+001
5.848089e+002, 2.666117e+001
5.852910e+002, 2.701853e+001
5.857731e+002, 2.736360e+001
5.862552e+002, 2.742136e+001
5.867374e+002, 2.671409e+001
5.872195e+002, 2.618811e+001
5.877016e+002, 2.655318e+001
5.881837e+002, 2.737874e+001
5.886658e+002, 2.790057e+001
5.891479e+002, 2.789184e+001
5.896301e+002, 2.765474e+001
5.901122e+002, 2.753629e+001
5.905943e+002, 2.753479e+001
5.910764e+002, 2.768029e+001
5.915585e+002, 2.819576e+001
5.920406e+002, 2.859851e+001
5.925228e+002, 2.878583e+001
5.930049e+002, 2.879465e+001
5.934870e+002, 2.861886e+001
5.939691e+002, 2.826494e+001
5.944512e+002, 2.792169e+001
5.949333e+002, 2.779252e+001
5.954155e+002, 2.782892e+001
5.958976e+002, 2.776272e+001
5.963797e+002, 2.750757e+001
5.968618e+002, 2.748984e+001
5.973439e+002, 2.814291e+001
5.978260e+002, 2.913740e+001
5.983082e+002, 2.961852e+001
5.987903e+002, 2.930557e+001
5.992724e+002, 2.918871e+001
5.997545e+002, 2.973906e+001
6.002366e+002, 3.054877e+001
6.007188e+002, 3.126898e+001
6.012009e+002, 3.182753e+001
6.016830e+002, 3.217400e+001
6.021651e+002, 3.226672e+001
6.026472e+002, 3.214733e+001
6.031293e+002, 3.194711e+001
6.036115e+002, 3.148520e+001
6.040936e+002, 3.128504e+001
6.045757e+002, 3.162284e+001
6.050578e+002, 3.199218e+001
6.055399e+002, 3.203383e+001
6.060220e+002, 3.182347e+001
6.065042e+002, 3.168285e+001
6.069863e+002, 3.180247e+001
6.074684e+002, 3.206987e+001
6.079505e+002, 3.240287e+001
6.084326e+002, 3.279251e+001
6.089147e+002, 3.282283e+001
6.093969e+002, 3.224282e+001
6.098790e+002, 3.153381e+001
6.103611e+002, 3.128544e+001
6.108432e+002, 3.144780e+001
6.113253e+002, 3.139753e+001
6.118074e+002, 3.070184e+001
6.122896e+002, 3.016188e+001
6.127717e+002, 3.044699e+001
6.132538e+002, 3.110424e+001
6.137359e+002, 3.130504e+001
6.142180e+002, 3.082275e+001
6.147001e+002, 3.011860e+001
6.151823e+002, 2.970171e+001
6.156644e+002, 2.957378e+001
6.161465e+002, 2.972479e+001
6.166286e+002, 3.054719e+001
6.171107e+002, 3.110017e+001
6.175928e+002, 3.103434e+001
6.180750e+002, 3.066455e+001
6.185571e+002, 3.027259e+001
6.190392e+002, 2.992046e+001
6.195213e+002, 2.960822e+001
6.200034e+002, 2.934808e+001
6.204855e+002, 2.912551e+001
6.209677e+002, 2.889211e+001
6.214498e+002, 2.864439e+001
6.219319e+002, 2.846662e+001
6.224140e+002, 2.842643e+001
6.228961e+002, 2.845403e+001
6.233782e+002, 2.839127e+001
6.238604e+002, 2.819782e+001
6.243425e+002, 2.805371e+001
6.248246e+002, 2.804815e+001
6.253067e+002, 2.803779e+001
6.257888e+002, 2.789119e+001
6.262709e+002, 2.766115e+001
6.267531e+002, 2.749376e+001
6.272352e+002, 2.746284e+001
6.277173e+002, 2.749436e+001
6.281994e+002, 2.741398e+001
6.286815e+002, 2.715734e+001
6.291636e+002, 2.715811e+001
6.296458e+002, 2.764712e+001
6.301279e+002, 2.813065e+001
6.306100e+002, 2.843138e+001
6.310921e+002, 2.854585e+001
6.315742e+002, 2.842666e+001
6.320563e+002, 2.798007e+001
6.325385e+002, 2.754889e+001
6.330206e+002, 2.734451e+001
6.335027e+002, 2.733982e+001
6.339848e+002, 2.753847e+001
6.344669e+002, 2.793435e+001
6.349490e+002, 2.832334e+001
6.354312e+002, 2.856250e+001
6.359133e+002, 2.867236e+001
6.363954e+002, 2.875143e+001
6.368775e+002, 2.893891e+001
6.373596e+002, 2.889600e+001
6.378417e+002, 2.825205e+001
6.383239e+002, 2.766736e+001
6.388060e+002, 2.772080e+001
6.392881e+002, 2.827911e+001
6.397702e+002, 2.876930e+001
6.402523e+002, 2.881708e+001
6.407344e+002, 2.868618e+001
6.412166e+002, 2.894966e+001
6.416987e+002, 2.963469e+001
6.421808e+002, 3.012222e+001
6.426629e+002, 3.030149e+001
6.431450e+002, 3.024004e+001
6.436271e+002, 2.984893e+001
6.441093e+002, 2.923498e+001
6.445914e+002, 2.880558e+001
6.450735e+002, 2.855534e+001
6.455556e+002, 2.857218e+001
6.460377e+002, 2.909188e+001
6.465198e+002, 2.982434e+001
6.470020e+002, 3.036682e+001
6.474841e+002, 3.063821e+001
6.479662e+002, 3.076694e+001
6.484483e+002, 3.085827e+001
6.489304e+002, 3.091111e+001
6.494125e+002, 3.091405e+001
6.498947e+002, 3.082142e+001
6.503768e+002, 3.076499e+001
6.508589e+002, 3.067585e+001
6.513410e+002, 3.070093e+001
6.518231e+002, 3.102581e+001
6.523052e+002, 3.159194e+001
6.527874e+002, 3.209795e+001
6.532695e+002, 3.241793e+001
6.537516e+002, 3.257935e+001
6.542337e+002, 3.255877e+001
6.547158e+002, 3.239202e+001
6.551979e+002, 3.222207e+001
6.556801e+002, 3.207518e+001
6.561622e+002, 3.202645e+001
6.566443e+002, 3.219103e+001
6.571264e+002, 3.258701e+001
6.576085e+002, 3.284029e+001
6.580906e+002, 3.281177e+001
6.585728e+002, 3.283489e+001
6.590549e+002, 3.311391e+001
6.595370e+002, 3.340916e+001
6.600191e+002, 3.335863e+001
6.605012e+002, 3.298826e+001
6.609833e+002, 3.278483e+001
6.614655e+002, 3.325043e+001
6.619476e+002, 3.412847e+001
6.624297e+002, 3.455472e+001
6.629118e+002, 3.445994e+001
6.633939e+002, 3.446858e+001
6.638760e+002, 3.485640e+001
6.643582e+002, 3.532452e+001
6.648403e+002, 3.542644e+001
6.653224e+002, 3.520097e+001
6.658045e+002, 3.523944e+001
6.662866e+002, 3.594689e+001
6.667687e+002, 3.661576e+001
6.672509e+002, 3.669546e+001
6.677330e+002, 3.652245e+001
6.682151e+002, 3.676791e+001
6.686972e+002, 3.755674e+001
6.691793e+002, 3.827472e+001
6.696614e+002, 3.820703e+001
6.701436e+002, 3.743742e+001
6.706257e+002, 3.720521e+001
6.711078e+002, 3.775187e+001
6.715899e+002, 3.833685e+001
6.720720e+002, 3.876556e+001
6.725541e+002, 3.915090e+001
6.730363e+002, 3.958953e+001
6.735184e+002, 4.007983e+001
6.740005e+002, 4.054791e+001
6.744826e+002, 4.098864e+001
6.749647e+002, 4.137649e+001
6.754468e+002, 4.161967e+001
6.759290e+002, 4.178729e+001
6.764111e+002, 4.209599e+001
6.768932e+002, 4.261347e+001
6.773753e+002, 4.322881e+001
6.778574e+002, 4.379560e+001
6.783395e+002, 4.430423e+001
6.788217e+002, 4.501978e+001
6.793038e+002, 4.647674e+001
6.797859e+002, 4.744398e+001
6.802680e+002, 4.726861e+001
6.807501e+002, 4.681478e+001
6.812322e+002, 4.685663e+001
6.817144e+002, 4.745446e+001
6.821965e+002, 4.818958e+001
6.826786e+002, 4.877806e+001
6.831607e+002, 4.934277e+001
6.836428e+002, 5.021848e+001
6.841249e+002, 5.133521e+001
6.846071e+002, 5.197355e+001
6.850892e+002, 5.181383e+001
6.855713e+002, 5.149747e+001
6.860534e+002, 5.178180e+001
6.865355e+002, 5.271185e+001
6.870176e+002, 5.344994e+001
6.874998e+002, 5.382077e+001
6.879819e+002, 5.423436e+001
6.884640e+002, 5.482961e+001
6.889461e+002, 5.549296e+001
6.894282e+002, 5.616491e+001
6.899103e+002, 5.679910e+001
6.903925e+002, 5.728022e+001
6.908746e+002, 5.744777e+001
6.913567e+002, 5.746958e+001
6.918388e+002, 5.774421e+001
6.923209e+002, 5.827755e+001
6.928030e+002, 5.897509e+001
6.932852e+002, 5.996754e+001
6.937673e+002, 6.082084e+001
6.942494e+002, 6.090336e+001
6.947315e+002, 6.029520e+001
6.952136e+002, 6.025647e+001
6.956957e+002, 6.152436e+001
6.961779e+002, 6.253284e+001
6.966600e+002, 6.252596e+001
6.971421e+002, 6.210924e+001
6.976242e+002, 6.190427e+001
6.981063e+002, 6.201863e+001
6.985884e+002, 6.227796e+001
6.990706e+002, 6.254918e+001
6.995527e+002, 6.287002e+001
7.000348e+002, 6.347569e+001
7.005169e+002, 6.449069e+001
7.009990e+002, 6.492004e+001
7.014811e+002, 6.422462e+001
7.019633e+002, 6.337852e+001
7.024454e+002, 6.324322e+001
7.029275e+002, 6.364157e+001
7.034096e+002, 6.401559e+001
7.038917e+002, 6.436494e+001
7.043738e+002, 6.457848e+001
7.048560e+002, 6.449845e+001
7.053381e+002, 6.432262e+001
7.058202e+002, 6.429590e+001
7.063023e+002, 6.443012e+001
7.067844e+002, 6.460131e+001
7.072665e+002, 6.473743e+001
7.077487e+002, 6.480454e+001
7.082308e+002, 6.470005e+001
7.087129e+002, 6.440405e+001
7.091950e+002, 6.401303e+001
7.096771e+002, 6.341162e+001
7.101592e+002, 6.288644e+001
7.106414e+002, 6.275084e+001
7.111235e+002, 6.280301e+001
7.116056e+002, 6.257224e+001
7.120877e+002, 6.180600e+001
7.125698e+002, 6.116722e+001
7.130519e+002, 6.102636e+001
7.135341e+002, 6.116269e+001
7.140162e+002, 6.148362e+001
7.144983e+002, 6.186121e+001
7.149804e+002, 6.187763e+001
7.154625e+002, 6.126483e+001
7.159446e+002, 6.036124e+001
7.164268e+002, 5.990487e+001
7.169089e+002, 6.000580e+001
7.173910e+002, 6.004921e+001
7.178731e+002, 5.991877e+001
7.183552e+002, 5.986819e+001
7.188373e+002, 6.021707e+001
7.193195e+002, 6.063482e+001
7.198016e+002, 6.056604e+001
7.202837e+002, 5.983364e+001
7.207658e+002, 5.919686e+001
7.212479e+002, 5.903271e+001
7.217300e+002, 5.913596e+001
7.222122e+002, 5.938231e+001
7.226943e+002, 5.970200e+001
7.231764e+002, 5.991621e+001
7.236585e+002, 5.994543e+001
7.241406e+002, 5.991225e+001
7.246227e+002, 6.001219e+001
7.251049e+002, 6.026653e+001
7.255870e+002, 6.045732e+001
7.260691e+002, 6.056516e+001
7.265512e+002, 6.063795e+001
7.270333e+002, 6.058996e+001
7.275154e+002, 6.057766e+001
7.279976e+002, 6.083073e+001
7.284797e+002, 6.135620e+001
7.289618e+002, 6.175060e+001
7.294439e+002, 6.157397e+001
7.299260e+002, 6.142431e+001
7.304081e+002, 6.191497e+001
7.308903e+002, 6.285497e+001
7.313724e+002, 6.387792e+001
7.318545e+002, 6.484807e+001
7.323366e+002, 6.547750e+001
7.328187e+002, 6.535575e+001
7.333008e+002, 6.459146e+001
7.337830e+002, 6.456396e+001
7.342651e+002, 6.572720e+001
7.347472e+002, 6.664684e+001
7.352293e+002, 6.666709e+001
7.357114e+002, 6.661799e+001
7.361935e+002, 6.709085e+001
7.366757e+002, 6.802002e+001
7.371578e+002, 6.902770e+001
7.376399e+002, 7.015359e+001
7.381220e+002, 7.112484e+001
7.386041e+002, 7.164900e+001
7.390862e+002, 7.194102e+001
7.395684e+002, 7.229129e+001
7.400505e+002, 7.276392e+001
7.405326e+002, 7.336607e+001
7.410147e+002, 7.410520e+001
7.414968e+002, 7.497456e+001
7.419789e+002, 7.598454e+001
7.424611e+002, 7.719568e+001
7.429432e+002, 7.829311e+001
7.434253e+002, 7.892300e+001
7.439074e+002, 7.984879e+001
7.443895e+002, 8.187692e+001
7.448716e+002, 8.438770e+001
7.453538e+002, 8.613502e+001
7.458359e+002, 8.663160e+001
7.463180e+002, 8.733720e+001
7.468001e+002, 8.907645e+001
7.472822e+002, 9.121529e+001
7.477643e+002, 9.319584e+001
7.482465e+002, 9.497881e+001
7.487286e+002, 9.665104e+001
7.492107e+002, 9.824571e+001
7.496928e+002, 9.987883e+001
7.501749e+002, 1.017370e+002
7.506570e+002, 1.038312e+002
7.511392e+002, 1.060033e+002
7.516213e+002, 1.082552e+002
7.521034e+002, 1.105995e+002
7.525855e+002, 1.129538e+002
7.530676e+002, 1.154750e+002
7.535497e+002, 1.183624e+002
7.540319e+002, 1.216262e+002
7.545140e+002, 1.249421e+002
7.549961e+002, 1.280102e+002
7.554782e+002, 1.313395e+002
7.559603e+002, 1.354674e+002
7.564424e+002, 1.399442e+002
7.569246e+002, 1.440775e+002
7.574067e+002, 1.477521e+002
7.578888e+002, 1.513129e+002
7.583709e+002, 1.550246e+002
7.588530e+002, 1.589643e+002
7.593351e+002, 1.635390e+002
7.598173e+002, 1.688560e+002
7.602994e+002, 1.736714e+002
7.607815e+002, 1.772853e+002
7.612636e+002, 1.810534e+002
7.617457e+002, 1.861270e+002
7.622278e+002, 1.923358e+002
7.627100e+002, 1.987887e+002
7.631921e+002, 2.061320e+002
7.636742e+002, 2.126577e+002
7.641563e+002, 2.166778e+002
7.646384e+002, 2.207498e+002
7.651205e+002, 2.273323e+002
7.656027e+002, 2.358297e+002
7.660848e+002, 2.441615e+002
7.665669e+002, 2.513906e+002
7.670490e+002, 2.581303e+002
7.675311e+002, 2.653555e+002
7.680132e+002, 2.728554e+002
7.684954e+002, 2.792222e+002
7.689775e+002, 2.842209e+002
7.694596e+002, 2.895713e+002
7.699417e+002, 2.963968e+002
7.704238e+002, 3.036438e+002
7.709059e+002, 3.093385e+002
7.713881e+002, 3.128241e+002
7.718702e+002, 3.173236e+002
7.723523e+002, 3.243424e+002
7.728344e+002, 3.305742e+002
7.733165e+002, 3.346177e+002
7.737986e+002, 3.374039e+002
7.742808e+002, 3.398932e+002
7.747629e+002, 3.422865e+002
7.752450e+002, 3.445178e+002
7.757271e+002, 3.466382e+002
7.762092e+002, 3.484642e+002
7.766913e+002, 3.498231e+002
7.771735e+002, 3.506607e+002
7.776556e+002, 3.506915e+002
7.781377e+002, 3.498403e+002
7.786198e+002, 3.484101e+002
7.791019e+002, 3.467044e+002
7.795840e+002, 3.446164e+002
7.800662e+002, 3.415466e+002
7.805483e+002, 3.367640e+002
7.810304e+002, 3.323766e+002
7.815125e+002, 3.286740e+002
7.819946e+002, 3.252387e+002
7.824767e+002, 3.221293e+002
7.829589e+002, 3.190606e+002
7.834410e+002, 3.154015e+002
7.839231e+002, 3.107873e+002
7.844052e+002, 3.065861e+002
7.848873e+002, 3.040269e+002
7.853694e+002, 3.020546e+002
7.858516e+002, 2.995803e+002
7.863337e+002, 2.965330e+002
7.868158e+002, 2.927237e+002
7.872979e+002, 2.880993e+002
7.877800e+002, 2.838665e+002
7.882621e+002, 2.818775e+002
7.887443e+002, 2.820357e+002
7.892264e+002, 2.806216e+002
7.897085e+002, 2.768384e+002
7.901906e+002, 2.737133e+002
7.906727e+002, 2.724502e+002
7.911548e+002, 2.718606e+002
7.916370e+002, 2.706985e+002
7.921191e+002, 2.690782e+002
7.926012e+002, 2.678612e+002
7.930833e+002, 2.671874e+002
7.935654e+002, 2.669100e+002
7.940475e+002, 2.675301e+002
7.945297e+002, 2.681378e+002
7.950118e+002, 2.674794e+002
7.954939e+002, 2.658551e+002
7.959760e+002, 2.647249e+002
7.964581e+002, 2.649407e+002
7.969402e+002, 2.656976e+002
7.974224e+002, 2.655899e+002
7.979045e+002, 2.648454e+002
7.983866e+002, 2.652069e+002
7.988687e+002, 2.669537e+002
7.993508e+002, 2.684883e+002
7.998329e+002, 2.688704e+002
8.003151e+002, 2.687592e+002
8.007972e+002, 2.693803e+002
8.012793e+002, 2.709558e+002
8.017614e+002, 2.724073e+002
8.022435e+002, 2.733328e+002
8.027256e+002, 2.746422e+002
8.032078e+002, 2.765804e+002
8.036899e+002, 2.790453e+002
8.041720e+002, 2.821195e+002
8.046541e+002, 2.856815e+002
8.051362e+002, 2.891581e+002
8.056183e+002, 2.919204e+002
8.061005e+002, 2.948200e+002
8.065826e+002, 2.988214e+002
8.070647e+002, 3.036058e+002
8.075468e+002, 3.082374e+002
8.080289e+002, 3.126785e+002
8.085110e+002, 3.182122e+002
8.089932e+002, 3.260009e+002
8.094753e+002, 3.347139e+002
8.099574e+002, 3.405550e+002
8.104395e+002, 3.426200e+002
8.109216e+002, 3.459732e+002
8.114037e+002, 3.510275e+002
8.118859e+002, 3.570783e+002
8.123680e+002, 3.642777e+002
8.128501e+002, 3.720452e+002
8.133322e+002, 3.794597e+002
8.138143e+002, 3.863466e+002
8.142964e+002, 3.937796e+002
8.147786e+002, 4.020737e+002
8.152607e+002, 4.109524e+002
8.157428e+002, 4.204886e+002
8.162249e+002, 4.303752e+002
8.167070e+002, 4.400117e+002
8.171891e+002, 4.493747e+002
8.176713e+002, 4.591803e+002
8.181534e+002, 4.700751e+002
8.186355e+002, 4.814913e+002
8.191176e+002, 4.922127e+002
8.195997e+002, 5.023647e+002
8.200818e+002, 5.127518e+002
8.205640e+002, 5.234119e+002
8.210461e+002, 5.352243e+002
8.215282e+002, 5.488591e+002
8.220103e+002, 5.640739e+002
8.224924e+002, 5.800756e+002
8.229745e+002, 5.978246e+002
8.234567e+002, 6.144816e+002
8.239388e+002, 6.287500e+002
8.244209e+002, 6.435029e+002
8.249030e+002, 6.596025e+002
8.253851e+002, 6.769467e+002
8.258672e+002, 6.953383e+002
8.263494e+002, 7.148131e+002
8.268315e+002, 7.350746e+002
8.273136e+002, 7.562660e+002
8.277957e+002, 7.779580e+002
8.282778e+002, 8.000358e+002
8.287599e+002, 8.221644e+002
8.292421e+002, 8.434367e+002
8.297242e+002, 8.639008e+002
8.302063e+002, 8.849332e+002
8.306884e+002, 9.077938e+002
8.311705e+002, 9.317068e+002
8.316526e+002, 9.552252e+002
8.321348e+002, 9.782657e+002
8.326169e+002, 9.994010e+002
8.330990e+002, 1.017937e+003
8.335811e+002, 1.036193e+003
8.340632e+002, 1.056191e+003
8.345453e+002, 1.076392e+003
8.350275e+002, 1.093844e+003
8.355096e+002, 1.108271e+003
8.359917e+002, 1.120178e+003
8.364738e+002, 1.129418e+003
8.369559e+002, 1.136354e+003
8.374380e+002, 1.142055e+003
8.379202e+002, 1.144987e+003
8.384023e+002, 1.143986e+003
8.388844e+002, 1.138635e+003
8.393665e+002, 1.128150e+003
8.398486e+002, 1.111255e+003
8.403307e+002, 1.090006e+003
8.408129e+002, 1.066168e+003
8.412950e+002, 1.039696e+003
8.417771e+002, 1.010230e+003
8.422592e+002, 9.779884e+002
8.427413e+002, 9.438610e+002
8.432234e+002, 9.086449e+002
8.437056e+002, 8.723553e+002
8.441877e+002, 8.346355e+002
8.446698e+002, 7.954420e+002
8.451519e+002, 7.577702e+002
8.456340e+002, 7.221440e+002
8.461161e+002, 6.872797e+002
8.465983e+002, 6.518607e+002
8.470804e+002, 6.174947e+002
8.475625e+002, 5.866562e+002
8.480446e+002, 5.594724e+002
8.485267e+002, 5.321337e+002
8.490089e+002, 5.025035e+002
8.494910e+002, 4.753013e+002
8.499731e+002, 4.521938e+002
8.504552e+002, 4.316753e+002
8.509373e+002, 4.129674e+002
8.514194e+002, 3.955400e+002
8.519016e+002, 3.784629e+002
8.523837e+002, 3.611300e+002
8.528658e+002, 3.444045e+002
8.533479e+002, 3.285084e+002
8.538300e+002, 3.138493e+002
8.543121e+002, 3.017621e+002
8.547943e+002, 2.918497e+002
8.552764e+002, 2.818576e+002
8.557585e+002, 2.708713e+002
8.562406e+002, 2.600996e+002
8.567227e+002, 2.512263e+002
8.572048e+002, 2.441203e+002
8.576870e+002, 2.361761e+002
8.581691e+002, 2.269238e+002
8.586512e+002, 2.189198e+002
8.591333e+002, 2.132604e+002
8.596154e+002, 2.083071e+002
8.600975e+002, 2.026107e+002
8.605797e+002, 1.963586e+002
8.610618e+002, 1.905457e+002
8.615439e+002, 1.851842e+002
8.620260e+002, 1.802430e+002
8.625081e+002, 1.759368e+002
8.629902e+002, 1.718046e+002
8.634724e+002, 1.673943e+002
8.639545e+002, 1.630404e+002
8.644366e+002, 1.593469e+002
8.649187e+002, 1.564298e+002
8.654008e+002, 1.536972e+002
8.658829e+002, 1.509115e+002
8.663651e+002, 1.479632e+002
8.668472e+002, 1.445454e+002
8.673293e+002, 1.408693e+002
8.678114e+002, 1.372865e+002
8.682935e+002, 1.339278e+002
8.687756e+002, 1.309946e+002
8.692578e+002, 1.286734e+002
8.697399e+002, 1.267864e+002
8.702220e+002, 1.249460e+002
8.707041e+002, 1.231589e+002
8.711862e+002, 1.213181e+002
8.716683e+002, 1.193941e+002
8.721505e+002, 1.175070e+002
8.726326e+002, 1.157721e+002
8.731147e+002, 1.140550e+002
8.735968e+002, 1.120563e+002
8.740789e+002, 1.096493e+002
8.745610e+002, 1.076643e+002
8.750432e+002, 1.064710e+002
8.755253e+002, 1.052131e+002
8.760074e+002, 1.035604e+002
8.764895e+002, 1.018810e+002
8.769716e+002, 1.005099e+002
8.774537e+002, 9.939341e+001
8.779359e+002, 9.821995e+001
8.784180e+002, 9.684530e+001
8.789001e+002, 9.548279e+001
8.793822e+002, 9.421290e+001
8.798643e+002, 9.305498e+001
8.803464e+002, 9.205491e+001
8.808286e+002, 9.117723e+001
8.813107e+002, 9.036402e+001
8.817928e+002, 8.958359e+001
8.822749e+002, 8.870827e+001
8.827570e+002, 8.753779e+001
8.832391e+002, 8.619775e+001
8.837213e+002, 8.502629e+001
8.842034e+002, 8.403304e+001
8.846855e+002, 8.350746e+001
8.851676e+002, 8.359181e+001
8.856497e+002, 8.361176e+001
8.861318e+002, 8.300936e+001
8.866140e+002, 8.196888e+001
8.870961e+002, 8.112183e+001
8.875782e+002, 8.056593e+001
8.880603e+002, 7.996194e+001
8.885424e+002, 7.950788e+001
8.890245e+002, 7.872874e+001
8.895067e+002, 7.689597e+001
8.899888e+002, 7.496111e+001
8.904709e+002, 7.430717e+001
8.909530e+002, 7.496012e+001
8.914351e+002, 7.483971e+001
8.919172e+002, 7.274674e+001
8.923994e+002, 7.075866e+001
8.928815e+002, 6.982380e+001
8.933636e+002, 6.930940e+001
8.938457e+002, 6.865257e+001
8.943278e+002, 6.782693e+001
8.948099e+002, 6.699664e+001
8.952921e+002, 6.622439e+001
8.957742e+002, 6.552462e+001
8.962563e+002, 6.496028e+001
8.967384e+002, 6.445461e+001
8.972205e+002, 6.399873e+001
8.977026e+002, 6.349941e+001
8.981848e+002, 6.253615e+001
8.986669e+002, 6.099868e+001
8.991490e+002, 5.942050e+001
8.996311e+002, 5.826973e+001
9.001132e+002, 5.754684e+001
9.005953e+002, 5.741630e+001
9.010775e+002, 5.796962e+001
9.015596e+002, 5.803262e+001
9.020417e+002, 5.733736e+001
9.025238e+002, 5.648715e+001
9.030059e+002, 5.581974e+001
9.034880e+002, 5.524500e+001
9.039702e+002, 5.456109e+001
9.044523e+002, 5.371155e+001
9.049344e+002, 5.298529e+001
9.054165e+002, 5.277887e+001
9.058986e+002, 5.218027e+001
9.063807e+002, 5.035173e+001
9.068629e+002, 4.854373e+001
9.073450e+002, 4.810132e+001
9.078271e+002, 4.870451e+001
9.083092e+002, 4.879174e+001
9.087913e+002, 4.760807e+001
9.092734e+002, 4.659435e+001
9.097556e+002, 4.664989e+001
9.102377e+002, 4.692699e+001
9.107198e+002, 4.665389e+001
9.112019e+002, 4.601051e+001
9.116840e+002, 4.549710e+001
9.121661e+002, 4.524793e+001
9.126483e+002, 4.495282e+001
9.131304e+002, 4.429354e+001
9.136125e+002, 4.348434e+001
9.140946e+002, 4.283338e+001
9.145767e+002, 4.233384e+001
9.150588e+002, 4.202916e+001
9.155410e+002, 4.189889e+001
9.160231e+002, 4.170153e+001
9.165052e+002, 4.127952e+001
9.169873e+002, 4.071694e+001
9.174694e+002, 4.008533e+001
9.179515e+002, 3.936610e+001
9.184337e+002, 3.923203e+001
9.189158e+002, 3.992182e+001
9.193979e+002, 4.002832e+001
9.198800e+002, 3.879334e+001
9.203621e+002, 3.736251e+001
9.208442e+002, 3.703072e+001
9.213264e+002, 3.766480e+001
9.218085e+002, 3.785466e+001
9.222906e+002, 3.719690e+001
9.227727e+002, 3.675368e+001
9.232548e+002, 3.687568e+001
9.237369e+002, 3.688169e+001
9.242191e+002, 3.624540e+001
9.247012e+002, 3.538466e+001
9.251833e+002, 3.502080e+001
9.256654e+002, 3.526192e+001
9.261475e+002, 3.527802e+001
9.266296e+002, 3.451008e+001
9.271118e+002, 3.382667e+001
9.275939e+002, 3.379126e+001
9.280760e+002, 3.398106e+001
9.285581e+002, 3.393424e+001
9.290402e+002, 3.365649e+001
9.295223e+002, 3.339828e+001
9.300045e+002, 3.327796e+001
9.304866e+002, 3.313924e+001
9.309687e+002, 3.288020e+001
9.314508e+002, 3.248561e+001
9.319329e+002, 3.174643e+001
9.324150e+002, 3.085749e+001
9.328972e+002, 3.053079e+001
9.333793e+002, 3.090147e+001
9.338614e+002, 3.121729e+001
9.343435e+002, 3.077048e+001
9.348256e+002, 2.993808e+001
9.353077e+002, 2.970208e+001
9.357899e+002, 3.001541e+001
9.362720e+002, 3.017784e+001
9.367541e+002, 3.010535e+001
9.372362e+002, 2.999418e+001
9.377183e+002, 2.994480e+001
9.382004e+002, 2.989598e+001
9.386826e+002, 2.976689e+001
9.391647e+002, 2.955824e+001
9.396468e+002, 2.919201e+001
9.401289e+002, 2.858014e+001
9.406110e+002, 2.802367e+001
9.410931e+002, 2.755998e+001
9.415753e+002, 2.719493e+001
9.420574e+002, 2.691738e+001
9.425395e+002, 2.674609e+001
9.430216e+002, 2.675527e+001
9.435037e+002, 2.707463e+001
9.439858e+002, 2.717822e+001
9.444680e+002, 2.686840e+001
9.449501e+002, 2.652651e+001
9.454322e+002, 2.619137e+001
9.459143e+002, 2.596682e+001
9.463964e+002, 2.603386e+001
9.468785e+002, 2.632318e+001
9.473607e+002, 2.648847e+001
9.478428e+002, 2.636800e+001
9.483249e+002, 2.620836e+001
9.488070e+002, 2.612257e+001
9.492891e+002, 2.607505e+001
9.497712e+002, 2.602029e+001
9.502534e+002, 2.598130e+001
9.507355e+002, 2.608845e+001
9.512176e+002, 2.633066e+001
9.516997e+002, 2.634576e+001
9.521818e+002, 2.562174e+001
9.526639e+002, 2.483199e+001
9.531461e+002, 2.513676e+001
9.536282e+002, 2.603170e+001
9.541103e+002, 2.626632e+001
9.545924e+002, 2.579305e+001
9.550745e+002, 2.535554e+001
9.555566e+002, 2.532132e+001
9.560388e+002, 2.542910e+001
9.565209e+002, 2.538067e+001
9.570030e+002, 2.515985e+001
9.574851e+002, 2.453982e+001
9.579672e+002, 2.352286e+001
9.584493e+002, 2.298962e+001
9.589315e+002, 2.317880e+001
9.594136e+002, 2.355300e+001
9.598957e+002, 2.374114e+001
9.603778e+002, 2.378813e+001
9.608599e+002, 2.382495e+001
9.613420e+002, 2.389163e+001
9.618242e+002, 2.371239e+001
9.623063e+002, 2.314894e+001
9.627884e+002, 2.268393e+001
9.632705e+002, 2.251289e+001
9.637526e+002, 2.244790e+001
9.642347e+002, 2.224553e+001
9.647169e+002, 2.196091e+001
9.651990e+002, 2.200288e+001
9.656811e+002, 2.281746e+001
9.661632e+002, 2.327343e+001
9.666453e+002, 2.321238e+001
9.671274e+002, 2.297226e+001
9.676096e+002, 2.249604e+001
9.680917e+002, 2.203568e+001
9.685738e+002, 2.194463e+001
9.690559e+002, 2.222633e+001
9.695380e+002, 2.247865e+001
9.700201e+002, 2.258783e+001
9.705023e+002, 2.267667e+001
9.709844e+002, 2.284398e+001
9.714665e+002, 2.295894e+001
9.719486e+002, 2.291029e+001
9.724307e+002, 2.272836e+001
9.729128e+002, 2.248375e+001
9.733950e+002, 2.219595e+001
9.738771e+002, 2.186904e+001
9.743592e+002, 2.142371e+001
9.748413e+002, 2.101853e+001
9.753234e+002, 2.075271e+001
9.758055e+002, 2.063731e+001
9.762877e+002, 2.077929e+001
9.767698e+002, 2.109278e+001
9.772519e+002, 2.123520e+001
9.777340e+002, 2.103697e+001
9.782161e+002, 2.089564e+001
9.786982e+002, 2.145729e+001
9.791804e+002, 2.225643e+001
9.796625e+002, 2.228458e+001
9.801446e+002, 2.175605e+001
9.806267e+002, 2.145538e+001
9.811088e+002, 2.153907e+001
9.815909e+002, 2.171583e+001
9.820731e+002, 2.180185e+001
9.825552e+002, 2.177229e+001
9.830373e+002, 2.150252e+001
9.835194e+002, 2.104958e+001
9.840015e+002, 2.083888e+001
9.844836e+002, 2.088244e+001
9.849658e+002, 2.104643e+001
9.854479e+002, 2.131308e+001
9.859300e+002, 2.145770e+001
9.864121e+002, 2.125034e+001
9.868942e+002, 2.079172e+001
9.873763e+002, 2.041262e+001
9.878585e+002, 2.008845e+001
9.883406e+002, 2.006176e+001
9.888227e+002, 2.047681e+001
9.893048e+002, 2.071460e+001
9.897869e+002, 2.043505e+001
9.902690e+002, 2.002576e+001
9.907512e+002, 1.995856e+001
9.912333e+002, 2.020138e+001
9.917154e+002, 2.035619e+001
9.921975e+002, 2.041028e+001
9.926796e+002, 2.040284e+001
9.931617e+002, 2.034485e+001
9.936439e+002, 2.021296e+001
9.941260e+002, 1.991376e+001
9.946081e+002, 1.958059e+001
9.950902e+002, 1.939675e+001
9.955723e+002, 1.936428e+001
9.960544e+002, 1.941033e+001
9.965366e+002, 1.967439e+001
9.970187e+002, 1.981324e+001
9.975008e+002, 1.974665e+001
9.979829e+002, 1.956532e+001
9.984650e+002, 1.916065e+001
9.989471e+002, 1.874531e+001
9.994293e+002, 1.869644e+001
9.999114e+002, 1.907568e+001
1.000393e+003, 1.951694e+001
1.000876e+003, 2.020981e+001
1.001358e+003, 2.057442e+001
1.001840e+003, 2.012480e+001
1.002322e+003, 1.944422e+001
1.002804e+003, 1.895256e+001
1.003286e+003, 1.868512e+001
1.003768e+003, 1.859465e+001
1.004250e+003, 1.867310e+001
1.004733e+003, 1.885412e+001
1.005215e+003, 1.931100e+001
1.005697e+003, 1.963330e+001
1.006179e+003, 1.930386e+001
1.006661e+003, 1.878766e+001
1.007143e+003, 1.878250e+001
1.007625e+003, 1.918155e+001
1.008107e+003, 1.935354e+001
1.008589e+003, 1.902106e+001
1.009072e+003, 1.861410e+001
1.009554e+003, 1.855357e+001
1.010036e+003, 1.856770e+001
1.010518e+003, 1.809988e+001
1.011000e+003, 1.753945e+001
1.011482e+003, 1.790825e+001
1.011964e+003, 1.910810e+001
1.012446e+003, 1.984719e+001
1.012929e+003, 1.937864e+001
1.013411e+003, 1.863313e+001
1.013893e+003, 1.889317e+001
1.014375e+003, 1.960212e+001
1.014857e+003, 1.952397e+001
1.015339e+003, 1.887155e+001
1.015821e+003, 1.845101e+001
1.016303e+003, 1.845446e+001
1.016785e+003, 1.879210e+001
1.017268e+003, 1.946026e+001
1.017750e+003, 2.006651e+001
1.018232e+003, 1.976903e+001
1.018714e+003, 1.885803e+001
1.019196e+003, 1.857874e+001
1.019678e+003, 1.890927e+001
1.020160e+003, 1.935362e+001
1.020642e+003, 1.977155e+001
1.021125e+003, 1.989288e+001
1.021607e+003, 1.944125e+001
1.022089e+003, 1.877064e+001
1.022571e+003, 1.875896e+001
1.023053e+003, 1.936398e+001
1.023535e+003, 1.978085e+001
1.024017e+003, 1.998050e+001
1.024499e+003, 1.997514e+001
1.024981e+003, 1.973925e+001
1.025464e+003, 1.951455e+001
1.025946e+003, 1.952378e+001
1.026428e+003, 1.970766e+001
1.026910e+003, 1.990244e+001
1.027392e+003, 2.011950e+001
1.027874e+003, 2.027270e+001
1.028356e+003, 2.040821e+001
1.028838e+003, 2.017179e+001
1.029321e+003, 1.928897e+001
1.029803e+003, 1.842972e+001
1.030285e+003, 1.824077e+001
1.030767e+003, 1.862596e+001
1.031249e+003, 1.923347e+001
1.031731e+003, 2.029065e+001
1.032213e+003, 2.064766e+001
1.032695e+003, 2.000033e+001
1.033177e+003, 1.934444e+001
1.033660e+003, 1.900520e+001
1.034142e+003, 1.886778e+001
1.034624e+003, 1.884847e+001
1.035106e+003, 1.892522e+001
1.035588e+003, 1.896560e+001
1.036070e+003, 1.898779e+001
1.036552e+003, 1.891458e+001
1.037034e+003, 1.858082e+001
1.037516e+003, 1.844521e+001
1.037999e+003, 1.884916e+001
1.038481e+003, 1.935093e+001
1.038963e+003, 1.947299e+001
1.039445e+003, 1.925915e+001
1.039927e+003, 1.904542e+001
1.040409e+003, 1.872205e+001
1.040891e+003, 1.859377e+001
1.041373e+003, 1.876502e+001
1.041855e+003, 1.899999e+001
1.042338e+003, 1.942595e+001
1.042820e+003, 1.971916e+001
1.043302e+003, 1.933782e+001
1.043784e+003, 1.842521e+001
1.044266e+003, 1.808514e+001
1.044748e+003, 1.874833e+001
1.045230e+003, 1.931444e+001
1.045712e+003, 1.994639e+001
1.046195e+003, 2.020833e+001
1.046677e+003, 1.960791e+001
1.047159e+003, 1.877872e+001
1.047641e+003, 1.840830e+001
1.048123e+003, 1.846251e+001
1.048605e+003, 1.849453e+001
1.049087e+003, 1.838288e+001
1.049569e+003, 1.838160e+001
1.050052e+003, 1.844399e+001
1.050534e+003, 1.872073e+001
1.051016e+003, 1.962796e+001
1.051498e+003, 2.054295e+001
1.051980e+003, 2.067524e+001
1.052462e+003, 2.012049e+001
1.052944e+003, 1.971519e+001
1.053426e+003, 1.964297e+001
1.053908e+003, 1.965188e+001
1.054391e+003, 1.973442e+001
1.054873e+003, 1.982932e+001
1.055355e+003, 2.002649e+001
1.055837e+003, 2.013578e+001
1.056319e+003, 1.984711e+001
1.056801e+003, 1.924465e+001
1.057283e+003, 1.882004e+001
1.057765e+003, 1.871692e+001
1.058248e+003, 1.873303e+001
1.058730e+003, 1.890038e+001
1.059212e+003, 1.906815e+001
1.059694e+003, 1.921909e+001
1.060176e+003, 1.927830e+001
1.060658e+003, 1.909970e+001
1.061140e+003, 1.874522e+001
1.061622e+003, 1.848502e+001
1.062104e+003, 1.836879e+001
1.062587e+003, 1.841959e+001
1.063069e+003, 1.891531e+001
1.063551e+003, 1.927475e+001
1.064033e+003, 1.889435e+001
1.064515e+003, 1.837822e+001
1.064997e+003, 1.862150e+001
1.065479e+003, 1.941028e+001
1.065961e+003, 1.964076e+001
1.066443e+003, 1.881403e+001
1.066926e+003, 1.807194e+001
1.067408e+003, 1.787397e+001
1.067890e+003, 1.790189e+001
1.068372e+003, 1.806523e+001
1.068854e+003, 1.827833e+001
1.069336e+003, 1.850834e+001
1.069818e+003, 1.870837e+001
1.070300e+003, 1.873800e+001
1.070782e+003, 1.849540e+001
1.071265e+003, 1.839000e+001
1.071747e+003, 1.888108e+001
1.072229e+003, 1.924000e+001
1.072711e+003, 1.877058e+001
1.073193e+003, 1.813214e+001
1.073675e+003, 1.826877e+001
1.074157e+003, 1.886887e+001
1.074639e+003, 1.874634e+001
1.075122e+003, 1.743840e+001
1.075604e+003, 1.645218e+001
1.076086e+003, 1.663198e+001
1.076568e+003, 1.714755e+001
1.077050e+003, 1.774682e+001
1.077532e+003, 1.825005e+001
1.078014e+003, 1.837700e+001
1.078496e+003, 1.828553e+001
1.078979e+003, 1.846437e+001
1.079461e+003, 1.906716e+001
1.079943e+003, 1.937737e+001
1.080425e+003, 1.872641e+001
1.080907e+003, 1.811125e+001
1.081389e+003, 1.826642e+001
1.081871e+003, 1.855952e+001
1.082353e+003, 1.834888e+001
1.082835e+003, 1.779267e+001
1.083318e+003, 1.723698e+001
1.083800e+003, 1.676987e+001
1.084282e+003, 1.674057e+001
1.084764e+003, 1.778892e+001
1.085246e+003, 1.868719e+001
1.085728e+003, 1.877868e+001
1.086210e+003, 1.849875e+001
1.086692e+003, 1.797873e+001
1.087175e+003, 1.747616e+001
1.087657e+003, 1.750578e+001
1.088139e+003, 1.809837e+001
1.088621e+003, 1.837033e+001
1.089103e+003, 1.764927e+001
1.089585e+003, 1.698897e+001
1.090067e+003, 1.693344e+001
1.090549e+003, 1.702168e+001
1.091031e+003, 1.685538e+001
1.091514e+003, 1.661959e+001
1.091996e+003, 1.661296e+001
1.092478e+003, 1.687251e+001
1.092960e+003, 1.729632e+001
1.093442e+003, 1.806544e+001
1.093924e+003, 1.859099e+001
1.094406e+003, 1.858331e+001
1.094888e+003, 1.834188e+001
1.095370e+003, 1.792063e+001
1.095853e+003, 1.747510e+001
1.096335e+003, 1.717781e+001
1.096817e+003, 1.703019e+001
1.097299e+003, 1.694880e+001
1.097781e+003, 1.697372e+001
1.098263e+003, 1.690329e+001
1.098745e+003, 1.641258e+001
1.099227e+003, 1.611882e+001
1.099709e+003, 1.659707e+001
1.100192e+003, 1.724627e+001
1.100674e+003, 1.741714e+001
1.101156e+003, 1.717843e+001
1.101638e+003, 1.692315e+001
1.102120e+003, 1.668478e+001
1.102602e+003, 1.658763e+001
1.103084e+003, 1.683426e+001
1.103566e+003, 1.700531e+001
1.104049e+003, 1.681299e+001
1.104531e+003, 1.658538e+001
1.105013e+003, 1.674898e+001
1.105495e+003, 1.706660e+001
1.105977e+003, 1.683136e+001
1.106459e+003, 1.579723e+001
1.106941e+003, 1.532970e+001
1.107423e+003, 1.612336e+001
1.107906e+003, 1.685725e+001
1.108388e+003, 1.732146e+001
1.108870e+003, 1.747544e+001
1.109352e+003, 1.702970e+001
1.109834e+003, 1.637190e+001
1.110316e+003, 1.617901e+001
1.110798e+003, 1.650606e+001
1.111280e+003, 1.685736e+001
1.111762e+003, 1.754794e+001
1.112245e+003, 1.772803e+001
1.112727e+003, 1.673457e+001
1.113209e+003, 1.585158e+001
1.113691e+003, 1.581319e+001
1.114173e+003, 1.616086e+001
1.114655e+003, 1.634542e+001
1.115137e+003, 1.637510e+001
1.115619e+003, 1.640263e+001
1.116102e+003, 1.648201e+001
1.116584e+003, 1.645717e+001
1.117066e+003, 1.615833e+001
1.117548e+003, 1.601121e+001
1.118030e+003, 1.632688e+001
1.118512e+003, 1.667295e+001
1.118994e+003, 1.656619e+001
1.119476e+003, 1.615778e+001
1.119958e+003, 1.610415e+001
1.120441e+003, 1.670477e+001
1.120923e+003, 1.664443e+001
1.121405e+003, 1.542778e+001
1.121887e+003, 1.465226e+001
1.122369e+003, 1.483737e+001
1.122851e+003, 1.538345e+001
1.123333e+003, 1.597722e+001
1.123815e+003, 1.649522e+001
1.124297e+003, 1.663009e+001
1.124780e+003, 1.634018e+001
1.125262e+003, 1.620111e+001
1.125744e+003, 1.623308e+001
1.126226e+003, 1.638087e+001
1.126708e+003, 1.671792e+001
1.127190e+003, 1.686785e+001
1.127672e+003, 1.655754e+001
1.128154e+003, 1.611652e+001
1.128636e+003, 1.604506e+001
1.129119e+003, 1.628665e+001
1.129601e+003, 1.636909e+001
1.130083e+003, 1.628326e+001
1.130565e+003, 1.614267e+001
1.131047e+003, 1.596056e+001
1.131529e+003, 1.563418e+001
1.132011e+003, 1.506688e+001
1.132493e+003, 1.479070e+001
1.132976e+003, 1.544983e+001
1.133458e+003, 1.659198e+001
1.133940e+003, 1.679560e+001
1.134422e+003, 1.616058e+001
1.134904e+003, 1.603499e+001
1.135386e+003, 1.644275e+001
1.135868e+003, 1.657026e+001
1.136350e+003, 1.620101e+001
1.136833e+003, 1.569611e+001
1.137315e+003, 1.527822e+001
1.137797e+003, 1.507984e+001
1.138279e+003, 1.557959e+001
1.138761e+003, 1.643172e+001
1.139243e+003, 1.624496e+001
1.139725e+003, 1.529322e+001
1.140207e+003, 1.478722e+001
1.140689e+003, 1.487712e+001
1.141172e+003, 1.501632e+001
1.141654e+003, 1.494556e+001
1.142136e+003, 1.494957e+001
1.142618e+003, 1.549388e+001
1.143100e+003, 1.612308e+001
1.143582e+003, 1.587863e+001
1.144064e+003, 1.521252e+001
1.144546e+003, 1.503705e+001
1.145029e+003, 1.534576e+001
1.145511e+003, 1.590539e+001
1.145993e+003, 1.657471e+001
1.146475e+003, 1.692980e+001
1.146957e+003, 1.657059e+001
1.147439e+003, 1.607455e+001
1.147921e+003, 1.599899e+001
1.148403e+003, 1.611794e+001
1.148885e+003, 1.623753e+001
1.149368e+003, 1.631005e+001
1.149850e+003, 1.631856e+001
1.150332e+003, 1.623525e+001
1.150814e+003, 1.592411e+001
1.151296e+003, 1.525942e+001
1.151778e+003, 1.480202e+001
1.152260e+003, 1.512882e+001
1.152742e+003, 1.550146e+001
1.153224e+003, 1.536775e+001
1.153707e+003, 1.506003e+001
1.154189e+003, 1.487427e+001
1.154671e+003, 1.484533e+001
1.155153e+003, 1.500058e+001
1.155635e+003, 1.534851e+001
1.156117e+003, 1.560026e+001
1.156599e+003, 1.574230e+001
1.157081e+003, 1.566494e+001
1.157563e+003, 1.500243e+001
1.158046e+003, 1.447262e+001
1.158528e+003, 1.463180e+001
1.159010e+003, 1.511983e+001
1.159492e+003, 1.555637e+001
1.159974e+003, 1.588081e+001
1.160456e+003, 1.586027e+001
1.160938e+003, 1.504838e+001
1.161420e+003, 1.472319e+001
1.161903e+003, 1.547320e+001
1.162385e+003, 1.594280e+001
1.162867e+003, 1.560864e+001
1.163349e+003, 1.503727e+001
1.163831e+003, 1.453903e+001
1.164313e+003, 1.420065e+001
1.164795e+003, 1.430176e+001
1.165277e+003, 1.494112e+001
1.165760e+003, 1.513783e+001
1.166242e+003, 1.464406e+001
1.166724e+003, 1.454412e+001
1.167206e+003, 1.514319e+001
1.167688e+003, 1.570581e+001
1.168170e+003, 1.586470e+001
1.168652e+003, 1.577091e+001
1.169134e+003, 1.559834e+001
1.169616e+003, 1.535847e+001
1.170099e+003, 1.506510e+001
1.170581e+003, 1.471489e+001
1.171063e+003, 1.462616e+001
1.171545e+003, 1.482004e+001
1.172027e+003, 1.494116e+001
1.172509e+003, 1.488011e+001
1.172991e+003, 1.486670e+001
1.173473e+003, 1.509258e+001
1.173956e+003, 1.537151e+001
1.174438e+003, 1.538785e+001
1.174920e+003, 1.519265e+001
1.175402e+003, 1.485011e+001
1.175884e+003, 1.445129e+001
1.176366e+003, 1.434450e+001
1.176848e+003, 1.453586e+001
1.177330e+003, 1.480705e+001
1.177813e+003, 1.505515e+001
1.178295e+003, 1.515796e+001
1.178777e+003, 1.490325e+001
1.179259e+003, 1.460291e+001
1.179741e+003, 1.470789e+001
1.180223e+003, 1.497115e+001
1.180705e+003, 1.502640e+001
1.181187e+003, 1.495195e+001
1.181669e+003, 1.501319e+001
1.182151e+003, 1.521232e+001
1.182634e+003, 1.526579e+001
1.183116e+003, 1.501904e+001
1.183598e+003, 1.470756e+001
1.184080e+003, 1.434335e+001
1.184562e+003, 1.410718e+001
1.185044e+003, 1.421255e+001
1.185526e+003, 1.443084e+001
1.186008e+003, 1.462000e+001
1.186490e+003, 1.469705e+001
1.186973e+003, 1.447270e+001
1.187455e+003, 1.389227e+001
1.187937e+003, 1.347839e+001
1.188419e+003, 1.338797e+001
1.188901e+003, 1.338871e+001
1.189383e+003, 1.343763e+001
1.189865e+003, 1.356444e+001
1.190347e+003, 1.386825e+001
1.190830e+003, 1.419193e+001
1.191312e+003, 1.435946e+001
1.191794e+003, 1.439910e+001
1.192276e+003, 1.445439e+001
1.192758e+003, 1.454406e+001
1.193240e+003, 1.459969e+001
1.193722e+003, 1.467050e+001
1.194204e+003, 1.449486e+001
1.194687e+003, 1.384604e+001
1.195169e+003, 1.352916e+001
1.195651e+003, 1.416889e+001
1.196133e+003, 1.510211e+001
1.196615e+003, 1.523611e+001
1.197097e+003, 1.472053e+001
1.197579e+003, 1.448554e+001
1.198061e+003, 1.451194e+001
1.198543e+003, 1.435504e+001
1.199026e+003, 1.400922e+001
1.199508e+003, 1.420672e+001
1.199990e+003, 1.514960e+001
1.200472e+003, 1.575578e+001
1.200954e+003, 1.509970e+001
1.201436e+003, 1.395416e+001
1.201918e+003, 1.332928e+001
1.202400e+003, 1.314880e+001
1.202883e+003, 1.350460e+001
1.203365e+003, 1.409122e+001
1.203847e+003, 1.411531e+001
1.204329e+003, 1.367215e+001
1.204811e+003, 1.356658e+001
1.205293e+003, 1.407984e+001
1.205775e+003, 1.454325e+001
1.206257e+003, 1.445683e+001
1.206740e+003, 1.421745e+001
1.207222e+003, 1.400094e+001
1.207704e+003, 1.386974e+001
1.208186e+003, 1.392084e+001
1.208668e+003, 1.407141e+001
1.209150e+003, 1.426618e+001
1.209632e+003, 1.444630e+001
1.210114e+003, 1.439769e+001
1.210596e+003, 1.395877e+001
1.211078e+003, 1.367120e+001
1.211561e+003, 1.375629e+001
1.212043e+003, 1.384587e+001
1.212525e+003, 1.366183e+001
1.213007e+003, 1.363950e+001
1.213489e+003, 1.436843e+001
1.213971e+003, 1.519189e+001
1.214453e+003, 1.494746e+001
1.214935e+003, 1.372396e+001
1.215417e+003, 1.319882e+001
1.215900e+003, 1.358740e+001
1.216382e+003, 1.388147e+001
1.216864e+003, 1.404638e+001
1.217346e+003, 1.397677e+001
1.217828e+003, 1.356520e+001
1.218310e+003, 1.334893e+001
1.218792e+003, 1.379624e+001
1.219274e+003, 1.445373e+001
1.219757e+003, 1.441063e+001
1.220239e+003, 1.385538e+001
1.220721e+003, 1.371379e+001
1.221203e+003, 1.390404e+001
1.221685e+003, 1.406123e+001
1.222167e+003, 1.412506e+001
1.222649e+003, 1.406857e+001
1.223131e+003, 1.389044e+001
1.223614e+003, 1.364990e+001
1.224096e+003, 1.332535e+001
1.224578e+003, 1.316275e+001
1.225060e+003, 1.370843e+001
1.225542e+003, 1.432239e+001
1.226024e+003, 1.408923e+001
1.226506e+003, 1.347792e+001
1.226988e+003, 1.327362e+001
1.227470e+003, 1.342733e+001
1.227953e+003, 1.341567e+001
1.228435e+003, 1.308261e+001
1.228917e+003, 1.296543e+001
1.229399e+003, 1.358618e+001
1.229881e+003, 1.399994e+001
1.230363e+003, 1.370443e+001
1.230845e+003, 1.333643e+001
1.231327e+003, 1.329860e+001
1.231810e+003, 1.337113e+001
1.232292e+003, 1.323088e+001
1.232774e+003, 1.296111e+001
1.233256e+003, 1.290751e+001
1.233738e+003, 1.309974e+001
1.234220e+003, 1.339581e+001
1.234702e+003, 1.384079e+001
1.235184e+003, 1.426951e+001
1.235667e+003, 1.471340e+001
1.236149e+003, 1.486182e+001
1.236631e+003, 1.450887e+001
1.237113e+003, 1.397994e+001
1.237595e+003, 1.362140e+001
1.238077e+003, 1.346486e+001
1.238559e+003, 1.374804e+001
1.239041e+003, 1.432284e+001
1.239523e+003, 1.441820e+001
1.240005e+003, 1.406327e+001
1.240488e+003, 1.343606e+001
1.240970e+003, 1.268681e+001
1.241452e+003, 1.241705e+001
1.241934e+003, 1.292782e+001
1.242416e+003, 1.343115e+001
1.242898e+003, 1.297000e+001
1.243380e+003, 1.241704e+001
1.243862e+003, 1.279245e+001
1.244344e+003, 1.343086e+001
1.244827e+003, 1.362135e+001
1.245309e+003, 1.349361e+001
1.245791e+003, 1.327063e+001
1.246273e+003, 1.305233e+001
1.246755e+003, 1.308263e+001
1.247237e+003, 1.354260e+001
1.247719e+003, 1.383660e+001
1.248201e+003, 1.375433e+001
1.248684e+003, 1.359755e+001
1.249166e+003, 1.327772e+001
1.249648e+003, 1.312058e+001
1.250130e+003, 1.345265e+001
1.250612e+003, 1.390290e+001
1.251094e+003, 1.395236e+001
1.251576e+003, 1.367240e+001
1.252058e+003, 1.353517e+001
1.252541e+003, 1.357136e+001
1.253023e+003, 1.346332e+001
1.253505e+003, 1.316188e+001
1.253987e+003, 1.334282e+001
1.254469e+003, 1.417920e+001
1.254951e+003, 1.469693e+001
1.255433e+003, 1.432006e+001
1.255915e+003, 1.363754e+001
1.256397e+003, 1.327459e+001
1.256880e+003, 1.321636e+001
1.257362e+003, 1.364711e+001
1.257844e+003, 1.424376e+001
1.258326e+003, 1.427865e+001
1.258808e+003, 1.394878e+001
1.259290e+003, 1.391748e+001
1.259772e+003, 1.418437e+001
1.260254e+003, 1.406625e+001
1.260737e+003, 1.321068e+001
1.261219e+003, 1.257838e+001
1.261701e+003, 1.279039e+001
1.262183e+003, 1.319591e+001
1.262665e+003, 1.370234e+001
1.263147e+003, 1.405310e+001
1.263629e+003, 1.395492e+001
1.264111e+003, 1.366205e+001
1.264594e+003, 1.354648e+001
1.265076e+003, 1.357643e+001
1.265558e+003, 1.346315e+001
1.266040e+003, 1.302116e+001
1.266522e+003, 1.321191e+001
1.267004e+003, 1.440769e+001
1.267486e+003, 1.480277e+001
1.267968e+003, 1.383307e+001
1.268450e+003, 1.318646e+001
1.268932e+003, 1.379455e+001
1.269415e+003, 1.459296e+001
1.269897e+003, 1.433201e+001
1.270379e+003, 1.351202e+001
1.270861e+003, 1.340982e+001
1.271343e+003, 1.373232e+001
1.271825e+003, 1.350896e+001
1.272307e+003, 1.292545e+001
1.272789e+003, 1.266069e+001
1.273271e+003, 1.276644e+001
1.273754e+003, 1.291070e+001
1.274236e+003, 1.296635e+001
1.274718e+003, 1.300686e+001
1.275200e+003, 1.303566e+001
1.275682e+003, 1.312994e+001
1.276164e+003, 1.348048e+001
1.276646e+003, 1.375168e+001
1.277128e+003, 1.352574e+001
1.277611e+003, 1.322351e+001
1.278093e+003, 1.344160e+001
1.278575e+003, 1.399694e+001
1.279057e+003, 1.418908e+001
1.279539e+003, 1.395053e+001
1.280021e+003, 1.374835e+001
1.280503e+003, 1.356890e+001
1.280985e+003, 1.346433e+001
1.281468e+003, 1.346339e+001
1.281950e+003, 1.344314e+001
1.282432e+003, 1.333072e+001
1.282914e+003, 1.337330e+001
1.283396e+003, 1.382114e+001
1.283878e+003, 1.436248e+001
1.284360e+003, 1.436052e+001
1.284842e+003, 1.400611e+001
1.285324e+003, 1.384013e+001
##END=



