##NAMES=Diamond
##RRUFFID=R150087
##IDEAL CHEMISTRY=C
##LOCALITY=unknown
##OWNER=RRUFF
##SOURCE=Michael Scott
##DESCRIPTION=A dark-brown single crystal cube
##STATUS=The identification of this mineral has been determined only by Raman spectroscopy
##URL=rruff.info/R150087
7.687793e+001, 3.420415e+003
7.880640e+001, 3.069124e+003
8.073486e+001, 2.937645e+003
8.266333e+001, 3.069718e+003
8.459180e+001, 3.388766e+003
8.652026e+001, 3.792799e+003
8.844873e+001, 4.274875e+003
9.037720e+001, 4.847882e+003
9.230566e+001, 5.557676e+003
9.423413e+001, 5.976367e+003
9.616260e+001, 6.186646e+003
9.809106e+001, 6.401768e+003
1.000195e+002, 6.580843e+003
1.019480e+002, 6.739226e+003
1.038765e+002, 6.865681e+003
1.058049e+002, 6.958191e+003
1.077334e+002, 7.029663e+003
1.096619e+002, 7.077222e+003
1.115903e+002, 7.105146e+003
1.135188e+002, 7.112943e+003
1.154473e+002, 7.098246e+003
1.173757e+002, 7.091146e+003
1.193042e+002, 7.100084e+003
1.212327e+002, 7.102771e+003
1.231611e+002, 7.084505e+003
1.250896e+002, 7.058050e+003
1.270181e+002, 7.038225e+003
1.289465e+002, 7.023518e+003
1.308750e+002, 7.007381e+003
1.328035e+002, 6.979622e+003
1.347319e+002, 6.959706e+003
1.366604e+002, 6.957291e+003
1.385889e+002, 6.959768e+003
1.405173e+002, 6.954228e+003
1.424458e+002, 6.940842e+003
1.443743e+002, 6.929345e+003
1.463027e+002, 6.921484e+003
1.482312e+002, 6.913619e+003
1.501597e+002, 6.902830e+003
1.520881e+002, 6.893775e+003
1.540166e+002, 6.891481e+003
1.559451e+002, 6.894931e+003
1.578735e+002, 6.894847e+003
1.598020e+002, 6.885591e+003
1.617305e+002, 6.881343e+003
1.636589e+002, 6.886911e+003
1.655874e+002, 6.894588e+003
1.675159e+002, 6.898564e+003
1.694443e+002, 6.900713e+003
1.713728e+002, 6.907863e+003
1.733013e+002, 6.922811e+003
1.752297e+002, 6.937649e+003
1.771582e+002, 6.951942e+003
1.790867e+002, 6.965968e+003
1.810151e+002, 6.979001e+003
1.829436e+002, 6.992037e+003
1.848721e+002, 7.006756e+003
1.868005e+002, 7.023181e+003
1.887290e+002, 7.042254e+003
1.906575e+002, 7.064797e+003
1.925859e+002, 7.088718e+003
1.945144e+002, 7.117109e+003
1.964429e+002, 7.143742e+003
1.983713e+002, 7.159423e+003
2.002998e+002, 7.163628e+003
2.022283e+002, 7.179189e+003
2.041567e+002, 7.210364e+003
2.060852e+002, 7.238046e+003
2.080137e+002, 7.253115e+003
2.099421e+002, 7.267328e+003
2.118706e+002, 7.292322e+003
2.137991e+002, 7.322983e+003
2.157275e+002, 7.337232e+003
2.176560e+002, 7.332558e+003
2.195845e+002, 7.333264e+003
2.215129e+002, 7.345314e+003
2.234414e+002, 7.359135e+003
2.253699e+002, 7.372665e+003
2.272983e+002, 7.383948e+003
2.292268e+002, 7.389544e+003
2.311553e+002, 7.389145e+003
2.330837e+002, 7.387839e+003
2.350122e+002, 7.384700e+003
2.369407e+002, 7.383089e+003
2.388691e+002, 7.387958e+003
2.407976e+002, 7.390840e+003
2.427261e+002, 7.384264e+003
2.446545e+002, 7.371603e+003
2.465830e+002, 7.364834e+003
2.485115e+002, 7.364573e+003
2.504399e+002, 7.359737e+003
2.523684e+002, 7.344287e+003
2.542969e+002, 7.330566e+003
2.562253e+002, 7.323979e+003
2.581538e+002, 7.320607e+003
2.600823e+002, 7.316585e+003
2.620107e+002, 7.311770e+003
2.639392e+002, 7.305278e+003
2.658677e+002, 7.296068e+003
2.677961e+002, 7.288416e+003
2.697246e+002, 7.284519e+003
2.716531e+002, 7.280842e+003
2.735815e+002, 7.276306e+003
2.755100e+002, 7.270771e+003
2.774385e+002, 7.263172e+003
2.793669e+002, 7.254034e+003
2.812954e+002, 7.248092e+003
2.832239e+002, 7.247337e+003
2.851523e+002, 7.247815e+003
2.870808e+002, 7.249997e+003
2.890093e+002, 7.251717e+003
2.909377e+002, 7.251398e+003
2.928662e+002, 7.249190e+003
2.947947e+002, 7.244726e+003
2.967231e+002, 7.237374e+003
2.986516e+002, 7.233497e+003
3.005801e+002, 7.234011e+003
3.025085e+002, 7.238106e+003
3.044370e+002, 7.251663e+003
3.063655e+002, 7.263676e+003
3.082939e+002, 7.261171e+003
3.102224e+002, 7.250779e+003
3.121509e+002, 7.247418e+003
3.140793e+002, 7.253898e+003
3.160078e+002, 7.257265e+003
3.179363e+002, 7.255903e+003
3.198647e+002, 7.252287e+003
3.217932e+002, 7.247517e+003
3.237217e+002, 7.240404e+003
3.256501e+002, 7.230424e+003
3.275786e+002, 7.217813e+003
3.295071e+002, 7.201826e+003
3.314355e+002, 7.178995e+003
3.333640e+002, 7.163392e+003
3.352925e+002, 7.162795e+003
3.372209e+002, 7.158226e+003
3.391494e+002, 7.141811e+003
3.410779e+002, 7.121404e+003
3.430063e+002, 7.101455e+003
3.449348e+002, 7.082271e+003
3.468633e+002, 7.065590e+003
3.487917e+002, 7.051717e+003
3.507202e+002, 7.039767e+003
3.526487e+002, 7.033464e+003
3.545771e+002, 7.022427e+003
3.565056e+002, 6.998842e+003
3.584341e+002, 6.975556e+003
3.603625e+002, 6.961412e+003
3.622910e+002, 6.954118e+003
3.642195e+002, 6.949000e+003
3.661479e+002, 6.947140e+003
3.680764e+002, 6.939603e+003
3.700049e+002, 6.922518e+003
3.719333e+002, 6.909865e+003
3.738618e+002, 6.908041e+003
3.757903e+002, 6.907596e+003
3.777188e+002, 6.903961e+003
3.796472e+002, 6.897471e+003
3.815757e+002, 6.887837e+003
3.835042e+002, 6.874997e+003
3.854326e+002, 6.864120e+003
3.873611e+002, 6.855137e+003
3.892896e+002, 6.848878e+003
3.912180e+002, 6.847542e+003
3.931465e+002, 6.846201e+003
3.950750e+002, 6.843872e+003
3.970034e+002, 6.840099e+003
3.989319e+002, 6.832523e+003
4.008604e+002, 6.822847e+003
4.027888e+002, 6.818885e+003
4.047173e+002, 6.820346e+003
4.066458e+002, 6.823052e+003
4.085742e+002, 6.827891e+003
4.105027e+002, 6.828989e+003
4.124312e+002, 6.818530e+003
4.143596e+002, 6.809935e+003
4.162881e+002, 6.813023e+003
4.182166e+002, 6.822261e+003
4.201450e+002, 6.830725e+003
4.220735e+002, 6.837537e+003
4.240020e+002, 6.833106e+003
4.259304e+002, 6.813904e+003
4.278589e+002, 6.802826e+003
4.297874e+002, 6.808984e+003
4.317158e+002, 6.818842e+003
4.336443e+002, 6.833135e+003
4.355728e+002, 6.844846e+003
4.375012e+002, 6.846171e+003
4.394297e+002, 6.840733e+003
4.413582e+002, 6.835750e+003
4.432866e+002, 6.831457e+003
4.452151e+002, 6.831609e+003
4.471436e+002, 6.838880e+003
4.490720e+002, 6.844315e+003
4.510005e+002, 6.843779e+003
4.529290e+002, 6.844537e+003
4.548574e+002, 6.850649e+003
4.567859e+002, 6.858272e+003
4.587144e+002, 6.861775e+003
4.606428e+002, 6.864607e+003
4.625713e+002, 6.876635e+003
4.644998e+002, 6.898454e+003
4.664282e+002, 6.909532e+003
4.683567e+002, 6.899227e+003
4.702852e+002, 6.895107e+003
4.722136e+002, 6.904396e+003
4.741421e+002, 6.914525e+003
4.760706e+002, 6.919989e+003
4.779990e+002, 6.924031e+003
4.799275e+002, 6.928152e+003
4.818560e+002, 6.933198e+003
4.837844e+002, 6.942442e+003
4.857129e+002, 6.956323e+003
4.876414e+002, 6.965295e+003
4.895698e+002, 6.966795e+003
4.914983e+002, 6.966397e+003
4.934268e+002, 6.963102e+003
4.953552e+002, 6.959977e+003
4.972837e+002, 6.955973e+003
4.992122e+002, 6.955641e+003
5.011406e+002, 6.964305e+003
5.030691e+002, 6.978179e+003
5.049976e+002, 6.992058e+003
5.069260e+002, 7.005846e+003
5.088545e+002, 7.012029e+003
5.107830e+002, 7.004652e+003
5.127114e+002, 7.003161e+003
5.146399e+002, 7.009769e+003
5.165684e+002, 7.016982e+003
5.184968e+002, 7.021909e+003
5.204253e+002, 7.027670e+003
5.223538e+002, 7.038224e+003
5.242822e+002, 7.049374e+003
5.262107e+002, 7.057525e+003
5.281392e+002, 7.062655e+003
5.300676e+002, 7.062923e+003
5.319961e+002, 7.057533e+003
5.339246e+002, 7.055666e+003
5.358530e+002, 7.058533e+003
5.377815e+002, 7.060314e+003
5.397100e+002, 7.058623e+003
5.416384e+002, 7.058110e+003
5.435669e+002, 7.062779e+003
5.454954e+002, 7.066881e+003
5.474238e+002, 7.064571e+003
5.493523e+002, 7.060771e+003
5.512808e+002, 7.064571e+003
5.532092e+002, 7.073901e+003
5.551377e+002, 7.075077e+003
5.570662e+002, 7.067978e+003
5.589946e+002, 7.071514e+003
5.609231e+002, 7.090624e+003
5.628516e+002, 7.104139e+003
5.647800e+002, 7.102648e+003
5.667085e+002, 7.102103e+003
5.686370e+002, 7.111245e+003
5.705654e+002, 7.119688e+003
5.724939e+002, 7.118785e+003
5.744224e+002, 7.114022e+003
5.763508e+002, 7.112220e+003
5.782793e+002, 7.113443e+003
5.802078e+002, 7.119319e+003
5.821362e+002, 7.129268e+003
5.840647e+002, 7.133540e+003
5.859932e+002, 7.130384e+003
5.879216e+002, 7.126169e+003
5.898501e+002, 7.120374e+003
5.917786e+002, 7.117217e+003
5.937070e+002, 7.120274e+003
5.956355e+002, 7.123432e+003
5.975640e+002, 7.122770e+003
5.994924e+002, 7.121437e+003
6.014209e+002, 7.124188e+003
6.033494e+002, 7.128148e+003
6.052778e+002, 7.125198e+003
6.072063e+002, 7.117767e+003
6.091348e+002, 7.119447e+003
6.110632e+002, 7.131951e+003
6.129917e+002, 7.143066e+003
6.149202e+002, 7.151057e+003
6.168486e+002, 7.157737e+003
6.187771e+002, 7.162621e+003
6.207056e+002, 7.167190e+003
6.226340e+002, 7.170951e+003
6.245625e+002, 7.175614e+003
6.264910e+002, 7.182652e+003
6.284194e+002, 7.190854e+003
6.303479e+002, 7.199702e+003
6.322764e+002, 7.208298e+003
6.342048e+002, 7.215515e+003
6.361333e+002, 7.221124e+003
6.380618e+002, 7.221670e+003
6.399902e+002, 7.214713e+003
6.419187e+002, 7.212146e+003
6.438472e+002, 7.217940e+003
6.457756e+002, 7.222138e+003
6.477041e+002, 7.223396e+003
6.496326e+002, 7.224114e+003
6.515610e+002, 7.223916e+003
6.534895e+002, 7.224398e+003
6.554180e+002, 7.225604e+003
6.573464e+002, 7.228742e+003
6.592749e+002, 7.237112e+003
6.612034e+002, 7.246822e+003
6.631318e+002, 7.249610e+003
6.650603e+002, 7.247673e+003
6.669888e+002, 7.253701e+003
6.689172e+002, 7.269432e+003
6.708457e+002, 7.274516e+003
6.727742e+002, 7.263245e+003
6.747026e+002, 7.263501e+003
6.766311e+002, 7.281305e+003
6.785596e+002, 7.296228e+003
6.804880e+002, 7.302328e+003
6.824165e+002, 7.307236e+003
6.843450e+002, 7.315930e+003
6.862734e+002, 7.322229e+003
6.882019e+002, 7.319697e+003
6.901304e+002, 7.317000e+003
6.920588e+002, 7.323552e+003
6.939873e+002, 7.334375e+003
6.959158e+002, 7.339870e+003
6.978442e+002, 7.342056e+003
6.997727e+002, 7.350179e+003
7.017012e+002, 7.363861e+003
7.036296e+002, 7.372111e+003
7.055581e+002, 7.374200e+003
7.074866e+002, 7.384033e+003
7.094150e+002, 7.405619e+003
7.113435e+002, 7.420244e+003
7.132720e+002, 7.421813e+003
7.152004e+002, 7.422079e+003
7.171289e+002, 7.424666e+003
7.190574e+002, 7.427217e+003
7.209858e+002, 7.428305e+003
7.229143e+002, 7.430102e+003
7.248428e+002, 7.432899e+003
7.267712e+002, 7.438562e+003
7.286997e+002, 7.451618e+003
7.306282e+002, 7.467427e+003
7.325566e+002, 7.478195e+003
7.344851e+002, 7.484692e+003
7.364136e+002, 7.486901e+003
7.383420e+002, 7.486462e+003
7.402705e+002, 7.495813e+003
7.421990e+002, 7.514973e+003
7.441274e+002, 7.526022e+003
7.460559e+002, 7.525685e+003
7.479844e+002, 7.523833e+003
7.499128e+002, 7.519834e+003
7.518413e+002, 7.519747e+003
7.537698e+002, 7.527840e+003
7.556982e+002, 7.535872e+003
7.576267e+002, 7.541786e+003
7.595552e+002, 7.548446e+003
7.614836e+002, 7.558263e+003
7.634121e+002, 7.568274e+003
7.653406e+002, 7.578754e+003
7.672690e+002, 7.585937e+003
7.691975e+002, 7.579150e+003
7.711260e+002, 7.571371e+003
7.730544e+002, 7.583943e+003
7.749829e+002, 7.606502e+003
7.769114e+002, 7.615805e+003
7.788398e+002, 7.613800e+003
7.807683e+002, 7.613493e+003
7.826968e+002, 7.614872e+003
7.846252e+002, 7.618741e+003
7.865537e+002, 7.626620e+003
7.884822e+002, 7.631927e+003
7.904106e+002, 7.635236e+003
7.923391e+002, 7.635964e+003
7.942676e+002, 7.630431e+003
7.961960e+002, 7.631839e+003
7.981245e+002, 7.647415e+003
8.000530e+002, 7.660204e+003
8.019814e+002, 7.664810e+003
8.039099e+002, 7.667568e+003
8.058384e+002, 7.668343e+003
8.077668e+002, 7.672050e+003
8.096953e+002, 7.684165e+003
8.116238e+002, 7.696490e+003
8.135522e+002, 7.701122e+003
8.154807e+002, 7.704668e+003
8.174092e+002, 7.714612e+003
8.193376e+002, 7.726272e+003
8.212661e+002, 7.732392e+003
8.231946e+002, 7.735407e+003
8.251230e+002, 7.741994e+003
8.270515e+002, 7.750584e+003
8.289800e+002, 7.752974e+003
8.309084e+002, 7.750651e+003
8.328369e+002, 7.757599e+003
8.347654e+002, 7.774606e+003
8.366938e+002, 7.782216e+003
8.386223e+002, 7.779945e+003
8.405508e+002, 7.778187e+003
8.424792e+002, 7.776493e+003
8.444077e+002, 7.786071e+003
8.463362e+002, 7.811372e+003
8.482646e+002, 7.826653e+003
8.501931e+002, 7.823996e+003
8.521216e+002, 7.821789e+003
8.540500e+002, 7.826702e+003
8.559785e+002, 7.827750e+003
8.579070e+002, 7.820069e+003
8.598354e+002, 7.811579e+003
8.617639e+002, 7.803906e+003
8.636924e+002, 7.797979e+003
8.656208e+002, 7.793102e+003
8.675493e+002, 7.791347e+003
8.694778e+002, 7.795998e+003
8.714063e+002, 7.800886e+003
8.733347e+002, 7.801774e+003
8.752632e+002, 7.799842e+003
8.771917e+002, 7.794345e+003
8.791201e+002, 7.788517e+003
8.810486e+002, 7.786281e+003
8.829771e+002, 7.786483e+003
8.849055e+002, 7.789250e+003
8.868340e+002, 7.792195e+003
8.887625e+002, 7.789563e+003
8.906909e+002, 7.784098e+003
8.926194e+002, 7.782437e+003
8.945479e+002, 7.782627e+003
8.964763e+002, 7.778049e+003
8.984048e+002, 7.770198e+003
9.003333e+002, 7.767008e+003
9.022617e+002, 7.768065e+003
9.041902e+002, 7.764921e+003
9.061187e+002, 7.757515e+003
9.080471e+002, 7.753198e+003
9.099756e+002, 7.752305e+003
9.119041e+002, 7.753298e+003
9.138325e+002, 7.756588e+003
9.157610e+002, 7.757507e+003
9.176895e+002, 7.756040e+003
9.196179e+002, 7.750078e+003
9.215464e+002, 7.733986e+003
9.234749e+002, 7.724640e+003
9.254033e+002, 7.725505e+003
9.273318e+002, 7.727622e+003
9.292603e+002, 7.734176e+003
9.311887e+002, 7.734881e+003
9.331172e+002, 7.726041e+003
9.350457e+002, 7.716479e+003
9.369741e+002, 7.705192e+003
9.389026e+002, 7.698643e+003
9.408311e+002, 7.698574e+003
9.427595e+002, 7.703315e+003
9.446880e+002, 7.717946e+003
9.466165e+002, 7.724836e+003
9.485449e+002, 7.712137e+003
9.504734e+002, 7.702647e+003
9.524019e+002, 7.709503e+003
9.543303e+002, 7.714717e+003
9.562588e+002, 7.707415e+003
9.581873e+002, 7.700608e+003
9.601157e+002, 7.701001e+003
9.620442e+002, 7.703231e+003
9.639727e+002, 7.705795e+003
9.659011e+002, 7.707369e+003
9.678296e+002, 7.705925e+003
9.697581e+002, 7.704864e+003
9.716865e+002, 7.708485e+003
9.736150e+002, 7.710040e+003
9.755435e+002, 7.700733e+003
9.774719e+002, 7.692477e+003
9.794004e+002, 7.696800e+003
9.813289e+002, 7.703607e+003
9.832573e+002, 7.704802e+003
9.851858e+002, 7.704661e+003
9.871143e+002, 7.707309e+003
9.890427e+002, 7.710484e+003
9.909712e+002, 7.712499e+003
9.928997e+002, 7.712899e+003
9.948281e+002, 7.707417e+003
9.967566e+002, 7.703335e+003
9.986851e+002, 7.710048e+003
1.000614e+003, 7.721248e+003
1.002542e+003, 7.735412e+003
1.004470e+003, 7.744104e+003
1.006399e+003, 7.730581e+003
1.008327e+003, 7.711611e+003
1.010256e+003, 7.708201e+003
1.012184e+003, 7.712524e+003
1.014113e+003, 7.718387e+003
1.016041e+003, 7.722349e+003
1.017970e+003, 7.717030e+003
1.019898e+003, 7.710003e+003
1.021827e+003, 7.712392e+003
1.023755e+003, 7.718986e+003
1.025684e+003, 7.724812e+003
1.027612e+003, 7.728337e+003
1.029541e+003, 7.724260e+003
1.031469e+003, 7.718730e+003
1.033397e+003, 7.719369e+003
1.035326e+003, 7.723568e+003
1.037254e+003, 7.729764e+003
1.039183e+003, 7.735665e+003
1.041111e+003, 7.739303e+003
1.043040e+003, 7.740594e+003
1.044968e+003, 7.739564e+003
1.046897e+003, 7.736689e+003
1.048825e+003, 7.729875e+003
1.050754e+003, 7.724330e+003
1.052682e+003, 7.727718e+003
1.054611e+003, 7.734827e+003
1.056539e+003, 7.740650e+003
1.058468e+003, 7.744938e+003
1.060396e+003, 7.746014e+003
1.062324e+003, 7.746568e+003
1.064253e+003, 7.748080e+003
1.066181e+003, 7.752422e+003
1.068110e+003, 7.764556e+003
1.070038e+003, 7.777539e+003
1.071967e+003, 7.785717e+003
1.073895e+003, 7.789469e+003
1.075824e+003, 7.783945e+003
1.077752e+003, 7.780081e+003
1.079681e+003, 7.791935e+003
1.081609e+003, 7.805241e+003
1.083538e+003, 7.805677e+003
1.085466e+003, 7.804498e+003
1.087395e+003, 7.811479e+003
1.089323e+003, 7.819300e+003
1.091251e+003, 7.821064e+003
1.093180e+003, 7.823575e+003
1.095108e+003, 7.835314e+003
1.097037e+003, 7.844196e+003
1.098965e+003, 7.838428e+003
1.100894e+003, 7.834046e+003
1.102822e+003, 7.842900e+003
1.104751e+003, 7.851796e+003
1.106679e+003, 7.853893e+003
1.108608e+003, 7.855073e+003
1.110536e+003, 7.851369e+003
1.112465e+003, 7.856998e+003
1.114393e+003, 7.887323e+003
1.116322e+003, 7.910728e+003
1.118250e+003, 7.913317e+003
1.120178e+003, 7.913567e+003
1.122107e+003, 7.915854e+003
1.124035e+003, 7.917958e+003
1.125964e+003, 7.917997e+003
1.127892e+003, 7.921893e+003
1.129821e+003, 7.934533e+003
1.131749e+003, 7.942600e+003
1.133678e+003, 7.940952e+003
1.135606e+003, 7.941841e+003
1.137535e+003, 7.944971e+003
1.139463e+003, 7.957845e+003
1.141392e+003, 7.984342e+003
1.143320e+003, 8.007759e+003
1.145249e+003, 8.026679e+003
1.147177e+003, 8.042225e+003
1.149105e+003, 8.054469e+003
1.151034e+003, 8.066873e+003
1.152962e+003, 8.079803e+003
1.154891e+003, 8.091632e+003
1.156819e+003, 8.102088e+003
1.158748e+003, 8.115550e+003
1.160676e+003, 8.131578e+003
1.162605e+003, 8.146150e+003
1.164533e+003, 8.158990e+003
1.166462e+003, 8.169932e+003
1.168390e+003, 8.179454e+003
1.170319e+003, 8.188647e+003
1.172247e+003, 8.198616e+003
1.174176e+003, 8.213217e+003
1.176104e+003, 8.229948e+003
1.178032e+003, 8.243486e+003
1.179961e+003, 8.254911e+003
1.181889e+003, 8.266298e+003
1.183818e+003, 8.276079e+003
1.185746e+003, 8.279861e+003
1.187675e+003, 8.283890e+003
1.189603e+003, 8.291589e+003
1.191532e+003, 8.305979e+003
1.193460e+003, 8.336551e+003
1.195389e+003, 8.363106e+003
1.197317e+003, 8.370040e+003
1.199246e+003, 8.375189e+003
1.201174e+003, 8.387087e+003
1.203103e+003, 8.399455e+003
1.205031e+003, 8.410874e+003
1.206959e+003, 8.419937e+003
1.208888e+003, 8.426681e+003
1.210816e+003, 8.430377e+003
1.212745e+003, 8.429548e+003
1.214673e+003, 8.434166e+003
1.216602e+003, 8.447101e+003
1.218530e+003, 8.456915e+003
1.220459e+003, 8.461723e+003
1.222387e+003, 8.465979e+003
1.224316e+003, 8.469787e+003
1.226244e+003, 8.474675e+003
1.228173e+003, 8.480342e+003
1.230101e+003, 8.484576e+003
1.232030e+003, 8.487053e+003
1.233958e+003, 8.487648e+003
1.235886e+003, 8.485433e+003
1.237815e+003, 8.474847e+003
1.239743e+003, 8.461794e+003
1.241672e+003, 8.461716e+003
1.243600e+003, 8.463049e+003
1.245529e+003, 8.443882e+003
1.247457e+003, 8.424964e+003
1.249386e+003, 8.430045e+003
1.251314e+003, 8.441246e+003
1.253243e+003, 8.449520e+003
1.255171e+003, 8.452957e+003
1.257100e+003, 8.442390e+003
1.259028e+003, 8.439790e+003
1.260957e+003, 8.458823e+003
1.262885e+003, 8.474991e+003
1.264813e+003, 8.481584e+003
1.266742e+003, 8.487398e+003
1.268670e+003, 8.492538e+003
1.270599e+003, 8.499717e+003
1.272527e+003, 8.509827e+003
1.274456e+003, 8.517613e+003
1.276384e+003, 8.523309e+003
1.278313e+003, 8.542186e+003
1.280241e+003, 8.573249e+003
1.282170e+003, 8.605684e+003
1.284098e+003, 8.641480e+003
1.286027e+003, 8.686551e+003
1.287955e+003, 8.739699e+003
1.289884e+003, 8.799286e+003
1.291812e+003, 8.865002e+003
1.293740e+003, 8.921065e+003
1.295669e+003, 9.004106e+003
1.297597e+003, 9.121128e+003
1.299526e+003, 9.305919e+003
1.301454e+003, 9.505088e+003
1.303383e+003, 9.930377e+003
1.305311e+003, 1.064287e+004
1.307240e+003, 1.166967e+004
1.309168e+003, 1.314417e+004
1.311097e+003, 1.444537e+004
1.313025e+003, 1.547239e+004
1.314954e+003, 1.638023e+004
1.316882e+003, 1.714234e+004
1.318811e+003, 1.829377e+004
1.320739e+003, 1.994107e+004
1.322667e+003, 2.269594e+004
1.324596e+003, 2.674694e+004
1.326524e+003, 3.327880e+004
1.328453e+003, 4.087295e+004
1.330381e+003, 4.850528e+004
1.332310e+003, 5.432668e+004
1.334238e+003, 5.687953e+004
1.336167e+003, 5.631832e+004
1.338095e+003, 5.171393e+004
1.340024e+003, 4.561461e+004
1.341952e+003, 3.792507e+004
1.343881e+003, 3.145873e+004
1.345809e+003, 2.692141e+004
1.347738e+003, 2.334425e+004
1.349666e+003, 2.061307e+004
1.351594e+003, 1.816780e+004
1.353523e+003, 1.598970e+004
1.355451e+003, 1.447080e+004
1.357380e+003, 1.347832e+004
1.359308e+003, 1.244761e+004
1.361237e+003, 1.147993e+004
1.363165e+003, 1.077035e+004
1.365094e+003, 1.025750e+004
1.367022e+003, 9.916236e+003
1.368951e+003, 9.668652e+003
1.370879e+003, 9.491096e+003
1.372808e+003, 9.334467e+003
1.374736e+003, 9.177098e+003
1.376665e+003, 9.038795e+003
1.378593e+003, 8.920407e+003
1.380521e+003, 8.830272e+003
1.382450e+003, 8.770853e+003
1.384378e+003, 8.731279e+003
1.386307e+003, 8.709610e+003
1.388235e+003, 8.684530e+003
1.390164e+003, 8.659063e+003
1.392092e+003, 8.645361e+003
1.394021e+003, 8.637202e+003
1.395949e+003, 8.626270e+003
1.397878e+003, 8.613947e+003
1.399806e+003, 8.597622e+003
1.401735e+003, 8.586397e+003
1.403663e+003, 8.590650e+003
1.405592e+003, 8.589321e+003
1.407520e+003, 8.571642e+003
1.409448e+003, 8.563299e+003
1.411377e+003, 8.571993e+003
1.413305e+003, 8.574194e+003
1.415234e+003, 8.570002e+003
1.417162e+003, 8.562722e+003
1.419091e+003, 8.553438e+003
1.421019e+003, 8.542946e+003
1.422948e+003, 8.536782e+003
1.424876e+003, 8.548696e+003
1.426805e+003, 8.562053e+003
1.428733e+003, 8.565958e+003
1.430662e+003, 8.565582e+003
1.432590e+003, 8.561185e+003
1.434519e+003, 8.559031e+003
1.436447e+003, 8.560374e+003
1.438375e+003, 8.564375e+003
1.440304e+003, 8.570810e+003
1.442232e+003, 8.574505e+003
1.444161e+003, 8.576910e+003
1.446089e+003, 8.586506e+003
1.448018e+003, 8.600768e+003
1.449946e+003, 8.618345e+003
1.451875e+003, 8.632880e+003
1.453803e+003, 8.631873e+003
1.455732e+003, 8.634694e+003
1.457660e+003, 8.652030e+003
1.459589e+003, 8.671713e+003
1.461517e+003, 8.692886e+003
1.463446e+003, 8.705670e+003
1.465374e+003, 8.709412e+003
1.467302e+003, 8.714337e+003
1.469231e+003, 8.720363e+003
1.471159e+003, 8.722796e+003
1.473088e+003, 8.723998e+003
1.475016e+003, 8.728535e+003
1.476945e+003, 8.733021e+003
1.478873e+003, 8.736468e+003
1.480802e+003, 8.735114e+003
1.482730e+003, 8.722951e+003
1.484659e+003, 8.715416e+003
1.486587e+003, 8.717739e+003
1.488516e+003, 8.712174e+003
1.490444e+003, 8.698314e+003
1.492373e+003, 8.691560e+003
1.494301e+003, 8.686936e+003
1.496229e+003, 8.662803e+003
1.498158e+003, 8.636779e+003
1.500086e+003, 8.637743e+003
1.502015e+003, 8.634216e+003
1.503943e+003, 8.599384e+003
1.505872e+003, 8.568190e+003
1.507800e+003, 8.554413e+003
1.509729e+003, 8.538812e+003
1.511657e+003, 8.519191e+003
1.513586e+003, 8.504026e+003
1.515514e+003, 8.493097e+003
1.517443e+003, 8.491686e+003
1.519371e+003, 8.488830e+003
1.521300e+003, 8.459730e+003
1.523228e+003, 8.430982e+003
1.525156e+003, 8.424134e+003
1.527085e+003, 8.411348e+003
1.529013e+003, 8.378644e+003
1.530942e+003, 8.359551e+003
1.532870e+003, 8.361836e+003
1.534799e+003, 8.352315e+003
1.536727e+003, 8.332173e+003
1.538656e+003, 8.303525e+003
1.540584e+003, 8.276004e+003
1.542513e+003, 8.270085e+003
1.544441e+003, 8.265882e+003
1.546370e+003, 8.245986e+003
1.548298e+003, 8.232944e+003
1.550227e+003, 8.233662e+003
1.552155e+003, 8.235524e+003
1.554083e+003, 8.235967e+003
1.556012e+003, 8.224747e+003
1.557940e+003, 8.205604e+003
1.559869e+003, 8.192266e+003
1.561797e+003, 8.182462e+003
1.563726e+003, 8.175443e+003
1.565654e+003, 8.168470e+003
1.567583e+003, 8.160934e+003
1.569511e+003, 8.152795e+003
1.571440e+003, 8.144227e+003
1.573368e+003, 8.137090e+003
1.575297e+003, 8.130943e+003
1.577225e+003, 8.120498e+003
1.579154e+003, 8.108668e+003
1.581082e+003, 8.099176e+003
1.583010e+003, 8.095166e+003
1.584939e+003, 8.108702e+003
1.586867e+003, 8.111768e+003
1.588796e+003, 8.085550e+003
1.590724e+003, 8.066474e+003
1.592653e+003, 8.057065e+003
1.594581e+003, 8.051188e+003
1.596510e+003, 8.047147e+003
1.598438e+003, 8.039051e+003
1.600367e+003, 8.031104e+003
1.602295e+003, 8.029859e+003
1.604224e+003, 8.027509e+003
1.606152e+003, 8.019540e+003
1.608081e+003, 8.011236e+003
1.610009e+003, 8.002955e+003
1.611938e+003, 7.995976e+003
1.613866e+003, 7.990308e+003
1.615794e+003, 7.987584e+003
1.617723e+003, 7.985623e+003
1.619651e+003, 7.979757e+003
1.621580e+003, 7.976751e+003
1.623508e+003, 7.982376e+003
1.625437e+003, 7.984713e+003
1.627365e+003, 7.981299e+003
1.629294e+003, 7.969511e+003
1.631222e+003, 7.952108e+003
1.633151e+003, 7.949103e+003
1.635079e+003, 7.949658e+003
1.637008e+003, 7.934408e+003
1.638936e+003, 7.921273e+003
1.640865e+003, 7.920822e+003
1.642793e+003, 7.917142e+003
1.644721e+003, 7.906432e+003
1.646650e+003, 7.906125e+003
1.648578e+003, 7.913551e+003
1.650507e+003, 7.910131e+003
1.652435e+003, 7.902544e+003
1.654364e+003, 7.897532e+003
1.656292e+003, 7.895314e+003
1.658221e+003, 7.895438e+003
1.660149e+003, 7.898172e+003
1.662078e+003, 7.902986e+003
1.664006e+003, 7.898720e+003
1.665935e+003, 7.889231e+003
1.667863e+003, 7.890948e+003
1.669792e+003, 7.894274e+003
1.671720e+003, 7.887292e+003
1.673648e+003, 7.883039e+003
1.675577e+003, 7.889371e+003
1.677505e+003, 7.886717e+003
1.679434e+003, 7.874745e+003
1.681362e+003, 7.872444e+003
1.683291e+003, 7.875086e+003
1.685219e+003, 7.871228e+003
1.687148e+003, 7.867607e+003
1.689076e+003, 7.869662e+003
1.691005e+003, 7.872377e+003
1.692933e+003, 7.874743e+003
1.694862e+003, 7.877536e+003
1.696790e+003, 7.879421e+003
1.698719e+003, 7.868200e+003
1.700647e+003, 7.857931e+003
1.702575e+003, 7.873841e+003
1.704504e+003, 7.881572e+003
1.706432e+003, 7.856959e+003
1.708361e+003, 7.844329e+003
1.710289e+003, 7.848513e+003
1.712218e+003, 7.845013e+003
1.714146e+003, 7.838175e+003
1.716075e+003, 7.836598e+003
1.718003e+003, 7.837670e+003
1.719932e+003, 7.840954e+003
1.721860e+003, 7.840649e+003
1.723789e+003, 7.834232e+003
1.725717e+003, 7.828158e+003
1.727646e+003, 7.822823e+003
1.729574e+003, 7.819094e+003
1.731502e+003, 7.816999e+003
1.733431e+003, 7.817289e+003
1.735359e+003, 7.817817e+003
1.737288e+003, 7.817963e+003
1.739216e+003, 7.817678e+003
1.741145e+003, 7.816129e+003
1.743073e+003, 7.808066e+003
1.745002e+003, 7.797068e+003
1.746930e+003, 7.786518e+003
1.748859e+003, 7.779555e+003
1.750787e+003, 7.779363e+003
1.752716e+003, 7.771971e+003
1.754644e+003, 7.757856e+003
1.756573e+003, 7.756710e+003
1.758501e+003, 7.763621e+003
1.760429e+003, 7.774329e+003
1.762358e+003, 7.779588e+003
1.764286e+003, 7.770940e+003
1.766215e+003, 7.765135e+003
1.768143e+003, 7.763237e+003
1.770072e+003, 7.757353e+003
1.772000e+003, 7.750295e+003
1.773929e+003, 7.751361e+003
1.775857e+003, 7.749156e+003
1.777786e+003, 7.732796e+003
1.779714e+003, 7.721333e+003
1.781643e+003, 7.717068e+003
1.783571e+003, 7.721151e+003
1.785500e+003, 7.727670e+003
1.787428e+003, 7.722944e+003
1.789356e+003, 7.718818e+003
1.791285e+003, 7.724438e+003
1.793213e+003, 7.726515e+003
1.795142e+003, 7.722561e+003
1.797070e+003, 7.727397e+003
1.798999e+003, 7.733656e+003
1.800927e+003, 7.723999e+003
1.802856e+003, 7.714847e+003
1.804784e+003, 7.718588e+003
1.806713e+003, 7.716857e+003
1.808641e+003, 7.707853e+003
1.810570e+003, 7.700976e+003
1.812498e+003, 7.695049e+003
1.814427e+003, 7.688486e+003
1.816355e+003, 7.680164e+003
1.818283e+003, 7.667426e+003
1.820212e+003, 7.665146e+003
1.822140e+003, 7.673866e+003
1.824069e+003, 7.674550e+003
1.825997e+003, 7.671672e+003
1.827926e+003, 7.669782e+003
1.829854e+003, 7.669252e+003
1.831783e+003, 7.669892e+003
1.833711e+003, 7.669638e+003
1.835640e+003, 7.667821e+003
1.837568e+003, 7.662355e+003
1.839497e+003, 7.654944e+003
1.841425e+003, 7.646884e+003
1.843354e+003, 7.641512e+003
1.845282e+003, 7.640327e+003
1.847210e+003, 7.628459e+003
1.849139e+003, 7.612329e+003
1.851067e+003, 7.615971e+003
1.852996e+003, 7.621341e+003
1.854924e+003, 7.612794e+003
1.856853e+003, 7.606875e+003
1.858781e+003, 7.605409e+003
1.860710e+003, 7.605304e+003
1.862638e+003, 7.604706e+003
1.864567e+003, 7.601248e+003
1.866495e+003, 7.595039e+003
1.868424e+003, 7.583836e+003
1.870352e+003, 7.579035e+003
1.872281e+003, 7.579960e+003
1.874209e+003, 7.580048e+003
1.876137e+003, 7.578378e+003
1.878066e+003, 7.571423e+003
1.879994e+003, 7.568766e+003
1.881923e+003, 7.574406e+003
1.883851e+003, 7.564904e+003
1.885780e+003, 7.547842e+003
1.887708e+003, 7.541750e+003
1.889637e+003, 7.539359e+003
1.891565e+003, 7.541622e+003
1.893494e+003, 7.530794e+003
1.895422e+003, 7.508336e+003
1.897351e+003, 7.510339e+003
1.899279e+003, 7.517625e+003
1.901208e+003, 7.508181e+003
1.903136e+003, 7.502437e+003
1.905064e+003, 7.507992e+003
1.906993e+003, 7.503445e+003
1.908921e+003, 7.493531e+003
1.910850e+003, 7.494070e+003
1.912778e+003, 7.491250e+003
1.914707e+003, 7.478162e+003
1.916635e+003, 7.463036e+003
1.918564e+003, 7.449319e+003
1.920492e+003, 7.455758e+003
1.922421e+003, 7.461168e+003
1.924349e+003, 7.437897e+003
1.926278e+003, 7.428794e+003
1.928206e+003, 7.442099e+003
1.930135e+003, 7.449694e+003
1.932063e+003, 7.449999e+003
1.933991e+003, 7.436789e+003
1.935920e+003, 7.427411e+003
1.937848e+003, 7.427958e+003
1.939777e+003, 7.433014e+003
1.941705e+003, 7.439017e+003
1.943634e+003, 7.435763e+003
1.945562e+003, 7.430006e+003
1.947491e+003, 7.426256e+003
1.949419e+003, 7.422728e+003
1.951348e+003, 7.419084e+003
1.953276e+003, 7.411486e+003
1.955205e+003, 7.404823e+003
1.957133e+003, 7.404713e+003
1.959062e+003, 7.405776e+003
1.960990e+003, 7.406565e+003
1.962918e+003, 7.404497e+003
1.964847e+003, 7.399394e+003
1.966775e+003, 7.391002e+003
1.968704e+003, 7.382514e+003
1.970632e+003, 7.376448e+003
1.972561e+003, 7.369410e+003
1.974489e+003, 7.363024e+003
1.976418e+003, 7.357712e+003
1.978346e+003, 7.358459e+003
1.980275e+003, 7.370583e+003
1.982203e+003, 7.377028e+003
1.984132e+003, 7.377525e+003
1.986060e+003, 7.377898e+003
1.987989e+003, 7.375242e+003
1.989917e+003, 7.364912e+003
1.991845e+003, 7.365639e+003
1.993774e+003, 7.377096e+003
1.995702e+003, 7.378740e+003
1.997631e+003, 7.376198e+003
1.999559e+003, 7.373435e+003
2.001488e+003, 7.371843e+003
2.003416e+003, 7.371385e+003
2.005345e+003, 7.362768e+003
2.007273e+003, 7.354118e+003
2.009202e+003, 7.354782e+003
2.011130e+003, 7.355354e+003
2.013059e+003, 7.354161e+003
2.014987e+003, 7.363981e+003
2.016916e+003, 7.372962e+003
2.018844e+003, 7.360053e+003
2.020772e+003, 7.351038e+003
2.022701e+003, 7.351192e+003
2.024629e+003, 7.353783e+003
2.026558e+003, 7.359220e+003
2.028486e+003, 7.376829e+003
2.030415e+003, 7.376339e+003
2.032343e+003, 7.351296e+003
2.034272e+003, 7.349600e+003
2.036200e+003, 7.357012e+003
2.038129e+003, 7.345720e+003
2.040057e+003, 7.338595e+003
2.041986e+003, 7.341525e+003
2.043914e+003, 7.344725e+003
2.045843e+003, 7.344611e+003
2.047771e+003, 7.333704e+003
2.049699e+003, 7.326272e+003
2.051628e+003, 7.327287e+003
2.053556e+003, 7.324001e+003
2.055485e+003, 7.320877e+003
2.057413e+003, 7.327466e+003
2.059342e+003, 7.329392e+003
2.061270e+003, 7.320433e+003
2.063199e+003, 7.311256e+003
2.065127e+003, 7.304815e+003
2.067056e+003, 7.311670e+003
2.068984e+003, 7.306182e+003
2.070913e+003, 7.278053e+003
2.072841e+003, 7.272813e+003
2.074770e+003, 7.273381e+003
2.076698e+003, 7.251756e+003
2.078626e+003, 7.242507e+003
2.080555e+003, 7.255741e+003
2.082483e+003, 7.257723e+003
2.084412e+003, 7.252874e+003
2.086340e+003, 7.246146e+003
2.088269e+003, 7.234361e+003
2.090197e+003, 7.218114e+003
2.092126e+003, 7.228952e+003
2.094054e+003, 7.238881e+003
2.095983e+003, 7.214714e+003
2.097911e+003, 7.207805e+003
2.099840e+003, 7.222029e+003
2.101768e+003, 7.215396e+003
2.103697e+003, 7.202857e+003
2.105625e+003, 7.195568e+003
2.107553e+003, 7.187780e+003
2.109482e+003, 7.178800e+003
2.111410e+003, 7.165852e+003
2.113339e+003, 7.160657e+003
2.115267e+003, 7.174257e+003
2.117196e+003, 7.169474e+003
2.119124e+003, 7.152842e+003
2.121053e+003, 7.148629e+003
2.122981e+003, 7.149413e+003
2.124910e+003, 7.152051e+003
2.126838e+003, 7.155743e+003
2.128767e+003, 7.157072e+003
2.130695e+003, 7.147828e+003
2.132624e+003, 7.143148e+003
2.134552e+003, 7.147859e+003
2.136480e+003, 7.144023e+003
2.138409e+003, 7.136859e+003
2.140337e+003, 7.129950e+003
2.142266e+003, 7.128516e+003
2.144194e+003, 7.132831e+003
2.146123e+003, 7.155903e+003
2.148051e+003, 7.172064e+003
2.149980e+003, 7.155822e+003
2.151908e+003, 7.149147e+003
2.153837e+003, 7.151492e+003
2.155765e+003, 7.146618e+003
2.157694e+003, 7.141678e+003
2.159622e+003, 7.141232e+003
2.161551e+003, 7.134509e+003
2.163479e+003, 7.129401e+003
2.165407e+003, 7.143712e+003
2.167336e+003, 7.158432e+003
2.169264e+003, 7.167950e+003
2.171193e+003, 7.176572e+003
2.173121e+003, 7.179679e+003
2.175050e+003, 7.171125e+003
2.176978e+003, 7.161464e+003
2.178907e+003, 7.154553e+003
2.180835e+003, 7.165908e+003
2.182764e+003, 7.172178e+003
2.184692e+003, 7.161783e+003
2.186621e+003, 7.158391e+003
2.188549e+003, 7.158862e+003
2.190478e+003, 7.151131e+003
2.192406e+003, 7.144963e+003
2.194334e+003, 7.142386e+003
2.196263e+003, 7.146120e+003
2.198191e+003, 7.148949e+003
2.200120e+003, 7.144508e+003
2.202048e+003, 7.133221e+003
2.203977e+003, 7.116741e+003
2.205905e+003, 7.097256e+003
2.207834e+003, 7.084297e+003
2.209762e+003, 7.083727e+003
2.211691e+003, 7.084084e+003
2.213619e+003, 7.082231e+003
2.215548e+003, 7.072333e+003
2.217476e+003, 7.063602e+003
2.219405e+003, 7.057403e+003
2.221333e+003, 7.053750e+003
2.223261e+003, 7.049686e+003
2.225190e+003, 7.041972e+003
2.227118e+003, 7.038838e+003
2.229047e+003, 7.041063e+003
2.230975e+003, 7.051931e+003
2.232904e+003, 7.059319e+003
2.234832e+003, 7.059084e+003
2.236761e+003, 7.053505e+003
2.238689e+003, 7.048110e+003
2.240618e+003, 7.047641e+003
2.242546e+003, 7.046170e+003
2.244475e+003, 7.044834e+003
2.246403e+003, 7.051018e+003
2.248332e+003, 7.057884e+003
2.250260e+003, 7.063495e+003
2.252188e+003, 7.063485e+003
2.254117e+003, 7.062818e+003
2.256045e+003, 7.066339e+003
2.257974e+003, 7.071510e+003
2.259902e+003, 7.075332e+003
2.261831e+003, 7.066438e+003
2.263759e+003, 7.059798e+003
2.265688e+003, 7.059836e+003
2.267616e+003, 7.066386e+003
2.269545e+003, 7.073451e+003
2.271473e+003, 7.076628e+003
2.273402e+003, 7.074661e+003
2.275330e+003, 7.068715e+003
2.277259e+003, 7.060209e+003
2.279187e+003, 7.053936e+003
2.281115e+003, 7.050942e+003
2.283044e+003, 7.053823e+003
2.284972e+003, 7.055938e+003
2.286901e+003, 7.048362e+003
2.288829e+003, 7.044538e+003
2.290758e+003, 7.044647e+003
2.292686e+003, 7.051212e+003
2.294615e+003, 7.047946e+003
2.296543e+003, 7.030900e+003
2.298472e+003, 7.036764e+003
2.300400e+003, 7.044522e+003
2.302329e+003, 7.035732e+003
2.304257e+003, 7.036592e+003
2.306186e+003, 7.039268e+003
2.308114e+003, 7.024294e+003
2.310042e+003, 7.013726e+003
2.311971e+003, 7.011913e+003
2.313899e+003, 7.015428e+003
2.315828e+003, 7.019828e+003
2.317756e+003, 7.022716e+003
2.319685e+003, 7.025953e+003
2.321613e+003, 7.023928e+003
2.323542e+003, 7.008614e+003
2.325470e+003, 6.994248e+003
2.327399e+003, 6.985235e+003
2.329327e+003, 6.991721e+003
2.331256e+003, 6.997117e+003
2.333184e+003, 6.995843e+003
2.335113e+003, 6.979189e+003
2.337041e+003, 6.967003e+003
2.338969e+003, 6.974282e+003
2.340898e+003, 6.973215e+003
2.342826e+003, 6.968791e+003
2.344755e+003, 6.974078e+003
2.346683e+003, 6.977234e+003
2.348612e+003, 6.977187e+003
2.350540e+003, 6.981466e+003
2.352469e+003, 6.980772e+003
2.354397e+003, 6.972700e+003
2.356326e+003, 6.969557e+003
2.358254e+003, 6.967228e+003
2.360183e+003, 6.961143e+003
2.362111e+003, 6.959538e+003
2.364040e+003, 6.960606e+003
2.365968e+003, 6.961724e+003
2.367896e+003, 6.955894e+003
2.369825e+003, 6.945326e+003
2.371753e+003, 6.946654e+003
2.373682e+003, 6.947580e+003
2.375610e+003, 6.944185e+003
2.377539e+003, 6.933838e+003
2.379467e+003, 6.931225e+003
2.381396e+003, 6.951955e+003
2.383324e+003, 6.949730e+003
2.385253e+003, 6.938461e+003
2.387181e+003, 6.938557e+003
2.389110e+003, 6.948048e+003
2.391038e+003, 6.959261e+003
2.392967e+003, 6.943692e+003
2.394895e+003, 6.935921e+003
2.396823e+003, 6.943805e+003
2.398752e+003, 6.950273e+003
2.400680e+003, 6.953026e+003
2.402609e+003, 6.950355e+003
2.404537e+003, 6.939977e+003
2.406466e+003, 6.926011e+003
2.408394e+003, 6.910922e+003
2.410323e+003, 6.918197e+003
2.412251e+003, 6.928486e+003
2.414180e+003, 6.897046e+003
2.416108e+003, 6.880722e+003
2.418037e+003, 6.881531e+003
2.419965e+003, 6.879479e+003
2.421894e+003, 6.874533e+003
2.423822e+003, 6.867982e+003
2.425750e+003, 6.873689e+003
2.427679e+003, 6.876779e+003
2.429607e+003, 6.870642e+003
2.431536e+003, 6.858316e+003
2.433464e+003, 6.850877e+003
2.435393e+003, 6.865465e+003
2.437321e+003, 6.846662e+003
2.439250e+003, 6.823083e+003
2.441178e+003, 6.838992e+003
2.443107e+003, 6.845703e+003
2.445035e+003, 6.843489e+003
2.446964e+003, 6.845104e+003
2.448892e+003, 6.843989e+003
2.450821e+003, 6.840372e+003
2.452749e+003, 6.836655e+003
2.454677e+003, 6.837377e+003
2.456606e+003, 6.842636e+003
2.458534e+003, 6.835568e+003
2.460463e+003, 6.827236e+003
2.462391e+003, 6.822943e+003
2.464320e+003, 6.821723e+003
2.466248e+003, 6.821015e+003
2.468177e+003, 6.819809e+003
2.470105e+003, 6.804026e+003
2.472034e+003, 6.789263e+003
2.473962e+003, 6.791266e+003
2.475891e+003, 6.797635e+003
2.477819e+003, 6.799655e+003
2.479748e+003, 6.783239e+003
2.481676e+003, 6.772512e+003
2.483604e+003, 6.768874e+003
2.485533e+003, 6.772670e+003
2.487461e+003, 6.764105e+003
2.489390e+003, 6.743279e+003
2.491318e+003, 6.722460e+003
2.493247e+003, 6.705940e+003
2.495175e+003, 6.693524e+003
2.497104e+003, 6.674884e+003
2.499032e+003, 6.667813e+003
2.500961e+003, 6.674854e+003
2.502889e+003, 6.666047e+003
2.504818e+003, 6.653866e+003
2.506746e+003, 6.643753e+003
2.508675e+003, 6.634244e+003
2.510603e+003, 6.630417e+003
2.512531e+003, 6.640022e+003
2.514460e+003, 6.630890e+003
2.516388e+003, 6.618117e+003
2.518317e+003, 6.614064e+003
2.520245e+003, 6.614855e+003
2.522174e+003, 6.616619e+003
2.524102e+003, 6.616003e+003
2.526031e+003, 6.609075e+003
2.527959e+003, 6.598304e+003
2.529888e+003, 6.585833e+003
2.531816e+003, 6.585661e+003
2.533745e+003, 6.592959e+003
2.535673e+003, 6.601007e+003
2.537602e+003, 6.590680e+003
2.539530e+003, 6.574154e+003
2.541458e+003, 6.580448e+003
2.543387e+003, 6.581401e+003
2.545315e+003, 6.575792e+003
2.547244e+003, 6.571659e+003
2.549172e+003, 6.567269e+003
2.551101e+003, 6.562506e+003
2.553029e+003, 6.555401e+003
2.554958e+003, 6.551980e+003
2.556886e+003, 6.550561e+003
2.558815e+003, 6.540683e+003
2.560743e+003, 6.532459e+003
2.562672e+003, 6.528007e+003
2.564600e+003, 6.531386e+003
2.566529e+003, 6.526734e+003
2.568457e+003, 6.512749e+003
2.570385e+003, 6.491622e+003
2.572314e+003, 6.485954e+003
2.574242e+003, 6.495445e+003
2.576171e+003, 6.495346e+003
2.578099e+003, 6.495073e+003
2.580028e+003, 6.495951e+003
2.581956e+003, 6.488305e+003
2.583885e+003, 6.493102e+003
2.585813e+003, 6.510548e+003
2.587742e+003, 6.494932e+003
2.589670e+003, 6.476312e+003
2.591599e+003, 6.465103e+003
2.593527e+003, 6.478653e+003
2.595456e+003, 6.478845e+003
2.597384e+003, 6.459999e+003
2.599313e+003, 6.469344e+003
2.601241e+003, 6.472350e+003
2.603169e+003, 6.462428e+003
2.605098e+003, 6.469084e+003
2.607026e+003, 6.473583e+003
2.608955e+003, 6.472513e+003
2.610883e+003, 6.482142e+003
2.612812e+003, 6.489403e+003
2.614740e+003, 6.493022e+003
2.616669e+003, 6.510671e+003
2.618597e+003, 6.520634e+003
2.620526e+003, 6.522396e+003
2.622454e+003, 6.539939e+003
2.624383e+003, 6.555524e+003
2.626311e+003, 6.567914e+003
2.628240e+003, 6.593247e+003
2.630168e+003, 6.598276e+003
2.632096e+003, 6.590279e+003
2.634025e+003, 6.616085e+003
2.635953e+003, 6.648190e+003
2.637882e+003, 6.673820e+003
2.639810e+003, 6.670790e+003
2.641739e+003, 6.680293e+003
2.643667e+003, 6.705820e+003
2.645596e+003, 6.738467e+003
2.647524e+003, 6.769237e+003
2.649453e+003, 6.799384e+003
2.651381e+003, 6.836412e+003
2.653310e+003, 6.867498e+003
2.655238e+003, 6.894407e+003
2.657167e+003, 6.923853e+003
2.659095e+003, 6.946528e+003
2.661023e+003, 6.971614e+003
2.662952e+003, 7.010620e+003
2.664880e+003, 7.050859e+003
2.666809e+003, 7.093326e+003
2.668737e+003, 7.140280e+003
2.670666e+003, 7.172727e+003
2.672594e+003, 7.204259e+003
2.674523e+003, 7.245710e+003
2.676451e+003, 7.271339e+003
2.678380e+003, 7.296437e+003
2.680308e+003, 7.330168e+003
2.682237e+003, 7.350039e+003
2.684165e+003, 7.370841e+003
2.686094e+003, 7.398057e+003
2.688022e+003, 7.414818e+003
2.689950e+003, 7.422857e+003
2.691879e+003, 7.423326e+003
2.693807e+003, 7.414167e+003
2.695736e+003, 7.417025e+003
2.697664e+003, 7.427370e+003
2.699593e+003, 7.410934e+003
2.701521e+003, 7.396308e+003
2.703450e+003, 7.379218e+003
2.705378e+003, 7.330886e+003
2.707307e+003, 7.294642e+003
2.709235e+003, 7.264733e+003
2.711164e+003, 7.218854e+003
2.713092e+003, 7.182146e+003
2.715021e+003, 7.145500e+003
2.716949e+003, 7.092523e+003
2.718877e+003, 7.055902e+003
2.720806e+003, 7.014522e+003
2.722734e+003, 6.948165e+003
2.724663e+003, 6.903093e+003
2.726591e+003, 6.851705e+003
2.728520e+003, 6.780166e+003
2.730448e+003, 6.727214e+003
2.732377e+003, 6.681978e+003
2.734305e+003, 6.639986e+003
2.736234e+003, 6.606294e+003
2.738162e+003, 6.557815e+003
2.740091e+003, 6.497315e+003
2.742019e+003, 6.448084e+003
2.743948e+003, 6.402851e+003
2.745876e+003, 6.357219e+003
2.747804e+003, 6.302874e+003
2.749733e+003, 6.267291e+003
2.751661e+003, 6.238262e+003
2.753590e+003, 6.202495e+003
2.755518e+003, 6.153087e+003
2.757447e+003, 6.114576e+003
2.759375e+003, 6.096149e+003
2.761304e+003, 6.038502e+003
2.763232e+003, 5.982364e+003
2.765161e+003, 5.942751e+003
2.767089e+003, 5.919304e+003
2.769018e+003, 5.899516e+003
2.770946e+003, 5.878825e+003
2.772875e+003, 5.854555e+003
2.774803e+003, 5.825682e+003
2.776731e+003, 5.797148e+003
2.778660e+003, 5.777243e+003
2.780588e+003, 5.750476e+003
2.782517e+003, 5.723740e+003
2.784445e+003, 5.703362e+003
2.786374e+003, 5.673737e+003
2.788302e+003, 5.650340e+003
2.790231e+003, 5.637605e+003
2.792159e+003, 5.624178e+003
2.794088e+003, 5.604971e+003
2.796016e+003, 5.578069e+003
2.797945e+003, 5.538616e+003
2.799873e+003, 5.515771e+003
2.801802e+003, 5.501736e+003
2.803730e+003, 5.484678e+003
2.805658e+003, 5.470326e+003
2.807587e+003, 5.453382e+003
2.809515e+003, 5.431943e+003
2.811444e+003, 5.426987e+003
2.813372e+003, 5.408771e+003
2.815301e+003, 5.374844e+003
2.817229e+003, 5.352115e+003
2.819158e+003, 5.330680e+003
2.821086e+003, 5.311631e+003
2.823015e+003, 5.301598e+003
2.824943e+003, 5.278684e+003
2.826872e+003, 5.257521e+003
2.828800e+003, 5.249291e+003
2.830729e+003, 5.237393e+003
2.832657e+003, 5.224138e+003
2.834585e+003, 5.209438e+003
2.836514e+003, 5.186040e+003
2.838442e+003, 5.171736e+003
2.840371e+003, 5.159038e+003
2.842299e+003, 5.127606e+003
2.844228e+003, 5.112257e+003
2.846156e+003, 5.098557e+003
2.848085e+003, 5.071628e+003
2.850013e+003, 5.062547e+003
2.851942e+003, 5.045552e+003
2.853870e+003, 5.017096e+003
2.855799e+003, 5.006144e+003
2.857727e+003, 4.991641e+003
2.859656e+003, 4.975442e+003
2.861584e+003, 4.964981e+003
2.863512e+003, 4.949960e+003
2.865441e+003, 4.932274e+003
2.867369e+003, 4.913394e+003
2.869298e+003, 4.889575e+003
2.871226e+003, 4.863811e+003
2.873155e+003, 4.840231e+003
2.875083e+003, 4.826175e+003
2.877012e+003, 4.818757e+003
2.878940e+003, 4.807058e+003
2.880869e+003, 4.779018e+003
2.882797e+003, 4.777223e+003
2.884726e+003, 4.770263e+003
2.886654e+003, 4.747422e+003
2.888583e+003, 4.723201e+003
2.890511e+003, 4.703542e+003
2.892439e+003, 4.687067e+003
2.894368e+003, 4.668690e+003
2.896296e+003, 4.655826e+003
2.898225e+003, 4.642264e+003
2.900153e+003, 4.623536e+003
2.902082e+003, 4.617063e+003
2.904010e+003, 4.604722e+003
2.905939e+003, 4.583351e+003
2.907867e+003, 4.553890e+003
2.909796e+003, 4.548041e+003
2.911724e+003, 4.541262e+003
2.913653e+003, 4.513159e+003
2.915581e+003, 4.502234e+003
2.917510e+003, 4.496710e+003
2.919438e+003, 4.487401e+003
2.921366e+003, 4.458587e+003
2.923295e+003, 4.447120e+003
2.925223e+003, 4.441748e+003
2.927152e+003, 4.429547e+003
2.929080e+003, 4.407295e+003
2.931009e+003, 4.394767e+003
2.932937e+003, 4.395779e+003
2.934866e+003, 4.404760e+003
2.936794e+003, 4.400991e+003
2.938723e+003, 4.384354e+003
2.940651e+003, 4.357898e+003
2.942580e+003, 4.344570e+003
2.944508e+003, 4.327375e+003
2.946437e+003, 4.308138e+003
2.948365e+003, 4.312975e+003
2.950293e+003, 4.297084e+003
2.952222e+003, 4.274442e+003
2.954150e+003, 4.261702e+003
2.956079e+003, 4.262778e+003
2.958007e+003, 4.261143e+003
2.959936e+003, 4.250963e+003
2.961864e+003, 4.230926e+003
2.963793e+003, 4.207930e+003
2.965721e+003, 4.186198e+003
2.967650e+003, 4.168727e+003
2.969578e+003, 4.167058e+003
2.971507e+003, 4.158273e+003
2.973435e+003, 4.141090e+003
2.975364e+003, 4.123617e+003
2.977292e+003, 4.112518e+003
2.979220e+003, 4.106073e+003
2.981149e+003, 4.101142e+003
2.983077e+003, 4.089481e+003
2.985006e+003, 4.080464e+003
2.986934e+003, 4.070120e+003
2.988863e+003, 4.051664e+003
2.990791e+003, 4.034844e+003
2.992720e+003, 4.019515e+003
2.994648e+003, 4.004795e+003
2.996577e+003, 3.983855e+003
2.998505e+003, 3.992667e+003
3.000434e+003, 3.992969e+003
3.002362e+003, 3.951510e+003
3.004291e+003, 3.942855e+003
3.006219e+003, 3.935817e+003
3.008147e+003, 3.925187e+003
3.010076e+003, 3.921163e+003
3.012004e+003, 3.910351e+003
3.013933e+003, 3.894614e+003
3.015861e+003, 3.875474e+003
3.017790e+003, 3.848295e+003
3.019718e+003, 3.833935e+003
3.021647e+003, 3.824081e+003
3.023575e+003, 3.806427e+003
3.025504e+003, 3.810409e+003
3.027432e+003, 3.802251e+003
3.029361e+003, 3.783292e+003
3.031289e+003, 3.779103e+003
3.033218e+003, 3.757357e+003
3.035146e+003, 3.735556e+003
3.037074e+003, 3.724709e+003
3.039003e+003, 3.728011e+003
3.040931e+003, 3.716653e+003
3.042860e+003, 3.696730e+003
3.044788e+003, 3.677935e+003
3.046717e+003, 3.659630e+003
3.048645e+003, 3.638404e+003
3.050574e+003, 3.617740e+003
3.052502e+003, 3.604147e+003
3.054431e+003, 3.592538e+003
3.056359e+003, 3.576343e+003
3.058288e+003, 3.556313e+003
3.060216e+003, 3.539946e+003
3.062145e+003, 3.546094e+003
3.064073e+003, 3.548905e+003
3.066001e+003, 3.531730e+003
3.067930e+003, 3.511834e+003
3.069858e+003, 3.503611e+003
3.071787e+003, 3.498996e+003
3.073715e+003, 3.485891e+003
3.075644e+003, 3.480090e+003
3.077572e+003, 3.464327e+003
3.079501e+003, 3.445434e+003
3.081429e+003, 3.441969e+003
3.083358e+003, 3.425360e+003
3.085286e+003, 3.415879e+003
3.087215e+003, 3.416851e+003
3.089143e+003, 3.414036e+003
3.091072e+003, 3.384532e+003
3.093000e+003, 3.356159e+003
3.094928e+003, 3.345208e+003
3.096857e+003, 3.353488e+003
3.098785e+003, 3.342678e+003
3.100714e+003, 3.326108e+003
3.102642e+003, 3.316406e+003
3.104571e+003, 3.310007e+003
3.106499e+003, 3.297563e+003
3.108428e+003, 3.286141e+003
3.110356e+003, 3.283240e+003
3.112285e+003, 3.265261e+003
3.114213e+003, 3.236681e+003
3.116142e+003, 3.209573e+003
3.118070e+003, 3.196606e+003
3.119999e+003, 3.204287e+003
3.121927e+003, 3.194630e+003
3.123855e+003, 3.170816e+003
3.125784e+003, 3.157666e+003
3.127712e+003, 3.137247e+003
3.129641e+003, 3.114728e+003
3.131569e+003, 3.098911e+003
3.133498e+003, 3.104681e+003
3.135426e+003, 3.084511e+003
3.137355e+003, 3.069994e+003
3.139283e+003, 3.067698e+003
3.141212e+003, 3.054013e+003
3.143140e+003, 3.033076e+003
3.145069e+003, 3.013417e+003
3.146997e+003, 2.997965e+003
3.148926e+003, 2.983021e+003
3.150854e+003, 2.972937e+003
3.152782e+003, 2.958094e+003
3.154711e+003, 2.937539e+003
3.156639e+003, 2.928146e+003
3.158568e+003, 2.910002e+003
3.160496e+003, 2.890591e+003
3.162425e+003, 2.874198e+003
3.164353e+003, 2.853837e+003
3.166282e+003, 2.846199e+003
3.168210e+003, 2.837403e+003
3.170139e+003, 2.820065e+003
3.172067e+003, 2.803673e+003
3.173996e+003, 2.787103e+003
3.175924e+003, 2.765829e+003
3.177853e+003, 2.740191e+003
3.179781e+003, 2.721776e+003
3.181709e+003, 2.689333e+003
3.183638e+003, 2.665035e+003
3.185566e+003, 2.655146e+003
3.187495e+003, 2.628077e+003
3.189423e+003, 2.608048e+003
3.191352e+003, 2.584133e+003
3.193280e+003, 2.554657e+003
3.195209e+003, 2.539126e+003
3.197137e+003, 2.523353e+003
3.199066e+003, 2.501890e+003
3.200994e+003, 2.477562e+003
3.202923e+003, 2.464148e+003
3.204851e+003, 2.446728e+003
3.206780e+003, 2.426208e+003
3.208708e+003, 2.406839e+003
3.210636e+003, 2.396327e+003
3.212565e+003, 2.375409e+003
3.214493e+003, 2.365243e+003
3.216422e+003, 2.357715e+003
3.218350e+003, 2.320594e+003
3.220279e+003, 2.294644e+003
3.222207e+003, 2.272984e+003
3.224136e+003, 2.253454e+003
3.226064e+003, 2.237689e+003
3.227993e+003, 2.218538e+003
3.229921e+003, 2.205038e+003
3.231850e+003, 2.188505e+003
3.233778e+003, 2.155765e+003
3.235707e+003, 2.146415e+003
3.237635e+003, 2.132476e+003
3.239563e+003, 2.112473e+003
3.241492e+003, 2.090826e+003
3.243420e+003, 2.067147e+003
3.245349e+003, 2.049238e+003
3.247277e+003, 2.030681e+003
3.249206e+003, 2.010603e+003
3.251134e+003, 2.007490e+003
3.253063e+003, 1.993049e+003
3.254991e+003, 1.979631e+003
3.256920e+003, 1.970938e+003
3.258848e+003, 1.957151e+003
3.260777e+003, 1.949970e+003
3.262705e+003, 1.934280e+003
3.264634e+003, 1.915250e+003
3.266562e+003, 1.909113e+003
3.268490e+003, 1.893533e+003
3.270419e+003, 1.885167e+003
3.272347e+003, 1.880681e+003
3.274276e+003, 1.871310e+003
3.276204e+003, 1.854388e+003
3.278133e+003, 1.840974e+003
3.280061e+003, 1.828281e+003
3.281990e+003, 1.816088e+003
3.283918e+003, 1.818567e+003
3.285847e+003, 1.810426e+003
3.287775e+003, 1.797633e+003
3.289704e+003, 1.786311e+003
3.291632e+003, 1.780014e+003
3.293561e+003, 1.772772e+003
3.295489e+003, 1.764193e+003
3.297417e+003, 1.755580e+003
3.299346e+003, 1.748197e+003
3.301274e+003, 1.739094e+003
3.303203e+003, 1.725001e+003
3.305131e+003, 1.709970e+003
3.307060e+003, 1.698219e+003
3.308988e+003, 1.694317e+003
3.310917e+003, 1.693066e+003
3.312845e+003, 1.683160e+003
3.314774e+003, 1.665954e+003
3.316702e+003, 1.650921e+003
3.318631e+003, 1.641191e+003
3.320559e+003, 1.631179e+003
3.322488e+003, 1.621280e+003
3.324416e+003, 1.611681e+003
3.326344e+003, 1.593367e+003
3.328273e+003, 1.578667e+003
3.330201e+003, 1.571240e+003
3.332130e+003, 1.567266e+003
3.334058e+003, 1.556712e+003
3.335987e+003, 1.538326e+003
3.337915e+003, 1.534510e+003
3.339844e+003, 1.532282e+003
3.341772e+003, 1.515528e+003
3.343701e+003, 1.507650e+003
3.345629e+003, 1.493663e+003
3.347558e+003, 1.482526e+003
3.349486e+003, 1.477341e+003
3.351415e+003, 1.471938e+003
3.353343e+003, 1.464571e+003
3.355271e+003, 1.468014e+003
3.357200e+003, 1.468850e+003
3.359128e+003, 1.454877e+003
3.361057e+003, 1.444558e+003
3.362985e+003, 1.450897e+003
3.364914e+003, 1.448282e+003
3.366842e+003, 1.434732e+003
3.368771e+003, 1.428828e+003
3.370699e+003, 1.417050e+003
3.372628e+003, 1.412713e+003
3.374556e+003, 1.404693e+003
3.376485e+003, 1.387311e+003
3.378413e+003, 1.386117e+003
3.380342e+003, 1.386105e+003
3.382270e+003, 1.385314e+003
3.384198e+003, 1.379120e+003
3.386127e+003, 1.362476e+003
3.388055e+003, 1.358085e+003
3.389984e+003, 1.357767e+003
3.391912e+003, 1.352682e+003
3.393841e+003, 1.345136e+003
3.395769e+003, 1.348461e+003
3.397698e+003, 1.337305e+003
3.399626e+003, 1.325843e+003
3.401555e+003, 1.319459e+003
3.403483e+003, 1.315770e+003
3.405412e+003, 1.300402e+003
3.407340e+003, 1.302867e+003
3.409269e+003, 1.298771e+003
3.411197e+003, 1.288775e+003
3.413125e+003, 1.284066e+003
3.415054e+003, 1.273377e+003
3.416982e+003, 1.271473e+003
3.418911e+003, 1.267362e+003
3.420839e+003, 1.261247e+003
3.422768e+003, 1.263704e+003
3.424696e+003, 1.265174e+003
3.426625e+003, 1.260304e+003
3.428553e+003, 1.251752e+003
3.430482e+003, 1.242776e+003
3.432410e+003, 1.235440e+003
3.434339e+003, 1.231587e+003
3.436267e+003, 1.231182e+003
3.438196e+003, 1.224148e+003
3.440124e+003, 1.209798e+003
3.442052e+003, 1.207599e+003
3.443981e+003, 1.204669e+003
3.445909e+003, 1.204368e+003
3.447838e+003, 1.201400e+003
3.449766e+003, 1.191909e+003
3.451695e+003, 1.179489e+003
3.453623e+003, 1.163639e+003
3.455552e+003, 1.159406e+003
##END=



