##NAMES=Diamond
##RRUFFID=R150088
##IDEAL CHEMISTRY=C
##LOCALITY=unknown
##OWNER=RRUFF
##SOURCE=Michael Scott
##DESCRIPTION=Colorless faceted crystals
##STATUS=The identification of this mineral has been determined only by Raman spectroscopy
##URL=rruff.info/R150088
7.687793e+001, 1.527538e+002
7.880640e+001, 1.476499e+002
8.073486e+001, 1.457591e+002
8.266333e+001, 1.481069e+002
8.459180e+001, 1.530090e+002
8.652026e+001, 1.575685e+002
8.844873e+001, 1.618234e+002
9.037720e+001, 1.688542e+002
9.230566e+001, 1.818682e+002
9.423413e+001, 1.841568e+002
9.616260e+001, 1.778495e+002
9.809106e+001, 1.718976e+002
1.000195e+002, 1.666130e+002
1.019480e+002, 1.618459e+002
1.038765e+002, 1.579291e+002
1.058049e+002, 1.551218e+002
1.077334e+002, 1.523595e+002
1.096619e+002, 1.490972e+002
1.115903e+002, 1.456994e+002
1.135188e+002, 1.426641e+002
1.154473e+002, 1.398799e+002
1.173757e+002, 1.368477e+002
1.193042e+002, 1.324270e+002
1.212327e+002, 1.288932e+002
1.231611e+002, 1.271744e+002
1.250896e+002, 1.263328e+002
1.270181e+002, 1.254967e+002
1.289465e+002, 1.246486e+002
1.308750e+002, 1.229255e+002
1.328035e+002, 1.188762e+002
1.347319e+002, 1.156646e+002
1.366604e+002, 1.144539e+002
1.385889e+002, 1.140651e+002
1.405173e+002, 1.134257e+002
1.424458e+002, 1.125372e+002
1.443743e+002, 1.114212e+002
1.463027e+002, 1.094494e+002
1.482312e+002, 1.081157e+002
1.501597e+002, 1.085285e+002
1.520881e+002, 1.089283e+002
1.540166e+002, 1.075137e+002
1.559451e+002, 1.046152e+002
1.578735e+002, 1.031403e+002
1.598020e+002, 1.048765e+002
1.617305e+002, 1.055830e+002
1.636589e+002, 1.039101e+002
1.655874e+002, 1.021811e+002
1.675159e+002, 1.021280e+002
1.694443e+002, 1.031888e+002
1.713728e+002, 1.033441e+002
1.733013e+002, 1.020252e+002
1.752297e+002, 1.007336e+002
1.771582e+002, 9.917344e+001
1.790867e+002, 9.801415e+001
1.810151e+002, 9.784441e+001
1.829436e+002, 9.819222e+001
1.848721e+002, 9.825589e+001
1.868005e+002, 9.788107e+001
1.887290e+002, 9.783918e+001
1.906575e+002, 9.843351e+001
1.925859e+002, 9.882170e+001
1.945144e+002, 9.868537e+001
1.964429e+002, 9.814139e+001
1.983713e+002, 9.697068e+001
2.002998e+002, 9.514709e+001
2.022283e+002, 9.455501e+001
2.041567e+002, 9.575515e+001
2.060852e+002, 9.638339e+001
2.080137e+002, 9.509536e+001
2.099421e+002, 9.380516e+001
2.118706e+002, 9.388120e+001
2.137991e+002, 9.495329e+001
2.157275e+002, 9.567300e+001
2.176560e+002, 9.604537e+001
2.195845e+002, 9.613781e+001
2.215129e+002, 9.570717e+001
2.234414e+002, 9.543098e+001
2.253699e+002, 9.593124e+001
2.272983e+002, 9.654008e+001
2.292268e+002, 9.606584e+001
2.311553e+002, 9.452351e+001
2.330837e+002, 9.409904e+001
2.350122e+002, 9.534974e+001
2.369407e+002, 9.615137e+001
2.388691e+002, 9.528305e+001
2.407976e+002, 9.423000e+001
2.427261e+002, 9.405301e+001
2.446545e+002, 9.442477e+001
2.465830e+002, 9.412471e+001
2.485115e+002, 9.309084e+001
2.504399e+002, 9.271104e+001
2.523684e+002, 9.393055e+001
2.542969e+002, 9.475703e+001
2.562253e+002, 9.417473e+001
2.581538e+002, 9.308705e+001
2.600823e+002, 9.242837e+001
2.620107e+002, 9.218263e+001
2.639392e+002, 9.239159e+001
2.658677e+002, 9.332132e+001
2.677961e+002, 9.370370e+001
2.697246e+002, 9.257909e+001
2.716531e+002, 9.160562e+001
2.735815e+002, 9.199725e+001
2.755100e+002, 9.286759e+001
2.774385e+002, 9.246128e+001
2.793669e+002, 9.093990e+001
2.812954e+002, 9.021543e+001
2.832239e+002, 9.114636e+001
2.851523e+002, 9.172573e+001
2.870808e+002, 9.114373e+001
2.890093e+002, 9.049434e+001
2.909377e+002, 9.080437e+001
2.928662e+002, 9.150387e+001
2.947947e+002, 9.145182e+001
2.967231e+002, 9.055376e+001
2.986516e+002, 8.969543e+001
3.005801e+002, 8.858907e+001
3.025085e+002, 8.809816e+001
3.044370e+002, 8.888252e+001
3.063655e+002, 8.993394e+001
3.082939e+002, 9.066140e+001
3.102224e+002, 9.096088e+001
3.121509e+002, 9.035445e+001
3.140793e+002, 8.845777e+001
3.160078e+002, 8.714422e+001
3.179363e+002, 8.656091e+001
3.198647e+002, 8.647896e+001
3.217932e+002, 8.715724e+001
3.237217e+002, 8.804975e+001
3.256501e+002, 8.896263e+001
3.275786e+002, 8.971889e+001
3.295071e+002, 8.967686e+001
3.314355e+002, 8.855801e+001
3.333640e+002, 8.733294e+001
3.352925e+002, 8.582896e+001
3.372209e+002, 8.448207e+001
3.391494e+002, 8.278457e+001
3.410779e+002, 8.192634e+001
3.430063e+002, 8.340605e+001
3.449348e+002, 8.632130e+001
3.468633e+002, 8.747755e+001
3.487917e+002, 8.605689e+001
3.507202e+002, 8.548513e+001
3.526487e+002, 8.645147e+001
3.545771e+002, 8.691938e+001
3.565056e+002, 8.587923e+001
3.584341e+002, 8.459386e+001
3.603625e+002, 8.381063e+001
3.622910e+002, 8.345869e+001
3.642195e+002, 8.348410e+001
3.661479e+002, 8.403030e+001
3.680764e+002, 8.404375e+001
3.700049e+002, 8.339522e+001
3.719333e+002, 8.257593e+001
3.738618e+002, 8.154789e+001
3.757903e+002, 8.060545e+001
3.777188e+002, 7.968204e+001
3.796472e+002, 7.905708e+001
3.815757e+002, 7.938077e+001
3.835042e+002, 8.065104e+001
3.854326e+002, 8.143275e+001
3.873611e+002, 8.174948e+001
3.892896e+002, 8.150669e+001
3.912180e+002, 8.028245e+001
3.931465e+002, 7.919727e+001
3.950750e+002, 7.884850e+001
3.970034e+002, 7.876727e+001
3.989319e+002, 7.844394e+001
4.008604e+002, 7.798286e+001
4.027888e+002, 7.792593e+001
4.047173e+002, 7.828378e+001
4.066458e+002, 7.838404e+001
4.085742e+002, 7.795151e+001
4.105027e+002, 7.773005e+001
4.124312e+002, 7.834483e+001
4.143596e+002, 7.882095e+001
4.162881e+002, 7.839140e+001
4.182166e+002, 7.755521e+001
4.201450e+002, 7.737402e+001
4.220735e+002, 7.765693e+001
4.240020e+002, 7.702672e+001
4.259304e+002, 7.514174e+001
4.278589e+002, 7.400264e+001
4.297874e+002, 7.475461e+001
4.317158e+002, 7.533462e+001
4.336443e+002, 7.499931e+001
4.355728e+002, 7.435726e+001
4.375012e+002, 7.382478e+001
4.394297e+002, 7.340760e+001
4.413582e+002, 7.298027e+001
4.432866e+002, 7.258595e+001
4.452151e+002, 7.294534e+001
4.471436e+002, 7.466518e+001
4.490720e+002, 7.562568e+001
4.510005e+002, 7.463706e+001
4.529290e+002, 7.394503e+001
4.548574e+002, 7.491685e+001
4.567859e+002, 7.614829e+001
4.587144e+002, 7.614309e+001
4.606428e+002, 7.536917e+001
4.625713e+002, 7.468056e+001
4.644998e+002, 7.409475e+001
4.664282e+002, 7.382748e+001
4.683567e+002, 7.427757e+001
4.702852e+002, 7.431817e+001
4.722136e+002, 7.312281e+001
4.741421e+002, 7.243351e+001
4.760706e+002, 7.369923e+001
4.779990e+002, 7.514291e+001
4.799275e+002, 7.484897e+001
4.818560e+002, 7.360275e+001
4.837844e+002, 7.300789e+001
4.857129e+002, 7.314006e+001
4.876414e+002, 7.327759e+001
4.895698e+002, 7.367735e+001
4.914983e+002, 7.359982e+001
4.934268e+002, 7.237908e+001
4.953552e+002, 7.157262e+001
4.972837e+002, 7.235559e+001
4.992122e+002, 7.310962e+001
5.011406e+002, 7.220006e+001
5.030691e+002, 7.067672e+001
5.049976e+002, 7.064809e+001
5.069260e+002, 7.209927e+001
5.088545e+002, 7.228107e+001
5.107830e+002, 7.017296e+001
5.127114e+002, 6.938692e+001
5.146399e+002, 7.084693e+001
5.165684e+002, 7.179641e+001
5.184968e+002, 7.117274e+001
5.204253e+002, 7.017974e+001
5.223538e+002, 6.917394e+001
5.242822e+002, 6.848902e+001
5.262107e+002, 6.885524e+001
5.281392e+002, 6.987514e+001
5.300676e+002, 6.974776e+001
5.319961e+002, 6.818435e+001
5.339246e+002, 6.791631e+001
5.358530e+002, 6.945153e+001
5.377815e+002, 7.018586e+001
5.397100e+002, 6.913757e+001
5.416384e+002, 6.823336e+001
5.435669e+002, 6.838639e+001
5.454954e+002, 6.891216e+001
5.474238e+002, 6.970949e+001
5.493523e+002, 7.043050e+001
5.512808e+002, 7.050146e+001
5.532092e+002, 7.001189e+001
5.551377e+002, 6.931316e+001
5.570662e+002, 6.838940e+001
5.589946e+002, 6.834331e+001
5.609231e+002, 6.961426e+001
5.628516e+002, 7.007564e+001
5.647800e+002, 6.845207e+001
5.667085e+002, 6.729597e+001
5.686370e+002, 6.794493e+001
5.705654e+002, 6.885561e+001
5.724939e+002, 6.916067e+001
5.744224e+002, 6.899908e+001
5.763508e+002, 6.825207e+001
5.782793e+002, 6.722638e+001
5.802078e+002, 6.722128e+001
5.821362e+002, 6.813776e+001
5.840647e+002, 6.843816e+001
5.859932e+002, 6.784780e+001
5.879216e+002, 6.733231e+001
5.898501e+002, 6.708914e+001
5.917786e+002, 6.695296e+001
5.937070e+002, 6.692513e+001
5.956355e+002, 6.693885e+001
5.975640e+002, 6.702876e+001
5.994924e+002, 6.708431e+001
6.014209e+002, 6.683386e+001
6.033494e+002, 6.653442e+001
6.052778e+002, 6.685305e+001
6.072063e+002, 6.759961e+001
6.091348e+002, 6.769560e+001
6.110632e+002, 6.696795e+001
6.129917e+002, 6.662479e+001
6.149202e+002, 6.699786e+001
6.168486e+002, 6.736437e+001
6.187771e+002, 6.782610e+001
6.207056e+002, 6.798649e+001
6.226340e+002, 6.739968e+001
6.245625e+002, 6.684135e+001
6.264910e+002, 6.694552e+001
6.284194e+002, 6.724148e+001
6.303479e+002, 6.707215e+001
6.322764e+002, 6.676785e+001
6.342048e+002, 6.715672e+001
6.361333e+002, 6.815762e+001
6.380618e+002, 6.859470e+001
6.399902e+002, 6.832008e+001
6.419187e+002, 6.791628e+001
6.438472e+002, 6.714232e+001
6.457756e+002, 6.668755e+001
6.477041e+002, 6.664034e+001
6.496326e+002, 6.684859e+001
6.515610e+002, 6.750782e+001
6.534895e+002, 6.809216e+001
6.554180e+002, 6.821194e+001
6.573464e+002, 6.820399e+001
6.592749e+002, 6.825467e+001
6.612034e+002, 6.843925e+001
6.631318e+002, 6.909703e+001
6.650603e+002, 7.003911e+001
6.669888e+002, 7.012659e+001
6.689172e+002, 6.923557e+001
6.708457e+002, 6.871025e+001
6.727742e+002, 6.856098e+001
6.747026e+002, 6.874956e+001
6.766311e+002, 6.949667e+001
6.785596e+002, 6.991314e+001
6.804880e+002, 6.981616e+001
6.824165e+002, 6.928719e+001
6.843450e+002, 6.786148e+001
6.862734e+002, 6.672390e+001
6.882019e+002, 6.662814e+001
6.901304e+002, 6.700732e+001
6.920588e+002, 6.761642e+001
6.939873e+002, 6.818602e+001
6.959158e+002, 6.807851e+001
6.978442e+002, 6.753463e+001
6.997727e+002, 6.755412e+001
7.017012e+002, 6.812599e+001
7.036296e+002, 6.862697e+001
7.055581e+002, 6.905952e+001
7.074866e+002, 6.933611e+001
7.094150e+002, 6.944335e+001
7.113435e+002, 6.941674e+001
7.132720e+002, 6.924743e+001
7.152004e+002, 6.898219e+001
7.171289e+002, 6.818540e+001
7.190574e+002, 6.797578e+001
7.209858e+002, 6.957552e+001
7.229143e+002, 7.090743e+001
7.248428e+002, 7.006280e+001
7.267712e+002, 6.884679e+001
7.286997e+002, 6.959260e+001
7.306282e+002, 7.098908e+001
7.325566e+002, 7.043587e+001
7.344851e+002, 6.872270e+001
7.364136e+002, 6.820993e+001
7.383420e+002, 6.871555e+001
7.402705e+002, 6.933894e+001
7.421990e+002, 7.003056e+001
7.441274e+002, 7.059874e+001
7.460559e+002, 7.103366e+001
7.479844e+002, 7.129093e+001
7.499128e+002, 7.142074e+001
7.518413e+002, 7.124584e+001
7.537698e+002, 7.024593e+001
7.556982e+002, 6.973675e+001
7.576267e+002, 7.035139e+001
7.595552e+002, 7.110094e+001
7.614836e+002, 7.154935e+001
7.634121e+002, 7.197270e+001
7.653406e+002, 7.297237e+001
7.672690e+002, 7.364507e+001
7.691975e+002, 7.250558e+001
7.711260e+002, 7.089027e+001
7.730544e+002, 7.067041e+001
7.749829e+002, 7.131919e+001
7.769114e+002, 7.158988e+001
7.788398e+002, 7.163911e+001
7.807683e+002, 7.263714e+001
7.826968e+002, 7.466984e+001
7.846252e+002, 7.537220e+001
7.865537e+002, 7.425039e+001
7.884822e+002, 7.352812e+001
7.904106e+002, 7.354356e+001
7.923391e+002, 7.331264e+001
7.942676e+002, 7.233366e+001
7.961960e+002, 7.217394e+001
7.981245e+002, 7.368322e+001
8.000530e+002, 7.475466e+001
8.019814e+002, 7.477555e+001
8.039099e+002, 7.432000e+001
8.058384e+002, 7.292498e+001
8.077668e+002, 7.220975e+001
8.096953e+002, 7.388036e+001
8.116238e+002, 7.563730e+001
8.135522e+002, 7.569106e+001
8.154807e+002, 7.520727e+001
8.174092e+002, 7.531202e+001
8.193376e+002, 7.557967e+001
8.212661e+002, 7.532301e+001
8.231946e+002, 7.479780e+001
8.251230e+002, 7.446713e+001
8.270515e+002, 7.438316e+001
8.289800e+002, 7.512036e+001
8.309084e+002, 7.647227e+001
8.328369e+002, 7.579458e+001
8.347654e+002, 7.300060e+001
8.366938e+002, 7.261700e+001
8.386223e+002, 7.482174e+001
8.405508e+002, 7.586528e+001
8.424792e+002, 7.535655e+001
8.444077e+002, 7.538184e+001
8.463362e+002, 7.636568e+001
8.482646e+002, 7.687558e+001
8.501931e+002, 7.657632e+001
8.521216e+002, 7.603624e+001
8.540500e+002, 7.547905e+001
8.559785e+002, 7.444521e+001
8.579070e+002, 7.162588e+001
8.598354e+002, 7.036079e+001
8.617639e+002, 7.367105e+001
8.636924e+002, 7.593293e+001
8.656208e+002, 7.327869e+001
8.675493e+002, 7.100729e+001
8.694778e+002, 7.306220e+001
8.714063e+002, 7.548012e+001
8.733347e+002, 7.537605e+001
8.752632e+002, 7.417686e+001
8.771917e+002, 7.265538e+001
8.791201e+002, 7.133411e+001
8.810486e+002, 7.082187e+001
8.829771e+002, 7.092505e+001
8.849055e+002, 7.172269e+001
8.868340e+002, 7.271450e+001
8.887625e+002, 7.327074e+001
8.906909e+002, 7.316163e+001
8.926194e+002, 7.127232e+001
8.945479e+002, 6.843677e+001
8.964763e+002, 6.723075e+001
8.984048e+002, 6.734979e+001
9.003333e+002, 6.724039e+001
9.022617e+002, 6.688506e+001
9.041902e+002, 6.654873e+001
9.061187e+002, 6.624277e+001
9.080471e+002, 6.611199e+001
9.099756e+002, 6.625323e+001
9.119041e+002, 6.551113e+001
9.138325e+002, 6.339320e+001
9.157610e+002, 6.238054e+001
9.176895e+002, 6.290385e+001
9.196179e+002, 6.356020e+001
9.215464e+002, 6.498945e+001
9.234749e+002, 6.518391e+001
9.254033e+002, 6.307167e+001
9.273318e+002, 6.189245e+001
9.292603e+002, 6.223236e+001
9.311887e+002, 6.268121e+001
9.331172e+002, 6.308965e+001
9.350457e+002, 6.356109e+001
9.369741e+002, 6.430934e+001
9.389026e+002, 6.464946e+001
9.408311e+002, 6.417300e+001
9.427595e+002, 6.382064e+001
9.446880e+002, 6.405479e+001
9.466165e+002, 6.406951e+001
9.485449e+002, 6.341494e+001
9.504734e+002, 6.282117e+001
9.524019e+002, 6.267609e+001
9.543303e+002, 6.248804e+001
9.562588e+002, 6.180275e+001
9.581873e+002, 6.142147e+001
9.601157e+002, 6.208441e+001
9.620442e+002, 6.264294e+001
9.639727e+002, 6.208910e+001
9.659011e+002, 6.178172e+001
9.678296e+002, 6.292185e+001
9.697581e+002, 6.393690e+001
9.716865e+002, 6.403238e+001
9.736150e+002, 6.344419e+001
9.755435e+002, 6.143349e+001
9.774719e+002, 5.990747e+001
9.794004e+002, 6.062840e+001
9.813289e+002, 6.210194e+001
9.832573e+002, 6.388666e+001
9.851858e+002, 6.492092e+001
9.871143e+002, 6.331781e+001
9.890427e+002, 6.151213e+001
9.909712e+002, 6.217717e+001
9.928997e+002, 6.358202e+001
9.948281e+002, 6.417271e+001
9.967566e+002, 6.422826e+001
9.986851e+002, 6.376284e+001
1.000614e+003, 6.323007e+001
1.002542e+003, 6.327827e+001
1.004470e+003, 6.345640e+001
1.006399e+003, 6.314000e+001
1.008327e+003, 6.269714e+001
1.010256e+003, 6.265141e+001
1.012184e+003, 6.270837e+001
1.014113e+003, 6.225193e+001
1.016041e+003, 6.187784e+001
1.017970e+003, 6.289834e+001
1.019898e+003, 6.402488e+001
1.021827e+003, 6.303378e+001
1.023755e+003, 6.150793e+001
1.025684e+003, 6.161673e+001
1.027612e+003, 6.249397e+001
1.029541e+003, 6.300296e+001
1.031469e+003, 6.352035e+001
1.033397e+003, 6.490436e+001
1.035326e+003, 6.629414e+001
1.037254e+003, 6.653404e+001
1.039183e+003, 6.609057e+001
1.041111e+003, 6.507202e+001
1.043040e+003, 6.419724e+001
1.044968e+003, 6.467337e+001
1.046897e+003, 6.555862e+001
1.048825e+003, 6.553484e+001
1.050754e+003, 6.535544e+001
1.052682e+003, 6.615115e+001
1.054611e+003, 6.714421e+001
1.056539e+003, 6.762659e+001
1.058468e+003, 6.753479e+001
1.060396e+003, 6.606837e+001
1.062324e+003, 6.471534e+001
1.064253e+003, 6.568149e+001
1.066181e+003, 6.713258e+001
1.068110e+003, 6.721675e+001
1.070038e+003, 6.658628e+001
1.071967e+003, 6.539499e+001
1.073895e+003, 6.440676e+001
1.075824e+003, 6.436560e+001
1.077752e+003, 6.489304e+001
1.079681e+003, 6.601359e+001
1.081609e+003, 6.710345e+001
1.083538e+003, 6.747475e+001
1.085466e+003, 6.776221e+001
1.087395e+003, 6.863706e+001
1.089323e+003, 6.942229e+001
1.091251e+003, 6.951210e+001
1.093180e+003, 6.946488e+001
1.095108e+003, 6.986070e+001
1.097037e+003, 6.997335e+001
1.098965e+003, 6.861752e+001
1.100894e+003, 6.788132e+001
1.102822e+003, 6.991389e+001
1.104751e+003, 7.145592e+001
1.106679e+003, 6.989935e+001
1.108608e+003, 6.895956e+001
1.110536e+003, 7.099522e+001
1.112465e+003, 7.282999e+001
1.114393e+003, 7.281452e+001
1.116322e+003, 7.312354e+001
1.118250e+003, 7.474673e+001
1.120178e+003, 7.627409e+001
1.122107e+003, 7.790871e+001
1.124035e+003, 7.817443e+001
1.125964e+003, 7.561031e+001
1.127892e+003, 7.407900e+001
1.129821e+003, 7.474735e+001
1.131749e+003, 7.561263e+001
1.133678e+003, 7.626394e+001
1.135606e+003, 7.727927e+001
1.137535e+003, 7.888051e+001
1.139463e+003, 8.042688e+001
1.141392e+003, 8.198139e+001
1.143320e+003, 8.282796e+001
1.145249e+003, 8.277581e+001
1.147177e+003, 8.273828e+001
1.149105e+003, 8.283277e+001
1.151034e+003, 8.241758e+001
1.152962e+003, 8.137054e+001
1.154891e+003, 8.138941e+001
1.156819e+003, 8.254211e+001
1.158748e+003, 8.396529e+001
1.160676e+003, 8.556889e+001
1.162605e+003, 8.643376e+001
1.164533e+003, 8.665905e+001
1.166462e+003, 8.734141e+001
1.168390e+003, 8.812939e+001
1.170319e+003, 8.679940e+001
1.172247e+003, 8.447114e+001
1.174176e+003, 8.485257e+001
1.176104e+003, 8.673402e+001
1.178032e+003, 8.800776e+001
1.179961e+003, 8.849429e+001
1.181889e+003, 8.728016e+001
1.183818e+003, 8.572501e+001
1.185746e+003, 8.568021e+001
1.187675e+003, 8.598246e+001
1.189603e+003, 8.524308e+001
1.191532e+003, 8.472792e+001
1.193460e+003, 8.556547e+001
1.195389e+003, 8.664041e+001
1.197317e+003, 8.748035e+001
1.199246e+003, 8.798962e+001
1.201174e+003, 8.802978e+001
1.203103e+003, 8.792984e+001
1.205031e+003, 8.782809e+001
1.206959e+003, 8.756831e+001
1.208888e+003, 8.701888e+001
1.210816e+003, 8.660347e+001
1.212745e+003, 8.639828e+001
1.214673e+003, 8.651543e+001
1.216602e+003, 8.703292e+001
1.218530e+003, 8.735924e+001
1.220459e+003, 8.737704e+001
1.222387e+003, 8.807615e+001
1.224316e+003, 8.951265e+001
1.226244e+003, 8.982839e+001
1.228173e+003, 8.907227e+001
1.230101e+003, 8.875932e+001
1.232030e+003, 8.894568e+001
1.233958e+003, 9.007968e+001
1.235886e+003, 9.162061e+001
1.237815e+003, 9.179732e+001
1.239743e+003, 9.131400e+001
1.241672e+003, 9.157597e+001
1.243600e+003, 9.205307e+001
1.245529e+003, 9.147381e+001
1.247457e+003, 9.136047e+001
1.249386e+003, 9.403716e+001
1.251314e+003, 9.677978e+001
1.253243e+003, 9.754745e+001
1.255171e+003, 9.773763e+001
1.257100e+003, 9.718361e+001
1.259028e+003, 9.774367e+001
1.260957e+003, 1.010171e+002
1.262885e+003, 1.037794e+002
1.264813e+003, 1.051963e+002
1.266742e+003, 1.063634e+002
1.268670e+003, 1.071249e+002
1.270599e+003, 1.084078e+002
1.272527e+003, 1.101149e+002
1.274456e+003, 1.139274e+002
1.276384e+003, 1.198963e+002
1.278313e+003, 1.238089e+002
1.280241e+003, 1.262076e+002
1.282170e+003, 1.312647e+002
1.284098e+003, 1.383896e+002
1.286027e+003, 1.454905e+002
1.287955e+003, 1.533260e+002
1.289884e+003, 1.623293e+002
1.291812e+003, 1.739219e+002
1.293740e+003, 1.873245e+002
1.295669e+003, 2.068508e+002
1.297597e+003, 2.275712e+002
1.299526e+003, 2.677336e+002
1.301454e+003, 3.032745e+002
1.303383e+003, 4.310387e+002
1.305311e+003, 6.590444e+002
1.307240e+003, 1.078985e+003
1.309168e+003, 1.786637e+003
1.311097e+003, 2.408453e+003
1.313025e+003, 2.898987e+003
1.314954e+003, 3.248947e+003
1.316882e+003, 3.437414e+003
1.318811e+003, 3.781217e+003
1.320739e+003, 4.351772e+003
1.322667e+003, 5.473167e+003
1.324596e+003, 7.407617e+003
1.326524e+003, 1.105359e+004
1.328453e+003, 1.591345e+004
1.330381e+003, 2.205535e+004
1.332310e+003, 2.787196e+004
1.334238e+003, 3.314209e+004
1.336167e+003, 3.543442e+004
1.338095e+003, 3.229198e+004
1.340024e+003, 2.726567e+004
1.341952e+003, 2.044639e+004
1.343881e+003, 1.488291e+004
1.345809e+003, 1.136110e+004
1.347738e+003, 8.656021e+003
1.349666e+003, 6.611845e+003
1.351594e+003, 4.886660e+003
1.353523e+003, 3.453853e+003
1.355451e+003, 2.374679e+003
1.357380e+003, 1.623109e+003
1.359308e+003, 1.126527e+003
1.361237e+003, 8.186281e+002
1.363165e+003, 6.156129e+002
1.365094e+003, 4.823385e+002
1.367022e+003, 3.947762e+002
1.368951e+003, 3.331457e+002
1.370879e+003, 2.930628e+002
1.372808e+003, 2.579786e+002
1.374736e+003, 2.198178e+002
1.376665e+003, 1.875596e+002
1.378593e+003, 1.627283e+002
1.380521e+003, 1.441067e+002
1.382450e+003, 1.318938e+002
1.384378e+003, 1.243203e+002
1.386307e+003, 1.208259e+002
1.388235e+003, 1.155398e+002
1.390164e+003, 1.094290e+002
1.392092e+003, 1.064380e+002
1.394021e+003, 1.045528e+002
1.395949e+003, 1.007534e+002
1.397878e+003, 9.651531e+001
1.399806e+003, 9.238659e+001
1.401735e+003, 8.945087e+001
1.403663e+003, 8.898839e+001
1.405592e+003, 8.832221e+001
1.407520e+003, 8.639428e+001
1.409448e+003, 8.510587e+001
1.411377e+003, 8.523880e+001
1.413305e+003, 8.347240e+001
1.415234e+003, 7.987103e+001
1.417162e+003, 7.798244e+001
1.419091e+003, 7.740340e+001
1.421019e+003, 7.705324e+001
1.422948e+003, 7.674643e+001
1.424876e+003, 7.641656e+001
1.426805e+003, 7.567294e+001
1.428733e+003, 7.372910e+001
1.430662e+003, 7.238992e+001
1.432590e+003, 7.275403e+001
1.434519e+003, 7.246950e+001
1.436447e+003, 7.073716e+001
1.438375e+003, 7.025224e+001
1.440304e+003, 7.135475e+001
1.442232e+003, 7.080192e+001
1.444161e+003, 6.902551e+001
1.446089e+003, 6.845059e+001
1.448018e+003, 6.877586e+001
1.449946e+003, 7.018080e+001
1.451875e+003, 7.115738e+001
1.453803e+003, 6.988481e+001
1.455732e+003, 6.809843e+001
1.457660e+003, 6.594575e+001
1.459589e+003, 6.517614e+001
1.461517e+003, 6.652508e+001
1.463446e+003, 6.705019e+001
1.465374e+003, 6.645003e+001
1.467302e+003, 6.603091e+001
1.469231e+003, 6.588547e+001
1.471159e+003, 6.634482e+001
1.473088e+003, 6.677408e+001
1.475016e+003, 6.605405e+001
1.476945e+003, 6.476827e+001
1.478873e+003, 6.285699e+001
1.480802e+003, 6.156625e+001
1.482730e+003, 6.145158e+001
1.484659e+003, 6.228053e+001
1.486587e+003, 6.452750e+001
1.488516e+003, 6.527778e+001
1.490444e+003, 6.445492e+001
1.492373e+003, 6.397393e+001
1.494301e+003, 6.373609e+001
1.496229e+003, 6.333201e+001
1.498158e+003, 6.278745e+001
1.500086e+003, 6.208160e+001
1.502015e+003, 6.134544e+001
1.503943e+003, 6.018633e+001
1.505872e+003, 5.995433e+001
1.507800e+003, 6.186433e+001
1.509729e+003, 6.279327e+001
1.511657e+003, 6.248500e+001
1.513586e+003, 6.132601e+001
1.515514e+003, 5.975037e+001
1.517443e+003, 6.079884e+001
1.519371e+003, 6.270145e+001
1.521300e+003, 6.271535e+001
1.523228e+003, 6.184788e+001
1.525156e+003, 5.998551e+001
1.527085e+003, 5.948464e+001
1.529013e+003, 6.183561e+001
1.530942e+003, 6.265580e+001
1.532870e+003, 6.104197e+001
1.534799e+003, 6.044038e+001
1.536727e+003, 6.070236e+001
1.538656e+003, 6.065084e+001
1.540584e+003, 6.063626e+001
1.542513e+003, 6.177035e+001
1.544441e+003, 6.238824e+001
1.546370e+003, 6.078572e+001
1.548298e+003, 5.974532e+001
1.550227e+003, 6.010758e+001
1.552155e+003, 6.090621e+001
1.554083e+003, 6.194574e+001
1.556012e+003, 6.068921e+001
1.557940e+003, 5.821083e+001
1.559869e+003, 5.863846e+001
1.561797e+003, 6.020836e+001
1.563726e+003, 6.102703e+001
1.565654e+003, 6.130399e+001
1.567583e+003, 6.125926e+001
1.569511e+003, 6.030631e+001
1.571440e+003, 5.809995e+001
1.573368e+003, 5.714425e+001
1.575297e+003, 5.745939e+001
1.577225e+003, 5.768791e+001
1.579154e+003, 5.784418e+001
1.581082e+003, 5.828009e+001
1.583010e+003, 5.840953e+001
1.584939e+003, 5.714898e+001
1.586867e+003, 5.643438e+001
1.588796e+003, 5.743392e+001
1.590724e+003, 5.810051e+001
1.592653e+003, 5.830056e+001
1.594581e+003, 5.854934e+001
1.596510e+003, 5.861980e+001
1.598438e+003, 5.717731e+001
1.600367e+003, 5.572281e+001
1.602295e+003, 5.638951e+001
1.604224e+003, 5.679565e+001
1.606152e+003, 5.497348e+001
1.608081e+003, 5.433104e+001
1.610009e+003, 5.564256e+001
1.611938e+003, 5.718147e+001
1.613866e+003, 5.870331e+001
1.615794e+003, 5.856207e+001
1.617723e+003, 5.750605e+001
1.619651e+003, 5.594639e+001
1.621580e+003, 5.511161e+001
1.623508e+003, 5.601674e+001
1.625437e+003, 5.665017e+001
1.627365e+003, 5.655583e+001
1.629294e+003, 5.594553e+001
1.631222e+003, 5.501643e+001
1.633151e+003, 5.513673e+001
1.635079e+003, 5.551665e+001
1.637008e+003, 5.449613e+001
1.638936e+003, 5.409584e+001
1.640865e+003, 5.575527e+001
1.642793e+003, 5.639870e+001
1.644721e+003, 5.528311e+001
1.646650e+003, 5.478467e+001
1.648578e+003, 5.492389e+001
1.650507e+003, 5.517597e+001
1.652435e+003, 5.544619e+001
1.654364e+003, 5.570129e+001
1.656292e+003, 5.573313e+001
1.658221e+003, 5.540753e+001
1.660149e+003, 5.503657e+001
1.662078e+003, 5.466371e+001
1.664006e+003, 5.398203e+001
1.665935e+003, 5.323714e+001
1.667863e+003, 5.346964e+001
1.669792e+003, 5.378370e+001
1.671720e+003, 5.273988e+001
1.673648e+003, 5.241886e+001
1.675577e+003, 5.402541e+001
1.677505e+003, 5.436808e+001
1.679434e+003, 5.334947e+001
1.681362e+003, 5.367286e+001
1.683291e+003, 5.457084e+001
1.685219e+003, 5.416993e+001
1.687148e+003, 5.371284e+001
1.689076e+003, 5.460642e+001
1.691005e+003, 5.464461e+001
1.692933e+003, 5.295591e+001
1.694862e+003, 5.258138e+001
1.696790e+003, 5.326587e+001
1.698719e+003, 5.284052e+001
1.700647e+003, 5.244699e+001
1.702575e+003, 5.430462e+001
1.704504e+003, 5.513253e+001
1.706432e+003, 5.204105e+001
1.708361e+003, 5.122951e+001
1.710289e+003, 5.329958e+001
1.712218e+003, 5.443339e+001
1.714146e+003, 5.471625e+001
1.716075e+003, 5.381934e+001
1.718003e+003, 5.295851e+001
1.719932e+003, 5.287761e+001
1.721860e+003, 5.313465e+001
1.723789e+003, 5.378299e+001
1.725717e+003, 5.346202e+001
1.727646e+003, 5.245408e+001
1.729574e+003, 5.177770e+001
1.731502e+003, 5.162036e+001
1.733431e+003, 5.255846e+001
1.735359e+003, 5.305968e+001
1.737288e+003, 5.258218e+001
1.739216e+003, 5.202706e+001
1.741145e+003, 5.160906e+001
1.743073e+003, 5.261147e+001
1.745002e+003, 5.372752e+001
1.746930e+003, 5.266786e+001
1.748859e+003, 5.177385e+001
1.750787e+003, 5.202104e+001
1.752716e+003, 5.187350e+001
1.754644e+003, 5.127557e+001
1.756573e+003, 5.186988e+001
1.758501e+003, 5.300042e+001
1.760429e+003, 5.389214e+001
1.762358e+003, 5.409389e+001
1.764286e+003, 5.300981e+001
1.766215e+003, 5.239516e+001
1.768143e+003, 5.240557e+001
1.770072e+003, 5.210013e+001
1.772000e+003, 5.191249e+001
1.773929e+003, 5.326801e+001
1.775857e+003, 5.420678e+001
1.777786e+003, 5.319818e+001
1.779714e+003, 5.190016e+001
1.781643e+003, 5.050938e+001
1.783571e+003, 5.115491e+001
1.785500e+003, 5.261757e+001
1.787428e+003, 5.243251e+001
1.789356e+003, 5.184235e+001
1.791285e+003, 5.085888e+001
1.793213e+003, 5.185595e+001
1.795142e+003, 5.526819e+001
1.797070e+003, 5.534489e+001
1.798999e+003, 5.359669e+001
1.800927e+003, 5.255839e+001
1.802856e+003, 5.242922e+001
1.804784e+003, 5.401643e+001
1.806713e+003, 5.446655e+001
1.808641e+003, 5.342482e+001
1.810570e+003, 5.350427e+001
1.812498e+003, 5.408778e+001
1.814427e+003, 5.440613e+001
1.816355e+003, 5.398602e+001
1.818283e+003, 5.225679e+001
1.820212e+003, 5.130438e+001
1.822140e+003, 5.134441e+001
1.824069e+003, 5.213050e+001
1.825997e+003, 5.287005e+001
1.827926e+003, 5.193962e+001
1.829854e+003, 5.145683e+001
1.831783e+003, 5.228123e+001
1.833711e+003, 5.197160e+001
1.835640e+003, 5.070529e+001
1.837568e+003, 5.078024e+001
1.839497e+003, 5.144193e+001
1.841425e+003, 5.223293e+001
1.843354e+003, 5.247984e+001
1.845282e+003, 5.199976e+001
1.847210e+003, 5.210029e+001
1.849139e+003, 5.248185e+001
1.851067e+003, 5.179886e+001
1.852996e+003, 5.116070e+001
1.854924e+003, 5.134557e+001
1.856853e+003, 5.223076e+001
1.858781e+003, 5.368853e+001
1.860710e+003, 5.314355e+001
1.862638e+003, 5.198339e+001
1.864567e+003, 5.300184e+001
1.866495e+003, 5.376163e+001
1.868424e+003, 5.288325e+001
1.870352e+003, 5.257077e+001
1.872281e+003, 5.275489e+001
1.874209e+003, 5.223252e+001
1.876137e+003, 5.148888e+001
1.878066e+003, 5.093748e+001
1.879994e+003, 5.046886e+001
1.881923e+003, 5.003438e+001
1.883851e+003, 5.004933e+001
1.885780e+003, 5.008464e+001
1.887708e+003, 4.844795e+001
1.889637e+003, 4.763084e+001
1.891565e+003, 5.032740e+001
1.893494e+003, 5.046083e+001
1.895422e+003, 4.792960e+001
1.897351e+003, 4.689075e+001
1.899279e+003, 4.667805e+001
1.901208e+003, 4.661915e+001
1.903136e+003, 4.692986e+001
1.905064e+003, 4.787204e+001
1.906993e+003, 4.758471e+001
1.908921e+003, 4.659456e+001
1.910850e+003, 4.595323e+001
1.912778e+003, 4.606701e+001
1.914707e+003, 4.743641e+001
1.916635e+003, 4.787480e+001
1.918564e+003, 4.721446e+001
1.920492e+003, 4.583575e+001
1.922421e+003, 4.457865e+001
1.924349e+003, 4.447482e+001
1.926278e+003, 4.389437e+001
1.928206e+003, 4.254443e+001
1.930135e+003, 4.362734e+001
1.932063e+003, 4.547984e+001
1.933991e+003, 4.456647e+001
1.935920e+003, 4.393013e+001
1.937848e+003, 4.465340e+001
1.939777e+003, 4.571641e+001
1.941705e+003, 4.656098e+001
1.943634e+003, 4.548457e+001
1.945562e+003, 4.415538e+001
1.947491e+003, 4.366124e+001
1.949419e+003, 4.357068e+001
1.951348e+003, 4.377554e+001
1.953276e+003, 4.393999e+001
1.955205e+003, 4.395057e+001
1.957133e+003, 4.377235e+001
1.959062e+003, 4.298887e+001
1.960990e+003, 4.154030e+001
1.962918e+003, 4.236980e+001
1.964847e+003, 4.416380e+001
1.966775e+003, 4.506018e+001
1.968704e+003, 4.541562e+001
1.970632e+003, 4.526820e+001
1.972561e+003, 4.510825e+001
1.974489e+003, 4.483517e+001
1.976418e+003, 4.407757e+001
1.978346e+003, 4.326027e+001
1.980275e+003, 4.219594e+001
1.982203e+003, 4.280434e+001
1.984132e+003, 4.453687e+001
1.986060e+003, 4.409853e+001
1.987989e+003, 4.421361e+001
1.989917e+003, 4.744025e+001
1.991845e+003, 4.789025e+001
1.993774e+003, 4.553954e+001
1.995702e+003, 4.500034e+001
1.997631e+003, 4.526730e+001
1.999559e+003, 4.581768e+001
2.001488e+003, 4.537815e+001
2.003416e+003, 4.386883e+001
2.005345e+003, 4.433026e+001
2.007273e+003, 4.537304e+001
2.009202e+003, 4.557888e+001
2.011130e+003, 4.566486e+001
2.013059e+003, 4.571067e+001
2.014987e+003, 4.432687e+001
2.016916e+003, 4.270277e+001
2.018844e+003, 4.224225e+001
2.020772e+003, 4.310487e+001
2.022701e+003, 4.520761e+001
2.024629e+003, 4.430610e+001
2.026558e+003, 4.260008e+001
2.028486e+003, 4.407582e+001
2.030415e+003, 4.461811e+001
2.032343e+003, 4.330027e+001
2.034272e+003, 4.200202e+001
2.036200e+003, 4.101308e+001
2.038129e+003, 4.032493e+001
2.040057e+003, 4.083071e+001
2.041986e+003, 4.274535e+001
2.043914e+003, 4.446568e+001
2.045843e+003, 4.500182e+001
2.047771e+003, 4.200454e+001
2.049699e+003, 3.965438e+001
2.051628e+003, 3.915527e+001
2.053556e+003, 4.003448e+001
2.055485e+003, 4.117109e+001
2.057413e+003, 4.068845e+001
2.059342e+003, 4.028569e+001
2.061270e+003, 4.059406e+001
2.063199e+003, 4.009628e+001
2.065127e+003, 3.943400e+001
2.067056e+003, 3.949940e+001
2.068984e+003, 4.002600e+001
2.070913e+003, 4.114818e+001
2.072841e+003, 3.993793e+001
2.074770e+003, 3.812157e+001
2.076698e+003, 3.793643e+001
2.078626e+003, 3.838015e+001
2.080555e+003, 3.924420e+001
2.082483e+003, 3.927429e+001
2.084412e+003, 3.878457e+001
2.086340e+003, 3.794893e+001
2.088269e+003, 3.746775e+001
2.090197e+003, 3.752840e+001
2.092126e+003, 3.838019e+001
2.094054e+003, 3.918264e+001
2.095983e+003, 3.906126e+001
2.097911e+003, 3.887130e+001
2.099840e+003, 3.872052e+001
2.101768e+003, 3.793938e+001
2.103697e+003, 3.787208e+001
2.105625e+003, 4.039122e+001
2.107553e+003, 3.909121e+001
2.109482e+003, 3.500942e+001
2.111410e+003, 3.651432e+001
2.113339e+003, 3.871450e+001
2.115267e+003, 3.872325e+001
2.117196e+003, 3.866156e+001
2.119124e+003, 3.859672e+001
2.121053e+003, 3.786728e+001
2.122981e+003, 3.785077e+001
2.124910e+003, 3.933238e+001
2.126838e+003, 3.888953e+001
2.128767e+003, 3.804630e+001
2.130695e+003, 4.084072e+001
2.132624e+003, 4.145561e+001
2.134552e+003, 3.824239e+001
2.136480e+003, 3.812055e+001
2.138409e+003, 3.928192e+001
2.140337e+003, 3.943620e+001
2.142266e+003, 3.992637e+001
2.144194e+003, 4.091675e+001
2.146123e+003, 4.221278e+001
2.148051e+003, 4.300317e+001
2.149980e+003, 4.213435e+001
2.151908e+003, 4.284956e+001
2.153837e+003, 4.478776e+001
2.155765e+003, 4.560827e+001
2.157694e+003, 4.609872e+001
2.159622e+003, 4.670652e+001
2.161551e+003, 4.550693e+001
2.163479e+003, 4.405185e+001
2.165407e+003, 4.559821e+001
2.167336e+003, 4.778804e+001
2.169264e+003, 5.000705e+001
2.171193e+003, 5.096751e+001
2.173121e+003, 5.190243e+001
2.175050e+003, 5.434882e+001
2.176978e+003, 5.547332e+001
2.178907e+003, 5.526435e+001
2.180835e+003, 5.599855e+001
2.182764e+003, 5.695351e+001
2.184692e+003, 5.790758e+001
2.186621e+003, 5.683974e+001
2.188549e+003, 5.487142e+001
2.190478e+003, 5.449703e+001
2.192406e+003, 5.407555e+001
2.194334e+003, 5.330672e+001
2.196263e+003, 5.460217e+001
2.198191e+003, 5.618998e+001
2.200120e+003, 5.659215e+001
2.202048e+003, 5.492659e+001
2.203977e+003, 5.213654e+001
2.205905e+003, 5.163198e+001
2.207834e+003, 5.248935e+001
2.209762e+003, 5.472075e+001
2.211691e+003, 5.391657e+001
2.213619e+003, 5.224750e+001
2.215548e+003, 5.379757e+001
2.217476e+003, 5.388015e+001
2.219405e+003, 5.204504e+001
2.221333e+003, 5.345279e+001
2.223261e+003, 5.531026e+001
2.225190e+003, 5.540324e+001
2.227118e+003, 5.644643e+001
2.229047e+003, 5.801066e+001
2.230975e+003, 5.886206e+001
2.232904e+003, 5.945882e+001
2.234832e+003, 5.992895e+001
2.236761e+003, 5.956706e+001
2.238689e+003, 5.917750e+001
2.240618e+003, 5.945419e+001
2.242546e+003, 5.924197e+001
2.244475e+003, 5.924354e+001
2.246403e+003, 6.329560e+001
2.248332e+003, 6.592879e+001
2.250260e+003, 6.537547e+001
2.252188e+003, 6.632519e+001
2.254117e+003, 6.805308e+001
2.256045e+003, 7.003491e+001
2.257974e+003, 7.046233e+001
2.259902e+003, 6.965144e+001
2.261831e+003, 6.946011e+001
2.263759e+003, 6.881150e+001
2.265688e+003, 6.745951e+001
2.267616e+003, 7.042850e+001
2.269545e+003, 7.394152e+001
2.271473e+003, 7.361345e+001
2.273402e+003, 7.253758e+001
2.275330e+003, 7.169908e+001
2.277259e+003, 7.322243e+001
2.279187e+003, 7.487363e+001
2.281115e+003, 7.592040e+001
2.283044e+003, 7.656229e+001
2.284972e+003, 7.705855e+001
2.286901e+003, 7.750584e+001
2.288829e+003, 7.846517e+001
2.290758e+003, 7.954322e+001
2.292686e+003, 7.983353e+001
2.294615e+003, 7.939661e+001
2.296543e+003, 7.828893e+001
2.298472e+003, 7.797974e+001
2.300400e+003, 7.907643e+001
2.302329e+003, 8.329504e+001
2.304257e+003, 8.345425e+001
2.306186e+003, 8.194828e+001
2.308114e+003, 8.423326e+001
2.310042e+003, 8.528100e+001
2.311971e+003, 8.437786e+001
2.313899e+003, 8.501369e+001
2.315828e+003, 8.638912e+001
2.317756e+003, 8.817901e+001
2.319685e+003, 8.981833e+001
2.321613e+003, 9.077432e+001
2.323542e+003, 9.041288e+001
2.325470e+003, 8.894027e+001
2.327399e+003, 8.765674e+001
2.329327e+003, 9.190842e+001
2.331256e+003, 9.520000e+001
2.333184e+003, 9.570435e+001
2.335113e+003, 9.709350e+001
2.337041e+003, 9.733057e+001
2.338969e+003, 9.464556e+001
2.340898e+003, 9.419351e+001
2.342826e+003, 9.506563e+001
2.344755e+003, 9.559157e+001
2.346683e+003, 9.444630e+001
2.348612e+003, 9.237084e+001
2.350540e+003, 9.409368e+001
2.352469e+003, 9.370856e+001
2.354397e+003, 8.939417e+001
2.356326e+003, 8.993855e+001
2.358254e+003, 9.198206e+001
2.360183e+003, 9.289732e+001
2.362111e+003, 9.276846e+001
2.364040e+003, 9.215263e+001
2.365968e+003, 9.231944e+001
2.367896e+003, 9.100281e+001
2.369825e+003, 8.870227e+001
2.371753e+003, 8.920052e+001
2.373682e+003, 9.025158e+001
2.375610e+003, 9.105907e+001
2.377539e+003, 9.154282e+001
2.379467e+003, 9.246258e+001
2.381396e+003, 9.486364e+001
2.383324e+003, 9.436021e+001
2.385253e+003, 9.323909e+001
2.387181e+003, 9.520198e+001
2.389110e+003, 9.559855e+001
2.391038e+003, 9.451440e+001
2.392967e+003, 9.366468e+001
2.394895e+003, 9.429516e+001
2.396823e+003, 9.652235e+001
2.398752e+003, 9.699641e+001
2.400680e+003, 9.797243e+001
2.402609e+003, 1.004819e+002
2.404537e+003, 1.021692e+002
2.406466e+003, 1.024136e+002
2.408394e+003, 1.004300e+002
2.410323e+003, 1.012340e+002
2.412251e+003, 1.029401e+002
2.414180e+003, 1.012026e+002
2.416108e+003, 9.944431e+001
2.418037e+003, 9.879548e+001
2.419965e+003, 1.019785e+002
2.421894e+003, 1.036918e+002
2.423822e+003, 1.031829e+002
2.425750e+003, 1.047698e+002
2.427679e+003, 1.063605e+002
2.429607e+003, 1.069662e+002
2.431536e+003, 1.076482e+002
2.433464e+003, 1.085310e+002
2.435393e+003, 1.100539e+002
2.437321e+003, 1.096970e+002
2.439250e+003, 1.091058e+002
2.441178e+003, 1.103940e+002
2.443107e+003, 1.128505e+002
2.445035e+003, 1.160183e+002
2.446964e+003, 1.200570e+002
2.448892e+003, 1.209735e+002
2.450821e+003, 1.196918e+002
2.452749e+003, 1.233189e+002
2.454677e+003, 1.271725e+002
2.456606e+003, 1.298506e+002
2.458534e+003, 1.313212e+002
2.460463e+003, 1.338207e+002
2.462391e+003, 1.386073e+002
2.464320e+003, 1.376642e+002
2.466248e+003, 1.362023e+002
2.468177e+003, 1.379363e+002
2.470105e+003, 1.349173e+002
2.472034e+003, 1.312757e+002
2.473962e+003, 1.316744e+002
2.475891e+003, 1.308824e+002
2.477819e+003, 1.288812e+002
2.479748e+003, 1.260559e+002
2.481676e+003, 1.238541e+002
2.483604e+003, 1.223070e+002
2.485533e+003, 1.215455e+002
2.487461e+003, 1.191449e+002
2.489390e+003, 1.158925e+002
2.491318e+003, 1.166567e+002
2.493247e+003, 1.155420e+002
2.495175e+003, 1.120790e+002
2.497104e+003, 1.113770e+002
2.499032e+003, 1.107914e+002
2.500961e+003, 1.092118e+002
2.502889e+003, 1.033093e+002
2.504818e+003, 9.977460e+001
2.506746e+003, 1.017714e+002
2.508675e+003, 1.003074e+002
2.510603e+003, 9.740159e+001
2.512531e+003, 9.417977e+001
2.514460e+003, 9.218060e+001
2.516388e+003, 8.967699e+001
2.518317e+003, 8.447562e+001
2.520245e+003, 8.134367e+001
2.522174e+003, 7.968863e+001
2.524102e+003, 7.912386e+001
2.526031e+003, 7.743732e+001
2.527959e+003, 7.407962e+001
2.529888e+003, 6.788224e+001
2.531816e+003, 6.620567e+001
2.533745e+003, 6.710577e+001
2.535673e+003, 6.711369e+001
2.537602e+003, 6.492220e+001
2.539530e+003, 6.182514e+001
2.541458e+003, 6.032486e+001
2.543387e+003, 5.938507e+001
2.545315e+003, 5.903950e+001
2.547244e+003, 6.064378e+001
2.549172e+003, 6.013057e+001
2.551101e+003, 5.810234e+001
2.553029e+003, 5.811333e+001
2.554958e+003, 5.886415e+001
2.556886e+003, 5.916571e+001
2.558815e+003, 5.504243e+001
2.560743e+003, 5.378600e+001
2.562672e+003, 5.563043e+001
2.564600e+003, 5.593018e+001
2.566529e+003, 5.550101e+001
2.568457e+003, 5.460292e+001
2.570385e+003, 5.336874e+001
2.572314e+003, 5.103212e+001
2.574242e+003, 4.839848e+001
2.576171e+003, 5.057421e+001
2.578099e+003, 5.145755e+001
2.580028e+003, 5.006607e+001
2.581956e+003, 5.063911e+001
2.583885e+003, 5.056110e+001
2.585813e+003, 4.940715e+001
2.587742e+003, 5.023749e+001
2.589670e+003, 5.041774e+001
2.591599e+003, 4.938580e+001
2.593527e+003, 4.949207e+001
2.595456e+003, 4.805801e+001
2.597384e+003, 4.496923e+001
2.599313e+003, 4.620783e+001
2.601241e+003, 4.736673e+001
2.603169e+003, 4.712083e+001
2.605098e+003, 4.531392e+001
2.607026e+003, 4.416618e+001
2.608955e+003, 4.426874e+001
2.610883e+003, 4.537550e+001
2.612812e+003, 4.544897e+001
2.614740e+003, 4.445007e+001
2.616669e+003, 4.561724e+001
2.618597e+003, 4.610506e+001
2.620526e+003, 4.528849e+001
2.622454e+003, 4.429252e+001
2.624383e+003, 4.157975e+001
2.626311e+003, 3.840011e+001
2.628240e+003, 4.123222e+001
2.630168e+003, 4.224322e+001
2.632096e+003, 4.058257e+001
2.634025e+003, 3.878867e+001
2.635953e+003, 3.859874e+001
2.637882e+003, 3.919270e+001
2.639810e+003, 3.709035e+001
2.641739e+003, 3.706683e+001
2.643667e+003, 3.868052e+001
2.645596e+003, 3.955081e+001
2.647524e+003, 3.908594e+001
2.649453e+003, 3.791650e+001
2.651381e+003, 3.711445e+001
2.653310e+003, 3.685695e+001
2.655238e+003, 3.731857e+001
2.657167e+003, 3.935616e+001
2.659095e+003, 3.739906e+001
2.661023e+003, 3.523307e+001
2.662952e+003, 3.807622e+001
2.664880e+003, 4.119410e+001
2.666809e+003, 4.295667e+001
2.668737e+003, 4.236432e+001
2.670666e+003, 4.144377e+001
2.672594e+003, 3.893372e+001
2.674523e+003, 3.388585e+001
2.676451e+003, 3.023160e+001
2.678380e+003, 2.803327e+001
2.680308e+003, 2.688430e+001
2.682237e+003, 2.214927e+001
2.684165e+003, 1.864829e+001
2.686094e+003, 1.819094e+001
2.688022e+003, 1.655964e+001
2.689950e+003, 1.535345e+001
2.691879e+003, 1.487040e+001
2.693807e+003, 1.288795e+001
2.695736e+003, 1.261979e+001
2.697664e+003, 1.377585e+001
2.699593e+003, 1.192743e+001
2.701521e+003, 1.189137e+001
2.703450e+003, 1.301213e+001
2.705378e+003, 1.114182e+001
2.707307e+003, 1.044070e+001
2.709235e+003, 1.041403e+001
2.711164e+003, 8.712217e+000
2.713092e+003, 9.896932e+000
2.715021e+003, 1.172840e+001
2.716949e+003, 1.116227e+001
2.718877e+003, 9.932998e+000
2.720806e+003, 8.994493e+000
2.722734e+003, 9.110605e+000
2.724663e+003, 9.402267e+000
2.726591e+003, 9.468600e+000
2.728520e+003, 9.106703e+000
2.730448e+003, 8.481909e+000
2.732377e+003, 8.911467e+000
2.734305e+003, 1.051693e+001
2.736234e+003, 1.176586e+001
2.738162e+003, 1.065662e+001
2.740091e+003, 8.121661e+000
2.742019e+003, 7.816898e+000
2.743948e+003, 9.269460e+000
2.745876e+003, 1.081859e+001
2.747804e+003, 1.011070e+001
2.749733e+003, 7.308205e+000
2.751661e+003, 5.667293e+000
2.753590e+003, 8.121164e+000
2.755518e+003, 8.518668e+000
2.757447e+003, 8.629729e+000
2.759375e+003, 9.484036e+000
2.761304e+003, 9.418305e+000
2.763232e+003, 8.061899e+000
2.765161e+003, 6.144439e+000
2.767089e+003, 7.109381e+000
2.769018e+003, 7.355401e+000
2.770946e+003, 7.495714e+000
2.772875e+003, 1.172581e+001
2.774803e+003, 1.183483e+001
2.776731e+003, 9.712524e+000
2.778660e+003, 8.902246e+000
2.780588e+003, 8.057374e+000
2.782517e+003, 7.735728e+000
2.784445e+003, 8.450807e+000
2.786374e+003, 9.431592e+000
2.788302e+003, 1.045185e+001
2.790231e+003, 1.112725e+001
2.792159e+003, 8.613446e+000
2.794088e+003, 7.915420e+000
2.796016e+003, 8.847611e+000
2.797945e+003, 8.698776e+000
2.799873e+003, 6.352355e+000
2.801802e+003, 4.660743e+000
2.803730e+003, 6.719640e+000
2.805658e+003, 7.915583e+000
2.807587e+003, 7.587108e+000
2.809515e+003, 6.121340e+000
2.811444e+003, 8.398046e+000
2.813372e+003, 9.056744e+000
2.815301e+003, 7.261403e+000
2.817229e+003, 6.293878e+000
2.819158e+003, 6.835341e+000
2.821086e+003, 8.085357e+000
2.823015e+003, 9.026667e+000
2.824943e+003, 7.163114e+000
2.826872e+003, 5.601237e+000
2.828800e+003, 6.740785e+000
2.830729e+003, 6.655175e+000
2.832657e+003, 7.498733e+000
2.834585e+003, 9.050741e+000
2.836514e+003, 5.751111e+000
2.838442e+003, 4.656679e+000
2.840371e+003, 5.858384e+000
2.842299e+003, 7.616823e+000
2.844228e+003, 8.856627e+000
2.846156e+003, 8.293037e+000
2.848085e+003, 4.658331e+000
2.850013e+003, 4.983961e+000
2.851942e+003, 6.737456e+000
2.853870e+003, 8.325132e+000
2.855799e+003, 6.815502e+000
2.857727e+003, 6.205791e+000
2.859656e+003, 5.945609e+000
2.861584e+003, 4.202172e+000
2.863512e+003, 4.557622e+000
2.865441e+003, 5.839011e+000
2.867369e+003, 6.976117e+000
2.869298e+003, 6.916764e+000
2.871226e+003, 6.348109e+000
2.873155e+003, 5.719678e+000
2.875083e+003, 5.607026e+000
2.877012e+003, 5.786271e+000
2.878940e+003, 5.673958e+000
2.880869e+003, 4.655583e+000
2.882797e+003, 6.074343e+000
2.884726e+003, 6.653509e+000
2.886654e+003, 5.636779e+000
2.888583e+003, 6.549409e+000
2.890511e+003, 5.791499e+000
2.892439e+003, 4.095569e+000
2.894368e+003, 3.809644e+000
2.896296e+003, 2.866341e+000
2.898225e+003, 2.612292e+000
2.900153e+003, 3.926231e+000
2.902082e+003, 5.564561e+000
2.904010e+003, 6.367341e+000
2.905939e+003, 6.579199e+000
2.907867e+003, 7.521547e+000
2.909796e+003, 6.044809e+000
2.911724e+003, 4.791726e+000
2.913653e+003, 5.935290e+000
2.915581e+003, 5.403951e+000
2.917510e+003, 4.986419e+000
2.919438e+003, 4.861744e+000
2.921366e+003, 3.496490e+000
2.923295e+003, 4.494063e+000
2.925223e+003, 5.742874e+000
2.927152e+003, 5.275119e+000
2.929080e+003, 4.819041e+000
2.931009e+003, 5.448893e+000
2.932937e+003, 6.784440e+000
2.934866e+003, 6.672996e+000
2.936794e+003, 6.296587e+000
2.938723e+003, 6.095523e+000
2.940651e+003, 6.280581e+000
2.942580e+003, 4.229383e+000
2.944508e+003, 4.334386e+000
2.946437e+003, 6.507597e+000
2.948365e+003, 6.987868e+000
2.950293e+003, 5.382987e+000
2.952222e+003, 3.902085e+000
2.954150e+003, 4.583926e+000
2.956079e+003, 5.587023e+000
2.958007e+003, 6.167415e+000
2.959936e+003, 6.254099e+000
2.961864e+003, 6.225464e+000
2.963793e+003, 5.828505e+000
2.965721e+003, 5.673732e+000
2.967650e+003, 6.207339e+000
2.969578e+003, 4.702758e+000
2.971507e+003, 4.800123e+000
2.973435e+003, 6.056497e+000
2.975364e+003, 5.890223e+000
2.977292e+003, 5.235955e+000
2.979220e+003, 4.646372e+000
2.981149e+003, 4.302131e+000
2.983077e+003, 3.192677e+000
2.985006e+003, 4.455663e+000
2.986934e+003, 6.026938e+000
2.988863e+003, 4.440429e+000
2.990791e+003, 5.242207e+000
2.992720e+003, 5.915590e+000
2.994648e+003, 5.318040e+000
2.996577e+003, 3.131795e+000
2.998505e+003, 3.819682e+000
3.000434e+003, 4.688752e+000
3.002362e+003, 3.139417e+000
3.004291e+003, 4.276253e+000
3.006219e+003, 4.901458e+000
3.008147e+003, 4.692706e+000
3.010076e+003, 4.651209e+000
3.012004e+003, 5.827477e+000
3.013933e+003, 6.261890e+000
3.015861e+003, 5.253969e+000
3.017790e+003, 5.570114e+000
3.019718e+003, 4.418327e+000
3.021647e+003, 3.539130e+000
3.023575e+003, 5.144427e+000
3.025504e+003, 5.671188e+000
3.027432e+003, 6.553214e+000
3.029361e+003, 6.487349e+000
3.031289e+003, 1.623187e+000
3.033218e+003, 1.462718e+000
3.035146e+003, 3.250311e+000
3.037074e+003, 4.445024e+000
3.039003e+003, 2.154938e+000
3.040931e+003, 1.683501e+000
3.042860e+003, 2.281441e+000
3.044788e+003, 2.629134e+000
3.046717e+003, 4.213443e+000
3.048645e+003, 4.826550e+000
3.050574e+003, 4.697827e+000
3.052502e+003, 5.316198e+000
3.054431e+003, 5.743570e+000
3.056359e+003, 4.435575e+000
3.058288e+003, 2.057379e+000
3.060216e+003, 1.874949e+000
3.062145e+003, 4.215554e+000
3.064073e+003, 5.706669e+000
3.066001e+003, 4.354514e+000
3.067930e+003, 2.723101e+000
3.069858e+003, 1.353074e+000
3.071787e+003, 1.498395e+000
3.073715e+003, 4.809519e+000
3.075644e+003, 4.020633e+000
3.077572e+003, 2.629230e+000
3.079501e+003, 1.844568e+000
3.081429e+003, 1.898546e+000
3.083358e+003, 3.640819e+000
3.085286e+003, 4.598075e+000
3.087215e+003, 4.352917e+000
3.089143e+003, 4.778264e+000
3.091072e+003, 1.892723e+000
3.093000e+003, 3.264609e-001
3.094928e+003, 2.039489e+000
3.096857e+003, 3.767844e+000
3.098785e+003, 2.247637e+000
3.100714e+003, 1.250360e+000
3.102642e+003, 2.916221e+000
3.104571e+003, 1.469737e+000
3.106499e+003, 1.036585e+000
3.108428e+003, 1.133941e+000
3.110356e+003, 5.734040e-001
3.112285e+003, 3.159081e+000
3.114213e+003, 7.275407e-001
3.116142e+003, -2.671129e+000
3.118070e+003, 1.454040e+000
3.119999e+003, 2.654894e+000
3.121927e+003, 4.982452e+000
3.123855e+003, 7.045984e+000
3.125784e+003, 3.772079e+000
3.127712e+003, 4.467550e+000
3.129641e+003, 4.100017e+000
3.131569e+003, 2.564542e+000
3.133498e+003, 4.102019e+000
3.135426e+003, 2.239438e+000
3.137355e+003, 2.297093e+000
3.139283e+003, 4.620141e+000
3.141212e+003, 3.298873e+000
3.143140e+003, 3.077308e+000
3.145069e+003, 2.664117e+000
3.146997e+003, 1.508259e+000
3.148926e+003, 6.177179e-001
3.150854e+003, 1.403698e-001
3.152782e+003, 1.148949e+000
3.154711e+003, 3.358908e+000
3.156639e+003, 3.875619e+000
3.158568e+003, 5.802806e+000
3.160496e+003, 5.541306e+000
3.162425e+003, 2.855874e+000
3.164353e+003, 4.150998e+000
3.166282e+003, 5.902783e+000
3.168210e+003, 5.330997e+000
3.170139e+003, 2.548093e+000
3.172067e+003, 3.217229e+000
3.173996e+003, 2.105388e+000
3.175924e+003, 2.509390e+000
3.177853e+003, 5.344008e+000
3.179781e+003, 4.158036e+000
3.181709e+003, 3.180159e+000
3.183638e+003, 3.147965e+000
3.185566e+003, 3.409366e+000
3.187495e+003, 8.223635e-001
3.189423e+003, 1.527274e+000
3.191352e+003, 1.926922e+000
3.193280e+003, 9.129670e-001
3.195209e+003, 3.095882e+000
3.197137e+003, 1.508045e+000
3.199066e+003, 1.189056e+000
3.200994e+003, 3.287949e+000
3.202923e+003, 2.751048e+000
3.204851e+003, 2.873752e+000
3.206780e+003, 2.899006e+000
3.208708e+003, 2.407066e+000
3.210636e+003, 1.359306e+000
3.212565e+003, 2.249368e+000
3.214493e+003, 3.704803e+000
3.216422e+003, 4.440661e+000
3.218350e+003, 3.176727e+000
3.220279e+003, 1.116802e+000
3.222207e+003, 1.320137e+000
3.224136e+003, 2.721786e+000
3.226064e+003, 2.328018e+000
3.227993e+003, 2.214774e+000
3.229921e+003, 3.406130e+000
3.231850e+003, 4.113802e+000
3.233778e+003, 2.027683e+000
3.235707e+003, 1.062413e+000
3.237635e+003, 2.686786e+000
3.239563e+003, 4.200873e+000
3.241492e+003, 3.312335e+000
3.243420e+003, 2.035198e+000
3.245349e+003, 2.211973e+000
3.247277e+003, 1.261564e+000
3.249206e+003, -1.353519e+000
3.251134e+003, 5.224477e-003
3.253063e+003, 1.112218e+000
3.254991e+003, 1.873313e+000
3.256920e+003, 2.555621e+000
3.258848e+003, 3.487773e+000
3.260777e+003, 7.108510e-001
3.262705e+003, -7.914366e-001
3.264634e+003, -3.881499e-001
3.266562e+003, -1.122935e-001
3.268490e+003, 2.963890e+000
3.270419e+003, 4.182632e+000
3.272347e+003, 3.312324e+000
3.274276e+003, 1.866252e+000
3.276204e+003, 5.892924e+000
3.278133e+003, 4.115937e+000
3.280061e+003, 1.265646e+000
3.281990e+003, 1.629440e+000
3.283918e+003, 3.585090e+000
3.285847e+003, 2.316611e+000
3.287775e+003, 1.947575e+000
3.289704e+003, 2.842122e+000
3.291632e+003, 1.393998e+000
3.293561e+003, 1.040380e+000
3.295489e+003, 8.968533e-001
3.297417e+003, 1.600882e+000
3.299346e+003, 3.791308e+000
3.301274e+003, 3.564819e+000
3.303203e+003, 2.688780e+000
3.305131e+003, 3.045918e+000
3.307060e+003, 4.554629e+000
3.308988e+003, 3.227695e+000
3.310917e+003, 2.836225e+000
3.312845e+003, 1.459318e+000
3.314774e+003, 1.854396e-001
3.316702e+003, 2.178445e+000
3.318631e+003, 1.128279e+000
3.320559e+003, 1.569798e+000
3.322488e+003, 3.127465e+000
3.324416e+003, 4.124730e+000
3.326344e+003, 2.832381e+000
3.328273e+003, 3.393648e+000
3.330201e+003, 2.619764e+000
3.332130e+003, 7.610088e-001
3.334058e+003, 2.707040e+000
3.335987e+003, 1.775572e+000
3.337915e+003, 2.765043e+000
3.339844e+003, 4.566099e+000
3.341772e+003, 4.687983e+000
3.343701e+003, 2.670495e+000
3.345629e+003, 1.552100e+000
3.347558e+003, 3.123371e+000
3.349486e+003, 5.704574e+000
3.351415e+003, 4.512839e+000
3.353343e+003, 5.055539e+000
3.355271e+003, 5.223152e+000
3.357200e+003, 4.213675e+000
3.359128e+003, 2.610465e+000
3.361057e+003, 3.396752e+000
3.362985e+003, 5.349099e+000
3.364914e+003, 4.750858e+000
3.366842e+003, 2.370140e+000
3.368771e+003, 2.338299e+000
3.370699e+003, 3.723952e+000
3.372628e+003, 1.080313e+000
3.374556e+003, -1.660799e+000
3.376485e+003, -8.232105e-001
3.378413e+003, 1.766085e+000
3.380342e+003, 2.714246e+000
3.382270e+003, 3.662796e+000
3.384198e+003, 3.717083e+000
3.386127e+003, 8.655916e-001
3.388055e+003, 1.165769e+000
3.389984e+003, 1.522649e+000
3.391912e+003, 1.768867e+000
3.393841e+003, 1.868740e+000
3.395769e+003, 1.349598e+000
3.397698e+003, 3.512735e+000
3.399626e+003, 2.304832e+000
3.401555e+003, 1.452964e+000
3.403483e+003, 3.978361e+000
3.405412e+003, 4.255926e+000
3.407340e+003, 5.371299e+000
3.409269e+003, 6.348174e+000
3.411197e+003, 8.170147e+000
3.413125e+003, 1.210667e+001
3.415054e+003, 1.507484e+001
3.416982e+003, 2.290420e+001
3.418911e+003, 2.435966e+001
3.420839e+003, 1.978701e+001
3.422768e+003, 1.895996e+001
3.424696e+003, 2.096663e+001
3.426625e+003, 1.758527e+001
3.428553e+003, 1.474629e+001
3.430482e+003, 1.513089e+001
3.432410e+003, 1.379981e+001
3.434339e+003, 1.485671e+001
3.436267e+003, 1.282114e+001
3.438196e+003, 8.624590e+000
3.440124e+003, 5.286888e+000
3.442052e+003, 6.804560e+000
3.443981e+003, 5.426176e+000
3.445909e+003, 4.974666e+000
3.447838e+003, 5.361916e+000
3.449766e+003, 5.110170e+000
3.451695e+003, 3.386904e+000
3.453623e+003, 2.637021e+000
3.455552e+003, 3.016215e+000
##END=



