##NAMES=Dickinsonite-(KMnNa)
##RRUFFID=R160071
##IDEAL CHEMISTRY=K(NaMn^2+^)CaNa_3_AlMn^2+^_13_(PO_4_)_12_(OH)_2_
##LOCALITY=Nancy Pegmatite, Chacabuco Dept, San Luis, Argentina
##OWNER=RRUFF
##SOURCE=Thomas A. Loomis
##DESCRIPTION=Dark green massive, associated with dark brown bobfergusonite (R160069)
##STATUS=The identification of this mineral is confirmed by single-crystal X-ray diffraction and chemical analysis.
##URL=rruff.info/R160071
##MEASURED CHEMISTRY=(K_0.61_Pb_0.32_)_Σ0.93_(Na_1.00_Mn_1.00_)_Σ2.00_(Ca_0.33_Ba_0.18_)_Σ0.51_Na_2.98_Al_0.94_(Mn_6.84_Fe^2+^_5.41_Mg_0.82_)_Σ13.07_(PO_4_)_12_(OH)_2_ 
8.758203e+001, 7.089183e+002
8.806415e+001, 6.994494e+002
8.854626e+001, 6.978043e+002
8.902838e+001, 7.068874e+002
8.951050e+001, 7.188909e+002
8.999261e+001, 7.315160e+002
9.047473e+001, 7.444268e+002
9.095685e+001, 7.572882e+002
9.143896e+001, 7.697310e+002
9.192108e+001, 7.817875e+002
9.240320e+001, 7.940920e+002
9.288531e+001, 7.977840e+002
9.336743e+001, 7.870549e+002
9.384955e+001, 7.649354e+002
9.433167e+001, 7.429584e+002
9.481378e+001, 7.201651e+002
9.529590e+001, 7.009244e+002
9.577802e+001, 6.848417e+002
9.626013e+001, 6.709683e+002
9.674225e+001, 6.587941e+002
9.722437e+001, 6.480166e+002
9.770648e+001, 6.381166e+002
9.818860e+001, 6.287126e+002
9.867072e+001, 6.201064e+002
9.915283e+001, 6.125507e+002
9.963495e+001, 6.059311e+002
1.001171e+002, 5.997873e+002
1.005992e+002, 5.934619e+002
1.010813e+002, 5.861854e+002
1.015634e+002, 5.802377e+002
1.020455e+002, 5.757043e+002
1.025277e+002, 5.718697e+002
1.030098e+002, 5.680894e+002
1.034919e+002, 5.640815e+002
1.039740e+002, 5.601054e+002
1.044561e+002, 5.571282e+002
1.049382e+002, 5.567619e+002
1.054204e+002, 5.554688e+002
1.059025e+002, 5.526865e+002
1.063846e+002, 5.486953e+002
1.068667e+002, 5.438059e+002
1.073488e+002, 5.379426e+002
1.078309e+002, 5.314155e+002
1.083131e+002, 5.266425e+002
1.087952e+002, 5.243774e+002
1.092773e+002, 5.228430e+002
1.097594e+002, 5.211791e+002
1.102415e+002, 5.193483e+002
1.107236e+002, 5.175529e+002
1.112058e+002, 5.159379e+002
1.116879e+002, 5.144838e+002
1.121700e+002, 5.131425e+002
1.126521e+002, 5.122289e+002
1.131342e+002, 5.113511e+002
1.136163e+002, 5.097527e+002
1.140985e+002, 5.070978e+002
1.145806e+002, 5.043652e+002
1.150627e+002, 5.023189e+002
1.155448e+002, 5.007286e+002
1.160269e+002, 4.990173e+002
1.165090e+002, 4.965865e+002
1.169912e+002, 4.934651e+002
1.174733e+002, 4.909813e+002
1.179554e+002, 4.895938e+002
1.184375e+002, 4.885542e+002
1.189196e+002, 4.876257e+002
1.194017e+002, 4.867736e+002
1.198839e+002, 4.860403e+002
1.203660e+002, 4.855122e+002
1.208481e+002, 4.853496e+002
1.213302e+002, 4.849544e+002
1.218123e+002, 4.844616e+002
1.222944e+002, 4.836915e+002
1.227766e+002, 4.823932e+002
1.232587e+002, 4.805384e+002
1.237408e+002, 4.784162e+002
1.242229e+002, 4.765899e+002
1.247050e+002, 4.752857e+002
1.251871e+002, 4.739945e+002
1.256693e+002, 4.727250e+002
1.261514e+002, 4.714568e+002
1.266335e+002, 4.701896e+002
1.271156e+002, 4.689275e+002
1.275977e+002, 4.676370e+002
1.280798e+002, 4.662046e+002
1.285620e+002, 4.646314e+002
1.290441e+002, 4.629647e+002
1.295262e+002, 4.611580e+002
1.300083e+002, 4.592495e+002
1.304904e+002, 4.574033e+002
1.309725e+002, 4.556472e+002
1.314547e+002, 4.540697e+002
1.319368e+002, 4.527949e+002
1.324189e+002, 4.519300e+002
1.329010e+002, 4.512561e+002
1.333831e+002, 4.506238e+002
1.338652e+002, 4.500683e+002
1.343474e+002, 4.493810e+002
1.348295e+002, 4.482612e+002
1.353116e+002, 4.470102e+002
1.357937e+002, 4.459523e+002
1.362758e+002, 4.452442e+002
1.367579e+002, 4.447822e+002
1.372401e+002, 4.443334e+002
1.377222e+002, 4.440518e+002
1.382043e+002, 4.435057e+002
1.386864e+002, 4.425747e+002
1.391685e+002, 4.413275e+002
1.396507e+002, 4.398166e+002
1.401328e+002, 4.379976e+002
1.406149e+002, 4.358873e+002
1.410970e+002, 4.342867e+002
1.415791e+002, 4.339686e+002
1.420612e+002, 4.334588e+002
1.425434e+002, 4.320055e+002
1.430255e+002, 4.299525e+002
1.435076e+002, 4.282480e+002
1.439897e+002, 4.278492e+002
1.444718e+002, 4.291240e+002
1.449539e+002, 4.296180e+002
1.454361e+002, 4.293075e+002
1.459182e+002, 4.284430e+002
1.464003e+002, 4.268860e+002
1.468824e+002, 4.247431e+002
1.473645e+002, 4.225677e+002
1.478466e+002, 4.209798e+002
1.483288e+002, 4.201277e+002
1.488109e+002, 4.195282e+002
1.492930e+002, 4.194173e+002
1.497751e+002, 4.194401e+002
1.502572e+002, 4.193026e+002
1.507393e+002, 4.189613e+002
1.512215e+002, 4.183091e+002
1.517036e+002, 4.168909e+002
1.521857e+002, 4.147185e+002
1.526678e+002, 4.129516e+002
1.531499e+002, 4.123332e+002
1.536320e+002, 4.124127e+002
1.541142e+002, 4.120501e+002
1.545963e+002, 4.108299e+002
1.550784e+002, 4.092864e+002
1.555605e+002, 4.079496e+002
1.560426e+002, 4.068210e+002
1.565247e+002, 4.058597e+002
1.570069e+002, 4.050724e+002
1.574890e+002, 4.044584e+002
1.579711e+002, 4.039295e+002
1.584532e+002, 4.036311e+002
1.589353e+002, 4.032922e+002
1.594174e+002, 4.026330e+002
1.598996e+002, 4.016311e+002
1.603817e+002, 4.006768e+002
1.608638e+002, 4.003673e+002
1.613459e+002, 4.010387e+002
1.618280e+002, 4.012004e+002
1.623102e+002, 4.005890e+002
1.627923e+002, 3.994835e+002
1.632744e+002, 3.977584e+002
1.637565e+002, 3.954356e+002
1.642386e+002, 3.931108e+002
1.647207e+002, 3.919935e+002
1.652029e+002, 3.934087e+002
1.656850e+002, 3.939037e+002
1.661671e+002, 3.925145e+002
1.666492e+002, 3.905558e+002
1.671313e+002, 3.892306e+002
1.676134e+002, 3.890659e+002
1.680956e+002, 3.896798e+002
1.685777e+002, 3.899659e+002
1.690598e+002, 3.899380e+002
1.695419e+002, 3.895267e+002
1.700240e+002, 3.884305e+002
1.705061e+002, 3.870052e+002
1.709883e+002, 3.857316e+002
1.714704e+002, 3.848534e+002
1.719525e+002, 3.842951e+002
1.724346e+002, 3.837560e+002
1.729167e+002, 3.832461e+002
1.733988e+002, 3.827380e+002
1.738810e+002, 3.821906e+002
1.743631e+002, 3.816353e+002
1.748452e+002, 3.811637e+002
1.753273e+002, 3.808490e+002
1.758094e+002, 3.806471e+002
1.762915e+002, 3.803911e+002
1.767737e+002, 3.800304e+002
1.772558e+002, 3.796753e+002
1.777379e+002, 3.794373e+002
1.782200e+002, 3.793008e+002
1.787021e+002, 3.790706e+002
1.791842e+002, 3.785561e+002
1.796664e+002, 3.778991e+002
1.801485e+002, 3.773457e+002
1.806306e+002, 3.767788e+002
1.811127e+002, 3.764737e+002
1.815948e+002, 3.770566e+002
1.820769e+002, 3.787838e+002
1.825591e+002, 3.799229e+002
1.830412e+002, 3.789685e+002
1.835233e+002, 3.770772e+002
1.840054e+002, 3.753277e+002
1.844875e+002, 3.740077e+002
1.849696e+002, 3.730955e+002
1.854518e+002, 3.726388e+002
1.859339e+002, 3.728462e+002
1.864160e+002, 3.730469e+002
1.868981e+002, 3.731779e+002
1.873802e+002, 3.731141e+002
1.878623e+002, 3.726185e+002
1.883445e+002, 3.714694e+002
1.888266e+002, 3.699435e+002
1.893087e+002, 3.690306e+002
1.897908e+002, 3.692677e+002
1.902729e+002, 3.693895e+002
1.907550e+002, 3.690432e+002
1.912372e+002, 3.684178e+002
1.917193e+002, 3.677423e+002
1.922014e+002, 3.671322e+002
1.926835e+002, 3.666090e+002
1.931656e+002, 3.663238e+002
1.936477e+002, 3.665966e+002
1.941299e+002, 3.668082e+002
1.946120e+002, 3.670222e+002
1.950941e+002, 3.670907e+002
1.955762e+002, 3.667186e+002
1.960583e+002, 3.656453e+002
1.965404e+002, 3.639434e+002
1.970226e+002, 3.629457e+002
1.975047e+002, 3.630335e+002
1.979868e+002, 3.633607e+002
1.984689e+002, 3.639904e+002
1.989510e+002, 3.647026e+002
1.994331e+002, 3.650410e+002
1.999153e+002, 3.646315e+002
2.003974e+002, 3.634992e+002
2.008795e+002, 3.627375e+002
2.013616e+002, 3.624280e+002
2.018437e+002, 3.623111e+002
2.023258e+002, 3.624447e+002
2.028080e+002, 3.627234e+002
2.032901e+002, 3.628033e+002
2.037722e+002, 3.623881e+002
2.042543e+002, 3.615132e+002
2.047364e+002, 3.608428e+002
2.052185e+002, 3.606277e+002
2.057007e+002, 3.603933e+002
2.061828e+002, 3.597151e+002
2.066649e+002, 3.586460e+002
2.071470e+002, 3.577667e+002
2.076291e+002, 3.576006e+002
2.081112e+002, 3.579930e+002
2.085934e+002, 3.580726e+002
2.090755e+002, 3.575505e+002
2.095576e+002, 3.568735e+002
2.100397e+002, 3.563931e+002
2.105218e+002, 3.561144e+002
2.110039e+002, 3.560001e+002
2.114861e+002, 3.562825e+002
2.119682e+002, 3.566727e+002
2.124503e+002, 3.565527e+002
2.129324e+002, 3.554478e+002
2.134145e+002, 3.540302e+002
2.138967e+002, 3.531052e+002
2.143788e+002, 3.527260e+002
2.148609e+002, 3.525775e+002
2.153430e+002, 3.525831e+002
2.158251e+002, 3.526822e+002
2.163072e+002, 3.528207e+002
2.167894e+002, 3.530037e+002
2.172715e+002, 3.531940e+002
2.177536e+002, 3.533633e+002
2.182357e+002, 3.535659e+002
2.187178e+002, 3.535789e+002
2.191999e+002, 3.532220e+002
2.196821e+002, 3.526656e+002
2.201642e+002, 3.520815e+002
2.206463e+002, 3.515275e+002
2.211284e+002, 3.510051e+002
2.216105e+002, 3.505100e+002
2.220926e+002, 3.500457e+002
2.225748e+002, 3.496163e+002
2.230569e+002, 3.492505e+002
2.235390e+002, 3.489115e+002
2.240211e+002, 3.485161e+002
2.245032e+002, 3.479938e+002
2.249853e+002, 3.474813e+002
2.254675e+002, 3.473941e+002
2.259496e+002, 3.481158e+002
2.264317e+002, 3.486660e+002
2.269138e+002, 3.487593e+002
2.273959e+002, 3.486255e+002
2.278780e+002, 3.485388e+002
2.283602e+002, 3.486412e+002
2.288423e+002, 3.488134e+002
2.293244e+002, 3.486687e+002
2.298065e+002, 3.480190e+002
2.302886e+002, 3.472613e+002
2.307707e+002, 3.460221e+002
2.312529e+002, 3.448490e+002
2.317350e+002, 3.444314e+002
2.322171e+002, 3.451093e+002
2.326992e+002, 3.465363e+002
2.331813e+002, 3.476097e+002
2.336634e+002, 3.482493e+002
2.341456e+002, 3.485597e+002
2.346277e+002, 3.484850e+002
2.351098e+002, 3.481163e+002
2.355919e+002, 3.475472e+002
2.360740e+002, 3.468205e+002
2.365561e+002, 3.459319e+002
2.370383e+002, 3.448610e+002
2.375204e+002, 3.430442e+002
2.380025e+002, 3.417328e+002
2.384846e+002, 3.412917e+002
2.389667e+002, 3.413034e+002
2.394488e+002, 3.413018e+002
2.399310e+002, 3.410948e+002
2.404131e+002, 3.407341e+002
2.408952e+002, 3.403339e+002
2.413773e+002, 3.394689e+002
2.418594e+002, 3.391558e+002
2.423415e+002, 3.400915e+002
2.428237e+002, 3.414499e+002
2.433058e+002, 3.421069e+002
2.437879e+002, 3.416170e+002
2.442700e+002, 3.404901e+002
2.447521e+002, 3.398042e+002
2.452342e+002, 3.397943e+002
2.457164e+002, 3.397116e+002
2.461985e+002, 3.394523e+002
2.466806e+002, 3.390500e+002
2.471627e+002, 3.385249e+002
2.476448e+002, 3.378670e+002
2.481269e+002, 3.371493e+002
2.486091e+002, 3.364693e+002
2.490912e+002, 3.357810e+002
2.495733e+002, 3.352555e+002
2.500554e+002, 3.350337e+002
2.505375e+002, 3.349638e+002
2.510196e+002, 3.348299e+002
2.515018e+002, 3.345782e+002
2.519839e+002, 3.342517e+002
2.524660e+002, 3.338857e+002
2.529481e+002, 3.334770e+002
2.534302e+002, 3.331122e+002
2.539123e+002, 3.329481e+002
2.543945e+002, 3.328096e+002
2.548766e+002, 3.323075e+002
2.553587e+002, 3.312530e+002
2.558408e+002, 3.302468e+002
2.563229e+002, 3.301254e+002
2.568051e+002, 3.307607e+002
2.572872e+002, 3.314996e+002
2.577693e+002, 3.324737e+002
2.582514e+002, 3.333530e+002
2.587335e+002, 3.335232e+002
2.592156e+002, 3.327911e+002
2.596978e+002, 3.317398e+002
2.601799e+002, 3.308207e+002
2.606620e+002, 3.300035e+002
2.611441e+002, 3.292714e+002
2.616262e+002, 3.285494e+002
2.621083e+002, 3.279222e+002
2.625905e+002, 3.275940e+002
2.630726e+002, 3.276648e+002
2.635547e+002, 3.277135e+002
2.640368e+002, 3.271911e+002
2.645189e+002, 3.263952e+002
2.650010e+002, 3.259658e+002
2.654832e+002, 3.264260e+002
2.659653e+002, 3.272497e+002
2.664474e+002, 3.276731e+002
2.669295e+002, 3.277035e+002
2.674116e+002, 3.273061e+002
2.678937e+002, 3.259943e+002
2.683759e+002, 3.243286e+002
2.688580e+002, 3.230916e+002
2.693401e+002, 3.226285e+002
2.698222e+002, 3.226192e+002
2.703043e+002, 3.226305e+002
2.707864e+002, 3.226602e+002
2.712686e+002, 3.227239e+002
2.717507e+002, 3.229369e+002
2.722328e+002, 3.231499e+002
2.727149e+002, 3.231844e+002
2.731970e+002, 3.229617e+002
2.736791e+002, 3.226071e+002
2.741613e+002, 3.223301e+002
2.746434e+002, 3.221797e+002
2.751255e+002, 3.218326e+002
2.756076e+002, 3.207303e+002
2.760897e+002, 3.195884e+002
2.765718e+002, 3.190539e+002
2.770540e+002, 3.193257e+002
2.775361e+002, 3.198744e+002
2.780182e+002, 3.200880e+002
2.785003e+002, 3.199205e+002
2.789824e+002, 3.197431e+002
2.794645e+002, 3.196913e+002
2.799467e+002, 3.196359e+002
2.804288e+002, 3.194622e+002
2.809109e+002, 3.191571e+002
2.813930e+002, 3.188560e+002
2.818751e+002, 3.188100e+002
2.823572e+002, 3.190728e+002
2.828394e+002, 3.189223e+002
2.833215e+002, 3.174714e+002
2.838036e+002, 3.162125e+002
2.842857e+002, 3.161707e+002
2.847678e+002, 3.172790e+002
2.852499e+002, 3.185936e+002
2.857321e+002, 3.193203e+002
2.862142e+002, 3.194445e+002
2.866963e+002, 3.194121e+002
2.871784e+002, 3.191383e+002
2.876605e+002, 3.187949e+002
2.881426e+002, 3.184079e+002
2.886248e+002, 3.180087e+002
2.891069e+002, 3.176787e+002
2.895890e+002, 3.175229e+002
2.900711e+002, 3.175172e+002
2.905532e+002, 3.173874e+002
2.910353e+002, 3.171398e+002
2.915175e+002, 3.167299e+002
2.919996e+002, 3.159692e+002
2.924817e+002, 3.150572e+002
2.929638e+002, 3.143897e+002
2.934459e+002, 3.142928e+002
2.939280e+002, 3.145992e+002
2.944102e+002, 3.145137e+002
2.948923e+002, 3.136407e+002
2.953744e+002, 3.130108e+002
2.958565e+002, 3.131582e+002
2.963386e+002, 3.136378e+002
2.968207e+002, 3.138727e+002
2.973029e+002, 3.135715e+002
2.977850e+002, 3.129236e+002
2.982671e+002, 3.123522e+002
2.987492e+002, 3.117680e+002
2.992313e+002, 3.114767e+002
2.997134e+002, 3.118356e+002
3.001956e+002, 3.123310e+002
3.006777e+002, 3.124565e+002
3.011598e+002, 3.120370e+002
3.016419e+002, 3.113549e+002
3.021240e+002, 3.108656e+002
3.026061e+002, 3.105888e+002
3.030883e+002, 3.104545e+002
3.035704e+002, 3.106270e+002
3.040525e+002, 3.108045e+002
3.045346e+002, 3.106083e+002
3.050167e+002, 3.100319e+002
3.054988e+002, 3.096369e+002
3.059810e+002, 3.104476e+002
3.064631e+002, 3.130086e+002
3.069452e+002, 3.142238e+002
3.074273e+002, 3.125636e+002
3.079094e+002, 3.105495e+002
3.083915e+002, 3.091617e+002
3.088737e+002, 3.084923e+002
3.093558e+002, 3.082470e+002
3.098379e+002, 3.082480e+002
3.103200e+002, 3.085098e+002
3.108021e+002, 3.087030e+002
3.112842e+002, 3.088162e+002
3.117664e+002, 3.088610e+002
3.122485e+002, 3.088396e+002
3.127306e+002, 3.087540e+002
3.132127e+002, 3.086164e+002
3.136948e+002, 3.084588e+002
3.141769e+002, 3.082552e+002
3.146591e+002, 3.078042e+002
3.151412e+002, 3.067693e+002
3.156233e+002, 3.059643e+002
3.161054e+002, 3.056897e+002
3.165875e+002, 3.057408e+002
3.170696e+002, 3.058806e+002
3.175518e+002, 3.060208e+002
3.180339e+002, 3.061098e+002
3.185160e+002, 3.059899e+002
3.189981e+002, 3.055415e+002
3.194802e+002, 3.051337e+002
3.199623e+002, 3.048358e+002
3.204445e+002, 3.046146e+002
3.209266e+002, 3.044551e+002
3.214087e+002, 3.043517e+002
3.218908e+002, 3.042888e+002
3.223729e+002, 3.042431e+002
3.228550e+002, 3.042118e+002
3.233372e+002, 3.042087e+002
3.238193e+002, 3.043011e+002
3.243014e+002, 3.043708e+002
3.247835e+002, 3.043695e+002
3.252656e+002, 3.042802e+002
3.257477e+002, 3.040824e+002
3.262299e+002, 3.036859e+002
3.267120e+002, 3.030529e+002
3.271941e+002, 3.026002e+002
3.276762e+002, 3.024714e+002
3.281583e+002, 3.024007e+002
3.286404e+002, 3.023392e+002
3.291226e+002, 3.022443e+002
3.296047e+002, 3.020178e+002
3.300868e+002, 3.014704e+002
3.305689e+002, 3.007040e+002
3.310510e+002, 3.004337e+002
3.315331e+002, 3.009171e+002
3.320153e+002, 3.015533e+002
3.324974e+002, 3.023817e+002
3.329795e+002, 3.031442e+002
3.334616e+002, 3.034373e+002
3.339437e+002, 3.030089e+002
3.344258e+002, 3.021281e+002
3.349080e+002, 3.013472e+002
3.353901e+002, 3.006137e+002
3.358722e+002, 3.001391e+002
3.363543e+002, 3.004500e+002
3.368365e+002, 3.007939e+002
3.373186e+002, 3.003324e+002
3.378007e+002, 2.987968e+002
3.382828e+002, 2.971237e+002
3.387649e+002, 2.965621e+002
3.392470e+002, 2.972698e+002
3.397292e+002, 2.979127e+002
3.402113e+002, 2.981495e+002
3.406934e+002, 2.983067e+002
3.411755e+002, 2.984409e+002
3.416576e+002, 2.986064e+002
3.421397e+002, 2.991061e+002
3.426219e+002, 3.006485e+002
3.431040e+002, 3.030362e+002
3.435861e+002, 3.041113e+002
3.440682e+002, 3.030771e+002
3.445503e+002, 3.015281e+002
3.450324e+002, 3.002413e+002
3.455146e+002, 2.992236e+002
3.459967e+002, 2.984993e+002
3.464788e+002, 2.982016e+002
3.469609e+002, 2.981699e+002
3.474430e+002, 2.979731e+002
3.479251e+002, 2.974907e+002
3.484073e+002, 2.971865e+002
3.488894e+002, 2.976247e+002
3.493715e+002, 2.982694e+002
3.498536e+002, 2.984160e+002
3.503357e+002, 2.977211e+002
3.508178e+002, 2.967878e+002
3.513000e+002, 2.962916e+002
3.517821e+002, 2.962455e+002
3.522642e+002, 2.964493e+002
3.527463e+002, 2.971648e+002
3.532284e+002, 2.978578e+002
3.537105e+002, 2.979364e+002
3.541927e+002, 2.973217e+002
3.546748e+002, 2.965699e+002
3.551569e+002, 2.959081e+002
3.556390e+002, 2.953868e+002
3.561211e+002, 2.952972e+002
3.566032e+002, 2.959122e+002
3.570854e+002, 2.965929e+002
3.575675e+002, 2.966449e+002
3.580496e+002, 2.962011e+002
3.585317e+002, 2.959030e+002
3.590138e+002, 2.961461e+002
3.594959e+002, 2.966315e+002
3.599781e+002, 2.968751e+002
3.604602e+002, 2.968263e+002
3.609423e+002, 2.966647e+002
3.614244e+002, 2.960906e+002
3.619065e+002, 2.955525e+002
3.623886e+002, 2.962484e+002
3.628708e+002, 2.997434e+002
3.633529e+002, 3.030780e+002
3.638350e+002, 3.034292e+002
3.643171e+002, 3.011942e+002
3.647992e+002, 2.990559e+002
3.652813e+002, 2.981592e+002
3.657635e+002, 2.980673e+002
3.662456e+002, 2.978736e+002
3.667277e+002, 2.975490e+002
3.672098e+002, 2.972229e+002
3.676919e+002, 2.969162e+002
3.681740e+002, 2.966478e+002
3.686562e+002, 2.964653e+002
3.691383e+002, 2.963882e+002
3.696204e+002, 2.963559e+002
3.701025e+002, 2.962763e+002
3.705846e+002, 2.961396e+002
3.710667e+002, 2.961195e+002
3.715489e+002, 2.964307e+002
3.720310e+002, 2.967423e+002
3.725131e+002, 2.966557e+002
3.729952e+002, 2.961914e+002
3.734773e+002, 2.958149e+002
3.739594e+002, 2.958982e+002
3.744416e+002, 2.963976e+002
3.749237e+002, 2.967392e+002
3.754058e+002, 2.968716e+002
3.758879e+002, 2.969242e+002
3.763700e+002, 2.969141e+002
3.768521e+002, 2.968642e+002
3.773343e+002, 2.968215e+002
3.778164e+002, 2.968091e+002
3.782985e+002, 2.968023e+002
3.787806e+002, 2.967275e+002
3.792627e+002, 2.963100e+002
3.797448e+002, 2.962953e+002
3.802270e+002, 2.970769e+002
3.807091e+002, 2.980910e+002
3.811912e+002, 2.988456e+002
3.816733e+002, 2.992337e+002
3.821554e+002, 2.993659e+002
3.826375e+002, 2.993122e+002
3.831197e+002, 2.989489e+002
3.836018e+002, 2.990742e+002
3.840839e+002, 3.002912e+002
3.845660e+002, 3.013228e+002
3.850481e+002, 3.014972e+002
3.855302e+002, 3.009983e+002
3.860124e+002, 3.003218e+002
3.864945e+002, 2.997542e+002
3.869766e+002, 2.993423e+002
3.874587e+002, 2.993408e+002
3.879408e+002, 3.003340e+002
3.884229e+002, 3.010487e+002
3.889051e+002, 3.010862e+002
3.893872e+002, 3.009157e+002
3.898693e+002, 3.010928e+002
3.903514e+002, 3.017788e+002
3.908335e+002, 3.026066e+002
3.913156e+002, 3.029439e+002
3.917978e+002, 3.025252e+002
3.922799e+002, 3.023446e+002
3.927620e+002, 3.026392e+002
3.932441e+002, 3.029642e+002
3.937262e+002, 3.030719e+002
3.942083e+002, 3.029918e+002
3.946905e+002, 3.029103e+002
3.951726e+002, 3.029667e+002
3.956547e+002, 3.031548e+002
3.961368e+002, 3.034399e+002
3.966189e+002, 3.040624e+002
3.971010e+002, 3.044133e+002
3.975832e+002, 3.040397e+002
3.980653e+002, 3.034079e+002
3.985474e+002, 3.031740e+002
3.990295e+002, 3.036442e+002
3.995116e+002, 3.043775e+002
3.999937e+002, 3.046045e+002
4.004759e+002, 3.041989e+002
4.009580e+002, 3.039461e+002
4.014401e+002, 3.041915e+002
4.019222e+002, 3.045424e+002
4.024043e+002, 3.047472e+002
4.028864e+002, 3.047878e+002
4.033686e+002, 3.047609e+002
4.038507e+002, 3.047193e+002
4.043328e+002, 3.046650e+002
4.048149e+002, 3.046026e+002
4.052970e+002, 3.045233e+002
4.057791e+002, 3.044552e+002
4.062613e+002, 3.042604e+002
4.067434e+002, 3.040918e+002
4.072255e+002, 3.043322e+002
4.077076e+002, 3.054858e+002
4.081897e+002, 3.067291e+002
4.086718e+002, 3.069478e+002
4.091540e+002, 3.061857e+002
4.096361e+002, 3.056713e+002
4.101182e+002, 3.060473e+002
4.106003e+002, 3.068672e+002
4.110824e+002, 3.073378e+002
4.115645e+002, 3.074056e+002
4.120467e+002, 3.073727e+002
4.125288e+002, 3.073773e+002
4.130109e+002, 3.073661e+002
4.134930e+002, 3.071917e+002
4.139751e+002, 3.068042e+002
4.144572e+002, 3.064434e+002
4.149394e+002, 3.063289e+002
4.154215e+002, 3.064805e+002
4.159036e+002, 3.068612e+002
4.163857e+002, 3.077642e+002
4.168678e+002, 3.086425e+002
4.173499e+002, 3.090899e+002
4.178321e+002, 3.091866e+002
4.183142e+002, 3.093049e+002
4.187963e+002, 3.096859e+002
4.192784e+002, 3.101723e+002
4.197605e+002, 3.101995e+002
4.202426e+002, 3.092208e+002
4.207248e+002, 3.085536e+002
4.212069e+002, 3.085332e+002
4.216890e+002, 3.087928e+002
4.221711e+002, 3.089719e+002
4.226532e+002, 3.089850e+002
4.231353e+002, 3.089547e+002
4.236175e+002, 3.090298e+002
4.240996e+002, 3.092393e+002
4.245817e+002, 3.094135e+002
4.250638e+002, 3.094819e+002
4.255459e+002, 3.095911e+002
4.260280e+002, 3.097891e+002
4.265102e+002, 3.100731e+002
4.269923e+002, 3.104712e+002
4.274744e+002, 3.110220e+002
4.279565e+002, 3.116066e+002
4.284386e+002, 3.117959e+002
4.289207e+002, 3.113439e+002
4.294029e+002, 3.109249e+002
4.298850e+002, 3.106091e+002
4.303671e+002, 3.103688e+002
4.308492e+002, 3.101105e+002
4.313313e+002, 3.098514e+002
4.318134e+002, 3.098133e+002
4.322956e+002, 3.104081e+002
4.327777e+002, 3.116635e+002
4.332598e+002, 3.124024e+002
4.337419e+002, 3.123566e+002
4.342241e+002, 3.120741e+002
4.347062e+002, 3.116728e+002
4.351883e+002, 3.112640e+002
4.356704e+002, 3.110622e+002
4.361525e+002, 3.112023e+002
4.366346e+002, 3.115372e+002
4.371168e+002, 3.118517e+002
4.375989e+002, 3.121429e+002
4.380810e+002, 3.124630e+002
4.385631e+002, 3.130121e+002
4.390452e+002, 3.134397e+002
4.395273e+002, 3.133133e+002
4.400095e+002, 3.125785e+002
4.404916e+002, 3.117889e+002
4.409737e+002, 3.110283e+002
4.414558e+002, 3.104567e+002
4.419379e+002, 3.106290e+002
4.424200e+002, 3.117579e+002
4.429022e+002, 3.126832e+002
4.433843e+002, 3.122676e+002
4.438664e+002, 3.107421e+002
4.443485e+002, 3.096815e+002
4.448306e+002, 3.092983e+002
4.453127e+002, 3.092648e+002
4.457949e+002, 3.096018e+002
4.462770e+002, 3.101494e+002
4.467591e+002, 3.105128e+002
4.472412e+002, 3.105372e+002
4.477233e+002, 3.102796e+002
4.482054e+002, 3.097982e+002
4.486876e+002, 3.088107e+002
4.491697e+002, 3.082659e+002
4.496518e+002, 3.085637e+002
4.501339e+002, 3.090585e+002
4.506160e+002, 3.093776e+002
4.510981e+002, 3.094362e+002
4.515803e+002, 3.091586e+002
4.520624e+002, 3.084230e+002
4.525445e+002, 3.072907e+002
4.530266e+002, 3.065915e+002
4.535087e+002, 3.067227e+002
4.539908e+002, 3.068596e+002
4.544730e+002, 3.069500e+002
4.549551e+002, 3.069608e+002
4.554372e+002, 3.067635e+002
4.559193e+002, 3.063488e+002
4.564014e+002, 3.060157e+002
4.568835e+002, 3.063611e+002
4.573657e+002, 3.076949e+002
4.578478e+002, 3.082674e+002
4.583299e+002, 3.072660e+002
4.588120e+002, 3.061906e+002
4.592941e+002, 3.056410e+002
4.597762e+002, 3.055062e+002
4.602584e+002, 3.054266e+002
4.607405e+002, 3.051966e+002
4.612226e+002, 3.049121e+002
4.617047e+002, 3.048492e+002
4.621868e+002, 3.051063e+002
4.626689e+002, 3.050997e+002
4.631511e+002, 3.043440e+002
4.636332e+002, 3.034185e+002
4.641153e+002, 3.029742e+002
4.645974e+002, 3.030907e+002
4.650795e+002, 3.030827e+002
4.655616e+002, 3.022205e+002
4.660438e+002, 3.009851e+002
4.665259e+002, 3.005641e+002
4.670080e+002, 3.012013e+002
4.674901e+002, 3.020216e+002
4.679722e+002, 3.024168e+002
4.684543e+002, 3.024227e+002
4.689365e+002, 3.023232e+002
4.694186e+002, 3.020251e+002
4.699007e+002, 3.017296e+002
4.703828e+002, 3.016187e+002
4.708649e+002, 3.015824e+002
4.713470e+002, 3.013917e+002
4.718292e+002, 3.009673e+002
4.723113e+002, 3.003336e+002
4.727934e+002, 2.994568e+002
4.732755e+002, 2.980712e+002
4.737576e+002, 2.972996e+002
4.742397e+002, 2.974619e+002
4.747219e+002, 2.979273e+002
4.752040e+002, 2.986196e+002
4.756861e+002, 2.993075e+002
4.761682e+002, 2.994496e+002
4.766503e+002, 2.986394e+002
4.771324e+002, 2.972000e+002
4.776146e+002, 2.964229e+002
4.780967e+002, 2.967928e+002
4.785788e+002, 2.970643e+002
4.790609e+002, 2.973264e+002
4.795430e+002, 2.973153e+002
4.800251e+002, 2.966580e+002
4.805073e+002, 2.954116e+002
4.809894e+002, 2.941435e+002
4.814715e+002, 2.933898e+002
4.819536e+002, 2.931236e+002
4.824357e+002, 2.930138e+002
4.829178e+002, 2.933148e+002
4.834000e+002, 2.933209e+002
4.838821e+002, 2.923221e+002
4.843642e+002, 2.910108e+002
4.848463e+002, 2.903731e+002
4.853284e+002, 2.908036e+002
4.858105e+002, 2.914853e+002
4.862927e+002, 2.916354e+002
4.867748e+002, 2.913263e+002
4.872569e+002, 2.909912e+002
4.877390e+002, 2.906852e+002
4.882211e+002, 2.904448e+002
4.887032e+002, 2.903307e+002
4.891854e+002, 2.903248e+002
4.896675e+002, 2.903666e+002
4.901496e+002, 2.904634e+002
4.906317e+002, 2.905902e+002
4.911138e+002, 2.908112e+002
4.915959e+002, 2.910652e+002
4.920781e+002, 2.911298e+002
4.925602e+002, 2.908945e+002
4.930423e+002, 2.904243e+002
4.935244e+002, 2.898272e+002
4.940065e+002, 2.888562e+002
4.944886e+002, 2.882546e+002
4.949708e+002, 2.885172e+002
4.954529e+002, 2.887993e+002
4.959350e+002, 2.882516e+002
4.964171e+002, 2.870350e+002
4.968992e+002, 2.860618e+002
4.973813e+002, 2.860541e+002
4.978635e+002, 2.868524e+002
4.983456e+002, 2.874947e+002
4.988277e+002, 2.881383e+002
4.993098e+002, 2.883446e+002
4.997919e+002, 2.878611e+002
5.002740e+002, 2.870776e+002
5.007562e+002, 2.862475e+002
5.012383e+002, 2.854538e+002
5.017204e+002, 2.847821e+002
5.022025e+002, 2.843770e+002
5.026846e+002, 2.842143e+002
5.031667e+002, 2.839903e+002
5.036489e+002, 2.837246e+002
5.041310e+002, 2.833621e+002
5.046131e+002, 2.827852e+002
5.050952e+002, 2.821288e+002
5.055773e+002, 2.815916e+002
5.060594e+002, 2.812451e+002
5.065416e+002, 2.809656e+002
5.070237e+002, 2.805766e+002
5.075058e+002, 2.801618e+002
5.079879e+002, 2.801110e+002
5.084700e+002, 2.806214e+002
5.089521e+002, 2.811027e+002
5.094343e+002, 2.808292e+002
5.099164e+002, 2.797984e+002
5.103985e+002, 2.790409e+002
5.108806e+002, 2.788269e+002
5.113627e+002, 2.786961e+002
5.118448e+002, 2.783011e+002
5.123270e+002, 2.777953e+002
5.128091e+002, 2.776407e+002
5.132912e+002, 2.780568e+002
5.137733e+002, 2.785891e+002
5.142554e+002, 2.783468e+002
5.147375e+002, 2.767465e+002
5.152197e+002, 2.757504e+002
5.157018e+002, 2.754855e+002
5.161839e+002, 2.756136e+002
5.166660e+002, 2.761889e+002
5.171481e+002, 2.770062e+002
5.176302e+002, 2.776968e+002
5.181124e+002, 2.780573e+002
5.185945e+002, 2.780937e+002
5.190766e+002, 2.777581e+002
5.195587e+002, 2.769036e+002
5.200408e+002, 2.761364e+002
5.205229e+002, 2.754740e+002
5.210051e+002, 2.750289e+002
5.214872e+002, 2.749917e+002
5.219693e+002, 2.753037e+002
5.224514e+002, 2.755912e+002
5.229335e+002, 2.756598e+002
5.234156e+002, 2.755532e+002
5.238978e+002, 2.753251e+002
5.243799e+002, 2.749738e+002
5.248620e+002, 2.745874e+002
5.253441e+002, 2.741584e+002
5.258262e+002, 2.737710e+002
5.263083e+002, 2.736307e+002
5.267905e+002, 2.738548e+002
5.272726e+002, 2.739452e+002
5.277547e+002, 2.736147e+002
5.282368e+002, 2.731678e+002
5.287189e+002, 2.728981e+002
5.292010e+002, 2.728489e+002
5.296832e+002, 2.729855e+002
5.301653e+002, 2.732918e+002
5.306474e+002, 2.737546e+002
5.311295e+002, 2.743021e+002
5.316116e+002, 2.753482e+002
5.320938e+002, 2.759349e+002
5.325759e+002, 2.755933e+002
5.330580e+002, 2.749961e+002
5.335401e+002, 2.747221e+002
5.340222e+002, 2.748623e+002
5.345043e+002, 2.751778e+002
5.349865e+002, 2.754945e+002
5.354686e+002, 2.757978e+002
5.359507e+002, 2.759111e+002
5.364328e+002, 2.757204e+002
5.369149e+002, 2.755556e+002
5.373970e+002, 2.756752e+002
5.378792e+002, 2.758173e+002
5.383613e+002, 2.756998e+002
5.388434e+002, 2.752628e+002
5.393255e+002, 2.746685e+002
5.398076e+002, 2.738421e+002
5.402897e+002, 2.729698e+002
5.407719e+002, 2.725910e+002
5.412540e+002, 2.728176e+002
5.417361e+002, 2.732466e+002
5.422182e+002, 2.736246e+002
5.427003e+002, 2.739708e+002
5.431824e+002, 2.743803e+002
5.436646e+002, 2.751064e+002
5.441467e+002, 2.755633e+002
5.446288e+002, 2.754111e+002
5.451109e+002, 2.749325e+002
5.455930e+002, 2.744239e+002
5.460751e+002, 2.739756e+002
5.465573e+002, 2.736765e+002
5.470394e+002, 2.736320e+002
5.475215e+002, 2.738474e+002
5.480036e+002, 2.740513e+002
5.484857e+002, 2.742363e+002
5.489678e+002, 2.744149e+002
5.494500e+002, 2.745060e+002
5.499321e+002, 2.746302e+002
5.504142e+002, 2.750320e+002
5.508963e+002, 2.757374e+002
5.513784e+002, 2.763108e+002
5.518605e+002, 2.761621e+002
5.523427e+002, 2.753493e+002
5.528248e+002, 2.747613e+002
5.533069e+002, 2.745165e+002
5.537890e+002, 2.743091e+002
5.542711e+002, 2.738710e+002
5.547532e+002, 2.733912e+002
5.552354e+002, 2.731783e+002
5.557175e+002, 2.733605e+002
5.561996e+002, 2.736043e+002
5.566817e+002, 2.736639e+002
5.571638e+002, 2.736417e+002
5.576459e+002, 2.738527e+002
5.581281e+002, 2.743622e+002
5.586102e+002, 2.746627e+002
5.590923e+002, 2.742661e+002
5.595744e+002, 2.732077e+002
5.600565e+002, 2.722758e+002
5.605386e+002, 2.713658e+002
5.610208e+002, 2.706906e+002
5.615029e+002, 2.704951e+002
5.619850e+002, 2.704562e+002
5.624671e+002, 2.701084e+002
5.629492e+002, 2.694092e+002
5.634313e+002, 2.688242e+002
5.639135e+002, 2.689153e+002
5.643956e+002, 2.696638e+002
5.648777e+002, 2.700378e+002
5.653598e+002, 2.697925e+002
5.658419e+002, 2.695527e+002
5.663240e+002, 2.694370e+002
5.668062e+002, 2.694614e+002
5.672883e+002, 2.697287e+002
5.677704e+002, 2.702664e+002
5.682525e+002, 2.707062e+002
5.687346e+002, 2.707121e+002
5.692167e+002, 2.704020e+002
5.696989e+002, 2.700647e+002
5.701810e+002, 2.697107e+002
5.706631e+002, 2.694428e+002
5.711452e+002, 2.693610e+002
5.716273e+002, 2.694069e+002
5.721094e+002, 2.693575e+002
5.725916e+002, 2.690195e+002
5.730737e+002, 2.689378e+002
5.735558e+002, 2.695522e+002
5.740379e+002, 2.703240e+002
5.745200e+002, 2.706584e+002
5.750021e+002, 2.705083e+002
5.754843e+002, 2.701695e+002
5.759664e+002, 2.698536e+002
5.764485e+002, 2.695743e+002
5.769306e+002, 2.694336e+002
5.774127e+002, 2.695630e+002
5.778948e+002, 2.696156e+002
5.783770e+002, 2.693745e+002
5.788591e+002, 2.691682e+002
5.793412e+002, 2.693456e+002
5.798233e+002, 2.698607e+002
5.803054e+002, 2.702762e+002
5.807875e+002, 2.701626e+002
5.812697e+002, 2.697637e+002
5.817518e+002, 2.697743e+002
5.822339e+002, 2.702587e+002
5.827161e+002, 2.705416e+002
5.831982e+002, 2.702380e+002
5.836803e+002, 2.697032e+002
5.841624e+002, 2.695140e+002
5.846445e+002, 2.697164e+002
5.851266e+002, 2.697882e+002
5.856088e+002, 2.695182e+002
5.860909e+002, 2.691240e+002
5.865730e+002, 2.686641e+002
5.870551e+002, 2.682363e+002
5.875372e+002, 2.681198e+002
5.880193e+002, 2.684761e+002
5.885015e+002, 2.691398e+002
5.889836e+002, 2.697764e+002
5.894657e+002, 2.705462e+002
5.899478e+002, 2.709275e+002
5.904299e+002, 2.705633e+002
5.909120e+002, 2.702032e+002
5.913942e+002, 2.701806e+002
5.918763e+002, 2.704459e+002
5.923584e+002, 2.708965e+002
5.928405e+002, 2.715469e+002
5.933226e+002, 2.721105e+002
5.938047e+002, 2.721105e+002
5.942869e+002, 2.715527e+002
5.947690e+002, 2.708549e+002
5.952511e+002, 2.699125e+002
5.957332e+002, 2.691493e+002
5.962153e+002, 2.691047e+002
5.966974e+002, 2.695731e+002
5.971796e+002, 2.698820e+002
5.976617e+002, 2.699064e+002
5.981438e+002, 2.697766e+002
5.986259e+002, 2.694991e+002
5.991080e+002, 2.691329e+002
5.995901e+002, 2.687353e+002
6.000723e+002, 2.683328e+002
6.005544e+002, 2.680607e+002
6.010365e+002, 2.681168e+002
6.015186e+002, 2.685190e+002
6.020007e+002, 2.685295e+002
6.024828e+002, 2.677000e+002
6.029650e+002, 2.670219e+002
6.034471e+002, 2.667658e+002
6.039292e+002, 2.666810e+002
6.044113e+002, 2.665409e+002
6.048934e+002, 2.662943e+002
6.053755e+002, 2.659747e+002
6.058577e+002, 2.655031e+002
6.063398e+002, 2.649769e+002
6.068219e+002, 2.648763e+002
6.073040e+002, 2.653271e+002
6.077861e+002, 2.654448e+002
6.082682e+002, 2.645700e+002
6.087504e+002, 2.633162e+002
6.092325e+002, 2.628233e+002
6.097146e+002, 2.632695e+002
6.101967e+002, 2.634522e+002
6.106788e+002, 2.627626e+002
6.111609e+002, 2.618966e+002
6.116431e+002, 2.614916e+002
6.121252e+002, 2.614811e+002
6.126073e+002, 2.615096e+002
6.130894e+002, 2.613991e+002
6.135715e+002, 2.611555e+002
6.140536e+002, 2.607227e+002
6.145358e+002, 2.597890e+002
6.150179e+002, 2.594536e+002
6.155000e+002, 2.603532e+002
6.159821e+002, 2.612224e+002
6.164642e+002, 2.615123e+002
6.169464e+002, 2.613933e+002
6.174285e+002, 2.611943e+002
6.179106e+002, 2.609866e+002
6.183927e+002, 2.609666e+002
6.188748e+002, 2.615547e+002
6.193569e+002, 2.625905e+002
6.198391e+002, 2.631981e+002
6.203212e+002, 2.631937e+002
6.208033e+002, 2.629264e+002
6.212854e+002, 2.626043e+002
6.217675e+002, 2.622420e+002
6.222496e+002, 2.619313e+002
6.227318e+002, 2.615668e+002
6.232139e+002, 2.613825e+002
6.236960e+002, 2.615674e+002
6.241781e+002, 2.618889e+002
6.246602e+002, 2.621218e+002
6.251423e+002, 2.622275e+002
6.256245e+002, 2.622660e+002
6.261066e+002, 2.622949e+002
6.265887e+002, 2.622819e+002
6.270708e+002, 2.620567e+002
6.275529e+002, 2.615061e+002
6.280350e+002, 2.610210e+002
6.285172e+002, 2.603815e+002
6.289993e+002, 2.600756e+002
6.294814e+002, 2.607503e+002
6.299635e+002, 2.621781e+002
6.304456e+002, 2.631797e+002
6.309277e+002, 2.629615e+002
6.314099e+002, 2.623057e+002
6.318920e+002, 2.622054e+002
6.323741e+002, 2.624572e+002
6.328562e+002, 2.621031e+002
6.333383e+002, 2.607675e+002
6.338204e+002, 2.592501e+002
6.343026e+002, 2.585196e+002
6.347847e+002, 2.586731e+002
6.352668e+002, 2.587184e+002
6.357489e+002, 2.585255e+002
6.362310e+002, 2.583920e+002
6.367131e+002, 2.584826e+002
6.371953e+002, 2.586356e+002
6.376774e+002, 2.586622e+002
6.381595e+002, 2.585221e+002
6.386416e+002, 2.583117e+002
6.391237e+002, 2.582552e+002
6.396058e+002, 2.582170e+002
6.400880e+002, 2.572760e+002
6.405701e+002, 2.550628e+002
6.410522e+002, 2.534539e+002
6.415343e+002, 2.534531e+002
6.420164e+002, 2.542289e+002
6.424985e+002, 2.547503e+002
6.429807e+002, 2.550319e+002
6.434628e+002, 2.548979e+002
6.439449e+002, 2.538463e+002
6.444270e+002, 2.527471e+002
6.449091e+002, 2.523383e+002
6.453912e+002, 2.524725e+002
6.458734e+002, 2.527242e+002
6.463555e+002, 2.529194e+002
6.468376e+002, 2.530164e+002
6.473197e+002, 2.529403e+002
6.478018e+002, 2.526700e+002
6.482839e+002, 2.523371e+002
6.487661e+002, 2.518058e+002
6.492482e+002, 2.513777e+002
6.497303e+002, 2.512207e+002
6.502124e+002, 2.511768e+002
6.506945e+002, 2.510086e+002
6.511766e+002, 2.506594e+002
6.516588e+002, 2.504093e+002
6.521409e+002, 2.505475e+002
6.526230e+002, 2.509124e+002
6.531051e+002, 2.512456e+002
6.535872e+002, 2.515239e+002
6.540693e+002, 2.515101e+002
6.545515e+002, 2.509605e+002
6.550336e+002, 2.502424e+002
6.555157e+002, 2.501635e+002
6.559978e+002, 2.511911e+002
6.564799e+002, 2.517634e+002
6.569620e+002, 2.516056e+002
6.574442e+002, 2.512542e+002
6.579263e+002, 2.508738e+002
6.584084e+002, 2.505351e+002
6.588905e+002, 2.503498e+002
6.593726e+002, 2.503634e+002
6.598547e+002, 2.503651e+002
6.603369e+002, 2.499648e+002
6.608190e+002, 2.492115e+002
6.613011e+002, 2.488961e+002
6.617832e+002, 2.492304e+002
6.622653e+002, 2.495222e+002
6.627474e+002, 2.493822e+002
6.632296e+002, 2.489490e+002
6.637117e+002, 2.484757e+002
6.641938e+002, 2.478906e+002
6.646759e+002, 2.475148e+002
6.651580e+002, 2.476589e+002
6.656401e+002, 2.478956e+002
6.661223e+002, 2.477817e+002
6.666044e+002, 2.473963e+002
6.670865e+002, 2.471042e+002
6.675686e+002, 2.470968e+002
6.680507e+002, 2.472178e+002
6.685328e+002, 2.471319e+002
6.690150e+002, 2.467357e+002
6.694971e+002, 2.466007e+002
6.699792e+002, 2.471112e+002
6.704613e+002, 2.473976e+002
6.709434e+002, 2.468546e+002
6.714255e+002, 2.459539e+002
6.719077e+002, 2.454253e+002
6.723898e+002, 2.454714e+002
6.728719e+002, 2.456314e+002
6.733540e+002, 2.456933e+002
6.738361e+002, 2.456489e+002
6.743182e+002, 2.453890e+002
6.748004e+002, 2.449557e+002
6.752825e+002, 2.446989e+002
6.757646e+002, 2.448301e+002
6.762467e+002, 2.452246e+002
6.767288e+002, 2.456197e+002
6.772109e+002, 2.461410e+002
6.776931e+002, 2.463610e+002
6.781752e+002, 2.459538e+002
6.786573e+002, 2.456117e+002
6.791394e+002, 2.457197e+002
6.796215e+002, 2.460626e+002
6.801036e+002, 2.463274e+002
6.805858e+002, 2.464205e+002
6.810679e+002, 2.462361e+002
6.815500e+002, 2.453855e+002
6.820321e+002, 2.441992e+002
6.825142e+002, 2.437190e+002
6.829963e+002, 2.440604e+002
6.834785e+002, 2.444604e+002
6.839606e+002, 2.445320e+002
6.844427e+002, 2.443547e+002
6.849248e+002, 2.440993e+002
6.854069e+002, 2.437109e+002
6.858890e+002, 2.433770e+002
6.863712e+002, 2.429763e+002
6.868533e+002, 2.427599e+002
6.873354e+002, 2.430733e+002
6.878175e+002, 2.436161e+002
6.882996e+002, 2.438561e+002
6.887817e+002, 2.435962e+002
6.892639e+002, 2.430901e+002
6.897460e+002, 2.425744e+002
6.902281e+002, 2.420634e+002
6.907102e+002, 2.416297e+002
6.911923e+002, 2.412380e+002
6.916744e+002, 2.411482e+002
6.921566e+002, 2.417070e+002
6.926387e+002, 2.424960e+002
6.931208e+002, 2.426467e+002
6.936029e+002, 2.420354e+002
6.940850e+002, 2.414467e+002
6.945671e+002, 2.406824e+002
6.950493e+002, 2.402833e+002
6.955314e+002, 2.405927e+002
6.960135e+002, 2.415327e+002
6.964956e+002, 2.432596e+002
6.969777e+002, 2.457351e+002
6.974598e+002, 2.477979e+002
6.979420e+002, 2.477422e+002
6.984241e+002, 2.456534e+002
6.989062e+002, 2.436478e+002
6.993883e+002, 2.414990e+002
6.998704e+002, 2.400945e+002
7.003525e+002, 2.402422e+002
7.008347e+002, 2.410741e+002
7.013168e+002, 2.414140e+002
7.017989e+002, 2.412157e+002
7.022810e+002, 2.409933e+002
7.027631e+002, 2.409256e+002
7.032452e+002, 2.408413e+002
7.037274e+002, 2.405599e+002
7.042095e+002, 2.401829e+002
7.046916e+002, 2.399018e+002
7.051737e+002, 2.397827e+002
7.056558e+002, 2.398003e+002
7.061379e+002, 2.399667e+002
7.066201e+002, 2.402645e+002
7.071022e+002, 2.403947e+002
7.075843e+002, 2.403815e+002
7.080664e+002, 2.401349e+002
7.085485e+002, 2.393858e+002
7.090306e+002, 2.385633e+002
7.095128e+002, 2.380885e+002
7.099949e+002, 2.379467e+002
7.104770e+002, 2.378111e+002
7.109591e+002, 2.375127e+002
7.114412e+002, 2.372492e+002
7.119233e+002, 2.372049e+002
7.124055e+002, 2.372923e+002
7.128876e+002, 2.373670e+002
7.133697e+002, 2.373850e+002
7.138518e+002, 2.373116e+002
7.143339e+002, 2.370723e+002
7.148160e+002, 2.367270e+002
7.152982e+002, 2.367617e+002
7.157803e+002, 2.374408e+002
7.162624e+002, 2.378810e+002
7.167445e+002, 2.375515e+002
7.172266e+002, 2.372304e+002
7.177087e+002, 2.377547e+002
7.181909e+002, 2.388225e+002
7.186730e+002, 2.391165e+002
7.191551e+002, 2.374577e+002
7.196372e+002, 2.359406e+002
7.201193e+002, 2.363137e+002
7.206014e+002, 2.376647e+002
7.210836e+002, 2.384934e+002
7.215657e+002, 2.385530e+002
7.220478e+002, 2.383270e+002
7.225299e+002, 2.381646e+002
7.230120e+002, 2.380243e+002
7.234941e+002, 2.377320e+002
7.239763e+002, 2.371559e+002
7.244584e+002, 2.367961e+002
7.249405e+002, 2.368348e+002
7.254226e+002, 2.369656e+002
7.259047e+002, 2.370793e+002
7.263868e+002, 2.371567e+002
7.268690e+002, 2.371234e+002
7.273511e+002, 2.368592e+002
7.278332e+002, 2.367898e+002
7.283153e+002, 2.375639e+002
7.287974e+002, 2.384675e+002
7.292795e+002, 2.382952e+002
7.297617e+002, 2.371880e+002
7.302438e+002, 2.364119e+002
7.307259e+002, 2.366819e+002
7.312080e+002, 2.374624e+002
7.316901e+002, 2.376693e+002
7.321722e+002, 2.371772e+002
7.326544e+002, 2.366164e+002
7.331365e+002, 2.358281e+002
7.336186e+002, 2.351891e+002
7.341007e+002, 2.346626e+002
7.345828e+002, 2.344505e+002
7.350649e+002, 2.350846e+002
7.355471e+002, 2.367445e+002
7.360292e+002, 2.377736e+002
7.365113e+002, 2.366826e+002
7.369934e+002, 2.351661e+002
7.374755e+002, 2.350207e+002
7.379576e+002, 2.358893e+002
7.384398e+002, 2.366170e+002
7.389219e+002, 2.367868e+002
7.394040e+002, 2.365571e+002
7.398861e+002, 2.360319e+002
7.403682e+002, 2.352210e+002
7.408503e+002, 2.349321e+002
7.413325e+002, 2.354198e+002
7.418146e+002, 2.358917e+002
7.422967e+002, 2.362224e+002
7.427788e+002, 2.363662e+002
7.432609e+002, 2.362316e+002
7.437430e+002, 2.358432e+002
7.442252e+002, 2.354112e+002
7.447073e+002, 2.348859e+002
7.451894e+002, 2.344526e+002
7.456715e+002, 2.343059e+002
7.461536e+002, 2.343043e+002
7.466357e+002, 2.342374e+002
7.471179e+002, 2.340672e+002
7.476000e+002, 2.338367e+002
7.480821e+002, 2.335530e+002
7.485642e+002, 2.332926e+002
7.490463e+002, 2.333874e+002
7.495284e+002, 2.340099e+002
7.500106e+002, 2.341693e+002
7.504927e+002, 2.333101e+002
7.509748e+002, 2.325539e+002
7.514569e+002, 2.328944e+002
7.519390e+002, 2.338587e+002
7.524211e+002, 2.344521e+002
7.529033e+002, 2.345173e+002
7.533854e+002, 2.343266e+002
7.538675e+002, 2.337366e+002
7.543496e+002, 2.331170e+002
7.548317e+002, 2.327518e+002
7.553138e+002, 2.326659e+002
7.557960e+002, 2.329315e+002
7.562781e+002, 2.335810e+002
7.567602e+002, 2.341898e+002
7.572423e+002, 2.340130e+002
7.577244e+002, 2.330833e+002
7.582065e+002, 2.325127e+002
7.586887e+002, 2.323326e+002
7.591708e+002, 2.324893e+002
7.596529e+002, 2.331667e+002
7.601350e+002, 2.339980e+002
7.606171e+002, 2.344114e+002
7.610992e+002, 2.343895e+002
7.615814e+002, 2.343757e+002
7.620635e+002, 2.344200e+002
7.625456e+002, 2.344914e+002
7.630277e+002, 2.347407e+002
7.635098e+002, 2.349255e+002
7.639919e+002, 2.347271e+002
7.644741e+002, 2.341083e+002
7.649562e+002, 2.332241e+002
7.654383e+002, 2.320423e+002
7.659204e+002, 2.308802e+002
7.664025e+002, 2.305112e+002
7.668846e+002, 2.309185e+002
7.673668e+002, 2.316809e+002
7.678489e+002, 2.328785e+002
7.683310e+002, 2.338067e+002
7.688131e+002, 2.338216e+002
7.692952e+002, 2.330632e+002
7.697773e+002, 2.323366e+002
7.702595e+002, 2.313393e+002
7.707416e+002, 2.308050e+002
7.712237e+002, 2.313108e+002
7.717058e+002, 2.317940e+002
7.721879e+002, 2.312839e+002
7.726700e+002, 2.302907e+002
7.731522e+002, 2.300045e+002
7.736343e+002, 2.309108e+002
7.741164e+002, 2.320214e+002
7.745985e+002, 2.323292e+002
7.750806e+002, 2.321682e+002
7.755627e+002, 2.324443e+002
7.760449e+002, 2.331322e+002
7.765270e+002, 2.332624e+002
7.770091e+002, 2.323398e+002
7.774912e+002, 2.310099e+002
7.779733e+002, 2.302288e+002
7.784554e+002, 2.300456e+002
7.789376e+002, 2.299855e+002
7.794197e+002, 2.301947e+002
7.799019e+002, 2.303295e+002
7.803840e+002, 2.302649e+002
7.808661e+002, 2.301380e+002
7.813482e+002, 2.300086e+002
7.818303e+002, 2.299134e+002
7.823124e+002, 2.300007e+002
7.827946e+002, 2.306436e+002
7.832767e+002, 2.311051e+002
7.837588e+002, 2.304558e+002
7.842409e+002, 2.293229e+002
7.847230e+002, 2.288655e+002
7.852051e+002, 2.292084e+002
7.856873e+002, 2.297513e+002
7.861694e+002, 2.300807e+002
7.866515e+002, 2.303203e+002
7.871336e+002, 2.309165e+002
7.876157e+002, 2.320683e+002
7.880978e+002, 2.324101e+002
7.885800e+002, 2.314113e+002
7.890621e+002, 2.303533e+002
7.895442e+002, 2.299145e+002
7.900263e+002, 2.298571e+002
7.905084e+002, 2.297644e+002
7.909905e+002, 2.295584e+002
7.914727e+002, 2.296617e+002
7.919548e+002, 2.306024e+002
7.924369e+002, 2.314576e+002
7.929190e+002, 2.316379e+002
7.934011e+002, 2.313332e+002
7.938832e+002, 2.307757e+002
7.943654e+002, 2.300926e+002
7.948475e+002, 2.295849e+002
7.953296e+002, 2.295984e+002
7.958117e+002, 2.299151e+002
7.962938e+002, 2.299433e+002
7.967759e+002, 2.296847e+002
7.972581e+002, 2.294422e+002
7.977402e+002, 2.292887e+002
7.982223e+002, 2.291280e+002
7.987044e+002, 2.288007e+002
7.991865e+002, 2.283953e+002
7.996686e+002, 2.284427e+002
8.001508e+002, 2.295196e+002
8.006329e+002, 2.302223e+002
8.011150e+002, 2.303283e+002
8.015971e+002, 2.302578e+002
8.020792e+002, 2.302108e+002
8.025613e+002, 2.301770e+002
8.030435e+002, 2.301111e+002
8.035256e+002, 2.300064e+002
8.040077e+002, 2.298253e+002
8.044898e+002, 2.294351e+002
8.049719e+002, 2.290208e+002
8.054540e+002, 2.289064e+002
8.059362e+002, 2.290268e+002
8.064183e+002, 2.290553e+002
8.069004e+002, 2.288775e+002
8.073825e+002, 2.286637e+002
8.078646e+002, 2.286463e+002
8.083467e+002, 2.287884e+002
8.088289e+002, 2.285560e+002
8.093110e+002, 2.277299e+002
8.097931e+002, 2.271210e+002
8.102752e+002, 2.269146e+002
8.107573e+002, 2.269664e+002
8.112394e+002, 2.272324e+002
8.117216e+002, 2.276581e+002
8.122037e+002, 2.280632e+002
8.126858e+002, 2.283787e+002
8.131679e+002, 2.287538e+002
8.136500e+002, 2.295010e+002
8.141321e+002, 2.301078e+002
8.146143e+002, 2.299554e+002
8.150964e+002, 2.293034e+002
8.155785e+002, 2.288136e+002
8.160606e+002, 2.287550e+002
8.165427e+002, 2.289012e+002
8.170248e+002, 2.290664e+002
8.175070e+002, 2.292193e+002
8.179891e+002, 2.292580e+002
8.184712e+002, 2.291797e+002
8.189533e+002, 2.289742e+002
8.194354e+002, 2.286176e+002
8.199175e+002, 2.282034e+002
8.203997e+002, 2.278128e+002
8.208818e+002, 2.274485e+002
8.213639e+002, 2.272838e+002
8.218460e+002, 2.275507e+002
8.223281e+002, 2.276737e+002
8.228102e+002, 2.275128e+002
8.232924e+002, 2.272722e+002
8.237745e+002, 2.270803e+002
8.242566e+002, 2.269200e+002
8.247387e+002, 2.267130e+002
8.252208e+002, 2.264049e+002
8.257029e+002, 2.261578e+002
8.261851e+002, 2.260875e+002
8.266672e+002, 2.261208e+002
8.271493e+002, 2.262126e+002
8.276314e+002, 2.263303e+002
8.281135e+002, 2.264341e+002
8.285956e+002, 2.265030e+002
8.290778e+002, 2.264424e+002
8.295599e+002, 2.261009e+002
8.300420e+002, 2.255239e+002
8.305241e+002, 2.249726e+002
8.310062e+002, 2.244211e+002
8.314883e+002, 2.240858e+002
8.319705e+002, 2.240426e+002
8.324526e+002, 2.242049e+002
8.329347e+002, 2.245659e+002
8.334168e+002, 2.250887e+002
8.338989e+002, 2.254184e+002
8.343810e+002, 2.254961e+002
8.348632e+002, 2.254844e+002
8.353453e+002, 2.252621e+002
8.358274e+002, 2.250845e+002
8.363095e+002, 2.252315e+002
8.367916e+002, 2.255078e+002
8.372737e+002, 2.254766e+002
8.377559e+002, 2.249894e+002
8.382380e+002, 2.245565e+002
8.387201e+002, 2.247213e+002
8.392022e+002, 2.250445e+002
8.396843e+002, 2.248842e+002
8.401664e+002, 2.243537e+002
8.406486e+002, 2.238147e+002
8.411307e+002, 2.233922e+002
8.416128e+002, 2.231914e+002
8.420949e+002, 2.233530e+002
8.425770e+002, 2.237872e+002
8.430591e+002, 2.240581e+002
8.435413e+002, 2.241075e+002
8.440234e+002, 2.243163e+002
8.445055e+002, 2.248825e+002
8.449876e+002, 2.253618e+002
8.454697e+002, 2.254882e+002
8.459518e+002, 2.252901e+002
8.464340e+002, 2.247992e+002
8.469161e+002, 2.237333e+002
8.473982e+002, 2.231452e+002
8.478803e+002, 2.235392e+002
8.483624e+002, 2.240085e+002
8.488445e+002, 2.240571e+002
8.493267e+002, 2.239239e+002
8.498088e+002, 2.240329e+002
8.502909e+002, 2.244165e+002
8.507730e+002, 2.246299e+002
8.512551e+002, 2.243383e+002
8.517372e+002, 2.237784e+002
8.522194e+002, 2.230263e+002
8.527015e+002, 2.222655e+002
8.531836e+002, 2.220717e+002
8.536657e+002, 2.224772e+002
8.541478e+002, 2.227973e+002
8.546299e+002, 2.225404e+002
8.551121e+002, 2.220465e+002
8.555942e+002, 2.221923e+002
8.560763e+002, 2.231140e+002
8.565584e+002, 2.234780e+002
8.570405e+002, 2.230624e+002
8.575226e+002, 2.225421e+002
8.580048e+002, 2.220399e+002
8.584869e+002, 2.217268e+002
8.589690e+002, 2.220117e+002
8.594511e+002, 2.229589e+002
8.599332e+002, 2.233675e+002
8.604153e+002, 2.226416e+002
8.608975e+002, 2.220853e+002
8.613796e+002, 2.222947e+002
8.618617e+002, 2.226304e+002
8.623438e+002, 2.224829e+002
8.628259e+002, 2.219517e+002
8.633080e+002, 2.215101e+002
8.637902e+002, 2.213542e+002
8.642723e+002, 2.213157e+002
8.647544e+002, 2.213072e+002
8.652365e+002, 2.212961e+002
8.657186e+002, 2.212293e+002
8.662007e+002, 2.211117e+002
8.666829e+002, 2.209877e+002
8.671650e+002, 2.208728e+002
8.676471e+002, 2.207004e+002
8.681292e+002, 2.203437e+002
8.686113e+002, 2.198747e+002
8.690934e+002, 2.197580e+002
8.695756e+002, 2.200398e+002
8.700577e+002, 2.203601e+002
8.705398e+002, 2.206973e+002
8.710219e+002, 2.209306e+002
8.715040e+002, 2.209882e+002
8.719861e+002, 2.208619e+002
8.724683e+002, 2.205026e+002
8.729504e+002, 2.196698e+002
8.734325e+002, 2.190561e+002
8.739146e+002, 2.187822e+002
8.743967e+002, 2.185992e+002
8.748788e+002, 2.183720e+002
8.753610e+002, 2.181922e+002
8.758431e+002, 2.182386e+002
8.763252e+002, 2.185116e+002
8.768073e+002, 2.187057e+002
8.772894e+002, 2.185587e+002
8.777715e+002, 2.184017e+002
8.782537e+002, 2.185251e+002
8.787358e+002, 2.187864e+002
8.792179e+002, 2.190505e+002
8.797000e+002, 2.192426e+002
8.801821e+002, 2.191612e+002
8.806642e+002, 2.186681e+002
8.811464e+002, 2.180889e+002
8.816285e+002, 2.179692e+002
8.821106e+002, 2.182194e+002
8.825927e+002, 2.183470e+002
8.830748e+002, 2.183291e+002
8.835569e+002, 2.182218e+002
8.840391e+002, 2.180314e+002
8.845212e+002, 2.178117e+002
8.850033e+002, 2.176160e+002
8.854854e+002, 2.174467e+002
8.859675e+002, 2.173313e+002
8.864496e+002, 2.172808e+002
8.869318e+002, 2.172666e+002
8.874139e+002, 2.174177e+002
8.878960e+002, 2.174649e+002
8.883781e+002, 2.170783e+002
8.888602e+002, 2.165344e+002
8.893423e+002, 2.164060e+002
8.898245e+002, 2.168395e+002
8.903066e+002, 2.173059e+002
8.907887e+002, 2.178254e+002
8.912708e+002, 2.181633e+002
8.917529e+002, 2.180454e+002
8.922350e+002, 2.177354e+002
8.927172e+002, 2.176345e+002
8.931993e+002, 2.177535e+002
8.936814e+002, 2.177065e+002
8.941635e+002, 2.171021e+002
8.946456e+002, 2.165568e+002
8.951277e+002, 2.170538e+002
8.956099e+002, 2.181073e+002
8.960920e+002, 2.185655e+002
8.965741e+002, 2.183911e+002
8.970562e+002, 2.182421e+002
8.975383e+002, 2.184378e+002
8.980204e+002, 2.186668e+002
8.985026e+002, 2.184160e+002
8.989847e+002, 2.177426e+002
8.994668e+002, 2.174245e+002
8.999489e+002, 2.174960e+002
9.004310e+002, 2.177510e+002
9.009131e+002, 2.182372e+002
9.013953e+002, 2.186605e+002
9.018774e+002, 2.187078e+002
9.023595e+002, 2.184944e+002
9.028416e+002, 2.185455e+002
9.033237e+002, 2.191462e+002
9.038058e+002, 2.195007e+002
9.042880e+002, 2.196585e+002
9.047701e+002, 2.195321e+002
9.052522e+002, 2.188329e+002
9.057343e+002, 2.179781e+002
9.062164e+002, 2.174543e+002
9.066985e+002, 2.173091e+002
9.071807e+002, 2.173571e+002
9.076628e+002, 2.177277e+002
9.081449e+002, 2.180432e+002
9.086270e+002, 2.179849e+002
9.091091e+002, 2.178348e+002
9.095912e+002, 2.179239e+002
9.100734e+002, 2.182222e+002
9.105555e+002, 2.185215e+002
9.110376e+002, 2.187293e+002
9.115197e+002, 2.188960e+002
9.120018e+002, 2.190145e+002
9.124839e+002, 2.191533e+002
9.129661e+002, 2.195396e+002
9.134482e+002, 2.201015e+002
9.139303e+002, 2.204623e+002
9.144124e+002, 2.205241e+002
9.148945e+002, 2.204752e+002
9.153766e+002, 2.204639e+002
9.158588e+002, 2.205109e+002
9.163409e+002, 2.206995e+002
9.168230e+002, 2.210477e+002
9.173051e+002, 2.214123e+002
9.177872e+002, 2.218556e+002
9.182693e+002, 2.220389e+002
9.187515e+002, 2.216601e+002
9.192336e+002, 2.211028e+002
9.197157e+002, 2.209485e+002
9.201978e+002, 2.212206e+002
9.206799e+002, 2.216537e+002
9.211620e+002, 2.224084e+002
9.216442e+002, 2.230995e+002
9.221263e+002, 2.236512e+002
9.226084e+002, 2.241430e+002
9.230905e+002, 2.246680e+002
9.235726e+002, 2.251674e+002
9.240547e+002, 2.254738e+002
9.245369e+002, 2.254900e+002
9.250190e+002, 2.255880e+002
9.255011e+002, 2.258675e+002
9.259832e+002, 2.263078e+002
9.264653e+002, 2.269380e+002
9.269474e+002, 2.277048e+002
9.274296e+002, 2.286142e+002
9.279117e+002, 2.296034e+002
9.283938e+002, 2.304406e+002
9.288759e+002, 2.309601e+002
9.293580e+002, 2.313445e+002
9.298401e+002, 2.318251e+002
9.303223e+002, 2.322980e+002
9.308044e+002, 2.324893e+002
9.312865e+002, 2.324613e+002
9.317686e+002, 2.325313e+002
9.322507e+002, 2.328300e+002
9.327328e+002, 2.333590e+002
9.332150e+002, 2.341745e+002
9.336971e+002, 2.351857e+002
9.341792e+002, 2.360569e+002
9.346613e+002, 2.367859e+002
9.351434e+002, 2.374798e+002
9.356255e+002, 2.381628e+002
9.361077e+002, 2.387415e+002
9.365898e+002, 2.391221e+002
9.370719e+002, 2.394221e+002
9.375540e+002, 2.399134e+002
9.380361e+002, 2.406243e+002
9.385182e+002, 2.413082e+002
9.390004e+002, 2.415595e+002
9.394825e+002, 2.426421e+002
9.399646e+002, 2.461208e+002
9.404467e+002, 2.493744e+002
9.409288e+002, 2.494885e+002
9.414109e+002, 2.472136e+002
9.418931e+002, 2.458160e+002
9.423752e+002, 2.456692e+002
9.428573e+002, 2.459121e+002
9.433394e+002, 2.466304e+002
9.438215e+002, 2.475100e+002
9.443036e+002, 2.485476e+002
9.447858e+002, 2.495628e+002
9.452679e+002, 2.502411e+002
9.457500e+002, 2.506011e+002
9.462321e+002, 2.511783e+002
9.467142e+002, 2.524543e+002
9.471964e+002, 2.536807e+002
9.476785e+002, 2.545076e+002
9.481606e+002, 2.549798e+002
9.486427e+002, 2.549571e+002
9.491248e+002, 2.546501e+002
9.496069e+002, 2.544800e+002
9.500891e+002, 2.546120e+002
9.505712e+002, 2.551054e+002
9.510533e+002, 2.562858e+002
9.515354e+002, 2.576907e+002
9.520175e+002, 2.586377e+002
9.524996e+002, 2.591627e+002
9.529818e+002, 2.592322e+002
9.534639e+002, 2.589209e+002
9.539460e+002, 2.587253e+002
9.544281e+002, 2.589542e+002
9.549102e+002, 2.594871e+002
9.553923e+002, 2.602198e+002
9.558745e+002, 2.611100e+002
9.563566e+002, 2.616640e+002
9.568387e+002, 2.618602e+002
9.573208e+002, 2.621064e+002
9.578029e+002, 2.625343e+002
9.582850e+002, 2.629937e+002
9.587672e+002, 2.633254e+002
9.592493e+002, 2.635958e+002
9.597314e+002, 2.641320e+002
9.602135e+002, 2.651224e+002
9.606956e+002, 2.656113e+002
9.611777e+002, 2.650800e+002
9.616599e+002, 2.650631e+002
9.621420e+002, 2.665056e+002
9.626241e+002, 2.684634e+002
9.631062e+002, 2.697918e+002
9.635883e+002, 2.704884e+002
9.640704e+002, 2.711977e+002
9.645526e+002, 2.715835e+002
9.650347e+002, 2.724751e+002
9.655168e+002, 2.747890e+002
9.659989e+002, 2.767301e+002
9.664810e+002, 2.768494e+002
9.669631e+002, 2.761884e+002
9.674453e+002, 2.765660e+002
9.679274e+002, 2.782442e+002
9.684095e+002, 2.793813e+002
9.688916e+002, 2.788276e+002
9.693737e+002, 2.784228e+002
9.698558e+002, 2.793509e+002
9.703380e+002, 2.805054e+002
9.708201e+002, 2.806743e+002
9.713022e+002, 2.801700e+002
9.717843e+002, 2.800276e+002
9.722664e+002, 2.806016e+002
9.727485e+002, 2.813091e+002
9.732307e+002, 2.818675e+002
9.737128e+002, 2.822782e+002
9.741949e+002, 2.824306e+002
9.746770e+002, 2.824862e+002
9.751591e+002, 2.828176e+002
9.756412e+002, 2.833692e+002
9.761234e+002, 2.835972e+002
9.766055e+002, 2.831583e+002
9.770876e+002, 2.826394e+002
9.775698e+002, 2.829650e+002
9.780519e+002, 2.836379e+002
9.785340e+002, 2.835501e+002
9.790161e+002, 2.827858e+002
9.794982e+002, 2.817943e+002
9.799803e+002, 2.807280e+002
9.804625e+002, 2.798713e+002
9.809446e+002, 2.795049e+002
9.814267e+002, 2.792983e+002
9.819088e+002, 2.784375e+002
9.823909e+002, 2.770098e+002
9.828730e+002, 2.759346e+002
9.833552e+002, 2.752828e+002
9.838373e+002, 2.743799e+002
9.843194e+002, 2.729695e+002
9.848015e+002, 2.712637e+002
9.852836e+002, 2.693846e+002
9.857657e+002, 2.674777e+002
9.862479e+002, 2.663609e+002
9.867300e+002, 2.662685e+002
9.872121e+002, 2.657154e+002
9.876942e+002, 2.645016e+002
9.881763e+002, 2.630467e+002
9.886584e+002, 2.614957e+002
9.891406e+002, 2.598745e+002
9.896227e+002, 2.581739e+002
9.901048e+002, 2.563869e+002
9.905869e+002, 2.549871e+002
9.910690e+002, 2.540407e+002
9.915511e+002, 2.533706e+002
9.920333e+002, 2.534226e+002
9.925154e+002, 2.531668e+002
9.929975e+002, 2.517597e+002
9.934796e+002, 2.498476e+002
9.939617e+002, 2.484500e+002
9.944438e+002, 2.476139e+002
9.949260e+002, 2.467727e+002
9.954081e+002, 2.457698e+002
9.958902e+002, 2.449257e+002
9.963723e+002, 2.446866e+002
9.968544e+002, 2.442574e+002
9.973365e+002, 2.427621e+002
9.978187e+002, 2.407923e+002
9.983008e+002, 2.396024e+002
9.987829e+002, 2.394572e+002
9.992650e+002, 2.391922e+002
9.997471e+002, 2.384664e+002
1.000229e+003, 2.375329e+002
1.000711e+003, 2.361646e+002
1.001193e+003, 2.349175e+002
1.001676e+003, 2.346075e+002
1.002158e+003, 2.348221e+002
1.002640e+003, 2.343199e+002
1.003122e+003, 2.326454e+002
1.003604e+003, 2.311703e+002
1.004086e+003, 2.309821e+002
1.004568e+003, 2.309676e+002
1.005050e+003, 2.301609e+002
1.005533e+003, 2.290068e+002
1.006015e+003, 2.280247e+002
1.006497e+003, 2.273417e+002
1.006979e+003, 2.271428e+002
1.007461e+003, 2.275884e+002
1.007943e+003, 2.277047e+002
1.008425e+003, 2.260278e+002
1.008907e+003, 2.240056e+002
1.009389e+003, 2.237713e+002
1.009872e+003, 2.246049e+002
1.010354e+003, 2.248857e+002
1.010836e+003, 2.244052e+002
1.011318e+003, 2.238915e+002
1.011800e+003, 2.237613e+002
1.012282e+003, 2.238032e+002
1.012764e+003, 2.238029e+002
1.013246e+003, 2.237602e+002
1.013729e+003, 2.237010e+002
1.014211e+003, 2.236001e+002
1.014693e+003, 2.233893e+002
1.015175e+003, 2.230430e+002
1.015657e+003, 2.224613e+002
1.016139e+003, 2.215351e+002
1.016621e+003, 2.205739e+002
1.017103e+003, 2.202368e+002
1.017585e+003, 2.203358e+002
1.018068e+003, 2.199652e+002
1.018550e+003, 2.191509e+002
1.019032e+003, 2.184110e+002
1.019514e+003, 2.178970e+002
1.019996e+003, 2.175061e+002
1.020478e+003, 2.171690e+002
1.020960e+003, 2.168646e+002
1.021442e+003, 2.164887e+002
1.021924e+003, 2.160559e+002
1.022407e+003, 2.160590e+002
1.022889e+003, 2.165616e+002
1.023371e+003, 2.165746e+002
1.023853e+003, 2.157315e+002
1.024335e+003, 2.146727e+002
1.024817e+003, 2.139467e+002
1.025299e+003, 2.134804e+002
1.025781e+003, 2.130000e+002
1.026264e+003, 2.124471e+002
1.026746e+003, 2.124758e+002
1.027228e+003, 2.133159e+002
1.027710e+003, 2.137251e+002
1.028192e+003, 2.131832e+002
1.028674e+003, 2.123657e+002
1.029156e+003, 2.119203e+002
1.029638e+003, 2.117335e+002
1.030120e+003, 2.112636e+002
1.030603e+003, 2.102538e+002
1.031085e+003, 2.099826e+002
1.031567e+003, 2.107737e+002
1.032049e+003, 2.115837e+002
1.032531e+003, 2.121880e+002
1.033013e+003, 2.124554e+002
1.033495e+003, 2.121267e+002
1.033977e+003, 2.113606e+002
1.034459e+003, 2.109777e+002
1.034942e+003, 2.112330e+002
1.035424e+003, 2.112452e+002
1.035906e+003, 2.107362e+002
1.036388e+003, 2.104667e+002
1.036870e+003, 2.109619e+002
1.037352e+003, 2.115235e+002
1.037834e+003, 2.113686e+002
1.038316e+003, 2.106459e+002
1.038799e+003, 2.102476e+002
1.039281e+003, 2.102787e+002
1.039763e+003, 2.104301e+002
1.040245e+003, 2.110732e+002
1.040727e+003, 2.113607e+002
1.041209e+003, 2.107351e+002
1.041691e+003, 2.098598e+002
1.042173e+003, 2.093163e+002
1.042656e+003, 2.090659e+002
1.043138e+003, 2.089206e+002
1.043620e+003, 2.089827e+002
1.044102e+003, 2.089286e+002
1.044584e+003, 2.086707e+002
1.045066e+003, 2.083788e+002
1.045548e+003, 2.079875e+002
1.046030e+003, 2.076892e+002
1.046512e+003, 2.077975e+002
1.046995e+003, 2.081868e+002
1.047477e+003, 2.082557e+002
1.047959e+003, 2.077373e+002
1.048441e+003, 2.073708e+002
1.048923e+003, 2.073173e+002
1.049405e+003, 2.073779e+002
1.049887e+003, 2.076561e+002
1.050369e+003, 2.078714e+002
1.050851e+003, 2.076742e+002
1.051334e+003, 2.071576e+002
1.051816e+003, 2.067258e+002
1.052298e+003, 2.063784e+002
1.052780e+003, 2.063007e+002
1.053262e+003, 2.068566e+002
1.053744e+003, 2.072999e+002
1.054226e+003, 2.072349e+002
1.054708e+003, 2.069270e+002
1.055191e+003, 2.065575e+002
1.055673e+003, 2.061975e+002
1.056155e+003, 2.059974e+002
1.056637e+003, 2.060327e+002
1.057119e+003, 2.060691e+002
1.057601e+003, 2.058965e+002
1.058083e+003, 2.058739e+002
1.058565e+003, 2.066082e+002
1.059047e+003, 2.072449e+002
1.059530e+003, 2.066151e+002
1.060012e+003, 2.051427e+002
1.060494e+003, 2.043104e+002
1.060976e+003, 2.045633e+002
1.061458e+003, 2.050442e+002
1.061940e+003, 2.056456e+002
1.062422e+003, 2.061680e+002
1.062904e+003, 2.066481e+002
1.063386e+003, 2.068866e+002
1.063869e+003, 2.064597e+002
1.064351e+003, 2.056594e+002
1.064833e+003, 2.053015e+002
1.065315e+003, 2.056378e+002
1.065797e+003, 2.060479e+002
1.066279e+003, 2.065381e+002
1.066761e+003, 2.067274e+002
1.067243e+003, 2.061212e+002
1.067726e+003, 2.053568e+002
1.068208e+003, 2.051340e+002
1.068690e+003, 2.052657e+002
1.069172e+003, 2.051150e+002
1.069654e+003, 2.045028e+002
1.070136e+003, 2.040764e+002
1.070618e+003, 2.042331e+002
1.071100e+003, 2.045013e+002
1.071583e+003, 2.047338e+002
1.072065e+003, 2.048725e+002
1.072547e+003, 2.049302e+002
1.073029e+003, 2.048345e+002
1.073511e+003, 2.043426e+002
1.073993e+003, 2.034091e+002
1.074475e+003, 2.027196e+002
1.074957e+003, 2.027844e+002
1.075439e+003, 2.028950e+002
1.075922e+003, 2.025661e+002
1.076404e+003, 2.022376e+002
1.076886e+003, 2.024277e+002
1.077368e+003, 2.028649e+002
1.077850e+003, 2.029078e+002
1.078332e+003, 2.024853e+002
1.078814e+003, 2.023519e+002
1.079296e+003, 2.031794e+002
1.079779e+003, 2.038828e+002
1.080261e+003, 2.036978e+002
1.080743e+003, 2.034171e+002
1.081225e+003, 2.038287e+002
1.081707e+003, 2.045231e+002
1.082189e+003, 2.047570e+002
1.082671e+003, 2.044681e+002
1.083153e+003, 2.042252e+002
1.083635e+003, 2.043741e+002
1.084118e+003, 2.043652e+002
1.084600e+003, 2.038677e+002
1.085082e+003, 2.032087e+002
1.085564e+003, 2.022763e+002
1.086046e+003, 2.015459e+002
1.086528e+003, 2.018717e+002
1.087010e+003, 2.030877e+002
1.087492e+003, 2.039137e+002
1.087974e+003, 2.038258e+002
1.088457e+003, 2.036057e+002
1.088939e+003, 2.033262e+002
1.089421e+003, 2.033035e+002
1.089903e+003, 2.042415e+002
1.090385e+003, 2.051856e+002
1.090867e+003, 2.048266e+002
1.091349e+003, 2.034286e+002
1.091831e+003, 2.023338e+002
1.092314e+003, 2.019451e+002
1.092796e+003, 2.016811e+002
1.093278e+003, 2.011501e+002
1.093760e+003, 2.009091e+002
1.094242e+003, 2.010205e+002
1.094724e+003, 2.017383e+002
1.095206e+003, 2.041624e+002
1.095688e+003, 2.072222e+002
1.096171e+003, 2.080991e+002
1.096653e+003, 2.059564e+002
1.097135e+003, 2.039172e+002
1.097617e+003, 2.028028e+002
1.098099e+003, 2.020928e+002
1.098581e+003, 2.015310e+002
1.099063e+003, 2.013342e+002
1.099545e+003, 2.020598e+002
1.100027e+003, 2.031386e+002
1.100510e+003, 2.034700e+002
1.100992e+003, 2.028937e+002
1.101474e+003, 2.022598e+002
1.101956e+003, 2.014074e+002
1.102438e+003, 2.010327e+002
1.102920e+003, 2.017753e+002
1.103402e+003, 2.025667e+002
1.103884e+003, 2.026790e+002
1.104366e+003, 2.024702e+002
1.104849e+003, 2.024406e+002
1.105331e+003, 2.026277e+002
1.105813e+003, 2.029200e+002
1.106295e+003, 2.036887e+002
1.106777e+003, 2.039459e+002
1.107259e+003, 2.030155e+002
1.107741e+003, 2.021927e+002
1.108223e+003, 2.021498e+002
1.108706e+003, 2.024348e+002
1.109188e+003, 2.025889e+002
1.109670e+003, 2.026216e+002
1.110152e+003, 2.026971e+002
1.110634e+003, 2.029670e+002
1.111116e+003, 2.029554e+002
1.111598e+003, 2.022548e+002
1.112080e+003, 2.017794e+002
1.112563e+003, 2.020366e+002
1.113045e+003, 2.023933e+002
1.113527e+003, 2.022193e+002
1.114009e+003, 2.017917e+002
1.114491e+003, 2.018992e+002
1.114973e+003, 2.027370e+002
1.115455e+003, 2.032881e+002
1.115937e+003, 2.036057e+002
1.116419e+003, 2.035147e+002
1.116901e+003, 2.024672e+002
1.117384e+003, 2.017392e+002
1.117866e+003, 2.022542e+002
1.118348e+003, 2.034248e+002
1.118830e+003, 2.043215e+002
1.119312e+003, 2.049408e+002
1.119794e+003, 2.053029e+002
1.120276e+003, 2.053633e+002
1.120758e+003, 2.052592e+002
1.121241e+003, 2.049739e+002
1.121723e+003, 2.045777e+002
1.122205e+003, 2.040953e+002
1.122687e+003, 2.035072e+002
1.123169e+003, 2.027049e+002
1.123651e+003, 2.018057e+002
1.124133e+003, 2.015358e+002
1.124615e+003, 2.020165e+002
1.125098e+003, 2.026299e+002
1.125580e+003, 2.034800e+002
1.126062e+003, 2.039111e+002
1.126544e+003, 2.036262e+002
1.127026e+003, 2.031747e+002
1.127508e+003, 2.030023e+002
1.127990e+003, 2.030301e+002
1.128472e+003, 2.030936e+002
1.128954e+003, 2.031991e+002
1.129437e+003, 2.031122e+002
1.129919e+003, 2.028158e+002
1.130401e+003, 2.025343e+002
1.130883e+003, 2.022908e+002
1.131365e+003, 2.023710e+002
1.131847e+003, 2.029854e+002
1.132329e+003, 2.037356e+002
1.132811e+003, 2.040234e+002
1.133293e+003, 2.039259e+002
1.133776e+003, 2.037336e+002
1.134258e+003, 2.034739e+002
1.134740e+003, 2.034628e+002
1.135222e+003, 2.037164e+002
1.135704e+003, 2.039926e+002
1.136186e+003, 2.041893e+002
1.136668e+003, 2.041730e+002
1.137150e+003, 2.037634e+002
1.137633e+003, 2.031864e+002
1.138115e+003, 2.028903e+002
1.138597e+003, 2.028074e+002
1.139079e+003, 2.027871e+002
1.139561e+003, 2.027752e+002
1.140043e+003, 2.024932e+002
1.140525e+003, 2.019572e+002
1.141007e+003, 2.017993e+002
1.141490e+003, 2.024746e+002
1.141972e+003, 2.032943e+002
1.142454e+003, 2.033319e+002
1.142936e+003, 2.030472e+002
1.143418e+003, 2.032516e+002
1.143900e+003, 2.036926e+002
1.144382e+003, 2.038674e+002
1.144864e+003, 2.037078e+002
1.145346e+003, 2.032446e+002
1.145828e+003, 2.025037e+002
1.146311e+003, 2.018280e+002
1.146793e+003, 2.014444e+002
1.147275e+003, 2.012868e+002
1.147757e+003, 2.011926e+002
1.148239e+003, 2.013759e+002
1.148721e+003, 2.021970e+002
1.149203e+003, 2.034558e+002
1.149685e+003, 2.049927e+002
1.150168e+003, 2.066078e+002
1.150650e+003, 2.074908e+002
1.151132e+003, 2.071923e+002
1.151614e+003, 2.063164e+002
1.152096e+003, 2.045289e+002
1.152578e+003, 2.029818e+002
1.153060e+003, 2.024792e+002
1.153542e+003, 2.026413e+002
1.154025e+003, 2.033136e+002
1.154507e+003, 2.041777e+002
1.154989e+003, 2.044025e+002
1.155471e+003, 2.036980e+002
1.155953e+003, 2.029896e+002
1.156435e+003, 2.022170e+002
1.156917e+003, 2.018509e+002
1.157399e+003, 2.023519e+002
1.157881e+003, 2.029936e+002
1.158364e+003, 2.032876e+002
1.158846e+003, 2.033864e+002
1.159328e+003, 2.035865e+002
1.159810e+003, 2.039021e+002
1.160292e+003, 2.040841e+002
1.160774e+003, 2.040605e+002
1.161256e+003, 2.040398e+002
1.161738e+003, 2.041406e+002
1.162220e+003, 2.040549e+002
1.162703e+003, 2.035427e+002
1.163185e+003, 2.029832e+002
1.163667e+003, 2.027528e+002
1.164149e+003, 2.027453e+002
1.164631e+003, 2.025085e+002
1.165113e+003, 2.018344e+002
1.165595e+003, 2.023959e+002
1.166077e+003, 2.046400e+002
1.166560e+003, 2.061604e+002
1.167042e+003, 2.064209e+002
1.167524e+003, 2.059771e+002
1.168006e+003, 2.050075e+002
1.168488e+003, 2.041243e+002
1.168970e+003, 2.043986e+002
1.169452e+003, 2.054687e+002
1.169934e+003, 2.052263e+002
1.170417e+003, 2.038180e+002
1.170899e+003, 2.035424e+002
1.171381e+003, 2.045416e+002
1.171863e+003, 2.055511e+002
1.172345e+003, 2.061252e+002
1.172827e+003, 2.062122e+002
1.173309e+003, 2.057059e+002
1.173791e+003, 2.049784e+002
1.174273e+003, 2.046037e+002
1.174755e+003, 2.045037e+002
1.175238e+003, 2.044828e+002
1.175720e+003, 2.045720e+002
1.176202e+003, 2.049570e+002
1.176684e+003, 2.055826e+002
1.177166e+003, 2.061704e+002
1.177648e+003, 2.065985e+002
1.178130e+003, 2.066340e+002
1.178612e+003, 2.056608e+002
1.179095e+003, 2.046990e+002
1.179577e+003, 2.048840e+002
1.180059e+003, 2.055774e+002
1.180541e+003, 2.061091e+002
1.181023e+003, 2.064795e+002
1.181505e+003, 2.068408e+002
1.181987e+003, 2.072165e+002
1.182469e+003, 2.075606e+002
1.182952e+003, 2.079052e+002
1.183434e+003, 2.080597e+002
1.183916e+003, 2.077544e+002
1.184398e+003, 2.074538e+002
1.184880e+003, 2.074941e+002
1.185362e+003, 2.075894e+002
1.185844e+003, 2.073251e+002
1.186326e+003, 2.069194e+002
1.186808e+003, 2.069526e+002
1.187291e+003, 2.075271e+002
1.187773e+003, 2.081338e+002
1.188255e+003, 2.088292e+002
1.188737e+003, 2.093940e+002
1.189219e+003, 2.097663e+002
1.189701e+003, 2.100674e+002
1.190183e+003, 2.103158e+002
1.190665e+003, 2.105564e+002
1.191147e+003, 2.108311e+002
1.191630e+003, 2.111423e+002
1.192112e+003, 2.115351e+002
1.192594e+003, 2.121152e+002
1.193076e+003, 2.121905e+002
1.193558e+003, 2.116408e+002
1.194040e+003, 2.112222e+002
1.194522e+003, 2.111296e+002
1.195004e+003, 2.110037e+002
1.195487e+003, 2.105974e+002
1.195969e+003, 2.102209e+002
1.196451e+003, 2.103548e+002
1.196933e+003, 2.108353e+002
1.197415e+003, 2.110361e+002
1.197897e+003, 2.110031e+002
1.198379e+003, 2.110319e+002
1.198861e+003, 2.111051e+002
1.199344e+003, 2.108875e+002
1.199826e+003, 2.103200e+002
1.200308e+003, 2.098194e+002
1.200790e+003, 2.096730e+002
1.201272e+003, 2.096759e+002
1.201754e+003, 2.093561e+002
1.202236e+003, 2.092175e+002
1.202718e+003, 2.103058e+002
1.203200e+003, 2.119050e+002
1.203682e+003, 2.128771e+002
1.204165e+003, 2.131736e+002
1.204647e+003, 2.130139e+002
1.205129e+003, 2.125198e+002
1.205611e+003, 2.123131e+002
1.206093e+003, 2.129729e+002
1.206575e+003, 2.135804e+002
1.207057e+003, 2.136512e+002
1.207539e+003, 2.135216e+002
1.208022e+003, 2.130943e+002
1.208504e+003, 2.128415e+002
1.208986e+003, 2.135536e+002
1.209468e+003, 2.149121e+002
1.209950e+003, 2.156292e+002
1.210432e+003, 2.153489e+002
1.210914e+003, 2.153388e+002
1.211396e+003, 2.163811e+002
1.211879e+003, 2.165793e+002
1.212361e+003, 2.149594e+002
1.212843e+003, 2.135481e+002
1.213325e+003, 2.133026e+002
1.213807e+003, 2.138888e+002
1.214289e+003, 2.151080e+002
1.214771e+003, 2.167077e+002
1.215253e+003, 2.174204e+002
1.215735e+003, 2.171426e+002
1.216218e+003, 2.168301e+002
1.216700e+003, 2.164876e+002
1.217182e+003, 2.162846e+002
1.217664e+003, 2.162531e+002
1.218146e+003, 2.165916e+002
1.218628e+003, 2.174393e+002
1.219110e+003, 2.184771e+002
1.219592e+003, 2.193658e+002
1.220074e+003, 2.200487e+002
1.220557e+003, 2.203769e+002
1.221039e+003, 2.203882e+002
1.221521e+003, 2.200883e+002
1.222003e+003, 2.195802e+002
1.222485e+003, 2.191441e+002
1.222967e+003, 2.188381e+002
1.223449e+003, 2.185551e+002
1.223931e+003, 2.182568e+002
1.224414e+003, 2.178561e+002
1.224896e+003, 2.171070e+002
1.225378e+003, 2.164321e+002
1.225860e+003, 2.162328e+002
1.226342e+003, 2.162422e+002
1.226824e+003, 2.160883e+002
1.227306e+003, 2.159518e+002
1.227788e+003, 2.163382e+002
1.228271e+003, 2.172633e+002
1.228753e+003, 2.179230e+002
1.229235e+003, 2.180376e+002
1.229717e+003, 2.180979e+002
1.230199e+003, 2.181793e+002
1.230681e+003, 2.181973e+002
1.231163e+003, 2.179064e+002
1.231645e+003, 2.178353e+002
1.232127e+003, 2.185434e+002
1.232609e+003, 2.195623e+002
1.233092e+003, 2.199218e+002
1.233574e+003, 2.196453e+002
1.234056e+003, 2.198831e+002
1.234538e+003, 2.207151e+002
1.235020e+003, 2.213845e+002
1.235502e+003, 2.218219e+002
1.235984e+003, 2.219312e+002
1.236466e+003, 2.216615e+002
1.236949e+003, 2.215174e+002
1.237431e+003, 2.219246e+002
1.237913e+003, 2.224672e+002
1.238395e+003, 2.223395e+002
1.238877e+003, 2.219094e+002
1.239359e+003, 2.221309e+002
1.239841e+003, 2.227447e+002
1.240323e+003, 2.231254e+002
1.240806e+003, 2.232807e+002
1.241288e+003, 2.235500e+002
1.241770e+003, 2.240041e+002
1.242252e+003, 2.243539e+002
1.242734e+003, 2.244794e+002
1.243216e+003, 2.243580e+002
1.243698e+003, 2.235413e+002
1.244180e+003, 2.229785e+002
1.244662e+003, 2.237182e+002
1.245145e+003, 2.247107e+002
1.245627e+003, 2.247891e+002
1.246109e+003, 2.242671e+002
1.246591e+003, 2.239631e+002
1.247073e+003, 2.239527e+002
1.247555e+003, 2.242703e+002
1.248037e+003, 2.254315e+002
1.248519e+003, 2.259134e+002
1.249001e+003, 2.253464e+002
1.249484e+003, 2.246938e+002
1.249966e+003, 2.241414e+002
1.250448e+003, 2.239094e+002
1.250930e+003, 2.242539e+002
1.251412e+003, 2.248371e+002
1.251894e+003, 2.249451e+002
1.252376e+003, 2.246911e+002
1.252858e+003, 2.249731e+002
1.253341e+003, 2.257285e+002
1.253823e+003, 2.264836e+002
1.254305e+003, 2.271564e+002
1.254787e+003, 2.275306e+002
1.255269e+003, 2.275795e+002
1.255751e+003, 2.276908e+002
1.256233e+003, 2.281338e+002
1.256715e+003, 2.286689e+002
1.257198e+003, 2.291579e+002
1.257680e+003, 2.294874e+002
1.258162e+003, 2.292003e+002
1.258644e+003, 2.289345e+002
1.259126e+003, 2.300069e+002
1.259608e+003, 2.315671e+002
1.260090e+003, 2.315101e+002
1.260572e+003, 2.297079e+002
1.261054e+003, 2.284057e+002
1.261536e+003, 2.282269e+002
1.262019e+003, 2.285097e+002
1.262501e+003, 2.296682e+002
1.262983e+003, 2.304973e+002
1.263465e+003, 2.302754e+002
1.263947e+003, 2.300844e+002
1.264429e+003, 2.308006e+002
1.264911e+003, 2.316722e+002
1.265393e+003, 2.314566e+002
1.265876e+003, 2.303838e+002
1.266358e+003, 2.300745e+002
1.266840e+003, 2.305686e+002
1.267322e+003, 2.312840e+002
1.267804e+003, 2.321867e+002
1.268286e+003, 2.323100e+002
1.268768e+003, 2.314803e+002
1.269250e+003, 2.307896e+002
1.269733e+003, 2.308444e+002
1.270215e+003, 2.312230e+002
1.270697e+003, 2.316759e+002
1.271179e+003, 2.318961e+002
1.271661e+003, 2.309897e+002
1.272143e+003, 2.299170e+002
1.272625e+003, 2.302763e+002
1.273107e+003, 2.314098e+002
1.273589e+003, 2.318754e+002
1.274072e+003, 2.317350e+002
1.274554e+003, 2.322745e+002
1.275036e+003, 2.340196e+002
1.275518e+003, 2.349629e+002
1.276000e+003, 2.337843e+002
1.276482e+003, 2.327296e+002
1.276964e+003, 2.322761e+002
1.277446e+003, 2.322884e+002
1.277929e+003, 2.328110e+002
1.278411e+003, 2.335223e+002
1.278893e+003, 2.342390e+002
1.279375e+003, 2.348191e+002
1.279857e+003, 2.347795e+002
1.280339e+003, 2.341081e+002
1.280821e+003, 2.339395e+002
1.281303e+003, 2.343139e+002
1.281786e+003, 2.345880e+002
1.282268e+003, 2.346662e+002
##END=



