##NAMES=Dingdaohengite-(Ce)
##RRUFFID=R150046
##IDEAL CHEMISTRY=(Ce^3+^,La^3+^)_4_Fe^2+^(Ti^4+^,Fe^2+^,Mg,Fe^3+^)_2_Ti^4+^_2_Si_4_O_22_
##LOCALITY=Mulanje Massif, Malawi
##OWNER=RRUFF
##SOURCE=Paul Botha
##DESCRIPTION=Dark brown striated prismatic crystals, associated with quartz
##STATUS=The identification of this mineral has been confirmed only by single crystal X-ray diffraction.
##URL=rruff.info/R150046
9.059570e+001, 6.139811e+002
9.107782e+001, 6.089841e+002
9.155994e+001, 6.072371e+002
9.204205e+001, 6.112522e+002
9.252417e+001, 6.168075e+002
9.300629e+001, 6.223636e+002
9.348840e+001, 6.242538e+002
9.397052e+001, 6.189400e+002
9.445264e+001, 6.058877e+002
9.493475e+001, 5.935917e+002
9.541687e+001, 5.818134e+002
9.589898e+001, 5.710681e+002
9.638110e+001, 5.610884e+002
9.686321e+001, 5.515014e+002
9.734533e+001, 5.417351e+002
9.782745e+001, 5.310663e+002
9.830956e+001, 5.222512e+002
9.879168e+001, 5.155029e+002
9.927380e+001, 5.098168e+002
9.975591e+001, 5.049894e+002
1.002380e+002, 5.008569e+002
1.007201e+002, 4.973122e+002
1.012023e+002, 4.945505e+002
1.016844e+002, 4.922037e+002
1.021665e+002, 4.889986e+002
1.026486e+002, 4.842678e+002
1.031307e+002, 4.790529e+002
1.036128e+002, 4.740718e+002
1.040950e+002, 4.691508e+002
1.045771e+002, 4.650244e+002
1.050592e+002, 4.624552e+002
1.055413e+002, 4.607977e+002
1.060234e+002, 4.592466e+002
1.065055e+002, 4.573942e+002
1.069877e+002, 4.553330e+002
1.074698e+002, 4.535719e+002
1.079519e+002, 4.528342e+002
1.084340e+002, 4.513820e+002
1.089161e+002, 4.482722e+002
1.093982e+002, 4.438683e+002
1.098804e+002, 4.391066e+002
1.103625e+002, 4.346637e+002
1.108446e+002, 4.304750e+002
1.113267e+002, 4.270445e+002
1.118088e+002, 4.246279e+002
1.122909e+002, 4.226588e+002
1.127731e+002, 4.210587e+002
1.132552e+002, 4.197322e+002
1.137373e+002, 4.184454e+002
1.142194e+002, 4.168542e+002
1.147015e+002, 4.144810e+002
1.151836e+002, 4.126724e+002
1.156658e+002, 4.118050e+002
1.161479e+002, 4.112908e+002
1.166300e+002, 4.106279e+002
1.171121e+002, 4.096452e+002
1.175942e+002, 4.083481e+002
1.180763e+002, 4.066401e+002
1.185584e+002, 4.042098e+002
1.190406e+002, 4.020780e+002
1.195227e+002, 4.008261e+002
1.200048e+002, 4.001484e+002
1.204869e+002, 3.991045e+002
1.209690e+002, 3.969745e+002
1.214511e+002, 3.944957e+002
1.219333e+002, 3.930764e+002
1.224154e+002, 3.929958e+002
1.228975e+002, 3.934781e+002
1.233796e+002, 3.941937e+002
1.238617e+002, 3.952552e+002
1.243438e+002, 3.955897e+002
1.248260e+002, 3.940626e+002
1.253081e+002, 3.917359e+002
1.257902e+002, 3.893968e+002
1.262723e+002, 3.872293e+002
1.267544e+002, 3.853281e+002
1.272365e+002, 3.839726e+002
1.277187e+002, 3.834063e+002
1.282008e+002, 3.830287e+002
1.286829e+002, 3.827172e+002
1.291650e+002, 3.824328e+002
1.296471e+002, 3.821452e+002
1.301292e+002, 3.818545e+002
1.306114e+002, 3.815497e+002
1.310935e+002, 3.810480e+002
1.315756e+002, 3.803638e+002
1.320577e+002, 3.794522e+002
1.325398e+002, 3.782665e+002
1.330219e+002, 3.768326e+002
1.335041e+002, 3.751699e+002
1.339862e+002, 3.732204e+002
1.344683e+002, 3.708319e+002
1.349504e+002, 3.692609e+002
1.354325e+002, 3.688541e+002
1.359146e+002, 3.688033e+002
1.363968e+002, 3.688604e+002
1.368789e+002, 3.689214e+002
1.373610e+002, 3.687072e+002
1.378431e+002, 3.677728e+002
1.383252e+002, 3.658727e+002
1.388073e+002, 3.645602e+002
1.392895e+002, 3.644092e+002
1.397716e+002, 3.646928e+002
1.402537e+002, 3.645847e+002
1.407358e+002, 3.638947e+002
1.412179e+002, 3.628489e+002
1.417000e+002, 3.617713e+002
1.421821e+002, 3.606846e+002
1.426643e+002, 3.592417e+002
1.431464e+002, 3.569574e+002
1.436285e+002, 3.541210e+002
1.441106e+002, 3.517803e+002
1.445927e+002, 3.503081e+002
1.450748e+002, 3.492925e+002
1.455570e+002, 3.483519e+002
1.460391e+002, 3.474790e+002
1.465212e+002, 3.466129e+002
1.470033e+002, 3.457071e+002
1.474854e+002, 3.447583e+002
1.479675e+002, 3.437857e+002
1.484497e+002, 3.426565e+002
1.489318e+002, 3.415833e+002
1.494139e+002, 3.407515e+002
1.498960e+002, 3.401884e+002
1.503781e+002, 3.396727e+002
1.508602e+002, 3.388294e+002
1.513424e+002, 3.373493e+002
1.518245e+002, 3.362160e+002
1.523066e+002, 3.356469e+002
1.527887e+002, 3.353120e+002
1.532708e+002, 3.350056e+002
1.537529e+002, 3.346439e+002
1.542351e+002, 3.341967e+002
1.547172e+002, 3.335755e+002
1.551993e+002, 3.322556e+002
1.556814e+002, 3.314229e+002
1.561635e+002, 3.315502e+002
1.566456e+002, 3.320649e+002
1.571278e+002, 3.322954e+002
1.576099e+002, 3.319039e+002
1.580920e+002, 3.310074e+002
1.585741e+002, 3.300763e+002
1.590562e+002, 3.290980e+002
1.595383e+002, 3.281020e+002
1.600205e+002, 3.268603e+002
1.605026e+002, 3.255855e+002
1.609847e+002, 3.248027e+002
1.614668e+002, 3.248959e+002
1.619489e+002, 3.256924e+002
1.624310e+002, 3.262916e+002
1.629131e+002, 3.267040e+002
1.633953e+002, 3.269358e+002
1.638774e+002, 3.269225e+002
1.643595e+002, 3.266848e+002
1.648416e+002, 3.264265e+002
1.653237e+002, 3.263303e+002
1.658058e+002, 3.262795e+002
1.662880e+002, 3.260194e+002
1.667701e+002, 3.254761e+002
1.672522e+002, 3.247482e+002
1.677343e+002, 3.239148e+002
1.682164e+002, 3.229576e+002
1.686985e+002, 3.219881e+002
1.691807e+002, 3.208503e+002
1.696628e+002, 3.197886e+002
1.701449e+002, 3.192042e+002
1.706270e+002, 3.195323e+002
1.711091e+002, 3.202660e+002
1.715912e+002, 3.201996e+002
1.720734e+002, 3.190027e+002
1.725555e+002, 3.175524e+002
1.730376e+002, 3.161375e+002
1.735197e+002, 3.147435e+002
1.740018e+002, 3.133319e+002
1.744839e+002, 3.118643e+002
1.749661e+002, 3.103686e+002
1.754482e+002, 3.090448e+002
1.759303e+002, 3.082008e+002
1.764124e+002, 3.071790e+002
1.768945e+002, 3.056553e+002
1.773766e+002, 3.038429e+002
1.778588e+002, 3.021264e+002
1.783409e+002, 3.007772e+002
1.788230e+002, 2.997954e+002
1.793051e+002, 2.989204e+002
1.797872e+002, 2.984203e+002
1.802693e+002, 2.977628e+002
1.807515e+002, 2.967813e+002
1.812336e+002, 2.954996e+002
1.817157e+002, 2.940187e+002
1.821978e+002, 2.924034e+002
1.826799e+002, 2.906321e+002
1.831620e+002, 2.889282e+002
1.836441e+002, 2.870137e+002
1.841263e+002, 2.853792e+002
1.846084e+002, 2.844686e+002
1.850905e+002, 2.841732e+002
1.855726e+002, 2.838832e+002
1.860547e+002, 2.829870e+002
1.865368e+002, 2.813627e+002
1.870190e+002, 2.802354e+002
1.875011e+002, 2.800161e+002
1.879832e+002, 2.799894e+002
1.884653e+002, 2.795802e+002
1.889474e+002, 2.787408e+002
1.894296e+002, 2.778930e+002
1.899117e+002, 2.774781e+002
1.903938e+002, 2.774909e+002
1.908759e+002, 2.774471e+002
1.913580e+002, 2.773545e+002
1.918401e+002, 2.771563e+002
1.923223e+002, 2.767111e+002
1.928044e+002, 2.759513e+002
1.932865e+002, 2.752140e+002
1.937686e+002, 2.749339e+002
1.942507e+002, 2.749704e+002
1.947328e+002, 2.749085e+002
1.952150e+002, 2.746541e+002
1.956971e+002, 2.742100e+002
1.961792e+002, 2.735248e+002
1.966613e+002, 2.724747e+002
1.971434e+002, 2.714429e+002
1.976255e+002, 2.707634e+002
1.981077e+002, 2.703236e+002
1.985898e+002, 2.698619e+002
1.990719e+002, 2.691362e+002
1.995540e+002, 2.682466e+002
2.000361e+002, 2.676218e+002
2.005182e+002, 2.672714e+002
2.010004e+002, 2.672316e+002
2.014825e+002, 2.676398e+002
2.019646e+002, 2.683455e+002
2.024467e+002, 2.689824e+002
2.029288e+002, 2.692862e+002
2.034109e+002, 2.692754e+002
2.038930e+002, 2.692428e+002
2.043752e+002, 2.693504e+002
2.048573e+002, 2.692469e+002
2.053394e+002, 2.686425e+002
2.058215e+002, 2.677082e+002
2.063036e+002, 2.668422e+002
2.067857e+002, 2.663979e+002
2.072679e+002, 2.664007e+002
2.077500e+002, 2.663377e+002
2.082321e+002, 2.662008e+002
2.087142e+002, 2.659993e+002
2.091963e+002, 2.656509e+002
2.096784e+002, 2.652230e+002
2.101606e+002, 2.648678e+002
2.106427e+002, 2.647173e+002
2.111248e+002, 2.647808e+002
2.116069e+002, 2.649774e+002
2.120890e+002, 2.656194e+002
2.125711e+002, 2.660943e+002
2.130533e+002, 2.660514e+002
2.135354e+002, 2.655865e+002
2.140175e+002, 2.650548e+002
2.144996e+002, 2.647744e+002
2.149817e+002, 2.647756e+002
2.154638e+002, 2.648470e+002
2.159460e+002, 2.650452e+002
2.164281e+002, 2.652479e+002
2.169102e+002, 2.654156e+002
2.173923e+002, 2.655373e+002
2.178744e+002, 2.656138e+002
2.183565e+002, 2.656595e+002
2.188387e+002, 2.656815e+002
2.193208e+002, 2.654955e+002
2.198029e+002, 2.648524e+002
2.202850e+002, 2.642264e+002
2.207671e+002, 2.638470e+002
2.212492e+002, 2.637431e+002
2.217314e+002, 2.639356e+002
2.222135e+002, 2.645689e+002
2.226956e+002, 2.656584e+002
2.231777e+002, 2.661413e+002
2.236598e+002, 2.653532e+002
2.241419e+002, 2.644516e+002
2.246240e+002, 2.644683e+002
2.251062e+002, 2.654127e+002
2.255883e+002, 2.663044e+002
2.260704e+002, 2.662822e+002
2.265525e+002, 2.654398e+002
2.270346e+002, 2.647837e+002
2.275167e+002, 2.644005e+002
2.279989e+002, 2.642125e+002
2.284810e+002, 2.641436e+002
2.289631e+002, 2.641876e+002
2.294452e+002, 2.644306e+002
2.299273e+002, 2.650958e+002
2.304094e+002, 2.660131e+002
2.308916e+002, 2.667090e+002
2.313737e+002, 2.670052e+002
2.318558e+002, 2.670991e+002
2.323379e+002, 2.671988e+002
2.328200e+002, 2.673091e+002
2.333021e+002, 2.673888e+002
2.337843e+002, 2.673745e+002
2.342664e+002, 2.673177e+002
2.347485e+002, 2.672738e+002
2.352306e+002, 2.671026e+002
2.357127e+002, 2.670809e+002
2.361948e+002, 2.677884e+002
2.366770e+002, 2.694852e+002
2.371591e+002, 2.708398e+002
2.376412e+002, 2.708738e+002
2.381233e+002, 2.702738e+002
2.386054e+002, 2.697137e+002
2.390875e+002, 2.693620e+002
2.395697e+002, 2.691928e+002
2.400518e+002, 2.691753e+002
2.405339e+002, 2.693206e+002
2.410160e+002, 2.695895e+002
2.414981e+002, 2.701583e+002
2.419802e+002, 2.707582e+002
2.424624e+002, 2.711253e+002
2.429445e+002, 2.711585e+002
2.434266e+002, 2.709532e+002
2.439087e+002, 2.705970e+002
2.443908e+002, 2.699421e+002
2.448729e+002, 2.695517e+002
2.453550e+002, 2.697661e+002
2.458372e+002, 2.701906e+002
2.463193e+002, 2.705435e+002
2.468014e+002, 2.707368e+002
2.472835e+002, 2.707440e+002
2.477656e+002, 2.704746e+002
2.482477e+002, 2.697746e+002
2.487299e+002, 2.691622e+002
2.492120e+002, 2.686537e+002
2.496941e+002, 2.682975e+002
2.501762e+002, 2.682234e+002
2.506583e+002, 2.684572e+002
2.511404e+002, 2.687562e+002
2.516226e+002, 2.687206e+002
2.521047e+002, 2.682830e+002
2.525868e+002, 2.676357e+002
2.530689e+002, 2.665724e+002
2.535510e+002, 2.654904e+002
2.540331e+002, 2.646949e+002
2.545153e+002, 2.642535e+002
2.549974e+002, 2.639774e+002
2.554795e+002, 2.635937e+002
2.559616e+002, 2.631187e+002
2.564437e+002, 2.624854e+002
2.569258e+002, 2.615053e+002
2.574080e+002, 2.605340e+002
2.578901e+002, 2.597912e+002
2.583722e+002, 2.593222e+002
2.588543e+002, 2.590353e+002
2.593364e+002, 2.588286e+002
2.598185e+002, 2.587745e+002
2.603007e+002, 2.586113e+002
2.607828e+002, 2.583528e+002
2.612649e+002, 2.579993e+002
2.617470e+002, 2.575258e+002
2.622291e+002, 2.569428e+002
2.627112e+002, 2.563054e+002
2.631934e+002, 2.556562e+002
2.636755e+002, 2.549455e+002
2.641576e+002, 2.544225e+002
2.646397e+002, 2.542270e+002
2.651218e+002, 2.540635e+002
2.656039e+002, 2.537544e+002
2.660861e+002, 2.533078e+002
2.665682e+002, 2.528452e+002
2.670503e+002, 2.524761e+002
2.675324e+002, 2.521984e+002
2.680145e+002, 2.520618e+002
2.684966e+002, 2.523096e+002
2.689788e+002, 2.524512e+002
2.694609e+002, 2.520869e+002
2.699430e+002, 2.513476e+002
2.704251e+002, 2.507555e+002
2.709072e+002, 2.507846e+002
2.713893e+002, 2.514695e+002
2.718715e+002, 2.517316e+002
2.723536e+002, 2.513967e+002
2.728357e+002, 2.509111e+002
2.733178e+002, 2.502742e+002
2.737999e+002, 2.496165e+002
2.742820e+002, 2.492753e+002
2.747642e+002, 2.495414e+002
2.752463e+002, 2.503349e+002
2.757284e+002, 2.506438e+002
2.762105e+002, 2.500884e+002
2.766926e+002, 2.495835e+002
2.771747e+002, 2.495603e+002
2.776568e+002, 2.498221e+002
2.781389e+002, 2.498753e+002
2.786211e+002, 2.494097e+002
2.791032e+002, 2.485936e+002
2.795853e+002, 2.481640e+002
2.800674e+002, 2.484008e+002
2.805495e+002, 2.486088e+002
2.810316e+002, 2.486756e+002
2.815138e+002, 2.485919e+002
2.819959e+002, 2.483057e+002
2.824780e+002, 2.477722e+002
2.829601e+002, 2.470979e+002
2.834422e+002, 2.465557e+002
2.839243e+002, 2.460965e+002
2.844065e+002, 2.458217e+002
2.848886e+002, 2.459324e+002
2.853707e+002, 2.461950e+002
2.858528e+002, 2.461992e+002
2.863349e+002, 2.457787e+002
2.868170e+002, 2.452663e+002
2.872992e+002, 2.452949e+002
2.877813e+002, 2.460835e+002
2.882634e+002, 2.466185e+002
2.887455e+002, 2.466205e+002
2.892276e+002, 2.463328e+002
2.897097e+002, 2.460157e+002
2.901919e+002, 2.457251e+002
2.906740e+002, 2.454611e+002
2.911561e+002, 2.452625e+002
2.916382e+002, 2.451616e+002
2.921203e+002, 2.448420e+002
2.926024e+002, 2.441698e+002
2.930846e+002, 2.433214e+002
2.935667e+002, 2.423722e+002
2.940488e+002, 2.413370e+002
2.945309e+002, 2.404621e+002
2.950130e+002, 2.400346e+002
2.954951e+002, 2.400663e+002
2.959773e+002, 2.399649e+002
2.964594e+002, 2.396258e+002
2.969415e+002, 2.392066e+002
2.974236e+002, 2.387711e+002
2.979057e+002, 2.383390e+002
2.983878e+002, 2.380272e+002
2.988700e+002, 2.379681e+002
2.993521e+002, 2.381098e+002
2.998342e+002, 2.380947e+002
3.003163e+002, 2.379060e+002
3.007984e+002, 2.375808e+002
3.012805e+002, 2.369887e+002
3.017627e+002, 2.362201e+002
3.022448e+002, 2.357087e+002
3.027269e+002, 2.357815e+002
3.032090e+002, 2.361939e+002
3.036911e+002, 2.361939e+002
3.041732e+002, 2.355726e+002
3.046554e+002, 2.349303e+002
3.051375e+002, 2.345159e+002
3.056196e+002, 2.342840e+002
3.061017e+002, 2.341557e+002
3.065838e+002, 2.341579e+002
3.070659e+002, 2.341485e+002
3.075481e+002, 2.337779e+002
3.080302e+002, 2.329229e+002
3.085123e+002, 2.322589e+002
3.089944e+002, 2.322638e+002
3.094765e+002, 2.325497e+002
3.099586e+002, 2.323767e+002
3.104408e+002, 2.314922e+002
3.109229e+002, 2.304078e+002
3.114050e+002, 2.298387e+002
3.118871e+002, 2.297879e+002
3.123692e+002, 2.297075e+002
3.128513e+002, 2.293782e+002
3.133335e+002, 2.290149e+002
3.138156e+002, 2.288630e+002
3.142977e+002, 2.289586e+002
3.147798e+002, 2.292372e+002
3.152619e+002, 2.297827e+002
3.157440e+002, 2.305446e+002
3.162262e+002, 2.308682e+002
3.167083e+002, 2.303204e+002
3.171904e+002, 2.295818e+002
3.176725e+002, 2.292210e+002
3.181546e+002, 2.292380e+002
3.186367e+002, 2.293207e+002
3.191188e+002, 2.292843e+002
3.196010e+002, 2.291398e+002
3.200831e+002, 2.289810e+002
3.205652e+002, 2.287314e+002
3.210473e+002, 2.285422e+002
3.215294e+002, 2.285467e+002
3.220115e+002, 2.286942e+002
3.224937e+002, 2.287951e+002
3.229758e+002, 2.287439e+002
3.234579e+002, 2.286144e+002
3.239400e+002, 2.286000e+002
3.244221e+002, 2.287441e+002
3.249042e+002, 2.288864e+002
3.253864e+002, 2.289779e+002
3.258685e+002, 2.290294e+002
3.263506e+002, 2.291099e+002
3.268327e+002, 2.292783e+002
3.273148e+002, 2.293387e+002
3.277969e+002, 2.288479e+002
3.282791e+002, 2.276618e+002
3.287612e+002, 2.268494e+002
3.292433e+002, 2.269318e+002
3.297254e+002, 2.273424e+002
3.302075e+002, 2.274228e+002
3.306896e+002, 2.270596e+002
3.311718e+002, 2.265236e+002
3.316539e+002, 2.260327e+002
3.321360e+002, 2.255936e+002
3.326181e+002, 2.253027e+002
3.331002e+002, 2.252527e+002
3.335823e+002, 2.252855e+002
3.340645e+002, 2.252039e+002
3.345466e+002, 2.250468e+002
3.350287e+002, 2.251590e+002
3.355108e+002, 2.259018e+002
3.359929e+002, 2.271205e+002
3.364750e+002, 2.276888e+002
3.369572e+002, 2.271754e+002
3.374393e+002, 2.265534e+002
3.379214e+002, 2.262252e+002
3.384035e+002, 2.260991e+002
3.388856e+002, 2.259559e+002
3.393677e+002, 2.256992e+002
3.398499e+002, 2.253509e+002
3.403320e+002, 2.249441e+002
3.408141e+002, 2.243028e+002
3.412962e+002, 2.239182e+002
3.417783e+002, 2.240898e+002
3.422604e+002, 2.244951e+002
3.427426e+002, 2.247221e+002
3.432247e+002, 2.246529e+002
3.437068e+002, 2.244258e+002
3.441889e+002, 2.242311e+002
3.446710e+002, 2.241084e+002
3.451531e+002, 2.238882e+002
3.456353e+002, 2.234137e+002
3.461174e+002, 2.229528e+002
3.465995e+002, 2.227824e+002
3.470816e+002, 2.228859e+002
3.475637e+002, 2.229725e+002
3.480458e+002, 2.227843e+002
3.485280e+002, 2.223057e+002
3.490101e+002, 2.217859e+002
3.494922e+002, 2.209231e+002
3.499743e+002, 2.203239e+002
3.504564e+002, 2.204233e+002
3.509385e+002, 2.210006e+002
3.514207e+002, 2.215825e+002
3.519028e+002, 2.219188e+002
3.523849e+002, 2.219919e+002
3.528670e+002, 2.217041e+002
3.533491e+002, 2.204626e+002
3.538312e+002, 2.195983e+002
3.543134e+002, 2.194729e+002
3.547955e+002, 2.197296e+002
3.552776e+002, 2.199687e+002
3.557597e+002, 2.200492e+002
3.562418e+002, 2.200671e+002
3.567239e+002, 2.202012e+002
3.572061e+002, 2.206358e+002
3.576882e+002, 2.207886e+002
3.581703e+002, 2.202033e+002
3.586524e+002, 2.196997e+002
3.591345e+002, 2.200902e+002
3.596166e+002, 2.212730e+002
3.600987e+002, 2.223358e+002
3.605808e+002, 2.223547e+002
3.610630e+002, 2.212089e+002
3.615451e+002, 2.201611e+002
3.620272e+002, 2.192161e+002
3.625093e+002, 2.183572e+002
3.629914e+002, 2.173972e+002
3.634735e+002, 2.165319e+002
3.639557e+002, 2.162076e+002
3.644378e+002, 2.167410e+002
3.649199e+002, 2.178747e+002
3.654020e+002, 2.185116e+002
3.658841e+002, 2.183961e+002
3.663662e+002, 2.180815e+002
3.668484e+002, 2.173848e+002
3.673305e+002, 2.166591e+002
3.678126e+002, 2.162771e+002
3.682947e+002, 2.163484e+002
3.687768e+002, 2.166450e+002
3.692589e+002, 2.168751e+002
3.697411e+002, 2.171584e+002
3.702232e+002, 2.170225e+002
3.707053e+002, 2.158402e+002
3.711874e+002, 2.147722e+002
3.716695e+002, 2.145307e+002
3.721516e+002, 2.150413e+002
3.726338e+002, 2.157066e+002
3.731159e+002, 2.160526e+002
3.735980e+002, 2.160825e+002
3.740801e+002, 2.158826e+002
3.745622e+002, 2.150668e+002
3.750443e+002, 2.145062e+002
3.755265e+002, 2.147507e+002
3.760086e+002, 2.153625e+002
3.764907e+002, 2.156610e+002
3.769728e+002, 2.152930e+002
3.774549e+002, 2.144837e+002
3.779370e+002, 2.136291e+002
3.784192e+002, 2.125506e+002
3.789013e+002, 2.119497e+002
3.793834e+002, 2.124758e+002
3.798655e+002, 2.132712e+002
3.803476e+002, 2.137304e+002
3.808297e+002, 2.137305e+002
3.813119e+002, 2.134239e+002
3.817940e+002, 2.127622e+002
3.822761e+002, 2.117600e+002
3.827582e+002, 2.112783e+002
3.832403e+002, 2.117914e+002
3.837224e+002, 2.124343e+002
3.842046e+002, 2.125513e+002
3.846867e+002, 2.122749e+002
3.851688e+002, 2.121058e+002
3.856509e+002, 2.125397e+002
3.861330e+002, 2.132277e+002
3.866151e+002, 2.132820e+002
3.870973e+002, 2.125244e+002
3.875794e+002, 2.117715e+002
3.880615e+002, 2.115590e+002
3.885436e+002, 2.116216e+002
3.890257e+002, 2.115856e+002
3.895078e+002, 2.113154e+002
3.899900e+002, 2.110506e+002
3.904721e+002, 2.109630e+002
3.909542e+002, 2.110525e+002
3.914363e+002, 2.113580e+002
3.919184e+002, 2.120049e+002
3.924005e+002, 2.127359e+002
3.928827e+002, 2.131711e+002
3.933648e+002, 2.132935e+002
3.938469e+002, 2.134320e+002
3.943290e+002, 2.139771e+002
3.948111e+002, 2.145351e+002
3.952932e+002, 2.143836e+002
3.957754e+002, 2.133756e+002
3.962575e+002, 2.121195e+002
3.967396e+002, 2.110081e+002
3.972217e+002, 2.100866e+002
3.977038e+002, 2.095642e+002
3.981859e+002, 2.096211e+002
3.986681e+002, 2.099259e+002
3.991501e+002, 2.104045e+002
3.996323e+002, 2.109774e+002
4.001144e+002, 2.114177e+002
4.005965e+002, 2.116348e+002
4.010786e+002, 2.116085e+002
4.015607e+002, 2.112177e+002
4.020428e+002, 2.101178e+002
4.025250e+002, 2.093094e+002
4.030071e+002, 2.089826e+002
4.034892e+002, 2.090269e+002
4.039713e+002, 2.094973e+002
4.044534e+002, 2.103564e+002
4.049355e+002, 2.111320e+002
4.054177e+002, 2.112387e+002
4.058998e+002, 2.105096e+002
4.063819e+002, 2.098990e+002
4.068640e+002, 2.094041e+002
4.073461e+002, 2.090152e+002
4.078282e+002, 2.086992e+002
4.083104e+002, 2.084831e+002
4.087925e+002, 2.084613e+002
4.092746e+002, 2.087148e+002
4.097567e+002, 2.091556e+002
4.102388e+002, 2.093755e+002
4.107209e+002, 2.090726e+002
4.112031e+002, 2.089360e+002
4.116852e+002, 2.090592e+002
4.121673e+002, 2.093489e+002
4.126494e+002, 2.098077e+002
4.131315e+002, 2.103972e+002
4.136136e+002, 2.109051e+002
4.140958e+002, 2.110145e+002
4.145779e+002, 2.106136e+002
4.150600e+002, 2.102632e+002
4.155421e+002, 2.100602e+002
4.160242e+002, 2.098206e+002
4.165063e+002, 2.093761e+002
4.169885e+002, 2.088323e+002
4.174706e+002, 2.084512e+002
4.179527e+002, 2.084212e+002
4.184348e+002, 2.086531e+002
4.189169e+002, 2.088321e+002
4.193990e+002, 2.089014e+002
4.198812e+002, 2.090458e+002
4.203633e+002, 2.094836e+002
4.208454e+002, 2.099310e+002
4.213275e+002, 2.101259e+002
4.218096e+002, 2.100049e+002
4.222917e+002, 2.096726e+002
4.227739e+002, 2.090202e+002
4.232560e+002, 2.080895e+002
4.237381e+002, 2.077899e+002
4.242202e+002, 2.085978e+002
4.247023e+002, 2.096069e+002
4.251844e+002, 2.101510e+002
4.256666e+002, 2.103101e+002
4.261487e+002, 2.103682e+002
4.266308e+002, 2.103989e+002
4.271129e+002, 2.104170e+002
4.275950e+002, 2.104367e+002
4.280771e+002, 2.104570e+002
4.285593e+002, 2.105099e+002
4.290414e+002, 2.106494e+002
4.295235e+002, 2.108140e+002
4.300056e+002, 2.108636e+002
4.304877e+002, 2.107361e+002
4.309698e+002, 2.106378e+002
4.314520e+002, 2.107924e+002
4.319341e+002, 2.110316e+002
4.324162e+002, 2.109451e+002
4.328983e+002, 2.103944e+002
4.333804e+002, 2.097790e+002
4.338625e+002, 2.095633e+002
4.343447e+002, 2.098046e+002
4.348268e+002, 2.100900e+002
4.353089e+002, 2.104686e+002
4.357910e+002, 2.108335e+002
4.362731e+002, 2.111952e+002
4.367552e+002, 2.114947e+002
4.372374e+002, 2.115388e+002
4.377195e+002, 2.111871e+002
4.382016e+002, 2.105520e+002
4.386837e+002, 2.100671e+002
4.391658e+002, 2.098497e+002
4.396479e+002, 2.096346e+002
4.401301e+002, 2.092348e+002
4.406122e+002, 2.089277e+002
4.410943e+002, 2.091253e+002
4.415764e+002, 2.098322e+002
4.420585e+002, 2.105303e+002
4.425406e+002, 2.105784e+002
4.430227e+002, 2.098504e+002
4.435049e+002, 2.094039e+002
4.439870e+002, 2.093650e+002
4.444691e+002, 2.094861e+002
4.449512e+002, 2.098378e+002
4.454333e+002, 2.102733e+002
4.459154e+002, 2.105960e+002
4.463976e+002, 2.107086e+002
4.468797e+002, 2.106193e+002
4.473618e+002, 2.102467e+002
4.478439e+002, 2.093530e+002
4.483260e+002, 2.088887e+002
4.488081e+002, 2.094795e+002
4.492903e+002, 2.102257e+002
4.497724e+002, 2.105171e+002
4.502545e+002, 2.103503e+002
4.507366e+002, 2.101978e+002
4.512187e+002, 2.104330e+002
4.517008e+002, 2.109840e+002
4.521830e+002, 2.115934e+002
4.526651e+002, 2.123457e+002
4.531472e+002, 2.129235e+002
4.536293e+002, 2.129986e+002
4.541114e+002, 2.128113e+002
4.545935e+002, 2.126992e+002
4.550757e+002, 2.127966e+002
4.555578e+002, 2.128568e+002
4.560399e+002, 2.126249e+002
4.565220e+002, 2.121660e+002
4.570041e+002, 2.117450e+002
4.574862e+002, 2.114153e+002
4.579684e+002, 2.111956e+002
4.584505e+002, 2.111828e+002
4.589326e+002, 2.113795e+002
4.594147e+002, 2.114445e+002
4.598968e+002, 2.109432e+002
4.603789e+002, 2.105572e+002
4.608611e+002, 2.111445e+002
4.613432e+002, 2.125350e+002
4.618253e+002, 2.136499e+002
4.623074e+002, 2.138136e+002
4.627895e+002, 2.132171e+002
4.632716e+002, 2.126416e+002
4.637538e+002, 2.121435e+002
4.642359e+002, 2.115926e+002
4.647180e+002, 2.108589e+002
4.652001e+002, 2.101219e+002
4.656822e+002, 2.095481e+002
4.661643e+002, 2.091750e+002
4.666465e+002, 2.089889e+002
4.671286e+002, 2.090222e+002
4.676107e+002, 2.093307e+002
4.680928e+002, 2.093038e+002
4.685749e+002, 2.083888e+002
4.690570e+002, 2.077256e+002
4.695392e+002, 2.077654e+002
4.700213e+002, 2.082129e+002
4.705034e+002, 2.086461e+002
4.709855e+002, 2.088837e+002
4.714676e+002, 2.089703e+002
4.719497e+002, 2.089774e+002
4.724319e+002, 2.089041e+002
4.729140e+002, 2.087596e+002
4.733961e+002, 2.085542e+002
4.738782e+002, 2.082641e+002
4.743603e+002, 2.077990e+002
4.748424e+002, 2.072172e+002
4.753246e+002, 2.067304e+002
4.758067e+002, 2.065527e+002
4.762888e+002, 2.065271e+002
4.767709e+002, 2.062684e+002
4.772530e+002, 2.057319e+002
4.777351e+002, 2.052507e+002
4.782173e+002, 2.049666e+002
4.786994e+002, 2.048461e+002
4.791815e+002, 2.048365e+002
4.796636e+002, 2.049612e+002
4.801457e+002, 2.051020e+002
4.806278e+002, 2.052884e+002
4.811100e+002, 2.054278e+002
4.815920e+002, 2.053154e+002
4.820742e+002, 2.049073e+002
4.825563e+002, 2.044052e+002
4.830384e+002, 2.039526e+002
4.835205e+002, 2.035583e+002
4.840026e+002, 2.032858e+002
4.844847e+002, 2.031805e+002
4.849669e+002, 2.031377e+002
4.854490e+002, 2.031096e+002
4.859311e+002, 2.031155e+002
4.864132e+002, 2.032823e+002
4.868953e+002, 2.036529e+002
4.873774e+002, 2.039272e+002
4.878596e+002, 2.035442e+002
4.883417e+002, 2.020206e+002
4.888238e+002, 2.011716e+002
4.893059e+002, 2.013735e+002
4.897880e+002, 2.017719e+002
4.902701e+002, 2.019966e+002
4.907523e+002, 2.020799e+002
4.912344e+002, 2.022334e+002
4.917165e+002, 2.026206e+002
4.921986e+002, 2.030558e+002
4.926807e+002, 2.029367e+002
4.931628e+002, 2.019534e+002
4.936450e+002, 2.012770e+002
4.941271e+002, 2.012218e+002
4.946092e+002, 2.015143e+002
4.950913e+002, 2.021793e+002
4.955734e+002, 2.031297e+002
4.960555e+002, 2.038860e+002
4.965377e+002, 2.040040e+002
4.970198e+002, 2.036809e+002
4.975019e+002, 2.034198e+002
4.979840e+002, 2.032196e+002
4.984661e+002, 2.031356e+002
4.989482e+002, 2.032419e+002
4.994304e+002, 2.034736e+002
4.999125e+002, 2.036495e+002
5.003946e+002, 2.036071e+002
5.008767e+002, 2.038865e+002
5.013588e+002, 2.052999e+002
5.018409e+002, 2.070759e+002
5.023231e+002, 2.076947e+002
5.028052e+002, 2.068331e+002
5.032873e+002, 2.056019e+002
5.037694e+002, 2.050544e+002
5.042515e+002, 2.052186e+002
5.047336e+002, 2.051411e+002
5.052158e+002, 2.042076e+002
5.056979e+002, 2.037420e+002
5.061800e+002, 2.046230e+002
5.066621e+002, 2.061523e+002
5.071442e+002, 2.072108e+002
5.076263e+002, 2.074090e+002
5.081085e+002, 2.072845e+002
5.085906e+002, 2.076991e+002
5.090727e+002, 2.088881e+002
5.095548e+002, 2.097622e+002
5.100369e+002, 2.101865e+002
5.105190e+002, 2.104243e+002
5.110012e+002, 2.105009e+002
5.114833e+002, 2.104724e+002
5.119654e+002, 2.103911e+002
5.124475e+002, 2.102536e+002
5.129296e+002, 2.101749e+002
5.134117e+002, 2.103899e+002
5.138939e+002, 2.109330e+002
5.143760e+002, 2.115273e+002
5.148581e+002, 2.122442e+002
5.153402e+002, 2.128588e+002
5.158223e+002, 2.131433e+002
5.163044e+002, 2.131418e+002
5.167866e+002, 2.131523e+002
5.172687e+002, 2.133554e+002
5.177508e+002, 2.136070e+002
5.182329e+002, 2.136924e+002
5.187150e+002, 2.136236e+002
5.191971e+002, 2.135906e+002
5.196793e+002, 2.136680e+002
5.201614e+002, 2.138526e+002
5.206435e+002, 2.142083e+002
5.211256e+002, 2.149318e+002
5.216077e+002, 2.152425e+002
5.220898e+002, 2.146774e+002
5.225720e+002, 2.138775e+002
5.230541e+002, 2.133558e+002
5.235362e+002, 2.131560e+002
5.240183e+002, 2.131151e+002
5.245004e+002, 2.131234e+002
5.249825e+002, 2.131861e+002
5.254647e+002, 2.133409e+002
5.259468e+002, 2.137642e+002
5.264289e+002, 2.140203e+002
5.269110e+002, 2.140273e+002
5.273931e+002, 2.138955e+002
5.278752e+002, 2.136367e+002
5.283574e+002, 2.133017e+002
5.288395e+002, 2.130594e+002
5.293216e+002, 2.130889e+002
5.298037e+002, 2.133453e+002
5.302858e+002, 2.136000e+002
5.307679e+002, 2.139717e+002
5.312501e+002, 2.140612e+002
5.317322e+002, 2.134204e+002
5.322143e+002, 2.125381e+002
5.326964e+002, 2.118702e+002
5.331785e+002, 2.114823e+002
5.336606e+002, 2.113264e+002
5.341428e+002, 2.114299e+002
5.346249e+002, 2.117292e+002
5.351070e+002, 2.121319e+002
5.355891e+002, 2.126367e+002
5.360712e+002, 2.131117e+002
5.365533e+002, 2.135011e+002
5.370355e+002, 2.137710e+002
5.375176e+002, 2.137656e+002
5.379997e+002, 2.132204e+002
5.384818e+002, 2.127497e+002
5.389639e+002, 2.126865e+002
5.394460e+002, 2.127189e+002
5.399282e+002, 2.123697e+002
5.404103e+002, 2.115847e+002
5.408924e+002, 2.108164e+002
5.413745e+002, 2.106054e+002
5.418566e+002, 2.109834e+002
5.423387e+002, 2.108137e+002
5.428209e+002, 2.093462e+002
5.433029e+002, 2.082184e+002
5.437850e+002, 2.079454e+002
5.442672e+002, 2.080903e+002
5.447493e+002, 2.081783e+002
5.452314e+002, 2.080769e+002
5.457135e+002, 2.079233e+002
5.461956e+002, 2.079400e+002
5.466777e+002, 2.080911e+002
5.471599e+002, 2.078854e+002
5.476420e+002, 2.070917e+002
5.481241e+002, 2.063801e+002
5.486062e+002, 2.063981e+002
5.490883e+002, 2.067271e+002
5.495704e+002, 2.066553e+002
5.500526e+002, 2.058976e+002
5.505347e+002, 2.050888e+002
5.510168e+002, 2.045980e+002
5.514989e+002, 2.043457e+002
5.519810e+002, 2.042012e+002
5.524631e+002, 2.041407e+002
5.529453e+002, 2.040888e+002
5.534274e+002, 2.040290e+002
5.539095e+002, 2.039587e+002
5.543916e+002, 2.034471e+002
5.548737e+002, 2.018373e+002
5.553558e+002, 2.006371e+002
5.558380e+002, 2.006756e+002
5.563201e+002, 2.011581e+002
5.568022e+002, 2.009801e+002
5.572843e+002, 1.999191e+002
5.577664e+002, 1.987867e+002
5.582485e+002, 1.986238e+002
5.587307e+002, 1.994856e+002
5.592128e+002, 1.997451e+002
5.596949e+002, 1.989321e+002
5.601770e+002, 1.981756e+002
5.606591e+002, 1.978900e+002
5.611412e+002, 1.978504e+002
5.616234e+002, 1.978557e+002
5.621055e+002, 1.978795e+002
5.625876e+002, 1.976858e+002
5.630697e+002, 1.968569e+002
5.635518e+002, 1.956309e+002
5.640339e+002, 1.948665e+002
5.645161e+002, 1.947323e+002
5.649982e+002, 1.946867e+002
5.654803e+002, 1.943513e+002
5.659624e+002, 1.937822e+002
5.664445e+002, 1.932645e+002
5.669266e+002, 1.927408e+002
5.674088e+002, 1.923484e+002
5.678909e+002, 1.921513e+002
5.683730e+002, 1.921037e+002
5.688551e+002, 1.922250e+002
5.693372e+002, 1.924788e+002
5.698193e+002, 1.926566e+002
5.703015e+002, 1.925578e+002
5.707836e+002, 1.921929e+002
5.712657e+002, 1.917788e+002
5.717478e+002, 1.912529e+002
5.722299e+002, 1.907582e+002
5.727120e+002, 1.902121e+002
5.731942e+002, 1.897672e+002
5.736763e+002, 1.896315e+002
5.741584e+002, 1.898004e+002
5.746405e+002, 1.899853e+002
5.751226e+002, 1.898725e+002
5.756047e+002, 1.895582e+002
5.760869e+002, 1.894859e+002
5.765690e+002, 1.897282e+002
5.770511e+002, 1.898998e+002
5.775332e+002, 1.897368e+002
5.780153e+002, 1.894422e+002
5.784974e+002, 1.893323e+002
5.789796e+002, 1.894249e+002
5.794617e+002, 1.896451e+002
5.799438e+002, 1.901739e+002
5.804259e+002, 1.906924e+002
5.809080e+002, 1.907653e+002
5.813901e+002, 1.904201e+002
5.818723e+002, 1.900671e+002
5.823544e+002, 1.899832e+002
5.828365e+002, 1.900480e+002
5.833186e+002, 1.898372e+002
5.838007e+002, 1.888776e+002
5.842828e+002, 1.883769e+002
5.847650e+002, 1.888648e+002
5.852471e+002, 1.893611e+002
5.857292e+002, 1.890084e+002
5.862113e+002, 1.880515e+002
5.866934e+002, 1.874594e+002
5.871755e+002, 1.879581e+002
5.876577e+002, 1.889715e+002
5.881398e+002, 1.890356e+002
5.886219e+002, 1.879536e+002
5.891040e+002, 1.872931e+002
5.895861e+002, 1.876669e+002
5.900682e+002, 1.883289e+002
5.905504e+002, 1.886269e+002
5.910325e+002, 1.885944e+002
5.915146e+002, 1.884278e+002
5.919967e+002, 1.878598e+002
5.924788e+002, 1.874554e+002
5.929609e+002, 1.879481e+002
5.934431e+002, 1.890227e+002
5.939252e+002, 1.896887e+002
5.944073e+002, 1.895661e+002
5.948894e+002, 1.891316e+002
5.953715e+002, 1.890696e+002
5.958536e+002, 1.895270e+002
5.963358e+002, 1.896868e+002
5.968179e+002, 1.893638e+002
5.973000e+002, 1.889964e+002
5.977821e+002, 1.887008e+002
5.982642e+002, 1.884701e+002
5.987463e+002, 1.882260e+002
5.992285e+002, 1.879504e+002
5.997106e+002, 1.878311e+002
6.001927e+002, 1.882136e+002
6.006748e+002, 1.890723e+002
6.011569e+002, 1.896689e+002
6.016390e+002, 1.899867e+002
6.021212e+002, 1.900056e+002
6.026033e+002, 1.894919e+002
6.030854e+002, 1.887320e+002
6.035675e+002, 1.881192e+002
6.040496e+002, 1.876284e+002
6.045317e+002, 1.874884e+002
6.050139e+002, 1.881320e+002
6.054960e+002, 1.890572e+002
6.059781e+002, 1.894622e+002
6.064602e+002, 1.892946e+002
6.069423e+002, 1.891009e+002
6.074244e+002, 1.892886e+002
6.079066e+002, 1.897492e+002
6.083887e+002, 1.899929e+002
6.088708e+002, 1.899403e+002
6.093529e+002, 1.897662e+002
6.098350e+002, 1.893324e+002
6.103171e+002, 1.889031e+002
6.107993e+002, 1.886948e+002
6.112814e+002, 1.886702e+002
6.117635e+002, 1.886290e+002
6.122456e+002, 1.884216e+002
6.127277e+002, 1.881592e+002
6.132098e+002, 1.880687e+002
6.136920e+002, 1.881555e+002
6.141741e+002, 1.883577e+002
6.146562e+002, 1.887317e+002
6.151383e+002, 1.891220e+002
6.156204e+002, 1.894241e+002
6.161025e+002, 1.896311e+002
6.165847e+002, 1.896422e+002
6.170668e+002, 1.892713e+002
6.175489e+002, 1.888625e+002
6.180310e+002, 1.885448e+002
6.185131e+002, 1.883655e+002
6.189952e+002, 1.884652e+002
6.194774e+002, 1.888753e+002
6.199595e+002, 1.893623e+002
6.204416e+002, 1.896397e+002
6.209237e+002, 1.896877e+002
6.214058e+002, 1.898520e+002
6.218879e+002, 1.902811e+002
6.223701e+002, 1.906482e+002
6.228522e+002, 1.909079e+002
6.233343e+002, 1.910621e+002
6.238164e+002, 1.910686e+002
6.242985e+002, 1.909363e+002
6.247806e+002, 1.908223e+002
6.252628e+002, 1.908867e+002
6.257448e+002, 1.910625e+002
6.262269e+002, 1.911628e+002
6.267090e+002, 1.911781e+002
6.271912e+002, 1.911851e+002
6.276733e+002, 1.911930e+002
6.281554e+002, 1.912377e+002
6.286375e+002, 1.914550e+002
6.291196e+002, 1.919435e+002
6.296017e+002, 1.921310e+002
6.300839e+002, 1.915863e+002
6.305660e+002, 1.910235e+002
6.310481e+002, 1.909308e+002
6.315302e+002, 1.912255e+002
6.320123e+002, 1.916553e+002
6.324944e+002, 1.921032e+002
6.329766e+002, 1.925401e+002
6.334587e+002, 1.929448e+002
6.339408e+002, 1.933560e+002
6.344229e+002, 1.935310e+002
6.349050e+002, 1.933281e+002
6.353871e+002, 1.930610e+002
6.358693e+002, 1.927796e+002
6.363514e+002, 1.925572e+002
6.368335e+002, 1.925280e+002
6.373156e+002, 1.927554e+002
6.377977e+002, 1.930327e+002
6.382798e+002, 1.932549e+002
6.387620e+002, 1.934122e+002
6.392441e+002, 1.934630e+002
6.397262e+002, 1.934070e+002
6.402083e+002, 1.933461e+002
6.406904e+002, 1.933423e+002
6.411725e+002, 1.933872e+002
6.416547e+002, 1.934554e+002
6.421368e+002, 1.936704e+002
6.426189e+002, 1.937157e+002
6.431010e+002, 1.934405e+002
6.435831e+002, 1.931297e+002
6.440652e+002, 1.929669e+002
6.445474e+002, 1.929211e+002
6.450295e+002, 1.928660e+002
6.455116e+002, 1.927328e+002
6.459937e+002, 1.925747e+002
6.464758e+002, 1.923952e+002
6.469579e+002, 1.921975e+002
6.474401e+002, 1.924181e+002
6.479222e+002, 1.932970e+002
6.484043e+002, 1.942357e+002
6.488864e+002, 1.948422e+002
6.493685e+002, 1.951419e+002
6.498506e+002, 1.951809e+002
6.503328e+002, 1.948190e+002
6.508149e+002, 1.944225e+002
6.512970e+002, 1.941371e+002
6.517791e+002, 1.938952e+002
6.522612e+002, 1.935067e+002
6.527433e+002, 1.930278e+002
6.532255e+002, 1.928782e+002
6.537076e+002, 1.934279e+002
6.541897e+002, 1.944173e+002
6.546718e+002, 1.948495e+002
6.551539e+002, 1.944711e+002
6.556360e+002, 1.941428e+002
6.561182e+002, 1.938887e+002
6.566003e+002, 1.937951e+002
6.570824e+002, 1.940311e+002
6.575645e+002, 1.944798e+002
6.580466e+002, 1.947872e+002
6.585287e+002, 1.947545e+002
6.590109e+002, 1.946366e+002
6.594930e+002, 1.946460e+002
6.599751e+002, 1.947625e+002
6.604572e+002, 1.949515e+002
6.609393e+002, 1.952072e+002
6.614214e+002, 1.954534e+002
6.619036e+002, 1.956019e+002
6.623857e+002, 1.956765e+002
6.628678e+002, 1.959238e+002
6.633499e+002, 1.969627e+002
6.638320e+002, 1.973468e+002
6.643141e+002, 1.963466e+002
6.647963e+002, 1.951136e+002
6.652784e+002, 1.945187e+002
6.657605e+002, 1.945711e+002
6.662426e+002, 1.948499e+002
6.667247e+002, 1.951525e+002
6.672068e+002, 1.954398e+002
6.676890e+002, 1.956142e+002
6.681711e+002, 1.956808e+002
6.686532e+002, 1.958183e+002
6.691353e+002, 1.960773e+002
6.696174e+002, 1.963916e+002
6.700995e+002, 1.967638e+002
6.705817e+002, 1.971603e+002
6.710638e+002, 1.973031e+002
6.715459e+002, 1.968896e+002
6.720280e+002, 1.965873e+002
6.725101e+002, 1.965971e+002
6.729922e+002, 1.968303e+002
6.734744e+002, 1.972772e+002
6.739565e+002, 1.978723e+002
6.744386e+002, 1.984085e+002
6.749207e+002, 1.987220e+002
6.754028e+002, 1.988749e+002
6.758849e+002, 1.990714e+002
6.763671e+002, 1.993231e+002
6.768492e+002, 1.995652e+002
6.773313e+002, 1.997788e+002
6.778134e+002, 1.999879e+002
6.782955e+002, 2.002966e+002
6.787776e+002, 2.006323e+002
6.792598e+002, 2.007158e+002
6.797419e+002, 2.002780e+002
6.802240e+002, 1.998376e+002
6.807061e+002, 1.997157e+002
6.811882e+002, 1.997827e+002
6.816703e+002, 1.999347e+002
6.821525e+002, 2.001040e+002
6.826346e+002, 2.000258e+002
6.831167e+002, 1.994496e+002
6.835988e+002, 1.984851e+002
6.840809e+002, 1.976559e+002
6.845630e+002, 1.969605e+002
6.850452e+002, 1.964084e+002
6.855273e+002, 1.960345e+002
6.860094e+002, 1.957810e+002
6.864915e+002, 1.957568e+002
6.869736e+002, 1.958336e+002
6.874557e+002, 1.956433e+002
6.879379e+002, 1.949473e+002
6.884200e+002, 1.941171e+002
6.889021e+002, 1.934393e+002
6.893842e+002, 1.928866e+002
6.898663e+002, 1.924607e+002
6.903484e+002, 1.921512e+002
6.908306e+002, 1.917412e+002
6.913127e+002, 1.910472e+002
6.917948e+002, 1.901182e+002
6.922769e+002, 1.891770e+002
6.927590e+002, 1.880885e+002
6.932411e+002, 1.872146e+002
6.937233e+002, 1.867431e+002
6.942054e+002, 1.863267e+002
6.946875e+002, 1.857425e+002
6.951696e+002, 1.850381e+002
6.956517e+002, 1.843674e+002
6.961339e+002, 1.837810e+002
6.966160e+002, 1.833050e+002
6.970981e+002, 1.830053e+002
6.975802e+002, 1.828419e+002
6.980623e+002, 1.826858e+002
6.985444e+002, 1.825229e+002
6.990266e+002, 1.823103e+002
6.995087e+002, 1.820351e+002
6.999908e+002, 1.816744e+002
7.004729e+002, 1.811441e+002
7.009550e+002, 1.803378e+002
7.014371e+002, 1.795181e+002
7.019193e+002, 1.785729e+002
7.024014e+002, 1.777201e+002
7.028835e+002, 1.770995e+002
7.033656e+002, 1.766768e+002
7.038477e+002, 1.763480e+002
7.043298e+002, 1.760698e+002
7.048120e+002, 1.758847e+002
7.052941e+002, 1.760402e+002
7.057762e+002, 1.763831e+002
7.062583e+002, 1.759859e+002
7.067404e+002, 1.746298e+002
7.072225e+002, 1.735028e+002
7.077046e+002, 1.733955e+002
7.081867e+002, 1.739031e+002
7.086688e+002, 1.740004e+002
7.091509e+002, 1.735720e+002
7.096331e+002, 1.730528e+002
7.101152e+002, 1.723563e+002
7.105973e+002, 1.716824e+002
7.110794e+002, 1.711059e+002
7.115615e+002, 1.706488e+002
7.120436e+002, 1.703923e+002
7.125258e+002, 1.703557e+002
7.130079e+002, 1.702950e+002
7.134900e+002, 1.697984e+002
7.139721e+002, 1.689944e+002
7.144542e+002, 1.686426e+002
7.149363e+002, 1.688306e+002
7.154185e+002, 1.690691e+002
7.159006e+002, 1.691797e+002
7.163827e+002, 1.691771e+002
7.168648e+002, 1.691157e+002
7.173469e+002, 1.690442e+002
7.178290e+002, 1.686567e+002
7.183112e+002, 1.675612e+002
7.187933e+002, 1.665367e+002
7.192754e+002, 1.659462e+002
7.197575e+002, 1.656821e+002
7.202396e+002, 1.656686e+002
7.207217e+002, 1.658316e+002
7.212039e+002, 1.658659e+002
7.216860e+002, 1.653632e+002
7.221681e+002, 1.645140e+002
7.226502e+002, 1.641390e+002
7.231323e+002, 1.643053e+002
7.236144e+002, 1.643596e+002
7.240966e+002, 1.640464e+002
7.245787e+002, 1.636173e+002
7.250608e+002, 1.634351e+002
7.255429e+002, 1.634879e+002
7.260250e+002, 1.632127e+002
7.265071e+002, 1.621149e+002
7.269893e+002, 1.612425e+002
7.274714e+002, 1.610390e+002
7.279535e+002, 1.612195e+002
7.284356e+002, 1.615907e+002
7.289177e+002, 1.620346e+002
7.293998e+002, 1.623409e+002
7.298820e+002, 1.623643e+002
7.303641e+002, 1.621335e+002
7.308462e+002, 1.616391e+002
7.313283e+002, 1.608687e+002
7.318104e+002, 1.601968e+002
7.322925e+002, 1.596866e+002
7.327747e+002, 1.593089e+002
7.332568e+002, 1.590931e+002
7.337389e+002, 1.589990e+002
7.342210e+002, 1.588084e+002
7.347031e+002, 1.584277e+002
7.351852e+002, 1.580955e+002
7.356674e+002, 1.577448e+002
7.361495e+002, 1.575506e+002
7.366316e+002, 1.577782e+002
7.371137e+002, 1.582866e+002
7.375958e+002, 1.587215e+002
7.380779e+002, 1.589230e+002
7.385601e+002, 1.588541e+002
7.390422e+002, 1.582986e+002
7.395243e+002, 1.573382e+002
7.400064e+002, 1.568083e+002
7.404885e+002, 1.568634e+002
7.409706e+002, 1.569590e+002
7.414528e+002, 1.568290e+002
7.419349e+002, 1.565244e+002
7.424170e+002, 1.561005e+002
7.428991e+002, 1.554278e+002
7.433812e+002, 1.550851e+002
7.438633e+002, 1.553832e+002
7.443455e+002, 1.557489e+002
7.448276e+002, 1.560142e+002
7.453097e+002, 1.560974e+002
7.457918e+002, 1.558176e+002
7.462739e+002, 1.551658e+002
7.467560e+002, 1.545339e+002
7.472382e+002, 1.544460e+002
7.477203e+002, 1.546513e+002
7.482024e+002, 1.542841e+002
7.486845e+002, 1.533268e+002
7.491666e+002, 1.524866e+002
7.496487e+002, 1.519694e+002
7.501309e+002, 1.517307e+002
7.506130e+002, 1.517526e+002
7.510951e+002, 1.520489e+002
7.515772e+002, 1.523736e+002
7.520593e+002, 1.530333e+002
7.525414e+002, 1.533185e+002
7.530236e+002, 1.526983e+002
7.535057e+002, 1.519063e+002
7.539878e+002, 1.516375e+002
7.544699e+002, 1.518647e+002
7.549520e+002, 1.521379e+002
7.554341e+002, 1.522738e+002
7.559163e+002, 1.521820e+002
7.563984e+002, 1.513118e+002
7.568805e+002, 1.500251e+002
7.573626e+002, 1.503554e+002
7.578447e+002, 1.527672e+002
7.583268e+002, 1.545554e+002
7.588090e+002, 1.535841e+002
7.592911e+002, 1.507684e+002
7.597732e+002, 1.491859e+002
7.602553e+002, 1.496877e+002
7.607374e+002, 1.498926e+002
7.612195e+002, 1.496081e+002
7.617017e+002, 1.492574e+002
7.621838e+002, 1.490745e+002
7.626659e+002, 1.489485e+002
7.631480e+002, 1.486499e+002
7.636301e+002, 1.481089e+002
7.641122e+002, 1.476007e+002
7.645944e+002, 1.472424e+002
7.650765e+002, 1.470903e+002
7.655586e+002, 1.473847e+002
7.660407e+002, 1.480225e+002
7.665228e+002, 1.484603e+002
7.670049e+002, 1.484940e+002
7.674871e+002, 1.481882e+002
7.679692e+002, 1.475698e+002
7.684513e+002, 1.466089e+002
7.689334e+002, 1.459526e+002
7.694155e+002, 1.456396e+002
7.698976e+002, 1.455697e+002
7.703798e+002, 1.459517e+002
7.708619e+002, 1.463732e+002
7.713440e+002, 1.464922e+002
7.718261e+002, 1.463412e+002
7.723082e+002, 1.461946e+002
7.727903e+002, 1.462785e+002
7.732725e+002, 1.462196e+002
7.737546e+002, 1.455740e+002
7.742367e+002, 1.446988e+002
7.747188e+002, 1.441377e+002
7.752009e+002, 1.439542e+002
7.756830e+002, 1.439808e+002
7.761652e+002, 1.441343e+002
7.766473e+002, 1.442965e+002
7.771294e+002, 1.440998e+002
7.776115e+002, 1.434296e+002
7.780936e+002, 1.431968e+002
7.785757e+002, 1.436527e+002
7.790579e+002, 1.441976e+002
7.795400e+002, 1.446208e+002
7.800221e+002, 1.448795e+002
7.805042e+002, 1.448923e+002
7.809863e+002, 1.446337e+002
7.814684e+002, 1.442478e+002
7.819506e+002, 1.435989e+002
7.824327e+002, 1.430039e+002
7.829148e+002, 1.425605e+002
7.833969e+002, 1.423473e+002
7.838790e+002, 1.426270e+002
7.843611e+002, 1.433810e+002
7.848433e+002, 1.440054e+002
7.853254e+002, 1.438710e+002
7.858075e+002, 1.432283e+002
7.862896e+002, 1.428285e+002
7.867717e+002, 1.426767e+002
7.872538e+002, 1.424692e+002
7.877360e+002, 1.420703e+002
7.882181e+002, 1.418007e+002
7.887002e+002, 1.420732e+002
7.891823e+002, 1.427775e+002
7.896644e+002, 1.429632e+002
7.901465e+002, 1.421438e+002
7.906286e+002, 1.415320e+002
7.911107e+002, 1.412639e+002
7.915928e+002, 1.411864e+002
7.920750e+002, 1.413139e+002
7.925571e+002, 1.415295e+002
7.930392e+002, 1.416083e+002
7.935213e+002, 1.414565e+002
7.940034e+002, 1.412755e+002
7.944855e+002, 1.412439e+002
7.949677e+002, 1.413025e+002
7.954498e+002, 1.414141e+002
7.959319e+002, 1.415378e+002
7.964140e+002, 1.413972e+002
7.968961e+002, 1.408551e+002
7.973782e+002, 1.402393e+002
7.978604e+002, 1.400208e+002
7.983425e+002, 1.402189e+002
7.988246e+002, 1.403120e+002
7.993067e+002, 1.403034e+002
7.997888e+002, 1.401823e+002
8.002709e+002, 1.398196e+002
8.007531e+002, 1.394408e+002
8.012352e+002, 1.391667e+002
8.017173e+002, 1.390168e+002
8.021994e+002, 1.390647e+002
8.026815e+002, 1.395579e+002
8.031636e+002, 1.399189e+002
8.036458e+002, 1.396741e+002
8.041279e+002, 1.392408e+002
8.046100e+002, 1.391577e+002
8.050921e+002, 1.393825e+002
8.055742e+002, 1.395093e+002
8.060563e+002, 1.393108e+002
8.065385e+002, 1.390246e+002
8.070206e+002, 1.391124e+002
8.075027e+002, 1.395286e+002
8.079848e+002, 1.395689e+002
8.084669e+002, 1.391235e+002
8.089490e+002, 1.387421e+002
8.094312e+002, 1.387449e+002
8.099133e+002, 1.388276e+002
8.103954e+002, 1.384570e+002
8.108775e+002, 1.374954e+002
8.113596e+002, 1.370200e+002
8.118417e+002, 1.374104e+002
8.123239e+002, 1.377967e+002
8.128060e+002, 1.380831e+002
8.132881e+002, 1.381606e+002
8.137702e+002, 1.377868e+002
8.142523e+002, 1.370825e+002
8.147344e+002, 1.365352e+002
8.152166e+002, 1.363799e+002
8.156987e+002, 1.364907e+002
8.161808e+002, 1.369468e+002
8.166629e+002, 1.375193e+002
8.171450e+002, 1.375977e+002
8.176271e+002, 1.371732e+002
8.181093e+002, 1.368100e+002
8.185914e+002, 1.368218e+002
8.190735e+002, 1.371280e+002
8.195556e+002, 1.376748e+002
8.200377e+002, 1.385958e+002
8.205198e+002, 1.388524e+002
8.210020e+002, 1.380676e+002
8.214841e+002, 1.373296e+002
8.219662e+002, 1.371137e+002
8.224483e+002, 1.370952e+002
8.229304e+002, 1.369240e+002
8.234125e+002, 1.366011e+002
8.238947e+002, 1.362999e+002
8.243768e+002, 1.359796e+002
8.248589e+002, 1.357811e+002
8.253410e+002, 1.358897e+002
8.258231e+002, 1.360724e+002
8.263052e+002, 1.360629e+002
8.267874e+002, 1.358652e+002
8.272695e+002, 1.356284e+002
8.277516e+002, 1.354211e+002
8.282337e+002, 1.352789e+002
8.287158e+002, 1.353572e+002
8.291979e+002, 1.355546e+002
8.296801e+002, 1.353462e+002
8.301622e+002, 1.346847e+002
8.306443e+002, 1.341929e+002
8.311264e+002, 1.342114e+002
8.316085e+002, 1.344711e+002
8.320906e+002, 1.345264e+002
8.325728e+002, 1.343360e+002
8.330549e+002, 1.342360e+002
8.335370e+002, 1.343589e+002
8.340191e+002, 1.343777e+002
8.345012e+002, 1.340776e+002
8.349833e+002, 1.337640e+002
8.354655e+002, 1.337285e+002
8.359476e+002, 1.339233e+002
8.364297e+002, 1.340437e+002
8.369118e+002, 1.339672e+002
8.373939e+002, 1.338501e+002
8.378760e+002, 1.337111e+002
8.383582e+002, 1.336223e+002
8.388403e+002, 1.337083e+002
8.393224e+002, 1.339266e+002
8.398045e+002, 1.341284e+002
8.402866e+002, 1.342438e+002
8.407687e+002, 1.342920e+002
8.412509e+002, 1.342825e+002
8.417330e+002, 1.342243e+002
8.422151e+002, 1.341663e+002
8.426972e+002, 1.341093e+002
8.431793e+002, 1.340386e+002
8.436614e+002, 1.339243e+002
8.441436e+002, 1.338639e+002
8.446257e+002, 1.339789e+002
8.451078e+002, 1.342649e+002
8.455899e+002, 1.345650e+002
8.460720e+002, 1.351490e+002
8.465541e+002, 1.353348e+002
8.470363e+002, 1.345973e+002
8.475184e+002, 1.338956e+002
8.480005e+002, 1.339262e+002
8.484826e+002, 1.344384e+002
8.489647e+002, 1.348215e+002
8.494468e+002, 1.349245e+002
8.499290e+002, 1.348754e+002
8.504111e+002, 1.346204e+002
8.508932e+002, 1.343461e+002
8.513753e+002, 1.341562e+002
8.518574e+002, 1.341197e+002
8.523395e+002, 1.344979e+002
8.528217e+002, 1.353015e+002
8.533038e+002, 1.359467e+002
8.537859e+002, 1.357847e+002
8.542680e+002, 1.350835e+002
8.547501e+002, 1.346466e+002
8.552322e+002, 1.344729e+002
8.557144e+002, 1.345054e+002
8.561965e+002, 1.348072e+002
8.566786e+002, 1.349713e+002
8.571607e+002, 1.346190e+002
8.576428e+002, 1.339525e+002
8.581249e+002, 1.336317e+002
8.586071e+002, 1.338727e+002
8.590892e+002, 1.339919e+002
8.595713e+002, 1.338355e+002
8.600534e+002, 1.337386e+002
8.605355e+002, 1.338655e+002
8.610176e+002, 1.340886e+002
8.614998e+002, 1.343148e+002
8.619819e+002, 1.345151e+002
8.624640e+002, 1.344957e+002
8.629461e+002, 1.340036e+002
8.634282e+002, 1.334544e+002
8.639103e+002, 1.330735e+002
8.643925e+002, 1.328445e+002
8.648746e+002, 1.328236e+002
8.653567e+002, 1.329462e+002
8.658388e+002, 1.329601e+002
8.663209e+002, 1.327071e+002
8.668030e+002, 1.323678e+002
8.672852e+002, 1.322681e+002
8.677673e+002, 1.323410e+002
8.682494e+002, 1.322435e+002
8.687315e+002, 1.319560e+002
8.692136e+002, 1.314162e+002
8.696957e+002, 1.305008e+002
8.701779e+002, 1.296583e+002
8.706600e+002, 1.295346e+002
8.711421e+002, 1.301362e+002
8.716242e+002, 1.305945e+002
8.721063e+002, 1.309430e+002
8.725884e+002, 1.310881e+002
8.730705e+002, 1.308776e+002
8.735526e+002, 1.305811e+002
8.740347e+002, 1.303317e+002
8.745168e+002, 1.301229e+002
8.749990e+002, 1.299281e+002
8.754811e+002, 1.297579e+002
8.759632e+002, 1.295600e+002
8.764453e+002, 1.291586e+002
8.769274e+002, 1.288760e+002
8.774095e+002, 1.291326e+002
8.778917e+002, 1.296089e+002
8.783738e+002, 1.294535e+002
8.788559e+002, 1.286598e+002
8.793380e+002, 1.286902e+002
8.798201e+002, 1.314443e+002
8.803022e+002, 1.347756e+002
8.807844e+002, 1.346675e+002
8.812665e+002, 1.320611e+002
8.817486e+002, 1.304531e+002
8.822307e+002, 1.303677e+002
8.827128e+002, 1.304311e+002
8.831949e+002, 1.297540e+002
8.836771e+002, 1.288083e+002
8.841592e+002, 1.286978e+002
8.846413e+002, 1.296224e+002
8.851234e+002, 1.297930e+002
8.856055e+002, 1.288207e+002
8.860876e+002, 1.280565e+002
8.865698e+002, 1.280552e+002
8.870519e+002, 1.283717e+002
8.875340e+002, 1.286068e+002
8.880161e+002, 1.287483e+002
8.884982e+002, 1.286352e+002
8.889803e+002, 1.280522e+002
8.894625e+002, 1.275123e+002
8.899446e+002, 1.269496e+002
8.904267e+002, 1.266003e+002
8.909088e+002, 1.267268e+002
8.913909e+002, 1.271639e+002
8.918730e+002, 1.276420e+002
8.923552e+002, 1.281010e+002
8.928373e+002, 1.283411e+002
8.933194e+002, 1.281470e+002
8.938015e+002, 1.277458e+002
8.942836e+002, 1.272839e+002
8.947657e+002, 1.268313e+002
8.952479e+002, 1.265295e+002
8.957300e+002, 1.263977e+002
8.962121e+002, 1.263412e+002
8.966942e+002, 1.263002e+002
8.971763e+002, 1.262566e+002
8.976584e+002, 1.261425e+002
8.981406e+002, 1.259743e+002
8.986227e+002, 1.259533e+002
8.991048e+002, 1.261129e+002
8.995869e+002, 1.262272e+002
9.000690e+002, 1.261970e+002
9.005511e+002, 1.260429e+002
9.010333e+002, 1.257770e+002
9.015154e+002, 1.253910e+002
9.019975e+002, 1.250719e+002
9.024796e+002, 1.248135e+002
9.029617e+002, 1.246337e+002
9.034438e+002, 1.246256e+002
9.039260e+002, 1.246102e+002
9.044081e+002, 1.244078e+002
9.048902e+002, 1.241120e+002
9.053723e+002, 1.239824e+002
9.058544e+002, 1.241251e+002
9.063365e+002, 1.242107e+002
9.068187e+002, 1.241116e+002
9.073008e+002, 1.239834e+002
9.077829e+002, 1.239424e+002
9.082650e+002, 1.239171e+002
9.087471e+002, 1.238183e+002
9.092292e+002, 1.236236e+002
9.097114e+002, 1.233093e+002
9.101935e+002, 1.226918e+002
9.106756e+002, 1.222210e+002
9.111577e+002, 1.226357e+002
9.116398e+002, 1.234074e+002
9.121219e+002, 1.234893e+002
9.126041e+002, 1.228989e+002
9.130862e+002, 1.222918e+002
9.135683e+002, 1.219784e+002
9.140504e+002, 1.218260e+002
9.145325e+002, 1.216418e+002
9.150146e+002, 1.214604e+002
9.154968e+002, 1.215263e+002
9.159789e+002, 1.218528e+002
9.164610e+002, 1.220824e+002
9.169431e+002, 1.221395e+002
9.174252e+002, 1.220070e+002
9.179073e+002, 1.216156e+002
9.183895e+002, 1.210706e+002
9.188716e+002, 1.207462e+002
9.193537e+002, 1.206370e+002
9.198358e+002, 1.207883e+002
9.203179e+002, 1.216969e+002
9.208000e+002, 1.221449e+002
9.212822e+002, 1.211258e+002
9.217643e+002, 1.197426e+002
9.222464e+002, 1.192697e+002
9.227285e+002, 1.196831e+002
9.232106e+002, 1.199249e+002
9.236927e+002, 1.196166e+002
9.241749e+002, 1.194347e+002
9.246570e+002, 1.197492e+002
9.251391e+002, 1.200991e+002
9.256212e+002, 1.199830e+002
9.261033e+002, 1.196508e+002
9.265854e+002, 1.197723e+002
9.270676e+002, 1.205621e+002
9.275497e+002, 1.211345e+002
9.280318e+002, 1.206499e+002
9.285139e+002, 1.198959e+002
9.289960e+002, 1.196298e+002
9.294781e+002, 1.197087e+002
9.299603e+002, 1.198599e+002
9.304424e+002, 1.200105e+002
9.309245e+002, 1.201764e+002
9.314066e+002, 1.203936e+002
9.318887e+002, 1.204810e+002
9.323708e+002, 1.200104e+002
9.328530e+002, 1.191548e+002
9.333351e+002, 1.186361e+002
9.338172e+002, 1.184823e+002
9.342993e+002, 1.184781e+002
9.347814e+002, 1.185517e+002
9.352635e+002, 1.186784e+002
9.357457e+002, 1.188442e+002
9.362278e+002, 1.190313e+002
9.367099e+002, 1.191360e+002
9.371920e+002, 1.191460e+002
9.376741e+002, 1.191345e+002
9.381563e+002, 1.191546e+002
9.386384e+002, 1.190373e+002
9.391205e+002, 1.185543e+002
9.396026e+002, 1.179866e+002
9.400847e+002, 1.178949e+002
9.405668e+002, 1.184181e+002
9.410490e+002, 1.185965e+002
9.415311e+002, 1.182753e+002
9.420132e+002, 1.178381e+002
9.424953e+002, 1.171959e+002
9.429774e+002, 1.166076e+002
9.434595e+002, 1.163821e+002
9.439417e+002, 1.163459e+002
9.444238e+002, 1.159629e+002
9.449059e+002, 1.149292e+002
9.453880e+002, 1.143208e+002
9.458701e+002, 1.148162e+002
9.463522e+002, 1.155410e+002
9.468344e+002, 1.159945e+002
9.473165e+002, 1.162743e+002
9.477986e+002, 1.166175e+002
9.482807e+002, 1.169956e+002
9.487628e+002, 1.170851e+002
9.492449e+002, 1.166171e+002
9.497271e+002, 1.160505e+002
9.502092e+002, 1.157895e+002
9.506913e+002, 1.157306e+002
9.511734e+002, 1.157517e+002
9.516555e+002, 1.158221e+002
9.521376e+002, 1.159248e+002
9.526198e+002, 1.160437e+002
9.531019e+002, 1.160860e+002
9.535840e+002, 1.159545e+002
9.540661e+002, 1.156929e+002
9.545482e+002, 1.153257e+002
9.550303e+002, 1.148996e+002
9.555124e+002, 1.147303e+002
9.559945e+002, 1.148620e+002
9.564766e+002, 1.152300e+002
9.569587e+002, 1.158417e+002
9.574409e+002, 1.164322e+002
9.579230e+002, 1.165030e+002
9.584051e+002, 1.160713e+002
9.588872e+002, 1.162086e+002
9.593693e+002, 1.171669e+002
9.598514e+002, 1.175558e+002
9.603336e+002, 1.168549e+002
9.608157e+002, 1.160264e+002
9.612978e+002, 1.157743e+002
9.617799e+002, 1.159384e+002
9.622620e+002, 1.160708e+002
9.627441e+002, 1.161331e+002
9.632263e+002, 1.162839e+002
9.637084e+002, 1.166314e+002
9.641905e+002, 1.169201e+002
9.646726e+002, 1.168931e+002
9.651547e+002, 1.169340e+002
9.656368e+002, 1.175105e+002
9.661190e+002, 1.184751e+002
9.666011e+002, 1.191203e+002
9.670832e+002, 1.191869e+002
9.675653e+002, 1.192864e+002
9.680474e+002, 1.195508e+002
9.685295e+002, 1.198799e+002
9.690117e+002, 1.202983e+002
9.694938e+002, 1.206995e+002
9.699759e+002, 1.208938e+002
9.704580e+002, 1.208997e+002
9.709401e+002, 1.210178e+002
9.714222e+002, 1.215147e+002
9.719044e+002, 1.219373e+002
9.723865e+002, 1.218585e+002
9.728686e+002, 1.216720e+002
9.733507e+002, 1.218977e+002
9.738328e+002, 1.223481e+002
9.743149e+002, 1.224764e+002
9.747971e+002, 1.221487e+002
9.752792e+002, 1.218224e+002
9.757613e+002, 1.219519e+002
9.762434e+002, 1.221780e+002
9.767255e+002, 1.219807e+002
9.772076e+002, 1.215252e+002
9.776898e+002, 1.211423e+002
9.781719e+002, 1.208685e+002
9.786540e+002, 1.206092e+002
9.791361e+002, 1.203182e+002
9.796182e+002, 1.201142e+002
9.801003e+002, 1.202385e+002
9.805825e+002, 1.205352e+002
9.810646e+002, 1.204040e+002
9.815467e+002, 1.199100e+002
9.820288e+002, 1.196310e+002
9.825109e+002, 1.196814e+002
9.829930e+002, 1.196408e+002
9.834752e+002, 1.192291e+002
9.839573e+002, 1.186004e+002
9.844394e+002, 1.180313e+002
9.849215e+002, 1.175231e+002
9.854036e+002, 1.170670e+002
9.858857e+002, 1.166933e+002
9.863679e+002, 1.161127e+002
9.868500e+002, 1.150889e+002
9.873321e+002, 1.143766e+002
9.878142e+002, 1.147115e+002
9.882963e+002, 1.157146e+002
9.887784e+002, 1.161943e+002
9.892606e+002, 1.160333e+002
9.897427e+002, 1.157448e+002
9.902248e+002, 1.152701e+002
9.907069e+002, 1.147728e+002
9.911890e+002, 1.142287e+002
9.916711e+002, 1.137598e+002
9.921533e+002, 1.134538e+002
9.926354e+002, 1.133183e+002
9.931175e+002, 1.134145e+002
9.935996e+002, 1.140020e+002
9.940817e+002, 1.143530e+002
9.945638e+002, 1.143839e+002
9.950460e+002, 1.142667e+002
9.955281e+002, 1.140020e+002
9.960102e+002, 1.136679e+002
9.964923e+002, 1.133068e+002
9.969744e+002, 1.129391e+002
9.974565e+002, 1.126774e+002
9.979387e+002, 1.126222e+002
9.984208e+002, 1.125435e+002
9.989029e+002, 1.123857e+002
9.993850e+002, 1.121856e+002
9.998671e+002, 1.118719e+002
1.000349e+003, 1.115815e+002
1.000831e+003, 1.115626e+002
1.001313e+003, 1.118075e+002
1.001796e+003, 1.119532e+002
1.002278e+003, 1.117732e+002
1.002760e+003, 1.115773e+002
1.003242e+003, 1.115391e+002
1.003724e+003, 1.115578e+002
1.004206e+003, 1.115556e+002
1.004688e+003, 1.115297e+002
1.005170e+003, 1.115294e+002
1.005653e+003, 1.115487e+002
1.006135e+003, 1.114239e+002
1.006617e+003, 1.108793e+002
1.007099e+003, 1.103780e+002
1.007581e+003, 1.104007e+002
1.008063e+003, 1.107108e+002
1.008545e+003, 1.111146e+002
1.009027e+003, 1.114802e+002
1.009509e+003, 1.115294e+002
1.009992e+003, 1.111845e+002
1.010474e+003, 1.107415e+002
1.010956e+003, 1.103637e+002
1.011438e+003, 1.101479e+002
1.011920e+003, 1.103482e+002
1.012402e+003, 1.107963e+002
1.012884e+003, 1.111229e+002
1.013366e+003, 1.112897e+002
1.013849e+003, 1.113426e+002
1.014331e+003, 1.113082e+002
1.014813e+003, 1.113626e+002
1.015295e+003, 1.118011e+002
1.015777e+003, 1.123977e+002
1.016259e+003, 1.125624e+002
1.016741e+003, 1.123653e+002
1.017223e+003, 1.120811e+002
1.017705e+003, 1.117686e+002
1.018188e+003, 1.115367e+002
1.018670e+003, 1.114432e+002
1.019152e+003, 1.114354e+002
1.019634e+003, 1.114724e+002
1.020116e+003, 1.115236e+002
1.020598e+003, 1.113767e+002
1.021080e+003, 1.110465e+002
1.021562e+003, 1.109286e+002
1.022044e+003, 1.110951e+002
1.022527e+003, 1.114697e+002
1.023009e+003, 1.120645e+002
1.023491e+003, 1.125633e+002
1.023973e+003, 1.123941e+002
1.024455e+003, 1.116080e+002
1.024937e+003, 1.110825e+002
1.025419e+003, 1.108491e+002
1.025901e+003, 1.106264e+002
1.026384e+003, 1.103573e+002
1.026866e+003, 1.101111e+002
1.027348e+003, 1.099170e+002
1.027830e+003, 1.098055e+002
1.028312e+003, 1.098590e+002
1.028794e+003, 1.100904e+002
1.029276e+003, 1.101555e+002
1.029758e+003, 1.099874e+002
1.030240e+003, 1.098885e+002
1.030723e+003, 1.099169e+002
1.031205e+003, 1.100332e+002
1.031687e+003, 1.102748e+002
1.032169e+003, 1.105162e+002
1.032651e+003, 1.104733e+002
1.033133e+003, 1.100898e+002
1.033615e+003, 1.098929e+002
1.034097e+003, 1.099368e+002
1.034579e+003, 1.100598e+002
1.035062e+003, 1.103470e+002
1.035544e+003, 1.105302e+002
1.036026e+003, 1.104191e+002
1.036508e+003, 1.100875e+002
1.036990e+003, 1.096458e+002
1.037472e+003, 1.090259e+002
1.037954e+003, 1.086845e+002
1.038436e+003, 1.088749e+002
1.038919e+003, 1.089369e+002
1.039401e+003, 1.085805e+002
1.039883e+003, 1.082594e+002
1.040365e+003, 1.083497e+002
1.040847e+003, 1.086547e+002
1.041329e+003, 1.087429e+002
1.041811e+003, 1.085591e+002
1.042293e+003, 1.084601e+002
1.042776e+003, 1.084731e+002
1.043258e+003, 1.085441e+002
1.043740e+003, 1.088777e+002
1.044222e+003, 1.090542e+002
1.044704e+003, 1.087458e+002
1.045186e+003, 1.081076e+002
1.045668e+003, 1.073603e+002
1.046150e+003, 1.064482e+002
1.046632e+003, 1.059490e+002
1.047115e+003, 1.062287e+002
1.047597e+003, 1.065058e+002
1.048079e+003, 1.067567e+002
1.048561e+003, 1.067801e+002
1.049043e+003, 1.062504e+002
1.049525e+003, 1.054680e+002
1.050007e+003, 1.049964e+002
1.050489e+003, 1.049238e+002
1.050971e+003, 1.048727e+002
1.051454e+003, 1.045443e+002
1.051936e+003, 1.045371e+002
1.052418e+003, 1.054800e+002
1.052900e+003, 1.063693e+002
1.053382e+003, 1.063773e+002
1.053864e+003, 1.058477e+002
1.054346e+003, 1.054357e+002
1.054828e+003, 1.052340e+002
1.055311e+003, 1.051160e+002
1.055793e+003, 1.049928e+002
1.056275e+003, 1.050237e+002
1.056757e+003, 1.055946e+002
1.057239e+003, 1.060191e+002
1.057721e+003, 1.055448e+002
1.058203e+003, 1.046584e+002
1.058685e+003, 1.042391e+002
1.059167e+003, 1.044199e+002
1.059650e+003, 1.047003e+002
1.060132e+003, 1.050975e+002
1.060614e+003, 1.053241e+002
1.061096e+003, 1.052258e+002
1.061578e+003, 1.049617e+002
1.062060e+003, 1.046021e+002
1.062542e+003, 1.041847e+002
1.063024e+003, 1.036919e+002
1.063506e+003, 1.031452e+002
1.063989e+003, 1.028054e+002
1.064471e+003, 1.027936e+002
1.064953e+003, 1.029644e+002
1.065435e+003, 1.034857e+002
1.065917e+003, 1.039413e+002
1.066399e+003, 1.039371e+002
1.066881e+003, 1.036898e+002
1.067363e+003, 1.035586e+002
1.067846e+003, 1.035868e+002
1.068328e+003, 1.035838e+002
1.068810e+003, 1.035105e+002
1.069292e+003, 1.033394e+002
1.069774e+003, 1.029685e+002
1.070256e+003, 1.025874e+002
1.070738e+003, 1.023604e+002
1.071220e+003, 1.022014e+002
1.071703e+003, 1.019293e+002
1.072185e+003, 1.015634e+002
1.072667e+003, 1.013679e+002
1.073149e+003, 1.015748e+002
1.073631e+003, 1.016532e+002
1.074113e+003, 1.011270e+002
1.074595e+003, 1.006225e+002
1.075077e+003, 1.006806e+002
1.075559e+003, 1.009831e+002
1.076042e+003, 1.011355e+002
1.076524e+003, 1.010826e+002
1.077006e+003, 1.008659e+002
1.077488e+003, 1.003825e+002
1.077970e+003, 1.001148e+002
1.078452e+003, 1.005330e+002
1.078934e+003, 1.009720e+002
1.079416e+003, 1.009674e+002
1.079898e+003, 1.007384e+002
1.080380e+003, 1.005073e+002
1.080863e+003, 1.003293e+002
1.081345e+003, 1.002209e+002
1.081827e+003, 1.001612e+002
1.082309e+003, 1.003084e+002
1.082791e+003, 1.010195e+002
1.083273e+003, 1.016272e+002
1.083755e+003, 1.016688e+002
1.084237e+003, 1.014338e+002
1.084720e+003, 1.012145e+002
1.085202e+003, 1.010110e+002
1.085684e+003, 1.006432e+002
1.086166e+003, 1.000177e+002
1.086648e+003, 9.971464e+001
1.087130e+003, 1.002188e+002
1.087612e+003, 1.008080e+002
1.088094e+003, 1.012063e+002
1.088577e+003, 1.014351e+002
1.089059e+003, 1.013973e+002
1.089541e+003, 1.012549e+002
1.090023e+003, 1.014008e+002
1.090505e+003, 1.019183e+002
1.090987e+003, 1.021621e+002
1.091469e+003, 1.016080e+002
1.091951e+003, 1.011116e+002
1.092433e+003, 1.012693e+002
1.092916e+003, 1.014052e+002
1.093398e+003, 1.008486e+002
1.093880e+003, 9.995689e+001
1.094362e+003, 9.935204e+001
1.094844e+003, 9.912194e+001
1.095326e+003, 9.901854e+001
1.095808e+003, 9.904595e+001
1.096290e+003, 9.907039e+001
1.096772e+003, 9.915488e+001
1.097255e+003, 9.910812e+001
1.097737e+003, 9.858234e+001
1.098219e+003, 9.798862e+001
1.098701e+003, 9.796397e+001
1.099183e+003, 9.846207e+001
1.099665e+003, 9.876997e+001
1.100147e+003, 9.863645e+001
1.100629e+003, 9.848540e+001
1.101112e+003, 9.841203e+001
1.101594e+003, 9.836075e+001
1.102076e+003, 9.828343e+001
1.102558e+003, 9.822921e+001
1.103040e+003, 9.830528e+001
1.103522e+003, 9.845405e+001
1.104004e+003, 9.844267e+001
1.104486e+003, 9.816928e+001
1.104969e+003, 9.795381e+001
1.105451e+003, 9.770663e+001
1.105933e+003, 9.771725e+001
1.106415e+003, 9.848887e+001
1.106897e+003, 9.918865e+001
1.107379e+003, 9.888210e+001
1.107861e+003, 9.804111e+001
1.108343e+003, 9.796096e+001
1.108825e+003, 9.895672e+001
1.109307e+003, 9.942533e+001
1.109790e+003, 9.888093e+001
1.110272e+003, 9.829185e+001
1.110754e+003, 9.772947e+001
1.111236e+003, 9.730430e+001
1.111718e+003, 9.719429e+001
1.112200e+003, 9.720814e+001
1.112682e+003, 9.700608e+001
1.113164e+003, 9.656982e+001
1.113647e+003, 9.625432e+001
1.114129e+003, 9.601197e+001
1.114611e+003, 9.597753e+001
1.115093e+003, 9.633781e+001
1.115575e+003, 9.666763e+001
1.116057e+003, 9.679101e+001
1.116539e+003, 9.679164e+001
1.117021e+003, 9.674857e+001
1.117504e+003, 9.666618e+001
1.117986e+003, 9.657474e+001
1.118468e+003, 9.645980e+001
1.118950e+003, 9.636347e+001
1.119432e+003, 9.623392e+001
1.119914e+003, 9.623934e+001
1.120396e+003, 9.651598e+001
1.120878e+003, 9.681202e+001
1.121360e+003, 9.693472e+001
1.121843e+003, 9.689430e+001
1.122325e+003, 9.668361e+001
1.122807e+003, 9.622684e+001
1.123289e+003, 9.611055e+001
1.123771e+003, 9.650352e+001
1.124253e+003, 9.660480e+001
1.124735e+003, 9.608479e+001
1.125217e+003, 9.578193e+001
1.125699e+003, 9.636321e+001
1.126182e+003, 9.717077e+001
1.126664e+003, 9.696965e+001
1.127146e+003, 9.585005e+001
1.127628e+003, 9.554686e+001
1.128110e+003, 9.616699e+001
1.128592e+003, 9.668224e+001
1.129074e+003, 9.697646e+001
1.129556e+003, 9.697810e+001
1.130039e+003, 9.660993e+001
1.130521e+003, 9.619656e+001
1.131003e+003, 9.612696e+001
1.131485e+003, 9.628182e+001
1.131967e+003, 9.618733e+001
1.132449e+003, 9.587119e+001
1.132931e+003, 9.588349e+001
1.133413e+003, 9.624546e+001
1.133896e+003, 9.652611e+001
1.134378e+003, 9.659380e+001
1.134860e+003, 9.658942e+001
1.135342e+003, 9.661689e+001
1.135824e+003, 9.666550e+001
1.136306e+003, 9.670068e+001
1.136788e+003, 9.674220e+001
1.137270e+003, 9.694727e+001
1.137752e+003, 9.724182e+001
1.138234e+003, 9.719344e+001
1.138717e+003, 9.678103e+001
1.139199e+003, 9.646348e+001
1.139681e+003, 9.647502e+001
1.140163e+003, 9.662169e+001
1.140645e+003, 9.673566e+001
1.141127e+003, 9.679297e+001
1.141609e+003, 9.677955e+001
1.142091e+003, 9.666527e+001
1.142574e+003, 9.628862e+001
1.143056e+003, 9.574765e+001
1.143538e+003, 9.537337e+001
1.144020e+003, 9.526997e+001
1.144502e+003, 9.534741e+001
1.144984e+003, 9.562148e+001
1.145466e+003, 9.585779e+001
1.145948e+003, 9.570725e+001
1.146431e+003, 9.546114e+001
1.146913e+003, 9.561414e+001
1.147395e+003, 9.589550e+001
1.147877e+003, 9.568906e+001
1.148359e+003, 9.502705e+001
1.148841e+003, 9.451063e+001
1.149323e+003, 9.440086e+001
1.149805e+003, 9.440482e+001
1.150287e+003, 9.436083e+001
1.150770e+003, 9.433830e+001
1.151252e+003, 9.435147e+001
1.151734e+003, 9.444126e+001
1.152216e+003, 9.475825e+001
1.152698e+003, 9.515611e+001
1.153180e+003, 9.514886e+001
1.153662e+003, 9.464234e+001
1.154144e+003, 9.477491e+001
1.154626e+003, 9.700404e+001
1.155109e+003, 9.840305e+001
1.155591e+003, 9.748278e+001
1.156073e+003, 9.602096e+001
1.156555e+003, 9.472900e+001
1.157037e+003, 9.380344e+001
1.157519e+003, 9.351785e+001
1.158001e+003, 9.379100e+001
1.158483e+003, 9.401618e+001
1.158966e+003, 9.410957e+001
1.159448e+003, 9.421288e+001
1.159930e+003, 9.435994e+001
1.160412e+003, 9.448309e+001
1.160894e+003, 9.454414e+001
1.161376e+003, 9.460359e+001
1.161858e+003, 9.479178e+001
1.162340e+003, 9.495673e+001
1.162822e+003, 9.469780e+001
1.163305e+003, 9.393335e+001
1.163787e+003, 9.365172e+001
1.164269e+003, 9.407059e+001
1.164751e+003, 9.431942e+001
1.165233e+003, 9.420146e+001
1.165715e+003, 9.416262e+001
1.166197e+003, 9.445107e+001
1.166679e+003, 9.481048e+001
1.167161e+003, 9.492905e+001
1.167644e+003, 9.487455e+001
1.168126e+003, 9.493205e+001
1.168608e+003, 9.510552e+001
1.169090e+003, 9.529855e+001
1.169572e+003, 9.551163e+001
1.170054e+003, 9.550837e+001
1.170536e+003, 9.521927e+001
1.171018e+003, 9.493401e+001
1.171500e+003, 9.485756e+001
1.171983e+003, 9.485487e+001
1.172465e+003, 9.468191e+001
1.172947e+003, 9.441550e+001
1.173429e+003, 9.434553e+001
1.173911e+003, 9.440969e+001
1.174393e+003, 9.433609e+001
1.174875e+003, 9.413403e+001
1.175357e+003, 9.406361e+001
1.175840e+003, 9.421037e+001
1.176322e+003, 9.433944e+001
1.176804e+003, 9.422259e+001
1.177286e+003, 9.407136e+001
1.177768e+003, 9.416985e+001
1.178250e+003, 9.438588e+001
1.178732e+003, 9.455527e+001
1.179214e+003, 9.467717e+001
1.179697e+003, 9.479007e+001
1.180179e+003, 9.488757e+001
1.180661e+003, 9.493346e+001
1.181143e+003, 9.492578e+001
1.181625e+003, 9.475927e+001
1.182107e+003, 9.415295e+001
1.182589e+003, 9.362847e+001
1.183071e+003, 9.364648e+001
1.183553e+003, 9.380384e+001
1.184036e+003, 9.363560e+001
1.184518e+003, 9.334046e+001
1.185000e+003, 9.335936e+001
1.185482e+003, 9.374279e+001
1.185964e+003, 9.415382e+001
1.186446e+003, 9.473329e+001
1.186928e+003, 9.498705e+001
1.187410e+003, 9.462265e+001
1.187892e+003, 9.418061e+001
1.188375e+003, 9.364223e+001
1.188857e+003, 9.335130e+001
1.189339e+003, 9.382829e+001
1.189821e+003, 9.473607e+001
1.190303e+003, 9.505096e+001
1.190785e+003, 9.462598e+001
1.191267e+003, 9.449381e+001
1.191749e+003, 9.479355e+001
1.192232e+003, 9.499208e+001
1.192714e+003, 9.498233e+001
1.193196e+003, 9.491869e+001
1.193678e+003, 9.485228e+001
1.194160e+003, 9.485107e+001
1.194642e+003, 9.502876e+001
1.195124e+003, 9.530404e+001
1.195606e+003, 9.510413e+001
1.196089e+003, 9.449100e+001
1.196571e+003, 9.580476e+001
1.197053e+003, 9.897092e+001
1.197535e+003, 1.002327e+002
1.198017e+003, 9.872710e+001
1.198499e+003, 9.668696e+001
1.198981e+003, 9.546908e+001
1.199463e+003, 9.476122e+001
1.199945e+003, 9.424450e+001
1.200427e+003, 9.388163e+001
1.200910e+003, 9.351308e+001
1.201392e+003, 9.327053e+001
1.201874e+003, 9.365510e+001
1.202356e+003, 9.441134e+001
1.202838e+003, 9.463774e+001
1.203320e+003, 9.415595e+001
1.203802e+003, 9.362554e+001
1.204284e+003, 9.336387e+001
1.204767e+003, 9.336916e+001
1.205249e+003, 9.384077e+001
1.205731e+003, 9.436392e+001
1.206213e+003, 9.467486e+001
1.206695e+003, 9.477180e+001
1.207177e+003, 9.452718e+001
1.207659e+003, 9.412144e+001
1.208141e+003, 9.402286e+001
1.208624e+003, 9.434452e+001
1.209106e+003, 9.458485e+001
1.209588e+003, 9.460966e+001
1.210070e+003, 9.456294e+001
1.210552e+003, 9.433002e+001
1.211034e+003, 9.420455e+001
1.211516e+003, 9.449307e+001
1.211998e+003, 9.481902e+001
1.212480e+003, 9.478096e+001
1.212963e+003, 9.446954e+001
1.213445e+003, 9.422835e+001
1.213927e+003, 9.406713e+001
1.214409e+003, 9.391145e+001
1.214891e+003, 9.373219e+001
1.215373e+003, 9.369301e+001
1.215855e+003, 9.385918e+001
1.216337e+003, 9.398051e+001
1.216819e+003, 9.390252e+001
1.217302e+003, 9.384895e+001
1.217784e+003, 9.413006e+001
1.218266e+003, 9.459260e+001
1.218748e+003, 9.474577e+001
1.219230e+003, 9.464571e+001
1.219712e+003, 9.454244e+001
1.220194e+003, 9.445748e+001
1.220676e+003, 9.435277e+001
1.221159e+003, 9.425810e+001
1.221641e+003, 9.446539e+001
1.222123e+003, 9.514924e+001
1.222605e+003, 9.575818e+001
1.223087e+003, 9.561485e+001
1.223569e+003, 9.522684e+001
1.224051e+003, 9.514100e+001
1.224533e+003, 9.518925e+001
1.225016e+003, 9.519302e+001
1.225498e+003, 9.513304e+001
1.225980e+003, 9.501827e+001
1.226462e+003, 9.485128e+001
1.226944e+003, 9.461204e+001
1.227426e+003, 9.421258e+001
1.227908e+003, 9.398279e+001
1.228390e+003, 9.422960e+001
1.228872e+003, 9.441381e+001
1.229354e+003, 9.427502e+001
1.229837e+003, 9.401920e+001
1.230319e+003, 9.371385e+001
1.230801e+003, 9.345595e+001
1.231283e+003, 9.344003e+001
1.231765e+003, 9.365623e+001
1.232247e+003, 9.372491e+001
1.232729e+003, 9.353529e+001
1.233211e+003, 9.355336e+001
1.233694e+003, 9.384895e+001
1.234176e+003, 9.419778e+001
1.234658e+003, 9.456417e+001
1.235140e+003, 9.484805e+001
1.235622e+003, 9.499866e+001
1.236104e+003, 9.492516e+001
1.236586e+003, 9.429630e+001
1.237068e+003, 9.339916e+001
1.237551e+003, 9.366725e+001
1.238033e+003, 9.476589e+001
1.238515e+003, 9.517728e+001
1.238997e+003, 9.487553e+001
1.239479e+003, 9.451051e+001
1.239961e+003, 9.431577e+001
1.240443e+003, 9.440684e+001
1.240925e+003, 9.492690e+001
1.241407e+003, 9.538805e+001
1.241890e+003, 9.521810e+001
1.242372e+003, 9.487164e+001
1.242854e+003, 9.479832e+001
1.243336e+003, 9.481178e+001
1.243818e+003, 9.461907e+001
1.244300e+003, 9.432876e+001
1.244782e+003, 9.421996e+001
1.245264e+003, 9.433132e+001
1.245746e+003, 9.450166e+001
1.246229e+003, 9.482000e+001
1.246711e+003, 9.495212e+001
1.247193e+003, 9.461770e+001
1.247675e+003, 9.439521e+001
1.248157e+003, 9.463502e+001
1.248639e+003, 9.485304e+001
1.249121e+003, 9.461890e+001
1.249603e+003, 9.423499e+001
1.250085e+003, 9.427950e+001
1.250568e+003, 9.471838e+001
1.251050e+003, 9.498005e+001
1.251532e+003, 9.506506e+001
1.252014e+003, 9.487778e+001
1.252496e+003, 9.439200e+001
1.252978e+003, 9.419984e+001
1.253460e+003, 9.447765e+001
1.253942e+003, 9.489262e+001
1.254425e+003, 9.523580e+001
1.254907e+003, 9.537468e+001
1.255389e+003, 9.491824e+001
1.255871e+003, 9.428276e+001
1.256353e+003, 9.432045e+001
1.256835e+003, 9.472643e+001
1.257317e+003, 9.491932e+001
1.257799e+003, 9.497733e+001
1.258281e+003, 9.533296e+001
1.258764e+003, 9.598347e+001
1.259246e+003, 9.634229e+001
1.259728e+003, 9.604993e+001
1.260210e+003, 9.586537e+001
1.260692e+003, 9.639643e+001
1.261174e+003, 9.678262e+001
1.261656e+003, 9.649248e+001
1.262138e+003, 9.602746e+001
1.262620e+003, 9.568029e+001
1.263103e+003, 9.547057e+001
1.263585e+003, 9.536649e+001
1.264067e+003, 9.538508e+001
1.264549e+003, 9.573546e+001
1.265031e+003, 9.664360e+001
1.265513e+003, 9.707227e+001
1.265995e+003, 9.688924e+001
1.266477e+003, 9.678313e+001
1.266960e+003, 9.690949e+001
1.267442e+003, 9.713828e+001
1.267924e+003, 9.741673e+001
1.268406e+003, 9.759370e+001
1.268888e+003, 9.749636e+001
1.269370e+003, 9.715461e+001
1.269852e+003, 9.650288e+001
1.270334e+003, 9.572134e+001
1.270817e+003, 9.519678e+001
1.271299e+003, 9.496090e+001
1.271781e+003, 9.517595e+001
1.272263e+003, 9.568954e+001
1.272745e+003, 9.583930e+001
1.273227e+003, 9.537123e+001
1.273709e+003, 9.505695e+001
1.274191e+003, 9.549910e+001
1.274673e+003, 9.601196e+001
1.275156e+003, 9.624876e+001
1.275638e+003, 9.644778e+001
1.276120e+003, 9.690941e+001
1.276602e+003, 9.731093e+001
1.277084e+003, 9.714880e+001
1.277566e+003, 9.662893e+001
1.278048e+003, 9.646435e+001
1.278530e+003, 9.669474e+001
1.279012e+003, 9.695974e+001
1.279495e+003, 9.734283e+001
1.279977e+003, 9.738870e+001
1.280459e+003, 9.696745e+001
1.280941e+003, 9.664668e+001
1.281423e+003, 9.661722e+001
1.281905e+003, 9.689966e+001
1.282387e+003, 9.755134e+001
1.282869e+003, 9.830283e+001
1.283352e+003, 9.875860e+001
1.283834e+003, 9.892574e+001
1.284316e+003, 9.880932e+001
1.284798e+003, 9.841389e+001
##END=



