##NAMES=Diopside
##RRUFFID=R120003
##IDEAL CHEMISTRY=CaMgSi_2_O_6_
##LOCALITY=Chifeng, Inner Mongolia
##OWNER=RRUFF
##SOURCE=Jack Lowell
##DESCRIPTION=Massive aggregate of pale yellow-green prismatic crystals overlain by dark green andradite R120004
##STATUS=The identification of this mineral has been confirmed only by single crystal X-ray diffraction.
##URL=rruff.info/R120003
9.112140e+001, 0.000000e+000
9.160352e+001, 1.419658e+002
9.208563e+001, 1.406666e+002
9.256775e+001, 1.404992e+002
9.304987e+001, 1.419966e+002
9.353198e+001, 1.439642e+002
9.401410e+001, 1.445387e+002
9.449622e+001, 1.436353e+002
9.497833e+001, 1.416509e+002
9.546045e+001, 1.388252e+002
9.594257e+001, 1.351145e+002
9.642468e+001, 1.322973e+002
9.690680e+001, 1.310315e+002
9.738892e+001, 1.299534e+002
9.787103e+001, 1.286146e+002
9.835315e+001, 1.268738e+002
9.883527e+001, 1.249325e+002
9.931738e+001, 1.233680e+002
9.979950e+001, 1.223540e+002
1.002816e+002, 1.212610e+002
1.007637e+002, 1.199576e+002
1.012458e+002, 1.186022e+002
1.017280e+002, 1.173115e+002
1.022101e+002, 1.160864e+002
1.026922e+002, 1.149802e+002
1.031743e+002, 1.140209e+002
1.036564e+002, 1.131082e+002
1.041385e+002, 1.125804e+002
1.046207e+002, 1.127817e+002
1.051028e+002, 1.135047e+002
1.055849e+002, 1.140508e+002
1.060670e+002, 1.141333e+002
1.065491e+002, 1.139490e+002
1.070313e+002, 1.137942e+002
1.075134e+002, 1.137083e+002
1.079955e+002, 1.134795e+002
1.084776e+002, 1.127546e+002
1.089597e+002, 1.113446e+002
1.094418e+002, 1.102600e+002
1.099240e+002, 1.099314e+002
1.104061e+002, 1.099354e+002
1.108882e+002, 1.100187e+002
1.113703e+002, 1.100889e+002
1.118524e+002, 1.101483e+002
1.123345e+002, 1.101901e+002
1.128167e+002, 1.100585e+002
1.132988e+002, 1.101396e+002
1.137809e+002, 1.105698e+002
1.142630e+002, 1.112104e+002
1.147451e+002, 1.118931e+002
1.152272e+002, 1.125069e+002
1.157094e+002, 1.130626e+002
1.161915e+002, 1.136743e+002
1.166736e+002, 1.141337e+002
1.171557e+002, 1.148371e+002
1.176378e+002, 1.159142e+002
1.181199e+002, 1.173556e+002
1.186021e+002, 1.190957e+002
1.190842e+002, 1.210921e+002
1.195663e+002, 1.233816e+002
1.200484e+002, 1.258253e+002
1.205305e+002, 1.286357e+002
1.210126e+002, 1.314789e+002
1.214948e+002, 1.341629e+002
1.219769e+002, 1.366931e+002
1.224590e+002, 1.388253e+002
1.229411e+002, 1.400719e+002
1.234232e+002, 1.406439e+002
1.239053e+002, 1.410656e+002
1.243875e+002, 1.412969e+002
1.248696e+002, 1.414901e+002
1.253517e+002, 1.420562e+002
1.258338e+002, 1.430614e+002
1.263159e+002, 1.444895e+002
1.267980e+002, 1.462217e+002
1.272802e+002, 1.482647e+002
1.277623e+002, 1.506243e+002
1.282444e+002, 1.533410e+002
1.287265e+002, 1.564135e+002
1.292086e+002, 1.597362e+002
1.296907e+002, 1.634951e+002
1.301729e+002, 1.673877e+002
1.306550e+002, 1.710894e+002
1.311371e+002, 1.746488e+002
1.316192e+002, 1.785256e+002
1.321013e+002, 1.833101e+002
1.325834e+002, 1.891449e+002
1.330656e+002, 1.958978e+002
1.335477e+002, 2.028409e+002
1.340298e+002, 2.108875e+002
1.345119e+002, 2.206559e+002
1.349940e+002, 2.323434e+002
1.354761e+002, 2.459026e+002
1.359583e+002, 2.611943e+002
1.364404e+002, 2.791371e+002
1.369225e+002, 2.977389e+002
1.374046e+002, 3.186700e+002
1.378867e+002, 3.399391e+002
1.383688e+002, 3.594353e+002
1.388510e+002, 3.769966e+002
1.393331e+002, 3.905968e+002
1.398152e+002, 3.934749e+002
1.402973e+002, 3.857371e+002
1.407794e+002, 3.706833e+002
1.412615e+002, 3.467062e+002
1.417437e+002, 3.154096e+002
1.422258e+002, 2.831169e+002
1.427079e+002, 2.516012e+002
1.431900e+002, 2.224386e+002
1.436721e+002, 1.975583e+002
1.441542e+002, 1.774684e+002
1.446364e+002, 1.611590e+002
1.451185e+002, 1.479970e+002
1.456006e+002, 1.381681e+002
1.460827e+002, 1.304089e+002
1.465648e+002, 1.251387e+002
1.470469e+002, 1.212505e+002
1.475291e+002, 1.178001e+002
1.480112e+002, 1.144846e+002
1.484933e+002, 1.113876e+002
1.489754e+002, 1.086840e+002
1.494575e+002, 1.063235e+002
1.499396e+002, 1.045092e+002
1.504218e+002, 1.034718e+002
1.509039e+002, 1.028576e+002
1.513860e+002, 1.021813e+002
1.518681e+002, 1.011072e+002
1.523502e+002, 9.971966e+001
1.528323e+002, 9.881104e+001
1.533145e+002, 9.903787e+001
1.537966e+002, 9.913969e+001
1.542787e+002, 9.878318e+001
1.547608e+002, 9.810191e+001
1.552429e+002, 9.738234e+001
1.557250e+002, 9.682893e+001
1.562072e+002, 9.644120e+001
1.566893e+002, 9.627703e+001
1.571714e+002, 9.658329e+001
1.576535e+002, 9.683937e+001
1.581356e+002, 9.671341e+001
1.586177e+002, 9.627975e+001
1.590999e+002, 9.591662e+001
1.595820e+002, 9.598269e+001
1.600641e+002, 9.656238e+001
1.605462e+002, 9.713278e+001
1.610283e+002, 9.765725e+001
1.615104e+002, 9.819431e+001
1.619926e+002, 9.881551e+001
1.624747e+002, 9.952697e+001
1.629568e+002, 1.002354e+002
1.634389e+002, 1.009048e+002
1.639210e+002, 1.015271e+002
1.644031e+002, 1.018097e+002
1.648853e+002, 1.016893e+002
1.653674e+002, 1.012015e+002
1.658495e+002, 1.002925e+002
1.663316e+002, 9.881101e+001
1.668137e+002, 9.729585e+001
1.672958e+002, 9.627088e+001
1.677780e+002, 9.563731e+001
1.682601e+002, 9.511266e+001
1.687422e+002, 9.442166e+001
1.692243e+002, 9.369398e+001
1.697064e+002, 9.352783e+001
1.701885e+002, 9.437198e+001
1.706707e+002, 9.531852e+001
1.711528e+002, 9.574065e+001
1.716349e+002, 9.572305e+001
1.721170e+002, 9.566120e+001
1.725991e+002, 9.590168e+001
1.730812e+002, 9.646450e+001
1.735634e+002, 9.689826e+001
1.740455e+002, 9.705300e+001
1.745276e+002, 9.716901e+001
1.750097e+002, 9.729848e+001
1.754918e+002, 9.746665e+001
1.759739e+002, 9.771134e+001
1.764561e+002, 9.805968e+001
1.769382e+002, 9.849669e+001
1.774203e+002, 9.911305e+001
1.779024e+002, 9.989231e+001
1.783845e+002, 1.008347e+002
1.788666e+002, 1.020536e+002
1.793488e+002, 1.034983e+002
1.798309e+002, 1.049620e+002
1.803130e+002, 1.061965e+002
1.807951e+002, 1.074226e+002
1.812772e+002, 1.077685e+002
1.817593e+002, 1.070444e+002
1.822415e+002, 1.057034e+002
1.827236e+002, 1.039015e+002
1.832057e+002, 1.017320e+002
1.836878e+002, 9.945186e+001
1.841699e+002, 9.743520e+001
1.846520e+002, 9.570504e+001
1.851342e+002, 9.428687e+001
1.856163e+002, 9.325014e+001
1.860984e+002, 9.250340e+001
1.865805e+002, 9.199549e+001
1.870626e+002, 9.172053e+001
1.875447e+002, 9.158065e+001
1.880269e+002, 9.142029e+001
1.885090e+002, 9.121975e+001
1.889911e+002, 9.107372e+001
1.894732e+002, 9.100686e+001
1.899553e+002, 9.100766e+001
1.904374e+002, 9.101857e+001
1.909196e+002, 9.097035e+001
1.914017e+002, 9.105386e+001
1.918838e+002, 9.167152e+001
1.923659e+002, 9.286953e+001
1.928480e+002, 9.386551e+001
1.933301e+002, 9.421907e+001
1.938123e+002, 9.405782e+001
1.942944e+002, 9.386082e+001
1.947765e+002, 9.377627e+001
1.952586e+002, 9.364320e+001
1.957407e+002, 9.330968e+001
1.962228e+002, 9.277453e+001
1.967050e+002, 9.215229e+001
1.971871e+002, 9.158295e+001
1.976692e+002, 9.105405e+001
1.981513e+002, 9.024757e+001
1.986334e+002, 8.869964e+001
1.991155e+002, 8.720244e+001
1.995977e+002, 8.632524e+001
2.000798e+002, 8.608616e+001
2.005619e+002, 8.607674e+001
2.010440e+002, 8.591158e+001
2.015261e+002, 8.555872e+001
2.020082e+002, 8.526001e+001
2.024904e+002, 8.503654e+001
2.029725e+002, 8.488409e+001
2.034546e+002, 8.480260e+001
2.039367e+002, 8.479324e+001
2.044188e+002, 8.486040e+001
2.049009e+002, 8.505164e+001
2.053831e+002, 8.546678e+001
2.058652e+002, 8.568925e+001
2.063473e+002, 8.552485e+001
2.068294e+002, 8.531660e+001
2.073115e+002, 8.527271e+001
2.077936e+002, 8.541920e+001
2.082758e+002, 8.563271e+001
2.087579e+002, 8.573885e+001
2.092400e+002, 8.567720e+001
2.097221e+002, 8.563345e+001
2.102042e+002, 8.550999e+001
2.106863e+002, 8.546484e+001
2.111685e+002, 8.564273e+001
2.116506e+002, 8.605489e+001
2.121327e+002, 8.656408e+001
2.126148e+002, 8.697200e+001
2.130969e+002, 8.718343e+001
2.135790e+002, 8.748807e+001
2.140612e+002, 8.797722e+001
2.145433e+002, 8.849479e+001
2.150254e+002, 8.892907e+001
2.155075e+002, 8.924918e+001
2.159896e+002, 8.948833e+001
2.164717e+002, 8.966886e+001
2.169539e+002, 8.968738e+001
2.174360e+002, 8.993510e+001
2.179181e+002, 9.055664e+001
2.184002e+002, 9.134144e+001
2.188823e+002, 9.213840e+001
2.193644e+002, 9.291011e+001
2.198466e+002, 9.358761e+001
2.203287e+002, 9.402174e+001
2.208108e+002, 9.414662e+001
2.212929e+002, 9.442608e+001
2.217750e+002, 9.499534e+001
2.222571e+002, 9.572425e+001
2.227393e+002, 9.646409e+001
2.232214e+002, 9.718519e+001
2.237035e+002, 9.790346e+001
2.241856e+002, 9.860384e+001
2.246677e+002, 9.928342e+001
2.251498e+002, 1.000737e+002
2.256320e+002, 1.010438e+002
2.261141e+002, 1.021369e+002
2.265962e+002, 1.032836e+002
2.270783e+002, 1.044997e+002
2.275604e+002, 1.056945e+002
2.280425e+002, 1.068657e+002
2.285247e+002, 1.079841e+002
2.290068e+002, 1.088546e+002
2.294889e+002, 1.092106e+002
2.299710e+002, 1.092745e+002
2.304531e+002, 1.096491e+002
2.309352e+002, 1.106531e+002
2.314174e+002, 1.113941e+002
2.318995e+002, 1.110011e+002
2.323816e+002, 1.098033e+002
2.328637e+002, 1.086601e+002
2.333458e+002, 1.081451e+002
2.338279e+002, 1.080203e+002
2.343101e+002, 1.075046e+002
2.347922e+002, 1.065302e+002
2.352743e+002, 1.052147e+002
2.357564e+002, 1.035309e+002
2.362385e+002, 1.016130e+002
2.367206e+002, 9.971265e+001
2.372028e+002, 9.796407e+001
2.376849e+002, 9.635522e+001
2.381670e+002, 9.478792e+001
2.386491e+002, 9.317485e+001
2.391312e+002, 9.176031e+001
2.396133e+002, 9.065968e+001
2.400955e+002, 8.978332e+001
2.405776e+002, 8.894446e+001
2.410597e+002, 8.798128e+001
2.415418e+002, 8.698543e+001
2.420239e+002, 8.645921e+001
2.425060e+002, 8.682414e+001
2.429882e+002, 8.709851e+001
2.434703e+002, 8.689561e+001
2.439524e+002, 8.644630e+001
2.444345e+002, 8.608996e+001
2.449166e+002, 8.602531e+001
2.453987e+002, 8.619804e+001
2.458809e+002, 8.635149e+001
2.463630e+002, 8.640518e+001
2.468451e+002, 8.655148e+001
2.473272e+002, 8.682408e+001
2.478093e+002, 8.720596e+001
2.482914e+002, 8.769704e+001
2.487736e+002, 8.830750e+001
2.492557e+002, 8.898917e+001
2.497378e+002, 8.953086e+001
2.502199e+002, 8.966639e+001
2.507020e+002, 9.000167e+001
2.511841e+002, 9.087736e+001
2.516663e+002, 9.190256e+001
2.521484e+002, 9.261181e+001
2.526305e+002, 9.278279e+001
2.531126e+002, 9.252906e+001
2.535947e+002, 9.220657e+001
2.540768e+002, 9.188744e+001
2.545590e+002, 9.139322e+001
2.550411e+002, 9.067068e+001
2.555232e+002, 8.978816e+001
2.560053e+002, 8.879517e+001
2.564874e+002, 8.771650e+001
2.569695e+002, 8.657627e+001
2.574517e+002, 8.543492e+001
2.579338e+002, 8.430791e+001
2.584159e+002, 8.315264e+001
2.588980e+002, 8.181046e+001
2.593801e+002, 8.050518e+001
2.598622e+002, 7.946743e+001
2.603444e+002, 7.877647e+001
2.608265e+002, 7.833527e+001
2.613086e+002, 7.796867e+001
2.617907e+002, 7.772575e+001
2.622728e+002, 7.748342e+001
2.627549e+002, 7.724496e+001
2.632371e+002, 7.700241e+001
2.637192e+002, 7.673687e+001
2.642013e+002, 7.644437e+001
2.646834e+002, 7.616225e+001
2.651655e+002, 7.595226e+001
2.656476e+002, 7.586755e+001
2.661298e+002, 7.572696e+001
2.666119e+002, 7.551944e+001
2.670940e+002, 7.525858e+001
2.675761e+002, 7.494334e+001
2.680582e+002, 7.457502e+001
2.685403e+002, 7.418391e+001
2.690225e+002, 7.376857e+001
2.695046e+002, 7.328420e+001
2.699867e+002, 7.308615e+001
2.704688e+002, 7.344383e+001
2.709509e+002, 7.393022e+001
2.714330e+002, 7.422245e+001
2.719152e+002, 7.427451e+001
2.723973e+002, 7.412833e+001
2.728794e+002, 7.375438e+001
2.733615e+002, 7.313421e+001
2.738436e+002, 7.273400e+001
2.743257e+002, 7.266653e+001
2.748079e+002, 7.274426e+001
2.752900e+002, 7.282930e+001
2.757721e+002, 7.291454e+001
2.762542e+002, 7.306448e+001
2.767363e+002, 7.338055e+001
2.772184e+002, 7.381773e+001
2.777006e+002, 7.405256e+001
2.781827e+002, 7.387922e+001
2.786648e+002, 7.366415e+001
2.791469e+002, 7.368114e+001
2.796290e+002, 7.390879e+001
2.801111e+002, 7.414803e+001
2.805933e+002, 7.429129e+001
2.810754e+002, 7.435018e+001
2.815575e+002, 7.439473e+001
2.820396e+002, 7.441567e+001
2.825217e+002, 7.443415e+001
2.830038e+002, 7.446513e+001
2.834860e+002, 7.450614e+001
2.839681e+002, 7.454002e+001
2.844502e+002, 7.454666e+001
2.849323e+002, 7.455384e+001
2.854144e+002, 7.461265e+001
2.858965e+002, 7.472827e+001
2.863787e+002, 7.487761e+001
2.868608e+002, 7.498634e+001
2.873429e+002, 7.510300e+001
2.878250e+002, 7.542675e+001
2.883071e+002, 7.608095e+001
2.887892e+002, 7.689776e+001
2.892714e+002, 7.766016e+001
2.897535e+002, 7.837833e+001
2.902356e+002, 7.898833e+001
2.907177e+002, 7.937975e+001
2.911998e+002, 7.963760e+001
2.916819e+002, 8.000424e+001
2.921641e+002, 8.056370e+001
2.926462e+002, 8.118456e+001
2.931283e+002, 8.169920e+001
2.936104e+002, 8.212220e+001
2.940925e+002, 8.261262e+001
2.945746e+002, 8.321445e+001
2.950568e+002, 8.392751e+001
2.955389e+002, 8.476610e+001
2.960210e+002, 8.575153e+001
2.965031e+002, 8.680278e+001
2.969852e+002, 8.782517e+001
2.974673e+002, 8.885165e+001
2.979495e+002, 9.001463e+001
2.984316e+002, 9.142794e+001
2.989137e+002, 9.297009e+001
2.993958e+002, 9.446206e+001
2.998779e+002, 9.589294e+001
3.003600e+002, 9.730647e+001
3.008422e+002, 9.860358e+001
3.013243e+002, 9.992123e+001
3.018064e+002, 1.015177e+002
3.022885e+002, 1.036422e+002
3.027706e+002, 1.059029e+002
3.032527e+002, 1.078280e+002
3.037349e+002, 1.094016e+002
3.042170e+002, 1.109742e+002
3.046991e+002, 1.126606e+002
3.051812e+002, 1.144726e+002
3.056633e+002, 1.164214e+002
3.061454e+002, 1.185195e+002
3.066276e+002, 1.207181e+002
3.071097e+002, 1.230664e+002
3.075918e+002, 1.255422e+002
3.080739e+002, 1.278078e+002
3.085560e+002, 1.295046e+002
3.090381e+002, 1.311434e+002
3.095203e+002, 1.332688e+002
3.100024e+002, 1.359275e+002
3.104845e+002, 1.388229e+002
3.109666e+002, 1.418544e+002
3.114487e+002, 1.449837e+002
3.119308e+002, 1.478949e+002
3.124130e+002, 1.501223e+002
3.128951e+002, 1.527222e+002
3.133772e+002, 1.566969e+002
3.138593e+002, 1.618926e+002
3.143414e+002, 1.673044e+002
3.148235e+002, 1.723398e+002
3.153057e+002, 1.772319e+002
3.157878e+002, 1.826139e+002
3.162699e+002, 1.884724e+002
3.167520e+002, 1.949416e+002
3.172341e+002, 2.020564e+002
3.177162e+002, 2.097714e+002
3.181984e+002, 2.182163e+002
3.186805e+002, 2.276294e+002
3.191626e+002, 2.376796e+002
3.196447e+002, 2.481215e+002
3.201268e+002, 2.591582e+002
3.206089e+002, 2.695757e+002
3.210911e+002, 2.794354e+002
3.215732e+002, 2.880255e+002
3.220553e+002, 2.941991e+002
3.225374e+002, 2.979459e+002
3.230195e+002, 2.989123e+002
3.235016e+002, 2.966781e+002
3.239838e+002, 2.912354e+002
3.244659e+002, 2.829367e+002
3.249480e+002, 2.709369e+002
3.254301e+002, 2.566006e+002
3.259122e+002, 2.416565e+002
3.263943e+002, 2.259097e+002
3.268765e+002, 2.103744e+002
3.273586e+002, 1.952874e+002
3.278407e+002, 1.807859e+002
3.283228e+002, 1.680495e+002
3.288049e+002, 1.576100e+002
3.292870e+002, 1.487881e+002
3.297692e+002, 1.408449e+002
3.302513e+002, 1.337588e+002
3.307334e+002, 1.274218e+002
3.312155e+002, 1.218177e+002
3.316976e+002, 1.169492e+002
3.321797e+002, 1.128620e+002
3.326619e+002, 1.096195e+002
3.331440e+002, 1.070037e+002
3.336261e+002, 1.051117e+002
3.341082e+002, 1.037252e+002
3.345903e+002, 1.023698e+002
3.350724e+002, 1.007540e+002
3.355546e+002, 9.918221e+001
3.360367e+002, 9.808474e+001
3.365188e+002, 9.749461e+001
3.370009e+002, 9.709237e+001
3.374830e+002, 9.676250e+001
3.379651e+002, 9.649088e+001
3.384473e+002, 9.625513e+001
3.389294e+002, 9.607763e+001
3.394115e+002, 9.589744e+001
3.398936e+002, 9.557075e+001
3.403757e+002, 9.514319e+001
3.408578e+002, 9.500629e+001
3.413400e+002, 9.545919e+001
3.418221e+002, 9.611909e+001
3.423042e+002, 9.634499e+001
3.427863e+002, 9.604456e+001
3.432684e+002, 9.585235e+001
3.437505e+002, 9.607534e+001
3.442327e+002, 9.663523e+001
3.447148e+002, 9.735410e+001
3.451969e+002, 9.820222e+001
3.456790e+002, 9.918107e+001
3.461611e+002, 1.002908e+002
3.466432e+002, 1.015177e+002
3.471254e+002, 1.029436e+002
3.476075e+002, 1.046016e+002
3.480896e+002, 1.064624e+002
3.485717e+002, 1.085324e+002
3.490538e+002, 1.108293e+002
3.495359e+002, 1.130925e+002
3.500181e+002, 1.150283e+002
3.505002e+002, 1.167768e+002
3.509823e+002, 1.189305e+002
3.514644e+002, 1.219200e+002
3.519465e+002, 1.249698e+002
3.524286e+002, 1.275784e+002
3.529108e+002, 1.297935e+002
3.533929e+002, 1.319526e+002
3.538750e+002, 1.343240e+002
3.543571e+002, 1.366001e+002
3.548392e+002, 1.380192e+002
3.553214e+002, 1.383890e+002
3.558035e+002, 1.385105e+002
3.562856e+002, 1.387985e+002
3.567677e+002, 1.390038e+002
3.572498e+002, 1.386400e+002
3.577319e+002, 1.375387e+002
3.582141e+002, 1.359966e+002
3.586962e+002, 1.342946e+002
3.591783e+002, 1.323661e+002
3.596604e+002, 1.307012e+002
3.601425e+002, 1.294992e+002
3.606246e+002, 1.284879e+002
3.611068e+002, 1.273590e+002
3.615889e+002, 1.260973e+002
3.620710e+002, 1.250165e+002
3.625531e+002, 1.243602e+002
3.630352e+002, 1.241507e+002
3.635173e+002, 1.242429e+002
3.639995e+002, 1.246222e+002
3.644816e+002, 1.252814e+002
3.649637e+002, 1.263005e+002
3.654458e+002, 1.276014e+002
3.659279e+002, 1.290471e+002
3.664100e+002, 1.306015e+002
3.668922e+002, 1.321667e+002
3.673743e+002, 1.333854e+002
3.678564e+002, 1.340591e+002
3.683385e+002, 1.346966e+002
3.688206e+002, 1.355239e+002
3.693027e+002, 1.362788e+002
3.697849e+002, 1.366522e+002
3.702670e+002, 1.365582e+002
3.707491e+002, 1.361180e+002
3.712312e+002, 1.354778e+002
3.717133e+002, 1.345842e+002
3.721954e+002, 1.336344e+002
3.726776e+002, 1.323032e+002
3.731597e+002, 1.311903e+002
3.736418e+002, 1.306723e+002
3.741239e+002, 1.307298e+002
3.746060e+002, 1.311365e+002
3.750881e+002, 1.317470e+002
3.755703e+002, 1.325532e+002
3.760524e+002, 1.333299e+002
3.765345e+002, 1.338190e+002
3.770166e+002, 1.345762e+002
3.774987e+002, 1.356642e+002
3.779808e+002, 1.371208e+002
3.784630e+002, 1.389941e+002
3.789451e+002, 1.413068e+002
3.794272e+002, 1.440202e+002
3.799093e+002, 1.470220e+002
3.803914e+002, 1.501765e+002
3.808735e+002, 1.539485e+002
3.813557e+002, 1.583034e+002
3.818378e+002, 1.632233e+002
3.823199e+002, 1.687232e+002
3.828020e+002, 1.748147e+002
3.832841e+002, 1.814640e+002
3.837662e+002, 1.886727e+002
3.842484e+002, 1.965484e+002
3.847305e+002, 2.044185e+002
3.852126e+002, 2.121572e+002
3.856947e+002, 2.200550e+002
3.861768e+002, 2.287246e+002
3.866589e+002, 2.375942e+002
3.871411e+002, 2.457842e+002
3.876232e+002, 2.529813e+002
3.881053e+002, 2.588512e+002
3.885874e+002, 2.622198e+002
3.890695e+002, 2.632092e+002
3.895516e+002, 2.611602e+002
3.900338e+002, 2.557585e+002
3.905159e+002, 2.478576e+002
3.909980e+002, 2.379104e+002
3.914801e+002, 2.260438e+002
3.919622e+002, 2.129787e+002
3.924443e+002, 1.990654e+002
3.929265e+002, 1.841294e+002
3.934086e+002, 1.702411e+002
3.938907e+002, 1.576213e+002
3.943728e+002, 1.463275e+002
3.948549e+002, 1.366111e+002
3.953370e+002, 1.282896e+002
3.958192e+002, 1.207872e+002
3.963013e+002, 1.136497e+002
3.967834e+002, 1.070414e+002
3.972655e+002, 1.016633e+002
3.977476e+002, 9.779973e+001
3.982297e+002, 9.446165e+001
3.987119e+002, 9.113070e+001
3.991940e+002, 8.800169e+001
3.996761e+002, 8.541809e+001
4.001582e+002, 8.355692e+001
4.006403e+002, 8.205360e+001
4.011224e+002, 8.060003e+001
4.016046e+002, 7.918496e+001
4.020867e+002, 7.780986e+001
4.025688e+002, 7.645143e+001
4.030509e+002, 7.516438e+001
4.035330e+002, 7.395950e+001
4.040151e+002, 7.282952e+001
4.044973e+002, 7.190991e+001
4.049794e+002, 7.137832e+001
4.054615e+002, 7.106231e+001
4.059436e+002, 7.067255e+001
4.064257e+002, 7.017634e+001
4.069078e+002, 6.962187e+001
4.073900e+002, 6.900819e+001
4.078721e+002, 6.836492e+001
4.083542e+002, 6.782348e+001
4.088363e+002, 6.746333e+001
4.093184e+002, 6.714677e+001
4.098005e+002, 6.675678e+001
4.102827e+002, 6.633160e+001
4.107648e+002, 6.603822e+001
4.112469e+002, 6.598665e+001
4.117290e+002, 6.603594e+001
4.122111e+002, 6.585029e+001
4.126932e+002, 6.535490e+001
4.131754e+002, 6.485741e+001
4.136575e+002, 6.430544e+001
4.141396e+002, 6.383218e+001
4.146217e+002, 6.359261e+001
4.151038e+002, 6.360691e+001
4.155859e+002, 6.378445e+001
4.160681e+002, 6.409002e+001
4.165502e+002, 6.456620e+001
4.170323e+002, 6.462207e+001
4.175144e+002, 6.396463e+001
4.179965e+002, 6.326677e+001
4.184786e+002, 6.269365e+001
4.189608e+002, 6.229235e+001
4.194429e+002, 6.214062e+001
4.199250e+002, 6.228959e+001
4.204071e+002, 6.262136e+001
4.208892e+002, 6.280890e+001
4.213713e+002, 6.274469e+001
4.218535e+002, 6.268864e+001
4.223356e+002, 6.270171e+001
4.228177e+002, 6.268984e+001
4.232998e+002, 6.254189e+001
4.237819e+002, 6.226778e+001
4.242640e+002, 6.200773e+001
4.247462e+002, 6.193002e+001
4.252283e+002, 6.205569e+001
4.257104e+002, 6.204154e+001
4.261925e+002, 6.168148e+001
4.266746e+002, 6.140225e+001
4.271567e+002, 6.137831e+001
4.276389e+002, 6.150183e+001
4.281210e+002, 6.160463e+001
4.286031e+002, 6.160722e+001
4.290852e+002, 6.154616e+001
4.295673e+002, 6.150298e+001
4.300494e+002, 6.149976e+001
4.305316e+002, 6.143550e+001
4.310137e+002, 6.121850e+001
4.314958e+002, 6.097821e+001
4.319779e+002, 6.080287e+001
4.324600e+002, 6.069513e+001
4.329421e+002, 6.058985e+001
4.334243e+002, 6.036605e+001
4.339064e+002, 6.008857e+001
4.343885e+002, 6.009390e+001
4.348706e+002, 6.054656e+001
4.353527e+002, 6.093364e+001
4.358348e+002, 6.079309e+001
4.363170e+002, 6.038624e+001
4.367991e+002, 6.016132e+001
4.372812e+002, 6.035838e+001
4.377633e+002, 6.058590e+001
4.382454e+002, 6.039185e+001
4.387275e+002, 5.984874e+001
4.392097e+002, 5.948712e+001
4.396918e+002, 5.954732e+001
4.401739e+002, 5.978219e+001
4.406560e+002, 5.976682e+001
4.411381e+002, 5.946212e+001
4.416202e+002, 5.937405e+001
4.421024e+002, 5.992073e+001
4.425845e+002, 6.060472e+001
4.430666e+002, 6.080851e+001
4.435487e+002, 6.049670e+001
4.440308e+002, 6.007808e+001
4.445129e+002, 5.982660e+001
4.449951e+002, 5.974021e+001
4.454772e+002, 5.976072e+001
4.459593e+002, 5.999956e+001
4.464414e+002, 6.019921e+001
4.469235e+002, 6.026292e+001
4.474056e+002, 6.024410e+001
4.478878e+002, 6.020817e+001
4.483699e+002, 6.017930e+001
4.488520e+002, 6.018164e+001
4.493341e+002, 6.026115e+001
4.498162e+002, 6.047148e+001
4.502983e+002, 6.060376e+001
4.507805e+002, 6.051292e+001
4.512626e+002, 6.048836e+001
4.517447e+002, 6.077581e+001
4.522268e+002, 6.126489e+001
4.527089e+002, 6.165910e+001
4.531910e+002, 6.175928e+001
4.536732e+002, 6.161108e+001
4.541553e+002, 6.138749e+001
4.546374e+002, 6.099244e+001
4.551195e+002, 6.068876e+001
4.556016e+002, 6.052583e+001
4.560837e+002, 6.045234e+001
4.565659e+002, 6.042574e+001
4.570480e+002, 6.043817e+001
4.575301e+002, 6.051294e+001
4.580122e+002, 6.072672e+001
4.584943e+002, 6.107489e+001
4.589764e+002, 6.126041e+001
4.594586e+002, 6.117031e+001
4.599407e+002, 6.106976e+001
4.604228e+002, 6.108869e+001
4.609049e+002, 6.119390e+001
4.613870e+002, 6.134197e+001
4.618691e+002, 6.156145e+001
4.623513e+002, 6.174526e+001
4.628334e+002, 6.173166e+001
4.633155e+002, 6.152829e+001
4.637976e+002, 6.133839e+001
4.642797e+002, 6.124392e+001
4.647618e+002, 6.116522e+001
4.652440e+002, 6.097844e+001
4.657261e+002, 6.067994e+001
4.662082e+002, 6.044095e+001
4.666903e+002, 6.036072e+001
4.671724e+002, 6.034747e+001
4.676545e+002, 6.032378e+001
4.681367e+002, 6.027665e+001
4.686188e+002, 6.012157e+001
4.691009e+002, 5.975808e+001
4.695830e+002, 5.925353e+001
4.700651e+002, 5.894019e+001
4.705472e+002, 5.888861e+001
4.710294e+002, 5.890989e+001
4.715115e+002, 5.906773e+001
4.719936e+002, 5.922607e+001
4.724757e+002, 5.915044e+001
4.729578e+002, 5.880063e+001
4.734399e+002, 5.843385e+001
4.739221e+002, 5.836847e+001
4.744042e+002, 5.866409e+001
4.748863e+002, 5.892063e+001
4.753684e+002, 5.922261e+001
4.758505e+002, 5.940491e+001
4.763326e+002, 5.933931e+001
4.768148e+002, 5.912479e+001
4.772969e+002, 5.891990e+001
4.777790e+002, 5.880191e+001
4.782611e+002, 5.874190e+001
4.787432e+002, 5.866705e+001
4.792253e+002, 5.853013e+001
4.797075e+002, 5.851616e+001
4.801896e+002, 5.889613e+001
4.806717e+002, 5.919678e+001
4.811538e+002, 5.902205e+001
4.816359e+002, 5.848134e+001
4.821180e+002, 5.808930e+001
4.826002e+002, 5.829494e+001
4.830823e+002, 5.886870e+001
4.835644e+002, 5.913939e+001
4.840465e+002, 5.902678e+001
4.845286e+002, 5.889905e+001
4.850107e+002, 5.892208e+001
4.854929e+002, 5.901455e+001
4.859750e+002, 5.906599e+001
4.864571e+002, 5.904599e+001
4.869392e+002, 5.908666e+001
4.874213e+002, 5.931993e+001
4.879034e+002, 5.966450e+001
4.883856e+002, 5.994551e+001
4.888677e+002, 6.013758e+001
4.893498e+002, 6.025993e+001
4.898319e+002, 6.029771e+001
4.903140e+002, 6.026414e+001
4.907961e+002, 6.031655e+001
4.912783e+002, 6.047615e+001
4.917604e+002, 6.069861e+001
4.922425e+002, 6.106514e+001
4.927246e+002, 6.146293e+001
4.932067e+002, 6.164478e+001
4.936888e+002, 6.152340e+001
4.941710e+002, 6.130453e+001
4.946531e+002, 6.130699e+001
4.951352e+002, 6.160407e+001
4.956173e+002, 6.190467e+001
4.960994e+002, 6.234673e+001
4.965815e+002, 6.265994e+001
4.970637e+002, 6.259731e+001
4.975458e+002, 6.230946e+001
4.980279e+002, 6.210722e+001
4.985100e+002, 6.216179e+001
4.989921e+002, 6.242805e+001
4.994742e+002, 6.281229e+001
4.999564e+002, 6.335754e+001
5.004385e+002, 6.391117e+001
5.009206e+002, 6.443047e+001
5.014027e+002, 6.497163e+001
5.018848e+002, 6.553089e+001
5.023669e+002, 6.613132e+001
5.028491e+002, 6.684954e+001
5.033312e+002, 6.781784e+001
5.038133e+002, 6.892422e+001
5.042954e+002, 6.988548e+001
5.047775e+002, 7.070666e+001
5.052596e+002, 7.133146e+001
5.057418e+002, 7.156826e+001
5.062239e+002, 7.167601e+001
5.067060e+002, 7.206693e+001
5.071881e+002, 7.284616e+001
5.076702e+002, 7.354582e+001
5.081523e+002, 7.393954e+001
5.086345e+002, 7.410012e+001
5.091166e+002, 7.410294e+001
5.095987e+002, 7.395901e+001
5.100808e+002, 7.378034e+001
5.105629e+002, 7.359629e+001
5.110450e+002, 7.344296e+001
5.115272e+002, 7.367493e+001
5.120093e+002, 7.479334e+001
5.124914e+002, 7.565031e+001
5.129735e+002, 7.580386e+001
5.134556e+002, 7.555091e+001
5.139377e+002, 7.523483e+001
5.144199e+002, 7.496885e+001
5.149020e+002, 7.475266e+001
5.153841e+002, 7.460706e+001
5.158662e+002, 7.456076e+001
5.163483e+002, 7.439078e+001
5.168304e+002, 7.415856e+001
5.173126e+002, 7.372807e+001
5.177947e+002, 7.296495e+001
5.182768e+002, 7.200590e+001
5.187589e+002, 7.099543e+001
5.192410e+002, 6.998071e+001
5.197231e+002, 6.908468e+001
5.202053e+002, 6.852033e+001
5.206874e+002, 6.831110e+001
5.211695e+002, 6.810303e+001
5.216516e+002, 6.779128e+001
5.221337e+002, 6.755372e+001
5.226158e+002, 6.753695e+001
5.230980e+002, 6.768284e+001
5.235801e+002, 6.782430e+001
5.240622e+002, 6.786318e+001
5.245443e+002, 6.791145e+001
5.250264e+002, 6.809396e+001
5.255085e+002, 6.839677e+001
5.259907e+002, 6.873605e+001
5.264728e+002, 6.909693e+001
5.269549e+002, 6.945851e+001
5.274370e+002, 6.983198e+001
5.279191e+002, 7.026801e+001
5.284012e+002, 7.042426e+001
5.288834e+002, 7.014595e+001
5.293655e+002, 6.968129e+001
5.298476e+002, 6.912566e+001
5.303297e+002, 6.852552e+001
5.308118e+002, 6.798287e+001
5.312939e+002, 6.755897e+001
5.317761e+002, 6.717865e+001
5.322582e+002, 6.664588e+001
5.327403e+002, 6.586737e+001
5.332224e+002, 6.510162e+001
5.337045e+002, 6.425787e+001
5.341866e+002, 6.350962e+001
5.346688e+002, 6.301601e+001
5.351509e+002, 6.271373e+001
5.356330e+002, 6.239202e+001
5.361151e+002, 6.189199e+001
5.365972e+002, 6.130784e+001
5.370793e+002, 6.091341e+001
5.375615e+002, 6.077096e+001
5.380436e+002, 6.056669e+001
5.385257e+002, 6.009469e+001
5.390078e+002, 5.962108e+001
5.394899e+002, 5.942072e+001
5.399720e+002, 5.948537e+001
5.404542e+002, 5.951117e+001
5.409363e+002, 5.921230e+001
5.414184e+002, 5.885720e+001
5.419005e+002, 5.891938e+001
5.423826e+002, 5.938776e+001
5.428647e+002, 5.974805e+001
5.433469e+002, 5.970874e+001
5.438290e+002, 5.941558e+001
5.443111e+002, 5.924014e+001
5.447932e+002, 5.922834e+001
5.452753e+002, 5.920622e+001
5.457574e+002, 5.917469e+001
5.462396e+002, 5.910443e+001
5.467217e+002, 5.887960e+001
5.472038e+002, 5.856544e+001
5.476859e+002, 5.843948e+001
5.481680e+002, 5.872184e+001
5.486501e+002, 5.929682e+001
5.491323e+002, 5.964809e+001
5.496144e+002, 5.965861e+001
5.500965e+002, 5.963552e+001
5.505786e+002, 5.952716e+001
5.510607e+002, 5.946782e+001
5.515428e+002, 5.957228e+001
5.520250e+002, 5.983265e+001
5.525071e+002, 6.014639e+001
5.529892e+002, 6.046825e+001
5.534713e+002, 6.077932e+001
5.539534e+002, 6.100426e+001
5.544355e+002, 6.111440e+001
5.549177e+002, 6.129447e+001
5.553998e+002, 6.173681e+001
5.558819e+002, 6.219664e+001
5.563640e+002, 6.231742e+001
5.568461e+002, 6.204884e+001
5.573282e+002, 6.181507e+001
5.578104e+002, 6.182377e+001
5.582925e+002, 6.192796e+001
5.587746e+002, 6.197445e+001
5.592567e+002, 6.194973e+001
5.597388e+002, 6.188614e+001
5.602209e+002, 6.182277e+001
5.607031e+002, 6.170285e+001
5.611852e+002, 6.134611e+001
5.616673e+002, 6.059603e+001
5.621494e+002, 5.980766e+001
5.626315e+002, 5.881389e+001
5.631136e+002, 5.791730e+001
5.635958e+002, 5.736338e+001
5.640779e+002, 5.712069e+001
5.645600e+002, 5.702258e+001
5.650421e+002, 5.697180e+001
5.655242e+002, 5.693953e+001
5.660063e+002, 5.681306e+001
5.664885e+002, 5.654232e+001
5.669706e+002, 5.632543e+001
5.674527e+002, 5.625187e+001
5.679348e+002, 5.621801e+001
5.684169e+002, 5.621534e+001
5.688990e+002, 5.621431e+001
5.693812e+002, 5.605835e+001
5.698633e+002, 5.539555e+001
5.703454e+002, 5.467342e+001
5.708275e+002, 5.469791e+001
5.713096e+002, 5.541195e+001
5.717917e+002, 5.589384e+001
5.722739e+002, 5.568007e+001
5.727560e+002, 5.515821e+001
5.732381e+002, 5.506098e+001
5.737202e+002, 5.554873e+001
5.742023e+002, 5.579962e+001
5.746844e+002, 5.555090e+001
5.751666e+002, 5.520561e+001
5.756487e+002, 5.504483e+001
5.761308e+002, 5.502175e+001
5.766129e+002, 5.494777e+001
5.770950e+002, 5.472102e+001
5.775771e+002, 5.442272e+001
5.780593e+002, 5.422834e+001
5.785414e+002, 5.415396e+001
5.790235e+002, 5.413983e+001
5.795056e+002, 5.424472e+001
5.799877e+002, 5.435280e+001
5.804698e+002, 5.438873e+001
5.809520e+002, 5.438811e+001
5.814341e+002, 5.446442e+001
5.819162e+002, 5.473407e+001
5.823983e+002, 5.496272e+001
5.828804e+002, 5.472067e+001
5.833625e+002, 5.406753e+001
5.838447e+002, 5.366991e+001
5.843268e+002, 5.373037e+001
5.848089e+002, 5.397582e+001
5.852910e+002, 5.416073e+001
5.857731e+002, 5.429011e+001
5.862552e+002, 5.441135e+001
5.867374e+002, 5.456270e+001
5.872195e+002, 5.467156e+001
5.877016e+002, 5.470446e+001
5.881837e+002, 5.466783e+001
5.886658e+002, 5.455477e+001
5.891479e+002, 5.436812e+001
5.896301e+002, 5.416326e+001
5.901122e+002, 5.399528e+001
5.905943e+002, 5.385558e+001
5.910764e+002, 5.384185e+001
5.915585e+002, 5.407074e+001
5.920406e+002, 5.429393e+001
5.925228e+002, 5.451415e+001
5.930049e+002, 5.466828e+001
5.934870e+002, 5.463202e+001
5.939691e+002, 5.438213e+001
5.944512e+002, 5.416040e+001
5.949333e+002, 5.427003e+001
5.954155e+002, 5.461476e+001
5.958976e+002, 5.473368e+001
5.963797e+002, 5.454281e+001
5.968618e+002, 5.439590e+001
5.973439e+002, 5.455486e+001
5.978260e+002, 5.487790e+001
5.983082e+002, 5.500986e+001
5.987903e+002, 5.488450e+001
5.992724e+002, 5.473758e+001
5.997545e+002, 5.458554e+001
6.002366e+002, 5.448602e+001
6.007188e+002, 5.454515e+001
6.012009e+002, 5.473905e+001
6.016830e+002, 5.491265e+001
6.021651e+002, 5.496203e+001
6.026472e+002, 5.491109e+001
6.031293e+002, 5.484117e+001
6.036115e+002, 5.470305e+001
6.040936e+002, 5.463906e+001
6.045757e+002, 5.469631e+001
6.050578e+002, 5.478826e+001
6.055399e+002, 5.487734e+001
6.060220e+002, 5.495513e+001
6.065042e+002, 5.501894e+001
6.069863e+002, 5.507079e+001
6.074684e+002, 5.510182e+001
6.079505e+002, 5.510827e+001
6.084326e+002, 5.508903e+001
6.089147e+002, 5.498405e+001
6.093969e+002, 5.472364e+001
6.098790e+002, 5.447308e+001
6.103611e+002, 5.444355e+001
6.108432e+002, 5.461459e+001
6.113253e+002, 5.474378e+001
6.118074e+002, 5.479169e+001
6.122896e+002, 5.480699e+001
6.127717e+002, 5.475929e+001
6.132538e+002, 5.471200e+001
6.137359e+002, 5.479494e+001
6.142180e+002, 5.503820e+001
6.147001e+002, 5.531776e+001
6.151823e+002, 5.549466e+001
6.156644e+002, 5.556689e+001
6.161465e+002, 5.557022e+001
6.166286e+002, 5.542187e+001
6.171107e+002, 5.531886e+001
6.175928e+002, 5.539326e+001
6.180750e+002, 5.548825e+001
6.185571e+002, 5.538519e+001
6.190392e+002, 5.505658e+001
6.195213e+002, 5.480756e+001
6.200034e+002, 5.494530e+001
6.204855e+002, 5.530872e+001
6.209677e+002, 5.552118e+001
6.214498e+002, 5.556163e+001
6.219319e+002, 5.562788e+001
6.224140e+002, 5.581407e+001
6.228961e+002, 5.608867e+001
6.233782e+002, 5.641668e+001
6.238604e+002, 5.686931e+001
6.243425e+002, 5.714819e+001
6.248246e+002, 5.709465e+001
6.253067e+002, 5.696662e+001
6.257888e+002, 5.683824e+001
6.262709e+002, 5.678644e+001
6.267531e+002, 5.697536e+001
6.272352e+002, 5.748970e+001
6.277173e+002, 5.814659e+001
6.281994e+002, 5.862677e+001
6.286815e+002, 5.892217e+001
6.291636e+002, 5.907738e+001
6.296458e+002, 5.894204e+001
6.301279e+002, 5.886227e+001
6.306100e+002, 5.907160e+001
6.310921e+002, 5.943220e+001
6.315742e+002, 5.968015e+001
6.320563e+002, 5.969823e+001
6.325385e+002, 5.975365e+001
6.330206e+002, 6.004947e+001
6.335027e+002, 6.051580e+001
6.339848e+002, 6.105829e+001
6.344669e+002, 6.165822e+001
6.349490e+002, 6.220192e+001
6.354312e+002, 6.260939e+001
6.359133e+002, 6.289541e+001
6.363954e+002, 6.313235e+001
6.368775e+002, 6.312457e+001
6.373596e+002, 6.333687e+001
6.378417e+002, 6.393702e+001
6.383239e+002, 6.463560e+001
6.388060e+002, 6.525178e+001
6.392881e+002, 6.577859e+001
6.397702e+002, 6.624587e+001
6.402523e+002, 6.662458e+001
6.407344e+002, 6.707508e+001
6.412166e+002, 6.798463e+001
6.416987e+002, 6.938230e+001
6.421808e+002, 7.062341e+001
6.426629e+002, 7.149037e+001
6.431450e+002, 7.232967e+001
6.436271e+002, 7.336809e+001
6.441093e+002, 7.462127e+001
6.445914e+002, 7.620399e+001
6.450735e+002, 7.838149e+001
6.455556e+002, 8.059673e+001
6.460377e+002, 8.245991e+001
6.465198e+002, 8.425704e+001
6.470020e+002, 8.637099e+001
6.474841e+002, 8.887058e+001
6.479662e+002, 9.163898e+001
6.484483e+002, 9.456976e+001
6.489304e+002, 9.766551e+001
6.494125e+002, 1.011034e+002
6.498947e+002, 1.049711e+002
6.503768e+002, 1.089834e+002
6.508589e+002, 1.130197e+002
6.513410e+002, 1.172143e+002
6.518231e+002, 1.217216e+002
6.523052e+002, 1.264942e+002
6.527874e+002, 1.313083e+002
6.532695e+002, 1.359313e+002
6.537516e+002, 1.406554e+002
6.542337e+002, 1.457741e+002
6.547158e+002, 1.512754e+002
6.551979e+002, 1.570786e+002
6.556801e+002, 1.631418e+002
6.561622e+002, 1.695894e+002
6.566443e+002, 1.765626e+002
6.571264e+002, 1.840369e+002
6.576085e+002, 1.922640e+002
6.580906e+002, 2.013197e+002
6.585728e+002, 2.108928e+002
6.590549e+002, 2.210712e+002
6.595370e+002, 2.317030e+002
6.600191e+002, 2.427104e+002
6.605012e+002, 2.541011e+002
6.609833e+002, 2.659474e+002
6.614655e+002, 2.785403e+002
6.619476e+002, 2.915464e+002
6.624297e+002, 3.037874e+002
6.629118e+002, 3.153287e+002
6.633939e+002, 3.255518e+002
6.638760e+002, 3.345840e+002
6.643582e+002, 3.417522e+002
6.648403e+002, 3.464427e+002
6.653224e+002, 3.487730e+002
6.658045e+002, 3.478244e+002
6.662866e+002, 3.429824e+002
6.667687e+002, 3.353248e+002
6.672509e+002, 3.250306e+002
6.677330e+002, 3.124738e+002
6.682151e+002, 2.977784e+002
6.686972e+002, 2.811339e+002
6.691793e+002, 2.637237e+002
6.696614e+002, 2.463677e+002
6.701436e+002, 2.291540e+002
6.706257e+002, 2.133469e+002
6.711078e+002, 1.990436e+002
6.715899e+002, 1.858618e+002
6.720720e+002, 1.736494e+002
6.725541e+002, 1.624516e+002
6.730363e+002, 1.523029e+002
6.735184e+002, 1.432061e+002
6.740005e+002, 1.349937e+002
6.744826e+002, 1.276151e+002
6.749647e+002, 1.209764e+002
6.754468e+002, 1.149672e+002
6.759290e+002, 1.095937e+002
6.764111e+002, 1.049377e+002
6.768932e+002, 1.010365e+002
6.773753e+002, 9.765932e+001
6.778574e+002, 9.461771e+001
6.783395e+002, 9.192893e+001
6.788217e+002, 8.912904e+001
6.793038e+002, 8.581723e+001
6.797859e+002, 8.292033e+001
6.802680e+002, 8.075099e+001
6.807501e+002, 7.897649e+001
6.812322e+002, 7.731683e+001
6.817144e+002, 7.574768e+001
6.821965e+002, 7.436327e+001
6.826786e+002, 7.332273e+001
6.831607e+002, 7.245457e+001
6.836428e+002, 7.149133e+001
6.841249e+002, 7.044182e+001
6.846071e+002, 6.941145e+001
6.850892e+002, 6.842307e+001
6.855713e+002, 6.747395e+001
6.860534e+002, 6.653079e+001
6.865355e+002, 6.558788e+001
6.870176e+002, 6.485184e+001
6.874998e+002, 6.458784e+001
6.879819e+002, 6.418077e+001
6.884640e+002, 6.332550e+001
6.889461e+002, 6.234921e+001
6.894282e+002, 6.156528e+001
6.899103e+002, 6.101928e+001
6.903925e+002, 6.058208e+001
6.908746e+002, 6.016788e+001
6.913567e+002, 5.978732e+001
6.918388e+002, 5.949652e+001
6.923209e+002, 5.930196e+001
6.928030e+002, 5.902143e+001
6.932852e+002, 5.855445e+001
6.937673e+002, 5.808579e+001
6.942494e+002, 5.781448e+001
6.947315e+002, 5.773037e+001
6.952136e+002, 5.764354e+001
6.956957e+002, 5.753328e+001
6.961779e+002, 5.743571e+001
6.966600e+002, 5.734168e+001
6.971421e+002, 5.727919e+001
6.976242e+002, 5.732794e+001
6.981063e+002, 5.746064e+001
6.985884e+002, 5.751141e+001
6.990706e+002, 5.733576e+001
6.995527e+002, 5.701973e+001
7.000348e+002, 5.679728e+001
7.005169e+002, 5.667151e+001
7.009990e+002, 5.661737e+001
7.014811e+002, 5.660063e+001
7.019633e+002, 5.669457e+001
7.024454e+002, 5.707606e+001
7.029275e+002, 5.763503e+001
7.034096e+002, 5.799792e+001
7.038917e+002, 5.798429e+001
7.043738e+002, 5.794777e+001
7.048560e+002, 5.806227e+001
7.053381e+002, 5.821924e+001
7.058202e+002, 5.829716e+001
7.063023e+002, 5.828138e+001
7.067844e+002, 5.820855e+001
7.072665e+002, 5.810022e+001
7.077487e+002, 5.796611e+001
7.082308e+002, 5.788813e+001
7.087129e+002, 5.795158e+001
7.091950e+002, 5.764933e+001
7.096771e+002, 5.670614e+001
7.101592e+002, 5.566927e+001
7.106414e+002, 5.480115e+001
7.111235e+002, 5.411013e+001
7.116056e+002, 5.364527e+001
7.120877e+002, 5.349709e+001
7.125698e+002, 5.338070e+001
7.130519e+002, 5.317489e+001
7.135341e+002, 5.291880e+001
7.140162e+002, 5.266069e+001
7.144983e+002, 5.240043e+001
7.149804e+002, 5.209321e+001
7.154625e+002, 5.170519e+001
7.159446e+002, 5.130445e+001
7.164268e+002, 5.103698e+001
7.169089e+002, 5.092407e+001
7.173910e+002, 5.084461e+001
7.178731e+002, 5.078491e+001
7.183552e+002, 5.077360e+001
7.188373e+002, 5.089466e+001
7.193195e+002, 5.104100e+001
7.198016e+002, 5.104298e+001
7.202837e+002, 5.085450e+001
7.207658e+002, 5.065230e+001
7.212479e+002, 5.049007e+001
7.217300e+002, 5.037819e+001
7.222122e+002, 5.034114e+001
7.226943e+002, 5.036595e+001
7.231764e+002, 5.042183e+001
7.236585e+002, 5.049640e+001
7.241406e+002, 5.055167e+001
7.246227e+002, 5.053526e+001
7.251049e+002, 5.044890e+001
7.255870e+002, 5.025792e+001
7.260691e+002, 4.982994e+001
7.265512e+002, 4.951501e+001
7.270333e+002, 4.949617e+001
7.275154e+002, 4.960426e+001
7.279976e+002, 4.969812e+001
7.284797e+002, 4.976232e+001
7.289618e+002, 4.978642e+001
7.294439e+002, 4.972114e+001
7.299260e+002, 4.965186e+001
7.304081e+002, 4.967925e+001
7.308903e+002, 4.976137e+001
7.313724e+002, 4.980019e+001
7.318545e+002, 4.976638e+001
7.323366e+002, 4.967047e+001
7.328187e+002, 4.949623e+001
7.333008e+002, 4.926588e+001
7.337830e+002, 4.927092e+001
7.342651e+002, 4.968801e+001
7.347472e+002, 4.995923e+001
7.352293e+002, 4.991236e+001
7.357114e+002, 4.971421e+001
7.361935e+002, 4.939495e+001
7.366757e+002, 4.900682e+001
7.371578e+002, 4.874450e+001
7.376399e+002, 4.868498e+001
7.381220e+002, 4.874534e+001
7.386041e+002, 4.896824e+001
7.390862e+002, 4.923575e+001
7.395684e+002, 4.931355e+001
7.400505e+002, 4.919913e+001
7.405326e+002, 4.908301e+001
7.410147e+002, 4.906977e+001
7.414968e+002, 4.925298e+001
7.419789e+002, 5.010381e+001
7.424611e+002, 5.208332e+001
7.429432e+002, 5.297947e+001
7.434253e+002, 5.187695e+001
7.439074e+002, 5.053452e+001
7.443895e+002, 4.994332e+001
7.448716e+002, 4.981435e+001
7.453538e+002, 4.961226e+001
7.458359e+002, 4.920770e+001
7.463180e+002, 4.888349e+001
7.468001e+002, 4.884098e+001
7.472822e+002, 4.888878e+001
7.477643e+002, 4.883685e+001
7.482465e+002, 4.869411e+001
7.487286e+002, 4.851958e+001
7.492107e+002, 4.834052e+001
7.496928e+002, 4.823246e+001
7.501749e+002, 4.835903e+001
7.506570e+002, 4.874080e+001
7.511392e+002, 4.891340e+001
7.516213e+002, 4.880825e+001
7.521034e+002, 4.864892e+001
7.525855e+002, 4.845955e+001
7.530676e+002, 4.830465e+001
7.535497e+002, 4.828036e+001
7.540319e+002, 4.839135e+001
7.545140e+002, 4.848278e+001
7.549961e+002, 4.844427e+001
7.554782e+002, 4.845208e+001
7.559603e+002, 4.874862e+001
7.564424e+002, 4.910505e+001
7.569246e+002, 4.912680e+001
7.574067e+002, 4.876355e+001
7.578888e+002, 4.831770e+001
7.583709e+002, 4.802721e+001
7.588530e+002, 4.787391e+001
7.593351e+002, 4.780903e+001
7.598173e+002, 4.784025e+001
7.602994e+002, 4.789785e+001
7.607815e+002, 4.797913e+001
7.612636e+002, 4.806263e+001
7.617457e+002, 4.812852e+001
7.622278e+002, 4.818066e+001
7.627100e+002, 4.824040e+001
7.631921e+002, 4.835570e+001
7.636742e+002, 4.840512e+001
7.641563e+002, 4.823164e+001
7.646384e+002, 4.808725e+001
7.651205e+002, 4.824883e+001
7.656027e+002, 4.861794e+001
7.660848e+002, 4.890091e+001
7.665669e+002, 4.896289e+001
7.670490e+002, 4.888952e+001
7.675311e+002, 4.873400e+001
7.680132e+002, 4.852745e+001
7.684954e+002, 4.848323e+001
7.689775e+002, 4.864087e+001
7.694596e+002, 4.870270e+001
7.699417e+002, 4.845997e+001
7.704238e+002, 4.813634e+001
7.709059e+002, 4.813671e+001
7.713881e+002, 4.855864e+001
7.718702e+002, 4.892649e+001
7.723523e+002, 4.941468e+001
7.728344e+002, 4.964680e+001
7.733165e+002, 4.925709e+001
7.737986e+002, 4.868141e+001
7.742808e+002, 4.838482e+001
7.747629e+002, 4.843648e+001
7.752450e+002, 4.864539e+001
7.757271e+002, 4.900175e+001
7.762092e+002, 4.933015e+001
7.766913e+002, 4.930589e+001
7.771735e+002, 4.901261e+001
7.776556e+002, 4.878467e+001
7.781377e+002, 4.869725e+001
7.786198e+002, 4.870456e+001
7.791019e+002, 4.878846e+001
7.795840e+002, 4.891926e+001
7.800662e+002, 4.893314e+001
7.805483e+002, 4.869845e+001
7.810304e+002, 4.859794e+001
7.815125e+002, 4.883207e+001
7.819946e+002, 4.902327e+001
7.824767e+002, 4.891119e+001
7.829589e+002, 4.864390e+001
7.834410e+002, 4.852945e+001
7.839231e+002, 4.867447e+001
7.844052e+002, 4.880921e+001
7.848873e+002, 4.872491e+001
7.853694e+002, 4.857289e+001
7.858516e+002, 4.852382e+001
7.863337e+002, 4.857713e+001
7.868158e+002, 4.871083e+001
7.872979e+002, 4.891411e+001
7.877800e+002, 4.908614e+001
7.882621e+002, 4.907837e+001
7.887443e+002, 4.889806e+001
7.892264e+002, 4.876263e+001
7.897085e+002, 4.864395e+001
7.901906e+002, 4.865630e+001
7.906727e+002, 4.892803e+001
7.911548e+002, 4.925425e+001
7.916370e+002, 4.946638e+001
7.921191e+002, 4.956376e+001
7.926012e+002, 4.951780e+001
7.930833e+002, 4.914539e+001
7.935654e+002, 4.885151e+001
7.940475e+002, 4.883792e+001
7.945297e+002, 4.894316e+001
7.950118e+002, 4.903204e+001
7.954939e+002, 4.907865e+001
7.959760e+002, 4.907748e+001
7.964581e+002, 4.901815e+001
7.969402e+002, 4.895798e+001
7.974224e+002, 4.900628e+001
7.979045e+002, 4.914080e+001
7.983866e+002, 4.919209e+001
7.988687e+002, 4.913225e+001
7.993508e+002, 4.912487e+001
7.998329e+002, 4.927997e+001
8.003151e+002, 4.949334e+001
8.007972e+002, 4.955701e+001
8.012793e+002, 4.940147e+001
8.017614e+002, 4.937301e+001
8.022435e+002, 4.957104e+001
8.027256e+002, 4.976172e+001
8.032078e+002, 4.987632e+001
8.036899e+002, 4.995141e+001
8.041720e+002, 5.000988e+001
8.046541e+002, 5.006527e+001
8.051362e+002, 5.016109e+001
8.056183e+002, 5.035363e+001
8.061005e+002, 5.055830e+001
8.065826e+002, 5.070072e+001
8.070647e+002, 5.078461e+001
8.075468e+002, 5.075845e+001
8.080289e+002, 5.064069e+001
8.085110e+002, 5.067705e+001
8.089932e+002, 5.106917e+001
8.094753e+002, 5.164293e+001
8.099574e+002, 5.190034e+001
8.104395e+002, 5.172937e+001
8.109216e+002, 5.177381e+001
8.114037e+002, 5.224741e+001
8.118859e+002, 5.263224e+001
8.123680e+002, 5.253319e+001
8.128501e+002, 5.225235e+001
8.133322e+002, 5.224338e+001
8.138143e+002, 5.256563e+001
8.142964e+002, 5.285541e+001
8.147786e+002, 5.307300e+001
8.152607e+002, 5.319039e+001
8.157428e+002, 5.311839e+001
8.162249e+002, 5.296986e+001
8.167070e+002, 5.293812e+001
8.171891e+002, 5.302919e+001
8.176713e+002, 5.304194e+001
8.181534e+002, 5.280496e+001
8.186355e+002, 5.242313e+001
8.191176e+002, 5.207080e+001
8.195997e+002, 5.175122e+001
8.200818e+002, 5.148703e+001
8.205640e+002, 5.127991e+001
8.210461e+002, 5.116070e+001
8.215282e+002, 5.118484e+001
8.220103e+002, 5.127490e+001
8.224924e+002, 5.119053e+001
8.229745e+002, 5.083071e+001
8.234567e+002, 5.051910e+001
8.239388e+002, 5.017708e+001
8.244209e+002, 4.997148e+001
8.249030e+002, 5.008347e+001
8.253851e+002, 5.030254e+001
8.258672e+002, 5.035076e+001
8.263494e+002, 5.019093e+001
8.268315e+002, 5.002134e+001
8.273136e+002, 4.993347e+001
8.277957e+002, 4.987532e+001
8.282778e+002, 4.974151e+001
8.287599e+002, 4.962751e+001
8.292421e+002, 4.980193e+001
8.297242e+002, 5.025153e+001
8.302063e+002, 5.054594e+001
8.306884e+002, 5.031256e+001
8.311705e+002, 4.982735e+001
8.316526e+002, 4.984025e+001
8.321348e+002, 5.037274e+001
8.326169e+002, 5.069183e+001
8.330990e+002, 5.064938e+001
8.335811e+002, 5.059019e+001
8.340632e+002, 5.070309e+001
8.345453e+002, 5.094227e+001
8.350275e+002, 5.121606e+001
8.355096e+002, 5.152877e+001
8.359917e+002, 5.186059e+001
8.364738e+002, 5.226918e+001
8.369559e+002, 5.262936e+001
8.374380e+002, 5.276661e+001
8.379202e+002, 5.291143e+001
8.384023e+002, 5.338314e+001
8.388844e+002, 5.417102e+001
8.393665e+002, 5.491224e+001
8.398486e+002, 5.539378e+001
8.403307e+002, 5.577291e+001
8.408129e+002, 5.616481e+001
8.412950e+002, 5.658464e+001
8.417771e+002, 5.709666e+001
8.422592e+002, 5.768628e+001
8.427413e+002, 5.821251e+001
8.432234e+002, 5.857723e+001
8.437056e+002, 5.885668e+001
8.441877e+002, 5.920676e+001
8.446698e+002, 5.963293e+001
8.451519e+002, 6.001960e+001
8.456340e+002, 6.030845e+001
8.461161e+002, 6.070948e+001
8.465983e+002, 6.133244e+001
8.470804e+002, 6.209311e+001
8.475625e+002, 6.286055e+001
8.480446e+002, 6.362554e+001
8.485267e+002, 6.457809e+001
8.490089e+002, 6.574577e+001
8.494910e+002, 6.707335e+001
8.499731e+002, 6.861455e+001
8.504552e+002, 7.026223e+001
8.509373e+002, 7.201598e+001
8.514194e+002, 7.379257e+001
8.519016e+002, 7.544069e+001
8.523837e+002, 7.697884e+001
8.528658e+002, 7.809355e+001
8.533479e+002, 7.846329e+001
8.538300e+002, 7.824451e+001
8.543121e+002, 7.767186e+001
8.547943e+002, 7.677699e+001
8.552764e+002, 7.554636e+001
8.557585e+002, 7.397810e+001
8.562406e+002, 7.215462e+001
8.567227e+002, 7.011678e+001
8.572048e+002, 6.790435e+001
8.576870e+002, 6.588097e+001
8.581691e+002, 6.405102e+001
8.586512e+002, 6.242896e+001
8.591333e+002, 6.100352e+001
8.596154e+002, 5.981620e+001
8.600975e+002, 5.897168e+001
8.605797e+002, 5.841317e+001
8.610618e+002, 5.778599e+001
8.615439e+002, 5.688119e+001
8.620260e+002, 5.625867e+001
8.625081e+002, 5.613075e+001
8.629902e+002, 5.614310e+001
8.634724e+002, 5.613357e+001
8.639545e+002, 5.610164e+001
8.644366e+002, 5.603162e+001
8.649187e+002, 5.592687e+001
8.654008e+002, 5.597737e+001
8.658829e+002, 5.646415e+001
8.663651e+002, 5.704687e+001
8.668472e+002, 5.728941e+001
8.673293e+002, 5.732375e+001
8.678114e+002, 5.751662e+001
8.682935e+002, 5.792450e+001
8.687756e+002, 5.828613e+001
8.692578e+002, 5.838983e+001
8.697399e+002, 5.835119e+001
8.702220e+002, 5.844017e+001
8.707041e+002, 5.865767e+001
8.711862e+002, 5.900090e+001
8.716683e+002, 5.950289e+001
8.721505e+002, 6.001986e+001
8.726326e+002, 6.053872e+001
8.731147e+002, 6.095853e+001
8.735968e+002, 6.110482e+001
8.740789e+002, 6.094538e+001
8.745610e+002, 6.067799e+001
8.750432e+002, 6.026769e+001
8.755253e+002, 5.980475e+001
8.760074e+002, 5.941276e+001
8.764895e+002, 5.889504e+001
8.769716e+002, 5.797879e+001
8.774537e+002, 5.677225e+001
8.779359e+002, 5.568958e+001
8.784180e+002, 5.489050e+001
8.789001e+002, 5.417621e+001
8.793822e+002, 5.343890e+001
8.798643e+002, 5.270697e+001
8.803464e+002, 5.197004e+001
8.808286e+002, 5.126696e+001
8.813107e+002, 5.071833e+001
8.817928e+002, 5.035718e+001
8.822749e+002, 5.000073e+001
8.827570e+002, 4.938441e+001
8.832391e+002, 4.865257e+001
8.837213e+002, 4.830235e+001
8.842034e+002, 4.831304e+001
8.846855e+002, 4.837305e+001
8.851676e+002, 4.842993e+001
8.856497e+002, 4.838270e+001
8.861318e+002, 4.813436e+001
8.866140e+002, 4.774162e+001
8.870961e+002, 4.738937e+001
8.875782e+002, 4.705629e+001
8.880603e+002, 4.681443e+001
8.885424e+002, 4.661957e+001
8.890245e+002, 4.657874e+001
8.895067e+002, 4.703495e+001
8.899888e+002, 4.748613e+001
8.904709e+002, 4.720314e+001
8.909530e+002, 4.617019e+001
8.914351e+002, 4.548251e+001
8.919172e+002, 4.561385e+001
8.923994e+002, 4.581770e+001
8.928815e+002, 4.582141e+001
8.933636e+002, 4.573260e+001
8.938457e+002, 4.563409e+001
8.943278e+002, 4.554757e+001
8.948099e+002, 4.547949e+001
8.952921e+002, 4.542947e+001
8.957742e+002, 4.542687e+001
8.962563e+002, 4.557336e+001
8.967384e+002, 4.574770e+001
8.972205e+002, 4.569452e+001
8.977026e+002, 4.546667e+001
8.981848e+002, 4.531379e+001
8.986669e+002, 4.531136e+001
8.991490e+002, 4.533184e+001
8.996311e+002, 4.522346e+001
9.001132e+002, 4.507428e+001
9.005953e+002, 4.532282e+001
9.010775e+002, 4.603917e+001
9.015596e+002, 4.629615e+001
9.020417e+002, 4.584282e+001
9.025238e+002, 4.531440e+001
9.030059e+002, 4.503688e+001
9.034880e+002, 4.497707e+001
9.039702e+002, 4.509850e+001
9.044523e+002, 4.548405e+001
9.049344e+002, 4.571337e+001
9.054165e+002, 4.564507e+001
9.058986e+002, 4.560313e+001
9.063807e+002, 4.567664e+001
9.068629e+002, 4.579132e+001
9.073450e+002, 4.592422e+001
9.078271e+002, 4.604472e+001
9.083092e+002, 4.603503e+001
9.087913e+002, 4.572800e+001
9.092734e+002, 4.557240e+001
9.097556e+002, 4.595811e+001
9.102377e+002, 4.641664e+001
9.107198e+002, 4.649584e+001
9.112019e+002, 4.632947e+001
9.116840e+002, 4.621552e+001
9.121661e+002, 4.625167e+001
9.126483e+002, 4.640803e+001
9.131304e+002, 4.675076e+001
9.136125e+002, 4.711809e+001
9.140946e+002, 4.726456e+001
9.145767e+002, 4.720885e+001
9.150588e+002, 4.694836e+001
9.155410e+002, 4.650947e+001
9.160231e+002, 4.612868e+001
9.165052e+002, 4.595745e+001
9.169873e+002, 4.590892e+001
9.174694e+002, 4.580190e+001
9.179515e+002, 4.563057e+001
9.184337e+002, 4.559740e+001
9.189158e+002, 4.576416e+001
9.193979e+002, 4.577645e+001
9.198800e+002, 4.547296e+001
9.203621e+002, 4.504869e+001
9.208442e+002, 4.468957e+001
9.213264e+002, 4.439375e+001
9.218085e+002, 4.415136e+001
9.222906e+002, 4.383739e+001
9.227727e+002, 4.378477e+001
9.232548e+002, 4.439534e+001
9.237369e+002, 4.483749e+001
9.242191e+002, 4.448258e+001
9.247012e+002, 4.381998e+001
9.251833e+002, 4.363556e+001
9.256654e+002, 4.403749e+001
9.261475e+002, 4.438831e+001
9.266296e+002, 4.453768e+001
9.271118e+002, 4.454422e+001
9.275939e+002, 4.434419e+001
9.280760e+002, 4.408341e+001
9.285581e+002, 4.393402e+001
9.290402e+002, 4.387470e+001
9.295223e+002, 4.376203e+001
9.300045e+002, 4.352360e+001
9.304866e+002, 4.327663e+001
9.309687e+002, 4.313297e+001
9.314508e+002, 4.304396e+001
9.319329e+002, 4.291317e+001
9.324150e+002, 4.277008e+001
9.328972e+002, 4.274514e+001
9.333793e+002, 4.286048e+001
9.338614e+002, 4.295864e+001
9.343435e+002, 4.289202e+001
9.348256e+002, 4.273780e+001
9.353077e+002, 4.271208e+001
9.357899e+002, 4.279998e+001
9.362720e+002, 4.273870e+001
9.367541e+002, 4.247922e+001
9.372362e+002, 4.234785e+001
9.377183e+002, 4.253809e+001
9.382004e+002, 4.283638e+001
9.386826e+002, 4.291988e+001
9.391647e+002, 4.278365e+001
9.396468e+002, 4.266841e+001
9.401289e+002, 4.261745e+001
9.406110e+002, 4.247448e+001
9.410931e+002, 4.210294e+001
9.415753e+002, 4.177556e+001
9.420574e+002, 4.176398e+001
9.425395e+002, 4.192677e+001
9.430216e+002, 4.184554e+001
9.435037e+002, 4.136110e+001
9.439858e+002, 4.112097e+001
9.444680e+002, 4.143921e+001
9.449501e+002, 4.169016e+001
9.454322e+002, 4.151637e+001
9.459143e+002, 4.125074e+001
9.463964e+002, 4.126420e+001
9.468785e+002, 4.153038e+001
9.473607e+002, 4.176818e+001
9.478428e+002, 4.193151e+001
9.483249e+002, 4.195160e+001
9.488070e+002, 4.160168e+001
9.492891e+002, 4.125367e+001
9.497712e+002, 4.137189e+001
9.502534e+002, 4.173446e+001
9.507355e+002, 4.179332e+001
9.512176e+002, 4.145054e+001
9.516997e+002, 4.122207e+001
9.521818e+002, 4.162135e+001
9.526639e+002, 4.218362e+001
9.531461e+002, 4.202114e+001
9.536282e+002, 4.159364e+001
9.541103e+002, 4.225953e+001
9.545924e+002, 4.392389e+001
9.550745e+002, 4.512270e+001
9.555566e+002, 4.513407e+001
9.560388e+002, 4.445327e+001
9.565209e+002, 4.358245e+001
9.570030e+002, 4.261956e+001
9.574851e+002, 4.209787e+001
9.579672e+002, 4.201351e+001
9.584493e+002, 4.207574e+001
9.589315e+002, 4.224334e+001
9.594136e+002, 4.234404e+001
9.598957e+002, 4.223103e+001
9.603778e+002, 4.200243e+001
9.608599e+002, 4.191002e+001
9.613420e+002, 4.197256e+001
9.618242e+002, 4.209113e+001
9.623063e+002, 4.232270e+001
9.627884e+002, 4.246104e+001
9.632705e+002, 4.237675e+001
9.637526e+002, 4.225240e+001
9.642347e+002, 4.225239e+001
9.647169e+002, 4.237154e+001
9.651990e+002, 4.257477e+001
9.656811e+002, 4.290094e+001
9.661632e+002, 4.325282e+001
9.666453e+002, 4.381930e+001
9.671274e+002, 4.419421e+001
9.676096e+002, 4.414303e+001
9.680917e+002, 4.384333e+001
9.685738e+002, 4.342859e+001
9.690559e+002, 4.293495e+001
9.695380e+002, 4.267330e+001
9.700201e+002, 4.289949e+001
9.705023e+002, 4.312429e+001
9.709844e+002, 4.324706e+001
9.714665e+002, 4.323559e+001
9.719486e+002, 4.290221e+001
9.724307e+002, 4.246576e+001
9.729128e+002, 4.239823e+001
9.733950e+002, 4.281342e+001
9.738771e+002, 4.318549e+001
9.743592e+002, 4.315386e+001
9.748413e+002, 4.299725e+001
9.753234e+002, 4.286586e+001
9.758055e+002, 4.282024e+001
9.762877e+002, 4.301271e+001
9.767698e+002, 4.338142e+001
9.772519e+002, 4.369655e+001
9.777340e+002, 4.385371e+001
9.782161e+002, 4.385054e+001
9.786982e+002, 4.350676e+001
9.791804e+002, 4.309372e+001
9.796625e+002, 4.323057e+001
9.801446e+002, 4.376091e+001
9.806267e+002, 4.409247e+001
9.811088e+002, 4.412334e+001
9.815909e+002, 4.424250e+001
9.820731e+002, 4.474200e+001
9.825552e+002, 4.532977e+001
9.830373e+002, 4.541455e+001
9.835194e+002, 4.507895e+001
9.840015e+002, 4.492314e+001
9.844836e+002, 4.496545e+001
9.849658e+002, 4.507619e+001
9.854479e+002, 4.521676e+001
9.859300e+002, 4.540392e+001
9.864121e+002, 4.566688e+001
9.868942e+002, 4.596730e+001
9.873763e+002, 4.612088e+001
9.878585e+002, 4.606723e+001
9.883406e+002, 4.629319e+001
9.888227e+002, 4.689575e+001
9.893048e+002, 4.753683e+001
9.897869e+002, 4.809846e+001
9.902690e+002, 4.859122e+001
9.907512e+002, 4.900114e+001
9.912333e+002, 4.934172e+001
9.917154e+002, 4.977268e+001
9.921975e+002, 5.028422e+001
9.926796e+002, 5.090775e+001
9.931617e+002, 5.161831e+001
9.936439e+002, 5.247647e+001
9.941260e+002, 5.358715e+001
9.946081e+002, 5.482714e+001
9.950902e+002, 5.600079e+001
9.955723e+002, 5.709953e+001
9.960544e+002, 5.836831e+001
9.965366e+002, 5.972432e+001
9.970187e+002, 6.139186e+001
9.975008e+002, 6.342309e+001
9.979829e+002, 6.576052e+001
9.984650e+002, 6.836093e+001
9.989471e+002, 7.126249e+001
9.994293e+002, 7.451213e+001
9.999114e+002, 7.812746e+001
1.000393e+003, 8.198387e+001
1.000876e+003, 8.604175e+001
1.001358e+003, 9.032029e+001
1.001840e+003, 9.475218e+001
1.002322e+003, 9.942437e+001
1.002804e+003, 1.044957e+002
1.003286e+003, 1.098629e+002
1.003768e+003, 1.152336e+002
1.004250e+003, 1.204720e+002
1.004733e+003, 1.263539e+002
1.005215e+003, 1.331744e+002
1.005697e+003, 1.408867e+002
1.006179e+003, 1.494039e+002
1.006661e+003, 1.587879e+002
1.007143e+003, 1.689115e+002
1.007625e+003, 1.799475e+002
1.008107e+003, 1.926113e+002
1.008589e+003, 2.071812e+002
1.009072e+003, 2.231420e+002
1.009554e+003, 2.407879e+002
1.010036e+003, 2.588569e+002
1.010518e+003, 2.765906e+002
1.011000e+003, 2.933322e+002
1.011482e+003, 3.091784e+002
1.011964e+003, 3.232465e+002
1.012446e+003, 3.327038e+002
1.012929e+003, 3.361454e+002
1.013411e+003, 3.337384e+002
1.013893e+003, 3.248521e+002
1.014375e+003, 3.107552e+002
1.014857e+003, 2.928698e+002
1.015339e+003, 2.720853e+002
1.015821e+003, 2.502085e+002
1.016303e+003, 2.279807e+002
1.016785e+003, 2.066195e+002
1.017268e+003, 1.868639e+002
1.017750e+003, 1.688566e+002
1.018232e+003, 1.525074e+002
1.018714e+003, 1.379070e+002
1.019196e+003, 1.253892e+002
1.019678e+003, 1.149398e+002
1.020160e+003, 1.061090e+002
1.020642e+003, 9.872523e+001
1.021125e+003, 9.245401e+001
1.021607e+003, 8.702721e+001
1.022089e+003, 8.230267e+001
1.022571e+003, 7.787889e+001
1.023053e+003, 7.375520e+001
1.023535e+003, 7.062016e+001
1.024017e+003, 6.852518e+001
1.024499e+003, 6.673306e+001
1.024981e+003, 6.501936e+001
1.025464e+003, 6.346904e+001
1.025946e+003, 6.218259e+001
1.026428e+003, 6.109081e+001
1.026910e+003, 6.000439e+001
1.027392e+003, 5.893803e+001
1.027874e+003, 5.765070e+001
1.028356e+003, 5.600351e+001
1.028838e+003, 5.481038e+001
1.029321e+003, 5.444543e+001
1.029803e+003, 5.436329e+001
1.030285e+003, 5.404689e+001
1.030767e+003, 5.354748e+001
1.031249e+003, 5.308527e+001
1.031731e+003, 5.263840e+001
1.032213e+003, 5.231356e+001
1.032695e+003, 5.214861e+001
1.033177e+003, 5.201763e+001
1.033660e+003, 5.190045e+001
1.034142e+003, 5.175106e+001
1.034624e+003, 5.147422e+001
1.035106e+003, 5.112170e+001
1.035588e+003, 5.104488e+001
1.036070e+003, 5.142958e+001
1.036552e+003, 5.163777e+001
1.037034e+003, 5.155750e+001
1.037516e+003, 5.147364e+001
1.037999e+003, 5.149583e+001
1.038481e+003, 5.155761e+001
1.038963e+003, 5.158706e+001
1.039445e+003, 5.159098e+001
1.039927e+003, 5.162047e+001
1.040409e+003, 5.164065e+001
1.040891e+003, 5.174868e+001
1.041373e+003, 5.195858e+001
1.041855e+003, 5.223837e+001
1.042338e+003, 5.272298e+001
1.042820e+003, 5.316389e+001
1.043302e+003, 5.318377e+001
1.043784e+003, 5.287099e+001
1.044266e+003, 5.291742e+001
1.044748e+003, 5.375854e+001
1.045230e+003, 5.425799e+001
1.045712e+003, 5.411311e+001
1.046195e+003, 5.391056e+001
1.046677e+003, 5.396193e+001
1.047159e+003, 5.401534e+001
1.047641e+003, 5.380962e+001
1.048123e+003, 5.334845e+001
1.048605e+003, 5.273706e+001
1.049087e+003, 5.193233e+001
1.049569e+003, 5.107050e+001
1.050052e+003, 5.009148e+001
1.050534e+003, 4.915650e+001
1.051016e+003, 4.835196e+001
1.051498e+003, 4.762120e+001
1.051980e+003, 4.687005e+001
1.052462e+003, 4.612109e+001
1.052944e+003, 4.553197e+001
1.053426e+003, 4.525520e+001
1.053908e+003, 4.488001e+001
1.054391e+003, 4.406256e+001
1.054873e+003, 4.341864e+001
1.055355e+003, 4.343903e+001
1.055837e+003, 4.367402e+001
1.056319e+003, 4.363717e+001
1.056801e+003, 4.331279e+001
1.057283e+003, 4.287451e+001
1.057765e+003, 4.225716e+001
1.058248e+003, 4.178535e+001
1.058730e+003, 4.158288e+001
1.059212e+003, 4.151568e+001
1.059694e+003, 4.163798e+001
1.060176e+003, 4.176488e+001
1.060658e+003, 4.166610e+001
1.061140e+003, 4.137237e+001
1.061622e+003, 4.110704e+001
1.062104e+003, 4.095448e+001
1.062587e+003, 4.076604e+001
1.063069e+003, 4.043362e+001
1.063551e+003, 4.011398e+001
1.064033e+003, 3.990033e+001
1.064515e+003, 3.974805e+001
1.064997e+003, 3.959630e+001
1.065479e+003, 3.945124e+001
1.065961e+003, 3.935983e+001
1.066443e+003, 3.933926e+001
1.066926e+003, 3.936066e+001
1.067408e+003, 3.949691e+001
1.067890e+003, 3.957488e+001
1.068372e+003, 3.937709e+001
1.068854e+003, 3.914719e+001
1.069336e+003, 3.927309e+001
1.069818e+003, 3.962248e+001
1.070300e+003, 3.963839e+001
1.070782e+003, 3.906913e+001
1.071265e+003, 3.861930e+001
1.071747e+003, 3.866537e+001
1.072229e+003, 3.884472e+001
1.072711e+003, 3.906540e+001
1.073193e+003, 3.920783e+001
1.073675e+003, 3.906842e+001
1.074157e+003, 3.875380e+001
1.074639e+003, 3.861066e+001
1.075122e+003, 3.876996e+001
1.075604e+003, 3.882764e+001
1.076086e+003, 3.843778e+001
1.076568e+003, 3.808466e+001
1.077050e+003, 3.810695e+001
1.077532e+003, 3.826509e+001
1.078014e+003, 3.833839e+001
1.078496e+003, 3.832068e+001
1.078979e+003, 3.825256e+001
1.079461e+003, 3.813921e+001
1.079943e+003, 3.808360e+001
1.080425e+003, 3.824063e+001
1.080907e+003, 3.833612e+001
1.081389e+003, 3.808519e+001
1.081871e+003, 3.781577e+001
1.082353e+003, 3.791725e+001
1.082835e+003, 3.823016e+001
1.083318e+003, 3.834735e+001
1.083800e+003, 3.817949e+001
1.084282e+003, 3.804158e+001
1.084764e+003, 3.816897e+001
1.085246e+003, 3.823107e+001
1.085728e+003, 3.796088e+001
1.086210e+003, 3.764879e+001
1.086692e+003, 3.753778e+001
1.087175e+003, 3.757651e+001
1.087657e+003, 3.766286e+001
1.088139e+003, 3.776959e+001
1.088621e+003, 3.783979e+001
1.089103e+003, 3.782726e+001
1.089585e+003, 3.780662e+001
1.090067e+003, 3.779374e+001
1.090549e+003, 3.780079e+001
1.091031e+003, 3.787261e+001
1.091514e+003, 3.795142e+001
1.091996e+003, 3.794515e+001
1.092478e+003, 3.784930e+001
1.092960e+003, 3.773419e+001
1.093442e+003, 3.753258e+001
1.093924e+003, 3.748417e+001
1.094406e+003, 3.790595e+001
1.094888e+003, 3.826313e+001
1.095370e+003, 3.812756e+001
1.095853e+003, 3.777209e+001
1.096335e+003, 3.755320e+001
1.096817e+003, 3.747991e+001
1.097299e+003, 3.735214e+001
1.097781e+003, 3.703125e+001
1.098263e+003, 3.687599e+001
1.098745e+003, 3.720998e+001
1.099227e+003, 3.749068e+001
1.099709e+003, 3.732274e+001
1.100192e+003, 3.704137e+001
1.100674e+003, 3.705005e+001
1.101156e+003, 3.727312e+001
1.101638e+003, 3.736518e+001
1.102120e+003, 3.725782e+001
1.102602e+003, 3.702816e+001
1.103084e+003, 3.648792e+001
1.103566e+003, 3.609269e+001
1.104049e+003, 3.612126e+001
1.104531e+003, 3.627846e+001
1.105013e+003, 3.630127e+001
1.105495e+003, 3.625149e+001
1.105977e+003, 3.632605e+001
1.106459e+003, 3.657248e+001
1.106941e+003, 3.677665e+001
1.107423e+003, 3.695677e+001
1.107906e+003, 3.701601e+001
1.108388e+003, 3.684130e+001
1.108870e+003, 3.662732e+001
1.109352e+003, 3.646183e+001
1.109834e+003, 3.636164e+001
1.110316e+003, 3.638310e+001
1.110798e+003, 3.653889e+001
1.111280e+003, 3.657751e+001
1.111762e+003, 3.630819e+001
1.112245e+003, 3.618014e+001
1.112727e+003, 3.641142e+001
1.113209e+003, 3.660809e+001
1.113691e+003, 3.652132e+001
1.114173e+003, 3.633069e+001
1.114655e+003, 3.625526e+001
1.115137e+003, 3.628961e+001
1.115619e+003, 3.635003e+001
1.116102e+003, 3.646606e+001
1.116584e+003, 3.655809e+001
1.117066e+003, 3.670643e+001
1.117548e+003, 3.670228e+001
1.118030e+003, 3.632450e+001
1.118512e+003, 3.592532e+001
1.118994e+003, 3.586835e+001
1.119476e+003, 3.606424e+001
1.119958e+003, 3.614557e+001
1.120441e+003, 3.604277e+001
1.120923e+003, 3.605719e+001
1.121405e+003, 3.627427e+001
1.121887e+003, 3.641975e+001
1.122369e+003, 3.641130e+001
1.122851e+003, 3.633385e+001
1.123333e+003, 3.623291e+001
1.123815e+003, 3.612247e+001
1.124297e+003, 3.602665e+001
1.124780e+003, 3.594118e+001
1.125262e+003, 3.594866e+001
1.125744e+003, 3.610922e+001
1.126226e+003, 3.610560e+001
1.126708e+003, 3.579961e+001
1.127190e+003, 3.562781e+001
1.127672e+003, 3.588668e+001
1.128154e+003, 3.626615e+001
1.128636e+003, 3.630300e+001
1.129119e+003, 3.604192e+001
1.129601e+003, 3.585712e+001
1.130083e+003, 3.575336e+001
1.130565e+003, 3.565707e+001
1.131047e+003, 3.555828e+001
1.131529e+003, 3.550031e+001
1.132011e+003, 3.550594e+001
1.132493e+003, 3.551699e+001
1.132976e+003, 3.546598e+001
1.133458e+003, 3.539392e+001
1.133940e+003, 3.542546e+001
1.134422e+003, 3.555346e+001
1.134904e+003, 3.571699e+001
1.135386e+003, 3.590604e+001
1.135868e+003, 3.598046e+001
1.136350e+003, 3.590343e+001
1.136833e+003, 3.573476e+001
1.137315e+003, 3.549834e+001
1.137797e+003, 3.531407e+001
1.138279e+003, 3.549086e+001
1.138761e+003, 3.586549e+001
1.139243e+003, 3.573702e+001
1.139725e+003, 3.527683e+001
1.140207e+003, 3.536089e+001
1.140689e+003, 3.601287e+001
1.141172e+003, 3.635616e+001
1.141654e+003, 3.597809e+001
1.142136e+003, 3.536937e+001
1.142618e+003, 3.495803e+001
1.143100e+003, 3.475621e+001
1.143582e+003, 3.492584e+001
1.144064e+003, 3.526127e+001
1.144546e+003, 3.532879e+001
1.145029e+003, 3.515205e+001
1.145511e+003, 3.489649e+001
1.145993e+003, 3.464341e+001
1.146475e+003, 3.457015e+001
1.146957e+003, 3.486947e+001
1.147439e+003, 3.520784e+001
1.147921e+003, 3.523751e+001
1.148403e+003, 3.513652e+001
1.148885e+003, 3.511261e+001
1.149368e+003, 3.512175e+001
1.149850e+003, 3.503741e+001
1.150332e+003, 3.487558e+001
1.150814e+003, 3.478113e+001
1.151296e+003, 3.482093e+001
1.151778e+003, 3.489234e+001
1.152260e+003, 3.495903e+001
1.152742e+003, 3.500736e+001
1.153224e+003, 3.505814e+001
1.153707e+003, 3.506187e+001
1.154189e+003, 3.490179e+001
1.154671e+003, 3.467102e+001
1.155153e+003, 3.461856e+001
1.155635e+003, 3.479712e+001
1.156117e+003, 3.485445e+001
1.156599e+003, 3.451470e+001
1.157081e+003, 3.427309e+001
1.157563e+003, 3.437146e+001
1.158046e+003, 3.451760e+001
1.158528e+003, 3.453838e+001
1.159010e+003, 3.449349e+001
1.159492e+003, 3.444057e+001
1.159974e+003, 3.439697e+001
1.160456e+003, 3.446091e+001
1.160938e+003, 3.478530e+001
1.161420e+003, 3.493440e+001
1.161903e+003, 3.474244e+001
1.162385e+003, 3.458646e+001
1.162867e+003, 3.460011e+001
1.163349e+003, 3.464977e+001
1.163831e+003, 3.465792e+001
1.164313e+003, 3.461000e+001
1.164795e+003, 3.444929e+001
1.165277e+003, 3.414397e+001
1.165760e+003, 3.400081e+001
1.166242e+003, 3.407705e+001
1.166724e+003, 3.412712e+001
1.167206e+003, 3.409340e+001
1.167688e+003, 3.410155e+001
1.168170e+003, 3.423016e+001
1.168652e+003, 3.439237e+001
1.169134e+003, 3.447633e+001
1.169616e+003, 3.449728e+001
1.170099e+003, 3.453089e+001
1.170581e+003, 3.457791e+001
1.171063e+003, 3.455726e+001
1.171545e+003, 3.446318e+001
1.172027e+003, 3.444552e+001
1.172509e+003, 3.455155e+001
1.172991e+003, 3.460152e+001
1.173473e+003, 3.444390e+001
1.173956e+003, 3.423678e+001
1.174438e+003, 3.429831e+001
1.174920e+003, 3.452181e+001
1.175402e+003, 3.455577e+001
1.175884e+003, 3.444006e+001
1.176366e+003, 3.431569e+001
1.176848e+003, 3.420918e+001
1.177330e+003, 3.411755e+001
1.177813e+003, 3.403878e+001
1.178295e+003, 3.395968e+001
1.178777e+003, 3.383058e+001
1.179259e+003, 3.374996e+001
1.179741e+003, 3.390071e+001
1.180223e+003, 3.413500e+001
1.180705e+003, 3.423799e+001
1.181187e+003, 3.425004e+001
1.181669e+003, 3.430853e+001
1.182151e+003, 3.441792e+001
1.182634e+003, 3.444434e+001
1.183116e+003, 3.431411e+001
1.183598e+003, 3.414151e+001
1.184080e+003, 3.393758e+001
1.184562e+003, 3.377868e+001
1.185044e+003, 3.371097e+001
1.185526e+003, 3.371825e+001
1.186008e+003, 3.384919e+001
1.186490e+003, 3.402068e+001
1.186973e+003, 3.402387e+001
1.187455e+003, 3.381110e+001
1.187937e+003, 3.369043e+001
1.188419e+003, 3.377182e+001
1.188901e+003, 3.387541e+001
1.189383e+003, 3.404978e+001
1.189865e+003, 3.414137e+001
1.190347e+003, 3.390357e+001
1.190830e+003, 3.368095e+001
1.191312e+003, 3.396930e+001
1.191794e+003, 3.460292e+001
1.192276e+003, 3.472970e+001
1.192758e+003, 3.411073e+001
1.193240e+003, 3.380717e+001
1.193722e+003, 3.390656e+001
1.194204e+003, 3.408549e+001
1.194687e+003, 3.432135e+001
1.195169e+003, 3.444929e+001
1.195651e+003, 3.434298e+001
1.196133e+003, 3.413204e+001
1.196615e+003, 3.402486e+001
1.197097e+003, 3.399961e+001
1.197579e+003, 3.389524e+001
1.198061e+003, 3.372127e+001
1.198543e+003, 3.367661e+001
1.199026e+003, 3.377538e+001
1.199508e+003, 3.394926e+001
1.199990e+003, 3.417043e+001
1.200472e+003, 3.441029e+001
1.200954e+003, 3.466895e+001
1.201436e+003, 3.481017e+001
1.201918e+003, 3.451699e+001
1.202400e+003, 3.402202e+001
1.202883e+003, 3.376539e+001
1.203365e+003, 3.370444e+001
1.203847e+003, 3.376192e+001
1.204329e+003, 3.387846e+001
1.204811e+003, 3.392086e+001
1.205293e+003, 3.384352e+001
1.205775e+003, 3.377982e+001
1.206257e+003, 3.388329e+001
1.206740e+003, 3.394611e+001
1.207222e+003, 3.377796e+001
1.207704e+003, 3.353995e+001
1.208186e+003, 3.330031e+001
1.208668e+003, 3.313668e+001
1.209150e+003, 3.316616e+001
1.209632e+003, 3.336774e+001
1.210114e+003, 3.356074e+001
1.210596e+003, 3.360865e+001
1.211078e+003, 3.396808e+001
1.211561e+003, 3.540696e+001
1.212043e+003, 3.623798e+001
1.212525e+003, 3.544246e+001
1.213007e+003, 3.442714e+001
1.213489e+003, 3.408039e+001
1.213971e+003, 3.408175e+001
1.214453e+003, 3.394216e+001
1.214935e+003, 3.367528e+001
1.215417e+003, 3.355514e+001
1.215900e+003, 3.365817e+001
1.216382e+003, 3.358613e+001
1.216864e+003, 3.324712e+001
1.217346e+003, 3.305489e+001
1.217828e+003, 3.314952e+001
1.218310e+003, 3.337654e+001
1.218792e+003, 3.363482e+001
1.219274e+003, 3.389561e+001
1.219757e+003, 3.412907e+001
1.220239e+003, 3.431677e+001
1.220721e+003, 3.436424e+001
1.221203e+003, 3.428543e+001
1.221685e+003, 3.413084e+001
1.222167e+003, 3.391872e+001
1.222649e+003, 3.367289e+001
1.223131e+003, 3.341142e+001
1.223614e+003, 3.321873e+001
1.224096e+003, 3.315068e+001
1.224578e+003, 3.320217e+001
1.225060e+003, 3.342791e+001
1.225542e+003, 3.371593e+001
1.226024e+003, 3.402810e+001
1.226506e+003, 3.424854e+001
1.226988e+003, 3.411662e+001
1.227470e+003, 3.375144e+001
1.227953e+003, 3.357172e+001
1.228435e+003, 3.370133e+001
1.228917e+003, 3.378074e+001
1.229399e+003, 3.356487e+001
1.229881e+003, 3.343159e+001
1.230363e+003, 3.367498e+001
1.230845e+003, 3.384057e+001
1.231327e+003, 3.348443e+001
1.231810e+003, 3.303591e+001
1.232292e+003, 3.304792e+001
1.232774e+003, 3.341465e+001
1.233256e+003, 3.372572e+001
1.233738e+003, 3.402497e+001
1.234220e+003, 3.405173e+001
1.234702e+003, 3.369046e+001
1.235184e+003, 3.342714e+001
1.235667e+003, 3.334744e+001
1.236149e+003, 3.341747e+001
1.236631e+003, 3.366430e+001
1.237113e+003, 3.382860e+001
1.237595e+003, 3.353250e+001
1.238077e+003, 3.303294e+001
1.238559e+003, 3.325416e+001
1.239041e+003, 3.397927e+001
1.239523e+003, 3.401073e+001
1.240005e+003, 3.344863e+001
1.240488e+003, 3.300172e+001
1.240970e+003, 3.283558e+001
1.241452e+003, 3.290513e+001
1.241934e+003, 3.319078e+001
1.242416e+003, 3.346954e+001
1.242898e+003, 3.360616e+001
1.243380e+003, 3.355763e+001
1.243862e+003, 3.304377e+001
1.244344e+003, 3.252568e+001
1.244827e+003, 3.263585e+001
1.245309e+003, 3.306602e+001
1.245791e+003, 3.320612e+001
1.246273e+003, 3.305404e+001
1.246755e+003, 3.310044e+001
1.247237e+003, 3.356756e+001
1.247719e+003, 3.389504e+001
1.248201e+003, 3.396352e+001
1.248684e+003, 3.386839e+001
1.249166e+003, 3.343407e+001
1.249648e+003, 3.308102e+001
1.250130e+003, 3.311694e+001
1.250612e+003, 3.329018e+001
1.251094e+003, 3.323299e+001
1.251576e+003, 3.301048e+001
1.252058e+003, 3.307394e+001
1.252541e+003, 3.348179e+001
1.253023e+003, 3.376505e+001
1.253505e+003, 3.391391e+001
1.253987e+003, 3.388565e+001
1.254469e+003, 3.366708e+001
1.254951e+003, 3.343391e+001
1.255433e+003, 3.328438e+001
1.255915e+003, 3.321890e+001
1.256397e+003, 3.327346e+001
1.256880e+003, 3.336286e+001
1.257362e+003, 3.325302e+001
1.257844e+003, 3.309030e+001
1.258326e+003, 3.323306e+001
1.258808e+003, 3.355358e+001
1.259290e+003, 3.368835e+001
1.259772e+003, 3.360950e+001
1.260254e+003, 3.356370e+001
1.260737e+003, 3.366185e+001
1.261219e+003, 3.370702e+001
1.261701e+003, 3.354325e+001
1.262183e+003, 3.337149e+001
1.262665e+003, 3.324060e+001
1.263147e+003, 3.318784e+001
1.263629e+003, 3.323423e+001
1.264111e+003, 3.337657e+001
1.264594e+003, 3.368607e+001
1.265076e+003, 3.410246e+001
1.265558e+003, 3.428622e+001
1.266040e+003, 3.417604e+001
1.266522e+003, 3.404042e+001
1.267004e+003, 3.384533e+001
1.267486e+003, 3.375124e+001
1.267968e+003, 3.380409e+001
1.268450e+003, 3.391240e+001
1.268932e+003, 3.405330e+001
1.269415e+003, 3.405833e+001
1.269897e+003, 3.369190e+001
1.270379e+003, 3.315450e+001
1.270861e+003, 3.288810e+001
1.271343e+003, 3.286314e+001
1.271825e+003, 3.310027e+001
1.272307e+003, 3.347503e+001
1.272789e+003, 3.358088e+001
1.273271e+003, 3.344187e+001
1.273754e+003, 3.350432e+001
1.274236e+003, 3.392385e+001
1.274718e+003, 3.416799e+001
1.275200e+003, 3.367527e+001
1.275682e+003, 3.323183e+001
1.276164e+003, 3.340338e+001
1.276646e+003, 3.367956e+001
1.277128e+003, 3.374623e+001
1.277611e+003, 3.367293e+001
1.278093e+003, 3.349134e+001
1.278575e+003, 3.326637e+001
1.279057e+003, 3.317850e+001
1.279539e+003, 3.323789e+001
1.280021e+003, 3.340946e+001
1.280503e+003, 3.378770e+001
1.280985e+003, 3.398517e+001
1.281468e+003, 3.395180e+001
1.281950e+003, 3.378679e+001
1.282432e+003, 3.348857e+001
1.282914e+003, 3.329231e+001
1.283396e+003, 3.341745e+001
1.283878e+003, 3.366345e+001
1.284360e+003, 3.360915e+001
1.284842e+003, 3.337918e+001
1.285324e+003, 3.332989e+001
##END=



