##NAMES=Diopside
##RRUFFID=R060276
##IDEAL CHEMISTRY=CaMgSi_2_O_6_
##LOCALITY=Inagli, Yakutia, Siberia, Russia
##OWNER=RRUFF
##SOURCE=Herb Obodda
##DESCRIPTION=Transparent green cleavage fragment
##STATUS=The identification of this mineral has been confirmed by X-ray diffraction and chemical analysis
##URL=rruff.info/R060276
##MEASURED CHEMISTRY=(Ca_0.97_Na_0.03_)_Σ=1_(Mg_0.96_Fe_0.03_Cr_0.01_)_Σ=1_(Si_1.98_Al_0.02_)_Σ=2_O_6_
90.49219, 300.7899
90.97430, 298.9092
91.45642, 298.2505
91.93854, 299.0878
92.42065, 301.0773
92.90277, 304.2691
93.38489, 309.0715
93.86700, 313.3614
94.34912, 313.4438
94.83124, 310.0657
95.31335, 307.5253
95.79547, 309.4278
96.27759, 314.6254
96.75970, 318.3947
97.24182, 319.8289
97.72394, 319.8240
98.20605, 320.3422
98.68817, 321.4671
99.17029, 322.4453
99.65240, 322.3222
100.1345, 320.9614
100.6166, 320.6393
101.0988, 322.1800
101.5809, 325.2754
102.0630, 327.4331
102.5451, 328.6819
103.0272, 328.9792
103.5093, 327.7217
103.9915, 323.6013
104.4736, 321.4308
104.9557, 323.3785
105.4378, 330.7620
105.9199, 334.7140
106.4020, 333.7449
106.8842, 330.1000
107.3663, 327.6711
107.8484, 327.5238
108.3305, 327.3831
108.8126, 326.4052
109.2947, 323.4733
109.7769, 321.5613
110.2590, 321.0067
110.7411, 321.5298
111.2232, 322.2759
111.7053, 323.8280
112.1874, 325.1821
112.6696, 325.8737
113.1517, 325.4829
113.6338, 324.8335
114.1159, 323.9375
114.5980, 322.8297
115.0801, 321.7145
115.5623, 320.1796
116.0444, 318.8854
116.5265, 318.3449
117.0086, 320.2508
117.4907, 321.5608
117.9728, 320.6289
118.4550, 317.3426
118.9371, 314.4720
119.4192, 313.7234
119.9013, 313.9913
120.3834, 313.8787
120.8655, 311.8951
121.3477, 309.9067
121.8298, 309.2425
122.3119, 310.0779
122.7940, 311.8095
123.2761, 314.8306
123.7582, 318.5009
124.2404, 321.3940
124.7225, 322.7380
125.2046, 322.8865
125.6867, 322.0282
126.1688, 319.8280
126.6509, 317.5236
127.1331, 316.0495
127.6152, 315.4766
128.0973, 316.1573
128.5794, 319.1352
129.0615, 323.5696
129.5436, 327.4128
130.0258, 330.0214
130.5079, 332.0576
130.9900, 335.0016
131.4721, 338.8272
131.9542, 342.3321
132.4363, 344.0760
132.9185, 344.3357
133.4006, 344.9750
133.8827, 346.3122
134.3648, 348.4258
134.8469, 351.8663
135.3290, 356.7710
135.8112, 362.4250
136.2933, 367.3087
136.7754, 371.2353
137.2575, 377.5547
137.7396, 387.8961
138.2217, 401.9896
138.7039, 417.1735
139.1860, 434.4222
139.6681, 451.2550
140.1502, 463.9785
140.6323, 471.7199
141.1144, 477.8843
141.5966, 484.5395
142.0787, 493.0390
142.5608, 495.2428
143.0429, 489.1493
143.5250, 477.9211
144.0071, 468.9177
144.4893, 463.9703
144.9714, 458.3979
145.4535, 449.7338
145.9356, 434.5711
146.4177, 422.9557
146.8998, 415.3922
147.3820, 411.4687
147.8641, 409.3724
148.3462, 410.8045
148.8283, 412.4894
149.3104, 412.6454
149.7925, 409.1996
150.2747, 406.9340
150.7568, 406.8777
151.2389, 408.7762
151.7210, 409.5087
152.2031, 407.5214
152.6852, 405.3076
153.1674, 404.3961
153.6495, 406.6021
154.1316, 408.2905
154.6137, 408.5631
155.0958, 407.3749
155.5779, 406.9262
156.0601, 408.6856
156.5422, 410.7495
157.0243, 411.4669
157.5064, 408.5081
157.9885, 406.0674
158.4706, 405.3683
158.9528, 406.5959
159.4349, 408.5155
159.9170, 411.3779
160.3991, 414.5985
160.8812, 417.5015
161.3633, 419.8600
161.8455, 421.8859
162.3276, 423.3845
162.8097, 424.0539
163.2918, 425.5426
163.7739, 427.6506
164.2560, 430.6305
164.7382, 432.9169
165.2203, 441.0480
165.7024, 449.1183
166.1845, 452.9588
166.6666, 451.7310
167.1487, 447.6832
167.6309, 441.2075
168.1130, 432.8232
168.5951, 423.7306
169.0772, 412.5094
169.5593, 401.7865
170.0414, 394.2310
170.5236, 391.4361
171.0057, 389.0451
171.4878, 382.6937
171.9699, 373.8051
172.4520, 366.8545
172.9341, 365.6494
173.4163, 367.1841
173.8984, 368.0118
174.3805, 367.3652
174.8626, 365.8572
175.3447, 362.9584
175.8268, 359.1996
176.3090, 357.1240
176.7911, 359.9397
177.2732, 365.2980
177.7553, 369.3504
178.2374, 370.6939
178.7195, 370.8252
179.2017, 371.5689
179.6838, 372.8719
180.1659, 374.1873
180.6480, 374.9175
181.1301, 375.3399
181.6122, 376.2735
182.0944, 378.9099
182.5765, 381.4851
183.0586, 380.5053
183.5407, 376.0332
184.0228, 370.7653
184.5049, 367.4287
184.9871, 365.4066
185.4692, 362.4765
185.9513, 356.6258
186.4334, 349.8755
186.9155, 347.4523
187.3976, 349.6310
187.8798, 353.0149
188.3619, 353.9686
188.8440, 352.8989
189.3261, 352.3394
189.8082, 353.1267
190.2903, 355.0751
190.7725, 357.5571
191.2546, 360.6109
191.7367, 364.1609
192.2188, 367.8934
192.7009, 371.8856
193.1830, 377.1163
193.6652, 384.4830
194.1473, 393.6233
194.6294, 402.3387
195.1115, 411.0170
195.5936, 418.0412
196.0757, 421.5556
196.5579, 421.5796
197.0400, 418.1476
197.5221, 410.5577
198.0042, 399.0837
198.4863, 386.4288
198.9684, 371.9718
199.4506, 357.8355
199.9327, 347.7543
200.4148, 342.0201
200.8969, 337.0637
201.3790, 331.0621
201.8611, 323.9402
202.3433, 318.8890
202.8254, 316.2913
203.3075, 315.1194
203.7896, 313.6549
204.2717, 311.7441
204.7538, 310.2428
205.2360, 309.6705
205.7181, 310.1552
206.2002, 310.2319
206.6823, 309.5923
207.1644, 308.9088
207.6465, 309.7095
208.1287, 312.4859
208.6108, 314.9988
209.0929, 316.2510
209.5750, 316.0876
210.0571, 315.3649
210.5392, 313.6184
211.0214, 311.7457
211.5035, 311.8048
211.9856, 314.3538
212.4677, 317.2866
212.9498, 319.7228
213.4319, 321.5658
213.9140, 323.1861
214.3962, 324.3952
214.8783, 325.5131
215.3604, 327.3262
215.8425, 330.1203
216.3246, 332.9846
216.8067, 335.3926
217.2889, 336.9298
217.7710, 339.4316
218.2531, 343.4088
218.7352, 348.0984
219.2173, 351.6925
219.6994, 353.7466
220.1816, 355.5639
220.6637, 357.6704
221.1458, 359.9462
221.6279, 362.8682
222.1100, 366.4428
222.5921, 370.6747
223.0743, 375.6714
223.5564, 381.3050
224.0385, 387.8985
224.5206, 395.4970
225.0027, 404.3567
225.4848, 413.8112
225.9670, 423.8315
226.4491, 434.3586
226.9312, 445.5195
227.4133, 457.5217
227.8954, 469.7244
228.3775, 481.8342
228.8597, 494.9913
229.3418, 505.9023
229.8239, 515.2596
230.3060, 522.1809
230.7881, 524.0060
231.2702, 520.3224
231.7524, 512.0953
232.2345, 499.2224
232.7166, 478.5482
233.1987, 460.1373
233.6808, 444.7039
234.1629, 431.4539
234.6451, 417.9373
235.1272, 403.6213
235.6093, 390.0075
236.0914, 377.7177
236.5735, 366.7780
237.0556, 357.1025
237.5378, 348.5871
238.0199, 341.3691
238.5020, 335.9090
238.9841, 332.7361
239.4662, 330.4534
239.9483, 328.4800
240.4305, 326.7649
240.9126, 325.5518
241.3947, 325.0847
241.8768, 325.0354
242.3589, 324.5579
242.8410, 323.3062
243.3232, 322.1410
243.8053, 321.3488
244.2874, 320.7038
244.7695, 321.0682
245.2516, 323.0815
245.7337, 325.8538
246.2159, 327.3100
246.6980, 326.6835
247.1801, 325.9461
247.6622, 325.6948
248.1443, 325.6050
248.6264, 327.0591
249.1086, 330.8096
249.5907, 335.7462
250.0728, 339.4688
250.5549, 341.1055
251.0370, 343.0019
251.5191, 346.2168
252.0013, 351.3345
252.4834, 355.6432
252.9655, 358.6328
253.4476, 361.0715
253.9297, 364.6924
254.4118, 370.9307
254.8940, 375.5950
255.3761, 377.0576
255.8582, 374.7258
256.3403, 371.5086
256.8224, 367.4485
257.3046, 362.4803
257.7867, 356.4758
258.2688, 348.9949
258.7509, 341.3032
259.2330, 333.7267
259.7151, 326.0945
260.1973, 319.2494
260.6794, 313.0922
261.1615, 307.9599
261.6436, 304.7700
262.1257, 304.3326
262.6078, 303.7918
263.0900, 302.1992
263.5721, 299.3897
264.0542, 296.9370
264.5363, 294.6835
265.0184, 292.9374
265.5005, 292.1288
265.9827, 292.5146
266.4648, 293.1082
266.9469, 293.7098
267.4290, 294.3200
267.9111, 294.6701
268.3932, 294.6249
268.8754, 294.5214
269.3575, 294.8651
269.8396, 295.9055
270.3217, 296.4845
270.8038, 296.2628
271.2859, 295.2735
271.7681, 294.1786
272.2502, 293.0051
272.7323, 291.6762
273.2144, 289.9173
273.6965, 287.4831
274.1786, 285.9137
274.6608, 285.6686
275.1429, 286.5974
275.6250, 287.7736
276.1071, 289.4033
276.5892, 290.6944
277.0714, 290.5251
277.5535, 288.6419
278.0356, 287.6688
278.5177, 288.2285
278.9998, 290.0314
279.4819, 292.0602
279.9641, 294.4501
280.4462, 296.5971
280.9283, 298.2155
281.4104, 299.3127
281.8925, 299.0949
282.3746, 296.7473
282.8568, 293.5330
283.3389, 293.4023
283.8210, 296.6675
284.3031, 300.5815
284.7852, 303.3867
285.2673, 305.0965
285.7495, 306.2813
286.2316, 306.7308
286.7137, 307.0721
287.1958, 309.0007
287.6779, 312.5753
288.1600, 315.7917
288.6422, 316.8229
289.1243, 316.0977
289.6064, 316.7780
290.0885, 319.3833
290.5706, 322.8228
291.0527, 325.2582
291.5349, 326.7691
292.0170, 328.5010
292.4991, 331.2457
292.9812, 334.7531
293.4633, 337.9309
293.9454, 340.6586
294.4276, 343.4314
294.9097, 346.7377
295.3918, 350.5882
295.8739, 355.0009
296.3560, 360.2399
296.8381, 366.0107
297.3203, 371.2017
297.8024, 375.6379
298.2845, 380.6525
298.7666, 388.5663
299.2487, 398.3393
299.7308, 407.0060
300.2130, 411.9339
300.6951, 415.5372
301.1772, 422.4209
301.6593, 432.5423
302.1414, 442.5389
302.6235, 449.5388
303.1057, 454.2334
303.5878, 457.8347
304.0699, 460.8959
304.5520, 463.0173
305.0341, 463.3860
305.5162, 462.1588
305.9984, 460.6318
306.4805, 459.0020
306.9626, 457.8422
307.4447, 457.9839
307.9268, 459.7550
308.4089, 462.7455
308.8911, 466.5659
309.3732, 471.2760
309.8553, 477.1372
310.3374, 484.8098
310.8195, 493.4824
311.3016, 502.1891
311.7838, 510.4302
312.2659, 519.2843
312.7480, 529.5941
313.2301, 540.9689
313.7122, 552.6366
314.1943, 563.0101
314.6765, 574.4612
315.1586, 588.6786
315.6407, 605.9728
316.1228, 625.6110
316.6049, 647.9293
317.0870, 672.2519
317.5692, 697.1036
318.0513, 720.0798
318.5334, 745.2198
319.0155, 774.8754
319.4976, 809.9686
319.9797, 846.0776
320.4619, 882.0833
320.9440, 918.3882
321.4261, 954.9673
321.9082, 993.7921
322.3903, 1031.333
322.8724, 1068.632
323.3546, 1105.769
323.8367, 1134.365
324.3188, 1154.812
324.8009, 1165.157
325.2830, 1163.775
325.7651, 1146.213
326.2473, 1121.914
326.7294, 1091.351
327.2115, 1054.794
327.6936, 1013.875
328.1757, 965.5222
328.6578, 915.5742
329.1400, 866.6545
329.6221, 816.6405
330.1042, 771.2836
330.5863, 731.1632
331.0684, 695.5718
331.5505, 663.1770
332.0327, 633.6848
332.5148, 607.3843
332.9969, 584.4742
333.4790, 566.2708
333.9611, 548.9569
334.4432, 532.0518
334.9254, 516.2521
335.4075, 503.0646
335.8896, 493.0171
336.3717, 484.2957
336.8538, 476.4013
337.3359, 469.2100
337.8180, 463.5761
338.3001, 459.7278
338.7823, 457.0986
339.2644, 455.2665
339.7465, 454.3703
340.2286, 453.5860
340.7107, 452.5806
341.1928, 451.4893
341.6750, 451.3054
342.1571, 452.0352
342.6392, 453.5978
343.1213, 456.1098
343.6034, 459.5557
344.0855, 463.1540
344.5677, 466.5695
345.0498, 470.2319
345.5319, 475.2790
346.0140, 481.7450
346.4961, 488.6042
346.9782, 494.7437
347.4604, 500.6024
347.9425, 508.1132
348.4246, 517.7038
348.9067, 528.4907
349.3888, 539.0490
349.8709, 549.6026
350.3531, 561.3730
350.8352, 574.7795
351.3173, 589.8047
351.7994, 607.0342
352.2815, 626.5288
352.7636, 646.8640
353.2458, 666.3405
353.7279, 685.6342
354.2100, 706.2476
354.6921, 730.4835
355.1742, 755.0317
355.6563, 777.4093
356.1385, 797.4250
356.6206, 814.3190
357.1027, 828.3701
357.5848, 838.6602
358.0669, 844.2269
358.5490, 844.1492
359.0312, 840.2562
359.5133, 833.2492
359.9954, 823.2536
360.4775, 810.6383
360.9596, 793.0791
361.4417, 774.6075
361.9239, 757.7452
362.4060, 743.0802
362.8881, 729.4877
363.3702, 717.1143
363.8523, 705.4440
364.3344, 693.6860
364.8166, 680.6158
365.2987, 668.2252
365.7808, 657.2894
366.2629, 647.6744
366.7450, 639.9688
367.2271, 635.9207
367.7093, 633.0193
368.1914, 629.0579
368.6735, 624.0909
369.1556, 617.7310
369.6377, 609.1275
370.1198, 598.6149
370.6020, 589.7491
371.0841, 584.2228
371.5662, 578.7391
372.0483, 571.2407
372.5304, 558.1263
373.0125, 549.7278
373.4947, 547.3857
373.9768, 549.5273
374.4589, 552.5630
374.9410, 556.3401
375.4231, 561.3407
375.9052, 567.7430
376.3874, 575.5761
376.8695, 585.0245
377.3516, 596.6367
377.8337, 609.1096
378.3158, 620.8714
378.7979, 631.7099
379.2801, 643.8043
379.7622, 657.9019
380.2443, 673.7279
380.7264, 690.1965
381.2085, 706.9570
381.6906, 726.3718
382.1728, 750.8401
382.6549, 780.0831
383.1370, 810.9024
383.6191, 843.1963
384.1012, 876.5640
384.5833, 910.1896
385.0655, 944.4703
385.5476, 981.7064
386.0297, 1024.454
386.5118, 1071.234
386.9939, 1120.848
387.4760, 1173.172
387.9582, 1226.535
388.4403, 1282.499
388.9224, 1338.873
389.4045, 1390.724
389.8866, 1439.898
390.3687, 1481.711
390.8509, 1513.794
391.3330, 1535.576
391.8151, 1542.238
392.2972, 1529.318
392.7793, 1500.365
393.2614, 1458.090
393.7436, 1399.674
394.2257, 1333.989
394.7078, 1261.136
395.1899, 1183.879
395.6720, 1109.461
396.1541, 1039.898
396.6363, 973.9291
397.1184, 910.6757
397.6005, 849.3317
398.0826, 792.9708
398.5647, 742.2548
399.0468, 696.6857
399.5290, 655.6613
400.0111, 620.7421
400.4932, 588.6788
400.9753, 558.6515
401.4574, 530.5624
401.9395, 506.7664
402.4217, 488.8582
402.9038, 473.3227
403.3859, 457.7327
403.8680, 441.1257
404.3501, 426.8154
404.8322, 415.7747
405.3144, 406.8767
405.7965, 397.2305
406.2786, 386.1845
406.7607, 376.3740
407.2428, 369.5035
407.7249, 365.6677
408.2071, 360.4851
408.6892, 353.4631
409.1713, 346.4517
409.6534, 342.0830
410.1355, 340.2495
410.6176, 338.3704
411.0998, 335.8065
411.5819, 332.6149
412.0640, 328.5009
412.5461, 323.5509
413.0282, 319.0656
413.5103, 316.0276
413.9925, 314.2276
414.4746, 313.4691
414.9567, 314.0855
415.4388, 314.6406
415.9209, 313.1587
416.4030, 310.4065
416.8852, 308.2461
417.3673, 308.2816
417.8494, 308.8886
418.3315, 309.0308
418.8136, 308.6522
419.2957, 307.1435
419.7779, 302.2345
420.2600, 296.8387
420.7421, 293.9565
421.2242, 297.4149
421.7063, 300.3773
422.1884, 299.8175
422.6706, 296.7772
423.1527, 295.1718
423.6348, 298.6502
424.1169, 301.5752
424.5990, 300.8773
425.0811, 293.4103
425.5633, 289.0821
426.0454, 290.6786
426.5275, 294.5367
427.0096, 296.0043
427.4917, 293.4925
427.9738, 290.9223
428.4560, 288.7206
428.9381, 286.9255
429.4202, 287.1494
429.9023, 290.4905
430.3844, 293.8096
430.8665, 294.6020
431.3487, 292.4280
431.8308, 290.3387
432.3129, 288.5083
432.7950, 286.9965
433.2771, 286.1158
433.7592, 285.8986
434.2414, 285.6163
434.7235, 284.8035
435.2056, 283.6322
435.6877, 282.7968
436.1698, 282.3065
436.6519, 282.0395
437.1341, 281.5866
437.6162, 281.2561
438.0983, 282.0086
438.5804, 284.8086
439.0625, 287.7882
439.5446, 289.0500
440.0268, 288.7209
440.5089, 287.2570
440.9910, 283.6439
441.4731, 279.7733
441.9552, 277.1054
442.4373, 275.7962
442.9195, 275.9743
443.4016, 279.3989
443.8837, 283.8043
444.3658, 286.4356
444.8479, 285.2817
445.3300, 283.4386
445.8122, 281.1200
446.2943, 278.5906
446.7764, 277.7177
447.2585, 280.9321
447.7406, 284.2099
448.2227, 285.4033
448.7049, 282.6913
449.1870, 281.3581
449.6691, 281.8613
450.1512, 283.5248
450.6333, 285.3468
451.1154, 287.4885
451.5976, 289.4919
452.0797, 291.3297
452.5618, 292.9757
453.0439, 293.7316
453.5260, 293.3202
454.0081, 292.8386
454.4903, 293.2504
454.9724, 294.5377
455.4545, 295.5927
455.9366, 296.1370
456.4187, 296.6834
456.9008, 298.4457
457.3830, 301.2410
457.8651, 303.4608
458.3472, 304.0858
458.8293, 303.7476
459.3114, 303.1279
459.7935, 302.2630
460.2757, 302.4520
460.7578, 305.8044
461.2399, 310.5430
461.7220, 314.1361
462.2041, 315.5306
462.6862, 316.3728
463.1684, 317.5987
463.6505, 319.0910
464.1326, 320.5514
464.6147, 321.9142
465.0968, 323.1754
465.5789, 324.7232
466.0611, 326.8463
466.5432, 327.1384
467.0253, 323.0194
467.5074, 317.9816
467.9895, 314.9730
468.4716, 316.7943
468.9538, 317.2098
469.4359, 315.3252
469.9180, 311.7964
470.4001, 308.6293
470.8822, 305.8905
471.3643, 303.4584
471.8465, 301.4738
472.3286, 300.0588
472.8107, 297.6623
473.2928, 293.9885
473.7749, 290.1481
474.2570, 287.4324
474.7392, 285.8370
475.2213, 284.6346
475.7034, 283.6999
476.1855, 283.0291
476.6676, 282.7337
477.1497, 282.7708
477.6319, 282.7576
478.1140, 282.5170
478.5961, 282.0554
479.0782, 281.1998
479.5603, 279.8874
480.0424, 278.8876
480.5246, 279.5187
481.0067, 280.6653
481.4888, 280.6886
481.9709, 277.5941
482.4530, 274.9433
482.9352, 275.1048
483.4173, 277.2898
483.8994, 279.0054
484.3815, 278.7062
484.8636, 278.3265
485.3457, 279.0132
485.8279, 281.3837
486.3100, 282.7827
486.7921, 282.4058
487.2742, 281.2766
487.7563, 280.1933
488.2384, 278.6292
488.7206, 278.0683
489.2027, 279.0016
489.6848, 281.0015
490.1669, 282.6429
490.6490, 283.9818
491.1311, 284.7551
491.6133, 284.5686
492.0954, 283.4473
492.5775, 283.0729
493.0596, 283.6146
493.5417, 284.2038
494.0238, 283.4223
494.5060, 281.7029
494.9881, 281.2356
495.4702, 283.0694
495.9523, 285.6075
496.4344, 286.3869
496.9165, 285.8227
497.3987, 285.4746
497.8808, 286.4771
498.3629, 287.9492
498.8450, 288.8537
499.3271, 289.0734
499.8092, 289.8567
500.2914, 292.4562
500.7735, 295.6508
501.2556, 298.3452
501.7377, 299.6708
502.2198, 301.1434
502.7019, 302.8113
503.1841, 304.8524
503.6662, 307.7576
504.1483, 312.4179
504.6304, 317.0992
505.1125, 321.1885
505.5946, 324.6027
506.0768, 328.5882
506.5589, 333.3771
507.0410, 338.3612
507.5231, 343.0806
508.0052, 347.5074
508.4873, 352.1136
508.9695, 357.5427
509.4516, 362.1133
509.9337, 362.1515
510.4158, 357.8307
510.8979, 352.3864
511.3800, 346.3165
511.8622, 340.3325
512.3443, 336.4025
512.8264, 334.4496
513.3085, 332.4615
513.7906, 328.0578
514.2728, 323.0351
514.7549, 319.9072
515.2370, 319.5982
515.7191, 319.8489
516.2012, 319.6257
516.6833, 318.9678
517.1655, 317.9340
517.6476, 316.3611
518.1297, 314.6015
518.6118, 312.7954
519.0939, 310.9335
519.5760, 308.8433
520.0582, 306.0421
520.5403, 303.4263
521.0224, 301.4790
521.5045, 300.5518
521.9866, 299.1148
522.4688, 296.5749
522.9509, 294.1744
523.4330, 293.5388
523.9151, 294.9311
524.3972, 296.6660
524.8793, 298.4613
525.3615, 300.2890
525.8436, 302.3810
526.3257, 304.7268
526.8078, 306.2873
527.2899, 305.5629
527.7720, 303.7834
528.2542, 304.2894
528.7363, 307.3058
529.2184, 309.8827
529.7005, 308.9568
530.1826, 306.2289
530.6647, 303.9500
531.1469, 302.7302
531.6290, 302.1423
532.1111, 302.0783
532.5932, 302.4797
533.0753, 303.2238
533.5574, 305.0353
534.0396, 306.4533
534.5217, 306.8068
535.0038, 305.9998
535.4859, 305.4330
535.9680, 305.5078
536.4501, 305.4702
536.9323, 304.7498
537.4144, 302.7101
537.8965, 301.8353
538.3786, 302.4989
538.8607, 303.8905
539.3428, 304.8517
539.8250, 305.3749
540.3071, 305.6790
540.7892, 305.6989
541.2713, 305.6432
541.7534, 306.1465
542.2355, 307.1528
542.7177, 308.0461
543.1998, 308.0860
543.6819, 307.9041
544.1640, 308.5364
544.6461, 310.0816
545.1282, 311.8844
545.6104, 313.6400
546.0925, 315.3205
546.5746, 316.8935
547.0567, 318.3250
547.5388, 319.6771
548.0209, 320.4843
548.5031, 321.2331
548.9852, 323.0103
549.4673, 326.4836
549.9494, 330.5003
550.4315, 335.0781
550.9136, 340.2115
551.3958, 344.2301
551.8779, 346.1343
552.3600, 348.6216
552.8421, 353.9720
553.3242, 362.6617
553.8063, 369.4196
554.2885, 373.5826
554.7706, 377.0273
555.2527, 382.1208
555.7348, 388.7242
556.2169, 396.0251
556.6990, 403.7832
557.1812, 411.9915
557.6633, 421.5120
558.1454, 431.7021
558.6275, 440.1727
559.1096, 445.9911
559.5917, 449.1548
560.0739, 449.4611
560.5560, 446.9131
561.0381, 442.0901
561.5202, 434.7274
562.0023, 425.5389
562.4844, 414.9795
562.9666, 401.6712
563.4487, 389.0927
563.9308, 377.2407
564.4129, 366.2840
564.8950, 356.5437
565.3771, 348.2397
565.8593, 340.8813
566.3414, 334.4517
566.8235, 328.9021
567.3056, 323.7432
567.7877, 318.9864
568.2698, 314.7371
568.7520, 311.1324
569.2341, 308.0890
569.7162, 305.2012
570.1983, 302.4906
570.6804, 299.8128
571.1625, 296.2835
571.6447, 292.9234
572.1268, 291.6366
572.6089, 293.7951
573.0910, 296.0864
573.5731, 296.5282
574.0552, 295.6325
574.5374, 294.3013
575.0195, 292.0876
575.5016, 290.2396
575.9837, 289.5898
576.4658, 289.9831
576.9479, 289.2986
577.4301, 286.2502
577.9122, 283.6183
578.3943, 282.8874
578.8764, 284.6667
579.3585, 284.7959
579.8406, 282.8317
580.3228, 280.2021
580.8049, 278.3092
581.2870, 277.1263
581.7691, 275.9891
582.2512, 274.6058
582.7333, 273.6686
583.2155, 274.9586
583.6975, 277.6817
584.1796, 279.4063
584.6617, 278.3905
585.1439, 276.2936
585.6260, 274.2210
586.1081, 272.2574
586.5902, 270.8102
587.0723, 270.3187
587.5544, 270.2073
588.0366, 270.0186
588.5187, 269.5007
589.0008, 269.8478
589.4829, 272.3126
589.9650, 274.9507
590.4471, 276.3751
590.9293, 276.5087
591.4114, 275.4663
591.8935, 272.7587
592.3756, 269.4147
592.8577, 267.3106
593.3398, 266.5182
593.8220, 266.0052
594.3041, 265.3063
594.7862, 264.7748
595.2683, 265.5027
595.7504, 267.3266
596.2325, 269.0963
596.7147, 270.3082
597.1968, 270.9526
597.6789, 270.7733
598.1610, 269.7386
598.6431, 268.9821
599.1252, 269.9055
599.6074, 270.9364
600.0895, 270.6762
600.5716, 267.6651
601.0537, 265.4746
601.5358, 265.0174
602.0179, 265.5299
602.5001, 266.0828
602.9822, 266.6320
603.4643, 267.3633
603.9464, 268.6142
604.4285, 269.9456
604.9106, 269.5182
605.3928, 267.0677
605.8749, 265.2614
606.3570, 265.8083
606.8391, 267.9890
607.3212, 269.5942
607.8033, 270.6236
608.2855, 271.2114
608.7676, 271.2676
609.2497, 271.0131
609.7318, 270.7211
610.2139, 270.4378
610.6960, 270.0846
611.1782, 268.7685
611.6603, 267.7323
612.1424, 268.2911
612.6245, 273.4397
613.1066, 276.9323
613.5887, 276.7991
614.0709, 274.7376
614.5530, 274.2358
615.0351, 276.3187
615.5172, 277.7642
615.9993, 277.5153
616.4814, 275.9310
616.9636, 274.7195
617.4457, 273.8333
617.9278, 273.8612
618.4099, 275.7831
618.8920, 278.8580
619.3741, 281.1514
619.8563, 282.6104
620.3384, 283.5325
620.8205, 283.7547
621.3026, 283.7609
621.7847, 284.2005
622.2668, 285.4274
622.7490, 286.5057
623.2311, 286.8981
623.7132, 286.9580
624.1953, 287.1379
624.6774, 287.0153
625.1595, 287.6528
625.6417, 289.3751
626.1238, 291.9069
626.6059, 294.7390
627.0880, 298.5170
627.5701, 300.5918
628.0522, 299.1214
628.5344, 295.2029
629.0165, 294.6068
629.4986, 297.3889
629.9807, 301.0477
630.4628, 304.2219
630.9449, 306.9162
631.4271, 309.0411
631.9092, 310.5652
632.3913, 312.1503
632.8734, 314.7826
633.3555, 317.4646
633.8376, 319.1233
634.3198, 318.9232
634.8019, 318.8314
635.2840, 318.8565
635.7661, 319.4602
636.2482, 321.3482
636.7303, 325.6933
637.2125, 329.3163
637.6946, 331.4673
638.1767, 332.7635
638.6588, 334.9984
639.1409, 338.3014
639.6230, 341.7940
640.1052, 345.2012
640.5873, 348.5640
641.0694, 351.7318
641.5515, 354.7920
642.0336, 358.3838
642.5157, 363.0376
642.9979, 368.4357
643.4800, 374.2654
643.9621, 380.5693
644.4442, 386.8611
644.9263, 392.4870
645.4084, 398.3435
645.8906, 405.0096
646.3727, 411.8861
646.8548, 420.9761
647.3369, 433.6089
647.8190, 447.5593
648.3011, 459.6610
648.7833, 468.8564
649.2654, 479.9558
649.7475, 493.7554
650.2296, 509.9521
650.7117, 528.5043
651.1938, 549.4832
651.6760, 571.7811
652.1581, 595.0255
652.6402, 619.5906
653.1223, 646.2950
653.6044, 674.7279
654.0865, 704.8826
654.5687, 736.0583
655.0508, 768.9736
655.5329, 804.7364
656.0150, 843.3184
656.4971, 882.9747
656.9792, 921.3239
657.4614, 962.3784
657.9435, 1008.103
658.4256, 1058.826
658.9077, 1113.099
659.3898, 1170.990
659.8719, 1232.288
660.3541, 1296.832
660.8362, 1364.325
661.3183, 1435.437
661.8004, 1509.263
662.2825, 1586.192
662.7646, 1667.549
663.2468, 1752.119
663.7289, 1837.342
664.2110, 1926.406
664.6931, 2010.635
665.1752, 2088.482
665.6573, 2156.546
666.1395, 2208.637
666.6216, 2245.936
667.1037, 2263.824
667.5858, 2261.006
668.0679, 2237.787
668.5500, 2190.451
669.0322, 2113.192
669.5143, 2022.258
669.9964, 1921.580
670.4785, 1811.715
670.9606, 1700.944
671.4427, 1588.506
671.9249, 1478.563
672.4070, 1370.216
672.8891, 1266.010
673.3712, 1173.460
673.8533, 1092.754
674.3354, 1020.526
674.8176, 954.8626
675.2997, 894.9120
675.7818, 840.5631
676.2639, 791.5086
676.7460, 747.2953
677.2281, 710.2232
677.7103, 677.7882
678.1924, 647.2294
678.6745, 618.4332
679.1566, 592.4977
679.6387, 569.8320
680.1208, 549.8952
680.6030, 530.8694
681.0851, 513.0589
681.5672, 496.9639
682.0493, 483.2900
682.5314, 471.1843
683.0135, 459.7290
683.4957, 448.7911
683.9778, 438.3142
684.4599, 427.7300
684.9420, 417.9105
685.4241, 409.3560
685.9063, 402.0956
686.3884, 395.2194
686.8705, 388.2585
687.3526, 381.9819
687.8347, 376.5687
688.3168, 371.9951
688.7990, 368.9211
689.2811, 368.0638
689.7632, 367.0135
690.2453, 363.7471
690.7274, 358.3901
691.2095, 352.5019
691.6917, 345.9988
692.1738, 340.4352
692.6559, 338.3327
693.1380, 338.1920
693.6201, 337.4733
694.1022, 335.3983
694.5844, 333.2225
695.0665, 331.5350
695.5486, 330.2253
696.0307, 329.1490
696.5128, 328.8045
696.9949, 328.0093
697.4771, 326.3568
697.9592, 324.3239
698.4413, 322.9075
698.9234, 322.2310
699.4055, 321.7381
699.8876, 321.4528
700.3698, 321.1033
700.8519, 319.7372
701.3340, 317.5288
701.8161, 315.6653
702.2982, 314.7930
702.7803, 314.5696
703.2625, 314.8943
703.7446, 315.6368
704.2267, 316.1431
704.7088, 316.3050
705.1909, 316.0063
705.6730, 315.0342
706.1552, 313.3125
706.6373, 311.8341
707.1194, 310.7840
707.6015, 309.7108
708.0836, 308.1400
708.5657, 305.9868
709.0479, 305.2685
709.5300, 306.1617
710.0121, 307.3617
710.4942, 308.1431
710.9763, 308.2592
711.4584, 306.7365
711.9406, 303.2056
712.4227, 300.0373
712.9048, 299.1539
713.3869, 299.4276
713.8690, 299.7197
714.3511, 299.8842
714.8333, 299.8675
715.3154, 299.6859
715.7975, 299.3133
716.2796, 298.6796
716.7617, 297.6996
717.2438, 296.6942
717.7260, 295.5678
718.2081, 294.6690
718.6902, 294.9550
719.1723, 296.2337
719.6544, 296.9848
720.1365, 296.7246
720.6187, 295.7419
721.1008, 293.6983
721.5829, 291.2018
722.0650, 289.6290
722.5471, 290.4831
723.0292, 291.4824
723.5114, 291.8036
723.9935, 291.4695
724.4756, 290.6225
724.9577, 288.5528
725.4398, 287.1444
725.9219, 287.1354
726.4041, 288.2626
726.8862, 288.9613
727.3683, 289.1967
727.8504, 289.5242
728.3325, 290.7537
728.8146, 292.1591
729.2968, 291.9875
729.7789, 290.3674
730.2610, 288.5119
730.7431, 286.6729
731.2252, 285.2732
731.7073, 284.5025
732.1895, 284.3498
732.6716, 285.2726
733.1537, 289.7826
733.6358, 293.1360
734.1179, 292.3244
734.6000, 286.0826
735.0822, 283.3284
735.5643, 284.7236
736.0464, 287.2552
736.5285, 288.4616
737.0106, 288.5513
737.4927, 288.0999
737.9749, 287.0875
738.4570, 286.3462
738.9391, 287.1295
739.4212, 288.3551
739.9033, 288.6280
740.3854, 286.9597
740.8676, 286.0909
741.3497, 287.7394
741.8318, 290.0362
742.3139, 291.1046
742.7960, 290.6636
743.2781, 289.4773
743.7603, 287.0756
744.2424, 284.7917
744.7245, 284.9780
745.2066, 287.3085
745.6887, 289.0368
746.1708, 289.3347
746.6530, 289.2962
747.1351, 290.1172
747.6172, 291.5061
748.0993, 292.9636
748.5814, 295.2936
749.0635, 296.5130
749.5457, 295.0904
750.0278, 292.2131
750.5099, 290.4266
750.9920, 289.9127
751.4741, 290.3482
751.9562, 292.2442
752.4384, 294.6342
752.9205, 294.5417
753.4026, 292.0541
753.8847, 290.3077
754.3668, 290.9499
754.8489, 292.5038
755.3311, 292.7401
755.8132, 292.0872
756.2953, 291.7900
756.7774, 292.9670
757.2595, 294.1088
757.7416, 294.3496
758.2238, 293.8570
758.7059, 293.7243
759.1880, 294.2225
759.6701, 294.7357
760.1522, 295.1218
760.6343, 295.3758
761.1165, 295.2752
761.5986, 294.7775
762.0807, 294.8685
762.5628, 296.9760
763.0449, 299.6319
763.5270, 299.7579
764.0092, 297.8432
764.4913, 296.5318
764.9734, 298.2936
765.4555, 300.2545
765.9376, 300.3027
766.4197, 298.3561
766.9019, 297.7734
767.3840, 300.0461
767.8661, 301.7872
768.3482, 301.2282
768.8303, 298.4971
769.3124, 296.8269
769.7946, 296.2465
770.2767, 296.5370
770.7588, 298.4692
771.2409, 300.8376
771.7230, 300.9778
772.2051, 298.9271
772.6873, 297.4895
773.1694, 299.0217
773.6515, 301.1954
774.1336, 302.3947
774.6157, 302.2491
775.0978, 302.4631
775.5800, 303.1733
776.0621, 304.1464
776.5442, 305.5350
777.0263, 307.4179
777.5084, 307.5005
777.9905, 305.5724
778.4727, 303.8793
778.9548, 304.8987
779.4369, 307.2758
779.9190, 308.8956
780.4011, 309.5424
780.8832, 309.0683
781.3654, 305.7362
781.8475, 302.4088
782.3296, 301.5278
782.8117, 304.6915
783.2938, 306.0093
783.7759, 304.3006
784.2581, 302.3994
784.7402, 302.8734
785.2223, 305.7256
785.7044, 306.8730
786.1865, 306.0069
786.6686, 304.7326
787.1508, 304.5480
787.6329, 304.9520
788.1150, 305.3255
788.5971, 305.6613
789.0792, 305.3180
789.5613, 302.8408
790.0435, 300.2973
790.5256, 299.4106
791.0077, 300.7552
791.4898, 302.5663
791.9719, 305.3332
792.4540, 307.7190
792.9362, 308.0431
793.4183, 306.5377
793.9004, 306.1423
794.3825, 307.2279
794.8646, 308.1369
795.3467, 306.8316
795.8289, 304.5705
796.3110, 303.0122
796.7931, 302.4447
797.2752, 302.4991
797.7573, 304.1952
798.2394, 305.6798
798.7216, 305.2526
799.2037, 301.5172
799.6858, 299.5596
800.1679, 299.5340
800.6500, 300.9308
801.1321, 304.3418
801.6143, 309.0020
802.0964, 310.7102
802.5785, 308.7202
803.0606, 306.4232
803.5427, 307.3697
804.0248, 309.3521
804.5070, 309.7224
804.9891, 307.1670
805.4712, 305.5660
805.9533, 306.4215
806.4354, 308.0357
806.9175, 309.2793
807.3997, 310.1237
807.8818, 310.6453
808.3639, 310.7344
808.8460, 310.9159
809.3281, 312.1234
809.8102, 313.8116
810.2924, 314.4433
810.7745, 313.7224
811.2566, 312.8226
811.7387, 312.4346
812.2208, 312.3333
812.7029, 312.2770
813.1851, 312.0387
813.6672, 312.4496
814.1493, 314.0829
814.6314, 315.7034
815.1135, 316.3328
815.5956, 315.9480
816.0778, 314.8841
816.5599, 313.0091
817.0420, 311.6050
817.5241, 312.1524
818.0062, 313.8835
818.4883, 316.0067
818.9705, 318.5893
819.4526, 319.8940
819.9347, 317.6525
820.4168, 314.8774
820.8989, 313.9182
821.3810, 315.3611
821.8632, 316.3359
822.3453, 316.6950
822.8274, 316.9158
823.3095, 317.6373
823.7916, 318.6301
824.2737, 318.2567
824.7559, 316.4258
825.2380, 314.7948
825.7201, 314.5945
826.2022, 315.3429
826.6843, 316.8317
827.1664, 319.1496
827.6486, 321.0092
828.1307, 322.0643
828.6128, 322.6306
829.0949, 322.7280
829.5770, 322.3028
830.0591, 322.2207
830.5413, 322.4940
831.0234, 323.0471
831.5055, 324.1337
831.9876, 325.3557
832.4697, 325.6138
832.9518, 324.9729
833.4340, 324.9454
833.9161, 327.3024
834.3982, 329.8126
834.8803, 330.9160
835.3624, 330.3866
835.8445, 330.4303
836.3267, 331.3256
836.8088, 332.2441
837.2909, 332.6938
837.7730, 332.8145
838.2551, 333.2870
838.7372, 334.1322
839.2194, 335.6414
839.7015, 338.2555
840.1836, 341.4470
840.6657, 344.6119
841.1478, 347.8507
841.6299, 351.6850
842.1121, 357.1599
842.5942, 362.2903
843.0763, 366.1743
843.5584, 369.1475
844.0405, 373.3294
844.5226, 378.9427
845.0048, 384.0462
845.4869, 387.1195
845.9690, 389.7144
846.4511, 394.9778
846.9332, 402.3712
847.4153, 410.0845
847.8975, 416.9725
848.3796, 424.2341
848.8617, 432.7264
849.3438, 442.1149
849.8259, 450.9980
850.3080, 458.8417
850.7902, 467.4438
851.2723, 477.2042
851.7544, 487.8180
852.2365, 498.6628
852.7186, 509.7184
853.2007, 521.1047
853.6829, 533.9744
854.1650, 545.1628
854.6471, 551.7874
855.1292, 554.9366
855.6113, 556.4467
856.0934, 557.7642
856.5756, 555.9448
857.0577, 549.8267
857.5398, 541.2699
858.0219, 532.8839
858.5040, 524.7256
858.9861, 514.5289
859.4683, 501.3604
859.9504, 487.8212
860.4325, 477.5834
860.9146, 469.1734
861.3967, 459.9865
861.8788, 448.3374
862.3610, 438.7720
862.8431, 434.6928
863.3252, 432.5479
863.8073, 428.9401
864.2894, 423.0060
864.7715, 418.2842
865.2537, 415.0617
865.7358, 412.3210
866.2179, 408.9963
866.7000, 405.3344
867.1821, 402.0377
867.6642, 399.1674
868.1464, 396.2866
868.6285, 392.7662
869.1106, 389.3288
869.5927, 386.3357
870.0748, 383.7014
870.5569, 382.4362
871.0391, 383.1255
871.5212, 384.0935
872.0033, 384.5206
872.4854, 384.3937
872.9675, 383.3166
873.4496, 381.3572
873.9318, 379.8611
874.4139, 379.8781
874.8960, 380.6492
875.3781, 381.8424
875.8602, 383.3171
876.3423, 384.2171
876.8245, 384.1851
877.3066, 383.6525
877.7887, 382.4254
878.2708, 380.8361
878.7529, 380.4564
879.2350, 381.2922
879.7172, 381.9910
880.1993, 382.0125
880.6814, 381.5559
881.1635, 380.7410
881.6456, 379.6583
882.1277, 378.5140
882.6099, 376.7082
883.0920, 375.6764
883.5741, 376.6230
884.0562, 378.2066
884.5383, 378.0240
885.0204, 375.6347
885.5026, 374.3371
885.9847, 374.8472
886.4668, 376.2432
886.9489, 377.6374
887.4310, 378.9054
887.9131, 379.6541
888.3953, 379.4356
888.8774, 379.6989
889.3595, 381.7835
889.8416, 384.2108
890.3237, 385.6316
890.8058, 386.0014
891.2880, 385.2430
891.7701, 383.0651
892.2522, 380.6709
892.7343, 378.5285
893.2164, 377.0943
893.6985, 378.3309
894.1807, 382.3370
894.6628, 385.5610
895.1449, 385.0211
895.6270, 383.4554
896.1091, 382.6084
896.5912, 382.6650
897.0734, 382.6552
897.5555, 382.5334
898.0376, 382.4390
898.5197, 382.3530
899.0018, 382.3714
899.4839, 383.0202
899.9661, 384.1759
900.4482, 385.1146
900.9303, 385.4693
901.4124, 385.4562
901.8945, 384.7322
902.3766, 383.7219
902.8588, 383.9125
903.3409, 386.7328
903.8230, 388.2317
904.3051, 387.2581
904.7872, 385.1480
905.2693, 384.6855
905.7515, 385.5864
906.2336, 386.0591
906.7157, 385.4688
907.1978, 384.7109
907.6799, 384.3568
908.1620, 384.3662
908.6442, 384.7361
909.1263, 386.1375
909.6084, 386.6195
910.0905, 385.7127
910.5726, 384.4837
911.0547, 383.7993
911.5369, 383.6513
912.0190, 384.0401
912.5011, 384.9926
912.9832, 385.7306
913.4653, 385.1104
913.9474, 384.3145
914.4296, 384.7983
914.9117, 386.7700
915.3938, 387.5902
915.8759, 385.6318
916.3580, 384.2198
916.8401, 384.9874
917.3223, 387.4207
917.8044, 388.4769
918.2865, 388.2160
918.7686, 387.8229
919.2507, 387.8409
919.7328, 388.0895
920.2150, 388.6893
920.6971, 389.3727
921.1792, 389.4903
921.6613, 388.1940
922.1434, 387.1945
922.6255, 386.6752
923.1077, 386.6207
923.5898, 387.3375
924.0719, 388.7350
924.5540, 389.1156
925.0361, 387.9377
925.5182, 386.5105
926.0004, 386.1146
926.4825, 386.2328
926.9646, 386.1269
927.4467, 385.2360
927.9288, 385.4416
928.4109, 387.9806
928.8931, 390.3104
929.3752, 390.5074
929.8573, 388.6196
930.3394, 386.8830
930.8215, 385.3138
931.3036, 384.1318
931.7858, 383.4629
932.2679, 383.3044
932.7500, 384.1956
933.2321, 385.8513
933.7142, 386.2438
934.1964, 383.1797
934.6785, 381.2076
935.1606, 381.9393
935.6427, 384.2794
936.1248, 384.8295
936.6069, 383.7282
937.0891, 382.6138
937.5712, 381.7936
938.0533, 381.6070
938.5354, 383.0633
939.0175, 385.1315
939.4996, 386.2730
939.9818, 384.9632
940.4639, 384.4728
940.9460, 385.2957
941.4281, 386.4469
941.9102, 386.8131
942.3923, 386.5138
942.8745, 386.8841
943.3566, 388.0572
943.8387, 388.8088
944.3208, 387.9870
944.8029, 386.4228
945.2850, 384.2741
945.7672, 381.5426
946.2493, 380.9200
946.7314, 384.0250
947.2135, 386.4109
947.6956, 385.6819
948.1777, 383.2495
948.6599, 384.6993
949.1420, 389.4235
949.6241, 394.0099
950.1062, 397.3923
950.5883, 399.4700
951.0704, 399.1894
951.5526, 397.7705
952.0347, 397.5916
952.5168, 399.5483
952.9989, 401.2711
953.4810, 402.5208
953.9631, 403.6224
954.4453, 405.1031
954.9274, 406.7828
955.4095, 408.0187
955.8916, 408.7004
956.3737, 409.1277
956.8558, 409.2613
957.3380, 409.3913
957.8201, 409.7127
958.3022, 410.2336
958.7843, 411.0056
959.2664, 412.1370
959.7485, 413.1906
960.2307, 414.0675
960.7128, 414.6452
961.1949, 414.2094
961.6770, 413.1373
962.1591, 412.7598
962.6412, 414.4049
963.1234, 416.0726
963.6055, 416.9681
964.0876, 417.3802
964.5697, 417.7212
965.0518, 417.8550
965.5339, 418.6312
966.0161, 420.2415
966.4982, 422.2326
966.9803, 424.4097
967.4624, 426.4813
967.9445, 427.6933
968.4266, 427.7878
968.9088, 428.3971
969.3909, 431.6645
969.8730, 434.0596
970.3551, 433.2913
970.8372, 429.6247
971.3193, 427.6002
971.8015, 427.2328
972.2836, 428.4120
972.7657, 432.1710
973.2478, 436.4858
973.7299, 438.9206
974.2120, 440.0181
974.6942, 441.1617
975.1763, 443.9237
975.6584, 444.9845
976.1405, 442.8778
976.6226, 440.0770
977.1047, 440.2790
977.5869, 443.2492
978.0690, 446.6894
978.5511, 450.3824
979.0332, 453.3549
979.5153, 454.1855
979.9974, 454.3439
980.4796, 455.1432
980.9617, 456.8060
981.4438, 458.6787
981.9259, 460.8867
982.4080, 463.0430
982.8901, 465.1077
983.3723, 466.9490
983.8544, 467.6755
984.3365, 467.6790
984.8186, 468.5891
985.3007, 471.9416
985.7828, 475.5771
986.2650, 478.4207
986.7471, 480.9165
987.2292, 483.8988
987.7113, 487.6646
988.1934, 490.6468
988.6755, 492.4714
989.1577, 494.4307
989.6398, 497.8740
990.1219, 502.4315
990.6040, 507.6618
991.0861, 513.5201
991.5682, 519.3038
992.0504, 524.3799
992.5325, 529.7077
993.0146, 535.7429
993.4967, 542.3358
993.9788, 548.8881
994.4609, 555.4120
994.9431, 563.5801
995.4252, 574.5509
995.9073, 586.7972
996.3894, 598.3527
996.8715, 610.2367
997.3536, 624.3618
997.8358, 641.8060
998.3179, 660.4418
998.8000, 679.6609
999.2821, 700.8922
999.7642, 725.7428
1000.246, 754.2723
1000.728, 785.3524
1001.211, 819.2557
1001.693, 855.0321
1002.175, 891.5181
1002.657, 930.7383
1003.139, 974.0252
1003.621, 1018.958
1004.103, 1070.008
1004.585, 1118.630
1005.068, 1171.136
1005.550, 1228.898
1006.032, 1291.338
1006.514, 1358.677
1006.996, 1430.533
1007.478, 1507.716
1007.960, 1590.268
1008.442, 1677.472
1008.924, 1770.478
1009.407, 1868.751
1009.889, 1974.995
1010.371, 2089.214
1010.853, 2201.325
1011.335, 2312.690
1011.817, 2410.216
1012.299, 2493.253
1012.781, 2553.392
1013.263, 2587.196
1013.746, 2592.243
1014.228, 2560.076
1014.710, 2482.865
1015.192, 2382.540
1015.674, 2258.618
1016.156, 2119.337
1016.638, 1967.757
1017.120, 1809.624
1017.603, 1662.620
1018.085, 1528.357
1018.567, 1405.891
1019.049, 1294.063
1019.531, 1194.427
1020.013, 1106.781
1020.495, 1030.662
1020.977, 966.5366
1021.459, 915.0039
1021.942, 870.3245
1022.424, 830.5933
1022.906, 795.3581
1023.388, 763.5719
1023.870, 735.3022
1024.352, 710.6751
1024.834, 691.3036
1025.316, 673.6010
1025.799, 657.2496
1026.281, 642.2773
1026.763, 628.4820
1027.245, 616.1611
1027.727, 605.9129
1028.209, 597.7471
1028.691, 590.9047
1029.173, 585.3820
1029.656, 580.5149
1030.138, 575.7275
1030.620, 571.2275
1031.102, 568.1185
1031.584, 566.7926
1032.066, 565.1704
1032.548, 562.6028
1033.030, 559.7806
1033.512, 557.6016
1033.995, 555.9457
1034.477, 554.4486
1034.959, 552.6019
1035.441, 552.6012
1035.923, 557.2004
1036.405, 561.2107
1036.887, 561.1583
1037.369, 557.7618
1037.851, 557.9856
1038.334, 561.4536
1038.816, 564.6129
1039.298, 564.0574
1039.780, 563.9474
1040.262, 567.7534
1040.744, 573.8443
1041.226, 578.9055
1041.708, 582.4913
1042.191, 585.9798
1042.673, 589.3700
1043.155, 593.2467
1043.637, 598.5502
1044.119, 604.6779
1044.601, 610.8875
1045.083, 617.1300
1045.565, 622.5460
1046.047, 627.2145
1046.530, 630.5132
1047.012, 632.1081
1047.494, 632.2814
1047.976, 632.1407
1048.458, 631.4720
1048.940, 628.4688
1049.422, 622.1840
1049.904, 614.9141
1050.386, 608.5151
1050.869, 601.8484
1051.351, 593.5440
1051.833, 583.3005
1052.315, 572.8987
1052.797, 562.0255
1053.279, 552.3387
1053.761, 545.1450
1054.243, 539.2892
1054.726, 532.7885
1055.208, 525.9290
1055.690, 519.4736
1056.172, 513.3323
1056.654, 508.2502
1057.136, 504.8936
1057.618, 501.7642
1058.100, 496.1989
1058.583, 488.9698
1059.065, 485.8288
1059.547, 487.1245
1060.029, 488.4365
1060.511, 486.8286
1060.993, 484.1689
1061.475, 480.9293
1061.957, 477.5572
1062.439, 476.0756
1062.922, 476.9890
1063.404, 476.2885
1063.886, 472.2988
1064.368, 468.3895
1064.850, 470.1537
1065.332, 473.9071
1065.814, 474.2862
1066.296, 469.2645
1066.778, 465.5247
1067.261, 463.7632
1067.743, 463.2457
1068.225, 464.1258
1068.707, 465.7172
1069.189, 465.3862
1069.671, 463.6736
1070.153, 462.5353
1070.635, 463.6197
1071.118, 464.3928
1071.600, 463.4130
1072.082, 461.8969
1072.564, 461.1339
1073.046, 461.2330
1073.528, 460.6375
1074.010, 459.2784
1074.492, 458.0188
1074.974, 457.5203
1075.457, 457.4261
1075.939, 457.6879
1076.421, 458.1098
1076.903, 457.9736
1077.385, 457.1397
1077.867, 455.9547
1078.349, 454.2707
1078.831, 452.8324
1079.313, 452.5059
1079.796, 453.1678
1080.278, 455.0023
1080.760, 458.1390
1081.242, 460.3608
1081.724, 460.5077
1082.206, 459.9958
1082.688, 459.0379
1083.170, 457.9122
1083.652, 457.4584
1084.135, 457.6512
1084.617, 458.5566
1085.099, 460.7511
1085.581, 462.2186
1086.063, 460.9343
1086.545, 458.9189
1087.027, 458.1575
1087.509, 458.8909
1087.992, 458.3208
1088.474, 456.3044
1088.956, 455.2704
1089.438, 458.0517
1089.920, 461.3831
1090.402, 461.1726
1090.884, 459.0355
1091.366, 458.4883
1091.849, 461.6239
1092.331, 463.1306
1092.813, 462.3851
1093.295, 460.9435
1093.777, 460.0834
1094.259, 459.7469
1094.741, 459.7750
1095.223, 460.1811
1095.705, 461.1300
1096.188, 464.2948
1096.670, 465.8271
1097.152, 464.1801
1097.634, 461.0727
1098.116, 459.7800
1098.598, 459.9107
1099.080, 458.8502
1099.562, 455.9547
1100.044, 454.4272
1100.527, 458.1575
1101.009, 462.3806
1101.491, 463.6730
1101.973, 462.5589
1102.455, 462.1869
1102.937, 462.5688
1103.419, 463.1780
1103.901, 463.9746
1104.384, 464.5570
1104.866, 464.3804
1105.348, 463.8023
1105.830, 463.1565
1106.312, 462.3417
1106.794, 462.1985
1107.276, 462.9091
1107.758, 463.6160
1108.240, 463.5137
1108.723, 463.3652
1109.205, 464.9568
1109.687, 467.5373
1110.169, 469.3843
1110.651, 469.5992
1111.133, 469.5558
1111.615, 469.4335
1112.097, 469.0273
1112.579, 467.6830
1113.062, 465.9211
1113.544, 465.8341
1114.026, 467.2915
1114.508, 469.0413
1114.990, 471.3778
1115.472, 472.7388
1115.954, 472.1890
1116.436, 470.6361
1116.919, 468.9731
1117.401, 467.2788
1117.883, 467.4412
1118.365, 469.7306
1118.847, 471.9350
1119.329, 472.2904
1119.811, 472.0671
1120.293, 472.0558
1120.776, 472.2220
1121.258, 472.3451
1121.740, 472.4543
1122.222, 472.1729
1122.704, 471.3421
1123.186, 470.3780
1123.668, 469.2007
1124.150, 468.4352
1124.632, 469.1061
1125.115, 471.5872
1125.597, 472.5687
1126.079, 471.3138
1126.561, 471.0738
1127.043, 473.7885
1127.525, 477.1349
1128.007, 476.9594
1128.489, 474.7958
1128.971, 473.3433
1129.454, 473.8051
1129.936, 473.2691
1130.418, 470.6505
1130.900, 468.6108
1131.382, 469.1790
1131.864, 471.2833
1132.346, 471.6920
1132.828, 470.8869
1133.311, 470.3997
1133.793, 471.2227
1134.275, 471.9176
1134.757, 471.9252
1135.239, 471.9603
1135.721, 472.8318
1136.203, 474.3691
1136.685, 475.3653
1137.167, 475.7789
1137.650, 475.4555
1138.132, 473.0637
1138.614, 471.3251
1139.096, 472.2753
1139.578, 474.2113
1140.060, 474.7861
1140.542, 473.9862
1141.024, 473.1086
1141.506, 472.2475
1141.989, 471.9845
1142.471, 473.6659
1142.953, 475.2538
1143.435, 475.2496
1143.917, 473.9311
1144.399, 472.2060
1144.881, 469.8648
1145.363, 468.9570
1145.846, 469.9871
1146.328, 471.6184
1146.810, 473.5299
1147.292, 474.6335
1147.774, 472.8126
1148.256, 468.2182
1148.738, 467.6815
1149.220, 472.6651
1149.703, 476.1459
1150.185, 475.8773
1150.667, 474.2701
1151.149, 474.2381
1151.631, 474.9939
1152.113, 475.4497
1152.595, 475.3704
1153.077, 475.6187
1153.559, 476.8993
1154.042, 476.6002
1154.524, 472.7418
1155.006, 468.0716
1155.488, 468.6664
1155.970, 471.9817
1156.452, 472.7964
1156.934, 468.4959
1157.416, 465.8671
1157.898, 466.1699
1158.381, 467.2455
1158.863, 467.9943
1159.345, 468.6056
1159.827, 469.5941
1160.309, 470.8926
1160.791, 472.3726
1161.273, 474.8787
1161.755, 475.8863
1162.238, 474.2217
1162.720, 471.9416
1163.202, 470.3053
1163.684, 469.3267
1164.166, 469.1845
1164.648, 469.7493
1165.130, 470.4504
1165.612, 471.2716
1166.094, 471.8317
1166.577, 471.7151
1167.059, 471.5502
1167.541, 472.1124
1168.023, 473.2588
1168.505, 473.7750
1168.987, 473.6334
1169.469, 472.9829
1169.951, 470.6932
1170.433, 469.3018
1170.916, 470.6293
1171.398, 473.0858
1171.880, 474.9804
1172.362, 476.3000
1172.844, 476.0532
1173.326, 474.2191
1173.808, 472.6947
1174.290, 473.1133
1174.773, 473.9285
1175.255, 474.4561
1175.737, 474.6832
1176.219, 474.5818
1176.701, 474.1545
1177.183, 473.2401
1177.665, 471.7673
1178.147, 470.6159
1178.630, 470.7122
1179.112, 471.1598
1179.594, 471.1908
1180.076, 471.0604
1180.558, 471.8936
1181.040, 473.7851
1181.522, 474.5680
1182.004, 473.6107
1182.486, 473.0045
1182.969, 475.8485
1183.451, 478.8004
1183.933, 478.1240
1184.415, 479.9287
1184.897, 481.1939
1185.379, 479.7433
1185.861, 482.2990
1186.343, 480.4835
1186.825, 477.9217
1187.308, 478.0888
1187.790, 479.2841
1188.272, 480.1744
1188.754, 480.6221
1189.236, 479.7022
1189.718, 477.1877
1190.200, 475.7127
1190.682, 476.4806
1191.165, 477.5728
1191.647, 476.4627
1192.129, 474.8895
1192.611, 474.5630
1193.093, 475.6368
1193.575, 479.1786
1194.057, 485.9130
1194.539, 489.5414
1195.021, 486.3699
1195.504, 481.6229
1195.986, 481.2028
1196.468, 482.7310
1196.950, 483.1499
1197.432, 481.9146
1197.914, 481.1923
1198.396, 481.0287
1198.878, 481.0540
1199.360, 481.1288
1199.843, 481.2549
1200.325, 481.7058
1200.807, 482.0909
1201.289, 481.5806
1201.771, 479.4977
1202.253, 479.8088
1202.735, 482.9953
1203.217, 485.4890
1203.700, 484.8407
1204.182, 483.0140
1204.664, 481.4093
1205.146, 480.5013
1205.628, 481.3358
1206.110, 485.0230
1206.592, 486.5871
1207.074, 485.7183
1207.557, 484.7423
1208.039, 485.3604
1208.521, 486.4264
1209.003, 486.9167
1209.485, 486.8623
1209.967, 486.2024
1210.449, 484.4472
1210.931, 483.6094
1211.413, 483.7521
1211.896, 484.3949
1212.378, 484.9562
1212.860, 486.0553
1213.342, 489.4412
1213.824, 493.5889
1214.306, 495.0761
1214.788, 492.8274
1215.270, 491.1441
1215.752, 490.1294
1216.235, 489.6461
1216.717, 489.9848
1217.199, 490.4562
1217.681, 490.7559
1218.163, 490.5580
1218.645, 488.8574
1219.127, 484.6058
1219.609, 483.5682
1220.092, 486.3210
1220.574, 488.9800
1221.056, 487.6310
1221.538, 485.5432
1222.020, 485.7477
1222.502, 487.5765
1222.984, 489.2782
1223.466, 490.7844
1223.948, 492.1972
1224.431, 493.5458
1224.913, 494.4756
1225.395, 494.4031
1225.877, 494.0670
1226.359, 494.4470
1226.841, 494.9162
1227.323, 493.7101
1227.805, 490.2965
1228.287, 489.1942
1228.770, 490.8175
1229.252, 492.8287
1229.734, 493.6860
1230.216, 493.8983
1230.698, 493.1688
1231.180, 492.2704
1231.662, 493.0429
1232.144, 495.6647
1232.627, 497.3974
1233.109, 498.0004
1233.591, 498.2739
1234.073, 498.4584
1234.555, 498.8979
1235.037, 500.2295
1235.519, 501.8151
1236.001, 502.5794
1236.484, 502.5226
1236.966, 501.2097
1237.448, 498.6223
1237.930, 496.5537
1238.412, 496.5687
1238.894, 497.0709
1239.376, 496.8579
1239.858, 496.7211
1240.340, 498.7221
1240.823, 502.4603
1241.305, 503.1086
1241.787, 500.3197
1242.269, 497.8721
1242.751, 497.9412
1243.233, 499.2403
1243.715, 502.3072
1244.197, 505.2420
1244.679, 504.1937
1245.162, 500.1789
1245.644, 498.7805
1246.126, 500.3832
1246.608, 502.6576
1247.090, 506.0276
1247.572, 507.5612
1248.054, 505.5759
1248.536, 502.5926
1249.019, 502.9890
1249.501, 505.5391
1249.983, 505.8181
1250.465, 503.7286
1250.947, 503.0028
1251.429, 507.0281
1251.911, 510.1432
1252.393, 511.2081
1252.875, 510.8587
1253.358, 509.1862
1253.840, 507.0102
1254.322, 506.3011
1254.804, 507.0716
1255.286, 507.9344
1255.768, 508.4417
1256.250, 509.2294
1256.732, 510.6269
1257.214, 511.7342
1257.697, 511.1938
1258.179, 509.7695
1258.661, 508.2131
1259.143, 506.7987
1259.625, 507.0028
1260.107, 509.7758
1260.589, 511.9153
1261.071, 512.9453
1261.554, 513.3613
1262.036, 513.6278
1262.518, 513.6210
1263.000, 513.1235
1263.482, 512.1918
1263.964, 510.9402
1264.446, 508.8097
1264.928, 509.5754
1265.411, 514.2208
1265.893, 517.6022
1266.375, 512.2488
1266.857, 506.1722
1267.339, 507.6467
1267.821, 513.9855
1268.303, 515.5893
1268.785, 511.8997
1269.267, 511.4370
1269.750, 515.2166
1270.232, 518.5220
1270.714, 517.3190
1271.196, 515.0507
1271.678, 513.1738
1272.160, 512.0861
1272.642, 512.9465
1273.124, 515.5397
1273.606, 516.5851
1274.089, 515.9032
1274.571, 515.1768
1275.053, 514.5972
1275.535, 515.3152
1276.017, 518.6406
1276.499, 522.3947
1276.981, 523.6940
1277.463, 522.9473
1277.946, 521.4077
1278.428, 519.2778
1278.910, 517.1860
1279.392, 514.9012
1279.874, 513.5458
1280.356, 513.5062
1280.838, 513.9580
1281.320, 513.5712
1281.802, 513.1810
1282.285, 515.1877
1282.767, 518.9683
1283.249, 521.3842
1283.731, 520.9915
1284.213, 520.2430
1284.695, 519.0614
1285.177, 518.5583
1285.659, 520.5936
1286.141, 523.2696
1286.624, 524.0566
1287.106, 523.4688
1287.588, 523.1111
1288.070, 523.1208
1288.552, 523.4660
1289.034, 524.1988
1289.516, 524.6405
1289.998, 524.1415
1290.481, 523.2689
1290.963, 522.1865
1291.445, 521.1790
1291.927, 520.6288
1292.409, 520.5377
1292.891, 521.0469
1293.373, 522.0854
1293.855, 522.5778
1294.338, 520.9508
1294.820, 519.7367
1295.302, 520.3895
1295.784, 521.8239
1296.266, 523.4244
1296.748, 525.0751
1297.230, 525.6129
1297.712, 525.3701
1298.194, 525.7089
1298.677, 528.0527
1299.159, 529.5473
1299.641, 529.8365
1300.123, 529.1505
1300.605, 526.6347
1301.087, 523.7648
1301.569, 524.8484
1302.051, 528.2087
1302.533, 530.0901
1303.016, 529.2284
##END=



