##NAMES=Dioptase
##RRUFFID=R050010
##IDEAL CHEMISTRY=Cu^2+^SiO_3_&#183;H_2_O
##LOCALITY=Tsumeb mine, Tsumeb, Otavi District, Oshikoto, Namibia
##OWNER=RRUFF
##SOURCE=Eugene Schlepp
##DESCRIPTION=Bluish green single crystals
##STATUS=The identification of this mineral has been confirmed by X-ray diffraction and chemical analysis
##URL=rruff.info/R050010
##MEASURED CHEMISTRY=Cu_1.00_Si_1.00_O_3_Â·H_2_O ; trace amounts of Mg and Al; OH estimated by difference
123.9121, 230.2018
124.3942, 251.7926
124.8763, 269.3506
125.3585, 276.4891
125.8406, 291.4663
126.3227, 327.4603
126.8048, 369.3225
127.2869, 398.3303
127.7690, 403.1634
128.2512, 391.6624
128.7333, 395.5960
129.2154, 426.3202
129.6975, 460.2102
130.1796, 492.9055
130.6617, 525.8139
131.1439, 562.6653
131.6260, 606.8508
132.1081, 655.8461
132.5902, 689.6699
133.0723, 689.0197
133.5544, 692.1681
134.0366, 709.2808
134.5187, 735.0460
135.0008, 760.4979
135.4829, 780.1890
135.9650, 793.9246
136.4471, 795.0861
136.9293, 774.3478
137.4114, 751.9651
137.8935, 731.2590
138.3756, 713.5247
138.8577, 701.0651
139.3398, 696.9630
139.8220, 701.3799
140.3041, 692.4553
140.7862, 662.1749
141.2683, 629.5439
141.7504, 597.9843
142.2325, 570.1492
142.7147, 552.6944
143.1968, 552.3743
143.6789, 569.7953
144.1610, 581.6412
144.6431, 576.1848
145.1252, 575.5131
145.6074, 595.0347
146.0895, 633.2424
146.5716, 675.7220
147.0537, 711.2816
147.5358, 739.7831
148.0179, 772.1539
148.5001, 811.3932
148.9822, 852.1542
149.4643, 892.0988
149.9464, 931.0687
150.4285, 967.2963
150.9106, 1003.157
151.3928, 1035.828
151.8749, 1049.023
152.3570, 1034.644
152.8391, 1004.633
153.3212, 967.0244
153.8033, 922.2369
154.2855, 874.7250
154.7676, 826.9248
155.2497, 778.8224
155.7318, 731.0392
156.2139, 679.8800
156.6960, 630.9442
157.1782, 588.4235
157.6603, 551.6769
158.1424, 527.2186
158.6245, 526.0812
159.1066, 541.9587
159.5887, 561.8241
160.0709, 586.7258
160.5530, 612.2069
161.0351, 632.7781
161.5172, 648.9551
161.9993, 657.3820
162.4814, 651.8369
162.9636, 636.9765
163.4457, 619.7318
163.9278, 598.4102
164.4099, 577.3249
164.8920, 566.3368
165.3741, 569.2805
165.8563, 571.6195
166.3384, 560.6824
166.8205, 543.2451
167.3026, 531.0941
167.7847, 533.5843
168.2668, 542.8872
168.7490, 540.5539
169.2311, 521.3120
169.7132, 502.2245
170.1953, 491.3601
170.6774, 486.5838
171.1595, 485.2930
171.6417, 487.4535
172.1238, 491.8645
172.6059, 496.4690
173.0880, 503.8282
173.5701, 505.7520
174.0522, 495.0185
174.5344, 477.9267
175.0165, 463.5960
175.4986, 456.8282
175.9807, 455.3704
176.4628, 453.0291
176.9449, 449.3483
177.4271, 445.5804
177.9092, 443.3507
178.3913, 441.1096
178.8734, 436.5874
179.3555, 428.2098
179.8376, 417.1961
180.3197, 406.9268
180.8019, 397.2788
181.2840, 388.7420
181.7661, 380.6997
182.2482, 373.8114
182.7303, 368.8000
183.2124, 365.8243
183.6946, 365.2317
184.1767, 368.6507
184.6588, 379.4194
185.1409, 388.3369
185.6230, 393.1516
186.1051, 395.0310
186.5873, 395.0784
187.0694, 393.6109
187.5515, 391.1341
188.0336, 389.0550
188.5157, 388.2148
188.9978, 386.2480
189.4800, 379.9210
189.9621, 373.4975
190.4442, 372.6435
190.9263, 380.4107
191.4084, 391.7668
191.8905, 393.7902
192.3727, 379.5645
192.8548, 368.0343
193.3369, 361.3837
193.8190, 358.8819
194.3011, 360.8023
194.7832, 367.3327
195.2654, 376.0037
195.7475, 381.8712
196.2296, 385.9998
196.7117, 384.7285
197.1938, 373.8494
197.6759, 360.4176
198.1581, 350.6205
198.6402, 346.4983
199.1223, 345.6268
199.6044, 343.5111
200.0865, 339.0975
200.5686, 335.5435
201.0508, 333.2469
201.5329, 331.6509
202.0150, 330.7070
202.4971, 330.2892
202.9792, 329.7224
203.4613, 327.4381
203.9435, 321.1596
204.4256, 318.5020
204.9077, 321.2636
205.3898, 326.0997
205.8719, 331.5951
206.3540, 337.1111
206.8362, 341.7742
207.3183, 344.4250
207.8004, 344.8064
208.2825, 343.5759
208.7646, 340.0332
209.2467, 335.6634
209.7289, 329.9145
210.2110, 323.5222
210.6931, 319.2060
211.1752, 320.8753
211.6573, 330.8062
212.1395, 338.3407
212.6216, 342.3892
213.1037, 345.1456
213.5858, 346.7835
214.0679, 347.8335
214.5500, 349.4928
215.0322, 353.1270
215.5143, 359.1111
215.9964, 364.5286
216.4785, 369.8900
216.9606, 374.2532
217.4427, 377.0466
217.9249, 378.4728
218.4070, 379.0999
218.8891, 379.2138
219.3712, 378.7751
219.8533, 379.2729
220.3354, 381.2670
220.8176, 383.7253
221.2997, 387.9970
221.7818, 392.5151
222.2639, 394.3395
222.7460, 391.2078
223.2281, 383.5048
223.7103, 375.6594
224.1924, 366.6382
224.6745, 358.6391
225.1566, 352.1704
225.6387, 346.9690
226.1208, 342.7643
226.6030, 339.5237
227.0851, 336.9305
227.5672, 333.5692
228.0493, 327.8907
228.5314, 323.5866
229.0135, 322.4131
229.4957, 322.4474
229.9778, 321.1971
230.4599, 317.4785
230.9420, 312.7242
231.4241, 310.5494
231.9062, 312.4494
232.3884, 314.5621
232.8705, 318.1111
233.3526, 320.7160
233.8347, 319.7199
234.3168, 314.3540
234.7989, 307.0385
235.2811, 301.7530
235.7632, 298.6008
236.2453, 297.3999
236.7274, 300.5852
237.2095, 303.7590
237.6916, 303.2287
238.1738, 298.6340
238.6559, 293.3251
239.1380, 291.9039
239.6201, 295.9037
240.1022, 298.0909
240.5843, 296.5266
241.0665, 294.4836
241.5486, 294.0359
242.0307, 294.8985
242.5128, 294.8891
242.9949, 290.6977
243.4770, 281.5624
243.9592, 277.5204
244.4413, 285.3146
244.9234, 292.0036
245.4055, 291.7565
245.8876, 286.2829
246.3697, 280.7955
246.8519, 279.4471
247.3340, 281.5665
247.8161, 280.9715
248.2982, 274.8294
248.7803, 269.7132
249.2624, 265.6689
249.7446, 264.3616
250.2267, 269.5916
250.7088, 286.0595
251.1909, 307.4977
251.6730, 314.3783
252.1551, 298.4920
252.6373, 284.5422
253.1194, 281.0273
253.6015, 283.0753
254.0836, 286.3994
254.5657, 289.9767
255.0478, 292.2899
255.5300, 289.3036
256.0121, 278.3809
256.4942, 272.2883
256.9763, 279.5671
257.4584, 290.3484
257.9406, 298.1856
258.4227, 301.7331
258.9048, 302.4637
259.3869, 301.4254
259.8690, 298.5545
260.3511, 295.0189
260.8333, 287.8283
261.3154, 283.1096
261.7975, 287.0488
262.2796, 299.1722
262.7617, 310.4170
263.2438, 313.4039
263.7260, 309.5325
264.2081, 307.1664
264.6902, 308.3816
265.1723, 309.2482
265.6544, 306.2529
266.1365, 300.4480
266.6187, 295.3388
267.1008, 293.2718
267.5829, 292.8896
268.0650, 291.3210
268.5471, 288.3129
269.0292, 284.7403
269.5114, 281.1117
269.9935, 277.3474
270.4756, 273.0588
270.9577, 265.9790
271.4398, 260.1122
271.9219, 261.4724
272.4041, 270.3045
272.8862, 278.0137
273.3683, 279.3585
273.8504, 277.3044
274.3325, 277.9596
274.8146, 283.2132
275.2968, 288.2494
275.7789, 290.7370
276.2610, 290.5615
276.7431, 286.3758
277.2252, 275.6732
277.7073, 263.5020
278.1895, 258.2590
278.6716, 260.3794
279.1537, 264.9694
279.6358, 272.7428
280.1179, 281.3141
280.6000, 285.7790
281.0822, 284.6028
281.5643, 282.2408
282.0464, 284.8991
282.5285, 293.2704
283.0106, 297.5826
283.4927, 291.2642
283.9749, 283.8916
284.4570, 285.3580
284.9391, 295.9343
285.4212, 307.7931
285.9033, 315.0842
286.3854, 317.6001
286.8676, 317.7915
287.3497, 313.6940
287.8318, 309.4061
288.3139, 306.9581
288.7960, 305.9338
289.2781, 304.6472
289.7603, 301.8299
290.2424, 298.5849
290.7245, 299.7800
291.2066, 312.8558
291.6887, 320.9139
292.1708, 318.2360
292.6530, 310.2920
293.1351, 303.1446
293.6172, 298.9935
294.0993, 297.6737
294.5814, 299.4137
295.0635, 309.5649
295.5457, 312.1442
296.0278, 303.2019
296.5099, 290.1728
296.9920, 276.6451
297.4741, 263.9155
297.9562, 253.3800
298.4384, 246.5851
298.9205, 243.9535
299.4026, 242.1999
299.8847, 240.5385
300.3668, 240.4943
300.8489, 243.1442
301.3311, 247.8526
301.8131, 253.6961
302.2953, 260.5632
302.7774, 267.5519
303.2595, 269.7776
303.7416, 263.7630
304.2237, 257.8454
304.7058, 252.1935
305.1880, 248.1723
305.6701, 248.3166
306.1522, 253.7343
306.6343, 260.1766
307.1164, 259.5571
307.5985, 249.0991
308.0807, 241.9593
308.5628, 243.8855
309.0449, 247.5090
309.5270, 247.7491
310.0091, 244.4895
310.4912, 242.5585
310.9734, 248.5681
311.4555, 261.3357
311.9376, 267.0524
312.4197, 261.1015
312.9018, 253.0386
313.3839, 248.4581
313.8661, 246.6000
314.3482, 245.6259
314.8303, 244.9299
315.3124, 244.5119
315.7945, 243.9777
316.2766, 243.0273
316.7588, 243.8350
317.2409, 249.8237
317.7230, 257.5568
318.2051, 261.0442
318.6872, 257.6941
319.1693, 253.3073
319.6515, 252.0510
320.1336, 253.4199
320.6157, 255.5519
321.0978, 258.6707
321.5799, 260.9214
322.0620, 258.2303
322.5442, 249.6003
323.0263, 243.2931
323.5084, 242.4541
323.9905, 244.8685
324.4726, 247.8797
324.9547, 251.0484
325.4369, 254.8916
325.9190, 260.4857
326.4011, 268.0959
326.8832, 272.2393
327.3653, 271.1289
327.8474, 268.3745
328.3296, 266.3875
328.8117, 264.5247
329.2938, 259.7081
329.7759, 249.3728
330.2580, 235.9573
330.7401, 230.8878
331.2223, 242.2257
331.7044, 251.9642
332.1865, 259.1758
332.6686, 263.4974
333.1507, 263.6868
333.6328, 259.6496
334.1150, 254.0001
334.5971, 250.2275
335.0792, 247.5597
335.5613, 249.2299
336.0434, 262.5595
336.5255, 273.2817
337.0077, 271.6157
337.4898, 260.1023
337.9719, 248.4484
338.4540, 244.1251
338.9361, 246.5340
339.4182, 250.5217
339.9004, 257.4052
340.3825, 263.9150
340.8646, 269.7658
341.3467, 274.5359
341.8288, 277.0681
342.3109, 276.4794
342.7931, 275.7338
343.2752, 280.6955
343.7573, 292.7516
344.2394, 300.4797
344.7215, 297.3365
345.2036, 291.8440
345.6858, 290.4578
346.1679, 293.5068
346.6500, 298.4778
347.1321, 304.1563
347.6142, 310.5308
348.0963, 318.1986
348.5785, 328.0447
349.0606, 336.6233
349.5427, 339.8936
350.0248, 339.5449
350.5069, 340.4883
350.9890, 344.0699
351.4712, 348.8727
351.9533, 353.4815
352.4354, 358.1701
352.9175, 364.6971
353.3996, 374.4723
353.8817, 385.9242
354.3639, 395.3227
354.8460, 404.7209
355.3281, 408.6722
355.8102, 403.4439
356.2923, 393.2445
356.7744, 382.2661
357.2566, 371.5572
357.7387, 361.6144
358.2208, 353.1210
358.7029, 346.4388
359.1850, 339.1085
359.6671, 330.1766
360.1493, 321.6658
360.6314, 313.6664
361.1135, 306.8287
361.5956, 302.6782
362.0777, 302.3427
362.5598, 304.4924
363.0420, 304.2052
363.5241, 299.9763
364.0062, 295.5816
364.4883, 291.8150
364.9704, 287.8932
365.4525, 282.7552
365.9347, 276.3574
366.4168, 270.1218
366.8989, 266.1540
367.3810, 264.6411
367.8631, 261.3932
368.3452, 252.4489
368.8274, 246.5142
369.3095, 249.1169
369.7916, 257.8348
370.2737, 267.0242
370.7558, 275.6246
371.2379, 281.9083
371.7201, 281.8709
372.2022, 274.9129
372.6843, 267.2705
373.1664, 260.0529
373.6485, 254.7014
374.1306, 253.9391
374.6128, 259.6577
375.0949, 263.4503
375.5770, 259.6364
376.0591, 251.0314
376.5412, 241.9343
377.0233, 232.7089
377.5055, 227.1778
377.9876, 231.1226
378.4697, 245.8568
378.9518, 253.6452
379.4339, 248.6212
379.9160, 241.6718
380.3982, 239.3607
380.8803, 240.5308
381.3624, 240.5731
381.8445, 236.7044
382.3266, 231.0127
382.8087, 229.9411
383.2909, 243.4844
383.7730, 248.2558
384.2551, 235.7325
384.7372, 219.6069
385.2193, 210.6427
385.7014, 210.6646
386.1836, 215.2706
386.6657, 220.6449
387.1478, 226.9139
387.6299, 231.0279
388.1120, 230.4406
388.5941, 230.6287
389.0763, 234.1620
389.5584, 239.4215
390.0405, 244.1801
390.5226, 247.9528
391.0047, 249.5691
391.4868, 245.9696
391.9690, 236.4139
392.4511, 228.8154
392.9332, 225.4864
393.4153, 224.8983
393.8974, 225.7394
394.3795, 227.9596
394.8617, 230.6490
395.3438, 233.3105
395.8259, 236.1699
396.3080, 240.7991
396.7901, 247.5842
397.2722, 251.1221
397.7544, 245.9535
398.2365, 234.2046
398.7186, 227.6601
399.2007, 228.9403
399.6828, 232.3775
400.1649, 237.2957
400.6471, 242.5901
401.1292, 246.8427
401.6113, 249.6076
402.0934, 250.1921
402.5755, 247.2858
403.0576, 239.1999
403.5398, 232.7318
404.0219, 216.6645
404.5040, 231.7305
404.9861, 240.0258
405.4682, 241.9142
405.9503, 218.2065
406.4325, 227.5508
406.9146, 223.6495
407.3967, 219.2049
407.8788, 233.2013
408.3609, 213.2165
408.8430, 226.9204
409.3252, 220.5277
409.8073, 224.4002
410.2894, 238.6315
410.7715, 251.3530
411.2536, 250.3448
411.7357, 238.4087
412.2179, 229.7032
412.7000, 225.2986
413.1821, 223.8056
413.6642, 226.2332
414.1463, 230.8000
414.6284, 233.9345
415.1106, 234.2278
415.5927, 221.3755
416.0748, 235.9621
416.5569, 243.7779
417.0390, 245.1869
417.5211, 220.9997
418.0033, 229.8645
418.4854, 225.4836
418.9675, 220.5596
419.4496, 234.0765
419.9317, 213.6122
420.4138, 226.8367
420.8960, 226.6130
421.3781, 232.5443
421.8602, 225.1480
422.3423, 221.8682
422.8244, 231.9202
423.3065, 234.5904
423.7887, 225.6597
424.2708, 231.9821
424.7529, 211.0523
425.2350, 214.0369
425.7171, 227.3393
426.1992, 219.0789
426.6814, 225.6449
427.1635, 226.5643
427.6456, 201.8214
428.1277, 221.7079
428.6098, 222.2936
429.0919, 203.0617
429.5741, 221.4187
430.0562, 204.9189
430.5383, 200.8609
431.0204, 206.1662
431.5025, 201.7106
431.9846, 212.6442
432.4668, 208.7521
432.9489, 203.5356
433.4310, 204.0997
433.9131, 188.2834
434.3952, 202.8559
434.8773, 196.6703
435.3595, 194.9775
435.8416, 201.3053
436.3237, 205.0480
436.8058, 194.6924
437.2879, 175.2635
437.7701, 151.1882
438.2522, 161.1570
438.7343, 166.1752
439.2164, 166.5105
439.6985, 148.0666
440.1806, 153.9252
440.6628, 150.0768
441.1449, 145.8530
441.6270, 155.1987
442.1091, 139.6058
442.5912, 148.7832
443.0733, 148.1052
443.5555, 151.9714
444.0376, 146.0710
444.5197, 143.2177
445.0018, 150.1809
445.4839, 151.7448
445.9660, 144.8103
446.4482, 149.1035
446.9303, 133.4011
447.4124, 135.2889
447.8945, 144.7793
448.3766, 138.4534
448.8587, 143.0420
449.3409, 143.5057
449.8230, 125.1418
450.3051, 139.5849
450.7872, 139.8734
451.2693, 125.6276
451.7514, 139.0171
452.2336, 126.8245
452.7157, 123.7948
453.1978, 127.6665
453.6799, 124.3912
454.1620, 132.4438
454.6441, 129.6291
455.1263, 125.8645
455.6084, 126.3696
456.0905, 114.8653
456.5726, 125.7072
457.0547, 121.3239
457.5368, 124.5435
458.0190, 129.5043
458.5011, 121.3335
458.9832, 127.1129
459.4653, 111.3181
459.9474, 113.6179
460.4295, 113.9950
460.9117, 125.9461
461.3938, 110.3496
461.8759, 112.2403
462.3580, 121.5902
462.8401, 120.5587
463.3222, 123.9007
463.8044, 114.3876
464.2865, 116.9960
464.7686, 116.2929
465.2507, 127.1364
465.7328, 128.9060
466.2149, 119.7277
466.6971, 110.6191
467.1792, 122.3850
467.6613, 114.4111
468.1434, 117.1224
468.6255, 108.8453
469.1076, 110.0992
469.5898, 111.2256
470.0719, 117.2491
470.5540, 108.5170
471.0361, 118.9786
471.5182, 118.3834
472.0003, 121.0754
472.4825, 123.4275
472.9646, 110.9345
473.4467, 110.6533
473.9288, 127.8357
474.4109, 118.4438
474.8930, 114.4435
475.3752, 114.2826
475.8573, 132.1554
476.3394, 133.3109
476.8215, 114.4798
477.3036, 131.6286
477.7857, 126.6794
478.2679, 128.3273
478.7500, 127.5999
479.2321, 127.6058
479.7142, 118.6042
480.1963, 121.5266
480.6784, 134.1487
481.1606, 130.2973
481.6427, 137.6786
482.1248, 124.6542
482.6069, 131.8319
483.0890, 139.6027
483.5711, 151.5723
484.0533, 160.1537
484.5354, 165.2385
485.0175, 166.7659
485.4996, 160.9892
485.9817, 154.7563
486.4638, 154.3846
486.9460, 160.0276
487.4281, 166.0223
487.9102, 168.7320
488.3923, 168.3646
488.8744, 163.5524
489.3565, 152.6281
489.8387, 147.2566
490.3208, 156.1563
490.8029, 173.0997
491.2850, 184.9486
491.7671, 191.1730
492.2492, 194.1076
492.7314, 194.3205
493.2135, 191.7154
493.6956, 183.3112
494.1777, 170.4490
494.6598, 162.2106
495.1419, 166.4343
495.6241, 180.6220
496.1062, 188.5150
496.5883, 183.1009
497.0704, 181.0687
497.5525, 189.3534
498.0346, 197.8934
498.5168, 195.6259
498.9989, 183.1039
499.4810, 172.9043
499.9631, 178.4370
500.4452, 194.4734
500.9273, 200.6544
501.4095, 195.2859
501.8916, 186.8872
502.3737, 176.2072
502.8558, 166.3783
503.3379, 163.2714
503.8200, 169.3532
504.3022, 172.1449
504.7843, 160.4575
505.2664, 146.7634
505.7485, 148.1830
506.2306, 164.0717
506.7127, 180.0332
507.1949, 186.8754
507.6770, 185.6304
508.1591, 180.5664
508.6412, 165.6147
509.1233, 155.7968
509.6054, 157.3148
510.0876, 159.8344
510.5697, 155.3340
511.0518, 144.0933
511.5339, 131.5101
512.0161, 119.6960
512.4982, 110.4514
512.9803, 110.6974
513.4624, 122.4753
513.9445, 131.2283
514.4266, 130.4550
514.9088, 125.3664
515.3909, 122.7056
515.8730, 122.5939
516.3551, 123.0467
516.8372, 124.1645
517.3193, 125.0658
517.8015, 125.1849
518.2836, 124.3828
518.7657, 121.2996
519.2478, 114.5849
519.7299, 108.0784
520.2120, 111.8834
520.6942, 137.0225
521.1763, 151.2876
521.6584, 149.0703
522.1405, 142.6134
522.6226, 134.7608
523.1047, 128.1682
523.5869, 127.9319
524.0690, 138.1214
524.5511, 152.8082
525.0332, 162.8375
525.5153, 168.2253
525.9974, 171.5714
526.4796, 173.2797
526.9617, 173.4521
527.4438, 170.8643
527.9259, 166.0109
528.4080, 164.0246
528.8901, 166.1099
529.3723, 170.7781
529.8544, 179.7785
530.3365, 190.2367
530.8186, 195.8849
531.3007, 194.7409
531.7828, 191.6838
532.2650, 194.1944
532.7471, 204.1738
533.2292, 207.8344
533.7113, 199.3260
534.1934, 190.9916
534.6755, 185.3354
535.1577, 182.5495
535.6398, 184.1497
536.1219, 191.2524
536.6040, 196.2178
537.0861, 187.6609
537.5682, 171.0953
538.0504, 166.9589
538.5325, 179.4118
539.0146, 190.1691
539.4967, 183.8051
539.9788, 165.2077
540.4609, 158.9585
540.9431, 177.0512
541.4252, 189.5498
541.9073, 186.2925
542.3894, 177.4362
542.8715, 172.7096
543.3536, 172.8132
543.8358, 172.4326
544.3179, 166.8745
544.8000, 157.8559
545.2821, 152.7093
545.7642, 151.5410
546.2463, 154.0547
546.7285, 166.0876
547.2106, 177.3391
547.6927, 178.1752
548.1748, 169.2596
548.6569, 161.7222
549.1390, 162.5388
549.6211, 165.6620
550.1032, 163.6127
550.5853, 157.6686
551.0674, 154.7600
551.5496, 158.2126
552.0317, 162.7494
552.5138, 158.9137
552.9959, 141.3079
553.4780, 133.8020
553.9601, 146.7314
554.4423, 157.1767
554.9244, 152.6621
555.4065, 140.6079
555.8886, 132.9063
556.3707, 133.8992
556.8528, 139.9266
557.3350, 149.4135
557.8171, 161.2482
558.2992, 165.2124
558.7813, 158.2009
559.2634, 150.0324
559.7455, 145.4837
560.2277, 145.1150
560.7098, 150.0963
561.1919, 166.3054
561.6740, 177.5916
562.1561, 175.8344
562.6382, 168.5319
563.1204, 162.3928
563.6025, 158.7381
564.0846, 157.0989
564.5667, 157.0888
565.0488, 158.8819
565.5309, 163.7346
566.0131, 173.9407
566.4952, 181.4113
566.9773, 185.4236
567.4594, 185.5631
567.9415, 177.4619
568.4236, 163.9680
568.9058, 157.3673
569.3879, 165.8548
569.8700, 180.7594
570.3521, 197.7657
570.8342, 214.3299
571.3163, 219.8032
571.7985, 210.1343
572.2806, 196.6501
572.7627, 193.6398
573.2448, 202.8931
573.7269, 205.5186
574.2090, 193.5848
574.6912, 184.8636
575.1733, 185.0378
575.6554, 190.0662
576.1375, 196.3788
576.6196, 202.7724
577.1017, 207.5902
577.5839, 209.5892
578.0660, 208.8191
578.5481, 203.5747
579.0302, 192.8015
579.5123, 187.3707
579.9944, 194.9753
580.4766, 208.4254
580.9587, 212.5691
581.4408, 204.2448
581.9229, 201.5491
582.4050, 214.7118
582.8871, 227.2138
583.3693, 226.4458
583.8514, 216.4537
584.3335, 207.2903
584.8156, 203.5782
585.2977, 202.8214
585.7798, 200.4454
586.2620, 195.9563
586.7441, 196.8178
587.2262, 209.1572
587.7083, 217.3198
588.1904, 204.7513
588.6725, 184.1828
589.1547, 177.9727
589.6368, 194.8686
590.1189, 210.7220
590.6010, 212.9037
591.0831, 208.0677
591.5652, 203.4282
592.0474, 200.1389
592.5295, 198.0947
593.0116, 197.3593
593.4937, 197.4848
593.9758, 196.9343
594.4579, 194.8571
594.9401, 194.1357
595.4222, 196.3098
595.9043, 198.7274
596.3864, 199.9270
596.8685, 200.3196
597.3506, 201.1637
597.8328, 203.2498
598.3149, 205.2792
598.7970, 205.4809
599.2791, 204.7641
599.7612, 207.0114
600.2433, 213.0005
600.7255, 214.9695
601.2076, 204.8310
601.6897, 184.9015
602.1718, 174.1640
602.6539, 180.5338
603.1360, 185.6388
603.6182, 188.0715
604.1003, 188.8082
604.5824, 187.9440
605.0645, 185.9850
605.5466, 184.3005
606.0287, 183.7556
606.5109, 183.7891
606.9930, 183.4917
607.4751, 182.9446
607.9572, 183.0736
608.4393, 184.4281
608.9214, 185.0470
609.4036, 181.7595
609.8857, 174.5642
610.3678, 174.5489
610.8499, 189.3784
611.3320, 200.9601
611.8141, 202.9785
612.2963, 201.1178
612.7784, 200.1475
613.2605, 201.2039
613.7426, 204.3215
614.2247, 210.8698
614.7068, 218.3879
615.1890, 219.8062
615.6711, 214.7988
616.1532, 210.9217
616.6353, 210.1288
617.1174, 211.6596
617.5995, 215.6836
618.0817, 222.2719
618.5638, 226.1432
619.0459, 225.8422
619.5280, 224.2446
620.0101, 220.8182
620.4922, 217.5275
620.9744, 216.8732
621.4565, 219.2051
621.9386, 223.0125
622.4207, 227.5221
622.9028, 232.1761
623.3849, 234.2625
623.8671, 233.2129
624.3492, 233.1727
624.8313, 236.8985
625.3134, 240.4366
625.7955, 237.3440
626.2776, 228.0802
626.7598, 223.1178
627.2419, 226.3278
627.7240, 231.5355
628.2061, 237.3567
628.6882, 242.5188
629.1703, 244.7931
629.6525, 243.9888
630.1346, 242.7829
630.6167, 244.4501
631.0988, 247.8566
631.5809, 245.6736
632.0630, 235.8020
632.5452, 228.5101
633.0273, 227.2611
633.5094, 229.5935
633.9915, 233.5933
634.4736, 239.1221
634.9557, 243.3368
635.4379, 245.7702
635.9200, 246.6113
636.4021, 244.3870
636.8842, 241.2170
637.3663, 240.1125
637.8484, 241.8714
638.3306, 246.0181
638.8127, 252.9991
639.2948, 261.7930
639.7769, 265.0660
640.2590, 260.5949
640.7411, 258.7286
641.2233, 264.8303
641.7054, 272.4041
642.1875, 273.7399
642.6696, 269.4908
643.1517, 267.8930
643.6339, 270.5476
644.1160, 276.3675
644.5981, 287.5357
645.0802, 300.3924
645.5623, 309.2605
646.0444, 313.0869
646.5266, 314.6404
647.0087, 315.6888
647.4908, 317.0414
647.9729, 324.1630
648.4550, 339.9120
648.9371, 349.0515
649.4193, 341.2076
649.9014, 332.4927
650.3835, 341.0464
650.8656, 364.0796
651.3477, 382.1508
651.8298, 394.1924
652.3120, 398.2120
652.7941, 384.4491
653.2762, 366.4458
653.7583, 363.2870
654.2404, 376.9174
654.7225, 395.9017
655.2047, 412.2585
655.6868, 425.2283
656.1689, 430.8902
656.6510, 427.8687
657.1331, 426.2161
657.6152, 429.2891
658.0974, 432.4735
658.5795, 432.2928
659.0616, 428.8454
659.5437, 421.9894
660.0258, 408.7132
660.5079, 395.7421
660.9901, 383.9001
661.4722, 374.4235
661.9543, 370.8075
662.4364, 371.4067
662.9185, 368.5203
663.4006, 356.0872
663.8828, 339.7655
664.3649, 332.4917
664.8470, 334.5760
665.3291, 335.8358
665.8112, 335.2931
666.2933, 332.1914
666.7755, 324.2438
667.2576, 313.2066
667.7397, 306.6767
668.2218, 308.0048
668.7039, 308.3708
669.1860, 304.4638
669.6682, 300.3076
670.1503, 300.4801
670.6324, 303.1714
671.1145, 301.7380
671.5966, 292.1784
672.0787, 282.4625
672.5609, 287.6231
673.0430, 304.4766
673.5251, 307.9746
674.0072, 293.3946
674.4893, 279.6942
674.9714, 279.2213
675.4536, 286.3723
675.9357, 286.4922
676.4178, 275.6586
676.8999, 266.2778
677.3820, 259.4335
677.8641, 253.3015
678.3463, 244.3719
678.8284, 236.3896
679.3105, 236.8978
679.7926, 248.2744
680.2747, 260.9388
680.7568, 266.1830
681.2390, 265.9093
681.7211, 264.0799
682.2032, 260.9271
682.6853, 256.5624
683.1674, 250.4511
683.6495, 245.1506
684.1317, 245.2862
684.6138, 252.7748
685.0959, 255.5169
685.5780, 248.4788
686.0601, 242.7207
686.5422, 241.3448
687.0244, 242.2612
687.5065, 243.1962
687.9886, 243.9027
688.4707, 245.6545
688.9528, 251.4695
689.4349, 256.9464
689.9171, 254.3664
690.3992, 247.2729
690.8813, 247.7181
691.3634, 258.7688
691.8455, 270.1115
692.3276, 270.6789
692.8098, 262.1611
693.2919, 259.9947
693.7740, 268.2172
694.2561, 273.8532
694.7382, 273.5409
695.2203, 270.7338
695.7025, 265.6295
696.1846, 259.7321
696.6667, 258.6243
697.1488, 268.5407
697.6309, 276.2201
698.1130, 273.0221
698.5952, 264.4818
699.0773, 254.3551
699.5594, 245.2716
700.0415, 244.8870
700.5236, 259.1177
701.0057, 278.2704
701.4879, 279.7862
701.9700, 262.4470
702.4521, 254.2895
702.9342, 261.2802
703.4163, 268.4962
703.8984, 266.6014
704.3806, 259.1359
704.8627, 254.6511
705.3448, 254.0421
705.8269, 253.5811
706.3090, 250.7682
706.7911, 249.9470
707.2733, 255.4881
707.7554, 264.2242
708.2375, 271.4967
708.7196, 275.7411
709.2017, 276.4694
709.6838, 269.9500
710.1660, 260.3621
710.6481, 260.4051
711.1302, 269.5010
711.6123, 274.6883
712.0944, 270.9623
712.5765, 263.2942
713.0587, 257.4227
713.5408, 253.3581
714.0229, 250.9243
714.5050, 252.3587
714.9871, 252.3694
715.4692, 246.7769
715.9514, 242.0943
716.4335, 244.8033
716.9156, 253.7173
717.3977, 261.8996
717.8798, 267.8320
718.3619, 270.2644
718.8441, 265.8937
719.3262, 258.2537
719.8083, 252.0620
720.2904, 248.6357
720.7725, 250.8268
721.2546, 261.4630
721.7368, 275.1288
722.2189, 277.2319
722.7010, 265.3701
723.1831, 259.0110
723.6652, 262.3506
724.1473, 265.7419
724.6295, 261.7600
725.1116, 255.0616
725.5937, 256.0017
726.0758, 267.9998
726.5579, 275.7057
727.0400, 272.1080
727.5222, 267.7910
728.0043, 269.5133
728.4864, 274.6451
728.9685, 278.3996
729.4506, 279.5139
729.9327, 280.1507
730.4149, 281.6889
730.8970, 284.3594
731.3791, 290.9214
731.8612, 300.3834
732.3433, 302.0093
732.8254, 291.7405
733.3076, 278.9173
733.7897, 273.0037
734.2718, 273.5166
734.7539, 273.8232
735.2360, 273.5222
735.7181, 273.6971
736.2003, 275.2686
736.6824, 276.5969
737.1645, 276.8576
737.6466, 276.0459
738.1287, 274.0611
738.6108, 269.9654
739.0930, 266.9229
739.5751, 268.0943
740.0572, 270.3437
740.5393, 269.1366
741.0214, 265.5043
741.5035, 263.5654
741.9857, 265.2570
742.4678, 269.9913
742.9499, 279.5221
743.4320, 292.9195
743.9141, 296.2161
744.3962, 287.5378
744.8784, 277.7931
745.3605, 269.8888
745.8426, 264.8004
746.3247, 264.8625
746.8068, 271.0239
747.2889, 273.2849
747.7711, 267.9592
748.2532, 263.7610
748.7353, 263.4723
749.2174, 264.6094
749.6995, 264.1974
750.1816, 262.8536
750.6638, 264.4786
751.1459, 273.1615
751.6280, 281.1453
752.1101, 280.3710
752.5922, 274.1343
753.0743, 266.6713
753.5565, 259.5441
754.0386, 257.7697
754.5207, 264.7350
755.0028, 275.5250
755.4849, 280.3757
755.9670, 278.6025
756.4492, 277.4290
756.9313, 278.0005
757.4134, 276.5683
757.8955, 270.8784
758.3776, 262.7357
758.8597, 253.2329
759.3419, 241.5336
759.8240, 236.8075
760.3061, 246.0065
760.7882, 254.8662
761.2703, 257.2112
761.7524, 257.0625
762.2346, 259.2106
762.7167, 263.6806
763.1988, 266.2121
763.6809, 251.0267
764.1630, 264.7571
764.6451, 273.4390
765.1273, 277.3449
765.6094, 262.1659
766.0915, 271.6303
766.5736, 271.2189
767.0557, 270.4025
767.5378, 279.9789
768.0200, 281.1939
768.5021, 279.6105
768.9842, 276.8525
769.4663, 272.6859
769.9484, 267.8930
770.4305, 262.5111
770.9127, 256.8789
771.3948, 249.9366
771.8769, 240.9709
772.3590, 239.5305
772.8411, 255.1163
773.3232, 268.3727
773.8054, 270.4435
774.2875, 267.3678
774.7696, 264.6968
775.2517, 263.5236
775.7338, 263.5504
776.2159, 265.0069
776.6981, 266.7592
777.1802, 267.2599
777.6623, 267.1526
778.1444, 267.8010
778.6265, 269.3881
779.1086, 272.0864
779.5908, 276.1371
780.0729, 280.2314
780.5550, 281.6215
781.0371, 279.9366
781.5192, 279.5988
782.0013, 281.9554
782.4835, 281.8328
782.9656, 275.0219
783.4477, 266.8935
783.9298, 263.5497
784.4119, 264.9272
784.8940, 271.6310
785.3762, 294.3066
785.8583, 308.5456
786.3404, 301.6913
786.8225, 288.5522
787.3046, 278.9078
787.7867, 274.7832
788.2689, 278.5990
788.7510, 294.9886
789.2331, 307.5609
789.7152, 297.4657
790.1973, 277.2268
790.6794, 266.8785
791.1616, 266.0139
791.6437, 264.2141
792.1258, 256.9565
792.6079, 249.8867
793.0900, 251.3294
793.5721, 260.2973
794.0543, 267.2444
794.5364, 272.2204
795.0185, 275.0745
795.5006, 275.9509
795.9827, 274.1347
796.4648, 267.7338
796.9470, 257.4648
797.4291, 251.2814
797.9112, 248.7264
798.3933, 251.1409
798.8754, 264.6192
799.3575, 277.1112
799.8397, 280.8932
800.3218, 278.9400
800.8039, 277.8318
801.2860, 279.4795
801.7681, 278.9552
802.2502, 269.6572
802.7324, 260.7541
803.2145, 263.9677
803.6966, 272.8036
804.1787, 273.0520
804.6608, 262.1707
805.1429, 250.7643
805.6251, 247.8398
806.1072, 250.1793
806.5893, 250.7555
807.0714, 250.0411
807.5535, 251.9764
808.0356, 257.3701
808.5178, 263.3509
808.9999, 268.2477
809.4820, 272.0162
809.9641, 274.5496
810.4462, 276.0832
810.9283, 275.2667
811.4105, 269.3840
811.8926, 265.6140
812.3747, 269.7429
812.8568, 275.3835
813.3389, 273.7328
813.8210, 264.8010
814.3032, 260.5901
814.7853, 268.8332
815.2674, 274.4413
815.7495, 267.6182
816.2316, 259.5666
816.7137, 263.3725
817.1959, 275.3240
817.6780, 280.8565
818.1601, 272.7300
818.6422, 262.3856
819.1243, 258.3542
819.6064, 258.9772
820.0886, 262.6149
820.5707, 268.5609
821.0528, 276.5918
821.5349, 286.3641
822.0170, 291.9558
822.4991, 284.5400
822.9813, 268.7951
823.4634, 266.4409
823.9455, 278.2621
824.4276, 287.0784
824.9097, 289.4171
825.3918, 287.8220
825.8740, 283.5493
826.3561, 277.2857
826.8382, 271.0452
827.3203, 262.2112
827.8024, 259.5217
828.2845, 267.8123
828.7667, 276.3782
829.2488, 283.5587
829.7309, 287.6793
830.2130, 285.1701
830.6951, 275.9688
831.1772, 269.3355
831.6594, 267.4661
832.1415, 268.6098
832.6236, 275.9940
833.1057, 283.0955
833.5878, 281.3618
834.0699, 273.1540
834.5521, 268.6047
835.0342, 272.9985
835.5163, 277.6970
835.9984, 273.1404
836.4805, 264.5162
836.9626, 259.8649
837.4448, 259.0815
837.9269, 259.8838
838.4090, 261.4431
838.8911, 263.7284
839.3732, 266.5691
839.8553, 270.2150
840.3375, 276.2754
840.8196, 284.8281
841.3017, 292.3412
841.7838, 298.8355
842.2659, 300.5188
842.7480, 293.2556
843.2302, 281.4867
843.7123, 277.1271
844.1944, 284.6411
844.6765, 284.1602
845.1586, 267.5060
845.6407, 255.0613
846.1229, 258.5841
846.6050, 266.0173
847.0871, 263.9516
847.5692, 253.3584
848.0513, 248.6273
848.5334, 255.6874
849.0156, 263.4259
849.4977, 271.2925
849.9798, 276.5341
850.4619, 275.0240
850.9440, 269.7112
851.4261, 266.9042
851.9083, 268.5906
852.3904, 271.7265
852.8725, 275.8029
853.3546, 279.0899
853.8367, 279.4859
854.3188, 277.7773
854.8010, 275.1479
855.2831, 272.1651
855.7652, 269.6212
856.2473, 267.6299
856.7294, 267.8033
857.2115, 276.0852
857.6937, 289.4067
858.1758, 292.7428
858.6579, 284.9721
859.1400, 276.0405
859.6221, 270.1674
860.1042, 268.1142
860.5864, 272.2185
861.0685, 282.0159
861.5506, 284.4077
862.0327, 277.1826
862.5148, 270.7007
862.9969, 265.4028
863.4791, 265.1366
863.9612, 275.9343
864.4433, 293.3963
864.9254, 301.2908
865.4075, 294.9209
865.8896, 288.7626
866.3718, 280.1129
866.8539, 274.8418
867.3360, 278.2097
867.8181, 283.9690
868.3002, 283.7822
868.7823, 277.8265
869.2645, 276.0711
869.7466, 286.5526
870.2287, 294.5326
870.7108, 292.1591
871.1929, 286.7220
871.6750, 283.1292
872.1572, 282.2628
872.6393, 285.2666
873.1214, 292.7293
873.6035, 299.0695
874.0856, 301.0278
874.5677, 299.1534
875.0499, 291.1473
875.5320, 280.6671
876.0141, 275.5412
876.4962, 276.7188
876.9783, 279.2936
877.4604, 279.9227
877.9426, 280.3300
878.4247, 285.4120
878.9068, 292.6244
879.3889, 290.1325
879.8710, 278.2489
880.3531, 270.4836
880.8353, 272.4705
881.3174, 278.0121
881.7995, 279.6162
882.2816, 278.3032
882.7637, 281.5700
883.2458, 290.5920
883.7280, 295.0178
884.2101, 292.3507
884.6922, 287.1844
885.1743, 280.9737
885.6564, 275.9789
886.1385, 277.9445
886.6207, 289.5896
887.1028, 295.7061
887.5849, 292.5493
888.0670, 289.8832
888.5491, 291.1247
889.0313, 293.0809
889.5134, 292.6356
889.9955, 290.4455
890.4776, 289.4065
890.9597, 288.1648
891.4418, 290.8804
891.9240, 303.9244
892.4061, 314.7585
892.8882, 316.8799
893.3703, 312.7447
893.8524, 304.0813
894.3345, 291.9081
894.8167, 283.1926
895.2988, 281.0367
895.7809, 282.6921
896.2630, 290.5703
896.7451, 298.5727
897.2272, 298.3707
897.7094, 292.9518
898.1915, 291.7108
898.6736, 298.0292
899.1557, 305.0918
899.6378, 307.4648
900.1199, 307.5500
900.6021, 308.0591
901.0842, 308.6732
901.5663, 307.7915
902.0484, 305.7656
902.5305, 305.9543
903.0126, 310.6981
903.4948, 317.0741
903.9769, 321.6208
904.4590, 324.1791
904.9411, 323.9762
905.4232, 321.1008
905.9053, 314.4085
906.3875, 303.6448
906.8696, 298.7473
907.3517, 311.3218
907.8338, 333.7120
908.3159, 339.6288
908.7980, 328.9366
909.2802, 321.8030
909.7623, 320.9246
910.2444, 317.8831
910.7265, 307.1514
911.2086, 296.9768
911.6907, 300.5591
912.1729, 317.6459
912.6550, 327.2950
913.1371, 328.0808
913.6192, 325.6393
914.1013, 318.9757
914.5834, 312.9210
915.0656, 310.9191
915.5477, 311.5378
916.0298, 311.6031
916.5119, 311.2307
916.9940, 309.8666
917.4761, 307.8500
917.9583, 304.3601
918.4404, 296.2633
918.9225, 289.1372
919.4046, 286.9947
919.8867, 289.4821
920.3688, 295.6442
920.8510, 309.8147
921.3331, 317.8552
921.8152, 313.3224
922.2973, 307.3601
922.7794, 303.6740
923.2615, 302.2693
923.7437, 303.3872
924.2258, 306.7049
924.7079, 310.4785
925.1900, 315.7419
925.6721, 318.8268
926.1542, 317.0810
926.6364, 313.6460
927.1185, 309.5439
927.6006, 306.1789
928.0827, 306.4559
928.5648, 310.5379
929.0469, 312.9289
929.5291, 308.9058
930.0112, 304.0039
930.4933, 302.0590
930.9754, 301.8112
931.4575, 301.5952
931.9396, 301.6224
932.4218, 304.5535
932.9039, 311.1877
933.3860, 313.4135
933.8681, 296.6914
934.3502, 277.7309
934.8323, 280.7910
935.3145, 297.3120
935.7966, 311.5851
936.2787, 320.4966
936.7608, 324.9598
937.2429, 325.3268
937.7250, 322.9444
938.2072, 319.0860
938.6893, 313.8379
939.1714, 304.8730
939.6535, 294.5025
940.1356, 293.0059
940.6177, 301.9083
941.0999, 311.4396
941.5820, 314.2471
942.0641, 316.2368
942.5462, 333.5468
943.0283, 360.3780
943.5104, 361.3957
943.9926, 337.6199
944.4747, 322.6013
944.9568, 326.7924
945.4389, 337.2844
945.9210, 343.2554
946.4031, 345.1128
946.8853, 342.7076
947.3674, 336.0750
947.8495, 333.3311
948.3316, 335.2875
948.8137, 337.8820
949.2958, 339.7603
949.7780, 340.5187
950.2601, 339.2867
950.7422, 336.8186
951.2243, 337.2932
951.7064, 341.0743
952.1885, 345.9823
952.6707, 352.8449
953.1528, 356.6290
953.6349, 354.2654
954.1170, 349.0966
954.5991, 345.1919
955.0812, 342.6155
955.5634, 342.7068
956.0455, 347.0479
956.5276, 349.0213
957.0097, 346.8162
957.4918, 344.2121
957.9739, 342.8353
958.4561, 342.7397
958.9382, 344.4894
959.4203, 348.4071
959.9024, 349.4151
960.3845, 344.9692
960.8666, 343.0792
961.3488, 350.2923
961.8309, 352.6885
962.3130, 336.1727
962.7951, 312.0084
963.2772, 303.2664
963.7593, 313.5647
964.2415, 319.9344
964.7236, 319.7295
965.2057, 319.4417
965.6878, 321.2350
966.1699, 322.2167
966.6520, 319.3372
967.1342, 314.5542
967.6163, 313.0112
968.0984, 316.7253
968.5805, 315.9990
969.0626, 301.2777
969.5447, 294.2404
970.0269, 309.8954
970.5090, 326.4836
970.9911, 325.8891
971.4732, 313.2419
971.9553, 302.9197
972.4374, 296.1154
972.9196, 292.0811
973.4017, 290.6028
973.8838, 291.9514
974.3659, 297.8565
974.8480, 305.2642
975.3301, 312.8249
975.8123, 319.5463
976.2944, 323.6994
976.7765, 327.0327
977.2586, 321.0317
977.7407, 290.0911
978.2228, 266.1233
978.7050, 267.0646
979.1871, 278.6583
979.6692, 289.0798
980.1513, 297.0021
980.6334, 303.1319
981.1155, 308.0210
981.5977, 309.7573
982.0798, 299.6698
982.5619, 295.7710
983.0440, 317.4733
983.5261, 342.7945
984.0082, 344.4607
984.4904, 326.6601
984.9725, 314.8158
985.4546, 318.3343
985.9367, 319.9487
986.4188, 306.6080
986.9009, 297.2999
987.3831, 308.5893
987.8652, 326.3362
988.3473, 333.1049
988.8294, 329.6391
989.3115, 327.9323
989.7936, 332.3150
990.2758, 336.5540
990.7579, 338.4315
991.2400, 338.9686
991.7221, 336.9334
992.2042, 335.1836
992.6863, 339.3381
993.1685, 347.4695
993.6506, 348.9738
994.1327, 336.7862
994.6148, 328.1471
995.0969, 334.4286
995.5790, 342.8698
996.0612, 344.4885
996.5433, 343.2974
997.0254, 344.5109
997.5075, 348.5400
997.9896, 353.5234
998.4717, 359.0728
998.9539, 364.7496
999.4360, 373.7754
999.9181, 379.2367
1000.400, 370.4198
1000.882, 358.9161
1001.364, 361.0146
1001.847, 375.4294
1002.329, 388.6732
1002.811, 397.1826
1003.293, 400.7057
1003.775, 395.0716
1004.257, 388.8398
1004.739, 391.4375
1005.221, 394.6227
1005.703, 383.0837
1006.186, 361.2222
1006.668, 352.1524
1007.150, 367.8375
1007.632, 382.6363
1008.114, 382.7318
1008.596, 380.4458
1009.078, 386.1948
1009.560, 392.5086
1010.043, 386.9780
1010.525, 372.7279
1011.007, 366.0076
1011.489, 374.1890
1011.971, 381.1193
1012.453, 379.5564
1012.935, 375.0146
1013.417, 367.2753
1013.899, 360.9949
1014.382, 362.7359
1014.864, 370.5712
1015.346, 377.0687
1015.828, 380.7947
1016.310, 380.4248
1016.792, 370.1733
1017.274, 361.9166
1017.756, 364.1479
1018.239, 370.0067
1018.721, 372.9824
1019.203, 373.0625
1019.685, 372.6417
1020.167, 372.4071
1020.649, 370.9840
1021.131, 367.4311
1021.613, 363.1901
1022.095, 356.6923
1022.578, 351.6873
1023.060, 354.9280
1023.542, 361.8457
1024.024, 358.8866
1024.506, 340.9616
1024.988, 330.5748
1025.470, 338.3840
1025.952, 348.4127
1026.435, 362.7956
1026.917, 369.6845
1027.399, 350.0624
1027.881, 318.6128
1028.363, 308.6639
1028.845, 327.4094
1029.327, 342.1920
1029.809, 349.7672
1030.292, 349.0017
1030.774, 331.2834
1031.256, 313.4608
1031.738, 306.3956
1032.220, 307.3429
1032.702, 312.3223
1033.184, 321.6233
1033.666, 326.1485
1034.148, 319.2291
1034.630, 315.8832
1035.113, 322.3512
1035.595, 328.8335
1036.077, 329.4439
1036.559, 326.9797
1037.041, 326.3139
1037.523, 327.6678
1038.005, 324.6895
1038.487, 310.2764
1038.970, 303.0556
1039.452, 310.0357
1039.934, 316.6137
1040.416, 315.9214
1040.898, 311.9521
1041.380, 308.2151
1041.862, 305.0963
1042.344, 307.4232
1042.826, 320.8548
1043.309, 326.9582
1043.791, 321.6039
1044.273, 315.3672
1044.755, 311.5829
1045.237, 309.1366
1045.719, 306.5776
1046.201, 304.4386
1046.683, 305.5980
1047.166, 312.0645
1047.648, 314.5392
1048.130, 310.9402
1048.612, 309.7872
1049.094, 315.0965
1049.576, 319.7632
1050.058, 317.4375
1050.540, 310.4863
1051.022, 305.0462
1051.505, 301.1220
1051.987, 298.6740
1052.469, 297.6840
1052.951, 298.4465
1053.433, 301.1096
1053.915, 305.4426
1054.397, 311.7878
1054.879, 318.2526
1055.361, 321.6111
1055.844, 321.8921
1056.326, 318.5372
1056.808, 311.5504
1057.290, 307.7621
1057.772, 308.3662
1058.254, 309.2692
1058.736, 308.3520
1059.218, 306.4250
1059.701, 304.3037
1060.183, 302.2494
1060.665, 301.9457
1061.147, 302.6772
1061.629, 299.4477
1062.111, 292.4538
1062.593, 287.5348
1063.075, 286.9945
1063.557, 290.2157
1064.040, 297.8232
1064.522, 306.3052
1065.004, 309.2755
1065.486, 308.0023
1065.968, 304.2662
1066.450, 299.2379
1066.932, 295.1541
1067.414, 293.0059
1067.896, 295.6478
1068.379, 307.2656
1068.861, 315.9102
1069.343, 302.6088
1069.825, 282.1335
1070.307, 273.1839
1070.789, 274.0572
1071.271, 282.2579
1071.753, 294.5630
1072.236, 303.0235
1072.718, 304.1272
1073.200, 300.5350
1073.682, 287.7452
1074.164, 277.9925
1074.646, 286.9968
1075.128, 300.9792
1075.610, 301.3524
1076.093, 291.7110
1076.575, 286.7396
1077.057, 290.4261
1077.539, 294.6800
1078.021, 296.0004
1078.503, 297.1176
1078.985, 300.2451
1079.467, 302.6773
1079.949, 300.8547
1080.432, 297.5964
1080.914, 299.2852
1081.396, 306.0404
1081.878, 306.5944
1082.360, 291.8741
1082.842, 281.6510
1083.324, 281.4044
1083.806, 283.2599
1084.288, 282.8713
1084.771, 283.4570
1085.253, 289.5965
1085.735, 299.9933
1086.217, 308.8444
1086.699, 319.0476
1087.181, 318.9568
1087.663, 298.9713
1088.145, 288.8854
1088.628, 301.4198
1089.110, 316.5349
1089.592, 319.9581
1090.074, 315.5434
1090.556, 311.1881
1091.038, 306.8521
1091.520, 304.2902
1092.002, 304.1010
1092.484, 301.1657
1092.967, 293.8619
1093.449, 289.5239
1093.931, 292.2557
1094.413, 297.3867
1094.895, 298.8082
1095.377, 297.9312
1095.859, 299.9066
1096.341, 304.4651
1096.823, 311.0747
1097.306, 318.8854
1097.788, 319.8204
1098.270, 311.8091
1098.752, 304.9583
1099.234, 307.9303
1099.716, 313.7267
1100.198, 311.0645
1100.680, 303.7093
1101.163, 298.4449
1101.645, 295.3396
1102.127, 292.6496
1102.609, 291.0791
1103.091, 296.2310
1103.573, 311.2541
1104.055, 323.2136
1104.537, 317.6231
1105.020, 308.1460
1105.502, 307.4433
1105.984, 310.0839
1106.466, 309.8866
1106.948, 307.0427
1107.430, 303.4953
1107.912, 299.7163
1108.394, 295.6820
1108.876, 289.4852
1109.359, 285.9019
1109.841, 287.2947
1110.323, 291.1887
1110.805, 299.6153
1111.287, 307.2394
1111.769, 305.2538
1112.251, 296.0212
1112.733, 293.8502
1113.215, 304.7026
1113.698, 310.8426
1114.180, 308.9301
1114.662, 306.7997
1115.144, 306.7701
1115.626, 305.9708
1116.108, 301.1684
1116.590, 295.7104
1117.072, 296.4182
1117.555, 303.3372
1118.037, 307.0781
1118.519, 307.2299
1119.001, 306.0750
1119.483, 303.4471
1119.965, 302.6597
1120.447, 305.3864
1120.929, 308.2781
1121.411, 307.3295
1121.894, 305.3146
1122.376, 311.8794
1122.858, 324.1292
1123.340, 324.8028
1123.822, 315.9121
1124.304, 313.2115
1124.786, 319.3513
1125.268, 324.4677
1125.750, 322.9867
1126.233, 317.9385
1126.715, 311.0671
1127.197, 304.0793
1127.679, 297.6142
1128.161, 293.7368
1128.643, 298.6314
1129.125, 308.4112
1129.607, 311.9884
1130.090, 306.9873
1130.572, 301.5383
1131.054, 298.8449
1131.536, 298.2238
1132.018, 300.0304
1132.500, 302.9760
1132.982, 308.7293
1133.464, 313.2729
1133.947, 308.8048
1134.429, 298.6926
1134.911, 298.8247
1135.393, 317.8516
1135.875, 323.8686
1136.357, 297.8139
1136.839, 283.5302
1137.321, 295.7584
1137.803, 310.8389
1138.286, 317.1604
1138.768, 316.3225
1139.250, 308.9718
1139.732, 296.5010
1140.214, 292.9522
1140.696, 299.9211
1141.178, 302.8075
1141.660, 300.1492
1142.142, 299.6029
1142.625, 303.7036
1143.107, 309.3891
1143.589, 314.8868
1144.071, 317.4193
1144.553, 308.6826
1145.035, 294.2206
1145.517, 293.7726
1145.999, 301.8484
1146.482, 298.6784
1146.964, 285.3690
1147.446, 278.8742
1147.928, 285.2505
1148.410, 294.4674
1148.892, 300.9364
1149.374, 304.1211
1149.856, 301.0314
1150.339, 296.7243
1150.821, 297.1302
1151.303, 299.2163
1151.785, 297.3761
1152.267, 292.1736
1152.749, 288.5283
1153.231, 286.9260
1153.713, 289.7877
1154.195, 302.8902
1154.677, 313.2871
1155.160, 316.3360
1155.642, 316.2985
1156.124, 314.8663
1156.606, 312.8447
1157.088, 311.4576
1157.570, 310.6179
1158.052, 309.4051
1158.534, 308.0395
1159.017, 304.7597
1159.499, 298.7448
1159.981, 295.6238
1160.463, 297.3665
1160.945, 300.1996
1161.427, 301.6609
1161.909, 301.1051
1162.391, 294.3496
1162.874, 285.8714
1163.356, 294.5591
1163.838, 313.8874
1164.320, 322.5159
1164.802, 320.0845
1165.284, 315.7577
1165.766, 312.9557
1166.248, 312.8017
1166.730, 318.4423
1167.213, 320.7469
1167.695, 306.0452
1168.177, 291.0403
1168.659, 292.9702
1169.141, 301.9095
1169.623, 306.1705
1170.105, 305.2657
1170.587, 301.6446
1171.069, 295.1550
1171.552, 290.9220
1172.034, 290.2574
1172.516, 291.1889
1172.998, 292.1829
1173.480, 296.8432
1173.962, 311.0155
1174.444, 323.4421
1174.926, 321.5056
1175.409, 309.0212
1175.891, 297.9163
1176.373, 287.7520
1176.855, 287.7612
1177.337, 298.3410
1177.819, 298.7495
1178.301, 285.4995
1178.783, 278.1133
1179.266, 286.1306
1179.748, 294.9377
1180.230, 287.8479
1180.712, 274.6043
1181.194, 267.7155
1181.676, 267.8711
1182.158, 282.0029
1182.640, 301.8693
1183.122, 310.4003
1183.604, 306.9194
1184.087, 301.7444
1184.569, 298.4036
1185.051, 295.3108
1185.533, 293.6888
1186.015, 289.5111
1186.497, 272.2240
1186.979, 261.2142
1187.461, 275.7095
1187.944, 301.0080
1188.426, 318.4295
1188.908, 327.7079
1189.390, 326.4850
1189.872, 308.9523
1190.354, 302.5601
1190.836, 310.5356
1191.318, 314.9913
1191.801, 311.5721
1192.283, 307.2944
1192.765, 306.0385
1193.247, 306.6676
1193.729, 308.1940
1194.211, 309.8716
1194.693, 309.7009
1195.175, 308.2749
1195.657, 306.6455
1196.140, 305.3168
1196.622, 305.5650
1197.104, 307.3210
1197.586, 309.4475
1198.068, 311.6565
1198.550, 311.9124
1199.032, 304.7843
1199.514, 300.7388
1199.996, 309.7324
1200.479, 320.0290
1200.961, 323.7069
1201.443, 321.9176
1201.925, 315.6055
1202.407, 305.7308
1202.889, 297.9083
1203.371, 290.7362
1203.853, 290.9219
1204.336, 301.2046
1204.818, 299.7934
1205.300, 311.6392
1205.782, 318.4367
1206.264, 320.4575
1206.746, 303.3941
1207.228, 310.9740
1207.710, 308.6779
1208.193, 305.9775
1208.675, 317.0258
1209.157, 302.7381
1209.639, 313.5683
1210.121, 314.3719
1210.603, 319.7645
1211.085, 315.2201
1211.567, 308.4862
1212.049, 305.2309
1212.531, 309.6796
1213.014, 313.7579
1213.496, 311.7670
1213.978, 309.4933
1214.460, 312.6356
1214.942, 316.5983
1215.424, 314.7050
1215.906, 308.5607
1216.388, 304.8419
1216.871, 304.0329
1217.353, 302.0675
1217.835, 297.1667
1218.317, 300.7991
1218.799, 316.9566
1219.281, 322.7881
1219.763, 307.9162
1220.245, 292.2657
1220.728, 294.4573
1221.210, 304.7336
1221.692, 306.4605
1222.174, 303.3822
1222.656, 304.2841
1223.138, 305.9683
1223.620, 298.6841
1224.102, 286.1365
1224.584, 282.1004
1225.067, 289.4777
1225.549, 296.6357
1226.031, 298.5053
1226.513, 299.6268
1226.995, 301.3498
1227.477, 302.8433
1227.959, 304.6128
1228.441, 304.9930
1228.923, 301.4112
1229.406, 296.9212
1229.888, 296.8590
1230.370, 300.8882
1230.852, 305.9497
1231.334, 312.2136
1231.816, 315.4611
1232.298, 315.3999
1232.780, 309.2139
1233.263, 297.2538
1233.745, 292.8791
1234.227, 303.9856
1234.709, 316.0691
1235.191, 313.3467
1235.673, 304.6369
1236.155, 296.2311
1236.637, 290.2874
1237.120, 291.4150
##END=



