##NAMES=Djurleite
##RRUFFID=R070333
##IDEAL CHEMISTRY=Cu_31_S_16_
##LOCALITY=Cornwall, England
##OWNER=RRUFF
##SOURCE=Michael Scott
##DESCRIPTION=Aggregate of black metallic prismatic crystals with bluish tarnish
##STATUS=The identification of this mineral has been confirmed by X-ray diffraction and chemical analysis
##URL=rruff.info/R070333
##MEASURED CHEMISTRY=Cu_30.75_S_16_ = Cu_1.92_S
146.1616, 317.3977
146.6437, 332.1886
147.1258, 344.1418
147.6079, 355.4441
148.0901, 363.8844
148.5722, 362.7309
149.0543, 339.5180
149.5364, 317.7069
150.0185, 307.6600
150.5006, 323.5858
150.9828, 334.4126
151.4649, 336.2223
151.9470, 330.0394
152.4291, 327.6500
152.9112, 335.2207
153.3933, 343.6165
153.8755, 346.4584
154.3576, 336.5902
154.8397, 327.4676
155.3218, 322.0793
155.8039, 320.9407
156.2860, 320.4038
156.7682, 322.7242
157.2503, 324.5703
157.7324, 321.7491
158.2145, 300.2139
158.6966, 284.0065
159.1787, 285.6974
159.6609, 316.9595
160.1430, 343.0729
160.6251, 352.9604
161.1072, 349.9744
161.5893, 341.5779
162.0714, 322.5293
162.5536, 303.5384
163.0357, 292.0803
163.5178, 295.4370
163.9999, 300.4665
164.4820, 301.8978
164.9641, 300.0230
165.4463, 296.4649
165.9284, 288.2531
166.4105, 280.0036
166.8926, 276.6927
167.3747, 288.7368
167.8568, 300.2688
168.3390, 297.0673
168.8211, 277.6745
169.3032, 261.8037
169.7853, 267.1836
170.2674, 284.6018
170.7495, 297.9725
171.2317, 297.3515
171.7138, 290.2269
172.1959, 283.5504
172.6780, 277.9687
173.1601, 273.2949
173.6422, 269.2950
174.1244, 266.0514
174.6065, 263.8956
175.0886, 261.8015
175.5707, 261.1612
176.0528, 265.1908
176.5349, 278.2986
177.0171, 290.7993
177.4992, 288.5752
177.9813, 273.2114
178.4634, 258.1891
178.9455, 255.8441
179.4276, 261.6942
179.9098, 265.2579
180.3919, 261.0151
180.8740, 253.7841
181.3561, 252.8291
181.8382, 258.4755
182.3203, 263.9577
182.8025, 260.7900
183.2846, 251.0674
183.7667, 243.1295
184.2488, 242.0329
184.7309, 245.4637
185.2130, 245.7569
185.6951, 241.6460
186.1773, 238.8873
186.6594, 250.2626
187.1415, 273.8973
187.6236, 289.8978
188.1057, 279.8227
188.5878, 250.4835
189.0700, 235.7805
189.5521, 242.2674
190.0342, 259.1695
190.5163, 267.5105
190.9984, 267.0148
191.4805, 263.8867
191.9627, 262.2087
192.4448, 261.8224
192.9269, 260.4694
193.4090, 256.5894
193.8911, 252.1600
194.3732, 255.9783
194.8554, 270.0943
195.3375, 281.1022
195.8196, 271.8040
196.3017, 241.5938
196.7838, 219.9413
197.2659, 216.5857
197.7481, 228.6982
198.2302, 237.5670
198.7123, 242.5487
199.1944, 246.1764
199.6765, 251.1468
200.1586, 257.5267
200.6408, 265.2461
201.1229, 276.9912
201.6050, 292.8858
202.0871, 297.1695
202.5692, 287.1436
203.0513, 269.6701
203.5335, 254.2950
204.0156, 240.0141
204.4977, 231.9849
204.9798, 234.2755
205.4619, 248.4374
205.9440, 261.9959
206.4262, 275.8021
206.9083, 287.8915
207.3904, 292.8354
207.8725, 289.3958
208.3546, 282.2027
208.8367, 271.9571
209.3189, 256.0968
209.8010, 248.7876
210.2831, 254.6933
210.7652, 269.6013
211.2473, 273.7151
211.7294, 262.9254
212.2116, 249.4383
212.6937, 242.1986
213.1758, 241.9536
213.6579, 245.5709
214.1400, 254.1175
214.6221, 267.0773
215.1043, 275.8564
215.5864, 279.2531
216.0685, 280.3838
216.5506, 282.4257
217.0327, 286.2597
217.5148, 288.8490
217.9970, 289.6786
218.4791, 288.7586
218.9612, 285.5444
219.4433, 278.9799
219.9254, 271.2163
220.4075, 265.0854
220.8897, 261.2061
221.3718, 257.6396
221.8539, 252.5452
222.3360, 243.6802
222.8181, 244.8018
223.3002, 261.9668
223.7824, 285.3169
224.2645, 295.9891
224.7466, 287.7837
225.2287, 277.7560
225.7108, 272.5418
226.1929, 261.8041
226.6750, 277.8376
227.1572, 286.9869
227.6393, 289.6219
228.1214, 266.2318
228.6035, 276.4478
229.0856, 273.1960
229.5677, 269.3919
230.0499, 284.3378
230.5320, 264.7330
231.0141, 279.3816
231.4962, 280.3568
231.9783, 287.5899
232.4604, 281.2721
232.9426, 268.0989
233.4247, 261.6295
233.9068, 261.4091
234.3889, 260.2952
234.8710, 256.0706
235.3531, 249.6099
235.8353, 249.6618
236.3174, 259.7280
236.7995, 272.3335
237.2816, 282.6538
237.7637, 293.1423
238.2458, 296.2297
238.7280, 287.3210
239.2101, 266.7270
239.6922, 255.5927
240.1743, 256.5410
240.6564, 264.3199
241.1385, 275.6409
241.6207, 298.2592
242.1028, 310.3091
242.5849, 303.1150
243.0670, 274.0285
243.5491, 260.5219
244.0313, 272.4744
244.5134, 291.7472
244.9955, 296.0905
245.4776, 274.2388
245.9597, 257.0085
246.4418, 252.6776
246.9240, 263.5553
247.4061, 274.4803
247.8882, 287.3678
248.3703, 298.8352
248.8524, 303.5054
249.3345, 298.4899
249.8167, 291.5814
250.2988, 284.2909
250.7809, 275.5844
251.2630, 270.5732
251.7451, 269.5761
252.2272, 272.1052
252.7094, 278.2444
253.1915, 291.8871
253.6736, 302.4818
254.1557, 305.3438
254.6378, 297.1225
255.1199, 291.5323
255.6021, 288.2345
256.0842, 287.7572
256.5663, 292.3513
257.0484, 306.1683
257.5305, 317.8614
258.0126, 321.3603
258.4948, 311.8955
258.9769, 308.2497
259.4590, 313.4707
259.9411, 323.5892
260.4232, 327.3763
260.9053, 321.9383
261.3875, 315.4771
261.8696, 312.4514
262.3517, 314.5666
262.8338, 315.0332
263.3159, 313.9770
263.7980, 310.9300
264.2802, 303.4506
264.7623, 288.8071
265.2444, 275.0441
265.7265, 265.7557
266.2086, 260.0374
266.6907, 263.6041
267.1729, 280.7235
267.6550, 306.7165
268.1371, 323.5980
268.6192, 328.8341
269.1013, 330.2492
269.5834, 333.5897
270.0656, 340.1460
270.5477, 342.3853
271.0298, 338.7802
271.5119, 330.2916
271.9940, 319.0645
272.4761, 302.4988
272.9583, 290.0593
273.4404, 292.1096
273.9225, 312.7446
274.4046, 324.3004
274.8867, 319.4853
275.3688, 302.9457
275.8510, 296.7896
276.3331, 303.7545
276.8152, 313.0031
277.2973, 315.3174
277.7794, 310.0371
278.2615, 303.7780
278.7437, 296.3191
279.2258, 289.0076
279.7079, 289.1182
280.1900, 298.0220
280.6721, 309.0282
281.1542, 317.0501
281.6364, 322.1238
282.1185, 323.4116
282.6006, 319.0848
283.0827, 311.1803
283.5648, 308.1579
284.0469, 310.4947
284.5291, 315.2243
285.0112, 321.9540
285.4933, 330.4454
285.9754, 332.0374
286.4575, 320.5454
286.9396, 301.5069
287.4217, 294.3381
287.9038, 299.6959
288.3860, 312.1345
288.8681, 331.7968
289.3502, 356.8383
289.8323, 371.6115
290.3144, 367.5041
290.7965, 351.2728
291.2787, 342.1781
291.7608, 340.7746
292.2429, 340.0797
292.7250, 329.4106
293.2071, 311.9015
293.6892, 303.6955
294.1714, 315.6375
294.6535, 337.8312
295.1356, 348.5863
295.6177, 347.6196
296.0998, 342.1330
296.5819, 337.8161
297.0641, 334.3251
297.5462, 330.6059
298.0283, 326.5285
298.5104, 321.9152
298.9925, 315.2255
299.4746, 306.4005
299.9568, 299.5858
300.4389, 297.7028
300.9210, 300.5121
301.4031, 307.7310
301.8852, 325.8556
302.3673, 344.3982
302.8495, 346.9994
303.3316, 333.9393
303.8137, 320.0139
304.2958, 321.1721
304.7779, 329.5723
305.2600, 331.0982
305.7422, 308.7834
306.2243, 284.7354
306.7064, 285.6160
307.1885, 310.1498
307.6706, 332.7358
308.1527, 331.0916
308.6349, 317.2310
309.1170, 307.8271
309.5991, 313.4634
310.0812, 322.4460
310.5633, 325.9893
311.0454, 324.4047
311.5276, 322.6564
312.0097, 324.4693
312.4918, 327.4888
312.9739, 329.1059
313.4560, 325.9530
313.9381, 323.1621
314.4203, 323.8481
314.9024, 327.8119
315.3845, 332.3945
315.8666, 341.2009
316.3487, 347.9790
316.8308, 346.8214
317.3130, 324.2786
317.7951, 304.2735
318.2772, 297.4868
318.7593, 303.0088
319.2414, 310.4315
319.7235, 326.2475
320.2057, 337.5192
320.6878, 333.9987
321.1699, 288.4890
321.6520, 253.1953
322.1341, 247.7484
322.6162, 268.9813
323.0984, 284.3484
323.5805, 282.4445
324.0626, 275.6976
324.5447, 272.4902
325.0268, 279.1293
325.5089, 283.6240
325.9911, 281.3391
326.4732, 273.4551
326.9553, 272.3561
327.4374, 290.8161
327.9195, 308.1910
328.4016, 312.6020
328.8838, 287.1525
329.3659, 269.8776
329.8480, 266.2073
330.3301, 273.8743
330.8122, 278.5269
331.2943, 279.0014
331.7765, 277.6577
332.2586, 276.0185
332.7407, 276.1055
333.2228, 271.7765
333.7049, 259.0445
334.1870, 241.4313
334.6692, 233.7671
335.1513, 239.6886
335.6334, 249.5876
336.1155, 259.8152
336.5976, 273.5575
337.0797, 276.6371
337.5619, 263.5085
338.0440, 241.3135
338.5261, 232.2705
339.0082, 240.1752
339.4903, 249.8237
339.9724, 251.3620
340.4546, 243.1835
340.9367, 242.4234
341.4188, 253.2567
341.9009, 267.9571
342.3830, 267.9354
342.8651, 251.5015
343.3473, 236.3989
343.8294, 233.4769
344.3115, 241.7252
344.7936, 248.8357
345.2757, 254.6194
345.7578, 258.2631
346.2400, 257.2539
346.7221, 251.9056
347.2042, 247.3047
347.6863, 232.9370
348.1684, 247.1966
348.6505, 254.5719
349.1327, 255.4328
349.6148, 230.2688
350.0969, 238.7110
350.5790, 233.6852
351.0611, 228.1073
351.5432, 241.2793
352.0254, 219.9004
352.5075, 232.7750
352.9896, 231.9764
353.4717, 237.4356
353.9538, 229.3440
354.4359, 225.4377
354.9181, 235.0866
355.4002, 237.2299
355.8823, 227.5784
356.3644, 233.4354
356.8465, 211.5835
357.3286, 214.0465
357.8108, 227.0002
358.2929, 218.0300
358.7750, 224.1348
359.2571, 224.4982
359.7392, 199.0747
360.2213, 201.3676
360.7035, 216.3510
361.1856, 229.7529
361.6677, 239.7989
362.1498, 243.3014
362.6319, 237.6500
363.1140, 206.4513
363.5962, 181.8668
364.0783, 175.7420
364.5604, 185.9474
365.0425, 197.1265
365.5246, 207.4974
366.0067, 216.6579
366.4889, 224.3616
366.9710, 233.3829
367.4531, 237.7993
367.9352, 233.9256
368.4173, 224.0335
368.8994, 218.1615
369.3815, 218.2741
369.8636, 220.8963
370.3458, 224.8414
370.8279, 233.1302
371.3100, 237.5855
371.7921, 237.3034
372.2742, 233.4226
372.7563, 228.1399
373.2385, 219.0493
373.7206, 212.6111
374.2027, 212.3011
374.6848, 220.1742
375.1669, 225.7794
375.6490, 229.2141
376.1312, 230.2697
376.6133, 227.8650
377.0954, 220.9498
377.5775, 214.7968
378.0596, 211.8504
378.5417, 212.0248
379.0239, 210.7321
379.5060, 207.9303
379.9881, 203.8220
380.4702, 196.7290
380.9523, 186.8603
381.4344, 182.0864
381.9166, 187.5512
382.3987, 199.5027
382.8808, 207.3936
383.3629, 211.1125
383.8450, 211.4459
384.3271, 206.0643
384.8093, 197.3630
385.2914, 193.0187
385.7735, 196.5672
386.2556, 204.3725
386.7377, 214.1067
387.2198, 224.9975
387.7020, 231.3503
388.1841, 223.3786
388.6662, 210.0941
389.1483, 204.2824
389.6304, 213.4451
390.1125, 223.7273
390.5947, 224.5920
391.0768, 218.0491
391.5589, 210.2952
392.0410, 200.5302
392.5231, 193.2039
393.0052, 192.6483
393.4874, 203.1166
393.9695, 211.6534
394.4516, 211.7676
394.9337, 206.7298
395.4158, 202.5268
395.8979, 202.2408
396.3801, 201.8834
396.8622, 199.3725
397.3443, 193.3939
397.8264, 189.4062
398.3085, 188.1618
398.7906, 189.2773
399.2728, 192.3829
399.7549, 200.4377
400.2370, 207.1072
400.7191, 210.7397
401.2012, 211.0749
401.6833, 212.6724
402.1655, 218.3790
402.6476, 222.5419
403.1297, 219.0410
403.6118, 202.4914
404.0939, 191.6676
404.5760, 191.0919
405.0582, 198.6180
405.5403, 202.3890
406.0224, 201.1254
406.5045, 199.7254
406.9866, 202.9895
407.4688, 211.4491
407.9509, 214.0156
408.4330, 207.2308
408.9151, 197.1886
409.3972, 198.9457
409.8793, 212.5120
410.3615, 223.8233
410.8436, 223.1091
411.3257, 213.5531
411.8078, 205.5672
412.2899, 199.6778
412.7720, 195.8736
413.2542, 194.8181
413.7363, 195.9891
414.2184, 197.8396
414.7005, 200.1898
415.1826, 202.5531
415.6647, 203.7999
416.1469, 203.8607
416.6290, 205.0617
417.1111, 211.5784
417.5932, 219.5685
418.0753, 223.8252
418.5574, 220.8262
419.0396, 215.3419
419.5217, 206.4424
420.0038, 195.5505
420.4859, 191.4855
420.9680, 207.3420
421.4501, 225.4628
421.9323, 233.2878
422.4144, 222.2803
422.8965, 209.9394
423.3786, 196.0005
423.8607, 182.5459
424.3428, 175.3416
424.8250, 179.0782
425.3071, 185.3736
425.7892, 191.8405
426.2713, 199.8992
426.7534, 204.4649
427.2355, 203.8383
427.7177, 200.7793
428.1998, 199.7988
428.6819, 203.1884
429.1640, 203.3566
429.6461, 196.8209
430.1282, 183.8588
430.6104, 174.3246
431.0925, 167.8824
431.5746, 165.7346
432.0567, 171.3740
432.5388, 185.0970
433.0209, 195.5430
433.5031, 200.1848
433.9852, 200.1859
434.4673, 197.1016
434.9494, 191.0392
435.4315, 185.9129
435.9136, 184.3059
436.3958, 185.8360
436.8779, 189.9554
437.3600, 197.1084
437.8421, 205.2063
438.3242, 214.4643
438.8063, 223.1827
439.2885, 226.5761
439.7706, 215.6535
440.2527, 202.1539
440.7348, 199.3127
441.2169, 209.4953
441.6990, 215.5031
442.1812, 199.1404
442.6633, 176.0399
443.1454, 164.5968
443.6275, 181.3240
444.1096, 200.2321
444.5917, 213.4736
445.0739, 221.0366
445.5560, 225.3168
446.0381, 226.1823
446.5202, 224.3541
447.0023, 220.2161
447.4844, 208.7354
447.9666, 201.6000
448.4487, 202.6332
448.9308, 207.7717
449.4129, 205.2038
449.8950, 189.3727
450.3771, 175.0624
450.8593, 167.7309
451.3413, 167.8764
451.8235, 173.2956
452.3056, 186.2608
452.7877, 200.9195
453.2698, 209.1439
453.7519, 210.3766
454.2340, 211.2710
454.7162, 215.3615
455.1983, 220.2829
455.6804, 215.6058
456.1625, 200.7480
456.6446, 185.9860
457.1267, 180.3919
457.6089, 181.7408
458.0910, 183.8656
458.5731, 186.0625
459.0552, 187.5004
459.5373, 185.4681
460.0194, 181.4001
460.5016, 180.0534
460.9837, 187.6498
461.4658, 197.1606
461.9479, 202.0788
462.4300, 201.0795
462.9121, 198.8277
463.3943, 197.5558
463.8764, 196.4542
464.3585, 194.4934
464.8406, 184.0362
465.3227, 179.8197
465.8048, 192.7591
466.2870, 222.7705
466.7691, 238.9468
467.2512, 221.8290
467.7333, 201.0526
468.2154, 195.3216
468.6975, 220.8605
469.1797, 234.6208
469.6618, 229.4981
470.1439, 212.8286
470.6260, 203.7732
471.1081, 204.1405
471.5902, 207.8582
472.0724, 215.3098
472.5545, 227.4786
473.0366, 224.1546
473.5187, 200.5810
474.0008, 174.9618
474.4829, 173.2560
474.9651, 193.3041
475.4472, 208.8896
475.9293, 209.9370
476.4114, 203.0435
476.8935, 202.9005
477.3756, 208.8018
477.8578, 211.8327
478.3399, 201.3910
478.8220, 185.1274
479.3041, 174.2750
479.7862, 171.4192
480.2683, 173.2027
480.7505, 180.4903
481.2326, 190.5066
481.7147, 197.4438
482.1968, 195.9499
482.6789, 193.2515
483.1610, 192.9272
483.6432, 195.4234
484.1253, 198.7493
484.6074, 204.3389
485.0895, 209.5318
485.5716, 212.0593
486.0537, 211.9900
486.5359, 208.7148
487.0180, 200.0885
487.5001, 187.7602
487.9822, 179.1269
488.4643, 173.9725
488.9464, 172.9938
489.4286, 178.3668
489.9107, 192.4630
490.3928, 199.0497
490.8749, 195.7046
491.3570, 189.0150
491.8391, 189.9171
492.3213, 198.3579
492.8034, 203.8976
493.2855, 200.3963
493.7676, 192.3798
494.2497, 192.9001
494.7318, 201.7538
495.2140, 209.6653
495.6961, 208.0647
496.1782, 200.5495
496.6603, 192.9976
497.1424, 185.7282
497.6245, 180.4367
498.1067, 181.2853
498.5888, 185.1715
499.0709, 184.9165
499.5530, 170.1410
500.0351, 156.2053
500.5172, 152.0336
500.9994, 159.5443
501.4815, 168.3212
501.9636, 178.5830
502.4457, 187.8214
502.9278, 193.7738
503.4099, 193.8712
503.8921, 193.8635
504.3742, 195.2216
504.8563, 196.9646
505.3384, 194.2399
505.8205, 183.9259
506.3026, 175.1138
506.7848, 172.5285
507.2669, 176.9396
507.7490, 182.3232
508.2311, 189.3887
508.7132, 195.7984
509.1953, 198.0944
509.6775, 196.5649
510.1596, 194.2443
510.6417, 190.6891
511.1238, 175.0931
511.6059, 191.4756
512.0880, 200.9741
512.5701, 203.9583
513.0522, 180.9173
513.5344, 191.4826
514.0165, 188.5799
514.4986, 185.1250
514.9807, 200.4200
515.4628, 181.1644
515.9449, 196.1620
516.4271, 197.4866
516.9092, 205.0688
517.3913, 199.1002
517.8734, 197.3170
518.3555, 209.0892
518.8376, 213.3555
519.3198, 205.8272
519.8019, 213.8072
520.2840, 194.0782
520.7661, 198.6644
521.2482, 213.7414
521.7303, 198.1688
522.2125, 197.7635
522.6946, 199.3740
523.1767, 204.0490
523.6588, 206.3289
524.1409, 203.1212
524.6230, 195.2697
525.1052, 187.3626
525.5873, 178.8992
526.0694, 174.3291
526.5515, 182.1134
527.0336, 197.6310
527.5157, 207.2944
527.9979, 206.4087
528.4800, 200.7504
528.9621, 192.9083
529.4442, 184.7358
529.9263, 181.4746
530.4084, 191.0121
530.8906, 202.7946
531.3727, 209.4217
531.8548, 209.8642
532.3369, 208.9415
532.8190, 208.7285
533.3011, 207.6501
533.7833, 204.2804
534.2654, 189.6701
534.7475, 183.6552
535.2296, 195.3145
535.7117, 217.2401
536.1938, 222.1229
536.6760, 200.6669
537.1581, 179.9162
537.6402, 171.6264
538.1223, 176.8540
538.6044, 181.6650
539.0865, 185.8162
539.5687, 190.4300
540.0508, 199.2665
540.5329, 211.1196
541.0150, 215.3003
541.4971, 205.9161
541.9792, 191.6672
542.4614, 186.7258
542.9435, 189.4939
543.4256, 192.5361
543.9077, 191.0693
544.3898, 187.9222
544.8719, 185.3842
545.3541, 183.5529
545.8362, 183.4396
546.3183, 187.2000
546.8004, 192.2551
547.2825, 195.8233
547.7646, 195.9361
548.2468, 195.9319
548.7289, 196.3216
549.2110, 197.0675
549.6931, 197.5963
550.1752, 194.4189
550.6573, 195.8628
551.1395, 208.2497
551.6216, 235.6587
552.1037, 248.2185
552.5858, 242.8629
553.0679, 229.6400
553.5500, 218.2991
554.0322, 208.9779
554.5143, 203.4492
554.9964, 204.0310
555.4785, 206.2498
555.9606, 200.0683
556.4427, 187.1659
556.9249, 176.8002
557.4070, 173.9460
557.8891, 176.9672
558.3712, 187.4472
558.8533, 206.8702
559.3354, 219.3058
559.8176, 206.8015
560.2997, 186.8849
560.7818, 177.5181
561.2639, 198.2201
561.7460, 213.1938
562.2281, 210.5546
562.7103, 195.6042
563.1924, 188.9313
563.6745, 197.2956
564.1566, 205.1961
564.6387, 206.6971
565.1208, 200.9802
565.6030, 197.6844
566.0851, 198.2607
566.5672, 198.0031
567.0493, 189.1585
567.5314, 172.5686
568.0135, 164.4621
568.4957, 169.4537
568.9778, 181.5664
569.4599, 194.0650
569.9420, 206.0986
570.4241, 213.5141
570.9063, 211.0980
571.3884, 204.9066
571.8705, 200.3265
572.3526, 197.6673
572.8347, 196.7438
573.3168, 200.2219
573.7990, 203.9146
574.2811, 204.1013
574.7632, 196.2274
575.2453, 190.2296
575.7274, 189.6419
576.2095, 191.5586
576.6917, 189.9156
577.1738, 180.7267
577.6559, 174.5679
578.1380, 174.8959
578.6201, 181.3245
579.1022, 188.1271
579.5844, 195.7615
580.0665, 202.0648
580.5486, 204.6152
581.0307, 203.9943
581.5128, 204.7479
581.9949, 208.0913
582.4771, 210.3621
582.9592, 205.0998
583.4413, 195.1294
583.9234, 187.4379
584.4055, 183.7915
584.8876, 184.5064
585.3698, 193.2126
585.8519, 207.9375
586.3340, 218.2434
586.8161, 218.2105
587.2982, 213.5149
587.7803, 206.0350
588.2625, 192.1952
588.7446, 185.8159
589.2267, 192.7556
589.7088, 203.7204
590.1909, 208.4470
590.6730, 204.2166
591.1552, 201.2677
591.6373, 202.1331
592.1194, 204.8380
592.6015, 202.8444
593.0836, 195.8391
593.5657, 189.0459
594.0479, 185.0216
594.5300, 183.3114
595.0121, 183.3120
595.4942, 185.0523
595.9763, 186.5811
596.4584, 185.7431
596.9406, 183.8941
597.4227, 182.7410
597.9048, 182.5859
598.3869, 183.4289
598.8690, 185.0669
599.3511, 187.7126
599.8333, 191.8042
600.3154, 197.1903
600.7975, 204.4024
601.2796, 216.3971
601.7617, 232.8679
602.2438, 238.1446
602.7260, 226.7485
603.2081, 213.6963
603.6902, 209.4383
604.1723, 214.8613
604.6544, 216.8870
605.1365, 214.4142
605.6187, 209.9962
606.1008, 207.3791
606.5829, 205.8885
607.0650, 202.3471
607.5471, 193.0416
608.0292, 184.1963
608.5114, 184.4145
608.9935, 191.6804
609.4756, 198.9277
609.9577, 202.3051
610.4398, 204.5089
610.9219, 208.1831
611.4041, 214.4490
611.8862, 215.5950
612.3683, 203.4500
612.8504, 189.8857
613.3325, 184.1280
613.8146, 190.8979
614.2968, 196.0583
614.7789, 198.1750
615.2610, 199.0160
615.7431, 202.9249
616.2252, 210.4897
616.7073, 214.9269
617.1895, 212.0046
617.6716, 192.2086
618.1537, 207.9292
618.6358, 216.7656
619.1179, 219.0877
619.6000, 195.3848
620.0822, 205.2878
620.5643, 201.7231
621.0464, 197.6062
621.5285, 212.2391
622.0106, 192.3214
622.4927, 206.6571
622.9749, 207.3194
623.4570, 214.2397
623.9391, 207.6090
624.4212, 205.1637
624.9033, 216.2738
625.3854, 219.8782
625.8676, 211.6875
626.3497, 219.0056
626.8318, 198.6145
627.3139, 202.5386
627.7960, 216.9536
628.2781, 209.4443
628.7603, 217.0101
629.2424, 218.8345
629.7245, 194.5665
630.2066, 215.6757
630.6887, 217.1608
631.1708, 206.2417
631.6530, 197.8071
632.1351, 185.9086
632.6172, 180.1197
633.0993, 188.4217
633.5814, 198.7675
634.0635, 209.6667
634.5457, 219.7912
635.0278, 223.9470
635.5099, 213.1053
635.9920, 206.0945
636.4741, 212.0446
636.9562, 232.5244
637.4384, 234.9284
637.9205, 213.2317
638.4026, 190.1835
638.8847, 187.7292
639.3668, 203.1766
639.8489, 210.8043
640.3311, 206.4309
640.8132, 198.7938
641.2953, 198.9444
641.7774, 203.6292
642.2595, 205.5950
642.7416, 197.3753
643.2238, 190.3323
643.7059, 194.4414
644.1880, 206.2132
644.6701, 213.9552
645.1522, 210.6173
645.6343, 205.5209
646.1165, 202.2090
646.5986, 200.8876
647.0807, 199.5136
647.5628, 197.7861
648.0449, 196.4287
648.5270, 195.8795
649.0092, 196.1245
649.4913, 197.5340
649.9734, 200.3720
650.4555, 203.7259
650.9376, 208.1462
651.4197, 212.4043
651.9019, 211.3397
652.3840, 197.7132
652.8661, 184.7366
653.3482, 187.9915
653.8303, 202.7896
654.3124, 214.8104
654.7946, 217.9960
655.2767, 217.0789
655.7588, 213.4573
656.2409, 206.9734
656.7230, 200.6687
657.2051, 191.4696
657.6872, 185.9187
658.1693, 189.4638
658.6514, 205.4740
659.1335, 214.7410
659.6157, 215.2770
660.0978, 212.7953
660.5799, 216.9303
661.0620, 225.7427
661.5441, 227.0418
662.0262, 213.7195
662.5084, 197.8477
662.9905, 196.3184
663.4726, 204.3269
663.9547, 208.8356
664.4368, 197.5413
664.9189, 186.4150
665.4011, 185.6114
665.8832, 194.9964
666.3653, 201.1299
666.8474, 198.1016
667.3295, 194.6407
667.8116, 195.1665
668.2938, 201.5474
668.7759, 202.9815
669.2580, 197.6179
669.7401, 191.4303
670.2222, 191.5891
670.7043, 197.4191
671.1865, 202.1364
671.6686, 204.5309
672.1507, 205.2692
672.6328, 205.0187
673.1149, 203.7803
673.5970, 201.5693
674.0792, 196.6241
674.5613, 192.3178
675.0434, 190.3063
675.5255, 190.5450
676.0076, 192.5267
676.4897, 199.4710
676.9719, 204.8626
677.4540, 205.5335
677.9361, 200.6493
678.4182, 199.7406
678.9003, 204.8198
679.3824, 209.4668
679.8646, 205.9239
680.3467, 195.4183
680.8288, 194.1348
681.3109, 205.2468
681.7930, 218.4780
682.2751, 221.4463
682.7573, 217.9418
683.2394, 215.9587
683.7215, 221.9169
684.2036, 225.0048
684.6857, 213.7553
685.1678, 195.2215
685.6500, 185.4148
686.1321, 198.8244
686.6142, 210.1291
687.0963, 211.0613
687.5784, 203.0094
688.0605, 199.6830
688.5427, 202.4973
689.0248, 206.4474
689.5069, 209.6451
689.9890, 211.9106
690.4711, 211.0532
690.9532, 206.8895
691.4354, 201.4829
691.9175, 195.2121
692.3996, 189.4082
692.8817, 186.1934
693.3638, 186.0257
693.8459, 188.2685
694.3281, 195.4777
694.8102, 203.9299
695.2923, 208.6051
695.7744, 207.2905
696.2565, 203.3881
696.7386, 194.2025
697.2208, 183.4749
697.7029, 182.1448
698.1850, 193.1182
698.6671, 203.4160
699.1492, 209.4893
699.6313, 211.0865
700.1135, 203.3041
700.5956, 186.9451
701.0777, 176.0341
701.5598, 186.5361
702.0419, 204.6346
702.5240, 211.9149
703.0062, 206.3112
703.4883, 202.4920
703.9704, 211.4292
704.4525, 222.6012
704.9346, 227.7905
705.4167, 221.6539
705.8989, 216.5326
706.3810, 211.7054
706.8631, 208.6181
707.3452, 210.3025
707.8273, 218.0893
708.3094, 221.2750
708.7916, 216.7679
709.2737, 208.8702
709.7558, 204.4783
710.2379, 203.3924
710.7200, 204.4743
711.2021, 209.0923
711.6843, 214.2303
712.1664, 218.8088
712.6485, 222.0853
713.1306, 220.7780
713.6127, 206.2260
714.0948, 193.4602
714.5770, 190.6001
715.0591, 198.2710
715.5412, 204.6275
716.0233, 209.6200
716.5054, 213.2746
716.9875, 215.7836
717.4697, 217.1237
717.9518, 215.2322
718.4339, 209.3524
718.9160, 204.5074
719.3981, 209.3688
719.8802, 218.5717
720.3624, 220.5902
720.8445, 209.0747
721.3266, 198.8604
721.8087, 201.3902
722.2908, 210.3529
722.7729, 216.6059
723.2551, 217.4254
723.7372, 216.2180
724.2193, 212.0819
724.7014, 206.6215
725.1835, 204.5667
725.6656, 206.5297
726.1478, 209.5069
726.6299, 213.4324
727.1120, 217.1498
727.5941, 215.7095
728.0762, 209.7386
728.5583, 205.4463
729.0405, 211.8270
729.5226, 218.7051
730.0047, 212.6406
730.4868, 192.8127
730.9689, 179.8495
731.4510, 189.3656
731.9332, 202.7115
732.4153, 206.9385
732.8974, 196.6653
733.3795, 193.1466
733.8616, 199.4604
734.3438, 207.8230
734.8259, 209.5152
735.3080, 204.7404
735.7901, 203.4754
736.2722, 207.7862
736.7543, 213.5292
737.2365, 216.0643
737.7186, 216.0491
738.2007, 214.8042
738.6828, 213.2652
739.1649, 209.9817
739.6470, 199.8704
740.1292, 187.6536
740.6113, 184.2433
741.0934, 202.0900
741.5755, 216.0235
742.0576, 220.9654
742.5397, 218.3335
743.0219, 212.8380
743.5040, 203.6248
743.9861, 196.8368
744.4682, 196.8685
744.9503, 201.3600
745.4324, 204.3494
745.9146, 205.8574
746.3967, 205.8821
746.8788, 202.6596
747.3609, 199.1384
747.8430, 197.8160
748.3251, 199.1209
748.8073, 201.3281
749.2894, 204.3822
749.7715, 207.9752
750.2536, 212.5928
750.7357, 220.7172
751.2178, 221.0278
751.7000, 210.8875
752.1821, 199.1033
752.6642, 196.3824
753.1463, 201.2572
753.6284, 207.2587
754.1105, 214.5550
754.5927, 218.3778
755.0748, 207.5629
755.5569, 191.7303
756.0390, 185.9127
756.5211, 210.0775
757.0032, 228.2974
757.4854, 225.1264
757.9675, 209.7609
758.4496, 203.9583
758.9317, 214.0821
759.4138, 219.4153
759.8959, 213.3639
760.3781, 200.2678
760.8602, 193.1275
761.3423, 191.7443
761.8244, 192.9059
762.3065, 194.2691
762.7886, 197.6017
763.2708, 208.8905
763.7529, 226.0899
764.2350, 236.0874
764.7171, 225.4150
765.1992, 212.3123
765.6813, 207.0249
766.1635, 211.3050
766.6456, 212.6159
767.1277, 209.2687
767.6098, 205.6826
768.0919, 190.0297
768.5740, 207.1375
769.0562, 217.3617
769.5383, 221.0713
770.0204, 198.7556
770.5025, 210.0461
770.9846, 207.8688
771.4667, 205.1391
771.9489, 221.1599
772.4310, 202.6297
772.9131, 218.3526
773.3952, 220.4024
773.8773, 228.7101
774.3594, 201.4952
774.8416, 193.8845
775.3237, 203.6218
775.8058, 218.6579
776.2879, 222.4692
776.7700, 215.0086
777.2521, 204.2799
777.7343, 189.4359
778.2164, 177.6983
778.6985, 183.3617
779.1806, 199.8058
779.6627, 212.0970
780.1448, 209.1520
780.6270, 205.6013
781.1091, 209.2843
781.5912, 217.4551
782.0733, 221.8572
782.5554, 221.7691
783.0375, 218.2150
783.5197, 209.8841
784.0018, 198.7233
784.4839, 191.5786
784.9660, 188.4729
785.4481, 188.2820
785.9302, 191.8811
786.4124, 197.3308
786.8945, 201.6835
787.3766, 205.0149
787.8587, 207.4782
788.3408, 208.5542
788.8229, 209.2780
789.3051, 209.3988
789.7872, 208.7587
790.2693, 211.9121
790.7514, 220.9284
791.2335, 230.4634
791.7156, 238.5110
792.1978, 245.0853
792.6799, 246.5924
793.1620, 242.8222
793.6441, 237.2287
794.1262, 231.9848
794.6083, 227.0836
795.0905, 222.5334
795.5726, 218.2923
796.0547, 214.3793
796.5368, 209.8817
797.0189, 206.2889
797.5010, 205.2101
797.9832, 208.5543
798.4653, 209.3019
798.9474, 205.8033
799.4295, 202.3209
799.9116, 204.0959
800.3937, 210.6600
800.8759, 214.8519
801.3580, 215.3624
801.8401, 215.3610
802.3222, 220.1458
802.8043, 226.0358
803.2864, 227.2257
803.7686, 219.8023
804.2507, 211.9170
804.7328, 205.1808
805.2149, 199.9132
805.6970, 196.0443
806.1791, 192.4103
806.6613, 194.1909
807.1434, 204.9981
807.6255, 216.9533
808.1076, 213.3083
808.5897, 196.9420
809.0718, 185.0469
809.5540, 184.0670
810.0361, 188.0631
810.5182, 195.3361
811.0003, 202.9115
811.4824, 204.9956
811.9645, 191.6477
812.4467, 181.9498
812.9288, 182.6369
813.4109, 189.7787
813.8930, 193.2706
814.3751, 191.5315
814.8572, 193.2160
815.3394, 202.8513
815.8215, 215.5624
816.3036, 220.4762
816.7857, 218.5235
817.2678, 214.0155
817.7499, 203.3137
818.2321, 195.9593
818.7142, 203.0064
819.1963, 220.4853
819.6784, 229.9912
820.1605, 220.2829
820.6426, 210.7233
821.1248, 205.8594
821.6068, 205.2186
822.0889, 207.3591
822.5710, 212.5794
823.0532, 216.8325
823.5353, 217.9090
824.0174, 216.5707
824.4995, 212.7128
824.9816, 207.1042
825.4637, 203.9960
825.9459, 207.2842
826.4280, 212.3402
826.9101, 218.1350
827.3922, 224.4931
827.8743, 225.1448
828.3564, 216.7747
828.8386, 208.6653
829.3207, 192.8246
829.8028, 207.4365
830.2849, 215.1643
830.7670, 216.3778
831.2491, 191.5663
831.7313, 200.3605
832.2134, 195.6873
832.6955, 190.4617
833.1776, 203.9861
833.6597, 182.9597
834.1418, 196.1869
834.6240, 195.7403
835.1061, 201.5520
835.5882, 193.8127
836.0703, 190.2588
836.5524, 203.4049
837.0345, 218.3112
837.5167, 219.3573
837.9988, 210.9019
838.4809, 205.9071
838.9630, 204.9934
839.4451, 204.2276
839.9272, 196.0445
840.4094, 190.2564
840.8915, 197.5451
841.3736, 224.3397
841.8557, 238.6250
842.3378, 231.4306
842.8199, 221.0326
843.3021, 220.4286
843.7842, 230.0933
844.2663, 230.7359
844.7484, 221.2356
845.2305, 212.6985
845.7126, 207.3731
846.1948, 222.1042
846.6769, 229.9514
847.1590, 231.2842
847.6411, 206.5920
848.1232, 215.5058
848.6053, 210.9519
849.0875, 205.8454
849.5696, 219.4892
850.0517, 198.5822
850.5338, 211.9285
851.0159, 211.6016
851.4980, 217.5327
851.9802, 209.9124
852.4623, 206.4780
852.9444, 216.5987
853.4265, 219.2138
853.9086, 210.0339
854.3907, 216.3628
854.8729, 194.9821
855.3550, 197.9170
855.8371, 211.3427
856.3192, 212.7625
856.8013, 226.8463
857.2834, 224.3925
857.7656, 204.9275
858.2477, 197.1638
858.7298, 203.4168
859.2119, 212.8808
859.6940, 216.1433
860.1761, 215.9850
860.6583, 215.7756
861.1404, 215.8904
861.6225, 216.8654
862.1046, 221.2269
862.5867, 224.7476
863.0688, 223.8963
863.5510, 216.6966
864.0331, 213.0264
864.5152, 213.6651
864.9973, 215.1271
865.4794, 214.3701
865.9615, 211.8410
866.4437, 208.5000
866.9258, 204.3746
867.4079, 200.4774
867.8900, 196.1794
868.3721, 193.2003
868.8542, 192.8050
869.3364, 195.0244
869.8185, 201.4390
870.3006, 215.2851
870.7827, 227.9093
871.2648, 230.8669
871.7469, 225.2345
872.2291, 222.6696
872.7112, 223.8389
873.1933, 226.6322
873.6754, 232.7186
874.1575, 237.4461
874.6396, 233.9136
875.1218, 218.6794
875.6039, 209.6234
876.0860, 217.3219
876.5681, 226.7625
877.0502, 229.8373
877.5323, 225.9380
878.0145, 220.8931
878.4966, 214.6051
878.9787, 207.8202
879.4608, 195.8725
879.9429, 185.8783
880.4250, 194.9144
880.9072, 225.0179
881.3893, 246.4215
881.8714, 235.2975
882.3535, 218.1255
882.8356, 211.7728
883.3177, 217.8416
883.7999, 223.2156
884.2820, 228.4536
884.7641, 231.2866
885.2462, 228.9862
885.7283, 223.1817
886.2104, 217.6996
886.6926, 212.8244
887.1747, 211.1380
887.6568, 219.2987
888.1389, 227.3134
888.6210, 226.4040
889.1031, 214.8375
889.5853, 210.4639
890.0674, 216.9467
890.5495, 224.6206
891.0316, 230.0782
891.5137, 232.9042
891.9958, 226.6333
892.4780, 212.1568
892.9601, 204.6066
893.4422, 226.8064
893.9243, 250.5357
894.4064, 244.5479
894.8885, 211.5978
895.3707, 193.1110
895.8528, 212.1554
896.3349, 229.4252
896.8170, 230.3860
897.2991, 219.0916
897.7813, 221.6872
898.2634, 238.1733
898.7455, 248.9407
899.2276, 237.2693
899.7097, 217.8451
900.1918, 207.5364
900.6740, 205.0433
901.1561, 205.4225
901.6382, 208.7568
902.1203, 212.7891
902.6024, 218.3551
903.0845, 223.9404
903.5667, 222.4192
904.0488, 212.6850
904.5309, 205.7193
905.0130, 205.6394
905.4951, 210.2191
905.9772, 218.3283
906.4594, 228.3063
906.9415, 235.8596
907.4236, 237.3610
907.9057, 238.2752
908.3878, 243.5854
908.8699, 248.7780
909.3521, 242.9595
909.8342, 221.5540
910.3163, 207.6840
910.7984, 207.1468
911.2805, 214.3322
911.7626, 224.8872
912.2448, 235.4319
912.7269, 236.7348
913.2090, 217.1281
913.6911, 202.0432
914.1732, 209.6623
914.6553, 226.4837
915.1375, 232.9221
915.6196, 223.4715
916.1017, 217.3538
916.5838, 216.3418
917.0659, 218.3805
917.5480, 221.9168
918.0302, 226.2845
918.5123, 230.0852
918.9944, 233.6547
919.4765, 233.7643
919.9586, 221.3702
920.4407, 208.5538
920.9229, 208.0775
921.4050, 227.3371
921.8871, 241.8671
922.3692, 251.9885
922.8513, 256.6985
923.3334, 252.2269
923.8156, 241.3385
924.2977, 235.2633
924.7798, 234.9876
925.2619, 233.5958
925.7440, 222.7832
926.2261, 211.2879
926.7083, 207.2405
927.1904, 213.3031
927.6725, 213.4182
928.1546, 203.2734
928.6367, 195.5492
929.1188, 198.6137
929.6010, 210.4457
930.0831, 223.1359
930.5652, 235.9524
931.0473, 243.2545
931.5294, 234.6330
932.0115, 224.6702
932.4937, 226.8702
932.9758, 239.7798
933.4579, 242.6608
933.9400, 226.3753
934.4221, 215.3496
934.9042, 219.7398
935.3864, 233.0945
935.8685, 233.7112
936.3506, 223.7520
936.8327, 216.3955
937.3148, 221.8065
937.7969, 228.4057
938.2791, 226.4409
938.7612, 219.5031
939.2433, 216.2093
939.7254, 221.0283
940.2075, 223.9040
940.6896, 224.0021
941.1718, 220.8906
941.6539, 210.1545
942.1360, 194.3057
942.6181, 187.9278
943.1002, 197.7997
943.5823, 209.8316
944.0645, 212.5538
944.5466, 211.1454
945.0287, 212.0574
945.5108, 218.8078
945.9929, 223.7813
946.4750, 226.6952
946.9572, 228.3631
947.4393, 230.5938
947.9214, 232.5966
948.4035, 228.6122
948.8856, 217.5548
949.3677, 208.2030
949.8499, 207.7232
950.3320, 211.3733
950.8141, 215.8335
951.2962, 221.1327
951.7783, 224.5379
952.2604, 225.1249
952.7426, 225.6142
953.2247, 227.4676
953.7068, 230.5237
954.1889, 235.5878
954.6710, 242.0618
955.1531, 244.6149
955.6353, 235.3180
956.1174, 225.0375
956.5995, 222.2692
957.0816, 225.9017
957.5637, 225.0999
958.0458, 214.7705
958.5280, 211.9673
959.0101, 225.1287
959.4922, 245.2901
959.9743, 249.9939
960.4564, 242.4731
960.9385, 234.2966
961.4207, 228.8081
961.9028, 225.6916
962.3849, 224.9078
962.8670, 226.3568
963.3491, 230.0002
963.8312, 237.0502
964.3134, 243.4451
964.7955, 249.5604
965.2776, 253.0287
965.7597, 248.4540
966.2418, 238.9340
966.7239, 232.9388
967.2061, 233.0632
967.6882, 231.3961
968.1703, 219.3887
968.6524, 206.9149
969.1345, 202.3306
969.6166, 207.0588
970.0988, 212.3766
970.5809, 218.6663
971.0630, 224.0969
971.5451, 227.7849
972.0272, 229.5136
972.5093, 227.1393
972.9915, 221.4225
973.4736, 219.3267
973.9557, 229.9889
974.4378, 238.9345
974.9199, 238.7619
975.4020, 231.4008
975.8842, 223.9812
976.3663, 215.7725
976.8484, 215.3059
977.3305, 230.8247
977.8126, 249.2841
978.2947, 248.7639
978.7769, 236.6176
979.2590, 229.2192
979.7411, 241.3021
980.2232, 246.7130
980.7053, 234.6778
981.1874, 218.2875
981.6696, 217.5833
982.1517, 233.0551
982.6338, 241.0806
983.1159, 237.5672
983.5980, 230.5322
984.0801, 224.7765
984.5623, 221.7224
985.0444, 223.8509
985.5265, 233.4792
986.0085, 240.7769
986.4907, 244.0505
986.9728, 245.6189
987.4549, 246.6222
987.9370, 247.0826
988.4191, 247.7629
988.9012, 248.5283
989.3834, 247.1915
989.8655, 238.6731
990.3476, 230.6357
990.8297, 229.4997
991.3118, 234.4105
991.7939, 238.7954
992.2761, 243.5062
992.7582, 244.6314
993.2403, 239.9482
993.7224, 232.5802
994.2045, 227.8954
994.6866, 226.2526
995.1688, 229.5783
995.6509, 242.4880
996.1330, 253.2236
996.6151, 255.9465
997.0972, 252.6555
997.5793, 245.1096
998.0615, 229.3123
998.5436, 225.0730
999.0257, 235.7738
999.5078, 247.5157
999.9899, 242.2937
1000.472, 229.7076
1000.954, 227.4984
1001.436, 237.8031
1001.918, 247.8040
1002.401, 253.8425
1002.883, 256.5483
1003.365, 255.1513
1003.847, 250.3551
1004.329, 250.3206
1004.811, 255.2203
1005.293, 256.8294
1005.775, 246.1598
1006.257, 234.7178
1006.740, 237.6814
1007.222, 249.5296
1007.704, 256.7874
1008.186, 251.6875
1008.668, 247.1624
1009.150, 244.3769
1009.632, 243.0376
1010.114, 242.5764
1010.596, 243.1125
1011.079, 245.9340
1011.561, 251.8460
1012.043, 256.7859
1012.525, 258.9150
1013.007, 257.7176
1013.489, 250.8391
1013.971, 235.3042
1014.453, 230.4333
1014.936, 239.4051
1015.418, 248.7941
1015.900, 249.0294
1016.382, 243.4908
1016.864, 238.9905
1017.346, 235.6630
1017.828, 233.8038
1018.310, 234.6201
1018.792, 235.7668
1019.275, 236.2905
1019.757, 236.5387
1020.239, 236.7196
1020.721, 236.6708
1021.203, 241.0498
1021.685, 253.2807
1022.167, 263.6500
1022.649, 258.1182
1023.132, 244.9209
1023.614, 235.3223
1024.096, 232.1334
1024.578, 231.9643
1025.060, 235.0668
1025.542, 239.9927
1026.024, 247.5821
1026.506, 256.5976
1026.989, 257.8934
1027.471, 251.7242
1027.953, 244.4699
1028.435, 236.9806
1028.917, 232.6718
1029.399, 235.0326
1029.881, 243.0517
1030.363, 250.9154
1030.845, 259.3971
1031.328, 264.7935
1031.810, 265.8940
1032.292, 263.9710
1032.774, 256.7675
1033.256, 248.9048
1033.738, 250.7390
1034.220, 276.5093
1034.702, 290.7559
1035.184, 276.3411
1035.667, 255.9295
1036.149, 248.6822
1036.631, 254.6705
1037.113, 253.4699
1037.595, 244.2401
1038.077, 235.9938
1038.559, 237.9922
1039.041, 242.2191
1039.524, 239.6113
1040.006, 230.9902
1040.488, 233.1129
1040.970, 253.7759
1041.452, 267.4342
1041.934, 264.2162
1042.416, 252.1335
1042.898, 245.0124
1043.380, 242.4246
1043.863, 243.7892
1044.345, 254.3971
1044.827, 258.9487
1045.309, 244.1493
1045.791, 225.6887
1046.273, 218.2275
1046.755, 222.7310
1047.237, 229.5394
1047.719, 238.7076
1048.202, 245.5552
1048.684, 244.0247
1049.166, 239.7519
1049.648, 238.5375
1050.130, 240.4998
1050.612, 242.0930
1051.094, 241.9947
1051.576, 243.5830
1052.059, 249.4219
1052.541, 255.7760
1053.023, 251.6842
1053.505, 240.5361
1053.987, 233.1496
1054.469, 233.9348
1054.951, 237.3516
1055.433, 242.3797
1055.916, 247.8230
1056.398, 252.8896
1056.880, 258.0265
1057.362, 259.3290
1057.844, 256.3925
1058.326, 253.6599
1058.808, 256.3799
1059.290, 260.0654
1059.772, 257.8894
1060.255, 250.7527
1060.737, 249.8739
1061.219, 263.0790
1061.701, 270.6939
1062.183, 265.2566
1062.665, 254.8900
1063.147, 261.4568
1063.629, 278.1354
1064.111, 280.5602
1064.594, 254.0728
1065.076, 232.8566
1065.558, 238.6086
1066.040, 254.2231
1066.522, 265.4687
1067.004, 272.3928
1067.486, 274.0805
1067.968, 270.3297
1068.450, 264.3575
1068.933, 256.8305
1069.415, 249.5484
1069.897, 243.9125
1070.379, 240.1552
1070.861, 239.4811
1071.343, 244.6940
1071.825, 247.7163
1072.307, 246.4281
1072.790, 243.4236
1073.272, 244.2792
1073.754, 246.9580
1074.236, 244.9102
1074.718, 234.9094
1075.200, 227.6889
1075.682, 232.2536
1076.164, 237.7990
1076.646, 236.2255
1077.129, 227.5645
1077.611, 224.9367
1078.093, 228.3306
1078.575, 236.0324
1079.057, 253.8490
1079.539, 269.3263
1080.021, 268.5939
1080.503, 256.9490
1080.985, 248.5170
1081.468, 245.5240
1081.950, 243.5381
1082.432, 242.0151
1082.914, 241.5217
1083.396, 244.1718
1083.878, 247.9483
1084.360, 247.8717
1084.842, 242.8595
1085.325, 240.5031
1085.807, 246.9369
1086.289, 253.2628
1086.771, 255.7310
1087.253, 254.9908
1087.735, 253.5441
1088.217, 251.5582
1088.699, 250.4882
1089.182, 251.9830
1089.664, 253.1331
1090.146, 250.1730
1090.628, 246.5020
1091.110, 247.7330
1091.592, 257.1259
1092.074, 259.2390
1092.556, 252.7635
1093.038, 243.3204
1093.521, 232.1620
1094.003, 223.4764
1094.485, 224.1192
1094.967, 233.6395
1095.449, 243.8288
1095.931, 256.6837
1096.413, 263.1295
1096.895, 258.1478
1097.377, 248.7512
1097.860, 252.8163
1098.342, 265.4304
1098.824, 269.8809
1099.306, 258.6409
1099.788, 248.8486
1100.270, 250.5500
1100.752, 255.2873
1101.234, 257.0915
1101.717, 255.9356
1102.199, 251.7526
1102.681, 244.6274
1103.163, 242.3974
1103.645, 254.4692
1104.127, 269.5060
1104.609, 281.8803
1105.091, 289.4505
1105.573, 285.8978
1106.056, 264.8394
1106.538, 253.0810
1107.020, 255.3825
1107.502, 262.3535
1107.984, 263.7026
1108.466, 261.9016
1108.948, 260.0001
1109.430, 258.2640
1109.912, 259.3158
1110.395, 268.1536
1110.877, 273.3651
1111.359, 270.1325
1111.841, 260.8840
1112.323, 249.7749
1112.805, 238.8832
1113.287, 236.5575
1113.769, 252.5185
1114.252, 265.1804
1114.734, 261.5870
1115.216, 252.7557
1115.698, 248.7400
1116.180, 249.9132
1116.662, 250.5725
1117.144, 250.6521
1117.626, 251.8695
1118.109, 259.2312
1118.591, 264.8680
1119.073, 258.9023
1119.555, 245.5306
1120.037, 241.4406
1120.519, 249.5549
1121.001, 257.7445
1121.483, 264.4218
1121.965, 268.9398
1122.448, 270.5356
1122.930, 269.3009
1123.412, 264.3052
1123.894, 254.6001
1124.376, 248.0917
1124.858, 246.1990
1125.340, 246.4466
1125.822, 248.0460
1126.304, 250.8727
1126.787, 257.0942
1127.269, 264.3266
1127.751, 264.9475
1128.233, 248.0614
1128.715, 236.7668
1129.197, 241.7935
1129.679, 251.6949
1130.161, 257.6789
1130.644, 259.8016
1131.126, 259.4656
1131.608, 256.7997
1132.090, 253.5556
1132.572, 249.1981
1133.054, 246.2831
1133.536, 247.0177
1134.018, 250.3950
1134.500, 253.5293
1134.983, 256.2824
1135.465, 261.5011
1135.947, 271.0015
1136.429, 276.7047
1136.911, 262.4134
1137.393, 244.8772
1137.875, 244.3940
1138.357, 266.3307
1138.839, 276.2420
1139.322, 271.4900
1139.804, 262.8890
1140.286, 253.4535
1140.768, 244.7183
1141.250, 237.4996
1141.732, 233.2863
1142.214, 235.0912
1142.696, 247.7268
1143.179, 260.0680
1143.661, 272.8229
1144.143, 282.1684
1144.625, 284.3781
1145.107, 280.8059
1145.589, 274.3558
1146.071, 265.8256
1146.553, 259.2430
1147.036, 257.5244
1147.518, 256.6579
1148.000, 254.6826
1148.482, 253.4323
1148.964, 256.5273
1149.446, 263.3435
1149.928, 271.0945
1150.410, 279.6461
1150.892, 284.6208
1151.375, 284.1644
1151.857, 277.9599
1152.339, 262.0464
1152.821, 239.9875
1153.303, 230.1756
1153.785, 232.5016
1154.267, 237.7183
1154.749, 244.0034
1155.231, 249.2604
1155.714, 251.9473
1156.196, 252.3928
1156.678, 250.3375
1157.160, 245.0536
1157.642, 241.8196
1158.124, 240.4168
1158.606, 242.6746
1159.088, 254.2105
1159.571, 266.5020
1160.053, 268.0452
1160.535, 262.8799
1161.017, 260.9856
1161.499, 264.7167
1161.981, 270.6740
1162.463, 280.5602
1162.945, 286.5225
1163.427, 274.1662
1163.910, 255.5431
1164.392, 252.1499
1164.874, 263.5222
1165.356, 268.2753
1165.838, 253.8405
1166.320, 245.0014
1166.802, 248.7826
1167.284, 257.9560
1167.766, 259.2028
1168.249, 256.1690
1168.731, 258.0148
1169.213, 267.7056
1169.695, 275.2267
1170.177, 280.1874
1170.659, 278.0532
1171.141, 262.7074
1171.623, 240.5495
1172.106, 235.8188
1172.588, 245.1967
1173.070, 256.0546
1173.552, 265.3109
1174.034, 271.9668
1174.516, 274.8824
1174.998, 275.3777
1175.480, 272.8118
1175.963, 267.5670
1176.445, 270.2252
1176.927, 279.8855
1177.409, 286.9582
1177.891, 283.8321
1178.373, 278.4610
1178.855, 274.9400
1179.337, 271.5552
1179.819, 264.1282
1180.302, 252.4711
1180.784, 247.8171
1181.266, 251.4364
1181.748, 258.2636
1182.230, 268.3597
1182.712, 276.6061
1183.194, 277.7741
1183.676, 273.6240
1184.158, 271.2157
1184.641, 270.6603
1185.123, 269.9126
1185.605, 268.0416
1186.087, 267.6722
1186.569, 273.3071
1187.051, 280.4120
1187.533, 284.5932
1188.015, 285.4712
1188.498, 284.5619
1188.980, 281.9302
1189.462, 276.5309
1189.944, 265.1755
1190.426, 255.3544
1190.908, 259.5290
1191.390, 269.5872
1191.872, 272.8126
1192.354, 263.3025
1192.837, 260.9947
1193.319, 267.3980
1193.801, 273.5149
1194.283, 271.8047
1194.765, 267.2110
1195.247, 266.0554
1195.729, 267.4210
1196.211, 269.0197
1196.693, 271.9149
1197.176, 270.9691
1197.658, 264.3552
1198.140, 259.0092
1198.622, 263.9765
1199.104, 273.4227
1199.586, 280.1073
1200.068, 283.3544
1200.550, 281.9997
1201.033, 271.6163
1201.515, 266.2414
1201.997, 269.7675
1202.479, 275.7214
1202.961, 272.9734
1203.443, 267.1119
1203.925, 268.9469
1204.407, 280.5336
1204.890, 287.0971
1205.372, 285.7588
1205.854, 279.8851
1206.336, 267.6480
1206.818, 255.6189
1207.300, 261.8229
1207.782, 277.0683
1208.264, 281.5373
1208.746, 265.5518
1209.229, 257.5033
1209.711, 264.7833
1210.193, 273.4293
1210.675, 276.8235
1211.157, 275.8942
1211.639, 270.4398
1212.121, 262.8947
1212.603, 259.6759
1213.085, 266.7229
1213.568, 272.1043
1214.050, 274.8631
1214.532, 275.1180
1215.014, 270.8249
1215.496, 264.6008
1215.978, 265.7891
1216.460, 272.6218
1216.942, 277.6551
1217.425, 277.5681
1217.907, 274.9216
1218.389, 267.6130
1218.871, 262.4082
1219.353, 271.4755
1219.835, 288.1599
1220.317, 292.6248
1220.799, 284.7500
1221.281, 276.4742
1221.764, 269.5703
1222.246, 267.8071
1222.728, 274.3751
1223.210, 282.8578
1223.692, 281.3794
1224.174, 273.5647
1224.656, 269.1183
1225.138, 269.5356
1225.620, 270.7091
1226.103, 270.0973
1226.585, 271.6328
1227.067, 277.5645
1227.549, 285.1388
1228.031, 289.2561
1228.513, 289.8546
1228.995, 285.3046
1229.477, 273.1092
1229.960, 266.5843
1230.442, 275.7721
1230.924, 282.8221
1231.406, 278.4145
1231.888, 267.3936
1232.370, 263.9909
1232.852, 265.4746
1233.334, 263.5645
1233.816, 251.3385
1234.299, 246.2290
1234.781, 255.7163
1235.263, 266.1615
1235.745, 266.2378
1236.227, 261.3130
1236.709, 272.0804
1237.191, 293.0921
1237.673, 306.7876
1238.156, 300.6425
1238.638, 294.7330
1239.120, 291.6249
1239.602, 289.5583
1240.084, 287.0889
1240.566, 284.4749
1241.048, 282.5697
1241.530, 281.2620
1242.012, 279.9018
1242.495, 280.0810
1242.977, 276.8266
1243.459, 267.6021
1243.941, 258.7416
1244.423, 257.4915
1244.905, 262.1152
1245.387, 270.9729
1245.869, 282.9203
1246.351, 291.1620
1246.834, 291.6256
1247.316, 290.6099
1247.798, 288.9610
1248.280, 286.4617
1248.762, 281.5959
1249.244, 276.1165
1249.726, 273.0426
1250.208, 272.6786
1250.691, 274.5313
1251.173, 277.8986
1251.655, 285.4314
1252.137, 300.8165
1252.619, 314.3319
1253.101, 306.0757
1253.583, 287.7231
1254.065, 277.9904
1254.547, 280.1884
1255.030, 285.1838
1255.512, 293.8189
1255.994, 299.6217
1256.476, 299.6265
1256.958, 297.0074
1257.440, 294.5484
1257.922, 293.6496
1258.404, 297.4944
1258.886, 308.9961
1259.369, 313.4922
1259.851, 309.8428
1260.333, 302.7607
1260.815, 291.4068
1261.297, 282.2116
1261.779, 290.2452
1262.261, 303.1618
1262.743, 299.7363
1263.226, 269.4387
1263.708, 258.8701
1264.190, 271.0476
1264.672, 282.5262
1265.154, 276.8282
1265.636, 266.8890
1266.118, 264.3890
1266.600, 267.3676
1267.083, 273.9191
1267.565, 287.1501
1268.047, 287.5615
1268.529, 274.2332
1269.011, 261.1963
1269.493, 255.3681
1269.975, 256.1782
1270.457, 268.3088
1270.939, 284.8386
1271.422, 293.5175
1271.904, 293.4180
1272.386, 293.1444
1272.868, 293.0525
1273.350, 293.1408
1273.832, 296.9246
1274.314, 297.1920
1274.796, 283.6200
1275.278, 266.4946
1275.761, 263.5722
1276.243, 274.2089
1276.725, 281.4165
1277.207, 283.9627
1277.689, 284.4720
1278.171, 282.2344
1278.653, 281.2238
1279.135, 284.3722
1279.618, 288.8936
1280.100, 290.3353
1280.582, 289.0724
1281.064, 287.0100
1281.546, 284.3416
1282.028, 280.4000
1282.510, 269.3605
1282.992, 264.6045
1283.474, 272.1348
1283.957, 285.2835
1284.439, 294.3059
1284.921, 298.8295
1285.403, 295.7039
##END=



