##NAMES=Dolerophanite
##RRUFFID=R070652
##IDEAL CHEMISTRY=Cu^2+^_2_OS^6+^O_4_
##LOCALITY=First scoria cone, Northern Breakthrough (North Breach), Great Fissure (Main Fracture) eruption, Tolbachik volcano, Kamchatka Oblast', Far-Eastern Region, Russia
##OWNER=RRUFF
##SOURCE=Michael Scott
##DESCRIPTION=Very dark brown prismatic crystal to golden brown crystal fragments associated with euchlorine
##STATUS=The identification of this mineral has been confirmed by single-crystal X-ray diffraction.
##URL=rruff.info/R070652
126.7177, 6608.198
127.1998, 6631.044
127.6820, 6660.345
128.1641, 6687.236
128.6462, 6711.382
129.1283, 6729.543
129.6104, 6750.024
130.0925, 6755.807
130.5747, 6731.762
131.0568, 6687.100
131.5389, 6643.403
132.0210, 6620.297
132.5031, 6620.336
132.9852, 6634.071
133.4674, 6679.579
133.9495, 6723.066
134.4316, 6740.420
134.9137, 6728.659
135.3958, 6705.313
135.8779, 6694.264
136.3601, 6696.977
136.8422, 6711.251
137.3243, 6752.508
137.8064, 6801.009
138.2885, 6829.047
138.7706, 6824.951
139.2528, 6802.479
139.7349, 6789.416
140.2170, 6782.436
140.6991, 6787.095
141.1812, 6816.510
141.6633, 6863.534
142.1455, 6896.115
142.6276, 6887.851
143.1097, 6862.829
143.5918, 6869.136
144.0739, 6929.403
144.5560, 6995.897
145.0382, 7014.779
145.5203, 6977.317
146.0024, 6943.581
146.4845, 6952.815
146.9666, 6983.163
147.4488, 7012.344
147.9309, 7035.213
148.4130, 7050.289
148.8951, 7050.231
149.3772, 7018.746
149.8593, 6999.259
150.3415, 7023.909
150.8236, 7071.584
151.3057, 7102.266
151.7878, 7080.468
152.2699, 7006.690
152.7520, 6956.722
153.2342, 6951.661
153.7163, 6954.660
154.1984, 6958.920
154.6805, 6961.855
155.1626, 6961.336
155.6447, 6956.143
156.1269, 6948.415
156.6090, 6927.321
157.0911, 6890.123
157.5732, 6844.507
158.0553, 6788.590
158.5374, 6724.465
159.0196, 6662.813
159.5017, 6621.312
159.9838, 6623.794
160.4659, 6610.117
160.9480, 6566.007
161.4301, 6513.119
161.9123, 6474.375
162.3944, 6458.780
162.8765, 6455.699
163.3586, 6437.376
163.8407, 6392.861
164.3228, 6348.505
164.8050, 6303.040
165.2871, 6260.526
165.7692, 6231.398
166.2513, 6224.271
166.7334, 6230.412
167.2155, 6216.376
167.6977, 6159.533
168.1798, 6108.531
168.6619, 6094.183
169.1440, 6110.062
169.6261, 6121.512
170.1082, 6106.036
170.5904, 6068.839
171.0725, 6034.444
171.5546, 6003.590
172.0367, 5976.097
172.5188, 5951.511
173.0009, 5929.633
173.4831, 5912.520
173.9652, 5908.331
174.4473, 5910.065
174.9294, 5904.222
175.4115, 5881.719
175.8936, 5849.921
176.3758, 5821.971
176.8579, 5796.068
177.3400, 5778.691
177.8221, 5775.235
178.3042, 5782.269
178.7863, 5792.573
179.2685, 5807.891
179.7506, 5825.622
180.2327, 5827.359
180.7148, 5800.754
181.1969, 5770.529
181.6790, 5747.684
182.1612, 5732.014
182.6433, 5720.627
183.1254, 5712.282
183.6075, 5707.346
184.0896, 5701.463
184.5717, 5695.582
185.0539, 5687.761
185.5360, 5673.004
186.0181, 5653.036
186.5002, 5637.198
186.9823, 5642.370
187.4645, 5686.267
187.9466, 5698.721
188.4287, 5647.906
188.9108, 5590.413
189.3929, 5561.919
189.8750, 5569.636
190.3572, 5595.126
190.8393, 5608.868
191.3214, 5603.597
191.8035, 5597.478
192.2856, 5590.970
192.7677, 5583.884
193.2499, 5574.737
193.7320, 5563.220
194.2141, 5552.058
194.6962, 5547.413
195.1783, 5561.703
195.6604, 5568.155
196.1426, 5564.171
196.6247, 5552.745
197.1068, 5534.987
197.5889, 5510.833
198.0710, 5484.549
198.5531, 5471.331
199.0353, 5485.313
199.5174, 5494.990
199.9995, 5489.575
200.4816, 5476.480
200.9637, 5470.303
201.4458, 5480.307
201.9280, 5501.488
202.4101, 5508.964
202.8922, 5493.511
203.3743, 5477.266
203.8564, 5468.021
204.3385, 5464.577
204.8207, 5463.648
205.3028, 5464.822
205.7849, 5466.415
206.2670, 5461.041
206.7491, 5444.206
207.2312, 5425.017
207.7134, 5405.274
208.1955, 5385.964
208.6776, 5373.942
209.1597, 5375.792
209.6418, 5389.586
210.1239, 5402.476
210.6061, 5418.425
211.0882, 5430.452
211.5703, 5428.453
212.0524, 5411.490
212.5345, 5397.477
213.0166, 5401.124
213.4988, 5417.682
213.9809, 5434.385
214.4630, 5453.365
214.9451, 5469.458
215.4272, 5476.942
215.9093, 5476.044
216.3915, 5465.314
216.8736, 5434.370
217.3557, 5392.542
217.8378, 5357.551
218.3199, 5331.508
218.8020, 5316.765
219.2842, 5321.361
219.7663, 5352.524
220.2484, 5386.456
220.7305, 5412.196
221.2126, 5429.652
221.6947, 5436.866
222.1769, 5428.617
222.6590, 5409.050
223.1411, 5389.552
223.6232, 5366.259
224.1053, 5350.424
224.5874, 5354.379
225.0696, 5370.247
225.5517, 5379.486
226.0338, 5362.204
226.5159, 5325.344
226.9980, 5312.027
227.4801, 5343.375
227.9623, 5371.841
228.4444, 5370.214
228.9265, 5346.426
229.4086, 5322.005
229.8907, 5312.583
230.3729, 5317.271
230.8550, 5321.866
231.3371, 5334.987
231.8192, 5337.628
232.3013, 5315.263
232.7834, 5274.498
233.2656, 5234.626
233.7477, 5210.383
234.2298, 5202.048
234.7119, 5200.318
235.1940, 5216.381
235.6761, 5229.065
236.1583, 5225.170
236.6404, 5209.167
237.1225, 5197.061
237.6046, 5209.138
238.0867, 5250.821
238.5688, 5265.244
239.0510, 5219.854
239.5331, 5173.214
240.0152, 5143.785
240.4973, 5132.506
240.9794, 5133.160
241.4615, 5142.837
241.9437, 5164.690
242.4258, 5176.366
242.9079, 5172.334
243.3900, 5162.928
243.8721, 5148.614
244.3542, 5131.560
244.8364, 5116.559
245.3185, 5108.999
245.8006, 5110.622
246.2827, 5111.162
246.7648, 5116.439
247.2469, 5115.830
247.7291, 5098.679
248.2112, 5068.504
248.6933, 5040.186
249.1754, 5030.575
249.6575, 5045.706
250.1396, 5054.032
250.6218, 5053.090
251.1039, 5048.531
251.5860, 5038.922
252.0681, 5026.760
252.5502, 5019.260
253.0323, 5025.399
253.5145, 5050.069
253.9966, 5067.822
254.4787, 5084.863
254.9608, 5091.452
255.4429, 5076.394
255.9250, 5043.139
256.4072, 5007.533
256.8893, 4985.935
257.3714, 4980.589
257.8535, 4980.670
258.3356, 4998.050
258.8177, 5009.883
259.2999, 4999.325
259.7820, 4968.973
260.2641, 4936.414
260.7462, 4920.327
261.2283, 4925.592
261.7104, 4926.393
262.1926, 4914.628
262.6747, 4906.181
263.1568, 4913.184
263.6389, 4933.536
264.1210, 4954.707
264.6031, 4964.363
265.0853, 4961.083
265.5674, 4952.399
266.0495, 4935.019
266.5316, 4916.314
267.0137, 4896.405
267.4958, 4877.622
267.9780, 4866.139
268.4601, 4868.681
268.9422, 4887.889
269.4243, 4905.695
269.9064, 4927.749
270.3885, 4943.828
270.8707, 4946.737
271.3528, 4938.037
271.8349, 4924.697
272.3170, 4911.740
272.7991, 4898.021
273.2813, 4895.378
273.7634, 4915.416
274.2455, 4933.354
274.7276, 4926.731
275.2097, 4904.282
275.6918, 4901.063
276.1740, 4950.366
276.6561, 4971.476
277.1382, 4977.911
277.6203, 4970.461
278.1024, 4907.535
278.5845, 4916.244
279.0667, 4916.939
279.5488, 4957.781
280.0309, 4984.351
280.5130, 4996.810
280.9951, 4990.570
281.4772, 4945.368
281.9594, 4905.521
282.4415, 4890.459
282.9236, 4894.770
283.4057, 4901.974
283.8878, 4900.139
284.3699, 4890.102
284.8521, 4891.045
285.3342, 4913.559
285.8163, 4934.074
286.2984, 4947.282
286.7805, 4952.999
287.2626, 4951.124
287.7448, 4940.932
288.2269, 4923.606
288.7090, 4908.768
289.1911, 4896.259
289.6732, 4886.185
290.1554, 4874.095
290.6375, 4865.030
291.1196, 4870.709
291.6017, 4899.267
292.0838, 4943.255
292.5659, 4965.395
293.0481, 4953.102
293.5302, 4933.808
294.0123, 4899.107
294.4944, 4862.798
294.9765, 4847.173
295.4586, 4863.909
295.9408, 4900.972
296.4229, 4919.277
296.9050, 4903.068
297.3871, 4885.191
297.8692, 4862.526
298.3513, 4841.226
298.8335, 4828.773
299.3156, 4828.236
299.7977, 4836.262
300.2798, 4845.161
300.7619, 4855.464
301.2440, 4866.042
301.7262, 4885.056
302.2083, 4900.407
302.6904, 4896.439
303.1725, 4869.220
303.6546, 4832.206
304.1367, 4810.757
304.6189, 4820.413
305.1010, 4821.137
305.5831, 4802.212
306.0652, 4781.911
306.5473, 4778.702
307.0294, 4795.012
307.5116, 4814.291
307.9937, 4811.425
308.4758, 4770.829
308.9579, 4745.229
309.4400, 4741.896
309.9221, 4745.381
310.4043, 4748.901
310.8864, 4750.077
311.3685, 4747.214
311.8506, 4737.615
312.3327, 4718.979
312.8148, 4702.629
313.2970, 4682.381
313.7791, 4669.297
314.2612, 4671.344
314.7433, 4686.485
315.2254, 4706.789
315.7076, 4726.667
316.1897, 4747.137
316.6718, 4755.203
317.1539, 4738.673
317.6360, 4721.583
318.1181, 4714.354
318.6003, 4713.166
319.0824, 4706.431
319.5645, 4682.841
320.0466, 4644.703
320.5287, 4629.526
321.0108, 4666.948
321.4930, 4696.490
321.9751, 4703.200
322.4572, 4693.289
322.9393, 4675.828
323.4214, 4654.587
323.9035, 4632.392
324.3857, 4622.122
324.8678, 4636.566
325.3499, 4644.007
325.8320, 4628.817
326.3141, 4606.929
326.7962, 4598.965
327.2784, 4615.281
327.7605, 4641.748
328.2426, 4644.797
328.7247, 4606.631
329.2068, 4584.245
329.6889, 4602.521
330.1711, 4631.576
330.6532, 4646.746
331.1353, 4640.678
331.6174, 4623.980
332.0995, 4610.017
332.5816, 4598.577
333.0638, 4590.790
333.5459, 4594.085
334.0280, 4596.282
334.5101, 4586.049
334.9922, 4563.033
335.4743, 4542.695
335.9565, 4546.246
336.4386, 4574.911
336.9207, 4588.196
337.4028, 4569.022
337.8849, 4545.079
338.3670, 4533.423
338.8492, 4533.165
339.3313, 4534.100
339.8134, 4528.116
340.2955, 4516.878
340.7776, 4509.627
341.2597, 4508.610
341.7419, 4508.840
342.2240, 4505.063
342.7061, 4499.548
343.1882, 4498.628
343.6703, 4510.521
344.1524, 4527.949
344.6346, 4533.771
345.1167, 4524.446
345.5988, 4514.938
346.0809, 4516.750
346.5630, 4524.462
347.0451, 4529.667
347.5273, 4527.276
348.0094, 4524.138
348.4915, 4531.847
348.9736, 4550.848
349.4557, 4560.344
349.9378, 4541.454
350.4200, 4510.314
350.9021, 4499.205
351.3842, 4520.584
351.8663, 4543.337
352.3484, 4544.690
352.8305, 4529.123
353.3127, 4515.797
353.7948, 4512.245
354.2769, 4513.688
354.7590, 4511.281
355.2411, 4504.045
355.7232, 4497.098
356.2054, 4493.968
356.6875, 4491.938
357.1696, 4484.550
357.6517, 4469.008
358.1338, 4453.507
358.6159, 4447.968
359.0981, 4452.083
359.5802, 4467.262
360.0623, 4513.244
360.5444, 4559.084
361.0265, 4568.740
361.5086, 4540.062
361.9908, 4506.300
362.4729, 4499.729
362.9550, 4524.515
363.4371, 4532.381
363.9192, 4514.627
364.4013, 4489.747
364.8835, 4460.969
365.3656, 4432.534
365.8477, 4414.534
366.3298, 4415.218
366.8119, 4432.057
367.2940, 4441.923
367.7762, 4434.870
368.2583, 4432.817
368.7404, 4448.345
369.2225, 4469.846
369.7046, 4479.080
370.1867, 4467.510
370.6689, 4443.254
371.1510, 4427.059
371.6331, 4424.612
372.1152, 4422.458
372.5974, 4418.894
373.0795, 4415.899
373.5616, 4415.872
374.0437, 4419.060
374.5258, 4422.917
375.0079, 4422.948
375.4901, 4415.674
375.9722, 4415.447
376.4543, 4431.626
376.9364, 4446.595
377.4185, 4451.704
377.9006, 4447.372
378.3828, 4438.715
378.8649, 4428.229
379.3470, 4416.253
379.8291, 4410.525
380.3112, 4415.377
380.7933, 4421.325
381.2755, 4428.813
381.7576, 4434.312
382.2397, 4430.865
382.7218, 4411.539
383.2039, 4385.124
383.6860, 4371.442
384.1682, 4373.938
384.6503, 4378.444
385.1324, 4375.523
385.6145, 4373.583
386.0966, 4384.437
386.5787, 4414.962
387.0609, 4443.385
387.5430, 4443.192
388.0251, 4416.369
388.5072, 4398.156
388.9893, 4402.532
389.4714, 4414.699
389.9536, 4419.142
390.4357, 4416.066
390.9178, 4404.423
391.3999, 4369.760
391.8820, 4328.607
392.3641, 4319.500
392.8463, 4354.244
393.3284, 4394.568
393.8105, 4397.199
394.2926, 4365.833
394.7747, 4354.049
395.2568, 4389.026
395.7390, 4431.272
396.2211, 4446.850
396.7032, 4436.981
397.1853, 4423.181
397.6674, 4419.556
398.1495, 4423.776
398.6317, 4419.721
399.1138, 4399.589
399.5959, 4381.545
400.0780, 4370.714
400.5601, 4365.785
401.0422, 4363.950
401.5244, 4363.988
402.0065, 4367.588
402.4886, 4378.765
402.9707, 4411.192
403.4528, 4429.977
403.9349, 4424.516
404.4171, 4413.055
404.8992, 4410.807
405.3813, 4419.327
405.8634, 4429.125
406.3455, 4428.835
406.8276, 4415.981
407.3098, 4408.868
407.7919, 4416.432
408.2740, 4421.039
408.7561, 4411.373
409.2382, 4393.988
409.7203, 4384.136
410.2025, 4393.359
410.6846, 4415.300
411.1667, 4425.033
411.6488, 4416.213
412.1309, 4406.694
412.6130, 4401.118
413.0952, 4397.588
413.5773, 4393.325
414.0594, 4387.020
414.5415, 4383.416
415.0236, 4391.773
415.5057, 4412.821
415.9879, 4425.347
416.4700, 4421.413
416.9521, 4410.053
417.4342, 4395.739
417.9163, 4379.200
418.3984, 4371.436
418.8806, 4385.403
419.3627, 4411.212
419.8448, 4426.337
420.3269, 4426.618
420.8090, 4425.745
421.2911, 4438.666
421.7733, 4460.421
422.2554, 4468.909
422.7375, 4452.787
423.2196, 4430.136
423.7017, 4409.391
424.1838, 4391.998
424.6660, 4383.198
425.1481, 4386.980
425.6302, 4399.221
426.1123, 4407.758
426.5944, 4410.216
427.0765, 4413.414
427.5587, 4423.895
428.0408, 4433.299
428.5229, 4427.873
429.0050, 4405.633
429.4871, 4382.442
429.9692, 4380.076
430.4514, 4407.625
430.9335, 4423.129
431.4156, 4420.967
431.8977, 4414.595
432.3798, 4409.930
432.8619, 4406.542
433.3441, 4401.290
433.8262, 4391.814
434.3083, 4378.896
434.7904, 4366.057
435.2725, 4350.688
435.7546, 4339.923
436.2368, 4333.623
436.7189, 4332.752
437.2010, 4340.625
437.6831, 4358.626
438.1652, 4377.648
438.6473, 4386.177
439.1295, 4383.868
439.6116, 4375.731
440.0937, 4349.800
440.5758, 4331.944
441.0579, 4347.024
441.5400, 4390.560
442.0222, 4428.712
442.5043, 4445.594
442.9864, 4445.305
443.4685, 4430.452
443.9506, 4398.218
444.4327, 4372.977
444.9149, 4375.374
445.3970, 4397.501
445.8791, 4411.018
446.3612, 4410.433
446.8433, 4405.480
447.3254, 4398.128
447.8076, 4390.479
448.2897, 4388.028
448.7718, 4393.181
449.2539, 4403.438
449.7360, 4415.635
450.2181, 4437.914
450.7003, 4443.365
451.1824, 4407.957
451.6645, 4371.434
452.1466, 4370.211
452.6287, 4403.006
453.1108, 4440.386
453.5930, 4456.675
454.0751, 4451.753
454.5572, 4449.644
455.0393, 4453.519
455.5215, 4456.875
456.0036, 4459.679
456.4857, 4460.761
456.9678, 4457.818
457.4499, 4449.633
457.9320, 4439.954
458.4142, 4434.250
458.8963, 4431.625
459.3784, 4436.851
459.8605, 4465.590
460.3426, 4490.813
460.8247, 4492.530
461.3069, 4471.924
461.7890, 4449.331
462.2711, 4438.327
462.7532, 4435.316
463.2353, 4431.444
463.7174, 4427.045
464.1996, 4418.620
464.6817, 4399.149
465.1638, 4374.320
465.6459, 4358.760
466.1280, 4363.009
466.6101, 4366.294
467.0923, 4348.760
467.5744, 4319.230
468.0565, 4304.255
468.5386, 4314.846
469.0207, 4337.575
469.5028, 4350.880
469.9850, 4353.882
470.4671, 4348.650
470.9492, 4324.930
471.4313, 4300.728
471.9134, 4290.218
472.3955, 4293.001
472.8777, 4300.837
473.3598, 4308.321
473.8419, 4314.910
474.3240, 4313.914
474.8061, 4305.544
475.2882, 4288.233
475.7704, 4247.066
476.2525, 4203.714
476.7346, 4184.296
477.2167, 4197.451
477.6988, 4223.140
478.1809, 4235.289
478.6631, 4232.748
479.1452, 4227.540
479.6273, 4218.879
480.1094, 4209.945
480.5915, 4203.312
481.0736, 4198.314
481.5558, 4192.321
482.0379, 4179.730
482.5200, 4167.318
483.0021, 4167.498
483.4842, 4180.608
483.9663, 4194.677
484.4485, 4205.843
484.9306, 4212.492
485.4127, 4211.167
485.8948, 4198.625
486.3769, 4185.346
486.8590, 4169.268
487.3412, 4156.643
487.8233, 4163.226
488.3054, 4190.960
488.7875, 4213.134
489.2696, 4196.627
489.7517, 4131.721
490.2339, 4098.254
490.7160, 4115.632
491.1981, 4138.542
491.6802, 4154.050
492.1623, 4162.300
492.6444, 4165.889
493.1266, 4165.919
493.6087, 4162.934
494.0908, 4157.072
494.5729, 4145.597
495.0550, 4139.071
495.5371, 4140.794
496.0193, 4146.692
496.5014, 4158.222
496.9835, 4173.475
497.4656, 4183.217
497.9477, 4176.813
498.4298, 4160.507
498.9120, 4151.726
499.3941, 4152.081
499.8762, 4154.026
500.3583, 4154.156
500.8404, 4152.672
501.3225, 4149.994
501.8047, 4144.677
502.2868, 4140.640
502.7689, 4143.342
503.2510, 4147.947
503.7331, 4142.920
504.2152, 4124.866
504.6974, 4106.232
505.1795, 4103.958
505.6616, 4125.073
506.1437, 4126.969
506.6258, 4085.732
507.1079, 4051.314
507.5901, 4052.015
508.0722, 4076.192
508.5543, 4098.872
509.0364, 4106.962
509.5185, 4105.159
510.0006, 4104.939
510.4828, 4108.219
510.9649, 4108.100
511.4470, 4097.222
511.9291, 4087.641
512.4113, 4089.091
512.8934, 4100.515
513.3755, 4110.794
513.8576, 4110.297
514.3397, 4103.203
514.8218, 4101.588
515.3040, 4106.935
515.7861, 4110.279
516.2682, 4103.836
516.7503, 4092.986
517.2324, 4090.660
517.7145, 4102.231
518.1967, 4112.746
518.6788, 4116.070
519.1609, 4114.091
519.6430, 4108.784
520.1251, 4100.737
520.6072, 4092.097
521.0894, 4084.432
521.5715, 4076.943
522.0536, 4077.525
522.5357, 4097.046
523.0178, 4111.650
523.4999, 4110.505
523.9821, 4099.845
524.4642, 4089.170
524.9463, 4082.590
525.4284, 4079.031
525.9105, 4076.094
526.3926, 4072.735
526.8748, 4075.369
527.3569, 4097.209
527.8390, 4112.711
528.3211, 4099.525
528.8032, 4065.396
529.2853, 4040.522
529.7675, 4045.334
530.2496, 4064.207
530.7317, 4077.625
531.2138, 4085.531
531.6959, 4085.848
532.1780, 4075.932
532.6602, 4059.653
533.1423, 4044.579
533.6244, 4030.585
534.1065, 4018.138
534.5886, 4001.580
535.0707, 3990.411
535.5529, 4000.137
536.0350, 4027.347
536.5171, 4048.511
536.9992, 4044.310
537.4813, 4018.284
537.9634, 4000.339
538.4456, 3990.824
538.9277, 3989.776
539.4098, 4000.860
539.8919, 4017.585
540.3740, 4037.924
540.8561, 4060.055
541.3383, 4073.805
541.8204, 4063.711
542.3025, 4033.826
542.7846, 4013.840
543.2667, 4006.621
543.7488, 4005.732
544.2310, 4011.894
544.7131, 4020.928
545.1952, 4023.799
545.6773, 4013.717
546.1594, 4005.602
546.6415, 4011.863
547.1237, 4025.810
547.6058, 4032.194
548.0879, 4026.819
548.5700, 4019.861
549.0521, 4023.859
549.5342, 4041.471
550.0164, 4053.743
550.4985, 4059.673
550.9806, 4062.340
551.4627, 4061.902
551.9448, 4059.229
552.4269, 4055.607
552.9091, 4051.599
553.3912, 4046.224
553.8733, 4035.646
554.3554, 4017.876
554.8375, 4009.391
555.3196, 4014.263
555.8018, 4026.786
556.2839, 4047.437
556.7660, 4072.630
557.2481, 4091.058
557.7302, 4098.871
558.2123, 4097.964
558.6945, 4085.254
559.1766, 4063.798
559.6587, 4048.589
560.1408, 4044.859
560.6229, 4050.930
561.1050, 4066.160
561.5872, 4098.771
562.0693, 4116.800
562.5514, 4107.371
563.0335, 4094.505
563.5156, 4091.085
563.9977, 4096.463
564.4799, 4106.597
564.9620, 4119.804
565.4441, 4133.244
565.9262, 4140.549
566.4083, 4142.004
566.8904, 4136.173
567.3726, 4108.668
567.8547, 4085.277
568.3368, 4084.956
568.8189, 4105.011
569.3010, 4126.249
569.7831, 4139.390
570.2653, 4147.675
570.7474, 4154.989
571.2295, 4161.453
571.7116, 4167.405
572.1937, 4173.009
572.6758, 4178.241
573.1580, 4182.459
573.6401, 4183.236
574.1222, 4189.603
574.6043, 4207.815
575.0864, 4227.623
575.5685, 4239.299
576.0507, 4245.281
576.5328, 4256.856
577.0149, 4282.821
577.4970, 4315.610
577.9791, 4328.040
578.4612, 4306.920
578.9434, 4298.043
579.4255, 4327.156
579.9076, 4357.979
580.3897, 4364.443
580.8718, 4347.800
581.3539, 4330.875
581.8361, 4326.700
582.3182, 4329.709
582.8003, 4330.847
583.2824, 4330.262
583.7645, 4333.937
584.2466, 4345.613
584.7288, 4361.883
585.2109, 4376.524
585.6930, 4394.772
586.1751, 4398.960
586.6572, 4377.211
587.1393, 4349.189
587.6215, 4330.386
588.1036, 4318.692
588.5857, 4299.553
589.0678, 4260.572
589.5499, 4216.300
590.0320, 4216.757
590.5142, 4285.215
590.9963, 4330.423
591.4784, 4325.129
591.9605, 4298.335
592.4426, 4258.743
592.9247, 4210.949
593.4069, 4177.324
593.8890, 4178.443
594.3711, 4192.985
594.8532, 4194.290
595.3353, 4183.482
595.8174, 4172.109
596.2996, 4165.989
596.7817, 4159.530
597.2638, 4139.863
597.7459, 4087.380
598.2280, 4068.920
598.7101, 4126.584
599.1923, 4179.707
599.6744, 4171.946
600.1565, 4120.612
600.6386, 4075.183
601.1207, 4063.548
601.6028, 4068.745
602.0850, 4053.128
602.5671, 4010.718
603.0492, 3985.710
603.5313, 3995.048
604.0134, 4013.068
604.4955, 4020.159
604.9777, 4018.290
605.4598, 4016.276
605.9419, 4016.686
606.4240, 4018.072
606.9061, 4020.466
607.3882, 4022.944
607.8704, 4021.806
608.3525, 4015.437
608.8346, 4009.227
609.3167, 4012.038
609.7988, 4028.627
610.2809, 4034.228
610.7631, 4021.641
611.2452, 4006.817
611.7273, 3988.452
612.2094, 3973.509
612.6915, 3974.923
613.1736, 3998.443
613.6558, 4026.018
614.1379, 4036.033
614.6200, 4029.890
615.1021, 4017.835
615.5842, 3998.555
616.0663, 3980.338
616.5485, 3967.210
617.0306, 3960.358
617.5127, 3963.507
617.9948, 3990.054
618.4769, 4010.763
618.9590, 4009.486
619.4412, 3998.529
619.9233, 3993.249
620.4054, 3996.914
620.8875, 4005.021
621.3696, 4013.422
621.8517, 4022.199
622.3339, 4033.295
622.8160, 4050.134
623.2981, 4063.464
623.7802, 4070.485
624.2623, 4073.527
624.7444, 4071.971
625.2266, 4065.987
625.7087, 4066.175
626.1908, 4087.201
626.6729, 4115.409
627.1550, 4127.255
627.6371, 4122.045
628.1193, 4109.343
628.6014, 4092.414
629.0835, 4074.133
629.5656, 4062.023
630.0477, 4057.330
630.5298, 4057.334
631.0120, 4075.132
631.4941, 4086.223
631.9762, 4065.311
632.4583, 4023.956
632.9404, 3995.767
633.4225, 4001.874
633.9047, 4025.354
634.3868, 4034.923
634.8689, 4030.112
635.3510, 4020.359
635.8331, 4002.650
636.3152, 3987.761
636.7974, 3986.720
637.2795, 3997.561
637.7616, 4012.820
638.2437, 4044.428
638.7258, 4066.697
639.2079, 4054.891
639.6901, 4027.209
640.1722, 4017.518
640.6543, 4034.511
641.1364, 4057.471
641.6185, 4059.809
642.1006, 4040.116
642.5828, 4038.317
643.0649, 4074.557
643.5470, 4098.172
644.0291, 4086.209
644.5112, 4058.312
644.9933, 4035.266
645.4755, 4020.807
645.9576, 4008.834
646.4397, 3990.269
646.9218, 3973.722
647.4039, 3978.255
647.8860, 4003.228
648.3682, 4027.065
648.8503, 4039.041
649.3324, 4038.602
649.8145, 4023.311
650.2966, 3973.688
650.7787, 3941.616
651.2609, 3942.240
651.7430, 3946.156
652.2251, 3930.553
652.7072, 3903.695
653.1893, 3890.372
653.6714, 3905.953
654.1536, 3934.393
654.6357, 3955.647
655.1178, 3969.377
655.5999, 3969.478
656.0820, 3951.316
656.5641, 3928.301
657.0463, 3912.605
657.5284, 3903.934
658.0105, 3892.176
658.4926, 3869.856
658.9747, 3853.252
659.4568, 3853.782
659.9390, 3860.033
660.4211, 3854.681
660.9033, 3836.679
661.3854, 3824.532
661.8675, 3840.454
662.3496, 3877.222
662.8317, 3887.394
663.3138, 3859.890
663.7960, 3842.065
664.2781, 3864.003
664.7602, 3893.017
665.2423, 3887.055
665.7244, 3843.221
666.2065, 3805.450
666.6887, 3788.380
667.1708, 3781.425
667.6529, 3778.670
668.1350, 3778.625
668.6171, 3779.370
669.0992, 3780.101
669.5814, 3780.682
670.0635, 3781.032
670.5456, 3781.406
671.0277, 3780.052
671.5098, 3772.367
671.9919, 3769.166
672.4741, 3782.660
672.9562, 3800.244
673.4383, 3800.752
673.9204, 3775.241
674.4025, 3751.351
674.8846, 3749.037
675.3668, 3758.406
675.8489, 3765.953
676.3310, 3769.635
676.8131, 3766.896
677.2952, 3754.745
677.7773, 3737.671
678.2595, 3730.517
678.7416, 3738.061
679.2237, 3746.783
679.7058, 3760.258
680.1879, 3770.846
680.6700, 3773.419
681.1522, 3769.686
681.6343, 3764.196
682.1164, 3757.681
682.5985, 3752.611
683.0806, 3753.584
683.5627, 3758.310
684.0449, 3757.623
684.5270, 3749.166
685.0091, 3742.845
685.4912, 3749.148
685.9733, 3766.220
686.4554, 3771.113
686.9376, 3749.180
687.4197, 3733.973
687.9018, 3737.176
688.3839, 3742.381
688.8660, 3732.991
689.3481, 3710.864
689.8303, 3693.229
690.3124, 3694.375
690.7945, 3703.563
691.2766, 3701.470
691.7587, 3689.238
692.2408, 3679.709
692.7230, 3676.351
693.2051, 3677.575
693.6872, 3682.426
694.1693, 3691.378
694.6514, 3698.361
695.1335, 3708.412
695.6157, 3710.642
696.0978, 3695.216
696.5799, 3673.987
697.0620, 3657.088
697.5441, 3647.880
698.0262, 3649.703
698.5084, 3675.144
698.9905, 3711.336
699.4726, 3716.118
699.9547, 3687.704
700.4368, 3667.428
700.9189, 3672.303
701.4011, 3688.845
701.8832, 3698.767
702.3653, 3701.270
702.8474, 3699.997
703.3295, 3691.949
703.8116, 3683.549
704.2938, 3679.387
704.7759, 3675.913
705.2580, 3665.387
705.7401, 3646.650
706.2222, 3631.099
706.7043, 3635.142
707.1865, 3653.066
707.6686, 3657.796
708.1507, 3646.846
708.6328, 3639.834
709.1149, 3648.310
709.5970, 3662.229
710.0792, 3662.083
710.5613, 3642.146
711.0434, 3631.228
711.5255, 3637.621
712.0076, 3646.804
712.4897, 3651.516
712.9719, 3653.442
713.4540, 3656.655
713.9361, 3662.535
714.4182, 3668.342
714.9003, 3671.926
715.3824, 3672.959
715.8646, 3668.416
716.3467, 3657.099
716.8288, 3647.619
717.3109, 3646.563
717.7930, 3648.101
718.2751, 3638.145
718.7573, 3609.242
719.2394, 3593.160
719.7215, 3602.926
720.2036, 3615.928
720.6857, 3619.188
721.1678, 3616.295
721.6500, 3614.319
722.1321, 3615.953
722.6142, 3622.180
723.0963, 3640.669
723.5784, 3666.447
724.0605, 3669.056
724.5427, 3643.323
725.0248, 3619.277
725.5069, 3613.490
725.9890, 3618.515
726.4711, 3618.191
726.9532, 3610.734
727.4354, 3602.655
727.9175, 3589.939
728.3996, 3580.918
728.8817, 3582.106
729.3638, 3589.789
729.8459, 3598.471
730.3281, 3606.203
730.8102, 3609.680
731.2923, 3601.269
731.7744, 3585.305
732.2565, 3580.740
732.7386, 3589.990
733.2208, 3593.933
733.7029, 3579.279
734.1850, 3557.233
734.6671, 3553.153
735.1492, 3554.142
735.6313, 3585.326
736.1135, 3601.835
736.5956, 3604.459
737.0777, 3551.607
737.5598, 3570.391
738.0419, 3560.467
738.5240, 3549.365
739.0062, 3578.230
739.4883, 3533.447
739.9704, 3561.679
740.4525, 3581.287
740.9346, 3621.419
741.4167, 3641.514
741.8989, 3618.965
742.3810, 3575.385
742.8631, 3553.916
743.3452, 3564.201
743.8273, 3568.947
744.3094, 3559.223
744.7916, 3554.234
745.2737, 3564.256
745.7558, 3581.964
746.2379, 3600.517
746.7200, 3618.592
747.2021, 3623.517
747.6843, 3593.730
748.1664, 3551.011
748.6485, 3527.998
749.1306, 3525.465
749.6127, 3538.681
750.0948, 3567.371
750.5770, 3599.743
751.0591, 3616.718
751.5412, 3616.309
752.0233, 3611.740
752.5054, 3601.568
752.9875, 3589.015
753.4697, 3566.114
753.9518, 3546.415
754.4339, 3552.368
754.9160, 3587.829
755.3981, 3608.541
755.8802, 3577.281
756.3624, 3533.853
756.8445, 3517.518
757.3266, 3522.372
757.8087, 3528.171
758.2908, 3527.716
758.7729, 3525.005
759.2551, 3524.744
759.7372, 3526.907
760.2193, 3530.888
760.7014, 3539.270
761.1835, 3542.930
761.6656, 3531.853
762.1478, 3520.046
762.6299, 3525.219
763.1120, 3547.534
763.5941, 3565.159
764.0762, 3570.906
764.5583, 3573.117
765.0405, 3580.481
765.5226, 3585.690
766.0047, 3573.342
766.4868, 3542.791
766.9689, 3513.309
767.4510, 3501.647
767.9332, 3504.736
768.4153, 3516.088
768.8974, 3537.394
769.3795, 3545.117
769.8616, 3527.649
770.3438, 3505.403
770.8259, 3499.506
771.3080, 3509.943
771.7901, 3517.521
772.2722, 3524.236
772.7543, 3525.842
773.2365, 3516.291
773.7186, 3504.972
774.2007, 3499.132
774.6828, 3499.664
775.1649, 3506.997
775.6470, 3528.417
776.1292, 3543.805
776.6113, 3510.680
777.0934, 3446.289
777.5755, 3422.121
778.0576, 3452.567
778.5397, 3492.945
779.0219, 3510.832
779.5040, 3509.354
779.9861, 3501.397
780.4682, 3478.391
780.9503, 3465.216
781.4324, 3467.876
781.9146, 3475.963
782.3967, 3490.214
782.8788, 3505.041
783.3609, 3508.690
783.8430, 3495.790
784.3251, 3478.189
784.8073, 3456.555
785.2894, 3438.286
785.7715, 3436.661
786.2536, 3448.619
786.7357, 3457.470
787.2178, 3454.322
787.7000, 3447.889
788.1821, 3456.726
788.6642, 3482.875
789.1463, 3492.318
789.6284, 3475.344
790.1105, 3463.935
790.5927, 3480.679
791.0748, 3507.756
791.5569, 3512.325
792.0390, 3489.037
792.5211, 3471.167
793.0032, 3463.707
793.4854, 3462.769
793.9675, 3471.379
794.4496, 3483.113
794.9317, 3489.359
795.4138, 3487.870
795.8959, 3481.525
796.3781, 3469.835
796.8602, 3456.246
797.3423, 3449.246
797.8244, 3448.275
798.3065, 3446.522
798.7886, 3441.360
799.2708, 3438.095
799.7529, 3444.045
800.2350, 3458.973
800.7171, 3464.259
801.1992, 3448.024
801.6813, 3440.444
802.1635, 3455.937
802.6456, 3472.683
803.1277, 3472.797
803.6098, 3459.100
804.0919, 3447.374
804.5740, 3440.002
805.0562, 3440.140
805.5383, 3460.431
806.0204, 3484.129
806.5025, 3482.116
806.9846, 3456.407
807.4667, 3435.684
807.9489, 3438.564
808.4310, 3455.322
808.9131, 3467.954
809.3952, 3476.617
809.8773, 3476.363
810.3594, 3464.090
810.8416, 3450.710
811.3237, 3442.338
811.8058, 3437.356
812.2879, 3431.012
812.7700, 3418.358
813.2521, 3417.070
813.7343, 3437.707
814.2164, 3459.512
814.6985, 3477.963
815.1806, 3488.892
815.6627, 3483.626
816.1448, 3460.870
816.6270, 3440.420
817.1091, 3440.221
817.5912, 3449.481
818.0733, 3455.183
818.5554, 3456.312
819.0375, 3448.552
819.5197, 3430.486
820.0018, 3412.331
820.4839, 3405.842
820.9660, 3409.630
821.4481, 3408.178
821.9302, 3398.407
822.4124, 3392.060
822.8945, 3391.490
823.3766, 3395.429
823.8587, 3405.102
824.3408, 3418.878
824.8230, 3429.418
825.3051, 3440.144
825.7872, 3441.810
826.2693, 3421.378
826.7515, 3398.945
827.2336, 3394.398
827.7157, 3404.112
828.1978, 3412.733
828.6799, 3413.094
829.1620, 3409.458
829.6442, 3404.778
830.1263, 3400.301
830.6084, 3397.927
831.0905, 3398.233
831.5726, 3410.113
832.0547, 3440.643
832.5369, 3473.711
833.0190, 3479.657
833.5011, 3453.274
833.9832, 3432.564
834.4653, 3417.793
834.9474, 3408.243
835.4296, 3404.872
835.9117, 3405.880
836.3938, 3411.624
836.8759, 3421.840
837.3580, 3428.122
837.8401, 3425.464
838.3223, 3421.856
838.8044, 3421.651
839.2865, 3422.520
839.7686, 3419.032
840.2507, 3412.719
840.7328, 3414.195
841.2150, 3434.032
841.6971, 3456.549
842.1792, 3451.278
842.6613, 3426.015
843.1434, 3419.762
843.6255, 3438.368
844.1077, 3455.965
844.5898, 3456.320
845.0719, 3444.228
845.5540, 3430.456
846.0361, 3410.874
846.5182, 3402.939
847.0004, 3418.169
847.4825, 3429.302
847.9646, 3418.769
848.4467, 3400.974
848.9288, 3394.813
849.4109, 3402.642
849.8931, 3410.319
850.3752, 3416.236
850.8573, 3418.651
851.3394, 3416.885
851.8215, 3410.818
852.3036, 3397.527
852.7858, 3378.484
853.2679, 3363.327
853.7500, 3359.936
854.2321, 3363.283
854.7142, 3364.906
855.1964, 3365.958
855.6785, 3374.823
856.1606, 3392.838
856.6427, 3401.379
857.1248, 3384.452
857.6069, 3353.050
858.0891, 3341.222
858.5712, 3355.924
859.0533, 3366.055
859.5354, 3368.930
860.0175, 3369.166
860.4996, 3365.406
860.9818, 3361.999
861.4639, 3367.184
861.9460, 3383.667
862.4281, 3395.633
862.9102, 3400.593
863.3923, 3399.991
863.8745, 3392.222
864.3566, 3380.567
864.8387, 3366.587
865.3208, 3352.093
865.8029, 3343.787
866.2850, 3350.353
866.7672, 3360.642
867.2493, 3357.267
867.7314, 3346.444
868.2135, 3346.141
868.6956, 3358.527
869.1777, 3370.947
869.6599, 3374.475
870.1420, 3371.880
870.6241, 3368.923
871.1062, 3365.102
871.5883, 3366.929
872.0704, 3379.168
872.5526, 3384.972
873.0347, 3371.866
873.5168, 3350.167
873.9989, 3338.962
874.4810, 3341.350
874.9631, 3343.384
875.4453, 3344.379
875.9274, 3345.795
876.4095, 3348.927
876.8916, 3352.161
877.3737, 3354.036
877.8558, 3354.345
878.3380, 3353.360
878.8201, 3350.696
879.3022, 3347.388
879.7843, 3342.146
880.2664, 3337.802
880.7485, 3337.896
881.2307, 3343.111
881.7128, 3355.522
882.1949, 3377.481
882.6770, 3398.156
883.1591, 3395.705
883.6412, 3375.396
884.1234, 3371.035
884.6055, 3385.567
885.0876, 3392.099
885.5697, 3376.953
886.0518, 3354.431
886.5339, 3345.683
887.0161, 3351.838
887.4982, 3355.500
887.9803, 3353.896
888.4624, 3355.002
888.9445, 3368.966
889.4266, 3379.047
889.9088, 3363.269
890.3909, 3329.703
890.8730, 3317.836
891.3551, 3351.308
891.8372, 3378.942
892.3193, 3380.434
892.8015, 3376.122
893.2836, 3385.616
893.7657, 3401.453
894.2478, 3400.976
894.7299, 3375.244
895.2120, 3354.961
895.6942, 3374.908
896.1763, 3409.063
896.6584, 3420.116
897.1405, 3412.162
897.6226, 3401.280
898.1047, 3392.703
898.5869, 3386.452
899.0690, 3383.929
899.5511, 3382.392
900.0332, 3364.688
900.5153, 3329.129
900.9974, 3334.038
901.4796, 3402.103
901.9617, 3458.202
902.4438, 3445.749
902.9259, 3387.693
903.4080, 3348.791
903.8901, 3333.717
904.3723, 3326.594
904.8544, 3337.157
905.3365, 3343.530
905.8186, 3333.835
906.3007, 3318.587
906.7828, 3310.189
907.2650, 3309.555
907.7471, 3309.239
908.2292, 3302.964
908.7113, 3302.202
909.1934, 3319.019
909.6755, 3339.084
910.1577, 3347.665
910.6398, 3344.862
911.1219, 3337.446
911.6040, 3326.590
912.0861, 3319.619
912.5682, 3328.365
913.0504, 3343.371
913.5325, 3347.702
914.0146, 3342.404
914.4967, 3337.073
914.9788, 3335.573
915.4609, 3336.626
915.9431, 3340.126
916.4252, 3344.652
916.9073, 3339.435
917.3894, 3323.747
917.8715, 3324.109
918.3536, 3351.078
918.8358, 3377.366
919.3179, 3380.158
919.8000, 3363.076
920.2821, 3340.099
920.7642, 3299.567
921.2463, 3282.797
921.7285, 3311.635
922.2106, 3337.209
922.6927, 3325.205
923.1748, 3300.837
923.6569, 3306.906
924.1390, 3352.223
924.6212, 3371.736
925.1033, 3328.380
925.5854, 3292.618
926.0675, 3300.456
926.5496, 3322.307
927.0317, 3327.348
927.5139, 3316.184
927.9960, 3307.368
928.4781, 3309.109
928.9602, 3314.333
929.4423, 3322.694
929.9244, 3328.469
930.4066, 3319.897
930.8887, 3302.641
931.3708, 3294.236
931.8529, 3301.217
932.3350, 3314.472
932.8171, 3327.038
933.2993, 3337.618
933.7814, 3343.082
934.2635, 3343.598
934.7456, 3339.620
935.2277, 3331.248
935.7098, 3320.064
936.1920, 3305.639
936.6741, 3293.127
937.1562, 3303.631
937.6383, 3342.919
938.1204, 3353.308
938.6025, 3322.175
939.0847, 3289.525
939.5668, 3272.050
940.0489, 3266.990
940.5310, 3271.762
941.0131, 3288.407
941.4952, 3299.483
941.9774, 3298.115
942.4595, 3301.340
942.9416, 3318.242
943.4237, 3335.487
943.9058, 3341.310
944.3879, 3339.035
944.8701, 3341.825
945.3522, 3357.865
945.8343, 3365.795
946.3164, 3355.071
946.7985, 3339.665
947.2806, 3325.759
947.7628, 3314.363
948.2449, 3305.678
948.7270, 3299.780
949.2091, 3297.262
949.6912, 3297.542
950.1733, 3302.300
950.6555, 3316.435
951.1376, 3334.279
951.6197, 3350.400
952.1018, 3361.815
952.5839, 3359.886
953.0660, 3338.065
953.5482, 3315.870
954.0303, 3324.862
954.5124, 3350.948
954.9945, 3355.750
955.4766, 3340.737
955.9587, 3325.096
956.4409, 3315.418
956.9230, 3313.865
957.4051, 3325.628
957.8872, 3344.425
958.3693, 3339.748
958.8514, 3309.479
959.3336, 3302.516
959.8157, 3331.893
960.2978, 3355.081
960.7799, 3343.115
961.2620, 3313.963
961.7441, 3306.617
962.2263, 3327.196
962.7084, 3335.589
963.1905, 3323.383
963.6726, 3316.051
964.1547, 3325.663
964.6368, 3338.068
965.1190, 3339.021
965.6011, 3329.830
966.0832, 3322.299
966.5653, 3313.310
967.0474, 3310.675
967.5295, 3318.291
968.0117, 3328.913
968.4938, 3342.400
968.9759, 3354.805
969.4580, 3359.515
969.9401, 3355.316
970.4222, 3351.594
970.9044, 3352.037
971.3865, 3352.837
971.8686, 3349.402
972.3507, 3347.221
972.8328, 3352.445
973.3149, 3364.512
973.7971, 3381.403
974.2792, 3405.157
974.7613, 3420.196
975.2434, 3405.491
975.7255, 3382.816
976.2076, 3377.915
976.6898, 3385.751
977.1719, 3391.445
977.6540, 3391.622
978.1361, 3394.394
978.6182, 3407.793
979.1003, 3424.595
979.5825, 3431.957
980.0646, 3433.629
980.5467, 3442.458
981.0288, 3458.020
981.5109, 3466.764
981.9930, 3461.838
982.4752, 3451.269
982.9573, 3442.511
983.4394, 3437.735
983.9215, 3453.614
984.4036, 3489.609
984.8857, 3518.576
985.3679, 3534.077
985.8500, 3539.989
986.3321, 3538.043
986.8142, 3531.379
987.2963, 3527.678
987.7784, 3525.852
988.2606, 3536.375
988.7427, 3563.901
989.2249, 3588.855
989.7070, 3601.358
990.1891, 3611.783
990.6712, 3633.185
991.1533, 3665.133
991.6354, 3693.484
992.1176, 3718.340
992.5997, 3739.411
993.0818, 3756.389
993.5639, 3769.937
994.0460, 3781.696
994.5281, 3789.751
995.0103, 3788.430
995.4924, 3774.192
995.9745, 3767.826
996.4566, 3776.429
996.9387, 3784.773
997.4208, 3786.896
997.9030, 3788.872
998.3851, 3799.938
998.8672, 3815.298
999.3493, 3818.599
999.8314, 3805.470
1000.314, 3783.754
1000.796, 3739.957
1001.278, 3704.786
1001.760, 3702.396
1002.242, 3715.735
1002.724, 3725.761
1003.206, 3728.075
1003.688, 3719.396
1004.170, 3697.588
1004.653, 3665.677
1005.135, 3611.280
1005.617, 3558.886
1006.099, 3537.258
1006.581, 3537.438
1007.063, 3536.051
1007.545, 3526.022
1008.027, 3514.219
1008.510, 3506.005
1008.992, 3498.018
1009.474, 3484.212
1009.956, 3469.466
1010.438, 3465.477
1010.920, 3469.715
1011.402, 3464.874
1011.884, 3441.313
1012.366, 3419.427
1012.849, 3426.492
1013.331, 3447.814
1013.813, 3459.420
1014.295, 3461.416
1014.777, 3453.992
1015.259, 3439.007
1015.741, 3427.817
1016.223, 3429.284
1016.706, 3437.629
1017.188, 3444.308
1017.670, 3449.341
1018.152, 3452.497
1018.634, 3453.877
1019.116, 3454.854
1019.598, 3455.904
1020.080, 3454.265
1020.562, 3446.604
1021.045, 3434.591
1021.527, 3420.948
1022.009, 3406.477
1022.491, 3406.407
1022.973, 3423.197
1023.455, 3437.514
1023.937, 3440.122
1024.419, 3432.159
1024.901, 3412.607
1025.384, 3383.188
1025.866, 3364.724
1026.348, 3357.425
1026.830, 3361.522
1027.312, 3380.070
1027.794, 3395.558
1028.276, 3395.882
1028.758, 3386.264
1029.240, 3378.193
1029.723, 3372.318
1030.205, 3360.263
1030.687, 3336.680
1031.169, 3326.961
1031.651, 3342.249
1032.133, 3364.467
1032.615, 3380.894
1033.097, 3390.031
1033.580, 3384.515
1034.062, 3356.684
1034.544, 3337.177
1035.026, 3328.769
1035.508, 3323.657
1035.990, 3320.609
1036.472, 3317.632
1036.954, 3309.753
1037.437, 3298.786
1037.919, 3303.781
1038.401, 3342.863
1038.883, 3362.122
1039.365, 3345.717
1039.847, 3327.418
1040.329, 3322.333
1040.811, 3323.453
1041.293, 3321.024
1041.776, 3314.732
1042.258, 3311.705
1042.740, 3314.219
1043.222, 3316.606
1043.704, 3318.327
1044.186, 3319.777
1044.668, 3323.889
1045.150, 3326.758
1045.632, 3320.114
1046.115, 3301.791
1046.597, 3288.331
1047.079, 3277.046
1047.561, 3276.271
1048.043, 3298.689
1048.525, 3321.948
1049.007, 3329.591
1049.489, 3326.128
1049.972, 3323.000
1050.454, 3321.706
1050.936, 3319.422
1051.418, 3310.063
1051.900, 3306.882
1052.382, 3320.460
1052.864, 3337.144
1053.346, 3346.361
1053.828, 3348.369
1054.311, 3346.775
1054.793, 3341.709
1055.275, 3334.620
1055.757, 3322.180
1056.239, 3312.050
1056.721, 3305.129
1057.203, 3304.394
1057.685, 3317.985
1058.167, 3341.255
1058.650, 3353.981
1059.132, 3346.768
1059.614, 3339.510
1060.096, 3344.123
1060.578, 3344.161
1061.060, 3320.927
1061.542, 3293.279
1062.024, 3286.519
1062.507, 3300.299
1062.989, 3314.699
1063.471, 3326.098
1063.953, 3332.523
1064.435, 3330.633
1064.917, 3326.197
1065.399, 3322.527
1065.881, 3319.218
1066.364, 3314.182
1066.846, 3307.809
1067.328, 3305.198
1067.810, 3309.656
1068.292, 3315.917
1068.774, 3322.229
1069.256, 3328.975
1069.738, 3340.920
1070.220, 3351.522
1070.703, 3348.048
1071.185, 3329.443
1071.667, 3312.341
1072.149, 3300.585
1072.631, 3295.639
1073.113, 3303.672
1073.595, 3313.802
1074.077, 3317.407
1074.560, 3315.931
1075.042, 3311.841
1075.524, 3306.002
1076.006, 3304.287
1076.488, 3312.084
1076.970, 3321.013
1077.452, 3332.456
1077.934, 3338.286
1078.417, 3325.195
1078.899, 3302.667
1079.381, 3289.203
1079.863, 3288.997
1080.345, 3296.206
1080.827, 3314.398
1081.309, 3331.660
1081.791, 3345.807
1082.273, 3352.778
1082.755, 3345.398
1083.238, 3328.782
1083.720, 3312.752
1084.202, 3299.380
1084.684, 3291.852
1085.166, 3293.115
1085.648, 3298.660
1086.130, 3308.247
1086.612, 3319.244
1087.095, 3333.155
1087.577, 3345.472
1088.059, 3345.597
1088.541, 3330.149
1089.023, 3314.541
1089.505, 3302.072
1089.987, 3294.659
1090.469, 3295.835
1090.952, 3300.399
1091.434, 3302.831
1091.916, 3304.716
1092.398, 3310.745
1092.880, 3322.099
1093.362, 3336.623
1093.844, 3362.024
1094.326, 3379.896
1094.808, 3377.324
1095.291, 3366.555
1095.773, 3354.388
1096.255, 3344.526
1096.737, 3344.784
1097.219, 3358.838
1097.701, 3367.192
1098.183, 3359.016
1098.665, 3349.962
1099.147, 3344.221
1099.630, 3342.676
1100.112, 3350.275
1100.594, 3361.604
1101.076, 3362.576
1101.558, 3348.156
1102.040, 3339.719
1102.522, 3354.324
1103.004, 3360.514
1103.487, 3330.447
1103.969, 3302.142
1104.451, 3316.043
1104.933, 3354.473
1105.415, 3371.917
1105.897, 3359.261
1106.379, 3343.834
1106.861, 3324.453
1107.344, 3310.728
1107.826, 3305.369
1108.308, 3306.907
1108.790, 3322.350
1109.272, 3341.905
1109.754, 3340.719
1110.236, 3310.507
1110.718, 3293.123
1111.200, 3303.487
1111.682, 3311.576
1112.165, 3307.071
1112.647, 3301.823
1113.129, 3304.024
1113.611, 3311.243
1114.093, 3320.352
1114.575, 3335.054
1115.057, 3332.643
1115.539, 3291.824
1116.022, 3266.727
1116.504, 3274.313
1116.986, 3289.872
1117.468, 3303.793
1117.950, 3312.493
1118.432, 3306.454
1118.914, 3282.338
1119.396, 3271.994
1119.879, 3284.577
1120.361, 3291.182
1120.843, 3282.373
1121.325, 3275.730
1121.807, 3283.754
1122.289, 3297.652
1122.771, 3302.292
1123.253, 3297.424
1123.735, 3289.586
1124.218, 3273.154
1124.700, 3274.620
1125.182, 3306.477
1125.664, 3331.271
1126.146, 3325.629
1126.628, 3309.412
1127.110, 3313.795
1127.592, 3336.395
1128.074, 3340.907
1128.557, 3323.689
1129.039, 3313.415
1129.521, 3314.416
1130.003, 3318.648
1130.485, 3323.718
1130.967, 3323.435
1131.449, 3307.402
1131.931, 3280.845
1132.414, 3270.017
1132.896, 3274.827
1133.378, 3293.851
1133.860, 3327.244
1134.342, 3338.466
1134.824, 3311.068
1135.306, 3277.863
1135.788, 3275.727
1136.271, 3290.759
1136.753, 3279.159
1137.235, 3248.477
1137.717, 3244.496
1138.199, 3267.339
1138.681, 3290.223
1139.163, 3303.925
1139.645, 3310.859
1140.127, 3312.323
1140.609, 3310.850
1141.092, 3311.503
1141.574, 3312.508
1142.056, 3305.911
1142.538, 3295.510
1143.020, 3297.759
1143.502, 3314.850
1143.984, 3330.700
1144.466, 3335.325
1144.949, 3330.822
1145.431, 3310.765
1145.913, 3289.438
1146.395, 3291.756
1146.877, 3308.317
1147.359, 3318.811
1147.841, 3320.031
1148.323, 3319.666
1148.806, 3322.180
1149.288, 3320.177
1149.770, 3299.205
1150.252, 3279.908
1150.734, 3286.400
1151.216, 3302.948
1151.698, 3303.884
1152.180, 3293.299
1152.662, 3296.948
1153.145, 3325.779
1153.627, 3350.002
1154.109, 3356.381
1154.591, 3353.731
1155.073, 3340.976
1155.555, 3326.588
1156.037, 3318.787
1156.519, 3315.517
1157.001, 3308.790
1157.484, 3295.932
1157.966, 3293.937
1158.448, 3318.375
1158.930, 3337.254
1159.412, 3337.232
1159.894, 3334.349
1160.376, 3339.812
1160.858, 3348.707
1161.341, 3351.866
1161.823, 3348.767
1162.305, 3347.311
1162.787, 3349.447
1163.269, 3349.067
1163.751, 3339.845
1164.233, 3338.079
1164.715, 3353.101
1165.198, 3376.890
1165.680, 3404.395
1166.162, 3431.911
1166.644, 3429.403
1167.126, 3384.733
1167.608, 3370.232
1168.090, 3397.679
1168.572, 3417.414
1169.054, 3412.791
1169.536, 3392.796
1170.019, 3361.602
1170.501, 3330.015
1170.983, 3332.349
1171.465, 3365.496
1171.947, 3377.366
1172.429, 3368.104
1172.911, 3364.464
1173.393, 3372.499
1173.876, 3377.153
1174.358, 3368.211
1174.840, 3355.427
1175.322, 3355.274
1175.804, 3361.464
1176.286, 3353.630
1176.768, 3339.343
1177.250, 3346.857
1177.733, 3373.043
1178.215, 3384.313
1178.697, 3366.477
1179.179, 3342.914
1179.661, 3331.136
1180.143, 3327.680
1180.625, 3331.339
1181.107, 3339.132
1181.589, 3350.366
1182.072, 3361.340
1182.554, 3364.962
1183.036, 3359.885
1183.518, 3350.892
1184.000, 3335.276
1184.482, 3324.641
1184.964, 3327.628
1185.446, 3334.677
1185.928, 3342.413
1186.411, 3347.768
1186.893, 3345.249
1187.375, 3336.381
1187.857, 3332.502
1188.339, 3341.232
1188.821, 3342.114
1189.303, 3319.543
1189.785, 3305.757
1190.268, 3322.012
1190.750, 3340.361
1191.232, 3335.776
1191.714, 3318.611
1192.196, 3316.168
1192.678, 3331.704
1193.160, 3341.030
1193.642, 3343.170
1194.125, 3341.887
1194.607, 3337.506
1195.089, 3329.461
1195.571, 3314.714
1196.053, 3304.467
1196.535, 3317.137
1197.017, 3347.496
1197.499, 3370.216
1197.981, 3384.876
1198.464, 3380.092
1198.946, 3356.163
1199.428, 3332.296
1199.910, 3315.603
1200.392, 3315.115
1200.874, 3344.048
1201.356, 3376.760
1201.838, 3362.556
1202.320, 3324.740
1202.803, 3309.978
1203.285, 3315.164
1203.767, 3332.071
1204.249, 3353.302
1204.731, 3356.418
1205.213, 3327.866
1205.695, 3298.803
1206.177, 3288.257
1206.660, 3292.374
1207.142, 3320.916
1207.624, 3352.248
1208.106, 3359.571
1208.588, 3349.500
1209.070, 3340.985
1209.552, 3337.860
1210.034, 3340.948
1210.516, 3364.821
1210.999, 3373.956
1211.481, 3347.262
1211.963, 3317.287
1212.445, 3293.759
1212.927, 3283.197
1213.409, 3297.911
1213.891, 3333.508
1214.373, 3358.589
1214.855, 3375.026
1215.338, 3373.661
1215.820, 3347.026
1216.302, 3324.944
1216.784, 3315.788
1217.266, 3314.327
1217.748, 3317.767
1218.230, 3323.536
1218.712, 3327.378
1219.195, 3328.993
1219.677, 3325.211
1220.159, 3316.453
1220.641, 3303.252
1221.123, 3287.336
1221.605, 3285.046
1222.087, 3303.186
1222.569, 3324.014
1223.052, 3329.683
1223.534, 3329.666
1224.016, 3335.524
1224.498, 3346.491
1224.980, 3370.049
1225.462, 3394.627
1225.944, 3392.865
1226.426, 3363.766
1226.908, 3331.526
1227.391, 3301.748
1227.873, 3287.606
1228.355, 3305.197
1228.837, 3329.378
1229.319, 3352.940
1229.801, 3369.578
1230.283, 3370.806
1230.765, 3361.699
1231.247, 3356.107
1231.730, 3356.631
1232.212, 3350.163
1232.694, 3323.959
1233.176, 3315.153
1233.658, 3339.936
1234.140, 3357.689
1234.622, 3345.909
1235.104, 3327.530
1235.587, 3328.689
1236.069, 3344.594
1236.551, 3359.000
1237.033, 3372.047
1237.515, 3368.003
1237.997, 3347.090
1238.479, 3330.625
1238.961, 3323.913
1239.443, 3324.878
1239.926, 3332.879
1240.408, 3340.570
1240.890, 3338.925
1241.372, 3330.518
1241.854, 3313.777
1242.336, 3296.820
1242.818, 3295.917
1243.300, 3308.195
1243.783, 3323.138
1244.265, 3337.275
1244.747, 3349.091
1245.229, 3361.420
1245.711, 3364.365
1246.193, 3340.059
1246.675, 3319.694
1247.157, 3331.287
1247.640, 3350.745
1248.122, 3348.959
1248.604, 3330.895
1249.086, 3319.509
1249.568, 3314.111
1250.050, 3324.089
1250.532, 3366.682
1251.014, 3381.513
1251.496, 3345.535
1251.979, 3317.854
1252.461, 3331.376
1252.943, 3358.753
1253.425, 3366.689
1253.907, 3359.898
1254.389, 3352.340
1254.871, 3296.110
1255.353, 3329.469
1255.835, 3352.058
1256.318, 3364.296
1256.800, 3345.344
1257.282, 3358.781
1257.764, 3354.435
1258.246, 3346.074
1258.728, 3354.268
1259.210, 3322.212
1259.692, 3381.156
1260.175, 3386.614
1260.657, 3364.289
1261.139, 3330.978
1261.621, 3327.521
1262.103, 3359.239
1262.585, 3386.073
1263.067, 3401.024
1263.549, 3402.003
1264.031, 3375.248
1264.514, 3351.575
1264.996, 3340.341
1265.478, 3340.264
##END=



