##NAMES=Dolomite
##RRUFFID=R050129
##IDEAL CHEMISTRY=CaMg(CO_3_)_2_
##LOCALITY=Black Cloud mine, Leadville, Lake County, Colorado, USA
##OWNER=RRUFF
##SOURCE=Dave Bunk Minerals
##DESCRIPTION=Aggregate of colorless to white rhombohedra
##STATUS=The identification of this mineral has been confirmed by X-ray diffraction and chemical analysis
##URL=rruff.info/R050129
##MEASURED CHEMISTRY=Ca(Mg_0.62_Fe^2+^_0.33_Mn_0.05_)_Î£=1_(CO_3_)_2_ ; CO_2_ estimated by difference
93.88477, 22.61995
94.36688, 21.33414
94.84900, 21.91042
95.33112, 24.06368
95.81323, 26.44561
96.29535, 28.38342
96.77747, 29.98257
97.25958, 31.60131
97.74170, 33.18377
98.22382, 34.98146
98.70593, 37.42087
99.18805, 40.52177
99.67017, 44.12486
100.1523, 48.53209
100.6344, 53.79652
101.1165, 57.87514
101.5986, 60.04153
102.0807, 60.88496
102.5629, 62.91671
103.0450, 66.38267
103.5271, 70.54179
104.0092, 74.85315
104.4913, 79.61459
104.9734, 83.81217
105.4556, 87.10865
105.9377, 89.40388
106.4198, 92.41889
106.9019, 96.77627
107.3840, 101.3841
107.8661, 104.7449
108.3483, 105.4979
108.8304, 106.7691
109.3125, 109.3872
109.7946, 113.8418
110.2767, 118.3954
110.7588, 123.1484
111.2410, 128.0120
111.7231, 132.8562
112.2052, 137.0262
112.6873, 141.7575
113.1694, 147.6072
113.6515, 155.7952
114.1337, 163.3203
114.6158, 169.7832
115.0979, 175.2710
115.5800, 180.1702
116.0621, 183.9541
116.5442, 187.5119
117.0264, 191.3190
117.5085, 195.7589
117.9906, 200.2640
118.4727, 204.8869
118.9548, 209.5421
119.4369, 213.6420
119.9191, 216.6341
120.4012, 219.0975
120.8833, 221.5979
121.3654, 223.5751
121.8475, 226.2283
122.3296, 230.8862
122.8118, 237.5858
123.2939, 243.8907
123.7760, 248.0642
124.2581, 250.7346
124.7402, 252.9929
125.2223, 254.2683
125.7045, 255.8031
126.1866, 259.0821
126.6687, 264.3129
127.1508, 270.5765
127.6329, 277.4715
128.1150, 284.7444
128.5972, 291.8130
129.0793, 298.3925
129.5614, 304.4804
130.0435, 309.8215
130.5256, 314.1530
131.0077, 318.3164
131.4899, 323.7911
131.9720, 330.4787
132.4541, 336.9353
132.9362, 340.8444
133.4183, 342.1040
133.9004, 343.2459
134.3826, 344.1567
134.8647, 345.2785
135.3468, 348.0487
135.8289, 352.6541
136.3110, 357.2055
136.7931, 359.7555
137.2753, 360.2102
137.7574, 361.7150
138.2395, 365.1949
138.7216, 370.1886
139.2037, 374.3148
139.6858, 377.3674
140.1680, 380.0935
140.6501, 383.1905
141.1322, 386.6595
141.6143, 390.5399
142.0964, 395.0145
142.5785, 400.1278
143.0607, 404.8091
143.5428, 408.7948
144.0249, 412.6932
144.5070, 417.1898
144.9891, 421.7168
145.4712, 427.9012
145.9534, 436.4330
146.4355, 448.2415
146.9176, 458.9503
147.3997, 467.9391
147.8818, 476.1660
148.3639, 485.4467
148.8461, 495.4463
149.3282, 506.8276
149.8103, 519.7019
150.2924, 534.7228
150.7745, 550.0013
151.2566, 565.5097
151.7388, 581.2833
152.2209, 596.9643
152.7030, 611.8193
153.1851, 627.1799
153.6672, 643.5606
154.1493, 662.4387
154.6315, 680.0460
155.1136, 695.8585
155.5957, 710.2166
156.0778, 724.5552
156.5599, 738.1748
157.0420, 752.5510
157.5242, 768.5704
158.0063, 787.5990
158.4884, 806.6533
158.9705, 824.8849
159.4526, 842.5295
159.9347, 861.5134
160.4169, 882.7002
160.8990, 905.2018
161.3811, 928.3748
161.8632, 951.2658
162.3453, 975.5197
162.8274, 1001.815
163.3096, 1030.085
163.7917, 1059.484
164.2738, 1089.807
164.7559, 1121.034
165.2380, 1153.148
165.7201, 1186.750
166.2023, 1220.722
166.6844, 1255.676
167.1665, 1291.619
167.6486, 1325.484
168.1307, 1357.746
168.6128, 1386.513
169.0950, 1409.304
169.5771, 1426.276
170.0592, 1436.216
170.5413, 1438.877
171.0234, 1434.477
171.5055, 1421.222
171.9877, 1396.763
172.4698, 1362.697
172.9519, 1321.842
173.4340, 1272.313
173.9161, 1218.103
174.3982, 1162.460
174.8804, 1105.021
175.3625, 1047.933
175.8446, 992.9997
176.3267, 940.1661
176.8088, 889.9404
177.2909, 841.5696
177.7731, 796.2169
178.2552, 755.4672
178.7373, 719.2321
179.2194, 686.9881
179.7015, 658.3090
180.1836, 632.7912
180.6658, 609.5544
181.1479, 587.7455
181.6300, 567.5774
182.1121, 549.9336
182.5942, 535.1646
183.0763, 522.2780
183.5585, 510.0115
184.0406, 498.3471
184.5227, 487.5918
185.0048, 477.9452
185.4869, 469.3162
185.9690, 461.1419
186.4511, 453.4055
186.9333, 446.1075
187.4154, 439.0886
187.8975, 432.3202
188.3796, 426.4453
188.8617, 422.3638
189.3438, 419.6919
189.8260, 416.3932
190.3081, 411.8805
190.7902, 406.8645
191.2723, 402.7986
191.7544, 399.6997
192.2365, 397.0307
192.7187, 394.6115
193.2008, 392.3926
193.6829, 389.6703
194.1650, 386.0753
194.6471, 382.0506
195.1292, 378.8217
195.6114, 376.4070
196.0935, 374.4962
196.5756, 372.9876
197.0577, 371.8731
197.5398, 370.8080
198.0219, 369.7841
198.5041, 368.7252
198.9862, 367.3392
199.4683, 365.5349
199.9504, 363.7679
200.4325, 362.4596
200.9146, 361.6325
201.3968, 360.8322
201.8789, 359.8933
202.3610, 358.9183
202.8431, 358.5930
203.3252, 359.1524
203.8073, 359.6283
204.2895, 359.0087
204.7716, 357.1277
205.2537, 355.4174
205.7358, 354.1397
206.2179, 353.2794
206.7000, 352.8250
207.1822, 352.9828
207.6643, 353.0791
208.1464, 352.3094
208.6285, 350.4009
209.1106, 348.9300
209.5927, 348.2408
210.0749, 348.2914
210.5570, 348.6319
211.0391, 349.2744
211.5212, 350.1630
212.0033, 351.4491
212.4854, 353.4493
212.9676, 354.6423
213.4497, 354.4422
213.9318, 352.9225
214.4139, 351.9174
214.8960, 351.3191
215.3781, 351.3793
215.8603, 352.7073
216.3424, 356.0980
216.8245, 358.2936
217.3066, 358.1998
217.7887, 355.8466
218.2708, 354.5392
218.7530, 354.5903
219.2351, 355.2555
219.7172, 355.7778
220.1993, 356.0909
220.6814, 356.4740
221.1635, 357.0953
221.6457, 357.9688
222.1278, 358.1736
222.6099, 357.1410
223.0920, 356.1218
223.5741, 356.6242
224.0562, 359.6456
224.5384, 361.8885
225.0205, 362.4245
225.5026, 361.1987
225.9847, 360.6660
226.4668, 361.1118
226.9489, 361.9478
227.4311, 362.5130
227.9132, 362.5351
228.3953, 362.8876
228.8774, 363.7924
229.3595, 365.2746
229.8416, 366.8984
230.3238, 369.1111
230.8059, 371.0276
231.2880, 371.5344
231.7701, 369.3672
232.2522, 368.3560
232.7343, 369.4994
233.2165, 372.8922
233.6986, 375.9126
234.1807, 378.3944
234.6628, 380.6696
235.1449, 383.0966
235.6270, 385.9720
236.1092, 388.3327
236.5913, 389.8577
237.0734, 390.5117
237.5555, 391.4165
238.0376, 392.4043
238.5197, 393.8063
239.0019, 395.9973
239.4840, 399.4553
239.9661, 402.7991
240.4482, 405.7397
240.9303, 408.2829
241.4124, 411.1750
241.8946, 414.7517
242.3767, 418.3227
242.8588, 421.0933
243.3409, 422.1778
243.8230, 424.2108
244.3051, 427.9479
244.7873, 433.3239
245.2694, 437.9674
245.7515, 441.4443
246.2336, 444.6725
246.7157, 448.3591
247.1978, 452.4706
247.6800, 457.1655
248.1621, 462.6691
248.6442, 468.9380
249.1263, 474.5347
249.6084, 478.9067
250.0905, 483.3560
250.5726, 488.8694
251.0548, 495.6427
251.5369, 503.1644
252.0190, 511.6696
252.5011, 521.0339
252.9832, 529.2776
253.4653, 535.5858
253.9475, 541.9647
254.4296, 549.8558
254.9117, 559.7559
255.3938, 570.1307
255.8759, 580.8734
256.3581, 592.0105
256.8402, 602.9935
257.3223, 613.4014
257.8044, 624.3944
258.2865, 636.8832
258.7686, 651.2444
259.2508, 665.7429
259.7329, 680.2021
260.2150, 694.5671
260.6971, 709.8378
261.1792, 726.0251
261.6613, 742.8250
262.1435, 760.0387
262.6256, 777.3353
263.1077, 795.6608
263.5898, 815.0090
264.0719, 835.3656
264.5540, 856.4745
265.0362, 878.2802
265.5183, 901.3550
266.0004, 926.3625
266.4825, 953.2598
266.9646, 981.5080
267.4467, 1011.092
267.9289, 1041.970
268.4110, 1072.327
268.8931, 1101.969
269.3752, 1132.802
269.8573, 1165.682
270.3394, 1201.065
270.8216, 1237.868
271.3037, 1276.328
271.7858, 1316.097
272.2679, 1354.468
272.7500, 1390.626
273.2321, 1428.639
273.7143, 1471.068
274.1964, 1518.618
274.6785, 1562.808
275.1606, 1602.387
275.6427, 1639.942
276.1248, 1679.365
276.6070, 1720.642
277.0891, 1763.999
277.5712, 1810.333
278.0533, 1859.706
278.5354, 1907.475
279.0175, 1953.332
279.4996, 1998.040
279.9818, 2042.093
280.4639, 2085.134
280.9460, 2127.132
281.4281, 2168.113
281.9102, 2208.018
282.3923, 2246.408
282.8745, 2283.292
283.3566, 2318.583
283.8387, 2352.714
284.3208, 2385.861
284.8029, 2415.531
285.2850, 2441.159
285.7672, 2462.950
286.2493, 2481.836
286.7314, 2497.894
287.2135, 2510.721
287.6956, 2519.837
288.1777, 2525.313
288.6599, 2527.848
289.1420, 2528.277
289.6241, 2525.606
290.1062, 2516.998
290.5883, 2502.330
291.0704, 2482.618
291.5526, 2458.354
292.0347, 2429.424
292.5168, 2396.218
292.9989, 2358.454
293.4810, 2316.434
293.9631, 2269.500
294.4453, 2217.694
294.9274, 2162.337
295.4095, 2105.028
295.8916, 2045.285
296.3737, 1981.669
296.8558, 1913.532
297.3380, 1843.512
297.8201, 1773.906
298.3022, 1704.556
298.7843, 1636.816
299.2664, 1570.745
299.7485, 1505.842
300.2307, 1443.152
300.7128, 1381.792
301.1949, 1322.769
301.6770, 1266.038
302.1591, 1211.557
302.6412, 1160.339
303.1234, 1112.168
303.6055, 1067.437
304.0876, 1025.849
304.5697, 988.2411
305.0518, 952.9238
305.5339, 919.4651
306.0161, 887.4970
306.4982, 857.0059
306.9803, 827.2407
307.4624, 799.2023
307.9445, 774.7653
308.4266, 753.9756
308.9088, 734.6690
309.3909, 715.5892
309.8730, 696.7571
310.3551, 678.1692
310.8372, 658.0992
311.3193, 639.3239
311.8015, 624.3168
312.2836, 612.6269
312.7657, 602.0510
313.2478, 591.8193
313.7299, 581.7292
314.2120, 571.4058
314.6942, 560.2040
315.1763, 549.5297
315.6584, 540.1425
316.1405, 531.8247
316.6226, 524.3079
317.1047, 517.8962
317.5869, 511.8727
318.0690, 505.6959
318.5511, 499.0116
319.0332, 492.6383
319.5153, 486.8825
319.9974, 481.6712
320.4796, 476.9378
320.9617, 472.8605
321.4438, 469.0388
321.9259, 465.4491
322.4080, 462.4217
322.8901, 458.6076
323.3723, 452.2878
323.8544, 445.3356
324.3365, 440.4047
324.8186, 440.4488
325.3007, 440.3498
325.7828, 438.3408
326.2650, 433.9151
326.7471, 430.1134
327.2292, 427.6858
327.7113, 425.8089
328.1934, 423.6886
328.6755, 420.9157
329.1577, 418.3138
329.6398, 416.0455
330.1219, 414.0973
330.6040, 412.2158
331.0861, 410.5045
331.5682, 408.7650
332.0504, 406.7969
332.5325, 403.8622
333.0146, 401.9309
333.4967, 401.7112
333.9788, 402.6851
334.4609, 402.4062
334.9431, 400.1495
335.4252, 397.6517
335.9073, 395.9052
336.3894, 395.4296
336.8715, 394.2260
337.3536, 391.9024
337.8358, 389.0795
338.3179, 387.0537
338.8000, 386.0799
339.2821, 385.2952
339.7642, 384.5158
340.2463, 383.8177
340.7285, 382.3011
341.2106, 379.7084
341.6927, 376.8338
342.1748, 374.9053
342.6569, 374.0407
343.1390, 372.9786
343.6212, 371.1564
344.1033, 368.7598
344.5854, 367.1406
345.0675, 366.3957
345.5496, 365.9346
346.0317, 365.5135
346.5139, 365.0547
346.9960, 363.6737
347.4781, 360.8262
347.9602, 357.2643
348.4423, 354.6623
348.9244, 353.0008
349.4066, 351.6305
349.8887, 350.1452
350.3708, 348.5966
350.8529, 347.1378
351.3350, 345.7707
351.8171, 344.5890
352.2993, 343.8853
352.7814, 343.5473
353.2635, 343.1107
353.7456, 342.1128
354.2277, 340.9449
354.7098, 340.3366
355.1920, 340.4037
355.6741, 340.2271
356.1562, 338.4607
356.6383, 335.9503
357.1204, 334.1628
357.6025, 334.4243
358.0847, 335.1226
358.5668, 334.8681
359.0489, 333.7296
359.5310, 332.7261
360.0131, 332.5812
360.4952, 332.8180
360.9774, 332.9992
361.4595, 333.4496
361.9416, 333.2670
362.4237, 331.4104
362.9058, 328.4651
363.3879, 326.2766
363.8701, 325.9643
364.3522, 326.2961
364.8343, 326.6908
365.3164, 327.3546
365.7985, 327.3990
366.2806, 325.8825
366.7628, 323.7549
367.2449, 322.5533
367.7270, 323.5829
368.2091, 324.5518
368.6912, 324.7046
369.1733, 323.8276
369.6555, 323.1765
370.1376, 323.0721
370.6197, 323.0584
371.1018, 322.7374
371.5839, 321.8156
372.0660, 320.9720
372.5482, 320.1647
373.0303, 319.4502
373.5124, 319.3016
373.9945, 319.9455
374.4766, 320.8416
374.9587, 321.7708
375.4409, 322.9363
375.9230, 323.5338
376.4051, 323.4590
376.8872, 322.8579
377.3693, 321.8918
377.8514, 320.3518
378.3336, 319.2142
378.8157, 319.0475
379.2978, 319.8712
379.7799, 320.4281
380.2620, 320.6698
380.7441, 320.8119
381.2263, 321.3251
381.7084, 322.1781
382.1905, 322.3078
382.6726, 320.9517
383.1547, 318.8593
383.6368, 318.4439
384.1190, 319.7182
384.6011, 321.0316
385.0832, 320.8306
385.5653, 319.5979
386.0474, 318.5030
386.5295, 317.4668
387.0117, 317.3112
387.4938, 320.3903
387.9759, 325.6377
388.4580, 329.1820
388.9401, 327.4586
389.4222, 323.5173
389.9044, 320.9158
390.3865, 319.9934
390.8686, 319.5409
391.3507, 318.7994
391.8328, 317.9198
392.3149, 317.1300
392.7971, 316.3226
393.2792, 315.8085
393.7613, 316.0248
394.2434, 316.8500
394.7255, 317.3416
395.2076, 317.1297
395.6898, 316.4151
396.1719, 315.2303
396.6540, 312.5854
397.1361, 311.0254
397.6182, 312.1194
398.1003, 314.7223
398.5825, 316.2357
399.0646, 314.8964
399.5467, 313.6057
400.0288, 313.5873
400.5109, 315.6173
400.9930, 316.3884
401.4752, 314.7861
401.9573, 312.5725
402.4394, 311.5778
402.9215, 312.6614
403.4036, 313.5590
403.8857, 313.8760
404.3678, 313.6808
404.8499, 313.5658
405.3321, 313.5507
405.8142, 313.5874
406.2963, 313.6796
406.7784, 313.8657
407.2605, 313.8776
407.7426, 313.6186
408.2248, 313.2801
408.7069, 313.2831
409.1890, 313.6547
409.6711, 313.9913
410.1532, 314.0879
410.6353, 313.9882
411.1175, 313.9740
411.5996, 314.0576
412.0817, 314.1044
412.5638, 313.8469
413.0459, 313.4081
413.5280, 313.2710
414.0102, 313.7587
414.4923, 314.3649
414.9744, 314.3114
415.4565, 313.6942
415.9386, 313.0196
416.4207, 312.6967
416.9029, 312.4645
417.3850, 311.7006
417.8671, 310.0169
418.3492, 309.2318
418.8313, 312.1446
419.3134, 316.5538
419.7956, 318.9787
420.2777, 315.5139
420.7598, 311.8297
421.2419, 311.3281
421.7240, 313.9268
422.2061, 315.9025
422.6883, 315.2535
423.1704, 313.9787
423.6525, 313.5047
424.1346, 315.1497
424.6167, 316.1817
425.0988, 315.8644
425.5810, 314.6446
426.0631, 313.6244
426.5452, 312.7556
427.0273, 312.1930
427.5094, 312.0381
427.9915, 312.3862
428.4737, 312.7222
428.9558, 313.1581
429.4379, 313.4839
429.9200, 313.4478
430.4021, 312.9232
430.8842, 312.4384
431.3664, 312.0357
431.8485, 311.7604
432.3306, 311.8914
432.8127, 312.5417
433.2948, 313.0757
433.7769, 312.9090
434.2591, 312.1141
434.7412, 311.9071
435.2233, 312.4726
435.7054, 313.2104
436.1875, 313.2511
436.6696, 312.6987
437.1518, 312.1842
437.6339, 311.8204
438.1160, 311.7049
438.5981, 312.1759
439.0802, 313.1791
439.5623, 314.1096
440.0445, 314.5331
440.5266, 314.6122
441.0087, 314.5689
441.4908, 314.4628
441.9729, 314.2199
442.4550, 313.5713
442.9372, 312.7646
443.4193, 312.2811
443.9014, 312.3923
444.3835, 312.8290
444.8656, 313.5739
445.3477, 314.6430
445.8299, 315.5529
446.3120, 316.3313
446.7941, 316.8095
447.2762, 316.8497
447.7583, 315.5011
448.2404, 314.8290
448.7226, 315.5812
449.2047, 317.1746
449.6868, 317.8510
450.1689, 316.8749
450.6510, 315.9834
451.1331, 315.9909
451.6153, 317.2298
452.0974, 317.2057
452.5795, 315.2560
453.0616, 313.0097
453.5437, 312.2485
454.0258, 313.1725
454.5080, 314.3338
454.9901, 315.7168
455.4722, 316.9543
455.9543, 316.5572
456.4364, 314.4464
456.9185, 312.8315
457.4007, 313.7458
457.8828, 316.2912
458.3649, 317.3782
458.8470, 316.6379
459.3291, 315.4609
459.8112, 315.2970
460.2934, 315.8427
460.7755, 316.4160
461.2576, 316.8247
461.7397, 317.1162
462.2218, 317.3258
462.7039, 317.4614
463.1861, 317.5353
463.6682, 317.4913
464.1503, 317.4359
464.6324, 317.5061
465.1145, 317.8370
465.5966, 317.9287
466.0788, 317.1342
466.5609, 316.1479
467.0430, 315.8753
467.5251, 317.2585
468.0072, 318.5580
468.4893, 319.5331
468.9715, 320.1570
469.4536, 320.0832
469.9357, 318.6824
470.4178, 317.2508
470.8999, 316.4805
471.3820, 316.5538
471.8642, 316.8441
472.3463, 317.4408
472.8284, 318.1514
473.3105, 318.7137
473.7926, 319.1196
474.2747, 319.3987
474.7569, 319.5561
475.2390, 319.5924
475.7211, 319.3921
476.2032, 318.9238
476.6853, 318.6709
477.1674, 319.1687
477.6496, 320.1830
478.1317, 321.0419
478.6138, 321.6703
479.0959, 322.0722
479.5780, 322.1931
480.0602, 322.0891
480.5423, 321.8936
481.0244, 321.3872
481.5065, 321.0221
481.9886, 321.2881
482.4707, 322.1180
482.9529, 322.9049
483.4350, 323.5460
483.9171, 323.9232
484.3992, 323.8804
484.8813, 323.1079
485.3634, 322.5437
485.8456, 322.5679
486.3277, 322.8874
486.8098, 323.0649
487.2919, 323.0668
487.7740, 322.9017
488.2561, 322.4356
488.7383, 321.6999
489.2204, 321.3622
489.7025, 321.4181
490.1846, 321.8751
490.6667, 322.9539
491.1488, 324.9243
491.6310, 325.9733
492.1131, 325.8213
492.5952, 325.1091
493.0773, 324.7938
493.5594, 324.8724
494.0415, 324.8626
494.5237, 324.5317
495.0058, 324.0489
495.4879, 323.7284
495.9700, 323.5816
496.4521, 323.7220
496.9342, 324.6153
497.4164, 325.7261
497.8985, 326.1386
498.3806, 325.6284
498.8627, 324.9613
499.3448, 324.4205
499.8269, 324.1601
500.3091, 324.4034
500.7912, 326.1744
501.2733, 327.5493
501.7554, 327.4433
502.2375, 326.1026
502.7196, 324.9875
503.2018, 324.4268
503.6839, 324.1646
504.1660, 324.0867
504.6481, 324.1707
505.1302, 324.4757
505.6123, 325.1308
506.0945, 325.9089
506.5766, 326.5631
507.0587, 327.0895
507.5408, 327.5067
508.0229, 327.8408
508.5050, 328.0644
508.9872, 328.0284
509.4693, 327.6898
509.9514, 327.4096
510.4335, 327.4097
510.9156, 327.6517
511.3977, 327.9931
511.8799, 328.4671
512.3619, 328.7559
512.8441, 328.2158
513.3262, 327.2688
513.8083, 326.9244
514.2904, 327.6817
514.7725, 328.7369
515.2546, 329.3816
515.7368, 329.7263
516.2189, 330.0776
516.7010, 330.8922
517.1831, 331.4938
517.6652, 331.2393
518.1473, 330.0460
518.6295, 329.3342
519.1116, 329.7923
519.5937, 330.6927
520.0758, 331.5123
520.5579, 332.1054
521.0400, 332.7848
521.5222, 333.9964
522.0043, 335.1302
522.4864, 334.8776
522.9685, 332.3836
523.4506, 330.5038
523.9327, 330.3204
524.4149, 331.5224
524.8970, 331.6800
525.3791, 330.5571
525.8612, 329.6170
526.3433, 330.1866
526.8254, 331.9722
527.3076, 333.3892
527.7897, 334.2980
528.2718, 334.7284
528.7539, 334.3167
529.2360, 333.4483
529.7181, 333.0627
530.2003, 333.8766
530.6824, 334.9232
531.1645, 335.4297
531.6466, 335.4633
532.1287, 335.3142
532.6108, 334.7294
533.0930, 334.3013
533.5751, 334.5740
534.0572, 335.8376
534.5393, 336.5118
535.0214, 335.6616
535.5035, 334.4219
535.9857, 333.8087
536.4678, 334.2133
536.9499, 334.6422
537.4320, 335.0263
537.9141, 335.4035
538.3962, 335.8989
538.8784, 336.6096
539.3605, 337.1172
539.8426, 337.1324
540.3247, 336.7785
540.8068, 337.0541
541.2889, 338.0247
541.7711, 338.8969
542.2532, 338.7842
542.7353, 338.0376
543.2174, 337.8197
543.6995, 338.4146
544.1816, 338.9343
544.6638, 338.2709
545.1459, 336.9227
545.6280, 335.8096
546.1101, 335.1680
546.5922, 334.9901
547.0743, 335.3670
547.5565, 336.2260
548.0386, 337.2980
548.5207, 339.1738
549.0028, 340.6613
549.4849, 341.0893
549.9670, 340.1226
550.4492, 339.2632
550.9313, 338.4872
551.4134, 337.8822
551.8955, 337.5832
552.3776, 337.8709
552.8597, 337.6055
553.3419, 336.3614
553.8240, 334.8636
554.3061, 334.7643
554.7882, 336.1605
555.2703, 337.4996
555.7524, 338.1363
556.2346, 338.3063
556.7167, 338.6416
557.1988, 339.1176
557.6809, 339.3842
558.1630, 339.0028
558.6451, 338.3228
559.1273, 337.7678
559.6094, 337.3512
560.0915, 337.2741
560.5736, 338.1846
561.0557, 339.3012
561.5378, 339.7211
562.0200, 338.5003
562.5021, 337.3062
562.9842, 336.2445
563.4663, 335.4982
563.9484, 335.6202
564.4305, 337.5244
564.9127, 339.1862
565.3948, 340.1582
565.8769, 340.4381
566.3590, 339.6763
566.8411, 337.3008
567.3232, 335.1658
567.8054, 334.8487
568.2875, 336.3414
568.7696, 337.1718
569.2517, 337.0757
569.7338, 336.6534
570.2159, 336.7038
570.6981, 337.0795
571.1802, 337.2709
571.6623, 336.9776
572.1444, 336.6055
572.6265, 336.6130
573.1086, 336.9061
573.5908, 337.1847
574.0729, 337.6714
574.5550, 337.8007
575.0371, 336.6813
575.5192, 334.1851
576.0013, 333.1914
576.4835, 336.3164
576.9656, 339.7923
577.4477, 341.1295
577.9298, 338.6209
578.4119, 337.2392
578.8940, 337.5629
579.3762, 338.5174
579.8583, 338.4714
580.3404, 337.1282
580.8225, 336.3943
581.3046, 336.9294
581.7867, 338.1239
582.2689, 338.2138
582.7510, 337.2733
583.2331, 336.5508
583.7152, 336.9555
584.1973, 337.9354
584.6794, 338.6579
585.1616, 339.1005
585.6437, 339.2690
586.1258, 339.0034
586.6079, 338.5561
587.0900, 338.1403
587.5721, 337.7502
588.0543, 337.5124
588.5364, 337.6344
589.0185, 337.8747
589.5006, 337.9323
589.9827, 337.9585
590.4648, 337.5186
590.9470, 336.0862
591.4291, 334.2064
591.9112, 333.9226
592.3933, 335.9452
592.8754, 337.4896
593.3575, 337.2545
593.8397, 335.5018
594.3218, 334.2763
594.8039, 333.6302
595.2860, 333.0789
595.7681, 331.8117
596.2502, 330.4107
596.7324, 330.4933
597.2145, 332.4831
597.6966, 334.5020
598.1787, 334.9700
598.6608, 334.4271
599.1429, 333.5261
599.6251, 331.5542
600.1072, 330.3828
600.5893, 331.2316
601.0714, 333.3800
601.5535, 335.1715
602.0356, 336.7679
602.5178, 337.4497
602.9999, 336.6584
603.4820, 334.5216
603.9641, 333.3961
604.4462, 333.6258
604.9283, 334.0490
605.4105, 333.9529
605.8926, 333.3388
606.3747, 332.9552
606.8568, 332.8215
607.3389, 332.8307
607.8210, 333.0111
608.3032, 333.2492
608.7853, 333.2426
609.2674, 332.9192
609.7495, 332.3649
610.2316, 331.3228
610.7137, 330.1622
611.1959, 329.5179
611.6780, 330.0167
612.1601, 330.7072
612.6422, 331.3561
613.1243, 331.9184
613.6064, 332.2432
614.0886, 332.3390
614.5707, 332.1343
615.0528, 331.3391
615.5349, 329.8564
616.0170, 329.7211
616.4991, 331.4547
616.9813, 333.2967
617.4634, 333.7489
617.9455, 332.8861
618.4276, 332.2885
618.9097, 332.0584
619.3918, 332.1549
619.8740, 332.8135
620.3561, 333.7560
620.8382, 334.2923
621.3203, 334.0765
621.8024, 333.6270
622.2845, 333.2282
622.7667, 332.8986
623.2488, 332.6737
623.7309, 332.5681
624.2130, 332.5687
624.6951, 332.6833
625.1772, 332.9108
625.6594, 333.2319
626.1415, 333.9815
626.6236, 334.3793
627.1057, 333.9567
627.5878, 332.5966
628.0699, 331.8247
628.5521, 331.7631
629.0342, 331.9041
629.5163, 331.7206
629.9984, 331.3115
630.4805, 331.2373
630.9626, 331.6015
631.4448, 332.1451
631.9269, 332.7879
632.4090, 333.3751
632.8911, 333.6129
633.3732, 333.2679
633.8553, 332.7185
634.3375, 332.1217
634.8196, 331.4808
635.3017, 330.8085
635.7838, 329.8056
636.2659, 329.0887
636.7480, 328.9136
637.2302, 329.2214
637.7123, 329.5430
638.1944, 329.8492
638.6765, 330.2426
639.1586, 330.8785
639.6407, 331.7503
640.1229, 332.1163
640.6050, 331.9145
641.0871, 331.6474
641.5692, 331.8305
642.0513, 332.2953
642.5334, 332.6392
643.0156, 332.7967
643.4977, 332.8529
643.9798, 332.9401
644.4619, 332.9462
644.9440, 332.7039
645.4261, 331.6615
645.9083, 330.9941
646.3904, 331.2094
646.8725, 332.0298
647.3546, 332.8844
647.8367, 333.9282
648.3188, 334.7274
648.8010, 335.1421
649.2831, 335.2410
649.7652, 335.4204
650.2473, 335.7281
650.7294, 335.8712
651.2115, 335.5660
651.6937, 334.9692
652.1758, 334.7728
652.6579, 334.9696
653.1400, 335.1612
653.6221, 335.1060
654.1042, 334.8385
654.5864, 334.1839
655.0685, 332.9721
655.5506, 332.4353
656.0327, 333.9700
656.5148, 336.0850
656.9969, 337.3900
657.4791, 337.5062
657.9612, 336.9724
658.4433, 335.1145
658.9254, 333.0481
659.4075, 332.5328
659.8896, 334.0541
660.3718, 335.3606
660.8539, 336.0211
661.3360, 336.1942
661.8181, 336.0757
662.3002, 335.7119
662.7823, 335.5634
663.2645, 336.0032
663.7466, 336.6832
664.2287, 337.2002
664.7108, 337.5445
665.1929, 337.6985
665.6750, 337.5269
666.1572, 337.2573
666.6393, 336.9706
667.1214, 336.6573
667.6035, 336.5541
668.0856, 336.6787
668.5677, 337.0523
669.0499, 337.8278
669.5320, 339.3730
670.0141, 339.8405
670.4962, 338.8134
670.9783, 337.6535
671.4604, 338.1220
671.9426, 340.0073
672.4247, 341.2610
672.9068, 341.4740
673.3889, 341.1790
673.8710, 340.8191
674.3531, 340.4195
674.8353, 340.0175
675.3174, 339.3062
675.7995, 338.9779
676.2816, 339.8458
676.7637, 341.3459
677.2458, 342.2290
677.7280, 341.4794
678.2101, 340.9335
678.6922, 341.2513
679.1743, 342.1696
679.6564, 341.9722
680.1385, 340.0587
680.6207, 338.8618
681.1028, 339.8247
681.5849, 342.4418
682.0670, 344.1195
682.5491, 344.8683
683.0313, 345.2446
683.5134, 345.4450
683.9955, 345.6338
684.4776, 346.0782
684.9597, 346.8083
685.4418, 347.5808
685.9240, 348.6123
686.4061, 349.3981
686.8882, 349.4501
687.3703, 348.0584
687.8524, 347.2581
688.3345, 347.4351
688.8167, 348.0056
689.2988, 348.4105
689.7809, 348.6129
690.2630, 348.7453
690.7451, 348.7355
691.2272, 348.8380
691.7094, 349.5688
692.1915, 350.8137
692.6736, 352.0345
693.1557, 352.9380
693.6378, 353.9009
694.1199, 355.4729
694.6021, 357.4326
695.0842, 359.2289
695.5663, 360.5858
696.0484, 361.7501
696.5305, 362.5703
697.0126, 363.1808
697.4948, 364.4206
697.9769, 366.6228
698.4590, 368.9851
698.9411, 371.1867
699.4232, 373.2833
699.9053, 375.9185
700.3875, 379.1728
700.8696, 382.4720
701.3517, 385.0259
701.8338, 387.3836
702.3159, 391.3983
702.7980, 397.1273
703.2802, 402.6171
703.7623, 405.6895
704.2444, 408.3206
704.7265, 412.4782
705.2086, 418.7145
705.6907, 425.3369
706.1729, 432.0928
706.6550, 438.8908
707.1371, 445.6558
707.6192, 451.6486
708.1013, 459.2984
708.5834, 469.2827
709.0656, 479.9832
709.5477, 488.7768
710.0298, 495.8578
710.5119, 504.2414
710.9940, 514.8115
711.4761, 526.1744
711.9582, 536.4185
712.4403, 546.1234
712.9224, 556.4524
713.4045, 567.8802
713.8867, 579.8500
714.3688, 592.7822
714.8509, 605.9060
715.3330, 618.0427
715.8151, 627.7658
716.2972, 637.9704
716.7794, 649.6400
717.2615, 662.1498
717.7436, 673.6544
718.2257, 684.2328
718.7078, 693.6199
719.1899, 701.7879
719.6721, 708.6360
720.1542, 714.3884
720.6363, 718.8379
721.1184, 720.8574
721.6005, 718.7488
722.0826, 714.4650
722.5648, 710.3657
723.0469, 706.3859
723.5290, 699.5735
724.0111, 687.7747
724.4932, 673.8500
724.9753, 659.1916
725.4575, 643.9171
725.9396, 627.9923
726.4217, 611.1272
726.9038, 594.3990
727.3859, 578.1318
727.8680, 562.4034
728.3502, 547.3407
728.8323, 532.8163
729.3144, 518.9831
729.7965, 505.6326
730.2786, 493.1635
730.7607, 482.1228
731.2429, 472.6797
731.7250, 463.8868
732.2071, 455.4132
732.6892, 447.2337
733.1713, 439.3529
733.6534, 430.9869
734.1356, 423.9663
734.6177, 418.7721
735.0998, 414.5482
735.5819, 410.2889
736.0640, 405.9790
736.5461, 401.7920
737.0283, 397.7369
737.5104, 393.8543
737.9925, 390.1656
738.4746, 386.7310
738.9567, 383.7792
739.4388, 381.6299
739.9210, 379.6393
740.4031, 377.3602
740.8852, 374.9351
741.3673, 372.6249
741.8494, 370.1350
742.3315, 368.2784
742.8137, 367.6006
743.2958, 367.5498
743.7779, 366.5420
744.2600, 364.4048
744.7421, 362.0323
745.2242, 359.5232
745.7064, 357.1122
746.1885, 355.5576
746.6706, 354.7420
747.1527, 354.1480
747.6348, 353.4060
748.1169, 352.8393
748.5991, 352.8777
749.0812, 353.3867
749.5633, 353.7243
750.0454, 353.9929
750.5275, 353.7143
751.0096, 352.3900
751.4918, 350.1637
751.9739, 348.6862
752.4560, 348.0161
752.9381, 347.9323
753.4202, 348.6694
753.9023, 349.9189
754.3845, 350.0868
754.8666, 349.2114
755.3487, 348.1909
755.8308, 347.6341
756.3129, 347.2969
756.7950, 346.9572
757.2772, 346.5986
757.7593, 346.2141
758.2414, 345.6779
758.7235, 345.2242
759.2056, 345.0921
759.6877, 345.4203
760.1699, 345.1760
760.6520, 344.1366
761.1341, 343.0056
761.6162, 342.2700
762.0983, 341.9074
762.5804, 341.8149
763.0626, 342.0129
763.5447, 342.0555
764.0268, 340.9695
764.5089, 339.7508
764.9910, 340.0551
765.4731, 342.4845
765.9553, 344.1273
766.4374, 342.8362
766.9195, 340.9504
767.4016, 340.4283
767.8837, 341.9779
768.3658, 343.1222
768.8480, 343.8348
769.3301, 344.1406
769.8122, 343.9721
770.2943, 343.3621
770.7764, 342.5092
771.2585, 341.3266
771.7407, 340.6015
772.2228, 342.0091
772.7049, 344.0705
773.1870, 344.4244
773.6691, 341.6267
774.1512, 339.5518
774.6334, 340.6794
775.1155, 342.7582
775.5976, 343.3153
776.0797, 341.3922
776.5618, 339.8159
777.0439, 338.5721
777.5261, 337.8935
778.0082, 338.4631
778.4903, 340.0836
778.9724, 340.8491
779.4545, 340.2168
779.9366, 339.3317
780.4188, 339.6465
780.9009, 340.4967
781.3830, 340.8331
781.8651, 340.0790
782.3472, 339.2390
782.8293, 338.2741
783.3115, 337.5630
783.7936, 337.6945
784.2757, 339.3033
784.7578, 340.1240
785.2399, 339.6998
785.7220, 338.7483
786.2042, 338.2462
786.6863, 338.2014
787.1684, 338.8068
787.6505, 340.4270
788.1326, 341.9267
788.6147, 342.0198
789.0969, 341.2637
789.5790, 340.5673
790.0611, 340.0392
790.5432, 339.8080
791.0253, 340.2915
791.5074, 340.9355
791.9896, 340.8087
792.4717, 339.5492
792.9538, 338.7108
793.4359, 338.6280
793.9180, 338.9166
794.4001, 338.7275
794.8823, 338.2650
795.3644, 338.5443
795.8465, 340.4728
796.3286, 342.1539
796.8107, 341.4615
797.2928, 339.5362
797.7750, 338.3004
798.2571, 338.9230
798.7392, 339.4850
799.2213, 339.5757
799.7034, 339.4662
800.1855, 339.6728
800.6677, 340.2935
801.1498, 340.6382
801.6319, 340.5137
802.1140, 340.1308
802.5961, 339.6532
803.0782, 339.2012
803.5604, 339.1509
804.0425, 339.8318
804.5246, 340.6563
805.0067, 341.6155
805.4888, 342.3818
805.9709, 342.4093
806.4531, 340.4872
806.9352, 339.2894
807.4173, 339.3761
807.8994, 340.0941
808.3815, 340.1648
808.8636, 339.5533
809.3458, 339.2612
809.8279, 339.5707
810.3100, 340.1896
810.7921, 340.9224
811.2742, 341.6201
811.7563, 341.9512
812.2385, 341.3768
812.7206, 340.9862
813.2027, 341.4764
813.6848, 342.3677
814.1669, 342.8657
814.6490, 342.9315
815.1312, 342.5499
815.6133, 341.4061
816.0954, 340.2461
816.5775, 340.7408
817.0596, 342.5977
817.5417, 343.5182
818.0239, 342.6414
818.5060, 341.3177
818.9881, 340.6599
819.4702, 340.5761
819.9523, 340.9521
820.4344, 342.7176
820.9166, 343.6690
821.3987, 342.6280
821.8808, 340.9114
822.3629, 340.1670
822.8450, 340.5978
823.3271, 341.0601
823.8093, 341.4366
824.2914, 341.7061
824.7735, 341.7377
825.2556, 341.6308
825.7377, 341.6725
826.2198, 341.9489
826.7020, 342.3334
827.1841, 342.8786
827.6662, 343.4203
828.1483, 343.7774
828.6304, 343.9952
829.1125, 343.8608
829.5947, 343.1789
830.0768, 342.3745
830.5589, 341.9225
831.0410, 341.8234
831.5231, 341.9776
832.0052, 342.4208
832.4874, 342.8851
832.9695, 342.8469
833.4516, 342.7214
833.9337, 343.3093
834.4158, 345.2614
834.8979, 346.3976
835.3801, 345.3143
835.8622, 343.4920
836.3443, 342.1569
836.8264, 341.1652
837.3085, 341.2418
837.7906, 342.7416
838.2728, 344.2599
838.7549, 343.9815
839.2370, 342.5615
839.7191, 342.3649
840.2012, 343.7341
840.6833, 345.0256
841.1655, 344.9707
841.6476, 344.3425
842.1297, 343.7437
842.6118, 343.1817
843.0939, 343.0087
843.5760, 343.4097
844.0582, 343.9715
844.5403, 344.5317
845.0224, 345.1040
845.5045, 345.1979
845.9866, 344.8006
846.4688, 344.3025
846.9509, 344.0805
847.4330, 343.9073
847.9151, 343.2698
848.3972, 342.1598
848.8793, 341.6734
849.3615, 343.0597
849.8436, 344.3996
850.3257, 344.5256
850.8078, 343.4250
851.2899, 343.2656
851.7720, 344.3272
852.2542, 345.2051
852.7363, 344.6909
853.2184, 343.4908
853.7005, 343.6846
854.1826, 345.0692
854.6647, 346.3873
855.1469, 347.0491
855.6290, 347.2597
856.1111, 346.9171
856.5932, 346.1287
857.0753, 345.6959
857.5574, 345.8199
858.0396, 345.9840
858.5217, 345.9688
859.0038, 345.9085
859.4859, 346.2345
859.9680, 346.9419
860.4501, 348.0180
860.9323, 350.0983
861.4144, 351.8807
861.8965, 351.5082
862.3786, 349.8568
862.8607, 348.9988
863.3428, 350.3329
863.8250, 351.6411
864.3071, 352.6639
864.7892, 353.2804
865.2713, 352.9167
865.7534, 351.3973
866.2355, 350.9070
866.7177, 352.1955
867.1998, 354.1059
867.6819, 355.1492
868.1640, 355.5800
868.6461, 355.8724
869.1282, 355.7613
869.6104, 356.2974
870.0925, 358.7442
870.5746, 361.6304
871.0567, 363.1111
871.5388, 362.6155
872.0209, 362.3842
872.5031, 362.5651
872.9852, 362.9669
873.4673, 363.6400
873.9494, 364.3467
874.4315, 364.3156
874.9136, 363.3682
875.3958, 362.1945
875.8779, 361.0846
876.3600, 360.0431
876.8421, 359.0899
877.3242, 358.2772
877.8063, 357.3361
878.2885, 356.1146
878.7706, 355.0327
879.2527, 354.4591
879.7348, 354.3322
880.2169, 354.0479
880.6990, 353.6094
881.1812, 353.4129
881.6633, 354.2076
882.1454, 355.0327
882.6275, 354.8854
883.1096, 353.7744
883.5917, 352.8597
884.0739, 352.6695
884.5560, 352.3016
885.0381, 351.3375
885.5202, 349.9569
886.0023, 349.3256
886.4844, 349.4266
886.9666, 349.1416
887.4487, 347.4325
887.9308, 345.5387
888.4129, 345.1595
888.8950, 345.8138
889.3771, 346.2495
889.8593, 345.9043
890.3414, 345.4303
890.8235, 344.8000
891.3056, 344.2354
891.7877, 344.3241
892.2698, 345.1828
892.7520, 345.5417
893.2341, 344.9931
893.7162, 344.2310
894.1983, 344.3001
894.6804, 344.8135
895.1625, 345.0378
895.6447, 344.6109
896.1268, 344.2462
896.6089, 344.0791
897.0910, 344.1793
897.5731, 344.6806
898.0552, 345.8606
898.5374, 346.3384
899.0195, 345.9466
899.5016, 345.4393
899.9837, 345.5888
900.4658, 346.1394
900.9479, 346.6692
901.4301, 347.1328
901.9122, 347.2210
902.3943, 346.2956
902.8764, 345.3267
903.3585, 344.9445
903.8406, 345.1544
904.3228, 345.7287
904.8049, 346.9273
905.2870, 347.6180
905.7691, 346.8233
906.2512, 345.2730
906.7333, 345.1154
907.2155, 346.0703
907.6976, 346.8683
908.1797, 346.6831
908.6618, 346.3050
909.1439, 346.0919
909.6260, 346.0290
910.1082, 345.9995
910.5903, 345.9427
911.0724, 346.0905
911.5545, 346.5681
912.0366, 347.1451
912.5187, 347.4286
913.0009, 347.4526
913.4830, 347.3257
913.9651, 347.0528
914.4472, 346.7002
914.9293, 345.9885
915.4114, 345.3789
915.8936, 345.4802
916.3757, 347.1237
916.8578, 347.7184
917.3399, 346.8911
917.8220, 345.7876
918.3041, 345.5319
918.7863, 345.9184
919.2684, 346.0428
919.7505, 345.8509
920.2326, 345.8030
920.7147, 346.6338
921.1968, 347.4110
921.6790, 347.3979
922.1611, 346.4971
922.6432, 345.4653
923.1253, 343.9476
923.6074, 343.1238
924.0895, 343.7468
924.5717, 345.3155
925.0538, 346.1347
925.5359, 346.2866
926.0180, 346.1118
926.5001, 345.4547
926.9822, 344.8593
927.4644, 344.6455
927.9465, 344.7532
928.4286, 345.0915
928.9107, 345.9738
929.3928, 346.3636
929.8749, 345.9423
930.3571, 345.3065
930.8392, 345.3952
931.3213, 346.0595
931.8034, 346.6591
932.2855, 347.0618
932.7676, 347.4364
933.2498, 348.3875
933.7319, 349.0604
934.2140, 348.4268
934.6961, 345.5815
935.1782, 344.2737
935.6603, 344.9270
936.1425, 346.1978
936.6246, 347.4398
937.1067, 348.5824
937.5888, 349.4141
938.0709, 349.9183
938.5530, 349.8928
939.0352, 348.4971
939.5173, 347.2008
939.9994, 347.0895
940.4815, 347.9695
940.9636, 348.7458
941.4457, 349.5475
941.9279, 349.8247
942.4100, 349.3410
942.8921, 348.4080
943.3742, 347.3781
943.8563, 346.3975
944.3384, 345.9441
944.8206, 346.3120
945.3027, 346.8657
945.7848, 347.4567
946.2669, 347.9053
946.7490, 347.9434
947.2311, 347.1927
947.7133, 347.1232
948.1954, 347.9615
948.6775, 348.8117
949.1596, 348.6815
949.6417, 347.9783
950.1238, 347.7448
950.6060, 348.0244
951.0881, 348.4519
951.5702, 349.0275
952.0523, 349.5087
952.5344, 349.6773
953.0165, 349.6021
953.4987, 349.7489
953.9808, 350.2177
954.4629, 350.4260
954.9450, 349.9901
955.4271, 349.4225
955.9092, 349.6879
956.3914, 350.5526
956.8735, 351.4906
957.3556, 352.6698
957.8376, 353.3456
958.3198, 352.7144
958.8019, 351.7602
959.2840, 351.6292
959.7661, 352.5356
960.2482, 353.0752
960.7303, 353.1686
961.2125, 352.8983
961.6946, 352.1936
962.1767, 351.2561
962.6588, 350.1631
963.1409, 348.9528
963.6230, 348.4183
964.1052, 349.9252
964.5873, 350.9707
965.0694, 350.2280
965.5515, 348.1693
966.0336, 347.8029
966.5157, 349.1230
966.9979, 350.3226
967.4800, 350.5840
967.9621, 350.4204
968.4442, 350.2123
968.9263, 350.0403
969.4084, 350.0567
969.8906, 350.5935
970.3727, 350.8645
970.8548, 350.4890
971.3369, 350.2288
971.8190, 351.4203
972.3011, 353.7838
972.7833, 354.2592
973.2654, 352.4853
973.7475, 350.7394
974.2296, 351.2141
974.7117, 352.2373
975.1938, 352.1520
975.6760, 350.7850
976.1581, 350.7520
976.6402, 353.1035
977.1223, 354.7084
977.6044, 353.9530
978.0865, 351.9480
978.5687, 351.9224
979.0508, 353.4266
979.5329, 354.8001
980.0150, 355.5061
980.4971, 355.6666
980.9792, 354.8986
981.4614, 353.8271
981.9435, 353.3269
982.4256, 353.5665
982.9077, 353.9817
983.3898, 354.6236
983.8719, 355.1543
984.3541, 354.9002
984.8362, 354.4032
985.3183, 354.8383
985.8004, 356.2624
986.2825, 357.4776
986.7646, 357.7268
987.2468, 357.8525
987.7289, 358.2558
988.2110, 358.8512
988.6931, 359.2183
989.1752, 359.3530
989.6573, 359.3364
990.1395, 359.1841
990.6216, 358.9255
991.1037, 358.5245
991.5858, 358.0702
992.0679, 357.7009
992.5500, 357.4073
993.0322, 357.3253
993.5143, 357.4612
993.9964, 357.8242
994.4785, 358.6574
994.9606, 359.8336
995.4427, 360.0123
995.9249, 359.1733
996.4070, 358.4595
996.8891, 358.8337
997.3712, 359.5066
997.8533, 359.8279
998.3354, 359.8589
998.8176, 360.4426
999.2997, 361.9425
999.7818, 362.9838
1000.264, 363.0582
1000.746, 362.6595
1001.228, 362.5100
1001.710, 362.6107
1002.192, 363.0397
1002.674, 363.9977
1003.157, 364.7803
1003.639, 364.9615
1004.121, 364.9160
1004.603, 364.9362
1005.085, 365.0423
1005.567, 365.0328
1006.049, 364.8871
1006.531, 364.9857
1007.014, 365.9650
1007.496, 367.0873
1007.978, 367.3819
1008.460, 367.0389
1008.942, 366.8668
1009.424, 366.7714
1009.906, 367.4544
1010.388, 369.6710
1010.870, 372.0052
1011.353, 371.1626
1011.835, 367.9322
1012.317, 366.9781
1012.799, 369.4834
1013.281, 372.2905
1013.763, 373.0009
1014.245, 372.9897
1014.727, 373.3944
1015.210, 374.3317
1015.692, 375.4043
1016.174, 376.8376
1016.656, 377.5157
1017.138, 376.3684
1017.620, 374.5114
1018.102, 374.2748
1018.584, 375.2107
1019.066, 376.0849
1019.549, 376.1737
1020.031, 376.4535
1020.513, 377.4235
1020.995, 378.4693
1021.477, 378.6606
1021.959, 377.9759
1022.441, 378.4254
1022.923, 380.2163
1023.406, 382.0636
1023.888, 382.9162
1024.370, 383.2900
1024.852, 383.4776
1025.334, 383.5410
1025.816, 384.0958
1026.298, 385.6646
1026.780, 386.4990
1027.262, 385.7321
1027.745, 384.3987
1028.227, 384.9007
1028.709, 386.6463
1029.191, 387.9587
1029.673, 388.0825
1030.155, 388.3325
1030.637, 389.3376
1031.119, 390.6857
1031.602, 392.1364
1032.084, 393.7520
1032.566, 394.7801
1033.048, 395.1895
1033.530, 395.4077
1034.012, 395.6018
1034.494, 395.8443
1034.976, 396.3429
1035.458, 396.9722
1035.941, 397.2958
1036.423, 396.4931
1036.905, 396.6889
1037.387, 398.5168
1037.869, 400.7939
1038.351, 401.5526
1038.833, 401.3247
1039.315, 401.9803
1039.797, 403.8461
1040.280, 405.6327
1040.762, 406.5299
1041.244, 407.1393
1041.726, 407.7705
1042.208, 408.4304
1042.690, 409.1425
1043.172, 409.8781
1043.654, 411.0064
1044.137, 413.0275
1044.619, 414.9086
1045.101, 414.8976
1045.583, 414.1084
1046.065, 414.3545
1046.547, 417.0965
1047.029, 418.8890
1047.511, 419.1678
1047.994, 419.2693
1048.476, 420.4245
1048.958, 422.3011
1049.440, 423.4174
1049.922, 423.8877
1050.404, 424.6672
1050.886, 426.7895
1051.368, 428.7982
1051.850, 429.6237
1052.333, 429.9889
1052.815, 431.3555
1053.297, 433.8451
1053.779, 436.1749
1054.261, 438.1392
1054.743, 439.9766
1055.225, 441.7850
1055.707, 443.6946
1056.189, 445.8719
1056.672, 448.3460
1057.154, 451.0805
1057.636, 454.3549
1058.118, 457.2232
1058.600, 459.0858
1059.082, 460.5415
1059.564, 463.1063
1060.046, 466.4904
1060.529, 469.8760
1061.011, 472.6331
1061.493, 476.0394
1061.975, 481.3568
1062.457, 486.9014
1062.939, 491.1364
1063.421, 493.8824
1063.903, 497.6722
1064.385, 502.5274
1064.868, 507.8279
1065.350, 513.1381
1065.832, 518.7962
1066.314, 525.3759
1066.796, 532.4984
1067.278, 539.3155
1067.760, 545.3890
1068.242, 552.0740
1068.724, 559.3839
1069.207, 567.6009
1069.689, 577.6272
1070.171, 588.6043
1070.653, 598.4564
1071.135, 606.9353
1071.617, 617.2640
1072.099, 632.0516
1072.581, 647.2789
1073.064, 661.4073
1073.546, 675.1025
1074.028, 690.2911
1074.510, 707.0059
1074.992, 727.2564
1075.474, 751.5656
1075.956, 779.1440
1076.438, 807.1893
1076.921, 839.5438
1077.403, 879.6272
1077.885, 927.9276
1078.367, 980.8840
1078.849, 1037.891
1079.331, 1104.367
1079.813, 1183.507
1080.295, 1272.826
1080.777, 1371.430
1081.260, 1478.700
1081.742, 1591.783
1082.224, 1711.610
1082.706, 1838.939
1083.188, 1974.383
1083.670, 2115.497
1084.152, 2260.236
1084.634, 2409.791
1085.116, 2568.664
1085.599, 2736.227
1086.081, 2915.584
1086.563, 3108.115
1087.045, 3315.700
1087.527, 3535.682
1088.009, 3772.026
1088.491, 4035.763
1088.973, 4327.499
1089.455, 4637.439
1089.938, 4967.615
1090.420, 5301.169
1090.902, 5644.093
1091.384, 5969.271
1091.866, 6264.161
1092.348, 6527.932
1092.830, 6706.811
1093.312, 6803.531
1093.795, 6807.832
1094.277, 6714.746
1094.759, 6529.235
1095.241, 6239.157
1095.723, 5867.973
1096.205, 5447.745
1096.687, 4965.915
1097.169, 4487.611
1097.651, 4012.594
1098.134, 3560.273
1098.616, 3139.734
1099.098, 2754.188
1099.580, 2413.360
1100.062, 2120.646
1100.544, 1865.652
1101.026, 1650.938
1101.508, 1466.273
1101.990, 1314.836
1102.473, 1188.205
1102.955, 1080.999
1103.437, 993.6656
1103.919, 917.8987
1104.401, 853.5308
1104.883, 797.4306
1105.365, 747.4889
1105.847, 704.2374
1106.330, 668.9363
1106.812, 640.3939
1107.294, 614.3288
1107.776, 590.5799
1108.258, 570.6119
1108.740, 554.8475
1109.222, 541.4320
1109.704, 528.8513
1110.187, 516.8964
1110.669, 504.8556
1111.151, 492.6578
1111.633, 482.2905
1112.115, 474.1923
1112.597, 466.9626
1113.079, 460.1237
1113.561, 453.7702
1114.043, 447.9396
1114.526, 442.6137
1115.008, 437.8356
1115.490, 433.6480
1115.972, 429.6745
1116.454, 425.9330
1116.936, 422.2255
1117.418, 418.1143
1117.900, 413.9507
1118.382, 411.8429
1118.865, 411.3416
1119.347, 410.2998
1119.829, 407.4699
1120.311, 404.2274
1120.793, 400.4196
1121.275, 397.0055
1121.757, 395.1278
1122.239, 394.8693
1122.722, 394.2353
1123.204, 393.1858
1123.686, 391.9076
1124.168, 390.3808
1124.650, 388.8127
1125.132, 387.3188
1125.614, 385.9003
1126.096, 384.5875
1126.578, 383.4317
1127.061, 381.9975
1127.543, 380.1628
1128.025, 378.5262
1128.507, 377.8468
1128.989, 377.5633
1129.471, 377.0869
1129.953, 376.3988
1130.435, 375.7061
1130.917, 374.9482
1131.400, 374.4496
1131.882, 374.4024
1132.364, 374.3540
1132.846, 373.7463
1133.328, 372.6326
1133.810, 370.7366
1134.292, 367.8421
1134.774, 366.2911
1135.257, 367.4772
1135.739, 368.6029
1136.221, 368.6673
1136.703, 368.0348
1137.185, 367.4114
1137.667, 366.8569
1138.149, 366.5442
1138.631, 366.5395
1139.114, 366.7006
1139.596, 367.5514
1140.078, 367.9239
1140.560, 366.8578
1141.042, 364.7284
1141.524, 363.9398
1142.006, 364.2563
1142.488, 364.2617
1142.970, 362.7335
1143.453, 361.6785
1143.935, 363.1212
1144.417, 364.8301
1144.899, 364.4154
1145.381, 361.6227
1145.863, 360.2659
1146.345, 360.3085
1146.827, 360.4923
1147.309, 359.9120
1147.792, 359.2850
1148.274, 359.0773
1148.756, 359.2112
1149.238, 359.6195
1149.720, 360.5171
1150.202, 360.2443
1150.684, 358.5760
1151.166, 357.2798
1151.649, 358.4464
1152.131, 360.2198
1152.613, 360.7801
1153.095, 360.4020
1153.577, 360.5131
1154.059, 361.5565
1154.541, 361.7394
1155.023, 360.6621
1155.505, 359.3863
1155.988, 359.1721
1156.470, 359.4337
1156.952, 359.5190
1157.434, 359.3705
1157.916, 358.9904
1158.398, 358.1073
1158.880, 357.7411
1159.362, 358.2701
1159.844, 359.0583
1160.327, 359.1931
1160.809, 358.9268
1161.291, 358.6487
1161.773, 358.4138
1162.255, 358.2365
1162.737, 358.5383
1163.219, 358.0211
1163.701, 355.7603
1164.184, 353.1038
1164.666, 353.1366
1165.148, 354.9296
1165.630, 356.4362
1166.112, 357.2043
1166.594, 357.5452
1167.076, 357.3376
1167.558, 356.9879
1168.041, 356.4457
1168.523, 356.0373
1169.005, 357.4034
1169.487, 359.8272
1169.969, 360.9022
1170.451, 359.1660
1170.933, 357.6544
1171.415, 357.6210
1171.897, 357.9207
1172.380, 357.8758
1172.862, 357.5946
1173.344, 357.9417
1173.826, 358.7016
1174.308, 358.8833
1174.790, 357.7041
1175.272, 356.3677
1175.754, 354.8029
1176.236, 353.7490
1176.719, 354.0895
1177.201, 355.7421
1177.683, 356.4664
1178.165, 356.3620
1178.647, 356.2475
1179.129, 356.6452
1179.611, 357.0723
1180.093, 357.2516
1180.576, 357.3725
1181.058, 357.7989
1181.540, 358.5231
1182.022, 358.1305
1182.504, 356.6509
1182.986, 355.7845
1183.468, 357.3161
1183.950, 359.0781
1184.432, 360.0965
1184.915, 360.3744
1185.397, 359.6044
1185.879, 357.7108
1186.361, 357.6149
1186.843, 359.5680
1187.325, 361.0383
1187.807, 359.4693
1188.289, 357.4376
1188.771, 356.6159
1189.254, 356.7026
1189.736, 357.1429
1190.218, 358.0003
1190.700, 357.7869
1191.182, 356.2312
1191.664, 354.7034
1192.146, 354.4515
1192.628, 354.6031
1193.111, 354.3522
1193.593, 353.9689
1194.075, 354.6979
1194.557, 356.6924
1195.039, 357.6497
1195.521, 357.0225
1196.003, 356.2730
1196.485, 357.2748
1196.968, 358.2581
1197.450, 357.1783
1197.932, 354.5550
1198.414, 353.9194
1198.896, 355.4920
1199.378, 356.3217
1199.860, 355.5468
1200.342, 354.5828
1200.824, 354.3793
1201.307, 354.8926
1201.789, 356.5684
1202.271, 359.1828
1202.753, 360.4410
1203.235, 360.2978
1203.717, 359.1924
1204.199, 356.8741
1204.681, 355.0023
1205.163, 355.7664
1205.646, 357.4111
1206.128, 358.1432
1206.610, 357.9062
1207.092, 357.8636
1207.574, 358.0512
1208.056, 357.8936
1208.538, 357.0858
1209.020, 356.1535
1209.503, 355.6354
1209.985, 355.2596
1210.467, 354.5906
1210.949, 353.5924
1211.431, 353.6209
1211.913, 354.7397
1212.395, 355.9155
1212.877, 356.9527
1213.359, 357.4416
1213.842, 356.5708
1214.324, 355.2028
1214.806, 354.2648
1215.288, 353.7737
1215.770, 353.9500
1216.252, 354.8314
1216.734, 355.3172
1217.216, 354.5956
1217.698, 353.8259
1218.181, 354.0424
1218.663, 354.7693
1219.145, 355.4800
1219.627, 356.1539
1220.109, 356.7404
1220.591, 357.2397
1221.073, 357.2903
1221.555, 356.2330
1222.038, 355.3653
1222.520, 356.2095
1223.002, 357.5231
1223.484, 357.7462
1223.966, 356.7369
1224.448, 355.7550
1224.930, 354.8057
1225.412, 354.5132
1225.895, 355.7246
1226.377, 357.0485
1226.859, 357.7265
1227.341, 357.8018
1227.823, 357.2394
1228.305, 355.9228
1228.787, 355.6693
1229.269, 356.4131
1229.751, 356.9033
1230.234, 356.1571
1230.716, 355.2274
1231.198, 354.5702
1231.680, 354.1914
1232.162, 354.0305
1232.644, 354.0721
1233.126, 354.9053
1233.608, 356.4258
1234.090, 357.3740
1234.573, 356.4469
1235.055, 355.4178
1235.537, 355.2169
1236.019, 355.3873
1236.501, 355.5103
1236.983, 355.5901
1237.465, 355.6624
1237.947, 355.7104
1238.430, 355.5589
1238.912, 354.5071
1239.394, 353.9843
1239.876, 355.2144
1240.358, 356.7265
1240.840, 357.0762
1241.322, 356.4083
1241.804, 355.9331
1242.286, 355.6333
1242.769, 355.2261
1243.251, 354.0322
1243.733, 353.4555
1244.215, 354.2556
1244.697, 355.3534
1245.179, 355.7759
1245.661, 355.5973
1246.143, 354.7545
1246.625, 353.5190
1247.108, 353.2036
1247.590, 355.5807
1248.072, 357.1805
1248.554, 356.8594
1249.036, 356.4433
1249.518, 358.5028
1250.000, 361.7652
1250.482, 362.2711
1250.965, 360.4214
1251.447, 358.2454
1251.929, 355.2202
1252.411, 354.1505
1252.893, 355.9933
1253.375, 358.2175
1253.857, 358.0733
1254.339, 356.6898
1254.822, 356.2570
1255.304, 356.5805
1255.786, 356.7195
1256.268, 356.5734
1256.750, 355.7980
1257.232, 354.0956
1257.714, 352.6853
1258.196, 353.0515
1258.678, 354.1520
1259.161, 354.7397
1259.643, 354.8116
1260.125, 354.3738
1260.607, 352.8184
1261.089, 352.7737
1261.571, 354.6172
1262.053, 356.5778
1262.535, 357.1960
1263.017, 357.1701
1263.500, 356.8743
1263.982, 356.5729
1264.464, 356.9907
1264.946, 358.5380
1265.428, 358.6525
1265.910, 357.1302
1266.392, 355.5877
1266.874, 355.4654
1267.357, 355.6059
1267.839, 355.1540
1268.321, 354.3571
1268.803, 353.6741
1269.285, 353.1000
1269.767, 352.7527
1270.249, 352.6421
1270.731, 352.8389
1271.214, 353.6833
1271.696, 354.5186
1272.178, 354.9075
1272.660, 355.1592
1273.142, 355.6793
1273.624, 356.4117
1274.106, 356.9537
1274.588, 357.2367
1275.070, 356.8685
1275.552, 354.3247
1276.035, 352.9381
1276.517, 354.0879
1276.999, 355.9863
1277.481, 356.9754
1277.963, 357.2394
1278.445, 357.4229
1278.927, 357.5211
1279.409, 357.4428
1279.892, 356.9858
1280.374, 356.5739
1280.856, 356.2206
1281.338, 356.0006
1281.820, 355.9679
1282.302, 356.1202
1282.784, 356.3526
1283.266, 356.7720
1283.749, 357.7375
1284.231, 360.4503
1284.713, 361.2044
1285.195, 359.5115
1285.677, 357.6075
1286.159, 357.3019
1286.641, 357.6477
1287.123, 357.5483
1287.605, 357.2411
1288.088, 357.2832
1288.570, 357.9350
1289.052, 357.8020
1289.534, 356.8128
1290.016, 356.1237
1290.498, 357.0412
1290.980, 357.9658
1291.462, 357.4635
1291.944, 357.8675
1292.427, 356.2266
1292.909, 356.9176
1293.391, 356.2978
1293.873, 354.5547
1294.355, 353.4000
1294.837, 353.9264
1295.319, 354.9718
1295.801, 356.6119
1296.284, 358.0489
1296.766, 358.5940
1297.248, 358.4169
1297.730, 358.3346
1298.212, 358.2932
1298.694, 358.1053
1299.176, 357.7348
1299.658, 357.0475
1300.141, 355.5059
1300.623, 354.7246
1301.105, 356.2845
1301.587, 358.8632
1302.069, 359.6652
1302.551, 359.3109
1303.033, 359.0319
1303.515, 359.1278
1303.997, 359.4107
1304.479, 360.0547
1304.962, 360.0694
1305.444, 359.1071
##END=



