##NAMES=Dravite
##RRUFFID=R060280
##IDEAL CHEMISTRY=NaMg_3_Al_6_(Si_6_O_18_)(BO_3_)_3_(OH)_3_OH
##LOCALITY=near Merelani, Tanzania
##OWNER=RRUFF
##SOURCE=Herb Obodda
##DESCRIPTION=Green fragment
##STATUS=The identification of this mineral has been confirmed by X-ray diffraction and chemical analysis
##URL=rruff.info/R060280
##MEASURED CHEMISTRY=(Na_0.45_Ca_0.40_[box]_0.15_)(Mg_0.89_Al_0.07_Ti_0.04_)_3_Al_6_(BO_3_)_3_(Si_0.93_B_0.07_)_6_O_18_((OH)_0.95_O_0.05_)_4_
182.9279, 20754.91
183.4100, 20747.44
183.8921, 20759.50
184.3742, 20810.32
184.8564, 20884.26
185.3385, 20944.81
185.8206, 20992.02
186.3027, 21031.57
186.7848, 21068.73
187.2669, 21103.37
187.7491, 21135.30
188.2312, 21156.77
188.7133, 21174.97
189.1954, 21225.88
189.6775, 21316.06
190.1596, 21408.05
190.6418, 21445.22
191.1239, 21429.10
191.6060, 21428.99
192.0881, 21488.93
192.5702, 21598.93
193.0523, 21667.41
193.5345, 21687.14
194.0166, 21683.92
194.4987, 21692.20
194.9808, 21712.08
195.4629, 21742.13
195.9450, 21783.99
196.4272, 21837.93
196.9093, 21891.53
197.3914, 21944.46
197.8735, 21996.96
198.3556, 22050.02
198.8377, 22103.79
199.3199, 22156.09
199.8020, 22204.63
200.2841, 22248.63
200.7662, 22295.44
201.2483, 22348.46
201.7304, 22401.80
202.2126, 22431.88
202.6947, 22427.41
203.1768, 22441.96
203.6589, 22520.92
204.1410, 22676.51
204.6231, 22805.00
205.1053, 22895.93
205.5874, 22954.51
206.0695, 22988.07
206.5516, 22981.41
207.0337, 22989.64
207.5158, 23063.67
207.9980, 23222.61
208.4801, 23347.57
208.9622, 23413.47
209.4443, 23434.46
209.9264, 23482.38
210.4085, 23567.38
210.8907, 23659.26
211.3728, 23735.16
211.8549, 23794.36
212.3370, 23840.88
212.8191, 23869.58
213.3012, 23883.98
213.7834, 23917.74
214.2655, 23977.72
214.7476, 24046.31
215.2297, 24112.87
215.7118, 24188.09
216.1939, 24231.91
216.6761, 24230.11
217.1582, 24184.99
217.6403, 24145.74
218.1224, 24112.99
218.6045, 24085.85
219.0867, 24066.36
219.5688, 24063.10
220.0509, 24047.02
220.5330, 24009.60
221.0151, 23949.84
221.4972, 23893.18
221.9794, 23837.27
222.4615, 23786.48
222.9436, 23746.83
223.4257, 23727.06
223.9078, 23699.47
224.3899, 23654.15
224.8721, 23587.91
225.3542, 23537.56
225.8363, 23504.77
226.3184, 23485.77
226.8005, 23474.15
227.2826, 23462.88
227.7648, 23474.08
228.2469, 23525.00
228.7290, 23626.42
229.2111, 23679.50
229.6932, 23660.07
230.1753, 23611.29
230.6575, 23587.70
231.1396, 23593.41
231.6217, 23618.02
232.1038, 23663.18
232.5859, 23734.43
233.0680, 23797.67
233.5502, 23857.16
234.0323, 23905.49
234.5144, 23927.23
234.9965, 23893.98
235.4786, 23882.62
235.9607, 23925.81
236.4429, 24042.57
236.9250, 24120.16
237.4071, 24136.12
237.8892, 24126.25
238.3713, 24149.65
238.8534, 24229.43
239.3356, 24303.97
239.8177, 24354.18
240.2998, 24376.47
240.7819, 24387.36
241.2640, 24382.47
241.7461, 24368.89
242.2283, 24357.87
242.7104, 24346.90
243.1925, 24342.91
243.6746, 24352.25
244.1567, 24385.47
244.6388, 24395.15
245.1210, 24374.75
245.6031, 24334.87
246.0852, 24293.31
246.5673, 24249.27
247.0494, 24204.84
247.5315, 24159.30
248.0137, 24109.21
248.4958, 24070.74
248.9779, 24051.20
249.4600, 24039.38
249.9421, 24013.22
250.4242, 23961.85
250.9064, 23915.52
251.3885, 23890.70
251.8706, 23903.56
252.3527, 23878.10
252.8348, 23786.93
253.3169, 23674.51
253.7991, 23631.60
254.2812, 23691.92
254.7633, 23758.11
255.2454, 23796.82
255.7275, 23805.89
256.2097, 23791.44
256.6918, 23741.68
257.1739, 23676.69
257.6560, 23629.02
258.1381, 23591.01
258.6202, 23586.77
259.1024, 23637.88
259.5845, 23768.00
260.0666, 23851.24
260.5487, 23874.14
261.0308, 23860.11
261.5129, 23849.26
261.9951, 23838.00
262.4772, 23838.79
262.9593, 23859.90
263.4414, 23907.48
263.9235, 23946.07
264.4056, 23972.45
264.8878, 23993.27
265.3699, 24020.24
265.8520, 24054.02
266.3341, 24092.93
266.8162, 24141.88
267.2983, 24205.61
267.7805, 24244.07
268.2626, 24249.10
268.7447, 24237.48
269.2268, 24234.95
269.7089, 24240.03
270.1910, 24259.57
270.6732, 24301.42
271.1553, 24368.70
271.6374, 24426.62
272.1195, 24475.24
272.6016, 24514.46
273.0837, 24540.54
273.5659, 24551.48
274.0480, 24560.11
274.5301, 24569.19
275.0122, 24578.41
275.4943, 24600.32
275.9764, 24641.37
276.4586, 24682.95
276.9407, 24693.85
277.4228, 24670.79
277.9049, 24644.97
278.3870, 24628.69
278.8691, 24621.44
279.3513, 24609.83
279.8334, 24591.48
280.3155, 24574.94
280.7976, 24573.56
281.2797, 24587.91
281.7618, 24604.83
282.2440, 24630.50
282.7261, 24659.12
283.2082, 24635.92
283.6903, 24550.33
284.1724, 24451.85
284.6545, 24398.40
285.1367, 24389.52
285.6188, 24402.62
286.1009, 24442.19
286.5830, 24498.54
287.0651, 24524.03
287.5472, 24513.93
288.0294, 24499.74
288.5115, 24526.25
288.9936, 24586.98
289.4757, 24626.94
289.9578, 24614.51
290.4399, 24571.56
290.9221, 24563.41
291.4042, 24592.59
291.8863, 24625.02
292.3684, 24616.54
292.8505, 24578.46
293.3326, 24559.89
293.8148, 24580.57
294.2969, 24627.58
294.7790, 24688.22
295.2611, 24762.71
295.7432, 24818.44
296.2253, 24809.76
296.7075, 24758.24
297.1896, 24725.16
297.6717, 24732.43
298.1538, 24762.67
298.6359, 24793.89
299.1180, 24826.12
299.6002, 24856.55
300.0823, 24885.24
300.5644, 24910.65
301.0465, 24930.04
301.5286, 24941.95
302.0107, 24948.50
302.4929, 24951.85
302.9750, 24951.86
303.4571, 24947.46
303.9392, 24932.40
304.4213, 24914.16
304.9034, 24903.80
305.3856, 24909.75
305.8677, 24915.27
306.3498, 24901.37
306.8319, 24873.43
307.3140, 24850.11
307.7961, 24833.86
308.2783, 24831.85
308.7604, 24853.79
309.2425, 24908.83
309.7246, 24971.47
310.2067, 25034.20
310.6888, 25093.08
311.1710, 25138.77
311.6531, 25162.96
312.1352, 25174.66
312.6173, 25176.83
313.0994, 25164.11
313.5815, 25159.08
314.0637, 25178.58
314.5458, 25212.80
315.0279, 25243.40
315.5100, 25261.33
315.9921, 25275.28
316.4742, 25288.63
316.9564, 25300.66
317.4385, 25316.65
317.9206, 25333.46
318.4027, 25356.34
318.8848, 25392.60
319.3669, 25458.87
319.8491, 25525.95
320.3312, 25577.72
320.8133, 25607.67
321.2954, 25656.77
321.7776, 25768.78
322.2597, 25890.48
322.7418, 25965.13
323.2239, 25915.11
323.7060, 25886.67
324.1881, 25924.91
324.6703, 26037.64
325.1524, 26133.42
325.6345, 26196.69
326.1166, 26244.56
326.5987, 26291.26
327.0808, 26330.87
327.5630, 26376.24
328.0451, 26427.67
328.5272, 26485.30
329.0093, 26554.02
329.4914, 26642.17
329.9735, 26732.19
330.4557, 26812.65
330.9378, 26882.74
331.4199, 26944.19
331.9020, 26992.65
332.3841, 27032.08
332.8662, 27084.36
333.3484, 27161.44
333.8305, 27232.46
334.3126, 27276.77
334.7947, 27279.25
335.2768, 27300.96
335.7589, 27348.94
336.2411, 27415.53
336.7232, 27485.54
337.2053, 27561.54
337.6874, 27631.94
338.1695, 27692.63
338.6516, 27743.12
339.1338, 27786.34
339.6159, 27826.60
340.0980, 27852.18
340.5801, 27828.00
341.0622, 27745.88
341.5443, 27688.05
342.0265, 27708.50
342.5086, 27794.27
342.9907, 27813.33
343.4728, 27752.40
343.9549, 27676.26
344.4370, 27673.52
344.9192, 27736.40
345.4013, 27791.45
345.8834, 27810.59
346.3655, 27803.60
346.8476, 27790.75
347.3297, 27771.79
347.8119, 27755.36
348.2940, 27744.89
348.7761, 27742.99
349.2582, 27757.96
349.7403, 27796.23
350.2224, 27848.48
350.7046, 27905.17
351.1867, 27966.06
351.6688, 28025.43
352.1509, 28080.17
352.6330, 28130.65
353.1151, 28175.33
353.5973, 28207.72
354.0794, 28245.91
354.5615, 28302.57
355.0436, 28377.59
355.5257, 28470.64
356.0078, 28607.31
356.4900, 28747.66
356.9721, 28847.59
357.4542, 28883.13
357.9363, 28936.68
358.4184, 29072.96
358.9005, 29256.59
359.3827, 29426.39
359.8648, 29557.80
360.3469, 29669.80
360.8290, 29760.26
361.3111, 29822.65
361.7932, 29915.10
362.2754, 30084.87
362.7575, 30284.03
363.2396, 30461.24
363.7217, 30585.65
364.2038, 30703.85
364.6859, 30830.53
365.1681, 30966.70
365.6502, 31088.12
366.1323, 31182.46
366.6144, 31268.01
367.0965, 31357.59
367.5786, 31448.88
368.0608, 31546.85
368.5429, 31663.34
369.0250, 31790.83
369.5071, 31886.70
369.9892, 31927.15
370.4713, 31963.37
370.9535, 32025.60
371.4356, 32147.62
371.9177, 32215.88
372.3998, 32216.73
372.8819, 32169.13
373.3640, 32111.09
373.8462, 32037.40
374.3283, 31967.57
374.8104, 31918.08
375.2925, 31893.40
375.7746, 31827.55
376.2567, 31712.11
376.7389, 31571.10
377.2210, 31438.28
377.7031, 31314.88
378.1852, 31181.59
378.6673, 31025.29
379.1494, 30854.54
379.6316, 30701.09
380.1137, 30567.67
380.5958, 30438.46
381.0779, 30295.03
381.5600, 30141.18
382.0421, 30009.01
382.5243, 29911.28
383.0064, 29827.17
383.4885, 29716.76
383.9706, 29583.21
384.4527, 29457.68
384.9348, 29368.86
385.4170, 29299.06
385.8991, 29214.37
386.3812, 29104.18
386.8633, 28994.30
387.3454, 28909.81
387.8275, 28844.17
388.3097, 28781.03
388.7918, 28707.60
389.2739, 28637.12
389.7560, 28583.55
390.2381, 28549.48
390.7202, 28513.86
391.2024, 28460.78
391.6845, 28401.64
392.1666, 28348.88
392.6487, 28291.63
393.1308, 28256.13
393.6129, 28270.16
394.0951, 28327.65
394.5772, 28359.61
395.0593, 28339.79
395.5414, 28294.47
396.0235, 28240.09
396.5056, 28146.41
396.9878, 28082.08
397.4699, 28075.36
397.9520, 28105.88
398.4341, 28109.71
398.9162, 28071.01
399.3983, 28021.75
399.8805, 27967.66
400.3626, 27894.03
400.8447, 27861.90
401.3268, 27891.58
401.8089, 27947.83
402.2910, 27979.70
402.7732, 27975.27
403.2553, 27977.73
403.7374, 28005.09
404.2195, 28054.57
404.7017, 28072.24
405.1838, 28051.34
405.6659, 28016.71
406.1480, 27989.47
406.6301, 27969.58
407.1122, 27949.13
407.5944, 27923.18
408.0765, 27899.47
408.5586, 27903.30
409.0407, 27934.08
409.5228, 27960.87
410.0049, 27952.67
410.4871, 27924.28
410.9692, 27924.65
411.4513, 27966.58
411.9334, 28005.47
412.4155, 27984.47
412.8976, 27917.88
413.3798, 27848.63
413.8619, 27784.94
414.3440, 27733.92
414.8261, 27703.64
415.3082, 27694.16
415.7903, 27697.10
416.2725, 27720.93
416.7546, 27748.79
417.2367, 27761.52
417.7188, 27737.28
418.2009, 27713.82
418.6830, 27712.56
419.1652, 27727.48
419.6473, 27736.54
420.1294, 27722.29
420.6115, 27707.71
421.0936, 27705.22
421.5757, 27719.70
422.0579, 27739.57
422.5400, 27770.08
423.0221, 27803.74
423.5042, 27828.75
423.9863, 27831.27
424.4684, 27840.24
424.9506, 27868.77
425.4327, 27919.95
425.9148, 27943.20
426.3969, 27918.41
426.8790, 27888.63
427.3611, 27894.95
427.8433, 27952.61
428.3254, 27996.73
428.8075, 28010.96
429.2896, 28008.35
429.7717, 28036.86
430.2538, 28102.00
430.7360, 28168.82
431.2181, 28218.22
431.7002, 28250.69
432.1823, 28270.28
432.6644, 28274.11
433.1465, 28275.31
433.6287, 28292.84
434.1108, 28324.09
434.5929, 28356.76
435.0750, 28392.03
435.5571, 28422.56
436.0392, 28426.99
436.5214, 28406.85
437.0035, 28394.98
437.4856, 28431.84
437.9677, 28488.63
438.4498, 28524.00
438.9319, 28519.54
439.4141, 28504.75
439.8962, 28492.06
440.3783, 28484.63
440.8604, 28490.26
441.3425, 28534.81
441.8246, 28576.41
442.3068, 28587.31
442.7889, 28557.44
443.2710, 28531.00
443.7531, 28516.84
444.2352, 28513.29
444.7173, 28518.34
445.1995, 28557.13
445.6816, 28576.55
446.1637, 28551.78
446.6458, 28489.66
447.1279, 28463.67
447.6100, 28497.65
448.0922, 28541.58
448.5743, 28571.91
449.0564, 28597.28
449.5385, 28581.00
450.0206, 28502.10
450.5027, 28399.67
450.9849, 28350.53
451.4670, 28363.24
451.9491, 28388.40
452.4312, 28411.75
452.9133, 28432.60
453.3954, 28443.82
453.8776, 28443.89
454.3597, 28444.83
454.8418, 28467.71
455.3239, 28504.12
455.8060, 28516.49
456.2881, 28490.30
456.7703, 28445.99
457.2524, 28402.63
457.7345, 28363.44
458.2166, 28340.89
458.6987, 28360.40
459.1808, 28391.77
459.6630, 28398.49
460.1451, 28373.38
460.6272, 28349.99
461.1093, 28357.02
461.5914, 28375.90
462.0735, 28383.36
462.5557, 28351.65
463.0378, 28326.90
463.5199, 28328.06
464.0020, 28352.78
464.4841, 28382.03
464.9662, 28432.62
465.4484, 28471.14
465.9305, 28477.56
466.4126, 28417.39
466.8947, 28385.11
467.3768, 28391.64
467.8589, 28421.19
468.3411, 28449.55
468.8232, 28478.15
469.3053, 28501.26
469.7874, 28509.76
470.2695, 28506.24
470.7516, 28550.35
471.2338, 28659.95
471.7159, 28761.85
472.1980, 28767.85
472.6801, 28681.58
473.1622, 28665.90
473.6443, 28761.32
474.1265, 28902.11
474.6086, 28979.15
475.0907, 28999.10
475.5728, 29005.18
476.0549, 29007.38
476.5370, 29014.78
477.0192, 29051.31
477.5013, 29118.45
477.9834, 29174.84
478.4655, 29171.90
478.9476, 29144.28
479.4297, 29137.30
479.9119, 29170.43
480.3940, 29219.60
480.8761, 29283.75
481.3582, 29355.54
481.8403, 29412.96
482.3224, 29450.97
482.8046, 29471.19
483.2867, 29469.58
483.7688, 29435.69
484.2509, 29415.23
484.7330, 29400.72
485.2151, 29407.53
485.6973, 29456.03
486.1794, 29599.49
486.6615, 29691.24
487.1436, 29692.48
487.6258, 29625.92
488.1079, 29601.16
488.5900, 29629.43
489.0721, 29669.06
489.5542, 29698.32
490.0363, 29717.28
490.5185, 29736.35
491.0006, 29755.19
491.4827, 29775.62
491.9648, 29801.94
492.4469, 29832.70
492.9290, 29859.36
493.4112, 29877.69
493.8933, 29890.96
494.3754, 29899.47
494.8575, 29904.94
495.3396, 29917.76
495.8217, 29953.43
496.3039, 29996.11
496.7860, 30027.78
497.2681, 30044.52
497.7502, 30057.15
498.2323, 30056.28
498.7144, 30059.09
499.1966, 30089.00
499.6787, 30198.64
500.1608, 30290.13
500.6429, 30322.08
501.1250, 30298.46
501.6071, 30291.90
502.0893, 30322.99
502.5714, 30358.41
503.0535, 30382.54
503.5356, 30389.71
504.0177, 30400.70
504.4998, 30423.94
504.9820, 30443.07
505.4641, 30427.73
505.9462, 30369.85
506.4283, 30319.41
506.9104, 30289.71
507.3925, 30278.93
507.8747, 30287.04
508.3568, 30315.42
508.8389, 30336.91
509.3210, 30322.05
509.8031, 30284.90
510.2852, 30267.34
510.7674, 30278.57
511.2495, 30292.40
511.7316, 30286.38
512.2137, 30262.81
512.6958, 30226.74
513.1779, 30157.86
513.6600, 30095.59
514.1422, 30067.23
514.6243, 30070.01
515.1064, 30083.02
515.5885, 30120.69
516.0706, 30150.27
516.5527, 30146.29
517.0349, 30073.10
517.5170, 30034.35
517.9991, 30067.98
518.4812, 30130.58
518.9633, 30166.45
519.4454, 30152.24
519.9276, 30152.84
520.4097, 30192.61
520.8918, 30260.47
521.3739, 30275.27
521.8560, 30215.95
522.3381, 30173.38
522.8203, 30220.35
523.3024, 30350.29
523.7845, 30456.93
524.2666, 30533.40
524.7487, 30592.34
525.2308, 30651.06
525.7130, 30707.44
526.1951, 30752.28
526.6772, 30775.21
527.1593, 30792.70
527.6415, 30811.17
528.1236, 30836.26
528.6057, 30893.98
529.0878, 31055.03
529.5699, 31217.29
530.0521, 31286.92
530.5342, 31226.44
531.0163, 31193.57
531.4984, 31258.24
531.9805, 31367.54
532.4626, 31465.29
532.9448, 31556.13
533.4269, 31619.88
533.9090, 31644.90
534.3911, 31640.17
534.8732, 31639.78
535.3553, 31647.25
535.8375, 31652.22
536.3196, 31646.95
536.8017, 31630.18
537.2838, 31629.70
537.7659, 31648.14
538.2480, 31674.25
538.7302, 31707.66
539.2123, 31743.53
539.6944, 31740.75
540.1765, 31676.01
540.6586, 31595.40
541.1407, 31563.95
541.6229, 31571.73
542.1050, 31582.35
542.5871, 31590.45
543.0692, 31583.37
543.5513, 31536.19
544.0334, 31448.75
544.5156, 31381.02
544.9977, 31389.68
545.4798, 31413.20
545.9619, 31401.03
546.4440, 31301.05
546.9261, 31228.64
547.4083, 31218.70
547.8904, 31242.39
548.3725, 31248.47
548.8546, 31232.02
549.3367, 31205.45
549.8188, 31166.47
550.3010, 31117.35
550.7831, 31085.58
551.2652, 31073.25
551.7473, 31071.22
552.2294, 31084.13
552.7115, 31107.89
553.1937, 31092.02
553.6758, 31024.60
554.1579, 30950.47
554.6400, 30929.64
555.1221, 30947.63
555.6042, 30963.69
556.0864, 30966.46
556.5685, 30957.89
557.0506, 30930.00
557.5327, 30889.60
558.0148, 30862.63
558.4969, 30874.21
558.9791, 30893.71
559.4612, 30905.76
559.9433, 30910.42
560.4254, 30898.53
560.9075, 30846.58
561.3896, 30789.70
561.8718, 30758.27
562.3539, 30765.82
562.8360, 30777.82
563.3181, 30801.71
563.8002, 30823.78
564.2823, 30805.56
564.7645, 30738.75
565.2466, 30669.17
565.7287, 30610.94
566.2108, 30564.74
566.6929, 30546.46
567.1750, 30558.12
567.6572, 30555.33
568.1393, 30476.19
568.6214, 30360.10
569.1035, 30292.58
569.5856, 30293.99
570.0677, 30313.20
570.5499, 30325.88
571.0320, 30324.49
571.5141, 30297.39
571.9962, 30207.35
572.4783, 30123.60
572.9604, 30077.89
573.4426, 30064.54
573.9247, 30051.21
574.4068, 30023.74
574.8889, 30004.24
575.3710, 30005.24
575.8531, 30034.09
576.3353, 30043.83
576.8174, 30027.21
577.2995, 30002.10
577.7816, 29988.51
578.2637, 29989.05
578.7458, 29970.43
579.2280, 29921.45
579.7101, 29863.01
580.1922, 29832.72
580.6743, 29827.21
581.1564, 29827.42
581.6385, 29829.93
582.1207, 29830.26
582.6028, 29822.55
583.0849, 29807.17
583.5670, 29786.42
584.0491, 29736.41
584.5313, 29697.77
585.0134, 29711.59
585.4955, 29807.40
585.9776, 29878.39
586.4597, 29883.56
586.9418, 29855.34
587.4240, 29829.68
587.9061, 29805.36
588.3882, 29787.84
588.8703, 29779.15
589.3524, 29777.26
589.8345, 29773.57
590.3167, 29763.93
590.7988, 29769.40
591.2809, 29807.78
591.7630, 29869.98
592.2451, 29907.86
592.7272, 29921.01
593.2094, 29919.73
593.6915, 29898.47
594.1736, 29871.73
594.6557, 29869.83
595.1378, 29901.60
595.6199, 29941.52
596.1021, 29978.10
596.5842, 30008.73
597.0663, 30029.75
597.5484, 30040.65
598.0305, 30040.71
598.5126, 30018.14
598.9948, 29981.36
599.4769, 29966.74
599.9590, 29994.77
600.4411, 30022.60
600.9232, 30036.67
601.4053, 30036.42
601.8875, 30032.03
602.3696, 30022.18
602.8517, 30011.49
603.3338, 29996.34
603.8159, 29978.82
604.2980, 29998.82
604.7802, 30069.79
605.2623, 30146.48
605.7444, 30164.09
606.2265, 30139.59
606.7086, 30117.70
607.1907, 30115.78
607.6729, 30121.69
608.1550, 30127.00
608.6371, 30132.31
609.1192, 30139.66
609.6013, 30149.40
610.0834, 30161.80
610.5656, 30178.87
611.0477, 30202.16
611.5298, 30217.73
612.0119, 30213.20
612.4940, 30212.60
612.9761, 30240.04
613.4583, 30317.84
613.9404, 30332.56
614.4225, 30253.82
614.9046, 30156.49
615.3867, 30165.37
615.8688, 30270.83
616.3510, 30341.06
616.8331, 30320.36
617.3152, 30267.33
617.7973, 30277.51
618.2794, 30335.99
618.7615, 30385.11
619.2437, 30380.24
619.7258, 30363.41
620.2079, 30360.19
620.6900, 30372.49
621.1721, 30406.11
621.6542, 30512.54
622.1364, 30606.45
622.6185, 30624.06
623.1006, 30506.82
623.5827, 30437.50
624.0648, 30425.92
624.5469, 30453.27
625.0291, 30508.54
625.5112, 30603.19
625.9933, 30660.19
626.4754, 30653.90
626.9575, 30617.82
627.4396, 30623.63
627.9218, 30666.24
628.4039, 30707.02
628.8860, 30732.86
629.3681, 30742.80
629.8502, 30726.85
630.3323, 30688.83
630.8145, 30657.13
631.2966, 30654.62
631.7787, 30660.28
632.2608, 30661.74
632.7429, 30659.63
633.2250, 30644.23
633.7072, 30583.79
634.1893, 30528.01
634.6714, 30522.56
635.1535, 30607.50
635.6356, 30652.93
636.1177, 30640.65
636.5999, 30593.69
637.0820, 30546.38
637.5641, 30498.30
638.0462, 30468.90
638.5283, 30476.54
639.0104, 30495.88
639.4926, 30466.91
639.9747, 30398.02
640.4568, 30338.76
640.9389, 30323.38
641.4210, 30328.10
641.9031, 30332.52
642.3853, 30335.14
642.8674, 30340.08
643.3495, 30345.64
643.8316, 30356.35
644.3137, 30376.46
644.7958, 30416.04
645.2780, 30446.63
645.7601, 30468.91
646.2422, 30481.58
646.7243, 30477.93
647.2064, 30451.32
647.6885, 30445.09
648.1707, 30472.90
648.6528, 30516.29
649.1349, 30534.58
649.6170, 30531.97
650.0991, 30538.79
650.5812, 30580.92
651.0634, 30632.92
651.5455, 30663.35
652.0276, 30675.22
652.5097, 30683.11
652.9918, 30678.75
653.4739, 30685.29
653.9561, 30723.37
654.4382, 30802.26
654.9203, 30867.18
655.4024, 30895.49
655.8845, 30920.87
656.3666, 30969.29
656.8488, 31058.82
657.3309, 31115.16
657.8130, 31129.70
658.2951, 31122.32
658.7772, 31118.50
659.2593, 31117.76
659.7415, 31112.55
660.2236, 31093.86
660.7057, 31081.60
661.1878, 31117.48
661.6699, 31184.71
662.1520, 31236.08
662.6342, 31224.98
663.1163, 31211.19
663.5984, 31240.45
664.0805, 31306.74
664.5626, 31354.33
665.0447, 31354.20
665.5269, 31345.74
666.0090, 31347.16
666.4911, 31361.46
666.9732, 31364.25
667.4553, 31356.47
667.9374, 31335.29
668.4196, 31281.44
668.9017, 31197.54
669.3838, 31181.50
669.8659, 31253.83
670.3480, 31338.28
670.8301, 31335.61
671.3123, 31278.90
671.7944, 31241.61
672.2765, 31263.37
672.7586, 31283.27
673.2407, 31260.70
673.7228, 31207.87
674.2050, 31148.38
674.6871, 31053.33
675.1692, 30991.29
675.6513, 31006.23
676.1334, 31076.46
676.6155, 31081.02
677.0977, 30981.76
677.5798, 30904.68
678.0619, 30920.90
678.5440, 31016.88
679.0261, 31057.21
679.5082, 31040.11
679.9904, 31001.63
680.4725, 30955.86
680.9546, 30912.92
681.4367, 30892.00
681.9188, 30896.70
682.4009, 30911.80
682.8831, 30943.51
683.3652, 30972.43
683.8473, 30976.88
684.3294, 30925.05
684.8115, 30891.61
685.2936, 30906.93
685.7758, 30937.59
686.2579, 30935.32
686.7400, 30876.67
687.2221, 30851.63
687.7042, 30885.02
688.1863, 30953.10
688.6685, 31005.20
689.1506, 31041.22
689.6327, 31059.15
690.1148, 31049.37
690.5969, 31026.84
691.0790, 31005.64
691.5612, 30988.83
692.0433, 30992.04
692.5255, 31028.15
693.0076, 31083.21
693.4897, 31162.25
693.9718, 31270.34
694.4539, 31335.16
694.9360, 31300.60
695.4182, 31263.51
695.9003, 31278.13
696.3824, 31359.28
696.8645, 31430.05
697.3466, 31490.48
697.8287, 31540.46
698.3109, 31575.61
698.7930, 31598.79
699.2751, 31624.61
699.7572, 31654.79
700.2393, 31690.04
700.7214, 31733.22
701.2036, 31781.48
701.6857, 31829.98
702.1678, 31872.58
702.6499, 31920.33
703.1320, 31976.63
703.6141, 32041.17
704.0963, 32115.13
704.5784, 32223.15
705.0605, 32301.94
705.5426, 32323.39
706.0247, 32306.50
706.5068, 32340.93
706.9890, 32432.68
707.4711, 32526.29
707.9532, 32582.08
708.4353, 32620.88
708.9174, 32703.17
709.3995, 32824.67
709.8817, 32940.80
710.3638, 32992.70
710.8459, 33043.11
711.3280, 33166.16
711.8101, 33384.34
712.2922, 33545.33
712.7744, 33529.98
713.2565, 33500.55
713.7386, 33569.65
714.2207, 33785.27
714.7028, 33979.83
715.1849, 34159.33
715.6671, 34310.45
716.1492, 34407.84
716.6313, 34456.68
717.1134, 34528.96
717.5955, 34636.65
718.0776, 34769.52
718.5598, 34930.46
719.0419, 35104.12
719.5240, 35259.09
720.0061, 35357.43
720.4882, 35469.13
720.9703, 35642.65
721.4525, 35852.86
721.9346, 36043.45
722.4167, 36203.82
722.8988, 36351.73
723.3809, 36495.14
723.8630, 36628.14
724.3452, 36717.75
724.8273, 36756.29
725.3094, 36805.37
725.7915, 36912.70
726.2736, 37043.88
726.7557, 37104.17
727.2379, 37099.94
727.7200, 37081.53
728.2021, 37103.72
728.6842, 37109.95
729.1663, 37055.32
729.6484, 36935.47
730.1306, 36770.55
730.6127, 36508.55
731.0948, 36251.04
731.5769, 36058.16
732.0590, 35951.13
732.5411, 35811.50
733.0233, 35632.49
733.5054, 35436.07
733.9875, 35226.98
734.4696, 35011.31
734.9517, 34854.82
735.4338, 34774.09
735.9160, 34690.46
736.3981, 34499.54
736.8802, 34261.81
737.3623, 34065.84
737.8444, 33939.38
738.3265, 33849.16
738.8087, 33814.06
739.2908, 33795.86
739.7729, 33736.91
740.2550, 33598.83
740.7371, 33485.49
741.2192, 33409.14
741.7014, 33363.34
742.1835, 33343.29
742.6656, 33349.47
743.1477, 33344.30
743.6298, 33308.27
744.1119, 33263.63
744.5941, 33249.32
745.0762, 33256.73
745.5583, 33258.64
746.0404, 33231.48
746.5225, 33204.66
747.0046, 33180.25
747.4868, 33165.13
747.9689, 33199.83
748.4510, 33352.77
748.9331, 33471.64
749.4152, 33492.60
749.8973, 33427.61
750.3795, 33422.91
750.8616, 33483.72
751.3437, 33562.96
751.8258, 33638.07
752.3079, 33708.12
752.7900, 33780.29
753.2722, 33852.82
753.7543, 33898.65
754.2364, 33885.75
754.7185, 33848.42
755.2006, 33803.53
755.6827, 33744.84
756.1649, 33728.84
756.6470, 33817.05
757.1291, 33904.38
757.6112, 33917.68
758.0933, 33826.73
758.5754, 33808.34
759.0576, 33880.72
759.5397, 33964.60
760.0218, 33970.71
760.5039, 33920.26
760.9860, 33877.91
761.4681, 33853.86
761.9503, 33839.88
762.4324, 33846.36
762.9145, 33851.87
763.3966, 33829.86
763.8787, 33752.38
764.3608, 33682.20
764.8430, 33625.85
765.3251, 33584.45
765.8072, 33566.14
766.2893, 33584.90
766.7714, 33567.89
767.2535, 33495.15
767.7357, 33401.51
768.2178, 33344.81
768.6999, 33318.25
769.1820, 33295.75
769.6641, 33274.27
770.1462, 33244.52
770.6284, 33185.77
771.1105, 33114.66
771.5926, 33063.35
772.0747, 33055.96
772.5568, 33053.29
773.0389, 33049.50
773.5211, 33043.39
774.0032, 33029.18
774.4853, 33001.60
774.9674, 32986.54
775.4495, 32995.55
775.9316, 33018.70
776.4138, 33032.57
776.8959, 33038.09
777.3780, 33040.81
777.8601, 33054.27
778.3422, 33057.52
778.8243, 33019.96
779.3065, 32953.26
779.7886, 32906.95
780.2707, 32908.75
780.7528, 32920.82
781.2349, 32932.87
781.7170, 32944.49
782.1992, 32952.93
782.6813, 32959.30
783.1634, 32957.20
783.6455, 32929.36
784.1276, 32892.59
784.6097, 32909.98
785.0919, 32976.88
785.5740, 33046.71
786.0561, 33100.75
786.5382, 33137.35
787.0203, 33144.30
787.5024, 33121.84
787.9846, 33118.54
788.4667, 33178.67
788.9488, 33228.26
789.4309, 33228.71
789.9130, 33175.57
790.3951, 33161.38
790.8773, 33192.67
791.3594, 33232.99
791.8415, 33263.27
792.3236, 33280.43
792.8057, 33272.57
793.2878, 33239.35
793.7700, 33198.52
794.2521, 33158.49
794.7342, 33118.68
795.2163, 33073.70
795.6984, 33014.58
796.1805, 32990.65
796.6627, 33042.71
797.1448, 33090.22
797.6269, 33075.37
798.1090, 32987.91
798.5911, 32920.56
799.0732, 32874.69
799.5554, 32841.89
800.0375, 32810.91
800.5196, 32788.09
801.0017, 32791.46
801.4838, 32827.00
801.9659, 32858.54
802.4481, 32851.96
802.9302, 32839.39
803.4123, 32849.15
803.8944, 32899.15
804.3765, 32939.72
804.8586, 32962.45
805.3408, 32986.80
805.8229, 33033.12
806.3050, 33101.25
806.7871, 33159.29
807.2692, 33200.13
807.7513, 33259.41
808.2335, 33403.44
808.7156, 33580.39
809.1977, 33705.33
809.6798, 33742.79
810.1619, 33788.12
810.6440, 33885.59
811.1262, 34007.60
811.6083, 34127.59
812.0904, 34252.70
812.5725, 34355.64
813.0546, 34425.25
813.5367, 34491.16
814.0189, 34606.90
814.5010, 34756.80
814.9831, 34840.08
815.4652, 34830.10
815.9473, 34800.91
816.4294, 34823.24
816.9116, 34865.79
817.3937, 34889.23
817.8758, 34875.96
818.3579, 34858.72
818.8400, 34848.36
819.3221, 34834.10
819.8043, 34804.88
820.2864, 34758.56
820.7685, 34707.08
821.2506, 34652.38
821.7327, 34591.21
822.2148, 34520.70
822.6970, 34441.38
823.1791, 34353.49
823.6612, 34258.73
824.1433, 34152.67
824.6254, 34022.25
825.1075, 33884.33
825.5897, 33759.88
826.0718, 33662.15
826.5539, 33562.82
827.0360, 33459.41
827.5181, 33355.35
828.0002, 33254.13
828.4824, 33156.47
828.9645, 33055.34
829.4466, 32951.93
829.9287, 32837.86
830.4108, 32684.94
830.8929, 32521.49
831.3751, 32391.92
831.8572, 32322.80
832.3393, 32256.63
832.8214, 32177.27
833.3035, 32087.89
833.7856, 31989.45
834.2678, 31872.94
834.7499, 31779.89
835.2320, 31719.71
835.7141, 31668.77
836.1962, 31594.81
836.6783, 31504.28
837.1605, 31427.50
837.6426, 31376.61
838.1247, 31313.95
838.6068, 31182.28
839.0889, 31036.23
839.5710, 30940.87
840.0532, 30955.13
840.5353, 30935.48
841.0174, 30856.64
841.4995, 30758.46
841.9816, 30680.86
842.4637, 30624.08
842.9459, 30573.88
843.4280, 30530.18
843.9101, 30486.55
844.3922, 30437.30
844.8743, 30382.75
845.3564, 30325.31
845.8386, 30267.23
846.3207, 30198.29
846.8028, 30079.91
847.2849, 29971.68
847.7670, 29931.60
848.2491, 30007.60
848.7313, 30014.76
849.2134, 29932.09
849.6955, 29833.93
850.1776, 29797.37
850.6597, 29807.01
851.1418, 29813.82
851.6240, 29813.28
852.1061, 29795.71
852.5882, 29730.56
853.0703, 29659.15
853.5524, 29619.77
854.0345, 29627.59
854.5167, 29642.51
854.9988, 29674.42
855.4809, 29696.55
855.9630, 29683.76
856.4452, 29635.22
856.9273, 29605.89
857.4094, 29598.31
857.8915, 29594.12
858.3737, 29576.90
858.8558, 29553.94
859.3379, 29530.18
859.8200, 29505.31
860.3021, 29497.67
860.7842, 29532.91
861.2664, 29571.79
861.7485, 29595.94
862.2306, 29606.77
862.7127, 29583.54
863.1948, 29518.01
863.6769, 29453.88
864.1591, 29417.12
864.6412, 29405.67
865.1233, 29421.99
865.6054, 29463.61
866.0875, 29498.76
866.5696, 29511.89
867.0518, 29509.98
867.5339, 29490.54
868.0160, 29452.37
868.4981, 29433.13
868.9802, 29437.53
869.4623, 29451.39
869.9445, 29473.75
870.4266, 29499.79
870.9087, 29505.17
871.3908, 29491.26
871.8729, 29472.34
872.3550, 29442.57
872.8372, 29423.09
873.3193, 29441.06
873.8014, 29489.23
874.2835, 29524.60
874.7656, 29534.38
875.2477, 29532.62
875.7299, 29517.06
876.2120, 29493.66
876.6941, 29488.46
877.1762, 29501.45
877.6583, 29509.61
878.1404, 29501.17
878.6226, 29484.44
879.1047, 29460.19
879.5868, 29436.46
880.0689, 29433.24
880.5510, 29479.78
881.0331, 29523.09
881.5153, 29549.35
881.9974, 29561.88
882.4795, 29563.33
882.9616, 29549.65
883.4437, 29548.75
883.9258, 29569.59
884.4080, 29601.20
884.8901, 29635.08
885.3722, 29665.43
885.8543, 29676.52
886.3364, 29642.90
886.8185, 29621.71
887.3007, 29655.70
887.7828, 29709.78
888.2649, 29733.34
888.7470, 29710.52
889.2291, 29698.31
889.7112, 29704.03
890.1934, 29715.31
890.6755, 29713.65
891.1576, 29704.23
891.6397, 29704.17
892.1218, 29717.94
892.6039, 29734.58
893.0861, 29750.51
893.5682, 29763.18
894.0503, 29769.06
894.5324, 29761.96
895.0145, 29764.83
895.4966, 29786.72
895.9788, 29801.85
896.4609, 29776.20
896.9430, 29720.31
897.4251, 29704.97
897.9072, 29734.30
898.3893, 29772.97
898.8715, 29801.90
899.3536, 29823.42
899.8357, 29838.06
900.3178, 29845.10
900.7999, 29854.06
901.2820, 29860.98
901.7642, 29877.32
902.2463, 29914.86
902.7284, 29967.87
903.2105, 29993.15
903.6926, 29991.58
904.1747, 29989.85
904.6569, 30012.09
905.1390, 30036.34
905.6211, 30038.48
906.1032, 30022.38
906.5853, 30006.83
907.0674, 29995.70
907.5496, 29986.81
908.0317, 29975.48
908.5138, 29967.60
908.9959, 29987.36
909.4780, 30034.83
909.9601, 30073.94
910.4423, 30090.87
910.9244, 30094.86
911.4065, 30086.28
911.8886, 30074.73
912.3707, 30077.85
912.8528, 30110.45
913.3350, 30148.11
913.8171, 30197.69
914.2992, 30241.77
914.7813, 30250.93
915.2634, 30221.64
915.7455, 30206.12
916.2277, 30214.04
916.7098, 30226.87
917.1919, 30214.98
917.6740, 30197.15
918.1561, 30206.65
918.6382, 30262.90
919.1204, 30299.82
919.6025, 30274.51
920.0846, 30241.68
920.5667, 30241.28
921.0488, 30281.20
921.5309, 30294.96
922.0131, 30280.34
922.4952, 30258.20
922.9773, 30241.61
923.4594, 30230.07
923.9415, 30216.34
924.4236, 30202.13
924.9058, 30213.63
925.3879, 30312.46
925.8700, 30385.20
926.3521, 30372.55
926.8342, 30288.44
927.3163, 30247.65
927.7985, 30253.32
928.2806, 30271.92
928.7627, 30296.22
929.2448, 30316.73
929.7269, 30311.27
930.2090, 30289.59
930.6912, 30278.01
931.1733, 30301.19
931.6554, 30319.90
932.1375, 30321.85
932.6196, 30312.29
933.1017, 30296.81
933.5839, 30273.54
934.0660, 30259.03
934.5481, 30258.71
935.0302, 30259.99
935.5123, 30232.70
935.9944, 30199.28
936.4766, 30202.90
936.9587, 30268.88
937.4408, 30329.09
937.9229, 30354.26
938.4050, 30371.33
938.8871, 30404.28
939.3693, 30460.69
939.8514, 30487.13
940.3335, 30480.76
940.8156, 30463.35
941.2977, 30446.06
941.7798, 30432.49
942.2620, 30428.41
942.7441, 30433.88
943.2262, 30443.54
943.7083, 30451.59
944.1904, 30468.30
944.6725, 30504.02
945.1547, 30552.67
945.6368, 30571.84
946.1189, 30559.78
946.6010, 30550.64
947.0831, 30565.53
947.5652, 30585.15
948.0474, 30583.48
948.5295, 30566.31
949.0116, 30547.09
949.4937, 30506.59
949.9758, 30496.64
950.4579, 30536.75
950.9401, 30603.03
951.4222, 30670.61
951.9043, 30740.64
952.3864, 30756.10
952.8685, 30697.83
953.3506, 30632.08
953.8328, 30626.45
954.3149, 30656.79
954.7970, 30699.79
955.2791, 30761.76
955.7612, 30790.20
956.2433, 30748.25
956.7255, 30706.82
957.2076, 30714.82
957.6897, 30770.26
958.1718, 30792.39
958.6539, 30781.99
959.1360, 30779.46
959.6182, 30832.22
960.1003, 30890.31
960.5824, 30909.56
961.0645, 30892.28
961.5466, 30860.47
962.0287, 30790.53
962.5109, 30749.71
962.9930, 30759.04
963.4751, 30803.33
963.9572, 30856.87
964.4393, 30915.09
964.9214, 30950.66
965.4036, 30946.27
965.8857, 30933.14
966.3678, 30928.44
966.8499, 30933.51
967.3320, 30951.66
967.8141, 31008.45
968.2963, 31027.25
968.7784, 30991.88
969.2605, 30950.29
969.7426, 30953.13
970.2247, 30990.59
970.7068, 31033.41
971.1890, 31078.94
971.6711, 31110.68
972.1532, 31102.96
972.6353, 31089.71
973.1174, 31099.08
973.5995, 31130.79
974.0817, 31135.22
974.5638, 31101.07
975.0459, 31080.51
975.5280, 31101.88
976.0101, 31144.22
976.4922, 31159.66
976.9744, 31157.95
977.4565, 31167.75
977.9386, 31223.03
978.4207, 31266.77
978.9028, 31274.81
979.3849, 31261.50
979.8671, 31238.84
980.3492, 31199.54
980.8313, 31205.07
981.3134, 31273.36
981.7955, 31336.15
982.2776, 31299.90
982.7598, 31219.19
983.2419, 31171.27
983.7240, 31169.95
984.2061, 31181.17
984.6882, 31209.56
985.1703, 31233.86
985.6525, 31248.25
986.1346, 31251.46
986.6167, 31224.84
987.0988, 31169.18
987.5809, 31109.61
988.0630, 31043.20
988.5452, 30993.91
989.0273, 31005.08
989.5094, 31051.00
989.9915, 31064.73
990.4736, 30993.29
990.9557, 30953.69
991.4379, 30968.78
991.9200, 31008.37
992.4021, 31023.05
992.8842, 31020.54
993.3663, 31046.57
993.8484, 31119.48
994.3306, 31155.94
994.8127, 31043.49
995.2948, 30906.33
995.7769, 30865.29
996.2590, 30943.83
996.7411, 30975.08
997.2233, 30945.30
997.7054, 30917.49
998.1875, 30945.85
998.6696, 30996.46
999.1517, 30976.07
999.6339, 30906.05
1000.116, 30871.52
1000.598, 30954.84
1001.080, 31028.84
1001.562, 31049.26
1002.044, 31033.48
1002.527, 30999.55
1003.009, 30943.76
1003.491, 30935.33
1003.973, 30996.89
1004.455, 31066.29
1004.937, 31071.11
1005.419, 31044.16
1005.901, 31019.97
1006.383, 30996.54
1006.866, 31015.94
1007.348, 31118.04
1007.830, 31206.89
1008.312, 31218.15
1008.794, 31168.16
1009.276, 31156.06
1009.758, 31177.69
1010.240, 31197.66
1010.723, 31170.28
1011.205, 31159.46
1011.687, 31230.62
1012.169, 31347.29
1012.651, 31407.94
1013.133, 31389.53
1013.615, 31377.81
1014.097, 31385.15
1014.579, 31404.10
1015.062, 31430.00
1015.544, 31458.19
1016.026, 31477.72
1016.508, 31483.94
1016.990, 31496.68
1017.472, 31520.78
1017.954, 31557.62
1018.436, 31611.57
1018.919, 31681.00
1019.401, 31741.06
1019.883, 31791.75
1020.365, 31830.53
1020.847, 31854.49
1021.329, 31867.06
1021.811, 31867.52
1022.293, 31859.53
1022.776, 31851.06
1023.258, 31815.12
1023.740, 31832.55
1024.222, 31932.81
1024.704, 32053.13
1025.186, 32098.96
1025.668, 32091.53
1026.150, 32103.08
1026.632, 32145.13
1027.115, 32187.58
1027.597, 32213.16
1028.079, 32231.98
1028.561, 32248.38
1029.043, 32262.98
1029.525, 32285.96
1030.007, 32316.31
1030.489, 32362.37
1030.971, 32450.24
1031.454, 32530.56
1031.936, 32512.09
1032.418, 32436.65
1032.900, 32394.17
1033.382, 32418.00
1033.864, 32473.74
1034.346, 32570.62
1034.828, 32677.47
1035.311, 32762.00
1035.793, 32825.35
1036.275, 32865.28
1036.757, 32881.88
1037.239, 32897.55
1037.721, 32928.39
1038.203, 32963.86
1038.685, 33000.80
1039.167, 33037.02
1039.650, 33051.14
1040.132, 33031.07
1040.614, 33045.14
1041.096, 33129.72
1041.578, 33236.44
1042.060, 33286.81
1042.542, 33301.38
1043.024, 33319.18
1043.506, 33354.93
1043.989, 33387.30
1044.471, 33408.58
1044.953, 33430.23
1045.435, 33467.02
1045.917, 33516.17
1046.399, 33533.34
1046.881, 33519.70
1047.363, 33516.83
1047.846, 33568.60
1048.328, 33626.26
1048.810, 33662.77
1049.292, 33675.98
1049.774, 33662.64
1050.256, 33604.52
1050.738, 33589.71
1051.220, 33646.02
1051.703, 33724.25
1052.185, 33758.13
1052.667, 33761.95
1053.149, 33751.35
1053.631, 33719.23
1054.113, 33722.77
1054.595, 33810.87
1055.077, 33899.57
1055.559, 33942.33
1056.042, 33947.71
1056.524, 33985.29
1057.006, 34049.31
1057.488, 34092.74
1057.970, 34039.03
1058.452, 34009.32
1058.934, 34122.40
1059.416, 34299.09
1059.898, 34382.39
1060.381, 34335.45
1060.863, 34321.82
1061.345, 34361.15
1061.827, 34407.29
1062.309, 34397.92
1062.791, 34372.29
1063.273, 34388.90
1063.755, 34452.57
1064.238, 34532.70
1064.720, 34647.77
1065.202, 34744.51
1065.684, 34806.75
1066.166, 34839.50
1066.648, 34846.69
1067.130, 34833.85
1067.612, 34828.25
1068.094, 34843.09
1068.577, 34856.10
1069.059, 34854.45
1069.541, 34843.87
1070.023, 34828.04
1070.505, 34803.68
1070.987, 34806.16
1071.469, 34842.07
1071.951, 34841.76
1072.433, 34713.70
1072.916, 34554.49
1073.398, 34483.69
1073.880, 34480.09
1074.362, 34463.74
1074.844, 34404.39
1075.326, 34354.35
1075.808, 34325.42
1076.290, 34297.39
1076.773, 34236.50
1077.255, 34153.50
1077.737, 34086.75
1078.219, 34044.36
1078.701, 33978.51
1079.183, 33813.15
1079.665, 33674.25
1080.147, 33639.63
1080.630, 33684.65
1081.112, 33658.66
1081.594, 33563.60
1082.076, 33456.79
1082.558, 33350.81
1083.040, 33258.45
1083.522, 33196.71
1084.004, 33153.10
1084.486, 33115.14
1084.969, 33100.28
1085.451, 33027.42
1085.933, 32880.37
1086.415, 32738.76
1086.897, 32668.53
1087.379, 32642.19
1087.861, 32634.79
1088.343, 32632.60
1088.825, 32583.60
1089.308, 32396.68
1089.790, 32261.90
1090.272, 32230.09
1090.754, 32243.73
1091.236, 32216.23
1091.718, 32155.07
1092.200, 32088.33
1092.682, 32018.92
1093.165, 31969.41
1093.647, 31980.38
1094.129, 31991.81
1094.611, 31962.64
1095.093, 31898.82
1095.575, 31839.72
1096.057, 31785.22
1096.539, 31737.88
1097.021, 31698.74
1097.504, 31669.04
1097.986, 31661.14
1098.468, 31659.05
1098.950, 31639.02
1099.432, 31584.73
1099.914, 31549.71
1100.396, 31542.06
1100.878, 31529.49
1101.360, 31485.48
1101.843, 31422.21
1102.325, 31333.76
1102.807, 31241.43
1103.289, 31223.70
1103.771, 31404.13
1104.253, 31535.22
1104.735, 31576.78
1105.218, 31553.28
1105.700, 31467.40
1106.182, 31340.73
1106.664, 31292.03
1107.146, 31334.90
1107.628, 31377.62
1108.110, 31375.28
1108.592, 31344.48
1109.074, 31273.01
1109.557, 31182.13
1110.039, 31169.74
1110.521, 31236.92
1111.003, 31289.51
1111.485, 31298.31
1111.967, 31287.98
1112.449, 31275.48
1112.931, 31259.96
1113.413, 31238.53
1113.896, 31208.41
1114.378, 31188.40
1114.860, 31180.87
1115.342, 31173.04
1115.824, 31155.88
1116.306, 31135.60
1116.788, 31119.47
1117.270, 31108.37
1117.753, 31104.13
1118.235, 31106.63
1118.717, 31120.74
1119.199, 31156.60
1119.681, 31185.22
1120.163, 31163.58
1120.645, 31113.72
1121.127, 31108.10
1121.609, 31144.59
1122.092, 31171.59
1122.574, 31162.57
1123.056, 31139.29
1123.538, 31105.03
1124.020, 31065.72
1124.502, 31026.22
1124.984, 30989.39
1125.466, 30991.25
1125.948, 31045.44
1126.431, 31075.56
1126.913, 30995.81
1127.395, 30899.59
1127.877, 30856.73
1128.359, 30861.37
1128.841, 30862.72
1129.323, 30860.41
1129.805, 30861.80
1130.288, 30868.84
1130.770, 30882.14
1131.252, 30934.02
1131.734, 30977.36
1132.216, 30935.17
1132.698, 30752.00
1133.180, 30670.45
1133.662, 30711.52
1134.145, 30768.05
1134.627, 30772.53
1135.109, 30750.09
1135.591, 30732.27
1136.073, 30720.16
1136.555, 30717.06
1137.037, 30733.22
1137.519, 30745.52
1138.001, 30754.36
1138.484, 30755.32
1138.966, 30732.65
1139.448, 30701.35
1139.930, 30703.71
1140.412, 30738.20
1140.894, 30769.27
1141.376, 30772.25
1141.858, 30784.11
1142.340, 30818.92
1142.823, 30862.91
1143.305, 30891.57
1143.787, 30907.37
1144.269, 30927.18
1144.751, 30956.32
1145.233, 30960.93
1145.715, 30883.52
1146.197, 30815.82
1146.680, 30818.07
1147.162, 30869.74
1147.644, 30862.47
1148.126, 30802.56
1148.608, 30779.96
1149.090, 30839.00
1149.572, 30899.61
1150.054, 30898.26
1150.536, 30871.62
1151.019, 30853.44
1151.501, 30845.28
1151.983, 30832.80
1152.465, 30814.45
1152.947, 30828.65
1153.429, 30942.58
1153.911, 31046.02
1154.393, 30997.43
1154.875, 30875.85
1155.358, 30823.26
1155.840, 30875.70
1156.322, 30916.33
1156.804, 30944.32
1157.286, 30953.47
1157.768, 30917.90
1158.250, 30875.29
1158.732, 30873.58
1159.215, 30906.85
1159.697, 30950.16
1160.179, 31019.35
1160.661, 31051.33
1161.143, 31030.75
1161.625, 30994.40
1162.107, 30983.21
1162.589, 30985.84
1163.072, 30984.38
1163.554, 30977.45
1164.036, 30970.24
1164.518, 30966.74
1165.000, 30956.25
1165.482, 30928.34
1165.964, 30904.88
1166.446, 30935.67
1166.928, 30999.37
1167.411, 31053.41
1167.893, 31092.23
1168.375, 31103.03
1168.857, 31048.11
1169.339, 31007.62
1169.821, 31020.00
1170.303, 31062.55
1170.785, 31066.15
1171.267, 31042.54
1171.750, 31030.47
1172.232, 31044.19
1172.714, 31065.56
1173.196, 31097.37
1173.678, 31125.08
1174.160, 31141.70
1174.642, 31146.52
1175.124, 31119.39
1175.607, 31069.39
1176.089, 31048.38
1176.571, 31115.51
1177.053, 31170.65
1177.535, 31145.54
1178.017, 31106.37
1178.499, 31127.01
1178.981, 31206.13
1179.464, 31197.07
1179.946, 31105.00
1180.428, 31037.49
1180.910, 31082.21
1181.392, 31147.63
1181.874, 31210.61
1182.356, 31250.26
1182.838, 31216.36
1183.320, 31103.66
1183.802, 31085.94
1184.285, 31179.63
1184.767, 31268.41
1185.249, 31248.83
1185.731, 31210.06
1186.213, 31220.27
1186.695, 31258.84
1187.177, 31255.29
1187.659, 31204.39
1188.142, 31201.17
1188.624, 31267.70
1189.106, 31328.93
1189.588, 31303.37
1190.070, 31257.57
1190.552, 31242.76
1191.034, 31259.01
1191.516, 31292.01
1191.999, 31346.73
1192.481, 31365.66
1192.963, 31325.14
1193.445, 31280.88
1193.927, 31289.50
1194.409, 31321.91
1194.891, 31350.17
1195.373, 31371.99
1195.855, 31404.58
1196.338, 31452.49
1196.820, 31469.65
1197.302, 31422.31
1197.784, 31369.70
1198.266, 31389.56
1198.748, 31435.86
1199.230, 31446.73
1199.712, 31407.78
1200.194, 31386.69
1200.677, 31383.61
1201.159, 31398.30
1201.641, 31439.20
1202.123, 31486.90
1202.605, 31512.41
1203.087, 31531.62
1203.569, 31579.64
1204.051, 31703.94
1204.534, 31704.44
1205.016, 31557.68
1205.498, 31427.67
1205.980, 31453.86
1206.462, 31535.57
1206.944, 31565.61
1207.426, 31559.12
1207.908, 31547.96
1208.391, 31521.86
1208.873, 31536.03
1209.355, 31599.31
1209.837, 31668.60
1210.319, 31723.73
1210.801, 31752.00
1211.283, 31714.28
1211.765, 31634.72
1212.247, 31601.49
1212.729, 31634.85
1213.212, 31666.86
1213.694, 31690.58
1214.176, 31712.29
1214.658, 31747.12
1215.140, 31777.51
1215.622, 31777.10
1216.104, 31751.10
1216.586, 31734.08
1217.069, 31720.72
1217.551, 31747.99
1218.033, 31831.51
1218.515, 31915.16
1218.997, 31933.73
1219.479, 31919.78
1219.961, 31901.10
1220.443, 31882.69
1220.926, 31886.00
1221.408, 31915.87
1221.890, 31950.75
1222.372, 31987.68
1222.854, 32020.84
1223.336, 32053.27
1223.818, 32071.70
1224.300, 32044.80
1224.782, 31968.18
1225.265, 31965.40
1225.747, 32059.00
1226.229, 32115.16
1226.711, 32082.43
1227.193, 32024.73
1227.675, 31999.35
1228.157, 32005.16
1228.639, 32051.92
1229.121, 32146.15
1229.604, 32206.32
1230.086, 32230.30
1230.568, 32234.11
1231.050, 32214.65
1231.532, 32197.24
1232.014, 32222.22
1232.496, 32260.01
1232.978, 32268.78
1233.461, 32239.89
1233.943, 32243.35
1234.425, 32283.06
1234.907, 32314.06
1235.389, 32303.43
1235.871, 32294.29
1236.353, 32347.21
1236.835, 32418.16
1237.318, 32448.49
1237.800, 32434.76
1238.282, 32388.17
1238.764, 32305.85
1239.246, 32257.57
1239.728, 32300.23
1240.210, 32370.81
1240.692, 32440.32
1241.174, 32491.99
1241.656, 32500.63
1242.139, 32459.30
1242.621, 32414.61
1243.103, 32365.90
1243.585, 32352.69
1244.067, 32446.74
1244.549, 32532.47
1245.031, 32502.15
1245.513, 32432.47
1245.996, 32437.26
1246.478, 32525.90
1246.960, 32570.96
1247.442, 32572.28
1247.924, 32570.44
1248.406, 32610.08
1248.888, 32633.11
1249.370, 32573.32
1249.853, 32498.53
1250.335, 32506.46
1250.817, 32593.43
1251.299, 32659.36
1251.781, 32697.92
1252.263, 32690.10
1252.745, 32551.59
1253.227, 32450.36
1253.709, 32485.11
1254.192, 32578.20
1254.674, 32645.59
1255.156, 32687.80
1255.638, 32697.94
1256.120, 32679.50
1256.602, 32675.07
1257.084, 32724.14
1257.566, 32770.86
1258.048, 32794.99
1258.531, 32810.48
1259.013, 32841.71
1259.495, 32880.48
1259.977, 32892.96
1260.459, 32878.82
1260.941, 32864.30
1261.423, 32864.00
1261.905, 32857.74
1262.388, 32827.09
1262.870, 32811.35
1263.352, 32903.98
1263.834, 33044.14
1264.316, 33075.62
1264.798, 32993.58
1265.280, 32926.70
1265.762, 32903.18
1266.245, 32923.61
1266.727, 33007.28
1267.209, 33091.00
1267.691, 33063.24
1268.173, 32988.43
1268.655, 32986.69
1269.137, 33061.97
1269.619, 33083.22
1270.101, 33002.00
1270.584, 32967.50
1271.066, 33021.63
1271.548, 33094.69
1272.030, 33090.57
1272.512, 33060.04
1272.994, 33063.66
1273.476, 33104.88
1273.958, 33141.82
1274.441, 33175.07
1274.923, 33191.82
1275.405, 33186.43
1275.887, 33176.25
1276.369, 33185.24
1276.851, 33193.62
1277.333, 33178.24
1277.815, 33143.07
1278.297, 33115.04
1278.780, 33093.92
1279.262, 33090.47
1279.744, 33108.79
1280.226, 33135.66
1280.708, 33166.73
1281.190, 33196.55
1281.672, 33214.93
1282.154, 33230.09
1282.636, 33286.45
1283.119, 33375.71
1283.601, 33409.42
1284.083, 33361.66
1284.565, 33315.33
1285.047, 33319.73
1285.529, 33340.63
1286.011, 33361.01
1286.493, 33383.61
1286.976, 33426.05
1287.458, 33476.61
1287.940, 33486.25
1288.422, 33437.66
1288.904, 33411.27
1289.386, 33475.65
1289.868, 33511.75
1290.350, 33469.18
1290.833, 33392.86
1291.315, 33364.16
1291.797, 33371.82
1292.279, 33397.74
1292.761, 33440.85
1293.243, 33485.66
1293.725, 33543.36
1294.207, 33565.07
1294.689, 33523.07
1295.172, 33465.95
1295.654, 33470.72
1296.136, 33500.66
1296.618, 33505.44
1297.100, 33475.07
1297.582, 33454.63
1298.064, 33443.11
1298.546, 33447.15
1299.028, 33468.93
1299.511, 33506.84
1299.993, 33590.26
1300.475, 33665.57
1300.957, 33664.50
##END=



