##NAMES=Dravite
##RRUFFID=R060280
##IDEAL CHEMISTRY=NaMg_3_Al_6_(Si_6_O_18_)(BO_3_)_3_(OH)_3_OH
##LOCALITY=near Merelani, Tanzania
##OWNER=RRUFF
##SOURCE=Herb Obodda
##DESCRIPTION=Green fragment
##STATUS=The identification of this mineral has been confirmed by X-ray diffraction and chemical analysis
##URL=rruff.info/R060280
##MEASURED CHEMISTRY=(Na_0.45_Ca_0.40_[box]_0.15_)(Mg_0.89_Al_0.07_Ti_0.04_)_3_Al_6_(BO_3_)_3_(Si_0.93_B_0.07_)_6_O_18_((OH)_0.95_O_0.05_)_4_
8.930109e+001, 0.000000e+000
8.978320e+001, 5.604313e+003
9.026532e+001, 5.623948e+003
9.074744e+001, 5.633542e+003
9.122955e+001, 5.632403e+003
9.171167e+001, 5.629475e+003
9.219379e+001, 5.638530e+003
9.267590e+001, 5.658666e+003
9.315802e+001, 5.657593e+003
9.364014e+001, 5.596086e+003
9.412225e+001, 5.494263e+003
9.460437e+001, 5.407771e+003
9.508649e+001, 5.359258e+003
9.556860e+001, 5.328397e+003
9.605072e+001, 5.268008e+003
9.653284e+001, 5.181394e+003
9.701495e+001, 5.090269e+003
9.749707e+001, 5.012853e+003
9.797919e+001, 4.948110e+003
9.846130e+001, 4.888542e+003
9.894342e+001, 4.828162e+003
9.942554e+001, 4.767792e+003
9.990765e+001, 4.730111e+003
1.003898e+002, 4.722167e+003
1.008719e+002, 4.720898e+003
1.013540e+002, 4.689706e+003
1.018361e+002, 4.620569e+003
1.023182e+002, 4.552976e+003
1.028004e+002, 4.500948e+003
1.032825e+002, 4.467365e+003
1.037646e+002, 4.437311e+003
1.042467e+002, 4.409780e+003
1.047288e+002, 4.386408e+003
1.052109e+002, 4.370819e+003
1.056931e+002, 4.361342e+003
1.061752e+002, 4.361220e+003
1.066573e+002, 4.372111e+003
1.071394e+002, 4.397559e+003
1.076215e+002, 4.428249e+003
1.081036e+002, 4.479326e+003
1.085858e+002, 4.541667e+003
1.090679e+002, 4.562105e+003
1.095500e+002, 4.509944e+003
1.100321e+002, 4.440379e+003
1.105142e+002, 4.383220e+003
1.109963e+002, 4.337743e+003
1.114785e+002, 4.304841e+003
1.119606e+002, 4.288583e+003
1.124427e+002, 4.288197e+003
1.129248e+002, 4.287694e+003
1.134069e+002, 4.278957e+003
1.138890e+002, 4.272015e+003
1.143712e+002, 4.274868e+003
1.148533e+002, 4.290338e+003
1.153354e+002, 4.314426e+003
1.158175e+002, 4.353310e+003
1.162996e+002, 4.410091e+003
1.167817e+002, 4.450030e+003
1.172639e+002, 4.445595e+003
1.177460e+002, 4.421735e+003
1.182281e+002, 4.410062e+003
1.187102e+002, 4.442387e+003
1.191923e+002, 4.476197e+003
1.196744e+002, 4.480743e+003
1.201566e+002, 4.446101e+003
1.206387e+002, 4.413393e+003
1.211208e+002, 4.408339e+003
1.216029e+002, 4.423580e+003
1.220850e+002, 4.444637e+003
1.225671e+002, 4.460238e+003
1.230493e+002, 4.479496e+003
1.235314e+002, 4.517068e+003
1.240135e+002, 4.584938e+003
1.244956e+002, 4.647132e+003
1.249777e+002, 4.661572e+003
1.254598e+002, 4.637590e+003
1.259420e+002, 4.610176e+003
1.264241e+002, 4.600034e+003
1.269062e+002, 4.602074e+003
1.273883e+002, 4.606610e+003
1.278704e+002, 4.609960e+003
1.283525e+002, 4.617057e+003
1.288347e+002, 4.638721e+003
1.293168e+002, 4.674313e+003
1.297989e+002, 4.710310e+003
1.302810e+002, 4.732732e+003
1.307631e+002, 4.745451e+003
1.312452e+002, 4.766366e+003
1.317274e+002, 4.805244e+003
1.322095e+002, 4.852762e+003
1.326916e+002, 4.882332e+003
1.331737e+002, 4.892579e+003
1.336558e+002, 4.895697e+003
1.341379e+002, 4.902199e+003
1.346201e+002, 4.912115e+003
1.351022e+002, 4.925243e+003
1.355843e+002, 4.941771e+003
1.360664e+002, 4.961550e+003
1.365485e+002, 4.984033e+003
1.370306e+002, 5.010870e+003
1.375128e+002, 5.036731e+003
1.379949e+002, 5.052483e+003
1.384770e+002, 5.054423e+003
1.389591e+002, 5.065358e+003
1.394412e+002, 5.099034e+003
1.399233e+002, 5.158373e+003
1.404055e+002, 5.194860e+003
1.408876e+002, 5.204565e+003
1.413697e+002, 5.195091e+003
1.418518e+002, 5.177237e+003
1.423339e+002, 5.147734e+003
1.428160e+002, 5.117208e+003
1.432982e+002, 5.088054e+003
1.437803e+002, 5.058069e+003
1.442624e+002, 5.038106e+003
1.447445e+002, 5.033352e+003
1.452266e+002, 5.037045e+003
1.457087e+002, 5.033530e+003
1.461909e+002, 5.017103e+003
1.466730e+002, 5.000777e+003
1.471551e+002, 4.990035e+003
1.476372e+002, 4.991804e+003
1.481193e+002, 4.987830e+003
1.486014e+002, 4.977717e+003
1.490836e+002, 4.961932e+003
1.495657e+002, 4.941181e+003
1.500478e+002, 4.907458e+003
1.505299e+002, 4.875694e+003
1.510120e+002, 4.852218e+003
1.514941e+002, 4.847906e+003
1.519763e+002, 4.839226e+003
1.524584e+002, 4.822823e+003
1.529405e+002, 4.800454e+003
1.534226e+002, 4.780859e+003
1.539047e+002, 4.765156e+003
1.543868e+002, 4.752023e+003
1.548690e+002, 4.740734e+003
1.553511e+002, 4.741975e+003
1.558332e+002, 4.733562e+003
1.563153e+002, 4.707479e+003
1.567974e+002, 4.665927e+003
1.572795e+002, 4.626776e+003
1.577617e+002, 4.592937e+003
1.582438e+002, 4.563450e+003
1.587259e+002, 4.537632e+003
1.592080e+002, 4.519065e+003
1.596901e+002, 4.500691e+003
1.601722e+002, 4.480832e+003
1.606544e+002, 4.459480e+003
1.611365e+002, 4.436787e+003
1.616186e+002, 4.406822e+003
1.621007e+002, 4.378155e+003
1.625828e+002, 4.357978e+003
1.630649e+002, 4.357573e+003
1.635471e+002, 4.358950e+003
1.640292e+002, 4.352679e+003
1.645113e+002, 4.338389e+003
1.649934e+002, 4.325526e+003
1.654755e+002, 4.320604e+003
1.659576e+002, 4.319251e+003
1.664398e+002, 4.316136e+003
1.669219e+002, 4.306054e+003
1.674040e+002, 4.295627e+003
1.678861e+002, 4.288687e+003
1.683682e+002, 4.285348e+003
1.688503e+002, 4.285825e+003
1.693325e+002, 4.292184e+003
1.698146e+002, 4.302312e+003
1.702967e+002, 4.312673e+003
1.707788e+002, 4.320116e+003
1.712609e+002, 4.328196e+003
1.717430e+002, 4.341121e+003
1.722252e+002, 4.359783e+003
1.727073e+002, 4.378269e+003
1.731894e+002, 4.392768e+003
1.736715e+002, 4.403691e+003
1.741536e+002, 4.411552e+003
1.746357e+002, 4.416759e+003
1.751179e+002, 4.419227e+003
1.756000e+002, 4.416705e+003
1.760821e+002, 4.407665e+003
1.765642e+002, 4.401286e+003
1.770463e+002, 4.411011e+003
1.775284e+002, 4.431917e+003
1.780106e+002, 4.448733e+003
1.784927e+002, 4.447875e+003
1.789748e+002, 4.438912e+003
1.794569e+002, 4.438151e+003
1.799390e+002, 4.447862e+003
1.804211e+002, 4.463054e+003
1.809033e+002, 4.479379e+003
1.813854e+002, 4.496782e+003
1.818675e+002, 4.514408e+003
1.823496e+002, 4.530601e+003
1.828317e+002, 4.546715e+003
1.833138e+002, 4.567171e+003
1.837960e+002, 4.592712e+003
1.842781e+002, 4.621306e+003
1.847602e+002, 4.647419e+003
1.852423e+002, 4.672194e+003
1.857244e+002, 4.703164e+003
1.862065e+002, 4.748705e+003
1.866887e+002, 4.805141e+003
1.871708e+002, 4.858933e+003
1.876529e+002, 4.907447e+003
1.881350e+002, 4.954928e+003
1.886171e+002, 5.008051e+003
1.890992e+002, 5.067123e+003
1.895814e+002, 5.126925e+003
1.900635e+002, 5.178442e+003
1.905456e+002, 5.225608e+003
1.910277e+002, 5.292602e+003
1.915098e+002, 5.387755e+003
1.919919e+002, 5.495792e+003
1.924741e+002, 5.581110e+003
1.929562e+002, 5.642398e+003
1.934383e+002, 5.702650e+003
1.939204e+002, 5.775204e+003
1.944025e+002, 5.859755e+003
1.948846e+002, 5.952834e+003
1.953668e+002, 6.057369e+003
1.958489e+002, 6.166478e+003
1.963310e+002, 6.260887e+003
1.968131e+002, 6.338491e+003
1.972952e+002, 6.416863e+003
1.977773e+002, 6.510635e+003
1.982595e+002, 6.619885e+003
1.987416e+002, 6.726662e+003
1.992237e+002, 6.825664e+003
1.997058e+002, 6.922272e+003
2.001879e+002, 7.028994e+003
2.006700e+002, 7.147006e+003
2.011522e+002, 7.274769e+003
2.016343e+002, 7.411469e+003
2.021164e+002, 7.557044e+003
2.025985e+002, 7.713923e+003
2.030806e+002, 7.882677e+003
2.035627e+002, 8.061280e+003
2.040449e+002, 8.238102e+003
2.045270e+002, 8.408848e+003
2.050091e+002, 8.591809e+003
2.054912e+002, 8.800518e+003
2.059733e+002, 9.037172e+003
2.064554e+002, 9.286140e+003
2.069376e+002, 9.546715e+003
2.074197e+002, 9.817246e+003
2.079018e+002, 1.010068e+004
2.083839e+002, 1.039650e+004
2.088660e+002, 1.070807e+004
2.093481e+002, 1.103251e+004
2.098303e+002, 1.136925e+004
2.103124e+002, 1.173050e+004
2.107945e+002, 1.212420e+004
2.112766e+002, 1.254131e+004
2.117587e+002, 1.296122e+004
2.122408e+002, 1.338708e+004
2.127230e+002, 1.381157e+004
2.132051e+002, 1.424129e+004
2.136872e+002, 1.468971e+004
2.141693e+002, 1.509882e+004
2.146514e+002, 1.546068e+004
2.151335e+002, 1.577756e+004
2.156157e+002, 1.604730e+004
2.160978e+002, 1.627908e+004
2.165799e+002, 1.644995e+004
2.170620e+002, 1.654697e+004
2.175441e+002, 1.656683e+004
2.180262e+002, 1.652046e+004
2.185084e+002, 1.640763e+004
2.189905e+002, 1.622733e+004
2.194726e+002, 1.598254e+004
2.199547e+002, 1.565441e+004
2.204368e+002, 1.528819e+004
2.209189e+002, 1.491373e+004
2.214011e+002, 1.452477e+004
2.218832e+002, 1.413510e+004
2.223653e+002, 1.373497e+004
2.228474e+002, 1.333478e+004
2.233295e+002, 1.296102e+004
2.238116e+002, 1.262304e+004
2.242938e+002, 1.230963e+004
2.247759e+002, 1.201382e+004
2.252580e+002, 1.173238e+004
2.257401e+002, 1.148227e+004
2.262222e+002, 1.126564e+004
2.267043e+002, 1.108085e+004
2.271865e+002, 1.091126e+004
2.276686e+002, 1.075712e+004
2.281507e+002, 1.062256e+004
2.286328e+002, 1.051306e+004
2.291149e+002, 1.043492e+004
2.295970e+002, 1.036756e+004
2.300792e+002, 1.031115e+004
2.305613e+002, 1.026484e+004
2.310434e+002, 1.022641e+004
2.315255e+002, 1.019301e+004
2.320076e+002, 1.017253e+004
2.324897e+002, 1.017036e+004
2.329719e+002, 1.019105e+004
2.334540e+002, 1.022048e+004
2.339361e+002, 1.026059e+004
2.344182e+002, 1.030925e+004
2.349003e+002, 1.035872e+004
2.353824e+002, 1.040530e+004
2.358646e+002, 1.045807e+004
2.363467e+002, 1.052077e+004
2.368288e+002, 1.059137e+004
2.373109e+002, 1.067640e+004
2.377930e+002, 1.077744e+004
2.382751e+002, 1.089292e+004
2.387573e+002, 1.101692e+004
2.392394e+002, 1.115827e+004
2.397215e+002, 1.129512e+004
2.402036e+002, 1.141777e+004
2.406857e+002, 1.151900e+004
2.411678e+002, 1.162205e+004
2.416500e+002, 1.172918e+004
2.421321e+002, 1.183689e+004
2.426142e+002, 1.194032e+004
2.430963e+002, 1.204833e+004
2.435784e+002, 1.213788e+004
2.440605e+002, 1.219782e+004
2.445427e+002, 1.222301e+004
2.450248e+002, 1.223376e+004
2.455069e+002, 1.223342e+004
2.459890e+002, 1.221738e+004
2.464711e+002, 1.217650e+004
2.469532e+002, 1.211130e+004
2.474354e+002, 1.202020e+004
2.479175e+002, 1.190149e+004
2.483996e+002, 1.174885e+004
2.488817e+002, 1.158792e+004
2.493638e+002, 1.141907e+004
2.498459e+002, 1.124205e+004
2.503281e+002, 1.105627e+004
2.508102e+002, 1.086079e+004
2.512923e+002, 1.065773e+004
2.517744e+002, 1.044402e+004
2.522565e+002, 1.021882e+004
2.527386e+002, 9.994850e+003
2.532208e+002, 9.769773e+003
2.537029e+002, 9.547782e+003
2.541850e+002, 9.330009e+003
2.546671e+002, 9.111165e+003
2.551492e+002, 8.905675e+003
2.556313e+002, 8.719616e+003
2.561135e+002, 8.554787e+003
2.565956e+002, 8.400653e+003
2.570777e+002, 8.260360e+003
2.575598e+002, 8.129267e+003
2.580419e+002, 8.000828e+003
2.585240e+002, 7.873001e+003
2.590062e+002, 7.755194e+003
2.594883e+002, 7.650033e+003
2.599704e+002, 7.559716e+003
2.604525e+002, 7.475195e+003
2.609346e+002, 7.397307e+003
2.614167e+002, 7.325457e+003
2.618989e+002, 7.259335e+003
2.623810e+002, 7.200017e+003
2.628631e+002, 7.145463e+003
2.633452e+002, 7.096353e+003
2.638273e+002, 7.052180e+003
2.643094e+002, 7.011024e+003
2.647916e+002, 6.972396e+003
2.652737e+002, 6.936835e+003
2.657558e+002, 6.903302e+003
2.662379e+002, 6.870180e+003
2.667200e+002, 6.846212e+003
2.672021e+002, 6.836875e+003
2.676843e+002, 6.839780e+003
2.681664e+002, 6.829485e+003
2.686485e+002, 6.801454e+003
2.691306e+002, 6.769570e+003
2.696127e+002, 6.745241e+003
2.700948e+002, 6.729188e+003
2.705770e+002, 6.717759e+003
2.710591e+002, 6.712532e+003
2.715412e+002, 6.711313e+003
2.720233e+002, 6.703461e+003
2.725054e+002, 6.688155e+003
2.729875e+002, 6.668407e+003
2.734697e+002, 6.646288e+003
2.739518e+002, 6.621612e+003
2.744339e+002, 6.594419e+003
2.749160e+002, 6.565278e+003
2.753981e+002, 6.533468e+003
2.758802e+002, 6.494186e+003
2.763624e+002, 6.446043e+003
2.768445e+002, 6.398416e+003
2.773266e+002, 6.361534e+003
2.778087e+002, 6.337165e+003
2.782908e+002, 6.295144e+003
2.787729e+002, 6.227427e+003
2.792551e+002, 6.147492e+003
2.797372e+002, 6.090681e+003
2.802193e+002, 6.060581e+003
2.807014e+002, 6.029132e+003
2.811835e+002, 5.976103e+003
2.816656e+002, 5.901996e+003
2.821478e+002, 5.842718e+003
2.826299e+002, 5.802310e+003
2.831120e+002, 5.771919e+003
2.835941e+002, 5.737194e+003
2.840762e+002, 5.697740e+003
2.845583e+002, 5.658935e+003
2.850405e+002, 5.622903e+003
2.855226e+002, 5.589458e+003
2.860047e+002, 5.556271e+003
2.864868e+002, 5.522711e+003
2.869689e+002, 5.491448e+003
2.874510e+002, 5.468395e+003
2.879332e+002, 5.453024e+003
2.884153e+002, 5.434538e+003
2.888974e+002, 5.405246e+003
2.893795e+002, 5.369430e+003
2.898616e+002, 5.345838e+003
2.903438e+002, 5.335651e+003
2.908259e+002, 5.329419e+003
2.913080e+002, 5.315735e+003
2.917901e+002, 5.296233e+003
2.922722e+002, 5.280080e+003
2.927543e+002, 5.271415e+003
2.932365e+002, 5.267653e+003
2.937186e+002, 5.262583e+003
2.942007e+002, 5.256204e+003
2.946828e+002, 5.251188e+003
2.951649e+002, 5.248500e+003
2.956470e+002, 5.248894e+003
2.961292e+002, 5.255466e+003
2.966113e+002, 5.271578e+003
2.970934e+002, 5.291348e+003
2.975755e+002, 5.305726e+003
2.980576e+002, 5.315083e+003
2.985397e+002, 5.322640e+003
2.990219e+002, 5.327993e+003
2.995040e+002, 5.333634e+003
2.999861e+002, 5.345341e+003
3.004682e+002, 5.365604e+003
3.009503e+002, 5.389505e+003
3.014324e+002, 5.413975e+003
3.019146e+002, 5.437982e+003
3.023967e+002, 5.458096e+003
3.028788e+002, 5.469321e+003
3.033609e+002, 5.476075e+003
3.038430e+002, 5.484868e+003
3.043251e+002, 5.497234e+003
3.048073e+002, 5.509161e+003
3.052894e+002, 5.509987e+003
3.057715e+002, 5.506788e+003
3.062536e+002, 5.516924e+003
3.067357e+002, 5.560506e+003
3.072178e+002, 5.615968e+003
3.077000e+002, 5.659466e+003
3.081821e+002, 5.687882e+003
3.086642e+002, 5.716288e+003
3.091463e+002, 5.755420e+003
3.096284e+002, 5.801597e+003
3.101105e+002, 5.849775e+003
3.105927e+002, 5.897206e+003
3.110748e+002, 5.945554e+003
3.115569e+002, 5.996128e+003
3.120390e+002, 6.049018e+003
3.125211e+002, 6.104629e+003
3.130032e+002, 6.168024e+003
3.134854e+002, 6.233241e+003
3.139675e+002, 6.293100e+003
3.144496e+002, 6.351618e+003
3.149317e+002, 6.398550e+003
3.154138e+002, 6.429511e+003
3.158959e+002, 6.444858e+003
3.163781e+002, 6.447817e+003
3.168602e+002, 6.435010e+003
3.173423e+002, 6.413175e+003
3.178244e+002, 6.387341e+003
3.183065e+002, 6.361063e+003
3.187886e+002, 6.327547e+003
3.192708e+002, 6.279211e+003
3.197529e+002, 6.221295e+003
3.202350e+002, 6.168353e+003
3.207171e+002, 6.125797e+003
3.211992e+002, 6.088937e+003
3.216813e+002, 6.054956e+003
3.221635e+002, 6.020864e+003
3.226456e+002, 5.995450e+003
3.231277e+002, 5.981507e+003
3.236098e+002, 5.977017e+003
3.240919e+002, 5.978635e+003
3.245740e+002, 5.988678e+003
3.250562e+002, 6.002094e+003
3.255383e+002, 6.018034e+003
3.260204e+002, 6.037211e+003
3.265025e+002, 6.055778e+003
3.269846e+002, 6.069918e+003
3.274667e+002, 6.084835e+003
3.279489e+002, 6.106266e+003
3.284310e+002, 6.138983e+003
3.289131e+002, 6.173118e+003
3.293952e+002, 6.206564e+003
3.298773e+002, 6.239241e+003
3.303594e+002, 6.277158e+003
3.308416e+002, 6.319067e+003
3.313237e+002, 6.366863e+003
3.318058e+002, 6.422343e+003
3.322879e+002, 6.491343e+003
3.327700e+002, 6.558365e+003
3.332521e+002, 6.621769e+003
3.337343e+002, 6.682588e+003
3.342164e+002, 6.746136e+003
3.346985e+002, 6.811895e+003
3.351806e+002, 6.879914e+003
3.356627e+002, 6.951021e+003
3.361448e+002, 7.026335e+003
3.366270e+002, 7.099853e+003
3.371091e+002, 7.172915e+003
3.375912e+002, 7.242102e+003
3.380733e+002, 7.298750e+003
3.385554e+002, 7.337259e+003
3.390375e+002, 7.379912e+003
3.395197e+002, 7.440576e+003
3.400018e+002, 7.520722e+003
3.404839e+002, 7.580858e+003
3.409660e+002, 7.615793e+003
3.414481e+002, 7.639621e+003
3.419302e+002, 7.669759e+003
3.424124e+002, 7.707176e+003
3.428945e+002, 7.740759e+003
3.433766e+002, 7.767851e+003
3.438587e+002, 7.788508e+003
3.443408e+002, 7.801837e+003
3.448229e+002, 7.806528e+003
3.453051e+002, 7.812290e+003
3.457872e+002, 7.827814e+003
3.462693e+002, 7.852248e+003
3.467514e+002, 7.880779e+003
3.472335e+002, 7.912053e+003
3.477156e+002, 7.947164e+003
3.481978e+002, 7.988464e+003
3.486799e+002, 8.035736e+003
3.491620e+002, 8.085521e+003
3.496441e+002, 8.131644e+003
3.501262e+002, 8.178901e+003
3.506083e+002, 8.238497e+003
3.510905e+002, 8.312906e+003
3.515726e+002, 8.398096e+003
3.520547e+002, 8.490166e+003
3.525368e+002, 8.589447e+003
3.530189e+002, 8.696947e+003
3.535010e+002, 8.813666e+003
3.539832e+002, 8.938610e+003
3.544653e+002, 9.070080e+003
3.549474e+002, 9.209100e+003
3.554295e+002, 9.355304e+003
3.559116e+002, 9.502882e+003
3.563937e+002, 9.659591e+003
3.568759e+002, 9.834751e+003
3.573580e+002, 1.004177e+004
3.578401e+002, 1.026178e+004
3.583222e+002, 1.048004e+004
3.588043e+002, 1.070004e+004
3.592864e+002, 1.093067e+004
3.597686e+002, 1.117044e+004
3.602507e+002, 1.142774e+004
3.607328e+002, 1.170830e+004
3.612149e+002, 1.202542e+004
3.616970e+002, 1.234918e+004
3.621791e+002, 1.265954e+004
3.626613e+002, 1.296733e+004
3.631434e+002, 1.329763e+004
3.636255e+002, 1.367974e+004
3.641076e+002, 1.406878e+004
3.645897e+002, 1.444611e+004
3.650718e+002, 1.479823e+004
3.655540e+002, 1.515197e+004
3.660361e+002, 1.552852e+004
3.665182e+002, 1.590309e+004
3.670003e+002, 1.624603e+004
3.674824e+002, 1.654428e+004
3.679645e+002, 1.682086e+004
3.684467e+002, 1.709368e+004
3.689288e+002, 1.736087e+004
3.694109e+002, 1.756487e+004
3.698930e+002, 1.769129e+004
3.703751e+002, 1.776630e+004
3.708572e+002, 1.780964e+004
3.713394e+002, 1.784916e+004
3.718215e+002, 1.780921e+004
3.723036e+002, 1.767072e+004
3.727857e+002, 1.744875e+004
3.732678e+002, 1.719528e+004
3.737499e+002, 1.690751e+004
3.742321e+002, 1.658861e+004
3.747142e+002, 1.623915e+004
3.751963e+002, 1.585047e+004
3.756784e+002, 1.545845e+004
3.761605e+002, 1.506805e+004
3.766426e+002, 1.467005e+004
3.771248e+002, 1.426087e+004
3.776069e+002, 1.383328e+004
3.780890e+002, 1.341115e+004
3.785711e+002, 1.300329e+004
3.790532e+002, 1.260739e+004
3.795353e+002, 1.223572e+004
3.800175e+002, 1.188649e+004
3.804996e+002, 1.155366e+004
3.809817e+002, 1.122769e+004
3.814638e+002, 1.091141e+004
3.819459e+002, 1.061544e+004
3.824280e+002, 1.034632e+004
3.829102e+002, 1.009716e+004
3.833923e+002, 9.862139e+003
3.838744e+002, 9.639311e+003
3.843565e+002, 9.429826e+003
3.848386e+002, 9.237419e+003
3.853207e+002, 9.058672e+003
3.858029e+002, 8.895055e+003
3.862850e+002, 8.746367e+003
3.867671e+002, 8.605688e+003
3.872492e+002, 8.463593e+003
3.877313e+002, 8.322858e+003
3.882134e+002, 8.192626e+003
3.886956e+002, 8.086001e+003
3.891777e+002, 7.987670e+003
3.896598e+002, 7.879313e+003
3.901419e+002, 7.762383e+003
3.906240e+002, 7.656075e+003
3.911061e+002, 7.574840e+003
3.915883e+002, 7.508255e+003
3.920704e+002, 7.445101e+003
3.925525e+002, 7.381905e+003
3.930346e+002, 7.322476e+003
3.935167e+002, 7.265655e+003
3.939988e+002, 7.212972e+003
3.944810e+002, 7.167897e+003
3.949631e+002, 7.138498e+003
3.954452e+002, 7.111672e+003
3.959273e+002, 7.079960e+003
3.964094e+002, 7.039595e+003
3.968915e+002, 7.003630e+003
3.973737e+002, 6.975647e+003
3.978558e+002, 6.952833e+003
3.983379e+002, 6.931740e+003
3.988200e+002, 6.912884e+003
3.993021e+002, 6.894616e+003
3.997842e+002, 6.876771e+003
4.002664e+002, 6.859283e+003
4.007485e+002, 6.840738e+003
4.012306e+002, 6.815375e+003
4.017127e+002, 6.794610e+003
4.021948e+002, 6.787079e+003
4.026769e+002, 6.801912e+003
4.031591e+002, 6.810181e+003
4.036412e+002, 6.810141e+003
4.041233e+002, 6.802610e+003
4.046054e+002, 6.789903e+003
4.050875e+002, 6.773005e+003
4.055696e+002, 6.748388e+003
4.060518e+002, 6.711909e+003
4.065339e+002, 6.663132e+003
4.070160e+002, 6.621345e+003
4.074981e+002, 6.588745e+003
4.079802e+002, 6.558440e+003
4.084623e+002, 6.523743e+003
4.089445e+002, 6.484550e+003
4.094266e+002, 6.440449e+003
4.099087e+002, 6.390147e+003
4.103908e+002, 6.336146e+003
4.108729e+002, 6.285094e+003
4.113550e+002, 6.236710e+003
4.118372e+002, 6.187929e+003
4.123193e+002, 6.137130e+003
4.128014e+002, 6.083753e+003
4.132835e+002, 6.023989e+003
4.137656e+002, 5.954742e+003
4.142477e+002, 5.887668e+003
4.147299e+002, 5.836751e+003
4.152120e+002, 5.798002e+003
4.156941e+002, 5.763358e+003
4.161762e+002, 5.731995e+003
4.166583e+002, 5.700372e+003
4.171404e+002, 5.665071e+003
4.176226e+002, 5.625719e+003
4.181047e+002, 5.585033e+003
4.185868e+002, 5.540833e+003
4.190689e+002, 5.497381e+003
4.195510e+002, 5.458080e+003
4.200331e+002, 5.425202e+003
4.205153e+002, 5.395231e+003
4.209974e+002, 5.371414e+003
4.214795e+002, 5.350156e+003
4.219616e+002, 5.323199e+003
4.224437e+002, 5.279959e+003
4.229258e+002, 5.237627e+003
4.234080e+002, 5.202863e+003
4.238901e+002, 5.176013e+003
4.243722e+002, 5.156350e+003
4.248543e+002, 5.151913e+003
4.253364e+002, 5.150914e+003
4.258185e+002, 5.141663e+003
4.263007e+002, 5.116729e+003
4.267828e+002, 5.094117e+003
4.272649e+002, 5.075319e+003
4.277470e+002, 5.060640e+003
4.282291e+002, 5.052786e+003
4.287112e+002, 5.055777e+003
4.291934e+002, 5.058577e+003
4.296755e+002, 5.053367e+003
4.301576e+002, 5.037033e+003
4.306397e+002, 5.029519e+003
4.311218e+002, 5.033978e+003
4.316039e+002, 5.043045e+003
4.320861e+002, 5.044255e+003
4.325682e+002, 5.036966e+003
4.330503e+002, 5.031527e+003
4.335324e+002, 5.033309e+003
4.340145e+002, 5.039364e+003
4.344966e+002, 5.037499e+003
4.349788e+002, 5.027458e+003
4.354609e+002, 5.018766e+003
4.359430e+002, 5.022975e+003
4.364251e+002, 5.035000e+003
4.369072e+002, 5.039977e+003
4.373893e+002, 5.033817e+003
4.378715e+002, 5.023753e+003
4.383536e+002, 5.017013e+003
4.388357e+002, 5.012928e+003
4.393178e+002, 5.009622e+003
4.397999e+002, 5.004291e+003
4.402820e+002, 5.000364e+003
4.407642e+002, 5.002621e+003
4.412463e+002, 5.011282e+003
4.417284e+002, 5.018017e+003
4.422105e+002, 5.019052e+003
4.426926e+002, 5.015528e+003
4.431747e+002, 5.008375e+003
4.436569e+002, 4.993064e+003
4.441390e+002, 4.979748e+003
4.446211e+002, 4.971526e+003
4.451032e+002, 4.967679e+003
4.455853e+002, 4.966426e+003
4.460674e+002, 4.976487e+003
4.465496e+002, 4.981178e+003
4.470317e+002, 4.971781e+003
4.475138e+002, 4.940902e+003
4.479959e+002, 4.920084e+003
4.484780e+002, 4.914453e+003
4.489601e+002, 4.915391e+003
4.494423e+002, 4.914271e+003
4.499244e+002, 4.908569e+003
4.504065e+002, 4.906775e+003
4.508886e+002, 4.912699e+003
4.513707e+002, 4.923327e+003
4.518528e+002, 4.925130e+003
4.523350e+002, 4.915790e+003
4.528171e+002, 4.904376e+003
4.532992e+002, 4.894619e+003
4.537813e+002, 4.886411e+003
4.542634e+002, 4.882236e+003
4.547455e+002, 4.883053e+003
4.552277e+002, 4.884458e+003
4.557098e+002, 4.880036e+003
4.561919e+002, 4.870573e+003
4.566740e+002, 4.861198e+003
4.571561e+002, 4.852466e+003
4.576382e+002, 4.845946e+003
4.581204e+002, 4.846592e+003
4.586025e+002, 4.853445e+003
4.590846e+002, 4.859359e+003
4.595667e+002, 4.859638e+003
4.600488e+002, 4.856179e+003
4.605309e+002, 4.850667e+003
4.610131e+002, 4.842712e+003
4.614952e+002, 4.836021e+003
4.619773e+002, 4.835913e+003
4.624594e+002, 4.838209e+003
4.629415e+002, 4.836759e+003
4.634236e+002, 4.821780e+003
4.639058e+002, 4.809555e+003
4.643879e+002, 4.810225e+003
4.648700e+002, 4.822167e+003
4.653521e+002, 4.829218e+003
4.658342e+002, 4.819793e+003
4.663163e+002, 4.809981e+003
4.667985e+002, 4.809084e+003
4.672806e+002, 4.824024e+003
4.677627e+002, 4.836496e+003
4.682448e+002, 4.845900e+003
4.687269e+002, 4.852651e+003
4.692090e+002, 4.856891e+003
4.696912e+002, 4.855415e+003
4.701733e+002, 4.857500e+003
4.706554e+002, 4.866527e+003
4.711375e+002, 4.881531e+003
4.716196e+002, 4.892424e+003
4.721017e+002, 4.897372e+003
4.725839e+002, 4.903327e+003
4.730660e+002, 4.915917e+003
4.735481e+002, 4.935166e+003
4.740302e+002, 4.954676e+003
4.745123e+002, 4.974784e+003
4.749944e+002, 4.992956e+003
4.754766e+002, 5.001548e+003
4.759587e+002, 5.002882e+003
4.764408e+002, 5.011963e+003
4.769229e+002, 5.040948e+003
4.774050e+002, 5.077551e+003
4.778871e+002, 5.098639e+003
4.783693e+002, 5.106052e+003
4.788514e+002, 5.116060e+003
4.793335e+002, 5.142305e+003
4.798156e+002, 5.176827e+003
4.802977e+002, 5.210613e+003
4.807798e+002, 5.242463e+003
4.812620e+002, 5.271649e+003
4.817441e+002, 5.295179e+003
4.822262e+002, 5.316181e+003
4.827083e+002, 5.339292e+003
4.831904e+002, 5.372669e+003
4.836725e+002, 5.401928e+003
4.841547e+002, 5.417109e+003
4.846368e+002, 5.419575e+003
4.851189e+002, 5.430672e+003
4.856010e+002, 5.463352e+003
4.860831e+002, 5.497562e+003
4.865652e+002, 5.523151e+003
4.870474e+002, 5.537761e+003
4.875295e+002, 5.548504e+003
4.880116e+002, 5.551418e+003
4.884937e+002, 5.553266e+003
4.889758e+002, 5.565032e+003
4.894579e+002, 5.591261e+003
4.899401e+002, 5.613642e+003
4.904222e+002, 5.627466e+003
4.909043e+002, 5.634159e+003
4.913864e+002, 5.640302e+003
4.918685e+002, 5.645777e+003
4.923506e+002, 5.651712e+003
4.928328e+002, 5.660035e+003
4.933149e+002, 5.669774e+003
4.937970e+002, 5.676159e+003
4.942791e+002, 5.678484e+003
4.947612e+002, 5.679486e+003
4.952433e+002, 5.681112e+003
4.957255e+002, 5.683907e+003
4.962076e+002, 5.689198e+003
4.966897e+002, 5.697613e+003
4.971718e+002, 5.708678e+003
4.976539e+002, 5.721071e+003
4.981360e+002, 5.735360e+003
4.986182e+002, 5.754070e+003
4.991003e+002, 5.782762e+003
4.995824e+002, 5.813417e+003
5.000645e+002, 5.840956e+003
5.005466e+002, 5.866029e+003
5.010287e+002, 5.884067e+003
5.015109e+002, 5.889011e+003
5.019930e+002, 5.888401e+003
5.024751e+002, 5.889677e+003
5.029572e+002, 5.892188e+003
5.034393e+002, 5.898601e+003
5.039214e+002, 5.912593e+003
5.044036e+002, 5.930805e+003
5.048857e+002, 5.941973e+003
5.053678e+002, 5.945067e+003
5.058499e+002, 5.942937e+003
5.063320e+002, 5.935013e+003
5.068141e+002, 5.920597e+003
5.072963e+002, 5.913069e+003
5.077784e+002, 5.915540e+003
5.082605e+002, 5.916399e+003
5.087426e+002, 5.902450e+003
5.092247e+002, 5.874517e+003
5.097068e+002, 5.845116e+003
5.101890e+002, 5.816747e+003
5.106711e+002, 5.787622e+003
5.111532e+002, 5.753956e+003
5.116353e+002, 5.716631e+003
5.121174e+002, 5.680960e+003
5.125995e+002, 5.652939e+003
5.130817e+002, 5.625919e+003
5.135638e+002, 5.591190e+003
5.140459e+002, 5.548825e+003
5.145280e+002, 5.504792e+003
5.150101e+002, 5.462770e+003
5.154922e+002, 5.420772e+003
5.159744e+002, 5.377222e+003
5.164565e+002, 5.330123e+003
5.169386e+002, 5.284216e+003
5.174207e+002, 5.241351e+003
5.179028e+002, 5.200657e+003
5.183849e+002, 5.160667e+003
5.188671e+002, 5.121312e+003
5.193492e+002, 5.082475e+003
5.198313e+002, 5.042879e+003
5.203134e+002, 5.003089e+003
5.207955e+002, 4.966978e+003
5.212776e+002, 4.936665e+003
5.217598e+002, 4.906652e+003
5.222419e+002, 4.871624e+003
5.227240e+002, 4.827540e+003
5.232061e+002, 4.800454e+003
5.236882e+002, 4.794489e+003
5.241703e+002, 4.797428e+003
5.246525e+002, 4.793982e+003
5.251346e+002, 4.784500e+003
5.256167e+002, 4.773693e+003
5.260988e+002, 4.761195e+003
5.265809e+002, 4.750284e+003
5.270630e+002, 4.747618e+003
5.275452e+002, 4.752500e+003
5.280273e+002, 4.760521e+003
5.285094e+002, 4.771637e+003
5.289915e+002, 4.783163e+003
5.294736e+002, 4.791240e+003
5.299557e+002, 4.795452e+003
5.304379e+002, 4.801082e+003
5.309200e+002, 4.811223e+003
5.314021e+002, 4.824385e+003
5.318842e+002, 4.839390e+003
5.323663e+002, 4.859402e+003
5.328484e+002, 4.876083e+003
5.333306e+002, 4.883339e+003
5.338127e+002, 4.886013e+003
5.342948e+002, 4.894254e+003
5.347769e+002, 4.915485e+003
5.352590e+002, 4.934891e+003
5.357411e+002, 4.949370e+003
5.362233e+002, 4.958993e+003
5.367054e+002, 4.966814e+003
5.371875e+002, 4.974357e+003
5.376696e+002, 4.977225e+003
5.381517e+002, 4.970529e+003
5.386339e+002, 4.953340e+003
5.391160e+002, 4.940665e+003
5.395981e+002, 4.933763e+003
5.400802e+002, 4.930427e+003
5.405623e+002, 4.930049e+003
5.410444e+002, 4.931462e+003
5.415266e+002, 4.928081e+003
5.420087e+002, 4.917333e+003
5.424908e+002, 4.901312e+003
5.429729e+002, 4.879343e+003
5.434550e+002, 4.853746e+003
5.439371e+002, 4.833127e+003
5.444193e+002, 4.831733e+003
5.449014e+002, 4.830897e+003
5.453835e+002, 4.812738e+003
5.458656e+002, 4.774916e+003
5.463477e+002, 4.737339e+003
5.468298e+002, 4.707565e+003
5.473120e+002, 4.681329e+003
5.477941e+002, 4.655364e+003
5.482762e+002, 4.628558e+003
5.487583e+002, 4.602412e+003
5.492404e+002, 4.575385e+003
5.497225e+002, 4.549496e+003
5.502047e+002, 4.529190e+003
5.506868e+002, 4.520224e+003
5.511689e+002, 4.505449e+003
5.516510e+002, 4.479499e+003
5.521331e+002, 4.444056e+003
5.526152e+002, 4.409645e+003
5.530974e+002, 4.375871e+003
5.535795e+002, 4.345355e+003
5.540616e+002, 4.320026e+003
5.545437e+002, 4.299614e+003
5.550258e+002, 4.283197e+003
5.555079e+002, 4.271176e+003
5.559901e+002, 4.260077e+003
5.564722e+002, 4.245609e+003
5.569543e+002, 4.229302e+003
5.574364e+002, 4.214396e+003
5.579185e+002, 4.202453e+003
5.584006e+002, 4.191101e+003
5.588828e+002, 4.176938e+003
5.593649e+002, 4.161768e+003
5.598470e+002, 4.149480e+003
5.603291e+002, 4.146649e+003
5.608112e+002, 4.142335e+003
5.612933e+002, 4.129324e+003
5.617755e+002, 4.107228e+003
5.622576e+002, 4.090130e+003
5.627397e+002, 4.082659e+003
5.632218e+002, 4.078636e+003
5.637039e+002, 4.075494e+003
5.641860e+002, 4.074384e+003
5.646682e+002, 4.071459e+003
5.651503e+002, 4.067560e+003
5.656324e+002, 4.060889e+003
5.661145e+002, 4.047479e+003
5.665966e+002, 4.026135e+003
5.670787e+002, 4.009285e+003
5.675609e+002, 4.000709e+003
5.680430e+002, 3.996888e+003
5.685251e+002, 3.990400e+003
5.690072e+002, 3.981624e+003
5.694893e+002, 3.973809e+003
5.699714e+002, 3.968131e+003
5.704536e+002, 3.964665e+003
5.709357e+002, 3.964081e+003
5.714178e+002, 3.966211e+003
5.718999e+002, 3.968818e+003
5.723820e+002, 3.972015e+003
5.728641e+002, 3.974081e+003
5.733463e+002, 3.972724e+003
5.738284e+002, 3.965370e+003
5.743105e+002, 3.960412e+003
5.747926e+002, 3.964059e+003
5.752747e+002, 3.970091e+003
5.757568e+002, 3.970612e+003
5.762390e+002, 3.960314e+003
5.767211e+002, 3.950500e+003
5.772032e+002, 3.941309e+003
5.776853e+002, 3.933561e+003
5.781674e+002, 3.930714e+003
5.786495e+002, 3.933874e+003
5.791317e+002, 3.938807e+003
5.796138e+002, 3.944104e+003
5.800959e+002, 3.949757e+003
5.805780e+002, 3.956607e+003
5.810601e+002, 3.965081e+003
5.815422e+002, 3.970882e+003
5.820244e+002, 3.966574e+003
5.825065e+002, 3.957144e+003
5.829886e+002, 3.956991e+003
5.834707e+002, 3.969897e+003
5.839528e+002, 3.981786e+003
5.844349e+002, 3.974502e+003
5.849171e+002, 3.959462e+003
5.853992e+002, 3.953724e+003
5.858813e+002, 3.973559e+003
5.863634e+002, 3.992688e+003
5.868455e+002, 3.998385e+003
5.873276e+002, 3.994859e+003
5.878098e+002, 3.993348e+003
5.882919e+002, 3.997191e+003
5.887740e+002, 4.002068e+003
5.892561e+002, 4.006303e+003
5.897382e+002, 4.009823e+003
5.902203e+002, 4.016661e+003
5.907025e+002, 4.029833e+003
5.911846e+002, 4.040755e+003
5.916667e+002, 4.041126e+003
5.921488e+002, 4.029585e+003
5.926309e+002, 4.028537e+003
5.931130e+002, 4.040071e+003
5.935952e+002, 4.057189e+003
5.940773e+002, 4.075163e+003
5.945594e+002, 4.092362e+003
5.950415e+002, 4.101021e+003
5.955236e+002, 4.096056e+003
5.960057e+002, 4.088196e+003
5.964879e+002, 4.090084e+003
5.969700e+002, 4.098418e+003
5.974521e+002, 4.105434e+003
5.979342e+002, 4.105031e+003
5.984163e+002, 4.104549e+003
5.988984e+002, 4.109560e+003
5.993806e+002, 4.119264e+003
5.998627e+002, 4.125378e+003
6.003448e+002, 4.119756e+003
6.008269e+002, 4.115448e+003
6.013090e+002, 4.119038e+003
6.017911e+002, 4.132839e+003
6.022733e+002, 4.145840e+003
6.027554e+002, 4.158990e+003
6.032375e+002, 4.169976e+003
6.037196e+002, 4.174884e+003
6.042017e+002, 4.172740e+003
6.046838e+002, 4.175860e+003
6.051660e+002, 4.187061e+003
6.056481e+002, 4.200997e+003
6.061302e+002, 4.208174e+003
6.066123e+002, 4.210061e+003
6.070944e+002, 4.213562e+003
6.075765e+002, 4.223148e+003
6.080587e+002, 4.233715e+003
6.085408e+002, 4.237715e+003
6.090229e+002, 4.237214e+003
6.095050e+002, 4.239808e+003
6.099871e+002, 4.251923e+003
6.104692e+002, 4.266248e+003
6.109514e+002, 4.279194e+003
6.114335e+002, 4.290616e+003
6.119156e+002, 4.299143e+003
6.123977e+002, 4.301491e+003
6.128798e+002, 4.303105e+003
6.133619e+002, 4.306737e+003
6.138441e+002, 4.311303e+003
6.143262e+002, 4.321306e+003
6.148083e+002, 4.338962e+003
6.152904e+002, 4.359172e+003
6.157725e+002, 4.376027e+003
6.162546e+002, 4.389575e+003
6.167368e+002, 4.399015e+003
6.172189e+002, 4.403128e+003
6.177010e+002, 4.405215e+003
6.181831e+002, 4.410881e+003
6.186652e+002, 4.419639e+003
6.191473e+002, 4.429618e+003
6.196295e+002, 4.436811e+003
6.201116e+002, 4.446829e+003
6.205937e+002, 4.468850e+003
6.210758e+002, 4.500127e+003
6.215579e+002, 4.527683e+003
6.220400e+002, 4.537444e+003
6.225222e+002, 4.547065e+003
6.230043e+002, 4.567086e+003
6.234864e+002, 4.600042e+003
6.239685e+002, 4.634383e+003
6.244506e+002, 4.670401e+003
6.249327e+002, 4.706225e+003
6.254149e+002, 4.740881e+003
6.258970e+002, 4.774146e+003
6.263791e+002, 4.805238e+003
6.268612e+002, 4.832530e+003
6.273433e+002, 4.860325e+003
6.278254e+002, 4.896005e+003
6.283076e+002, 4.939151e+003
6.287897e+002, 4.980511e+003
6.292718e+002, 5.016823e+003
6.297539e+002, 5.051986e+003
6.302360e+002, 5.092958e+003
6.307181e+002, 5.137930e+003
6.312003e+002, 5.180603e+003
6.316824e+002, 5.219720e+003
6.321645e+002, 5.253981e+003
6.326466e+002, 5.282400e+003
6.331287e+002, 5.305109e+003
6.336108e+002, 5.321313e+003
6.340930e+002, 5.329741e+003
6.345751e+002, 5.332729e+003
6.350572e+002, 5.330765e+003
6.355393e+002, 5.323362e+003
6.360214e+002, 5.313895e+003
6.365035e+002, 5.302341e+003
6.369857e+002, 5.288624e+003
6.374678e+002, 5.273009e+003
6.379499e+002, 5.255785e+003
6.384320e+002, 5.233725e+003
6.389141e+002, 5.205104e+003
6.393962e+002, 5.176524e+003
6.398784e+002, 5.156700e+003
6.403605e+002, 5.144796e+003
6.408426e+002, 5.136410e+003
6.413247e+002, 5.130427e+003
6.418068e+002, 5.127613e+003
6.422889e+002, 5.130502e+003
6.427711e+002, 5.137185e+003
6.432532e+002, 5.143360e+003
6.437353e+002, 5.139487e+003
6.442174e+002, 5.141928e+003
6.446995e+002, 5.161255e+003
6.451816e+002, 5.195342e+003
6.456638e+002, 5.228920e+003
6.461459e+002, 5.255985e+003
6.466280e+002, 5.286012e+003
6.471101e+002, 5.323501e+003
6.475922e+002, 5.368667e+003
6.480743e+002, 5.411761e+003
6.485565e+002, 5.452302e+003
6.490386e+002, 5.491068e+003
6.495207e+002, 5.526685e+003
6.500028e+002, 5.559620e+003
6.504849e+002, 5.595245e+003
6.509670e+002, 5.633963e+003
6.514492e+002, 5.672645e+003
6.519313e+002, 5.707976e+003
6.524134e+002, 5.740537e+003
6.528955e+002, 5.770585e+003
6.533776e+002, 5.798019e+003
6.538597e+002, 5.824765e+003
6.543419e+002, 5.852558e+003
6.548240e+002, 5.880550e+003
6.553061e+002, 5.906965e+003
6.557882e+002, 5.930813e+003
6.562703e+002, 5.953814e+003
6.567524e+002, 5.972704e+003
6.572346e+002, 5.991143e+003
6.577167e+002, 6.020831e+003
6.581988e+002, 6.065673e+003
6.586809e+002, 6.113598e+003
6.591630e+002, 6.163337e+003
6.596451e+002, 6.212995e+003
6.601273e+002, 6.247371e+003
6.606094e+002, 6.265869e+003
6.610915e+002, 6.287864e+003
6.615736e+002, 6.329763e+003
6.620557e+002, 6.383521e+003
6.625378e+002, 6.432477e+003
6.630200e+002, 6.475770e+003
6.635021e+002, 6.522375e+003
6.639842e+002, 6.589332e+003
6.644663e+002, 6.656686e+003
6.649484e+002, 6.701690e+003
6.654305e+002, 6.709815e+003
6.659127e+002, 6.728204e+003
6.663948e+002, 6.776763e+003
6.668769e+002, 6.836616e+003
6.673590e+002, 6.888995e+003
6.678411e+002, 6.931978e+003
6.683232e+002, 6.970126e+003
6.688054e+002, 7.001568e+003
6.692875e+002, 7.030299e+003
6.697696e+002, 7.066391e+003
6.702517e+002, 7.110188e+003
6.707338e+002, 7.140767e+003
6.712159e+002, 7.145849e+003
6.716981e+002, 7.141931e+003
6.721802e+002, 7.163334e+003
6.726623e+002, 7.201880e+003
6.731444e+002, 7.229056e+003
6.736265e+002, 7.226155e+003
6.741086e+002, 7.209169e+003
6.745908e+002, 7.184162e+003
6.750729e+002, 7.153492e+003
6.755550e+002, 7.128345e+003
6.760371e+002, 7.124504e+003
6.765192e+002, 7.115896e+003
6.770013e+002, 7.087986e+003
6.774835e+002, 7.038321e+003
6.779656e+002, 6.996513e+003
6.784477e+002, 6.965380e+003
6.789298e+002, 6.936392e+003
6.794119e+002, 6.902601e+003
6.798940e+002, 6.863495e+003
6.803762e+002, 6.833204e+003
6.808583e+002, 6.812841e+003
6.813404e+002, 6.793985e+003
6.818225e+002, 6.763795e+003
6.823046e+002, 6.729068e+003
6.827867e+002, 6.704560e+003
6.832689e+002, 6.695984e+003
6.837510e+002, 6.689452e+003
6.842331e+002, 6.677358e+003
6.847152e+002, 6.660795e+003
6.851973e+002, 6.641426e+003
6.856794e+002, 6.599729e+003
6.861616e+002, 6.579050e+003
6.866437e+002, 6.600821e+003
6.871258e+002, 6.644943e+003
6.876079e+002, 6.675222e+003
6.880900e+002, 6.684049e+003
6.885721e+002, 6.698102e+003
6.890543e+002, 6.724451e+003
6.895364e+002, 6.759400e+003
6.900185e+002, 6.792520e+003
6.905006e+002, 6.823783e+003
6.909827e+002, 6.857533e+003
6.914648e+002, 6.894186e+003
6.919470e+002, 6.935825e+003
6.924291e+002, 6.988673e+003
6.929112e+002, 7.051212e+003
6.933933e+002, 7.114873e+003
6.938754e+002, 7.173331e+003
6.943575e+002, 7.233450e+003
6.948397e+002, 7.300009e+003
6.953218e+002, 7.373986e+003
6.958039e+002, 7.450788e+003
6.962860e+002, 7.533947e+003
6.967681e+002, 7.616392e+003
6.972502e+002, 7.694479e+003
6.977324e+002, 7.765784e+003
6.982145e+002, 7.844239e+003
6.986966e+002, 7.931694e+003
6.991787e+002, 8.021267e+003
6.996608e+002, 8.107639e+003
7.001429e+002, 8.190133e+003
7.006251e+002, 8.270344e+003
7.011072e+002, 8.349234e+003
7.015893e+002, 8.420809e+003
7.020714e+002, 8.477729e+003
7.025535e+002, 8.523799e+003
7.030356e+002, 8.565518e+003
7.035178e+002, 8.609759e+003
7.039999e+002, 8.639956e+003
7.044820e+002, 8.647311e+003
7.049641e+002, 8.637163e+003
7.054462e+002, 8.617815e+003
7.059283e+002, 8.594954e+003
7.064105e+002, 8.555904e+003
7.068926e+002, 8.498759e+003
7.073747e+002, 8.424490e+003
7.078568e+002, 8.332718e+003
7.083389e+002, 8.222200e+003
7.088210e+002, 8.106669e+003
7.093032e+002, 7.990716e+003
7.097853e+002, 7.872271e+003
7.102674e+002, 7.751549e+003
7.107495e+002, 7.626214e+003
7.112316e+002, 7.490942e+003
7.117137e+002, 7.333580e+003
7.121959e+002, 7.172991e+003
7.126780e+002, 7.020635e+003
7.131601e+002, 6.876463e+003
7.136422e+002, 6.742090e+003
7.141243e+002, 6.625165e+003
7.146064e+002, 6.509237e+003
7.150886e+002, 6.385786e+003
7.155707e+002, 6.253370e+003
7.160528e+002, 6.131289e+003
7.165349e+002, 6.018336e+003
7.170170e+002, 5.916350e+003
7.174991e+002, 5.827214e+003
7.179813e+002, 5.750466e+003
7.184634e+002, 5.675989e+003
7.189455e+002, 5.603857e+003
7.194276e+002, 5.535840e+003
7.199097e+002, 5.473325e+003
7.203918e+002, 5.415748e+003
7.208740e+002, 5.364167e+003
7.213561e+002, 5.318766e+003
7.218382e+002, 5.275819e+003
7.223203e+002, 5.231170e+003
7.228024e+002, 5.189019e+003
7.232845e+002, 5.152582e+003
7.237667e+002, 5.122585e+003
7.242488e+002, 5.097157e+003
7.247309e+002, 5.077522e+003
7.252130e+002, 5.060790e+003
7.256951e+002, 5.043863e+003
7.261772e+002, 5.026831e+003
7.266594e+002, 5.008881e+003
7.271415e+002, 4.989666e+003
7.276236e+002, 4.971144e+003
7.281057e+002, 4.956952e+003
7.285878e+002, 4.945585e+003
7.290699e+002, 4.932552e+003
7.295521e+002, 4.913603e+003
7.300342e+002, 4.897090e+003
7.305163e+002, 4.890717e+003
7.309984e+002, 4.890343e+003
7.314805e+002, 4.888565e+003
7.319626e+002, 4.883654e+003
7.324448e+002, 4.876891e+003
7.329269e+002, 4.865678e+003
7.334090e+002, 4.853422e+003
7.338911e+002, 4.851974e+003
7.343732e+002, 4.865670e+003
7.348553e+002, 4.871791e+003
7.353375e+002, 4.860091e+003
7.358196e+002, 4.838638e+003
7.363017e+002, 4.828163e+003
7.367838e+002, 4.827447e+003
7.372659e+002, 4.829056e+003
7.377480e+002, 4.831080e+003
7.382302e+002, 4.831961e+003
7.387123e+002, 4.828892e+003
7.391944e+002, 4.822874e+003
7.396765e+002, 4.818915e+003
7.401586e+002, 4.818245e+003
7.406407e+002, 4.820569e+003
7.411229e+002, 4.824963e+003
7.416050e+002, 4.831494e+003
7.420871e+002, 4.846536e+003
7.425692e+002, 4.875956e+003
7.430513e+002, 4.900204e+003
7.435334e+002, 4.904061e+003
7.440156e+002, 4.891502e+003
7.444977e+002, 4.897400e+003
7.449798e+002, 4.921736e+003
7.454619e+002, 4.950494e+003
7.459440e+002, 4.972804e+003
7.464261e+002, 4.992944e+003
7.469083e+002, 5.015294e+003
7.473904e+002, 5.040196e+003
7.478725e+002, 5.070589e+003
7.483546e+002, 5.116572e+003
7.488367e+002, 5.161681e+003
7.493188e+002, 5.192283e+003
7.498010e+002, 5.199492e+003
7.502831e+002, 5.220973e+003
7.507652e+002, 5.263158e+003
7.512473e+002, 5.309677e+003
7.517294e+002, 5.346759e+003
7.522115e+002, 5.374296e+003
7.526937e+002, 5.408358e+003
7.531758e+002, 5.450323e+003
7.536579e+002, 5.497011e+003
7.541400e+002, 5.550858e+003
7.546221e+002, 5.605492e+003
7.551042e+002, 5.650206e+003
7.555864e+002, 5.680794e+003
7.560685e+002, 5.708847e+003
7.565506e+002, 5.741413e+003
7.570327e+002, 5.773960e+003
7.575148e+002, 5.801020e+003
7.579969e+002, 5.819757e+003
7.584791e+002, 5.837521e+003
7.589612e+002, 5.856388e+003
7.594433e+002, 5.871959e+003
7.599254e+002, 5.879041e+003
7.604075e+002, 5.877597e+003
7.608896e+002, 5.868521e+003
7.613718e+002, 5.852190e+003
7.618539e+002, 5.827245e+003
7.623360e+002, 5.785919e+003
7.628181e+002, 5.735362e+003
7.633002e+002, 5.691539e+003
7.637823e+002, 5.664087e+003
7.642645e+002, 5.634502e+003
7.647466e+002, 5.592001e+003
7.652287e+002, 5.541369e+003
7.657108e+002, 5.488466e+003
7.661929e+002, 5.432348e+003
7.666750e+002, 5.376945e+003
7.671572e+002, 5.321630e+003
7.676393e+002, 5.268179e+003
7.681214e+002, 5.218073e+003
7.686035e+002, 5.171106e+003
7.690856e+002, 5.133031e+003
7.695677e+002, 5.107539e+003
7.700499e+002, 5.086581e+003
7.705320e+002, 5.053035e+003
7.710141e+002, 5.013763e+003
7.714962e+002, 4.986534e+003
7.719783e+002, 4.994062e+003
7.724604e+002, 4.999501e+003
7.729426e+002, 4.980407e+003
7.734247e+002, 4.945333e+003
7.739068e+002, 4.914055e+003
7.743889e+002, 4.888109e+003
7.748710e+002, 4.867644e+003
7.753531e+002, 4.854310e+003
7.758353e+002, 4.845798e+003
7.763174e+002, 4.834856e+003
7.767995e+002, 4.821382e+003
7.772816e+002, 4.810867e+003
7.777637e+002, 4.806982e+003
7.782458e+002, 4.805494e+003
7.787280e+002, 4.799034e+003
7.792101e+002, 4.788833e+003
7.796922e+002, 4.778922e+003
7.801743e+002, 4.771188e+003
7.806564e+002, 4.764214e+003
7.811385e+002, 4.755224e+003
7.816207e+002, 4.745777e+003
7.821028e+002, 4.743309e+003
7.825849e+002, 4.752430e+003
7.830670e+002, 4.761484e+003
7.835491e+002, 4.768052e+003
7.840313e+002, 4.772037e+003
7.845134e+002, 4.771729e+003
7.849955e+002, 4.766971e+003
7.854776e+002, 4.765301e+003
7.859597e+002, 4.774581e+003
7.864418e+002, 4.785907e+003
7.869240e+002, 4.780865e+003
7.874061e+002, 4.764416e+003
7.878882e+002, 4.754938e+003
7.883703e+002, 4.767061e+003
7.888524e+002, 4.783433e+003
7.893345e+002, 4.797267e+003
7.898167e+002, 4.808267e+003
7.902988e+002, 4.816302e+003
7.907809e+002, 4.820068e+003
7.912630e+002, 4.823540e+003
7.917451e+002, 4.827810e+003
7.922272e+002, 4.832962e+003
7.927094e+002, 4.840005e+003
7.931915e+002, 4.848836e+003
7.936736e+002, 4.857798e+003
7.941557e+002, 4.866949e+003
7.946378e+002, 4.875001e+003
7.951199e+002, 4.880393e+003
7.956021e+002, 4.883101e+003
7.960842e+002, 4.883405e+003
7.965663e+002, 4.875704e+003
7.970484e+002, 4.871045e+003
7.975305e+002, 4.878003e+003
7.980126e+002, 4.894425e+003
7.984948e+002, 4.900989e+003
7.989769e+002, 4.893524e+003
7.994590e+002, 4.886379e+003
7.999411e+002, 4.886049e+003
8.004232e+002, 4.890655e+003
8.009053e+002, 4.891995e+003
8.013875e+002, 4.890648e+003
8.018696e+002, 4.892161e+003
8.023517e+002, 4.903823e+003
8.028338e+002, 4.917188e+003
8.033159e+002, 4.922354e+003
8.037980e+002, 4.920812e+003
8.042802e+002, 4.922239e+003
8.047623e+002, 4.928313e+003
8.052444e+002, 4.939511e+003
8.057265e+002, 4.956811e+003
8.062086e+002, 4.979489e+003
8.066907e+002, 5.002303e+003
8.071729e+002, 5.025811e+003
8.076550e+002, 5.046692e+003
8.081371e+002, 5.060072e+003
8.086192e+002, 5.071206e+003
8.091013e+002, 5.095553e+003
8.095834e+002, 5.131453e+003
8.100656e+002, 5.169382e+003
8.105477e+002, 5.205841e+003
8.110298e+002, 5.240612e+003
8.115119e+002, 5.272872e+003
8.119940e+002, 5.303201e+003
8.124761e+002, 5.335507e+003
8.129583e+002, 5.372767e+003
8.134404e+002, 5.409260e+003
8.139225e+002, 5.443036e+003
8.144046e+002, 5.474498e+003
8.148867e+002, 5.507595e+003
8.153688e+002, 5.542080e+003
8.158510e+002, 5.578025e+003
8.163331e+002, 5.619156e+003
8.168152e+002, 5.659592e+003
8.172973e+002, 5.688171e+003
8.177794e+002, 5.706666e+003
8.182615e+002, 5.721818e+003
8.187437e+002, 5.737396e+003
8.192258e+002, 5.749613e+003
8.197079e+002, 5.757310e+003
8.201900e+002, 5.760008e+003
8.206721e+002, 5.756917e+003
8.211542e+002, 5.746831e+003
8.216364e+002, 5.733731e+003
8.221185e+002, 5.719961e+003
8.226006e+002, 5.703675e+003
8.230827e+002, 5.675313e+003
8.235648e+002, 5.636477e+003
8.240469e+002, 5.597940e+003
8.245291e+002, 5.570911e+003
8.250112e+002, 5.542622e+003
8.254933e+002, 5.497304e+003
8.259754e+002, 5.439859e+003
8.264575e+002, 5.385248e+003
8.269396e+002, 5.341203e+003
8.274218e+002, 5.297443e+003
8.279039e+002, 5.252771e+003
8.283860e+002, 5.206263e+003
8.288681e+002, 5.154733e+003
8.293502e+002, 5.096046e+003
8.298323e+002, 5.042852e+003
8.303145e+002, 5.002415e+003
8.307966e+002, 4.966082e+003
8.312787e+002, 4.914010e+003
8.317608e+002, 4.851265e+003
8.322429e+002, 4.795315e+003
8.327250e+002, 4.762249e+003
8.332072e+002, 4.729122e+003
8.336893e+002, 4.677722e+003
8.341714e+002, 4.617028e+003
8.346535e+002, 4.572376e+003
8.351356e+002, 4.559620e+003
8.356177e+002, 4.535943e+003
8.360999e+002, 4.490087e+003
8.365820e+002, 4.432304e+003
8.370641e+002, 4.383981e+003
8.375462e+002, 4.344739e+003
8.380283e+002, 4.311239e+003
8.385104e+002, 4.285971e+003
8.389926e+002, 4.259405e+003
8.394747e+002, 4.217284e+003
8.399568e+002, 4.167288e+003
8.404389e+002, 4.122190e+003
8.409210e+002, 4.086345e+003
8.414031e+002, 4.056343e+003
8.418853e+002, 4.035199e+003
8.423674e+002, 4.017798e+003
8.428495e+002, 3.997982e+003
8.433316e+002, 3.976179e+003
8.438137e+002, 3.948735e+003
8.442958e+002, 3.913523e+003
8.447780e+002, 3.876402e+003
8.452601e+002, 3.846046e+003
8.457422e+002, 3.820693e+003
8.462243e+002, 3.795336e+003
8.467064e+002, 3.768323e+003
8.471885e+002, 3.741978e+003
8.476707e+002, 3.717527e+003
8.481528e+002, 3.694566e+003
8.486349e+002, 3.672558e+003
8.491170e+002, 3.650908e+003
8.495991e+002, 3.632324e+003
8.500812e+002, 3.619509e+003
8.505634e+002, 3.605644e+003
8.510455e+002, 3.578805e+003
8.515276e+002, 3.541789e+003
8.520097e+002, 3.517676e+003
8.524918e+002, 3.510709e+003
8.529739e+002, 3.507066e+003
8.534561e+002, 3.494754e+003
8.539382e+002, 3.478303e+003
8.544203e+002, 3.462248e+003
8.549024e+002, 3.446633e+003
8.553845e+002, 3.433948e+003
8.558666e+002, 3.424333e+003
8.563488e+002, 3.417837e+003
8.568309e+002, 3.416955e+003
8.573130e+002, 3.423911e+003
8.577951e+002, 3.416126e+003
8.582772e+002, 3.391468e+003
8.587593e+002, 3.366531e+003
8.592415e+002, 3.355123e+003
8.597236e+002, 3.353539e+003
8.602057e+002, 3.359257e+003
8.606878e+002, 3.371823e+003
8.611699e+002, 3.376543e+003
8.616520e+002, 3.357823e+003
8.621342e+002, 3.336172e+003
8.626163e+002, 3.324708e+003
8.630984e+002, 3.324032e+003
8.635805e+002, 3.321460e+003
8.640626e+002, 3.315872e+003
8.645447e+002, 3.312026e+003
8.650269e+002, 3.315556e+003
8.655090e+002, 3.322678e+003
8.659911e+002, 3.318363e+003
8.664732e+002, 3.304086e+003
8.669553e+002, 3.289586e+003
8.674374e+002, 3.279254e+003
8.679196e+002, 3.272311e+003
8.684017e+002, 3.269670e+003
8.688838e+002, 3.270635e+003
8.693659e+002, 3.270617e+003
8.698480e+002, 3.267773e+003
8.703301e+002, 3.266249e+003
8.708123e+002, 3.267656e+003
8.712944e+002, 3.270946e+003
8.717765e+002, 3.274382e+003
8.722586e+002, 3.277398e+003
8.727407e+002, 3.274080e+003
8.732228e+002, 3.257354e+003
8.737050e+002, 3.238147e+003
8.741871e+002, 3.226874e+003
8.746692e+002, 3.221854e+003
8.751513e+002, 3.219299e+003
8.756334e+002, 3.220737e+003
8.761155e+002, 3.221337e+003
8.765977e+002, 3.219948e+003
8.770798e+002, 3.217554e+003
8.775619e+002, 3.215308e+003
8.780440e+002, 3.213047e+003
8.785261e+002, 3.214306e+003
8.790082e+002, 3.221065e+003
8.794904e+002, 3.228075e+003
8.799725e+002, 3.226446e+003
8.804546e+002, 3.220800e+003
8.809367e+002, 3.220156e+003
8.814188e+002, 3.231771e+003
8.819009e+002, 3.237935e+003
8.823831e+002, 3.226571e+003
8.828652e+002, 3.210238e+003
8.833473e+002, 3.202379e+003
8.838294e+002, 3.206150e+003
8.843115e+002, 3.204440e+003
8.847936e+002, 3.194679e+003
8.852758e+002, 3.187018e+003
8.857579e+002, 3.197288e+003
8.862400e+002, 3.216487e+003
8.867221e+002, 3.221811e+003
8.872042e+002, 3.209727e+003
8.876863e+002, 3.199778e+003
8.881685e+002, 3.207858e+003
8.886506e+002, 3.218444e+003
8.891327e+002, 3.218798e+003
8.896148e+002, 3.206118e+003
8.900969e+002, 3.201555e+003
8.905790e+002, 3.207072e+003
8.910612e+002, 3.215425e+003
8.915433e+002, 3.224019e+003
8.920254e+002, 3.231806e+003
8.925075e+002, 3.233325e+003
8.929896e+002, 3.229347e+003
8.934717e+002, 3.226358e+003
8.939539e+002, 3.231082e+003
8.944360e+002, 3.235666e+003
8.949181e+002, 3.232871e+003
8.954002e+002, 3.224301e+003
8.958823e+002, 3.221466e+003
8.963644e+002, 3.227224e+003
8.968466e+002, 3.234592e+003
8.973287e+002, 3.242558e+003
8.978108e+002, 3.250370e+003
8.982929e+002, 3.255430e+003
8.987750e+002, 3.258291e+003
8.992571e+002, 3.262479e+003
8.997393e+002, 3.270114e+003
9.002214e+002, 3.278429e+003
9.007035e+002, 3.286069e+003
9.011856e+002, 3.292490e+003
9.016677e+002, 3.296625e+003
9.021498e+002, 3.295873e+003
9.026320e+002, 3.296128e+003
9.031141e+002, 3.298511e+003
9.035962e+002, 3.301026e+003
9.040783e+002, 3.300297e+003
9.045604e+002, 3.296639e+003
9.050425e+002, 3.294905e+003
9.055247e+002, 3.296040e+003
9.060068e+002, 3.297615e+003
9.064889e+002, 3.293989e+003
9.069710e+002, 3.291350e+003
9.074531e+002, 3.298644e+003
9.079352e+002, 3.322218e+003
9.084174e+002, 3.336784e+003
9.088995e+002, 3.333850e+003
9.093816e+002, 3.327244e+003
9.098637e+002, 3.324996e+003
9.103458e+002, 3.327063e+003
9.108279e+002, 3.328538e+003
9.113101e+002, 3.329381e+003
9.117922e+002, 3.331128e+003
9.122743e+002, 3.337216e+003
9.127564e+002, 3.343184e+003
9.132385e+002, 3.341331e+003
9.137206e+002, 3.333205e+003
9.142028e+002, 3.331452e+003
9.146849e+002, 3.347641e+003
9.151670e+002, 3.361780e+003
9.156491e+002, 3.367221e+003
9.161312e+002, 3.366337e+003
9.166133e+002, 3.368796e+003
9.170955e+002, 3.374729e+003
9.175776e+002, 3.378362e+003
9.180597e+002, 3.377152e+003
9.185418e+002, 3.373387e+003
9.190239e+002, 3.366958e+003
9.195060e+002, 3.360550e+003
9.199882e+002, 3.359405e+003
9.204703e+002, 3.372427e+003
9.209524e+002, 3.381153e+003
9.214345e+002, 3.378912e+003
9.219166e+002, 3.373889e+003
9.223987e+002, 3.377253e+003
9.228809e+002, 3.389745e+003
9.233630e+002, 3.396699e+003
9.238451e+002, 3.395250e+003
9.243272e+002, 3.395325e+003
9.248093e+002, 3.414961e+003
9.252914e+002, 3.439014e+003
9.257736e+002, 3.444493e+003
9.262557e+002, 3.424618e+003
9.267378e+002, 3.409154e+003
9.272199e+002, 3.413372e+003
9.277020e+002, 3.417936e+003
9.281841e+002, 3.411247e+003
9.286663e+002, 3.393397e+003
9.291484e+002, 3.387806e+003
9.296305e+002, 3.394903e+003
9.301126e+002, 3.404139e+003
9.305947e+002, 3.408784e+003
9.310768e+002, 3.411798e+003
9.315590e+002, 3.417319e+003
9.320411e+002, 3.424690e+003
9.325232e+002, 3.430646e+003
9.330053e+002, 3.434327e+003
9.334874e+002, 3.436251e+003
9.339695e+002, 3.437209e+003
9.344517e+002, 3.436381e+003
9.349338e+002, 3.429060e+003
9.354159e+002, 3.415021e+003
9.358980e+002, 3.410421e+003
9.363801e+002, 3.422086e+003
9.368622e+002, 3.438545e+003
9.373444e+002, 3.446899e+003
9.378265e+002, 3.450728e+003
9.383086e+002, 3.455372e+003
9.387907e+002, 3.462570e+003
9.392728e+002, 3.469718e+003
9.397549e+002, 3.474031e+003
9.402371e+002, 3.480345e+003
9.407192e+002, 3.495061e+003
9.412013e+002, 3.518577e+003
9.416834e+002, 3.531736e+003
9.421655e+002, 3.533367e+003
9.426476e+002, 3.534427e+003
9.431298e+002, 3.545091e+003
9.436119e+002, 3.559282e+003
9.440940e+002, 3.572389e+003
9.445761e+002, 3.583854e+003
9.450582e+002, 3.588879e+003
9.455403e+002, 3.576577e+003
9.460225e+002, 3.569855e+003
9.465046e+002, 3.577298e+003
9.469867e+002, 3.595518e+003
9.474688e+002, 3.610997e+003
9.479509e+002, 3.623821e+003
9.484330e+002, 3.638266e+003
9.489152e+002, 3.657157e+003
9.493973e+002, 3.676974e+003
9.498794e+002, 3.695076e+003
9.503615e+002, 3.711514e+003
9.508436e+002, 3.726441e+003
9.513257e+002, 3.740018e+003
9.518079e+002, 3.751198e+003
9.522900e+002, 3.758400e+003
9.527721e+002, 3.765267e+003
9.532542e+002, 3.777326e+003
9.537363e+002, 3.793614e+003
9.542184e+002, 3.806797e+003
9.547006e+002, 3.816029e+003
9.551827e+002, 3.823005e+003
9.556648e+002, 3.823150e+003
9.561469e+002, 3.826026e+003
9.566290e+002, 3.843350e+003
9.571111e+002, 3.878960e+003
9.575933e+002, 3.902238e+003
9.580754e+002, 3.906932e+003
9.585575e+002, 3.909636e+003
9.590396e+002, 3.916542e+003
9.595217e+002, 3.927979e+003
9.600038e+002, 3.945927e+003
9.604860e+002, 3.969922e+003
9.609681e+002, 3.997668e+003
9.614502e+002, 4.035083e+003
9.619323e+002, 4.068298e+003
9.624144e+002, 4.085684e+003
9.628965e+002, 4.093214e+003
9.633787e+002, 4.103348e+003
9.638608e+002, 4.114912e+003
9.643429e+002, 4.135376e+003
9.648250e+002, 4.169659e+003
9.653071e+002, 4.203714e+003
9.657892e+002, 4.212280e+003
9.662714e+002, 4.205964e+003
9.667535e+002, 4.212581e+003
9.672356e+002, 4.238348e+003
9.677177e+002, 4.265390e+003
9.681998e+002, 4.283595e+003
9.686819e+002, 4.299553e+003
9.691641e+002, 4.318169e+003
9.696462e+002, 4.340160e+003
9.701283e+002, 4.359108e+003
9.706104e+002, 4.375692e+003
9.710925e+002, 4.386670e+003
9.715746e+002, 4.381946e+003
9.720568e+002, 4.375168e+003
9.725389e+002, 4.397352e+003
9.730210e+002, 4.439980e+003
9.735031e+002, 4.474325e+003
9.739852e+002, 4.488479e+003
9.744673e+002, 4.491909e+003
9.749495e+002, 4.481324e+003
9.754316e+002, 4.465438e+003
9.759137e+002, 4.458705e+003
9.763958e+002, 4.461415e+003
9.768779e+002, 4.470043e+003
9.773600e+002, 4.485800e+003
9.778422e+002, 4.499437e+003
9.783243e+002, 4.499136e+003
9.788064e+002, 4.491961e+003
9.792885e+002, 4.487449e+003
9.797706e+002, 4.488774e+003
9.802527e+002, 4.484375e+003
9.807349e+002, 4.468069e+003
9.812170e+002, 4.451716e+003
9.816991e+002, 4.442457e+003
9.821812e+002, 4.439009e+003
9.826633e+002, 4.432899e+003
9.831454e+002, 4.424025e+003
9.836276e+002, 4.411727e+003
9.841097e+002, 4.388712e+003
9.845918e+002, 4.368317e+003
9.850739e+002, 4.366341e+003
9.855560e+002, 4.374812e+003
9.860381e+002, 4.371720e+003
9.865203e+002, 4.350047e+003
9.870024e+002, 4.328853e+003
9.874845e+002, 4.311064e+003
9.879666e+002, 4.293604e+003
9.884487e+002, 4.271747e+003
9.889308e+002, 4.246679e+003
9.894130e+002, 4.220217e+003
9.898951e+002, 4.192130e+003
9.903772e+002, 4.167483e+003
9.908593e+002, 4.149966e+003
9.913414e+002, 4.136546e+003
9.918235e+002, 4.126556e+003
9.923057e+002, 4.120145e+003
9.927878e+002, 4.107184e+003
9.932699e+002, 4.086202e+003
9.937520e+002, 4.067102e+003
9.942341e+002, 4.058093e+003
9.947162e+002, 4.052050e+003
9.951984e+002, 4.033115e+003
9.956805e+002, 4.006895e+003
9.961626e+002, 3.989269e+003
9.966447e+002, 3.994619e+003
9.971268e+002, 3.998242e+003
9.976089e+002, 3.992769e+003
9.980911e+002, 3.984486e+003
9.985732e+002, 3.984161e+003
9.990553e+002, 3.991642e+003
9.995374e+002, 3.989208e+003
1.000020e+003, 3.973613e+003
1.000502e+003, 3.958163e+003
1.000984e+003, 3.957323e+003
1.001466e+003, 3.961318e+003
1.001948e+003, 3.958650e+003
1.002430e+003, 3.946881e+003
1.002912e+003, 3.946472e+003
1.003394e+003, 3.965207e+003
1.003876e+003, 3.982066e+003
1.004359e+003, 3.987441e+003
1.004841e+003, 3.985318e+003
1.005323e+003, 3.985775e+003
1.005805e+003, 3.989132e+003
1.006287e+003, 3.996656e+003
1.006769e+003, 4.010893e+003
1.007251e+003, 4.027068e+003
1.007733e+003, 4.041393e+003
1.008216e+003, 4.056883e+003
1.008698e+003, 4.077927e+003
1.009180e+003, 4.107678e+003
1.009662e+003, 4.130384e+003
1.010144e+003, 4.143702e+003
1.010626e+003, 4.157300e+003
1.011108e+003, 4.182070e+003
1.011590e+003, 4.212139e+003
1.012072e+003, 4.238044e+003
1.012555e+003, 4.259575e+003
1.013037e+003, 4.282721e+003
1.013519e+003, 4.309193e+003
1.014001e+003, 4.338126e+003
1.014483e+003, 4.369822e+003
1.014965e+003, 4.403813e+003
1.015447e+003, 4.439915e+003
1.015929e+003, 4.477664e+003
1.016411e+003, 4.509794e+003
1.016894e+003, 4.531638e+003
1.017376e+003, 4.552433e+003
1.017858e+003, 4.581998e+003
1.018340e+003, 4.614231e+003
1.018822e+003, 4.640710e+003
1.019304e+003, 4.656856e+003
1.019786e+003, 4.677228e+003
1.020268e+003, 4.703127e+003
1.020751e+003, 4.729947e+003
1.021233e+003, 4.753929e+003
1.021715e+003, 4.776292e+003
1.022197e+003, 4.800555e+003
1.022679e+003, 4.826263e+003
1.023161e+003, 4.849813e+003
1.023643e+003, 4.866463e+003
1.024125e+003, 4.883822e+003
1.024607e+003, 4.904945e+003
1.025090e+003, 4.928778e+003
1.025572e+003, 4.953685e+003
1.026054e+003, 4.979912e+003
1.026536e+003, 5.006433e+003
1.027018e+003, 5.034237e+003
1.027500e+003, 5.058184e+003
1.027982e+003, 5.069251e+003
1.028464e+003, 5.075306e+003
1.028947e+003, 5.084938e+003
1.029429e+003, 5.099458e+003
1.029911e+003, 5.119292e+003
1.030393e+003, 5.150080e+003
1.030875e+003, 5.175244e+003
1.031357e+003, 5.183489e+003
1.031839e+003, 5.180835e+003
1.032321e+003, 5.186389e+003
1.032803e+003, 5.199310e+003
1.033286e+003, 5.216096e+003
1.033768e+003, 5.238482e+003
1.034250e+003, 5.260235e+003
1.034732e+003, 5.277560e+003
1.035214e+003, 5.293327e+003
1.035696e+003, 5.312556e+003
1.036178e+003, 5.337480e+003
1.036660e+003, 5.352190e+003
1.037143e+003, 5.354239e+003
1.037625e+003, 5.355592e+003
1.038107e+003, 5.368345e+003
1.038589e+003, 5.386372e+003
1.039071e+003, 5.402832e+003
1.039553e+003, 5.417216e+003
1.040035e+003, 5.429653e+003
1.040517e+003, 5.440453e+003
1.041000e+003, 5.448882e+003
1.041482e+003, 5.454324e+003
1.041964e+003, 5.457511e+003
1.042446e+003, 5.457917e+003
1.042928e+003, 5.457102e+003
1.043410e+003, 5.462942e+003
1.043892e+003, 5.482115e+003
1.044374e+003, 5.495460e+003
1.044856e+003, 5.485625e+003
1.045339e+003, 5.468448e+003
1.045821e+003, 5.458187e+003
1.046303e+003, 5.456171e+003
1.046785e+003, 5.453303e+003
1.047267e+003, 5.449388e+003
1.047749e+003, 5.446464e+003
1.048231e+003, 5.449702e+003
1.048713e+003, 5.452078e+003
1.049195e+003, 5.441845e+003
1.049677e+003, 5.423024e+003
1.050160e+003, 5.407574e+003
1.050642e+003, 5.403852e+003
1.051124e+003, 5.396466e+003
1.051606e+003, 5.382704e+003
1.052088e+003, 5.366167e+003
1.052570e+003, 5.352225e+003
1.053052e+003, 5.339750e+003
1.053534e+003, 5.325983e+003
1.054017e+003, 5.310672e+003
1.054499e+003, 5.290638e+003
1.054981e+003, 5.259732e+003
1.055463e+003, 5.227114e+003
1.055945e+003, 5.196611e+003
1.056427e+003, 5.169110e+003
1.056909e+003, 5.153694e+003
1.057391e+003, 5.151950e+003
1.057874e+003, 5.143685e+003
1.058356e+003, 5.118848e+003
1.058838e+003, 5.091393e+003
1.059320e+003, 5.083059e+003
1.059802e+003, 5.081337e+003
1.060284e+003, 5.066488e+003
1.060766e+003, 5.022290e+003
1.061248e+003, 4.994594e+003
1.061730e+003, 4.989222e+003
1.062213e+003, 4.991812e+003
1.062695e+003, 4.995542e+003
1.063177e+003, 4.998675e+003
1.063659e+003, 4.994737e+003
1.064141e+003, 4.984364e+003
1.064623e+003, 4.970773e+003
1.065105e+003, 4.948676e+003
1.065587e+003, 4.931471e+003
1.066070e+003, 4.928184e+003
1.066552e+003, 4.930696e+003
1.067034e+003, 4.927115e+003
1.067516e+003, 4.917216e+003
1.067998e+003, 4.907769e+003
1.068480e+003, 4.899413e+003
1.068962e+003, 4.893708e+003
1.069444e+003, 4.897216e+003
1.069927e+003, 4.900353e+003
1.070409e+003, 4.891507e+003
1.070891e+003, 4.870321e+003
1.071373e+003, 4.858817e+003
1.071855e+003, 4.862264e+003
1.072337e+003, 4.862568e+003
1.072819e+003, 4.854346e+003
1.073301e+003, 4.839531e+003
1.073783e+003, 4.816106e+003
1.074266e+003, 4.789661e+003
1.074748e+003, 4.773048e+003
1.075230e+003, 4.775017e+003
1.075712e+003, 4.772002e+003
1.076194e+003, 4.757372e+003
1.076676e+003, 4.736392e+003
1.077158e+003, 4.709939e+003
1.077640e+003, 4.678906e+003
1.078122e+003, 4.651507e+003
1.078604e+003, 4.627546e+003
1.079087e+003, 4.605430e+003
1.079569e+003, 4.588992e+003
1.080051e+003, 4.569087e+003
1.080533e+003, 4.537773e+003
1.081015e+003, 4.500370e+003
1.081497e+003, 4.466573e+003
1.081979e+003, 4.438246e+003
1.082461e+003, 4.406212e+003
1.082944e+003, 4.369218e+003
1.083426e+003, 4.333189e+003
1.083908e+003, 4.305836e+003
1.084390e+003, 4.281903e+003
1.084872e+003, 4.255132e+003
1.085354e+003, 4.225282e+003
1.085836e+003, 4.196370e+003
1.086318e+003, 4.170238e+003
1.086801e+003, 4.141716e+003
1.087283e+003, 4.109069e+003
1.087765e+003, 4.074207e+003
1.088247e+003, 4.038898e+003
1.088729e+003, 4.004275e+003
1.089211e+003, 3.974467e+003
1.089693e+003, 3.951010e+003
1.090175e+003, 3.927659e+003
1.090657e+003, 3.904028e+003
1.091140e+003, 3.877082e+003
1.091622e+003, 3.842542e+003
1.092104e+003, 3.802622e+003
1.092586e+003, 3.779356e+003
1.093068e+003, 3.770861e+003
1.093550e+003, 3.755242e+003
1.094032e+003, 3.715213e+003
1.094514e+003, 3.675692e+003
1.094997e+003, 3.658271e+003
1.095479e+003, 3.650714e+003
1.095961e+003, 3.635964e+003
1.096443e+003, 3.611174e+003
1.096925e+003, 3.585602e+003
1.097407e+003, 3.558411e+003
1.097889e+003, 3.535330e+003
1.098371e+003, 3.525613e+003
1.098854e+003, 3.519566e+003
1.099336e+003, 3.505138e+003
1.099818e+003, 3.483419e+003
1.100300e+003, 3.460064e+003
1.100782e+003, 3.432978e+003
1.101264e+003, 3.410176e+003
1.101746e+003, 3.393283e+003
1.102228e+003, 3.380172e+003
1.102710e+003, 3.369796e+003
1.103193e+003, 3.360789e+003
1.103675e+003, 3.349009e+003
1.104157e+003, 3.334050e+003
1.104639e+003, 3.319667e+003
1.105121e+003, 3.308833e+003
1.105603e+003, 3.296926e+003
1.106085e+003, 3.279735e+003
1.106567e+003, 3.261313e+003
1.107049e+003, 3.257670e+003
1.107531e+003, 3.266331e+003
1.108014e+003, 3.267564e+003
1.108496e+003, 3.254066e+003
1.108978e+003, 3.238921e+003
1.109460e+003, 3.231203e+003
1.109942e+003, 3.225961e+003
1.110424e+003, 3.218271e+003
1.110906e+003, 3.207646e+003
1.111388e+003, 3.203790e+003
1.111871e+003, 3.207432e+003
1.112353e+003, 3.207005e+003
1.112835e+003, 3.194329e+003
1.113317e+003, 3.177863e+003
1.113799e+003, 3.164427e+003
1.114281e+003, 3.154544e+003
1.114763e+003, 3.149498e+003
1.115245e+003, 3.156409e+003
1.115728e+003, 3.152577e+003
1.116210e+003, 3.135150e+003
1.116692e+003, 3.116632e+003
1.117174e+003, 3.108523e+003
1.117656e+003, 3.106004e+003
1.118138e+003, 3.101700e+003
1.118620e+003, 3.095193e+003
1.119102e+003, 3.085888e+003
1.119584e+003, 3.066672e+003
1.120067e+003, 3.054719e+003
1.120549e+003, 3.054595e+003
1.121031e+003, 3.059357e+003
1.121513e+003, 3.062589e+003
1.121995e+003, 3.062762e+003
1.122477e+003, 3.053190e+003
1.122959e+003, 3.033356e+003
1.123441e+003, 3.012622e+003
1.123924e+003, 2.991294e+003
1.124406e+003, 2.975741e+003
1.124888e+003, 2.970888e+003
1.125370e+003, 2.972114e+003
1.125852e+003, 2.966077e+003
1.126334e+003, 2.953489e+003
1.126816e+003, 2.942212e+003
1.127298e+003, 2.933965e+003
1.127781e+003, 2.928251e+003
1.128263e+003, 2.930212e+003
1.128745e+003, 2.930309e+003
1.129227e+003, 2.918839e+003
1.129709e+003, 2.896469e+003
1.130191e+003, 2.877560e+003
1.130673e+003, 2.861987e+003
1.131155e+003, 2.849432e+003
1.131637e+003, 2.839618e+003
1.132120e+003, 2.832699e+003
1.132602e+003, 2.832164e+003
1.133084e+003, 2.833097e+003
1.133566e+003, 2.827721e+003
1.134048e+003, 2.811251e+003
1.134530e+003, 2.802683e+003
1.135012e+003, 2.803990e+003
1.135494e+003, 2.805046e+003
1.135976e+003, 2.797478e+003
1.136458e+003, 2.786694e+003
1.136941e+003, 2.781970e+003
1.137423e+003, 2.781124e+003
1.137905e+003, 2.778837e+003
1.138387e+003, 2.774112e+003
1.138869e+003, 2.766484e+003
1.139351e+003, 2.754743e+003
1.139833e+003, 2.742811e+003
1.140315e+003, 2.733631e+003
1.140798e+003, 2.727586e+003
1.141280e+003, 2.727157e+003
1.141762e+003, 2.731402e+003
1.142244e+003, 2.734341e+003
1.142726e+003, 2.733589e+003
1.143208e+003, 2.731166e+003
1.143690e+003, 2.728305e+003
1.144172e+003, 2.723288e+003
1.144655e+003, 2.710145e+003
1.145137e+003, 2.692327e+003
1.145619e+003, 2.685287e+003
1.146101e+003, 2.691138e+003
1.146583e+003, 2.693379e+003
1.147065e+003, 2.675189e+003
1.147547e+003, 2.660051e+003
1.148029e+003, 2.661279e+003
1.148511e+003, 2.672024e+003
1.148994e+003, 2.671014e+003
1.149476e+003, 2.659926e+003
1.149958e+003, 2.654016e+003
1.150440e+003, 2.657192e+003
1.150922e+003, 2.663723e+003
1.151404e+003, 2.671445e+003
1.151886e+003, 2.679239e+003
1.152368e+003, 2.687414e+003
1.152851e+003, 2.695364e+003
1.153333e+003, 2.696273e+003
1.153815e+003, 2.690072e+003
1.154297e+003, 2.682186e+003
1.154779e+003, 2.673470e+003
1.155261e+003, 2.666322e+003
1.155743e+003, 2.663333e+003
1.156225e+003, 2.663072e+003
1.156708e+003, 2.665010e+003
1.157190e+003, 2.669999e+003
1.157672e+003, 2.668257e+003
1.158154e+003, 2.658692e+003
1.158636e+003, 2.652196e+003
1.159118e+003, 2.658690e+003
1.159600e+003, 2.667196e+003
1.160082e+003, 2.664934e+003
1.160564e+003, 2.656255e+003
1.161047e+003, 2.648594e+003
1.161529e+003, 2.643347e+003
1.162011e+003, 2.637661e+003
1.162493e+003, 2.630415e+003
1.162975e+003, 2.627466e+003
1.163457e+003, 2.639224e+003
1.163939e+003, 2.653961e+003
1.164421e+003, 2.652684e+003
1.164903e+003, 2.640249e+003
1.165385e+003, 2.632211e+003
1.165868e+003, 2.639623e+003
1.166350e+003, 2.635402e+003
1.166832e+003, 2.613280e+003
1.167314e+003, 2.591121e+003
1.167796e+003, 2.589862e+003
1.168278e+003, 2.600538e+003
1.168760e+003, 2.609910e+003
1.169242e+003, 2.616723e+003
1.169725e+003, 2.618979e+003
1.170207e+003, 2.612263e+003
1.170689e+003, 2.606286e+003
1.171171e+003, 2.602089e+003
1.171653e+003, 2.600052e+003
1.172135e+003, 2.601146e+003
1.172617e+003, 2.604740e+003
1.173099e+003, 2.611000e+003
1.173582e+003, 2.619732e+003
1.174064e+003, 2.623877e+003
1.174546e+003, 2.615660e+003
1.175028e+003, 2.609020e+003
1.175510e+003, 2.607557e+003
1.175992e+003, 2.609543e+003
1.176474e+003, 2.614143e+003
1.176956e+003, 2.619144e+003
1.177438e+003, 2.616457e+003
1.177921e+003, 2.603396e+003
1.178403e+003, 2.593522e+003
1.178885e+003, 2.597918e+003
1.179367e+003, 2.600017e+003
1.179849e+003, 2.591952e+003
1.180331e+003, 2.577831e+003
1.180813e+003, 2.569225e+003
1.181295e+003, 2.565780e+003
1.181778e+003, 2.567308e+003
1.182260e+003, 2.576108e+003
1.182742e+003, 2.581109e+003
1.183224e+003, 2.571842e+003
1.183706e+003, 2.562859e+003
1.184188e+003, 2.562348e+003
1.184670e+003, 2.568896e+003
1.185152e+003, 2.577014e+003
1.185635e+003, 2.585613e+003
1.186117e+003, 2.588933e+003
1.186599e+003, 2.581359e+003
1.187081e+003, 2.575274e+003
1.187563e+003, 2.580687e+003
1.188045e+003, 2.586465e+003
1.188527e+003, 2.582998e+003
1.189009e+003, 2.571417e+003
1.189491e+003, 2.565987e+003
1.189974e+003, 2.566321e+003
1.190456e+003, 2.569712e+003
1.190938e+003, 2.578919e+003
1.191420e+003, 2.585301e+003
1.191902e+003, 2.581768e+003
1.192384e+003, 2.575336e+003
1.192866e+003, 2.573664e+003
1.193348e+003, 2.576926e+003
1.193830e+003, 2.573799e+003
1.194313e+003, 2.564949e+003
1.194795e+003, 2.558979e+003
1.195277e+003, 2.566277e+003
1.195759e+003, 2.571952e+003
1.196241e+003, 2.563112e+003
1.196723e+003, 2.550870e+003
1.197205e+003, 2.551137e+003
1.197687e+003, 2.564457e+003
1.198169e+003, 2.568206e+003
1.198652e+003, 2.561736e+003
1.199134e+003, 2.555085e+003
1.199616e+003, 2.555360e+003
1.200098e+003, 2.557245e+003
1.200580e+003, 2.557088e+003
1.201062e+003, 2.556800e+003
1.201544e+003, 2.561812e+003
1.202026e+003, 2.572554e+003
1.202509e+003, 2.568479e+003
1.202991e+003, 2.547612e+003
1.203473e+003, 2.532109e+003
1.203955e+003, 2.542851e+003
1.204437e+003, 2.559378e+003
1.204919e+003, 2.569700e+003
1.205401e+003, 2.575695e+003
1.205883e+003, 2.582281e+003
1.206365e+003, 2.589548e+003
1.206848e+003, 2.593145e+003
1.207330e+003, 2.592269e+003
1.207812e+003, 2.591528e+003
1.208294e+003, 2.598470e+003
1.208776e+003, 2.603077e+003
1.209258e+003, 2.593095e+003
1.209740e+003, 2.575941e+003
1.210222e+003, 2.573545e+003
1.210705e+003, 2.586084e+003
1.211187e+003, 2.597875e+003
1.211669e+003, 2.606142e+003
1.212151e+003, 2.613612e+003
1.212633e+003, 2.623818e+003
1.213115e+003, 2.632744e+003
1.213597e+003, 2.636119e+003
1.214079e+003, 2.635712e+003
1.214562e+003, 2.637573e+003
1.215044e+003, 2.641657e+003
1.215526e+003, 2.645942e+003
1.216008e+003, 2.650338e+003
1.216490e+003, 2.652894e+003
1.216972e+003, 2.650523e+003
1.217454e+003, 2.646939e+003
1.217936e+003, 2.642823e+003
1.218418e+003, 2.639738e+003
1.218901e+003, 2.649465e+003
1.219383e+003, 2.671186e+003
1.219865e+003, 2.685047e+003
1.220347e+003, 2.683827e+003
1.220829e+003, 2.679901e+003
1.221311e+003, 2.679412e+003
1.221793e+003, 2.682748e+003
1.222275e+003, 2.691910e+003
1.222757e+003, 2.705333e+003
1.223240e+003, 2.711115e+003
1.223722e+003, 2.709914e+003
1.224204e+003, 2.709990e+003
1.224686e+003, 2.714495e+003
1.225168e+003, 2.719905e+003
1.225650e+003, 2.724140e+003
1.226132e+003, 2.728242e+003
1.226614e+003, 2.733392e+003
1.227096e+003, 2.739296e+003
1.227579e+003, 2.742459e+003
1.228061e+003, 2.743288e+003
1.228543e+003, 2.745374e+003
1.229025e+003, 2.750440e+003
1.229507e+003, 2.756094e+003
1.229989e+003, 2.763133e+003
1.230471e+003, 2.768052e+003
1.230953e+003, 2.768030e+003
1.231436e+003, 2.763481e+003
1.231918e+003, 2.755037e+003
1.232400e+003, 2.744439e+003
1.232882e+003, 2.744947e+003
1.233364e+003, 2.771954e+003
1.233846e+003, 2.792227e+003
1.234328e+003, 2.780344e+003
1.234810e+003, 2.764088e+003
1.235292e+003, 2.765564e+003
1.235775e+003, 2.781520e+003
1.236257e+003, 2.784268e+003
1.236739e+003, 2.775981e+003
1.237221e+003, 2.768049e+003
1.237703e+003, 2.762429e+003
1.238185e+003, 2.762980e+003
1.238667e+003, 2.780463e+003
1.239149e+003, 2.795267e+003
1.239632e+003, 2.789670e+003
1.240114e+003, 2.768542e+003
1.240596e+003, 2.759805e+003
1.241078e+003, 2.761962e+003
1.241560e+003, 2.768554e+003
1.242042e+003, 2.787306e+003
1.242524e+003, 2.793632e+003
1.243006e+003, 2.774237e+003
1.243489e+003, 2.751010e+003
1.243971e+003, 2.740715e+003
1.244453e+003, 2.740848e+003
1.244935e+003, 2.743892e+003
1.245417e+003, 2.748644e+003
1.245899e+003, 2.750600e+003
1.246381e+003, 2.747485e+003
1.246863e+003, 2.740968e+003
1.247345e+003, 2.727385e+003
1.247828e+003, 2.718182e+003
1.248310e+003, 2.729271e+003
1.248792e+003, 2.750482e+003
1.249274e+003, 2.753986e+003
1.249756e+003, 2.743154e+003
1.250238e+003, 2.730800e+003
1.250720e+003, 2.714699e+003
1.251202e+003, 2.709285e+003
1.251684e+003, 2.718890e+003
1.252167e+003, 2.730823e+003
1.252649e+003, 2.734469e+003
1.253131e+003, 2.732526e+003
1.253613e+003, 2.729071e+003
1.254095e+003, 2.724641e+003
1.254577e+003, 2.720755e+003
1.255059e+003, 2.720930e+003
1.255541e+003, 2.714744e+003
1.256023e+003, 2.700081e+003
1.256506e+003, 2.684502e+003
1.256988e+003, 2.672254e+003
1.257470e+003, 2.664764e+003
1.257952e+003, 2.668336e+003
1.258434e+003, 2.678346e+003
1.258916e+003, 2.680421e+003
1.259398e+003, 2.670004e+003
1.259880e+003, 2.660162e+003
1.260363e+003, 2.651005e+003
1.260845e+003, 2.646429e+003
1.261327e+003, 2.655410e+003
1.261809e+003, 2.665855e+003
1.262291e+003, 2.661501e+003
1.262773e+003, 2.649158e+003
1.263255e+003, 2.649108e+003
1.263737e+003, 2.667067e+003
1.264219e+003, 2.670247e+003
1.264702e+003, 2.655400e+003
1.265184e+003, 2.641888e+003
1.265666e+003, 2.649636e+003
1.266148e+003, 2.659747e+003
1.266630e+003, 2.655532e+003
1.267112e+003, 2.643659e+003
1.267594e+003, 2.640340e+003
1.268076e+003, 2.646684e+003
1.268559e+003, 2.641604e+003
1.269041e+003, 2.623908e+003
1.269523e+003, 2.609989e+003
1.270005e+003, 2.615608e+003
1.270487e+003, 2.623291e+003
1.270969e+003, 2.619141e+003
1.271451e+003, 2.613204e+003
1.271933e+003, 2.622120e+003
1.272416e+003, 2.644127e+003
1.272898e+003, 2.657547e+003
1.273380e+003, 2.661092e+003
1.273862e+003, 2.657435e+003
1.274344e+003, 2.643375e+003
1.274826e+003, 2.627848e+003
1.275308e+003, 2.611342e+003
1.275790e+003, 2.597753e+003
1.276272e+003, 2.591596e+003
1.276755e+003, 2.592538e+003
1.277237e+003, 2.603521e+003
1.277719e+003, 2.622266e+003
1.278201e+003, 2.633476e+003
1.278683e+003, 2.620217e+003
1.279165e+003, 2.613632e+003
1.279647e+003, 2.622215e+003
1.280129e+003, 2.633522e+003
1.280611e+003, 2.632768e+003
1.281094e+003, 2.624865e+003
1.281576e+003, 2.618679e+003
1.282058e+003, 2.614939e+003
1.282540e+003, 2.614846e+003
1.283022e+003, 2.621782e+003
1.283504e+003, 2.626758e+003
1.283986e+003, 2.629228e+003
1.284468e+003, 2.628369e+003
1.284950e+003, 2.619524e+003
1.285433e+003, 2.609529e+003
1.285915e+003, 2.608789e+003
1.286397e+003, 2.615194e+003
1.286879e+003, 2.619604e+003
1.287361e+003, 2.622023e+003
1.287843e+003, 2.617478e+003
1.288325e+003, 2.603987e+003
1.288807e+003, 2.596728e+003
1.289290e+003, 2.621792e+003
1.289772e+003, 2.646765e+003
1.290254e+003, 2.636535e+003
1.290736e+003, 2.606044e+003
1.291218e+003, 2.593987e+003
1.291700e+003, 2.602088e+003
1.292182e+003, 2.604448e+003
1.292664e+003, 2.599339e+003
1.293146e+003, 2.595958e+003
1.293629e+003, 2.603787e+003
1.294111e+003, 2.611836e+003
1.294593e+003, 2.613574e+003
1.295075e+003, 2.611938e+003
1.295557e+003, 2.609077e+003
1.296039e+003, 2.605541e+003
1.296521e+003, 2.608005e+003
1.297003e+003, 2.615615e+003
1.297486e+003, 2.618580e+003
1.297968e+003, 2.604461e+003
1.298450e+003, 2.595775e+003
1.298932e+003, 2.600516e+003
1.299414e+003, 2.608698e+003
1.299896e+003, 2.609125e+003
1.300378e+003, 2.604361e+003
1.300860e+003, 2.599745e+003
1.301343e+003, 2.596451e+003
1.301825e+003, 2.597583e+003
##END=



