##NAMES=Dreyerite
##RRUFFID=R130060
##IDEAL CHEMISTRY=Bi^3+^V^5+^O_4_
##LOCALITY=Ritter mine, Schneeberg District, Erzgebirge, Saxony, Germany
##OWNER=RRUFF
##SOURCE=William W. Pinch
##DESCRIPTION=Greenish-yellow milky tetragonal crystals, associated with waylandite, bismutite, and clear crystal of dreyerite R140327
##STATUS=The identification of this mineral has been confirmed only by single crystal X-ray diffraction.
##URL=rruff.info/R130060
8.975323e+001, 0.000000e+000
9.023535e+001, 1.430335e+004
9.071747e+001, 1.409471e+004
9.119958e+001, 1.396563e+004
9.168170e+001, 1.425166e+004
9.216382e+001, 1.450527e+004
9.264594e+001, 1.462538e+004
9.312805e+001, 1.464636e+004
9.361017e+001, 1.463168e+004
9.409229e+001, 1.459624e+004
9.457440e+001, 1.453124e+004
9.505651e+001, 1.445778e+004
9.553863e+001, 1.438442e+004
9.602074e+001, 1.431382e+004
9.650286e+001, 1.424678e+004
9.698498e+001, 1.417415e+004
9.746709e+001, 1.407297e+004
9.794921e+001, 1.399133e+004
9.843133e+001, 1.392994e+004
9.891344e+001, 1.388429e+004
9.939556e+001, 1.385108e+004
9.987768e+001, 1.382825e+004
1.003598e+002, 1.381455e+004
1.008419e+002, 1.380661e+004
1.013240e+002, 1.380879e+004
1.018061e+002, 1.382794e+004
1.022883e+002, 1.386990e+004
1.027704e+002, 1.392267e+004
1.032525e+002, 1.397510e+004
1.037346e+002, 1.402606e+004
1.042167e+002, 1.407986e+004
1.046988e+002, 1.413430e+004
1.051810e+002, 1.418978e+004
1.056631e+002, 1.424863e+004
1.061452e+002, 1.431457e+004
1.066273e+002, 1.438481e+004
1.071094e+002, 1.444886e+004
1.075915e+002, 1.450132e+004
1.080737e+002, 1.455272e+004
1.085558e+002, 1.460986e+004
1.090379e+002, 1.467004e+004
1.095200e+002, 1.472601e+004
1.100021e+002, 1.477064e+004
1.104842e+002, 1.480153e+004
1.109664e+002, 1.483236e+004
1.114485e+002, 1.486554e+004
1.119306e+002, 1.489698e+004
1.124127e+002, 1.492347e+004
1.128948e+002, 1.494506e+004
1.133769e+002, 1.496516e+004
1.138591e+002, 1.498793e+004
1.143412e+002, 1.501112e+004
1.148233e+002, 1.504304e+004
1.153054e+002, 1.508662e+004
1.157875e+002, 1.513692e+004
1.162696e+002, 1.518869e+004
1.167517e+002, 1.523997e+004
1.172339e+002, 1.529322e+004
1.177160e+002, 1.535523e+004
1.181981e+002, 1.542847e+004
1.186802e+002, 1.550222e+004
1.191623e+002, 1.557427e+004
1.196444e+002, 1.564428e+004
1.201266e+002, 1.571313e+004
1.206087e+002, 1.578384e+004
1.210908e+002, 1.584960e+004
1.215729e+002, 1.590239e+004
1.220550e+002, 1.594389e+004
1.225371e+002, 1.596957e+004
1.230193e+002, 1.597650e+004
1.235014e+002, 1.596511e+004
1.239835e+002, 1.593173e+004
1.244656e+002, 1.587060e+004
1.249477e+002, 1.578736e+004
1.254298e+002, 1.568168e+004
1.259120e+002, 1.555239e+004
1.263941e+002, 1.540312e+004
1.268762e+002, 1.524232e+004
1.273583e+002, 1.506488e+004
1.278404e+002, 1.488233e+004
1.283225e+002, 1.469661e+004
1.288047e+002, 1.450863e+004
1.292868e+002, 1.431942e+004
1.297689e+002, 1.412830e+004
1.302510e+002, 1.393608e+004
1.307331e+002, 1.375504e+004
1.312152e+002, 1.359181e+004
1.316974e+002, 1.343294e+004
1.321795e+002, 1.327439e+004
1.326616e+002, 1.311747e+004
1.331437e+002, 1.296774e+004
1.336258e+002, 1.283014e+004
1.341079e+002, 1.270649e+004
1.345901e+002, 1.258055e+004
1.350722e+002, 1.244811e+004
1.355543e+002, 1.231697e+004
1.360364e+002, 1.219331e+004
1.365185e+002, 1.207723e+004
1.370006e+002, 1.196309e+004
1.374828e+002, 1.184644e+004
1.379649e+002, 1.172629e+004
1.384470e+002, 1.160476e+004
1.389291e+002, 1.148198e+004
1.394112e+002, 1.135753e+004
1.398933e+002, 1.123126e+004
1.403755e+002, 1.110410e+004
1.408576e+002, 1.097344e+004
1.413397e+002, 1.083384e+004
1.418218e+002, 1.068642e+004
1.423039e+002, 1.054152e+004
1.427860e+002, 1.040540e+004
1.432681e+002, 1.027580e+004
1.437503e+002, 1.014288e+004
1.442324e+002, 1.000107e+004
1.447145e+002, 9.859652e+003
1.451966e+002, 9.725359e+003
1.456787e+002, 9.598556e+003
1.461608e+002, 9.476452e+003
1.466430e+002, 9.356713e+003
1.471251e+002, 9.238938e+003
1.476072e+002, 9.125545e+003
1.480893e+002, 9.015795e+003
1.485714e+002, 8.910573e+003
1.490535e+002, 8.810493e+003
1.495357e+002, 8.716119e+003
1.500178e+002, 8.626701e+003
1.504999e+002, 8.542798e+003
1.509820e+002, 8.465964e+003
1.514641e+002, 8.390115e+003
1.519462e+002, 8.312354e+003
1.524284e+002, 8.236077e+003
1.529105e+002, 8.163039e+003
1.533926e+002, 8.094358e+003
1.538747e+002, 8.029838e+003
1.543568e+002, 7.969305e+003
1.548389e+002, 7.915421e+003
1.553211e+002, 7.863270e+003
1.558032e+002, 7.812660e+003
1.562853e+002, 7.763515e+003
1.567674e+002, 7.716374e+003
1.572495e+002, 7.671521e+003
1.577316e+002, 7.628453e+003
1.582138e+002, 7.585148e+003
1.586959e+002, 7.538373e+003
1.591780e+002, 7.494811e+003
1.596601e+002, 7.457070e+003
1.601422e+002, 7.423957e+003
1.606243e+002, 7.392930e+003
1.611065e+002, 7.363219e+003
1.615886e+002, 7.334332e+003
1.620707e+002, 7.304694e+003
1.625528e+002, 7.272442e+003
1.630349e+002, 7.241358e+003
1.635170e+002, 7.214188e+003
1.639991e+002, 7.190624e+003
1.644813e+002, 7.168102e+003
1.649634e+002, 7.144731e+003
1.654455e+002, 7.121535e+003
1.659276e+002, 7.100667e+003
1.664097e+002, 7.083319e+003
1.668918e+002, 7.067514e+003
1.673740e+002, 7.051116e+003
1.678561e+002, 7.033970e+003
1.683382e+002, 7.017085e+003
1.688203e+002, 7.000533e+003
1.693024e+002, 6.984779e+003
1.697845e+002, 6.970558e+003
1.702667e+002, 6.958446e+003
1.707488e+002, 6.947937e+003
1.712309e+002, 6.937772e+003
1.717130e+002, 6.927392e+003
1.721951e+002, 6.918599e+003
1.726772e+002, 6.911509e+003
1.731594e+002, 6.906173e+003
1.736415e+002, 6.902861e+003
1.741236e+002, 6.902235e+003
1.746057e+002, 6.903756e+003
1.750878e+002, 6.903896e+003
1.755699e+002, 6.899711e+003
1.760521e+002, 6.897647e+003
1.765342e+002, 6.898972e+003
1.770163e+002, 6.903597e+003
1.774984e+002, 6.911306e+003
1.779805e+002, 6.922252e+003
1.784626e+002, 6.936493e+003
1.789448e+002, 6.950518e+003
1.794269e+002, 6.962611e+003
1.799090e+002, 6.976160e+003
1.803911e+002, 6.991583e+003
1.808732e+002, 7.009252e+003
1.813553e+002, 7.029592e+003
1.818375e+002, 7.053101e+003
1.823196e+002, 7.079990e+003
1.828017e+002, 7.108121e+003
1.832838e+002, 7.136972e+003
1.837659e+002, 7.167055e+003
1.842480e+002, 7.198220e+003
1.847301e+002, 7.230593e+003
1.852123e+002, 7.264703e+003
1.856944e+002, 7.300784e+003
1.861765e+002, 7.339070e+003
1.866586e+002, 7.379744e+003
1.871407e+002, 7.423119e+003
1.876228e+002, 7.468148e+003
1.881050e+002, 7.513750e+003
1.885871e+002, 7.559682e+003
1.890692e+002, 7.607534e+003
1.895513e+002, 7.659539e+003
1.900334e+002, 7.715482e+003
1.905155e+002, 7.771180e+003
1.909977e+002, 7.825925e+003
1.914798e+002, 7.880100e+003
1.919619e+002, 7.934653e+003
1.924440e+002, 7.990007e+003
1.929261e+002, 8.044688e+003
1.934082e+002, 8.095849e+003
1.938904e+002, 8.144845e+003
1.943725e+002, 8.195991e+003
1.948546e+002, 8.251961e+003
1.953367e+002, 8.310929e+003
1.958188e+002, 8.369849e+003
1.963009e+002, 8.428952e+003
1.967831e+002, 8.486889e+003
1.972652e+002, 8.542371e+003
1.977473e+002, 8.596267e+003
1.982294e+002, 8.649509e+003
1.987115e+002, 8.703460e+003
1.991936e+002, 8.757658e+003
1.996758e+002, 8.809162e+003
2.001579e+002, 8.855982e+003
2.006400e+002, 8.902971e+003
2.011221e+002, 8.954174e+003
2.016042e+002, 9.007600e+003
2.020863e+002, 9.057794e+003
2.025685e+002, 9.100912e+003
2.030506e+002, 9.137249e+003
2.035327e+002, 9.170534e+003
2.040148e+002, 9.201862e+003
2.044969e+002, 9.228029e+003
2.049790e+002, 9.248457e+003
2.054612e+002, 9.262874e+003
2.059433e+002, 9.271049e+003
2.064254e+002, 9.272620e+003
2.069075e+002, 9.267532e+003
2.073896e+002, 9.256596e+003
2.078717e+002, 9.240636e+003
2.083539e+002, 9.217490e+003
2.088360e+002, 9.186740e+003
2.093181e+002, 9.148056e+003
2.098002e+002, 9.100903e+003
2.102823e+002, 9.044427e+003
2.107644e+002, 8.978629e+003
2.112466e+002, 8.906354e+003
2.117287e+002, 8.827869e+003
2.122108e+002, 8.743813e+003
2.126929e+002, 8.652445e+003
2.131750e+002, 8.555184e+003
2.136571e+002, 8.454516e+003
2.141393e+002, 8.352631e+003
2.146214e+002, 8.249215e+003
2.151035e+002, 8.145828e+003
2.155856e+002, 8.041077e+003
2.160677e+002, 7.937334e+003
2.165498e+002, 7.835456e+003
2.170320e+002, 7.735648e+003
2.175141e+002, 7.635933e+003
2.179962e+002, 7.534380e+003
2.184783e+002, 7.430328e+003
2.189604e+002, 7.334314e+003
2.194425e+002, 7.247885e+003
2.199247e+002, 7.166624e+003
2.204068e+002, 7.087509e+003
2.208889e+002, 7.010562e+003
2.213710e+002, 6.937999e+003
2.218531e+002, 6.871935e+003
2.223352e+002, 6.813200e+003
2.228174e+002, 6.757321e+003
2.232995e+002, 6.702415e+003
2.237816e+002, 6.651515e+003
2.242637e+002, 6.607560e+003
2.247458e+002, 6.570474e+003
2.252279e+002, 6.537804e+003
2.257100e+002, 6.508192e+003
2.261922e+002, 6.481861e+003
2.266743e+002, 6.457539e+003
2.271564e+002, 6.435994e+003
2.276385e+002, 6.415978e+003
2.281206e+002, 6.396173e+003
2.286027e+002, 6.376493e+003
2.290849e+002, 6.359027e+003
2.295670e+002, 6.346921e+003
2.300491e+002, 6.338419e+003
2.305312e+002, 6.328442e+003
2.310133e+002, 6.312882e+003
2.314954e+002, 6.297375e+003
2.319776e+002, 6.288939e+003
2.324597e+002, 6.288313e+003
2.329418e+002, 6.289592e+003
2.334239e+002, 6.289022e+003
2.339060e+002, 6.287993e+003
2.343881e+002, 6.288638e+003
2.348703e+002, 6.290970e+003
2.353524e+002, 6.295643e+003
2.358345e+002, 6.303877e+003
2.363166e+002, 6.316166e+003
2.367987e+002, 6.330175e+003
2.372808e+002, 6.344217e+003
2.377630e+002, 6.359503e+003
2.382451e+002, 6.377938e+003
2.387272e+002, 6.400497e+003
2.392093e+002, 6.425897e+003
2.396914e+002, 6.451258e+003
2.401735e+002, 6.475314e+003
2.406557e+002, 6.503977e+003
2.411378e+002, 6.542177e+003
2.416199e+002, 6.584777e+003
2.421020e+002, 6.627599e+003
2.425841e+002, 6.669298e+003
2.430662e+002, 6.710057e+003
2.435484e+002, 6.751002e+003
2.440305e+002, 6.794011e+003
2.445126e+002, 6.831669e+003
2.449947e+002, 6.867224e+003
2.454768e+002, 6.894535e+003
2.459589e+002, 6.908871e+003
2.464410e+002, 6.908809e+003
2.469232e+002, 6.893084e+003
2.474053e+002, 6.858711e+003
2.478874e+002, 6.803318e+003
2.483695e+002, 6.733085e+003
2.488516e+002, 6.641964e+003
2.493337e+002, 6.543094e+003
2.498159e+002, 6.444414e+003
2.502980e+002, 6.348472e+003
2.507801e+002, 6.256901e+003
2.512622e+002, 6.171055e+003
2.517443e+002, 6.090104e+003
2.522264e+002, 6.018743e+003
2.527086e+002, 5.957396e+003
2.531907e+002, 5.903807e+003
2.536728e+002, 5.856318e+003
2.541549e+002, 5.814596e+003
2.546370e+002, 5.778853e+003
2.551191e+002, 5.749872e+003
2.556013e+002, 5.731009e+003
2.560834e+002, 5.712312e+003
2.565655e+002, 5.692335e+003
2.570476e+002, 5.673293e+003
2.575297e+002, 5.656069e+003
2.580118e+002, 5.641104e+003
2.584940e+002, 5.628807e+003
2.589761e+002, 5.620139e+003
2.594582e+002, 5.617232e+003
2.599403e+002, 5.612645e+003
2.604224e+002, 5.603928e+003
2.609045e+002, 5.595721e+003
2.613867e+002, 5.591088e+003
2.618688e+002, 5.590192e+003
2.623509e+002, 5.591170e+003
2.628330e+002, 5.592126e+003
2.633151e+002, 5.593560e+003
2.637972e+002, 5.592924e+003
2.642794e+002, 5.589986e+003
2.647615e+002, 5.585664e+003
2.652436e+002, 5.579217e+003
2.657257e+002, 5.571421e+003
2.662078e+002, 5.564827e+003
2.666899e+002, 5.562204e+003
2.671721e+002, 5.564455e+003
2.676542e+002, 5.564999e+003
2.681363e+002, 5.562904e+003
2.686184e+002, 5.560331e+003
2.691005e+002, 5.558680e+003
2.695826e+002, 5.557632e+003
2.700648e+002, 5.555764e+003
2.705469e+002, 5.551849e+003
2.710290e+002, 5.545834e+003
2.715111e+002, 5.539464e+003
2.719932e+002, 5.532014e+003
2.724753e+002, 5.524982e+003
2.729575e+002, 5.518759e+003
2.734396e+002, 5.513458e+003
2.739217e+002, 5.509502e+003
2.744038e+002, 5.507455e+003
2.748859e+002, 5.507024e+003
2.753680e+002, 5.504487e+003
2.758501e+002, 5.499435e+003
2.763322e+002, 5.493317e+003
2.768144e+002, 5.485626e+003
2.772965e+002, 5.477189e+003
2.777786e+002, 5.469739e+003
2.782607e+002, 5.464218e+003
2.787428e+002, 5.460376e+003
2.792249e+002, 5.457261e+003
2.797071e+002, 5.454450e+003
2.801892e+002, 5.452651e+003
2.806713e+002, 5.453214e+003
2.811534e+002, 5.454790e+003
2.816355e+002, 5.454717e+003
2.821176e+002, 5.451665e+003
2.825998e+002, 5.446967e+003
2.830819e+002, 5.444055e+003
2.835640e+002, 5.442911e+003
2.840461e+002, 5.443156e+003
2.845282e+002, 5.445486e+003
2.850103e+002, 5.448991e+003
2.854925e+002, 5.451969e+003
2.859746e+002, 5.453706e+003
2.864567e+002, 5.455844e+003
2.869388e+002, 5.461547e+003
2.874209e+002, 5.471660e+003
2.879030e+002, 5.481979e+003
2.883852e+002, 5.491141e+003
2.888673e+002, 5.500422e+003
2.893494e+002, 5.511224e+003
2.898315e+002, 5.523853e+003
2.903136e+002, 5.537949e+003
2.907957e+002, 5.553522e+003
2.912779e+002, 5.570675e+003
2.917600e+002, 5.588035e+003
2.922421e+002, 5.603205e+003
2.927242e+002, 5.619778e+003
2.932063e+002, 5.642136e+003
2.936884e+002, 5.670832e+003
2.941706e+002, 5.701184e+003
2.946527e+002, 5.728739e+003
2.951348e+002, 5.753539e+003
2.956169e+002, 5.780646e+003
2.960990e+002, 5.810414e+003
2.965811e+002, 5.842436e+003
2.970633e+002, 5.876635e+003
2.975454e+002, 5.912831e+003
2.980275e+002, 5.950697e+003
2.985096e+002, 5.989681e+003
2.989917e+002, 6.030358e+003
2.994738e+002, 6.074381e+003
2.999560e+002, 6.122437e+003
3.004381e+002, 6.172725e+003
3.009202e+002, 6.224653e+003
3.014023e+002, 6.278164e+003
3.018844e+002, 6.333672e+003
3.023665e+002, 6.391343e+003
3.028487e+002, 6.451730e+003
3.033308e+002, 6.516072e+003
3.038129e+002, 6.584731e+003
3.042950e+002, 6.656481e+003
3.047771e+002, 6.730792e+003
3.052592e+002, 6.807802e+003
3.057414e+002, 6.887938e+003
3.062235e+002, 6.971275e+003
3.067056e+002, 7.057860e+003
3.071877e+002, 7.147382e+003
3.076698e+002, 7.239614e+003
3.081519e+002, 7.334199e+003
3.086341e+002, 7.431101e+003
3.091162e+002, 7.530126e+003
3.095983e+002, 7.629562e+003
3.100804e+002, 7.728260e+003
3.105625e+002, 7.828772e+003
3.110446e+002, 7.934305e+003
3.115268e+002, 8.045104e+003
3.120089e+002, 8.156608e+003
3.124910e+002, 8.267262e+003
3.129731e+002, 8.378349e+003
3.134552e+002, 8.492591e+003
3.139373e+002, 8.610138e+003
3.144195e+002, 8.729002e+003
3.149016e+002, 8.848146e+003
3.153837e+002, 8.967831e+003
3.158658e+002, 9.087169e+003
3.163479e+002, 9.203284e+003
3.168300e+002, 9.320993e+003
3.173121e+002, 9.446200e+003
3.177943e+002, 9.578803e+003
3.182764e+002, 9.709519e+003
3.187585e+002, 9.832124e+003
3.192406e+002, 9.947435e+003
3.197227e+002, 1.006402e+004
3.202048e+002, 1.018693e+004
3.206870e+002, 1.030676e+004
3.211691e+002, 1.041971e+004
3.216512e+002, 1.052548e+004
3.221333e+002, 1.062489e+004
3.226154e+002, 1.071758e+004
3.230975e+002, 1.080388e+004
3.235797e+002, 1.088357e+004
3.240618e+002, 1.096089e+004
3.245439e+002, 1.102575e+004
3.250260e+002, 1.107392e+004
3.255081e+002, 1.110750e+004
3.259902e+002, 1.113144e+004
3.264724e+002, 1.114778e+004
3.269545e+002, 1.115302e+004
3.274366e+002, 1.114012e+004
3.279187e+002, 1.110949e+004
3.284008e+002, 1.106626e+004
3.288829e+002, 1.101138e+004
3.293651e+002, 1.094429e+004
3.298472e+002, 1.086257e+004
3.303293e+002, 1.076577e+004
3.308114e+002, 1.066000e+004
3.312935e+002, 1.054982e+004
3.317756e+002, 1.043486e+004
3.322578e+002, 1.031613e+004
3.327399e+002, 1.019241e+004
3.332220e+002, 1.006663e+004
3.337041e+002, 9.938432e+003
3.341862e+002, 9.809339e+003
3.346683e+002, 9.682496e+003
3.351505e+002, 9.560428e+003
3.356326e+002, 9.443143e+003
3.361147e+002, 9.331860e+003
3.365968e+002, 9.224887e+003
3.370789e+002, 9.123632e+003
3.375610e+002, 9.027925e+003
3.380432e+002, 8.938060e+003
3.385253e+002, 8.855989e+003
3.390074e+002, 8.782905e+003
3.394895e+002, 8.717551e+003
3.399716e+002, 8.657437e+003
3.404537e+002, 8.600616e+003
3.409359e+002, 8.551467e+003
3.414180e+002, 8.511396e+003
3.419001e+002, 8.479211e+003
3.423822e+002, 8.453968e+003
3.428643e+002, 8.435479e+003
3.433464e+002, 8.423129e+003
3.438286e+002, 8.416266e+003
3.443107e+002, 8.415854e+003
3.447928e+002, 8.420133e+003
3.452749e+002, 8.428332e+003
3.457570e+002, 8.441730e+003
3.462391e+002, 8.462438e+003
3.467213e+002, 8.489914e+003
3.472034e+002, 8.521037e+003
3.476855e+002, 8.552663e+003
3.481676e+002, 8.584854e+003
3.486497e+002, 8.621150e+003
3.491318e+002, 8.661961e+003
3.496140e+002, 8.705683e+003
3.500961e+002, 8.751338e+003
3.505782e+002, 8.799057e+003
3.510603e+002, 8.849704e+003
3.515424e+002, 8.903640e+003
3.520245e+002, 8.960514e+003
3.525067e+002, 9.019595e+003
3.529888e+002, 9.082506e+003
3.534709e+002, 9.145432e+003
3.539530e+002, 9.206798e+003
3.544351e+002, 9.268237e+003
3.549172e+002, 9.332577e+003
3.553994e+002, 9.400616e+003
3.558815e+002, 9.469918e+003
3.563636e+002, 9.537030e+003
3.568457e+002, 9.601649e+003
3.573278e+002, 9.664072e+003
3.578099e+002, 9.723807e+003
3.582920e+002, 9.781946e+003
3.587741e+002, 9.841108e+003
3.592563e+002, 9.900351e+003
3.597384e+002, 9.953909e+003
3.602205e+002, 9.996296e+003
3.607026e+002, 1.002682e+004
3.611847e+002, 1.005232e+004
3.616668e+002, 1.007515e+004
3.621490e+002, 1.009093e+004
3.626311e+002, 1.010039e+004
3.631132e+002, 1.010149e+004
3.635953e+002, 1.009083e+004
3.640774e+002, 1.006637e+004
3.645595e+002, 1.002866e+004
3.650417e+002, 9.980177e+003
3.655238e+002, 9.921458e+003
3.660059e+002, 9.849284e+003
3.664880e+002, 9.760967e+003
3.669701e+002, 9.661446e+003
3.674522e+002, 9.555619e+003
3.679344e+002, 9.445417e+003
3.684165e+002, 9.328186e+003
3.688986e+002, 9.198396e+003
3.693807e+002, 9.052582e+003
3.698628e+002, 8.903741e+003
3.703449e+002, 8.748786e+003
3.708271e+002, 8.593822e+003
3.713092e+002, 8.439814e+003
3.717913e+002, 8.288033e+003
3.722734e+002, 8.137444e+003
3.727555e+002, 7.986915e+003
3.732376e+002, 7.836955e+003
3.737198e+002, 7.694705e+003
3.742019e+002, 7.562339e+003
3.746840e+002, 7.435734e+003
3.751661e+002, 7.314237e+003
3.756482e+002, 7.196771e+003
3.761303e+002, 7.082987e+003
3.766125e+002, 6.972053e+003
3.770946e+002, 6.864347e+003
3.775767e+002, 6.760001e+003
3.780588e+002, 6.658501e+003
3.785409e+002, 6.561945e+003
3.790230e+002, 6.471650e+003
3.795052e+002, 6.385817e+003
3.799873e+002, 6.304263e+003
3.804694e+002, 6.226864e+003
3.809515e+002, 6.150794e+003
3.814336e+002, 6.072878e+003
3.819157e+002, 5.993053e+003
3.823979e+002, 5.916713e+003
3.828800e+002, 5.844599e+003
3.833621e+002, 5.776438e+003
3.838442e+002, 5.711560e+003
3.843263e+002, 5.650003e+003
3.848084e+002, 5.590167e+003
3.852906e+002, 5.531886e+003
3.857727e+002, 5.475222e+003
3.862548e+002, 5.419979e+003
3.867369e+002, 5.366415e+003
3.872190e+002, 5.313926e+003
3.877011e+002, 5.260822e+003
3.881833e+002, 5.208821e+003
3.886654e+002, 5.160783e+003
3.891475e+002, 5.118169e+003
3.896296e+002, 5.077969e+003
3.901117e+002, 5.038123e+003
3.905938e+002, 4.998477e+003
3.910760e+002, 4.958687e+003
3.915581e+002, 4.917590e+003
3.920402e+002, 4.877761e+003
3.925223e+002, 4.842968e+003
3.930044e+002, 4.813430e+003
3.934865e+002, 4.784595e+003
3.939687e+002, 4.755119e+003
3.944508e+002, 4.725189e+003
3.949329e+002, 4.695125e+003
3.954150e+002, 4.664617e+003
3.958971e+002, 4.634990e+003
3.963792e+002, 4.607478e+003
3.968614e+002, 4.581947e+003
3.973435e+002, 4.556032e+003
3.978256e+002, 4.529018e+003
3.983077e+002, 4.501795e+003
3.987898e+002, 4.474678e+003
3.992719e+002, 4.447722e+003
3.997540e+002, 4.421245e+003
4.002361e+002, 4.395616e+003
4.007183e+002, 4.370214e+003
4.012004e+002, 4.343415e+003
4.016825e+002, 4.313374e+003
4.021646e+002, 4.285277e+003
4.026467e+002, 4.261127e+003
4.031288e+002, 4.238863e+003
4.036110e+002, 4.216231e+003
4.040931e+002, 4.192825e+003
4.045752e+002, 4.169574e+003
4.050573e+002, 4.147562e+003
4.055394e+002, 4.127107e+003
4.060215e+002, 4.107300e+003
4.065037e+002, 4.088730e+003
4.069858e+002, 4.070271e+003
4.074679e+002, 4.050903e+003
4.079500e+002, 4.031105e+003
4.084321e+002, 4.012188e+003
4.089142e+002, 3.994845e+003
4.093964e+002, 3.978748e+003
4.098785e+002, 3.962054e+003
4.103606e+002, 3.943552e+003
4.108427e+002, 3.926059e+003
4.113248e+002, 3.909839e+003
4.118069e+002, 3.894651e+003
4.122891e+002, 3.880650e+003
4.127712e+002, 3.867691e+003
4.132533e+002, 3.854725e+003
4.137354e+002, 3.840116e+003
4.142175e+002, 3.823041e+003
4.146996e+002, 3.807342e+003
4.151818e+002, 3.794122e+003
4.156639e+002, 3.781379e+003
4.161460e+002, 3.768337e+003
4.166281e+002, 3.755123e+003
4.171102e+002, 3.742320e+003
4.175923e+002, 3.729997e+003
4.180745e+002, 3.718523e+003
4.185566e+002, 3.709579e+003
4.190387e+002, 3.705483e+003
4.195208e+002, 3.698821e+003
4.200029e+002, 3.684915e+003
4.204850e+002, 3.668935e+003
4.209672e+002, 3.655535e+003
4.214493e+002, 3.645853e+003
4.219314e+002, 3.638101e+003
4.224135e+002, 3.631247e+003
4.228956e+002, 3.625206e+003
4.233777e+002, 3.617768e+003
4.238599e+002, 3.608054e+003
4.243420e+002, 3.597620e+003
4.248241e+002, 3.587455e+003
4.253062e+002, 3.577569e+003
4.257883e+002, 3.567908e+003
4.262704e+002, 3.559074e+003
4.267526e+002, 3.550170e+003
4.272347e+002, 3.539726e+003
4.277168e+002, 3.527605e+003
4.281989e+002, 3.515367e+003
4.286810e+002, 3.504153e+003
4.291631e+002, 3.493202e+003
4.296453e+002, 3.481026e+003
4.301274e+002, 3.467409e+003
4.306095e+002, 3.453003e+003
4.310916e+002, 3.437039e+003
4.315737e+002, 3.420721e+003
4.320558e+002, 3.407091e+003
4.325380e+002, 3.397321e+003
4.330201e+002, 3.387588e+003
4.335022e+002, 3.372688e+003
4.339843e+002, 3.351569e+003
4.344664e+002, 3.334241e+003
4.349485e+002, 3.323999e+003
4.354307e+002, 3.315077e+003
4.359128e+002, 3.303580e+003
4.363949e+002, 3.290050e+003
4.368770e+002, 3.277317e+003
4.373591e+002, 3.267235e+003
4.378412e+002, 3.258795e+003
4.383234e+002, 3.248302e+003
4.388055e+002, 3.232494e+003
4.392876e+002, 3.218808e+003
4.397697e+002, 3.208910e+003
4.402518e+002, 3.200752e+003
4.407339e+002, 3.193075e+003
4.412160e+002, 3.185367e+003
4.416982e+002, 3.176812e+003
4.421803e+002, 3.166311e+003
4.426624e+002, 3.153421e+003
4.431445e+002, 3.141736e+003
4.436266e+002, 3.131507e+003
4.441087e+002, 3.122304e+003
4.445909e+002, 3.115005e+003
4.450730e+002, 3.108532e+003
4.455551e+002, 3.100858e+003
4.460372e+002, 3.090845e+003
4.465193e+002, 3.079936e+003
4.470014e+002, 3.071740e+003
4.474836e+002, 3.067679e+003
4.479657e+002, 3.062094e+003
4.484478e+002, 3.052486e+003
4.489299e+002, 3.042038e+003
4.494120e+002, 3.032582e+003
4.498941e+002, 3.024258e+003
4.503763e+002, 3.016250e+003
4.508584e+002, 3.008114e+003
4.513405e+002, 2.999806e+003
4.518226e+002, 2.991253e+003
4.523047e+002, 2.982247e+003
4.527868e+002, 2.973588e+003
4.532690e+002, 2.965470e+003
4.537511e+002, 2.958057e+003
4.542332e+002, 2.952030e+003
4.547153e+002, 2.948595e+003
4.551974e+002, 2.944517e+003
4.556795e+002, 2.936128e+003
4.561617e+002, 2.924511e+003
4.566438e+002, 2.914421e+003
4.571259e+002, 2.907549e+003
4.576080e+002, 2.901891e+003
4.580901e+002, 2.894987e+003
4.585722e+002, 2.886917e+003
4.590544e+002, 2.878328e+003
4.595365e+002, 2.868572e+003
4.600186e+002, 2.858946e+003
4.605007e+002, 2.850755e+003
4.609828e+002, 2.843876e+003
4.614649e+002, 2.837304e+003
4.619471e+002, 2.830475e+003
4.624292e+002, 2.823390e+003
4.629113e+002, 2.815832e+003
4.633934e+002, 2.807365e+003
4.638755e+002, 2.799033e+003
4.643576e+002, 2.790845e+003
4.648398e+002, 2.782811e+003
4.653219e+002, 2.774844e+003
4.658040e+002, 2.766944e+003
4.662861e+002, 2.759493e+003
4.667682e+002, 2.753053e+003
4.672503e+002, 2.747758e+003
4.677325e+002, 2.741531e+003
4.682146e+002, 2.732831e+003
4.686967e+002, 2.724807e+003
4.691788e+002, 2.719282e+003
4.696609e+002, 2.714709e+003
4.701430e+002, 2.708676e+003
4.706252e+002, 2.700075e+003
4.711073e+002, 2.690283e+003
4.715894e+002, 2.681767e+003
4.720715e+002, 2.674880e+003
4.725536e+002, 2.667826e+003
4.730357e+002, 2.660133e+003
4.735179e+002, 2.652462e+003
4.740000e+002, 2.645446e+003
4.744821e+002, 2.638915e+003
4.749642e+002, 2.631884e+003
4.754463e+002, 2.622966e+003
4.759284e+002, 2.613500e+003
4.764106e+002, 2.606854e+003
4.768927e+002, 2.603601e+003
4.773748e+002, 2.599682e+003
4.778569e+002, 2.592589e+003
4.783390e+002, 2.584004e+003
4.788211e+002, 2.576748e+003
4.793033e+002, 2.571306e+003
4.797854e+002, 2.565823e+003
4.802675e+002, 2.559179e+003
4.807496e+002, 2.551903e+003
4.812317e+002, 2.544968e+003
4.817138e+002, 2.538549e+003
4.821959e+002, 2.532202e+003
4.826780e+002, 2.525446e+003
4.831602e+002, 2.518310e+003
4.836423e+002, 2.511490e+003
4.841244e+002, 2.505334e+003
4.846065e+002, 2.499112e+003
4.850886e+002, 2.492268e+003
4.855707e+002, 2.485177e+003
4.860529e+002, 2.478691e+003
4.865350e+002, 2.473095e+003
4.870171e+002, 2.467636e+003
4.874992e+002, 2.461060e+003
4.879813e+002, 2.452702e+003
4.884634e+002, 2.444915e+003
4.889456e+002, 2.437650e+003
4.894277e+002, 2.430918e+003
4.899098e+002, 2.425416e+003
4.903919e+002, 2.420459e+003
4.908740e+002, 2.414526e+003
4.913561e+002, 2.406590e+003
4.918383e+002, 2.397478e+003
4.923204e+002, 2.389612e+003
4.928025e+002, 2.383724e+003
4.932846e+002, 2.377120e+003
4.937667e+002, 2.367731e+003
4.942488e+002, 2.358586e+003
4.947310e+002, 2.352275e+003
4.952131e+002, 2.348658e+003
4.956952e+002, 2.344802e+003
4.961773e+002, 2.338495e+003
4.966594e+002, 2.330463e+003
4.971415e+002, 2.322599e+003
4.976237e+002, 2.314887e+003
4.981058e+002, 2.307551e+003
4.985879e+002, 2.300847e+003
4.990700e+002, 2.294477e+003
4.995521e+002, 2.287917e+003
5.000342e+002, 2.281116e+003
5.005164e+002, 2.274130e+003
5.009985e+002, 2.266206e+003
5.014806e+002, 2.258274e+003
5.019627e+002, 2.252342e+003
5.024448e+002, 2.248866e+003
5.029269e+002, 2.245530e+003
5.034091e+002, 2.240078e+003
5.038912e+002, 2.232375e+003
5.043733e+002, 2.225202e+003
5.048554e+002, 2.219182e+003
5.053375e+002, 2.212949e+003
5.058196e+002, 2.205122e+003
5.063018e+002, 2.197032e+003
5.067839e+002, 2.191362e+003
5.072660e+002, 2.188937e+003
5.077481e+002, 2.187112e+003
5.082302e+002, 2.181539e+003
5.087123e+002, 2.170678e+003
5.091945e+002, 2.161611e+003
5.096766e+002, 2.155337e+003
5.101587e+002, 2.149886e+003
5.106408e+002, 2.145180e+003
5.111229e+002, 2.140645e+003
5.116050e+002, 2.135290e+003
5.120872e+002, 2.128490e+003
5.125693e+002, 2.121036e+003
5.130514e+002, 2.114448e+003
5.135335e+002, 2.108856e+003
5.140156e+002, 2.102893e+003
5.144977e+002, 2.095916e+003
5.149799e+002, 2.088778e+003
5.154620e+002, 2.082248e+003
5.159441e+002, 2.076253e+003
5.164262e+002, 2.070268e+003
5.169083e+002, 2.064184e+003
5.173904e+002, 2.057889e+003
5.178726e+002, 2.051061e+003
5.183547e+002, 2.043748e+003
5.188368e+002, 2.036545e+003
5.193189e+002, 2.029615e+003
5.198010e+002, 2.023088e+003
5.202831e+002, 2.017668e+003
5.207653e+002, 2.014039e+003
5.212474e+002, 2.009252e+003
5.217295e+002, 2.002106e+003
5.222116e+002, 1.994115e+003
5.226937e+002, 1.986195e+003
5.231758e+002, 1.978687e+003
5.236580e+002, 1.972160e+003
5.241401e+002, 1.967207e+003
5.246222e+002, 1.963424e+003
5.251043e+002, 1.958543e+003
5.255864e+002, 1.951629e+003
5.260685e+002, 1.944971e+003
5.265507e+002, 1.939015e+003
5.270328e+002, 1.933190e+003
5.275149e+002, 1.927018e+003
5.279970e+002, 1.920470e+003
5.284791e+002, 1.913879e+003
5.289612e+002, 1.907519e+003
5.294434e+002, 1.901382e+003
5.299255e+002, 1.895393e+003
5.304076e+002, 1.889779e+003
5.308897e+002, 1.883842e+003
5.313718e+002, 1.877168e+003
5.318539e+002, 1.870090e+003
5.323361e+002, 1.862677e+003
5.328182e+002, 1.854851e+003
5.333003e+002, 1.847409e+003
5.337824e+002, 1.841216e+003
5.342645e+002, 1.835695e+003
5.347466e+002, 1.829189e+003
5.352288e+002, 1.821363e+003
5.357109e+002, 1.814312e+003
5.361930e+002, 1.810054e+003
5.366751e+002, 1.807991e+003
5.371572e+002, 1.804380e+003
5.376393e+002, 1.797993e+003
5.381215e+002, 1.791689e+003
5.386036e+002, 1.786325e+003
5.390857e+002, 1.781432e+003
5.395678e+002, 1.776452e+003
5.400499e+002, 1.771263e+003
5.405320e+002, 1.765993e+003
5.410142e+002, 1.760839e+003
5.414963e+002, 1.755812e+003
5.419784e+002, 1.750372e+003
5.424604e+002, 1.743292e+003
5.429426e+002, 1.737333e+003
5.434247e+002, 1.734161e+003
5.439068e+002, 1.731863e+003
5.443889e+002, 1.728128e+003
5.448710e+002, 1.722387e+003
5.453531e+002, 1.716221e+003
5.458353e+002, 1.711599e+003
5.463174e+002, 1.708330e+003
5.467995e+002, 1.704354e+003
5.472816e+002, 1.699359e+003
5.477637e+002, 1.694101e+003
5.482458e+002, 1.688996e+003
5.487280e+002, 1.683955e+003
5.492101e+002, 1.678696e+003
5.496922e+002, 1.672872e+003
5.501743e+002, 1.667526e+003
5.506564e+002, 1.663524e+003
5.511385e+002, 1.660424e+003
5.516207e+002, 1.657381e+003
5.521028e+002, 1.654231e+003
5.525849e+002, 1.650906e+003
5.530670e+002, 1.647380e+003
5.535491e+002, 1.643644e+003
5.540313e+002, 1.639479e+003
5.545134e+002, 1.634346e+003
5.549955e+002, 1.629515e+003
5.554776e+002, 1.625377e+003
5.559597e+002, 1.621687e+003
5.564418e+002, 1.618277e+003
5.569240e+002, 1.615040e+003
5.574061e+002, 1.611816e+003
5.578882e+002, 1.608350e+003
5.583703e+002, 1.604638e+003
5.588524e+002, 1.601180e+003
5.593345e+002, 1.598170e+003
5.598167e+002, 1.595157e+003
5.602988e+002, 1.591689e+003
5.607809e+002, 1.588240e+003
5.612630e+002, 1.585599e+003
5.617451e+002, 1.584068e+003
5.622272e+002, 1.582210e+003
5.627094e+002, 1.578278e+003
5.631915e+002, 1.572973e+003
5.636736e+002, 1.568669e+003
5.641557e+002, 1.565691e+003
5.646378e+002, 1.563416e+003
5.651199e+002, 1.561755e+003
5.656021e+002, 1.560439e+003
5.660842e+002, 1.558331e+003
5.665663e+002, 1.554993e+003
5.670484e+002, 1.551522e+003
5.675305e+002, 1.548207e+003
5.680126e+002, 1.545027e+003
5.684948e+002, 1.541777e+003
5.689769e+002, 1.538522e+003
5.694590e+002, 1.535857e+003
5.699411e+002, 1.534623e+003
5.704232e+002, 1.534644e+003
5.709053e+002, 1.532488e+003
5.713875e+002, 1.525676e+003
5.718696e+002, 1.519974e+003
5.723517e+002, 1.516467e+003
5.728338e+002, 1.514262e+003
5.733159e+002, 1.512748e+003
5.737980e+002, 1.511703e+003
5.742802e+002, 1.510816e+003
5.747623e+002, 1.509990e+003
5.752444e+002, 1.509116e+003
5.757265e+002, 1.507570e+003
5.762086e+002, 1.505122e+003
5.766907e+002, 1.503035e+003
5.771729e+002, 1.502616e+003
5.776550e+002, 1.502492e+003
5.781371e+002, 1.499976e+003
5.786192e+002, 1.494079e+003
5.791013e+002, 1.490084e+003
5.795834e+002, 1.492227e+003
5.800656e+002, 1.495987e+003
5.805477e+002, 1.495535e+003
5.810298e+002, 1.491048e+003
5.815119e+002, 1.487102e+003
5.819940e+002, 1.486746e+003
5.824761e+002, 1.488748e+003
5.829583e+002, 1.488892e+003
5.834404e+002, 1.485290e+003
5.839225e+002, 1.482630e+003
5.844046e+002, 1.481485e+003
5.848867e+002, 1.480804e+003
5.853688e+002, 1.479831e+003
5.858510e+002, 1.478666e+003
5.863331e+002, 1.478037e+003
5.868152e+002, 1.478714e+003
5.872973e+002, 1.479610e+003
5.877794e+002, 1.477675e+003
5.882615e+002, 1.472282e+003
5.887437e+002, 1.468424e+003
5.892258e+002, 1.468338e+003
5.897079e+002, 1.469035e+003
5.901900e+002, 1.467675e+003
5.906721e+002, 1.464546e+003
5.911542e+002, 1.461447e+003
5.916364e+002, 1.458625e+003
5.921185e+002, 1.456320e+003
5.926006e+002, 1.455112e+003
5.930827e+002, 1.454650e+003
5.935648e+002, 1.453886e+003
5.940469e+002, 1.452451e+003
5.945291e+002, 1.450593e+003
5.950112e+002, 1.448557e+003
5.954933e+002, 1.446137e+003
5.959754e+002, 1.444551e+003
5.964575e+002, 1.444506e+003
5.969396e+002, 1.444399e+003
5.974218e+002, 1.443704e+003
5.979039e+002, 1.442583e+003
5.983860e+002, 1.441272e+003
5.988681e+002, 1.439859e+003
5.993502e+002, 1.438384e+003
5.998323e+002, 1.436907e+003
6.003145e+002, 1.435413e+003
6.007966e+002, 1.433733e+003
6.012787e+002, 1.431650e+003
6.017608e+002, 1.429809e+003
6.022429e+002, 1.428609e+003
6.027250e+002, 1.427874e+003
6.032072e+002, 1.427496e+003
6.036893e+002, 1.427641e+003
6.041714e+002, 1.427571e+003
6.046535e+002, 1.426833e+003
6.051356e+002, 1.425675e+003
6.056177e+002, 1.424376e+003
6.060999e+002, 1.423003e+003
6.065820e+002, 1.421672e+003
6.070641e+002, 1.420427e+003
6.075462e+002, 1.419349e+003
6.080283e+002, 1.418823e+003
6.085104e+002, 1.419900e+003
6.089926e+002, 1.420016e+003
6.094747e+002, 1.418043e+003
6.099568e+002, 1.415967e+003
6.104389e+002, 1.415330e+003
6.109210e+002, 1.415930e+003
6.114031e+002, 1.416588e+003
6.118853e+002, 1.416623e+003
6.123674e+002, 1.416164e+003
6.128495e+002, 1.415139e+003
6.133316e+002, 1.413401e+003
6.138137e+002, 1.412977e+003
6.142958e+002, 1.415187e+003
6.147780e+002, 1.417782e+003
6.152601e+002, 1.418140e+003
6.157422e+002, 1.416694e+003
6.162243e+002, 1.416064e+003
6.167064e+002, 1.417389e+003
6.171885e+002, 1.419078e+003
6.176707e+002, 1.420199e+003
6.181528e+002, 1.420924e+003
6.186349e+002, 1.421450e+003
6.191170e+002, 1.421867e+003
6.195991e+002, 1.422738e+003
6.200812e+002, 1.424859e+003
6.205634e+002, 1.428367e+003
6.210455e+002, 1.431105e+003
6.215276e+002, 1.432276e+003
6.220097e+002, 1.433634e+003
6.224918e+002, 1.435698e+003
6.229739e+002, 1.438023e+003
6.234561e+002, 1.439946e+003
6.239382e+002, 1.441407e+003
6.244203e+002, 1.443321e+003
6.249023e+002, 1.446830e+003
6.253845e+002, 1.451293e+003
6.258666e+002, 1.454864e+003
6.263487e+002, 1.457439e+003
6.268308e+002, 1.460106e+003
6.273129e+002, 1.463668e+003
6.277950e+002, 1.467335e+003
6.282772e+002, 1.469345e+003
6.287593e+002, 1.469252e+003
6.292414e+002, 1.469927e+003
6.297235e+002, 1.472114e+003
6.302056e+002, 1.474910e+003
6.306877e+002, 1.478041e+003
6.311699e+002, 1.481246e+003
6.316520e+002, 1.483984e+003
6.321341e+002, 1.485991e+003
6.326162e+002, 1.487862e+003
6.330983e+002, 1.490783e+003
6.335804e+002, 1.495149e+003
6.340626e+002, 1.498638e+003
6.345447e+002, 1.501171e+003
6.350268e+002, 1.502811e+003
6.355089e+002, 1.503311e+003
6.359910e+002, 1.503134e+003
6.364731e+002, 1.502915e+003
6.369553e+002, 1.502756e+003
6.374374e+002, 1.502785e+003
6.379195e+002, 1.503494e+003
6.384016e+002, 1.504331e+003
6.388837e+002, 1.504247e+003
6.393658e+002, 1.503123e+003
6.398480e+002, 1.501345e+003
6.403301e+002, 1.499116e+003
6.408122e+002, 1.496464e+003
6.412943e+002, 1.493463e+003
6.417764e+002, 1.489440e+003
6.422585e+002, 1.486070e+003
6.427407e+002, 1.484350e+003
6.432228e+002, 1.482391e+003
6.437049e+002, 1.478933e+003
6.441870e+002, 1.474213e+003
6.446691e+002, 1.469031e+003
6.451512e+002, 1.463782e+003
6.456334e+002, 1.458519e+003
6.461155e+002, 1.453491e+003
6.465976e+002, 1.448698e+003
6.470797e+002, 1.443190e+003
6.475618e+002, 1.436528e+003
6.480439e+002, 1.429835e+003
6.485261e+002, 1.424229e+003
6.490082e+002, 1.419287e+003
6.494903e+002, 1.413826e+003
6.499724e+002, 1.407376e+003
6.504545e+002, 1.400999e+003
6.509366e+002, 1.395468e+003
6.514188e+002, 1.390055e+003
6.519009e+002, 1.383689e+003
6.523830e+002, 1.376423e+003
6.528651e+002, 1.369234e+003
6.533472e+002, 1.362748e+003
6.538293e+002, 1.357115e+003
6.543115e+002, 1.353112e+003
6.547936e+002, 1.351837e+003
6.552757e+002, 1.349530e+003
6.557578e+002, 1.344433e+003
6.562399e+002, 1.339221e+003
6.567220e+002, 1.335338e+003
6.572042e+002, 1.332556e+003
6.576863e+002, 1.330010e+003
6.581684e+002, 1.327460e+003
6.586505e+002, 1.324866e+003
6.591326e+002, 1.321977e+003
6.596147e+002, 1.319027e+003
6.600969e+002, 1.316655e+003
6.605790e+002, 1.315010e+003
6.610611e+002, 1.313812e+003
6.615432e+002, 1.312827e+003
6.620253e+002, 1.312061e+003
6.625074e+002, 1.311583e+003
6.629896e+002, 1.311405e+003
6.634717e+002, 1.311524e+003
6.639538e+002, 1.311824e+003
6.644359e+002, 1.312523e+003
6.649180e+002, 1.313787e+003
6.654001e+002, 1.315621e+003
6.658823e+002, 1.318001e+003
6.663644e+002, 1.321076e+003
6.668465e+002, 1.324443e+003
6.673286e+002, 1.327329e+003
6.678107e+002, 1.329752e+003
6.682928e+002, 1.332391e+003
6.687750e+002, 1.335364e+003
6.692571e+002, 1.338611e+003
6.697392e+002, 1.342005e+003
6.702213e+002, 1.345595e+003
6.707034e+002, 1.349581e+003
6.711855e+002, 1.353578e+003
6.716677e+002, 1.358425e+003
6.721498e+002, 1.364918e+003
6.726319e+002, 1.372025e+003
6.731140e+002, 1.378526e+003
6.735961e+002, 1.384385e+003
6.740782e+002, 1.390577e+003
6.745604e+002, 1.397973e+003
6.750425e+002, 1.406110e+003
6.755246e+002, 1.413379e+003
6.760067e+002, 1.419458e+003
6.764888e+002, 1.426110e+003
6.769709e+002, 1.433886e+003
6.774531e+002, 1.442188e+003
6.779352e+002, 1.450685e+003
6.784173e+002, 1.459308e+003
6.788994e+002, 1.467725e+003
6.793815e+002, 1.475581e+003
6.798636e+002, 1.483589e+003
6.803458e+002, 1.492106e+003
6.808279e+002, 1.501065e+003
6.813100e+002, 1.510444e+003
6.817921e+002, 1.520197e+003
6.822742e+002, 1.530435e+003
6.827563e+002, 1.541374e+003
6.832385e+002, 1.552706e+003
6.837206e+002, 1.562814e+003
6.842027e+002, 1.570394e+003
6.846848e+002, 1.579532e+003
6.851669e+002, 1.591996e+003
6.856490e+002, 1.605008e+003
6.861312e+002, 1.617331e+003
6.866133e+002, 1.628863e+003
6.870954e+002, 1.639644e+003
6.875775e+002, 1.649246e+003
6.880596e+002, 1.658822e+003
6.885417e+002, 1.669433e+003
6.890239e+002, 1.680756e+003
6.895060e+002, 1.691947e+003
6.899881e+002, 1.702927e+003
6.904702e+002, 1.714085e+003
6.909523e+002, 1.725890e+003
6.914344e+002, 1.738118e+003
6.919166e+002, 1.749850e+003
6.923987e+002, 1.760924e+003
6.928808e+002, 1.771762e+003
6.933629e+002, 1.782239e+003
6.938450e+002, 1.792573e+003
6.943271e+002, 1.802990e+003
6.948093e+002, 1.813410e+003
6.952914e+002, 1.823528e+003
6.957735e+002, 1.833158e+003
6.962556e+002, 1.842579e+003
6.967377e+002, 1.852156e+003
6.972198e+002, 1.861792e+003
6.977020e+002, 1.871396e+003
6.981841e+002, 1.880911e+003
6.986662e+002, 1.890109e+003
6.991483e+002, 1.898848e+003
6.996304e+002, 1.907133e+003
7.001125e+002, 1.914848e+003
7.005947e+002, 1.921386e+003
7.010768e+002, 1.928258e+003
7.015589e+002, 1.935588e+003
7.020410e+002, 1.943186e+003
7.025231e+002, 1.951435e+003
7.030052e+002, 1.959790e+003
7.034874e+002, 1.967363e+003
7.039695e+002, 1.973751e+003
7.044516e+002, 1.979076e+003
7.049337e+002, 1.982729e+003
7.054158e+002, 1.985217e+003
7.058979e+002, 1.989311e+003
7.063801e+002, 1.995482e+003
7.068622e+002, 2.001671e+003
7.073442e+002, 2.006811e+003
7.078264e+002, 2.011077e+003
7.083085e+002, 2.014865e+003
7.087906e+002, 2.017903e+003
7.092727e+002, 2.021128e+003
7.097548e+002, 2.024768e+003
7.102369e+002, 2.028440e+003
7.107191e+002, 2.032232e+003
7.112012e+002, 2.035786e+003
7.116833e+002, 2.038257e+003
7.121654e+002, 2.039391e+003
7.126475e+002, 2.040495e+003
7.131296e+002, 2.043790e+003
7.136118e+002, 2.048591e+003
7.140939e+002, 2.050781e+003
7.145760e+002, 2.049861e+003
7.150581e+002, 2.048796e+003
7.155402e+002, 2.048838e+003
7.160223e+002, 2.049594e+003
7.165045e+002, 2.050353e+003
7.169866e+002, 2.050985e+003
7.174687e+002, 2.052387e+003
7.179508e+002, 2.055560e+003
7.184329e+002, 2.058527e+003
7.189150e+002, 2.060749e+003
7.193972e+002, 2.061951e+003
7.198793e+002, 2.061265e+003
7.203614e+002, 2.058757e+003
7.208435e+002, 2.056527e+003
7.213256e+002, 2.056712e+003
7.218077e+002, 2.058808e+003
7.222899e+002, 2.060900e+003
7.227720e+002, 2.062968e+003
7.232541e+002, 2.065346e+003
7.237362e+002, 2.068601e+003
7.242183e+002, 2.071490e+003
7.247004e+002, 2.072023e+003
7.251826e+002, 2.070279e+003
7.256647e+002, 2.069992e+003
7.261468e+002, 2.071993e+003
7.266289e+002, 2.074747e+003
7.271110e+002, 2.078487e+003
7.275931e+002, 2.082248e+003
7.280753e+002, 2.084720e+003
7.285574e+002, 2.085945e+003
7.290395e+002, 2.087146e+003
7.295216e+002, 2.089273e+003
7.300037e+002, 2.091858e+003
7.304858e+002, 2.093589e+003
7.309680e+002, 2.094398e+003
7.314501e+002, 2.096176e+003
7.319322e+002, 2.099360e+003
7.324143e+002, 2.103413e+003
7.328964e+002, 2.108286e+003
7.333785e+002, 2.113710e+003
7.338607e+002, 2.118292e+003
7.343428e+002, 2.120734e+003
7.348249e+002, 2.124279e+003
7.353070e+002, 2.130343e+003
7.357891e+002, 2.137156e+003
7.362712e+002, 2.143052e+003
7.367534e+002, 2.148421e+003
7.372355e+002, 2.154811e+003
7.377176e+002, 2.163095e+003
7.381997e+002, 2.172284e+003
7.386818e+002, 2.181127e+003
7.391639e+002, 2.189614e+003
7.396461e+002, 2.197330e+003
7.401282e+002, 2.203646e+003
7.406103e+002, 2.211965e+003
7.410924e+002, 2.225109e+003
7.415745e+002, 2.240768e+003
7.420566e+002, 2.253501e+003
7.425388e+002, 2.261972e+003
7.430209e+002, 2.272443e+003
7.435030e+002, 2.286769e+003
7.439851e+002, 2.301814e+003
7.444672e+002, 2.316464e+003
7.449493e+002, 2.330541e+003
7.454315e+002, 2.343270e+003
7.459136e+002, 2.354683e+003
7.463957e+002, 2.367562e+003
7.468778e+002, 2.385843e+003
7.473599e+002, 2.407395e+003
7.478420e+002, 2.424889e+003
7.483242e+002, 2.438225e+003
7.488063e+002, 2.453251e+003
7.492884e+002, 2.472616e+003
7.497705e+002, 2.492608e+003
7.502526e+002, 2.508756e+003
7.507347e+002, 2.520683e+003
7.512169e+002, 2.534457e+003
7.516990e+002, 2.552728e+003
7.521811e+002, 2.569203e+003
7.526632e+002, 2.581390e+003
7.531453e+002, 2.592083e+003
7.536274e+002, 2.603483e+003
7.541096e+002, 2.615880e+003
7.545917e+002, 2.629117e+003
7.550738e+002, 2.643737e+003
7.555559e+002, 2.657968e+003
7.560380e+002, 2.668712e+003
7.565201e+002, 2.676798e+003
7.570023e+002, 2.685881e+003
7.574844e+002, 2.696680e+003
7.579665e+002, 2.706867e+003
7.584486e+002, 2.714693e+003
7.589307e+002, 2.720775e+003
7.594128e+002, 2.727180e+003
7.598950e+002, 2.733706e+003
7.603771e+002, 2.740984e+003
7.608592e+002, 2.749781e+003
7.613413e+002, 2.758421e+003
7.618234e+002, 2.765482e+003
7.623055e+002, 2.772058e+003
7.627877e+002, 2.780278e+003
7.632698e+002, 2.790780e+003
7.637519e+002, 2.801036e+003
7.642340e+002, 2.808243e+003
7.647161e+002, 2.814515e+003
7.651982e+002, 2.822952e+003
7.656804e+002, 2.833642e+003
7.661625e+002, 2.846132e+003
7.666446e+002, 2.860376e+003
7.671267e+002, 2.875240e+003
7.676088e+002, 2.888873e+003
7.680909e+002, 2.901225e+003
7.685731e+002, 2.916312e+003
7.690552e+002, 2.935614e+003
7.695373e+002, 2.955377e+003
7.700194e+002, 2.974579e+003
7.705015e+002, 2.994095e+003
7.709836e+002, 3.014360e+003
7.714658e+002, 3.035388e+003
7.719479e+002, 3.057010e+003
7.724300e+002, 3.078526e+003
7.729121e+002, 3.101461e+003
7.733942e+002, 3.127706e+003
7.738763e+002, 3.155593e+003
7.743585e+002, 3.182259e+003
7.748406e+002, 3.207606e+003
7.753227e+002, 3.233549e+003
7.758048e+002, 3.261439e+003
7.762869e+002, 3.291086e+003
7.767690e+002, 3.322007e+003
7.772512e+002, 3.354361e+003
7.777333e+002, 3.387369e+003
7.782154e+002, 3.420472e+003
7.786975e+002, 3.455302e+003
7.791796e+002, 3.493420e+003
7.796617e+002, 3.533500e+003
7.801439e+002, 3.572428e+003
7.806260e+002, 3.609687e+003
7.811081e+002, 3.649466e+003
7.815902e+002, 3.694147e+003
7.820723e+002, 3.740211e+003
7.825544e+002, 3.785372e+003
7.830366e+002, 3.830560e+003
7.835187e+002, 3.877099e+003
7.840008e+002, 3.925432e+003
7.844829e+002, 3.975509e+003
7.849650e+002, 4.027187e+003
7.854471e+002, 4.080649e+003
7.859293e+002, 4.136268e+003
7.864114e+002, 4.193863e+003
7.868935e+002, 4.251516e+003
7.873756e+002, 4.308222e+003
7.878577e+002, 4.366269e+003
7.883398e+002, 4.427082e+003
7.888220e+002, 4.490772e+003
7.893040e+002, 4.556115e+003
7.897861e+002, 4.624251e+003
7.902682e+002, 4.692748e+003
7.907504e+002, 4.761392e+003
7.912325e+002, 4.830413e+003
7.917146e+002, 4.899682e+003
7.921967e+002, 4.969714e+003
7.926788e+002, 5.041935e+003
7.931609e+002, 5.116530e+003
7.936431e+002, 5.194217e+003
7.941252e+002, 5.276952e+003
7.946073e+002, 5.362722e+003
7.950894e+002, 5.446583e+003
7.955715e+002, 5.529138e+003
7.960536e+002, 5.612581e+003
7.965358e+002, 5.697996e+003
7.970179e+002, 5.786290e+003
7.975000e+002, 5.878972e+003
7.979821e+002, 5.976736e+003
7.984642e+002, 6.073384e+003
7.989464e+002, 6.168011e+003
7.994285e+002, 6.263724e+003
7.999106e+002, 6.360626e+003
8.003927e+002, 6.459249e+003
8.008748e+002, 6.558021e+003
8.013569e+002, 6.658056e+003
8.018391e+002, 6.762745e+003
8.023212e+002, 6.874576e+003
8.028033e+002, 6.988849e+003
8.032854e+002, 7.100906e+003
8.037675e+002, 7.214443e+003
8.042496e+002, 7.335727e+003
8.047318e+002, 7.462649e+003
8.052139e+002, 7.588468e+003
8.056960e+002, 7.708581e+003
8.061781e+002, 7.826169e+003
8.066602e+002, 7.945674e+003
8.071423e+002, 8.067064e+003
8.076245e+002, 8.185908e+003
8.081066e+002, 8.301674e+003
8.085887e+002, 8.419720e+003
8.090708e+002, 8.543250e+003
8.095529e+002, 8.668353e+003
8.100350e+002, 8.788666e+003
8.105172e+002, 8.903264e+003
8.109993e+002, 9.018813e+003
8.114814e+002, 9.137654e+003
8.119635e+002, 9.253877e+003
8.124456e+002, 9.361780e+003
8.129277e+002, 9.468960e+003
8.134099e+002, 9.583517e+003
8.138920e+002, 9.703751e+003
8.143741e+002, 9.819724e+003
8.148562e+002, 9.925917e+003
8.153383e+002, 1.002682e+004
8.158204e+002, 1.012628e+004
8.163026e+002, 1.022288e+004
8.167847e+002, 1.031332e+004
8.172668e+002, 1.039732e+004
8.177489e+002, 1.047651e+004
8.182310e+002, 1.055174e+004
8.187131e+002, 1.062296e+004
8.191953e+002, 1.069056e+004
8.196774e+002, 1.075526e+004
8.201595e+002, 1.081197e+004
8.206416e+002, 1.086103e+004
8.211237e+002, 1.090208e+004
8.216058e+002, 1.093314e+004
8.220880e+002, 1.095700e+004
8.225701e+002, 1.097733e+004
8.230522e+002, 1.099406e+004
8.235343e+002, 1.100238e+004
8.240164e+002, 1.100126e+004
8.244985e+002, 1.099161e+004
8.249807e+002, 1.097134e+004
8.254628e+002, 1.094438e+004
8.259449e+002, 1.091761e+004
8.264270e+002, 1.088896e+004
8.269091e+002, 1.084786e+004
8.273912e+002, 1.078703e+004
8.278734e+002, 1.071679e+004
8.283555e+002, 1.065287e+004
8.288376e+002, 1.059222e+004
8.293197e+002, 1.052131e+004
8.298018e+002, 1.043935e+004
8.302839e+002, 1.035240e+004
8.307661e+002, 1.026370e+004
8.312482e+002, 1.017169e+004
8.317303e+002, 1.007216e+004
8.322124e+002, 9.964184e+003
8.326945e+002, 9.859144e+003
8.331766e+002, 9.760662e+003
8.336588e+002, 9.660871e+003
8.341409e+002, 9.557266e+003
8.346230e+002, 9.453168e+003
8.351051e+002, 9.350108e+003
8.355872e+002, 9.248407e+003
8.360693e+002, 9.147006e+003
8.365515e+002, 9.045160e+003
8.370336e+002, 8.944436e+003
8.375157e+002, 8.844326e+003
8.379978e+002, 8.746197e+003
8.384799e+002, 8.651750e+003
8.389620e+002, 8.560640e+003
8.394442e+002, 8.471342e+003
8.399263e+002, 8.383308e+003
8.404084e+002, 8.296361e+003
8.408905e+002, 8.209985e+003
8.413726e+002, 8.125035e+003
8.418547e+002, 8.047908e+003
8.423369e+002, 7.979408e+003
8.428190e+002, 7.913510e+003
8.433011e+002, 7.848380e+003
8.437832e+002, 7.785960e+003
8.442653e+002, 7.729306e+003
8.447474e+002, 7.678180e+003
8.452296e+002, 7.627705e+003
8.457117e+002, 7.578467e+003
8.461938e+002, 7.529248e+003
8.466759e+002, 7.479259e+003
8.471580e+002, 7.429695e+003
8.476401e+002, 7.381065e+003
8.481223e+002, 7.333241e+003
8.486044e+002, 7.286612e+003
8.490865e+002, 7.242630e+003
8.495686e+002, 7.193882e+003
8.500507e+002, 7.134423e+003
8.505328e+002, 7.069552e+003
8.510150e+002, 7.005582e+003
8.514971e+002, 6.940139e+003
8.519792e+002, 6.867347e+003
8.524613e+002, 6.785760e+003
8.529434e+002, 6.695880e+003
8.534255e+002, 6.598718e+003
8.539077e+002, 6.494624e+003
8.543898e+002, 6.386153e+003
8.548719e+002, 6.273114e+003
8.553540e+002, 6.153655e+003
8.558361e+002, 6.027013e+003
8.563182e+002, 5.897407e+003
8.568004e+002, 5.768231e+003
8.572825e+002, 5.639360e+003
8.577646e+002, 5.509327e+003
8.582467e+002, 5.378872e+003
8.587288e+002, 5.246319e+003
8.592109e+002, 5.107107e+003
8.596931e+002, 4.971248e+003
8.601752e+002, 4.841286e+003
8.606573e+002, 4.716571e+003
8.611394e+002, 4.596421e+003
8.616215e+002, 4.480417e+003
8.621036e+002, 4.367460e+003
8.625858e+002, 4.255474e+003
8.630679e+002, 4.146606e+003
8.635500e+002, 4.042147e+003
8.640321e+002, 3.942044e+003
8.645142e+002, 3.848012e+003
8.649963e+002, 3.758800e+003
8.654785e+002, 3.671942e+003
8.659606e+002, 3.585826e+003
8.664427e+002, 3.502136e+003
8.669248e+002, 3.424650e+003
8.674069e+002, 3.352705e+003
8.678890e+002, 3.281364e+003
8.683712e+002, 3.210382e+003
8.688533e+002, 3.144154e+003
8.693354e+002, 3.085026e+003
8.698175e+002, 3.028571e+003
8.702996e+002, 2.969063e+003
8.707817e+002, 2.906318e+003
8.712639e+002, 2.848784e+003
8.717459e+002, 2.798803e+003
8.722280e+002, 2.749907e+003
8.727101e+002, 2.701105e+003
8.731923e+002, 2.653521e+003
8.736744e+002, 2.608041e+003
8.741565e+002, 2.564490e+003
8.746386e+002, 2.521420e+003
8.751207e+002, 2.478584e+003
8.756028e+002, 2.437253e+003
8.760850e+002, 2.398585e+003
8.765671e+002, 2.361176e+003
8.770492e+002, 2.323548e+003
8.775313e+002, 2.286646e+003
8.780134e+002, 2.252213e+003
8.784955e+002, 2.220569e+003
8.789777e+002, 2.190237e+003
8.794598e+002, 2.160343e+003
8.799419e+002, 2.130796e+003
8.804240e+002, 2.101045e+003
8.809061e+002, 2.071370e+003
8.813882e+002, 2.043333e+003
8.818704e+002, 2.017087e+003
8.823525e+002, 1.990865e+003
8.828346e+002, 1.963516e+003
8.833167e+002, 1.936178e+003
8.837988e+002, 1.911750e+003
8.842809e+002, 1.890747e+003
8.847631e+002, 1.868216e+003
8.852452e+002, 1.843211e+003
8.857273e+002, 1.818978e+003
8.862094e+002, 1.796932e+003
8.866915e+002, 1.775744e+003
8.871736e+002, 1.753437e+003
8.876558e+002, 1.730203e+003
8.881379e+002, 1.708145e+003
8.886200e+002, 1.687674e+003
8.891021e+002, 1.667910e+003
8.895842e+002, 1.648573e+003
8.900663e+002, 1.629905e+003
8.905485e+002, 1.612765e+003
8.910306e+002, 1.596266e+003
8.915127e+002, 1.578584e+003
8.919948e+002, 1.559023e+003
8.924769e+002, 1.540134e+003
8.929590e+002, 1.524532e+003
8.934412e+002, 1.509535e+003
8.939233e+002, 1.491771e+003
8.944054e+002, 1.472582e+003
8.948875e+002, 1.455167e+003
8.953696e+002, 1.440153e+003
8.958517e+002, 1.425983e+003
8.963339e+002, 1.411677e+003
8.968160e+002, 1.397267e+003
8.972981e+002, 1.382865e+003
8.977802e+002, 1.368505e+003
8.982623e+002, 1.353730e+003
8.987444e+002, 1.338418e+003
8.992266e+002, 1.324178e+003
8.997087e+002, 1.311881e+003
9.001908e+002, 1.300528e+003
9.006729e+002, 1.288712e+003
9.011550e+002, 1.276435e+003
9.016371e+002, 1.263471e+003
9.021193e+002, 1.249106e+003
9.026014e+002, 1.235258e+003
9.030835e+002, 1.222210e+003
9.035656e+002, 1.209844e+003
9.040477e+002, 1.198372e+003
9.045298e+002, 1.187509e+003
9.050120e+002, 1.176701e+003
9.054941e+002, 1.165891e+003
9.059762e+002, 1.155266e+003
9.064583e+002, 1.145255e+003
9.069404e+002, 1.135105e+003
9.074225e+002, 1.124399e+003
9.079047e+002, 1.113390e+003
9.083868e+002, 1.102289e+003
9.088689e+002, 1.091240e+003
9.093510e+002, 1.080350e+003
9.098331e+002, 1.069543e+003
9.103152e+002, 1.059256e+003
9.107974e+002, 1.050193e+003
9.112795e+002, 1.041794e+003
9.117616e+002, 1.032894e+003
9.122437e+002, 1.023607e+003
9.127258e+002, 1.015057e+003
9.132079e+002, 1.007783e+003
9.136901e+002, 1.000769e+003
9.141722e+002, 9.923927e+002
9.146543e+002, 9.830331e+002
9.151364e+002, 9.747097e+002
9.156185e+002, 9.674353e+002
9.161006e+002, 9.604553e+002
9.165828e+002, 9.536185e+002
9.170649e+002, 9.465334e+002
9.175470e+002, 9.387213e+002
9.180291e+002, 9.304584e+002
9.185112e+002, 9.227204e+002
9.189933e+002, 9.155455e+002
9.194755e+002, 9.086866e+002
9.199576e+002, 9.026129e+002
9.204397e+002, 8.961940e+002
9.209218e+002, 8.885316e+002
9.214039e+002, 8.806025e+002
9.218860e+002, 8.735964e+002
9.223682e+002, 8.674912e+002
9.228503e+002, 8.612525e+002
9.233324e+002, 8.547136e+002
9.238145e+002, 8.480639e+002
9.242966e+002, 8.407039e+002
9.247787e+002, 8.338513e+002
9.252609e+002, 8.290604e+002
9.257430e+002, 8.253975e+002
9.262251e+002, 8.207444e+002
9.267072e+002, 8.144492e+002
9.271893e+002, 8.082342e+002
9.276714e+002, 8.036201e+002
9.281536e+002, 7.993285e+002
9.286357e+002, 7.938423e+002
9.291178e+002, 7.877248e+002
9.295999e+002, 7.820643e+002
9.300820e+002, 7.770068e+002
9.305641e+002, 7.721731e+002
9.310463e+002, 7.673469e+002
9.315284e+002, 7.624872e+002
9.320105e+002, 7.575952e+002
9.324926e+002, 7.526510e+002
9.329747e+002, 7.476195e+002
9.334568e+002, 7.424970e+002
9.339390e+002, 7.369010e+002
9.344211e+002, 7.306745e+002
9.349032e+002, 7.245368e+002
9.353853e+002, 7.192535e+002
9.358674e+002, 7.147737e+002
9.363495e+002, 7.109479e+002
9.368317e+002, 7.080799e+002
9.373138e+002, 7.044697e+002
9.377959e+002, 6.996618e+002
9.382780e+002, 6.946188e+002
9.387601e+002, 6.895711e+002
9.392422e+002, 6.847861e+002
9.397244e+002, 6.808320e+002
9.402065e+002, 6.779366e+002
9.406886e+002, 6.745324e+002
9.411707e+002, 6.701558e+002
9.416528e+002, 6.658972e+002
9.421349e+002, 6.619492e+002
9.426171e+002, 6.581895e+002
9.430992e+002, 6.547176e+002
9.435813e+002, 6.513291e+002
9.440634e+002, 6.475529e+002
9.445455e+002, 6.432128e+002
9.450276e+002, 6.388019e+002
9.455098e+002, 6.342344e+002
9.459919e+002, 6.299088e+002
9.464740e+002, 6.261761e+002
9.469561e+002, 6.228518e+002
9.474382e+002, 6.198975e+002
9.479203e+002, 6.171445e+002
9.484025e+002, 6.139269e+002
9.488846e+002, 6.096716e+002
9.493667e+002, 6.053983e+002
9.498488e+002, 6.021627e+002
9.503309e+002, 5.994649e+002
9.508130e+002, 5.963722e+002
9.512952e+002, 5.930640e+002
9.517773e+002, 5.905957e+002
9.522594e+002, 5.892090e+002
9.527415e+002, 5.873782e+002
9.532236e+002, 5.832718e+002
9.537057e+002, 5.781202e+002
9.541878e+002, 5.752956e+002
9.546699e+002, 5.743416e+002
9.551520e+002, 5.721456e+002
9.556342e+002, 5.682589e+002
9.561163e+002, 5.639705e+002
9.565984e+002, 5.598669e+002
9.570805e+002, 5.562393e+002
9.575626e+002, 5.537155e+002
9.580447e+002, 5.522516e+002
9.585269e+002, 5.501808e+002
9.590090e+002, 5.473378e+002
9.594911e+002, 5.445529e+002
9.599732e+002, 5.419504e+002
9.604553e+002, 5.395901e+002
9.609374e+002, 5.376225e+002
9.614196e+002, 5.359001e+002
9.619017e+002, 5.340670e+002
9.623838e+002, 5.323611e+002
9.628659e+002, 5.297823e+002
9.633480e+002, 5.251456e+002
9.638301e+002, 5.212449e+002
9.643123e+002, 5.192808e+002
9.647944e+002, 5.179554e+002
9.652765e+002, 5.161357e+002
9.657586e+002, 5.139510e+002
9.662407e+002, 5.121874e+002
9.667228e+002, 5.114291e+002
9.672050e+002, 5.100893e+002
9.676871e+002, 5.072832e+002
9.681692e+002, 5.043991e+002
9.686513e+002, 5.023839e+002
9.691334e+002, 5.006992e+002
9.696155e+002, 4.985086e+002
9.700977e+002, 4.957926e+002
9.705798e+002, 4.933248e+002
9.710619e+002, 4.914619e+002
9.715440e+002, 4.899278e+002
9.720261e+002, 4.887097e+002
9.725082e+002, 4.876103e+002
9.729904e+002, 4.865074e+002
9.734725e+002, 4.853317e+002
9.739546e+002, 4.839535e+002
9.744367e+002, 4.823515e+002
9.749188e+002, 4.807045e+002
9.754009e+002, 4.791475e+002
9.758831e+002, 4.776348e+002
9.763652e+002, 4.761942e+002
9.768473e+002, 4.747198e+002
9.773294e+002, 4.728942e+002
9.778115e+002, 4.707509e+002
9.782936e+002, 4.687116e+002
9.787758e+002, 4.669640e+002
9.792579e+002, 4.652650e+002
9.797400e+002, 4.631573e+002
9.802221e+002, 4.609027e+002
9.807042e+002, 4.595479e+002
9.811863e+002, 4.589924e+002
9.816685e+002, 4.584329e+002
9.821506e+002, 4.577158e+002
9.826327e+002, 4.566603e+002
9.831148e+002, 4.549899e+002
9.835969e+002, 4.537247e+002
9.840790e+002, 4.556119e+002
9.845612e+002, 4.607023e+002
9.850433e+002, 4.608862e+002
9.855254e+002, 4.551804e+002
9.860075e+002, 4.503672e+002
9.864896e+002, 4.482973e+002
9.869717e+002, 4.472517e+002
9.874539e+002, 4.459809e+002
9.879360e+002, 4.445304e+002
9.884181e+002, 4.430189e+002
9.889002e+002, 4.413613e+002
9.893823e+002, 4.399562e+002
9.898644e+002, 4.388358e+002
9.903466e+002, 4.378281e+002
9.908287e+002, 4.359557e+002
9.913108e+002, 4.352314e+002
9.917929e+002, 4.387909e+002
9.922750e+002, 4.455151e+002
9.927571e+002, 4.486693e+002
9.932393e+002, 4.469077e+002
9.937214e+002, 4.440246e+002
9.942035e+002, 4.385763e+002
9.946856e+002, 4.337926e+002
9.951677e+002, 4.311118e+002
9.956498e+002, 4.295922e+002
9.961320e+002, 4.284055e+002
9.966141e+002, 4.274497e+002
9.970962e+002, 4.265319e+002
9.975783e+002, 4.255508e+002
9.980604e+002, 4.247148e+002
9.985425e+002, 4.242285e+002
9.990247e+002, 4.237426e+002
9.995068e+002, 4.229547e+002
9.999889e+002, 4.220739e+002
1.000471e+003, 4.215172e+002
1.000953e+003, 4.212705e+002
1.001435e+003, 4.207314e+002
1.001917e+003, 4.194937e+002
1.002399e+003, 4.181476e+002
1.002882e+003, 4.168114e+002
1.003364e+003, 4.156927e+002
1.003846e+003, 4.152484e+002
1.004328e+003, 4.150787e+002
1.004810e+003, 4.142274e+002
1.005292e+003, 4.125645e+002
1.005774e+003, 4.112502e+002
1.006256e+003, 4.113726e+002
1.006739e+003, 4.116623e+002
1.007221e+003, 4.108542e+002
1.007703e+003, 4.095184e+002
1.008185e+003, 4.082816e+002
1.008667e+003, 4.072887e+002
1.009149e+003, 4.067978e+002
1.009631e+003, 4.068397e+002
1.010113e+003, 4.066573e+002
1.010595e+003, 4.052982e+002
1.011078e+003, 4.036501e+002
1.011560e+003, 4.032358e+002
1.012042e+003, 4.035282e+002
1.012524e+003, 4.032091e+002
1.013006e+003, 4.022775e+002
1.013488e+003, 4.016268e+002
1.013970e+003, 4.016369e+002
1.014452e+003, 4.017576e+002
1.014935e+003, 4.014339e+002
1.015417e+003, 4.007125e+002
1.015899e+003, 3.995511e+002
1.016381e+003, 3.980745e+002
1.016863e+003, 3.968956e+002
1.017345e+003, 3.960983e+002
1.017827e+003, 3.954585e+002
1.018309e+003, 3.948670e+002
1.018791e+003, 3.943166e+002
1.019274e+003, 3.937448e+002
1.019756e+003, 3.932237e+002
1.020238e+003, 3.932402e+002
1.020720e+003, 3.937615e+002
1.021202e+003, 3.938074e+002
1.021684e+003, 3.931913e+002
1.022166e+003, 3.923907e+002
1.022648e+003, 3.916485e+002
1.023130e+003, 3.910359e+002
1.023613e+003, 3.907292e+002
1.024095e+003, 3.906884e+002
1.024577e+003, 3.902014e+002
1.025059e+003, 3.891852e+002
1.025541e+003, 3.884049e+002
1.026023e+003, 3.879941e+002
1.026505e+003, 3.878628e+002
1.026987e+003, 3.880111e+002
1.027469e+003, 3.882845e+002
1.027952e+003, 3.884486e+002
1.028434e+003, 3.885183e+002
1.028916e+003, 3.880521e+002
1.029398e+003, 3.869439e+002
1.029880e+003, 3.856226e+002
1.030362e+003, 3.840152e+002
1.030844e+003, 3.825608e+002
1.031326e+003, 3.815291e+002
1.031809e+003, 3.808593e+002
1.032291e+003, 3.804286e+002
1.032773e+003, 3.802433e+002
1.033255e+003, 3.802591e+002
1.033737e+003, 3.803571e+002
1.034219e+003, 3.809278e+002
1.034701e+003, 3.820203e+002
1.035183e+003, 3.837147e+002
1.035666e+003, 3.869162e+002
1.036148e+003, 3.902360e+002
1.036630e+003, 3.905685e+002
1.037112e+003, 3.873602e+002
1.037594e+003, 3.842314e+002
1.038076e+003, 3.805607e+002
1.038558e+003, 3.780077e+002
1.039040e+003, 3.776942e+002
1.039522e+003, 3.776656e+002
1.040005e+003, 3.763906e+002
1.040487e+003, 3.746018e+002
1.040969e+003, 3.739848e+002
1.041451e+003, 3.748627e+002
1.041933e+003, 3.751730e+002
1.042415e+003, 3.744085e+002
1.042897e+003, 3.737338e+002
1.043379e+003, 3.735925e+002
1.043861e+003, 3.733818e+002
1.044344e+003, 3.725883e+002
1.044826e+003, 3.714977e+002
1.045308e+003, 3.706540e+002
1.045790e+003, 3.701051e+002
1.046272e+003, 3.697592e+002
1.046754e+003, 3.695142e+002
1.047236e+003, 3.696076e+002
1.047718e+003, 3.708888e+002
1.048201e+003, 3.717564e+002
1.048683e+003, 3.705048e+002
1.049165e+003, 3.682792e+002
1.049647e+003, 3.674520e+002
1.050129e+003, 3.684554e+002
1.050611e+003, 3.687767e+002
1.051093e+003, 3.671328e+002
1.051575e+003, 3.658282e+002
1.052057e+003, 3.658011e+002
1.052540e+003, 3.660944e+002
1.053022e+003, 3.661525e+002
1.053504e+003, 3.659622e+002
1.053986e+003, 3.655845e+002
1.054468e+003, 3.650249e+002
1.054950e+003, 3.643313e+002
1.055432e+003, 3.633210e+002
1.055914e+003, 3.624444e+002
1.056396e+003, 3.618014e+002
1.056879e+003, 3.614022e+002
1.057361e+003, 3.614935e+002
1.057843e+003, 3.617378e+002
1.058325e+003, 3.615211e+002
1.058807e+003, 3.607613e+002
1.059289e+003, 3.600627e+002
1.059771e+003, 3.594393e+002
1.060253e+003, 3.591602e+002
1.060736e+003, 3.598246e+002
1.061218e+003, 3.603854e+002
1.061700e+003, 3.599238e+002
1.062182e+003, 3.588570e+002
1.062664e+003, 3.577940e+002
1.063146e+003, 3.568851e+002
1.063628e+003, 3.564678e+002
1.064110e+003, 3.572794e+002
1.064593e+003, 3.577275e+002
1.065075e+003, 3.569040e+002
1.065557e+003, 3.557221e+002
1.066039e+003, 3.545941e+002
1.066521e+003, 3.537250e+002
1.067003e+003, 3.531798e+002
1.067485e+003, 3.530562e+002
1.067967e+003, 3.538963e+002
1.068449e+003, 3.563209e+002
1.068932e+003, 3.590110e+002
1.069414e+003, 3.630923e+002
1.069896e+003, 3.654766e+002
1.070378e+003, 3.626005e+002
1.070860e+003, 3.572573e+002
1.071342e+003, 3.531595e+002
1.071824e+003, 3.508551e+002
1.072306e+003, 3.493259e+002
1.072788e+003, 3.483724e+002
1.073271e+003, 3.477416e+002
1.073753e+003, 3.475644e+002
1.074235e+003, 3.474072e+002
1.074717e+003, 3.467365e+002
1.075199e+003, 3.460297e+002
1.075681e+003, 3.461499e+002
1.076163e+003, 3.469272e+002
1.076645e+003, 3.471340e+002
1.077127e+003, 3.461158e+002
1.077610e+003, 3.452597e+002
1.078092e+003, 3.453521e+002
1.078574e+003, 3.456694e+002
1.079056e+003, 3.460182e+002
1.079538e+003, 3.461064e+002
1.080020e+003, 3.454629e+002
1.080502e+003, 3.442684e+002
1.080984e+003, 3.432095e+002
1.081467e+003, 3.425030e+002
1.081949e+003, 3.419277e+002
1.082431e+003, 3.414636e+002
1.082913e+003, 3.410038e+002
1.083395e+003, 3.403718e+002
1.083877e+003, 3.397975e+002
1.084359e+003, 3.395762e+002
1.084841e+003, 3.396212e+002
1.085323e+003, 3.396526e+002
1.085806e+003, 3.395967e+002
1.086288e+003, 3.395262e+002
1.086770e+003, 3.398078e+002
1.087252e+003, 3.396628e+002
1.087734e+003, 3.380847e+002
1.088216e+003, 3.364092e+002
1.088698e+003, 3.359915e+002
1.089180e+003, 3.364437e+002
1.089662e+003, 3.368626e+002
1.090145e+003, 3.370630e+002
1.090627e+003, 3.368638e+002
1.091109e+003, 3.358558e+002
1.091591e+003, 3.348893e+002
1.092073e+003, 3.341885e+002
1.092555e+003, 3.338055e+002
1.093037e+003, 3.341891e+002
1.093519e+003, 3.347351e+002
1.094002e+003, 3.342929e+002
1.094484e+003, 3.327935e+002
1.094966e+003, 3.316426e+002
1.095448e+003, 3.315304e+002
1.095930e+003, 3.314680e+002
1.096412e+003, 3.311491e+002
1.096894e+003, 3.307618e+002
1.097376e+003, 3.302380e+002
1.097859e+003, 3.298307e+002
1.098341e+003, 3.301006e+002
1.098823e+003, 3.308977e+002
1.099305e+003, 3.309926e+002
1.099787e+003, 3.295314e+002
1.100269e+003, 3.285542e+002
1.100751e+003, 3.291219e+002
1.101233e+003, 3.296563e+002
1.101715e+003, 3.292486e+002
1.102198e+003, 3.285188e+002
1.102680e+003, 3.282437e+002
1.103162e+003, 3.282700e+002
1.103644e+003, 3.277548e+002
1.104126e+003, 3.261909e+002
1.104608e+003, 3.253242e+002
1.105090e+003, 3.260539e+002
1.105572e+003, 3.267618e+002
1.106054e+003, 3.269412e+002
1.106537e+003, 3.268322e+002
1.107019e+003, 3.266249e+002
1.107501e+003, 3.262942e+002
1.107983e+003, 3.257264e+002
1.108465e+003, 3.248622e+002
1.108947e+003, 3.240511e+002
1.109429e+003, 3.231393e+002
1.109911e+003, 3.225409e+002
1.110394e+003, 3.223941e+002
1.110876e+003, 3.225245e+002
1.111358e+003, 3.232586e+002
1.111840e+003, 3.239987e+002
1.112322e+003, 3.235476e+002
1.112804e+003, 3.218037e+002
1.113286e+003, 3.208080e+002
1.113768e+003, 3.209084e+002
1.114250e+003, 3.212036e+002
1.114733e+003, 3.222440e+002
1.115215e+003, 3.226205e+002
1.115697e+003, 3.211364e+002
1.116179e+003, 3.192520e+002
1.116661e+003, 3.187668e+002
1.117143e+003, 3.194554e+002
1.117625e+003, 3.196299e+002
1.118107e+003, 3.190715e+002
1.118589e+003, 3.184952e+002
1.119072e+003, 3.176835e+002
1.119554e+003, 3.173642e+002
1.120036e+003, 3.181409e+002
1.120518e+003, 3.188385e+002
1.121000e+003, 3.182349e+002
1.121482e+003, 3.169385e+002
1.121964e+003, 3.168607e+002
1.122446e+003, 3.183510e+002
1.122929e+003, 3.188995e+002
1.123411e+003, 3.183137e+002
1.123893e+003, 3.173740e+002
1.124375e+003, 3.160946e+002
1.124857e+003, 3.148929e+002
1.125339e+003, 3.139273e+002
1.125821e+003, 3.134282e+002
1.126303e+003, 3.138511e+002
1.126786e+003, 3.151543e+002
1.127268e+003, 3.167892e+002
1.127750e+003, 3.189035e+002
1.128232e+003, 3.198775e+002
1.128714e+003, 3.194134e+002
1.129196e+003, 3.183696e+002
1.129678e+003, 3.170805e+002
1.130160e+003, 3.156586e+002
1.130642e+003, 3.141388e+002
1.131125e+003, 3.127387e+002
1.131607e+003, 3.123537e+002
1.132089e+003, 3.129255e+002
1.132571e+003, 3.134774e+002
1.133053e+003, 3.139462e+002
1.133535e+003, 3.141244e+002
1.134017e+003, 3.139498e+002
1.134499e+003, 3.135045e+002
1.134981e+003, 3.128351e+002
1.135464e+003, 3.120233e+002
1.135946e+003, 3.109746e+002
1.136428e+003, 3.099374e+002
1.136910e+003, 3.101106e+002
1.137392e+003, 3.112351e+002
1.137874e+003, 3.120402e+002
1.138356e+003, 3.123033e+002
1.138838e+003, 3.123672e+002
1.139321e+003, 3.124077e+002
1.139803e+003, 3.123685e+002
1.140285e+003, 3.121686e+002
1.140767e+003, 3.118618e+002
1.141249e+003, 3.115292e+002
1.141731e+003, 3.111743e+002
1.142213e+003, 3.107297e+002
1.142695e+003, 3.102744e+002
1.143177e+003, 3.102016e+002
1.143660e+003, 3.105463e+002
1.144142e+003, 3.104895e+002
1.144624e+003, 3.091692e+002
1.145106e+003, 3.078955e+002
1.145588e+003, 3.084396e+002
1.146070e+003, 3.094998e+002
1.146552e+003, 3.093232e+002
1.147034e+003, 3.084514e+002
1.147516e+003, 3.080239e+002
1.147999e+003, 3.081661e+002
1.148481e+003, 3.083741e+002
1.148963e+003, 3.084376e+002
1.149445e+003, 3.085208e+002
1.149927e+003, 3.088575e+002
1.150409e+003, 3.090979e+002
1.150891e+003, 3.088971e+002
1.151373e+003, 3.085371e+002
1.151856e+003, 3.082041e+002
1.152338e+003, 3.080074e+002
1.152820e+003, 3.082270e+002
1.153302e+003, 3.089150e+002
1.153784e+003, 3.092236e+002
1.154266e+003, 3.084252e+002
1.154748e+003, 3.078340e+002
1.155230e+003, 3.080192e+002
1.155713e+003, 3.083947e+002
1.156195e+003, 3.086631e+002
1.156677e+003, 3.088652e+002
1.157159e+003, 3.091773e+002
1.157641e+003, 3.095396e+002
1.158123e+003, 3.094967e+002
1.158605e+003, 3.088712e+002
1.159087e+003, 3.081389e+002
1.159569e+003, 3.069959e+002
1.160052e+003, 3.062103e+002
1.160534e+003, 3.060703e+002
1.161016e+003, 3.062618e+002
1.161498e+003, 3.067506e+002
1.161980e+003, 3.073011e+002
1.162462e+003, 3.073873e+002
1.162944e+003, 3.069762e+002
1.163426e+003, 3.063698e+002
1.163908e+003, 3.051822e+002
1.164391e+003, 3.050295e+002
1.164873e+003, 3.064718e+002
1.165355e+003, 3.079601e+002
1.165837e+003, 3.088279e+002
1.166319e+003, 3.092505e+002
1.166801e+003, 3.093910e+002
1.167283e+003, 3.093095e+002
1.167765e+003, 3.092542e+002
1.168247e+003, 3.092267e+002
1.168730e+003, 3.091203e+002
1.169212e+003, 3.089235e+002
1.169694e+003, 3.089825e+002
1.170176e+003, 3.093977e+002
1.170658e+003, 3.098092e+002
1.171140e+003, 3.099606e+002
1.171622e+003, 3.100379e+002
1.172104e+003, 3.104039e+002
1.172587e+003, 3.109162e+002
1.173069e+003, 3.110885e+002
1.173551e+003, 3.109819e+002
1.174033e+003, 3.107581e+002
1.174515e+003, 3.104890e+002
1.174997e+003, 3.104148e+002
1.175479e+003, 3.106035e+002
1.175961e+003, 3.107237e+002
1.176443e+003, 3.104558e+002
1.176926e+003, 3.100884e+002
1.177408e+003, 3.098424e+002
1.177890e+003, 3.098268e+002
1.178372e+003, 3.103725e+002
1.178854e+003, 3.112023e+002
1.179336e+003, 3.117977e+002
1.179818e+003, 3.120952e+002
1.180300e+003, 3.122695e+002
1.180782e+003, 3.123837e+002
1.181265e+003, 3.124728e+002
1.181747e+003, 3.125482e+002
1.182229e+003, 3.126203e+002
1.182711e+003, 3.125477e+002
1.183193e+003, 3.126101e+002
1.183675e+003, 3.132969e+002
1.184157e+003, 3.142240e+002
1.184639e+003, 3.146417e+002
1.185122e+003, 3.144630e+002
1.185604e+003, 3.142372e+002
1.186086e+003, 3.140166e+002
1.186568e+003, 3.138741e+002
1.187050e+003, 3.137968e+002
1.187532e+003, 3.138298e+002
1.188014e+003, 3.141784e+002
1.188496e+003, 3.144756e+002
1.188979e+003, 3.141420e+002
1.189461e+003, 3.135569e+002
1.189943e+003, 3.139347e+002
1.190425e+003, 3.155734e+002
1.190907e+003, 3.163828e+002
1.191389e+003, 3.161183e+002
1.191871e+003, 3.156310e+002
1.192353e+003, 3.148472e+002
1.192835e+003, 3.145022e+002
1.193318e+003, 3.150602e+002
1.193800e+003, 3.159601e+002
1.194282e+003, 3.165464e+002
1.194764e+003, 3.168652e+002
1.195246e+003, 3.171051e+002
1.195728e+003, 3.172624e+002
1.196210e+003, 3.170918e+002
1.196692e+003, 3.166167e+002
1.197174e+003, 3.165688e+002
1.197657e+003, 3.171093e+002
1.198139e+003, 3.177132e+002
1.198621e+003, 3.180616e+002
1.199103e+003, 3.182136e+002
1.199585e+003, 3.181227e+002
1.200067e+003, 3.179839e+002
1.200549e+003, 3.183296e+002
1.201031e+003, 3.188763e+002
1.201514e+003, 3.189721e+002
1.201996e+003, 3.186781e+002
1.202478e+003, 3.182657e+002
1.202960e+003, 3.178930e+002
1.203442e+003, 3.180050e+002
1.203924e+003, 3.190548e+002
1.204406e+003, 3.200743e+002
1.204888e+003, 3.203849e+002
1.205370e+003, 3.203055e+002
1.205853e+003, 3.196055e+002
1.206335e+003, 3.190436e+002
1.206817e+003, 3.198480e+002
1.207299e+003, 3.214818e+002
1.207781e+003, 3.223466e+002
1.208263e+003, 3.220934e+002
1.208745e+003, 3.217207e+002
1.209227e+003, 3.211800e+002
1.209709e+003, 3.209702e+002
1.210192e+003, 3.214306e+002
1.210674e+003, 3.219584e+002
1.211156e+003, 3.220843e+002
1.211638e+003, 3.222884e+002
1.212120e+003, 3.232939e+002
1.212602e+003, 3.247335e+002
1.213084e+003, 3.251183e+002
1.213566e+003, 3.241141e+002
1.214049e+003, 3.237632e+002
1.214531e+003, 3.242411e+002
1.215013e+003, 3.246739e+002
1.215495e+003, 3.248918e+002
1.215977e+003, 3.251084e+002
1.216459e+003, 3.254594e+002
1.216941e+003, 3.257220e+002
1.217423e+003, 3.255626e+002
1.217906e+003, 3.252007e+002
1.218388e+003, 3.253813e+002
1.218870e+003, 3.259820e+002
1.219352e+003, 3.263146e+002
1.219834e+003, 3.264405e+002
1.220316e+003, 3.269496e+002
1.220798e+003, 3.279034e+002
1.221280e+003, 3.288065e+002
1.221762e+003, 3.294026e+002
1.222245e+003, 3.296273e+002
1.222727e+003, 3.291049e+002
1.223209e+003, 3.284910e+002
1.223691e+003, 3.284753e+002
1.224173e+003, 3.288710e+002
1.224655e+003, 3.296750e+002
1.225137e+003, 3.305864e+002
1.225619e+003, 3.309634e+002
1.226101e+003, 3.308371e+002
1.226584e+003, 3.311753e+002
1.227066e+003, 3.327961e+002
1.227548e+003, 3.334551e+002
1.228030e+003, 3.311140e+002
1.228512e+003, 3.293348e+002
1.228994e+003, 3.301440e+002
1.229476e+003, 3.315723e+002
1.229958e+003, 3.321904e+002
1.230441e+003, 3.322838e+002
1.230923e+003, 3.322076e+002
1.231405e+003, 3.320017e+002
1.231887e+003, 3.331937e+002
1.232369e+003, 3.367452e+002
1.232851e+003, 3.386140e+002
1.233333e+003, 3.381441e+002
1.233815e+003, 3.376872e+002
1.234297e+003, 3.379121e+002
1.234780e+003, 3.385071e+002
1.235262e+003, 3.393050e+002
1.235744e+003, 3.400941e+002
1.236226e+003, 3.404565e+002
1.236708e+003, 3.405273e+002
1.237190e+003, 3.407683e+002
1.237672e+003, 3.412418e+002
1.238154e+003, 3.425685e+002
1.238636e+003, 3.444843e+002
1.239119e+003, 3.454648e+002
1.239601e+003, 3.451694e+002
1.240083e+003, 3.445888e+002
1.240565e+003, 3.442204e+002
1.241047e+003, 3.444709e+002
1.241529e+003, 3.465195e+002
1.242011e+003, 3.485525e+002
1.242493e+003, 3.482962e+002
1.242975e+003, 3.473757e+002
1.243458e+003, 3.480639e+002
1.243940e+003, 3.496883e+002
1.244422e+003, 3.502757e+002
1.244904e+003, 3.496011e+002
1.245386e+003, 3.493617e+002
1.245868e+003, 3.503388e+002
1.246350e+003, 3.511468e+002
1.246832e+003, 3.511284e+002
1.247315e+003, 3.514924e+002
1.247797e+003, 3.530344e+002
1.248279e+003, 3.545997e+002
1.248761e+003, 3.552285e+002
1.249243e+003, 3.555054e+002
1.249725e+003, 3.565618e+002
1.250207e+003, 3.583241e+002
1.250689e+003, 3.595428e+002
1.251172e+003, 3.601440e+002
1.251654e+003, 3.609977e+002
1.252136e+003, 3.621840e+002
1.252618e+003, 3.632514e+002
1.253100e+003, 3.640625e+002
1.253582e+003, 3.643276e+002
1.254064e+003, 3.637673e+002
1.254546e+003, 3.634111e+002
1.255028e+003, 3.651358e+002
1.255510e+003, 3.677137e+002
1.255993e+003, 3.687474e+002
1.256475e+003, 3.689571e+002
1.256957e+003, 3.695998e+002
1.257439e+003, 3.706182e+002
1.257921e+003, 3.715176e+002
1.258403e+003, 3.722086e+002
1.258885e+003, 3.729325e+002
1.259367e+003, 3.738001e+002
1.259850e+003, 3.746735e+002
1.260332e+003, 3.753901e+002
1.260814e+003, 3.762265e+002
1.261296e+003, 3.763014e+002
1.261778e+003, 3.775830e+002
1.262260e+003, 3.836328e+002
1.262742e+003, 3.906685e+002
1.263224e+003, 3.917394e+002
1.263707e+003, 3.878228e+002
1.264189e+003, 3.874478e+002
1.264671e+003, 3.923368e+002
1.265153e+003, 3.947871e+002
1.265635e+003, 3.942399e+002
1.266117e+003, 3.933742e+002
1.266599e+003, 3.926333e+002
1.267081e+003, 3.927828e+002
1.267563e+003, 3.943160e+002
1.268046e+003, 3.963492e+002
1.268528e+003, 3.979364e+002
1.269010e+003, 3.990894e+002
1.269492e+003, 3.996571e+002
1.269974e+003, 3.999069e+002
1.270456e+003, 4.002607e+002
1.270938e+003, 4.009750e+002
1.271420e+003, 4.029713e+002
1.271902e+003, 4.059319e+002
1.272385e+003, 4.081446e+002
1.272867e+003, 4.089504e+002
1.273349e+003, 4.095477e+002
1.273831e+003, 4.103278e+002
1.274313e+003, 4.115377e+002
1.274795e+003, 4.136151e+002
1.275277e+003, 4.158227e+002
1.275759e+003, 4.179256e+002
1.276242e+003, 4.197076e+002
1.276724e+003, 4.207571e+002
1.277206e+003, 4.213398e+002
1.277688e+003, 4.222467e+002
1.278170e+003, 4.234697e+002
1.278652e+003, 4.251622e+002
1.279134e+003, 4.275306e+002
1.279616e+003, 4.296143e+002
1.280099e+003, 4.312887e+002
1.280581e+003, 4.326844e+002
1.281063e+003, 4.337863e+002
1.281545e+003, 4.352311e+002
1.282027e+003, 4.376074e+002
1.282509e+003, 4.402224e+002
1.282991e+003, 4.417075e+002
1.283473e+003, 4.426366e+002
1.283955e+003, 4.443269e+002
##END=



