##NAMES=Dugganite
##RRUFFID=R060498
##IDEAL CHEMISTRY=Pb^2+^_3_Zn^2+^_3_(Te^6+^O_6_)(As^5+^O_4_)_2_
##LOCALITY=400' level, Empire mine, Tombstone, Cochise County, Arizona, USA
##OWNER=RRUFF
##SOURCE=Michael Scott
##DESCRIPTION=Druse of prismatic green crystals
##STATUS=The identification of this mineral has been confirmed by single-crystal X-ray diffraction.
##URL=rruff.info/R060498
8.930109e+001, 0.000000e+000
8.978320e+001, 1.016450e+004
9.026532e+001, 1.028256e+004
9.074744e+001, 1.031780e+004
9.122955e+001, 1.025834e+004
9.171167e+001, 1.014578e+004
9.219379e+001, 1.001007e+004
9.267590e+001, 9.858212e+003
9.315802e+001, 9.689579e+003
9.364014e+001, 9.498031e+003
9.412225e+001, 9.292126e+003
9.460437e+001, 9.092057e+003
9.508649e+001, 8.900853e+003
9.556860e+001, 8.717941e+003
9.605072e+001, 8.545728e+003
9.653284e+001, 8.392571e+003
9.701495e+001, 8.251812e+003
9.749707e+001, 8.111805e+003
9.797919e+001, 7.971615e+003
9.846130e+001, 7.843728e+003
9.894342e+001, 7.729278e+003
9.942554e+001, 7.627620e+003
9.990765e+001, 7.544588e+003
1.003898e+002, 7.482019e+003
1.008719e+002, 7.430881e+003
1.013540e+002, 7.377586e+003
1.018361e+002, 7.319622e+003
1.023182e+002, 7.266642e+003
1.028004e+002, 7.221127e+003
1.032825e+002, 7.183000e+003
1.037646e+002, 7.154082e+003
1.042467e+002, 7.135154e+003
1.047288e+002, 7.125086e+003
1.052109e+002, 7.120984e+003
1.056931e+002, 7.120737e+003
1.061752e+002, 7.129371e+003
1.066573e+002, 7.149652e+003
1.071394e+002, 7.186762e+003
1.076215e+002, 7.226876e+003
1.081036e+002, 7.275421e+003
1.085858e+002, 7.329242e+003
1.090679e+002, 7.369057e+003
1.095500e+002, 7.383162e+003
1.100321e+002, 7.392938e+003
1.105142e+002, 7.409682e+003
1.109963e+002, 7.439560e+003
1.114785e+002, 7.469689e+003
1.119606e+002, 7.497966e+003
1.124427e+002, 7.524574e+003
1.129248e+002, 7.553479e+003
1.134069e+002, 7.587846e+003
1.138890e+002, 7.623354e+003
1.143712e+002, 7.656951e+003
1.148533e+002, 7.684881e+003
1.153354e+002, 7.713445e+003
1.158175e+002, 7.747172e+003
1.162996e+002, 7.787676e+003
1.167817e+002, 7.820990e+003
1.172639e+002, 7.838788e+003
1.177460e+002, 7.847914e+003
1.182281e+002, 7.857001e+003
1.187102e+002, 7.872320e+003
1.191923e+002, 7.886350e+003
1.196744e+002, 7.893079e+003
1.201566e+002, 7.890217e+003
1.206387e+002, 7.887323e+003
1.211208e+002, 7.890535e+003
1.216029e+002, 7.897771e+003
1.220850e+002, 7.904980e+003
1.225671e+002, 7.905800e+003
1.230493e+002, 7.907091e+003
1.235314e+002, 7.917779e+003
1.240135e+002, 7.942875e+003
1.244956e+002, 7.967896e+003
1.249777e+002, 7.977758e+003
1.254598e+002, 7.974886e+003
1.259420e+002, 7.968679e+003
1.264241e+002, 7.964246e+003
1.269062e+002, 7.960547e+003
1.273883e+002, 7.955434e+003
1.278704e+002, 7.947272e+003
1.283525e+002, 7.938885e+003
1.288347e+002, 7.934893e+003
1.293168e+002, 7.935106e+003
1.297989e+002, 7.936712e+003
1.302810e+002, 7.939435e+003
1.307631e+002, 7.942249e+003
1.312452e+002, 7.940825e+003
1.317274e+002, 7.932923e+003
1.322095e+002, 7.920729e+003
1.326916e+002, 7.910307e+003
1.331737e+002, 7.901956e+003
1.336558e+002, 7.893338e+003
1.341379e+002, 7.881116e+003
1.346201e+002, 7.865421e+003
1.351022e+002, 7.851072e+003
1.355843e+002, 7.840765e+003
1.360664e+002, 7.833569e+003
1.365485e+002, 7.821937e+003
1.370306e+002, 7.804563e+003
1.375128e+002, 7.785677e+003
1.379949e+002, 7.769919e+003
1.384770e+002, 7.757633e+003
1.389591e+002, 7.746409e+003
1.394412e+002, 7.735838e+003
1.399233e+002, 7.726140e+003
1.404055e+002, 7.714494e+003
1.408876e+002, 7.701171e+003
1.413697e+002, 7.685230e+003
1.418518e+002, 7.664319e+003
1.423339e+002, 7.636136e+003
1.428160e+002, 7.608120e+003
1.432982e+002, 7.582244e+003
1.437803e+002, 7.557795e+003
1.442624e+002, 7.538986e+003
1.447445e+002, 7.529296e+003
1.452266e+002, 7.524181e+003
1.457087e+002, 7.513552e+003
1.461909e+002, 7.494111e+003
1.466730e+002, 7.473323e+003
1.471551e+002, 7.453712e+003
1.476372e+002, 7.434525e+003
1.481193e+002, 7.418372e+003
1.486014e+002, 7.406444e+003
1.490836e+002, 7.397820e+003
1.495657e+002, 7.388689e+003
1.500478e+002, 7.376698e+003
1.505299e+002, 7.366324e+003
1.510120e+002, 7.359453e+003
1.514941e+002, 7.358928e+003
1.519763e+002, 7.358472e+003
1.524584e+002, 7.359445e+003
1.529405e+002, 7.360879e+003
1.534226e+002, 7.358232e+003
1.539047e+002, 7.346296e+003
1.543868e+002, 7.333253e+003
1.548690e+002, 7.323549e+003
1.553511e+002, 7.321718e+003
1.558332e+002, 7.318896e+003
1.563153e+002, 7.314002e+003
1.567974e+002, 7.307069e+003
1.572795e+002, 7.298423e+003
1.577617e+002, 7.286943e+003
1.582438e+002, 7.274526e+003
1.587259e+002, 7.262560e+003
1.592080e+002, 7.250307e+003
1.596901e+002, 7.239737e+003
1.601722e+002, 7.232499e+003
1.606544e+002, 7.228443e+003
1.611365e+002, 7.223554e+003
1.616186e+002, 7.215958e+003
1.621007e+002, 7.207108e+003
1.625828e+002, 7.198130e+003
1.630649e+002, 7.189283e+003
1.635471e+002, 7.180436e+003
1.640292e+002, 7.171913e+003
1.645113e+002, 7.163657e+003
1.649934e+002, 7.154055e+003
1.654755e+002, 7.141609e+003
1.659576e+002, 7.127357e+003
1.664398e+002, 7.112794e+003
1.669219e+002, 7.099075e+003
1.674040e+002, 7.084505e+003
1.678861e+002, 7.067320e+003
1.683682e+002, 7.047170e+003
1.688503e+002, 7.027909e+003
1.693325e+002, 7.013593e+003
1.698146e+002, 7.001625e+003
1.702967e+002, 6.988036e+003
1.707788e+002, 6.970197e+003
1.712609e+002, 6.950362e+003
1.717430e+002, 6.931214e+003
1.722252e+002, 6.913115e+003
1.727073e+002, 6.893517e+003
1.731894e+002, 6.870427e+003
1.736715e+002, 6.844093e+003
1.741536e+002, 6.815994e+003
1.746357e+002, 6.785335e+003
1.751179e+002, 6.753416e+003
1.756000e+002, 6.721740e+003
1.760821e+002, 6.690814e+003
1.765642e+002, 6.659670e+003
1.770463e+002, 6.628155e+003
1.775284e+002, 6.595762e+003
1.780106e+002, 6.561519e+003
1.784927e+002, 6.521802e+003
1.789748e+002, 6.480423e+003
1.794569e+002, 6.445227e+003
1.799390e+002, 6.417356e+003
1.804211e+002, 6.393000e+003
1.809033e+002, 6.367467e+003
1.813854e+002, 6.341086e+003
1.818675e+002, 6.315998e+003
1.823496e+002, 6.293843e+003
1.828317e+002, 6.273874e+003
1.833138e+002, 6.252583e+003
1.837960e+002, 6.229163e+003
1.842781e+002, 6.206167e+003
1.847602e+002, 6.187853e+003
1.852423e+002, 6.173742e+003
1.857244e+002, 6.161513e+003
1.862065e+002, 6.150083e+003
1.866887e+002, 6.139306e+003
1.871708e+002, 6.128354e+003
1.876529e+002, 6.116818e+003
1.881350e+002, 6.105637e+003
1.886171e+002, 6.096594e+003
1.890992e+002, 6.089577e+003
1.895814e+002, 6.084134e+003
1.900635e+002, 6.080874e+003
1.905456e+002, 6.079337e+003
1.910277e+002, 6.076789e+003
1.915098e+002, 6.073110e+003
1.919919e+002, 6.068037e+003
1.924741e+002, 6.059964e+003
1.929562e+002, 6.048739e+003
1.934383e+002, 6.038654e+003
1.939204e+002, 6.033873e+003
1.944025e+002, 6.033988e+003
1.948846e+002, 6.031781e+003
1.953668e+002, 6.025717e+003
1.958489e+002, 6.017612e+003
1.963310e+002, 6.012558e+003
1.968131e+002, 6.011076e+003
1.972952e+002, 6.008535e+003
1.977773e+002, 6.000798e+003
1.982595e+002, 5.987707e+003
1.987416e+002, 5.976193e+003
1.992237e+002, 5.967511e+003
1.997058e+002, 5.960719e+003
2.001879e+002, 5.953339e+003
2.006700e+002, 5.945201e+003
2.011522e+002, 5.937154e+003
2.016343e+002, 5.930185e+003
2.021164e+002, 5.924564e+003
2.025985e+002, 5.917275e+003
2.030806e+002, 5.907312e+003
2.035627e+002, 5.895866e+003
2.040449e+002, 5.887052e+003
2.045270e+002, 5.881314e+003
2.050091e+002, 5.876620e+003
2.054912e+002, 5.871151e+003
2.059733e+002, 5.864363e+003
2.064554e+002, 5.860219e+003
2.069376e+002, 5.860239e+003
2.074197e+002, 5.862924e+003
2.079018e+002, 5.862054e+003
2.083839e+002, 5.856361e+003
2.088660e+002, 5.850423e+003
2.093481e+002, 5.847873e+003
2.098303e+002, 5.849734e+003
2.103124e+002, 5.850499e+003
2.107945e+002, 5.849084e+003
2.112766e+002, 5.846313e+003
2.117587e+002, 5.845420e+003
2.122408e+002, 5.846834e+003
2.127230e+002, 5.849319e+003
2.132051e+002, 5.852109e+003
2.136872e+002, 5.855131e+003
2.141693e+002, 5.858513e+003
2.146514e+002, 5.862194e+003
2.151335e+002, 5.866084e+003
2.156157e+002, 5.870000e+003
2.160978e+002, 5.874132e+003
2.165799e+002, 5.877655e+003
2.170620e+002, 5.879681e+003
2.175441e+002, 5.879130e+003
2.180262e+002, 5.880134e+003
2.185084e+002, 5.883793e+003
2.189905e+002, 5.889362e+003
2.194726e+002, 5.893019e+003
2.199547e+002, 5.894482e+003
2.204368e+002, 5.894755e+003
2.209189e+002, 5.894044e+003
2.214011e+002, 5.891116e+003
2.218832e+002, 5.890997e+003
2.223653e+002, 5.895503e+003
2.228474e+002, 5.903276e+003
2.233295e+002, 5.908028e+003
2.238116e+002, 5.908519e+003
2.242938e+002, 5.907898e+003
2.247759e+002, 5.907902e+003
2.252580e+002, 5.908522e+003
2.257401e+002, 5.909786e+003
2.262222e+002, 5.912217e+003
2.267043e+002, 5.915225e+003
2.271865e+002, 5.916542e+003
2.276686e+002, 5.915894e+003
2.281507e+002, 5.913825e+003
2.286328e+002, 5.910412e+003
2.291149e+002, 5.904813e+003
2.295970e+002, 5.899921e+003
2.300792e+002, 5.896459e+003
2.305613e+002, 5.893877e+003
2.310434e+002, 5.889914e+003
2.315255e+002, 5.883806e+003
2.320076e+002, 5.877737e+003
2.324897e+002, 5.873231e+003
2.329719e+002, 5.871845e+003
2.334540e+002, 5.868620e+003
2.339361e+002, 5.862024e+003
2.344182e+002, 5.853616e+003
2.349003e+002, 5.849045e+003
2.353824e+002, 5.851188e+003
2.358646e+002, 5.853062e+003
2.363467e+002, 5.850805e+003
2.368288e+002, 5.841429e+003
2.373109e+002, 5.834454e+003
2.377930e+002, 5.830857e+003
2.382751e+002, 5.829544e+003
2.387573e+002, 5.827391e+003
2.392394e+002, 5.823738e+003
2.397215e+002, 5.819935e+003
2.402036e+002, 5.816680e+003
2.406857e+002, 5.814837e+003
2.411678e+002, 5.811391e+003
2.416500e+002, 5.806432e+003
2.421321e+002, 5.799802e+003
2.426142e+002, 5.790536e+003
2.430963e+002, 5.776093e+003
2.435784e+002, 5.762831e+003
2.440605e+002, 5.754028e+003
2.445427e+002, 5.752305e+003
2.450248e+002, 5.748213e+003
2.455069e+002, 5.741165e+003
2.459890e+002, 5.732039e+003
2.464711e+002, 5.722852e+003
2.469532e+002, 5.713780e+003
2.474354e+002, 5.704389e+003
2.479175e+002, 5.694592e+003
2.483996e+002, 5.684216e+003
2.488817e+002, 5.674106e+003
2.493638e+002, 5.664230e+003
2.498459e+002, 5.654773e+003
2.503281e+002, 5.646150e+003
2.508102e+002, 5.638985e+003
2.512923e+002, 5.631710e+003
2.517744e+002, 5.623699e+003
2.522565e+002, 5.614883e+003
2.527386e+002, 5.605955e+003
2.532208e+002, 5.596163e+003
2.537029e+002, 5.586830e+003
2.541850e+002, 5.580130e+003
2.546671e+002, 5.577436e+003
2.551492e+002, 5.574496e+003
2.556313e+002, 5.569571e+003
2.561135e+002, 5.562014e+003
2.565956e+002, 5.556589e+003
2.570777e+002, 5.554410e+003
2.575598e+002, 5.553146e+003
2.580419e+002, 5.549377e+003
2.585240e+002, 5.541586e+003
2.590062e+002, 5.534656e+003
2.594883e+002, 5.530441e+003
2.599704e+002, 5.529326e+003
2.604525e+002, 5.525517e+003
2.609346e+002, 5.517665e+003
2.614167e+002, 5.508886e+003
2.618989e+002, 5.502615e+003
2.623810e+002, 5.499081e+003
2.628631e+002, 5.497985e+003
2.633452e+002, 5.500378e+003
2.638273e+002, 5.506333e+003
2.643094e+002, 5.509150e+003
2.647916e+002, 5.508253e+003
2.652737e+002, 5.505515e+003
2.657558e+002, 5.502123e+003
2.662379e+002, 5.497251e+003
2.667200e+002, 5.494916e+003
2.672021e+002, 5.496835e+003
2.676843e+002, 5.502385e+003
2.681664e+002, 5.505093e+003
2.686485e+002, 5.503795e+003
2.691306e+002, 5.501946e+003
2.696127e+002, 5.502352e+003
2.700948e+002, 5.505180e+003
2.705770e+002, 5.509124e+003
2.710591e+002, 5.514120e+003
2.715412e+002, 5.519881e+003
2.720233e+002, 5.525417e+003
2.725054e+002, 5.530419e+003
2.729875e+002, 5.535538e+003
2.734697e+002, 5.541771e+003
2.739518e+002, 5.549678e+003
2.744339e+002, 5.554758e+003
2.749160e+002, 5.555206e+003
2.753981e+002, 5.553257e+003
2.758802e+002, 5.556274e+003
2.763624e+002, 5.565263e+003
2.768445e+002, 5.575302e+003
2.773266e+002, 5.583743e+003
2.778087e+002, 5.590618e+003
2.782908e+002, 5.595829e+003
2.787729e+002, 5.599246e+003
2.792551e+002, 5.601229e+003
2.797372e+002, 5.602018e+003
2.802193e+002, 5.601381e+003
2.807014e+002, 5.601265e+003
2.811835e+002, 5.603720e+003
2.816656e+002, 5.608673e+003
2.821478e+002, 5.610390e+003
2.826299e+002, 5.608263e+003
2.831120e+002, 5.603591e+003
2.835941e+002, 5.597452e+003
2.840762e+002, 5.589657e+003
2.845583e+002, 5.583792e+003
2.850405e+002, 5.582945e+003
2.855226e+002, 5.586318e+003
2.860047e+002, 5.586556e+003
2.864868e+002, 5.583427e+003
2.869689e+002, 5.577759e+003
2.874510e+002, 5.569448e+003
2.879332e+002, 5.558664e+003
2.884153e+002, 5.549166e+003
2.888974e+002, 5.543130e+003
2.893795e+002, 5.539639e+003
2.898616e+002, 5.535968e+003
2.903438e+002, 5.532224e+003
2.908259e+002, 5.527447e+003
2.913080e+002, 5.519084e+003
2.917901e+002, 5.508063e+003
2.922722e+002, 5.499625e+003
2.927543e+002, 5.496518e+003
2.932365e+002, 5.496701e+003
2.937186e+002, 5.495308e+003
2.942007e+002, 5.492319e+003
2.946828e+002, 5.489649e+003
2.951649e+002, 5.489732e+003
2.956470e+002, 5.491675e+003
2.961292e+002, 5.492369e+003
2.966113e+002, 5.490292e+003
2.970934e+002, 5.487380e+003
2.975755e+002, 5.486827e+003
2.980576e+002, 5.488495e+003
2.985397e+002, 5.490759e+003
2.990219e+002, 5.492130e+003
2.995040e+002, 5.493313e+003
2.999861e+002, 5.495681e+003
3.004682e+002, 5.499414e+003
3.009503e+002, 5.504719e+003
3.014324e+002, 5.512486e+003
3.019146e+002, 5.522315e+003
3.023967e+002, 5.532728e+003
3.028788e+002, 5.542141e+003
3.033609e+002, 5.551757e+003
3.038430e+002, 5.563514e+003
3.043251e+002, 5.578155e+003
3.048073e+002, 5.593058e+003
3.052894e+002, 5.605139e+003
3.057715e+002, 5.615498e+003
3.062536e+002, 5.627217e+003
3.067357e+002, 5.642633e+003
3.072178e+002, 5.659567e+003
3.077000e+002, 5.675230e+003
3.081821e+002, 5.689125e+003
3.086642e+002, 5.703727e+003
3.091463e+002, 5.720656e+003
3.096284e+002, 5.739350e+003
3.101105e+002, 5.759252e+003
3.105927e+002, 5.780670e+003
3.110748e+002, 5.802473e+003
3.115569e+002, 5.823928e+003
3.120390e+002, 5.845039e+003
3.125211e+002, 5.866708e+003
3.130032e+002, 5.891023e+003
3.134854e+002, 5.915938e+003
3.139675e+002, 5.938954e+003
3.144496e+002, 5.954928e+003
3.149317e+002, 5.972803e+003
3.154138e+002, 5.998959e+003
3.158959e+002, 6.031999e+003
3.163781e+002, 6.063752e+003
3.168602e+002, 6.090576e+003
3.173423e+002, 6.114609e+003
3.178244e+002, 6.137087e+003
3.183065e+002, 6.156212e+003
3.187886e+002, 6.176790e+003
3.192708e+002, 6.200781e+003
3.197529e+002, 6.227355e+003
3.202350e+002, 6.254313e+003
3.207171e+002, 6.283583e+003
3.211992e+002, 6.310725e+003
3.216813e+002, 6.333014e+003
3.221635e+002, 6.348009e+003
3.226456e+002, 6.362698e+003
3.231277e+002, 6.379169e+003
3.236098e+002, 6.395938e+003
3.240919e+002, 6.410625e+003
3.245740e+002, 6.420893e+003
3.250562e+002, 6.430553e+003
3.255383e+002, 6.441577e+003
3.260204e+002, 6.455507e+003
3.265025e+002, 6.464835e+003
3.269846e+002, 6.467447e+003
3.274667e+002, 6.465979e+003
3.279489e+002, 6.463242e+003
3.284310e+002, 6.456808e+003
3.289131e+002, 6.452133e+003
3.293952e+002, 6.451382e+003
3.298773e+002, 6.454789e+003
3.303594e+002, 6.454542e+003
3.308416e+002, 6.447692e+003
3.313237e+002, 6.439763e+003
3.318058e+002, 6.434736e+003
3.322879e+002, 6.434522e+003
3.327700e+002, 6.433722e+003
3.332521e+002, 6.430367e+003
3.337343e+002, 6.425753e+003
3.342164e+002, 6.426992e+003
3.346985e+002, 6.437706e+003
3.351806e+002, 6.448438e+003
3.356627e+002, 6.453546e+003
3.361448e+002, 6.450195e+003
3.366270e+002, 6.449443e+003
3.371091e+002, 6.451290e+003
3.375912e+002, 6.456070e+003
3.380733e+002, 6.465874e+003
3.385554e+002, 6.482827e+003
3.390375e+002, 6.497663e+003
3.395197e+002, 6.505272e+003
3.400018e+002, 6.504981e+003
3.404839e+002, 6.509634e+003
3.409660e+002, 6.520026e+003
3.414481e+002, 6.533420e+003
3.419302e+002, 6.546747e+003
3.424124e+002, 6.560188e+003
3.428945e+002, 6.572090e+003
3.433766e+002, 6.581245e+003
3.438587e+002, 6.588486e+003
3.443408e+002, 6.598401e+003
3.448229e+002, 6.611184e+003
3.453051e+002, 6.624906e+003
3.457872e+002, 6.639631e+003
3.462693e+002, 6.654545e+003
3.467514e+002, 6.664002e+003
3.472335e+002, 6.665242e+003
3.477156e+002, 6.662466e+003
3.481978e+002, 6.664030e+003
3.486799e+002, 6.669651e+003
3.491620e+002, 6.675112e+003
3.496441e+002, 6.677813e+003
3.501262e+002, 6.678339e+003
3.506083e+002, 6.677701e+003
3.510905e+002, 6.675799e+003
3.515726e+002, 6.673709e+003
3.520547e+002, 6.673278e+003
3.525368e+002, 6.673785e+003
3.530189e+002, 6.673055e+003
3.535010e+002, 6.669799e+003
3.539832e+002, 6.664749e+003
3.544653e+002, 6.658866e+003
3.549474e+002, 6.652134e+003
3.554295e+002, 6.644029e+003
3.559116e+002, 6.633512e+003
3.563937e+002, 6.621381e+003
3.568759e+002, 6.609015e+003
3.573580e+002, 6.596405e+003
3.578401e+002, 6.583997e+003
3.583222e+002, 6.573194e+003
3.588043e+002, 6.563369e+003
3.592864e+002, 6.551333e+003
3.597686e+002, 6.532652e+003
3.602507e+002, 6.512377e+003
3.607328e+002, 6.495325e+003
3.612149e+002, 6.484797e+003
3.616970e+002, 6.473503e+003
3.621791e+002, 6.457299e+003
3.626613e+002, 6.438070e+003
3.631434e+002, 6.420224e+003
3.636255e+002, 6.406995e+003
3.641076e+002, 6.393875e+003
3.645897e+002, 6.378490e+003
3.650718e+002, 6.360261e+003
3.655540e+002, 6.341858e+003
3.660361e+002, 6.322682e+003
3.665182e+002, 6.303968e+003
3.670003e+002, 6.287212e+003
3.674824e+002, 6.275405e+003
3.679645e+002, 6.262798e+003
3.684467e+002, 6.247604e+003
3.689288e+002, 6.229967e+003
3.694109e+002, 6.213646e+003
3.698930e+002, 6.198909e+003
3.703751e+002, 6.185478e+003
3.708572e+002, 6.173094e+003
3.713394e+002, 6.161385e+003
3.718215e+002, 6.151833e+003
3.723036e+002, 6.145609e+003
3.727857e+002, 6.141592e+003
3.732678e+002, 6.135372e+003
3.737499e+002, 6.124945e+003
3.742321e+002, 6.115594e+003
3.747142e+002, 6.109873e+003
3.751963e+002, 6.108250e+003
3.756784e+002, 6.107750e+003
3.761605e+002, 6.108032e+003
3.766426e+002, 6.109761e+003
3.771248e+002, 6.115343e+003
3.776069e+002, 6.126093e+003
3.780890e+002, 6.132924e+003
3.785711e+002, 6.131733e+003
3.790532e+002, 6.123683e+003
3.795353e+002, 6.116954e+003
3.800175e+002, 6.111484e+003
3.804996e+002, 6.107470e+003
3.809817e+002, 6.105394e+003
3.814638e+002, 6.105119e+003
3.819459e+002, 6.105325e+003
3.824280e+002, 6.105573e+003
3.829102e+002, 6.106359e+003
3.833923e+002, 6.109098e+003
3.838744e+002, 6.113579e+003
3.843565e+002, 6.117821e+003
3.848386e+002, 6.119979e+003
3.853207e+002, 6.121025e+003
3.858029e+002, 6.123009e+003
3.862850e+002, 6.126265e+003
3.867671e+002, 6.129761e+003
3.872492e+002, 6.132976e+003
3.877313e+002, 6.135671e+003
3.882134e+002, 6.137231e+003
3.886956e+002, 6.136673e+003
3.891777e+002, 6.135388e+003
3.896598e+002, 6.133901e+003
3.901419e+002, 6.132422e+003
3.906240e+002, 6.132954e+003
3.911061e+002, 6.139662e+003
3.915883e+002, 6.147901e+003
3.920704e+002, 6.152587e+003
3.925525e+002, 6.149338e+003
3.930346e+002, 6.146587e+003
3.935167e+002, 6.148048e+003
3.939988e+002, 6.153024e+003
3.944810e+002, 6.159482e+003
3.949631e+002, 6.167577e+003
3.954452e+002, 6.176311e+003
3.959273e+002, 6.185267e+003
3.964094e+002, 6.194492e+003
3.968915e+002, 6.203592e+003
3.973737e+002, 6.211608e+003
3.978558e+002, 6.219663e+003
3.983379e+002, 6.229128e+003
3.988200e+002, 6.243523e+003
3.993021e+002, 6.255526e+003
3.997842e+002, 6.262030e+003
4.002664e+002, 6.263010e+003
4.007485e+002, 6.268076e+003
4.012306e+002, 6.279049e+003
4.017127e+002, 6.292102e+003
4.021948e+002, 6.305022e+003
4.026769e+002, 6.318347e+003
4.031591e+002, 6.330276e+003
4.036412e+002, 6.340955e+003
4.041233e+002, 6.350001e+003
4.046054e+002, 6.356342e+003
4.050875e+002, 6.359063e+003
4.055696e+002, 6.361665e+003
4.060518e+002, 6.365667e+003
4.065339e+002, 6.371165e+003
4.070160e+002, 6.376435e+003
4.074981e+002, 6.381249e+003
4.079802e+002, 6.386667e+003
4.084623e+002, 6.394896e+003
4.089445e+002, 6.405944e+003
4.094266e+002, 6.414578e+003
4.099087e+002, 6.418167e+003
4.103908e+002, 6.419698e+003
4.108729e+002, 6.426673e+003
4.113550e+002, 6.439048e+003
4.118372e+002, 6.452268e+003
4.123193e+002, 6.465460e+003
4.128014e+002, 6.477006e+003
4.132835e+002, 6.481316e+003
4.137656e+002, 6.475686e+003
4.142477e+002, 6.470688e+003
4.147299e+002, 6.481341e+003
4.152120e+002, 6.501677e+003
4.156941e+002, 6.517169e+003
4.161762e+002, 6.514120e+003
4.166583e+002, 6.507600e+003
4.171404e+002, 6.512562e+003
4.176226e+002, 6.528805e+003
4.181047e+002, 6.544290e+003
4.185868e+002, 6.550800e+003
4.190689e+002, 6.553718e+003
4.195510e+002, 6.558371e+003
4.200331e+002, 6.567744e+003
4.205153e+002, 6.576822e+003
4.209974e+002, 6.583360e+003
4.214795e+002, 6.588163e+003
4.219616e+002, 6.592946e+003
4.224437e+002, 6.599056e+003
4.229258e+002, 6.604739e+003
4.234080e+002, 6.609172e+003
4.238901e+002, 6.612046e+003
4.243722e+002, 6.615303e+003
4.248543e+002, 6.618917e+003
4.253364e+002, 6.623296e+003
4.258185e+002, 6.628887e+003
4.263007e+002, 6.637338e+003
4.267828e+002, 6.644788e+003
4.272649e+002, 6.650217e+003
4.277470e+002, 6.654009e+003
4.282291e+002, 6.659079e+003
4.287112e+002, 6.666258e+003
4.291934e+002, 6.673048e+003
4.296755e+002, 6.677711e+003
4.301576e+002, 6.679398e+003
4.306397e+002, 6.682794e+003
4.311218e+002, 6.688145e+003
4.316039e+002, 6.694876e+003
4.320861e+002, 6.703196e+003
4.325682e+002, 6.713347e+003
4.330503e+002, 6.720896e+003
4.335324e+002, 6.723344e+003
4.340145e+002, 6.722316e+003
4.344966e+002, 6.723544e+003
4.349788e+002, 6.727147e+003
4.354609e+002, 6.731317e+003
4.359430e+002, 6.734484e+003
4.364251e+002, 6.737127e+003
4.369072e+002, 6.740349e+003
4.373893e+002, 6.744235e+003
4.378715e+002, 6.749190e+003
4.383536e+002, 6.756738e+003
4.388357e+002, 6.765871e+003
4.393178e+002, 6.773771e+003
4.397999e+002, 6.777048e+003
4.402820e+002, 6.779555e+003
4.407642e+002, 6.786015e+003
4.412463e+002, 6.796666e+003
4.417284e+002, 6.804394e+003
4.422105e+002, 6.803060e+003
4.426926e+002, 6.797876e+003
4.431747e+002, 6.793845e+003
4.436569e+002, 6.792890e+003
4.441390e+002, 6.792393e+003
4.446211e+002, 6.790859e+003
4.451032e+002, 6.789062e+003
4.455853e+002, 6.789323e+003
4.460674e+002, 6.794599e+003
4.465496e+002, 6.799920e+003
4.470317e+002, 6.803466e+003
4.475138e+002, 6.804786e+003
4.479959e+002, 6.806103e+003
4.484780e+002, 6.807194e+003
4.489601e+002, 6.808745e+003
4.494423e+002, 6.811523e+003
4.499244e+002, 6.816103e+003
4.504065e+002, 6.820950e+003
4.508886e+002, 6.825790e+003
4.513707e+002, 6.830748e+003
4.518528e+002, 6.836655e+003
4.523350e+002, 6.843837e+003
4.528171e+002, 6.850852e+003
4.532992e+002, 6.855962e+003
4.537813e+002, 6.859032e+003
4.542634e+002, 6.866549e+003
4.547455e+002, 6.879455e+003
4.552277e+002, 6.893877e+003
4.557098e+002, 6.905268e+003
4.561919e+002, 6.913742e+003
4.566740e+002, 6.921201e+003
4.571561e+002, 6.927544e+003
4.576382e+002, 6.933636e+003
4.581204e+002, 6.941480e+003
4.586025e+002, 6.950815e+003
4.590846e+002, 6.959015e+003
4.595667e+002, 6.962970e+003
4.600488e+002, 6.965482e+003
4.605309e+002, 6.970776e+003
4.610131e+002, 6.980174e+003
4.614952e+002, 6.989148e+003
4.619773e+002, 6.993606e+003
4.624594e+002, 6.995748e+003
4.629415e+002, 6.998841e+003
4.634236e+002, 7.005414e+003
4.639058e+002, 7.011883e+003
4.643879e+002, 7.017079e+003
4.648700e+002, 7.020854e+003
4.653521e+002, 7.023180e+003
4.658342e+002, 7.024635e+003
4.663163e+002, 7.024143e+003
4.667985e+002, 7.020749e+003
4.672806e+002, 7.011355e+003
4.677627e+002, 7.004667e+003
4.682448e+002, 7.003622e+003
4.687269e+002, 7.004167e+003
4.692090e+002, 7.000471e+003
4.696912e+002, 6.990619e+003
4.701733e+002, 6.979844e+003
4.706554e+002, 6.969315e+003
4.711375e+002, 6.958894e+003
4.716196e+002, 6.947173e+003
4.721017e+002, 6.933791e+003
4.725839e+002, 6.920029e+003
4.730660e+002, 6.906863e+003
4.735481e+002, 6.894377e+003
4.740302e+002, 6.879841e+003
4.745123e+002, 6.862675e+003
4.749944e+002, 6.844659e+003
4.754766e+002, 6.828828e+003
4.759587e+002, 6.814837e+003
4.764408e+002, 6.800014e+003
4.769229e+002, 6.783126e+003
4.774050e+002, 6.765203e+003
4.778871e+002, 6.747354e+003
4.783693e+002, 6.729788e+003
4.788514e+002, 6.713916e+003
4.793335e+002, 6.701758e+003
4.798156e+002, 6.691389e+003
4.802977e+002, 6.680434e+003
4.807798e+002, 6.668072e+003
4.812620e+002, 6.656455e+003
4.817441e+002, 6.646390e+003
4.822262e+002, 6.637864e+003
4.827083e+002, 6.630893e+003
4.831904e+002, 6.626380e+003
4.836725e+002, 6.622321e+003
4.841547e+002, 6.617898e+003
4.846368e+002, 6.613108e+003
4.851189e+002, 6.608681e+003
4.856010e+002, 6.605915e+003
4.860831e+002, 6.602464e+003
4.865652e+002, 6.596923e+003
4.870474e+002, 6.587029e+003
4.875295e+002, 6.579860e+003
4.880116e+002, 6.576750e+003
4.884937e+002, 6.575447e+003
4.889758e+002, 6.572687e+003
4.894579e+002, 6.567917e+003
4.899401e+002, 6.563390e+003
4.904222e+002, 6.559643e+003
4.909043e+002, 6.556548e+003
4.913864e+002, 6.553295e+003
4.918685e+002, 6.549820e+003
4.923506e+002, 6.546557e+003
4.928328e+002, 6.544202e+003
4.933149e+002, 6.542445e+003
4.937970e+002, 6.539013e+003
4.942791e+002, 6.533209e+003
4.947612e+002, 6.528651e+003
4.952433e+002, 6.531359e+003
4.957255e+002, 6.538676e+003
4.962076e+002, 6.543747e+003
4.966897e+002, 6.543142e+003
4.971718e+002, 6.540263e+003
4.976539e+002, 6.537260e+003
4.981360e+002, 6.534495e+003
4.986182e+002, 6.533217e+003
4.991003e+002, 6.535545e+003
4.995824e+002, 6.538639e+003
5.000645e+002, 6.540227e+003
5.005466e+002, 6.539542e+003
5.010287e+002, 6.539653e+003
5.015109e+002, 6.540796e+003
5.019930e+002, 6.543375e+003
5.024751e+002, 6.547786e+003
5.029572e+002, 6.556635e+003
5.034393e+002, 6.564180e+003
5.039214e+002, 6.570086e+003
5.044036e+002, 6.574190e+003
5.048857e+002, 6.575677e+003
5.053678e+002, 6.572308e+003
5.058499e+002, 6.570250e+003
5.063320e+002, 6.572303e+003
5.068141e+002, 6.578782e+003
5.072963e+002, 6.584996e+003
5.077784e+002, 6.590674e+003
5.082605e+002, 6.597124e+003
5.087426e+002, 6.606945e+003
5.092247e+002, 6.619761e+003
5.097068e+002, 6.629381e+003
5.101890e+002, 6.633641e+003
5.106711e+002, 6.636022e+003
5.111532e+002, 6.642549e+003
5.116353e+002, 6.652467e+003
5.121174e+002, 6.662076e+003
5.125995e+002, 6.668580e+003
5.130817e+002, 6.674221e+003
5.135638e+002, 6.682312e+003
5.140459e+002, 6.692756e+003
5.145280e+002, 6.702260e+003
5.150101e+002, 6.708388e+003
5.154922e+002, 6.712845e+003
5.159744e+002, 6.716917e+003
5.164565e+002, 6.719968e+003
5.169386e+002, 6.724706e+003
5.174207e+002, 6.731558e+003
5.179028e+002, 6.740829e+003
5.183849e+002, 6.752986e+003
5.188671e+002, 6.773069e+003
5.193492e+002, 6.790709e+003
5.198313e+002, 6.803339e+003
5.203134e+002, 6.811137e+003
5.207955e+002, 6.818305e+003
5.212776e+002, 6.823408e+003
5.217598e+002, 6.829896e+003
5.222419e+002, 6.840152e+003
5.227240e+002, 6.855171e+003
5.232061e+002, 6.868602e+003
5.236882e+002, 6.880271e+003
5.241703e+002, 6.890553e+003
5.246525e+002, 6.899708e+003
5.251346e+002, 6.907857e+003
5.256167e+002, 6.916018e+003
5.260988e+002, 6.924769e+003
5.265809e+002, 6.933362e+003
5.270630e+002, 6.940407e+003
5.275452e+002, 6.946015e+003
5.280273e+002, 6.950720e+003
5.285094e+002, 6.952479e+003
5.289915e+002, 6.954834e+003
5.294736e+002, 6.963332e+003
5.299557e+002, 6.978640e+003
5.304379e+002, 6.992319e+003
5.309200e+002, 6.998425e+003
5.314021e+002, 7.000862e+003
5.318842e+002, 7.003463e+003
5.323663e+002, 7.007104e+003
5.328484e+002, 7.010844e+003
5.333306e+002, 7.014901e+003
5.338127e+002, 7.018760e+003
5.342948e+002, 7.021269e+003
5.347769e+002, 7.020390e+003
5.352590e+002, 7.020482e+003
5.357411e+002, 7.023232e+003
5.362233e+002, 7.028546e+003
5.367054e+002, 7.031733e+003
5.371875e+002, 7.032576e+003
5.376696e+002, 7.031939e+003
5.381517e+002, 7.029854e+003
5.386339e+002, 7.026192e+003
5.391160e+002, 7.024216e+003
5.395981e+002, 7.024502e+003
5.400802e+002, 7.025555e+003
5.405623e+002, 7.025644e+003
5.410444e+002, 7.024789e+003
5.415266e+002, 7.022875e+003
5.420087e+002, 7.018577e+003
5.424908e+002, 7.014607e+003
5.429729e+002, 7.015970e+003
5.434550e+002, 7.021429e+003
5.439371e+002, 7.026197e+003
5.444193e+002, 7.026583e+003
5.449014e+002, 7.025741e+003
5.453835e+002, 7.026454e+003
5.458656e+002, 7.029016e+003
5.463477e+002, 7.031169e+003
5.468298e+002, 7.031211e+003
5.473120e+002, 7.030854e+003
5.477941e+002, 7.031546e+003
5.482762e+002, 7.035700e+003
5.487583e+002, 7.037822e+003
5.492404e+002, 7.037369e+003
5.497225e+002, 7.034658e+003
5.502047e+002, 7.029922e+003
5.506868e+002, 7.021716e+003
5.511689e+002, 7.014251e+003
5.516510e+002, 7.008784e+003
5.521331e+002, 7.005042e+003
5.526152e+002, 7.001514e+003
5.530974e+002, 6.998405e+003
5.535795e+002, 6.994954e+003
5.540616e+002, 6.990835e+003
5.545437e+002, 6.986123e+003
5.550258e+002, 6.980347e+003
5.555079e+002, 6.973319e+003
5.559901e+002, 6.967023e+003
5.564722e+002, 6.965561e+003
5.569543e+002, 6.966159e+003
5.574364e+002, 6.962289e+003
5.579185e+002, 6.948507e+003
5.584006e+002, 6.935431e+003
5.588828e+002, 6.933609e+003
5.593649e+002, 6.938771e+003
5.598470e+002, 6.941060e+003
5.603291e+002, 6.932768e+003
5.608112e+002, 6.923828e+003
5.612933e+002, 6.919147e+003
5.617755e+002, 6.918861e+003
5.622576e+002, 6.916596e+003
5.627397e+002, 6.909058e+003
5.632218e+002, 6.901141e+003
5.637039e+002, 6.895407e+003
5.641860e+002, 6.893504e+003
5.646682e+002, 6.889484e+003
5.651503e+002, 6.882925e+003
5.656324e+002, 6.874932e+003
5.661145e+002, 6.866646e+003
5.665966e+002, 6.857964e+003
5.670787e+002, 6.850586e+003
5.675609e+002, 6.845281e+003
5.680430e+002, 6.841287e+003
5.685251e+002, 6.837507e+003
5.690072e+002, 6.833845e+003
5.694893e+002, 6.829342e+003
5.699714e+002, 6.821616e+003
5.704536e+002, 6.813541e+003
5.709357e+002, 6.810250e+003
5.714178e+002, 6.811462e+003
5.718999e+002, 6.811750e+003
5.723820e+002, 6.805523e+003
5.728641e+002, 6.797890e+003
5.733463e+002, 6.793665e+003
5.738284e+002, 6.794817e+003
5.743105e+002, 6.795982e+003
5.747926e+002, 6.795304e+003
5.752747e+002, 6.793742e+003
5.757568e+002, 6.792515e+003
5.762390e+002, 6.791798e+003
5.767211e+002, 6.791178e+003
5.772032e+002, 6.790646e+003
5.776853e+002, 6.790163e+003
5.781674e+002, 6.789511e+003
5.786495e+002, 6.788494e+003
5.791317e+002, 6.788047e+003
5.796138e+002, 6.789242e+003
5.800959e+002, 6.791647e+003
5.805780e+002, 6.790915e+003
5.810601e+002, 6.786818e+003
5.815422e+002, 6.782422e+003
5.820244e+002, 6.780191e+003
5.825065e+002, 6.779681e+003
5.829886e+002, 6.779404e+003
5.834707e+002, 6.778857e+003
5.839528e+002, 6.780281e+003
5.844349e+002, 6.788124e+003
5.849171e+002, 6.798612e+003
5.853992e+002, 6.806111e+003
5.858813e+002, 6.806927e+003
5.863634e+002, 6.806167e+003
5.868455e+002, 6.805411e+003
5.873276e+002, 6.804562e+003
5.878098e+002, 6.803476e+003
5.882919e+002, 6.798749e+003
5.887740e+002, 6.797203e+003
5.892561e+002, 6.801909e+003
5.897382e+002, 6.812982e+003
5.902203e+002, 6.821489e+003
5.907025e+002, 6.826748e+003
5.911846e+002, 6.830472e+003
5.916667e+002, 6.833434e+003
5.921488e+002, 6.835582e+003
5.926309e+002, 6.838071e+003
5.931130e+002, 6.840937e+003
5.935952e+002, 6.844432e+003
5.940773e+002, 6.849867e+003
5.945594e+002, 6.856497e+003
5.950415e+002, 6.860942e+003
5.955236e+002, 6.861695e+003
5.960057e+002, 6.861489e+003
5.964879e+002, 6.862696e+003
5.969700e+002, 6.865303e+003
5.974521e+002, 6.869231e+003
5.979342e+002, 6.876054e+003
5.984163e+002, 6.882772e+003
5.988984e+002, 6.888259e+003
5.993806e+002, 6.892383e+003
5.998627e+002, 6.894300e+003
6.003448e+002, 6.891313e+003
6.008269e+002, 6.888117e+003
6.013090e+002, 6.887023e+003
6.017911e+002, 6.888725e+003
6.022733e+002, 6.889554e+003
6.027554e+002, 6.888894e+003
6.032375e+002, 6.888199e+003
6.037196e+002, 6.888877e+003
6.042017e+002, 6.891046e+003
6.046838e+002, 6.893724e+003
6.051660e+002, 6.897049e+003
6.056481e+002, 6.900392e+003
6.061302e+002, 6.902959e+003
6.066123e+002, 6.904709e+003
6.070944e+002, 6.905213e+003
6.075765e+002, 6.902878e+003
6.080587e+002, 6.900625e+003
6.085408e+002, 6.902028e+003
6.090229e+002, 6.906429e+003
6.095050e+002, 6.911597e+003
6.099871e+002, 6.917947e+003
6.104692e+002, 6.923312e+003
6.109514e+002, 6.925580e+003
6.114335e+002, 6.924382e+003
6.119156e+002, 6.924502e+003
6.123977e+002, 6.928174e+003
6.128798e+002, 6.932422e+003
6.133619e+002, 6.935382e+003
6.138441e+002, 6.936156e+003
6.143262e+002, 6.938052e+003
6.148083e+002, 6.941540e+003
6.152904e+002, 6.945636e+003
6.157725e+002, 6.948591e+003
6.162546e+002, 6.950272e+003
6.167368e+002, 6.954502e+003
6.172189e+002, 6.963120e+003
6.177010e+002, 6.972963e+003
6.181831e+002, 6.978314e+003
6.186652e+002, 6.979837e+003
6.191473e+002, 6.980067e+003
6.196295e+002, 6.977453e+003
6.201116e+002, 6.976024e+003
6.205937e+002, 6.981948e+003
6.210758e+002, 6.993536e+003
6.215579e+002, 7.002564e+003
6.220400e+002, 7.003009e+003
6.225222e+002, 7.001036e+003
6.230043e+002, 6.999289e+003
6.234864e+002, 6.997495e+003
6.239685e+002, 6.999014e+003
6.244506e+002, 7.006710e+003
6.249327e+002, 7.015631e+003
6.254149e+002, 7.022453e+003
6.258970e+002, 7.026041e+003
6.263791e+002, 7.030874e+003
6.268612e+002, 7.037575e+003
6.273433e+002, 7.044732e+003
6.278254e+002, 7.050104e+003
6.283076e+002, 7.053787e+003
6.287897e+002, 7.058234e+003
6.292718e+002, 7.064873e+003
6.297539e+002, 7.071271e+003
6.302360e+002, 7.071722e+003
6.307181e+002, 7.068314e+003
6.312003e+002, 7.067637e+003
6.316824e+002, 7.076194e+003
6.321645e+002, 7.086327e+003
6.326466e+002, 7.091511e+003
6.331287e+002, 7.092530e+003
6.336108e+002, 7.094767e+003
6.340930e+002, 7.100239e+003
6.345751e+002, 7.107320e+003
6.350572e+002, 7.115992e+003
6.355393e+002, 7.127247e+003
6.360214e+002, 7.134651e+003
6.365035e+002, 7.136524e+003
6.369857e+002, 7.136541e+003
6.374678e+002, 7.136938e+003
6.379499e+002, 7.137461e+003
6.384320e+002, 7.140386e+003
6.389141e+002, 7.146396e+003
6.393962e+002, 7.153110e+003
6.398784e+002, 7.156232e+003
6.403605e+002, 7.156952e+003
6.408426e+002, 7.160896e+003
6.413247e+002, 7.170835e+003
6.418068e+002, 7.182376e+003
6.422889e+002, 7.192032e+003
6.427711e+002, 7.199688e+003
6.432532e+002, 7.205285e+003
6.437353e+002, 7.206152e+003
6.442174e+002, 7.207435e+003
6.446995e+002, 7.212452e+003
6.451816e+002, 7.220530e+003
6.456638e+002, 7.226873e+003
6.461459e+002, 7.227528e+003
6.466280e+002, 7.229659e+003
6.471101e+002, 7.236458e+003
6.475922e+002, 7.248253e+003
6.480743e+002, 7.256800e+003
6.485565e+002, 7.260751e+003
6.490386e+002, 7.264534e+003
6.495207e+002, 7.271179e+003
6.500028e+002, 7.280456e+003
6.504849e+002, 7.291842e+003
6.509670e+002, 7.305522e+003
6.514492e+002, 7.318670e+003
6.519313e+002, 7.327071e+003
6.524134e+002, 7.332878e+003
6.528955e+002, 7.340458e+003
6.533776e+002, 7.352655e+003
6.538597e+002, 7.363285e+003
6.543419e+002, 7.366296e+003
6.548240e+002, 7.365889e+003
6.553061e+002, 7.368430e+003
6.557882e+002, 7.379032e+003
6.562703e+002, 7.389093e+003
6.567524e+002, 7.395971e+003
6.572346e+002, 7.401116e+003
6.577167e+002, 7.408917e+003
6.581988e+002, 7.420799e+003
6.586809e+002, 7.432270e+003
6.591630e+002, 7.441364e+003
6.596451e+002, 7.448731e+003
6.601273e+002, 7.458645e+003
6.606094e+002, 7.471305e+003
6.610915e+002, 7.483593e+003
6.615736e+002, 7.492417e+003
6.620557e+002, 7.499673e+003
6.625378e+002, 7.508948e+003
6.630200e+002, 7.520358e+003
6.635021e+002, 7.533396e+003
6.639842e+002, 7.548788e+003
6.644663e+002, 7.565013e+003
6.649484e+002, 7.580720e+003
6.654305e+002, 7.596188e+003
6.659127e+002, 7.609953e+003
6.663948e+002, 7.619766e+003
6.668769e+002, 7.628818e+003
6.673590e+002, 7.640239e+003
6.678411e+002, 7.653681e+003
6.683232e+002, 7.671101e+003
6.688054e+002, 7.695718e+003
6.692875e+002, 7.720850e+003
6.697696e+002, 7.731923e+003
6.702517e+002, 7.728572e+003
6.707338e+002, 7.729519e+003
6.712159e+002, 7.740838e+003
6.716981e+002, 7.758462e+003
6.721802e+002, 7.777011e+003
6.726623e+002, 7.796003e+003
6.731444e+002, 7.814468e+003
6.736265e+002, 7.831425e+003
6.741086e+002, 7.847781e+003
6.745908e+002, 7.864836e+003
6.750729e+002, 7.882130e+003
6.755550e+002, 7.897413e+003
6.760371e+002, 7.906530e+003
6.765192e+002, 7.916750e+003
6.770013e+002, 7.932022e+003
6.774835e+002, 7.952973e+003
6.779656e+002, 7.973126e+003
6.784477e+002, 7.991884e+003
6.789298e+002, 8.011289e+003
6.794119e+002, 8.032592e+003
6.798940e+002, 8.056042e+003
6.803762e+002, 8.080612e+003
6.808583e+002, 8.107046e+003
6.813404e+002, 8.131225e+003
6.818225e+002, 8.146087e+003
6.823046e+002, 8.156158e+003
6.827867e+002, 8.172301e+003
6.832689e+002, 8.198456e+003
6.837510e+002, 8.224497e+003
6.842331e+002, 8.239613e+003
6.847152e+002, 8.251131e+003
6.851973e+002, 8.268024e+003
6.856794e+002, 8.297755e+003
6.861616e+002, 8.327374e+003
6.866437e+002, 8.353888e+003
6.871258e+002, 8.379254e+003
6.876079e+002, 8.406695e+003
6.880900e+002, 8.436697e+003
6.885721e+002, 8.466649e+003
6.890543e+002, 8.495837e+003
6.895364e+002, 8.524097e+003
6.900185e+002, 8.550852e+003
6.905006e+002, 8.576026e+003
6.909827e+002, 8.602396e+003
6.914648e+002, 8.634252e+003
6.919470e+002, 8.666797e+003
6.924291e+002, 8.691910e+003
6.929112e+002, 8.710869e+003
6.933933e+002, 8.730759e+003
6.938754e+002, 8.756451e+003
6.943575e+002, 8.783997e+003
6.948397e+002, 8.810446e+003
6.953218e+002, 8.835478e+003
6.958039e+002, 8.863563e+003
6.962860e+002, 8.899028e+003
6.967681e+002, 8.934548e+003
6.972502e+002, 8.966636e+003
6.977324e+002, 8.994315e+003
6.982145e+002, 9.023284e+003
6.986966e+002, 9.053971e+003
6.991787e+002, 9.084912e+003
6.996608e+002, 9.113568e+003
7.001429e+002, 9.140734e+003
7.006251e+002, 9.172270e+003
7.011072e+002, 9.209432e+003
7.015893e+002, 9.247645e+003
7.020714e+002, 9.280856e+003
7.025535e+002, 9.312543e+003
7.030356e+002, 9.348181e+003
7.035178e+002, 9.390803e+003
7.039999e+002, 9.434034e+003
7.044820e+002, 9.473330e+003
7.049641e+002, 9.512064e+003
7.054462e+002, 9.556415e+003
7.059283e+002, 9.609388e+003
7.064105e+002, 9.663641e+003
7.068926e+002, 9.719149e+003
7.073747e+002, 9.775105e+003
7.078568e+002, 9.828638e+003
7.083389e+002, 9.879505e+003
7.088210e+002, 9.934824e+003
7.093032e+002, 9.997025e+003
7.097853e+002, 1.006555e+004
7.102674e+002, 1.013907e+004
7.107495e+002, 1.021772e+004
7.112316e+002, 1.029913e+004
7.117137e+002, 1.038031e+004
7.121959e+002, 1.046502e+004
7.126780e+002, 1.055584e+004
7.131601e+002, 1.065296e+004
7.136422e+002, 1.075379e+004
7.141243e+002, 1.086034e+004
7.146064e+002, 1.096924e+004
7.150886e+002, 1.107811e+004
7.155707e+002, 1.118765e+004
7.160528e+002, 1.130283e+004
7.165349e+002, 1.142545e+004
7.170170e+002, 1.155162e+004
7.174991e+002, 1.168109e+004
7.179813e+002, 1.181271e+004
7.184634e+002, 1.194720e+004
7.189455e+002, 1.208420e+004
7.194276e+002, 1.222039e+004
7.199097e+002, 1.235364e+004
7.203918e+002, 1.248434e+004
7.208740e+002, 1.261079e+004
7.213561e+002, 1.273406e+004
7.218382e+002, 1.285187e+004
7.223203e+002, 1.296642e+004
7.228024e+002, 1.307422e+004
7.232845e+002, 1.317357e+004
7.237667e+002, 1.326785e+004
7.242488e+002, 1.334890e+004
7.247309e+002, 1.341910e+004
7.252130e+002, 1.347423e+004
7.256951e+002, 1.350929e+004
7.261772e+002, 1.352391e+004
7.266594e+002, 1.352411e+004
7.271415e+002, 1.351135e+004
7.276236e+002, 1.348284e+004
7.281057e+002, 1.343338e+004
7.285878e+002, 1.336478e+004
7.290699e+002, 1.328138e+004
7.295521e+002, 1.318433e+004
7.300342e+002, 1.307347e+004
7.305163e+002, 1.294389e+004
7.309984e+002, 1.280134e+004
7.314805e+002, 1.265605e+004
7.319626e+002, 1.251380e+004
7.324448e+002, 1.236477e+004
7.329269e+002, 1.220537e+004
7.334090e+002, 1.203834e+004
7.338911e+002, 1.187424e+004
7.343732e+002, 1.171464e+004
7.348553e+002, 1.155757e+004
7.353375e+002, 1.140259e+004
7.358196e+002, 1.124986e+004
7.363017e+002, 1.109783e+004
7.367838e+002, 1.094751e+004
7.372659e+002, 1.080503e+004
7.377480e+002, 1.067708e+004
7.382302e+002, 1.055612e+004
7.387123e+002, 1.043280e+004
7.391944e+002, 1.030831e+004
7.396765e+002, 1.018933e+004
7.401586e+002, 1.007882e+004
7.406407e+002, 9.973415e+003
7.411229e+002, 9.873412e+003
7.416050e+002, 9.777750e+003
7.420871e+002, 9.684230e+003
7.425692e+002, 9.590138e+003
7.430513e+002, 9.503408e+003
7.435334e+002, 9.431088e+003
7.440156e+002, 9.370828e+003
7.444977e+002, 9.304269e+003
7.449798e+002, 9.231165e+003
7.454619e+002, 9.159968e+003
7.459440e+002, 9.096781e+003
7.464261e+002, 9.040409e+003
7.469083e+002, 8.989675e+003
7.473904e+002, 8.944502e+003
7.478725e+002, 8.901493e+003
7.483546e+002, 8.861192e+003
7.488367e+002, 8.821312e+003
7.493188e+002, 8.778849e+003
7.498010e+002, 8.731180e+003
7.502831e+002, 8.693368e+003
7.507652e+002, 8.670487e+003
7.512473e+002, 8.649407e+003
7.517294e+002, 8.617504e+003
7.522115e+002, 8.575252e+003
7.526937e+002, 8.539842e+003
7.531758e+002, 8.512645e+003
7.536579e+002, 8.489423e+003
7.541400e+002, 8.467653e+003
7.546221e+002, 8.446441e+003
7.551042e+002, 8.423197e+003
7.555864e+002, 8.396612e+003
7.560685e+002, 8.372821e+003
7.565506e+002, 8.358715e+003
7.570327e+002, 8.347479e+003
7.575148e+002, 8.332627e+003
7.579969e+002, 8.306136e+003
7.584791e+002, 8.287226e+003
7.589612e+002, 8.279300e+003
7.594433e+002, 8.275104e+003
7.599254e+002, 8.265295e+003
7.604075e+002, 8.249363e+003
7.608896e+002, 8.236432e+003
7.613718e+002, 8.228363e+003
7.618539e+002, 8.221793e+003
7.623360e+002, 8.211182e+003
7.628181e+002, 8.198843e+003
7.633002e+002, 8.190108e+003
7.637823e+002, 8.188985e+003
7.642645e+002, 8.187177e+003
7.647466e+002, 8.179329e+003
7.652287e+002, 8.168242e+003
7.657108e+002, 8.157884e+003
7.661929e+002, 8.148839e+003
7.666750e+002, 8.140833e+003
7.671572e+002, 8.133697e+003
7.676393e+002, 8.127836e+003
7.681214e+002, 8.124109e+003
7.686035e+002, 8.122647e+003
7.690856e+002, 8.121974e+003
7.695677e+002, 8.121984e+003
7.700499e+002, 8.121962e+003
7.705320e+002, 8.119761e+003
7.710141e+002, 8.116541e+003
7.714962e+002, 8.115391e+003
7.719783e+002, 8.120312e+003
7.724604e+002, 8.124688e+003
7.729426e+002, 8.123801e+003
7.734247e+002, 8.119850e+003
7.739068e+002, 8.118078e+003
7.743889e+002, 8.122503e+003
7.748710e+002, 8.123987e+003
7.753531e+002, 8.119036e+003
7.758353e+002, 8.111075e+003
7.763174e+002, 8.110729e+003
7.767995e+002, 8.118410e+003
7.772816e+002, 8.126184e+003
7.777637e+002, 8.130383e+003
7.782458e+002, 8.134022e+003
7.787280e+002, 8.143437e+003
7.792101e+002, 8.156888e+003
7.796922e+002, 8.168488e+003
7.801743e+002, 8.173533e+003
7.806564e+002, 8.178009e+003
7.811385e+002, 8.183123e+003
7.816207e+002, 8.189888e+003
7.821028e+002, 8.202658e+003
7.825849e+002, 8.226507e+003
7.830670e+002, 8.248146e+003
7.835491e+002, 8.262813e+003
7.840313e+002, 8.272860e+003
7.845134e+002, 8.288886e+003
7.849955e+002, 8.311051e+003
7.854776e+002, 8.332005e+003
7.859597e+002, 8.347291e+003
7.864418e+002, 8.360221e+003
7.869240e+002, 8.374455e+003
7.874061e+002, 8.390451e+003
7.878882e+002, 8.409987e+003
7.883703e+002, 8.436677e+003
7.888524e+002, 8.464081e+003
7.893345e+002, 8.488104e+003
7.898167e+002, 8.509537e+003
7.902988e+002, 8.533280e+003
7.907809e+002, 8.559541e+003
7.912630e+002, 8.588626e+003
7.917451e+002, 8.622458e+003
7.922272e+002, 8.658972e+003
7.927094e+002, 8.690104e+003
7.931915e+002, 8.715942e+003
7.936736e+002, 8.744540e+003
7.941557e+002, 8.782532e+003
7.946378e+002, 8.824317e+003
7.951199e+002, 8.861627e+003
7.956021e+002, 8.895246e+003
7.960842e+002, 8.931490e+003
7.965663e+002, 8.975220e+003
7.970484e+002, 9.019579e+003
7.975305e+002, 9.059097e+003
7.980126e+002, 9.094843e+003
7.984948e+002, 9.138738e+003
7.989769e+002, 9.192730e+003
7.994590e+002, 9.249882e+003
7.999411e+002, 9.306790e+003
8.004232e+002, 9.364548e+003
8.009053e+002, 9.424311e+003
8.013875e+002, 9.486108e+003
8.018696e+002, 9.549693e+003
8.023517e+002, 9.616532e+003
8.028338e+002, 9.685032e+003
8.033159e+002, 9.751010e+003
8.037980e+002, 9.816018e+003
8.042802e+002, 9.887777e+003
8.047623e+002, 9.973738e+003
8.052444e+002, 1.006157e+004
8.057265e+002, 1.014509e+004
8.062086e+002, 1.022524e+004
8.066907e+002, 1.031150e+004
8.071729e+002, 1.040481e+004
8.076550e+002, 1.050077e+004
8.081371e+002, 1.059760e+004
8.086192e+002, 1.069624e+004
8.091013e+002, 1.079951e+004
8.095834e+002, 1.090716e+004
8.100656e+002, 1.101759e+004
8.105477e+002, 1.113090e+004
8.110298e+002, 1.124593e+004
8.115119e+002, 1.136164e+004
8.119940e+002, 1.147883e+004
8.124761e+002, 1.160306e+004
8.129583e+002, 1.174124e+004
8.134404e+002, 1.187938e+004
8.139225e+002, 1.201335e+004
8.144046e+002, 1.214336e+004
8.148867e+002, 1.227782e+004
8.153688e+002, 1.241581e+004
8.158510e+002, 1.255530e+004
8.163331e+002, 1.269415e+004
8.168152e+002, 1.283455e+004
8.172973e+002, 1.297943e+004
8.177794e+002, 1.312795e+004
8.182615e+002, 1.327537e+004
8.187437e+002, 1.342096e+004
8.192258e+002, 1.356086e+004
8.197079e+002, 1.369652e+004
8.201900e+002, 1.382657e+004
8.206721e+002, 1.394086e+004
8.211542e+002, 1.403513e+004
8.216364e+002, 1.412482e+004
8.221185e+002, 1.421910e+004
8.226006e+002, 1.431005e+004
8.230827e+002, 1.437501e+004
8.235648e+002, 1.441540e+004
8.240469e+002, 1.444644e+004
8.245291e+002, 1.447985e+004
8.250112e+002, 1.450477e+004
8.254933e+002, 1.451187e+004
8.259754e+002, 1.450233e+004
8.264575e+002, 1.447992e+004
8.269396e+002, 1.444287e+004
8.274218e+002, 1.439635e+004
8.279039e+002, 1.434355e+004
8.283860e+002, 1.428282e+004
8.288681e+002, 1.420968e+004
8.293502e+002, 1.412265e+004
8.298323e+002, 1.402796e+004
8.303145e+002, 1.392777e+004
8.307966e+002, 1.382072e+004
8.312787e+002, 1.370264e+004
8.317608e+002, 1.357472e+004
8.322429e+002, 1.344461e+004
8.327250e+002, 1.331100e+004
8.332072e+002, 1.317887e+004
8.336893e+002, 1.305155e+004
8.341714e+002, 1.292752e+004
8.346535e+002, 1.280251e+004
8.351356e+002, 1.267191e+004
8.356177e+002, 1.254858e+004
8.360999e+002, 1.243511e+004
8.365820e+002, 1.232850e+004
8.370641e+002, 1.221885e+004
8.375462e+002, 1.210720e+004
8.380283e+002, 1.200577e+004
8.385104e+002, 1.192113e+004
8.389926e+002, 1.184331e+004
8.394747e+002, 1.176084e+004
8.399568e+002, 1.167773e+004
8.404389e+002, 1.159987e+004
8.409210e+002, 1.152838e+004
8.414031e+002, 1.146417e+004
8.418853e+002, 1.141034e+004
8.423674e+002, 1.136275e+004
8.428495e+002, 1.131642e+004
8.433316e+002, 1.127098e+004
8.438137e+002, 1.122800e+004
8.442958e+002, 1.118767e+004
8.447780e+002, 1.114991e+004
8.452601e+002, 1.111523e+004
8.457422e+002, 1.108314e+004
8.462243e+002, 1.105237e+004
8.467064e+002, 1.102449e+004
8.471885e+002, 1.099308e+004
8.476707e+002, 1.095136e+004
8.481528e+002, 1.090558e+004
8.486349e+002, 1.086309e+004
8.491170e+002, 1.082874e+004
8.495991e+002, 1.079138e+004
8.500812e+002, 1.075110e+004
8.505634e+002, 1.070771e+004
8.510455e+002, 1.065997e+004
8.515276e+002, 1.060829e+004
8.520097e+002, 1.055492e+004
8.524918e+002, 1.049982e+004
8.529739e+002, 1.044432e+004
8.534561e+002, 1.039192e+004
8.539382e+002, 1.033853e+004
8.544203e+002, 1.027890e+004
8.549024e+002, 1.020942e+004
8.553845e+002, 1.014207e+004
8.558666e+002, 1.007978e+004
8.563488e+002, 1.001826e+004
8.568309e+002, 9.956067e+003
8.573130e+002, 9.892428e+003
8.577951e+002, 9.827486e+003
8.582772e+002, 9.761247e+003
8.587593e+002, 9.696340e+003
8.592415e+002, 9.636769e+003
8.597236e+002, 9.579741e+003
8.602057e+002, 9.519146e+003
8.606878e+002, 9.454754e+003
8.611699e+002, 9.390027e+003
8.616520e+002, 9.324354e+003
8.621342e+002, 9.260338e+003
8.626163e+002, 9.199360e+003
8.630984e+002, 9.141981e+003
8.635805e+002, 9.084286e+003
8.640626e+002, 9.026221e+003
8.645447e+002, 8.969497e+003
8.650269e+002, 8.914354e+003
8.655090e+002, 8.861390e+003
8.659911e+002, 8.815759e+003
8.664732e+002, 8.776787e+003
8.669553e+002, 8.737707e+003
8.674374e+002, 8.692009e+003
8.679196e+002, 8.647118e+003
8.684017e+002, 8.610226e+003
8.688838e+002, 8.580280e+003
8.693659e+002, 8.548411e+003
8.698480e+002, 8.511626e+003
8.703301e+002, 8.476479e+003
8.708123e+002, 8.443854e+003
8.712944e+002, 8.414140e+003
8.717765e+002, 8.389287e+003
8.722586e+002, 8.369103e+003
8.727407e+002, 8.349264e+003
8.732228e+002, 8.329357e+003
8.737050e+002, 8.307494e+003
8.741871e+002, 8.279187e+003
8.746692e+002, 8.247823e+003
8.751513e+002, 8.220315e+003
8.756334e+002, 8.202571e+003
8.761155e+002, 8.184811e+003
8.765977e+002, 8.164187e+003
8.770798e+002, 8.143247e+003
8.775619e+002, 8.126955e+003
8.780440e+002, 8.115681e+003
8.785261e+002, 8.104880e+003
8.790082e+002, 8.093792e+003
8.794904e+002, 8.082020e+003
8.799725e+002, 8.068511e+003
8.804546e+002, 8.053834e+003
8.809367e+002, 8.038749e+003
8.814188e+002, 8.022514e+003
8.819009e+002, 8.007900e+003
8.823831e+002, 7.996903e+003
8.828652e+002, 7.987263e+003
8.833473e+002, 7.977139e+003
8.838294e+002, 7.966662e+003
8.843115e+002, 7.954431e+003
8.847936e+002, 7.939755e+003
8.852758e+002, 7.926065e+003
8.857579e+002, 7.918282e+003
8.862400e+002, 7.913959e+003
8.867221e+002, 7.906841e+003
8.872042e+002, 7.896047e+003
8.876863e+002, 7.886678e+003
8.881685e+002, 7.883939e+003
8.886506e+002, 7.881821e+003
8.891327e+002, 7.875394e+003
8.896148e+002, 7.863542e+003
8.900969e+002, 7.853744e+003
8.905790e+002, 7.845843e+003
8.910612e+002, 7.839717e+003
8.915433e+002, 7.835992e+003
8.920254e+002, 7.833727e+003
8.925075e+002, 7.829926e+003
8.929896e+002, 7.824529e+003
8.934717e+002, 7.817979e+003
8.939539e+002, 7.810230e+003
8.944360e+002, 7.801561e+003
8.949181e+002, 7.791345e+003
8.954002e+002, 7.780071e+003
8.958823e+002, 7.771174e+003
8.963644e+002, 7.766201e+003
8.968466e+002, 7.761173e+003
8.973287e+002, 7.755107e+003
8.978108e+002, 7.748455e+003
8.982929e+002, 7.741729e+003
8.987750e+002, 7.735193e+003
8.992571e+002, 7.730042e+003
8.997393e+002, 7.728582e+003
9.002214e+002, 7.725962e+003
9.007035e+002, 7.715354e+003
9.011856e+002, 7.701424e+003
9.016677e+002, 7.692241e+003
9.021498e+002, 7.691610e+003
9.026320e+002, 7.693251e+003
9.031141e+002, 7.698489e+003
9.035962e+002, 7.703470e+003
9.040783e+002, 7.701851e+003
9.045604e+002, 7.694166e+003
9.050425e+002, 7.688872e+003
9.055247e+002, 7.687588e+003
9.060068e+002, 7.686268e+003
9.064889e+002, 7.680136e+003
9.069710e+002, 7.672431e+003
9.074531e+002, 7.666547e+003
9.079352e+002, 7.662937e+003
9.084174e+002, 7.662056e+003
9.088995e+002, 7.667177e+003
9.093816e+002, 7.671285e+003
9.098637e+002, 7.669345e+003
9.103458e+002, 7.661371e+003
9.108279e+002, 7.656514e+003
9.113101e+002, 7.654813e+003
9.117922e+002, 7.652611e+003
9.122743e+002, 7.644954e+003
9.127564e+002, 7.636842e+003
9.132385e+002, 7.635006e+003
9.137206e+002, 7.638610e+003
9.142028e+002, 7.640210e+003
9.146849e+002, 7.635222e+003
9.151670e+002, 7.630626e+003
9.156491e+002, 7.628956e+003
9.161312e+002, 7.629243e+003
9.166133e+002, 7.627760e+003
9.170955e+002, 7.624556e+003
9.175776e+002, 7.620013e+003
9.180597e+002, 7.613053e+003
9.185418e+002, 7.606788e+003
9.190239e+002, 7.607103e+003
9.195060e+002, 7.610643e+003
9.199882e+002, 7.610873e+003
9.204703e+002, 7.600560e+003
9.209524e+002, 7.593367e+003
9.214345e+002, 7.592733e+003
9.219166e+002, 7.594984e+003
9.223987e+002, 7.595521e+003
9.228809e+002, 7.594042e+003
9.233630e+002, 7.594456e+003
9.238451e+002, 7.597488e+003
9.243272e+002, 7.600225e+003
9.248093e+002, 7.599843e+003
9.252914e+002, 7.597149e+003
9.257736e+002, 7.592616e+003
9.262557e+002, 7.585849e+003
9.267378e+002, 7.580750e+003
9.272199e+002, 7.579077e+003
9.277020e+002, 7.579169e+003
9.281841e+002, 7.580947e+003
9.286663e+002, 7.584459e+003
9.291484e+002, 7.585149e+003
9.296305e+002, 7.582897e+003
9.301126e+002, 7.581362e+003
9.305947e+002, 7.582853e+003
9.310768e+002, 7.586376e+003
9.315590e+002, 7.590961e+003
9.320411e+002, 7.596514e+003
9.325232e+002, 7.602517e+003
9.330053e+002, 7.609392e+003
9.334874e+002, 7.616013e+003
9.339695e+002, 7.621811e+003
9.344517e+002, 7.627341e+003
9.349338e+002, 7.633679e+003
9.354159e+002, 7.640770e+003
9.358980e+002, 7.651167e+003
9.363801e+002, 7.666595e+003
9.368622e+002, 7.682505e+003
9.373444e+002, 7.690983e+003
9.378265e+002, 7.697005e+003
9.383086e+002, 7.708418e+003
9.387907e+002, 7.731075e+003
9.392728e+002, 7.751377e+003
9.397549e+002, 7.764994e+003
9.402371e+002, 7.777327e+003
9.407192e+002, 7.793042e+003
9.412013e+002, 7.812122e+003
9.416834e+002, 7.831645e+003
9.421655e+002, 7.851423e+003
9.426476e+002, 7.870993e+003
9.431298e+002, 7.888903e+003
9.436119e+002, 7.906711e+003
9.440940e+002, 7.926930e+003
9.445761e+002, 7.949682e+003
9.450582e+002, 7.970748e+003
9.455403e+002, 7.987621e+003
9.460225e+002, 8.004478e+003
9.465046e+002, 8.022003e+003
9.469867e+002, 8.040622e+003
9.474688e+002, 8.064455e+003
9.479509e+002, 8.092685e+003
9.484330e+002, 8.116765e+003
9.489152e+002, 8.130822e+003
9.493973e+002, 8.142212e+003
9.498794e+002, 8.158578e+003
9.503615e+002, 8.177192e+003
9.508436e+002, 8.193286e+003
9.513257e+002, 8.203976e+003
9.518079e+002, 8.214678e+003
9.522900e+002, 8.228359e+003
9.527721e+002, 8.238610e+003
9.532542e+002, 8.236205e+003
9.537363e+002, 8.222585e+003
9.542184e+002, 8.208612e+003
9.547006e+002, 8.195609e+003
9.551827e+002, 8.180805e+003
9.556648e+002, 8.162692e+003
9.561469e+002, 8.141071e+003
9.566290e+002, 8.115550e+003
9.571111e+002, 8.085675e+003
9.575933e+002, 8.054970e+003
9.580754e+002, 8.024562e+003
9.585575e+002, 7.991361e+003
9.590396e+002, 7.953015e+003
9.595217e+002, 7.911477e+003
9.600038e+002, 7.872627e+003
9.604860e+002, 7.836201e+003
9.609681e+002, 7.800716e+003
9.614502e+002, 7.764270e+003
9.619323e+002, 7.729992e+003
9.624144e+002, 7.700277e+003
9.628965e+002, 7.674186e+003
9.633787e+002, 7.650330e+003
9.638608e+002, 7.628927e+003
9.643429e+002, 7.608030e+003
9.648250e+002, 7.587201e+003
9.653071e+002, 7.566761e+003
9.657892e+002, 7.544647e+003
9.662714e+002, 7.523865e+003
9.667535e+002, 7.514109e+003
9.672356e+002, 7.518999e+003
9.677177e+002, 7.520407e+003
9.681998e+002, 7.503812e+003
9.686819e+002, 7.483761e+003
9.691641e+002, 7.470833e+003
9.696462e+002, 7.465503e+003
9.701283e+002, 7.459963e+003
9.706104e+002, 7.453921e+003
9.710925e+002, 7.448835e+003
9.715746e+002, 7.445636e+003
9.720568e+002, 7.443805e+003
9.725389e+002, 7.444398e+003
9.730210e+002, 7.445776e+003
9.735031e+002, 7.442536e+003
9.739852e+002, 7.426462e+003
9.744673e+002, 7.412573e+003
9.749495e+002, 7.405255e+003
9.754316e+002, 7.402597e+003
9.759137e+002, 7.402713e+003
9.763958e+002, 7.405938e+003
9.768779e+002, 7.406421e+003
9.773600e+002, 7.402560e+003
9.778422e+002, 7.398854e+003
9.783243e+002, 7.402741e+003
9.788064e+002, 7.408414e+003
9.792885e+002, 7.407148e+003
9.797706e+002, 7.395163e+003
9.802527e+002, 7.388758e+003
9.807349e+002, 7.394451e+003
9.812170e+002, 7.400673e+003
9.816991e+002, 7.400322e+003
9.821812e+002, 7.394704e+003
9.826633e+002, 7.395354e+003
9.831454e+002, 7.401575e+003
9.836276e+002, 7.406255e+003
9.841097e+002, 7.402944e+003
9.845918e+002, 7.398374e+003
9.850739e+002, 7.396799e+003
9.855560e+002, 7.397943e+003
9.860381e+002, 7.401554e+003
9.865203e+002, 7.410642e+003
9.870024e+002, 7.415292e+003
9.874845e+002, 7.413616e+003
9.879666e+002, 7.408466e+003
9.884487e+002, 7.402926e+003
9.889308e+002, 7.397444e+003
9.894130e+002, 7.393319e+003
9.898951e+002, 7.391024e+003
9.903772e+002, 7.388636e+003
9.908593e+002, 7.383477e+003
9.913414e+002, 7.379141e+003
9.918235e+002, 7.378616e+003
9.923057e+002, 7.382056e+003
9.927878e+002, 7.385531e+003
9.932699e+002, 7.389166e+003
9.937520e+002, 7.392260e+003
9.942341e+002, 7.395553e+003
9.947162e+002, 7.397181e+003
9.951984e+002, 7.392201e+003
9.956805e+002, 7.382813e+003
9.961626e+002, 7.375229e+003
9.966447e+002, 7.370903e+003
9.971268e+002, 7.369929e+003
9.976089e+002, 7.374029e+003
9.980911e+002, 7.379821e+003
9.985732e+002, 7.383039e+003
9.990553e+002, 7.383693e+003
9.995374e+002, 7.380877e+003
1.000020e+003, 7.374125e+003
1.000502e+003, 7.367413e+003
1.000984e+003, 7.364348e+003
1.001466e+003, 7.363218e+003
1.001948e+003, 7.362557e+003
1.002430e+003, 7.362214e+003
1.002912e+003, 7.362193e+003
1.003394e+003, 7.363067e+003
1.003876e+003, 7.363064e+003
1.004359e+003, 7.360947e+003
1.004841e+003, 7.357803e+003
1.005323e+003, 7.357448e+003
1.005805e+003, 7.359228e+003
1.006287e+003, 7.360401e+003
1.006769e+003, 7.361016e+003
1.007251e+003, 7.359213e+003
1.007733e+003, 7.350505e+003
1.008216e+003, 7.340555e+003
1.008698e+003, 7.337531e+003
1.009180e+003, 7.343619e+003
1.009662e+003, 7.348736e+003
1.010144e+003, 7.352612e+003
1.010626e+003, 7.354115e+003
1.011108e+003, 7.349998e+003
1.011590e+003, 7.343717e+003
1.012072e+003, 7.340249e+003
1.012555e+003, 7.339858e+003
1.013037e+003, 7.341137e+003
1.013519e+003, 7.344870e+003
1.014001e+003, 7.348802e+003
1.014483e+003, 7.353306e+003
1.014965e+003, 7.357048e+003
1.015447e+003, 7.353992e+003
1.015929e+003, 7.344945e+003
1.016411e+003, 7.338789e+003
1.016894e+003, 7.339609e+003
1.017376e+003, 7.341524e+003
1.017858e+003, 7.338492e+003
1.018340e+003, 7.333981e+003
1.018822e+003, 7.332728e+003
1.019304e+003, 7.338183e+003
1.019786e+003, 7.339252e+003
1.020268e+003, 7.334628e+003
1.020751e+003, 7.329330e+003
1.021233e+003, 7.328121e+003
1.021715e+003, 7.329042e+003
1.022197e+003, 7.325489e+003
1.022679e+003, 7.318468e+003
1.023161e+003, 7.314523e+003
1.023643e+003, 7.320225e+003
1.024125e+003, 7.325871e+003
1.024607e+003, 7.326193e+003
1.025090e+003, 7.324238e+003
1.025572e+003, 7.327711e+003
1.026054e+003, 7.337251e+003
1.026536e+003, 7.340729e+003
1.027018e+003, 7.334576e+003
1.027500e+003, 7.327825e+003
1.027982e+003, 7.332854e+003
1.028464e+003, 7.341172e+003
1.028947e+003, 7.341917e+003
1.029429e+003, 7.331268e+003
1.029911e+003, 7.324952e+003
1.030393e+003, 7.326108e+003
1.030875e+003, 7.327979e+003
1.031357e+003, 7.327206e+003
1.031839e+003, 7.324713e+003
1.032321e+003, 7.322283e+003
1.032803e+003, 7.320607e+003
1.033286e+003, 7.322259e+003
1.033768e+003, 7.331702e+003
1.034250e+003, 7.341174e+003
1.034732e+003, 7.347141e+003
1.035214e+003, 7.351178e+003
1.035696e+003, 7.355701e+003
1.036178e+003, 7.361096e+003
1.036660e+003, 7.363834e+003
1.037143e+003, 7.363108e+003
1.037625e+003, 7.362861e+003
1.038107e+003, 7.366940e+003
1.038589e+003, 7.373398e+003
1.039071e+003, 7.380299e+003
1.039553e+003, 7.387389e+003
1.040035e+003, 7.393644e+003
1.040517e+003, 7.399456e+003
1.041000e+003, 7.403127e+003
1.041482e+003, 7.402677e+003
1.041964e+003, 7.401278e+003
1.042446e+003, 7.408291e+003
1.042928e+003, 7.421491e+003
1.043410e+003, 7.430807e+003
1.043892e+003, 7.431659e+003
1.044374e+003, 7.433300e+003
1.044856e+003, 7.443677e+003
1.045339e+003, 7.455695e+003
1.045821e+003, 7.462374e+003
1.046303e+003, 7.462378e+003
1.046785e+003, 7.466683e+003
1.047267e+003, 7.475487e+003
1.047749e+003, 7.486747e+003
1.048231e+003, 7.502150e+003
1.048713e+003, 7.516844e+003
1.049195e+003, 7.522102e+003
1.049677e+003, 7.521267e+003
1.050160e+003, 7.523889e+003
1.050642e+003, 7.534260e+003
1.051124e+003, 7.546572e+003
1.051606e+003, 7.561708e+003
1.052088e+003, 7.576210e+003
1.052570e+003, 7.584389e+003
1.053052e+003, 7.587783e+003
1.053534e+003, 7.591921e+003
1.054017e+003, 7.597456e+003
1.054499e+003, 7.603203e+003
1.054981e+003, 7.609470e+003
1.055463e+003, 7.614779e+003
1.055945e+003, 7.618341e+003
1.056427e+003, 7.620242e+003
1.056909e+003, 7.619877e+003
1.057391e+003, 7.617140e+003
1.057874e+003, 7.614255e+003
1.058356e+003, 7.612075e+003
1.058838e+003, 7.610098e+003
1.059320e+003, 7.608800e+003
1.059802e+003, 7.606937e+003
1.060284e+003, 7.602296e+003
1.060766e+003, 7.591891e+003
1.061248e+003, 7.585110e+003
1.061730e+003, 7.583385e+003
1.062213e+003, 7.583096e+003
1.062695e+003, 7.583251e+003
1.063177e+003, 7.582561e+003
1.063659e+003, 7.574602e+003
1.064141e+003, 7.560908e+003
1.064623e+003, 7.549169e+003
1.065105e+003, 7.544061e+003
1.065587e+003, 7.540537e+003
1.066070e+003, 7.538667e+003
1.066552e+003, 7.535875e+003
1.067034e+003, 7.526572e+003
1.067516e+003, 7.510349e+003
1.067998e+003, 7.501455e+003
1.068480e+003, 7.502258e+003
1.068962e+003, 7.503823e+003
1.069444e+003, 7.498108e+003
1.069927e+003, 7.489477e+003
1.070409e+003, 7.481627e+003
1.070891e+003, 7.475075e+003
1.071373e+003, 7.468098e+003
1.071855e+003, 7.460271e+003
1.072337e+003, 7.453474e+003
1.072819e+003, 7.448719e+003
1.073301e+003, 7.444612e+003
1.073783e+003, 7.437912e+003
1.074266e+003, 7.429960e+003
1.074748e+003, 7.423622e+003
1.075230e+003, 7.420241e+003
1.075712e+003, 7.416953e+003
1.076194e+003, 7.415135e+003
1.076676e+003, 7.410687e+003
1.077158e+003, 7.399315e+003
1.077640e+003, 7.382187e+003
1.078122e+003, 7.372260e+003
1.078604e+003, 7.368673e+003
1.079087e+003, 7.364233e+003
1.079569e+003, 7.353124e+003
1.080051e+003, 7.341751e+003
1.080533e+003, 7.333634e+003
1.081015e+003, 7.328038e+003
1.081497e+003, 7.323664e+003
1.081979e+003, 7.321440e+003
1.082461e+003, 7.315313e+003
1.082944e+003, 7.304182e+003
1.083426e+003, 7.293705e+003
1.083908e+003, 7.290679e+003
1.084390e+003, 7.290656e+003
1.084872e+003, 7.288975e+003
1.085354e+003, 7.285286e+003
1.085836e+003, 7.279535e+003
1.086318e+003, 7.267974e+003
1.086801e+003, 7.262043e+003
1.087283e+003, 7.266523e+003
1.087765e+003, 7.274783e+003
1.088247e+003, 7.274218e+003
1.088729e+003, 7.267580e+003
1.089211e+003, 7.261917e+003
1.089693e+003, 7.258763e+003
1.090175e+003, 7.256138e+003
1.090657e+003, 7.252882e+003
1.091140e+003, 7.250260e+003
1.091622e+003, 7.249500e+003
1.092104e+003, 7.250069e+003
1.092586e+003, 7.246964e+003
1.093068e+003, 7.240562e+003
1.093550e+003, 7.235723e+003
1.094032e+003, 7.235541e+003
1.094514e+003, 7.236224e+003
1.094997e+003, 7.236224e+003
1.095479e+003, 7.234829e+003
1.095961e+003, 7.230601e+003
1.096443e+003, 7.221456e+003
1.096925e+003, 7.217146e+003
1.097407e+003, 7.218171e+003
1.097889e+003, 7.220917e+003
1.098371e+003, 7.223526e+003
1.098854e+003, 7.225548e+003
1.099336e+003, 7.226316e+003
1.099818e+003, 7.225941e+003
1.100300e+003, 7.224918e+003
1.100782e+003, 7.223156e+003
1.101264e+003, 7.220925e+003
1.101746e+003, 7.217964e+003
1.102228e+003, 7.215204e+003
1.102710e+003, 7.213520e+003
1.103193e+003, 7.213153e+003
1.103675e+003, 7.215645e+003
1.104157e+003, 7.221188e+003
1.104639e+003, 7.224549e+003
1.105121e+003, 7.222818e+003
1.105603e+003, 7.218875e+003
1.106085e+003, 7.211995e+003
1.106567e+003, 7.204771e+003
1.107049e+003, 7.207408e+003
1.107531e+003, 7.218329e+003
1.108014e+003, 7.224415e+003
1.108496e+003, 7.220806e+003
1.108978e+003, 7.216383e+003
1.109460e+003, 7.216441e+003
1.109942e+003, 7.219108e+003
1.110424e+003, 7.224202e+003
1.110906e+003, 7.231977e+003
1.111388e+003, 7.230017e+003
1.111871e+003, 7.217427e+003
1.112353e+003, 7.208077e+003
1.112835e+003, 7.211825e+003
1.113317e+003, 7.218573e+003
1.113799e+003, 7.216362e+003
1.114281e+003, 7.209934e+003
1.114763e+003, 7.207279e+003
1.115245e+003, 7.213237e+003
1.115728e+003, 7.215758e+003
1.116210e+003, 7.214243e+003
1.116692e+003, 7.211627e+003
1.117174e+003, 7.208952e+003
1.117656e+003, 7.207568e+003
1.118138e+003, 7.211851e+003
1.118620e+003, 7.220037e+003
1.119102e+003, 7.224819e+003
1.119584e+003, 7.220352e+003
1.120067e+003, 7.216292e+003
1.120549e+003, 7.213243e+003
1.121031e+003, 7.212169e+003
1.121513e+003, 7.217050e+003
1.121995e+003, 7.224899e+003
1.122477e+003, 7.224298e+003
1.122959e+003, 7.214308e+003
1.123441e+003, 7.204455e+003
1.123924e+003, 7.198755e+003
1.124406e+003, 7.195505e+003
1.124888e+003, 7.193846e+003
1.125370e+003, 7.193929e+003
1.125852e+003, 7.198138e+003
1.126334e+003, 7.205763e+003
1.126816e+003, 7.206632e+003
1.127298e+003, 7.197061e+003
1.127781e+003, 7.187837e+003
1.128263e+003, 7.188661e+003
1.128745e+003, 7.192016e+003
1.129227e+003, 7.191347e+003
1.129709e+003, 7.186797e+003
1.130191e+003, 7.185007e+003
1.130673e+003, 7.186214e+003
1.131155e+003, 7.185931e+003
1.131637e+003, 7.181085e+003
1.132120e+003, 7.176136e+003
1.132602e+003, 7.173988e+003
1.133084e+003, 7.175439e+003
1.133566e+003, 7.182977e+003
1.134048e+003, 7.201293e+003
1.134530e+003, 7.208608e+003
1.135012e+003, 7.202288e+003
1.135494e+003, 7.195348e+003
1.135976e+003, 7.197759e+003
1.136458e+003, 7.203795e+003
1.136941e+003, 7.203761e+003
1.137423e+003, 7.199932e+003
1.137905e+003, 7.197804e+003
1.138387e+003, 7.200420e+003
1.138869e+003, 7.202664e+003
1.139351e+003, 7.204312e+003
1.139833e+003, 7.205447e+003
1.140315e+003, 7.205489e+003
1.140798e+003, 7.205236e+003
1.141280e+003, 7.207386e+003
1.141762e+003, 7.211438e+003
1.142244e+003, 7.213749e+003
1.142726e+003, 7.211988e+003
1.143208e+003, 7.209201e+003
1.143690e+003, 7.205622e+003
1.144172e+003, 7.202009e+003
1.144655e+003, 7.199603e+003
1.145137e+003, 7.198214e+003
1.145619e+003, 7.196952e+003
1.146101e+003, 7.195782e+003
1.146583e+003, 7.194317e+003
1.147065e+003, 7.190566e+003
1.147547e+003, 7.188762e+003
1.148029e+003, 7.191852e+003
1.148511e+003, 7.197744e+003
1.148994e+003, 7.200380e+003
1.149476e+003, 7.200052e+003
1.149958e+003, 7.198610e+003
1.150440e+003, 7.195873e+003
1.150922e+003, 7.195117e+003
1.151404e+003, 7.200233e+003
1.151886e+003, 7.206869e+003
1.152368e+003, 7.211896e+003
1.152851e+003, 7.215268e+003
1.153333e+003, 7.217151e+003
1.153815e+003, 7.217431e+003
1.154297e+003, 7.219479e+003
1.154779e+003, 7.225938e+003
1.155261e+003, 7.231234e+003
1.155743e+003, 7.228027e+003
1.156225e+003, 7.221935e+003
1.156708e+003, 7.220132e+003
1.157190e+003, 7.223931e+003
1.157672e+003, 7.222759e+003
1.158154e+003, 7.215670e+003
1.158636e+003, 7.212564e+003
1.159118e+003, 7.225358e+003
1.159600e+003, 7.238065e+003
1.160082e+003, 7.228459e+003
1.160564e+003, 7.207633e+003
1.161047e+003, 7.195114e+003
1.161529e+003, 7.197376e+003
1.162011e+003, 7.199306e+003
1.162493e+003, 7.201032e+003
1.162975e+003, 7.202106e+003
1.163457e+003, 7.200928e+003
1.163939e+003, 7.199714e+003
1.164421e+003, 7.202831e+003
1.164903e+003, 7.208530e+003
1.165385e+003, 7.211467e+003
1.165868e+003, 7.208356e+003
1.166350e+003, 7.205807e+003
1.166832e+003, 7.203939e+003
1.167314e+003, 7.203374e+003
1.167796e+003, 7.206679e+003
1.168278e+003, 7.210806e+003
1.168760e+003, 7.208525e+003
1.169242e+003, 7.200969e+003
1.169725e+003, 7.197623e+003
1.170207e+003, 7.205742e+003
1.170689e+003, 7.212129e+003
1.171171e+003, 7.214898e+003
1.171653e+003, 7.215174e+003
1.172135e+003, 7.213306e+003
1.172617e+003, 7.210484e+003
1.173099e+003, 7.209553e+003
1.173582e+003, 7.210803e+003
1.174064e+003, 7.211921e+003
1.174546e+003, 7.210380e+003
1.175028e+003, 7.211058e+003
1.175510e+003, 7.216281e+003
1.175992e+003, 7.222954e+003
1.176474e+003, 7.223931e+003
1.176956e+003, 7.221205e+003
1.177438e+003, 7.221087e+003
1.177921e+003, 7.225197e+003
1.178403e+003, 7.227795e+003
1.178885e+003, 7.224751e+003
1.179367e+003, 7.221808e+003
1.179849e+003, 7.221421e+003
1.180331e+003, 7.222705e+003
1.180813e+003, 7.223346e+003
1.181295e+003, 7.223288e+003
1.181778e+003, 7.221733e+003
1.182260e+003, 7.217501e+003
1.182742e+003, 7.215406e+003
1.183224e+003, 7.219158e+003
1.183706e+003, 7.224292e+003
1.184188e+003, 7.229036e+003
1.184670e+003, 7.232957e+003
1.185152e+003, 7.231795e+003
1.185635e+003, 7.226930e+003
1.186117e+003, 7.225985e+003
1.186599e+003, 7.234419e+003
1.187081e+003, 7.241740e+003
1.187563e+003, 7.241687e+003
1.188045e+003, 7.239324e+003
1.188527e+003, 7.238784e+003
1.189009e+003, 7.239746e+003
1.189491e+003, 7.236265e+003
1.189974e+003, 7.229233e+003
1.190456e+003, 7.225059e+003
1.190938e+003, 7.228042e+003
1.191420e+003, 7.233159e+003
1.191902e+003, 7.241499e+003
1.192384e+003, 7.248153e+003
1.192866e+003, 7.246985e+003
1.193348e+003, 7.237717e+003
1.193830e+003, 7.235930e+003
1.194313e+003, 7.240958e+003
1.194795e+003, 7.244359e+003
1.195277e+003, 7.238608e+003
1.195759e+003, 7.232583e+003
1.196241e+003, 7.232060e+003
1.196723e+003, 7.233501e+003
1.197205e+003, 7.231896e+003
1.197687e+003, 7.227116e+003
1.198169e+003, 7.226377e+003
1.198652e+003, 7.229886e+003
1.199134e+003, 7.233140e+003
1.199616e+003, 7.232618e+003
1.200098e+003, 7.231505e+003
1.200580e+003, 7.231350e+003
1.201062e+003, 7.232081e+003
1.201544e+003, 7.234675e+003
1.202026e+003, 7.239355e+003
1.202509e+003, 7.235693e+003
1.202991e+003, 7.222665e+003
1.203473e+003, 7.213216e+003
1.203955e+003, 7.219419e+003
1.204437e+003, 7.229458e+003
1.204919e+003, 7.237668e+003
1.205401e+003, 7.243353e+003
1.205883e+003, 7.244561e+003
1.206365e+003, 7.241102e+003
1.206848e+003, 7.239343e+003
1.207330e+003, 7.240166e+003
1.207812e+003, 7.240971e+003
1.208294e+003, 7.239704e+003
1.208776e+003, 7.237718e+003
1.209258e+003, 7.235326e+003
1.209740e+003, 7.233104e+003
1.210222e+003, 7.233288e+003
1.210705e+003, 7.235972e+003
1.211187e+003, 7.236894e+003
1.211669e+003, 7.235326e+003
1.212151e+003, 7.232561e+003
1.212633e+003, 7.228422e+003
1.213115e+003, 7.224718e+003
1.213597e+003, 7.223247e+003
1.214079e+003, 7.223437e+003
1.214562e+003, 7.222900e+003
1.215044e+003, 7.221713e+003
1.215526e+003, 7.222896e+003
1.216008e+003, 7.227662e+003
1.216490e+003, 7.231922e+003
1.216972e+003, 7.229869e+003
1.217454e+003, 7.228270e+003
1.217936e+003, 7.233907e+003
1.218418e+003, 7.244515e+003
1.218901e+003, 7.248131e+003
1.219383e+003, 7.245011e+003
1.219865e+003, 7.242231e+003
1.220347e+003, 7.242012e+003
1.220829e+003, 7.241433e+003
1.221311e+003, 7.237830e+003
1.221793e+003, 7.233369e+003
1.222275e+003, 7.229029e+003
1.222757e+003, 7.225204e+003
1.223240e+003, 7.225912e+003
1.223722e+003, 7.230638e+003
1.224204e+003, 7.231478e+003
1.224686e+003, 7.224532e+003
1.225168e+003, 7.217225e+003
1.225650e+003, 7.213393e+003
1.226132e+003, 7.212555e+003
1.226614e+003, 7.215267e+003
1.227096e+003, 7.220729e+003
1.227579e+003, 7.220800e+003
1.228061e+003, 7.215995e+003
1.228543e+003, 7.210224e+003
1.229025e+003, 7.203335e+003
1.229507e+003, 7.199688e+003
1.229989e+003, 7.204806e+003
1.230471e+003, 7.211553e+003
1.230953e+003, 7.214192e+003
1.231436e+003, 7.213172e+003
1.231918e+003, 7.212471e+003
1.232400e+003, 7.212279e+003
1.232882e+003, 7.214538e+003
1.233364e+003, 7.222616e+003
1.233846e+003, 7.228419e+003
1.234328e+003, 7.225679e+003
1.234810e+003, 7.221320e+003
1.235292e+003, 7.220386e+003
1.235775e+003, 7.222474e+003
1.236257e+003, 7.224919e+003
1.236739e+003, 7.227296e+003
1.237221e+003, 7.227063e+003
1.237703e+003, 7.219924e+003
1.238185e+003, 7.215218e+003
1.238667e+003, 7.219403e+003
1.239149e+003, 7.224398e+003
1.239632e+003, 7.223049e+003
1.240114e+003, 7.217307e+003
1.240596e+003, 7.221014e+003
1.241078e+003, 7.231563e+003
1.241560e+003, 7.238079e+003
1.242042e+003, 7.230354e+003
1.242524e+003, 7.225713e+003
1.243006e+003, 7.230084e+003
1.243489e+003, 7.236304e+003
1.243971e+003, 7.238883e+003
1.244453e+003, 7.238641e+003
1.244935e+003, 7.239428e+003
1.245417e+003, 7.240522e+003
1.245899e+003, 7.239218e+003
1.246381e+003, 7.229076e+003
1.246863e+003, 7.224813e+003
1.247345e+003, 7.230767e+003
1.247828e+003, 7.238299e+003
1.248310e+003, 7.239576e+003
1.248792e+003, 7.236945e+003
1.249274e+003, 7.236485e+003
1.249756e+003, 7.237735e+003
1.250238e+003, 7.238734e+003
1.250720e+003, 7.238768e+003
1.251202e+003, 7.238381e+003
1.251684e+003, 7.237091e+003
1.252167e+003, 7.236616e+003
1.252649e+003, 7.239602e+003
1.253131e+003, 7.243776e+003
1.253613e+003, 7.244305e+003
1.254095e+003, 7.242073e+003
1.254577e+003, 7.240317e+003
1.255059e+003, 7.238912e+003
1.255541e+003, 7.239584e+003
1.256023e+003, 7.242529e+003
1.256506e+003, 7.247052e+003
1.256988e+003, 7.255913e+003
1.257470e+003, 7.263760e+003
1.257952e+003, 7.260873e+003
1.258434e+003, 7.250675e+003
1.258916e+003, 7.243659e+003
1.259398e+003, 7.241677e+003
1.259880e+003, 7.241036e+003
1.260363e+003, 7.241442e+003
1.260845e+003, 7.244182e+003
1.261327e+003, 7.255168e+003
1.261809e+003, 7.264981e+003
1.262291e+003, 7.261944e+003
1.262773e+003, 7.250078e+003
1.263255e+003, 7.240620e+003
1.263737e+003, 7.234104e+003
1.264219e+003, 7.229358e+003
1.264702e+003, 7.226260e+003
1.265184e+003, 7.225491e+003
1.265666e+003, 7.231090e+003
1.266148e+003, 7.235794e+003
1.266630e+003, 7.231943e+003
1.267112e+003, 7.223766e+003
1.267594e+003, 7.220484e+003
1.268076e+003, 7.222458e+003
1.268559e+003, 7.224066e+003
1.269041e+003, 7.224975e+003
1.269523e+003, 7.225907e+003
1.270005e+003, 7.227613e+003
1.270487e+003, 7.229233e+003
1.270969e+003, 7.230494e+003
1.271451e+003, 7.231133e+003
1.271933e+003, 7.229708e+003
1.272416e+003, 7.226632e+003
1.272898e+003, 7.229482e+003
1.273380e+003, 7.237933e+003
1.273862e+003, 7.242909e+003
1.274344e+003, 7.235340e+003
1.274826e+003, 7.227989e+003
1.275308e+003, 7.224721e+003
1.275790e+003, 7.224429e+003
1.276272e+003, 7.226313e+003
1.276755e+003, 7.229997e+003
1.277237e+003, 7.235250e+003
1.277719e+003, 7.241406e+003
1.278201e+003, 7.244469e+003
1.278683e+003, 7.239307e+003
1.279165e+003, 7.235667e+003
1.279647e+003, 7.235801e+003
1.280129e+003, 7.237057e+003
1.280611e+003, 7.236570e+003
1.281094e+003, 7.234898e+003
1.281576e+003, 7.232194e+003
1.282058e+003, 7.229126e+003
1.282540e+003, 7.229019e+003
1.283022e+003, 7.235560e+003
1.283504e+003, 7.239280e+003
1.283986e+003, 7.238622e+003
1.284468e+003, 7.237038e+003
1.284950e+003, 7.238210e+003
1.285433e+003, 7.240365e+003
1.285915e+003, 7.240243e+003
1.286397e+003, 7.238957e+003
1.286879e+003, 7.241873e+003
1.287361e+003, 7.251925e+003
1.287843e+003, 7.254882e+003
1.288325e+003, 7.248688e+003
1.288807e+003, 7.242331e+003
1.289290e+003, 7.245215e+003
1.289772e+003, 7.249810e+003
1.290254e+003, 7.248989e+003
1.290736e+003, 7.244965e+003
1.291218e+003, 7.243660e+003
1.291700e+003, 7.245307e+003
1.292182e+003, 7.245432e+003
1.292664e+003, 7.243702e+003
1.293146e+003, 7.244697e+003
1.293629e+003, 7.257755e+003
1.294111e+003, 7.267651e+003
1.294593e+003, 7.261829e+003
1.295075e+003, 7.250153e+003
1.295557e+003, 7.243741e+003
1.296039e+003, 7.242266e+003
1.296521e+003, 7.243971e+003
1.297003e+003, 7.248217e+003
1.297486e+003, 7.251729e+003
1.297968e+003, 7.255563e+003
1.298450e+003, 7.255496e+003
1.298932e+003, 7.249758e+003
1.299414e+003, 7.242212e+003
1.299896e+003, 7.236314e+003
1.300378e+003, 7.232394e+003
1.300860e+003, 7.232083e+003
1.301343e+003, 7.235043e+003
1.301825e+003, 7.238854e+003
##END=



