##NAMES=Durangite
##RRUFFID=R120118
##IDEAL CHEMISTRY=NaAlAs^5+^O_4_F
##LOCALITY=Barranca mine, Coneto de Comonfort, Durango, Mexico
##OWNER=RRUFF
##SOURCE=Michael Shannon
##DESCRIPTION=Single orange crystal fragment, used in the Downs et al (2012) study
##STATUS=The identification of this mineral is confirmed by single-crystal X-ray diffraction and chemical analysis.
##URL=rruff.info/R120118
##MEASURED CHEMISTRY=(Na_0.95_Li_0.05_)(Al_0.91_Fe^3+^_0.07_Mn^3+^_0.02_)(As_1.0_O_4_)(F_0.73_(OH)_0.27_); Li and H by charge balance and difference
9.112140e+001, 0.000000e+000
9.160352e+001, 1.164974e+002
9.208563e+001, 1.151819e+002
9.256775e+001, 1.150400e+002
9.304987e+001, 1.166992e+002
9.353198e+001, 1.187150e+002
9.401410e+001, 1.190866e+002
9.449622e+001, 1.181444e+002
9.497833e+001, 1.168521e+002
9.546045e+001, 1.159884e+002
9.594257e+001, 1.155558e+002
9.642468e+001, 1.146388e+002
9.690680e+001, 1.128627e+002
9.738892e+001, 1.112151e+002
9.787103e+001, 1.102153e+002
9.835315e+001, 1.096059e+002
9.883527e+001, 1.087675e+002
9.931738e+001, 1.073677e+002
9.979950e+001, 1.053161e+002
1.002816e+002, 1.030382e+002
1.007637e+002, 1.000733e+002
1.012458e+002, 9.709129e+001
1.017280e+002, 9.475780e+001
1.022101e+002, 9.322823e+001
1.026922e+002, 9.212859e+001
1.031743e+002, 9.092226e+001
1.036564e+002, 8.961563e+001
1.041385e+002, 8.824429e+001
1.046207e+002, 8.659605e+001
1.051028e+002, 8.483073e+001
1.055849e+002, 8.353230e+001
1.060670e+002, 8.311762e+001
1.065491e+002, 8.301945e+001
1.070313e+002, 8.259657e+001
1.075134e+002, 8.178504e+001
1.079955e+002, 8.083633e+001
1.084776e+002, 7.994316e+001
1.089597e+002, 7.906286e+001
1.094418e+002, 7.841704e+001
1.099240e+002, 7.816741e+001
1.104061e+002, 7.810574e+001
1.108882e+002, 7.809683e+001
1.113703e+002, 7.808703e+001
1.118524e+002, 7.810927e+001
1.123345e+002, 7.823775e+001
1.128167e+002, 7.833348e+001
1.132988e+002, 7.877151e+001
1.137809e+002, 7.983325e+001
1.142630e+002, 8.119201e+001
1.147451e+002, 8.246508e+001
1.152272e+002, 8.340699e+001
1.157094e+002, 8.403472e+001
1.161915e+002, 8.450288e+001
1.166736e+002, 8.515164e+001
1.171557e+002, 8.535332e+001
1.176378e+002, 8.480675e+001
1.181199e+002, 8.358981e+001
1.186021e+002, 8.196080e+001
1.190842e+002, 8.002586e+001
1.195663e+002, 7.777187e+001
1.200484e+002, 7.600117e+001
1.205305e+002, 7.493324e+001
1.210126e+002, 7.418961e+001
1.214948e+002, 7.343243e+001
1.219769e+002, 7.260542e+001
1.224590e+002, 7.190590e+001
1.229411e+002, 7.170037e+001
1.234232e+002, 7.184670e+001
1.239053e+002, 7.187839e+001
1.243875e+002, 7.149765e+001
1.248696e+002, 7.087477e+001
1.253517e+002, 7.047932e+001
1.258338e+002, 7.038683e+001
1.263159e+002, 7.053377e+001
1.267980e+002, 7.080846e+001
1.272802e+002, 7.122141e+001
1.277623e+002, 7.181699e+001
1.282444e+002, 7.270182e+001
1.287265e+002, 7.390581e+001
1.292086e+002, 7.504345e+001
1.296907e+002, 7.599682e+001
1.301729e+002, 7.694251e+001
1.306550e+002, 7.786574e+001
1.311371e+002, 7.880755e+001
1.316192e+002, 7.991904e+001
1.321013e+002, 8.138841e+001
1.325834e+002, 8.323390e+001
1.330656e+002, 8.551863e+001
1.335477e+002, 8.844712e+001
1.340298e+002, 9.160480e+001
1.345119e+002, 9.482368e+001
1.349940e+002, 9.800844e+001
1.354761e+002, 1.009912e+002
1.359583e+002, 1.033501e+002
1.364404e+002, 1.055489e+002
1.369225e+002, 1.064362e+002
1.374046e+002, 1.057799e+002
1.378867e+002, 1.038031e+002
1.383688e+002, 1.006563e+002
1.388510e+002, 9.626974e+001
1.393331e+002, 9.100513e+001
1.398152e+002, 8.603560e+001
1.402973e+002, 8.108913e+001
1.407794e+002, 7.667493e+001
1.412615e+002, 7.300991e+001
1.417437e+002, 7.007096e+001
1.422258e+002, 6.770903e+001
1.427079e+002, 6.601514e+001
1.431900e+002, 6.485207e+001
1.436721e+002, 6.379100e+001
1.441542e+002, 6.280177e+001
1.446364e+002, 6.192483e+001
1.451185e+002, 6.116766e+001
1.456006e+002, 6.051335e+001
1.460827e+002, 6.008650e+001
1.465648e+002, 6.010775e+001
1.470469e+002, 6.034457e+001
1.475291e+002, 6.056072e+001
1.480112e+002, 6.061650e+001
1.484933e+002, 6.066346e+001
1.489754e+002, 6.107722e+001
1.494575e+002, 6.208873e+001
1.499396e+002, 6.309527e+001
1.504218e+002, 6.381570e+001
1.509039e+002, 6.443272e+001
1.513860e+002, 6.516605e+001
1.518681e+002, 6.613149e+001
1.523502e+002, 6.733599e+001
1.528323e+002, 6.877432e+001
1.533145e+002, 7.073770e+001
1.537966e+002, 7.267678e+001
1.542787e+002, 7.446728e+001
1.547608e+002, 7.615530e+001
1.552429e+002, 7.784980e+001
1.557250e+002, 7.963528e+001
1.562072e+002, 8.150370e+001
1.566893e+002, 8.354587e+001
1.571714e+002, 8.572312e+001
1.576535e+002, 8.807265e+001
1.581356e+002, 9.064206e+001
1.586177e+002, 9.341590e+001
1.590999e+002, 9.634856e+001
1.595820e+002, 9.939897e+001
1.600641e+002, 1.025973e+002
1.605462e+002, 1.058917e+002
1.610283e+002, 1.092422e+002
1.615104e+002, 1.126898e+002
1.619926e+002, 1.164576e+002
1.624747e+002, 1.205524e+002
1.629568e+002, 1.244101e+002
1.634389e+002, 1.273965e+002
1.639210e+002, 1.295419e+002
1.644031e+002, 1.310653e+002
1.648853e+002, 1.322442e+002
1.653674e+002, 1.327418e+002
1.658495e+002, 1.320085e+002
1.663316e+002, 1.298817e+002
1.668137e+002, 1.266857e+002
1.672958e+002, 1.225180e+002
1.677780e+002, 1.175498e+002
1.682601e+002, 1.122222e+002
1.687422e+002, 1.065303e+002
1.692243e+002, 1.005886e+002
1.697064e+002, 9.495090e+001
1.701885e+002, 8.967989e+001
1.706707e+002, 8.478053e+001
1.711528e+002, 8.018298e+001
1.716349e+002, 7.588511e+001
1.721170e+002, 7.184041e+001
1.725991e+002, 6.792158e+001
1.730812e+002, 6.410699e+001
1.735634e+002, 6.088396e+001
1.740455e+002, 5.858220e+001
1.745276e+002, 5.668556e+001
1.750097e+002, 5.512292e+001
1.754918e+002, 5.382651e+001
1.759739e+002, 5.266653e+001
1.764561e+002, 5.152248e+001
1.769382e+002, 5.038251e+001
1.774203e+002, 4.927141e+001
1.779024e+002, 4.803526e+001
1.783845e+002, 4.694027e+001
1.788666e+002, 4.622094e+001
1.793488e+002, 4.586201e+001
1.798309e+002, 4.560646e+001
1.803130e+002, 4.508778e+001
1.807951e+002, 4.404140e+001
1.812772e+002, 4.335248e+001
1.817593e+002, 4.323324e+001
1.822415e+002, 4.328440e+001
1.827236e+002, 4.321539e+001
1.832057e+002, 4.295803e+001
1.836878e+002, 4.264185e+001
1.841699e+002, 4.246894e+001
1.846520e+002, 4.256520e+001
1.851342e+002, 4.255904e+001
1.856163e+002, 4.228363e+001
1.860984e+002, 4.197118e+001
1.865805e+002, 4.195056e+001
1.870626e+002, 4.233893e+001
1.875447e+002, 4.280479e+001
1.880269e+002, 4.270121e+001
1.885090e+002, 4.185893e+001
1.889911e+002, 4.123898e+001
1.894732e+002, 4.114777e+001
1.899553e+002, 4.140250e+001
1.904374e+002, 4.167699e+001
1.909196e+002, 4.185636e+001
1.914017e+002, 4.208803e+001
1.918838e+002, 4.263739e+001
1.923659e+002, 4.351725e+001
1.928480e+002, 4.436861e+001
1.933301e+002, 4.511433e+001
1.938123e+002, 4.571838e+001
1.942944e+002, 4.601707e+001
1.947765e+002, 4.580756e+001
1.952586e+002, 4.546070e+001
1.957407e+002, 4.530323e+001
1.962228e+002, 4.533455e+001
1.967050e+002, 4.561420e+001
1.971871e+002, 4.627882e+001
1.976692e+002, 4.731089e+001
1.981513e+002, 4.830680e+001
1.986334e+002, 4.912598e+001
1.991155e+002, 4.994184e+001
1.995977e+002, 5.083973e+001
2.000798e+002, 5.183393e+001
2.005619e+002, 5.294085e+001
2.010440e+002, 5.419051e+001
2.015261e+002, 5.560163e+001
2.020082e+002, 5.708630e+001
2.024904e+002, 5.877069e+001
2.029725e+002, 6.043748e+001
2.034546e+002, 6.200128e+001
2.039367e+002, 6.344399e+001
2.044188e+002, 6.478175e+001
2.049009e+002, 6.608523e+001
2.053831e+002, 6.748978e+001
2.058652e+002, 6.840573e+001
2.063473e+002, 6.895892e+001
2.068294e+002, 6.897751e+001
2.073115e+002, 6.834243e+001
2.077936e+002, 6.703654e+001
2.082758e+002, 6.509799e+001
2.087579e+002, 6.246979e+001
2.092400e+002, 5.852570e+001
2.097221e+002, 5.529594e+001
2.102042e+002, 5.288427e+001
2.106863e+002, 5.097833e+001
2.111685e+002, 4.945764e+001
2.116506e+002, 4.825460e+001
2.121327e+002, 4.724559e+001
2.126148e+002, 4.623846e+001
2.130969e+002, 4.515622e+001
2.135790e+002, 4.428988e+001
2.140612e+002, 4.369946e+001
2.145433e+002, 4.326984e+001
2.150254e+002, 4.294844e+001
2.155075e+002, 4.271400e+001
2.159896e+002, 4.249609e+001
2.164717e+002, 4.219934e+001
2.169539e+002, 4.179578e+001
2.174360e+002, 4.135681e+001
2.179181e+002, 4.080251e+001
2.184002e+002, 4.025246e+001
2.188823e+002, 3.983554e+001
2.193644e+002, 3.958501e+001
2.198466e+002, 3.940540e+001
2.203287e+002, 3.915028e+001
2.208108e+002, 3.877956e+001
2.212929e+002, 3.855732e+001
2.217750e+002, 3.857634e+001
2.222571e+002, 3.874139e+001
2.227393e+002, 3.896513e+001
2.232214e+002, 3.924163e+001
2.237035e+002, 3.950228e+001
2.241856e+002, 3.962122e+001
2.246677e+002, 3.960963e+001
2.251498e+002, 3.965937e+001
2.256320e+002, 3.994340e+001
2.261141e+002, 4.028931e+001
2.265962e+002, 4.033529e+001
2.270783e+002, 3.991209e+001
2.275604e+002, 3.951724e+001
2.280425e+002, 3.974320e+001
2.285247e+002, 4.045192e+001
2.290068e+002, 4.115151e+001
2.294889e+002, 4.166719e+001
2.299710e+002, 4.203724e+001
2.304531e+002, 4.234315e+001
2.309352e+002, 4.258130e+001
2.314174e+002, 4.277126e+001
2.318995e+002, 4.284489e+001
2.323816e+002, 4.286764e+001
2.328637e+002, 4.303770e+001
2.333458e+002, 4.357225e+001
2.338279e+002, 4.434018e+001
2.343101e+002, 4.490215e+001
2.347922e+002, 4.512781e+001
2.352743e+002, 4.533777e+001
2.357564e+002, 4.566924e+001
2.362385e+002, 4.611682e+001
2.367206e+002, 4.668097e+001
2.372028e+002, 4.737452e+001
2.376849e+002, 4.818315e+001
2.381670e+002, 4.907594e+001
2.386491e+002, 5.014957e+001
2.391312e+002, 5.115890e+001
2.396133e+002, 5.194767e+001
2.400955e+002, 5.262318e+001
2.405776e+002, 5.336516e+001
2.410597e+002, 5.424795e+001
2.415418e+002, 5.528697e+001
2.420239e+002, 5.655117e+001
2.425060e+002, 5.820270e+001
2.429882e+002, 5.988278e+001
2.434703e+002, 6.142360e+001
2.439524e+002, 6.293692e+001
2.444345e+002, 6.460592e+001
2.449166e+002, 6.655157e+001
2.453987e+002, 6.871483e+001
2.458809e+002, 7.076820e+001
2.463630e+002, 7.252294e+001
2.468451e+002, 7.441631e+001
2.473272e+002, 7.684252e+001
2.478093e+002, 7.937246e+001
2.482914e+002, 8.142036e+001
2.487736e+002, 8.265527e+001
2.492557e+002, 8.324546e+001
2.497378e+002, 8.387817e+001
2.502199e+002, 8.497465e+001
2.507020e+002, 8.554787e+001
2.511841e+002, 8.532500e+001
2.516663e+002, 8.457334e+001
2.521484e+002, 8.349781e+001
2.526305e+002, 8.218187e+001
2.531126e+002, 8.080704e+001
2.535947e+002, 7.992033e+001
2.540768e+002, 7.983325e+001
2.545590e+002, 7.994077e+001
2.550411e+002, 8.030955e+001
2.555232e+002, 8.080918e+001
2.560053e+002, 8.121627e+001
2.564874e+002, 8.143925e+001
2.569695e+002, 8.171761e+001
2.574517e+002, 8.262733e+001
2.579338e+002, 8.451921e+001
2.584159e+002, 8.672684e+001
2.588980e+002, 8.931905e+001
2.593801e+002, 9.219605e+001
2.598622e+002, 9.520254e+001
2.603444e+002, 9.829121e+001
2.608265e+002, 1.016683e+002
2.613086e+002, 1.057238e+002
2.617907e+002, 1.108842e+002
2.622728e+002, 1.161933e+002
2.627549e+002, 1.216292e+002
2.632371e+002, 1.272383e+002
2.637192e+002, 1.333281e+002
2.642013e+002, 1.399539e+002
2.646834e+002, 1.463347e+002
2.651655e+002, 1.513610e+002
2.656476e+002, 1.548331e+002
2.661298e+002, 1.569646e+002
2.666119e+002, 1.577835e+002
2.670940e+002, 1.572609e+002
2.675761e+002, 1.551779e+002
2.680582e+002, 1.515187e+002
2.685403e+002, 1.468349e+002
2.690225e+002, 1.416665e+002
2.695046e+002, 1.359070e+002
2.699867e+002, 1.300101e+002
2.704688e+002, 1.237607e+002
2.709509e+002, 1.175351e+002
2.714330e+002, 1.114754e+002
2.719152e+002, 1.056482e+002
2.723973e+002, 1.004147e+002
2.728794e+002, 9.623418e+001
2.733615e+002, 9.321609e+001
2.738436e+002, 9.037016e+001
2.743257e+002, 8.751346e+001
2.748079e+002, 8.492295e+001
2.752900e+002, 8.287829e+001
2.757721e+002, 8.137162e+001
2.762542e+002, 8.021339e+001
2.767363e+002, 7.938835e+001
2.772184e+002, 7.883028e+001
2.777006e+002, 7.793832e+001
2.781827e+002, 7.637215e+001
2.786648e+002, 7.474654e+001
2.791469e+002, 7.364442e+001
2.796290e+002, 7.298585e+001
2.801111e+002, 7.204926e+001
2.805933e+002, 7.028102e+001
2.810754e+002, 6.792966e+001
2.815575e+002, 6.593529e+001
2.820396e+002, 6.445303e+001
2.825217e+002, 6.313720e+001
2.830038e+002, 6.168797e+001
2.834860e+002, 6.017888e+001
2.839681e+002, 5.899144e+001
2.844502e+002, 5.834787e+001
2.849323e+002, 5.811776e+001
2.854144e+002, 5.797987e+001
2.858965e+002, 5.798544e+001
2.863787e+002, 5.795665e+001
2.868608e+002, 5.780763e+001
2.873429e+002, 5.754717e+001
2.878250e+002, 5.715836e+001
2.883071e+002, 5.651544e+001
2.887892e+002, 5.591485e+001
2.892714e+002, 5.582412e+001
2.897535e+002, 5.629280e+001
2.902356e+002, 5.676443e+001
2.907177e+002, 5.690047e+001
2.911998e+002, 5.683961e+001
2.916819e+002, 5.698256e+001
2.921641e+002, 5.748957e+001
2.926462e+002, 5.807863e+001
2.931283e+002, 5.842970e+001
2.936104e+002, 5.857088e+001
2.940925e+002, 5.869191e+001
2.945746e+002, 5.876188e+001
2.950568e+002, 5.887891e+001
2.955389e+002, 5.925530e+001
2.960210e+002, 5.994818e+001
2.965031e+002, 6.080468e+001
2.969852e+002, 6.166884e+001
2.974673e+002, 6.258074e+001
2.979495e+002, 6.371862e+001
2.984316e+002, 6.532110e+001
2.989137e+002, 6.710884e+001
2.993958e+002, 6.858093e+001
2.998779e+002, 6.963377e+001
3.003600e+002, 7.082729e+001
3.008422e+002, 7.261490e+001
3.013243e+002, 7.479095e+001
3.018064e+002, 7.700681e+001
3.022885e+002, 7.915450e+001
3.027706e+002, 8.137210e+001
3.032527e+002, 8.377518e+001
3.037349e+002, 8.636597e+001
3.042170e+002, 8.925716e+001
3.046991e+002, 9.256554e+001
3.051812e+002, 9.620418e+001
3.056633e+002, 1.000860e+002
3.061454e+002, 1.042867e+002
3.066276e+002, 1.084949e+002
3.071097e+002, 1.123375e+002
3.075918e+002, 1.158387e+002
3.080739e+002, 1.195884e+002
3.085560e+002, 1.238122e+002
3.090381e+002, 1.283188e+002
3.095203e+002, 1.328881e+002
3.100024e+002, 1.375468e+002
3.104845e+002, 1.421350e+002
3.109666e+002, 1.461230e+002
3.114487e+002, 1.497942e+002
3.119308e+002, 1.545083e+002
3.124130e+002, 1.604705e+002
3.128951e+002, 1.677008e+002
3.133772e+002, 1.758332e+002
3.138593e+002, 1.849099e+002
3.143414e+002, 1.952898e+002
3.148235e+002, 2.069142e+002
3.153057e+002, 2.199890e+002
3.157878e+002, 2.352566e+002
3.162699e+002, 2.528286e+002
3.167520e+002, 2.724033e+002
3.172341e+002, 2.933592e+002
3.177162e+002, 3.158767e+002
3.181984e+002, 3.410572e+002
3.186805e+002, 3.688908e+002
3.191626e+002, 3.997084e+002
3.196447e+002, 4.342951e+002
3.201268e+002, 4.729151e+002
3.206089e+002, 5.139429e+002
3.210911e+002, 5.584899e+002
3.215732e+002, 6.046629e+002
3.220553e+002, 6.501620e+002
3.225374e+002, 6.961647e+002
3.230195e+002, 7.390753e+002
3.235016e+002, 7.775633e+002
3.239838e+002, 8.119498e+002
3.244659e+002, 8.334187e+002
3.249480e+002, 8.383839e+002
3.254301e+002, 8.270042e+002
3.259122e+002, 8.003073e+002
3.263943e+002, 7.567198e+002
3.268765e+002, 7.050515e+002
3.273586e+002, 6.481586e+002
3.278407e+002, 5.871212e+002
3.283228e+002, 5.289154e+002
3.288049e+002, 4.741298e+002
3.292870e+002, 4.244890e+002
3.297692e+002, 3.814884e+002
3.302513e+002, 3.448492e+002
3.307334e+002, 3.122721e+002
3.312155e+002, 2.832504e+002
3.316976e+002, 2.575933e+002
3.321797e+002, 2.349424e+002
3.326619e+002, 2.153711e+002
3.331440e+002, 1.985559e+002
3.336261e+002, 1.852680e+002
3.341082e+002, 1.745817e+002
3.345903e+002, 1.645970e+002
3.350724e+002, 1.546053e+002
3.355546e+002, 1.451814e+002
3.360367e+002, 1.371876e+002
3.365188e+002, 1.307257e+002
3.370009e+002, 1.249999e+002
3.374830e+002, 1.197900e+002
3.379651e+002, 1.149916e+002
3.384473e+002, 1.103915e+002
3.389294e+002, 1.058475e+002
3.394115e+002, 1.016937e+002
3.398936e+002, 9.834228e+001
3.403757e+002, 9.570542e+001
3.408578e+002, 9.325133e+001
3.413400e+002, 9.083910e+001
3.418221e+002, 8.844678e+001
3.423042e+002, 8.594920e+001
3.427863e+002, 8.325174e+001
3.432684e+002, 8.088309e+001
3.437505e+002, 7.914510e+001
3.442327e+002, 7.792345e+001
3.447148e+002, 7.703901e+001
3.451969e+002, 7.657323e+001
3.456790e+002, 7.611667e+001
3.461611e+002, 7.499902e+001
3.466432e+002, 7.334240e+001
3.471254e+002, 7.204749e+001
3.476075e+002, 7.160928e+001
3.480896e+002, 7.153322e+001
3.485717e+002, 7.123655e+001
3.490538e+002, 7.066443e+001
3.495359e+002, 7.000404e+001
3.500181e+002, 6.928879e+001
3.505002e+002, 6.859739e+001
3.509823e+002, 6.821677e+001
3.514644e+002, 6.841840e+001
3.519465e+002, 6.871940e+001
3.524286e+002, 6.871431e+001
3.529108e+002, 6.848996e+001
3.533929e+002, 6.848426e+001
3.538750e+002, 6.895733e+001
3.543571e+002, 6.973686e+001
3.548392e+002, 7.036970e+001
3.553214e+002, 7.074437e+001
3.558035e+002, 7.123531e+001
3.562856e+002, 7.201336e+001
3.567677e+002, 7.298923e+001
3.572498e+002, 7.401418e+001
3.577319e+002, 7.505193e+001
3.582141e+002, 7.610008e+001
3.586962e+002, 7.710271e+001
3.591783e+002, 7.798402e+001
3.596604e+002, 7.929896e+001
3.601425e+002, 8.136600e+001
3.606246e+002, 8.374600e+001
3.611068e+002, 8.599900e+001
3.615889e+002, 8.811013e+001
3.620710e+002, 9.030594e+001
3.625531e+002, 9.273936e+001
3.630352e+002, 9.544588e+001
3.635173e+002, 9.852757e+001
3.639995e+002, 1.019004e+002
3.644816e+002, 1.057002e+002
3.649637e+002, 1.100305e+002
3.654458e+002, 1.148347e+002
3.659279e+002, 1.198764e+002
3.664100e+002, 1.249502e+002
3.668922e+002, 1.303546e+002
3.673743e+002, 1.370605e+002
3.678564e+002, 1.457746e+002
3.683385e+002, 1.546928e+002
3.688206e+002, 1.632794e+002
3.693027e+002, 1.720950e+002
3.697849e+002, 1.818587e+002
3.702670e+002, 1.927081e+002
3.707491e+002, 2.041246e+002
3.712312e+002, 2.153910e+002
3.717133e+002, 2.262970e+002
3.721954e+002, 2.375087e+002
3.726776e+002, 2.495372e+002
3.731597e+002, 2.613763e+002
3.736418e+002, 2.731258e+002
3.741239e+002, 2.843197e+002
3.746060e+002, 2.938950e+002
3.750881e+002, 3.012177e+002
3.755703e+002, 3.062220e+002
3.760524e+002, 3.079123e+002
3.765345e+002, 3.058622e+002
3.770166e+002, 3.011317e+002
3.774987e+002, 2.935392e+002
3.779808e+002, 2.834652e+002
3.784630e+002, 2.711204e+002
3.789451e+002, 2.565905e+002
3.794272e+002, 2.404763e+002
3.799093e+002, 2.241086e+002
3.803914e+002, 2.065076e+002
3.808735e+002, 1.902563e+002
3.813557e+002, 1.754431e+002
3.818378e+002, 1.618457e+002
3.823199e+002, 1.492256e+002
3.828020e+002, 1.375165e+002
3.832841e+002, 1.269010e+002
3.837662e+002, 1.176891e+002
3.842484e+002, 1.099601e+002
3.847305e+002, 1.028579e+002
3.852126e+002, 9.635644e+001
3.856947e+002, 9.052892e+001
3.861768e+002, 8.552285e+001
3.866589e+002, 8.122484e+001
3.871411e+002, 7.742308e+001
3.876232e+002, 7.399991e+001
3.881053e+002, 7.092898e+001
3.885874e+002, 6.815508e+001
3.890695e+002, 6.573825e+001
3.895516e+002, 6.353762e+001
3.900338e+002, 6.142152e+001
3.905159e+002, 5.950856e+001
3.909980e+002, 5.795424e+001
3.914801e+002, 5.679541e+001
3.919622e+002, 5.586684e+001
3.924443e+002, 5.500573e+001
3.929265e+002, 5.422755e+001
3.934086e+002, 5.337676e+001
3.938907e+002, 5.228357e+001
3.943728e+002, 5.126458e+001
3.948549e+002, 5.055461e+001
3.953370e+002, 5.009497e+001
3.958192e+002, 4.964431e+001
3.963013e+002, 4.903717e+001
3.967834e+002, 4.832039e+001
3.972655e+002, 4.764074e+001
3.977476e+002, 4.698397e+001
3.982297e+002, 4.640594e+001
3.987119e+002, 4.596949e+001
3.991940e+002, 4.561759e+001
3.996761e+002, 4.528084e+001
4.001582e+002, 4.492519e+001
4.006403e+002, 4.461669e+001
4.011224e+002, 4.449447e+001
4.016046e+002, 4.453864e+001
4.020867e+002, 4.440461e+001
4.025688e+002, 4.387356e+001
4.030509e+002, 4.324849e+001
4.035330e+002, 4.287474e+001
4.040151e+002, 4.275114e+001
4.044973e+002, 4.274511e+001
4.049794e+002, 4.288122e+001
4.054615e+002, 4.307442e+001
4.059436e+002, 4.315711e+001
4.064257e+002, 4.309678e+001
4.069078e+002, 4.303693e+001
4.073900e+002, 4.315186e+001
4.078721e+002, 4.337794e+001
4.083542e+002, 4.339606e+001
4.088363e+002, 4.294353e+001
4.093184e+002, 4.249316e+001
4.098005e+002, 4.234966e+001
4.102827e+002, 4.246598e+001
4.107648e+002, 4.268560e+001
4.112469e+002, 4.295251e+001
4.117290e+002, 4.325730e+001
4.122111e+002, 4.358804e+001
4.126932e+002, 4.397185e+001
4.131754e+002, 4.431055e+001
4.136575e+002, 4.452686e+001
4.141396e+002, 4.472133e+001
4.146217e+002, 4.502802e+001
4.151038e+002, 4.545869e+001
4.155859e+002, 4.588055e+001
4.160681e+002, 4.614502e+001
4.165502e+002, 4.622533e+001
4.170323e+002, 4.645281e+001
4.175144e+002, 4.686468e+001
4.179965e+002, 4.735689e+001
4.184786e+002, 4.790630e+001
4.189608e+002, 4.850225e+001
4.194429e+002, 4.910531e+001
4.199250e+002, 4.968690e+001
4.204071e+002, 5.033192e+001
4.208892e+002, 5.129427e+001
4.213713e+002, 5.291549e+001
4.218535e+002, 5.433778e+001
4.223356e+002, 5.536175e+001
4.228177e+002, 5.631853e+001
4.232998e+002, 5.740845e+001
4.237819e+002, 5.868926e+001
4.242640e+002, 6.015585e+001
4.247462e+002, 6.183838e+001
4.252283e+002, 6.376471e+001
4.257104e+002, 6.559353e+001
4.261925e+002, 6.731950e+001
4.266746e+002, 6.893977e+001
4.271567e+002, 7.034985e+001
4.276389e+002, 7.167924e+001
4.281210e+002, 7.319497e+001
4.286031e+002, 7.509041e+001
4.290852e+002, 7.697716e+001
4.295673e+002, 7.802668e+001
4.300494e+002, 7.808782e+001
4.305316e+002, 7.787119e+001
4.310137e+002, 7.748495e+001
4.314958e+002, 7.688901e+001
4.319779e+002, 7.608364e+001
4.324600e+002, 7.505288e+001
4.329421e+002, 7.369640e+001
4.334243e+002, 7.175278e+001
4.339064e+002, 6.938002e+001
4.343885e+002, 6.722472e+001
4.348706e+002, 6.527459e+001
4.353527e+002, 6.362707e+001
4.358348e+002, 6.244946e+001
4.363170e+002, 6.158974e+001
4.367991e+002, 6.080847e+001
4.372812e+002, 6.000160e+001
4.377633e+002, 5.932653e+001
4.382454e+002, 5.895962e+001
4.387275e+002, 5.887297e+001
4.392097e+002, 5.887098e+001
4.396918e+002, 5.885377e+001
4.401739e+002, 5.894460e+001
4.406560e+002, 5.932532e+001
4.411381e+002, 5.997734e+001
4.416202e+002, 6.085335e+001
4.421024e+002, 6.208536e+001
4.425845e+002, 6.345465e+001
4.430666e+002, 6.469662e+001
4.435487e+002, 6.579403e+001
4.440308e+002, 6.685505e+001
4.445129e+002, 6.788598e+001
4.449951e+002, 6.894147e+001
4.454772e+002, 7.053762e+001
4.459593e+002, 7.298350e+001
4.464414e+002, 7.551136e+001
4.469235e+002, 7.759488e+001
4.474056e+002, 7.970090e+001
4.478878e+002, 8.266298e+001
4.483699e+002, 8.675063e+001
4.488520e+002, 9.131657e+001
4.493341e+002, 9.532719e+001
4.498162e+002, 9.820422e+001
4.502983e+002, 1.022043e+002
4.507805e+002, 1.075002e+002
4.512626e+002, 1.135576e+002
4.517447e+002, 1.200853e+002
4.522268e+002, 1.271498e+002
4.527089e+002, 1.350580e+002
4.531910e+002, 1.440008e+002
4.536732e+002, 1.538696e+002
4.541553e+002, 1.641048e+002
4.546374e+002, 1.743366e+002
4.551195e+002, 1.856836e+002
4.556016e+002, 1.986564e+002
4.560837e+002, 2.123885e+002
4.565659e+002, 2.262727e+002
4.570480e+002, 2.402230e+002
4.575301e+002, 2.538772e+002
4.580122e+002, 2.673373e+002
4.584943e+002, 2.806151e+002
4.589764e+002, 2.917695e+002
4.594586e+002, 3.009042e+002
4.599407e+002, 3.074239e+002
4.604228e+002, 3.112838e+002
4.609049e+002, 3.126290e+002
4.613870e+002, 3.115568e+002
4.618691e+002, 3.078026e+002
4.623513e+002, 3.021433e+002
4.628334e+002, 2.951968e+002
4.633155e+002, 2.869967e+002
4.637976e+002, 2.784085e+002
4.642797e+002, 2.696263e+002
4.647618e+002, 2.606380e+002
4.652440e+002, 2.514952e+002
4.657261e+002, 2.422044e+002
4.662082e+002, 2.325273e+002
4.666903e+002, 2.220482e+002
4.671724e+002, 2.112788e+002
4.676545e+002, 2.006339e+002
4.681367e+002, 1.902263e+002
4.686188e+002, 1.803256e+002
4.691009e+002, 1.710027e+002
4.695830e+002, 1.624679e+002
4.700651e+002, 1.555002e+002
4.705472e+002, 1.503969e+002
4.710294e+002, 1.462794e+002
4.715115e+002, 1.429727e+002
4.719936e+002, 1.405156e+002
4.724757e+002, 1.390724e+002
4.729578e+002, 1.386533e+002
4.734399e+002, 1.388645e+002
4.739221e+002, 1.392493e+002
4.744042e+002, 1.397831e+002
4.748863e+002, 1.406539e+002
4.753684e+002, 1.416888e+002
4.758505e+002, 1.432010e+002
4.763326e+002, 1.452435e+002
4.768148e+002, 1.478546e+002
4.772969e+002, 1.511211e+002
4.777790e+002, 1.550691e+002
4.782611e+002, 1.595779e+002
4.787432e+002, 1.643678e+002
4.792253e+002, 1.694253e+002
4.797075e+002, 1.747577e+002
4.801896e+002, 1.800493e+002
4.806717e+002, 1.858611e+002
4.811538e+002, 1.924570e+002
4.816359e+002, 1.998665e+002
4.821180e+002, 2.080864e+002
4.826002e+002, 2.171457e+002
4.830823e+002, 2.269671e+002
4.835644e+002, 2.374626e+002
4.840465e+002, 2.485154e+002
4.845286e+002, 2.605074e+002
4.850107e+002, 2.735607e+002
4.854929e+002, 2.877260e+002
4.859750e+002, 3.030438e+002
4.864571e+002, 3.193321e+002
4.869392e+002, 3.372639e+002
4.874213e+002, 3.571705e+002
4.879034e+002, 3.790563e+002
4.883856e+002, 4.027151e+002
4.888677e+002, 4.282687e+002
4.893498e+002, 4.556723e+002
4.898319e+002, 4.845375e+002
4.903140e+002, 5.153196e+002
4.907961e+002, 5.489698e+002
4.912783e+002, 5.872789e+002
4.917604e+002, 6.268347e+002
4.922425e+002, 6.663950e+002
4.927246e+002, 7.062350e+002
4.932067e+002, 7.475907e+002
4.936888e+002, 7.907474e+002
4.941710e+002, 8.341975e+002
4.946531e+002, 8.754138e+002
4.951352e+002, 9.157665e+002
4.956173e+002, 9.487438e+002
4.960994e+002, 9.773484e+002
4.965815e+002, 9.969011e+002
4.970637e+002, 1.005377e+003
4.975458e+002, 1.002861e+003
4.980279e+002, 9.896363e+002
4.985100e+002, 9.655924e+002
4.989921e+002, 9.321271e+002
4.994742e+002, 8.915013e+002
4.999564e+002, 8.417275e+002
5.004385e+002, 7.897874e+002
5.009206e+002, 7.337933e+002
5.014027e+002, 6.778432e+002
5.018848e+002, 6.241017e+002
5.023669e+002, 5.728621e+002
5.028491e+002, 5.249075e+002
5.033312e+002, 4.808998e+002
5.038133e+002, 4.404809e+002
5.042954e+002, 4.028348e+002
5.047775e+002, 3.680390e+002
5.052596e+002, 3.363519e+002
5.057418e+002, 3.083504e+002
5.062239e+002, 2.837662e+002
5.067060e+002, 2.619308e+002
5.071881e+002, 2.430718e+002
5.076702e+002, 2.261836e+002
5.081523e+002, 2.109942e+002
5.086345e+002, 1.973765e+002
5.091166e+002, 1.852626e+002
5.095987e+002, 1.745952e+002
5.100808e+002, 1.650290e+002
5.105629e+002, 1.563198e+002
5.110450e+002, 1.485086e+002
5.115272e+002, 1.414086e+002
5.120093e+002, 1.352230e+002
5.124914e+002, 1.293616e+002
5.129735e+002, 1.236100e+002
5.134556e+002, 1.180794e+002
5.139377e+002, 1.127838e+002
5.144199e+002, 1.077933e+002
5.149020e+002, 1.032969e+002
5.153841e+002, 9.966968e+001
5.158662e+002, 9.706222e+001
5.163483e+002, 9.433073e+001
5.168304e+002, 9.120974e+001
5.173126e+002, 8.825649e+001
5.177947e+002, 8.557844e+001
5.182768e+002, 8.319385e+001
5.187589e+002, 8.117564e+001
5.192410e+002, 7.956742e+001
5.197231e+002, 7.811178e+001
5.202053e+002, 7.644621e+001
5.206874e+002, 7.456479e+001
5.211695e+002, 7.256376e+001
5.216516e+002, 7.020126e+001
5.221337e+002, 6.806077e+001
5.226158e+002, 6.654818e+001
5.230980e+002, 6.554287e+001
5.235801e+002, 6.471278e+001
5.240622e+002, 6.406850e+001
5.245443e+002, 6.342970e+001
5.250264e+002, 6.253832e+001
5.255085e+002, 6.144807e+001
5.259907e+002, 6.053085e+001
5.264728e+002, 5.993285e+001
5.269549e+002, 5.951336e+001
5.274370e+002, 5.906078e+001
5.279191e+002, 5.854509e+001
5.284012e+002, 5.816359e+001
5.288834e+002, 5.807561e+001
5.293655e+002, 5.800860e+001
5.298476e+002, 5.772589e+001
5.303297e+002, 5.729688e+001
5.308118e+002, 5.692756e+001
5.312939e+002, 5.672012e+001
5.317761e+002, 5.669143e+001
5.322582e+002, 5.691043e+001
5.327403e+002, 5.762746e+001
5.332224e+002, 5.812780e+001
5.337045e+002, 5.797814e+001
5.341866e+002, 5.799891e+001
5.346688e+002, 5.894561e+001
5.351509e+002, 6.053252e+001
5.356330e+002, 6.178761e+001
5.361151e+002, 6.196980e+001
5.365972e+002, 6.153131e+001
5.370793e+002, 6.174026e+001
5.375615e+002, 6.276350e+001
5.380436e+002, 6.375052e+001
5.385257e+002, 6.451579e+001
5.390078e+002, 6.508711e+001
5.394899e+002, 6.553170e+001
5.399720e+002, 6.584358e+001
5.404542e+002, 6.587274e+001
5.409363e+002, 6.566428e+001
5.414184e+002, 6.507119e+001
5.419005e+002, 6.371782e+001
5.423826e+002, 6.163376e+001
5.428647e+002, 5.951130e+001
5.433469e+002, 5.765116e+001
5.438290e+002, 5.603057e+001
5.443111e+002, 5.462194e+001
5.447932e+002, 5.354422e+001
5.452753e+002, 5.237851e+001
5.457574e+002, 5.099337e+001
5.462396e+002, 4.954021e+001
5.467217e+002, 4.804771e+001
5.472038e+002, 4.658763e+001
5.476859e+002, 4.540325e+001
5.481680e+002, 4.469122e+001
5.486501e+002, 4.432528e+001
5.491323e+002, 4.373733e+001
5.496144e+002, 4.279067e+001
5.500965e+002, 4.185520e+001
5.505786e+002, 4.089307e+001
5.510607e+002, 4.001085e+001
5.515428e+002, 3.925373e+001
5.520250e+002, 3.864598e+001
5.525071e+002, 3.825107e+001
5.529892e+002, 3.823954e+001
5.534713e+002, 3.843276e+001
5.539534e+002, 3.826852e+001
5.544355e+002, 3.767555e+001
5.549177e+002, 3.707810e+001
5.553998e+002, 3.662749e+001
5.558819e+002, 3.627185e+001
5.563640e+002, 3.588318e+001
5.568461e+002, 3.542947e+001
5.573282e+002, 3.520336e+001
5.578104e+002, 3.559446e+001
5.582925e+002, 3.611119e+001
5.587746e+002, 3.608157e+001
5.592567e+002, 3.553213e+001
5.597388e+002, 3.504321e+001
5.602209e+002, 3.498578e+001
5.607031e+002, 3.519890e+001
5.611852e+002, 3.516675e+001
5.616673e+002, 3.458960e+001
5.621494e+002, 3.418315e+001
5.626315e+002, 3.407212e+001
5.631136e+002, 3.404462e+001
5.635958e+002, 3.399023e+001
5.640779e+002, 3.387783e+001
5.645600e+002, 3.369331e+001
5.650421e+002, 3.342810e+001
5.655242e+002, 3.308074e+001
5.660063e+002, 3.255099e+001
5.664885e+002, 3.159774e+001
5.669706e+002, 3.117455e+001
5.674527e+002, 3.211672e+001
5.679348e+002, 3.322147e+001
5.684169e+002, 3.366288e+001
5.688990e+002, 3.345221e+001
5.693812e+002, 3.309224e+001
5.698633e+002, 3.269552e+001
5.703454e+002, 3.238039e+001
5.708275e+002, 3.242508e+001
5.713096e+002, 3.279702e+001
5.717917e+002, 3.299675e+001
5.722739e+002, 3.276992e+001
5.727560e+002, 3.233067e+001
5.732381e+002, 3.204000e+001
5.737202e+002, 3.189205e+001
5.742023e+002, 3.189448e+001
5.746844e+002, 3.216512e+001
5.751666e+002, 3.248558e+001
5.756487e+002, 3.273376e+001
5.761308e+002, 3.290480e+001
5.766129e+002, 3.303657e+001
5.770950e+002, 3.315215e+001
5.775771e+002, 3.320654e+001
5.780593e+002, 3.304716e+001
5.785414e+002, 3.246915e+001
5.790235e+002, 3.223860e+001
5.795056e+002, 3.272994e+001
5.799877e+002, 3.326674e+001
5.804698e+002, 3.356878e+001
5.809520e+002, 3.367639e+001
5.814341e+002, 3.374881e+001
5.819162e+002, 3.389296e+001
5.823983e+002, 3.395539e+001
5.828804e+002, 3.356140e+001
5.833625e+002, 3.278456e+001
5.838447e+002, 3.248148e+001
5.843268e+002, 3.296639e+001
5.848089e+002, 3.371542e+001
5.852910e+002, 3.429763e+001
5.857731e+002, 3.470325e+001
5.862552e+002, 3.480233e+001
5.867374e+002, 3.427993e+001
5.872195e+002, 3.376526e+001
5.877016e+002, 3.362806e+001
5.881837e+002, 3.371066e+001
5.886658e+002, 3.370275e+001
5.891479e+002, 3.351778e+001
5.896301e+002, 3.335124e+001
5.901122e+002, 3.346684e+001
5.905943e+002, 3.390792e+001
5.910764e+002, 3.421833e+001
5.915585e+002, 3.434209e+001
5.920406e+002, 3.439137e+001
5.925228e+002, 3.433846e+001
5.930049e+002, 3.425096e+001
5.934870e+002, 3.421469e+001
5.939691e+002, 3.424993e+001
5.944512e+002, 3.428463e+001
5.949333e+002, 3.418293e+001
5.954155e+002, 3.401061e+001
5.958976e+002, 3.409324e+001
5.963797e+002, 3.450097e+001
5.968618e+002, 3.493083e+001
5.973439e+002, 3.522326e+001
5.978260e+002, 3.540746e+001
5.983082e+002, 3.556911e+001
5.987903e+002, 3.571147e+001
5.992724e+002, 3.582369e+001
5.997545e+002, 3.596407e+001
6.002366e+002, 3.603489e+001
6.007188e+002, 3.584633e+001
6.012009e+002, 3.544517e+001
6.016830e+002, 3.513779e+001
6.021651e+002, 3.514120e+001
6.026472e+002, 3.536826e+001
6.031293e+002, 3.548459e+001
6.036115e+002, 3.533399e+001
6.040936e+002, 3.536541e+001
6.045757e+002, 3.580244e+001
6.050578e+002, 3.624047e+001
6.055399e+002, 3.641491e+001
6.060220e+002, 3.636547e+001
6.065042e+002, 3.628175e+001
6.069863e+002, 3.623856e+001
6.074684e+002, 3.626318e+001
6.079505e+002, 3.650883e+001
6.084326e+002, 3.696277e+001
6.089147e+002, 3.705723e+001
6.093969e+002, 3.650720e+001
6.098790e+002, 3.580464e+001
6.103611e+002, 3.550987e+001
6.108432e+002, 3.558443e+001
6.113253e+002, 3.558480e+001
6.118074e+002, 3.525953e+001
6.122896e+002, 3.506356e+001
6.127717e+002, 3.541368e+001
6.132538e+002, 3.600570e+001
6.137359e+002, 3.633242e+001
6.142180e+002, 3.624183e+001
6.147001e+002, 3.587928e+001
6.151823e+002, 3.535002e+001
6.156644e+002, 3.462660e+001
6.161465e+002, 3.432094e+001
6.166286e+002, 3.480526e+001
6.171107e+002, 3.520538e+001
6.175928e+002, 3.534591e+001
6.180750e+002, 3.527282e+001
6.185571e+002, 3.495699e+001
6.190392e+002, 3.441053e+001
6.195213e+002, 3.391360e+001
6.200034e+002, 3.377812e+001
6.204855e+002, 3.382009e+001
6.209677e+002, 3.359818e+001
6.214498e+002, 3.308735e+001
6.219319e+002, 3.256800e+001
6.224140e+002, 3.223100e+001
6.228961e+002, 3.191311e+001
6.233782e+002, 3.115883e+001
6.238604e+002, 2.965893e+001
6.243425e+002, 2.874668e+001
6.248246e+002, 2.910123e+001
6.253067e+002, 2.962538e+001
6.257888e+002, 2.959330e+001
6.262709e+002, 2.911257e+001
6.267531e+002, 2.862096e+001
6.272352e+002, 2.833828e+001
6.277173e+002, 2.806838e+001
6.281994e+002, 2.735930e+001
6.286815e+002, 2.604926e+001
6.291636e+002, 2.519959e+001
6.296458e+002, 2.513474e+001
6.301279e+002, 2.520793e+001
6.306100e+002, 2.510443e+001
6.310921e+002, 2.490002e+001
6.315742e+002, 2.472961e+001
6.320563e+002, 2.463362e+001
6.325385e+002, 2.455466e+001
6.330206e+002, 2.450114e+001
6.335027e+002, 2.442318e+001
6.339848e+002, 2.418234e+001
6.344669e+002, 2.376342e+001
6.349490e+002, 2.334232e+001
6.354312e+002, 2.302452e+001
6.359133e+002, 2.282053e+001
6.363954e+002, 2.278031e+001
6.368775e+002, 2.306756e+001
6.373596e+002, 2.330513e+001
6.378417e+002, 2.361368e+001
6.383239e+002, 2.376068e+001
6.388060e+002, 2.342601e+001
6.392881e+002, 2.276204e+001
6.397702e+002, 2.226539e+001
6.402523e+002, 2.225811e+001
6.407344e+002, 2.251836e+001
6.412166e+002, 2.266508e+001
6.416987e+002, 2.270015e+001
6.421808e+002, 2.256231e+001
6.426629e+002, 2.214975e+001
6.431450e+002, 2.170400e+001
6.436271e+002, 2.125726e+001
6.441093e+002, 2.091335e+001
6.445914e+002, 2.116985e+001
6.450735e+002, 2.297065e+001
6.455556e+002, 2.438189e+001
6.460377e+002, 2.419739e+001
6.465198e+002, 2.319727e+001
6.470020e+002, 2.242514e+001
6.474841e+002, 2.210592e+001
6.479662e+002, 2.198928e+001
6.484483e+002, 2.186423e+001
6.489304e+002, 2.174076e+001
6.494125e+002, 2.169802e+001
6.498947e+002, 2.182746e+001
6.503768e+002, 2.186447e+001
6.508589e+002, 2.170798e+001
6.513410e+002, 2.149262e+001
6.518231e+002, 2.128083e+001
6.523052e+002, 2.109000e+001
6.527874e+002, 2.095216e+001
6.532695e+002, 2.089614e+001
6.537516e+002, 2.088867e+001
6.542337e+002, 2.090763e+001
6.547158e+002, 2.094433e+001
6.551979e+002, 2.097939e+001
6.556801e+002, 2.102076e+001
6.561622e+002, 2.096857e+001
6.566443e+002, 2.066007e+001
6.571264e+002, 2.006736e+001
6.576085e+002, 1.978006e+001
6.580906e+002, 2.005096e+001
6.585728e+002, 2.026664e+001
6.590549e+002, 2.016336e+001
6.595370e+002, 2.000501e+001
6.600191e+002, 1.999776e+001
6.605012e+002, 2.021533e+001
6.609833e+002, 2.078049e+001
6.614655e+002, 2.210583e+001
6.619476e+002, 2.368358e+001
6.624297e+002, 2.361659e+001
6.629118e+002, 2.164522e+001
6.633939e+002, 2.009257e+001
6.638760e+002, 1.981152e+001
6.643582e+002, 2.008321e+001
6.648403e+002, 2.007656e+001
6.653224e+002, 1.981982e+001
6.658045e+002, 1.971971e+001
6.662866e+002, 1.999439e+001
6.667687e+002, 2.028059e+001
6.672509e+002, 2.037659e+001
6.677330e+002, 2.034798e+001
6.682151e+002, 2.028653e+001
6.686972e+002, 2.022659e+001
6.691793e+002, 2.020896e+001
6.696614e+002, 2.029977e+001
6.701436e+002, 2.048150e+001
6.706257e+002, 2.047729e+001
6.711078e+002, 2.012728e+001
6.715899e+002, 1.992167e+001
6.720720e+002, 2.020303e+001
6.725541e+002, 2.053638e+001
6.730363e+002, 2.048939e+001
6.735184e+002, 2.009244e+001
6.740005e+002, 1.987915e+001
6.744826e+002, 2.035678e+001
6.749647e+002, 2.089626e+001
6.754468e+002, 2.075210e+001
6.759290e+002, 2.014069e+001
6.764111e+002, 1.975650e+001
6.768932e+002, 1.981917e+001
6.773753e+002, 1.999585e+001
6.778574e+002, 1.985915e+001
6.783395e+002, 1.938153e+001
6.788217e+002, 1.930390e+001
6.793038e+002, 2.010072e+001
6.797859e+002, 2.069916e+001
6.802680e+002, 2.087574e+001
6.807501e+002, 2.080649e+001
6.812322e+002, 2.058581e+001
6.817144e+002, 2.026299e+001
6.821965e+002, 1.995598e+001
6.826786e+002, 1.968255e+001
6.831607e+002, 1.951596e+001
6.836428e+002, 1.948225e+001
6.841249e+002, 1.961881e+001
6.846071e+002, 2.046265e+001
6.850892e+002, 2.242900e+001
6.855713e+002, 2.420645e+001
6.860534e+002, 2.415015e+001
6.865355e+002, 2.211511e+001
6.870176e+002, 2.073732e+001
6.874998e+002, 2.017089e+001
6.879819e+002, 2.000249e+001
6.884640e+002, 2.048676e+001
6.889461e+002, 2.109536e+001
6.894282e+002, 2.124385e+001
6.899103e+002, 2.091544e+001
6.903925e+002, 2.058810e+001
6.908746e+002, 2.068017e+001
6.913567e+002, 2.097068e+001
6.918388e+002, 2.085949e+001
6.923209e+002, 2.032446e+001
6.928030e+002, 1.997620e+001
6.932852e+002, 2.003926e+001
6.937673e+002, 2.021581e+001
6.942494e+002, 2.013494e+001
6.947315e+002, 1.983371e+001
6.952136e+002, 1.986276e+001
6.956957e+002, 2.061572e+001
6.961779e+002, 2.125050e+001
6.966600e+002, 2.147737e+001
6.971421e+002, 2.143704e+001
6.976242e+002, 2.117741e+001
6.981063e+002, 2.078549e+001
6.985884e+002, 2.052082e+001
6.990706e+002, 2.061085e+001
6.995527e+002, 2.091773e+001
7.000348e+002, 2.104677e+001
7.005169e+002, 2.097553e+001
7.009990e+002, 2.083986e+001
7.014811e+002, 2.052907e+001
7.019633e+002, 2.035180e+001
7.024454e+002, 2.075788e+001
7.029275e+002, 2.153932e+001
7.034096e+002, 2.198860e+001
7.038917e+002, 2.176455e+001
7.043738e+002, 2.153546e+001
7.048560e+002, 2.162787e+001
7.053381e+002, 2.183909e+001
7.058202e+002, 2.197046e+001
7.063023e+002, 2.197521e+001
7.067844e+002, 2.180156e+001
7.072665e+002, 2.137911e+001
7.077487e+002, 2.088140e+001
7.082308e+002, 2.086188e+001
7.087129e+002, 2.147260e+001
7.091950e+002, 2.183020e+001
7.096771e+002, 2.160426e+001
7.101592e+002, 2.140772e+001
7.106414e+002, 2.180167e+001
7.111235e+002, 2.248222e+001
7.116056e+002, 2.277765e+001
7.120877e+002, 2.244921e+001
7.125698e+002, 2.203180e+001
7.130519e+002, 2.173108e+001
7.135341e+002, 2.151602e+001
7.140162e+002, 2.134097e+001
7.144983e+002, 2.121346e+001
7.149804e+002, 2.120007e+001
7.154625e+002, 2.134825e+001
7.159446e+002, 2.156496e+001
7.164268e+002, 2.163497e+001
7.169089e+002, 2.150573e+001
7.173910e+002, 2.146568e+001
7.178731e+002, 2.153726e+001
7.183552e+002, 2.168277e+001
7.188373e+002, 2.195615e+001
7.193195e+002, 2.225945e+001
7.198016e+002, 2.246012e+001
7.202837e+002, 2.254190e+001
7.207658e+002, 2.250911e+001
7.212479e+002, 2.212049e+001
7.217300e+002, 2.179035e+001
7.222122e+002, 2.220343e+001
7.226943e+002, 2.311392e+001
7.231764e+002, 2.353337e+001
7.236585e+002, 2.302363e+001
7.241406e+002, 2.219434e+001
7.246227e+002, 2.200716e+001
7.251049e+002, 2.254866e+001
7.255870e+002, 2.290491e+001
7.260691e+002, 2.303002e+001
7.265512e+002, 2.303737e+001
7.270333e+002, 2.280074e+001
7.275154e+002, 2.256909e+001
7.279976e+002, 2.263948e+001
7.284797e+002, 2.302886e+001
7.289618e+002, 2.339804e+001
7.294439e+002, 2.353424e+001
7.299260e+002, 2.364890e+001
7.304081e+002, 2.402240e+001
7.308903e+002, 2.451479e+001
7.313724e+002, 2.476328e+001
7.318545e+002, 2.467001e+001
7.323366e+002, 2.444637e+001
7.328187e+002, 2.431022e+001
7.333008e+002, 2.425227e+001
7.337830e+002, 2.413703e+001
7.342651e+002, 2.385991e+001
7.347472e+002, 2.375308e+001
7.352293e+002, 2.407199e+001
7.357114e+002, 2.443899e+001
7.361935e+002, 2.451391e+001
7.366757e+002, 2.437948e+001
7.371578e+002, 2.445190e+001
7.376399e+002, 2.506517e+001
7.381220e+002, 2.565116e+001
7.386041e+002, 2.577734e+001
7.390862e+002, 2.564918e+001
7.395684e+002, 2.556455e+001
7.400505e+002, 2.557773e+001
7.405326e+002, 2.563796e+001
7.410147e+002, 2.570972e+001
7.414968e+002, 2.579941e+001
7.419789e+002, 2.592921e+001
7.424611e+002, 2.610627e+001
7.429432e+002, 2.629706e+001
7.434253e+002, 2.650933e+001
7.439074e+002, 2.672037e+001
7.443895e+002, 2.694194e+001
7.448716e+002, 2.714780e+001
7.453538e+002, 2.726896e+001
7.458359e+002, 2.724790e+001
7.463180e+002, 2.729707e+001
7.468001e+002, 2.753739e+001
7.472822e+002, 2.787535e+001
7.477643e+002, 2.832079e+001
7.482465e+002, 2.878042e+001
7.487286e+002, 2.898818e+001
7.492107e+002, 2.882139e+001
7.496928e+002, 2.849700e+001
7.501749e+002, 2.832982e+001
7.506570e+002, 2.832596e+001
7.511392e+002, 2.834246e+001
7.516213e+002, 2.833557e+001
7.521034e+002, 2.845322e+001
7.525855e+002, 2.882131e+001
7.530676e+002, 2.930120e+001
7.535497e+002, 2.975568e+001
7.540319e+002, 3.018474e+001
7.545140e+002, 3.048621e+001
7.549961e+002, 3.045896e+001
7.554782e+002, 3.048110e+001
7.559603e+002, 3.085761e+001
7.564424e+002, 3.140073e+001
7.569246e+002, 3.184745e+001
7.574067e+002, 3.212754e+001
7.578888e+002, 3.225953e+001
7.583709e+002, 3.222329e+001
7.588530e+002, 3.209573e+001
7.593351e+002, 3.218047e+001
7.598173e+002, 3.251849e+001
7.602994e+002, 3.267949e+001
7.607815e+002, 3.241642e+001
7.612636e+002, 3.223964e+001
7.617457e+002, 3.271223e+001
7.622278e+002, 3.366632e+001
7.627100e+002, 3.426905e+001
7.631921e+002, 3.432690e+001
7.636742e+002, 3.430451e+001
7.641563e+002, 3.414413e+001
7.646384e+002, 3.407742e+001
7.651205e+002, 3.437076e+001
7.656027e+002, 3.492206e+001
7.660848e+002, 3.544982e+001
7.665669e+002, 3.582965e+001
7.670490e+002, 3.607091e+001
7.675311e+002, 3.611680e+001
7.680132e+002, 3.601641e+001
7.684954e+002, 3.600980e+001
7.689775e+002, 3.609683e+001
7.694596e+002, 3.644908e+001
7.699417e+002, 3.726521e+001
7.704238e+002, 3.822775e+001
7.709059e+002, 3.877201e+001
7.713881e+002, 3.878147e+001
7.718702e+002, 3.880767e+001
7.723523e+002, 3.863857e+001
7.728344e+002, 3.873535e+001
7.733165e+002, 3.947799e+001
7.737986e+002, 4.043869e+001
7.742808e+002, 4.116087e+001
7.747629e+002, 4.157464e+001
7.752450e+002, 4.188232e+001
7.757271e+002, 4.224893e+001
7.762092e+002, 4.255249e+001
7.766913e+002, 4.249593e+001
7.771735e+002, 4.219575e+001
7.776556e+002, 4.216809e+001
7.781377e+002, 4.253862e+001
7.786198e+002, 4.300298e+001
7.791019e+002, 4.329800e+001
7.795840e+002, 4.346835e+001
7.800662e+002, 4.373664e+001
7.805483e+002, 4.409726e+001
7.810304e+002, 4.457011e+001
7.815125e+002, 4.530024e+001
7.819946e+002, 4.599315e+001
7.824767e+002, 4.650124e+001
7.829589e+002, 4.687294e+001
7.834410e+002, 4.717182e+001
7.839231e+002, 4.737740e+001
7.844052e+002, 4.770785e+001
7.848873e+002, 4.833678e+001
7.853694e+002, 4.913478e+001
7.858516e+002, 4.995466e+001
7.863337e+002, 5.079550e+001
7.868158e+002, 5.172471e+001
7.872979e+002, 5.276741e+001
7.877800e+002, 5.380347e+001
7.882621e+002, 5.468169e+001
7.887443e+002, 5.540076e+001
7.892264e+002, 5.602376e+001
7.897085e+002, 5.640715e+001
7.901906e+002, 5.711991e+001
7.906727e+002, 5.864608e+001
7.911548e+002, 6.027252e+001
7.916370e+002, 6.117826e+001
7.921191e+002, 6.148480e+001
7.926012e+002, 6.202593e+001
7.930833e+002, 6.309092e+001
7.935654e+002, 6.420554e+001
7.940475e+002, 6.516672e+001
7.945297e+002, 6.610247e+001
7.950118e+002, 6.716183e+001
7.954939e+002, 6.833321e+001
7.959760e+002, 6.952798e+001
7.964581e+002, 7.071218e+001
7.969402e+002, 7.180492e+001
7.974224e+002, 7.248010e+001
7.979045e+002, 7.288018e+001
7.983866e+002, 7.402041e+001
7.988687e+002, 7.603471e+001
7.993508e+002, 7.829707e+001
7.998329e+002, 8.053490e+001
8.003151e+002, 8.276244e+001
8.007972e+002, 8.497201e+001
8.012793e+002, 8.717049e+001
8.017614e+002, 8.935082e+001
8.022435e+002, 9.147616e+001
8.027256e+002, 9.363651e+001
8.032078e+002, 9.577857e+001
8.036899e+002, 9.801873e+001
8.041720e+002, 1.004664e+002
8.046541e+002, 1.031353e+002
8.051362e+002, 1.060402e+002
8.056183e+002, 1.091130e+002
8.061005e+002, 1.124968e+002
8.065826e+002, 1.165636e+002
8.070647e+002, 1.209920e+002
8.075468e+002, 1.249618e+002
8.080289e+002, 1.283974e+002
8.085110e+002, 1.318835e+002
8.089932e+002, 1.358397e+002
8.094753e+002, 1.401479e+002
8.099574e+002, 1.445481e+002
8.104395e+002, 1.490678e+002
8.109216e+002, 1.536087e+002
8.114037e+002, 1.579047e+002
8.118859e+002, 1.626208e+002
8.123680e+002, 1.682296e+002
8.128501e+002, 1.744024e+002
8.133322e+002, 1.804470e+002
8.138143e+002, 1.861106e+002
8.142964e+002, 1.932297e+002
8.147786e+002, 2.030110e+002
8.152607e+002, 2.135700e+002
8.157428e+002, 2.236326e+002
8.162249e+002, 2.338445e+002
8.167070e+002, 2.450011e+002
8.171891e+002, 2.572894e+002
8.176713e+002, 2.706539e+002
8.181534e+002, 2.849788e+002
8.186355e+002, 3.003437e+002
8.191176e+002, 3.169117e+002
8.195997e+002, 3.346679e+002
8.200818e+002, 3.534224e+002
8.205640e+002, 3.730989e+002
8.210461e+002, 3.941672e+002
8.215282e+002, 4.170180e+002
8.220103e+002, 4.414736e+002
8.224924e+002, 4.666533e+002
8.229745e+002, 4.919550e+002
8.234567e+002, 5.197911e+002
8.239388e+002, 5.514744e+002
8.244209e+002, 5.843127e+002
8.249030e+002, 6.172870e+002
8.253851e+002, 6.511107e+002
8.258672e+002, 6.864498e+002
8.263494e+002, 7.235557e+002
8.268315e+002, 7.622728e+002
8.273136e+002, 8.049282e+002
8.277957e+002, 8.469557e+002
8.282778e+002, 8.846068e+002
8.287599e+002, 9.185887e+002
8.292421e+002, 9.507502e+002
8.297242e+002, 9.811670e+002
8.302063e+002, 1.008109e+003
8.306884e+002, 1.030721e+003
8.311705e+002, 1.048052e+003
8.316526e+002, 1.058345e+003
8.321348e+002, 1.061624e+003
8.326169e+002, 1.055592e+003
8.330990e+002, 1.038994e+003
8.335811e+002, 1.015880e+003
8.340632e+002, 9.875854e+002
8.345453e+002, 9.550468e+002
8.350275e+002, 9.196466e+002
8.355096e+002, 8.812573e+002
8.359917e+002, 8.405382e+002
8.364738e+002, 7.953849e+002
8.369559e+002, 7.502221e+002
8.374380e+002, 7.053787e+002
8.379202e+002, 6.620305e+002
8.384023e+002, 6.209188e+002
8.388844e+002, 5.822824e+002
8.393665e+002, 5.459999e+002
8.398486e+002, 5.115546e+002
8.403307e+002, 4.796784e+002
8.408129e+002, 4.518813e+002
8.412950e+002, 4.270405e+002
8.417771e+002, 4.029732e+002
8.422592e+002, 3.794883e+002
8.427413e+002, 3.575205e+002
8.432234e+002, 3.378715e+002
8.437056e+002, 3.200733e+002
8.441877e+002, 3.031814e+002
8.446698e+002, 2.872187e+002
8.451519e+002, 2.729985e+002
8.456340e+002, 2.609479e+002
8.461161e+002, 2.497379e+002
8.465983e+002, 2.387983e+002
8.470804e+002, 2.283742e+002
8.475625e+002, 2.188056e+002
8.480446e+002, 2.100938e+002
8.485267e+002, 2.017449e+002
8.490089e+002, 1.935567e+002
8.494910e+002, 1.859773e+002
8.499731e+002, 1.792342e+002
8.504552e+002, 1.730370e+002
8.509373e+002, 1.671585e+002
8.514194e+002, 1.615727e+002
8.519016e+002, 1.563313e+002
8.523837e+002, 1.514339e+002
8.528658e+002, 1.468579e+002
8.533479e+002, 1.425805e+002
8.538300e+002, 1.385640e+002
8.543121e+002, 1.348010e+002
8.547943e+002, 1.312664e+002
8.552764e+002, 1.278418e+002
8.557585e+002, 1.244960e+002
8.562406e+002, 1.213285e+002
8.567227e+002, 1.184699e+002
8.572048e+002, 1.159170e+002
8.576870e+002, 1.133862e+002
8.581691e+002, 1.108151e+002
8.586512e+002, 1.085816e+002
8.591333e+002, 1.068898e+002
8.596154e+002, 1.053894e+002
8.600975e+002, 1.037444e+002
8.605797e+002, 1.020167e+002
8.610618e+002, 1.005289e+002
8.615439e+002, 9.939003e+001
8.620260e+002, 9.830608e+001
8.625081e+002, 9.717811e+001
8.629902e+002, 9.616031e+001
8.634724e+002, 9.546790e+001
8.639545e+002, 9.490096e+001
8.644366e+002, 9.405633e+001
8.649187e+002, 9.284486e+001
8.654008e+002, 9.179510e+001
8.658829e+002, 9.151108e+001
8.663651e+002, 9.136297e+001
8.668472e+002, 9.052544e+001
8.673293e+002, 8.925263e+001
8.678114e+002, 8.805649e+001
8.682935e+002, 8.710025e+001
8.687756e+002, 8.657027e+001
8.692578e+002, 8.664420e+001
8.697399e+002, 8.712354e+001
8.702220e+002, 8.762648e+001
8.707041e+002, 8.817275e+001
8.711862e+002, 8.818217e+001
8.716683e+002, 8.743784e+001
8.721505e+002, 8.677739e+001
8.726326e+002, 8.667619e+001
8.731147e+002, 8.685176e+001
8.735968e+002, 8.680868e+001
8.740789e+002, 8.646501e+001
8.745610e+002, 8.634649e+001
8.750432e+002, 8.652345e+001
8.755253e+002, 8.682078e+001
8.760074e+002, 8.714143e+001
8.764895e+002, 8.761238e+001
8.769716e+002, 8.858883e+001
8.774537e+002, 8.983872e+001
8.779359e+002, 9.050500e+001
8.784180e+002, 9.004824e+001
8.789001e+002, 8.959212e+001
8.793822e+002, 8.996255e+001
8.798643e+002, 9.060232e+001
8.803464e+002, 9.073864e+001
8.808286e+002, 9.059204e+001
8.813107e+002, 9.089433e+001
8.817928e+002, 9.190392e+001
8.822749e+002, 9.330283e+001
8.827570e+002, 9.484598e+001
8.832391e+002, 9.646299e+001
8.837213e+002, 9.788212e+001
8.842034e+002, 9.911842e+001
8.846855e+002, 1.004286e+002
8.851676e+002, 1.018727e+002
8.856497e+002, 1.033756e+002
8.861318e+002, 1.048710e+002
8.866140e+002, 1.064015e+002
8.870961e+002, 1.080893e+002
8.875782e+002, 1.098286e+002
8.880603e+002, 1.120228e+002
8.885424e+002, 1.149506e+002
8.890245e+002, 1.179464e+002
8.895067e+002, 1.204133e+002
8.899888e+002, 1.230058e+002
8.904709e+002, 1.266717e+002
8.909530e+002, 1.314439e+002
8.914351e+002, 1.359118e+002
8.919172e+002, 1.393407e+002
8.923994e+002, 1.429944e+002
8.928815e+002, 1.471370e+002
8.933636e+002, 1.519358e+002
8.938457e+002, 1.577463e+002
8.943278e+002, 1.643433e+002
8.948099e+002, 1.710736e+002
8.952921e+002, 1.776440e+002
8.957742e+002, 1.844376e+002
8.962563e+002, 1.916133e+002
8.967384e+002, 1.993400e+002
8.972205e+002, 2.076234e+002
8.977026e+002, 2.166208e+002
8.981848e+002, 2.269230e+002
8.986669e+002, 2.387174e+002
8.991490e+002, 2.509485e+002
8.996311e+002, 2.624735e+002
9.001132e+002, 2.739155e+002
9.005953e+002, 2.875861e+002
9.010775e+002, 3.035612e+002
9.015596e+002, 3.206212e+002
9.020417e+002, 3.385264e+002
9.025238e+002, 3.575691e+002
9.030059e+002, 3.777151e+002
9.034880e+002, 3.992796e+002
9.039702e+002, 4.231194e+002
9.044523e+002, 4.494162e+002
9.049344e+002, 4.770712e+002
9.054165e+002, 5.060179e+002
9.058986e+002, 5.364066e+002
9.063807e+002, 5.675999e+002
9.068629e+002, 6.011088e+002
9.073450e+002, 6.392919e+002
9.078271e+002, 6.811466e+002
9.083092e+002, 7.217738e+002
9.087913e+002, 7.596116e+002
9.092734e+002, 7.974667e+002
9.097556e+002, 8.378716e+002
9.102377e+002, 8.780303e+002
9.107198e+002, 9.162081e+002
9.112019e+002, 9.520129e+002
9.116840e+002, 9.860439e+002
9.121661e+002, 1.017984e+003
9.126483e+002, 1.044298e+003
9.131304e+002, 1.061892e+003
9.136125e+002, 1.072215e+003
9.140946e+002, 1.078044e+003
9.145767e+002, 1.078454e+003
9.150588e+002, 1.070278e+003
9.155410e+002, 1.053117e+003
9.160231e+002, 1.028416e+003
9.165052e+002, 9.965261e+002
9.169873e+002, 9.598637e+002
9.174694e+002, 9.223707e+002
9.179515e+002, 8.839664e+002
9.184337e+002, 8.447436e+002
9.189158e+002, 8.040920e+002
9.193979e+002, 7.647535e+002
9.198800e+002, 7.271508e+002
9.203621e+002, 6.925237e+002
9.208442e+002, 6.624378e+002
9.213264e+002, 6.366909e+002
9.218085e+002, 6.142867e+002
9.222906e+002, 5.960869e+002
9.227727e+002, 5.797430e+002
9.232548e+002, 5.646602e+002
9.237369e+002, 5.518387e+002
9.242191e+002, 5.427424e+002
9.247012e+002, 5.358148e+002
9.251833e+002, 5.290460e+002
9.256654e+002, 5.222206e+002
9.261475e+002, 5.149930e+002
9.266296e+002, 5.084299e+002
9.271118e+002, 5.000905e+002
9.275939e+002, 4.884756e+002
9.280760e+002, 4.745874e+002
9.285581e+002, 4.590887e+002
9.290402e+002, 4.423653e+002
9.295223e+002, 4.251304e+002
9.300045e+002, 4.076164e+002
9.304866e+002, 3.896292e+002
9.309687e+002, 3.705287e+002
9.314508e+002, 3.509666e+002
9.319329e+002, 3.317531e+002
9.324150e+002, 3.130805e+002
9.328972e+002, 2.953152e+002
9.333793e+002, 2.785917e+002
9.338614e+002, 2.627273e+002
9.343435e+002, 2.475848e+002
9.348256e+002, 2.333925e+002
9.353077e+002, 2.209197e+002
9.357899e+002, 2.100966e+002
9.362720e+002, 1.994882e+002
9.367541e+002, 1.889717e+002
9.372362e+002, 1.790913e+002
9.377183e+002, 1.700908e+002
9.382004e+002, 1.619873e+002
9.386826e+002, 1.548745e+002
9.391647e+002, 1.487586e+002
9.396468e+002, 1.428815e+002
9.401289e+002, 1.371975e+002
9.406110e+002, 1.318937e+002
9.410931e+002, 1.270922e+002
9.415753e+002, 1.226273e+002
9.420574e+002, 1.182414e+002
9.425395e+002, 1.141317e+002
9.430216e+002, 1.108078e+002
9.435037e+002, 1.085785e+002
9.439858e+002, 1.062243e+002
9.444680e+002, 1.034538e+002
9.449501e+002, 1.007856e+002
9.454322e+002, 9.835582e+001
9.459143e+002, 9.615181e+001
9.463964e+002, 9.423795e+001
9.468785e+002, 9.253817e+001
9.473607e+002, 9.076839e+001
9.478428e+002, 8.878001e+001
9.483249e+002, 8.678493e+001
9.488070e+002, 8.481352e+001
9.492891e+002, 8.296397e+001
9.497712e+002, 8.139840e+001
9.502534e+002, 8.001325e+001
9.507355e+002, 7.863161e+001
9.512176e+002, 7.720659e+001
9.516997e+002, 7.579247e+001
9.521818e+002, 7.439500e+001
9.526639e+002, 7.308891e+001
9.531461e+002, 7.209775e+001
9.536282e+002, 7.125408e+001
9.541103e+002, 7.013807e+001
9.545924e+002, 6.874455e+001
9.550745e+002, 6.735140e+001
9.555566e+002, 6.608667e+001
9.560388e+002, 6.496413e+001
9.565209e+002, 6.408124e+001
9.570030e+002, 6.334203e+001
9.574851e+002, 6.219591e+001
9.579672e+002, 6.063963e+001
9.584493e+002, 5.915861e+001
9.589315e+002, 5.785749e+001
9.594136e+002, 5.663704e+001
9.598957e+002, 5.542847e+001
9.603778e+002, 5.422351e+001
9.608599e+002, 5.295975e+001
9.613420e+002, 5.156084e+001
9.618242e+002, 5.055009e+001
9.623063e+002, 5.010466e+001
9.627884e+002, 4.961815e+001
9.632705e+002, 4.886191e+001
9.637526e+002, 4.803776e+001
9.642347e+002, 4.739194e+001
9.647169e+002, 4.687675e+001
9.651990e+002, 4.612723e+001
9.656811e+002, 4.464222e+001
9.661632e+002, 4.370006e+001
9.666453e+002, 4.382085e+001
9.671274e+002, 4.389133e+001
9.676096e+002, 4.337083e+001
9.680917e+002, 4.257854e+001
9.685738e+002, 4.190480e+001
9.690559e+002, 4.137751e+001
9.695380e+002, 4.088866e+001
9.700201e+002, 4.033518e+001
9.705023e+002, 3.991174e+001
9.709844e+002, 3.974186e+001
9.714665e+002, 3.967719e+001
9.719486e+002, 3.973680e+001
9.724307e+002, 3.976220e+001
9.729128e+002, 3.939791e+001
9.733950e+002, 3.856362e+001
9.738771e+002, 3.783827e+001
9.743592e+002, 3.748768e+001
9.748413e+002, 3.746539e+001
9.753234e+002, 3.812445e+001
9.758055e+002, 3.886612e+001
9.762877e+002, 3.848827e+001
9.767698e+002, 3.727518e+001
9.772519e+002, 3.681372e+001
9.777340e+002, 3.787428e+001
9.782161e+002, 3.905514e+001
9.786982e+002, 3.864359e+001
9.791804e+002, 3.741710e+001
9.796625e+002, 3.670508e+001
9.801446e+002, 3.649933e+001
9.806267e+002, 3.676857e+001
9.811088e+002, 3.744551e+001
9.815909e+002, 3.813855e+001
9.820731e+002, 3.859261e+001
9.825552e+002, 3.882729e+001
9.830373e+002, 3.882106e+001
9.835194e+002, 3.861132e+001
9.840015e+002, 3.843039e+001
9.844836e+002, 3.828702e+001
9.849658e+002, 3.840930e+001
9.854479e+002, 3.891050e+001
9.859300e+002, 3.928447e+001
9.864121e+002, 3.899719e+001
9.868942e+002, 3.831581e+001
9.873763e+002, 3.831123e+001
9.878585e+002, 3.916732e+001
9.883406e+002, 3.940765e+001
9.888227e+002, 3.872099e+001
9.893048e+002, 3.825663e+001
9.897869e+002, 3.858718e+001
9.902690e+002, 3.915983e+001
9.907512e+002, 3.931911e+001
9.912333e+002, 3.910040e+001
9.917154e+002, 3.895275e+001
9.921975e+002, 3.898850e+001
9.926796e+002, 3.884749e+001
9.931617e+002, 3.833900e+001
9.936439e+002, 3.788429e+001
9.941260e+002, 3.779879e+001
9.946081e+002, 3.781081e+001
9.950902e+002, 3.749506e+001
9.955723e+002, 3.683791e+001
9.960544e+002, 3.627834e+001
9.965366e+002, 3.582082e+001
9.970187e+002, 3.547598e+001
9.975008e+002, 3.548053e+001
9.979829e+002, 3.535907e+001
9.984650e+002, 3.472141e+001
9.989471e+002, 3.379874e+001
9.994293e+002, 3.295776e+001
9.999114e+002, 3.223967e+001
1.000393e+003, 3.172175e+001
1.000876e+003, 3.155211e+001
1.001358e+003, 3.142872e+001
1.001840e+003, 3.123870e+001
1.002322e+003, 3.103326e+001
1.002804e+003, 3.087572e+001
1.003286e+003, 3.073898e+001
1.003768e+003, 3.057878e+001
1.004250e+003, 3.039066e+001
1.004733e+003, 3.004679e+001
1.005215e+003, 2.934286e+001
1.005697e+003, 2.860519e+001
1.006179e+003, 2.805078e+001
1.006661e+003, 2.762954e+001
1.007143e+003, 2.731536e+001
1.007625e+003, 2.706287e+001
1.008107e+003, 2.671900e+001
1.008589e+003, 2.620087e+001
1.009072e+003, 2.586508e+001
1.009554e+003, 2.626044e+001
1.010036e+003, 2.679715e+001
1.010518e+003, 2.670866e+001
1.011000e+003, 2.623694e+001
1.011482e+003, 2.584646e+001
1.011964e+003, 2.563139e+001
1.012446e+003, 2.554475e+001
1.012929e+003, 2.557192e+001
1.013411e+003, 2.559954e+001
1.013893e+003, 2.548114e+001
1.014375e+003, 2.527056e+001
1.014857e+003, 2.503168e+001
1.015339e+003, 2.479975e+001
1.015821e+003, 2.471441e+001
1.016303e+003, 2.478405e+001
1.016785e+003, 2.479926e+001
1.017268e+003, 2.460525e+001
1.017750e+003, 2.435690e+001
1.018232e+003, 2.430459e+001
1.018714e+003, 2.441623e+001
1.019196e+003, 2.464638e+001
1.019678e+003, 2.494992e+001
1.020160e+003, 2.490936e+001
1.020642e+003, 2.441259e+001
1.021125e+003, 2.391448e+001
1.021607e+003, 2.377966e+001
1.022089e+003, 2.387981e+001
1.022571e+003, 2.394965e+001
1.023053e+003, 2.398834e+001
1.023535e+003, 2.396846e+001
1.024017e+003, 2.388806e+001
1.024499e+003, 2.376524e+001
1.024981e+003, 2.359913e+001
1.025464e+003, 2.343075e+001
1.025946e+003, 2.328500e+001
1.026428e+003, 2.318905e+001
1.026910e+003, 2.326699e+001
1.027392e+003, 2.355387e+001
1.027874e+003, 2.365149e+001
1.028356e+003, 2.349732e+001
1.028838e+003, 2.339810e+001
1.029321e+003, 2.347270e+001
1.029803e+003, 2.360645e+001
1.030285e+003, 2.371020e+001
1.030767e+003, 2.376455e+001
1.031249e+003, 2.364835e+001
1.031731e+003, 2.324736e+001
1.032213e+003, 2.314448e+001
1.032695e+003, 2.350756e+001
1.033177e+003, 2.377323e+001
1.033660e+003, 2.370655e+001
1.034142e+003, 2.350211e+001
1.034624e+003, 2.331801e+001
1.035106e+003, 2.317474e+001
1.035588e+003, 2.322634e+001
1.036070e+003, 2.364838e+001
1.036552e+003, 2.383428e+001
1.037034e+003, 2.363683e+001
1.037516e+003, 2.343317e+001
1.037999e+003, 2.331590e+001
1.038481e+003, 2.330876e+001
1.038963e+003, 2.351271e+001
1.039445e+003, 2.387667e+001
1.039927e+003, 2.400143e+001
1.040409e+003, 2.377939e+001
1.040891e+003, 2.350522e+001
1.041373e+003, 2.304169e+001
1.041855e+003, 2.270514e+001
1.042338e+003, 2.272914e+001
1.042820e+003, 2.285290e+001
1.043302e+003, 2.280536e+001
1.043784e+003, 2.260826e+001
1.044266e+003, 2.243567e+001
1.044748e+003, 2.228337e+001
1.045230e+003, 2.217224e+001
1.045712e+003, 2.211850e+001
1.046195e+003, 2.208875e+001
1.046677e+003, 2.206478e+001
1.047159e+003, 2.206154e+001
1.047641e+003, 2.213539e+001
1.048123e+003, 2.225997e+001
1.048605e+003, 2.225482e+001
1.049087e+003, 2.193085e+001
1.049569e+003, 2.178605e+001
1.050052e+003, 2.201170e+001
1.050534e+003, 2.228891e+001
1.051016e+003, 2.264509e+001
1.051498e+003, 2.285629e+001
1.051980e+003, 2.251763e+001
1.052462e+003, 2.175466e+001
1.052944e+003, 2.137766e+001
1.053426e+003, 2.179782e+001
1.053908e+003, 2.206106e+001
1.054391e+003, 2.174562e+001
1.054873e+003, 2.146334e+001
1.055355e+003, 2.161600e+001
1.055837e+003, 2.190422e+001
1.056319e+003, 2.199579e+001
1.056801e+003, 2.188208e+001
1.057283e+003, 2.169817e+001
1.057765e+003, 2.144263e+001
1.058248e+003, 2.119930e+001
1.058730e+003, 2.096276e+001
1.059212e+003, 2.077784e+001
1.059694e+003, 2.071506e+001
1.060176e+003, 2.068573e+001
1.060658e+003, 2.055668e+001
1.061140e+003, 2.035805e+001
1.061622e+003, 2.026379e+001
1.062104e+003, 2.035009e+001
1.062587e+003, 2.046009e+001
1.063069e+003, 2.053932e+001
1.063551e+003, 2.062404e+001
1.064033e+003, 2.079915e+001
1.064515e+003, 2.094630e+001
1.064997e+003, 2.090770e+001
1.065479e+003, 2.071177e+001
1.065961e+003, 2.051071e+001
1.066443e+003, 2.034268e+001
1.066926e+003, 2.019276e+001
1.067408e+003, 1.993301e+001
1.067890e+003, 1.982854e+001
1.068372e+003, 2.029069e+001
1.068854e+003, 2.081132e+001
1.069336e+003, 2.072581e+001
1.069818e+003, 2.016415e+001
1.070300e+003, 1.976024e+001
1.070782e+003, 1.972584e+001
1.071265e+003, 1.969979e+001
1.071747e+003, 1.949080e+001
1.072229e+003, 1.927830e+001
1.072711e+003, 1.912473e+001
1.073193e+003, 1.905910e+001
1.073675e+003, 1.914413e+001
1.074157e+003, 1.933753e+001
1.074639e+003, 1.957525e+001
1.075122e+003, 1.987954e+001
1.075604e+003, 1.990580e+001
1.076086e+003, 1.913483e+001
1.076568e+003, 1.846976e+001
1.077050e+003, 1.860634e+001
1.077532e+003, 1.898295e+001
1.078014e+003, 1.899353e+001
1.078496e+003, 1.873466e+001
1.078979e+003, 1.860149e+001
1.079461e+003, 1.869936e+001
1.079943e+003, 1.884064e+001
1.080425e+003, 1.897770e+001
1.080907e+003, 1.908848e+001
1.081389e+003, 1.914307e+001
1.081871e+003, 1.917995e+001
1.082353e+003, 1.928325e+001
1.082835e+003, 1.938374e+001
1.083318e+003, 1.929102e+001
1.083800e+003, 1.896686e+001
1.084282e+003, 1.873513e+001
1.084764e+003, 1.884658e+001
1.085246e+003, 1.894190e+001
1.085728e+003, 1.876400e+001
1.086210e+003, 1.856469e+001
1.086692e+003, 1.858465e+001
1.087175e+003, 1.873754e+001
1.087657e+003, 1.888350e+001
1.088139e+003, 1.898276e+001
1.088621e+003, 1.892834e+001
1.089103e+003, 1.847680e+001
1.089585e+003, 1.814486e+001
1.090067e+003, 1.830112e+001
1.090549e+003, 1.851679e+001
1.091031e+003, 1.842368e+001
1.091514e+003, 1.818959e+001
1.091996e+003, 1.813709e+001
1.092478e+003, 1.827315e+001
1.092960e+003, 1.826420e+001
1.093442e+003, 1.784071e+001
1.093924e+003, 1.755298e+001
1.094406e+003, 1.769973e+001
1.094888e+003, 1.794535e+001
1.095370e+003, 1.816721e+001
1.095853e+003, 1.829491e+001
1.096335e+003, 1.817347e+001
1.096817e+003, 1.787081e+001
1.097299e+003, 1.777640e+001
1.097781e+003, 1.815127e+001
1.098263e+003, 1.833131e+001
1.098745e+003, 1.778351e+001
1.099227e+003, 1.736957e+001
1.099709e+003, 1.778155e+001
1.100192e+003, 1.837523e+001
1.100674e+003, 1.843012e+001
1.101156e+003, 1.803977e+001
1.101638e+003, 1.771247e+001
1.102120e+003, 1.755769e+001
1.102602e+003, 1.741426e+001
1.103084e+003, 1.707807e+001
1.103566e+003, 1.695612e+001
1.104049e+003, 1.739932e+001
1.104531e+003, 1.795262e+001
1.105013e+003, 1.829845e+001
1.105495e+003, 1.842921e+001
1.105977e+003, 1.836010e+001
1.106459e+003, 1.805692e+001
1.106941e+003, 1.780367e+001
1.107423e+003, 1.757338e+001
1.107906e+003, 1.750125e+001
1.108388e+003, 1.772050e+001
1.108870e+003, 1.801008e+001
1.109352e+003, 1.838342e+001
1.109834e+003, 1.865966e+001
1.110316e+003, 1.843122e+001
1.110798e+003, 1.764104e+001
1.111280e+003, 1.718896e+001
1.111762e+003, 1.730691e+001
1.112245e+003, 1.752085e+001
1.112727e+003, 1.789087e+001
1.113209e+003, 1.821015e+001
1.113691e+003, 1.843027e+001
1.114173e+003, 1.851082e+001
1.114655e+003, 1.833662e+001
1.115137e+003, 1.793439e+001
1.115619e+003, 1.765637e+001
1.116102e+003, 1.748241e+001
1.116584e+003, 1.747984e+001
1.117066e+003, 1.791356e+001
1.117548e+003, 1.811666e+001
1.118030e+003, 1.763203e+001
1.118512e+003, 1.706503e+001
1.118994e+003, 1.697851e+001
1.119476e+003, 1.729223e+001
1.119958e+003, 1.772328e+001
1.120441e+003, 1.846534e+001
1.120923e+003, 1.866858e+001
1.121405e+003, 1.801920e+001
1.121887e+003, 1.750859e+001
1.122369e+003, 1.735150e+001
1.122851e+003, 1.749822e+001
1.123333e+003, 1.809311e+001
1.123815e+003, 1.877950e+001
1.124297e+003, 1.870577e+001
1.124780e+003, 1.778898e+001
1.125262e+003, 1.719620e+001
1.125744e+003, 1.699359e+001
1.126226e+003, 1.688045e+001
1.126708e+003, 1.679449e+001
1.127190e+003, 1.684448e+001
1.127672e+003, 1.712066e+001
1.128154e+003, 1.749906e+001
1.128636e+003, 1.783664e+001
1.129119e+003, 1.810415e+001
1.129601e+003, 1.797465e+001
1.130083e+003, 1.738404e+001
1.130565e+003, 1.714215e+001
1.131047e+003, 1.737211e+001
1.131529e+003, 1.753368e+001
1.132011e+003, 1.739025e+001
1.132493e+003, 1.726232e+001
1.132976e+003, 1.750756e+001
1.133458e+003, 1.794605e+001
1.133940e+003, 1.801152e+001
1.134422e+003, 1.774403e+001
1.134904e+003, 1.768575e+001
1.135386e+003, 1.784609e+001
1.135868e+003, 1.788227e+001
1.136350e+003, 1.770425e+001
1.136833e+003, 1.755566e+001
1.137315e+003, 1.762877e+001
1.137797e+003, 1.769427e+001
1.138279e+003, 1.719319e+001
1.138761e+003, 1.639939e+001
1.139243e+003, 1.636098e+001
1.139725e+003, 1.691185e+001
1.140207e+003, 1.737062e+001
1.140689e+003, 1.761129e+001
1.141172e+003, 1.768305e+001
1.141654e+003, 1.761234e+001
1.142136e+003, 1.750888e+001
1.142618e+003, 1.749429e+001
1.143100e+003, 1.751616e+001
1.143582e+003, 1.748721e+001
1.144064e+003, 1.742674e+001
1.144546e+003, 1.736501e+001
1.145029e+003, 1.731116e+001
1.145511e+003, 1.724561e+001
1.145993e+003, 1.718160e+001
1.146475e+003, 1.727677e+001
1.146957e+003, 1.773989e+001
1.147439e+003, 1.814120e+001
1.147921e+003, 1.789792e+001
1.148403e+003, 1.748602e+001
1.148885e+003, 1.753341e+001
1.149368e+003, 1.781814e+001
1.149850e+003, 1.789359e+001
1.150332e+003, 1.773234e+001
1.150814e+003, 1.755913e+001
1.151296e+003, 1.744260e+001
1.151778e+003, 1.747054e+001
1.152260e+003, 1.792336e+001
1.152742e+003, 1.827491e+001
1.153224e+003, 1.811555e+001
1.153707e+003, 1.771249e+001
1.154189e+003, 1.723326e+001
1.154671e+003, 1.679502e+001
1.155153e+003, 1.660984e+001
1.155635e+003, 1.672235e+001
1.156117e+003, 1.679120e+001
1.156599e+003, 1.658985e+001
1.157081e+003, 1.649886e+001
1.157563e+003, 1.674076e+001
1.158046e+003, 1.701431e+001
1.158528e+003, 1.712653e+001
1.159010e+003, 1.716208e+001
1.159492e+003, 1.727144e+001
1.159974e+003, 1.743812e+001
1.160456e+003, 1.745599e+001
1.160938e+003, 1.703321e+001
1.161420e+003, 1.700040e+001
1.161903e+003, 1.788959e+001
1.162385e+003, 1.845038e+001
1.162867e+003, 1.805362e+001
1.163349e+003, 1.755158e+001
1.163831e+003, 1.766720e+001
1.164313e+003, 1.812675e+001
1.164795e+003, 1.825332e+001
1.165277e+003, 1.800148e+001
1.165760e+003, 1.778966e+001
1.166242e+003, 1.759738e+001
1.166724e+003, 1.753180e+001
1.167206e+003, 1.766778e+001
1.167688e+003, 1.771767e+001
1.168170e+003, 1.747098e+001
1.168652e+003, 1.726140e+001
1.169134e+003, 1.757632e+001
1.169616e+003, 1.824683e+001
1.170099e+003, 1.842799e+001
1.170581e+003, 1.811271e+001
1.171063e+003, 1.791698e+001
1.171545e+003, 1.787909e+001
1.172027e+003, 1.778552e+001
1.172509e+003, 1.756878e+001
1.172991e+003, 1.738757e+001
1.173473e+003, 1.736470e+001
1.173956e+003, 1.743316e+001
1.174438e+003, 1.755935e+001
1.174920e+003, 1.766091e+001
1.175402e+003, 1.735067e+001
1.175884e+003, 1.678113e+001
1.176366e+003, 1.652568e+001
1.176848e+003, 1.662185e+001
1.177330e+003, 1.678952e+001
1.177813e+003, 1.690088e+001
1.178295e+003, 1.688695e+001
1.178777e+003, 1.652888e+001
1.179259e+003, 1.624827e+001
1.179741e+003, 1.686987e+001
1.180223e+003, 1.768963e+001
1.180705e+003, 1.747822e+001
1.181187e+003, 1.671019e+001
1.181669e+003, 1.659793e+001
1.182151e+003, 1.724870e+001
1.182634e+003, 1.778403e+001
1.183116e+003, 1.777504e+001
1.183598e+003, 1.770830e+001
1.184080e+003, 1.789977e+001
1.184562e+003, 1.809107e+001
1.185044e+003, 1.810449e+001
1.185526e+003, 1.803332e+001
1.186008e+003, 1.795342e+001
1.186490e+003, 1.788243e+001
1.186973e+003, 1.785955e+001
1.187455e+003, 1.790017e+001
1.187937e+003, 1.781777e+001
1.188419e+003, 1.740524e+001
1.188901e+003, 1.712070e+001
1.189383e+003, 1.716583e+001
1.189865e+003, 1.722501e+001
1.190347e+003, 1.708555e+001
1.190830e+003, 1.692278e+001
1.191312e+003, 1.693058e+001
1.191794e+003, 1.708134e+001
1.192276e+003, 1.723943e+001
1.192758e+003, 1.740513e+001
1.193240e+003, 1.758842e+001
1.193722e+003, 1.782804e+001
1.194204e+003, 1.795015e+001
1.194687e+003, 1.786700e+001
1.195169e+003, 1.782260e+001
1.195651e+003, 1.799229e+001
1.196133e+003, 1.823443e+001
1.196615e+003, 1.834160e+001
1.197097e+003, 1.830957e+001
1.197579e+003, 1.806249e+001
1.198061e+003, 1.761538e+001
1.198543e+003, 1.727360e+001
1.199026e+003, 1.706645e+001
1.199508e+003, 1.698009e+001
1.199990e+003, 1.700837e+001
1.200472e+003, 1.715720e+001
1.200954e+003, 1.746936e+001
1.201436e+003, 1.771354e+001
1.201918e+003, 1.726245e+001
1.202400e+003, 1.665249e+001
1.202883e+003, 1.722303e+001
1.203365e+003, 1.843092e+001
1.203847e+003, 1.900368e+001
1.204329e+003, 1.886539e+001
1.204811e+003, 1.848971e+001
1.205293e+003, 1.806792e+001
1.205775e+003, 1.778015e+001
1.206257e+003, 1.786876e+001
1.206740e+003, 1.796930e+001
1.207222e+003, 1.785011e+001
1.207704e+003, 1.759223e+001
1.208186e+003, 1.709304e+001
1.208668e+003, 1.661105e+001
1.209150e+003, 1.653920e+001
1.209632e+003, 1.685006e+001
1.210114e+003, 1.722159e+001
1.210596e+003, 1.767991e+001
1.211078e+003, 1.787053e+001
1.211561e+003, 1.746096e+001
1.212043e+003, 1.713912e+001
1.212525e+003, 1.711600e+001
1.213007e+003, 1.724657e+001
1.213489e+003, 1.759186e+001
1.213971e+003, 1.791090e+001
1.214453e+003, 1.776028e+001
1.214935e+003, 1.717913e+001
1.215417e+003, 1.688655e+001
1.215900e+003, 1.690628e+001
1.216382e+003, 1.719924e+001
1.216864e+003, 1.790722e+001
1.217346e+003, 1.817179e+001
1.217828e+003, 1.762057e+001
1.218310e+003, 1.713898e+001
1.218792e+003, 1.743678e+001
1.219274e+003, 1.807876e+001
1.219757e+003, 1.832587e+001
1.220239e+003, 1.819691e+001
1.220721e+003, 1.752509e+001
1.221203e+003, 1.653446e+001
1.221685e+003, 1.654398e+001
1.222167e+003, 1.749121e+001
1.222649e+003, 1.809262e+001
1.223131e+003, 1.791859e+001
1.223614e+003, 1.757321e+001
1.224096e+003, 1.747947e+001
1.224578e+003, 1.751842e+001
1.225060e+003, 1.762031e+001
1.225542e+003, 1.772660e+001
1.226024e+003, 1.772970e+001
1.226506e+003, 1.771063e+001
1.226988e+003, 1.785139e+001
1.227470e+003, 1.808447e+001
1.227953e+003, 1.814136e+001
1.228435e+003, 1.794013e+001
1.228917e+003, 1.778775e+001
1.229399e+003, 1.780149e+001
1.229881e+003, 1.788378e+001
1.230363e+003, 1.808602e+001
1.230845e+003, 1.825294e+001
1.231327e+003, 1.826594e+001
1.231810e+003, 1.821529e+001
1.232292e+003, 1.822603e+001
1.232774e+003, 1.826891e+001
1.233256e+003, 1.822350e+001
1.233738e+003, 1.808773e+001
1.234220e+003, 1.783081e+001
1.234702e+003, 1.729895e+001
1.235184e+003, 1.721340e+001
1.235667e+003, 1.785484e+001
1.236149e+003, 1.835551e+001
1.236631e+003, 1.824286e+001
1.237113e+003, 1.788433e+001
1.237595e+003, 1.767360e+001
1.238077e+003, 1.764029e+001
1.238559e+003, 1.800349e+001
1.239041e+003, 1.862963e+001
1.239523e+003, 1.883728e+001
1.240005e+003, 1.864147e+001
1.240488e+003, 1.818128e+001
1.240970e+003, 1.756106e+001
1.241452e+003, 1.708173e+001
1.241934e+003, 1.688737e+001
1.242416e+003, 1.700975e+001
1.242898e+003, 1.770241e+001
1.243380e+003, 1.846499e+001
1.243862e+003, 1.889355e+001
1.244344e+003, 1.903429e+001
1.244827e+003, 1.880537e+001
1.245309e+003, 1.840504e+001
1.245791e+003, 1.806632e+001
1.246273e+003, 1.786486e+001
1.246755e+003, 1.796783e+001
1.247237e+003, 1.860565e+001
1.247719e+003, 1.889203e+001
1.248201e+003, 1.829224e+001
1.248684e+003, 1.778843e+001
1.249166e+003, 1.770276e+001
1.249648e+003, 1.775632e+001
1.250130e+003, 1.782850e+001
1.250612e+003, 1.791711e+001
1.251094e+003, 1.804062e+001
1.251576e+003, 1.817680e+001
1.252058e+003, 1.813875e+001
1.252541e+003, 1.786396e+001
1.253023e+003, 1.793668e+001
1.253505e+003, 1.841874e+001
1.253987e+003, 1.869699e+001
1.254469e+003, 1.862989e+001
1.254951e+003, 1.825326e+001
1.255433e+003, 1.756385e+001
1.255915e+003, 1.700206e+001
1.256397e+003, 1.716874e+001
1.256880e+003, 1.773359e+001
1.257362e+003, 1.813219e+001
1.257844e+003, 1.839831e+001
1.258326e+003, 1.853279e+001
1.258808e+003, 1.861253e+001
1.259290e+003, 1.890357e+001
1.259772e+003, 1.933746e+001
1.260254e+003, 1.940288e+001
1.260737e+003, 1.884969e+001
1.261219e+003, 1.826393e+001
1.261701e+003, 1.777994e+001
1.262183e+003, 1.757383e+001
1.262665e+003, 1.798729e+001
1.263147e+003, 1.843728e+001
1.263629e+003, 1.852982e+001
1.264111e+003, 1.837879e+001
1.264594e+003, 1.810179e+001
1.265076e+003, 1.774158e+001
1.265558e+003, 1.748471e+001
1.266040e+003, 1.729478e+001
1.266522e+003, 1.735473e+001
1.267004e+003, 1.771758e+001
1.267486e+003, 1.818830e+001
1.267968e+003, 1.879829e+001
1.268450e+003, 1.913944e+001
1.268932e+003, 1.896473e+001
1.269415e+003, 1.871326e+001
1.269897e+003, 1.892911e+001
1.270379e+003, 1.931246e+001
1.270861e+003, 1.894419e+001
1.271343e+003, 1.820367e+001
1.271825e+003, 1.845457e+001
1.272307e+003, 1.932625e+001
1.272789e+003, 1.951212e+001
1.273271e+003, 1.896087e+001
1.273754e+003, 1.844254e+001
1.274236e+003, 1.825382e+001
1.274718e+003, 1.833298e+001
1.275200e+003, 1.896558e+001
1.275682e+003, 1.936470e+001
1.276164e+003, 1.883804e+001
1.276646e+003, 1.816094e+001
1.277128e+003, 1.761576e+001
1.277611e+003, 1.744587e+001
1.278093e+003, 1.821188e+001
1.278575e+003, 1.952658e+001
1.279057e+003, 2.008532e+001
1.279539e+003, 1.976515e+001
1.280021e+003, 1.940037e+001
1.280503e+003, 1.880461e+001
1.280985e+003, 1.879279e+001
1.281468e+003, 1.974276e+001
1.281950e+003, 2.006005e+001
1.282432e+003, 1.900981e+001
1.282914e+003, 1.802648e+001
1.283396e+003, 1.834014e+001
1.283878e+003, 1.929486e+001
1.284360e+003, 1.975372e+001
1.284842e+003, 1.983546e+001
1.285324e+003, 1.987685e+001
##END=



