##NAMES=Dyscrasite
##RRUFFID=R061043
##IDEAL CHEMISTRY=Ag_3.2_Sb_0.8_
##LOCALITY=Uranium mine no. 21, Pribram, Czech Republic
##OWNER=RRUFF
##SOURCE=Michael Scott
##DESCRIPTION=Metallic silver-white tarnished striated prismatic single crystals
##STATUS=The identification of this mineral has been confirmed by X-ray diffraction.
##URL=rruff.info/R061043
143.7052, 3449.115
144.1873, 3657.027
144.6694, 3835.582
145.1515, 3955.496
145.6336, 4069.013
146.1157, 4210.094
146.5979, 4380.830
147.0800, 4553.555
147.5621, 4693.514
148.0442, 4799.509
148.5263, 4873.249
149.0084, 4898.857
149.4906, 4909.535
149.9727, 4930.558
150.4548, 4965.973
150.9369, 4997.217
151.4190, 4990.030
151.9011, 4902.572
152.3833, 4854.993
152.8654, 4875.504
153.3475, 4914.541
153.8296, 4931.469
154.3117, 4915.419
154.7938, 4887.346
155.2760, 4887.078
155.7581, 4948.978
156.2402, 4987.379
156.7223, 4976.874
157.2044, 4956.615
157.6865, 4960.745
158.1687, 5000.993
158.6508, 5066.442
159.1329, 5133.552
159.6150, 5199.220
160.0971, 5271.365
160.5792, 5350.562
161.0614, 5435.722
161.5435, 5528.239
162.0256, 5628.142
162.5077, 5729.733
162.9898, 5819.513
163.4719, 5888.878
163.9541, 5954.866
164.4362, 6006.720
164.9183, 6058.778
165.4004, 6133.303
165.8825, 6240.603
166.3646, 6361.748
166.8468, 6449.224
167.3289, 6468.743
167.8110, 6497.231
168.2931, 6555.828
168.7752, 6623.550
169.2573, 6670.832
169.7395, 6684.773
170.2216, 6676.768
170.7037, 6677.381
171.1858, 6690.711
171.6679, 6706.697
172.1500, 6730.650
172.6322, 6755.293
173.1143, 6766.841
173.5964, 6757.745
174.0785, 6738.142
174.5606, 6737.227
175.0427, 6770.302
175.5249, 6797.974
176.0070, 6804.836
176.4891, 6802.253
176.9712, 6812.870
177.4533, 6849.002
177.9354, 6896.660
178.4176, 6911.559
178.8997, 6862.913
179.3818, 6833.167
179.8639, 6861.953
180.3460, 6921.444
180.8281, 6958.348
181.3103, 6947.100
181.7924, 6906.739
182.2745, 6889.568
182.7566, 6901.237
183.2387, 6919.759
183.7208, 6940.234
184.2030, 6963.157
184.6851, 6992.008
185.1672, 7030.774
185.6493, 7071.057
186.1314, 7088.833
186.6135, 7072.738
187.0957, 7060.326
187.5778, 7073.478
188.0599, 7097.679
188.5420, 7103.346
189.0241, 7077.520
189.5062, 7029.355
189.9884, 6974.759
190.4705, 6892.957
190.9526, 6845.171
191.4347, 6868.894
191.9168, 6938.974
192.3989, 7008.037
192.8811, 7060.562
193.3632, 7098.690
193.8453, 7126.220
194.3274, 7147.409
194.8095, 7153.988
195.2916, 7135.897
195.7738, 7102.067
196.2559, 7067.830
196.7380, 7036.674
197.2201, 7011.677
197.7022, 6998.929
198.1843, 6993.839
198.6665, 7006.751
199.1486, 7066.325
199.6307, 7142.753
200.1128, 7174.895
200.5949, 7134.508
201.0770, 7063.587
201.5592, 7044.396
202.0413, 7089.140
202.5234, 7121.218
203.0055, 7112.136
203.4876, 7077.598
203.9697, 7042.392
204.4519, 7012.189
204.9340, 6987.585
205.4161, 6970.813
205.8982, 6961.423
206.3803, 6957.012
206.8624, 6966.516
207.3446, 6978.231
207.8267, 6968.607
208.3088, 6927.729
208.7909, 6881.735
209.2730, 6870.607
209.7551, 6896.676
210.2373, 6929.975
210.7194, 6981.822
211.2015, 7031.723
211.6836, 7045.934
212.1657, 7014.463
212.6479, 6967.555
213.1300, 6941.699
213.6121, 6937.534
214.0942, 6944.066
214.5763, 6973.002
215.0584, 7006.031
215.5406, 7019.063
216.0227, 7007.250
216.5048, 6988.604
216.9869, 6983.915
217.4690, 6995.246
217.9511, 7001.689
218.4333, 6993.672
218.9154, 6984.230
219.3975, 6991.232
219.8796, 7016.713
220.3617, 7038.323
220.8438, 7030.240
221.3260, 6987.975
221.8081, 6963.800
222.2902, 6973.127
222.7723, 6992.088
223.2544, 7002.346
223.7365, 7002.331
224.2187, 6998.382
224.7008, 6994.570
225.1829, 6991.027
225.6650, 6992.001
226.1471, 7003.239
226.6292, 7014.208
227.1114, 7018.448
227.5935, 7015.788
228.0756, 7006.519
228.5577, 6985.946
229.0398, 6956.663
229.5219, 6958.304
230.0041, 7028.856
230.4862, 7092.184
230.9683, 7103.639
231.4504, 7072.054
231.9325, 7031.896
232.4146, 7001.762
232.8968, 6982.545
233.3789, 6978.965
233.8610, 7006.707
234.3431, 7030.346
234.8252, 7030.307
235.3073, 7016.192
235.7895, 7013.711
236.2716, 7039.974
236.7537, 7083.737
237.2358, 7094.006
237.7179, 7035.320
238.2000, 6989.774
238.6822, 6983.555
239.1643, 7000.541
239.6464, 7016.511
240.1285, 7021.050
240.6106, 7016.406
241.0927, 7008.277
241.5749, 6999.051
242.0570, 6983.481
242.5391, 6952.696
243.0212, 6918.656
243.5033, 6897.945
243.9854, 6896.186
244.4676, 6901.897
244.9497, 6893.031
245.4318, 6847.771
245.9139, 6822.067
246.3960, 6835.323
246.8781, 6856.759
247.3603, 6856.497
247.8424, 6828.967
248.3245, 6794.093
248.8066, 6780.077
249.2887, 6798.746
249.7708, 6810.697
250.2530, 6810.996
250.7351, 6809.010
251.2172, 6816.011
251.6993, 6829.765
252.1814, 6833.559
252.6635, 6805.146
253.1457, 6731.802
253.6278, 6689.263
254.1099, 6701.510
254.5920, 6718.534
255.0741, 6718.306
255.5562, 6702.792
256.0384, 6686.310
256.5205, 6681.877
257.0026, 6689.878
257.4847, 6687.003
257.9668, 6661.891
258.4489, 6636.821
258.9311, 6618.782
259.4132, 6604.840
259.8953, 6588.170
260.3774, 6563.849
260.8595, 6533.901
261.3416, 6509.539
261.8238, 6503.361
262.3059, 6485.272
262.7880, 6434.704
263.2701, 6374.250
263.7522, 6333.881
264.2343, 6329.467
264.7165, 6344.384
265.1986, 6338.200
265.6807, 6299.605
266.1628, 6263.141
266.6449, 6235.548
267.1270, 6212.954
267.6092, 6192.156
268.0913, 6172.150
268.5734, 6154.820
269.0555, 6146.417
269.5376, 6151.707
270.0197, 6144.131
270.5019, 6113.300
270.9840, 6070.667
271.4661, 6013.651
271.9482, 5944.433
272.4303, 5884.873
272.9124, 5862.546
273.3946, 5876.417
273.8767, 5881.968
274.3588, 5873.956
274.8409, 5855.380
275.3230, 5824.693
275.8051, 5784.373
276.2873, 5746.851
276.7694, 5715.440
277.2515, 5692.176
277.7336, 5689.164
278.2157, 5720.745
278.6978, 5743.518
279.1800, 5716.924
279.6621, 5658.398
280.1442, 5607.990
280.6263, 5582.224
281.1084, 5571.357
281.5905, 5565.374
282.0727, 5565.917
282.5548, 5558.069
283.0369, 5525.417
283.5190, 5479.083
284.0011, 5446.143
284.4832, 5450.955
284.9654, 5446.619
285.4475, 5383.881
285.9296, 5271.996
286.4117, 5170.293
286.8938, 5102.951
287.3759, 5065.838
287.8581, 5050.177
288.3402, 5073.075
288.8223, 5080.963
289.3044, 5030.170
289.7865, 4951.039
290.2686, 4907.791
290.7508, 4923.680
291.2329, 4970.257
291.7150, 5006.847
292.1971, 5038.996
292.6792, 5044.634
293.1613, 5001.058
293.6435, 4939.861
294.1256, 4891.429
294.6077, 4861.354
295.0898, 4840.608
295.5719, 4818.941
296.0540, 4794.340
296.5362, 4783.259
297.0183, 4800.849
297.5004, 4817.559
297.9825, 4814.241
298.4646, 4793.906
298.9467, 4771.666
299.4289, 4758.167
299.9110, 4753.135
300.3931, 4749.941
300.8752, 4755.423
301.3573, 4755.020
301.8394, 4749.350
302.3216, 4734.727
302.8037, 4698.458
303.2858, 4632.438
303.7679, 4557.837
304.2500, 4539.192
304.7321, 4638.829
305.2143, 4695.398
305.6964, 4672.229
306.1785, 4617.645
306.6606, 4567.681
307.1427, 4532.993
307.6248, 4509.573
308.1070, 4492.905
308.5891, 4483.773
309.0712, 4478.074
309.5533, 4488.083
310.0354, 4491.181
310.5175, 4469.459
310.9997, 4427.479
311.4818, 4388.623
311.9639, 4372.563
312.4460, 4377.249
312.9281, 4384.457
313.4102, 4402.506
313.8924, 4409.420
314.3745, 4386.096
314.8566, 4346.233
315.3387, 4316.113
315.8208, 4312.917
316.3029, 4321.180
316.7851, 4315.713
317.2672, 4295.420
317.7493, 4267.742
318.2314, 4225.512
318.7135, 4182.230
319.1956, 4159.832
319.6778, 4170.171
320.1599, 4179.958
320.6420, 4155.578
321.1241, 4106.599
321.6062, 4077.829
322.0883, 4086.191
322.5705, 4115.284
323.0526, 4145.522
323.5347, 4180.097
324.0168, 4199.436
324.4989, 4186.231
324.9810, 4159.508
325.4632, 4140.963
325.9453, 4134.204
326.4274, 4140.194
326.9095, 4164.620
327.3916, 4210.887
327.8737, 4235.105
328.3559, 4224.711
328.8380, 4204.411
329.3201, 4184.707
329.8022, 4166.737
330.2843, 4150.096
330.7664, 4134.629
331.2486, 4120.388
331.7307, 4107.541
332.2128, 4101.595
332.6949, 4090.598
333.1770, 4069.348
333.6591, 4043.723
334.1413, 4019.715
334.6234, 3999.581
335.1055, 3983.204
335.5876, 3970.184
336.0698, 3959.926
336.5519, 3954.763
337.0340, 3953.324
337.5161, 3957.371
337.9982, 3975.637
338.4803, 4003.513
338.9625, 4021.428
339.4446, 4005.155
339.9267, 3956.186
340.4088, 3929.675
340.8909, 3935.285
341.3730, 3952.274
341.8552, 3980.925
342.3373, 4012.384
342.8194, 4031.530
343.3015, 4030.326
343.7836, 4014.691
344.2657, 3987.433
344.7479, 3943.430
345.2300, 3919.939
345.7121, 3953.544
346.1942, 4002.618
346.6763, 4014.204
347.1584, 3974.577
347.6406, 3936.163
348.1227, 3939.166
348.6048, 3971.583
349.0869, 3997.058
349.5690, 4008.727
350.0511, 4008.343
350.5333, 3991.273
351.0154, 3957.591
351.4975, 3934.898
351.9796, 3932.770
352.4617, 3940.471
352.9438, 3956.959
353.4260, 3978.503
353.9081, 3981.714
354.3902, 3944.907
354.8723, 3873.617
355.3544, 3830.933
355.8365, 3824.999
356.3187, 3831.781
356.8008, 3854.559
357.2829, 3883.057
357.7650, 3903.638
358.2471, 3910.792
358.7292, 3907.117
359.2114, 3896.541
359.6935, 3870.399
360.1756, 3853.622
360.6577, 3851.634
361.1398, 3853.330
361.6219, 3852.449
362.1041, 3848.182
362.5862, 3842.188
363.0683, 3834.063
363.5504, 3824.054
364.0325, 3825.201
364.5146, 3847.462
364.9968, 3867.781
365.4789, 3878.206
365.9610, 3881.441
366.4431, 3881.214
366.9252, 3878.293
367.4073, 3874.257
367.8895, 3873.058
368.3716, 3875.537
368.8537, 3871.347
369.3358, 3848.184
369.8179, 3824.023
370.3000, 3818.686
370.7822, 3834.009
371.2643, 3856.875
371.7464, 3890.499
372.2285, 3924.979
372.7106, 3935.158
373.1927, 3914.064
373.6749, 3889.351
374.1570, 3887.276
374.6391, 3907.709
375.1212, 3921.968
375.6033, 3933.818
376.0854, 3934.896
376.5676, 3908.725
377.0497, 3866.017
377.5318, 3839.304
378.0139, 3846.813
378.4960, 3877.262
378.9781, 3896.470
379.4603, 3897.739
379.9424, 3895.482
380.4245, 3895.350
380.9066, 3888.670
381.3887, 3858.730
381.8708, 3807.305
382.3530, 3762.942
382.8351, 3763.675
383.3172, 3818.826
383.7993, 3841.731
384.2814, 3787.042
384.7635, 3745.884
385.2457, 3767.263
385.7278, 3820.868
386.2099, 3846.398
386.6920, 3806.050
387.1741, 3734.820
387.6563, 3702.308
388.1384, 3714.032
388.6205, 3738.413
389.1026, 3780.870
389.5847, 3821.249
390.0668, 3838.811
390.5490, 3830.580
391.0311, 3813.504
391.5132, 3786.229
391.9953, 3758.768
392.4774, 3762.048
392.9595, 3806.779
393.4417, 3848.042
393.9238, 3836.397
394.4059, 3777.007
394.8880, 3755.301
395.3701, 3804.804
395.8522, 3865.192
396.3344, 3912.350
396.8165, 3942.929
397.2986, 3949.106
397.7807, 3925.398
398.2628, 3883.431
398.7449, 3850.733
399.2271, 3822.892
399.7092, 3812.853
400.1913, 3852.340
400.6734, 3886.334
401.1555, 3859.814
401.6376, 3777.625
402.1198, 3697.219
402.6019, 3673.287
403.0840, 3704.386
403.5661, 3728.262
404.0482, 3745.152
404.5303, 3753.843
405.0125, 3748.346
405.4946, 3737.313
405.9767, 3732.814
406.4588, 3740.148
406.9409, 3751.565
407.4230, 3753.330
407.9052, 3745.688
408.3873, 3755.333
408.8694, 3802.965
409.3515, 3852.324
409.8336, 3862.868
410.3157, 3836.781
410.7979, 3809.878
411.2800, 3790.699
411.7621, 3778.999
412.2442, 3776.198
412.7263, 3781.797
413.2084, 3791.102
413.6906, 3803.157
414.1727, 3815.915
414.6548, 3817.978
415.1369, 3790.659
415.6190, 3777.635
416.1011, 3806.823
416.5833, 3846.559
417.0654, 3855.741
417.5475, 3825.201
418.0296, 3780.006
418.5117, 3748.866
418.9938, 3730.318
419.4760, 3733.671
419.9581, 3790.009
420.4402, 3837.694
420.9223, 3854.896
421.4044, 3848.391
421.8865, 3831.115
422.3687, 3806.743
422.8508, 3781.983
423.3329, 3771.358
423.8150, 3777.001
424.2971, 3783.039
424.7792, 3782.831
425.2614, 3783.333
425.7435, 3792.265
426.2256, 3809.956
426.7077, 3827.120
427.1898, 3847.318
427.6719, 3860.996
428.1541, 3843.327
428.6362, 3791.899
429.1183, 3753.134
429.6004, 3768.184
430.0825, 3824.484
430.5646, 3836.394
431.0468, 3753.672
431.5289, 3691.547
432.0110, 3698.969
432.4931, 3740.809
432.9752, 3770.041
433.4573, 3772.958
433.9395, 3766.260
434.4216, 3773.156
434.9037, 3799.012
435.3858, 3815.875
435.8679, 3816.740
436.3500, 3815.731
436.8322, 3815.525
437.3143, 3817.459
437.7964, 3824.473
438.2785, 3840.150
438.7606, 3856.607
439.2427, 3858.874
439.7249, 3845.653
440.2070, 3825.345
440.6891, 3783.759
441.1712, 3751.166
441.6533, 3764.504
442.1354, 3824.130
442.6176, 3872.322
443.0997, 3877.761
443.5818, 3860.718
444.0639, 3845.717
444.5460, 3834.712
445.0281, 3824.895
445.5103, 3812.872
445.9924, 3801.147
446.4745, 3803.017
446.9566, 3835.141
447.4387, 3857.368
447.9208, 3855.280
448.4030, 3843.750
448.8851, 3839.849
449.3672, 3846.411
449.8493, 3852.344
450.3314, 3842.004
450.8135, 3812.573
451.2957, 3808.908
451.7778, 3862.659
452.2599, 3904.207
452.7420, 3907.890
453.2241, 3888.222
453.7062, 3862.365
454.1884, 3833.047
454.6705, 3814.806
455.1526, 3837.020
455.6347, 3895.288
456.1168, 3925.439
456.5989, 3903.282
457.0811, 3868.553
457.5632, 3863.417
458.0453, 3883.194
458.5274, 3900.093
459.0095, 3911.122
459.4916, 3915.142
459.9738, 3906.422
460.4559, 3889.193
460.9380, 3878.371
461.4201, 3882.248
461.9022, 3891.250
462.3843, 3882.903
462.8665, 3836.680
463.3486, 3809.377
463.8307, 3812.881
464.3128, 3824.131
464.7949, 3828.157
465.2770, 3826.164
465.7592, 3829.271
466.2413, 3848.701
466.7234, 3876.193
467.2055, 3880.476
467.6876, 3853.586
468.1697, 3826.987
468.6519, 3806.879
469.1340, 3793.997
469.6161, 3790.721
470.0982, 3797.619
470.5803, 3806.840
471.0624, 3816.722
471.5446, 3825.148
472.0267, 3826.006
472.5088, 3818.743
472.9909, 3815.187
473.4730, 3826.257
473.9551, 3847.857
474.4373, 3853.270
474.9194, 3822.411
475.4015, 3803.806
475.8836, 3822.396
476.3657, 3849.824
476.8478, 3850.691
477.3300, 3820.801
477.8121, 3788.225
478.2942, 3785.900
478.7763, 3814.768
479.2584, 3821.115
479.7405, 3780.990
480.2227, 3752.772
480.7048, 3763.359
481.1869, 3792.341
481.6690, 3816.104
482.1511, 3829.270
482.6332, 3830.600
483.1154, 3810.832
483.5975, 3776.804
484.0796, 3755.583
484.5617, 3752.553
485.0438, 3759.356
485.5259, 3771.517
486.0081, 3788.517
486.4902, 3801.188
486.9723, 3805.310
487.4544, 3809.352
487.9365, 3817.596
488.4186, 3827.928
488.9008, 3837.643
489.3829, 3845.656
489.8650, 3850.561
490.3471, 3848.359
490.8292, 3834.875
491.3113, 3835.113
491.7935, 3874.359
492.2756, 3901.165
492.7577, 3896.722
493.2398, 3868.723
493.7219, 3825.703
494.2040, 3764.101
494.6862, 3712.387
495.1683, 3714.643
495.6504, 3764.465
496.1325, 3804.393
496.6146, 3823.188
497.0967, 3828.836
497.5789, 3828.399
498.0610, 3821.751
498.5431, 3805.478
499.0252, 3763.261
499.5073, 3727.070
499.9895, 3722.609
500.4716, 3736.382
500.9537, 3737.977
501.4358, 3715.890
501.9179, 3688.884
502.4001, 3689.999
502.8822, 3734.029
503.3643, 3755.190
503.8464, 3723.693
504.3285, 3698.564
504.8106, 3705.124
505.2928, 3732.958
505.7749, 3761.823
506.2570, 3784.811
506.7391, 3800.678
507.2212, 3804.015
507.7033, 3796.332
508.1855, 3796.432
508.6676, 3815.142
509.1497, 3827.804
509.6318, 3802.931
510.1139, 3742.325
510.5960, 3690.228
511.0782, 3630.927
511.5603, 3600.517
512.0424, 3645.102
512.5245, 3728.088
513.0066, 3776.545
513.4887, 3763.474
513.9708, 3724.207
514.4529, 3713.584
514.9351, 3740.547
515.4172, 3759.176
515.8993, 3757.783
516.3814, 3760.059
516.8635, 3784.741
517.3456, 3816.750
517.8278, 3827.097
518.3099, 3799.787
518.7920, 3764.139
519.2741, 3755.928
519.7562, 3768.794
520.2383, 3766.554
520.7205, 3737.120
521.2026, 3708.519
521.6847, 3709.195
522.1668, 3739.993
522.6489, 3765.620
523.1310, 3800.968
523.6132, 3814.599
524.0953, 3772.073
524.5774, 3707.941
525.0595, 3674.334
525.5416, 3686.038
526.0237, 3713.816
526.5059, 3718.619
526.9880, 3697.158
527.4701, 3699.344
527.9522, 3753.762
528.4343, 3790.112
528.9164, 3770.872
529.3986, 3722.503
529.8807, 3681.523
530.3628, 3658.096
530.8449, 3635.104
531.3270, 3580.045
531.8091, 3519.470
532.2913, 3532.317
532.7734, 3632.752
533.2555, 3714.791
533.7376, 3681.960
534.2197, 3550.894
534.7018, 3490.066
535.1840, 3554.603
535.6661, 3612.197
536.1482, 3635.827
536.6303, 3646.897
537.1124, 3669.190
537.5945, 3704.118
538.0767, 3733.201
538.5588, 3740.035
539.0409, 3727.161
539.5230, 3704.511
540.0051, 3666.615
540.4872, 3637.646
540.9694, 3629.683
541.4515, 3634.499
541.9336, 3643.041
542.4157, 3656.101
542.8978, 3665.450
543.3799, 3668.953
543.8621, 3666.726
544.3442, 3655.899
544.8263, 3638.567
545.3084, 3622.196
545.7905, 3610.318
546.2726, 3604.936
546.7548, 3613.410
547.2369, 3650.467
547.7190, 3672.059
548.2011, 3673.060
548.6832, 3662.969
549.1653, 3634.743
549.6475, 3599.207
550.1296, 3584.230
550.6117, 3611.085
551.0938, 3654.238
551.5759, 3677.955
552.0580, 3684.051
552.5402, 3689.533
553.0223, 3700.313
553.5044, 3707.856
553.9865, 3701.930
554.4686, 3680.916
554.9507, 3658.593
555.4329, 3616.422
555.9150, 3593.172
556.3971, 3619.929
556.8792, 3670.780
557.3613, 3708.517
557.8434, 3721.266
558.3256, 3720.319
558.8077, 3717.332
559.2898, 3712.242
559.7719, 3711.861
560.2540, 3728.924
560.7361, 3726.344
561.2183, 3655.629
561.7004, 3565.530
562.1825, 3526.157
562.6646, 3559.864
563.1467, 3593.665
563.6288, 3594.482
564.1110, 3573.264
564.5931, 3534.060
565.0752, 3482.743
565.5573, 3450.576
566.0394, 3462.274
566.5215, 3502.277
567.0037, 3508.427
567.4858, 3442.171
567.9679, 3411.052
568.4500, 3439.746
568.9321, 3486.780
569.4142, 3538.745
569.8964, 3587.124
570.3785, 3612.993
570.8606, 3595.344
571.3427, 3563.213
571.8248, 3560.053
572.3069, 3581.758
572.7891, 3598.493
573.2712, 3601.020
573.7533, 3598.826
574.2354, 3603.947
574.7175, 3618.271
575.1996, 3621.834
575.6818, 3598.315
576.1639, 3583.242
576.6460, 3601.793
577.1281, 3630.729
577.6102, 3636.384
578.0923, 3610.976
578.5745, 3577.966
579.0566, 3560.057
579.5387, 3556.465
580.0208, 3563.730
580.5029, 3586.284
580.9850, 3604.398
581.4672, 3604.697
581.9493, 3596.932
582.4315, 3601.149
582.9136, 3623.444
583.3957, 3635.273
583.8778, 3621.688
584.3599, 3599.420
584.8420, 3575.764
585.3242, 3556.315
585.8063, 3555.879
586.2884, 3583.982
586.7705, 3624.156
587.2526, 3639.997
587.7347, 3625.426
588.2169, 3610.047
588.6990, 3593.345
589.1811, 3579.416
589.6632, 3571.536
590.1453, 3567.778
590.6274, 3561.923
591.1096, 3543.384
591.5917, 3538.663
592.0738, 3584.508
592.5559, 3651.840
593.0380, 3683.717
593.5201, 3671.008
594.0023, 3643.471
594.4844, 3625.043
594.9665, 3614.493
595.4486, 3601.478
595.9307, 3578.031
596.4128, 3565.341
596.8950, 3564.524
597.3771, 3575.404
597.8592, 3608.842
598.3413, 3657.614
598.8234, 3688.656
599.3055, 3669.633
599.7877, 3634.265
600.2698, 3632.228
600.7519, 3656.574
601.2340, 3669.631
601.7161, 3658.780
602.1982, 3638.042
602.6804, 3624.298
603.1625, 3619.101
603.6446, 3608.470
604.1267, 3579.702
604.6088, 3561.157
605.0909, 3566.955
605.5731, 3583.333
606.0552, 3594.179
606.5373, 3596.251
607.0194, 3597.838
607.5015, 3610.113
607.9836, 3626.721
608.4658, 3628.452
608.9479, 3614.404
609.4300, 3597.501
609.9121, 3578.778
610.3942, 3566.864
610.8763, 3582.600
611.3585, 3646.202
611.8406, 3671.045
612.3227, 3613.640
612.8048, 3559.255
613.2869, 3562.879
613.7690, 3597.098
614.2512, 3608.237
614.7333, 3576.612
615.2154, 3536.675
615.6975, 3532.848
616.1796, 3559.758
616.6617, 3577.200
617.1439, 3581.052
617.6260, 3585.008
618.1081, 3600.416
618.5902, 3619.188
619.0723, 3619.452
619.5544, 3592.719
620.0366, 3570.981
620.5187, 3557.372
621.0008, 3552.331
621.4829, 3561.290
621.9650, 3578.735
622.4471, 3592.154
622.9293, 3595.097
623.4114, 3592.986
623.8935, 3595.176
624.3756, 3601.651
624.8577, 3603.625
625.3398, 3598.860
625.8220, 3592.771
626.3041, 3585.945
626.7862, 3581.048
627.2683, 3586.451
627.7504, 3614.398
628.2325, 3630.355
628.7147, 3615.824
629.1968, 3592.058
629.6789, 3573.816
630.1610, 3564.272
630.6431, 3565.885
631.1252, 3580.924
631.6074, 3603.886
632.0895, 3628.690
632.5716, 3657.068
633.0537, 3659.910
633.5358, 3617.892
634.0179, 3577.421
634.5001, 3576.754
634.9822, 3605.090
635.4643, 3628.007
635.9464, 3644.559
636.4285, 3653.457
636.9106, 3660.319
637.3928, 3655.317
637.8749, 3610.308
638.3570, 3538.590
638.8391, 3500.057
639.3212, 3539.267
639.8033, 3620.394
640.2855, 3655.819
640.7676, 3640.341
641.2497, 3627.652
641.7318, 3630.284
642.2139, 3631.016
642.6960, 3613.724
643.1782, 3582.931
643.6603, 3554.449
644.1424, 3514.646
644.6245, 3497.466
645.1066, 3534.209
645.5887, 3586.613
646.0709, 3617.386
646.5530, 3622.350
647.0351, 3611.507
647.5172, 3589.137
647.9993, 3562.152
648.4814, 3550.024
648.9636, 3554.858
649.4457, 3551.713
649.9278, 3530.799
650.4099, 3510.323
650.8920, 3502.284
651.3741, 3507.098
651.8563, 3526.160
652.3384, 3590.165
652.8205, 3629.240
653.3026, 3600.293
653.7847, 3551.380
654.2668, 3533.536
654.7490, 3546.305
655.2311, 3555.547
655.7132, 3535.986
656.1953, 3505.446
656.6774, 3503.856
657.1595, 3531.989
657.6417, 3565.124
658.1238, 3607.184
658.6059, 3634.531
659.0880, 3619.743
659.5701, 3570.972
660.0522, 3541.468
660.5344, 3545.875
661.0165, 3549.532
661.4986, 3550.270
661.9807, 3543.563
662.4628, 3516.088
662.9449, 3476.254
663.4271, 3452.134
663.9092, 3462.542
664.3913, 3491.407
664.8734, 3515.574
665.3555, 3534.830
665.8376, 3544.561
666.3198, 3542.397
666.8019, 3536.874
667.2840, 3534.230
667.7661, 3533.636
668.2482, 3530.600
668.7303, 3522.515
669.2125, 3515.844
669.6946, 3511.628
670.1767, 3508.581
670.6588, 3502.505
671.1409, 3496.929
671.6230, 3502.973
672.1052, 3529.392
672.5873, 3556.177
673.0694, 3553.610
673.5515, 3530.267
674.0336, 3522.338
674.5157, 3535.619
674.9979, 3543.546
675.4800, 3526.621
675.9621, 3493.075
676.4442, 3470.854
676.9263, 3465.851
677.4084, 3462.651
677.8906, 3456.697
678.3727, 3456.916
678.8548, 3470.313
679.3369, 3492.741
679.8190, 3520.659
680.3011, 3557.583
680.7833, 3575.874
681.2654, 3527.248
681.7475, 3453.974
682.2296, 3444.676
682.7117, 3498.655
683.1938, 3548.517
683.6760, 3558.359
684.1581, 3539.636
684.6402, 3511.842
685.1223, 3463.885
685.6044, 3445.935
686.0865, 3493.357
686.5687, 3526.844
687.0508, 3497.750
687.5329, 3444.848
688.0150, 3424.482
688.4971, 3449.535
688.9792, 3475.178
689.4614, 3492.128
689.9435, 3490.710
690.4256, 3440.380
690.9077, 3363.559
691.3898, 3324.778
691.8719, 3349.266
692.3541, 3400.782
692.8362, 3431.679
693.3183, 3442.195
693.8004, 3459.370
694.2825, 3490.034
694.7646, 3507.451
695.2468, 3490.512
695.7289, 3463.844
696.2110, 3463.951
696.6931, 3492.865
697.1752, 3510.925
697.6573, 3508.213
698.1395, 3497.173
698.6216, 3478.021
699.1037, 3457.148
699.5858, 3441.091
700.0679, 3432.072
700.5500, 3431.771
701.0322, 3444.731
701.5143, 3465.527
701.9964, 3489.504
702.4785, 3515.997
702.9606, 3491.145
703.4427, 3379.738
703.9249, 3282.613
704.4070, 3320.174
704.8891, 3486.569
705.3712, 3565.756
705.8533, 3487.785
706.3354, 3418.540
706.8176, 3369.820
707.2997, 3344.291
707.7818, 3349.836
708.2639, 3380.522
708.7460, 3420.346
709.2281, 3473.492
709.7103, 3510.784
710.1924, 3487.924
710.6745, 3431.183
711.1566, 3397.992
711.6387, 3396.317
712.1208, 3406.544
712.6030, 3416.635
713.0851, 3425.444
713.5672, 3427.040
714.0493, 3412.837
714.5314, 3421.910
715.0135, 3484.009
715.4957, 3533.625
715.9778, 3526.201
716.4599, 3486.562
716.9420, 3454.872
717.4241, 3433.313
717.9063, 3428.476
718.3884, 3460.381
718.8705, 3495.071
719.3526, 3501.956
719.8347, 3488.356
720.3168, 3474.209
720.7990, 3467.278
721.2811, 3464.080
721.7632, 3461.496
722.2453, 3459.152
722.7274, 3454.851
723.2095, 3448.549
723.6917, 3439.611
724.1738, 3424.490
724.6559, 3413.065
725.1380, 3421.159
725.6201, 3452.889
726.1022, 3473.855
726.5844, 3482.528
727.0665, 3483.551
727.5486, 3482.481
728.0307, 3471.374
728.5128, 3430.463
728.9949, 3366.878
729.4771, 3325.625
729.9592, 3342.158
730.4413, 3377.778
730.9234, 3396.617
731.4055, 3403.156
731.8876, 3405.927
732.3698, 3407.203
732.8519, 3411.491
733.3340, 3423.889
733.8161, 3438.426
734.2982, 3431.106
734.7803, 3391.605
735.2625, 3376.350
735.7446, 3408.520
736.2267, 3439.512
736.7088, 3430.829
737.1909, 3400.193
737.6730, 3386.659
738.1552, 3396.428
738.6373, 3412.285
739.1194, 3439.109
739.6015, 3462.607
740.0836, 3471.601
740.5657, 3470.078
741.0479, 3464.287
741.5300, 3456.750
742.0121, 3453.871
742.4942, 3475.973
742.9763, 3503.965
743.4584, 3478.973
743.9406, 3404.872
744.4227, 3342.298
744.9048, 3311.364
745.3869, 3312.694
745.8690, 3355.013
746.3511, 3440.149
746.8333, 3483.195
747.3154, 3456.083
747.7975, 3434.022
748.2796, 3433.271
748.7617, 3441.690
749.2438, 3455.417
749.7260, 3471.544
750.2081, 3479.031
750.6902, 3471.591
751.1723, 3459.722
751.6544, 3442.593
752.1365, 3427.833
752.6187, 3424.140
753.1008, 3431.582
753.5829, 3450.073
754.0650, 3481.959
754.5471, 3507.572
755.0292, 3480.738
755.5114, 3414.218
755.9935, 3405.360
756.4756, 3468.679
756.9577, 3515.204
757.4398, 3494.742
757.9219, 3440.252
758.4041, 3410.804
758.8862, 3411.660
759.3683, 3417.544
759.8504, 3443.036
760.3325, 3455.857
760.8146, 3436.786
761.2968, 3408.302
761.7789, 3395.096
762.2610, 3398.426
762.7431, 3399.820
763.2252, 3391.496
763.7073, 3378.899
764.1895, 3365.867
764.6716, 3351.075
765.1537, 3333.263
765.6358, 3311.661
766.1179, 3283.529
766.6000, 3244.875
767.0822, 3204.361
767.5643, 3175.971
768.0464, 3160.336
768.5285, 3173.810
769.0106, 3222.408
769.4927, 3278.887
769.9749, 3328.519
770.4570, 3372.056
770.9391, 3413.231
771.4212, 3460.771
771.9033, 3482.651
772.3854, 3446.245
772.8676, 3422.859
773.3497, 3462.427
773.8318, 3514.321
774.3139, 3512.812
774.7960, 3449.720
775.2781, 3375.461
775.7603, 3271.979
776.2424, 3204.657
776.7245, 3247.646
777.2066, 3351.203
777.6887, 3448.004
778.1708, 3517.689
778.6530, 3548.549
779.1351, 3524.882
779.6172, 3472.105
780.0993, 3445.118
780.5814, 3441.500
781.0635, 3430.807
781.5457, 3406.450
782.0278, 3391.430
782.5099, 3403.282
782.9920, 3432.002
783.4741, 3450.176
783.9562, 3451.202
784.4384, 3458.821
784.9205, 3484.678
785.4026, 3502.996
785.8847, 3502.446
786.3668, 3490.732
786.8489, 3475.788
787.3311, 3458.414
787.8132, 3442.004
788.2953, 3424.622
788.7774, 3412.015
789.2595, 3410.559
789.7416, 3414.694
790.2238, 3413.408
790.7059, 3407.924
791.1880, 3413.990
791.6701, 3445.711
792.1522, 3487.099
792.6343, 3520.428
793.1165, 3541.957
793.5986, 3527.246
794.0807, 3473.765
794.5628, 3423.416
795.0449, 3402.482
795.5270, 3398.064
796.0092, 3382.314
796.4913, 3352.819
796.9734, 3322.885
797.4555, 3292.733
797.9376, 3261.584
798.4197, 3219.766
798.9019, 3183.392
799.3840, 3175.246
799.8661, 3195.934
800.3482, 3215.905
800.8303, 3225.122
801.3124, 3240.586
801.7946, 3272.579
802.2767, 3310.438
802.7588, 3350.651
803.2409, 3387.455
803.7230, 3407.227
804.2051, 3401.447
804.6873, 3382.469
805.1694, 3346.756
805.6515, 3312.444
806.1336, 3321.713
806.6157, 3367.996
807.0978, 3401.944
807.5800, 3400.121
808.0621, 3387.625
808.5442, 3404.462
809.0263, 3447.347
809.5084, 3467.932
809.9905, 3463.046
810.4727, 3456.420
810.9548, 3457.110
811.4369, 3454.417
811.9190, 3431.723
812.4011, 3391.524
812.8832, 3379.423
813.3654, 3423.792
813.8475, 3454.151
814.3296, 3464.185
814.8117, 3460.045
815.2938, 3434.815
815.7759, 3400.313
816.2581, 3382.695
816.7402, 3392.265
817.2223, 3398.477
817.7044, 3381.348
818.1865, 3362.496
818.6686, 3359.665
819.1508, 3367.962
819.6329, 3379.559
820.1150, 3391.165
820.5971, 3397.313
821.0792, 3389.306
821.5613, 3377.045
822.0435, 3378.954
822.5256, 3391.755
823.0077, 3401.600
823.4898, 3406.139
823.9719, 3418.849
824.4540, 3453.284
824.9362, 3489.871
825.4183, 3469.241
825.9004, 3379.137
826.3825, 3326.900
826.8646, 3328.538
827.3467, 3336.389
827.8289, 3326.060
828.3110, 3312.977
828.7931, 3323.839
829.2752, 3364.432
829.7573, 3389.981
830.2394, 3387.033
830.7216, 3387.000
831.2037, 3405.660
831.6858, 3422.495
832.1679, 3421.013
832.6500, 3402.425
833.1321, 3375.178
833.6143, 3336.144
834.0964, 3301.472
834.5785, 3263.168
835.0606, 3246.242
835.5427, 3302.526
836.0248, 3396.048
836.5070, 3437.097
836.9891, 3396.757
837.4712, 3339.353
837.9533, 3325.085
838.4354, 3337.738
838.9175, 3349.169
839.3997, 3358.803
839.8818, 3368.961
840.3639, 3379.464
840.8460, 3369.142
841.3281, 3315.086
841.8102, 3240.821
842.2924, 3220.743
842.7745, 3261.464
843.2566, 3298.804
843.7387, 3329.380
844.2208, 3350.893
844.7029, 3362.510
845.1851, 3364.020
845.6672, 3353.304
846.1493, 3326.782
846.6314, 3307.460
847.1135, 3301.003
847.5956, 3294.397
848.0778, 3278.282
848.5599, 3266.586
849.0420, 3275.003
849.5241, 3298.823
850.0062, 3316.312
850.4883, 3317.831
850.9705, 3321.748
851.4526, 3354.349
851.9347, 3374.260
852.4168, 3332.277
852.8989, 3256.637
853.3810, 3201.914
853.8632, 3184.651
854.3453, 3188.147
854.8274, 3208.065
855.3095, 3235.621
855.7916, 3267.748
856.2737, 3297.093
856.7559, 3300.430
857.2380, 3278.044
857.7201, 3261.756
858.2022, 3274.410
858.6843, 3303.807
859.1664, 3335.346
859.6486, 3365.527
860.1307, 3359.074
860.6128, 3311.662
861.0949, 3271.024
861.5770, 3257.501
862.0591, 3263.129
862.5413, 3279.695
863.0234, 3307.034
863.5055, 3318.186
863.9876, 3300.307
864.4697, 3304.609
864.9518, 3365.816
865.4340, 3416.037
865.9161, 3392.863
866.3982, 3317.577
866.8803, 3271.401
867.3624, 3273.496
867.8445, 3263.383
868.3267, 3213.753
868.8088, 3180.512
869.2909, 3196.350
869.7730, 3236.161
870.2551, 3276.072
870.7372, 3311.360
871.2194, 3327.847
871.7015, 3308.338
872.1836, 3283.418
872.6657, 3259.338
873.1478, 3244.106
873.6299, 3247.968
874.1121, 3267.763
874.5942, 3296.786
875.0763, 3334.045
875.5584, 3359.297
876.0405, 3356.224
876.5226, 3330.028
877.0048, 3265.793
877.4869, 3187.880
877.9690, 3165.802
878.4511, 3212.005
878.9332, 3272.168
879.4153, 3305.264
879.8975, 3315.388
880.3796, 3304.236
880.8617, 3276.096
881.3438, 3255.721
881.8259, 3245.939
882.3080, 3244.621
882.7902, 3251.829
883.2723, 3260.937
883.7544, 3261.921
884.2365, 3254.877
884.7186, 3245.125
885.2007, 3232.428
885.6829, 3216.865
886.1650, 3194.483
886.6471, 3177.248
887.1292, 3174.306
887.6113, 3184.497
888.0934, 3204.217
888.5756, 3242.691
889.0577, 3271.375
889.5398, 3303.470
890.0219, 3308.570
890.5040, 3243.034
890.9861, 3166.238
891.4683, 3154.241
891.9504, 3207.026
892.4325, 3240.396
892.9146, 3231.679
893.3967, 3217.377
893.8788, 3197.586
894.3610, 3184.069
894.8431, 3188.984
895.3252, 3206.148
895.8073, 3223.937
896.2894, 3240.535
896.7715, 3247.635
897.2537, 3229.438
897.7358, 3212.266
898.2179, 3218.143
898.7000, 3236.462
899.1821, 3259.294
899.6642, 3279.035
900.1464, 3272.030
900.6285, 3212.992
901.1106, 3160.951
901.5927, 3203.361
902.0748, 3277.423
902.5569, 3266.817
903.0391, 3192.204
903.5212, 3149.502
904.0033, 3169.817
904.4854, 3206.384
904.9675, 3215.707
905.4496, 3208.070
905.9318, 3205.300
906.4139, 3206.682
906.8960, 3211.471
907.3781, 3218.796
907.8602, 3212.855
908.3423, 3182.277
908.8245, 3150.441
909.3066, 3164.843
909.7887, 3221.475
910.2708, 3231.832
910.7529, 3188.301
911.2351, 3175.708
911.7172, 3224.023
912.1993, 3280.648
912.6815, 3305.602
913.1636, 3298.313
913.6457, 3246.855
914.1278, 3121.967
914.6099, 3064.333
915.0920, 3104.469
915.5742, 3154.990
916.0563, 3190.022
916.5384, 3207.783
917.0205, 3201.165
917.5026, 3170.315
917.9847, 3150.245
918.4669, 3158.146
918.9490, 3149.660
919.4311, 3087.326
919.9132, 3043.370
920.3953, 3075.967
920.8774, 3144.368
921.3596, 3174.587
921.8417, 3155.016
922.3238, 3146.538
922.8059, 3171.545
923.2880, 3190.915
923.7701, 3185.503
924.2523, 3174.317
924.7344, 3174.482
925.2165, 3183.257
925.6986, 3189.707
926.1807, 3193.762
926.6628, 3185.856
927.1450, 3153.370
927.6271, 3116.870
928.1092, 3075.737
928.5913, 3047.351
929.0734, 3063.469
929.5555, 3118.884
930.0377, 3165.078
930.5198, 3177.994
931.0019, 3177.156
931.4840, 3168.343
931.9661, 3159.663
932.4482, 3163.171
932.9304, 3173.658
933.4125, 3182.135
933.8946, 3184.424
934.3767, 3170.089
934.8588, 3112.600
935.3409, 3056.748
935.8231, 3073.921
936.3052, 3124.479
936.7873, 3127.592
937.2694, 3087.409
937.7515, 3062.975
938.2336, 3080.635
938.7158, 3113.352
939.1979, 3132.434
939.6800, 3144.273
940.1621, 3166.137
940.6442, 3193.282
941.1263, 3207.903
941.6085, 3207.290
942.0906, 3199.721
942.5727, 3189.956
943.0548, 3179.572
943.5369, 3176.047
944.0190, 3174.736
944.5012, 3142.250
944.9833, 3082.118
945.4654, 3055.578
945.9475, 3080.292
946.4296, 3112.398
946.9117, 3114.531
947.3939, 3098.024
947.8760, 3090.224
948.3581, 3091.154
948.8402, 3105.946
949.3223, 3136.396
949.8044, 3164.249
950.2866, 3182.941
950.7687, 3195.026
951.2508, 3204.473
951.7329, 3209.089
952.2150, 3193.931
952.6971, 3154.760
953.1793, 3124.081
953.6614, 3106.696
954.1435, 3090.152
954.6256, 3065.195
955.1077, 3045.133
955.5898, 3052.718
956.0720, 3087.311
956.5541, 3097.301
957.0362, 3065.686
957.5183, 3064.814
958.0004, 3122.560
958.4825, 3177.508
958.9647, 3196.950
959.4468, 3186.507
959.9289, 3151.912
960.4110, 3087.033
960.8931, 3044.130
961.3752, 3031.959
961.8574, 3025.498
962.3395, 3023.401
962.8216, 3021.317
963.3037, 3016.486
963.7858, 3009.147
964.2679, 2997.109
964.7501, 2968.781
965.2322, 2973.497
965.7143, 3042.823
966.1964, 3101.492
966.6785, 3128.895
967.1606, 3140.696
967.6428, 3151.188
968.1249, 3156.577
968.6070, 3139.541
969.0891, 3073.489
969.5712, 3045.518
970.0533, 3101.954
970.5355, 3144.804
971.0176, 3121.089
971.4997, 3083.422
971.9818, 3092.071
972.4639, 3136.547
972.9460, 3150.440
973.4282, 3099.948
973.9103, 3068.861
974.3924, 3083.934
974.8745, 3103.141
975.3566, 3120.357
975.8387, 3122.780
976.3209, 3082.176
976.8030, 3006.268
977.2851, 2965.445
977.7672, 2992.390
978.2493, 3023.648
978.7314, 3047.216
979.2136, 3069.030
979.6957, 3101.410
980.1778, 3129.306
980.6599, 3125.327
981.1420, 3090.081
981.6241, 3067.379
982.1063, 3081.433
982.5884, 3092.025
983.0705, 3089.515
983.5526, 3077.194
984.0347, 3043.353
984.5168, 3007.817
984.9990, 3006.522
985.4811, 3042.945
985.9632, 3070.080
986.4453, 3076.608
986.9274, 3065.539
987.4095, 3028.883
987.8917, 2983.573
988.3738, 2930.789
988.8559, 2883.668
989.3380, 2870.365
989.8201, 2895.567
990.3022, 2903.098
990.7844, 2847.316
991.2665, 2800.728
991.7486, 2804.215
992.2307, 2823.635
992.7128, 2821.951
993.1949, 2814.787
993.6771, 2842.445
994.1592, 2914.319
994.6413, 2984.882
995.1234, 3049.730
995.6055, 3090.396
996.0876, 3076.352
996.5698, 3051.842
997.0519, 3066.239
997.5340, 3102.285
998.0161, 3108.830
998.4982, 3071.694
998.9803, 3048.010
999.4625, 3085.933
999.9446, 3116.737
1000.427, 3088.431
1000.909, 3046.466
1001.391, 3037.301
1001.873, 3052.290
1002.355, 3059.286
1002.837, 3049.188
1003.319, 3043.719
1003.802, 3063.453
1004.284, 3077.525
1004.766, 3058.985
1005.248, 3033.776
1005.730, 3033.457
1006.212, 3048.096
1006.694, 3045.033
1007.176, 3013.844
1007.658, 2988.550
1008.141, 2994.174
1008.623, 2997.931
1009.105, 2977.517
1009.587, 2949.272
1010.069, 2917.460
1010.551, 2894.782
1011.033, 2915.050
1011.515, 2993.400
1011.997, 3049.204
1012.480, 3023.133
1012.962, 2996.218
1013.444, 3016.418
1013.926, 3052.921
1014.408, 3088.898
1014.890, 3111.399
1015.372, 3088.537
1015.854, 3004.759
1016.337, 2950.431
1016.819, 2985.664
1017.301, 3027.163
1017.783, 3048.199
1018.265, 3044.110
1018.747, 2994.506
1019.229, 2920.952
1019.711, 2871.041
1020.193, 2855.431
1020.676, 2858.863
1021.158, 2892.078
1021.640, 2923.338
1022.122, 2951.833
1022.604, 2961.017
1023.086, 2916.859
1023.568, 2847.220
1024.050, 2816.821
1024.532, 2841.180
1025.015, 2868.462
1025.497, 2885.411
1025.979, 2901.962
1026.461, 2937.409
1026.943, 2959.361
1027.425, 2918.474
1027.907, 2852.060
1028.389, 2844.536
1028.872, 2914.048
1029.354, 2976.334
1029.836, 3013.922
1030.318, 3043.683
1030.800, 3096.656
1031.282, 3117.750
1031.764, 3019.700
1032.246, 2879.637
1032.729, 2863.363
1033.211, 3001.846
1033.693, 3079.670
1034.175, 3027.904
1034.657, 2976.951
1035.139, 2940.680
1035.621, 2924.736
1036.103, 2947.857
1036.585, 2986.295
1037.068, 2998.884
1037.550, 2981.547
1038.032, 2970.077
1038.514, 2965.874
1038.996, 2967.023
1039.478, 2981.159
1039.960, 2991.242
1040.442, 2980.138
1040.924, 2965.698
1041.407, 2978.199
1041.889, 3018.359
1042.371, 3039.603
1042.853, 3035.412
1043.335, 3024.324
1043.817, 2999.930
1044.299, 2982.594
1044.781, 2990.022
1045.264, 2999.541
1045.746, 2977.686
1046.228, 2928.594
1046.710, 2904.527
1047.192, 2912.811
1047.674, 2926.598
1048.156, 2950.524
1048.638, 2962.277
1049.120, 2946.237
1049.603, 2927.978
1050.085, 2938.123
1050.567, 2969.821
1051.049, 2989.376
1051.531, 2997.878
1052.013, 2983.281
1052.495, 2936.759
1052.977, 2909.403
1053.459, 2923.294
1053.942, 2943.485
1054.424, 2937.438
1054.906, 2912.449
1055.388, 2885.856
1055.870, 2857.054
1056.352, 2858.922
1056.834, 2894.171
1057.316, 2917.772
1057.799, 2916.184
1058.281, 2912.182
1058.763, 2922.800
1059.245, 2943.914
1059.727, 2976.515
1060.209, 3014.080
1060.691, 3004.536
1061.173, 2952.946
1061.656, 2909.402
1062.138, 2885.157
1062.620, 2874.787
1063.102, 2875.547
1063.584, 2880.936
1064.066, 2877.636
1064.548, 2872.973
1065.030, 2890.117
1065.512, 2923.122
1065.995, 2956.830
1066.477, 2985.861
1066.959, 2998.962
1067.441, 2990.979
1067.923, 2973.980
1068.405, 2954.415
1068.887, 2938.987
1069.369, 2943.746
1069.851, 2956.985
1070.334, 2953.200
1070.816, 2937.316
1071.298, 2936.777
1071.780, 2958.735
1072.262, 2971.701
1072.744, 2942.634
1073.226, 2909.637
1073.708, 2907.708
1074.191, 2919.995
1074.673, 2932.079
1075.155, 2940.833
1075.637, 2941.196
1076.119, 2934.267
1076.601, 2935.492
1077.083, 2964.415
1077.565, 2978.256
1078.047, 2940.521
1078.530, 2894.173
1079.012, 2858.400
1079.494, 2841.142
1079.976, 2865.310
1080.458, 2918.622
1080.940, 2935.803
1081.422, 2878.142
1081.904, 2845.828
1082.387, 2887.953
1082.869, 2928.902
1083.351, 2946.043
1083.833, 2940.313
1084.315, 2892.304
1084.797, 2824.761
1085.279, 2809.136
1085.761, 2869.914
1086.244, 2907.557
1086.726, 2911.116
1087.208, 2907.737
1087.690, 2896.386
1088.172, 2887.668
1088.654, 2891.451
1089.136, 2898.755
1089.618, 2892.412
1090.100, 2872.021
1090.583, 2857.858
1091.065, 2847.007
1091.547, 2856.145
1092.029, 2894.161
1092.511, 2927.121
1092.993, 2939.805
1093.475, 2938.649
1093.957, 2929.065
1094.439, 2914.484
1094.922, 2911.331
1095.404, 2919.220
1095.886, 2918.808
1096.368, 2908.799
1096.850, 2880.104
1097.332, 2829.906
1097.814, 2803.516
1098.296, 2841.534
1098.779, 2906.026
1099.261, 2929.080
1099.743, 2922.609
1100.225, 2922.500
1100.707, 2925.238
1101.189, 2909.903
1101.671, 2876.906
1102.153, 2849.218
1102.635, 2838.375
1103.118, 2843.796
1103.600, 2870.595
1104.082, 2908.199
1104.564, 2956.267
1105.046, 2998.605
1105.528, 3009.858
1106.010, 2993.088
1106.492, 2960.825
1106.974, 2917.758
1107.457, 2875.667
1107.939, 2826.056
1108.421, 2800.257
1108.903, 2838.427
1109.385, 2884.597
1109.867, 2898.439
1110.349, 2888.213
1110.831, 2858.123
1111.314, 2816.565
1111.796, 2809.449
1112.278, 2873.333
1112.760, 2914.624
1113.242, 2888.915
1113.724, 2874.691
1114.206, 2926.773
1114.688, 2978.262
1115.171, 2962.567
1115.653, 2905.481
1116.135, 2876.644
1116.617, 2881.993
1117.099, 2882.227
1117.581, 2877.505
1118.063, 2866.737
1118.545, 2847.964
1119.027, 2825.590
1119.510, 2795.579
1119.992, 2781.871
1120.474, 2828.160
1120.956, 2915.746
1121.438, 2924.655
1121.920, 2857.435
1122.402, 2830.474
1122.884, 2852.934
1123.366, 2898.096
1123.849, 2955.783
1124.331, 2978.825
1124.813, 2920.828
1125.295, 2835.432
1125.777, 2811.040
1126.259, 2827.772
1126.741, 2850.063
1127.223, 2872.222
1127.706, 2879.702
1128.188, 2875.876
1128.670, 2892.529
1129.152, 2946.098
1129.634, 2974.052
1130.116, 2892.512
1130.598, 2803.355
1131.080, 2802.190
1131.563, 2831.890
1132.045, 2829.124
1132.527, 2805.391
1133.009, 2799.323
1133.491, 2815.582
1133.973, 2817.362
1134.455, 2766.187
1134.937, 2743.059
1135.419, 2788.623
1135.901, 2841.664
1136.384, 2879.752
1136.866, 2905.079
1137.348, 2922.511
1137.830, 2929.774
1138.312, 2915.803
1138.794, 2871.626
1139.276, 2843.242
1139.758, 2832.935
1140.241, 2833.030
1140.723, 2844.854
1141.205, 2859.747
1141.687, 2875.172
1142.169, 2884.045
1142.651, 2875.880
1143.133, 2852.413
1143.615, 2816.909
1144.098, 2771.745
1144.580, 2741.360
1145.062, 2729.046
1145.544, 2752.159
1146.026, 2813.265
1146.508, 2874.949
1146.990, 2911.569
1147.472, 2925.130
1147.954, 2910.492
1148.437, 2879.977
1148.919, 2846.693
1149.401, 2815.358
1149.883, 2789.772
1150.365, 2773.627
1150.847, 2780.060
1151.329, 2813.705
1151.811, 2836.262
1152.293, 2807.123
1152.776, 2787.723
1153.258, 2829.034
1153.740, 2871.243
1154.222, 2862.483
1154.704, 2830.401
1155.186, 2815.202
1155.668, 2818.649
1156.150, 2827.446
1156.633, 2855.720
1157.115, 2855.566
1157.597, 2803.136
1158.079, 2767.484
1158.561, 2770.843
1159.043, 2785.948
1159.525, 2797.530
1160.007, 2802.771
1160.490, 2793.237
1160.972, 2772.244
1161.454, 2779.424
1161.936, 2813.975
1162.418, 2823.592
1162.900, 2803.459
1163.382, 2762.040
1163.864, 2704.741
1164.346, 2689.501
1164.828, 2776.375
1165.311, 2884.053
1165.793, 2888.190
1166.275, 2839.492
1166.757, 2809.161
1167.239, 2798.671
1167.721, 2818.766
1168.203, 2853.048
1168.685, 2839.956
1169.168, 2757.184
1169.650, 2704.458
1170.132, 2765.063
1170.614, 2823.908
1171.096, 2820.522
1171.578, 2804.708
1172.060, 2808.202
1172.542, 2822.850
1173.025, 2844.121
1173.507, 2866.479
1173.989, 2855.773
1174.471, 2791.965
1174.953, 2752.341
1175.435, 2740.983
1175.917, 2744.732
1176.399, 2765.815
1176.881, 2786.765
1177.364, 2799.037
1177.846, 2797.750
1178.328, 2771.439
1178.810, 2729.252
1179.292, 2705.778
1179.774, 2700.740
1180.256, 2720.711
1180.738, 2759.633
1181.220, 2784.650
1181.703, 2788.365
1182.185, 2791.167
1182.667, 2806.729
1183.149, 2818.954
1183.631, 2803.258
1184.113, 2785.979
1184.595, 2794.936
1185.077, 2817.181
1185.560, 2853.189
1186.042, 2882.474
1186.524, 2853.741
1187.006, 2761.687
1187.488, 2704.283
1187.970, 2729.890
1188.452, 2752.271
1188.934, 2748.366
1189.417, 2756.063
1189.899, 2808.299
1190.381, 2847.326
1190.863, 2814.323
1191.345, 2748.442
1191.827, 2746.334
1192.309, 2806.485
1192.791, 2805.680
1193.273, 2742.279
1193.755, 2729.727
1194.238, 2779.656
1194.720, 2803.112
1195.202, 2767.723
1195.684, 2736.408
1196.166, 2765.955
1196.648, 2809.220
1197.130, 2796.663
1197.612, 2759.672
1198.095, 2745.962
1198.577, 2740.679
1199.059, 2703.051
1199.541, 2649.076
1200.023, 2647.103
1200.505, 2715.561
1200.987, 2744.445
1201.469, 2646.733
1201.952, 2572.528
1202.434, 2578.913
1202.916, 2599.965
1203.398, 2605.672
1203.880, 2609.650
1204.362, 2636.702
1204.844, 2664.564
1205.326, 2623.129
1205.808, 2504.606
1206.291, 2432.276
1206.773, 2404.921
1207.255, 2454.379
1207.737, 2586.583
1208.219, 2703.344
1208.701, 2764.813
1209.183, 2772.369
1209.665, 2713.384
1210.147, 2648.676
1210.630, 2697.787
1211.112, 2780.700
1211.594, 2752.866
1212.076, 2674.108
1212.558, 2665.492
1213.040, 2713.343
1213.522, 2717.420
1214.004, 2650.897
1214.487, 2620.748
1214.969, 2706.936
1215.451, 2773.438
1215.933, 2778.935
1216.415, 2763.567
1216.897, 2724.693
1217.379, 2696.997
1217.861, 2722.867
1218.344, 2770.601
1218.826, 2755.217
1219.308, 2675.982
1219.790, 2646.228
1220.272, 2666.518
1220.754, 2719.051
1221.236, 2798.599
1221.718, 2836.002
1222.200, 2808.330
1222.682, 2767.617
1223.165, 2752.473
1223.647, 2747.644
1224.129, 2739.114
1224.611, 2726.068
1225.093, 2701.479
1225.575, 2676.124
1226.057, 2659.005
1226.539, 2655.537
1227.022, 2682.199
1227.504, 2739.350
1227.986, 2772.654
1228.468, 2744.090
1228.950, 2734.624
1229.432, 2782.311
1229.914, 2798.806
1230.396, 2744.642
1230.879, 2681.526
1231.361, 2650.885
1231.843, 2640.526
1232.325, 2631.745
1232.807, 2624.222
1233.289, 2623.465
1233.771, 2623.680
1234.253, 2571.871
1234.735, 2483.793
1235.218, 2459.088
1235.700, 2509.926
1236.182, 2543.546
1236.664, 2509.140
1237.146, 2472.592
1237.628, 2485.452
1238.110, 2513.104
1238.592, 2546.898
1239.074, 2569.459
1239.557, 2544.359
1240.039, 2512.302
1240.521, 2540.792
1241.003, 2622.913
1241.485, 2687.112
1241.967, 2735.205
1242.449, 2756.524
1242.931, 2745.715
1243.414, 2730.012
1243.896, 2713.490
1244.378, 2694.057
1244.860, 2669.912
1245.342, 2659.096
1245.824, 2684.772
1246.306, 2717.156
1246.788, 2691.355
1247.271, 2648.034
1247.753, 2672.557
1248.235, 2726.240
1248.717, 2728.345
1249.199, 2691.986
1249.681, 2690.349
1250.163, 2738.451
1250.645, 2752.414
1251.127, 2651.803
1251.609, 2602.625
1252.092, 2690.355
1252.574, 2752.901
1253.056, 2731.102
1253.538, 2687.346
1254.020, 2658.454
1254.502, 2645.363
1254.984, 2652.320
1255.466, 2674.428
1255.949, 2690.171
1256.431, 2699.282
1256.913, 2701.538
1257.395, 2695.678
1257.877, 2668.369
1258.359, 2624.582
1258.841, 2603.632
1259.323, 2624.090
1259.806, 2650.933
1260.288, 2666.185
1260.770, 2672.840
1261.252, 2673.790
1261.734, 2665.334
1262.216, 2628.303
1262.698, 2593.670
1263.180, 2600.403
1263.662, 2637.292
1264.145, 2679.601
1264.627, 2729.519
1265.109, 2734.382
1265.591, 2690.716
1266.073, 2645.725
1266.555, 2604.903
1267.037, 2578.976
1267.519, 2571.582
1268.001, 2581.206
1268.484, 2607.850
1268.966, 2641.753
1269.448, 2683.303
1269.930, 2714.740
1270.412, 2701.651
1270.894, 2683.723
1271.376, 2692.862
1271.858, 2733.653
##END=



