##NAMES=Eddavidite
##RRUFFID=R050381
##IDEAL CHEMISTRY=Cu^2+^_12_Pb^4+^_2_O_15_Br_2_
##LOCALITY=Southwest mine, Bisbee, Arizona, USA
##OWNER=RRUFF
##SOURCE=University of Arizona Mineral Museum
##DESCRIPTION=Black cubes, associated with malachite and cuprite. Type sample
##STATUS=The identification of this mineral is confirmed by single-crystal X-ray diffraction and chemical analysis.
##URL=rruff.info/R050381
##MEASURED CHEMISTRY=Pb_1.95_Cu_12.14_O_15.09_(Br_1.16_Cl_0.75_)_Î£1.91_
8.813672e+001, 1.320640e+002
8.861884e+001, 1.343746e+002
8.910095e+001, 1.363119e+002
8.958307e+001, 1.374119e+002
9.006519e+001, 1.385041e+002
9.054730e+001, 1.406433e+002
9.102942e+001, 1.439793e+002
9.151154e+001, 1.472836e+002
9.199365e+001, 1.501612e+002
9.247577e+001, 1.523154e+002
9.295789e+001, 1.528303e+002
9.344000e+001, 1.499296e+002
9.392212e+001, 1.451183e+002
9.440424e+001, 1.424755e+002
9.488635e+001, 1.426400e+002
9.536847e+001, 1.436411e+002
9.585059e+001, 1.425804e+002
9.633270e+001, 1.395450e+002
9.681482e+001, 1.364158e+002
9.729694e+001, 1.340998e+002
9.777905e+001, 1.325585e+002
9.826117e+001, 1.315496e+002
9.874329e+001, 1.310299e+002
9.922540e+001, 1.310418e+002
9.970752e+001, 1.320791e+002
1.001896e+002, 1.345120e+002
1.006718e+002, 1.364583e+002
1.011539e+002, 1.363377e+002
1.016360e+002, 1.335693e+002
1.021181e+002, 1.315313e+002
1.026002e+002, 1.307317e+002
1.030823e+002, 1.310285e+002
1.035645e+002, 1.313990e+002
1.040466e+002, 1.316214e+002
1.045287e+002, 1.322057e+002
1.050108e+002, 1.335149e+002
1.054929e+002, 1.352150e+002
1.059750e+002, 1.382161e+002
1.064572e+002, 1.433087e+002
1.069393e+002, 1.509451e+002
1.074214e+002, 1.565474e+002
1.079035e+002, 1.602810e+002
1.083856e+002, 1.620440e+002
1.088677e+002, 1.616818e+002
1.093499e+002, 1.563526e+002
1.098320e+002, 1.516887e+002
1.103141e+002, 1.487741e+002
1.107962e+002, 1.477450e+002
1.112783e+002, 1.478813e+002
1.117604e+002, 1.499391e+002
1.122426e+002, 1.529781e+002
1.127247e+002, 1.555287e+002
1.132068e+002, 1.565818e+002
1.136889e+002, 1.577190e+002
1.141710e+002, 1.595888e+002
1.146531e+002, 1.625498e+002
1.151353e+002, 1.657155e+002
1.156174e+002, 1.693767e+002
1.160995e+002, 1.731564e+002
1.165816e+002, 1.761469e+002
1.170637e+002, 1.777807e+002
1.175458e+002, 1.786269e+002
1.180280e+002, 1.790403e+002
1.185101e+002, 1.788598e+002
1.189922e+002, 1.785549e+002
1.194743e+002, 1.782134e+002
1.199564e+002, 1.778926e+002
1.204385e+002, 1.778646e+002
1.209207e+002, 1.782449e+002
1.214028e+002, 1.790171e+002
1.218849e+002, 1.801343e+002
1.223670e+002, 1.811358e+002
1.228491e+002, 1.828528e+002
1.233312e+002, 1.873008e+002
1.238134e+002, 1.942608e+002
1.242955e+002, 1.994894e+002
1.247776e+002, 1.980158e+002
1.252597e+002, 1.922964e+002
1.257418e+002, 1.873036e+002
1.262239e+002, 1.852932e+002
1.267061e+002, 1.852027e+002
1.271882e+002, 1.853227e+002
1.276703e+002, 1.856076e+002
1.281524e+002, 1.865653e+002
1.286345e+002, 1.894208e+002
1.291166e+002, 1.937117e+002
1.295988e+002, 1.973718e+002
1.300809e+002, 1.987637e+002
1.305630e+002, 1.986405e+002
1.310451e+002, 1.997950e+002
1.315272e+002, 2.026154e+002
1.320093e+002, 2.058090e+002
1.324915e+002, 2.073426e+002
1.329736e+002, 2.072130e+002
1.334557e+002, 2.069559e+002
1.339378e+002, 2.073996e+002
1.344199e+002, 2.085063e+002
1.349020e+002, 2.096407e+002
1.353842e+002, 2.107691e+002
1.358663e+002, 2.118776e+002
1.363484e+002, 2.130035e+002
1.368305e+002, 2.141463e+002
1.373126e+002, 2.152568e+002
1.377947e+002, 2.159958e+002
1.382769e+002, 2.161322e+002
1.387590e+002, 2.178008e+002
1.392411e+002, 2.221713e+002
1.397232e+002, 2.279915e+002
1.402053e+002, 2.299790e+002
1.406874e+002, 2.272152e+002
1.411696e+002, 2.225554e+002
1.416517e+002, 2.177255e+002
1.421338e+002, 2.122552e+002
1.426159e+002, 2.078744e+002
1.430980e+002, 2.050228e+002
1.435801e+002, 2.035877e+002
1.440623e+002, 2.019379e+002
1.445444e+002, 1.995801e+002
1.450265e+002, 1.975708e+002
1.455086e+002, 1.969038e+002
1.459907e+002, 1.988394e+002
1.464728e+002, 2.001169e+002
1.469550e+002, 2.002147e+002
1.474371e+002, 1.990771e+002
1.479192e+002, 1.976163e+002
1.484013e+002, 1.954780e+002
1.488834e+002, 1.932306e+002
1.493655e+002, 1.913702e+002
1.498477e+002, 1.899435e+002
1.503298e+002, 1.888663e+002
1.508119e+002, 1.882816e+002
1.512940e+002, 1.883307e+002
1.517761e+002, 1.880595e+002
1.522583e+002, 1.872191e+002
1.527404e+002, 1.861340e+002
1.532225e+002, 1.851372e+002
1.537046e+002, 1.835465e+002
1.541867e+002, 1.827127e+002
1.546688e+002, 1.835059e+002
1.551510e+002, 1.867626e+002
1.556331e+002, 1.884548e+002
1.561152e+002, 1.869184e+002
1.565973e+002, 1.836955e+002
1.570794e+002, 1.808622e+002
1.575615e+002, 1.788808e+002
1.580437e+002, 1.773128e+002
1.585258e+002, 1.759908e+002
1.590079e+002, 1.748891e+002
1.594900e+002, 1.740538e+002
1.599721e+002, 1.736324e+002
1.604542e+002, 1.734746e+002
1.609364e+002, 1.733164e+002
1.614185e+002, 1.727187e+002
1.619006e+002, 1.723299e+002
1.623827e+002, 1.726862e+002
1.628648e+002, 1.743761e+002
1.633469e+002, 1.756060e+002
1.638291e+002, 1.754231e+002
1.643112e+002, 1.741680e+002
1.647933e+002, 1.726385e+002
1.652754e+002, 1.707641e+002
1.657575e+002, 1.689930e+002
1.662396e+002, 1.676858e+002
1.667218e+002, 1.670261e+002
1.672039e+002, 1.666292e+002
1.676860e+002, 1.662715e+002
1.681681e+002, 1.659893e+002
1.686502e+002, 1.658806e+002
1.691323e+002, 1.659790e+002
1.696145e+002, 1.662903e+002
1.700966e+002, 1.668853e+002
1.705787e+002, 1.680403e+002
1.710608e+002, 1.690875e+002
1.715429e+002, 1.694936e+002
1.720250e+002, 1.693083e+002
1.725072e+002, 1.687757e+002
1.729893e+002, 1.677610e+002
1.734714e+002, 1.665630e+002
1.739535e+002, 1.655991e+002
1.744356e+002, 1.650345e+002
1.749177e+002, 1.646732e+002
1.753999e+002, 1.643940e+002
1.758820e+002, 1.641714e+002
1.763641e+002, 1.638335e+002
1.768462e+002, 1.629234e+002
1.773283e+002, 1.618320e+002
1.778104e+002, 1.613475e+002
1.782926e+002, 1.620338e+002
1.787747e+002, 1.631388e+002
1.792568e+002, 1.636144e+002
1.797389e+002, 1.634796e+002
1.802210e+002, 1.631292e+002
1.807031e+002, 1.627979e+002
1.811853e+002, 1.625064e+002
1.816674e+002, 1.623352e+002
1.821495e+002, 1.624435e+002
1.826316e+002, 1.626074e+002
1.831137e+002, 1.622525e+002
1.835958e+002, 1.613631e+002
1.840780e+002, 1.605723e+002
1.845601e+002, 1.606939e+002
1.850422e+002, 1.614927e+002
1.855243e+002, 1.619626e+002
1.860064e+002, 1.616003e+002
1.864885e+002, 1.607468e+002
1.869707e+002, 1.603706e+002
1.874528e+002, 1.605134e+002
1.879349e+002, 1.606782e+002
1.884170e+002, 1.602497e+002
1.888991e+002, 1.593089e+002
1.893812e+002, 1.585058e+002
1.898634e+002, 1.581415e+002
1.903455e+002, 1.580707e+002
1.908276e+002, 1.576923e+002
1.913097e+002, 1.569593e+002
1.917918e+002, 1.561533e+002
1.922739e+002, 1.555799e+002
1.927561e+002, 1.552285e+002
1.932382e+002, 1.549415e+002
1.937203e+002, 1.545231e+002
1.942024e+002, 1.540835e+002
1.946845e+002, 1.545372e+002
1.951666e+002, 1.561493e+002
1.956488e+002, 1.577104e+002
1.961309e+002, 1.574180e+002
1.966130e+002, 1.551260e+002
1.970951e+002, 1.533199e+002
1.975772e+002, 1.530716e+002
1.980593e+002, 1.541925e+002
1.985415e+002, 1.545426e+002
1.990236e+002, 1.539825e+002
1.995057e+002, 1.530385e+002
1.999878e+002, 1.523666e+002
2.004699e+002, 1.520009e+002
2.009520e+002, 1.516907e+002
2.014342e+002, 1.513654e+002
2.019163e+002, 1.510289e+002
2.023984e+002, 1.507176e+002
2.028805e+002, 1.504155e+002
2.033626e+002, 1.501815e+002
2.038447e+002, 1.501577e+002
2.043269e+002, 1.504170e+002
2.048090e+002, 1.505332e+002
2.052911e+002, 1.503198e+002
2.057732e+002, 1.497650e+002
2.062553e+002, 1.492712e+002
2.067374e+002, 1.488051e+002
2.072196e+002, 1.484415e+002
2.077017e+002, 1.483174e+002
2.081838e+002, 1.484920e+002
2.086659e+002, 1.486775e+002
2.091480e+002, 1.487238e+002
2.096301e+002, 1.485983e+002
2.101123e+002, 1.488357e+002
2.105944e+002, 1.496496e+002
2.110765e+002, 1.505410e+002
2.115586e+002, 1.507341e+002
2.120407e+002, 1.499803e+002
2.125228e+002, 1.492124e+002
2.130050e+002, 1.486346e+002
2.134871e+002, 1.482125e+002
2.139692e+002, 1.484433e+002
2.144513e+002, 1.497631e+002
2.149334e+002, 1.512561e+002
2.154155e+002, 1.514990e+002
2.158977e+002, 1.499112e+002
2.163798e+002, 1.484951e+002
2.168619e+002, 1.479659e+002
2.173440e+002, 1.484738e+002
2.178261e+002, 1.486180e+002
2.183082e+002, 1.482092e+002
2.187904e+002, 1.476292e+002
2.192725e+002, 1.474459e+002
2.197546e+002, 1.478552e+002
2.202367e+002, 1.482403e+002
2.207188e+002, 1.484119e+002
2.212009e+002, 1.483400e+002
2.216831e+002, 1.482919e+002
2.221652e+002, 1.482918e+002
2.226473e+002, 1.482970e+002
2.231294e+002, 1.482343e+002
2.236115e+002, 1.480384e+002
2.240936e+002, 1.479004e+002
2.245758e+002, 1.478151e+002
2.250579e+002, 1.477364e+002
2.255400e+002, 1.481492e+002
2.260221e+002, 1.495357e+002
2.265042e+002, 1.509888e+002
2.269863e+002, 1.511562e+002
2.274685e+002, 1.491135e+002
2.279506e+002, 1.475323e+002
2.284327e+002, 1.472871e+002
2.289148e+002, 1.486310e+002
2.293969e+002, 1.493186e+002
2.298790e+002, 1.489887e+002
2.303612e+002, 1.483068e+002
2.308433e+002, 1.481316e+002
2.313254e+002, 1.488664e+002
2.318075e+002, 1.493484e+002
2.322896e+002, 1.490957e+002
2.327717e+002, 1.479386e+002
2.332539e+002, 1.477214e+002
2.337360e+002, 1.490211e+002
2.342181e+002, 1.507509e+002
2.347002e+002, 1.516525e+002
2.351823e+002, 1.512382e+002
2.356644e+002, 1.508723e+002
2.361466e+002, 1.509349e+002
2.366287e+002, 1.514954e+002
2.371108e+002, 1.516191e+002
2.375929e+002, 1.509441e+002
2.380750e+002, 1.501714e+002
2.385571e+002, 1.500920e+002
2.390393e+002, 1.511766e+002
2.395214e+002, 1.520861e+002
2.400035e+002, 1.524984e+002
2.404856e+002, 1.523831e+002
2.409677e+002, 1.524313e+002
2.414498e+002, 1.527388e+002
2.419320e+002, 1.531147e+002
2.424141e+002, 1.533567e+002
2.428962e+002, 1.532999e+002
2.433783e+002, 1.534256e+002
2.438604e+002, 1.539488e+002
2.443425e+002, 1.548656e+002
2.448247e+002, 1.552600e+002
2.453068e+002, 1.548032e+002
2.457889e+002, 1.541628e+002
2.462710e+002, 1.539123e+002
2.467531e+002, 1.542241e+002
2.472352e+002, 1.545882e+002
2.477174e+002, 1.549786e+002
2.481995e+002, 1.553838e+002
2.486816e+002, 1.556326e+002
2.491637e+002, 1.557193e+002
2.496458e+002, 1.556652e+002
2.501279e+002, 1.554245e+002
2.506101e+002, 1.547234e+002
2.510922e+002, 1.544716e+002
2.515743e+002, 1.550171e+002
2.520564e+002, 1.562150e+002
2.525385e+002, 1.567632e+002
2.530206e+002, 1.562095e+002
2.535028e+002, 1.556131e+002
2.539849e+002, 1.557811e+002
2.544670e+002, 1.571139e+002
2.549491e+002, 1.582382e+002
2.554312e+002, 1.590179e+002
2.559133e+002, 1.594693e+002
2.563955e+002, 1.596536e+002
2.568776e+002, 1.592776e+002
2.573597e+002, 1.590688e+002
2.578418e+002, 1.595620e+002
2.583239e+002, 1.611287e+002
2.588061e+002, 1.623900e+002
2.592882e+002, 1.632117e+002
2.597703e+002, 1.636700e+002
2.602524e+002, 1.640019e+002
2.607345e+002, 1.641070e+002
2.612166e+002, 1.642803e+002
2.616988e+002, 1.647371e+002
2.621809e+002, 1.656114e+002
2.626630e+002, 1.663137e+002
2.631451e+002, 1.667739e+002
2.636272e+002, 1.670726e+002
2.641093e+002, 1.673787e+002
2.645915e+002, 1.676455e+002
2.650736e+002, 1.680428e+002
2.655557e+002, 1.686685e+002
2.660378e+002, 1.695397e+002
2.665199e+002, 1.705580e+002
2.670020e+002, 1.717842e+002
2.674842e+002, 1.731030e+002
2.679663e+002, 1.742223e+002
2.684484e+002, 1.750684e+002
2.689305e+002, 1.759179e+002
2.694126e+002, 1.769084e+002
2.698947e+002, 1.781011e+002
2.703769e+002, 1.790831e+002
2.708590e+002, 1.797303e+002
2.713411e+002, 1.803238e+002
2.718232e+002, 1.814119e+002
2.723053e+002, 1.831558e+002
2.727874e+002, 1.847483e+002
2.732696e+002, 1.859041e+002
2.737517e+002, 1.866022e+002
2.742338e+002, 1.869923e+002
2.747159e+002, 1.868832e+002
2.751980e+002, 1.868251e+002
2.756801e+002, 1.878090e+002
2.761623e+002, 1.900868e+002
2.766444e+002, 1.918617e+002
2.771265e+002, 1.922677e+002
2.776086e+002, 1.914506e+002
2.780907e+002, 1.917990e+002
2.785728e+002, 1.935807e+002
2.790550e+002, 1.957708e+002
2.795371e+002, 1.973087e+002
2.800192e+002, 1.981776e+002
2.805013e+002, 1.986523e+002
2.809834e+002, 1.987139e+002
2.814655e+002, 1.984408e+002
2.819477e+002, 1.981746e+002
2.824298e+002, 1.978907e+002
2.829119e+002, 1.977424e+002
2.833940e+002, 1.979974e+002
2.838761e+002, 1.986444e+002
2.843582e+002, 1.990753e+002
2.848404e+002, 1.991890e+002
2.853225e+002, 1.989771e+002
2.858046e+002, 1.983589e+002
2.862867e+002, 1.973188e+002
2.867688e+002, 1.960790e+002
2.872509e+002, 1.947270e+002
2.877331e+002, 1.932857e+002
2.882152e+002, 1.919980e+002
2.886973e+002, 1.909699e+002
2.891794e+002, 1.900230e+002
2.896615e+002, 1.887349e+002
2.901436e+002, 1.870981e+002
2.906258e+002, 1.854976e+002
2.911079e+002, 1.841164e+002
2.915900e+002, 1.829598e+002
2.920721e+002, 1.821543e+002
2.925542e+002, 1.818698e+002
2.930363e+002, 1.815926e+002
2.935185e+002, 1.803973e+002
2.940006e+002, 1.783573e+002
2.944827e+002, 1.762974e+002
2.949648e+002, 1.744580e+002
2.954469e+002, 1.729155e+002
2.959290e+002, 1.719773e+002
2.964112e+002, 1.717170e+002
2.968933e+002, 1.717650e+002
2.973754e+002, 1.718754e+002
2.978575e+002, 1.719713e+002
2.983396e+002, 1.717635e+002
2.988217e+002, 1.708364e+002
2.993039e+002, 1.695838e+002
2.997860e+002, 1.687395e+002
3.002681e+002, 1.683330e+002
3.007502e+002, 1.680880e+002
3.012323e+002, 1.678225e+002
3.017144e+002, 1.675164e+002
3.021966e+002, 1.671330e+002
3.026787e+002, 1.664982e+002
3.031608e+002, 1.658628e+002
3.036429e+002, 1.655198e+002
3.041250e+002, 1.654675e+002
3.046071e+002, 1.656085e+002
3.050893e+002, 1.661180e+002
3.055714e+002, 1.667297e+002
3.060535e+002, 1.669859e+002
3.065356e+002, 1.665529e+002
3.070177e+002, 1.659201e+002
3.074998e+002, 1.654499e+002
3.079820e+002, 1.651409e+002
3.084641e+002, 1.650125e+002
3.089462e+002, 1.652384e+002
3.094283e+002, 1.655840e+002
3.099104e+002, 1.657911e+002
3.103925e+002, 1.657738e+002
3.108747e+002, 1.656481e+002
3.113568e+002, 1.653552e+002
3.118389e+002, 1.649935e+002
3.123210e+002, 1.648381e+002
3.128031e+002, 1.653582e+002
3.132852e+002, 1.659375e+002
3.137674e+002, 1.659890e+002
3.142495e+002, 1.651708e+002
3.147316e+002, 1.646027e+002
3.152137e+002, 1.652805e+002
3.156958e+002, 1.665366e+002
3.161779e+002, 1.672302e+002
3.166601e+002, 1.662998e+002
3.171422e+002, 1.651919e+002
3.176243e+002, 1.647534e+002
3.181064e+002, 1.651881e+002
3.185885e+002, 1.654517e+002
3.190706e+002, 1.648643e+002
3.195528e+002, 1.640261e+002
3.200349e+002, 1.636189e+002
3.205170e+002, 1.645640e+002
3.209991e+002, 1.652586e+002
3.214812e+002, 1.649659e+002
3.219633e+002, 1.636555e+002
3.224455e+002, 1.626990e+002
3.229276e+002, 1.625444e+002
3.234097e+002, 1.627496e+002
3.238918e+002, 1.629831e+002
3.243739e+002, 1.633811e+002
3.248560e+002, 1.636011e+002
3.253382e+002, 1.635002e+002
3.258203e+002, 1.631291e+002
3.263024e+002, 1.628380e+002
3.267845e+002, 1.628824e+002
3.272666e+002, 1.628392e+002
3.277487e+002, 1.624945e+002
3.282309e+002, 1.614778e+002
3.287130e+002, 1.606702e+002
3.291951e+002, 1.602143e+002
3.296772e+002, 1.599635e+002
3.301593e+002, 1.595491e+002
3.306414e+002, 1.589185e+002
3.311236e+002, 1.581905e+002
3.316057e+002, 1.573605e+002
3.320878e+002, 1.563147e+002
3.325699e+002, 1.555426e+002
3.330520e+002, 1.553041e+002
3.335341e+002, 1.551823e+002
3.340163e+002, 1.545057e+002
3.344984e+002, 1.528720e+002
3.349805e+002, 1.514806e+002
3.354626e+002, 1.506461e+002
3.359447e+002, 1.503843e+002
3.364268e+002, 1.503677e+002
3.369090e+002, 1.508435e+002
3.373911e+002, 1.511875e+002
3.378732e+002, 1.506438e+002
3.383553e+002, 1.489213e+002
3.388374e+002, 1.475225e+002
3.393195e+002, 1.468018e+002
3.398017e+002, 1.465913e+002
3.402838e+002, 1.460932e+002
3.407659e+002, 1.452510e+002
3.412480e+002, 1.443011e+002
3.417301e+002, 1.433546e+002
3.422122e+002, 1.424104e+002
3.426944e+002, 1.416158e+002
3.431765e+002, 1.410740e+002
3.436586e+002, 1.405583e+002
3.441407e+002, 1.395213e+002
3.446228e+002, 1.379565e+002
3.451049e+002, 1.364209e+002
3.455871e+002, 1.351874e+002
3.460692e+002, 1.342346e+002
3.465513e+002, 1.336005e+002
3.470334e+002, 1.333401e+002
3.475155e+002, 1.331492e+002
3.479977e+002, 1.326714e+002
3.484798e+002, 1.319310e+002
3.489619e+002, 1.310645e+002
3.494440e+002, 1.300160e+002
3.499261e+002, 1.289153e+002
3.504082e+002, 1.280775e+002
3.508904e+002, 1.275008e+002
3.513725e+002, 1.269204e+002
3.518546e+002, 1.259883e+002
3.523367e+002, 1.248840e+002
3.528188e+002, 1.240017e+002
3.533009e+002, 1.235910e+002
3.537831e+002, 1.232717e+002
3.542652e+002, 1.225242e+002
3.547473e+002, 1.214522e+002
3.552294e+002, 1.205342e+002
3.557115e+002, 1.202041e+002
3.561936e+002, 1.201282e+002
3.566758e+002, 1.199745e+002
3.571579e+002, 1.197112e+002
3.576400e+002, 1.192912e+002
3.581221e+002, 1.184616e+002
3.586042e+002, 1.174647e+002
3.590863e+002, 1.167632e+002
3.595685e+002, 1.168413e+002
3.600506e+002, 1.170760e+002
3.605327e+002, 1.171339e+002
3.610148e+002, 1.169902e+002
3.614969e+002, 1.166235e+002
3.619790e+002, 1.157907e+002
3.624612e+002, 1.148193e+002
3.629433e+002, 1.140487e+002
3.634254e+002, 1.135444e+002
3.639075e+002, 1.132759e+002
3.643896e+002, 1.134402e+002
3.648717e+002, 1.139680e+002
3.653539e+002, 1.141187e+002
3.658360e+002, 1.133361e+002
3.663181e+002, 1.123913e+002
3.668002e+002, 1.117341e+002
3.672823e+002, 1.115908e+002
3.677644e+002, 1.115033e+002
3.682466e+002, 1.115280e+002
3.687287e+002, 1.115951e+002
3.692108e+002, 1.115107e+002
3.696929e+002, 1.111225e+002
3.701750e+002, 1.107446e+002
3.706571e+002, 1.105451e+002
3.711393e+002, 1.107035e+002
3.716214e+002, 1.104019e+002
3.721035e+002, 1.092870e+002
3.725856e+002, 1.079695e+002
3.730677e+002, 1.072613e+002
3.735498e+002, 1.073665e+002
3.740320e+002, 1.076453e+002
3.745141e+002, 1.080427e+002
3.749962e+002, 1.085357e+002
3.754783e+002, 1.087492e+002
3.759604e+002, 1.086419e+002
3.764425e+002, 1.083489e+002
3.769247e+002, 1.078891e+002
3.774068e+002, 1.072123e+002
3.778889e+002, 1.068196e+002
3.783710e+002, 1.068594e+002
3.788531e+002, 1.071397e+002
3.793352e+002, 1.072012e+002
3.798174e+002, 1.070303e+002
3.802995e+002, 1.067893e+002
3.807816e+002, 1.064724e+002
3.812637e+002, 1.061216e+002
3.817458e+002, 1.060926e+002
3.822279e+002, 1.064462e+002
3.827101e+002, 1.069269e+002
3.831922e+002, 1.072581e+002
3.836743e+002, 1.074520e+002
3.841564e+002, 1.075541e+002
3.846385e+002, 1.075438e+002
3.851206e+002, 1.074715e+002
3.856028e+002, 1.074801e+002
3.860849e+002, 1.075593e+002
3.865670e+002, 1.075097e+002
3.870491e+002, 1.069896e+002
3.875312e+002, 1.062768e+002
3.880133e+002, 1.058246e+002
3.884955e+002, 1.057822e+002
3.889776e+002, 1.059632e+002
3.894597e+002, 1.064674e+002
3.899418e+002, 1.071088e+002
3.904239e+002, 1.073535e+002
3.909060e+002, 1.063116e+002
3.913882e+002, 1.051547e+002
3.918703e+002, 1.049262e+002
3.923524e+002, 1.059238e+002
3.928345e+002, 1.068423e+002
3.933166e+002, 1.070373e+002
3.937987e+002, 1.067920e+002
3.942809e+002, 1.064648e+002
3.947630e+002, 1.058489e+002
3.952451e+002, 1.054712e+002
3.957272e+002, 1.055830e+002
3.962093e+002, 1.061650e+002
3.966914e+002, 1.067830e+002
3.971736e+002, 1.075323e+002
3.976557e+002, 1.081688e+002
3.981378e+002, 1.085398e+002
3.986199e+002, 1.079391e+002
3.991020e+002, 1.079516e+002
3.995841e+002, 1.094564e+002
4.000663e+002, 1.115648e+002
4.005484e+002, 1.120694e+002
4.010305e+002, 1.095344e+002
4.015126e+002, 1.071957e+002
4.019947e+002, 1.061948e+002
4.024768e+002, 1.068339e+002
4.029590e+002, 1.072327e+002
4.034411e+002, 1.072921e+002
4.039232e+002, 1.072250e+002
4.044053e+002, 1.072861e+002
4.048874e+002, 1.075393e+002
4.053695e+002, 1.077026e+002
4.058517e+002, 1.077123e+002
4.063338e+002, 1.075945e+002
4.068159e+002, 1.074456e+002
4.072980e+002, 1.072592e+002
4.077801e+002, 1.070765e+002
4.082622e+002, 1.068561e+002
4.087444e+002, 1.066164e+002
4.092265e+002, 1.067122e+002
4.097086e+002, 1.072715e+002
4.101907e+002, 1.079285e+002
4.106728e+002, 1.080355e+002
4.111549e+002, 1.076777e+002
4.116371e+002, 1.074074e+002
4.121192e+002, 1.076177e+002
4.126013e+002, 1.080526e+002
4.130834e+002, 1.081317e+002
4.135655e+002, 1.078538e+002
4.140476e+002, 1.076165e+002
4.145298e+002, 1.078071e+002
4.150119e+002, 1.082456e+002
4.154940e+002, 1.086508e+002
4.159761e+002, 1.089742e+002
4.164582e+002, 1.091926e+002
4.169403e+002, 1.092913e+002
4.174225e+002, 1.092702e+002
4.179046e+002, 1.091212e+002
4.183867e+002, 1.085059e+002
4.188688e+002, 1.079949e+002
4.193509e+002, 1.081239e+002
4.198330e+002, 1.091145e+002
4.203152e+002, 1.098921e+002
4.207973e+002, 1.098065e+002
4.212794e+002, 1.093733e+002
4.217615e+002, 1.091882e+002
4.222436e+002, 1.097359e+002
4.227257e+002, 1.101882e+002
4.232079e+002, 1.101770e+002
4.236900e+002, 1.097622e+002
4.241721e+002, 1.097599e+002
4.246542e+002, 1.107788e+002
4.251363e+002, 1.117991e+002
4.256184e+002, 1.123351e+002
4.261006e+002, 1.121816e+002
4.265827e+002, 1.118701e+002
4.270648e+002, 1.111949e+002
4.275469e+002, 1.104603e+002
4.280290e+002, 1.102660e+002
4.285111e+002, 1.108467e+002
4.289933e+002, 1.114341e+002
4.294754e+002, 1.117531e+002
4.299575e+002, 1.118185e+002
4.304396e+002, 1.121912e+002
4.309217e+002, 1.129637e+002
4.314038e+002, 1.137729e+002
4.318860e+002, 1.143020e+002
4.323681e+002, 1.145503e+002
4.328502e+002, 1.146061e+002
4.333323e+002, 1.143786e+002
4.338144e+002, 1.141296e+002
4.342965e+002, 1.144942e+002
4.347787e+002, 1.154218e+002
4.352608e+002, 1.162706e+002
4.357429e+002, 1.165948e+002
4.362250e+002, 1.166002e+002
4.367071e+002, 1.167271e+002
4.371892e+002, 1.169931e+002
4.376714e+002, 1.173639e+002
4.381535e+002, 1.179094e+002
4.386356e+002, 1.185201e+002
4.391177e+002, 1.189912e+002
4.395998e+002, 1.191567e+002
4.400819e+002, 1.192793e+002
4.405641e+002, 1.196377e+002
4.410462e+002, 1.201520e+002
4.415283e+002, 1.205345e+002
4.420104e+002, 1.205901e+002
4.424925e+002, 1.204937e+002
4.429746e+002, 1.202906e+002
4.434568e+002, 1.198932e+002
4.439389e+002, 1.197587e+002
4.444210e+002, 1.202345e+002
4.449031e+002, 1.209797e+002
4.453852e+002, 1.215888e+002
4.458673e+002, 1.218867e+002
4.463495e+002, 1.221325e+002
4.468316e+002, 1.223232e+002
4.473137e+002, 1.224708e+002
4.477958e+002, 1.227554e+002
4.482779e+002, 1.232986e+002
4.487600e+002, 1.238491e+002
4.492422e+002, 1.242988e+002
4.497243e+002, 1.246949e+002
4.502064e+002, 1.248621e+002
4.506885e+002, 1.247093e+002
4.511706e+002, 1.244212e+002
4.516527e+002, 1.242465e+002
4.521349e+002, 1.241387e+002
4.526170e+002, 1.243811e+002
4.530991e+002, 1.252483e+002
4.535812e+002, 1.265644e+002
4.540633e+002, 1.271408e+002
4.545454e+002, 1.269236e+002
4.550276e+002, 1.265095e+002
4.555097e+002, 1.263624e+002
4.559918e+002, 1.264321e+002
4.564739e+002, 1.264777e+002
4.569560e+002, 1.264562e+002
4.574381e+002, 1.264232e+002
4.579203e+002, 1.264276e+002
4.584024e+002, 1.264753e+002
4.588845e+002, 1.265927e+002
4.593666e+002, 1.268943e+002
4.598488e+002, 1.272100e+002
4.603309e+002, 1.272645e+002
4.608130e+002, 1.270769e+002
4.612951e+002, 1.270092e+002
4.617772e+002, 1.276097e+002
4.622593e+002, 1.282921e+002
4.627415e+002, 1.284464e+002
4.632236e+002, 1.276543e+002
4.637057e+002, 1.268213e+002
4.641878e+002, 1.262385e+002
4.646699e+002, 1.258770e+002
4.651520e+002, 1.256720e+002
4.656342e+002, 1.259154e+002
4.661163e+002, 1.260319e+002
4.665984e+002, 1.256985e+002
4.670805e+002, 1.248051e+002
4.675626e+002, 1.243758e+002
4.680447e+002, 1.248135e+002
4.685269e+002, 1.254061e+002
4.690090e+002, 1.256482e+002
4.694911e+002, 1.252434e+002
4.699732e+002, 1.251142e+002
4.704553e+002, 1.254594e+002
4.709374e+002, 1.260217e+002
4.714196e+002, 1.261649e+002
4.719017e+002, 1.257490e+002
4.723838e+002, 1.254278e+002
4.728659e+002, 1.255309e+002
4.733480e+002, 1.260015e+002
4.738301e+002, 1.261852e+002
4.743123e+002, 1.260526e+002
4.747944e+002, 1.258444e+002
4.752765e+002, 1.257908e+002
4.757586e+002, 1.258585e+002
4.762407e+002, 1.258888e+002
4.767228e+002, 1.258250e+002
4.772050e+002, 1.257740e+002
4.776871e+002, 1.259060e+002
4.781692e+002, 1.261764e+002
4.786513e+002, 1.264440e+002
4.791334e+002, 1.265770e+002
4.796155e+002, 1.267061e+002
4.800977e+002, 1.271012e+002
4.805798e+002, 1.277554e+002
4.810619e+002, 1.280663e+002
4.815440e+002, 1.272127e+002
4.820261e+002, 1.260964e+002
4.825082e+002, 1.255340e+002
4.829904e+002, 1.259788e+002
4.834725e+002, 1.265982e+002
4.839546e+002, 1.272835e+002
4.844367e+002, 1.279799e+002
4.849188e+002, 1.285593e+002
4.854009e+002, 1.289070e+002
4.858831e+002, 1.292415e+002
4.863652e+002, 1.296665e+002
4.868473e+002, 1.301976e+002
4.873294e+002, 1.305347e+002
4.878115e+002, 1.305605e+002
4.882936e+002, 1.305308e+002
4.887758e+002, 1.306027e+002
4.892579e+002, 1.307500e+002
4.897400e+002, 1.311082e+002
4.902221e+002, 1.317182e+002
4.907042e+002, 1.325038e+002
4.911863e+002, 1.333724e+002
4.916685e+002, 1.343422e+002
4.921506e+002, 1.351485e+002
4.926327e+002, 1.356696e+002
4.931148e+002, 1.359446e+002
4.935969e+002, 1.359284e+002
4.940790e+002, 1.356223e+002
4.945612e+002, 1.355577e+002
4.950433e+002, 1.364512e+002
4.955254e+002, 1.378365e+002
4.960075e+002, 1.388584e+002
4.964896e+002, 1.393357e+002
4.969717e+002, 1.394771e+002
4.974539e+002, 1.391575e+002
4.979360e+002, 1.386550e+002
4.984181e+002, 1.384875e+002
4.989002e+002, 1.390014e+002
4.993823e+002, 1.397928e+002
4.998644e+002, 1.407265e+002
5.003466e+002, 1.417868e+002
5.008287e+002, 1.428120e+002
5.013108e+002, 1.440198e+002
5.017929e+002, 1.449873e+002
5.022750e+002, 1.453790e+002
5.027571e+002, 1.444710e+002
5.032393e+002, 1.443865e+002
5.037214e+002, 1.459593e+002
5.042035e+002, 1.479787e+002
5.046856e+002, 1.488026e+002
5.051677e+002, 1.477449e+002
5.056498e+002, 1.468584e+002
5.061320e+002, 1.465506e+002
5.066141e+002, 1.467312e+002
5.070962e+002, 1.469524e+002
5.075783e+002, 1.472217e+002
5.080604e+002, 1.474958e+002
5.085425e+002, 1.477761e+002
5.090247e+002, 1.480510e+002
5.095068e+002, 1.481938e+002
5.099889e+002, 1.481804e+002
5.104710e+002, 1.481342e+002
5.109531e+002, 1.481208e+002
5.114352e+002, 1.481825e+002
5.119174e+002, 1.484853e+002
5.123995e+002, 1.492978e+002
5.128816e+002, 1.500798e+002
5.133637e+002, 1.500251e+002
5.138458e+002, 1.494092e+002
5.143279e+002, 1.491227e+002
5.148101e+002, 1.499857e+002
5.152922e+002, 1.510961e+002
5.157743e+002, 1.517374e+002
5.162564e+002, 1.517887e+002
5.167385e+002, 1.520970e+002
5.172206e+002, 1.531521e+002
5.177028e+002, 1.544756e+002
5.181849e+002, 1.556794e+002
5.186670e+002, 1.566606e+002
5.191491e+002, 1.575697e+002
5.196312e+002, 1.581892e+002
5.201133e+002, 1.587796e+002
5.205955e+002, 1.599533e+002
5.210776e+002, 1.619290e+002
5.215597e+002, 1.640719e+002
5.220418e+002, 1.663253e+002
5.225239e+002, 1.686667e+002
5.230060e+002, 1.702779e+002
5.234882e+002, 1.709495e+002
5.239703e+002, 1.716590e+002
5.244524e+002, 1.733062e+002
5.249345e+002, 1.757901e+002
5.254166e+002, 1.782090e+002
5.258987e+002, 1.805849e+002
5.263809e+002, 1.825269e+002
5.268630e+002, 1.834946e+002
5.273451e+002, 1.836278e+002
5.278272e+002, 1.833481e+002
5.283093e+002, 1.825998e+002
5.287914e+002, 1.817077e+002
5.292736e+002, 1.811974e+002
5.297557e+002, 1.809109e+002
5.302378e+002, 1.801543e+002
5.307199e+002, 1.785034e+002
5.312020e+002, 1.762879e+002
5.316841e+002, 1.736852e+002
5.321663e+002, 1.706190e+002
5.326484e+002, 1.675034e+002
5.331305e+002, 1.642813e+002
5.336126e+002, 1.610999e+002
5.340947e+002, 1.580501e+002
5.345768e+002, 1.553125e+002
5.350590e+002, 1.525010e+002
5.355411e+002, 1.495675e+002
5.360232e+002, 1.465478e+002
5.365053e+002, 1.435601e+002
5.369874e+002, 1.405187e+002
5.374695e+002, 1.378060e+002
5.379517e+002, 1.356297e+002
5.384338e+002, 1.339462e+002
5.389159e+002, 1.325309e+002
5.393980e+002, 1.314539e+002
5.398801e+002, 1.302483e+002
5.403622e+002, 1.282734e+002
5.408444e+002, 1.258015e+002
5.413265e+002, 1.239391e+002
5.418086e+002, 1.229171e+002
5.422907e+002, 1.221465e+002
5.427728e+002, 1.209336e+002
5.432549e+002, 1.194541e+002
5.437371e+002, 1.181132e+002
5.442192e+002, 1.172445e+002
5.447013e+002, 1.164333e+002
5.451834e+002, 1.153387e+002
5.456655e+002, 1.140274e+002
5.461476e+002, 1.128059e+002
5.466298e+002, 1.116737e+002
5.471119e+002, 1.107610e+002
5.475940e+002, 1.101986e+002
5.480761e+002, 1.101097e+002
5.485582e+002, 1.099146e+002
5.490403e+002, 1.096482e+002
5.495225e+002, 1.091985e+002
5.500046e+002, 1.084077e+002
5.504867e+002, 1.068720e+002
5.509688e+002, 1.059322e+002
5.514509e+002, 1.059749e+002
5.519330e+002, 1.064631e+002
5.524152e+002, 1.061158e+002
5.528973e+002, 1.048020e+002
5.533794e+002, 1.036551e+002
5.538615e+002, 1.031022e+002
5.543436e+002, 1.030351e+002
5.548257e+002, 1.033236e+002
5.553079e+002, 1.039476e+002
5.557900e+002, 1.041511e+002
5.562721e+002, 1.028552e+002
5.567542e+002, 1.009196e+002
5.572363e+002, 9.977503e+001
5.577184e+002, 9.965268e+001
5.582006e+002, 9.994359e+001
5.586827e+002, 1.006802e+002
5.591648e+002, 1.013998e+002
5.596469e+002, 1.015262e+002
5.601290e+002, 1.002516e+002
5.606111e+002, 9.902854e+001
5.610933e+002, 9.828714e+001
5.615754e+002, 9.794542e+001
5.620575e+002, 9.779427e+001
5.625396e+002, 9.808757e+001
5.630217e+002, 9.827846e+001
5.635038e+002, 9.821317e+001
5.639860e+002, 9.788332e+001
5.644681e+002, 9.744500e+001
5.649502e+002, 9.678349e+001
5.654323e+002, 9.622702e+001
5.659144e+002, 9.611092e+001
5.663965e+002, 9.648029e+001
5.668787e+002, 9.655240e+001
5.673608e+002, 9.624065e+001
5.678429e+002, 9.573869e+001
5.683250e+002, 9.519276e+001
5.688071e+002, 9.465698e+001
5.692892e+002, 9.442442e+001
5.697714e+002, 9.475689e+001
5.702535e+002, 9.521688e+001
5.707356e+002, 9.527743e+001
5.712177e+002, 9.500098e+001
5.716998e+002, 9.459788e+001
5.721819e+002, 9.395499e+001
5.726641e+002, 9.338708e+001
5.731462e+002, 9.321774e+001
5.736283e+002, 9.346870e+001
5.741104e+002, 9.351122e+001
5.745925e+002, 9.301192e+001
5.750746e+002, 9.233709e+001
5.755568e+002, 9.169263e+001
5.760389e+002, 9.088441e+001
5.765210e+002, 9.054124e+001
5.770031e+002, 9.095269e+001
5.774852e+002, 9.161866e+001
5.779673e+002, 9.185947e+001
5.784495e+002, 9.156740e+001
5.789316e+002, 9.123216e+001
5.794137e+002, 9.092062e+001
5.798958e+002, 9.065757e+001
5.803779e+002, 9.052248e+001
5.808600e+002, 9.051539e+001
5.813422e+002, 9.051272e+001
5.818243e+002, 9.041257e+001
5.823064e+002, 9.027753e+001
5.827885e+002, 9.030235e+001
5.832706e+002, 9.047866e+001
5.837527e+002, 9.054622e+001
5.842349e+002, 9.025094e+001
5.847170e+002, 8.977707e+001
5.851991e+002, 8.928421e+001
5.856812e+002, 8.874199e+001
5.861633e+002, 8.835791e+001
5.866454e+002, 8.825697e+001
5.871276e+002, 8.834875e+001
5.876097e+002, 8.852335e+001
5.880918e+002, 8.888474e+001
5.885739e+002, 8.918212e+001
5.890560e+002, 8.940127e+001
5.895381e+002, 8.953703e+001
5.900203e+002, 8.956544e+001
5.905024e+002, 8.946346e+001
5.909845e+002, 8.931046e+001
5.914666e+002, 8.912901e+001
5.919487e+002, 8.892161e+001
5.924308e+002, 8.872433e+001
5.929130e+002, 8.854594e+001
5.933951e+002, 8.831231e+001
5.938772e+002, 8.787024e+001
5.943593e+002, 8.732778e+001
5.948414e+002, 8.703622e+001
5.953235e+002, 8.705325e+001
5.958057e+002, 8.715102e+001
5.962878e+002, 8.713266e+001
5.967699e+002, 8.705455e+001
5.972520e+002, 8.700034e+001
5.977341e+002, 8.698601e+001
5.982162e+002, 8.701101e+001
5.986984e+002, 8.712138e+001
5.991805e+002, 8.726699e+001
5.996626e+002, 8.734637e+001
6.001447e+002, 8.728684e+001
6.006268e+002, 8.721382e+001
6.011089e+002, 8.719039e+001
6.015911e+002, 8.720303e+001
6.020732e+002, 8.707198e+001
6.025553e+002, 8.670435e+001
6.030374e+002, 8.636849e+001
6.035195e+002, 8.621256e+001
6.040016e+002, 8.624267e+001
6.044838e+002, 8.634205e+001
6.049659e+002, 8.654150e+001
6.054480e+002, 8.666260e+001
6.059301e+002, 8.637225e+001
6.064122e+002, 8.583048e+001
6.068943e+002, 8.563471e+001
6.073765e+002, 8.597520e+001
6.078586e+002, 8.642891e+001
6.083407e+002, 8.651256e+001
6.088228e+002, 8.640513e+001
6.093049e+002, 8.643140e+001
6.097870e+002, 8.689624e+001
6.102692e+002, 8.735324e+001
6.107513e+002, 8.768693e+001
6.112334e+002, 8.785974e+001
6.117155e+002, 8.774545e+001
6.121976e+002, 8.689709e+001
6.126797e+002, 8.617695e+001
6.131619e+002, 8.589912e+001
6.136440e+002, 8.608469e+001
6.141261e+002, 8.621535e+001
6.146082e+002, 8.623280e+001
6.150903e+002, 8.630614e+001
6.155724e+002, 8.664352e+001
6.160546e+002, 8.725394e+001
6.165367e+002, 8.751212e+001
6.170188e+002, 8.735485e+001
6.175009e+002, 8.698450e+001
6.179830e+002, 8.648795e+001
6.184651e+002, 8.596126e+001
6.189473e+002, 8.566755e+001
6.194294e+002, 8.564578e+001
6.199115e+002, 8.593967e+001
6.203936e+002, 8.704318e+001
6.208757e+002, 8.846102e+001
6.213578e+002, 8.919767e+001
6.218400e+002, 8.833003e+001
6.223221e+002, 8.721140e+001
6.228042e+002, 8.632956e+001
6.232863e+002, 8.567556e+001
6.237684e+002, 8.512138e+001
6.242505e+002, 8.460462e+001
6.247327e+002, 8.423897e+001
6.252148e+002, 8.412247e+001
6.256969e+002, 8.428996e+001
6.261790e+002, 8.426936e+001
6.266611e+002, 8.401407e+001
6.271432e+002, 8.369028e+001
6.276254e+002, 8.338655e+001
6.281075e+002, 8.311217e+001
6.285896e+002, 8.300620e+001
6.290717e+002, 8.310512e+001
6.295538e+002, 8.325162e+001
6.300359e+002, 8.342846e+001
6.305181e+002, 8.350528e+001
6.310002e+002, 8.314343e+001
6.314823e+002, 8.188190e+001
6.319644e+002, 8.077213e+001
6.324465e+002, 8.073440e+001
6.329286e+002, 8.136182e+001
6.334108e+002, 8.184274e+001
6.338929e+002, 8.185851e+001
6.343750e+002, 8.176102e+001
6.348571e+002, 8.163232e+001
6.353392e+002, 8.147329e+001
6.358214e+002, 8.128041e+001
6.363035e+002, 8.098453e+001
6.367856e+002, 8.076206e+001
6.372677e+002, 8.075078e+001
6.377498e+002, 8.094787e+001
6.382319e+002, 8.075239e+001
6.387141e+002, 8.007351e+001
6.391962e+002, 7.947167e+001
6.396783e+002, 7.947442e+001
6.401604e+002, 7.993649e+001
6.406425e+002, 8.047856e+001
6.411246e+002, 8.112513e+001
6.416068e+002, 8.142032e+001
6.420889e+002, 8.055301e+001
6.425710e+002, 7.920274e+001
6.430531e+002, 7.833968e+001
6.435352e+002, 7.843496e+001
6.440173e+002, 7.871249e+001
6.444995e+002, 7.894282e+001
6.449816e+002, 7.913029e+001
6.454637e+002, 7.928742e+001
6.459458e+002, 7.948351e+001
6.464279e+002, 7.955152e+001
6.469100e+002, 7.940325e+001
6.473922e+002, 7.910300e+001
6.478743e+002, 7.892223e+001
6.483564e+002, 7.888238e+001
6.488385e+002, 7.887594e+001
6.493206e+002, 7.889410e+001
6.498027e+002, 7.890685e+001
6.502849e+002, 7.871331e+001
6.507670e+002, 7.831969e+001
6.512491e+002, 7.798245e+001
6.517312e+002, 7.799528e+001
6.522133e+002, 7.814993e+001
6.526954e+002, 7.812252e+001
6.531776e+002, 7.786752e+001
6.536597e+002, 7.762254e+001
6.541418e+002, 7.746103e+001
6.546239e+002, 7.740903e+001
6.551060e+002, 7.753430e+001
6.555881e+002, 7.821729e+001
6.560703e+002, 7.840014e+001
6.565524e+002, 7.740345e+001
6.570345e+002, 7.610171e+001
6.575166e+002, 7.553105e+001
6.579987e+002, 7.589953e+001
6.584808e+002, 7.644851e+001
6.589630e+002, 7.718892e+001
6.594451e+002, 7.792658e+001
6.599272e+002, 7.826744e+001
6.604093e+002, 7.821388e+001
6.608914e+002, 7.780331e+001
6.613735e+002, 7.681570e+001
6.618557e+002, 7.567889e+001
6.623378e+002, 7.506474e+001
6.628199e+002, 7.491173e+001
6.633020e+002, 7.494524e+001
6.637841e+002, 7.504812e+001
6.642662e+002, 7.525454e+001
6.647484e+002, 7.566425e+001
6.652305e+002, 7.627632e+001
6.657126e+002, 7.674754e+001
6.661947e+002, 7.691939e+001
6.666768e+002, 7.698478e+001
6.671589e+002, 7.704894e+001
6.676411e+002, 7.712485e+001
6.681232e+002, 7.711902e+001
6.686053e+002, 7.697241e+001
6.690874e+002, 7.683633e+001
6.695695e+002, 7.692358e+001
6.700516e+002, 7.721851e+001
6.705338e+002, 7.726945e+001
6.710159e+002, 7.701316e+001
6.714980e+002, 7.653954e+001
6.719801e+002, 7.578745e+001
6.724622e+002, 7.491718e+001
6.729443e+002, 7.431235e+001
6.734265e+002, 7.412135e+001
6.739086e+002, 7.416737e+001
6.743907e+002, 7.448299e+001
6.748728e+002, 7.493382e+001
6.753549e+002, 7.525945e+001
6.758370e+002, 7.527648e+001
6.763192e+002, 7.529765e+001
6.768013e+002, 7.549607e+001
6.772834e+002, 7.577747e+001
6.777655e+002, 7.573992e+001
6.782476e+002, 7.522215e+001
6.787297e+002, 7.476449e+001
6.792119e+002, 7.455500e+001
6.796940e+002, 7.457507e+001
6.801761e+002, 7.487708e+001
6.806582e+002, 7.547449e+001
6.811403e+002, 7.577834e+001
6.816224e+002, 7.499308e+001
6.821046e+002, 7.377384e+001
6.825867e+002, 7.333570e+001
6.830688e+002, 7.373626e+001
6.835509e+002, 7.425272e+001
6.840330e+002, 7.451534e+001
6.845151e+002, 7.463194e+001
6.849973e+002, 7.470327e+001
6.854794e+002, 7.477104e+001
6.859615e+002, 7.471622e+001
6.864436e+002, 7.448864e+001
6.869257e+002, 7.414986e+001
6.874078e+002, 7.368015e+001
6.878900e+002, 7.284962e+001
6.883721e+002, 7.262367e+001
6.888542e+002, 7.325941e+001
6.893363e+002, 7.418172e+001
6.898184e+002, 7.453017e+001
6.903005e+002, 7.435242e+001
6.907827e+002, 7.401649e+001
6.912648e+002, 7.354952e+001
6.917469e+002, 7.310189e+001
6.922290e+002, 7.285014e+001
6.927111e+002, 7.276833e+001
6.931932e+002, 7.280968e+001
6.936754e+002, 7.313314e+001
6.941575e+002, 7.339541e+001
6.946396e+002, 7.346378e+001
6.951217e+002, 7.333981e+001
6.956038e+002, 7.303018e+001
6.960859e+002, 7.217923e+001
6.965681e+002, 7.157272e+001
6.970502e+002, 7.148730e+001
6.975323e+002, 7.186315e+001
6.980144e+002, 7.213299e+001
6.984965e+002, 7.229927e+001
6.989786e+002, 7.235433e+001
6.994608e+002, 7.223069e+001
6.999429e+002, 7.198727e+001
7.004250e+002, 7.188403e+001
7.009071e+002, 7.191661e+001
7.013892e+002, 7.194319e+001
7.018713e+002, 7.184213e+001
7.023535e+002, 7.168637e+001
7.028356e+002, 7.152802e+001
7.033177e+002, 7.136040e+001
7.037998e+002, 7.129896e+001
7.042819e+002, 7.137175e+001
7.047640e+002, 7.157613e+001
7.052462e+002, 7.194962e+001
7.057283e+002, 7.273572e+001
7.062104e+002, 7.311319e+001
7.066925e+002, 7.288885e+001
7.071746e+002, 7.249297e+001
7.076567e+002, 7.250204e+001
7.081389e+002, 7.294444e+001
7.086210e+002, 7.292658e+001
7.091031e+002, 7.222552e+001
7.095852e+002, 7.132732e+001
7.100673e+002, 7.080820e+001
7.105494e+002, 7.061848e+001
7.110316e+002, 7.063487e+001
7.115137e+002, 7.089085e+001
7.119958e+002, 7.122838e+001
7.124779e+002, 7.164730e+001
7.129600e+002, 7.206483e+001
7.134421e+002, 7.231989e+001
7.139243e+002, 7.227959e+001
7.144064e+002, 7.218358e+001
7.148885e+002, 7.203843e+001
7.153706e+002, 7.188148e+001
7.158527e+002, 7.185423e+001
7.163348e+002, 7.201234e+001
7.168170e+002, 7.211130e+001
7.172991e+002, 7.207535e+001
7.177812e+002, 7.191354e+001
7.182633e+002, 7.157815e+001
7.187454e+002, 7.109058e+001
7.192275e+002, 7.072628e+001
7.197097e+002, 7.067480e+001
7.201918e+002, 7.080083e+001
7.206739e+002, 7.106239e+001
7.211560e+002, 7.141579e+001
7.216381e+002, 7.156503e+001
7.221202e+002, 7.115762e+001
7.226024e+002, 7.069026e+001
7.230845e+002, 7.043845e+001
7.235666e+002, 7.044443e+001
7.240487e+002, 7.045772e+001
7.245308e+002, 7.047974e+001
7.250129e+002, 7.050993e+001
7.254951e+002, 7.061285e+001
7.259772e+002, 7.080325e+001
7.264593e+002, 7.056947e+001
7.269414e+002, 6.984676e+001
7.274235e+002, 6.917604e+001
7.279056e+002, 6.908115e+001
7.283878e+002, 6.939003e+001
7.288699e+002, 6.983198e+001
7.293520e+002, 7.040111e+001
7.298341e+002, 7.089360e+001
7.303162e+002, 7.123111e+001
7.307983e+002, 7.139761e+001
7.312805e+002, 7.135981e+001
7.317626e+002, 7.087339e+001
7.322447e+002, 7.061886e+001
7.327268e+002, 7.079325e+001
7.332089e+002, 7.109123e+001
7.336910e+002, 7.116102e+001
7.341732e+002, 7.094550e+001
7.346553e+002, 7.078835e+001
7.351374e+002, 7.073976e+001
7.356195e+002, 7.074345e+001
7.361016e+002, 7.075628e+001
7.365837e+002, 7.075574e+001
7.370659e+002, 7.065369e+001
7.375480e+002, 7.037306e+001
7.380301e+002, 7.007530e+001
7.385122e+002, 6.979697e+001
7.389943e+002, 6.961982e+001
7.394764e+002, 6.968819e+001
7.399586e+002, 7.055693e+001
7.404407e+002, 7.109116e+001
7.409228e+002, 7.070390e+001
7.414049e+002, 6.984615e+001
7.418870e+002, 6.955926e+001
7.423691e+002, 7.011117e+001
7.428513e+002, 7.042833e+001
7.433334e+002, 7.014444e+001
7.438155e+002, 6.952190e+001
7.442976e+002, 6.925089e+001
7.447797e+002, 6.930354e+001
7.452618e+002, 6.943836e+001
7.457440e+002, 6.962027e+001
7.462261e+002, 6.976209e+001
7.467082e+002, 6.972782e+001
7.471903e+002, 6.956229e+001
7.476724e+002, 6.943173e+001
7.481545e+002, 6.939478e+001
7.486367e+002, 6.941509e+001
7.491188e+002, 6.957262e+001
7.496009e+002, 6.983186e+001
7.500830e+002, 6.974100e+001
7.505651e+002, 6.908206e+001
7.510472e+002, 6.852695e+001
7.515294e+002, 6.842083e+001
7.520115e+002, 6.868546e+001
7.524936e+002, 6.875999e+001
7.529757e+002, 6.864673e+001
7.534578e+002, 6.859135e+001
7.539399e+002, 6.890001e+001
7.544221e+002, 6.930119e+001
7.549042e+002, 6.939664e+001
7.553863e+002, 6.918377e+001
7.558684e+002, 6.893478e+001
7.563505e+002, 6.873321e+001
7.568326e+002, 6.857543e+001
7.573148e+002, 6.842711e+001
7.577969e+002, 6.825479e+001
7.582790e+002, 6.833110e+001
7.587611e+002, 6.881318e+001
7.592432e+002, 6.929494e+001
7.597253e+002, 6.952896e+001
7.602075e+002, 6.951603e+001
7.606896e+002, 6.935048e+001
7.611717e+002, 6.901615e+001
7.616538e+002, 6.867549e+001
7.621359e+002, 6.841691e+001
7.626180e+002, 6.826202e+001
7.631002e+002, 6.829446e+001
7.635823e+002, 6.854521e+001
7.640644e+002, 6.875896e+001
7.645465e+002, 6.877870e+001
7.650286e+002, 6.872334e+001
7.655107e+002, 6.870998e+001
7.659929e+002, 6.886691e+001
7.664750e+002, 6.872679e+001
7.669571e+002, 6.799690e+001
7.674392e+002, 6.735419e+001
7.679213e+002, 6.759493e+001
7.684034e+002, 6.874049e+001
7.688856e+002, 6.927492e+001
7.693677e+002, 6.900656e+001
7.698498e+002, 6.851202e+001
7.703319e+002, 6.830533e+001
7.708140e+002, 6.832107e+001
7.712961e+002, 6.846895e+001
7.717783e+002, 6.877283e+001
7.722604e+002, 6.905128e+001
7.727425e+002, 6.934628e+001
7.732246e+002, 6.949760e+001
7.737067e+002, 6.932487e+001
7.741888e+002, 6.827125e+001
7.746710e+002, 6.780202e+001
7.751531e+002, 6.816706e+001
7.756352e+002, 6.882755e+001
7.761173e+002, 6.914768e+001
7.765994e+002, 6.912608e+001
7.770815e+002, 6.899894e+001
7.775637e+002, 6.878027e+001
7.780458e+002, 6.854815e+001
7.785279e+002, 6.837122e+001
7.790100e+002, 6.825342e+001
7.794921e+002, 6.822960e+001
7.799742e+002, 6.844185e+001
7.804564e+002, 6.847855e+001
7.809385e+002, 6.785287e+001
7.814206e+002, 6.705682e+001
7.819027e+002, 6.678983e+001
7.823848e+002, 6.746723e+001
7.828669e+002, 6.794801e+001
7.833491e+002, 6.806220e+001
7.838312e+002, 6.804909e+001
7.843133e+002, 6.837118e+001
7.847954e+002, 6.899772e+001
7.852775e+002, 6.933587e+001
7.857596e+002, 6.916781e+001
7.862418e+002, 6.887697e+001
7.867239e+002, 6.905318e+001
7.872060e+002, 6.942155e+001
7.876881e+002, 6.947054e+001
7.881702e+002, 6.868142e+001
7.886523e+002, 6.801503e+001
7.891345e+002, 6.789433e+001
7.896166e+002, 6.808790e+001
7.900987e+002, 6.818047e+001
7.905808e+002, 6.806802e+001
7.910629e+002, 6.809967e+001
7.915450e+002, 6.842757e+001
7.920272e+002, 6.878641e+001
7.925093e+002, 6.854148e+001
7.929914e+002, 6.778522e+001
7.934735e+002, 6.725786e+001
7.939556e+002, 6.717689e+001
7.944377e+002, 6.738638e+001
7.949199e+002, 6.793651e+001
7.954020e+002, 6.861458e+001
7.958841e+002, 6.901954e+001
7.963662e+002, 6.879772e+001
7.968483e+002, 6.854350e+001
7.973304e+002, 6.837647e+001
7.978126e+002, 6.827610e+001
7.982947e+002, 6.822912e+001
7.987768e+002, 6.827829e+001
7.992589e+002, 6.821704e+001
7.997410e+002, 6.794070e+001
8.002231e+002, 6.764544e+001
8.007053e+002, 6.786556e+001
8.011874e+002, 6.843176e+001
8.016695e+002, 6.857548e+001
8.021516e+002, 6.766463e+001
8.026337e+002, 6.685383e+001
8.031158e+002, 6.751836e+001
8.035980e+002, 6.888921e+001
8.040801e+002, 6.964640e+001
8.045622e+002, 6.868002e+001
8.050443e+002, 6.799592e+001
8.055264e+002, 6.807292e+001
8.060085e+002, 6.852512e+001
8.064907e+002, 6.867382e+001
8.069728e+002, 6.849895e+001
8.074549e+002, 6.807671e+001
8.079370e+002, 6.730176e+001
8.084191e+002, 6.652327e+001
8.089012e+002, 6.639201e+001
8.093834e+002, 6.672701e+001
8.098655e+002, 6.703762e+001
8.103476e+002, 6.706483e+001
8.108297e+002, 6.713418e+001
8.113118e+002, 6.753962e+001
8.117939e+002, 6.808846e+001
8.122761e+002, 6.845139e+001
8.127582e+002, 6.853870e+001
8.132403e+002, 6.849576e+001
8.137224e+002, 6.828013e+001
8.142045e+002, 6.799307e+001
8.146866e+002, 6.776938e+001
8.151688e+002, 6.761592e+001
8.156509e+002, 6.774435e+001
8.161330e+002, 6.834455e+001
8.166151e+002, 6.891109e+001
8.170972e+002, 6.865181e+001
8.175793e+002, 6.792033e+001
8.180615e+002, 6.737205e+001
8.185436e+002, 6.743336e+001
8.190257e+002, 6.744627e+001
8.195078e+002, 6.685885e+001
8.199899e+002, 6.622305e+001
8.204720e+002, 6.646556e+001
8.209542e+002, 6.818302e+001
8.214363e+002, 6.913058e+001
8.219184e+002, 6.884436e+001
8.224005e+002, 6.801867e+001
8.228826e+002, 6.771548e+001
8.233647e+002, 6.783767e+001
8.238469e+002, 6.797106e+001
8.243290e+002, 6.800751e+001
8.248111e+002, 6.804713e+001
8.252932e+002, 6.821763e+001
8.257753e+002, 6.843374e+001
8.262574e+002, 6.857460e+001
8.267396e+002, 6.857555e+001
8.272217e+002, 6.855531e+001
8.277038e+002, 6.851458e+001
8.281859e+002, 6.847084e+001
8.286681e+002, 6.846181e+001
8.291502e+002, 6.850188e+001
8.296323e+002, 6.842360e+001
8.301144e+002, 6.816950e+001
8.305966e+002, 6.791747e+001
8.310787e+002, 6.792294e+001
8.315608e+002, 6.807567e+001
8.320429e+002, 6.813340e+001
8.325250e+002, 6.796764e+001
8.330071e+002, 6.792377e+001
8.334893e+002, 6.830765e+001
8.339714e+002, 6.882978e+001
8.344535e+002, 6.920840e+001
8.349356e+002, 6.957563e+001
8.354177e+002, 6.944347e+001
8.358998e+002, 6.858824e+001
8.363820e+002, 6.764542e+001
8.368641e+002, 6.730864e+001
8.373462e+002, 6.750471e+001
8.378283e+002, 6.771943e+001
8.383104e+002, 6.789113e+001
8.387925e+002, 6.811549e+001
8.392747e+002, 6.873598e+001
8.397568e+002, 6.931969e+001
8.402389e+002, 6.931423e+001
8.407210e+002, 6.842152e+001
8.412031e+002, 6.767842e+001
8.416852e+002, 6.722419e+001
8.421674e+002, 6.705167e+001
8.426495e+002, 6.724474e+001
8.431316e+002, 6.789207e+001
8.436137e+002, 6.830013e+001
8.440958e+002, 6.846719e+001
8.445779e+002, 6.841456e+001
8.450601e+002, 6.792094e+001
8.455422e+002, 6.730454e+001
8.460243e+002, 6.724786e+001
8.465064e+002, 6.781361e+001
8.469885e+002, 6.828282e+001
8.474706e+002, 6.809349e+001
8.479528e+002, 6.783093e+001
8.484349e+002, 6.798569e+001
8.489170e+002, 6.868283e+001
8.493991e+002, 6.876010e+001
8.498812e+002, 6.792207e+001
8.503633e+002, 6.717233e+001
8.508455e+002, 6.727795e+001
8.513276e+002, 6.801802e+001
8.518097e+002, 6.808828e+001
8.522918e+002, 6.753953e+001
8.527739e+002, 6.705235e+001
8.532560e+002, 6.708256e+001
8.537382e+002, 6.735947e+001
8.542203e+002, 6.783388e+001
8.547024e+002, 6.844448e+001
8.551845e+002, 6.861629e+001
8.556666e+002, 6.760570e+001
8.561487e+002, 6.692199e+001
8.566309e+002, 6.720644e+001
8.571130e+002, 6.822103e+001
8.575951e+002, 6.864944e+001
8.580772e+002, 6.848144e+001
8.585593e+002, 6.813002e+001
8.590414e+002, 6.766624e+001
8.595236e+002, 6.723766e+001
8.600057e+002, 6.706307e+001
8.604878e+002, 6.710876e+001
8.609699e+002, 6.726527e+001
8.614520e+002, 6.779570e+001
8.619341e+002, 6.809809e+001
8.624163e+002, 6.770121e+001
8.628984e+002, 6.694234e+001
8.633805e+002, 6.673294e+001
8.638626e+002, 6.723454e+001
8.643447e+002, 6.764438e+001
8.648268e+002, 6.773670e+001
8.653090e+002, 6.765953e+001
8.657911e+002, 6.768999e+001
8.662732e+002, 6.778080e+001
8.667553e+002, 6.779210e+001
8.672374e+002, 6.763511e+001
8.677195e+002, 6.743950e+001
8.682017e+002, 6.726999e+001
8.686838e+002, 6.711263e+001
8.691659e+002, 6.694252e+001
8.696480e+002, 6.667831e+001
8.701301e+002, 6.658069e+001
8.706122e+002, 6.675452e+001
8.710944e+002, 6.697427e+001
8.715765e+002, 6.685811e+001
8.720586e+002, 6.647855e+001
8.725407e+002, 6.626753e+001
8.730228e+002, 6.633116e+001
8.735049e+002, 6.644350e+001
8.739871e+002, 6.629831e+001
8.744692e+002, 6.614864e+001
8.749513e+002, 6.635109e+001
8.754334e+002, 6.735794e+001
8.759155e+002, 6.771835e+001
8.763976e+002, 6.689321e+001
8.768798e+002, 6.593409e+001
8.773619e+002, 6.573698e+001
8.778440e+002, 6.633781e+001
8.783261e+002, 6.648479e+001
8.788082e+002, 6.609873e+001
8.792903e+002, 6.574845e+001
8.797725e+002, 6.610194e+001
8.802546e+002, 6.667564e+001
8.807367e+002, 6.678273e+001
8.812188e+002, 6.635104e+001
8.817009e+002, 6.610023e+001
8.821830e+002, 6.649732e+001
8.826652e+002, 6.692294e+001
8.831473e+002, 6.703685e+001
8.836294e+002, 6.685719e+001
8.841115e+002, 6.700688e+001
8.845936e+002, 6.756234e+001
8.850757e+002, 6.790228e+001
8.855579e+002, 6.739626e+001
8.860400e+002, 6.656958e+001
8.865221e+002, 6.647645e+001
8.870042e+002, 6.696190e+001
8.874863e+002, 6.737421e+001
8.879684e+002, 6.745540e+001
8.884506e+002, 6.734177e+001
8.889327e+002, 6.693095e+001
8.894148e+002, 6.636658e+001
8.898969e+002, 6.611806e+001
8.903790e+002, 6.625167e+001
8.908611e+002, 6.648418e+001
8.913433e+002, 6.676447e+001
8.918254e+002, 6.707005e+001
8.923075e+002, 6.751010e+001
8.927896e+002, 6.795521e+001
8.932717e+002, 6.798033e+001
8.937538e+002, 6.711382e+001
8.942360e+002, 6.630324e+001
8.947181e+002, 6.612813e+001
8.952002e+002, 6.631686e+001
8.956823e+002, 6.649379e+001
8.961644e+002, 6.666177e+001
8.966465e+002, 6.674306e+001
8.971287e+002, 6.669845e+001
8.976108e+002, 6.663644e+001
8.980929e+002, 6.675166e+001
8.985750e+002, 6.697196e+001
8.990571e+002, 6.697551e+001
8.995392e+002, 6.668210e+001
9.000214e+002, 6.644496e+001
9.005035e+002, 6.651731e+001
9.009856e+002, 6.676638e+001
9.014677e+002, 6.712241e+001
9.019498e+002, 6.765311e+001
9.024319e+002, 6.793497e+001
9.029141e+002, 6.782818e+001
9.033962e+002, 6.771967e+001
9.038783e+002, 6.796373e+001
9.043604e+002, 6.846856e+001
9.048425e+002, 6.845730e+001
9.053246e+002, 6.795609e+001
9.058068e+002, 6.743391e+001
9.062889e+002, 6.724157e+001
9.067710e+002, 6.712480e+001
9.072531e+002, 6.681181e+001
9.077352e+002, 6.634485e+001
9.082173e+002, 6.612840e+001
9.086995e+002, 6.630175e+001
9.091816e+002, 6.659808e+001
9.096637e+002, 6.700070e+001
9.101458e+002, 6.744266e+001
9.106279e+002, 6.769900e+001
9.111100e+002, 6.778413e+001
9.115922e+002, 6.783633e+001
9.120743e+002, 6.797849e+001
9.125564e+002, 6.800526e+001
9.130385e+002, 6.751791e+001
9.135206e+002, 6.682887e+001
9.140027e+002, 6.646585e+001
9.144849e+002, 6.672089e+001
9.149670e+002, 6.713573e+001
9.154491e+002, 6.787228e+001
9.159312e+002, 6.852918e+001
9.164133e+002, 6.839243e+001
9.168954e+002, 6.752951e+001
9.173776e+002, 6.736736e+001
9.178597e+002, 6.818694e+001
9.183418e+002, 6.892273e+001
9.188239e+002, 6.820321e+001
9.193060e+002, 6.706168e+001
9.197881e+002, 6.671592e+001
9.202703e+002, 6.755759e+001
9.207524e+002, 6.815871e+001
9.212345e+002, 6.817821e+001
9.217166e+002, 6.808647e+001
9.221987e+002, 6.814808e+001
9.226808e+002, 6.834851e+001
9.231630e+002, 6.841234e+001
9.236451e+002, 6.834026e+001
9.241272e+002, 6.815929e+001
9.246093e+002, 6.770808e+001
9.250914e+002, 6.729449e+001
9.255735e+002, 6.731893e+001
9.260557e+002, 6.768962e+001
9.265378e+002, 6.794837e+001
9.270199e+002, 6.778025e+001
9.275020e+002, 6.774009e+001
9.279841e+002, 6.801770e+001
9.284662e+002, 6.845681e+001
9.289484e+002, 6.864734e+001
9.294305e+002, 6.860140e+001
9.299126e+002, 6.849596e+001
9.303947e+002, 6.831642e+001
9.308768e+002, 6.825034e+001
9.313589e+002, 6.878657e+001
9.318411e+002, 6.946791e+001
9.323232e+002, 6.959653e+001
9.328053e+002, 6.833079e+001
9.332874e+002, 6.764180e+001
9.337695e+002, 6.792559e+001
9.342516e+002, 6.852264e+001
9.347338e+002, 6.884211e+001
9.352159e+002, 6.889283e+001
9.356980e+002, 6.882671e+001
9.361801e+002, 6.864928e+001
9.366622e+002, 6.843377e+001
9.371443e+002, 6.817719e+001
9.376265e+002, 6.795609e+001
9.381086e+002, 6.786300e+001
9.385907e+002, 6.790574e+001
9.390728e+002, 6.796471e+001
9.395549e+002, 6.801719e+001
9.400370e+002, 6.808844e+001
9.405192e+002, 6.822932e+001
9.410013e+002, 6.838784e+001
9.414834e+002, 6.832352e+001
9.419655e+002, 6.804411e+001
9.424476e+002, 6.763028e+001
9.429297e+002, 6.689929e+001
9.434119e+002, 6.629115e+001
9.438940e+002, 6.639818e+001
9.443761e+002, 6.688122e+001
9.448582e+002, 6.703895e+001
9.453403e+002, 6.636049e+001
9.458224e+002, 6.590401e+001
9.463046e+002, 6.580466e+001
9.467867e+002, 6.590302e+001
9.472688e+002, 6.602169e+001
9.477509e+002, 6.614773e+001
9.482330e+002, 6.618004e+001
9.487151e+002, 6.608919e+001
9.491973e+002, 6.600751e+001
9.496794e+002, 6.604463e+001
9.501615e+002, 6.613824e+001
9.506436e+002, 6.623091e+001
9.511257e+002, 6.630713e+001
9.516078e+002, 6.642709e+001
9.520900e+002, 6.661742e+001
9.525721e+002, 6.679673e+001
9.530542e+002, 6.691477e+001
9.535363e+002, 6.698551e+001
9.540184e+002, 6.699410e+001
9.545005e+002, 6.697796e+001
9.549827e+002, 6.716397e+001
9.554648e+002, 6.809013e+001
9.559469e+002, 6.885792e+001
9.564290e+002, 6.877164e+001
9.569111e+002, 6.808817e+001
9.573932e+002, 6.765060e+001
9.578754e+002, 6.762185e+001
9.583575e+002, 6.745686e+001
9.588396e+002, 6.699279e+001
9.593217e+002, 6.649612e+001
9.598038e+002, 6.638408e+001
9.602859e+002, 6.658471e+001
9.607681e+002, 6.697761e+001
9.612502e+002, 6.762632e+001
9.617323e+002, 6.808896e+001
9.622144e+002, 6.782156e+001
9.626965e+002, 6.747951e+001
9.631786e+002, 6.769943e+001
9.636608e+002, 6.865950e+001
9.641429e+002, 6.909523e+001
9.646250e+002, 6.891003e+001
9.651071e+002, 6.863126e+001
9.655892e+002, 6.883222e+001
9.660714e+002, 6.910892e+001
9.665535e+002, 6.837020e+001
9.670356e+002, 6.687276e+001
9.675177e+002, 6.593443e+001
9.679998e+002, 6.678726e+001
9.684819e+002, 6.761513e+001
9.689641e+002, 6.771438e+001
9.694462e+002, 6.731573e+001
9.699283e+002, 6.686525e+001
9.704104e+002, 6.632645e+001
9.708925e+002, 6.621111e+001
9.713746e+002, 6.676213e+001
9.718568e+002, 6.740157e+001
9.723389e+002, 6.737336e+001
9.728210e+002, 6.697632e+001
9.733031e+002, 6.662703e+001
9.737852e+002, 6.633465e+001
9.742673e+002, 6.635342e+001
9.747495e+002, 6.698958e+001
9.752316e+002, 6.766193e+001
9.757137e+002, 6.799900e+001
9.761958e+002, 6.800292e+001
9.766779e+002, 6.788352e+001
9.771600e+002, 6.763950e+001
9.776422e+002, 6.731575e+001
9.781243e+002, 6.661213e+001
9.786064e+002, 6.610152e+001
9.790885e+002, 6.664165e+001
9.795706e+002, 6.792653e+001
9.800527e+002, 6.845504e+001
9.805349e+002, 6.740266e+001
9.810170e+002, 6.661452e+001
9.814991e+002, 6.648752e+001
9.819812e+002, 6.675685e+001
9.824633e+002, 6.698891e+001
9.829454e+002, 6.717147e+001
9.834276e+002, 6.724602e+001
9.839097e+002, 6.718680e+001
9.843918e+002, 6.705997e+001
9.848739e+002, 6.685654e+001
9.853560e+002, 6.664085e+001
9.858381e+002, 6.648488e+001
9.863203e+002, 6.641461e+001
9.868024e+002, 6.629304e+001
9.872845e+002, 6.610322e+001
9.877666e+002, 6.591976e+001
9.882487e+002, 6.581229e+001
9.887308e+002, 6.574397e+001
9.892130e+002, 6.558652e+001
9.896951e+002, 6.537376e+001
9.901772e+002, 6.527062e+001
9.906593e+002, 6.544563e+001
9.911414e+002, 6.564637e+001
9.916235e+002, 6.582314e+001
9.921057e+002, 6.594358e+001
9.925878e+002, 6.592063e+001
9.930699e+002, 6.574036e+001
9.935520e+002, 6.556123e+001
9.940341e+002, 6.541735e+001
9.945162e+002, 6.526822e+001
9.949984e+002, 6.492802e+001
9.954805e+002, 6.461536e+001
9.959626e+002, 6.462890e+001
9.964447e+002, 6.505515e+001
9.969268e+002, 6.571096e+001
9.974089e+002, 6.693981e+001
9.978911e+002, 6.785220e+001
9.983732e+002, 6.777525e+001
9.988553e+002, 6.688929e+001
9.993374e+002, 6.663447e+001
9.998195e+002, 6.694949e+001
1.000302e+003, 6.719614e+001
1.000784e+003, 6.690093e+001
1.001266e+003, 6.650930e+001
1.001748e+003, 6.626602e+001
1.002230e+003, 6.616814e+001
1.002712e+003, 6.621774e+001
1.003194e+003, 6.652660e+001
1.003676e+003, 6.668674e+001
1.004159e+003, 6.664664e+001
1.004641e+003, 6.644715e+001
1.005123e+003, 6.597739e+001
1.005605e+003, 6.541869e+001
1.006087e+003, 6.520276e+001
1.006569e+003, 6.540911e+001
1.007051e+003, 6.581020e+001
1.007533e+003, 6.669988e+001
1.008016e+003, 6.736336e+001
1.008498e+003, 6.730460e+001
1.008980e+003, 6.658268e+001
1.009462e+003, 6.623158e+001
1.009944e+003, 6.626591e+001
1.010426e+003, 6.640450e+001
1.010908e+003, 6.664584e+001
1.011390e+003, 6.676537e+001
1.011872e+003, 6.625742e+001
1.012355e+003, 6.546545e+001
1.012837e+003, 6.507777e+001
1.013319e+003, 6.573317e+001
1.013801e+003, 6.616898e+001
1.014283e+003, 6.626990e+001
1.014765e+003, 6.615614e+001
1.015247e+003, 6.590034e+001
1.015729e+003, 6.553293e+001
1.016211e+003, 6.519119e+001
1.016694e+003, 6.488750e+001
1.017176e+003, 6.476920e+001
1.017658e+003, 6.506813e+001
1.018140e+003, 6.547563e+001
1.018622e+003, 6.585025e+001
1.019104e+003, 6.616171e+001
1.019586e+003, 6.624962e+001
1.020068e+003, 6.607091e+001
1.020551e+003, 6.582597e+001
1.021033e+003, 6.552140e+001
1.021515e+003, 6.528365e+001
1.021997e+003, 6.539438e+001
1.022479e+003, 6.570932e+001
1.022961e+003, 6.596768e+001
1.023443e+003, 6.615195e+001
1.023925e+003, 6.614061e+001
1.024407e+003, 6.573019e+001
1.024890e+003, 6.528507e+001
1.025372e+003, 6.507178e+001
1.025854e+003, 6.509118e+001
1.026336e+003, 6.510275e+001
1.026818e+003, 6.510691e+001
1.027300e+003, 6.514113e+001
1.027782e+003, 6.532482e+001
1.028264e+003, 6.546658e+001
1.028746e+003, 6.534209e+001
1.029229e+003, 6.503523e+001
1.029711e+003, 6.489080e+001
1.030193e+003, 6.499819e+001
1.030675e+003, 6.506502e+001
1.031157e+003, 6.499959e+001
1.031639e+003, 6.497312e+001
1.032121e+003, 6.549093e+001
1.032603e+003, 6.619059e+001
1.033086e+003, 6.604401e+001
1.033568e+003, 6.471530e+001
1.034050e+003, 6.382273e+001
1.034532e+003, 6.474292e+001
1.035014e+003, 6.564684e+001
1.035496e+003, 6.536258e+001
1.035978e+003, 6.406522e+001
1.036460e+003, 6.376261e+001
1.036943e+003, 6.444322e+001
1.037425e+003, 6.517744e+001
1.037907e+003, 6.563427e+001
1.038389e+003, 6.580024e+001
1.038871e+003, 6.533424e+001
1.039353e+003, 6.465094e+001
1.039835e+003, 6.451179e+001
1.040317e+003, 6.568757e+001
1.040799e+003, 6.613186e+001
1.041281e+003, 6.554620e+001
1.041764e+003, 6.480722e+001
1.042246e+003, 6.496004e+001
1.042728e+003, 6.559976e+001
1.043210e+003, 6.556032e+001
1.043692e+003, 6.483259e+001
1.044174e+003, 6.420805e+001
1.044656e+003, 6.404292e+001
1.045138e+003, 6.411869e+001
1.045621e+003, 6.444769e+001
1.046103e+003, 6.490552e+001
1.046585e+003, 6.520813e+001
1.047067e+003, 6.535565e+001
1.047549e+003, 6.515785e+001
1.048031e+003, 6.443651e+001
1.048513e+003, 6.384058e+001
1.048995e+003, 6.426791e+001
1.049478e+003, 6.506642e+001
1.049960e+003, 6.551414e+001
1.050442e+003, 6.542778e+001
1.050924e+003, 6.515279e+001
1.051406e+003, 6.449985e+001
1.051888e+003, 6.413689e+001
1.052370e+003, 6.463540e+001
1.052852e+003, 6.558356e+001
1.053334e+003, 6.592680e+001
1.053817e+003, 6.577650e+001
1.054299e+003, 6.550618e+001
1.054781e+003, 6.501862e+001
1.055263e+003, 6.476403e+001
1.055745e+003, 6.509605e+001
1.056227e+003, 6.556072e+001
1.056709e+003, 6.559200e+001
1.057191e+003, 6.518078e+001
1.057673e+003, 6.498595e+001
1.058156e+003, 6.505915e+001
1.058638e+003, 6.528336e+001
1.059120e+003, 6.578095e+001
1.059602e+003, 6.621461e+001
1.060084e+003, 6.623057e+001
1.060566e+003, 6.585992e+001
1.061048e+003, 6.562255e+001
1.061530e+003, 6.558921e+001
1.062013e+003, 6.552876e+001
1.062495e+003, 6.535960e+001
1.062977e+003, 6.518272e+001
1.063459e+003, 6.517911e+001
1.063941e+003, 6.528329e+001
1.064423e+003, 6.538808e+001
1.064905e+003, 6.550202e+001
1.065387e+003, 6.548687e+001
1.065870e+003, 6.516381e+001
1.066352e+003, 6.483900e+001
1.066834e+003, 6.466537e+001
1.067316e+003, 6.462671e+001
1.067798e+003, 6.454581e+001
1.068280e+003, 6.444624e+001
1.068762e+003, 6.453909e+001
1.069244e+003, 6.520677e+001
1.069726e+003, 6.580741e+001
1.070208e+003, 6.587651e+001
1.070691e+003, 6.561382e+001
1.071173e+003, 6.532420e+001
1.071655e+003, 6.495934e+001
1.072137e+003, 6.480996e+001
1.072619e+003, 6.492224e+001
1.073101e+003, 6.507042e+001
1.073583e+003, 6.494774e+001
1.074065e+003, 6.479628e+001
1.074548e+003, 6.505947e+001
1.075030e+003, 6.567036e+001
1.075512e+003, 6.597646e+001
1.075994e+003, 6.567789e+001
1.076476e+003, 6.523879e+001
1.076958e+003, 6.466122e+001
1.077440e+003, 6.411476e+001
1.077922e+003, 6.389090e+001
1.078405e+003, 6.396401e+001
1.078887e+003, 6.433322e+001
1.079369e+003, 6.507324e+001
1.079851e+003, 6.564394e+001
1.080333e+003, 6.577077e+001
1.080815e+003, 6.559736e+001
1.081297e+003, 6.510423e+001
1.081779e+003, 6.436134e+001
1.082261e+003, 6.423814e+001
1.082744e+003, 6.472625e+001
1.083226e+003, 6.507848e+001
1.083708e+003, 6.489912e+001
1.084190e+003, 6.454950e+001
1.084672e+003, 6.415800e+001
1.085154e+003, 6.389324e+001
1.085636e+003, 6.405359e+001
1.086118e+003, 6.497593e+001
1.086601e+003, 6.554862e+001
1.087083e+003, 6.573928e+001
1.087565e+003, 6.569746e+001
1.088047e+003, 6.544400e+001
1.088529e+003, 6.508772e+001
1.089011e+003, 6.475310e+001
1.089493e+003, 6.447564e+001
1.089975e+003, 6.437035e+001
1.090458e+003, 6.495043e+001
1.090940e+003, 6.500685e+001
1.091422e+003, 6.400493e+001
1.091904e+003, 6.281083e+001
1.092386e+003, 6.292748e+001
1.092868e+003, 6.401613e+001
1.093350e+003, 6.454996e+001
1.093832e+003, 6.432287e+001
1.094314e+003, 6.408035e+001
1.094797e+003, 6.437512e+001
1.095279e+003, 6.469871e+001
1.095761e+003, 6.466225e+001
1.096243e+003, 6.440108e+001
1.096725e+003, 6.458302e+001
1.097207e+003, 6.522147e+001
1.097689e+003, 6.564696e+001
1.098171e+003, 6.563415e+001
1.098653e+003, 6.541555e+001
1.099136e+003, 6.509626e+001
1.099618e+003, 6.477352e+001
1.100100e+003, 6.452328e+001
1.100582e+003, 6.431530e+001
1.101064e+003, 6.445922e+001
1.101546e+003, 6.505422e+001
1.102028e+003, 6.564874e+001
1.102510e+003, 6.605437e+001
1.102993e+003, 6.626302e+001
1.103475e+003, 6.619218e+001
1.103957e+003, 6.592591e+001
1.104439e+003, 6.565285e+001
1.104921e+003, 6.551941e+001
1.105403e+003, 6.523957e+001
1.105885e+003, 6.467487e+001
1.106367e+003, 6.415282e+001
1.106849e+003, 6.406487e+001
1.107332e+003, 6.428783e+001
1.107814e+003, 6.429424e+001
1.108296e+003, 6.409962e+001
1.108778e+003, 6.397431e+001
1.109260e+003, 6.428236e+001
1.109742e+003, 6.443139e+001
1.110224e+003, 6.404149e+001
1.110706e+003, 6.343013e+001
1.111188e+003, 6.313424e+001
1.111671e+003, 6.314065e+001
1.112153e+003, 6.309523e+001
1.112635e+003, 6.294501e+001
1.113117e+003, 6.279658e+001
1.113599e+003, 6.272330e+001
1.114081e+003, 6.269840e+001
1.114563e+003, 6.266277e+001
1.115045e+003, 6.264142e+001
1.115528e+003, 6.291850e+001
1.116010e+003, 6.360061e+001
1.116492e+003, 6.388099e+001
1.116974e+003, 6.339674e+001
1.117456e+003, 6.275003e+001
1.117938e+003, 6.279004e+001
1.118420e+003, 6.307857e+001
1.118902e+003, 6.297643e+001
1.119385e+003, 6.217802e+001
1.119867e+003, 6.186874e+001
1.120349e+003, 6.220996e+001
1.120831e+003, 6.271151e+001
1.121313e+003, 6.321620e+001
1.121795e+003, 6.363136e+001
1.122277e+003, 6.375702e+001
1.122759e+003, 6.364333e+001
1.123241e+003, 6.340295e+001
1.123724e+003, 6.293953e+001
1.124206e+003, 6.258075e+001
1.124688e+003, 6.236137e+001
1.125170e+003, 6.226997e+001
1.125652e+003, 6.236754e+001
1.126134e+003, 6.259792e+001
1.126616e+003, 6.262928e+001
1.127098e+003, 6.249451e+001
1.127580e+003, 6.240762e+001
1.128063e+003, 6.262661e+001
1.128545e+003, 6.274776e+001
1.129027e+003, 6.256514e+001
1.129509e+003, 6.221836e+001
1.129991e+003, 6.180260e+001
1.130473e+003, 6.132586e+001
1.130955e+003, 6.116456e+001
1.131437e+003, 6.135467e+001
1.131920e+003, 6.165316e+001
1.132402e+003, 6.212203e+001
1.132884e+003, 6.240965e+001
1.133366e+003, 6.210429e+001
1.133848e+003, 6.140902e+001
1.134330e+003, 6.105889e+001
1.134812e+003, 6.109194e+001
1.135294e+003, 6.118508e+001
1.135776e+003, 6.129929e+001
1.136259e+003, 6.133582e+001
1.136741e+003, 6.102810e+001
1.137223e+003, 6.070076e+001
1.137705e+003, 6.077269e+001
1.138187e+003, 6.131331e+001
1.138669e+003, 6.151075e+001
1.139151e+003, 6.127785e+001
1.139633e+003, 6.096637e+001
1.140115e+003, 6.063638e+001
1.140598e+003, 6.040682e+001
1.141080e+003, 6.053987e+001
1.141562e+003, 6.085835e+001
1.142044e+003, 6.108350e+001
1.142526e+003, 6.112103e+001
1.143008e+003, 6.117887e+001
1.143490e+003, 6.127382e+001
1.143972e+003, 6.139449e+001
1.144455e+003, 6.158805e+001
1.144937e+003, 6.176434e+001
1.145419e+003, 6.165932e+001
1.145901e+003, 6.136263e+001
1.146383e+003, 6.110461e+001
1.146865e+003, 6.106964e+001
1.147347e+003, 6.089977e+001
1.147829e+003, 6.043284e+001
1.148312e+003, 5.997873e+001
1.148794e+003, 5.982525e+001
1.149276e+003, 5.989923e+001
1.149758e+003, 5.981190e+001
1.150240e+003, 5.960519e+001
1.150722e+003, 5.951525e+001
1.151204e+003, 5.982867e+001
1.151686e+003, 6.006713e+001
1.152168e+003, 6.002356e+001
1.152651e+003, 5.987481e+001
1.153133e+003, 5.981030e+001
1.153615e+003, 5.982479e+001
1.154097e+003, 5.987592e+001
1.154579e+003, 5.995847e+001
1.155061e+003, 6.003421e+001
1.155543e+003, 6.018953e+001
1.156025e+003, 6.021519e+001
1.156507e+003, 5.984481e+001
1.156990e+003, 5.931697e+001
1.157472e+003, 5.906909e+001
1.157954e+003, 5.910215e+001
1.158436e+003, 5.930824e+001
1.158918e+003, 5.969435e+001
1.159400e+003, 5.997554e+001
1.159882e+003, 5.977150e+001
1.160364e+003, 5.950116e+001
1.160847e+003, 5.955367e+001
1.161329e+003, 5.984235e+001
1.161811e+003, 5.986050e+001
1.162293e+003, 5.958424e+001
1.162775e+003, 5.928670e+001
1.163257e+003, 5.900312e+001
1.163739e+003, 5.884135e+001
1.164221e+003, 5.902768e+001
1.164703e+003, 5.930778e+001
1.165186e+003, 5.943483e+001
1.165668e+003, 5.938006e+001
1.166150e+003, 5.923431e+001
1.166632e+003, 5.898374e+001
1.167114e+003, 5.872385e+001
1.167596e+003, 5.845559e+001
1.168078e+003, 5.826608e+001
1.168560e+003, 5.838799e+001
1.169042e+003, 5.860267e+001
1.169525e+003, 5.857440e+001
1.170007e+003, 5.812651e+001
1.170489e+003, 5.797138e+001
1.170971e+003, 5.818219e+001
1.171453e+003, 5.841137e+001
1.171935e+003, 5.843245e+001
1.172417e+003, 5.842270e+001
1.172899e+003, 5.880811e+001
1.173382e+003, 5.932705e+001
1.173864e+003, 5.949062e+001
1.174346e+003, 5.899234e+001
1.174828e+003, 5.842145e+001
1.175310e+003, 5.764412e+001
1.175792e+003, 5.717076e+001
1.176274e+003, 5.752583e+001
1.176756e+003, 5.833649e+001
1.177239e+003, 5.911281e+001
1.177721e+003, 5.973655e+001
1.178203e+003, 5.991962e+001
1.178685e+003, 5.907574e+001
1.179167e+003, 5.852256e+001
1.179649e+003, 5.837285e+001
1.180131e+003, 5.844792e+001
1.180613e+003, 5.879167e+001
1.181095e+003, 5.916255e+001
1.181578e+003, 5.879126e+001
1.182060e+003, 5.788081e+001
1.182542e+003, 5.737796e+001
1.183024e+003, 5.805501e+001
1.183506e+003, 5.857726e+001
1.183988e+003, 5.873792e+001
1.184470e+003, 5.871984e+001
1.184952e+003, 5.875396e+001
1.185434e+003, 5.877305e+001
1.185917e+003, 5.843164e+001
1.186399e+003, 5.779865e+001
1.186881e+003, 5.761737e+001
1.187363e+003, 5.881587e+001
1.187845e+003, 5.965329e+001
1.188327e+003, 5.964126e+001
1.188809e+003, 5.926326e+001
1.189291e+003, 5.927005e+001
1.189774e+003, 5.951477e+001
1.190256e+003, 5.954800e+001
1.190738e+003, 5.931903e+001
1.191220e+003, 5.901685e+001
1.191702e+003, 5.864865e+001
1.192184e+003, 5.830900e+001
1.192666e+003, 5.801066e+001
1.193148e+003, 5.777536e+001
1.193630e+003, 5.768819e+001
1.194113e+003, 5.770184e+001
1.194595e+003, 5.762427e+001
1.195077e+003, 5.740902e+001
1.195559e+003, 5.730407e+001
1.196041e+003, 5.751466e+001
1.196523e+003, 5.776842e+001
1.197005e+003, 5.800541e+001
1.197487e+003, 5.817804e+001
1.197969e+003, 5.810617e+001
1.198452e+003, 5.785308e+001
1.198934e+003, 5.763500e+001
1.199416e+003, 5.749281e+001
1.199898e+003, 5.745002e+001
1.200380e+003, 5.767538e+001
1.200862e+003, 5.781850e+001
1.201344e+003, 5.764834e+001
1.201826e+003, 5.730226e+001
1.202309e+003, 5.732786e+001
1.202791e+003, 5.763369e+001
1.203273e+003, 5.787566e+001
1.203755e+003, 5.799500e+001
1.204237e+003, 5.790941e+001
1.204719e+003, 5.735103e+001
1.205201e+003, 5.681181e+001
1.205683e+003, 5.656354e+001
1.206166e+003, 5.656286e+001
1.206648e+003, 5.666852e+001
1.207130e+003, 5.683385e+001
1.207612e+003, 5.685213e+001
1.208094e+003, 5.658830e+001
1.208576e+003, 5.629780e+001
1.209058e+003, 5.588824e+001
1.209540e+003, 5.570376e+001
1.210022e+003, 5.611024e+001
1.210505e+003, 5.695057e+001
1.210987e+003, 5.712991e+001
1.211469e+003, 5.678324e+001
1.211951e+003, 5.653906e+001
1.212433e+003, 5.676173e+001
1.212915e+003, 5.698053e+001
1.213397e+003, 5.702912e+001
1.213879e+003, 5.699284e+001
1.214361e+003, 5.690609e+001
1.214844e+003, 5.677903e+001
1.215326e+003, 5.666808e+001
1.215808e+003, 5.658110e+001
1.216290e+003, 5.655523e+001
1.216772e+003, 5.677413e+001
1.217254e+003, 5.683149e+001
1.217736e+003, 5.647634e+001
1.218218e+003, 5.605125e+001
1.218701e+003, 5.591355e+001
1.219183e+003, 5.598198e+001
1.219665e+003, 5.553890e+001
1.220147e+003, 5.471796e+001
1.220629e+003, 5.425561e+001
1.221111e+003, 5.493103e+001
1.221593e+003, 5.545369e+001
1.222075e+003, 5.536786e+001
1.222557e+003, 5.510686e+001
1.223040e+003, 5.508205e+001
1.223522e+003, 5.525867e+001
1.224004e+003, 5.553188e+001
1.224486e+003, 5.586336e+001
1.224968e+003, 5.605172e+001
1.225450e+003, 5.590757e+001
1.225932e+003, 5.571863e+001
1.226414e+003, 5.550777e+001
1.226896e+003, 5.535002e+001
1.227379e+003, 5.540928e+001
1.227861e+003, 5.558933e+001
1.228343e+003, 5.545296e+001
1.228825e+003, 5.504828e+001
1.229307e+003, 5.483421e+001
1.229789e+003, 5.528762e+001
1.230271e+003, 5.558350e+001
1.230753e+003, 5.550987e+001
1.231236e+003, 5.526382e+001
1.231718e+003, 5.503472e+001
1.232200e+003, 5.485098e+001
1.232682e+003, 5.483148e+001
1.233164e+003, 5.496359e+001
1.233646e+003, 5.508260e+001
1.234128e+003, 5.506347e+001
1.234610e+003, 5.515042e+001
1.235093e+003, 5.554572e+001
1.235575e+003, 5.578059e+001
1.236057e+003, 5.489707e+001
1.236539e+003, 5.347740e+001
1.237021e+003, 5.286386e+001
1.237503e+003, 5.310984e+001
1.237985e+003, 5.351029e+001
1.238467e+003, 5.404519e+001
1.238949e+003, 5.438813e+001
1.239432e+003, 5.445349e+001
1.239914e+003, 5.437698e+001
1.240396e+003, 5.433328e+001
1.240878e+003, 5.428521e+001
1.241360e+003, 5.413060e+001
1.241842e+003, 5.387306e+001
1.242324e+003, 5.371123e+001
1.242806e+003, 5.364256e+001
1.243288e+003, 5.376157e+001
1.243771e+003, 5.412978e+001
1.244253e+003, 5.457806e+001
1.244735e+003, 5.507700e+001
1.245217e+003, 5.541269e+001
1.245699e+003, 5.506498e+001
1.246181e+003, 5.405732e+001
1.246663e+003, 5.365354e+001
1.247145e+003, 5.425307e+001
1.247628e+003, 5.454025e+001
1.248110e+003, 5.416719e+001
1.248592e+003, 5.365470e+001
1.249074e+003, 5.367500e+001
1.249556e+003, 5.392421e+001
1.250038e+003, 5.405719e+001
1.250520e+003, 5.404286e+001
1.251002e+003, 5.399023e+001
1.251484e+003, 5.384478e+001
1.251967e+003, 5.400112e+001
1.252449e+003, 5.466248e+001
1.252931e+003, 5.517501e+001
1.253413e+003, 5.444054e+001
1.253895e+003, 5.347880e+001
1.254377e+003, 5.345684e+001
1.254859e+003, 5.435191e+001
1.255341e+003, 5.485717e+001
1.255823e+003, 5.495435e+001
1.256306e+003, 5.476238e+001
1.256788e+003, 5.425806e+001
1.257270e+003, 5.374417e+001
1.257752e+003, 5.345384e+001
1.258234e+003, 5.331971e+001
1.258716e+003, 5.335047e+001
1.259198e+003, 5.349449e+001
1.259680e+003, 5.352472e+001
1.260163e+003, 5.344006e+001
1.260645e+003, 5.337336e+001
1.261127e+003, 5.333663e+001
1.261609e+003, 5.343176e+001
1.262091e+003, 5.403573e+001
1.262573e+003, 5.450325e+001
1.263055e+003, 5.431910e+001
1.263537e+003, 5.367464e+001
1.264020e+003, 5.312631e+001
1.264502e+003, 5.270424e+001
1.264984e+003, 5.278157e+001
1.265466e+003, 5.354165e+001
1.265948e+003, 5.408040e+001
1.266430e+003, 5.355650e+001
1.266912e+003, 5.300587e+001
1.267394e+003, 5.295946e+001
1.267876e+003, 5.325055e+001
1.268359e+003, 5.354213e+001
1.268841e+003, 5.377022e+001
1.269323e+003, 5.358905e+001
1.269805e+003, 5.284481e+001
1.270287e+003, 5.240072e+001
1.270769e+003, 5.310720e+001
1.271251e+003, 5.353611e+001
1.271733e+003, 5.304844e+001
1.272215e+003, 5.220653e+001
1.272698e+003, 5.240398e+001
1.273180e+003, 5.316994e+001
1.273662e+003, 5.337767e+001
1.274144e+003, 5.275144e+001
1.274626e+003, 5.231575e+001
1.275108e+003, 5.235215e+001
1.275590e+003, 5.238578e+001
1.276072e+003, 5.222104e+001
1.276555e+003, 5.206746e+001
1.277037e+003, 5.239640e+001
1.277519e+003, 5.291026e+001
1.278001e+003, 5.312274e+001
1.278483e+003, 5.292676e+001
1.278965e+003, 5.287284e+001
1.279447e+003, 5.308372e+001
1.279929e+003, 5.303916e+001
1.280411e+003, 5.246616e+001
1.280894e+003, 5.191199e+001
1.281376e+003, 5.228975e+001
1.281858e+003, 5.290017e+001
1.282340e+003, 5.286256e+001
1.282822e+003, 5.213765e+001
1.283304e+003, 5.173682e+001
1.283786e+003, 5.168599e+001
1.284268e+003, 5.166264e+001
1.284750e+003, 5.154702e+001
1.285233e+003, 5.157654e+001
1.285715e+003, 5.208309e+001
1.286197e+003, 5.273269e+001
1.286679e+003, 5.339635e+001
1.287161e+003, 5.396827e+001
1.287643e+003, 5.386987e+001
1.288125e+003, 5.315788e+001
1.288607e+003, 5.254414e+001
1.289090e+003, 5.219903e+001
1.289572e+003, 5.199017e+001
1.290054e+003, 5.178301e+001
1.290536e+003, 5.177464e+001
1.291018e+003, 5.215866e+001
1.291500e+003, 5.271651e+001
1.291982e+003, 5.280457e+001
1.292464e+003, 5.253180e+001
1.292947e+003, 5.226085e+001
1.293429e+003, 5.204943e+001
1.293911e+003, 5.197581e+001
1.294393e+003, 5.225346e+001
1.294875e+003, 5.243440e+001
1.295357e+003, 5.235803e+001
1.295839e+003, 5.214837e+001
1.296321e+003, 5.196041e+001
1.296803e+003, 5.184959e+001
1.297286e+003, 5.198435e+001
1.297768e+003, 5.240254e+001
1.298250e+003, 5.262553e+001
1.298732e+003, 5.256440e+001
1.299214e+003, 5.239791e+001
1.299696e+003, 5.213654e+001
1.300178e+003, 5.190383e+001
1.300660e+003, 5.183299e+001
##END=



