##NAMES=Edenite
##RRUFFID=R050415
##IDEAL CHEMISTRY=NaCa_2_Mg_5_(Si_7_Al)O_22_(OH)_2_
##LOCALITY=Mogok, Burma
##OWNER=RRUFF
##SOURCE=Marcus Origlieri
##DESCRIPTION=Transparent pale green water worn fragment
##STATUS=The identification of this mineral has been confirmed by X-ray diffraction and chemical analysis
##URL=rruff.info/R050415
##MEASURED CHEMISTRY=(Na_0.83_K_0.17_)(Ca_1.76_Na_0.24_)_&#931;=2_(Mg_4.54_Al_0.40_Fe^3+^_0.06_)_&#931;=5_(Si_6.74_Al_1.26_)O_22_((OH)_0.52_F_0.48_)_2_
92.52344, 527.2234
93.00555, 521.8054
93.48767, 522.7180
93.96979, 542.3561
94.45190, 562.2884
94.93402, 580.7742
95.41614, 589.8076
95.89825, 591.6686
96.38037, 591.0183
96.86249, 588.3260
97.34460, 585.2718
97.82672, 582.8236
98.30884, 580.1498
98.79095, 577.0679
99.27307, 572.9821
99.75519, 567.9604
100.2373, 563.9384
100.7194, 561.0896
101.2015, 557.9935
101.6837, 553.5118
102.1658, 549.3573
102.6479, 546.8339
103.1300, 545.9611
103.6121, 545.9003
104.0942, 545.9211
104.5764, 546.2247
105.0585, 547.4163
105.5406, 550.2752
106.0227, 554.1957
106.5048, 557.2048
106.9869, 558.2792
107.4691, 559.5455
107.9512, 561.9791
108.4333, 565.3876
108.9154, 569.2486
109.3975, 573.1992
109.8796, 577.2410
110.3618, 581.2450
110.8439, 585.3327
111.3260, 589.2676
111.8081, 592.8306
112.2902, 596.0331
112.7723, 599.1356
113.2544, 602.5131
113.7366, 606.4700
114.2187, 610.1374
114.7008, 613.5599
115.1829, 616.7061
115.6650, 619.4994
116.1471, 621.9209
116.6293, 624.0545
117.1114, 626.1846
117.5935, 629.2117
118.0756, 630.6888
118.5577, 629.4515
119.0398, 626.1766
119.5220, 622.4608
120.0041, 619.0596
120.4862, 615.5460
120.9683, 611.2059
121.4504, 605.9443
121.9325, 600.0648
122.4147, 593.8431
122.8968, 587.2923
123.3789, 580.1925
123.8610, 571.7441
124.3431, 562.8901
124.8252, 554.5403
125.3074, 547.0419
125.7895, 540.1115
126.2716, 533.1305
126.7537, 525.9420
127.2358, 519.0991
127.7179, 512.4769
128.2001, 506.2827
128.6822, 500.7329
129.1643, 496.0390
129.6464, 492.1377
130.1285, 488.4731
130.6107, 485.0941
131.0928, 481.9112
131.5749, 478.9948
132.0570, 476.2897
132.5391, 473.6454
133.0212, 470.9238
133.5034, 468.0489
133.9855, 465.6592
134.4676, 463.7033
134.9497, 462.1544
135.4318, 461.2093
135.9139, 460.8052
136.3960, 460.4385
136.8782, 459.4750
137.3603, 457.7306
137.8424, 456.4077
138.3245, 455.8052
138.8066, 455.5704
139.2887, 455.3813
139.7709, 455.2184
140.2530, 454.9067
140.7351, 453.9010
141.2172, 452.2610
141.6993, 451.2462
142.1814, 452.1830
142.6636, 454.3813
143.1457, 455.0988
143.6278, 452.6220
144.1099, 449.7544
144.5920, 449.1529
145.0741, 450.8083
145.5563, 452.5615
146.0384, 452.1803
146.5205, 449.3181
147.0026, 447.3128
147.4847, 447.5626
147.9668, 448.3306
148.4490, 448.7722
148.9311, 448.6932
149.4132, 448.3601
149.8953, 448.1371
150.3774, 447.9696
150.8595, 448.0566
151.3417, 448.5789
151.8238, 449.2121
152.3059, 449.6772
152.7880, 449.8704
153.2701, 449.9174
153.7522, 450.1335
154.2344, 450.4511
154.7165, 451.0573
155.1986, 452.2213
155.6807, 453.6073
156.1628, 454.7756
156.6449, 455.4883
157.1271, 455.8797
157.6092, 456.4977
158.0913, 457.1144
158.5734, 458.1450
159.0555, 459.8661
159.5376, 462.1183
160.0198, 464.5374
160.5019, 467.0307
160.9840, 469.4662
161.4661, 471.4336
161.9482, 472.6081
162.4303, 473.6830
162.9125, 475.1342
163.3946, 476.9461
163.8767, 478.7921
164.3588, 480.6928
164.8409, 482.4076
165.3230, 483.5481
165.8052, 483.9101
166.2873, 483.7878
166.7694, 483.5631
167.2515, 483.2870
167.7336, 482.7159
168.2157, 481.5178
168.6979, 480.0326
169.1800, 478.6060
169.6621, 477.3265
170.1442, 476.2437
170.6263, 475.5331
171.1084, 475.4727
171.5906, 475.3612
172.0727, 475.1249
172.5548, 474.6789
173.0369, 473.7849
173.5190, 472.1139
174.0011, 469.8881
174.4833, 469.0015
174.9654, 470.9375
175.4475, 472.8621
175.9296, 474.2303
176.4117, 475.1450
176.8938, 475.8865
177.3760, 476.6299
177.8581, 477.3676
178.3402, 478.4167
178.8223, 479.9644
179.3044, 481.5968
179.7865, 483.2712
180.2687, 484.9247
180.7508, 486.4249
181.2329, 487.6302
181.7150, 488.5108
182.1971, 489.4924
182.6792, 490.6790
183.1614, 491.8654
183.6435, 493.0052
184.1256, 494.0669
184.6077, 494.9344
185.0898, 495.4746
185.5719, 495.6491
186.0541, 495.7907
186.5362, 495.9404
187.0183, 496.0341
187.5004, 496.2987
187.9825, 496.8109
188.4646, 496.5841
188.9468, 494.1766
189.4289, 490.0893
189.9110, 486.2093
190.3931, 482.9838
190.8752, 480.2065
191.3573, 477.5290
191.8395, 474.8981
192.3216, 472.4641
192.8037, 470.4165
193.2858, 468.6544
193.7679, 466.9678
194.2500, 465.2408
194.7322, 463.5219
195.2143, 461.9190
195.6964, 460.3820
196.1785, 459.0895
196.6606, 458.1529
197.1427, 457.4849
197.6249, 456.9142
198.1070, 456.4137
198.5891, 455.9532
199.0712, 455.2111
199.5533, 453.8184
200.0354, 452.5386
200.5176, 451.5289
200.9997, 450.8470
201.4818, 450.5944
201.9639, 450.9370
202.4460, 451.8923
202.9281, 452.6981
203.4103, 453.2234
203.8924, 453.7018
204.3745, 454.1213
204.8566, 454.5415
205.3387, 455.0245
205.8208, 455.5577
206.3030, 456.0630
206.7851, 457.4570
207.2672, 461.1262
207.7493, 464.3093
208.2314, 465.6715
208.7135, 465.4525
209.1957, 464.6993
209.6778, 464.2578
210.1599, 464.0747
210.6420, 464.8313
211.1241, 466.7442
211.6062, 469.1835
212.0884, 472.2995
212.5705, 475.8171
213.0526, 478.8260
213.5347, 480.4271
214.0168, 480.4009
214.4989, 480.7143
214.9811, 481.1540
215.4632, 482.0531
215.9453, 483.8571
216.4274, 486.5162
216.9095, 489.2900
217.3916, 491.5595
217.8737, 493.3048
218.3559, 495.0445
218.8380, 496.9052
219.3201, 498.7089
219.8022, 500.2680
220.2843, 501.5710
220.7664, 502.8226
221.2486, 504.0778
221.7307, 505.4150
222.2128, 507.0908
222.6949, 509.4122
223.1770, 511.9557
223.6591, 514.1371
224.1413, 515.8649
224.6234, 517.7656
225.1055, 520.6146
225.5876, 523.9299
226.0697, 526.8287
226.5518, 529.1007
227.0340, 530.8065
227.5161, 531.9388
227.9982, 532.3925
228.4803, 532.6220
228.9624, 532.5864
229.4445, 532.5522
229.9267, 532.9229
230.4088, 533.9265
230.8909, 535.3459
231.3730, 536.7295
231.8551, 537.9570
232.3372, 539.4690
232.8194, 541.6625
233.3015, 544.1627
233.7836, 546.4442
234.2657, 548.1028
234.7478, 549.7222
235.2299, 552.8980
235.7121, 558.9254
236.1942, 563.8968
236.6763, 566.5906
237.1584, 567.8735
237.6405, 568.4863
238.1227, 568.6685
238.6048, 568.6569
239.0869, 569.1571
239.5690, 570.9069
240.0511, 571.8217
240.5332, 571.2107
241.0154, 569.8542
241.4975, 568.5472
241.9796, 567.6355
242.4617, 566.8275
242.9438, 565.4031
243.4259, 563.0891
243.9081, 560.4981
244.3902, 557.5123
244.8723, 554.4158
245.3544, 551.4268
245.8365, 548.6227
246.3186, 546.0428
246.8008, 543.7625
247.2829, 542.0987
247.7650, 540.2985
248.2471, 538.3220
248.7292, 536.2073
249.2113, 533.9378
249.6935, 531.5192
250.1756, 529.0582
250.6577, 526.7724
251.1398, 524.9985
251.6219, 522.9073
252.1040, 520.6233
252.5862, 517.9900
253.0683, 514.7206
253.5504, 510.7850
254.0325, 506.5793
254.5146, 502.7575
254.9967, 499.6192
255.4789, 496.3842
255.9610, 492.7255
256.4431, 489.1780
256.9252, 486.2934
257.4073, 484.1739
257.8894, 482.3805
258.3716, 480.3376
258.8537, 477.9736
259.3358, 475.4886
259.8179, 472.6098
260.3000, 469.7653
260.7821, 467.3474
261.2643, 465.4127
261.7464, 463.7256
262.2285, 462.0312
262.7106, 460.3065
263.1927, 458.6713
263.6748, 457.1475
264.1570, 455.7011
264.6391, 454.2997
265.1212, 452.9406
265.6033, 451.6737
266.0854, 450.5834
266.5675, 449.6819
267.0497, 448.7309
267.5318, 447.5679
268.0139, 446.4662
268.4960, 445.6936
268.9781, 445.2529
269.4602, 444.8740
269.9424, 444.3698
270.4245, 443.7502
270.9066, 443.1349
271.3887, 442.4305
271.8708, 441.8055
272.3529, 441.4014
272.8351, 441.2113
273.3172, 441.1594
273.7993, 441.3457
274.2814, 441.5897
274.7635, 441.3719
275.2456, 440.2602
275.7278, 439.1609
276.2099, 438.9162
276.6920, 439.3999
277.1741, 439.5171
277.6562, 438.5048
278.1383, 436.9627
278.6205, 436.1093
279.1026, 436.0199
279.5847, 436.4312
280.0668, 437.4924
280.5489, 439.0526
281.0310, 440.1633
281.5132, 440.3409
281.9953, 440.0370
282.4774, 439.8869
282.9595, 439.8788
283.4416, 440.0694
283.9237, 440.6346
284.4059, 441.4668
284.8880, 442.1225
285.3701, 442.4799
285.8522, 442.6281
286.3343, 442.5617
286.8164, 442.2960
287.2986, 442.2611
287.7807, 442.8544
288.2628, 443.8816
288.7449, 444.6761
289.2270, 445.0444
289.7091, 445.3590
290.1913, 445.9816
290.6734, 446.8274
291.1555, 447.6078
291.6376, 448.0726
292.1197, 448.3824
292.6018, 448.9657
293.0840, 449.9471
293.5661, 450.9451
294.0482, 451.6651
294.5303, 452.2253
295.0124, 452.8596
295.4945, 453.8071
295.9767, 454.7964
296.4588, 455.2558
296.9409, 455.0215
297.4230, 454.8209
297.9051, 454.9882
298.3872, 455.4229
298.8694, 456.1224
299.3515, 457.2731
299.8336, 458.3650
300.3157, 458.5865
300.7978, 457.7725
301.2799, 457.0948
301.7621, 457.2871
302.2442, 457.6689
302.7263, 457.5792
303.2084, 456.8391
303.6905, 455.9844
304.1726, 455.6171
304.6548, 455.7636
305.1369, 455.7793
305.6190, 455.5024
306.1011, 455.0295
306.5832, 454.3353
307.0653, 453.4370
307.5475, 452.6638
308.0296, 452.4300
308.5117, 452.6716
308.9938, 452.5570
309.4759, 451.6740
309.9580, 450.7780
310.4402, 450.2720
310.9223, 450.1531
311.4044, 450.3779
311.8865, 451.0878
312.3686, 452.1587
312.8507, 453.0591
313.3329, 453.7320
313.8150, 454.3043
314.2971, 454.9036
314.7792, 455.4626
315.2613, 455.8260
315.7434, 455.7531
316.2256, 455.5523
316.7077, 455.9966
317.1898, 457.3795
317.6719, 458.5968
318.1540, 458.9562
318.6361, 458.9748
319.1183, 459.1982
319.6004, 459.8141
320.0825, 460.6138
320.5646, 461.3832
321.0467, 462.1508
321.5288, 462.7040
322.0110, 462.7208
322.4931, 462.6470
322.9752, 462.9354
323.4573, 463.6669
323.9394, 464.2708
324.4215, 464.1750
324.9037, 463.3926
325.3858, 462.4713
325.8679, 461.4059
326.3500, 460.3199
326.8321, 459.2840
327.3142, 458.3009
327.7964, 457.3770
328.2785, 456.5727
328.7606, 455.8498
329.2427, 454.9825
329.7248, 453.8380
330.2069, 452.7686
330.6891, 452.0000
331.1712, 451.4527
331.6533, 450.9679
332.1354, 450.5106
332.6175, 450.0530
333.0996, 449.5210
333.5818, 448.8781
334.0639, 448.2697
334.5460, 447.9833
335.0281, 447.6988
335.5102, 446.9290
335.9923, 445.3224
336.4745, 443.7088
336.9566, 443.1796
337.4387, 443.8037
337.9208, 444.3534
338.4029, 444.2837
338.8850, 444.0751
339.3671, 444.2634
339.8492, 444.9222
340.3314, 445.5247
340.8135, 445.7395
341.2956, 445.5786
341.7777, 445.0930
342.2598, 444.2445
342.7419, 443.1136
343.2241, 441.5839
343.7062, 439.7682
344.1883, 438.3051
344.6704, 437.5668
345.1525, 437.3783
345.6346, 437.4550
346.1168, 437.8871
346.5989, 438.2421
347.0810, 438.1956
347.5631, 437.8549
348.0452, 437.3147
348.5273, 436.1776
349.0095, 435.2296
349.4916, 435.7755
349.9737, 437.8603
350.4558, 439.2480
350.9379, 438.3522
351.4200, 436.4489
351.9022, 435.6820
352.3843, 436.4641
352.8664, 437.5070
353.3485, 438.0189
353.8306, 438.0959
354.3127, 438.0734
354.7949, 437.9495
355.2770, 437.9158
355.7591, 438.2495
356.2412, 438.9336
356.7233, 439.6737
357.2054, 440.5299
357.6876, 441.3241
358.1697, 441.5779
358.6518, 441.1214
359.1339, 440.9199
359.6160, 442.1021
360.0981, 444.3758
360.5803, 446.0905
361.0624, 446.5847
361.5445, 446.7967
362.0266, 447.4371
362.5087, 448.4914
362.9908, 449.7412
363.4730, 451.1863
363.9551, 452.6666
364.4372, 453.7284
364.9193, 454.1494
365.4014, 454.5560
365.8835, 455.2544
366.3657, 456.1100
366.8478, 456.8437
367.3299, 457.3485
367.8120, 457.7494
368.2941, 458.2551
368.7762, 458.9035
369.2584, 459.4757
369.7405, 460.0777
370.2226, 460.5085
370.7047, 460.5003
371.1868, 460.0417
371.6689, 459.4391
372.1511, 458.9591
372.6332, 458.6093
373.1153, 458.1761
373.5974, 457.4926
374.0795, 456.8966
374.5616, 456.5281
375.0438, 456.3768
375.5259, 456.3971
376.0080, 456.5717
376.4901, 456.8834
376.9722, 457.2797
377.4543, 458.2607
377.9365, 458.6821
378.4186, 457.6705
378.9007, 456.3787
379.3828, 456.2658
379.8649, 457.6767
380.3470, 459.5865
380.8292, 460.5415
381.3113, 460.1082
381.7934, 459.9758
382.2755, 460.2165
382.7576, 460.6502
383.2397, 461.1193
383.7219, 461.6760
384.2040, 462.5607
384.6861, 464.0265
385.1682, 466.0108
385.6503, 467.4379
386.1324, 467.4984
386.6146, 467.8845
387.0967, 468.9683
387.5788, 470.5118
388.0609, 472.2919
388.5430, 474.2039
389.0251, 476.0881
389.5073, 477.6358
389.9894, 478.8048
390.4715, 479.6880
390.9536, 480.0625
391.4357, 480.3688
391.9178, 480.7545
392.4000, 481.3106
392.8821, 482.2377
393.3642, 483.9955
393.8463, 486.6435
394.3284, 488.0698
394.8105, 487.4843
395.2927, 486.4976
395.7748, 485.5986
396.2569, 484.7048
396.7390, 483.6441
397.2211, 482.3479
397.7032, 480.7994
398.1854, 478.9005
398.6675, 476.4878
399.1496, 474.2069
399.6317, 472.4760
400.1138, 470.7896
400.5959, 468.6972
401.0781, 466.1357
401.5602, 463.5489
402.0423, 461.3931
402.5244, 459.6322
403.0065, 457.7227
403.4886, 455.1725
403.9708, 453.1481
404.4529, 452.8487
404.9350, 453.7070
405.4171, 454.1295
405.8992, 453.5084
406.3813, 452.0215
406.8635, 449.7057
407.3456, 446.4536
407.8277, 443.3073
408.3098, 440.6540
408.7919, 438.4772
409.2740, 436.6494
409.7562, 435.0627
410.2383, 434.0762
410.7204, 434.4419
411.2025, 435.6128
411.6846, 435.9221
412.1667, 434.8300
412.6489, 433.1211
413.1310, 431.5040
413.6131, 429.9504
414.0952, 429.0842
414.5773, 429.5936
415.0594, 430.4453
415.5416, 430.7619
416.0237, 430.5028
416.5058, 429.8671
416.9879, 428.8291
417.4700, 427.5688
417.9521, 427.0664
418.4343, 427.7829
418.9164, 428.5587
419.3985, 429.0953
419.8806, 429.4948
420.3627, 429.9658
420.8448, 430.5728
421.3270, 431.0738
421.8091, 431.0714
422.2912, 430.2831
422.7733, 429.7904
423.2554, 429.6284
423.7375, 429.7015
424.2197, 430.2411
424.7018, 431.0143
425.1839, 431.3765
425.6660, 430.8272
426.1481, 429.5069
426.6302, 428.3424
427.1124, 427.3458
427.5945, 426.5291
428.0766, 426.1820
428.5587, 425.8729
429.0408, 425.1056
429.5229, 423.7557
430.0051, 422.1725
430.4872, 420.8353
430.9693, 419.8014
431.4514, 418.8036
431.9335, 417.9053
432.4156, 416.9779
432.8978, 415.7962
433.3799, 414.5328
433.8620, 413.6244
434.3441, 413.4853
434.8262, 413.7794
435.3083, 413.5355
435.7905, 412.6517
436.2726, 411.5066
436.7547, 409.8851
437.2368, 408.2398
437.7189, 406.9960
438.2010, 406.2419
438.6832, 405.7259
439.1653, 405.3321
439.6474, 405.0246
440.1295, 404.5571
440.6116, 403.7624
441.0938, 403.0572
441.5759, 402.8940
442.0580, 403.1227
442.5401, 403.3156
443.0222, 403.3491
443.5043, 403.2979
443.9865, 403.2481
444.4686, 403.1919
444.9507, 403.0714
445.4328, 402.9004
445.9149, 402.6016
446.3970, 401.8967
446.8792, 400.4827
447.3613, 399.5772
447.8434, 400.0511
448.3255, 400.9644
448.8076, 400.9987
449.2897, 399.9795
449.7719, 398.9362
450.2540, 398.8896
450.7361, 399.9067
451.2182, 400.5491
451.7003, 400.7374
452.1824, 400.7062
452.6646, 400.3895
453.1467, 399.9449
453.6288, 399.6817
454.1109, 399.7357
454.5930, 399.8464
455.0751, 399.4183
455.5573, 397.7436
456.0394, 396.9449
456.5215, 397.4787
457.0036, 398.3431
457.4857, 399.0213
457.9678, 399.4837
458.4500, 399.9449
458.9321, 400.6137
459.4142, 401.4011
459.8963, 401.8192
460.3784, 401.9449
460.8605, 401.5186
461.3427, 399.6809
461.8248, 397.7505
462.3069, 397.2365
462.7890, 398.5112
463.2711, 400.1341
463.7532, 400.5268
464.2354, 399.7899
464.7175, 399.3054
465.1996, 399.3154
465.6817, 399.4628
466.1638, 399.5234
466.6459, 399.5170
467.1281, 399.4818
467.6102, 399.3049
468.0923, 399.2148
468.5744, 399.5599
469.0565, 400.2925
469.5386, 400.9180
470.0208, 401.2478
470.5029, 401.3604
470.9850, 401.3413
471.4671, 401.1498
471.9492, 401.0624
472.4313, 401.3513
472.9135, 401.6606
473.3956, 401.4670
473.8777, 400.7950
474.3598, 400.2896
474.8419, 400.5057
475.3240, 401.3401
475.8062, 401.7438
476.2883, 401.5382
476.7704, 401.1962
477.2525, 400.6454
477.7346, 400.0838
478.2167, 399.7708
478.6989, 399.7628
479.1810, 399.8808
479.6631, 399.8958
480.1452, 399.7801
480.6273, 399.6974
481.1094, 399.4295
481.5916, 399.4198
482.0737, 399.9961
482.5558, 400.8991
483.0379, 401.7077
483.5200, 402.2301
484.0021, 402.5175
484.4843, 402.6641
484.9664, 402.6691
485.4485, 402.5208
485.9306, 401.8412
486.4127, 401.3397
486.8948, 401.6928
487.3770, 402.7529
487.8591, 403.6143
488.3412, 403.4791
488.8233, 402.8873
489.3054, 403.0578
489.7875, 404.1080
490.2697, 404.8078
490.7518, 404.2829
491.2339, 403.1413
491.7160, 402.6778
492.1981, 403.1487
492.6802, 403.5522
493.1624, 403.4738
493.6445, 403.0660
494.1266, 402.3430
494.6087, 401.3309
495.0908, 400.7632
495.5729, 401.4879
496.0551, 403.4720
496.5372, 404.3154
497.0193, 403.1154
497.5014, 402.0101
497.9835, 401.6235
498.4656, 401.7350
498.9478, 402.0964
499.4299, 402.5991
499.9120, 403.0775
500.3941, 403.3024
500.8762, 403.2690
501.3583, 402.9945
501.8405, 401.9277
502.3226, 401.1811
502.8047, 401.1939
503.2868, 401.8159
503.7689, 402.8489
504.2510, 404.2903
504.7331, 405.7132
505.2152, 406.1929
505.6974, 405.5346
506.1795, 405.1368
506.6616, 405.1795
507.1437, 405.7032
507.6258, 407.0681
508.1079, 409.0604
508.5901, 410.5168
509.0722, 410.5195
509.5543, 409.8415
510.0364, 409.4154
510.5185, 409.2574
511.0006, 409.7980
511.4828, 411.5581
511.9649, 413.8568
512.4470, 415.2051
512.9291, 415.4068
513.4113, 415.5494
513.8934, 415.8789
514.3755, 416.2940
514.8576, 416.6207
515.3397, 416.8846
515.8218, 417.4044
516.3040, 418.5207
516.7861, 420.0539
517.2682, 420.6911
517.7503, 419.7747
518.2324, 418.7475
518.7145, 417.4469
519.1967, 416.2582
519.6788, 415.5851
520.1609, 415.4581
520.6430, 415.5677
521.1251, 415.7051
521.6072, 415.8554
522.0894, 415.4460
522.5715, 413.9314
523.0536, 412.7277
523.5357, 412.6998
524.0178, 413.0306
524.4999, 412.6785
524.9821, 411.3250
525.4642, 409.8681
525.9463, 409.1991
526.4284, 409.1495
526.9105, 408.9390
527.3926, 408.4481
527.8748, 407.8394
528.3569, 407.1194
528.8390, 406.3771
529.3211, 405.9141
529.8032, 405.9713
530.2853, 406.0777
530.7675, 405.9185
531.2496, 405.6382
531.7317, 405.5679
532.2138, 405.8066
532.6959, 406.0882
533.1780, 406.0883
533.6602, 405.7718
534.1423, 405.3690
534.6244, 404.7559
535.1065, 404.1998
535.5886, 403.7729
536.0707, 403.4767
536.5529, 403.3376
537.0350, 403.3619
537.5171, 403.4425
537.9992, 403.4376
538.4813, 403.3673
538.9634, 403.0985
539.4456, 402.2724
539.9277, 401.6484
540.4098, 401.7106
540.8919, 402.2068
541.3740, 402.6314
541.8561, 402.7931
542.3383, 402.7943
542.8204, 402.7369
543.3025, 402.6219
543.7846, 402.4657
544.2667, 402.2860
544.7488, 402.0372
545.2310, 401.5916
545.7131, 400.9799
546.1952, 400.5247
546.6773, 400.3278
547.1594, 400.2535
547.6415, 400.3184
548.1237, 400.4326
548.6058, 400.4712
549.0879, 401.0461
549.5700, 401.3352
550.0521, 401.3539
550.5342, 400.2923
551.0164, 400.6256
551.4985, 400.4000
551.9806, 400.1514
552.4627, 400.6812
552.9448, 399.7766
553.4269, 400.2941
553.9091, 400.2439
554.3912, 400.4535
554.8733, 400.1005
555.3554, 399.9213
555.8375, 400.3049
556.3196, 400.3768
556.8018, 399.9591
557.2839, 400.1852
557.7660, 399.2611
558.2481, 399.3463
558.7302, 398.5587
559.2123, 398.4137
559.6945, 398.7385
560.1766, 399.3989
560.6587, 399.7636
561.1408, 399.6080
561.6229, 399.2044
562.1050, 398.8220
562.5872, 398.4419
563.0693, 398.3525
563.5514, 398.9536
564.0335, 399.4493
564.5156, 399.2983
564.9977, 398.7803
565.4799, 398.4179
565.9620, 398.4201
566.4441, 398.6313
566.9262, 398.8394
567.4083, 399.0896
567.8904, 399.1446
568.3726, 398.7658
568.8547, 398.4296
569.3368, 398.2257
569.8189, 398.1902
570.3010, 398.4385
570.7831, 399.0757
571.2653, 399.6861
571.7474, 399.7613
572.2295, 399.3499
572.7116, 398.7764
573.1937, 397.9662
573.6758, 397.3227
574.1580, 397.2195
574.6401, 397.5793
575.1222, 398.1087
575.6043, 399.2435
576.0864, 400.0182
576.5685, 399.5261
577.0507, 398.4789
577.5328, 398.1976
578.0149, 398.9727
578.4970, 399.8678
578.9791, 399.8045
579.4612, 398.7191
579.9434, 398.3037
580.4255, 399.3663
580.9076, 400.1619
581.3897, 400.2661
581.8718, 400.0028
582.3539, 399.6890
582.8361, 399.4151
583.3182, 399.1735
583.8003, 398.8547
584.2824, 398.5162
584.7645, 398.7139
585.2466, 399.7395
585.7288, 400.4512
586.2108, 399.8306
586.6929, 398.7715
587.1750, 398.6872
587.6572, 399.9424
588.1393, 400.9871
588.6214, 401.0530
589.1035, 400.5344
589.5856, 399.7079
590.0677, 398.7010
590.5499, 398.1516
591.0320, 398.5595
591.5141, 399.6059
591.9962, 400.1020
592.4783, 399.5249
592.9604, 399.1110
593.4426, 398.9229
593.9247, 398.8626
594.4068, 398.9666
594.8889, 399.1493
595.3710, 399.1931
595.8531, 398.9408
596.3353, 398.5009
596.8174, 398.0592
597.2995, 397.5715
597.7816, 397.3822
598.2637, 397.7769
598.7458, 398.2752
599.2280, 398.3688
599.7101, 398.1582
600.1922, 398.1996
600.6743, 399.1847
601.1564, 400.0407
601.6385, 399.4940
602.1207, 398.0539
602.6028, 397.3353
603.0849, 397.9104
603.5670, 398.9301
604.0491, 399.2790
604.5313, 398.7888
605.0134, 398.6677
605.4955, 399.0398
605.9776, 399.5831
606.4597, 400.6154
606.9418, 401.5817
607.4240, 401.5643
607.9061, 400.3872
608.3882, 399.0946
608.8703, 398.9937
609.3524, 399.9800
609.8345, 400.6349
610.3167, 400.8952
610.7988, 400.9445
611.2809, 400.5543
611.7630, 400.1549
612.2451, 400.4758
612.7272, 401.7914
613.2094, 402.8061
613.6915, 402.6245
614.1736, 401.9882
614.6557, 401.7997
615.1378, 402.1027
615.6199, 402.6022
616.1021, 403.1592
616.5842, 403.6821
617.0663, 403.8917
617.5484, 403.4810
618.0305, 403.2703
618.5126, 403.1992
618.9948, 403.3588
619.4769, 403.9637
619.9590, 404.8296
620.4411, 405.5616
620.9232, 405.9694
621.4053, 406.1381
621.8875, 406.0590
622.3696, 405.7425
622.8517, 405.9024
623.3338, 406.8988
623.8159, 407.9287
624.2980, 408.1905
624.7802, 407.9303
625.2623, 407.9474
625.7444, 408.3747
626.2265, 409.0382
626.7086, 409.9799
627.1907, 411.0609
627.6729, 412.2459
628.1550, 413.4525
628.6371, 414.1739
629.1192, 413.8500
629.6013, 412.6828
630.0834, 412.3686
630.5656, 413.3972
631.0477, 414.4876
631.5298, 415.6125
632.0119, 416.5954
632.4940, 417.2788
632.9761, 417.6821
633.4583, 417.9569
633.9404, 418.0197
634.4225, 418.1519
634.9046, 418.8951
635.3867, 420.2077
635.8688, 421.5148
636.3510, 422.6511
636.8331, 423.6932
637.3152, 424.7320
637.7973, 425.7762
638.2794, 426.7903
638.7615, 427.7162
639.2437, 428.6820
639.7258, 429.7214
640.2079, 430.8462
640.6900, 432.1180
641.1721, 433.5296
641.6542, 434.9012
642.1364, 436.0542
642.6185, 436.9936
643.1006, 437.6791
643.5827, 437.7796
644.0648, 438.3547
644.5469, 440.1231
645.0291, 442.3265
645.5112, 444.3560
645.9933, 446.1612
646.4754, 447.9090
646.9575, 449.5836
647.4396, 451.2905
647.9218, 453.1768
648.4039, 455.2142
648.8860, 457.2534
649.3681, 459.2414
649.8502, 461.2323
650.3323, 463.3102
650.8145, 465.4541
651.2966, 467.7933
651.7787, 470.6732
652.2608, 473.3338
652.7429, 475.2842
653.2250, 476.9953
653.7072, 479.0156
654.1893, 481.4997
654.6714, 484.2670
655.1535, 487.2188
655.6356, 490.3148
656.1177, 493.4427
656.5999, 496.5873
657.0820, 499.8078
657.5641, 503.1068
658.0462, 506.5131
658.5283, 510.1060
659.0104, 513.8019
659.4926, 517.9548
659.9747, 522.8835
660.4568, 528.0057
660.9389, 532.8782
661.4210, 537.6771
661.9031, 542.6979
662.3853, 548.0927
662.8674, 553.9287
663.3495, 560.4835
663.8316, 567.8324
664.3137, 574.7531
664.7958, 580.6791
665.2780, 587.1872
665.7601, 595.6068
666.2422, 604.7272
666.7243, 612.9319
667.2064, 619.8779
667.6885, 627.4990
668.1707, 637.2432
668.6528, 647.7743
669.1349, 657.7964
669.6170, 667.2156
670.0991, 676.0533
670.5812, 684.2524
671.0634, 692.1008
671.5455, 700.1569
672.0276, 708.5068
672.5097, 716.5655
672.9918, 725.3018
673.4739, 732.6099
673.9561, 737.7461
674.4382, 741.0485
674.9203, 742.7804
675.4024, 743.0031
675.8845, 742.5054
676.3666, 742.4102
676.8488, 741.9125
677.3309, 739.0970
677.8130, 733.8969
678.2951, 727.5165
678.7772, 720.3107
679.2593, 712.5504
679.7415, 704.7157
680.2236, 697.1212
680.7057, 688.3541
681.1878, 677.8718
681.6699, 666.7808
682.1520, 654.8978
682.6342, 642.9131
683.1163, 631.9473
683.5984, 622.2057
684.0805, 612.9550
684.5626, 603.3160
685.0447, 593.4094
685.5269, 583.7355
686.0090, 574.2229
686.4911, 565.2413
686.9732, 557.0321
687.4553, 549.4223
687.9374, 542.1968
688.4196, 535.3874
688.9017, 528.6802
689.3838, 521.9479
689.8659, 515.4208
690.3480, 509.0493
690.8301, 503.0464
691.3123, 497.7431
691.7944, 493.2408
692.2765, 489.3217
692.7586, 485.8111
693.2407, 482.6665
693.7228, 479.4013
694.2050, 475.9642
694.6871, 472.4408
695.1692, 468.3301
695.6513, 464.5439
696.1334, 462.3074
696.6155, 461.6038
697.0977, 460.4546
697.5798, 457.8549
698.0619, 454.9903
698.5440, 452.8025
699.0261, 450.9877
699.5082, 448.8403
699.9904, 446.1800
700.4725, 443.4645
700.9546, 441.1703
701.4367, 439.2892
701.9188, 437.6619
702.4009, 436.4419
702.8831, 435.1793
703.3652, 433.8586
703.8473, 432.3727
704.3294, 430.4067
704.8115, 428.0972
705.2936, 426.2668
705.7758, 425.6892
706.2579, 425.2874
706.7400, 424.0655
707.2221, 422.3549
707.7042, 420.8215
708.1863, 419.6357
708.6685, 418.7439
709.1506, 418.1318
709.6327, 417.7560
710.1148, 417.2896
710.5969, 416.5851
711.0790, 416.0677
711.5612, 416.2569
712.0433, 415.7469
712.5254, 415.8789
713.0075, 415.7329
713.4896, 415.3242
713.9717, 413.8430
714.4539, 413.7643
714.9360, 413.1345
715.4181, 412.4894
715.9002, 412.6304
716.3823, 411.3448
716.8644, 411.4890
717.3466, 411.0731
717.8287, 410.9249
718.3108, 410.2218
718.7929, 409.7002
719.2750, 409.7491
719.7571, 409.4941
720.2393, 408.7570
720.7214, 408.6717
721.2035, 407.4438
721.6856, 407.2329
722.1677, 407.4653
722.6498, 406.7953
723.1320, 406.7588
723.6141, 406.4917
724.0962, 405.1492
724.5783, 405.6981
725.0604, 405.4401
725.5425, 404.3534
726.0247, 404.8608
726.5068, 403.9049
726.9889, 403.4818
727.4710, 403.4616
727.9531, 403.0372
728.4352, 403.2701
728.9174, 402.8848
729.3995, 402.4515
729.8816, 402.2698
730.3637, 401.4045
730.8458, 401.8296
731.3279, 401.3862
731.8101, 401.3860
732.2922, 401.4924
732.7743, 400.8506
733.2564, 401.0167
733.7385, 399.9496
734.2206, 399.9286
734.7028, 399.8034
735.1849, 400.3497
735.6670, 399.3196
736.1491, 399.3006
736.6312, 399.7166
737.1133, 399.5425
737.5955, 399.6261
738.0776, 398.9774
738.5597, 399.0316
739.0418, 398.9020
739.5239, 399.4422
740.0060, 399.4673
740.4882, 398.8699
740.9703, 398.2828
741.4524, 398.9015
741.9345, 399.1292
742.4166, 399.7687
742.8987, 399.9910
743.3809, 399.8549
743.8630, 399.6280
744.3451, 399.0180
744.8272, 398.8578
745.3093, 399.6176
745.7914, 400.3901
746.2736, 400.7289
746.7557, 400.7096
747.2378, 400.5066
747.7199, 400.1151
748.2020, 399.8043
748.6841, 399.9400
749.1663, 400.2243
749.6484, 400.1113
750.1305, 399.6043
750.6126, 399.0052
751.0947, 398.4471
751.5768, 398.0305
752.0590, 398.0130
752.5411, 398.6062
753.0232, 398.5652
753.5053, 396.9916
753.9874, 396.0006
754.4695, 396.7850
754.9517, 398.1005
755.4338, 398.6283
755.9159, 398.2277
756.3980, 397.6018
756.8801, 396.7398
757.3622, 396.0828
757.8444, 396.2337
758.3265, 396.9001
758.8086, 397.4139
759.2907, 397.5907
759.7728, 397.5804
760.2549, 397.5222
760.7371, 397.4047
761.2192, 397.1148
761.7013, 396.4812
762.1834, 396.1461
762.6655, 396.4181
763.1476, 396.8243
763.6298, 397.0896
764.1119, 397.2352
764.5940, 397.3292
765.0761, 397.3921
765.5582, 397.3939
766.0403, 397.3089
766.5225, 397.1637
767.0046, 396.8892
767.4867, 396.5693
767.9688, 396.5228
768.4509, 396.9197
768.9330, 397.4359
769.4152, 397.4283
769.8973, 396.8589
770.3794, 396.7923
770.8615, 397.4388
771.3436, 398.0624
771.8257, 398.3329
772.3079, 398.4092
772.7900, 398.4971
773.2721, 398.5895
773.7542, 398.7763
774.2363, 399.3570
774.7184, 399.7232
775.2006, 399.2921
775.6827, 398.6029
776.1648, 398.4536
776.6469, 398.9089
777.1290, 399.3575
777.6111, 399.2888
778.0933, 398.9484
778.5754, 398.8887
779.0575, 399.1004
779.5396, 399.4060
780.0217, 399.8488
780.5038, 400.0742
780.9860, 399.6869
781.4681, 398.8810
781.9502, 398.5115
782.4323, 398.8832
782.9144, 399.1754
783.3965, 399.2953
783.8787, 399.3861
784.3608, 399.5353
784.8429, 399.7134
785.3250, 399.9049
785.8071, 400.1071
786.2892, 400.1273
786.7714, 399.6281
787.2535, 398.9130
787.7356, 398.4839
788.2177, 398.3640
788.6998, 398.6336
789.1819, 399.3601
789.6641, 400.1366
790.1462, 400.4491
790.6283, 400.3005
791.1104, 400.2306
791.5925, 400.1665
792.0746, 400.3106
792.5568, 401.0788
793.0389, 401.7326
793.5210, 401.5823
794.0031, 400.8581
794.4852, 400.4196
794.9673, 400.7010
795.4495, 400.9576
795.9316, 400.3834
796.4137, 399.7124
796.8958, 400.1010
797.3779, 401.3916
797.8600, 402.5119
798.3422, 402.9047
798.8243, 402.9072
799.3064, 403.1597
799.7885, 403.6898
800.2706, 403.4640
800.7527, 402.1439
801.2349, 401.0886
801.7170, 400.8724
802.1991, 401.1552
802.6812, 401.5798
803.1633, 402.1488
803.6454, 402.5827
804.1276, 402.7418
804.6097, 402.9055
805.0918, 403.0151
805.5739, 403.2906
806.0560, 404.2404
806.5381, 405.6349
807.0203, 406.5001
807.5024, 406.1773
807.9845, 405.3492
808.4666, 404.8350
808.9487, 404.6190
809.4308, 404.7852
809.9130, 405.3512
810.3951, 405.5692
810.8772, 404.9230
811.3593, 403.8674
811.8414, 403.2899
812.3235, 403.1835
812.8057, 403.5845
813.2878, 405.5151
813.7699, 406.6594
814.2520, 405.6238
814.7341, 404.0312
815.2162, 403.5558
815.6984, 404.2725
816.1805, 405.1099
816.6626, 405.8041
817.1447, 406.2913
817.6268, 406.4604
818.1089, 406.4186
818.5911, 406.3169
819.0732, 406.1847
819.5553, 405.9479
820.0374, 405.5208
820.5195, 405.1537
821.0016, 405.5371
821.4838, 406.7075
821.9659, 407.2253
822.4480, 406.8073
822.9301, 406.3317
823.4122, 406.1953
823.8943, 406.2987
824.3765, 406.4986
824.8586, 406.8224
825.3407, 407.0947
825.8228, 407.4957
826.3049, 407.6175
826.7870, 406.8692
827.2692, 406.0725
827.7513, 406.2234
828.2334, 407.2527
828.7155, 408.2471
829.1976, 408.7767
829.6797, 408.9549
830.1619, 408.6320
830.6440, 408.1131
831.1261, 408.3207
831.6082, 409.2560
832.0903, 409.8031
832.5724, 409.2613
833.0546, 408.2997
833.5367, 408.3627
834.0188, 409.7191
834.5009, 410.1001
834.9830, 408.7858
835.4651, 407.9602
835.9473, 408.8407
836.4294, 410.2592
836.9115, 410.9483
837.3936, 410.9321
837.8757, 410.8229
838.3578, 410.8823
838.8400, 410.6624
839.3221, 409.5688
839.8042, 408.4288
840.2863, 408.1542
840.7684, 408.6200
841.2505, 409.1464
841.7327, 409.4193
842.2148, 409.5412
842.6969, 409.5371
843.1790, 409.4945
843.6611, 409.8004
844.1432, 410.4253
844.6254, 410.6223
845.1075, 409.1027
845.5896, 409.7659
846.0717, 410.1433
846.5538, 410.2503
847.0359, 409.2769
847.5181, 409.6986
848.0002, 409.5612
848.4823, 409.4010
848.9644, 410.0190
849.4465, 409.2028
849.9286, 409.8085
850.4108, 409.8466
850.8929, 410.1444
851.3750, 409.8798
851.8571, 409.7889
852.3392, 410.2607
852.8214, 410.4209
853.3035, 410.0915
853.7856, 410.4059
854.2677, 409.5700
854.7498, 409.7435
855.2319, 410.3525
855.7141, 409.9378
856.1962, 409.9254
856.6783, 410.1745
857.1604, 410.4033
857.6425, 410.5358
858.1246, 410.7568
858.6068, 411.2501
859.0889, 411.9140
859.5710, 412.3641
860.0531, 412.5347
860.5352, 412.6537
861.0173, 412.5245
861.4995, 412.6175
861.9816, 413.4947
862.4637, 414.5283
862.9458, 414.8940
863.4279, 414.5112
863.9100, 413.8305
864.3922, 412.6042
864.8743, 411.5098
865.3564, 410.6671
865.8385, 410.3029
866.3206, 411.0388
866.8027, 412.5855
867.2849, 413.7047
867.7670, 413.6587
868.2491, 413.0011
868.7312, 412.0975
869.2133, 411.2072
869.6954, 411.3327
870.1776, 412.4405
870.6597, 413.0975
871.1418, 412.6153
871.6239, 411.7659
872.1060, 411.6571
872.5881, 412.2830
873.0703, 412.5306
873.5524, 412.1497
874.0345, 412.0512
874.5166, 412.6798
874.9987, 413.3724
875.4808, 413.4935
875.9630, 413.2538
876.4451, 413.3024
876.9272, 413.9168
877.4093, 414.3009
877.8914, 414.1694
878.3735, 413.8945
878.8557, 413.4292
879.3378, 413.0924
879.8199, 413.5142
880.3020, 414.7321
880.7841, 415.7603
881.2662, 415.8228
881.7484, 415.4456
882.2305, 415.1192
882.7126, 414.8994
883.1947, 414.8873
883.6768, 415.1144
884.1589, 415.7210
884.6411, 416.8405
885.1232, 418.1082
885.6053, 418.7488
886.0874, 418.7460
886.5695, 418.7658
887.0516, 418.7704
887.5338, 419.0726
888.0159, 420.0319
888.4980, 420.9282
888.9801, 420.6813
889.4622, 419.2976
889.9443, 418.9652
890.4265, 421.0354
890.9086, 422.2001
891.3907, 421.4939
891.8728, 420.4460
892.3549, 419.7090
892.8370, 419.4098
893.3192, 419.7988
893.8013, 421.0340
894.2834, 422.0577
894.7655, 422.0723
895.2476, 421.9315
895.7297, 422.5918
896.2119, 423.5058
896.6940, 423.5297
897.1761, 422.6131
897.6582, 421.8221
898.1403, 421.8932
898.6224, 422.4882
899.1046, 423.3116
899.5867, 424.2010
900.0688, 424.2658
900.5509, 423.4533
901.0330, 422.9018
901.5151, 423.1554
901.9973, 423.9083
902.4794, 424.8344
902.9615, 425.9348
903.4436, 426.0488
903.9257, 424.6085
904.4078, 423.6937
904.8900, 424.0428
905.3721, 424.6349
905.8542, 424.6327
906.3363, 424.2645
906.8184, 424.2471
907.3005, 424.7741
907.7827, 425.2081
908.2648, 425.4057
908.7469, 425.5697
909.2290, 425.7537
909.7111, 425.9854
910.1932, 426.3092
910.6754, 426.7155
911.1575, 427.1167
911.6396, 427.4109
912.1217, 427.7700
912.6038, 428.3649
913.0859, 429.0883
913.5681, 429.9231
914.0502, 430.7465
914.5323, 431.1870
915.0144, 431.0875
915.4965, 430.8097
915.9786, 430.7766
916.4607, 430.9225
916.9428, 431.0550
917.4249, 431.1670
917.9070, 431.0042
918.3892, 430.4536
918.8713, 430.3051
919.3534, 431.3186
919.8355, 432.9754
920.3176, 433.5833
920.7997, 432.7372
921.2819, 432.4201
921.7640, 432.9987
922.2461, 433.4332
922.7282, 433.1640
923.2103, 432.6732
923.6924, 432.6261
924.1746, 432.9844
924.6567, 433.0338
925.1388, 432.4314
925.6209, 431.9503
926.1030, 431.6532
926.5851, 431.5860
927.0673, 431.8468
927.5494, 432.3328
928.0315, 433.0037
928.5136, 433.8651
928.9957, 434.2525
929.4778, 433.3883
929.9600, 432.3433
930.4421, 432.0294
930.9242, 432.0952
931.4063, 431.9526
931.8884, 431.5654
932.3705, 431.3393
932.8527, 431.5608
933.3348, 431.6058
933.8169, 430.2834
934.2990, 428.2325
934.7811, 427.3559
935.2632, 427.5695
935.7454, 427.5371
936.2275, 426.8170
936.7096, 426.4018
937.1917, 427.4113
937.6738, 429.2924
938.1559, 429.8087
938.6381, 428.7728
939.1202, 427.8486
939.6023, 427.1900
940.0844, 426.6751
940.5665, 426.2113
941.0486, 425.8957
941.5308, 425.8930
942.0129, 426.2191
942.4950, 426.6757
942.9771, 427.4185
943.4592, 428.0559
943.9413, 428.7008
944.4235, 429.0659
944.9056, 428.8191
945.3877, 428.1974
945.8698, 427.7266
946.3519, 427.5224
946.8340, 427.2488
947.3162, 426.6126
947.7983, 426.1281
948.2804, 426.1091
948.7625, 426.3627
949.2446, 426.7615
949.7267, 427.2119
950.2089, 427.5390
950.6910, 427.7008
951.1731, 427.6071
951.6552, 426.8248
952.1373, 426.0102
952.6194, 426.2694
953.1016, 427.1461
953.5837, 427.2237
954.0658, 426.2382
954.5479, 425.5222
955.0300, 426.3160
955.5121, 427.7359
955.9943, 428.0746
956.4764, 427.6086
956.9585, 427.5174
957.4406, 427.8840
957.9227, 427.8896
958.4048, 426.1737
958.8870, 426.7897
959.3691, 427.1199
959.8512, 427.1797
960.3333, 426.1592
960.8154, 426.5337
961.2975, 426.3491
961.7797, 426.1416
962.2618, 426.7124
962.7439, 425.8490
963.2260, 426.4075
963.7081, 426.3984
964.1902, 426.6491
964.6724, 426.3372
965.1545, 426.1991
965.6366, 426.6237
966.1187, 426.7368
966.6008, 426.3601
967.0829, 426.6273
967.5651, 425.7443
968.0472, 425.8706
968.5293, 426.4324
969.0114, 426.0840
969.4935, 426.3615
969.9756, 426.4007
970.4578, 425.3567
970.9399, 426.1963
971.4220, 426.2214
971.9041, 425.4100
972.3862, 426.1851
972.8683, 427.0103
973.3505, 427.6757
973.8326, 427.3353
974.3147, 426.6847
974.7968, 426.2721
975.2789, 426.0405
975.7610, 425.7674
976.2432, 425.4300
976.7253, 425.2405
977.2074, 425.3701
977.6895, 425.6530
978.1716, 426.0449
978.6537, 426.3977
979.1359, 426.3352
979.6180, 425.9819
980.1001, 425.8478
980.5822, 426.1247
981.0643, 426.6792
981.5464, 427.5058
982.0286, 428.3723
982.5107, 428.6834
982.9928, 428.5225
983.4749, 428.2455
983.9570, 427.9134
984.4391, 427.5639
984.9213, 427.1993
985.4034, 427.0076
985.8855, 427.2433
986.3676, 427.9029
986.8497, 429.2090
987.3318, 431.3018
987.8140, 432.2329
988.2961, 431.4164
988.7782, 430.3403
989.2603, 429.8745
989.7424, 429.9633
990.2245, 430.5697
990.7067, 431.8116
991.1888, 432.6074
991.6709, 432.8310
992.1530, 432.8931
992.6351, 432.5966
993.1172, 432.6204
993.5994, 433.7744
994.0815, 435.5760
994.5636, 436.4970
995.0457, 436.1134
995.5278, 436.0364
996.0099, 436.4470
996.4921, 436.9192
996.9742, 437.3764
997.4563, 437.8239
997.9384, 438.1223
998.4205, 438.4091
998.9026, 439.2445
999.3848, 441.1983
999.8669, 442.3902
1000.349, 441.7135
1000.831, 441.0687
1001.313, 441.0536
1001.795, 441.7667
1002.277, 443.9391
1002.760, 446.9953
1003.242, 448.4914
1003.724, 446.9161
1004.206, 445.5629
1004.688, 446.5419
1005.170, 447.7321
1005.652, 447.2823
1006.134, 446.0626
1006.617, 445.4376
1007.099, 445.6074
1007.581, 446.0419
1008.063, 446.4678
1008.545, 447.1086
1009.027, 448.5600
1009.509, 450.0024
1009.991, 450.3422
1010.473, 449.9197
1010.956, 449.5226
1011.438, 449.3749
1011.920, 449.3759
1012.402, 449.4711
1012.884, 449.6438
1013.366, 449.9163
1013.848, 450.2296
1014.330, 450.5291
1014.813, 450.7651
1015.295, 450.7147
1015.777, 450.3528
1016.259, 449.5716
1016.741, 450.1573
1017.223, 450.4572
1017.705, 450.4868
1018.187, 449.4360
1018.669, 449.7802
1019.152, 449.5652
1019.634, 449.3275
1020.116, 449.8681
1020.598, 448.9744
1021.080, 449.5027
1021.562, 449.4633
1022.044, 449.6837
1022.526, 449.3631
1023.008, 449.2301
1023.491, 448.8151
1023.973, 448.5265
1024.455, 448.5172
1024.937, 448.9118
1025.419, 450.0150
1025.901, 451.4884
1026.383, 451.5358
1026.865, 450.0073
1027.348, 449.4128
1027.830, 450.1301
1028.312, 450.9677
1028.794, 451.4073
1029.276, 451.6816
1029.758, 452.1001
1030.240, 452.6161
1030.722, 452.8142
1031.204, 452.6136
1031.687, 452.4552
1032.169, 452.3791
1032.651, 452.3131
1033.133, 452.0760
1033.615, 452.1232
1034.097, 453.2441
1034.579, 455.3098
1035.061, 456.2339
1035.544, 455.5375
1036.026, 454.9077
1036.508, 454.3530
1036.990, 454.1112
1037.472, 454.3659
1037.954, 454.9228
1038.436, 455.6147
1038.918, 456.4257
1039.401, 456.9111
1039.883, 456.9066
1040.365, 456.8784
1040.847, 456.9429
1041.329, 456.8651
1041.811, 456.2446
1042.293, 455.6278
1042.775, 455.8915
1043.257, 457.0023
1043.740, 457.5796
1044.222, 457.2853
1044.704, 456.9868
1045.186, 456.6066
1045.668, 456.3731
1046.150, 456.5461
1046.632, 456.8174
1047.114, 456.8164
1047.596, 456.5458
1048.079, 456.2230
1048.561, 455.9645
1049.043, 455.5027
1049.525, 454.1914
1050.007, 453.3736
1050.489, 454.4141
1050.971, 455.8239
1051.453, 455.6649
1051.936, 454.0218
1052.418, 452.6040
1052.900, 451.5865
1053.382, 450.9798
1053.864, 451.2333
1054.346, 451.3807
1054.828, 450.8056
1055.310, 449.9228
1055.792, 449.1162
1056.275, 448.4736
1056.757, 448.2176
1057.239, 448.5786
1057.721, 448.9507
1058.203, 449.5802
1058.685, 449.7121
1059.167, 448.3453
1059.649, 446.6499
1060.131, 446.0182
1060.614, 446.3869
1061.096, 446.8354
1061.578, 447.2874
1062.060, 447.3672
1062.542, 446.6861
1063.024, 445.8946
1063.506, 445.1919
1063.988, 444.7000
1064.471, 444.5023
1064.953, 444.6217
1065.435, 445.2484
1065.917, 446.8327
1066.399, 447.4813
1066.881, 445.5353
1067.363, 443.4981
1067.845, 442.8144
1068.328, 442.8204
1068.810, 442.8482
1069.292, 442.8299
1069.774, 442.9638
1070.256, 443.4088
1070.738, 443.4040
1071.220, 441.9796
1071.702, 440.7702
1072.184, 441.0461
1072.667, 441.7714
1073.149, 441.8086
1073.631, 441.3311
1074.113, 441.0952
1074.595, 441.3122
1075.077, 441.5996
1075.559, 442.0131
1076.041, 442.1701
1076.523, 441.7202
1077.006, 441.0228
1077.488, 440.2377
1077.970, 439.5453
1078.452, 439.3341
1078.934, 439.6926
1079.416, 439.8527
1079.898, 439.1707
1080.380, 438.5883
1080.862, 438.6284
1081.345, 438.9555
1081.827, 439.5872
1082.309, 440.1479
1082.791, 439.9201
1083.273, 438.8215
1083.755, 437.7038
1084.237, 436.6247
1084.719, 436.0262
1085.202, 436.6469
1085.684, 437.3233
1086.166, 436.8600
1086.648, 435.9445
1087.130, 435.8147
1087.612, 436.5413
1088.094, 437.0765
1088.576, 436.9781
1089.058, 436.7356
1089.541, 436.4976
1090.023, 436.2550
1090.505, 435.9987
1090.987, 435.7352
1091.469, 435.5081
1091.951, 435.2875
1092.433, 434.9076
1092.915, 434.1901
1093.397, 433.6859
1093.880, 433.8129
1094.362, 433.9803
1094.844, 433.6495
1095.326, 433.3180
1095.808, 433.7520
1096.290, 434.6724
1096.772, 435.0542
1097.254, 434.5500
1097.737, 434.0116
1098.219, 433.5517
1098.701, 433.3387
1099.183, 433.6113
1099.665, 434.0230
1100.147, 434.3908
1100.629, 434.6179
1101.111, 434.4671
1101.594, 433.8526
1102.076, 433.5491
1102.558, 433.9337
1103.040, 434.4249
1103.522, 435.1852
1104.004, 435.6379
1104.486, 434.9945
1104.968, 433.9604
1105.450, 433.7641
1105.932, 434.4963
1106.415, 435.0610
1106.897, 435.3174
1107.379, 435.2871
1107.861, 434.6569
1108.343, 434.0975
1108.825, 434.0404
1109.307, 434.1826
1109.789, 434.0717
1110.272, 433.7648
1110.754, 433.8235
1111.236, 434.6527
1111.718, 435.1562
1112.200, 434.9046
1112.682, 434.7440
1113.164, 435.1450
1113.646, 435.6143
1114.129, 435.6945
1114.611, 435.4780
1115.093, 435.2747
1115.575, 435.0658
1116.057, 434.9493
1116.539, 434.9876
1117.021, 435.0247
1117.503, 435.0302
1117.985, 435.0249
1118.468, 435.0511
1118.950, 435.0512
1119.432, 434.8268
1119.914, 434.3069
1120.396, 434.4369
1120.878, 435.6132
1121.360, 436.5937
1121.842, 437.2737
1122.324, 437.6628
1122.807, 437.7484
1123.289, 437.5428
1123.771, 436.9071
1124.253, 435.9745
1124.735, 435.9467
1125.217, 437.2503
1125.699, 437.9514
1126.181, 437.8630
1126.664, 437.4267
1127.146, 436.6281
1127.628, 435.9843
1128.110, 436.0125
1128.592, 436.5043
1129.074, 436.8655
1129.556, 437.0859
1130.038, 437.2276
1130.521, 437.2530
1131.003, 437.5504
1131.485, 438.2925
1131.967, 438.6653
1132.449, 438.0316
1132.931, 437.2085
1133.413, 437.6352
1133.895, 439.0892
1134.377, 440.1084
1134.859, 440.6940
1135.342, 440.4984
1135.824, 439.4959
1136.306, 438.9264
1136.788, 439.3365
1137.270, 440.1682
1137.752, 440.9286
1138.234, 441.4804
1138.716, 441.3122
1139.199, 440.6357
1139.681, 440.3949
1140.163, 440.5767
1140.645, 440.7301
1141.127, 440.7300
1141.609, 440.6794
1142.091, 440.6434
1142.573, 440.6333
1143.056, 440.6655
1143.538, 440.7358
1144.020, 440.9218
1144.502, 441.1153
1144.984, 440.8552
1145.466, 440.2811
1145.948, 440.2991
1146.430, 441.2797
1146.912, 442.3157
1147.395, 442.5362
1147.877, 442.4848
1148.359, 442.7103
1148.841, 443.0993
1149.323, 443.5985
1149.805, 444.0918
1150.287, 444.2930
1150.769, 444.2016
1151.251, 444.2982
1151.734, 445.0144
1152.216, 445.5130
1152.698, 444.8622
1153.180, 444.1561
1153.662, 444.3184
1154.144, 444.9704
1154.626, 445.7768
1155.108, 446.5335
1155.591, 446.8000
1156.073, 446.3646
1156.555, 446.0630
1157.037, 446.4355
1157.519, 446.6745
1158.001, 446.2593
1158.483, 445.7756
1158.965, 445.5904
1159.448, 445.6894
1159.930, 446.0809
1160.412, 446.7551
1160.894, 447.2758
1161.376, 447.7460
1161.858, 447.8195
1162.340, 446.9544
1162.822, 446.3442
1163.304, 446.6220
1163.786, 447.1492
1164.269, 447.3855
1164.751, 447.3727
1165.233, 447.1802
1165.715, 446.5798
1166.197, 446.9154
1166.679, 448.6899
1167.161, 450.0124
1167.643, 450.5403
1168.126, 450.3797
1168.608, 449.3013
1169.090, 448.2692
1169.572, 448.8959
1170.054, 450.8510
1170.536, 451.4765
1171.018, 450.6998
1171.500, 450.3094
1171.983, 450.4647
1172.465, 450.6668
1172.947, 450.7463
1173.429, 450.7350
1173.911, 450.6293
1174.393, 450.5869
1174.875, 451.1198
1175.357, 451.9446
1175.839, 451.7858
1176.322, 450.9102
1176.804, 450.4456
1177.286, 450.5870
1177.768, 451.2580
1178.250, 452.3983
1178.732, 453.3108
1179.214, 453.0678
1179.696, 452.5986
1180.178, 453.3776
1180.661, 454.6085
1181.143, 455.1494
1181.625, 455.0603
1182.107, 454.5493
1182.589, 453.7973
1183.071, 453.2727
1183.553, 453.1910
1184.035, 453.4078
1184.518, 454.1118
1185.000, 454.7638
1185.482, 454.9397
1185.964, 454.9015
1186.446, 454.8427
1186.928, 454.8402
1187.410, 455.0962
1187.892, 455.6569
1188.375, 455.7708
1188.857, 454.7870
1189.339, 454.0524
1189.821, 453.5965
1190.303, 453.7443
1190.785, 455.2999
1191.267, 457.0247
1191.749, 457.5323
1192.231, 457.0991
1192.714, 456.7529
1193.196, 456.3752
1193.678, 456.6519
1194.160, 458.1428
1194.642, 458.6394
1195.124, 457.2834
1195.606, 456.1540
1196.088, 456.5487
1196.570, 457.5208
1197.053, 457.7738
1197.535, 457.4274
1198.017, 456.9821
1198.499, 456.4471
1198.981, 456.2759
1199.463, 456.4789
1199.945, 456.5484
1200.427, 456.3548
1200.910, 456.4934
1201.392, 457.4284
1201.874, 458.4271
1202.356, 458.1786
1202.838, 457.3944
1203.320, 457.7648
1203.802, 458.7564
1204.284, 459.1799
1204.766, 459.0096
1205.249, 458.5176
1205.731, 457.8984
1206.213, 457.9001
1206.695, 459.2794
1207.177, 460.7136
1207.659, 461.3491
1208.141, 461.4288
1208.623, 460.7053
1209.105, 459.8864
1209.588, 459.9797
1210.070, 460.7346
1210.552, 461.1478
1211.034, 460.9885
1211.516, 460.7255
1211.998, 460.1558
1212.480, 459.9547
1212.962, 461.0203
1213.445, 461.6348
1213.927, 460.1908
1214.409, 458.4051
1214.891, 458.2105
1215.373, 459.2690
1215.855, 460.1012
1216.337, 460.7100
1216.819, 460.9974
1217.302, 460.8055
1217.784, 460.9524
1218.266, 461.6997
1218.748, 462.3587
1219.230, 462.5596
1219.712, 462.4471
1220.194, 462.1748
1220.676, 461.7961
1221.158, 461.3074
1221.641, 460.8493
1222.123, 461.6020
1222.605, 463.2050
1223.087, 463.2166
1223.569, 461.3426
1224.051, 459.8625
1224.533, 460.0515
1225.015, 460.9509
1225.497, 462.1107
1225.980, 462.9428
1226.462, 462.1555
1226.944, 461.0806
1227.426, 461.5890
1227.908, 463.1818
1228.390, 464.8867
1228.872, 466.3144
1229.354, 466.5951
1229.837, 464.8828
1230.319, 463.6183
1230.801, 464.1157
1231.283, 464.5970
1231.765, 464.1359
1232.247, 463.5355
1232.729, 463.2287
1233.211, 463.3410
1233.693, 464.2599
1234.176, 465.9316
1234.658, 466.6308
1235.140, 465.9413
1235.622, 465.5240
1236.104, 465.4107
1236.586, 465.8185
1237.068, 466.9923
1237.550, 467.8150
1238.032, 467.4159
1238.515, 466.4425
1238.997, 465.9216
1239.479, 465.7762
1239.961, 465.8189
1240.443, 465.9517
1240.925, 465.5675
1241.407, 464.8028
1241.889, 464.4971
1242.372, 464.8803
1242.854, 465.7721
1243.336, 467.2099
1243.818, 468.1989
1244.300, 467.1800
1244.782, 465.9351
1245.264, 466.5436
1245.746, 467.6731
1246.229, 467.5682
1246.711, 466.7112
1247.193, 466.1919
1247.675, 466.2471
1248.157, 467.1016
1248.639, 469.8954
1249.121, 471.2871
1249.603, 469.4785
1250.085, 467.8539
1250.568, 467.4268
1251.050, 467.5804
1251.532, 468.1077
1252.014, 468.7696
1252.496, 469.2044
1252.978, 469.4023
1253.460, 469.1586
1253.942, 468.3770
1254.424, 468.2125
1254.907, 468.7463
1255.389, 469.7098
1255.871, 471.0116
1256.353, 471.9254
1256.835, 471.9681
1257.317, 471.5803
1257.799, 471.0382
1258.281, 470.7338
1258.764, 471.8463
1259.246, 473.4301
1259.728, 473.6172
1260.210, 472.8696
1260.692, 472.6230
1261.174, 473.0353
1261.656, 473.2047
1262.138, 472.6930
1262.620, 472.3746
1263.103, 472.7287
1263.585, 473.2637
1264.067, 473.9129
1264.549, 474.4987
1265.031, 474.9423
1265.513, 475.2202
1265.995, 475.1690
1266.477, 474.9184
1266.959, 475.2171
1267.442, 476.3498
1267.924, 476.8025
1268.406, 476.4294
1268.888, 475.9865
1269.370, 475.5693
1269.852, 475.4958
1270.334, 475.9553
1270.816, 476.5599
1271.299, 476.9468
1271.781, 477.0616
1272.263, 476.3717
1272.745, 475.5192
1273.227, 476.6327
1273.709, 478.7188
1274.191, 478.9346
1274.673, 477.5076
1275.156, 476.8019
1275.638, 477.5764
1276.120, 478.6256
1276.602, 479.5991
1277.084, 480.1512
1277.566, 479.6207
1278.048, 479.1946
1278.530, 479.8374
1279.012, 480.7041
1279.495, 480.8770
1279.977, 480.6194
1280.459, 480.6601
1280.941, 480.9773
1281.423, 481.0804
1281.905, 480.9005
1282.387, 481.0880
1282.869, 481.7796
1283.351, 482.3350
1283.834, 482.5874
1284.316, 482.4743
1284.798, 481.8925
1285.280, 481.3690
1285.762, 481.5632
1286.244, 482.7180
##END=



