##NAMES=Edoylerite
##RRUFFID=R060543
##IDEAL CHEMISTRY=Hg^2+^_3_(Cr^6+^O_4_)S^2-^_2_
##LOCALITY=Clear Creek claim, south San Benito County, California, USA
##OWNER=RRUFF
##SOURCE=Michael Scott
##DESCRIPTION=Aggregates of yellowish-orange bladed crystals
##STATUS=The identification of this mineral is confirmed by single-crystal X-ray diffraction and chemical analysis.
##URL=rruff.info/R060543
##MEASURED CHEMISTRY=Hg^2+^_3.00_(Cr^6+^_1.00_O_4_)S_2.00_
9.059570e+001, 4.879189e+003
9.107782e+001, 4.693428e+003
9.155994e+001, 4.627611e+003
9.204205e+001, 4.769623e+003
9.252417e+001, 4.971987e+003
9.300629e+001, 5.185840e+003
9.348840e+001, 5.366788e+003
9.397052e+001, 5.479299e+003
9.445264e+001, 5.508536e+003
9.493475e+001, 5.521215e+003
9.541687e+001, 5.530625e+003
9.589898e+001, 5.542872e+003
9.638110e+001, 5.555983e+003
9.686321e+001, 5.568224e+003
9.734533e+001, 5.575167e+003
9.782745e+001, 5.566807e+003
9.830956e+001, 5.560820e+003
9.879168e+001, 5.557973e+003
9.927380e+001, 5.558662e+003
9.975591e+001, 5.561065e+003
1.002380e+002, 5.565312e+003
1.007201e+002, 5.573626e+003
1.012023e+002, 5.587881e+003
1.016844e+002, 5.607230e+003
1.021665e+002, 5.625933e+003
1.026486e+002, 5.645941e+003
1.031307e+002, 5.663516e+003
1.036128e+002, 5.674583e+003
1.040950e+002, 5.678409e+003
1.045771e+002, 5.678709e+003
1.050592e+002, 5.675178e+003
1.055413e+002, 5.668519e+003
1.060234e+002, 5.659602e+003
1.065055e+002, 5.647547e+003
1.069877e+002, 5.633019e+003
1.074698e+002, 5.619193e+003
1.079519e+002, 5.605750e+003
1.084340e+002, 5.592811e+003
1.089161e+002, 5.579742e+003
1.093982e+002, 5.566821e+003
1.098804e+002, 5.555016e+003
1.103625e+002, 5.545463e+003
1.108446e+002, 5.538731e+003
1.113267e+002, 5.531009e+003
1.118088e+002, 5.523507e+003
1.122909e+002, 5.514131e+003
1.127731e+002, 5.501148e+003
1.132552e+002, 5.484680e+003
1.137373e+002, 5.466387e+003
1.142194e+002, 5.448821e+003
1.147015e+002, 5.432374e+003
1.151836e+002, 5.415636e+003
1.156658e+002, 5.398799e+003
1.161479e+002, 5.381538e+003
1.166300e+002, 5.362881e+003
1.171121e+002, 5.342283e+003
1.175942e+002, 5.321397e+003
1.180763e+002, 5.304621e+003
1.185584e+002, 5.292471e+003
1.190406e+002, 5.281865e+003
1.195227e+002, 5.272561e+003
1.200048e+002, 5.264229e+003
1.204869e+002, 5.255791e+003
1.209690e+002, 5.246380e+003
1.214511e+002, 5.236975e+003
1.219333e+002, 5.229143e+003
1.224154e+002, 5.222909e+003
1.228975e+002, 5.218075e+003
1.233796e+002, 5.215159e+003
1.238617e+002, 5.214414e+003
1.243438e+002, 5.213104e+003
1.248260e+002, 5.208327e+003
1.253081e+002, 5.202832e+003
1.257902e+002, 5.199437e+003
1.262723e+002, 5.199848e+003
1.267544e+002, 5.202001e+003
1.272365e+002, 5.200713e+003
1.277187e+002, 5.192273e+003
1.282008e+002, 5.186772e+003
1.286829e+002, 5.189232e+003
1.291650e+002, 5.195570e+003
1.296471e+002, 5.200198e+003
1.301292e+002, 5.199261e+003
1.306114e+002, 5.193296e+003
1.310935e+002, 5.189928e+003
1.315756e+002, 5.191064e+003
1.320577e+002, 5.193217e+003
1.325398e+002, 5.195486e+003
1.330219e+002, 5.198108e+003
1.335041e+002, 5.201980e+003
1.339862e+002, 5.208147e+003
1.344683e+002, 5.217311e+003
1.349504e+002, 5.224128e+003
1.354325e+002, 5.227118e+003
1.359146e+002, 5.229450e+003
1.363968e+002, 5.232735e+003
1.368789e+002, 5.237183e+003
1.373610e+002, 5.242305e+003
1.378431e+002, 5.247694e+003
1.383252e+002, 5.253548e+003
1.388073e+002, 5.258357e+003
1.392895e+002, 5.259709e+003
1.397716e+002, 5.260865e+003
1.402537e+002, 5.266498e+003
1.407358e+002, 5.278355e+003
1.412179e+002, 5.291743e+003
1.417000e+002, 5.300014e+003
1.421821e+002, 5.303656e+003
1.426643e+002, 5.307556e+003
1.431464e+002, 5.315187e+003
1.436285e+002, 5.325030e+003
1.441106e+002, 5.331316e+003
1.445927e+002, 5.330923e+003
1.450748e+002, 5.328521e+003
1.455570e+002, 5.328985e+003
1.460391e+002, 5.332338e+003
1.465212e+002, 5.335041e+003
1.470033e+002, 5.333732e+003
1.474854e+002, 5.328017e+003
1.479675e+002, 5.322063e+003
1.484497e+002, 5.315665e+003
1.489318e+002, 5.309826e+003
1.494139e+002, 5.305063e+003
1.498960e+002, 5.301522e+003
1.503781e+002, 5.299091e+003
1.508602e+002, 5.297910e+003
1.513424e+002, 5.298994e+003
1.518245e+002, 5.299068e+003
1.523066e+002, 5.296383e+003
1.527887e+002, 5.293563e+003
1.532708e+002, 5.293275e+003
1.537529e+002, 5.296419e+003
1.542351e+002, 5.301084e+003
1.547172e+002, 5.302414e+003
1.551993e+002, 5.295118e+003
1.556814e+002, 5.290715e+003
1.561635e+002, 5.291865e+003
1.566456e+002, 5.295539e+003
1.571278e+002, 5.297940e+003
1.576099e+002, 5.297091e+003
1.580920e+002, 5.294000e+003
1.585741e+002, 5.293019e+003
1.590562e+002, 5.295650e+003
1.595383e+002, 5.298319e+003
1.600205e+002, 5.299929e+003
1.605026e+002, 5.300900e+003
1.609847e+002, 5.302314e+003
1.614668e+002, 5.304906e+003
1.619489e+002, 5.308339e+003
1.624310e+002, 5.311034e+003
1.629131e+002, 5.312336e+003
1.633953e+002, 5.313579e+003
1.638774e+002, 5.315605e+003
1.643595e+002, 5.318350e+003
1.648416e+002, 5.321114e+003
1.653237e+002, 5.323578e+003
1.658058e+002, 5.325728e+003
1.662880e+002, 5.327583e+003
1.667701e+002, 5.329133e+003
1.672522e+002, 5.330417e+003
1.677343e+002, 5.331441e+003
1.682164e+002, 5.332188e+003
1.686985e+002, 5.332768e+003
1.691807e+002, 5.332446e+003
1.696628e+002, 5.332156e+003
1.701449e+002, 5.333295e+003
1.706270e+002, 5.336986e+003
1.711091e+002, 5.342063e+003
1.715912e+002, 5.345893e+003
1.720734e+002, 5.348222e+003
1.725555e+002, 5.349614e+003
1.730376e+002, 5.349646e+003
1.735197e+002, 5.349204e+003
1.740018e+002, 5.349563e+003
1.744839e+002, 5.351542e+003
1.749661e+002, 5.354944e+003
1.754482e+002, 5.358542e+003
1.759303e+002, 5.363280e+003
1.764124e+002, 5.367128e+003
1.768945e+002, 5.369735e+003
1.773766e+002, 5.371114e+003
1.778588e+002, 5.370997e+003
1.783409e+002, 5.368739e+003
1.788230e+002, 5.364292e+003
1.793051e+002, 5.363795e+003
1.797872e+002, 5.370221e+003
1.802693e+002, 5.377593e+003
1.807515e+002, 5.384627e+003
1.812336e+002, 5.391170e+003
1.817157e+002, 5.397507e+003
1.821978e+002, 5.404039e+003
1.826799e+002, 5.410977e+003
1.831620e+002, 5.415397e+003
1.836441e+002, 5.415978e+003
1.841263e+002, 5.415796e+003
1.846084e+002, 5.415555e+003
1.850905e+002, 5.415666e+003
1.855726e+002, 5.417150e+003
1.860547e+002, 5.421290e+003
1.865368e+002, 5.428615e+003
1.870190e+002, 5.434032e+003
1.875011e+002, 5.436563e+003
1.879832e+002, 5.437976e+003
1.884653e+002, 5.439212e+003
1.889474e+002, 5.440436e+003
1.894296e+002, 5.441999e+003
1.899117e+002, 5.444182e+003
1.903938e+002, 5.447039e+003
1.908759e+002, 5.450761e+003
1.913580e+002, 5.455278e+003
1.918401e+002, 5.460721e+003
1.923223e+002, 5.468353e+003
1.928044e+002, 5.479017e+003
1.932865e+002, 5.488210e+003
1.937686e+002, 5.489490e+003
1.942507e+002, 5.485197e+003
1.947328e+002, 5.482041e+003
1.952150e+002, 5.482354e+003
1.956971e+002, 5.485099e+003
1.961792e+002, 5.488404e+003
1.966613e+002, 5.492322e+003
1.971434e+002, 5.496325e+003
1.976255e+002, 5.500328e+003
1.981077e+002, 5.504165e+003
1.985898e+002, 5.507259e+003
1.990719e+002, 5.508228e+003
1.995540e+002, 5.507931e+003
2.000361e+002, 5.510271e+003
2.005182e+002, 5.516856e+003
2.010004e+002, 5.524149e+003
2.014825e+002, 5.530373e+003
2.019646e+002, 5.535728e+003
2.024467e+002, 5.540698e+003
2.029288e+002, 5.545712e+003
2.034109e+002, 5.550753e+003
2.038930e+002, 5.555014e+003
2.043752e+002, 5.556874e+003
2.048573e+002, 5.559731e+003
2.053394e+002, 5.565829e+003
2.058215e+002, 5.574064e+003
2.063036e+002, 5.581725e+003
2.067857e+002, 5.586191e+003
2.072679e+002, 5.587222e+003
2.077500e+002, 5.589956e+003
2.082321e+002, 5.596815e+003
2.087142e+002, 5.603251e+003
2.091963e+002, 5.607235e+003
2.096784e+002, 5.609396e+003
2.101606e+002, 5.611698e+003
2.106427e+002, 5.615920e+003
2.111248e+002, 5.622236e+003
2.116069e+002, 5.628625e+003
2.120890e+002, 5.634683e+003
2.125711e+002, 5.641131e+003
2.130533e+002, 5.649023e+003
2.135354e+002, 5.657767e+003
2.140175e+002, 5.665542e+003
2.144996e+002, 5.670323e+003
2.149817e+002, 5.671226e+003
2.154638e+002, 5.675708e+003
2.159460e+002, 5.685312e+003
2.164281e+002, 5.696253e+003
2.169102e+002, 5.707851e+003
2.173923e+002, 5.719420e+003
2.178744e+002, 5.729458e+003
2.183565e+002, 5.736197e+003
2.188387e+002, 5.739061e+003
2.193208e+002, 5.743913e+003
2.198029e+002, 5.750528e+003
2.202850e+002, 5.759016e+003
2.207671e+002, 5.769959e+003
2.212492e+002, 5.783140e+003
2.217314e+002, 5.797135e+003
2.222135e+002, 5.810520e+003
2.226956e+002, 5.823322e+003
2.231777e+002, 5.838409e+003
2.236598e+002, 5.857540e+003
2.241419e+002, 5.877640e+003
2.246240e+002, 5.896939e+003
2.251062e+002, 5.915273e+003
2.255883e+002, 5.931800e+003
2.260704e+002, 5.944174e+003
2.265525e+002, 5.953549e+003
2.270346e+002, 5.968337e+003
2.275167e+002, 5.991882e+003
2.279989e+002, 6.019296e+003
2.284810e+002, 6.046153e+003
2.289631e+002, 6.072173e+003
2.294452e+002, 6.098724e+003
2.299273e+002, 6.125764e+003
2.304094e+002, 6.154077e+003
2.308916e+002, 6.185974e+003
2.313737e+002, 6.220614e+003
2.318558e+002, 6.259609e+003
2.323379e+002, 6.305639e+003
2.328200e+002, 6.359275e+003
2.333021e+002, 6.415745e+003
2.337843e+002, 6.471297e+003
2.342664e+002, 6.528225e+003
2.347485e+002, 6.590732e+003
2.352306e+002, 6.660786e+003
2.357127e+002, 6.736104e+003
2.361948e+002, 6.815231e+003
2.366770e+002, 6.899767e+003
2.371591e+002, 6.983350e+003
2.376412e+002, 7.063602e+003
2.381233e+002, 7.141181e+003
2.386054e+002, 7.216904e+003
2.390875e+002, 7.290829e+003
2.395697e+002, 7.363345e+003
2.400518e+002, 7.433509e+003
2.405339e+002, 7.499927e+003
2.410160e+002, 7.569612e+003
2.414981e+002, 7.642236e+003
2.419802e+002, 7.720525e+003
2.424624e+002, 7.808108e+003
2.429445e+002, 7.906315e+003
2.434266e+002, 8.013113e+003
2.439087e+002, 8.124575e+003
2.443908e+002, 8.238874e+003
2.448729e+002, 8.362979e+003
2.453550e+002, 8.499729e+003
2.458372e+002, 8.645119e+003
2.463193e+002, 8.795582e+003
2.468014e+002, 8.950035e+003
2.472835e+002, 9.110703e+003
2.477656e+002, 9.283044e+003
2.482477e+002, 9.464774e+003
2.487299e+002, 9.664626e+003
2.492120e+002, 9.881968e+003
2.496941e+002, 1.011547e+004
2.501762e+002, 1.036541e+004
2.506583e+002, 1.063225e+004
2.511404e+002, 1.091269e+004
2.516226e+002, 1.120691e+004
2.521047e+002, 1.152399e+004
2.525868e+002, 1.183080e+004
2.530689e+002, 1.214738e+004
2.535510e+002, 1.244047e+004
2.540331e+002, 1.270127e+004
2.545153e+002, 1.292186e+004
2.549974e+002, 1.308128e+004
2.554795e+002, 1.315003e+004
2.559616e+002, 1.312788e+004
2.564437e+002, 1.300009e+004
2.569258e+002, 1.275543e+004
2.574080e+002, 1.243832e+004
2.578901e+002, 1.205533e+004
2.583722e+002, 1.161860e+004
2.588543e+002, 1.116017e+004
2.593364e+002, 1.071897e+004
2.598185e+002, 1.028480e+004
2.603007e+002, 9.899033e+003
2.607828e+002, 9.554944e+003
2.612649e+002, 9.249024e+003
2.617470e+002, 8.980875e+003
2.622291e+002, 8.748854e+003
2.627112e+002, 8.554045e+003
2.631934e+002, 8.397785e+003
2.636755e+002, 8.286449e+003
2.641576e+002, 8.195464e+003
2.646397e+002, 8.123549e+003
2.651218e+002, 8.068505e+003
2.656039e+002, 8.031963e+003
2.660861e+002, 8.012407e+003
2.665682e+002, 8.005008e+003
2.670503e+002, 8.005365e+003
2.675324e+002, 8.013438e+003
2.680145e+002, 8.031668e+003
2.684966e+002, 8.065693e+003
2.689788e+002, 8.102440e+003
2.694609e+002, 8.137035e+003
2.699430e+002, 8.168749e+003
2.704251e+002, 8.197871e+003
2.709072e+002, 8.224444e+003
2.713893e+002, 8.248206e+003
2.718715e+002, 8.272182e+003
2.723536e+002, 8.298668e+003
2.728357e+002, 8.323073e+003
2.733178e+002, 8.345006e+003
2.737999e+002, 8.363419e+003
2.742820e+002, 8.376243e+003
2.747642e+002, 8.382295e+003
2.752463e+002, 8.381475e+003
2.757284e+002, 8.371553e+003
2.762105e+002, 8.354754e+003
2.766926e+002, 8.329137e+003
2.771747e+002, 8.293544e+003
2.776568e+002, 8.248491e+003
2.781389e+002, 8.194655e+003
2.786211e+002, 8.131701e+003
2.791032e+002, 8.061322e+003
2.795853e+002, 7.989642e+003
2.800674e+002, 7.911165e+003
2.805495e+002, 7.837708e+003
2.810316e+002, 7.773868e+003
2.815138e+002, 7.716833e+003
2.819959e+002, 7.661075e+003
2.824780e+002, 7.603927e+003
2.829601e+002, 7.547868e+003
2.834422e+002, 7.501426e+003
2.839243e+002, 7.468797e+003
2.844065e+002, 7.435771e+003
2.848886e+002, 7.398994e+003
2.853707e+002, 7.360264e+003
2.858528e+002, 7.321867e+003
2.863349e+002, 7.284369e+003
2.868170e+002, 7.248175e+003
2.872992e+002, 7.213677e+003
2.877813e+002, 7.180898e+003
2.882634e+002, 7.149886e+003
2.887455e+002, 7.123683e+003
2.892276e+002, 7.098212e+003
2.897097e+002, 7.069290e+003
2.901919e+002, 7.036005e+003
2.906740e+002, 6.998332e+003
2.911561e+002, 6.954076e+003
2.916382e+002, 6.902109e+003
2.921203e+002, 6.853774e+003
2.926024e+002, 6.812118e+003
2.930846e+002, 6.773471e+003
2.935667e+002, 6.734008e+003
2.940488e+002, 6.693107e+003
2.945309e+002, 6.653583e+003
2.950130e+002, 6.618212e+003
2.954951e+002, 6.587189e+003
2.959773e+002, 6.556636e+003
2.964594e+002, 6.523631e+003
2.969415e+002, 6.493042e+003
2.974236e+002, 6.469686e+003
2.979057e+002, 6.453333e+003
2.983878e+002, 6.438633e+003
2.988700e+002, 6.421892e+003
2.993521e+002, 6.403677e+003
2.998342e+002, 6.387492e+003
3.003163e+002, 6.373962e+003
3.007984e+002, 6.361919e+003
3.012805e+002, 6.351000e+003
3.017627e+002, 6.341063e+003
3.022448e+002, 6.331251e+003
3.027269e+002, 6.320899e+003
3.032090e+002, 6.310526e+003
3.036911e+002, 6.301453e+003
3.041732e+002, 6.293562e+003
3.046554e+002, 6.286925e+003
3.051375e+002, 6.282162e+003
3.056196e+002, 6.278757e+003
3.061017e+002, 6.275009e+003
3.065838e+002, 6.269803e+003
3.070659e+002, 6.264957e+003
3.075481e+002, 6.264688e+003
3.080302e+002, 6.270015e+003
3.085123e+002, 6.274734e+003
3.089944e+002, 6.275883e+003
3.094765e+002, 6.275333e+003
3.099586e+002, 6.275881e+003
3.104408e+002, 6.278013e+003
3.109229e+002, 6.282275e+003
3.114050e+002, 6.290714e+003
3.118871e+002, 6.303560e+003
3.123692e+002, 6.314043e+003
3.128513e+002, 6.318435e+003
3.133335e+002, 6.320834e+003
3.138156e+002, 6.326519e+003
3.142977e+002, 6.336303e+003
3.147798e+002, 6.346744e+003
3.152619e+002, 6.354308e+003
3.157440e+002, 6.359287e+003
3.162262e+002, 6.366185e+003
3.167083e+002, 6.374953e+003
3.171904e+002, 6.386042e+003
3.176725e+002, 6.400433e+003
3.181546e+002, 6.418002e+003
3.186367e+002, 6.436531e+003
3.191188e+002, 6.454610e+003
3.196010e+002, 6.472503e+003
3.200831e+002, 6.491539e+003
3.205652e+002, 6.510331e+003
3.210473e+002, 6.531657e+003
3.215294e+002, 6.557054e+003
3.220115e+002, 6.586218e+003
3.224937e+002, 6.618932e+003
3.229758e+002, 6.655590e+003
3.234579e+002, 6.694980e+003
3.239400e+002, 6.732801e+003
3.244221e+002, 6.767466e+003
3.249042e+002, 6.804408e+003
3.253864e+002, 6.846667e+003
3.258685e+002, 6.892428e+003
3.263506e+002, 6.939408e+003
3.268327e+002, 6.987518e+003
3.273148e+002, 7.034704e+003
3.277969e+002, 7.079269e+003
3.282791e+002, 7.123220e+003
3.287612e+002, 7.155994e+003
3.292433e+002, 7.174085e+003
3.297254e+002, 7.180539e+003
3.302075e+002, 7.176966e+003
3.306896e+002, 7.163646e+003
3.311718e+002, 7.145314e+003
3.316539e+002, 7.125164e+003
3.321360e+002, 7.103067e+003
3.326181e+002, 7.084650e+003
3.331002e+002, 7.068661e+003
3.335823e+002, 7.057588e+003
3.340645e+002, 7.051954e+003
3.345466e+002, 7.052365e+003
3.350287e+002, 7.061702e+003
3.355108e+002, 7.082735e+003
3.359929e+002, 7.114904e+003
3.364750e+002, 7.150127e+003
3.369572e+002, 7.187497e+003
3.374393e+002, 7.228679e+003
3.379214e+002, 7.273369e+003
3.384035e+002, 7.322453e+003
3.388856e+002, 7.377353e+003
3.393677e+002, 7.438500e+003
3.398499e+002, 7.506118e+003
3.403320e+002, 7.582010e+003
3.408141e+002, 7.670578e+003
3.412962e+002, 7.757697e+003
3.417783e+002, 7.842582e+003
3.422604e+002, 7.923982e+003
3.427426e+002, 8.002839e+003
3.432247e+002, 8.079188e+003
3.437068e+002, 8.145041e+003
3.441889e+002, 8.190156e+003
3.446710e+002, 8.213081e+003
3.451531e+002, 8.209834e+003
3.456353e+002, 8.177056e+003
3.461174e+002, 8.120360e+003
3.465995e+002, 8.038173e+003
3.470816e+002, 7.933806e+003
3.475637e+002, 7.817920e+003
3.480458e+002, 7.699086e+003
3.485280e+002, 7.576428e+003
3.490101e+002, 7.465919e+003
3.494922e+002, 7.367744e+003
3.499743e+002, 7.279140e+003
3.504564e+002, 7.198891e+003
3.509385e+002, 7.128068e+003
3.514207e+002, 7.069648e+003
3.519028e+002, 7.026353e+003
3.523849e+002, 6.995554e+003
3.528670e+002, 6.965845e+003
3.533491e+002, 6.938427e+003
3.538312e+002, 6.910713e+003
3.543134e+002, 6.881895e+003
3.547955e+002, 6.852884e+003
3.552776e+002, 6.825101e+003
3.557597e+002, 6.798993e+003
3.562418e+002, 6.772874e+003
3.567239e+002, 6.743450e+003
3.572061e+002, 6.707917e+003
3.576882e+002, 6.674737e+003
3.581703e+002, 6.641821e+003
3.586524e+002, 6.612431e+003
3.591345e+002, 6.589399e+003
3.596166e+002, 6.572505e+003
3.600987e+002, 6.559444e+003
3.605808e+002, 6.547809e+003
3.610630e+002, 6.537320e+003
3.615451e+002, 6.530966e+003
3.620272e+002, 6.529396e+003
3.625093e+002, 6.530913e+003
3.629914e+002, 6.534924e+003
3.634735e+002, 6.541667e+003
3.639557e+002, 6.552243e+003
3.644378e+002, 6.567674e+003
3.649199e+002, 6.586442e+003
3.654020e+002, 6.602147e+003
3.658841e+002, 6.614837e+003
3.663662e+002, 6.623889e+003
3.668484e+002, 6.628835e+003
3.673305e+002, 6.630588e+003
3.678126e+002, 6.629462e+003
3.682947e+002, 6.625727e+003
3.687768e+002, 6.620562e+003
3.692589e+002, 6.615552e+003
3.697411e+002, 6.610396e+003
3.702232e+002, 6.606317e+003
3.707053e+002, 6.603528e+003
3.711874e+002, 6.601566e+003
3.716695e+002, 6.602303e+003
3.721516e+002, 6.604290e+003
3.726338e+002, 6.602786e+003
3.731159e+002, 6.593592e+003
3.735980e+002, 6.576847e+003
3.740801e+002, 6.556411e+003
3.745622e+002, 6.532866e+003
3.750443e+002, 6.504094e+003
3.755265e+002, 6.466128e+003
3.760086e+002, 6.423553e+003
3.764907e+002, 6.383324e+003
3.769728e+002, 6.348442e+003
3.774549e+002, 6.318068e+003
3.779370e+002, 6.289881e+003
3.784192e+002, 6.263000e+003
3.789013e+002, 6.241013e+003
3.793834e+002, 6.227558e+003
3.798655e+002, 6.217685e+003
3.803476e+002, 6.207908e+003
3.808297e+002, 6.197540e+003
3.813119e+002, 6.187877e+003
3.817940e+002, 6.179288e+003
3.822761e+002, 6.171827e+003
3.827582e+002, 6.169471e+003
3.832403e+002, 6.175817e+003
3.837224e+002, 6.184018e+003
3.842046e+002, 6.189126e+003
3.846867e+002, 6.191913e+003
3.851688e+002, 6.195443e+003
3.856509e+002, 6.201714e+003
3.861330e+002, 6.209752e+003
3.866151e+002, 6.217968e+003
3.870973e+002, 6.226930e+003
3.875794e+002, 6.233854e+003
3.880615e+002, 6.238150e+003
3.885436e+002, 6.238954e+003
3.890257e+002, 6.234615e+003
3.895078e+002, 6.224886e+003
3.899900e+002, 6.209723e+003
3.904721e+002, 6.186810e+003
3.909542e+002, 6.157060e+003
3.914363e+002, 6.128504e+003
3.919184e+002, 6.103781e+003
3.924005e+002, 6.081377e+003
3.928827e+002, 6.058669e+003
3.933648e+002, 6.035404e+003
3.938469e+002, 6.014407e+003
3.943290e+002, 5.997979e+003
3.948111e+002, 5.984218e+003
3.952932e+002, 5.969917e+003
3.957754e+002, 5.954350e+003
3.962575e+002, 5.940264e+003
3.967396e+002, 5.930559e+003
3.972217e+002, 5.924990e+003
3.977038e+002, 5.918702e+003
3.981859e+002, 5.910064e+003
3.986681e+002, 5.901859e+003
3.991501e+002, 5.895887e+003
3.996323e+002, 5.891888e+003
4.001144e+002, 5.889007e+003
4.005965e+002, 5.887101e+003
4.010786e+002, 5.885548e+003
4.015607e+002, 5.882366e+003
4.020428e+002, 5.875471e+003
4.025250e+002, 5.870728e+003
4.030071e+002, 5.871318e+003
4.034892e+002, 5.873554e+003
4.039713e+002, 5.873226e+003
4.044534e+002, 5.869383e+003
4.049355e+002, 5.863567e+003
4.054177e+002, 5.857138e+003
4.058998e+002, 5.849394e+003
4.063819e+002, 5.845252e+003
4.068640e+002, 5.848548e+003
4.073461e+002, 5.851357e+003
4.078282e+002, 5.848348e+003
4.083104e+002, 5.841546e+003
4.087925e+002, 5.836794e+003
4.092746e+002, 5.837943e+003
4.097567e+002, 5.843449e+003
4.102388e+002, 5.846179e+003
4.107209e+002, 5.845018e+003
4.112031e+002, 5.842200e+003
4.116852e+002, 5.836211e+003
4.121673e+002, 5.829609e+003
4.126494e+002, 5.824912e+003
4.131315e+002, 5.822712e+003
4.136136e+002, 5.821659e+003
4.140958e+002, 5.820196e+003
4.145779e+002, 5.818508e+003
4.150600e+002, 5.815636e+003
4.155421e+002, 5.809688e+003
4.160242e+002, 5.804333e+003
4.165063e+002, 5.800162e+003
4.169885e+002, 5.797747e+003
4.174706e+002, 5.798443e+003
4.179527e+002, 5.804055e+003
4.184348e+002, 5.812544e+003
4.189169e+002, 5.816408e+003
4.193990e+002, 5.812936e+003
4.198812e+002, 5.810835e+003
4.203633e+002, 5.814705e+003
4.208454e+002, 5.820043e+003
4.213275e+002, 5.822691e+003
4.218096e+002, 5.821623e+003
4.222917e+002, 5.818797e+003
4.227739e+002, 5.815461e+003
4.232560e+002, 5.811687e+003
4.237381e+002, 5.809379e+003
4.242202e+002, 5.809612e+003
4.247023e+002, 5.810232e+003
4.251844e+002, 5.809667e+003
4.256666e+002, 5.808084e+003
4.261487e+002, 5.806100e+003
4.266308e+002, 5.803242e+003
4.271129e+002, 5.800446e+003
4.275950e+002, 5.798997e+003
4.280771e+002, 5.798894e+003
4.285593e+002, 5.800463e+003
4.290414e+002, 5.805995e+003
4.295235e+002, 5.812178e+003
4.300056e+002, 5.811824e+003
4.304877e+002, 5.802040e+003
4.309698e+002, 5.792356e+003
4.314520e+002, 5.788279e+003
4.319341e+002, 5.787559e+003
4.324162e+002, 5.785453e+003
4.328983e+002, 5.780665e+003
4.333804e+002, 5.775416e+003
4.338625e+002, 5.772117e+003
4.343447e+002, 5.770982e+003
4.348268e+002, 5.771042e+003
4.353089e+002, 5.773506e+003
4.357910e+002, 5.776072e+003
4.362731e+002, 5.777542e+003
4.367552e+002, 5.777812e+003
4.372374e+002, 5.776895e+003
4.377195e+002, 5.774733e+003
4.382016e+002, 5.771514e+003
4.386837e+002, 5.767995e+003
4.391658e+002, 5.763336e+003
4.396479e+002, 5.759464e+003
4.401301e+002, 5.757053e+003
4.406122e+002, 5.755215e+003
4.410943e+002, 5.752886e+003
4.415764e+002, 5.750013e+003
4.420585e+002, 5.747714e+003
4.425406e+002, 5.747537e+003
4.430227e+002, 5.749996e+003
4.435049e+002, 5.750962e+003
4.439870e+002, 5.750190e+003
4.444691e+002, 5.748176e+003
4.449512e+002, 5.743671e+003
4.454333e+002, 5.738292e+003
4.459154e+002, 5.734580e+003
4.463976e+002, 5.733948e+003
4.468797e+002, 5.735264e+003
4.473618e+002, 5.736255e+003
4.478439e+002, 5.737127e+003
4.483260e+002, 5.736989e+003
4.488081e+002, 5.733970e+003
4.492903e+002, 5.731099e+003
4.497724e+002, 5.730773e+003
4.502545e+002, 5.732856e+003
4.507366e+002, 5.734797e+003
4.512187e+002, 5.734120e+003
4.517008e+002, 5.731562e+003
4.521830e+002, 5.730576e+003
4.526651e+002, 5.731960e+003
4.531472e+002, 5.733029e+003
4.536293e+002, 5.731377e+003
4.541114e+002, 5.728579e+003
4.545935e+002, 5.726995e+003
4.550757e+002, 5.727692e+003
4.555578e+002, 5.728562e+003
4.560399e+002, 5.727249e+003
4.565220e+002, 5.724429e+003
4.570041e+002, 5.723360e+003
4.574862e+002, 5.725577e+003
4.579684e+002, 5.728558e+003
4.584505e+002, 5.728856e+003
4.589326e+002, 5.726564e+003
4.594147e+002, 5.724160e+003
4.598968e+002, 5.722054e+003
4.603789e+002, 5.720080e+003
4.608611e+002, 5.718317e+003
4.613432e+002, 5.716659e+003
4.618253e+002, 5.714358e+003
4.623074e+002, 5.710604e+003
4.627895e+002, 5.706213e+003
4.632716e+002, 5.704530e+003
4.637538e+002, 5.709047e+003
4.642359e+002, 5.711540e+003
4.647180e+002, 5.710444e+003
4.652001e+002, 5.707229e+003
4.656822e+002, 5.702747e+003
4.661643e+002, 5.697455e+003
4.666465e+002, 5.692394e+003
4.671286e+002, 5.688550e+003
4.676107e+002, 5.685783e+003
4.680928e+002, 5.685116e+003
4.685749e+002, 5.689733e+003
4.690570e+002, 5.692978e+003
4.695392e+002, 5.692122e+003
4.700213e+002, 5.688978e+003
4.705034e+002, 5.686109e+003
4.709855e+002, 5.684604e+003
4.714676e+002, 5.684319e+003
4.719497e+002, 5.685741e+003
4.724319e+002, 5.689933e+003
4.729140e+002, 5.691230e+003
4.733961e+002, 5.687472e+003
4.738782e+002, 5.681620e+003
4.743603e+002, 5.674374e+003
4.748424e+002, 5.666332e+003
4.753246e+002, 5.658990e+003
4.758067e+002, 5.652753e+003
4.762888e+002, 5.648063e+003
4.767709e+002, 5.646303e+003
4.772530e+002, 5.647921e+003
4.777351e+002, 5.649787e+003
4.782173e+002, 5.650396e+003
4.786994e+002, 5.650438e+003
4.791815e+002, 5.651142e+003
4.796636e+002, 5.652862e+003
4.801457e+002, 5.654080e+003
4.806278e+002, 5.654217e+003
4.811100e+002, 5.653265e+003
4.815920e+002, 5.650714e+003
4.820742e+002, 5.646375e+003
4.825563e+002, 5.642362e+003
4.830384e+002, 5.640964e+003
4.835205e+002, 5.642063e+003
4.840026e+002, 5.640830e+003
4.844847e+002, 5.635132e+003
4.849669e+002, 5.629536e+003
4.854490e+002, 5.625203e+003
4.859311e+002, 5.622345e+003
4.864132e+002, 5.622117e+003
4.868953e+002, 5.624888e+003
4.873774e+002, 5.627674e+003
4.878596e+002, 5.625096e+003
4.883417e+002, 5.613482e+003
4.888238e+002, 5.606597e+003
4.893059e+002, 5.607389e+003
4.897880e+002, 5.609291e+003
4.902701e+002, 5.609573e+003
4.907523e+002, 5.608386e+003
4.912344e+002, 5.607047e+003
4.917165e+002, 5.606552e+003
4.921986e+002, 5.605889e+003
4.926807e+002, 5.601549e+003
4.931628e+002, 5.591285e+003
4.936450e+002, 5.583648e+003
4.941271e+002, 5.582097e+003
4.946092e+002, 5.582655e+003
4.950913e+002, 5.583359e+003
4.955734e+002, 5.583862e+003
4.960555e+002, 5.583894e+003
4.965377e+002, 5.583313e+003
4.970198e+002, 5.582111e+003
4.975019e+002, 5.580127e+003
4.979840e+002, 5.577206e+003
4.984661e+002, 5.574209e+003
4.989482e+002, 5.571839e+003
4.994304e+002, 5.569541e+003
4.999125e+002, 5.566158e+003
5.003946e+002, 5.560991e+003
5.008767e+002, 5.556299e+003
5.013588e+002, 5.553167e+003
5.018409e+002, 5.551263e+003
5.023231e+002, 5.550615e+003
5.028052e+002, 5.551278e+003
5.032873e+002, 5.550823e+003
5.037694e+002, 5.546501e+003
5.042515e+002, 5.538106e+003
5.047336e+002, 5.531979e+003
5.052158e+002, 5.529727e+003
5.056979e+002, 5.527682e+003
5.061800e+002, 5.523975e+003
5.066621e+002, 5.519799e+003
5.071442e+002, 5.517247e+003
5.076263e+002, 5.517017e+003
5.081085e+002, 5.517811e+003
5.085906e+002, 5.517360e+003
5.090727e+002, 5.514538e+003
5.095548e+002, 5.514474e+003
5.100369e+002, 5.522167e+003
5.105190e+002, 5.527562e+003
5.110012e+002, 5.525750e+003
5.114833e+002, 5.518938e+003
5.119654e+002, 5.511127e+003
5.124475e+002, 5.503759e+003
5.129296e+002, 5.498138e+003
5.134117e+002, 5.497767e+003
5.138939e+002, 5.503641e+003
5.143760e+002, 5.507141e+003
5.148581e+002, 5.505974e+003
5.153402e+002, 5.502125e+003
5.158223e+002, 5.496939e+003
5.163044e+002, 5.490617e+003
5.167866e+002, 5.484197e+003
5.172687e+002, 5.476995e+003
5.177508e+002, 5.470565e+003
5.182329e+002, 5.467427e+003
5.187150e+002, 5.467391e+003
5.191971e+002, 5.467623e+003
5.196793e+002, 5.466967e+003
5.201614e+002, 5.465565e+003
5.206435e+002, 5.463714e+003
5.211256e+002, 5.461478e+003
5.216077e+002, 5.458693e+003
5.220898e+002, 5.455495e+003
5.225720e+002, 5.451620e+003
5.230541e+002, 5.445992e+003
5.235362e+002, 5.439180e+003
5.240183e+002, 5.433740e+003
5.245004e+002, 5.431760e+003
5.249825e+002, 5.432394e+003
5.254647e+002, 5.431125e+003
5.259468e+002, 5.425518e+003
5.264289e+002, 5.421530e+003
5.269110e+002, 5.420154e+003
5.273931e+002, 5.420173e+003
5.278752e+002, 5.421445e+003
5.283574e+002, 5.423438e+003
5.288395e+002, 5.424373e+003
5.293216e+002, 5.422327e+003
5.298037e+002, 5.417821e+003
5.302858e+002, 5.414019e+003
5.307679e+002, 5.411380e+003
5.312501e+002, 5.408414e+003
5.317322e+002, 5.403454e+003
5.322143e+002, 5.398335e+003
5.326964e+002, 5.395260e+003
5.331785e+002, 5.394854e+003
5.336606e+002, 5.394376e+003
5.341428e+002, 5.392378e+003
5.346249e+002, 5.388954e+003
5.351070e+002, 5.382773e+003
5.355891e+002, 5.373206e+003
5.360712e+002, 5.367274e+003
5.365533e+002, 5.371895e+003
5.370355e+002, 5.384940e+003
5.375176e+002, 5.392500e+003
5.379997e+002, 5.393245e+003
5.384818e+002, 5.390740e+003
5.389639e+002, 5.384111e+003
5.394460e+002, 5.375649e+003
5.399282e+002, 5.368162e+003
5.404103e+002, 5.362241e+003
5.408924e+002, 5.356702e+003
5.413745e+002, 5.350298e+003
5.418566e+002, 5.342987e+003
5.423387e+002, 5.336182e+003
5.428209e+002, 5.327927e+003
5.433029e+002, 5.322752e+003
5.437850e+002, 5.323816e+003
5.442672e+002, 5.327347e+003
5.447493e+002, 5.329242e+003
5.452314e+002, 5.328395e+003
5.457135e+002, 5.326320e+003
5.461956e+002, 5.324913e+003
5.466777e+002, 5.323987e+003
5.471599e+002, 5.321022e+003
5.476420e+002, 5.314824e+003
5.481241e+002, 5.308876e+003
5.486062e+002, 5.306034e+003
5.490883e+002, 5.304754e+003
5.495704e+002, 5.302323e+003
5.500526e+002, 5.297279e+003
5.505347e+002, 5.293268e+003
5.510168e+002, 5.294219e+003
5.514989e+002, 5.297554e+003
5.519810e+002, 5.297265e+003
5.524631e+002, 5.292015e+003
5.529453e+002, 5.286175e+003
5.534274e+002, 5.283850e+003
5.539095e+002, 5.285050e+003
5.543916e+002, 5.285903e+003
5.548737e+002, 5.287292e+003
5.553558e+002, 5.287314e+003
5.558380e+002, 5.285582e+003
5.563201e+002, 5.282122e+003
5.568022e+002, 5.276137e+003
5.572843e+002, 5.267806e+003
5.577664e+002, 5.259732e+003
5.582485e+002, 5.254857e+003
5.587307e+002, 5.253269e+003
5.592128e+002, 5.252939e+003
5.596949e+002, 5.254684e+003
5.601770e+002, 5.256570e+003
5.606591e+002, 5.259897e+003
5.611412e+002, 5.262155e+003
5.616234e+002, 5.259484e+003
5.621055e+002, 5.250548e+003
5.625876e+002, 5.240854e+003
5.630697e+002, 5.235554e+003
5.635518e+002, 5.233398e+003
5.640339e+002, 5.230057e+003
5.645161e+002, 5.224782e+003
5.649982e+002, 5.219445e+003
5.654803e+002, 5.214756e+003
5.659624e+002, 5.211205e+003
5.664445e+002, 5.210280e+003
5.669266e+002, 5.214246e+003
5.674088e+002, 5.217583e+003
5.678909e+002, 5.218021e+003
5.683730e+002, 5.216974e+003
5.688551e+002, 5.216470e+003
5.693372e+002, 5.216726e+003
5.698193e+002, 5.216108e+003
5.703015e+002, 5.212875e+003
5.707836e+002, 5.207212e+003
5.712657e+002, 5.203137e+003
5.717478e+002, 5.202809e+003
5.722299e+002, 5.201114e+003
5.727120e+002, 5.195247e+003
5.731942e+002, 5.188955e+003
5.736763e+002, 5.186266e+003
5.741584e+002, 5.187477e+003
5.746405e+002, 5.189028e+003
5.751226e+002, 5.187033e+003
5.756047e+002, 5.182683e+003
5.760869e+002, 5.181966e+003
5.765690e+002, 5.186390e+003
5.770511e+002, 5.187882e+003
5.775332e+002, 5.180173e+003
5.780153e+002, 5.168633e+003
5.784974e+002, 5.162232e+003
5.789796e+002, 5.162171e+003
5.794617e+002, 5.162471e+003
5.799438e+002, 5.161401e+003
5.804259e+002, 5.159235e+003
5.809080e+002, 5.155663e+003
5.813901e+002, 5.151048e+003
5.818723e+002, 5.147253e+003
5.823544e+002, 5.145615e+003
5.828365e+002, 5.145384e+003
5.833186e+002, 5.143935e+003
5.838007e+002, 5.140037e+003
5.842828e+002, 5.136832e+003
5.847650e+002, 5.136835e+003
5.852471e+002, 5.135482e+003
5.857292e+002, 5.127815e+003
5.862113e+002, 5.115861e+003
5.866934e+002, 5.106500e+003
5.871755e+002, 5.104658e+003
5.876577e+002, 5.106911e+003
5.881398e+002, 5.104994e+003
5.886219e+002, 5.098050e+003
5.891040e+002, 5.092869e+003
5.895861e+002, 5.092413e+003
5.900682e+002, 5.092737e+003
5.905504e+002, 5.089596e+003
5.910325e+002, 5.083625e+003
5.915146e+002, 5.079042e+003
5.919967e+002, 5.078074e+003
5.924788e+002, 5.078191e+003
5.929609e+002, 5.077485e+003
5.934431e+002, 5.076109e+003
5.939252e+002, 5.074303e+003
5.944073e+002, 5.072055e+003
5.948894e+002, 5.070531e+003
5.953715e+002, 5.071685e+003
5.958536e+002, 5.076631e+003
5.963358e+002, 5.079167e+003
5.968179e+002, 5.079734e+003
5.973000e+002, 5.077816e+003
5.977821e+002, 5.071416e+003
5.982642e+002, 5.063064e+003
5.987463e+002, 5.055757e+003
5.992285e+002, 5.050577e+003
5.997106e+002, 5.047732e+003
6.001927e+002, 5.049004e+003
6.006748e+002, 5.054099e+003
6.011569e+002, 5.054184e+003
6.016390e+002, 5.046151e+003
6.021212e+002, 5.038898e+003
6.026033e+002, 5.039615e+003
6.030854e+002, 5.043702e+003
6.035675e+002, 5.043873e+003
6.040496e+002, 5.037849e+003
6.045317e+002, 5.032133e+003
6.050139e+002, 5.031353e+003
6.054960e+002, 5.032293e+003
6.059781e+002, 5.030235e+003
6.064602e+002, 5.024736e+003
6.069423e+002, 5.017552e+003
6.074244e+002, 5.009470e+003
6.079066e+002, 5.001298e+003
6.083887e+002, 4.996679e+003
6.088708e+002, 5.000118e+003
6.093529e+002, 5.000781e+003
6.098350e+002, 4.996023e+003
6.103171e+002, 4.990320e+003
6.107993e+002, 4.986991e+003
6.112814e+002, 4.985716e+003
6.117635e+002, 4.984108e+003
6.122456e+002, 4.980501e+003
6.127277e+002, 4.975884e+003
6.132098e+002, 4.972071e+003
6.136920e+002, 4.969003e+003
6.141741e+002, 4.967479e+003
6.146562e+002, 4.969646e+003
6.151383e+002, 4.970769e+003
6.156204e+002, 4.963929e+003
6.161025e+002, 4.950790e+003
6.165847e+002, 4.941904e+003
6.170668e+002, 4.943704e+003
6.175489e+002, 4.946123e+003
6.180310e+002, 4.941180e+003
6.185131e+002, 4.932459e+003
6.189952e+002, 4.927917e+003
6.194774e+002, 4.929810e+003
6.199595e+002, 4.933443e+003
6.204416e+002, 4.933246e+003
6.209237e+002, 4.928930e+003
6.214058e+002, 4.925284e+003
6.218879e+002, 4.923148e+003
6.223701e+002, 4.920702e+003
6.228522e+002, 4.917327e+003
6.233343e+002, 4.913643e+003
6.238164e+002, 4.910413e+003
6.242985e+002, 4.907757e+003
6.247806e+002, 4.904955e+003
6.252628e+002, 4.901210e+003
6.257448e+002, 4.896919e+003
6.262269e+002, 4.893195e+003
6.267090e+002, 4.890090e+003
6.271912e+002, 4.887089e+003
6.276733e+002, 4.883844e+003
6.281554e+002, 4.880655e+003
6.286375e+002, 4.878381e+003
6.291196e+002, 4.877523e+003
6.296017e+002, 4.875171e+003
6.300839e+002, 4.869217e+003
6.305660e+002, 4.863093e+003
6.310481e+002, 4.858959e+003
6.315302e+002, 4.856591e+003
6.320123e+002, 4.855217e+003
6.324944e+002, 4.854487e+003
6.329766e+002, 4.853900e+003
6.334587e+002, 4.852660e+003
6.339408e+002, 4.850733e+003
6.344229e+002, 4.848266e+003
6.349050e+002, 4.845286e+003
6.353871e+002, 4.841705e+003
6.358693e+002, 4.837275e+003
6.363514e+002, 4.832374e+003
6.368335e+002, 4.827539e+003
6.373156e+002, 4.822903e+003
6.377977e+002, 4.818439e+003
6.382798e+002, 4.813102e+003
6.387620e+002, 4.808285e+003
6.392441e+002, 4.807393e+003
6.397262e+002, 4.810666e+003
6.402083e+002, 4.814165e+003
6.406904e+002, 4.815736e+003
6.411725e+002, 4.815195e+003
6.416547e+002, 4.811851e+003
6.421368e+002, 4.802968e+003
6.426189e+002, 4.795192e+003
6.431010e+002, 4.788059e+003
6.435831e+002, 4.782416e+003
6.440652e+002, 4.779815e+003
6.445474e+002, 4.779089e+003
6.450295e+002, 4.777558e+003
6.455116e+002, 4.773888e+003
6.459937e+002, 4.768500e+003
6.464758e+002, 4.760678e+003
6.469579e+002, 4.750478e+003
6.474401e+002, 4.745372e+003
6.479222e+002, 4.748580e+003
6.484043e+002, 4.752658e+003
6.488864e+002, 4.752073e+003
6.493685e+002, 4.747829e+003
6.498506e+002, 4.742927e+003
6.503328e+002, 4.736738e+003
6.508149e+002, 4.731300e+003
6.512970e+002, 4.728003e+003
6.517791e+002, 4.725621e+003
6.522612e+002, 4.722947e+003
6.527433e+002, 4.719718e+003
6.532255e+002, 4.715689e+003
6.537076e+002, 4.710439e+003
6.541897e+002, 4.704744e+003
6.546718e+002, 4.701653e+003
6.551539e+002, 4.702161e+003
6.556360e+002, 4.702801e+003
6.561182e+002, 4.703647e+003
6.566003e+002, 4.703959e+003
6.570824e+002, 4.703232e+003
6.575645e+002, 4.701556e+003
6.580466e+002, 4.699329e+003
6.585287e+002, 4.696643e+003
6.590109e+002, 4.693468e+003
6.594930e+002, 4.689110e+003
6.599751e+002, 4.684249e+003
6.604572e+002, 4.681276e+003
6.609393e+002, 4.680783e+003
6.614214e+002, 4.679940e+003
6.619036e+002, 4.676153e+003
6.623857e+002, 4.669714e+003
6.628678e+002, 4.663751e+003
6.633499e+002, 4.659247e+003
6.638320e+002, 4.654013e+003
6.643141e+002, 4.646802e+003
6.647963e+002, 4.639654e+003
6.652784e+002, 4.633758e+003
6.657605e+002, 4.629438e+003
6.662426e+002, 4.627148e+003
6.667247e+002, 4.627930e+003
6.672068e+002, 4.629618e+003
6.676890e+002, 4.628109e+003
6.681711e+002, 4.623484e+003
6.686532e+002, 4.618251e+003
6.691353e+002, 4.612641e+003
6.696174e+002, 4.607353e+003
6.700995e+002, 4.603024e+003
6.705817e+002, 4.599655e+003
6.710638e+002, 4.597031e+003
6.715459e+002, 4.596195e+003
6.720280e+002, 4.594763e+003
6.725101e+002, 4.591468e+003
6.729922e+002, 4.587488e+003
6.734744e+002, 4.584215e+003
6.739565e+002, 4.581694e+003
6.744386e+002, 4.578838e+003
6.749207e+002, 4.574647e+003
6.754028e+002, 4.569763e+003
6.758849e+002, 4.566516e+003
6.763671e+002, 4.565456e+003
6.768492e+002, 4.563527e+003
6.773313e+002, 4.559380e+003
6.778134e+002, 4.555019e+003
6.782955e+002, 4.551986e+003
6.787776e+002, 4.550061e+003
6.792598e+002, 4.548563e+003
6.797419e+002, 4.548696e+003
6.802240e+002, 4.547502e+003
6.807061e+002, 4.541568e+003
6.811882e+002, 4.533843e+003
6.816703e+002, 4.529388e+003
6.821525e+002, 4.528803e+003
6.826346e+002, 4.528637e+003
6.831167e+002, 4.526060e+003
6.835988e+002, 4.521575e+003
6.840809e+002, 4.517822e+003
6.845630e+002, 4.516130e+003
6.850452e+002, 4.512300e+003
6.855273e+002, 4.501029e+003
6.860094e+002, 4.491695e+003
6.864915e+002, 4.492149e+003
6.869736e+002, 4.499216e+003
6.874557e+002, 4.502896e+003
6.879379e+002, 4.498365e+003
6.884200e+002, 4.491127e+003
6.889021e+002, 4.484760e+003
6.893842e+002, 4.479598e+003
6.898663e+002, 4.477175e+003
6.903484e+002, 4.477657e+003
6.908306e+002, 4.478083e+003
6.913127e+002, 4.476182e+003
6.917948e+002, 4.472257e+003
6.922769e+002, 4.467725e+003
6.927590e+002, 4.461981e+003
6.932411e+002, 4.456657e+003
6.937233e+002, 4.451394e+003
6.942054e+002, 4.447045e+003
6.946875e+002, 4.445450e+003
6.951696e+002, 4.445155e+003
6.956517e+002, 4.442220e+003
6.961339e+002, 4.434100e+003
6.966160e+002, 4.425432e+003
6.970981e+002, 4.421600e+003
6.975802e+002, 4.421538e+003
6.980623e+002, 4.421798e+003
6.985444e+002, 4.421952e+003
6.990266e+002, 4.421101e+003
6.995087e+002, 4.418397e+003
6.999908e+002, 4.414296e+003
7.004729e+002, 4.410654e+003
7.009550e+002, 4.408735e+003
7.014371e+002, 4.405221e+003
7.019193e+002, 4.397508e+003
7.024014e+002, 4.390523e+003
7.028835e+002, 4.388596e+003
7.033656e+002, 4.389580e+003
7.038477e+002, 4.388201e+003
7.043298e+002, 4.382013e+003
7.048120e+002, 4.374819e+003
7.052941e+002, 4.371702e+003
7.057762e+002, 4.371836e+003
7.062583e+002, 4.371158e+003
7.067404e+002, 4.369305e+003
7.072225e+002, 4.366691e+003
7.077046e+002, 4.363300e+003
7.081867e+002, 4.359495e+003
7.086688e+002, 4.356219e+003
7.091509e+002, 4.353805e+003
7.096331e+002, 4.350985e+003
7.101152e+002, 4.347341e+003
7.105973e+002, 4.343515e+003
7.110794e+002, 4.339405e+003
7.115615e+002, 4.335488e+003
7.120436e+002, 4.332597e+003
7.125258e+002, 4.330996e+003
7.130079e+002, 4.330073e+003
7.134900e+002, 4.329798e+003
7.139721e+002, 4.329743e+003
7.144542e+002, 4.327483e+003
7.149363e+002, 4.322862e+003
7.154185e+002, 4.316488e+003
7.159006e+002, 4.307512e+003
7.163827e+002, 4.298167e+003
7.168648e+002, 4.292340e+003
7.173469e+002, 4.290383e+003
7.178290e+002, 4.289400e+003
7.183112e+002, 4.292294e+003
7.187933e+002, 4.292788e+003
7.192754e+002, 4.285698e+003
7.197575e+002, 4.275112e+003
7.202396e+002, 4.266687e+003
7.207217e+002, 4.261983e+003
7.212039e+002, 4.259177e+003
7.216860e+002, 4.256722e+003
7.221681e+002, 4.254673e+003
7.226502e+002, 4.253775e+003
7.231323e+002, 4.254382e+003
7.236144e+002, 4.253001e+003
7.240966e+002, 4.247771e+003
7.245787e+002, 4.241290e+003
7.250608e+002, 4.236759e+003
7.255429e+002, 4.234108e+003
7.260250e+002, 4.230645e+003
7.265071e+002, 4.226249e+003
7.269893e+002, 4.221029e+003
7.274714e+002, 4.213326e+003
7.279535e+002, 4.205840e+003
7.284356e+002, 4.202194e+003
7.289177e+002, 4.202331e+003
7.293998e+002, 4.203064e+003
7.298820e+002, 4.201989e+003
7.303641e+002, 4.200097e+003
7.308462e+002, 4.200479e+003
7.313283e+002, 4.203300e+003
7.318104e+002, 4.202423e+003
7.322925e+002, 4.195094e+003
7.327747e+002, 4.187443e+003
7.332568e+002, 4.184853e+003
7.337389e+002, 4.186288e+003
7.342210e+002, 4.185998e+003
7.347031e+002, 4.183230e+003
7.351852e+002, 4.179856e+003
7.356674e+002, 4.175690e+003
7.361495e+002, 4.171454e+003
7.366316e+002, 4.167798e+003
7.371137e+002, 4.164576e+003
7.375958e+002, 4.161196e+003
7.380779e+002, 4.157319e+003
7.385601e+002, 4.153345e+003
7.390422e+002, 4.149852e+003
7.395243e+002, 4.146816e+003
7.400064e+002, 4.144063e+003
7.404885e+002, 4.141857e+003
7.409706e+002, 4.138593e+003
7.414528e+002, 4.132440e+003
7.419349e+002, 4.125380e+003
7.424170e+002, 4.122311e+003
7.428991e+002, 4.124877e+003
7.433812e+002, 4.125458e+003
7.438633e+002, 4.122304e+003
7.443455e+002, 4.118256e+003
7.448276e+002, 4.115478e+003
7.453097e+002, 4.112563e+003
7.457918e+002, 4.106083e+003
7.462739e+002, 4.095601e+003
7.467560e+002, 4.086349e+003
7.472382e+002, 4.084762e+003
7.477203e+002, 4.088161e+003
7.482024e+002, 4.087981e+003
7.486845e+002, 4.084130e+003
7.491666e+002, 4.080909e+003
7.496487e+002, 4.079936e+003
7.501309e+002, 4.079640e+003
7.506130e+002, 4.077931e+003
7.510951e+002, 4.074643e+003
7.515772e+002, 4.073116e+003
7.520593e+002, 4.076022e+003
7.525414e+002, 4.076979e+003
7.530236e+002, 4.072977e+003
7.535057e+002, 4.067509e+003
7.539878e+002, 4.063582e+003
7.544699e+002, 4.061305e+003
7.549520e+002, 4.059152e+003
7.554341e+002, 4.056033e+003
7.559163e+002, 4.053015e+003
7.563984e+002, 4.052522e+003
7.568805e+002, 4.053604e+003
7.573626e+002, 4.051948e+003
7.578447e+002, 4.046771e+003
7.583268e+002, 4.040138e+003
7.588090e+002, 4.032954e+003
7.592911e+002, 4.026000e+003
7.597732e+002, 4.021823e+003
7.602553e+002, 4.021884e+003
7.607374e+002, 4.022304e+003
7.612195e+002, 4.025506e+003
7.617017e+002, 4.026651e+003
7.621838e+002, 4.020562e+003
7.626659e+002, 4.012017e+003
7.631480e+002, 4.009569e+003
7.636301e+002, 4.015848e+003
7.641122e+002, 4.021703e+003
7.645944e+002, 4.019105e+003
7.650765e+002, 4.012455e+003
7.655586e+002, 4.008916e+003
7.660407e+002, 4.008069e+003
7.665228e+002, 4.005832e+003
7.670049e+002, 4.000514e+003
7.674871e+002, 3.994224e+003
7.679692e+002, 3.989525e+003
7.684513e+002, 3.986320e+003
7.689334e+002, 3.985636e+003
7.694155e+002, 3.989852e+003
7.698976e+002, 3.992586e+003
7.703798e+002, 3.991304e+003
7.708619e+002, 3.988936e+003
7.713440e+002, 3.988659e+003
7.718261e+002, 3.989683e+003
7.723082e+002, 3.987368e+003
7.727903e+002, 3.976694e+003
7.732725e+002, 3.966807e+003
7.737546e+002, 3.966204e+003
7.742367e+002, 3.969633e+003
7.747188e+002, 3.968038e+003
7.752009e+002, 3.961104e+003
7.756830e+002, 3.955592e+003
7.761652e+002, 3.956152e+003
7.766473e+002, 3.959994e+003
7.771294e+002, 3.960355e+003
7.776115e+002, 3.956676e+003
7.780936e+002, 3.953282e+003
7.785757e+002, 3.950081e+003
7.790579e+002, 3.947870e+003
7.795400e+002, 3.947115e+003
7.800221e+002, 3.947661e+003
7.805042e+002, 3.949845e+003
7.809863e+002, 3.954532e+003
7.814684e+002, 3.956623e+003
7.819506e+002, 3.951629e+003
7.824327e+002, 3.946915e+003
7.829148e+002, 3.947606e+003
7.833969e+002, 3.951696e+003
7.838790e+002, 3.955447e+003
7.843611e+002, 3.957921e+003
7.848433e+002, 3.960837e+003
7.853254e+002, 3.966017e+003
7.858075e+002, 3.972696e+003
7.862896e+002, 3.978564e+003
7.867717e+002, 3.983588e+003
7.872538e+002, 3.988424e+003
7.877360e+002, 3.993164e+003
7.882181e+002, 3.997937e+003
7.887002e+002, 4.002663e+003
7.891823e+002, 4.007460e+003
7.896644e+002, 4.013156e+003
7.901465e+002, 4.018971e+003
7.906286e+002, 4.026812e+003
7.911107e+002, 4.040161e+003
7.915928e+002, 4.052507e+003
7.920750e+002, 4.057190e+003
7.925571e+002, 4.058085e+003
7.930392e+002, 4.064123e+003
7.935213e+002, 4.078840e+003
7.940034e+002, 4.096001e+003
7.944855e+002, 4.110597e+003
7.949677e+002, 4.123739e+003
7.954498e+002, 4.137310e+003
7.959319e+002, 4.151408e+003
7.964140e+002, 4.164879e+003
7.968961e+002, 4.177147e+003
7.973782e+002, 4.190318e+003
7.978604e+002, 4.207958e+003
7.983425e+002, 4.230526e+003
7.988246e+002, 4.247857e+003
7.993067e+002, 4.257929e+003
7.997888e+002, 4.266461e+003
8.002709e+002, 4.274753e+003
8.007531e+002, 4.281987e+003
8.012352e+002, 4.287364e+003
8.017173e+002, 4.291014e+003
8.021994e+002, 4.293637e+003
8.026815e+002, 4.296373e+003
8.031636e+002, 4.296747e+003
8.036458e+002, 4.292967e+003
8.041279e+002, 4.286448e+003
8.046100e+002, 4.278266e+003
8.050921e+002, 4.268997e+003
8.055742e+002, 4.259521e+003
8.060563e+002, 4.250422e+003
8.065385e+002, 4.241002e+003
8.070206e+002, 4.229791e+003
8.075027e+002, 4.216983e+003
8.079848e+002, 4.205655e+003
8.084669e+002, 4.196299e+003
8.089490e+002, 4.185981e+003
8.094312e+002, 4.172088e+003
8.099133e+002, 4.158429e+003
8.103954e+002, 4.151164e+003
8.108775e+002, 4.151439e+003
8.113596e+002, 4.151003e+003
8.118417e+002, 4.150154e+003
8.123239e+002, 4.148260e+003
8.128060e+002, 4.143833e+003
8.132881e+002, 4.139248e+003
8.137702e+002, 4.136182e+003
8.142523e+002, 4.135101e+003
8.147344e+002, 4.136665e+003
8.152166e+002, 4.142148e+003
8.156987e+002, 4.148373e+003
8.161808e+002, 4.151661e+003
8.166629e+002, 4.153230e+003
8.171450e+002, 4.155129e+003
8.176271e+002, 4.157857e+003
8.181093e+002, 4.163044e+003
8.185914e+002, 4.171778e+003
8.190735e+002, 4.182399e+003
8.195556e+002, 4.191184e+003
8.200377e+002, 4.197115e+003
8.205198e+002, 4.207799e+003
8.210020e+002, 4.225499e+003
8.214841e+002, 4.243757e+003
8.219662e+002, 4.259822e+003
8.224483e+002, 4.275460e+003
8.229304e+002, 4.292265e+003
8.234125e+002, 4.310294e+003
8.238947e+002, 4.329488e+003
8.243768e+002, 4.349054e+003
8.248589e+002, 4.370667e+003
8.253410e+002, 4.395604e+003
8.258231e+002, 4.422801e+003
8.263052e+002, 4.451125e+003
8.267874e+002, 4.480454e+003
8.272695e+002, 4.511050e+003
8.277516e+002, 4.543244e+003
8.282337e+002, 4.576711e+003
8.287158e+002, 4.610935e+003
8.291979e+002, 4.646083e+003
8.296801e+002, 4.682525e+003
8.301622e+002, 4.720071e+003
8.306443e+002, 4.761257e+003
8.311264e+002, 4.808210e+003
8.316085e+002, 4.856299e+003
8.320906e+002, 4.897774e+003
8.325728e+002, 4.930931e+003
8.330549e+002, 4.968140e+003
8.335370e+002, 5.012063e+003
8.340191e+002, 5.055810e+003
8.345012e+002, 5.101076e+003
8.349833e+002, 5.142666e+003
8.354655e+002, 5.176310e+003
8.359476e+002, 5.202457e+003
8.364297e+002, 5.225226e+003
8.369118e+002, 5.246561e+003
8.373939e+002, 5.263673e+003
8.378760e+002, 5.277563e+003
8.383582e+002, 5.284877e+003
8.388403e+002, 5.280395e+003
8.393224e+002, 5.265602e+003
8.398045e+002, 5.245833e+003
8.402866e+002, 5.223639e+003
8.407687e+002, 5.198985e+003
8.412509e+002, 5.172399e+003
8.417330e+002, 5.143620e+003
8.422151e+002, 5.111377e+003
8.426972e+002, 5.075844e+003
8.431793e+002, 5.035888e+003
8.436614e+002, 4.990396e+003
8.441436e+002, 4.943097e+003
8.446257e+002, 4.898568e+003
8.451078e+002, 4.856633e+003
8.455899e+002, 4.814306e+003
8.460720e+002, 4.770556e+003
8.465541e+002, 4.728115e+003
8.470363e+002, 4.687108e+003
8.475184e+002, 4.647368e+003
8.480005e+002, 4.609135e+003
8.484826e+002, 4.571827e+003
8.489647e+002, 4.533730e+003
8.494468e+002, 4.493827e+003
8.499290e+002, 4.455860e+003
8.504111e+002, 4.422078e+003
8.508932e+002, 4.390875e+003
8.513753e+002, 4.361920e+003
8.518574e+002, 4.333718e+003
8.523395e+002, 4.302652e+003
8.528217e+002, 4.268124e+003
8.533038e+002, 4.233264e+003
8.537859e+002, 4.201407e+003
8.542680e+002, 4.171955e+003
8.547501e+002, 4.144060e+003
8.552322e+002, 4.117684e+003
8.557144e+002, 4.089558e+003
8.561965e+002, 4.058562e+003
8.566786e+002, 4.028269e+003
8.571607e+002, 4.001511e+003
8.576428e+002, 3.977580e+003
8.581249e+002, 3.954062e+003
8.586071e+002, 3.931305e+003
8.590892e+002, 3.908285e+003
8.595713e+002, 3.884549e+003
8.600534e+002, 3.861046e+003
8.605355e+002, 3.837201e+003
8.610176e+002, 3.814149e+003
8.614998e+002, 3.793249e+003
8.619819e+002, 3.774572e+003
8.624640e+002, 3.757152e+003
8.629461e+002, 3.741630e+003
8.634282e+002, 3.725873e+003
8.639103e+002, 3.707631e+003
8.643925e+002, 3.688707e+003
8.648746e+002, 3.671722e+003
8.653567e+002, 3.656788e+003
8.658388e+002, 3.643306e+003
8.663209e+002, 3.631116e+003
8.668030e+002, 3.618652e+003
8.672852e+002, 3.601999e+003
8.677673e+002, 3.582694e+003
8.682494e+002, 3.569594e+003
8.687315e+002, 3.563419e+003
8.692136e+002, 3.557567e+003
8.696957e+002, 3.549487e+003
8.701779e+002, 3.539840e+003
8.706600e+002, 3.529584e+003
8.711421e+002, 3.518706e+003
8.716242e+002, 3.506439e+003
8.721063e+002, 3.489578e+003
8.725884e+002, 3.476962e+003
8.730705e+002, 3.474357e+003
8.735526e+002, 3.472491e+003
8.740347e+002, 3.465542e+003
8.745168e+002, 3.455114e+003
8.749990e+002, 3.445325e+003
8.754811e+002, 3.437185e+003
8.759632e+002, 3.428776e+003
8.764453e+002, 3.418534e+003
8.769274e+002, 3.408710e+003
8.774095e+002, 3.401360e+003
8.778917e+002, 3.395481e+003
8.783738e+002, 3.389403e+003
8.788559e+002, 3.382661e+003
8.793380e+002, 3.375346e+003
8.798201e+002, 3.366915e+003
8.803022e+002, 3.358689e+003
8.807844e+002, 3.352835e+003
8.812665e+002, 3.349040e+003
8.817486e+002, 3.346941e+003
8.822307e+002, 3.346275e+003
8.827128e+002, 3.343957e+003
8.831949e+002, 3.337837e+003
8.836771e+002, 3.329760e+003
8.841592e+002, 3.323867e+003
8.846413e+002, 3.320688e+003
8.851234e+002, 3.315301e+003
8.856055e+002, 3.306619e+003
8.860876e+002, 3.298340e+003
8.865698e+002, 3.291932e+003
8.870519e+002, 3.286224e+003
8.875340e+002, 3.280018e+003
8.880161e+002, 3.273318e+003
8.884982e+002, 3.266003e+003
8.889803e+002, 3.255782e+003
8.894625e+002, 3.248191e+003
8.899446e+002, 3.246721e+003
8.904267e+002, 3.245759e+003
8.909088e+002, 3.239698e+003
8.913909e+002, 3.231733e+003
8.918730e+002, 3.229904e+003
8.923552e+002, 3.236761e+003
8.928373e+002, 3.241131e+003
8.933194e+002, 3.234247e+003
8.938015e+002, 3.222726e+003
8.942836e+002, 3.212580e+003
8.947657e+002, 3.203622e+003
8.952479e+002, 3.194592e+003
8.957300e+002, 3.185549e+003
8.962121e+002, 3.178556e+003
8.966942e+002, 3.175526e+003
8.971763e+002, 3.174306e+003
8.976584e+002, 3.170106e+003
8.981406e+002, 3.163368e+003
8.986227e+002, 3.159012e+003
8.991048e+002, 3.157737e+003
8.995869e+002, 3.155521e+003
9.000690e+002, 3.150358e+003
9.005511e+002, 3.143457e+003
9.010333e+002, 3.136363e+003
9.015154e+002, 3.129005e+003
9.019975e+002, 3.123103e+003
9.024796e+002, 3.120006e+003
9.029617e+002, 3.115789e+003
9.034438e+002, 3.107367e+003
9.039260e+002, 3.099963e+003
9.044081e+002, 3.098499e+003
9.048902e+002, 3.100628e+003
9.053723e+002, 3.100312e+003
9.058544e+002, 3.096396e+003
9.063365e+002, 3.091568e+003
9.068187e+002, 3.085635e+003
9.073008e+002, 3.079872e+003
9.077829e+002, 3.074423e+003
9.082650e+002, 3.069980e+003
9.087471e+002, 3.068364e+003
9.092292e+002, 3.069139e+003
9.097114e+002, 3.068155e+003
9.101935e+002, 3.061937e+003
9.106756e+002, 3.054578e+003
9.111577e+002, 3.050909e+003
9.116398e+002, 3.048778e+003
9.121219e+002, 3.043482e+003
9.126041e+002, 3.035472e+003
9.130862e+002, 3.029465e+003
9.135683e+002, 3.027713e+003
9.140504e+002, 3.026950e+003
9.145325e+002, 3.022519e+003
9.150146e+002, 3.015190e+003
9.154968e+002, 3.008948e+003
9.159789e+002, 3.003794e+003
9.164610e+002, 3.000297e+003
9.169431e+002, 2.998867e+003
9.174252e+002, 2.997823e+003
9.179073e+002, 2.995776e+003
9.183895e+002, 2.992984e+003
9.188716e+002, 2.990421e+003
9.193537e+002, 2.988480e+003
9.198358e+002, 2.985692e+003
9.203179e+002, 2.982520e+003
9.208000e+002, 2.977742e+003
9.212822e+002, 2.967278e+003
9.217643e+002, 2.957243e+003
9.222464e+002, 2.956824e+003
9.227285e+002, 2.965405e+003
9.232106e+002, 2.967290e+003
9.236927e+002, 2.953753e+003
9.241749e+002, 2.942138e+003
9.246570e+002, 2.938550e+003
9.251391e+002, 2.937570e+003
9.256212e+002, 2.935511e+003
9.261033e+002, 2.932529e+003
9.265854e+002, 2.929808e+003
9.270676e+002, 2.927707e+003
9.275497e+002, 2.925930e+003
9.280318e+002, 2.925304e+003
9.285139e+002, 2.924064e+003
9.289960e+002, 2.919848e+003
9.294781e+002, 2.913865e+003
9.299603e+002, 2.908050e+003
9.304424e+002, 2.902962e+003
9.309245e+002, 2.899071e+003
9.314066e+002, 2.896769e+003
9.318887e+002, 2.895233e+003
9.323708e+002, 2.893781e+003
9.328530e+002, 2.892007e+003
9.333351e+002, 2.887477e+003
9.338172e+002, 2.880297e+003
9.342993e+002, 2.874387e+003
9.347814e+002, 2.871207e+003
9.352635e+002, 2.870047e+003
9.357457e+002, 2.870504e+003
9.362278e+002, 2.872081e+003
9.367099e+002, 2.872017e+003
9.371920e+002, 2.870321e+003
9.376741e+002, 2.866608e+003
9.381563e+002, 2.859821e+003
9.386384e+002, 2.853153e+003
9.391205e+002, 2.847800e+003
9.396026e+002, 2.844047e+003
9.400847e+002, 2.842941e+003
9.405668e+002, 2.845416e+003
9.410490e+002, 2.845069e+003
9.415311e+002, 2.840281e+003
9.420132e+002, 2.835041e+003
9.424953e+002, 2.829817e+003
9.429774e+002, 2.824675e+003
9.434595e+002, 2.819326e+003
9.439417e+002, 2.814133e+003
9.444238e+002, 2.810043e+003
9.449059e+002, 2.807348e+003
9.453880e+002, 2.805356e+003
9.458701e+002, 2.804749e+003
9.463522e+002, 2.803781e+003
9.468344e+002, 2.800813e+003
9.473165e+002, 2.797061e+003
9.477986e+002, 2.794247e+003
9.482807e+002, 2.792506e+003
9.487628e+002, 2.790890e+003
9.492449e+002, 2.789120e+003
9.497271e+002, 2.786703e+003
9.502092e+002, 2.783425e+003
9.506913e+002, 2.779031e+003
9.511734e+002, 2.771634e+003
9.516555e+002, 2.762725e+003
9.521376e+002, 2.757229e+003
9.526198e+002, 2.756675e+003
9.531019e+002, 2.758109e+003
9.535840e+002, 2.759245e+003
9.540661e+002, 2.759670e+003
9.545482e+002, 2.758038e+003
9.550303e+002, 2.754644e+003
9.555124e+002, 2.751449e+003
9.559945e+002, 2.748708e+003
9.564766e+002, 2.745706e+003
9.569587e+002, 2.741890e+003
9.574409e+002, 2.738475e+003
9.579230e+002, 2.737789e+003
9.584051e+002, 2.739740e+003
9.588872e+002, 2.739602e+003
9.593693e+002, 2.737218e+003
9.598514e+002, 2.733215e+003
9.603336e+002, 2.727176e+003
9.608157e+002, 2.720718e+003
9.612978e+002, 2.714480e+003
9.617799e+002, 2.709148e+003
9.622620e+002, 2.707014e+003
9.627441e+002, 2.710166e+003
9.632263e+002, 2.710069e+003
9.637084e+002, 2.704315e+003
9.641905e+002, 2.698577e+003
9.646726e+002, 2.693366e+003
9.651547e+002, 2.689613e+003
9.656368e+002, 2.689036e+003
9.661190e+002, 2.690793e+003
9.666011e+002, 2.691104e+003
9.670832e+002, 2.689540e+003
9.675653e+002, 2.686448e+003
9.680474e+002, 2.679573e+003
9.685295e+002, 2.673693e+003
9.690117e+002, 2.672612e+003
9.694938e+002, 2.673591e+003
9.699759e+002, 2.673156e+003
9.704580e+002, 2.670827e+003
9.709401e+002, 2.667700e+003
9.714222e+002, 2.664059e+003
9.719044e+002, 2.660082e+003
9.723865e+002, 2.655229e+003
9.728686e+002, 2.650608e+003
9.733507e+002, 2.648335e+003
9.738328e+002, 2.647106e+003
9.743149e+002, 2.643039e+003
9.747971e+002, 2.635401e+003
9.752792e+002, 2.629211e+003
9.757613e+002, 2.629491e+003
9.762434e+002, 2.632263e+003
9.767255e+002, 2.632741e+003
9.772076e+002, 2.631464e+003
9.776898e+002, 2.629576e+003
9.781719e+002, 2.627159e+003
9.786540e+002, 2.623320e+003
9.791361e+002, 2.617626e+003
9.796182e+002, 2.612552e+003
9.801003e+002, 2.611798e+003
9.805825e+002, 2.613904e+003
9.810646e+002, 2.614429e+003
9.815467e+002, 2.613358e+003
9.820288e+002, 2.609707e+003
9.825109e+002, 2.603315e+003
9.829930e+002, 2.598753e+003
9.834752e+002, 2.599438e+003
9.839573e+002, 2.601711e+003
9.844394e+002, 2.597824e+003
9.849215e+002, 2.587720e+003
9.854036e+002, 2.581637e+003
9.858857e+002, 2.580123e+003
9.863679e+002, 2.579774e+003
9.868500e+002, 2.580256e+003
9.873321e+002, 2.579790e+003
9.878142e+002, 2.576453e+003
9.882963e+002, 2.571499e+003
9.887784e+002, 2.569152e+003
9.892606e+002, 2.570857e+003
9.897427e+002, 2.569916e+003
9.902248e+002, 2.564846e+003
9.907069e+002, 2.559952e+003
9.911890e+002, 2.556713e+003
9.916711e+002, 2.553955e+003
9.921533e+002, 2.549883e+003
9.926354e+002, 2.545119e+003
9.931175e+002, 2.543546e+003
9.935996e+002, 2.548192e+003
9.940817e+002, 2.550587e+003
9.945638e+002, 2.550156e+003
9.950460e+002, 2.548022e+003
9.955281e+002, 2.543492e+003
9.960102e+002, 2.538266e+003
9.964923e+002, 2.533981e+003
9.969744e+002, 2.530680e+003
9.974565e+002, 2.527957e+003
9.979387e+002, 2.526106e+003
9.984208e+002, 2.524230e+003
9.989029e+002, 2.521704e+003
9.993850e+002, 2.519505e+003
9.998671e+002, 2.518472e+003
1.000349e+003, 2.518054e+003
1.000831e+003, 2.517609e+003
1.001313e+003, 2.516974e+003
1.001796e+003, 2.515939e+003
1.002278e+003, 2.514695e+003
1.002760e+003, 2.512605e+003
1.003242e+003, 2.508659e+003
1.003724e+003, 2.504297e+003
1.004206e+003, 2.500541e+003
1.004688e+003, 2.497516e+003
1.005170e+003, 2.495247e+003
1.005653e+003, 2.493680e+003
1.006135e+003, 2.492327e+003
1.006617e+003, 2.490720e+003
1.007099e+003, 2.489391e+003
1.007581e+003, 2.490026e+003
1.008063e+003, 2.490516e+003
1.008545e+003, 2.487331e+003
1.009027e+003, 2.481255e+003
1.009509e+003, 2.474877e+003
1.009992e+003, 2.469301e+003
1.010474e+003, 2.465403e+003
1.010956e+003, 2.464389e+003
1.011438e+003, 2.465069e+003
1.011920e+003, 2.466438e+003
1.012402e+003, 2.467876e+003
1.012884e+003, 2.468080e+003
1.013366e+003, 2.466872e+003
1.013849e+003, 2.464139e+003
1.014331e+003, 2.459859e+003
1.014813e+003, 2.455224e+003
1.015295e+003, 2.451221e+003
1.015777e+003, 2.448113e+003
1.016259e+003, 2.447606e+003
1.016741e+003, 2.448747e+003
1.017223e+003, 2.446080e+003
1.017705e+003, 2.439302e+003
1.018188e+003, 2.434705e+003
1.018670e+003, 2.435633e+003
1.019152e+003, 2.438273e+003
1.019634e+003, 2.437395e+003
1.020116e+003, 2.433677e+003
1.020598e+003, 2.430546e+003
1.021080e+003, 2.427948e+003
1.021562e+003, 2.423388e+003
1.022044e+003, 2.416217e+003
1.022527e+003, 2.411583e+003
1.023009e+003, 2.412806e+003
1.023491e+003, 2.416452e+003
1.023973e+003, 2.417104e+003
1.024455e+003, 2.414901e+003
1.024937e+003, 2.412239e+003
1.025419e+003, 2.409249e+003
1.025901e+003, 2.404250e+003
1.026384e+003, 2.396058e+003
1.026866e+003, 2.389940e+003
1.027348e+003, 2.389729e+003
1.027830e+003, 2.392401e+003
1.028312e+003, 2.392420e+003
1.028794e+003, 2.389691e+003
1.029276e+003, 2.386609e+003
1.029758e+003, 2.382757e+003
1.030240e+003, 2.380230e+003
1.030723e+003, 2.380286e+003
1.031205e+003, 2.379601e+003
1.031687e+003, 2.375523e+003
1.032169e+003, 2.369795e+003
1.032651e+003, 2.365882e+003
1.033133e+003, 2.363894e+003
1.033615e+003, 2.362718e+003
1.034097e+003, 2.362265e+003
1.034579e+003, 2.362861e+003
1.035062e+003, 2.365471e+003
1.035544e+003, 2.367757e+003
1.036026e+003, 2.368407e+003
1.036508e+003, 2.367497e+003
1.036990e+003, 2.364823e+003
1.037472e+003, 2.359729e+003
1.037954e+003, 2.356545e+003
1.038436e+003, 2.357282e+003
1.038919e+003, 2.356702e+003
1.039401e+003, 2.353005e+003
1.039883e+003, 2.348760e+003
1.040365e+003, 2.345178e+003
1.040847e+003, 2.342358e+003
1.041329e+003, 2.340594e+003
1.041811e+003, 2.340061e+003
1.042293e+003, 2.339743e+003
1.042776e+003, 2.340835e+003
1.043258e+003, 2.340479e+003
1.043740e+003, 2.337272e+003
1.044222e+003, 2.333367e+003
1.044704e+003, 2.330478e+003
1.045186e+003, 2.327780e+003
1.045668e+003, 2.323056e+003
1.046150e+003, 2.315534e+003
1.046632e+003, 2.310718e+003
1.047115e+003, 2.310603e+003
1.047597e+003, 2.311287e+003
1.048079e+003, 2.313548e+003
1.048561e+003, 2.314601e+003
1.049043e+003, 2.311533e+003
1.049525e+003, 2.306283e+003
1.050007e+003, 2.302439e+003
1.050489e+003, 2.300486e+003
1.050971e+003, 2.299045e+003
1.051454e+003, 2.298526e+003
1.051936e+003, 2.297571e+003
1.052418e+003, 2.295699e+003
1.052900e+003, 2.293317e+003
1.053382e+003, 2.290177e+003
1.053864e+003, 2.286953e+003
1.054346e+003, 2.284910e+003
1.054828e+003, 2.284248e+003
1.055311e+003, 2.283560e+003
1.055793e+003, 2.282588e+003
1.056275e+003, 2.281394e+003
1.056757e+003, 2.280278e+003
1.057239e+003, 2.278687e+003
1.057721e+003, 2.276046e+003
1.058203e+003, 2.272717e+003
1.058685e+003, 2.268844e+003
1.059167e+003, 2.264533e+003
1.059650e+003, 2.262042e+003
1.060132e+003, 2.263293e+003
1.060614e+003, 2.264893e+003
1.061096e+003, 2.266680e+003
1.061578e+003, 2.267229e+003
1.062060e+003, 2.264676e+003
1.062542e+003, 2.260485e+003
1.063024e+003, 2.256958e+003
1.063506e+003, 2.254475e+003
1.063989e+003, 2.252464e+003
1.064471e+003, 2.251183e+003
1.064953e+003, 2.249632e+003
1.065435e+003, 2.246492e+003
1.065917e+003, 2.243810e+003
1.066399e+003, 2.244405e+003
1.066881e+003, 2.245884e+003
1.067363e+003, 2.243625e+003
1.067846e+003, 2.237616e+003
1.068328e+003, 2.233784e+003
1.068810e+003, 2.236521e+003
1.069292e+003, 2.238014e+003
1.069774e+003, 2.233074e+003
1.070256e+003, 2.227336e+003
1.070738e+003, 2.225518e+003
1.071220e+003, 2.225355e+003
1.071703e+003, 2.222848e+003
1.072185e+003, 2.217982e+003
1.072667e+003, 2.214308e+003
1.073149e+003, 2.213539e+003
1.073631e+003, 2.213183e+003
1.074113e+003, 2.212477e+003
1.074595e+003, 2.211345e+003
1.075077e+003, 2.208717e+003
1.075559e+003, 2.206259e+003
1.076042e+003, 2.207236e+003
1.076524e+003, 2.210762e+003
1.077006e+003, 2.211488e+003
1.077488e+003, 2.206971e+003
1.077970e+003, 2.201514e+003
1.078452e+003, 2.195880e+003
1.078934e+003, 2.191323e+003
1.079416e+003, 2.189582e+003
1.079898e+003, 2.188757e+003
1.080380e+003, 2.186133e+003
1.080863e+003, 2.182231e+003
1.081345e+003, 2.179910e+003
1.081827e+003, 2.180396e+003
1.082309e+003, 2.180750e+003
1.082791e+003, 2.179406e+003
1.083273e+003, 2.177792e+003
1.083755e+003, 2.176735e+003
1.084237e+003, 2.175872e+003
1.084720e+003, 2.174453e+003
1.085202e+003, 2.172894e+003
1.085684e+003, 2.172867e+003
1.086166e+003, 2.175137e+003
1.086648e+003, 2.175456e+003
1.087130e+003, 2.169897e+003
1.087612e+003, 2.164571e+003
1.088094e+003, 2.162859e+003
1.088577e+003, 2.162607e+003
1.089059e+003, 2.162794e+003
1.089541e+003, 2.162444e+003
1.090023e+003, 2.159396e+003
1.090505e+003, 2.153186e+003
1.090987e+003, 2.148770e+003
1.091469e+003, 2.149433e+003
1.091951e+003, 2.150372e+003
1.092433e+003, 2.149936e+003
1.092916e+003, 2.148634e+003
1.093398e+003, 2.146821e+003
1.093880e+003, 2.144489e+003
1.094362e+003, 2.140993e+003
1.094844e+003, 2.136490e+003
1.095326e+003, 2.133714e+003
1.095808e+003, 2.135338e+003
1.096290e+003, 2.136162e+003
1.096772e+003, 2.133737e+003
1.097255e+003, 2.130795e+003
1.097737e+003, 2.128601e+003
1.098219e+003, 2.127218e+003
1.098701e+003, 2.127310e+003
1.099183e+003, 2.128382e+003
1.099665e+003, 2.127201e+003
1.100147e+003, 2.120455e+003
1.100629e+003, 2.116773e+003
1.101112e+003, 2.122690e+003
1.101594e+003, 2.127040e+003
1.102076e+003, 2.122553e+003
1.102558e+003, 2.115075e+003
1.103040e+003, 2.110417e+003
1.103522e+003, 2.108501e+003
1.104004e+003, 2.107320e+003
1.104486e+003, 2.107011e+003
1.104969e+003, 2.106010e+003
1.105451e+003, 2.102271e+003
1.105933e+003, 2.100113e+003
1.106415e+003, 2.102323e+003
1.106897e+003, 2.105511e+003
1.107379e+003, 2.107609e+003
1.107861e+003, 2.108384e+003
1.108343e+003, 2.107344e+003
1.108825e+003, 2.104042e+003
1.109307e+003, 2.101322e+003
1.109790e+003, 2.100685e+003
1.110272e+003, 2.098851e+003
1.110754e+003, 2.094201e+003
1.111236e+003, 2.089209e+003
1.111718e+003, 2.084827e+003
1.112200e+003, 2.081298e+003
1.112682e+003, 2.079513e+003
1.113164e+003, 2.079651e+003
1.113647e+003, 2.078044e+003
1.114129e+003, 2.072110e+003
1.114611e+003, 2.068824e+003
1.115093e+003, 2.071184e+003
1.115575e+003, 2.072823e+003
1.116057e+003, 2.070618e+003
1.116539e+003, 2.066739e+003
1.117021e+003, 2.063104e+003
1.117504e+003, 2.059921e+003
1.117986e+003, 2.058889e+003
1.118468e+003, 2.061696e+003
1.118950e+003, 2.062568e+003
1.119432e+003, 2.060722e+003
1.119914e+003, 2.058294e+003
1.120396e+003, 2.055357e+003
1.120878e+003, 2.053064e+003
1.121360e+003, 2.052878e+003
1.121843e+003, 2.053724e+003
1.122325e+003, 2.052156e+003
1.122807e+003, 2.047389e+003
1.123289e+003, 2.045436e+003
1.123771e+003, 2.047796e+003
1.124253e+003, 2.047505e+003
1.124735e+003, 2.042060e+003
1.125217e+003, 2.036884e+003
1.125699e+003, 2.035542e+003
1.126182e+003, 2.036273e+003
1.126664e+003, 2.036221e+003
1.127146e+003, 2.035394e+003
1.127628e+003, 2.033701e+003
1.128110e+003, 2.030947e+003
1.128592e+003, 2.029220e+003
1.129074e+003, 2.028930e+003
1.129556e+003, 2.028522e+003
1.130039e+003, 2.027216e+003
1.130521e+003, 2.026005e+003
1.131003e+003, 2.026192e+003
1.131485e+003, 2.027124e+003
1.131967e+003, 2.026611e+003
1.132449e+003, 2.024673e+003
1.132931e+003, 2.020898e+003
1.133413e+003, 2.015377e+003
1.133896e+003, 2.013217e+003
1.134378e+003, 2.015965e+003
1.134860e+003, 2.018575e+003
1.135342e+003, 2.017112e+003
1.135824e+003, 2.013287e+003
1.136306e+003, 2.009445e+003
1.136788e+003, 2.005989e+003
1.137270e+003, 2.004762e+003
1.137752e+003, 2.005423e+003
1.138234e+003, 2.006351e+003
1.138717e+003, 2.007210e+003
1.139199e+003, 2.008284e+003
1.139681e+003, 2.009727e+003
1.140163e+003, 2.010620e+003
1.140645e+003, 2.009766e+003
1.141127e+003, 2.007841e+003
1.141609e+003, 2.006248e+003
1.142091e+003, 2.004488e+003
1.142574e+003, 2.000690e+003
1.143056e+003, 1.995671e+003
1.143538e+003, 1.992640e+003
1.144020e+003, 1.992473e+003
1.144502e+003, 1.993297e+003
1.144984e+003, 1.994241e+003
1.145466e+003, 1.994532e+003
1.145948e+003, 1.993087e+003
1.146431e+003, 1.990737e+003
1.146913e+003, 1.988219e+003
1.147395e+003, 1.985739e+003
1.147877e+003, 1.983758e+003
1.148359e+003, 1.982084e+003
1.148841e+003, 1.979600e+003
1.149323e+003, 1.975646e+003
1.149805e+003, 1.971967e+003
1.150287e+003, 1.968786e+003
1.150770e+003, 1.967263e+003
1.151252e+003, 1.969483e+003
1.151734e+003, 1.972782e+003
1.152216e+003, 1.974760e+003
1.152698e+003, 1.975264e+003
1.153180e+003, 1.974469e+003
1.153662e+003, 1.972427e+003
1.154144e+003, 1.970571e+003
1.154626e+003, 1.970334e+003
1.155109e+003, 1.969009e+003
1.155591e+003, 1.964585e+003
1.156073e+003, 1.960055e+003
1.156555e+003, 1.956463e+003
1.157037e+003, 1.954382e+003
1.157519e+003, 1.955707e+003
1.158001e+003, 1.959562e+003
1.158483e+003, 1.959652e+003
1.158966e+003, 1.952115e+003
1.159448e+003, 1.947832e+003
1.159930e+003, 1.950282e+003
1.160412e+003, 1.952183e+003
1.160894e+003, 1.951223e+003
1.161376e+003, 1.949495e+003
1.161858e+003, 1.948463e+003
1.162340e+003, 1.947784e+003
1.162822e+003, 1.946690e+003
1.163305e+003, 1.945122e+003
1.163787e+003, 1.943705e+003
1.164269e+003, 1.942355e+003
1.164751e+003, 1.941416e+003
1.165233e+003, 1.940944e+003
1.165715e+003, 1.940948e+003
1.166197e+003, 1.941629e+003
1.166679e+003, 1.942271e+003
1.167161e+003, 1.942024e+003
1.167644e+003, 1.941038e+003
1.168126e+003, 1.939920e+003
1.168608e+003, 1.938672e+003
1.169090e+003, 1.937154e+003
1.169572e+003, 1.935357e+003
1.170054e+003, 1.933585e+003
1.170536e+003, 1.931934e+003
1.171018e+003, 1.929793e+003
1.171500e+003, 1.926593e+003
1.171983e+003, 1.923747e+003
1.172465e+003, 1.924161e+003
1.172947e+003, 1.926536e+003
1.173429e+003, 1.926592e+003
1.173911e+003, 1.924715e+003
1.174393e+003, 1.921834e+003
1.174875e+003, 1.918450e+003
1.175357e+003, 1.916143e+003
1.175840e+003, 1.915428e+003
1.176322e+003, 1.914844e+003
1.176804e+003, 1.912734e+003
1.177286e+003, 1.911169e+003
1.177768e+003, 1.914107e+003
1.178250e+003, 1.918213e+003
1.178732e+003, 1.918295e+003
1.179214e+003, 1.915825e+003
1.179697e+003, 1.914518e+003
1.180179e+003, 1.914481e+003
1.180661e+003, 1.912902e+003
1.181143e+003, 1.908377e+003
1.181625e+003, 1.904203e+003
1.182107e+003, 1.902101e+003
1.182589e+003, 1.901361e+003
1.183071e+003, 1.903081e+003
1.183553e+003, 1.904552e+003
1.184036e+003, 1.902574e+003
1.184518e+003, 1.898686e+003
1.185000e+003, 1.895765e+003
1.185482e+003, 1.894276e+003
1.185964e+003, 1.893973e+003
1.186446e+003, 1.897025e+003
1.186928e+003, 1.897674e+003
1.187410e+003, 1.892699e+003
1.187892e+003, 1.887990e+003
1.188375e+003, 1.886531e+003
1.188857e+003, 1.886015e+003
1.189339e+003, 1.883846e+003
1.189821e+003, 1.881041e+003
1.190303e+003, 1.880928e+003
1.190785e+003, 1.884435e+003
1.191267e+003, 1.885086e+003
1.191749e+003, 1.882031e+003
1.192232e+003, 1.878199e+003
1.192714e+003, 1.873175e+003
1.193196e+003, 1.870139e+003
1.193678e+003, 1.871081e+003
1.194160e+003, 1.873619e+003
1.194642e+003, 1.875005e+003
1.195124e+003, 1.875355e+003
1.195606e+003, 1.875213e+003
1.196089e+003, 1.874552e+003
1.196571e+003, 1.872603e+003
1.197053e+003, 1.869408e+003
1.197535e+003, 1.866251e+003
1.198017e+003, 1.863505e+003
1.198499e+003, 1.861741e+003
1.198981e+003, 1.861399e+003
1.199463e+003, 1.861001e+003
1.199945e+003, 1.857847e+003
1.200427e+003, 1.853852e+003
1.200910e+003, 1.853359e+003
1.201392e+003, 1.854800e+003
1.201874e+003, 1.855042e+003
1.202356e+003, 1.853844e+003
1.202838e+003, 1.851416e+003
1.203320e+003, 1.848070e+003
1.203802e+003, 1.845078e+003
1.204284e+003, 1.842797e+003
1.204767e+003, 1.842242e+003
1.205249e+003, 1.846209e+003
1.205731e+003, 1.850053e+003
1.206213e+003, 1.849567e+003
1.206695e+003, 1.846946e+003
1.207177e+003, 1.844637e+003
1.207659e+003, 1.842788e+003
1.208141e+003, 1.840802e+003
1.208624e+003, 1.838543e+003
1.209106e+003, 1.836631e+003
1.209588e+003, 1.835106e+003
1.210070e+003, 1.834124e+003
1.210552e+003, 1.834208e+003
1.211034e+003, 1.834240e+003
1.211516e+003, 1.833428e+003
1.211998e+003, 1.832498e+003
1.212480e+003, 1.832535e+003
1.212963e+003, 1.832967e+003
1.213445e+003, 1.831458e+003
1.213927e+003, 1.827299e+003
1.214409e+003, 1.824751e+003
1.214891e+003, 1.824167e+003
1.215373e+003, 1.823838e+003
1.215855e+003, 1.823578e+003
1.216337e+003, 1.822879e+003
1.216819e+003, 1.821435e+003
1.217302e+003, 1.819722e+003
1.217784e+003, 1.818361e+003
1.218266e+003, 1.817147e+003
1.218748e+003, 1.815249e+003
1.219230e+003, 1.812908e+003
1.219712e+003, 1.811139e+003
1.220194e+003, 1.810033e+003
1.220676e+003, 1.809948e+003
1.221159e+003, 1.810733e+003
1.221641e+003, 1.810840e+003
1.222123e+003, 1.809400e+003
1.222605e+003, 1.807907e+003
1.223087e+003, 1.807829e+003
1.223569e+003, 1.808502e+003
1.224051e+003, 1.810589e+003
1.224533e+003, 1.811831e+003
1.225016e+003, 1.807884e+003
1.225498e+003, 1.801275e+003
1.225980e+003, 1.797437e+003
1.226462e+003, 1.796899e+003
1.226944e+003, 1.795923e+003
1.227426e+003, 1.792591e+003
1.227908e+003, 1.790584e+003
1.228390e+003, 1.792421e+003
1.228872e+003, 1.794156e+003
1.229354e+003, 1.794505e+003
1.229837e+003, 1.793746e+003
1.230319e+003, 1.791282e+003
1.230801e+003, 1.788327e+003
1.231283e+003, 1.787077e+003
1.231765e+003, 1.787488e+003
1.232247e+003, 1.787836e+003
1.232729e+003, 1.788810e+003
1.233211e+003, 1.787267e+003
1.233694e+003, 1.781810e+003
1.234176e+003, 1.778733e+003
1.234658e+003, 1.780537e+003
1.235140e+003, 1.782299e+003
1.235622e+003, 1.780295e+003
1.236104e+003, 1.776848e+003
1.236586e+003, 1.776151e+003
1.237068e+003, 1.777312e+003
1.237551e+003, 1.776477e+003
1.238033e+003, 1.774063e+003
1.238515e+003, 1.771653e+003
1.238997e+003, 1.769516e+003
1.239479e+003, 1.767904e+003
1.239961e+003, 1.766863e+003
1.240443e+003, 1.766157e+003
1.240925e+003, 1.765625e+003
1.241407e+003, 1.765440e+003
1.241890e+003, 1.766127e+003
1.242372e+003, 1.766869e+003
1.242854e+003, 1.767380e+003
1.243336e+003, 1.767071e+003
1.243818e+003, 1.764498e+003
1.244300e+003, 1.760841e+003
1.244782e+003, 1.759050e+003
1.245264e+003, 1.759359e+003
1.245746e+003, 1.758063e+003
1.246229e+003, 1.751871e+003
1.246711e+003, 1.748352e+003
1.247193e+003, 1.751585e+003
1.247675e+003, 1.753835e+003
1.248157e+003, 1.751207e+003
1.248639e+003, 1.748310e+003
1.249121e+003, 1.748623e+003
1.249603e+003, 1.750517e+003
1.250085e+003, 1.751201e+003
1.250568e+003, 1.750674e+003
1.251050e+003, 1.748654e+003
1.251532e+003, 1.744799e+003
1.252014e+003, 1.743501e+003
1.252496e+003, 1.745197e+003
1.252978e+003, 1.746117e+003
1.253460e+003, 1.745128e+003
1.253942e+003, 1.743426e+003
1.254425e+003, 1.741749e+003
1.254907e+003, 1.740707e+003
1.255389e+003, 1.741049e+003
1.255871e+003, 1.742716e+003
1.256353e+003, 1.747021e+003
1.256835e+003, 1.751779e+003
1.257317e+003, 1.752727e+003
1.257799e+003, 1.750483e+003
1.258281e+003, 1.746944e+003
1.258764e+003, 1.742978e+003
1.259246e+003, 1.739981e+003
1.259728e+003, 1.738713e+003
1.260210e+003, 1.737908e+003
1.260692e+003, 1.737357e+003
1.261174e+003, 1.736644e+003
1.261656e+003, 1.734435e+003
1.262138e+003, 1.733138e+003
1.262620e+003, 1.736075e+003
1.263103e+003, 1.740266e+003
1.263585e+003, 1.740644e+003
1.264067e+003, 1.737667e+003
1.264549e+003, 1.735366e+003
1.265031e+003, 1.733727e+003
1.265513e+003, 1.732886e+003
1.265995e+003, 1.733172e+003
1.266477e+003, 1.732572e+003
1.266960e+003, 1.730468e+003
1.267442e+003, 1.728712e+003
1.267924e+003, 1.728443e+003
1.268406e+003, 1.727910e+003
1.268888e+003, 1.724614e+003
1.269370e+003, 1.720318e+003
1.269852e+003, 1.718844e+003
1.270334e+003, 1.719717e+003
1.270817e+003, 1.722754e+003
1.271299e+003, 1.726803e+003
1.271781e+003, 1.729726e+003
1.272263e+003, 1.730725e+003
1.272745e+003, 1.728344e+003
1.273227e+003, 1.722016e+003
1.273709e+003, 1.715804e+003
1.274191e+003, 1.711172e+003
1.274673e+003, 1.708590e+003
1.275156e+003, 1.710089e+003
1.275638e+003, 1.711620e+003
1.276120e+003, 1.709489e+003
1.276602e+003, 1.706694e+003
1.277084e+003, 1.707245e+003
1.277566e+003, 1.710036e+003
1.278048e+003, 1.710903e+003
1.278530e+003, 1.709513e+003
1.279012e+003, 1.709352e+003
1.279495e+003, 1.710796e+003
1.279977e+003, 1.711888e+003
1.280459e+003, 1.712598e+003
1.280941e+003, 1.712377e+003
1.281423e+003, 1.710945e+003
1.281905e+003, 1.709095e+003
1.282387e+003, 1.707414e+003
1.282869e+003, 1.705905e+003
1.283352e+003, 1.704483e+003
1.283834e+003, 1.703112e+003
1.284316e+003, 1.701598e+003
1.284798e+003, 1.700023e+003
##END=



