##NAMES=Effenbergerite
##RRUFFID=R120088
##IDEAL CHEMISTRY=BaCu^2+^Si_4_O_10_
##LOCALITY=Eastern orebody, Wessels mine, Kalahari manganese field, Cape Province, South Africa
##OWNER=RRUFF
##SOURCE=William W Pinch
##DESCRIPTION=Blue massive. A piece from the original find.
##STATUS=The identification of this mineral has been confirmed by single-crystal X-ray diffraction.
##URL=rruff.info/R120088
9.112140e+001, 0.000000e+000
9.160352e+001, 2.746506e+003
9.208563e+001, 2.665004e+003
9.256775e+001, 2.654526e+003
9.304987e+001, 2.750563e+003
9.353198e+001, 2.872452e+003
9.401410e+001, 2.965043e+003
9.449622e+001, 3.025525e+003
9.497833e+001, 3.064459e+003
9.546045e+001, 3.091357e+003
9.594257e+001, 3.106312e+003
9.642468e+001, 3.115942e+003
9.690680e+001, 3.123057e+003
9.738892e+001, 3.127724e+003
9.787103e+001, 3.128168e+003
9.835315e+001, 3.122095e+003
9.883527e+001, 3.112273e+003
9.931738e+001, 3.111069e+003
9.979950e+001, 3.123469e+003
1.002816e+002, 3.131237e+003
1.007637e+002, 3.135723e+003
1.012458e+002, 3.134583e+003
1.017280e+002, 3.121281e+003
1.022101e+002, 3.092578e+003
1.026922e+002, 3.062915e+003
1.031743e+002, 3.059971e+003
1.036564e+002, 3.083876e+003
1.041385e+002, 3.104684e+003
1.046207e+002, 3.106426e+003
1.051028e+002, 3.095283e+003
1.055849e+002, 3.093335e+003
1.060670e+002, 3.111498e+003
1.065491e+002, 3.137092e+003
1.070313e+002, 3.156054e+003
1.075134e+002, 3.167249e+003
1.079955e+002, 3.174813e+003
1.084776e+002, 3.182165e+003
1.089597e+002, 3.188968e+003
1.094418e+002, 3.196590e+003
1.099240e+002, 3.204703e+003
1.104061e+002, 3.213918e+003
1.108882e+002, 3.225968e+003
1.113703e+002, 3.241864e+003
1.118524e+002, 3.258563e+003
1.123345e+002, 3.267517e+003
1.128167e+002, 3.261189e+003
1.132988e+002, 3.256527e+003
1.137809e+002, 3.252760e+003
1.142630e+002, 3.252684e+003
1.147451e+002, 3.261322e+003
1.152272e+002, 3.282701e+003
1.157094e+002, 3.315706e+003
1.161915e+002, 3.335083e+003
1.166736e+002, 3.328688e+003
1.171557e+002, 3.323045e+003
1.176378e+002, 3.330367e+003
1.181199e+002, 3.347533e+003
1.186021e+002, 3.361236e+003
1.190842e+002, 3.358356e+003
1.195663e+002, 3.337490e+003
1.200484e+002, 3.328985e+003
1.205305e+002, 3.338847e+003
1.210126e+002, 3.356900e+003
1.214948e+002, 3.376739e+003
1.219769e+002, 3.398160e+003
1.224590e+002, 3.416562e+003
1.229411e+002, 3.424779e+003
1.234232e+002, 3.425333e+003
1.239053e+002, 3.424960e+003
1.243875e+002, 3.424307e+003
1.248696e+002, 3.424267e+003
1.253517e+002, 3.428031e+003
1.258338e+002, 3.439192e+003
1.263159e+002, 3.449659e+003
1.267980e+002, 3.452911e+003
1.272802e+002, 3.450157e+003
1.277623e+002, 3.447096e+003
1.282444e+002, 3.449225e+003
1.287265e+002, 3.457315e+003
1.292086e+002, 3.462373e+003
1.296907e+002, 3.455861e+003
1.301729e+002, 3.451906e+003
1.306550e+002, 3.459106e+003
1.311371e+002, 3.477590e+003
1.316192e+002, 3.499813e+003
1.321013e+002, 3.515256e+003
1.325834e+002, 3.520404e+003
1.330656e+002, 3.525393e+003
1.335477e+002, 3.527915e+003
1.340298e+002, 3.531773e+003
1.345119e+002, 3.541461e+003
1.349940e+002, 3.558092e+003
1.354761e+002, 3.577500e+003
1.359583e+002, 3.589986e+003
1.364404e+002, 3.588029e+003
1.369225e+002, 3.588066e+003
1.374046e+002, 3.591220e+003
1.378867e+002, 3.596810e+003
1.383688e+002, 3.604124e+003
1.388510e+002, 3.613074e+003
1.393331e+002, 3.623135e+003
1.398152e+002, 3.632274e+003
1.402973e+002, 3.637692e+003
1.407794e+002, 3.646115e+003
1.412615e+002, 3.665016e+003
1.417437e+002, 3.691215e+003
1.422258e+002, 3.710033e+003
1.427079e+002, 3.709798e+003
1.431900e+002, 3.698677e+003
1.436721e+002, 3.695676e+003
1.441542e+002, 3.706585e+003
1.446364e+002, 3.719688e+003
1.451185e+002, 3.720738e+003
1.456006e+002, 3.706920e+003
1.460827e+002, 3.698234e+003
1.465648e+002, 3.710081e+003
1.470469e+002, 3.731073e+003
1.475291e+002, 3.750878e+003
1.480112e+002, 3.766509e+003
1.484933e+002, 3.778233e+003
1.489754e+002, 3.786099e+003
1.494575e+002, 3.787834e+003
1.499396e+002, 3.789511e+003
1.504218e+002, 3.791956e+003
1.509039e+002, 3.795804e+003
1.513860e+002, 3.801479e+003
1.518681e+002, 3.808773e+003
1.523502e+002, 3.818221e+003
1.528323e+002, 3.833954e+003
1.533145e+002, 3.872377e+003
1.537966e+002, 3.900953e+003
1.542787e+002, 3.909310e+003
1.547608e+002, 3.902585e+003
1.552429e+002, 3.890892e+003
1.557250e+002, 3.881135e+003
1.562072e+002, 3.872877e+003
1.566893e+002, 3.874440e+003
1.571714e+002, 3.897278e+003
1.576535e+002, 3.917417e+003
1.581356e+002, 3.922101e+003
1.586177e+002, 3.913231e+003
1.590999e+002, 3.902485e+003
1.595820e+002, 3.900103e+003
1.600641e+002, 3.907489e+003
1.605462e+002, 3.919027e+003
1.610283e+002, 3.940507e+003
1.615104e+002, 3.961984e+003
1.619926e+002, 3.974940e+003
1.624747e+002, 3.978323e+003
1.629568e+002, 3.978854e+003
1.634389e+002, 3.983503e+003
1.639210e+002, 3.992044e+003
1.644031e+002, 3.999570e+003
1.648853e+002, 4.003298e+003
1.653674e+002, 4.006132e+003
1.658495e+002, 4.013720e+003
1.663316e+002, 4.029115e+003
1.668137e+002, 4.043003e+003
1.672958e+002, 4.042142e+003
1.677780e+002, 4.030680e+003
1.682601e+002, 4.025222e+003
1.687422e+002, 4.038693e+003
1.692243e+002, 4.065903e+003
1.697064e+002, 4.085156e+003
1.701885e+002, 4.089312e+003
1.706707e+002, 4.090996e+003
1.711528e+002, 4.099738e+003
1.716349e+002, 4.114009e+003
1.721170e+002, 4.127019e+003
1.725991e+002, 4.131810e+003
1.730812e+002, 4.127816e+003
1.735634e+002, 4.127714e+003
1.740455e+002, 4.132244e+003
1.745276e+002, 4.141290e+003
1.750097e+002, 4.159284e+003
1.754918e+002, 4.183815e+003
1.759739e+002, 4.205766e+003
1.764561e+002, 4.212962e+003
1.769382e+002, 4.198431e+003
1.774203e+002, 4.193057e+003
1.779024e+002, 4.204538e+003
1.783845e+002, 4.218035e+003
1.788666e+002, 4.226409e+003
1.793488e+002, 4.228431e+003
1.798309e+002, 4.226593e+003
1.803130e+002, 4.223444e+003
1.807951e+002, 4.214960e+003
1.812772e+002, 4.215354e+003
1.817593e+002, 4.228985e+003
1.822415e+002, 4.247350e+003
1.827236e+002, 4.263523e+003
1.832057e+002, 4.276107e+003
1.836878e+002, 4.289655e+003
1.841699e+002, 4.311908e+003
1.846520e+002, 4.353074e+003
1.851342e+002, 4.381887e+003
1.856163e+002, 4.393458e+003
1.860984e+002, 4.394253e+003
1.865805e+002, 4.390280e+003
1.870626e+002, 4.383194e+003
1.875447e+002, 4.372866e+003
1.880269e+002, 4.355997e+003
1.885090e+002, 4.327684e+003
1.889911e+002, 4.312068e+003
1.894732e+002, 4.320185e+003
1.899553e+002, 4.343672e+003
1.904374e+002, 4.369932e+003
1.909196e+002, 4.397859e+003
1.914017e+002, 4.422301e+003
1.918838e+002, 4.433360e+003
1.923659e+002, 4.429945e+003
1.928480e+002, 4.430059e+003
1.933301e+002, 4.446256e+003
1.938123e+002, 4.473688e+003
1.942944e+002, 4.494513e+003
1.947765e+002, 4.502910e+003
1.952586e+002, 4.504114e+003
1.957407e+002, 4.502106e+003
1.962228e+002, 4.496751e+003
1.967050e+002, 4.496239e+003
1.971871e+002, 4.510435e+003
1.976692e+002, 4.538458e+003
1.981513e+002, 4.560031e+003
1.986334e+002, 4.567221e+003
1.991155e+002, 4.569674e+003
1.995977e+002, 4.573261e+003
2.000798e+002, 4.578516e+003
2.005619e+002, 4.584347e+003
2.010440e+002, 4.590269e+003
2.015261e+002, 4.596646e+003
2.020082e+002, 4.601001e+003
2.024904e+002, 4.602356e+003
2.029725e+002, 4.602035e+003
2.034546e+002, 4.597987e+003
2.039367e+002, 4.591135e+003
2.044188e+002, 4.587207e+003
2.049009e+002, 4.594590e+003
2.053831e+002, 4.617839e+003
2.058652e+002, 4.638525e+003
2.063473e+002, 4.656563e+003
2.068294e+002, 4.671723e+003
2.073115e+002, 4.680565e+003
2.077936e+002, 4.684087e+003
2.082758e+002, 4.689272e+003
2.087579e+002, 4.708334e+003
2.092400e+002, 4.757622e+003
2.097221e+002, 4.783345e+003
2.102042e+002, 4.770212e+003
2.106863e+002, 4.748579e+003
2.111685e+002, 4.737252e+003
2.116506e+002, 4.740630e+003
2.121327e+002, 4.752760e+003
2.126148e+002, 4.765286e+003
2.130969e+002, 4.777003e+003
2.135790e+002, 4.792005e+003
2.140612e+002, 4.820973e+003
2.145433e+002, 4.846532e+003
2.150254e+002, 4.848908e+003
2.155075e+002, 4.825185e+003
2.159896e+002, 4.797066e+003
2.164717e+002, 4.796667e+003
2.169539e+002, 4.841854e+003
2.174360e+002, 4.873434e+003
2.179181e+002, 4.880285e+003
2.184002e+002, 4.878240e+003
2.188823e+002, 4.883044e+003
2.193644e+002, 4.898506e+003
2.198466e+002, 4.917745e+003
2.203287e+002, 4.931471e+003
2.208108e+002, 4.938792e+003
2.212929e+002, 4.946287e+003
2.217750e+002, 4.955519e+003
2.222571e+002, 4.965126e+003
2.227393e+002, 4.973287e+003
2.232214e+002, 4.979516e+003
2.237035e+002, 4.984954e+003
2.241856e+002, 4.990846e+003
2.246677e+002, 4.997138e+003
2.251498e+002, 5.003512e+003
2.256320e+002, 5.011622e+003
2.261141e+002, 5.019356e+003
2.265962e+002, 5.020575e+003
2.270783e+002, 5.010842e+003
2.275604e+002, 5.004922e+003
2.280425e+002, 5.025277e+003
2.285247e+002, 5.065006e+003
2.290068e+002, 5.095513e+003
2.294889e+002, 5.098868e+003
2.299710e+002, 5.085751e+003
2.304531e+002, 5.079721e+003
2.309352e+002, 5.083994e+003
2.314174e+002, 5.093727e+003
2.318995e+002, 5.105404e+003
2.323816e+002, 5.119048e+003
2.328637e+002, 5.135223e+003
2.333458e+002, 5.157451e+003
2.338279e+002, 5.182747e+003
2.343101e+002, 5.201781e+003
2.347922e+002, 5.213372e+003
2.352743e+002, 5.219338e+003
2.357564e+002, 5.215643e+003
2.362385e+002, 5.207825e+003
2.367206e+002, 5.207912e+003
2.372028e+002, 5.229085e+003
2.376849e+002, 5.264004e+003
2.381670e+002, 5.279088e+003
2.386491e+002, 5.256576e+003
2.391312e+002, 5.240590e+003
2.396133e+002, 5.254115e+003
2.400955e+002, 5.284877e+003
2.405776e+002, 5.312365e+003
2.410597e+002, 5.324196e+003
2.415418e+002, 5.323196e+003
2.420239e+002, 5.322482e+003
2.425060e+002, 5.321807e+003
2.429882e+002, 5.321851e+003
2.434703e+002, 5.320375e+003
2.439524e+002, 5.320097e+003
2.444345e+002, 5.324715e+003
2.449166e+002, 5.336293e+003
2.453987e+002, 5.354429e+003
2.458809e+002, 5.378003e+003
2.463630e+002, 5.419894e+003
2.468451e+002, 5.449727e+003
2.473272e+002, 5.455776e+003
2.478093e+002, 5.448554e+003
2.482914e+002, 5.441080e+003
2.487736e+002, 5.440345e+003
2.492557e+002, 5.444722e+003
2.497378e+002, 5.447064e+003
2.502199e+002, 5.434124e+003
2.507020e+002, 5.436945e+003
2.511841e+002, 5.474339e+003
2.516663e+002, 5.524329e+003
2.521484e+002, 5.560977e+003
2.526305e+002, 5.571882e+003
2.531126e+002, 5.563142e+003
2.535947e+002, 5.553701e+003
2.540768e+002, 5.532977e+003
2.545590e+002, 5.525609e+003
2.550411e+002, 5.540329e+003
2.555232e+002, 5.566118e+003
2.560053e+002, 5.592876e+003
2.564874e+002, 5.616190e+003
2.569695e+002, 5.635181e+003
2.574517e+002, 5.647670e+003
2.579338e+002, 5.643792e+003
2.584159e+002, 5.644998e+003
2.588980e+002, 5.654006e+003
2.593801e+002, 5.667020e+003
2.598622e+002, 5.680437e+003
2.603444e+002, 5.692966e+003
2.608265e+002, 5.705125e+003
2.613086e+002, 5.717854e+003
2.617907e+002, 5.731398e+003
2.622728e+002, 5.745311e+003
2.627549e+002, 5.763228e+003
2.632371e+002, 5.779775e+003
2.637192e+002, 5.786939e+003
2.642013e+002, 5.783012e+003
2.646834e+002, 5.777079e+003
2.651655e+002, 5.782669e+003
2.656476e+002, 5.804331e+003
2.661298e+002, 5.828474e+003
2.666119e+002, 5.862475e+003
2.670940e+002, 5.894801e+003
2.675761e+002, 5.913533e+003
2.680582e+002, 5.916667e+003
2.685403e+002, 5.911580e+003
2.690225e+002, 5.904301e+003
2.695046e+002, 5.892228e+003
2.699867e+002, 5.895227e+003
2.704688e+002, 5.933915e+003
2.709509e+002, 5.975369e+003
2.714330e+002, 5.985058e+003
2.719152e+002, 5.960508e+003
2.723973e+002, 5.934874e+003
2.728794e+002, 5.942488e+003
2.733615e+002, 5.986438e+003
2.738436e+002, 6.014195e+003
2.743257e+002, 6.008917e+003
2.748079e+002, 5.998576e+003
2.752900e+002, 6.005614e+003
2.757721e+002, 6.030699e+003
2.762542e+002, 6.061195e+003
2.767363e+002, 6.091310e+003
2.772184e+002, 6.118690e+003
2.777006e+002, 6.134547e+003
2.781827e+002, 6.124582e+003
2.786648e+002, 6.114273e+003
2.791469e+002, 6.124800e+003
2.796290e+002, 6.153796e+003
2.801111e+002, 6.180454e+003
2.805933e+002, 6.190691e+003
2.810754e+002, 6.189611e+003
2.815575e+002, 6.196671e+003
2.820396e+002, 6.217141e+003
2.825217e+002, 6.239218e+003
2.830038e+002, 6.258069e+003
2.834860e+002, 6.273243e+003
2.839681e+002, 6.281989e+003
2.844502e+002, 6.281135e+003
2.849323e+002, 6.274375e+003
2.854144e+002, 6.270298e+003
2.858965e+002, 6.270272e+003
2.863787e+002, 6.269532e+003
2.868608e+002, 6.261861e+003
2.873429e+002, 6.250462e+003
2.878250e+002, 6.246307e+003
2.883071e+002, 6.251825e+003
2.887892e+002, 6.268476e+003
2.892714e+002, 6.300863e+003
2.897535e+002, 6.351166e+003
2.902356e+002, 6.396841e+003
2.907177e+002, 6.428709e+003
2.911998e+002, 6.448085e+003
2.916819e+002, 6.456267e+003
2.921641e+002, 6.448489e+003
2.926462e+002, 6.439421e+003
2.931283e+002, 6.446263e+003
2.936104e+002, 6.467073e+003
2.940925e+002, 6.490033e+003
2.945746e+002, 6.513887e+003
2.950568e+002, 6.536132e+003
2.955389e+002, 6.550020e+003
2.960210e+002, 6.552153e+003
2.965031e+002, 6.553737e+003
2.969852e+002, 6.566840e+003
2.974673e+002, 6.587538e+003
2.979495e+002, 6.605434e+003
2.984316e+002, 6.621025e+003
2.989137e+002, 6.630390e+003
2.993958e+002, 6.621125e+003
2.998779e+002, 6.587253e+003
3.003600e+002, 6.563077e+003
3.008422e+002, 6.583708e+003
3.013243e+002, 6.628149e+003
3.018064e+002, 6.660476e+003
3.022885e+002, 6.665813e+003
3.027706e+002, 6.663111e+003
3.032527e+002, 6.675739e+003
3.037349e+002, 6.704974e+003
3.042170e+002, 6.732150e+003
3.046991e+002, 6.749223e+003
3.051812e+002, 6.758416e+003
3.056633e+002, 6.760590e+003
3.061454e+002, 6.751253e+003
3.066276e+002, 6.746271e+003
3.071097e+002, 6.763216e+003
3.075918e+002, 6.800736e+003
3.080739e+002, 6.836099e+003
3.085560e+002, 6.862552e+003
3.090381e+002, 6.882358e+003
3.095203e+002, 6.899300e+003
3.100024e+002, 6.913680e+003
3.104845e+002, 6.923521e+003
3.109666e+002, 6.922810e+003
3.114487e+002, 6.914731e+003
3.119308e+002, 6.916500e+003
3.124130e+002, 6.936944e+003
3.128951e+002, 6.960020e+003
3.133772e+002, 6.968645e+003
3.138593e+002, 6.965138e+003
3.143414e+002, 6.964520e+003
3.148235e+002, 6.979034e+003
3.153057e+002, 7.001757e+003
3.157878e+002, 7.012843e+003
3.162699e+002, 7.005423e+003
3.167520e+002, 6.998967e+003
3.172341e+002, 7.008727e+003
3.177162e+002, 7.030027e+003
3.181984e+002, 7.054252e+003
3.186805e+002, 7.081168e+003
3.191626e+002, 7.107928e+003
3.196447e+002, 7.130363e+003
3.201268e+002, 7.148476e+003
3.206089e+002, 7.162357e+003
3.210911e+002, 7.168946e+003
3.215732e+002, 7.172156e+003
3.220553e+002, 7.176572e+003
3.225374e+002, 7.181408e+003
3.230195e+002, 7.190565e+003
3.235016e+002, 7.211617e+003
3.239838e+002, 7.244826e+003
3.244659e+002, 7.272605e+003
3.249480e+002, 7.287519e+003
3.254301e+002, 7.293399e+003
3.259122e+002, 7.293354e+003
3.263943e+002, 7.285757e+003
3.268765e+002, 7.281750e+003
3.273586e+002, 7.294575e+003
3.278407e+002, 7.320177e+003
3.283228e+002, 7.333792e+003
3.288049e+002, 7.322068e+003
3.292870e+002, 7.307490e+003
3.297692e+002, 7.312598e+003
3.302513e+002, 7.335938e+003
3.307334e+002, 7.365472e+003
3.312155e+002, 7.401671e+003
3.316976e+002, 7.439308e+003
3.321797e+002, 7.464886e+003
3.326619e+002, 7.474391e+003
3.331440e+002, 7.479112e+003
3.336261e+002, 7.487452e+003
3.341082e+002, 7.498079e+003
3.345903e+002, 7.508051e+003
3.350724e+002, 7.512328e+003
3.355546e+002, 7.517472e+003
3.360367e+002, 7.536335e+003
3.365188e+002, 7.570822e+003
3.370009e+002, 7.597551e+003
3.374830e+002, 7.592826e+003
3.379651e+002, 7.574704e+003
3.384473e+002, 7.579074e+003
3.389294e+002, 7.623874e+003
3.394115e+002, 7.669492e+003
3.398936e+002, 7.676266e+003
3.403757e+002, 7.650404e+003
3.408578e+002, 7.640047e+003
3.413400e+002, 7.670652e+003
3.418221e+002, 7.717819e+003
3.423042e+002, 7.741639e+003
3.427863e+002, 7.737755e+003
3.432684e+002, 7.736926e+003
3.437505e+002, 7.759232e+003
3.442327e+002, 7.795530e+003
3.447148e+002, 7.822933e+003
3.451969e+002, 7.834773e+003
3.456790e+002, 7.841837e+003
3.461611e+002, 7.857446e+003
3.466432e+002, 7.880075e+003
3.471254e+002, 7.899774e+003
3.476075e+002, 7.913346e+003
3.480896e+002, 7.922883e+003
3.485717e+002, 7.929150e+003
3.490538e+002, 7.932054e+003
3.495359e+002, 7.936405e+003
3.500181e+002, 7.943980e+003
3.505002e+002, 7.956363e+003
3.509823e+002, 7.977672e+003
3.514644e+002, 8.022316e+003
3.519465e+002, 8.063701e+003
3.524286e+002, 8.077984e+003
3.529108e+002, 8.070891e+003
3.533929e+002, 8.071681e+003
3.538750e+002, 8.098110e+003
3.543571e+002, 8.137375e+003
3.548392e+002, 8.156604e+003
3.553214e+002, 8.148101e+003
3.558035e+002, 8.140378e+003
3.562856e+002, 8.150007e+003
3.567677e+002, 8.166085e+003
3.572498e+002, 8.162967e+003
3.577319e+002, 8.129756e+003
3.582141e+002, 8.096212e+003
3.586962e+002, 8.107764e+003
3.591783e+002, 8.172356e+003
3.596604e+002, 8.230488e+003
3.601425e+002, 8.282761e+003
3.606246e+002, 8.321542e+003
3.611068e+002, 8.331694e+003
3.615889e+002, 8.314566e+003
3.620710e+002, 8.297307e+003
3.625531e+002, 8.303020e+003
3.630352e+002, 8.331848e+003
3.635173e+002, 8.356783e+003
3.639995e+002, 8.376539e+003
3.644816e+002, 8.394243e+003
3.649637e+002, 8.407274e+003
3.654458e+002, 8.419096e+003
3.659279e+002, 8.441359e+003
3.664100e+002, 8.482789e+003
3.668922e+002, 8.532424e+003
3.673743e+002, 8.552536e+003
3.678564e+002, 8.510126e+003
3.683385e+002, 8.486879e+003
3.688206e+002, 8.511137e+003
3.693027e+002, 8.552222e+003
3.697849e+002, 8.569964e+003
3.702670e+002, 8.554199e+003
3.707491e+002, 8.532848e+003
3.712312e+002, 8.547062e+003
3.717133e+002, 8.617364e+003
3.721954e+002, 8.660041e+003
3.726776e+002, 8.656323e+003
3.731597e+002, 8.642984e+003
3.736418e+002, 8.638392e+003
3.741239e+002, 8.644892e+003
3.746060e+002, 8.659190e+003
3.750881e+002, 8.679257e+003
3.755703e+002, 8.704967e+003
3.760524e+002, 8.733466e+003
3.765345e+002, 8.774599e+003
3.770166e+002, 8.807545e+003
3.774987e+002, 8.823188e+003
3.779808e+002, 8.828958e+003
3.784630e+002, 8.835195e+003
3.789451e+002, 8.846658e+003
3.794272e+002, 8.861919e+003
3.799093e+002, 8.877523e+003
3.803914e+002, 8.892584e+003
3.808735e+002, 8.909836e+003
3.813557e+002, 8.935390e+003
3.818378e+002, 8.958730e+003
3.823199e+002, 8.968803e+003
3.828020e+002, 8.966097e+003
3.832841e+002, 8.962884e+003
3.837662e+002, 8.973447e+003
3.842484e+002, 9.000002e+003
3.847305e+002, 9.024893e+003
3.852126e+002, 9.050453e+003
3.856947e+002, 9.071882e+003
3.861768e+002, 9.086748e+003
3.866589e+002, 9.096195e+003
3.871411e+002, 9.101522e+003
3.876232e+002, 9.102090e+003
3.881053e+002, 9.101360e+003
3.885874e+002, 9.112356e+003
3.890695e+002, 9.140177e+003
3.895516e+002, 9.170615e+003
3.900338e+002, 9.207091e+003
3.905159e+002, 9.240901e+003
3.909980e+002, 9.261048e+003
3.914801e+002, 9.264787e+003
3.919622e+002, 9.265223e+003
3.924443e+002, 9.280554e+003
3.929265e+002, 9.312929e+003
3.934086e+002, 9.339386e+003
3.938907e+002, 9.353711e+003
3.943728e+002, 9.364313e+003
3.948549e+002, 9.374313e+003
3.953370e+002, 9.384508e+003
3.958192e+002, 9.396669e+003
3.963013e+002, 9.416056e+003
3.967834e+002, 9.438224e+003
3.972655e+002, 9.443517e+003
3.977476e+002, 9.420391e+003
3.982297e+002, 9.410510e+003
3.987119e+002, 9.451276e+003
3.991940e+002, 9.513619e+003
3.996761e+002, 9.561895e+003
4.001582e+002, 9.587397e+003
4.006403e+002, 9.596050e+003
4.011224e+002, 9.584687e+003
4.016046e+002, 9.555105e+003
4.020867e+002, 9.540643e+003
4.025688e+002, 9.555403e+003
4.030509e+002, 9.585584e+003
4.035330e+002, 9.616415e+003
4.040151e+002, 9.648112e+003
4.044973e+002, 9.674354e+003
4.049794e+002, 9.683550e+003
4.054615e+002, 9.687965e+003
4.059436e+002, 9.716586e+003
4.064257e+002, 9.776671e+003
4.069078e+002, 9.826964e+003
4.073900e+002, 9.824278e+003
4.078721e+002, 9.779876e+003
4.083542e+002, 9.756521e+003
4.088363e+002, 9.763325e+003
4.093184e+002, 9.788011e+003
4.098005e+002, 9.833196e+003
4.102827e+002, 9.892049e+003
4.107648e+002, 9.940548e+003
4.112469e+002, 9.967441e+003
4.117290e+002, 9.979437e+003
4.122111e+002, 9.990035e+003
4.126932e+002, 9.998150e+003
4.131754e+002, 1.000763e+004
4.136575e+002, 1.002114e+004
4.141396e+002, 1.003520e+004
4.146217e+002, 1.004389e+004
4.151038e+002, 1.004702e+004
4.155859e+002, 1.005415e+004
4.160681e+002, 1.007768e+004
4.165502e+002, 1.012106e+004
4.170323e+002, 1.013895e+004
4.175144e+002, 1.009945e+004
4.179965e+002, 1.007181e+004
4.184786e+002, 1.009448e+004
4.189608e+002, 1.014846e+004
4.194429e+002, 1.019548e+004
4.199250e+002, 1.021575e+004
4.204071e+002, 1.021719e+004
4.208892e+002, 1.022016e+004
4.213713e+002, 1.020762e+004
4.218535e+002, 1.022512e+004
4.223356e+002, 1.031468e+004
4.228177e+002, 1.040452e+004
4.232998e+002, 1.042756e+004
4.237819e+002, 1.038310e+004
4.242640e+002, 1.032974e+004
4.247462e+002, 1.033149e+004
4.252283e+002, 1.039352e+004
4.257104e+002, 1.043312e+004
4.261925e+002, 1.042216e+004
4.266746e+002, 1.041839e+004
4.271567e+002, 1.044410e+004
4.276389e+002, 1.048637e+004
4.281210e+002, 1.052345e+004
4.286031e+002, 1.054418e+004
4.290852e+002, 1.055782e+004
4.295673e+002, 1.058459e+004
4.300494e+002, 1.062979e+004
4.305316e+002, 1.066925e+004
4.310137e+002, 1.070049e+004
4.314958e+002, 1.072133e+004
4.319779e+002, 1.072161e+004
4.324600e+002, 1.070380e+004
4.329421e+002, 1.069334e+004
4.334243e+002, 1.071558e+004
4.339064e+002, 1.076254e+004
4.343885e+002, 1.079805e+004
4.348706e+002, 1.081538e+004
4.353527e+002, 1.083342e+004
4.358348e+002, 1.087630e+004
4.363170e+002, 1.092640e+004
4.367991e+002, 1.095011e+004
4.372812e+002, 1.092106e+004
4.377633e+002, 1.088856e+004
4.382454e+002, 1.090411e+004
4.387275e+002, 1.096114e+004
4.392097e+002, 1.101474e+004
4.396918e+002, 1.105049e+004
4.401739e+002, 1.107435e+004
4.406560e+002, 1.109321e+004
4.411381e+002, 1.110690e+004
4.416202e+002, 1.112082e+004
4.421024e+002, 1.113785e+004
4.425845e+002, 1.115510e+004
4.430666e+002, 1.116931e+004
4.435487e+002, 1.118021e+004
4.440308e+002, 1.118885e+004
4.445129e+002, 1.119599e+004
4.449951e+002, 1.120151e+004
4.454772e+002, 1.120497e+004
4.459593e+002, 1.119158e+004
4.464414e+002, 1.119333e+004
4.469235e+002, 1.123145e+004
4.474056e+002, 1.128752e+004
4.478878e+002, 1.133595e+004
4.483699e+002, 1.136782e+004
4.488520e+002, 1.138629e+004
4.493341e+002, 1.139425e+004
4.498162e+002, 1.138214e+004
4.502983e+002, 1.138760e+004
4.507805e+002, 1.143021e+004
4.512626e+002, 1.146962e+004
4.517447e+002, 1.147587e+004
4.522268e+002, 1.146039e+004
4.527089e+002, 1.145829e+004
4.531910e+002, 1.149504e+004
4.536732e+002, 1.155900e+004
4.541553e+002, 1.160052e+004
4.546374e+002, 1.160865e+004
4.551195e+002, 1.161161e+004
4.556016e+002, 1.160565e+004
4.560837e+002, 1.160242e+004
4.565659e+002, 1.161386e+004
4.570480e+002, 1.164126e+004
4.575301e+002, 1.167306e+004
4.580122e+002, 1.169411e+004
4.584943e+002, 1.170494e+004
4.589764e+002, 1.173269e+004
4.594586e+002, 1.179442e+004
4.599407e+002, 1.184839e+004
4.604228e+002, 1.186296e+004
4.609049e+002, 1.185735e+004
4.613870e+002, 1.186771e+004
4.618691e+002, 1.191445e+004
4.623513e+002, 1.196922e+004
4.628334e+002, 1.199449e+004
4.633155e+002, 1.199146e+004
4.637976e+002, 1.199146e+004
4.642797e+002, 1.200457e+004
4.647618e+002, 1.202441e+004
4.652440e+002, 1.204455e+004
4.657261e+002, 1.206526e+004
4.662082e+002, 1.208128e+004
4.666903e+002, 1.208626e+004
4.671724e+002, 1.208814e+004
4.676545e+002, 1.209152e+004
4.681367e+002, 1.209791e+004
4.686188e+002, 1.212442e+004
4.691009e+002, 1.219270e+004
4.695830e+002, 1.228740e+004
4.700651e+002, 1.233232e+004
4.705472e+002, 1.229262e+004
4.710294e+002, 1.225450e+004
4.715115e+002, 1.223212e+004
4.719936e+002, 1.222638e+004
4.724757e+002, 1.224173e+004
4.729578e+002, 1.227831e+004
4.734399e+002, 1.232702e+004
4.739221e+002, 1.238030e+004
4.744042e+002, 1.244394e+004
4.748863e+002, 1.247677e+004
4.753684e+002, 1.244904e+004
4.758505e+002, 1.242607e+004
4.763326e+002, 1.243388e+004
4.768148e+002, 1.246255e+004
4.772969e+002, 1.249516e+004
4.777790e+002, 1.252367e+004
4.782611e+002, 1.254637e+004
4.787432e+002, 1.255643e+004
4.792253e+002, 1.254522e+004
4.797075e+002, 1.254603e+004
4.801896e+002, 1.257914e+004
4.806717e+002, 1.261148e+004
4.811538e+002, 1.261536e+004
4.816359e+002, 1.259862e+004
4.821180e+002, 1.259813e+004
4.826002e+002, 1.264992e+004
4.830823e+002, 1.273242e+004
4.835644e+002, 1.278342e+004
4.840465e+002, 1.279576e+004
4.845286e+002, 1.280154e+004
4.850107e+002, 1.280991e+004
4.854929e+002, 1.282169e+004
4.859750e+002, 1.283689e+004
4.864571e+002, 1.285452e+004
4.869392e+002, 1.288037e+004
4.874213e+002, 1.292722e+004
4.879034e+002, 1.298354e+004
4.883856e+002, 1.302428e+004
4.888677e+002, 1.304569e+004
4.893498e+002, 1.305062e+004
4.898319e+002, 1.303058e+004
4.903140e+002, 1.299110e+004
4.907961e+002, 1.299013e+004
4.912783e+002, 1.306779e+004
4.917604e+002, 1.314116e+004
4.922425e+002, 1.316882e+004
4.927246e+002, 1.316657e+004
4.932067e+002, 1.316144e+004
4.936888e+002, 1.316292e+004
4.941710e+002, 1.317273e+004
4.946531e+002, 1.319414e+004
4.951352e+002, 1.323069e+004
4.956173e+002, 1.326842e+004
4.960994e+002, 1.332381e+004
4.965815e+002, 1.336444e+004
4.970637e+002, 1.335768e+004
4.975458e+002, 1.332479e+004
4.980279e+002, 1.331359e+004
4.985100e+002, 1.335272e+004
4.989921e+002, 1.342077e+004
4.994742e+002, 1.345948e+004
4.999564e+002, 1.344525e+004
5.004385e+002, 1.346187e+004
5.009206e+002, 1.356298e+004
5.014027e+002, 1.366525e+004
5.018848e+002, 1.371329e+004
5.023669e+002, 1.371032e+004
5.028491e+002, 1.369769e+004
5.033312e+002, 1.370175e+004
5.038133e+002, 1.371723e+004
5.042954e+002, 1.372747e+004
5.047775e+002, 1.372909e+004
5.052596e+002, 1.374254e+004
5.057418e+002, 1.379218e+004
5.062239e+002, 1.385074e+004
5.067060e+002, 1.387643e+004
5.071881e+002, 1.385925e+004
5.076702e+002, 1.384259e+004
5.081523e+002, 1.384906e+004
5.086345e+002, 1.386980e+004
5.091166e+002, 1.389011e+004
5.095987e+002, 1.390788e+004
5.100808e+002, 1.392878e+004
5.105629e+002, 1.395983e+004
5.110450e+002, 1.399904e+004
5.115272e+002, 1.402548e+004
5.120093e+002, 1.402753e+004
5.124914e+002, 1.403246e+004
5.129735e+002, 1.404671e+004
5.134556e+002, 1.406899e+004
5.139377e+002, 1.410117e+004
5.144199e+002, 1.414221e+004
5.149020e+002, 1.418212e+004
5.153841e+002, 1.420688e+004
5.158662e+002, 1.421352e+004
5.163483e+002, 1.422543e+004
5.168304e+002, 1.425271e+004
5.173126e+002, 1.427454e+004
5.177947e+002, 1.427444e+004
5.182768e+002, 1.426839e+004
5.187589e+002, 1.428224e+004
5.192410e+002, 1.432696e+004
5.197231e+002, 1.438256e+004
5.202053e+002, 1.442038e+004
5.206874e+002, 1.443910e+004
5.211695e+002, 1.445812e+004
5.216516e+002, 1.448320e+004
5.221337e+002, 1.450448e+004
5.226158e+002, 1.451074e+004
5.230980e+002, 1.450789e+004
5.235801e+002, 1.451280e+004
5.240622e+002, 1.452882e+004
5.245443e+002, 1.455762e+004
5.250264e+002, 1.460990e+004
5.255085e+002, 1.468069e+004
5.259907e+002, 1.473775e+004
5.264728e+002, 1.476945e+004
5.269549e+002, 1.478448e+004
5.274370e+002, 1.479250e+004
5.279191e+002, 1.479175e+004
5.284012e+002, 1.479665e+004
5.288834e+002, 1.480895e+004
5.293655e+002, 1.482712e+004
5.298476e+002, 1.485448e+004
5.303297e+002, 1.488712e+004
5.308118e+002, 1.491366e+004
5.312939e+002, 1.492742e+004
5.317761e+002, 1.493476e+004
5.322582e+002, 1.495198e+004
5.327403e+002, 1.498316e+004
5.332224e+002, 1.501681e+004
5.337045e+002, 1.505758e+004
5.341866e+002, 1.509580e+004
5.346688e+002, 1.512421e+004
5.351509e+002, 1.514474e+004
5.356330e+002, 1.516474e+004
5.361151e+002, 1.518929e+004
5.365972e+002, 1.521613e+004
5.370793e+002, 1.523831e+004
5.375615e+002, 1.525356e+004
5.380436e+002, 1.527335e+004
5.385257e+002, 1.530418e+004
5.390078e+002, 1.533864e+004
5.394899e+002, 1.536809e+004
5.399720e+002, 1.539308e+004
5.404542e+002, 1.542537e+004
5.409363e+002, 1.548155e+004
5.414184e+002, 1.554305e+004
5.419005e+002, 1.558276e+004
5.423826e+002, 1.560033e+004
5.428647e+002, 1.560714e+004
5.433469e+002, 1.560398e+004
5.438290e+002, 1.559914e+004
5.443111e+002, 1.561703e+004
5.447932e+002, 1.567050e+004
5.452753e+002, 1.571250e+004
5.457574e+002, 1.572534e+004
5.462396e+002, 1.573209e+004
5.467217e+002, 1.575550e+004
5.472038e+002, 1.579337e+004
5.476859e+002, 1.582512e+004
5.481680e+002, 1.583480e+004
5.486501e+002, 1.582995e+004
5.491323e+002, 1.584490e+004
5.496144e+002, 1.589153e+004
5.500965e+002, 1.593800e+004
5.505786e+002, 1.598707e+004
5.510607e+002, 1.603022e+004
5.515428e+002, 1.605484e+004
5.520250e+002, 1.606470e+004
5.525071e+002, 1.608140e+004
5.529892e+002, 1.612688e+004
5.534713e+002, 1.618882e+004
5.539534e+002, 1.623150e+004
5.544355e+002, 1.625258e+004
5.549177e+002, 1.626483e+004
5.553998e+002, 1.626512e+004
5.558819e+002, 1.626513e+004
5.563640e+002, 1.628186e+004
5.568461e+002, 1.631768e+004
5.573282e+002, 1.635233e+004
5.578104e+002, 1.637606e+004
5.582925e+002, 1.639574e+004
5.587746e+002, 1.641719e+004
5.592567e+002, 1.644173e+004
5.597388e+002, 1.647342e+004
5.602209e+002, 1.651651e+004
5.607031e+002, 1.656605e+004
5.611852e+002, 1.660638e+004
5.616673e+002, 1.663125e+004
5.621494e+002, 1.665579e+004
5.626315e+002, 1.668401e+004
5.631136e+002, 1.670902e+004
5.635958e+002, 1.671977e+004
5.640779e+002, 1.672145e+004
5.645600e+002, 1.673225e+004
5.650421e+002, 1.676629e+004
5.655242e+002, 1.681673e+004
5.660063e+002, 1.686206e+004
5.664885e+002, 1.690284e+004
5.669706e+002, 1.693603e+004
5.674527e+002, 1.695122e+004
5.679348e+002, 1.696545e+004
5.684169e+002, 1.699610e+004
5.688990e+002, 1.704000e+004
5.693812e+002, 1.707220e+004
5.698633e+002, 1.705811e+004
5.703454e+002, 1.703578e+004
5.708275e+002, 1.707362e+004
5.713096e+002, 1.716672e+004
5.717917e+002, 1.723942e+004
5.722739e+002, 1.725887e+004
5.727560e+002, 1.724350e+004
5.732381e+002, 1.721837e+004
5.737202e+002, 1.717106e+004
5.742023e+002, 1.716243e+004
5.746844e+002, 1.722160e+004
5.751666e+002, 1.730088e+004
5.756487e+002, 1.737782e+004
5.761308e+002, 1.744714e+004
5.766129e+002, 1.750750e+004
5.770950e+002, 1.755911e+004
5.775771e+002, 1.759381e+004
5.780593e+002, 1.758518e+004
5.785414e+002, 1.749983e+004
5.790235e+002, 1.746243e+004
5.795056e+002, 1.751664e+004
5.799877e+002, 1.758548e+004
5.804698e+002, 1.763543e+004
5.809520e+002, 1.767305e+004
5.814341e+002, 1.772201e+004
5.819162e+002, 1.780004e+004
5.823983e+002, 1.787864e+004
5.828804e+002, 1.791504e+004
5.833625e+002, 1.791298e+004
5.838447e+002, 1.790732e+004
5.843268e+002, 1.789874e+004
5.848089e+002, 1.790557e+004
5.852910e+002, 1.795646e+004
5.857731e+002, 1.804641e+004
5.862552e+002, 1.812218e+004
5.867374e+002, 1.817848e+004
5.872195e+002, 1.822050e+004
5.877016e+002, 1.824593e+004
5.881837e+002, 1.826000e+004
5.886658e+002, 1.826605e+004
5.891479e+002, 1.826641e+004
5.896301e+002, 1.827625e+004
5.901122e+002, 1.831886e+004
5.905943e+002, 1.840063e+004
5.910764e+002, 1.845290e+004
5.915585e+002, 1.844566e+004
5.920406e+002, 1.844303e+004
5.925228e+002, 1.846199e+004
5.930049e+002, 1.849265e+004
5.934870e+002, 1.852149e+004
5.939691e+002, 1.854532e+004
5.944512e+002, 1.857402e+004
5.949333e+002, 1.862703e+004
5.954155e+002, 1.869482e+004
5.958976e+002, 1.872823e+004
5.963797e+002, 1.871501e+004
5.968618e+002, 1.871109e+004
5.973439e+002, 1.875722e+004
5.978260e+002, 1.883212e+004
5.983082e+002, 1.888263e+004
5.987903e+002, 1.890343e+004
5.992724e+002, 1.891373e+004
5.997545e+002, 1.889328e+004
6.002366e+002, 1.888179e+004
6.007188e+002, 1.893908e+004
6.012009e+002, 1.905652e+004
6.016830e+002, 1.916349e+004
6.021651e+002, 1.921268e+004
6.026472e+002, 1.921547e+004
6.031293e+002, 1.921145e+004
6.036115e+002, 1.918464e+004
6.040936e+002, 1.918119e+004
6.045757e+002, 1.920871e+004
6.050578e+002, 1.925339e+004
6.055399e+002, 1.932159e+004
6.060220e+002, 1.940078e+004
6.065042e+002, 1.945672e+004
6.069863e+002, 1.945917e+004
6.074684e+002, 1.944466e+004
6.079505e+002, 1.947998e+004
6.084326e+002, 1.956363e+004
6.089147e+002, 1.963170e+004
6.093969e+002, 1.966565e+004
6.098790e+002, 1.968254e+004
6.103611e+002, 1.969555e+004
6.108432e+002, 1.970549e+004
6.113253e+002, 1.972284e+004
6.118074e+002, 1.974616e+004
6.122896e+002, 1.977986e+004
6.127717e+002, 1.983897e+004
6.132538e+002, 1.990642e+004
6.137359e+002, 1.995002e+004
6.142180e+002, 1.996154e+004
6.147001e+002, 1.996388e+004
6.151823e+002, 1.998447e+004
6.156644e+002, 2.002432e+004
6.161465e+002, 2.006068e+004
6.166286e+002, 2.009377e+004
6.171107e+002, 2.012239e+004
6.175928e+002, 2.013416e+004
6.180750e+002, 2.014823e+004
6.185571e+002, 2.019254e+004
6.190392e+002, 2.027034e+004
6.195213e+002, 2.033946e+004
6.200034e+002, 2.036072e+004
6.204855e+002, 2.035237e+004
6.209677e+002, 2.035038e+004
6.214498e+002, 2.035602e+004
6.219319e+002, 2.037922e+004
6.224140e+002, 2.042808e+004
6.228961e+002, 2.049414e+004
6.233782e+002, 2.056362e+004
6.238604e+002, 2.064436e+004
6.243425e+002, 2.070402e+004
6.248246e+002, 2.071906e+004
6.253067e+002, 2.072917e+004
6.257888e+002, 2.076173e+004
6.262709e+002, 2.081156e+004
6.267531e+002, 2.086234e+004
6.272352e+002, 2.090586e+004
6.277173e+002, 2.094386e+004
6.281994e+002, 2.097707e+004
6.286815e+002, 2.100312e+004
6.291636e+002, 2.103819e+004
6.296458e+002, 2.109359e+004
6.301279e+002, 2.114397e+004
6.306100e+002, 2.117239e+004
6.310921e+002, 2.118896e+004
6.315742e+002, 2.121210e+004
6.320563e+002, 2.124861e+004
6.325385e+002, 2.128548e+004
6.330206e+002, 2.130824e+004
6.335027e+002, 2.132601e+004
6.339848e+002, 2.136186e+004
6.344669e+002, 2.141857e+004
6.349490e+002, 2.146947e+004
6.354312e+002, 2.149295e+004
6.359133e+002, 2.149659e+004
6.363954e+002, 2.151656e+004
6.368775e+002, 2.156223e+004
6.373596e+002, 2.161261e+004
6.378417e+002, 2.166929e+004
6.383239e+002, 2.172852e+004
6.388060e+002, 2.180102e+004
6.392881e+002, 2.187480e+004
6.397702e+002, 2.191297e+004
6.402523e+002, 2.188564e+004
6.407344e+002, 2.183093e+004
6.412166e+002, 2.182306e+004
6.416987e+002, 2.186369e+004
6.421808e+002, 2.191220e+004
6.426629e+002, 2.196209e+004
6.431450e+002, 2.201605e+004
6.436271e+002, 2.208579e+004
6.441093e+002, 2.216391e+004
6.445914e+002, 2.221924e+004
6.450735e+002, 2.222492e+004
6.455556e+002, 2.223266e+004
6.460377e+002, 2.227296e+004
6.465198e+002, 2.232749e+004
6.470020e+002, 2.236879e+004
6.474841e+002, 2.239239e+004
6.479662e+002, 2.241353e+004
6.484483e+002, 2.244650e+004
6.489304e+002, 2.248844e+004
6.494125e+002, 2.251668e+004
6.498947e+002, 2.250497e+004
6.503768e+002, 2.252958e+004
6.508589e+002, 2.264700e+004
6.513410e+002, 2.276861e+004
6.518231e+002, 2.283441e+004
6.523052e+002, 2.284527e+004
6.527874e+002, 2.283276e+004
6.532695e+002, 2.278583e+004
6.537516e+002, 2.274884e+004
6.542337e+002, 2.279452e+004
6.547158e+002, 2.290380e+004
6.551979e+002, 2.298719e+004
6.556801e+002, 2.301747e+004
6.561622e+002, 2.302477e+004
6.566443e+002, 2.303737e+004
6.571264e+002, 2.305442e+004
6.576085e+002, 2.309510e+004
6.580906e+002, 2.318818e+004
6.585728e+002, 2.326556e+004
6.590549e+002, 2.329725e+004
6.595370e+002, 2.331429e+004
6.600191e+002, 2.335794e+004
6.605012e+002, 2.342833e+004
6.609833e+002, 2.348162e+004
6.614655e+002, 2.347077e+004
6.619476e+002, 2.342198e+004
6.624297e+002, 2.342053e+004
6.629118e+002, 2.347206e+004
6.633939e+002, 2.352595e+004
6.638760e+002, 2.356360e+004
6.643582e+002, 2.360082e+004
6.648403e+002, 2.366352e+004
6.653224e+002, 2.374891e+004
6.658045e+002, 2.381465e+004
6.662866e+002, 2.384243e+004
6.667687e+002, 2.386112e+004
6.672509e+002, 2.387993e+004
6.677330e+002, 2.390248e+004
6.682151e+002, 2.393397e+004
6.686972e+002, 2.397563e+004
6.691793e+002, 2.402468e+004
6.696614e+002, 2.408092e+004
6.701436e+002, 2.414308e+004
6.706257e+002, 2.419209e+004
6.711078e+002, 2.422222e+004
6.715899e+002, 2.425128e+004
6.720720e+002, 2.427432e+004
6.725541e+002, 2.430549e+004
6.730363e+002, 2.436904e+004
6.735184e+002, 2.446009e+004
6.740005e+002, 2.452588e+004
6.744826e+002, 2.452097e+004
6.749647e+002, 2.449948e+004
6.754468e+002, 2.451667e+004
6.759290e+002, 2.456246e+004
6.764111e+002, 2.460384e+004
6.768932e+002, 2.463033e+004
6.773753e+002, 2.465656e+004
6.778574e+002, 2.469975e+004
6.783395e+002, 2.476052e+004
6.788217e+002, 2.482301e+004
6.793038e+002, 2.490776e+004
6.797859e+002, 2.496710e+004
6.802680e+002, 2.497157e+004
6.807501e+002, 2.496172e+004
6.812322e+002, 2.497312e+004
6.817144e+002, 2.500893e+004
6.821965e+002, 2.505169e+004
6.826786e+002, 2.508807e+004
6.831607e+002, 2.512568e+004
6.836428e+002, 2.517618e+004
6.841249e+002, 2.523928e+004
6.846071e+002, 2.531621e+004
6.850892e+002, 2.541359e+004
6.855713e+002, 2.550202e+004
6.860534e+002, 2.554498e+004
6.865355e+002, 2.553887e+004
6.870176e+002, 2.554300e+004
6.874998e+002, 2.555763e+004
6.879819e+002, 2.558060e+004
6.884640e+002, 2.561492e+004
6.889461e+002, 2.565491e+004
6.894282e+002, 2.569278e+004
6.899103e+002, 2.572932e+004
6.903925e+002, 2.577571e+004
6.908746e+002, 2.584564e+004
6.913567e+002, 2.592603e+004
6.918388e+002, 2.598885e+004
6.923209e+002, 2.603451e+004
6.928030e+002, 2.604913e+004
6.932852e+002, 2.600867e+004
6.937673e+002, 2.597510e+004
6.942494e+002, 2.602802e+004
6.947315e+002, 2.616001e+004
6.952136e+002, 2.624542e+004
6.956957e+002, 2.624954e+004
6.961779e+002, 2.624368e+004
6.966600e+002, 2.623026e+004
6.971421e+002, 2.623244e+004
6.976242e+002, 2.628996e+004
6.981063e+002, 2.639618e+004
6.985884e+002, 2.649384e+004
6.990706e+002, 2.653490e+004
6.995527e+002, 2.654383e+004
7.000348e+002, 2.660199e+004
7.005169e+002, 2.672361e+004
7.009990e+002, 2.679640e+004
7.014811e+002, 2.676513e+004
7.019633e+002, 2.672640e+004
7.024454e+002, 2.677084e+004
7.029275e+002, 2.687624e+004
7.034096e+002, 2.697360e+004
7.038917e+002, 2.707060e+004
7.043738e+002, 2.713499e+004
7.048560e+002, 2.712396e+004
7.053381e+002, 2.709027e+004
7.058202e+002, 2.709260e+004
7.063023e+002, 2.713847e+004
7.067844e+002, 2.721510e+004
7.072665e+002, 2.731775e+004
7.077487e+002, 2.742971e+004
7.082308e+002, 2.749882e+004
7.087129e+002, 2.751415e+004
7.091950e+002, 2.753826e+004
7.096771e+002, 2.758742e+004
7.101592e+002, 2.763469e+004
7.106414e+002, 2.764801e+004
7.111235e+002, 2.764919e+004
7.116056e+002, 2.769104e+004
7.120877e+002, 2.780762e+004
7.125698e+002, 2.790563e+004
7.130519e+002, 2.791515e+004
7.135341e+002, 2.789609e+004
7.140162e+002, 2.792134e+004
7.144983e+002, 2.798999e+004
7.149804e+002, 2.806353e+004
7.154625e+002, 2.812134e+004
7.159446e+002, 2.816408e+004
7.164268e+002, 2.818465e+004
7.169089e+002, 2.816704e+004
7.173910e+002, 2.820317e+004
7.178731e+002, 2.834170e+004
7.183552e+002, 2.847147e+004
7.188373e+002, 2.854552e+004
7.193195e+002, 2.857795e+004
7.198016e+002, 2.857603e+004
7.202837e+002, 2.853000e+004
7.207658e+002, 2.851431e+004
7.212479e+002, 2.858713e+004
7.217300e+002, 2.869192e+004
7.222122e+002, 2.877365e+004
7.226943e+002, 2.883185e+004
7.231764e+002, 2.888193e+004
7.236585e+002, 2.893062e+004
7.241406e+002, 2.897401e+004
7.246227e+002, 2.900461e+004
7.251049e+002, 2.902090e+004
7.255870e+002, 2.903985e+004
7.260691e+002, 2.905798e+004
7.265512e+002, 2.908441e+004
7.270333e+002, 2.911984e+004
7.275154e+002, 2.916609e+004
7.279976e+002, 2.923015e+004
7.284797e+002, 2.931162e+004
7.289618e+002, 2.938688e+004
7.294439e+002, 2.943864e+004
7.299260e+002, 2.948586e+004
7.304081e+002, 2.954143e+004
7.308903e+002, 2.960628e+004
7.313724e+002, 2.968545e+004
7.318545e+002, 2.977929e+004
7.323366e+002, 2.987310e+004
7.328187e+002, 2.995350e+004
7.333008e+002, 3.001989e+004
7.337830e+002, 3.006299e+004
7.342651e+002, 3.006540e+004
7.347472e+002, 3.008244e+004
7.352293e+002, 3.013451e+004
7.357114e+002, 3.019914e+004
7.361935e+002, 3.027379e+004
7.366757e+002, 3.035018e+004
7.371578e+002, 3.039619e+004
7.376399e+002, 3.038094e+004
7.381220e+002, 3.036013e+004
7.386041e+002, 3.036307e+004
7.390862e+002, 3.038782e+004
7.395684e+002, 3.043957e+004
7.400505e+002, 3.051386e+004
7.405326e+002, 3.058294e+004
7.410147e+002, 3.062439e+004
7.414968e+002, 3.065275e+004
7.419789e+002, 3.072122e+004
7.424611e+002, 3.085383e+004
7.429432e+002, 3.093335e+004
7.434253e+002, 3.089412e+004
7.439074e+002, 3.086889e+004
7.443895e+002, 3.096090e+004
7.448716e+002, 3.111073e+004
7.453538e+002, 3.120542e+004
7.458359e+002, 3.121299e+004
7.463180e+002, 3.121347e+004
7.468001e+002, 3.122835e+004
7.472822e+002, 3.126408e+004
7.477643e+002, 3.134400e+004
7.482465e+002, 3.145185e+004
7.487286e+002, 3.153503e+004
7.492107e+002, 3.156934e+004
7.496928e+002, 3.159094e+004
7.501749e+002, 3.166337e+004
7.506570e+002, 3.179142e+004
7.511392e+002, 3.186314e+004
7.516213e+002, 3.184165e+004
7.521034e+002, 3.185083e+004
7.525855e+002, 3.197659e+004
7.530676e+002, 3.213237e+004
7.535497e+002, 3.220612e+004
7.540319e+002, 3.219401e+004
7.545140e+002, 3.218983e+004
7.549961e+002, 3.219931e+004
7.554782e+002, 3.223994e+004
7.559603e+002, 3.235656e+004
7.564424e+002, 3.249705e+004
7.569246e+002, 3.257751e+004
7.574067e+002, 3.258488e+004
7.578888e+002, 3.257384e+004
7.583709e+002, 3.259246e+004
7.588530e+002, 3.262800e+004
7.593351e+002, 3.262683e+004
7.598173e+002, 3.257957e+004
7.602994e+002, 3.257653e+004
7.607815e+002, 3.264334e+004
7.612636e+002, 3.274808e+004
7.617457e+002, 3.288700e+004
7.622278e+002, 3.304471e+004
7.627100e+002, 3.314907e+004
7.631921e+002, 3.316494e+004
7.636742e+002, 3.317962e+004
7.641563e+002, 3.321055e+004
7.646384e+002, 3.325013e+004
7.651205e+002, 3.330260e+004
7.656027e+002, 3.335793e+004
7.660848e+002, 3.338772e+004
7.665669e+002, 3.337721e+004
7.670490e+002, 3.336509e+004
7.675311e+002, 3.340694e+004
7.680132e+002, 3.349372e+004
7.684954e+002, 3.357964e+004
7.689775e+002, 3.366384e+004
7.694596e+002, 3.372905e+004
7.699417e+002, 3.376089e+004
7.704238e+002, 3.377776e+004
7.709059e+002, 3.380852e+004
7.713881e+002, 3.384962e+004
7.718702e+002, 3.392177e+004
7.723523e+002, 3.405968e+004
7.728344e+002, 3.418634e+004
7.733165e+002, 3.427496e+004
7.737986e+002, 3.433799e+004
7.742808e+002, 3.438820e+004
7.747629e+002, 3.442878e+004
7.752450e+002, 3.446008e+004
7.757271e+002, 3.446571e+004
7.762092e+002, 3.447824e+004
7.766913e+002, 3.455909e+004
7.771735e+002, 3.469165e+004
7.776556e+002, 3.481169e+004
7.781377e+002, 3.490558e+004
7.786198e+002, 3.496720e+004
7.791019e+002, 3.498387e+004
7.795840e+002, 3.496890e+004
7.800662e+002, 3.499154e+004
7.805483e+002, 3.507218e+004
7.810304e+002, 3.515198e+004
7.815125e+002, 3.523182e+004
7.819946e+002, 3.530520e+004
7.824767e+002, 3.536659e+004
7.829589e+002, 3.542015e+004
7.834410e+002, 3.547369e+004
7.839231e+002, 3.552998e+004
7.844052e+002, 3.558337e+004
7.848873e+002, 3.562367e+004
7.853694e+002, 3.566393e+004
7.858516e+002, 3.572139e+004
7.863337e+002, 3.579353e+004
7.868158e+002, 3.587052e+004
7.872979e+002, 3.594832e+004
7.877800e+002, 3.602121e+004
7.882621e+002, 3.608152e+004
7.887443e+002, 3.612933e+004
7.892264e+002, 3.617453e+004
7.897085e+002, 3.621591e+004
7.901906e+002, 3.625769e+004
7.906727e+002, 3.629339e+004
7.911548e+002, 3.633813e+004
7.916370e+002, 3.641800e+004
7.921191e+002, 3.652561e+004
7.926012e+002, 3.660568e+004
7.930833e+002, 3.661687e+004
7.935654e+002, 3.664089e+004
7.940475e+002, 3.671627e+004
7.945297e+002, 3.681349e+004
7.950118e+002, 3.691248e+004
7.954939e+002, 3.700463e+004
7.959760e+002, 3.707541e+004
7.964581e+002, 3.711466e+004
7.969402e+002, 3.714314e+004
7.974224e+002, 3.719533e+004
7.979045e+002, 3.726645e+004
7.983866e+002, 3.731807e+004
7.988687e+002, 3.734289e+004
7.993508e+002, 3.738693e+004
7.998329e+002, 3.748300e+004
8.003151e+002, 3.759713e+004
8.007972e+002, 3.766248e+004
8.012793e+002, 3.766116e+004
8.017614e+002, 3.768251e+004
8.022435e+002, 3.773819e+004
8.027256e+002, 3.780022e+004
8.032078e+002, 3.786463e+004
8.036899e+002, 3.792909e+004
8.041720e+002, 3.798710e+004
8.046541e+002, 3.804137e+004
8.051362e+002, 3.811183e+004
8.056183e+002, 3.822672e+004
8.061005e+002, 3.834196e+004
8.065826e+002, 3.839557e+004
8.070647e+002, 3.841757e+004
8.075468e+002, 3.848450e+004
8.080289e+002, 3.860475e+004
8.085110e+002, 3.871817e+004
8.089932e+002, 3.878196e+004
8.094753e+002, 3.881143e+004
8.099574e+002, 3.884725e+004
8.104395e+002, 3.889202e+004
8.109216e+002, 3.892986e+004
8.114037e+002, 3.894545e+004
8.118859e+002, 3.897788e+004
8.123680e+002, 3.906427e+004
8.128501e+002, 3.917111e+004
8.133322e+002, 3.924410e+004
8.138143e+002, 3.927291e+004
8.142964e+002, 3.932664e+004
8.147786e+002, 3.943930e+004
8.152607e+002, 3.956205e+004
8.157428e+002, 3.967080e+004
8.162249e+002, 3.976941e+004
8.167070e+002, 3.987732e+004
8.171891e+002, 3.998886e+004
8.176713e+002, 4.005463e+004
8.181534e+002, 4.001763e+004
8.186355e+002, 3.994027e+004
8.191176e+002, 3.994138e+004
8.195997e+002, 4.001473e+004
8.200818e+002, 4.012367e+004
8.205640e+002, 4.026725e+004
8.210461e+002, 4.039548e+004
8.215282e+002, 4.047260e+004
8.220103e+002, 4.050883e+004
8.224924e+002, 4.053207e+004
8.229745e+002, 4.051897e+004
8.234567e+002, 4.054553e+004
8.239388e+002, 4.062691e+004
8.244209e+002, 4.073063e+004
8.249030e+002, 4.088742e+004
8.253851e+002, 4.103927e+004
8.258672e+002, 4.108998e+004
8.263494e+002, 4.103006e+004
8.268315e+002, 4.100952e+004
8.273136e+002, 4.115450e+004
8.277957e+002, 4.131493e+004
8.282778e+002, 4.133413e+004
8.287599e+002, 4.128720e+004
8.292421e+002, 4.132729e+004
8.297242e+002, 4.147297e+004
8.302063e+002, 4.162060e+004
8.306884e+002, 4.169262e+004
8.311705e+002, 4.171022e+004
8.316526e+002, 4.170937e+004
8.321348e+002, 4.168718e+004
8.326169e+002, 4.173613e+004
8.330990e+002, 4.188985e+004
8.335811e+002, 4.203746e+004
8.340632e+002, 4.210399e+004
8.345453e+002, 4.212841e+004
8.350275e+002, 4.219995e+004
8.355096e+002, 4.233847e+004
8.359917e+002, 4.246347e+004
8.364738e+002, 4.258412e+004
8.369559e+002, 4.267982e+004
8.374380e+002, 4.271873e+004
8.379202e+002, 4.274406e+004
8.384023e+002, 4.281500e+004
8.388844e+002, 4.293006e+004
8.393665e+002, 4.302307e+004
8.398486e+002, 4.304238e+004
8.403307e+002, 4.304575e+004
8.408129e+002, 4.309889e+004
8.412950e+002, 4.317731e+004
8.417771e+002, 4.323059e+004
8.422592e+002, 4.325353e+004
8.427413e+002, 4.326371e+004
8.432234e+002, 4.326875e+004
8.437056e+002, 4.328864e+004
8.441877e+002, 4.337438e+004
8.446698e+002, 4.353264e+004
8.451519e+002, 4.366529e+004
8.456340e+002, 4.376182e+004
8.461161e+002, 4.385358e+004
8.465983e+002, 4.396291e+004
8.470804e+002, 4.406547e+004
8.475625e+002, 4.412125e+004
8.480446e+002, 4.412694e+004
8.485267e+002, 4.414242e+004
8.490089e+002, 4.415588e+004
8.494910e+002, 4.419718e+004
8.499731e+002, 4.428726e+004
8.504552e+002, 4.439918e+004
8.509373e+002, 4.452441e+004
8.514194e+002, 4.464961e+004
8.519016e+002, 4.474448e+004
8.523837e+002, 4.479209e+004
8.528658e+002, 4.482227e+004
8.533479e+002, 4.485488e+004
8.538300e+002, 4.489268e+004
8.543121e+002, 4.493544e+004
8.547943e+002, 4.498656e+004
8.552764e+002, 4.506684e+004
8.557585e+002, 4.518518e+004
8.562406e+002, 4.530707e+004
8.567227e+002, 4.538364e+004
8.572048e+002, 4.541925e+004
8.576870e+002, 4.548243e+004
8.581691e+002, 4.558259e+004
8.586512e+002, 4.566996e+004
8.591333e+002, 4.572593e+004
8.596154e+002, 4.577487e+004
8.600975e+002, 4.583587e+004
8.605797e+002, 4.590809e+004
8.610618e+002, 4.598697e+004
8.615439e+002, 4.608003e+004
8.620260e+002, 4.616708e+004
8.625081e+002, 4.624311e+004
8.629902e+002, 4.631642e+004
8.634724e+002, 4.639370e+004
8.639545e+002, 4.647131e+004
8.644366e+002, 4.653975e+004
8.649187e+002, 4.659781e+004
8.654008e+002, 4.666466e+004
8.658829e+002, 4.677881e+004
8.663651e+002, 4.688840e+004
8.668472e+002, 4.690888e+004
8.673293e+002, 4.688204e+004
8.678114e+002, 4.691493e+004
8.682935e+002, 4.702627e+004
8.687756e+002, 4.715652e+004
8.692578e+002, 4.726018e+004
8.697399e+002, 4.735118e+004
8.702220e+002, 4.747433e+004
8.707041e+002, 4.763282e+004
8.711862e+002, 4.773708e+004
8.716683e+002, 4.776619e+004
8.721505e+002, 4.778822e+004
8.726326e+002, 4.783650e+004
8.731147e+002, 4.789833e+004
8.735968e+002, 4.795149e+004
8.740789e+002, 4.799135e+004
8.745610e+002, 4.804663e+004
8.750432e+002, 4.812059e+004
8.755253e+002, 4.820393e+004
8.760074e+002, 4.830307e+004
8.764895e+002, 4.840379e+004
8.769716e+002, 4.850089e+004
8.774537e+002, 4.858995e+004
8.779359e+002, 4.865810e+004
8.784180e+002, 4.868820e+004
8.789001e+002, 4.872969e+004
8.793822e+002, 4.882236e+004
8.798643e+002, 4.893620e+004
8.803464e+002, 4.905133e+004
8.808286e+002, 4.915652e+004
8.813107e+002, 4.922286e+004
8.817928e+002, 4.924329e+004
8.822749e+002, 4.926864e+004
8.827570e+002, 4.936925e+004
8.832391e+002, 4.951043e+004
8.837213e+002, 4.956152e+004
8.842034e+002, 4.953057e+004
8.846855e+002, 4.956548e+004
8.851676e+002, 4.970934e+004
8.856497e+002, 4.985740e+004
8.861318e+002, 4.992545e+004
8.866140e+002, 4.993818e+004
8.870961e+002, 4.997977e+004
8.875782e+002, 5.006105e+004
8.880603e+002, 5.014427e+004
8.885424e+002, 5.024415e+004
8.890245e+002, 5.032454e+004
8.895067e+002, 5.035309e+004
8.899888e+002, 5.036513e+004
8.904709e+002, 5.039433e+004
8.909530e+002, 5.044253e+004
8.914351e+002, 5.052182e+004
8.919172e+002, 5.065352e+004
8.923994e+002, 5.079346e+004
8.928815e+002, 5.094231e+004
8.933636e+002, 5.107703e+004
8.938457e+002, 5.117877e+004
8.943278e+002, 5.124611e+004
8.948099e+002, 5.127293e+004
8.952921e+002, 5.125043e+004
8.957742e+002, 5.124239e+004
8.962563e+002, 5.132863e+004
8.967384e+002, 5.145955e+004
8.972205e+002, 5.154721e+004
8.977026e+002, 5.159864e+004
8.981848e+002, 5.165115e+004
8.986669e+002, 5.171798e+004
8.991490e+002, 5.180807e+004
8.996311e+002, 5.193631e+004
9.001132e+002, 5.208772e+004
9.005953e+002, 5.220124e+004
9.010775e+002, 5.227317e+004
9.015596e+002, 5.234905e+004
9.020417e+002, 5.243940e+004
9.025238e+002, 5.251623e+004
9.030059e+002, 5.255395e+004
9.034880e+002, 5.257581e+004
9.039702e+002, 5.262996e+004
9.044523e+002, 5.272159e+004
9.049344e+002, 5.282279e+004
9.054165e+002, 5.294839e+004
9.058986e+002, 5.306350e+004
9.063807e+002, 5.315262e+004
9.068629e+002, 5.323509e+004
9.073450e+002, 5.333063e+004
9.078271e+002, 5.343526e+004
9.083092e+002, 5.352505e+004
9.087913e+002, 5.357828e+004
9.092734e+002, 5.365021e+004
9.097556e+002, 5.379135e+004
9.102377e+002, 5.394036e+004
9.107198e+002, 5.404313e+004
9.112019e+002, 5.411097e+004
9.116840e+002, 5.416422e+004
9.121661e+002, 5.421325e+004
9.126483e+002, 5.428802e+004
9.131304e+002, 5.444409e+004
9.136125e+002, 5.461412e+004
9.140946e+002, 5.466705e+004
9.145767e+002, 5.464044e+004
9.150588e+002, 5.465299e+004
9.155410e+002, 5.472386e+004
9.160231e+002, 5.481675e+004
9.165052e+002, 5.491039e+004
9.169873e+002, 5.500579e+004
9.174694e+002, 5.510361e+004
9.179515e+002, 5.520345e+004
9.184337e+002, 5.532818e+004
9.189158e+002, 5.549018e+004
9.193979e+002, 5.561800e+004
9.198800e+002, 5.567479e+004
9.203621e+002, 5.571336e+004
9.208442e+002, 5.579738e+004
9.213264e+002, 5.591806e+004
9.218085e+002, 5.597811e+004
9.222906e+002, 5.590656e+004
9.227727e+002, 5.589141e+004
9.232548e+002, 5.594977e+004
9.237369e+002, 5.605411e+004
9.242191e+002, 5.623196e+004
9.247012e+002, 5.643000e+004
9.251833e+002, 5.656471e+004
9.256654e+002, 5.662480e+004
9.261475e+002, 5.667927e+004
9.266296e+002, 5.674295e+004
9.271118e+002, 5.681217e+004
9.275939e+002, 5.687990e+004
9.280760e+002, 5.695605e+004
9.285581e+002, 5.706215e+004
9.290402e+002, 5.718732e+004
9.295223e+002, 5.728552e+004
9.300045e+002, 5.732957e+004
9.304866e+002, 5.739243e+004
9.309687e+002, 5.758514e+004
9.314508e+002, 5.781263e+004
9.319329e+002, 5.791236e+004
9.324150e+002, 5.791343e+004
9.328972e+002, 5.791570e+004
9.333793e+002, 5.795196e+004
9.338614e+002, 5.803610e+004
9.343435e+002, 5.819107e+004
9.348256e+002, 5.837721e+004
9.353077e+002, 5.849156e+004
9.357899e+002, 5.853899e+004
9.362720e+002, 5.858924e+004
9.367541e+002, 5.864879e+004
9.372362e+002, 5.871728e+004
9.377183e+002, 5.879261e+004
9.382004e+002, 5.888518e+004
9.386826e+002, 5.902118e+004
9.391647e+002, 5.920348e+004
9.396468e+002, 5.929591e+004
9.401289e+002, 5.924038e+004
9.406110e+002, 5.923765e+004
9.410931e+002, 5.935069e+004
9.415753e+002, 5.949246e+004
9.420574e+002, 5.961497e+004
9.425395e+002, 5.971825e+004
9.430216e+002, 5.980396e+004
9.435037e+002, 5.986764e+004
9.439858e+002, 5.992739e+004
9.444680e+002, 5.996395e+004
9.449501e+002, 6.002244e+004
9.454322e+002, 6.013382e+004
9.459143e+002, 6.026587e+004
9.463964e+002, 6.039068e+004
9.468785e+002, 6.050498e+004
9.473607e+002, 6.060868e+004
9.478428e+002, 6.069043e+004
9.483249e+002, 6.078786e+004
9.488070e+002, 6.094414e+004
9.492891e+002, 6.110473e+004
9.497712e+002, 6.120211e+004
9.502534e+002, 6.126719e+004
9.507355e+002, 6.137403e+004
9.512176e+002, 6.153597e+004
9.516997e+002, 6.168632e+004
9.521818e+002, 6.175788e+004
9.526639e+002, 6.181104e+004
9.531461e+002, 6.194445e+004
9.536282e+002, 6.211885e+004
9.541103e+002, 6.223838e+004
9.545924e+002, 6.229791e+004
9.550745e+002, 6.234175e+004
9.555566e+002, 6.239182e+004
9.560388e+002, 6.245557e+004
9.565209e+002, 6.255298e+004
9.570030e+002, 6.267308e+004
9.574851e+002, 6.274023e+004
9.579672e+002, 6.275587e+004
9.584493e+002, 6.285128e+004
9.589315e+002, 6.306746e+004
9.594136e+002, 6.328310e+004
9.598957e+002, 6.341341e+004
9.603778e+002, 6.347314e+004
9.608599e+002, 6.348765e+004
9.613420e+002, 6.343462e+004
9.618242e+002, 6.345450e+004
9.623063e+002, 6.357478e+004
9.627884e+002, 6.369965e+004
9.632705e+002, 6.379597e+004
9.637526e+002, 6.388732e+004
9.642347e+002, 6.400254e+004
9.647169e+002, 6.413560e+004
9.651990e+002, 6.424420e+004
9.656811e+002, 6.428653e+004
9.661632e+002, 6.436869e+004
9.666453e+002, 6.454771e+004
9.671274e+002, 6.470130e+004
9.676096e+002, 6.473749e+004
9.680917e+002, 6.474410e+004
9.685738e+002, 6.484810e+004
9.690559e+002, 6.505155e+004
9.695380e+002, 6.521261e+004
9.700201e+002, 6.526702e+004
9.705023e+002, 6.531566e+004
9.709844e+002, 6.539325e+004
9.714665e+002, 6.548030e+004
9.719486e+002, 6.555245e+004
9.724307e+002, 6.562491e+004
9.729128e+002, 6.573638e+004
9.733950e+002, 6.589603e+004
9.738771e+002, 6.605291e+004
9.743592e+002, 6.619485e+004
9.748413e+002, 6.630490e+004
9.753234e+002, 6.633913e+004
9.758055e+002, 6.634859e+004
9.762877e+002, 6.641025e+004
9.767698e+002, 6.652359e+004
9.772519e+002, 6.664913e+004
9.777340e+002, 6.676917e+004
9.782161e+002, 6.687670e+004
9.786982e+002, 6.694141e+004
9.791804e+002, 6.699961e+004
9.796625e+002, 6.715006e+004
9.801446e+002, 6.735436e+004
9.806267e+002, 6.745913e+004
9.811088e+002, 6.744480e+004
9.815909e+002, 6.745498e+004
9.820731e+002, 6.759038e+004
9.825552e+002, 6.779341e+004
9.830373e+002, 6.798093e+004
9.835194e+002, 6.814702e+004
9.840015e+002, 6.822989e+004
9.844836e+002, 6.822902e+004
9.849658e+002, 6.827832e+004
9.854479e+002, 6.842425e+004
9.859300e+002, 6.859016e+004
9.864121e+002, 6.870105e+004
9.868942e+002, 6.878241e+004
9.873763e+002, 6.893757e+004
9.878585e+002, 6.918845e+004
9.883406e+002, 6.936423e+004
9.888227e+002, 6.943831e+004
9.893048e+002, 6.949925e+004
9.897869e+002, 6.958089e+004
9.902690e+002, 6.966674e+004
9.907512e+002, 6.973527e+004
9.912333e+002, 6.978839e+004
9.917154e+002, 6.984772e+004
9.921975e+002, 6.988852e+004
9.926796e+002, 6.999079e+004
9.931617e+002, 7.021150e+004
9.936439e+002, 7.042215e+004
9.941260e+002, 7.055789e+004
9.946081e+002, 7.065270e+004
9.950902e+002, 7.075448e+004
9.955723e+002, 7.086388e+004
9.960544e+002, 7.096550e+004
9.965366e+002, 7.105123e+004
9.970187e+002, 7.114118e+004
9.975008e+002, 7.125133e+004
9.979829e+002, 7.135404e+004
9.984650e+002, 7.139749e+004
9.989471e+002, 7.143689e+004
9.994293e+002, 7.159113e+004
9.999114e+002, 7.188418e+004
1.000393e+003, 7.209671e+004
1.000876e+003, 7.209362e+004
1.001358e+003, 7.209235e+004
1.001840e+003, 7.218943e+004
1.002322e+003, 7.232111e+004
1.002804e+003, 7.243740e+004
1.003286e+003, 7.253813e+004
1.003768e+003, 7.263636e+004
1.004250e+003, 7.273474e+004
1.004733e+003, 7.284220e+004
1.005215e+003, 7.299570e+004
1.005697e+003, 7.312530e+004
1.006179e+003, 7.312845e+004
1.006661e+003, 7.310785e+004
1.007143e+003, 7.319949e+004
1.007625e+003, 7.339690e+004
1.008107e+003, 7.363318e+004
1.008589e+003, 7.388495e+004
1.009072e+003, 7.410055e+004
1.009554e+003, 7.420567e+004
1.010036e+003, 7.427435e+004
1.010518e+003, 7.438866e+004
1.011000e+003, 7.453711e+004
1.011482e+003, 7.471495e+004
1.011964e+003, 7.490301e+004
1.012446e+003, 7.503592e+004
1.012929e+003, 7.507652e+004
1.013411e+003, 7.507359e+004
1.013893e+003, 7.505672e+004
1.014375e+003, 7.505338e+004
1.014857e+003, 7.514239e+004
1.015339e+003, 7.529558e+004
1.015821e+003, 7.539702e+004
1.016303e+003, 7.543117e+004
1.016785e+003, 7.550609e+004
1.017268e+003, 7.570052e+004
1.017750e+003, 7.594471e+004
1.018232e+003, 7.613298e+004
1.018714e+003, 7.627403e+004
1.019196e+003, 7.640622e+004
1.019678e+003, 7.652863e+004
1.020160e+003, 7.661452e+004
1.020642e+003, 7.665749e+004
1.021125e+003, 7.671764e+004
1.021607e+003, 7.684913e+004
1.022089e+003, 7.701009e+004
1.022571e+003, 7.709046e+004
1.023053e+003, 7.709762e+004
1.023535e+003, 7.716070e+004
1.024017e+003, 7.728412e+004
1.024499e+003, 7.749075e+004
1.024981e+003, 7.780593e+004
1.025464e+003, 7.807130e+004
1.025946e+003, 7.812755e+004
1.026428e+003, 7.805046e+004
1.026910e+003, 7.808246e+004
1.027392e+003, 7.823678e+004
1.027874e+003, 7.836841e+004
1.028356e+003, 7.846127e+004
1.028838e+003, 7.859449e+004
1.029321e+003, 7.881451e+004
1.029803e+003, 7.902453e+004
1.030285e+003, 7.911937e+004
1.030767e+003, 7.913352e+004
1.031249e+003, 7.922791e+004
1.031731e+003, 7.943038e+004
1.032213e+003, 7.960292e+004
1.032695e+003, 7.972519e+004
1.033177e+003, 7.986340e+004
1.033660e+003, 8.005933e+004
1.034142e+003, 8.025016e+004
1.034624e+003, 8.036738e+004
1.035106e+003, 8.042201e+004
1.035588e+003, 8.047228e+004
1.036070e+003, 8.048173e+004
1.036552e+003, 8.058084e+004
1.037034e+003, 8.084059e+004
1.037516e+003, 8.107253e+004
1.037999e+003, 8.119901e+004
1.038481e+003, 8.127214e+004
1.038963e+003, 8.133293e+004
1.039445e+003, 8.138613e+004
1.039927e+003, 8.146906e+004
1.040409e+003, 8.163400e+004
1.040891e+003, 8.173616e+004
1.041373e+003, 8.169715e+004
1.041855e+003, 8.169493e+004
1.042338e+003, 8.182627e+004
1.042820e+003, 8.200245e+004
1.043302e+003, 8.213827e+004
1.043784e+003, 8.223735e+004
1.044266e+003, 8.233262e+004
1.044748e+003, 8.240683e+004
1.045230e+003, 8.250818e+004
1.045712e+003, 8.261335e+004
1.046195e+003, 8.277691e+004
1.046677e+003, 8.313396e+004
1.047159e+003, 8.348076e+004
1.047641e+003, 8.353937e+004
1.048123e+003, 8.335798e+004
1.048605e+003, 8.331857e+004
1.049087e+003, 8.355843e+004
1.049569e+003, 8.376496e+004
1.050052e+003, 8.384526e+004
1.050534e+003, 8.393906e+004
1.051016e+003, 8.413788e+004
1.051498e+003, 8.436308e+004
1.051980e+003, 8.453298e+004
1.052462e+003, 8.464456e+004
1.052944e+003, 8.472043e+004
1.053426e+003, 8.471420e+004
1.053908e+003, 8.477530e+004
1.054391e+003, 8.502785e+004
1.054873e+003, 8.525027e+004
1.055355e+003, 8.528108e+004
1.055837e+003, 8.525648e+004
1.056319e+003, 8.534488e+004
1.056801e+003, 8.553559e+004
1.057283e+003, 8.569820e+004
1.057765e+003, 8.579120e+004
1.058248e+003, 8.588020e+004
1.058730e+003, 8.596159e+004
1.059212e+003, 8.607131e+004
1.059694e+003, 8.626520e+004
1.060176e+003, 8.647380e+004
1.060658e+003, 8.661417e+004
1.061140e+003, 8.669268e+004
1.061622e+003, 8.677030e+004
1.062104e+003, 8.685566e+004
1.062587e+003, 8.696275e+004
1.063069e+003, 8.711077e+004
1.063551e+003, 8.726502e+004
1.064033e+003, 8.739540e+004
1.064515e+003, 8.752787e+004
1.064997e+003, 8.771426e+004
1.065479e+003, 8.793277e+004
1.065961e+003, 8.809014e+004
1.066443e+003, 8.813841e+004
1.066926e+003, 8.819845e+004
1.067408e+003, 8.832290e+004
1.067890e+003, 8.846859e+004
1.068372e+003, 8.862520e+004
1.068854e+003, 8.877805e+004
1.069336e+003, 8.890978e+004
1.069818e+003, 8.902400e+004
1.070300e+003, 8.913327e+004
1.070782e+003, 8.923423e+004
1.071265e+003, 8.936818e+004
1.071747e+003, 8.962041e+004
1.072229e+003, 8.983452e+004
1.072711e+003, 8.984745e+004
1.073193e+003, 8.982550e+004
1.073675e+003, 8.997484e+004
1.074157e+003, 9.025027e+004
1.074639e+003, 9.046880e+004
1.075122e+003, 9.057238e+004
1.075604e+003, 9.067753e+004
1.076086e+003, 9.089041e+004
1.076568e+003, 9.105823e+004
1.077050e+003, 9.104083e+004
1.077532e+003, 9.097396e+004
1.078014e+003, 9.096331e+004
1.078496e+003, 9.103319e+004
1.078979e+003, 9.122330e+004
1.079461e+003, 9.155166e+004
1.079943e+003, 9.183894e+004
1.080425e+003, 9.200401e+004
1.080907e+003, 9.210233e+004
1.081389e+003, 9.209320e+004
1.081871e+003, 9.209130e+004
1.082353e+003, 9.223919e+004
1.082835e+003, 9.247066e+004
1.083318e+003, 9.261161e+004
1.083800e+003, 9.262464e+004
1.084282e+003, 9.269110e+004
1.084764e+003, 9.297665e+004
1.085246e+003, 9.322283e+004
1.085728e+003, 9.324865e+004
1.086210e+003, 9.322831e+004
1.086692e+003, 9.328952e+004
1.087175e+003, 9.342764e+004
1.087657e+003, 9.363389e+004
1.088139e+003, 9.389694e+004
1.088621e+003, 9.411380e+004
1.089103e+003, 9.421348e+004
1.089585e+003, 9.430039e+004
1.090067e+003, 9.441605e+004
1.090549e+003, 9.453871e+004
1.091031e+003, 9.462346e+004
1.091514e+003, 9.471744e+004
1.091996e+003, 9.492382e+004
1.092478e+003, 9.523236e+004
1.092960e+003, 9.546199e+004
1.093442e+003, 9.549941e+004
1.093924e+003, 9.554804e+004
1.094406e+003, 9.572228e+004
1.094888e+003, 9.589188e+004
1.095370e+003, 9.594331e+004
1.095853e+003, 9.595925e+004
1.096335e+003, 9.605035e+004
1.096817e+003, 9.621673e+004
1.097299e+003, 9.639355e+004
1.097781e+003, 9.659074e+004
1.098263e+003, 9.673078e+004
1.098745e+003, 9.672155e+004
1.099227e+003, 9.673073e+004
1.099709e+003, 9.687475e+004
1.100192e+003, 9.706133e+004
1.100674e+003, 9.717406e+004
1.101156e+003, 9.723805e+004
1.101638e+003, 9.737145e+004
1.102120e+003, 9.762172e+004
1.102602e+003, 9.784266e+004
1.103084e+003, 9.797443e+004
1.103566e+003, 9.810009e+004
1.104049e+003, 9.826806e+004
1.104531e+003, 9.842796e+004
1.105013e+003, 9.851382e+004
1.105495e+003, 9.856186e+004
1.105977e+003, 9.865961e+004
1.106459e+003, 9.881912e+004
1.106941e+003, 9.901614e+004
1.107423e+003, 9.932714e+004
1.107906e+003, 9.956343e+004
1.108388e+003, 9.960195e+004
1.108870e+003, 9.962522e+004
1.109352e+003, 9.978961e+004
1.109834e+003, 1.000051e+005
1.110316e+003, 1.000859e+005
1.110798e+003, 1.000142e+005
1.111280e+003, 1.000339e+005
1.111762e+003, 1.002487e+005
1.112245e+003, 1.004305e+005
1.112727e+003, 1.005308e+005
1.113209e+003, 1.006184e+005
1.113691e+003, 1.007000e+005
1.114173e+003, 1.008042e+005
1.114655e+003, 1.009929e+005
1.115137e+003, 1.012544e+005
1.115619e+003, 1.014394e+005
1.116102e+003, 1.014853e+005
1.116584e+003, 1.015637e+005
1.117066e+003, 1.017129e+005
1.117548e+003, 1.018367e+005
1.118030e+003, 1.018569e+005
1.118512e+003, 1.018877e+005
1.118994e+003, 1.020584e+005
1.119476e+003, 1.023280e+005
1.119958e+003, 1.025299e+005
1.120441e+003, 1.026406e+005
1.120923e+003, 1.027537e+005
1.121405e+003, 1.028352e+005
1.121887e+003, 1.030042e+005
1.122369e+003, 1.033530e+005
1.122851e+003, 1.036784e+005
1.123333e+003, 1.038055e+005
1.123815e+003, 1.038325e+005
1.124297e+003, 1.039901e+005
1.124780e+003, 1.042973e+005
1.125262e+003, 1.044781e+005
1.125744e+003, 1.044934e+005
1.126226e+003, 1.045140e+005
1.126708e+003, 1.045471e+005
1.127190e+003, 1.046729e+005
1.127672e+003, 1.049641e+005
1.128154e+003, 1.052990e+005
1.128636e+003, 1.054961e+005
1.129119e+003, 1.055723e+005
1.129601e+003, 1.056633e+005
1.130083e+003, 1.057675e+005
1.130565e+003, 1.059063e+005
1.131047e+003, 1.060842e+005
1.131529e+003, 1.062620e+005
1.132011e+003, 1.064191e+005
1.132493e+003, 1.066038e+005
1.132976e+003, 1.068771e+005
1.133458e+003, 1.071899e+005
1.133940e+003, 1.073985e+005
1.134422e+003, 1.075101e+005
1.134904e+003, 1.076064e+005
1.135386e+003, 1.076910e+005
1.135868e+003, 1.077440e+005
1.136350e+003, 1.077619e+005
1.136833e+003, 1.078207e+005
1.137315e+003, 1.079759e+005
1.137797e+003, 1.081958e+005
1.138279e+003, 1.084595e+005
1.138761e+003, 1.087361e+005
1.139243e+003, 1.088847e+005
1.139725e+003, 1.089437e+005
1.140207e+003, 1.090920e+005
1.140689e+003, 1.093437e+005
1.141172e+003, 1.095757e+005
1.141654e+003, 1.097301e+005
1.142136e+003, 1.098398e+005
1.142618e+003, 1.099169e+005
1.143100e+003, 1.099957e+005
1.143582e+003, 1.101363e+005
1.144064e+003, 1.103211e+005
1.144546e+003, 1.105454e+005
1.145029e+003, 1.107762e+005
1.145511e+003, 1.108897e+005
1.145993e+003, 1.108758e+005
1.146475e+003, 1.109519e+005
1.146957e+003, 1.113055e+005
1.147439e+003, 1.117033e+005
1.147921e+003, 1.119211e+005
1.148403e+003, 1.120488e+005
1.148885e+003, 1.121714e+005
1.149368e+003, 1.122939e+005
1.149850e+003, 1.124036e+005
1.150332e+003, 1.125061e+005
1.150814e+003, 1.126301e+005
1.151296e+003, 1.127868e+005
1.151778e+003, 1.129663e+005
1.152260e+003, 1.131806e+005
1.152742e+003, 1.133941e+005
1.153224e+003, 1.135998e+005
1.153707e+003, 1.137810e+005
1.154189e+003, 1.139170e+005
1.154671e+003, 1.140173e+005
1.155153e+003, 1.140832e+005
1.155635e+003, 1.141143e+005
1.156117e+003, 1.142324e+005
1.156599e+003, 1.145985e+005
1.157081e+003, 1.148824e+005
1.157563e+003, 1.148746e+005
1.158046e+003, 1.148707e+005
1.158528e+003, 1.150968e+005
1.159010e+003, 1.154083e+005
1.159492e+003, 1.156018e+005
1.159974e+003, 1.156810e+005
1.160456e+003, 1.157916e+005
1.160938e+003, 1.159835e+005
1.161420e+003, 1.161296e+005
1.161903e+003, 1.161350e+005
1.162385e+003, 1.162219e+005
1.162867e+003, 1.165159e+005
1.163349e+003, 1.168353e+005
1.163831e+003, 1.170318e+005
1.164313e+003, 1.171547e+005
1.164795e+003, 1.173195e+005
1.165277e+003, 1.175294e+005
1.165760e+003, 1.177682e+005
1.166242e+003, 1.180744e+005
1.166724e+003, 1.182763e+005
1.167206e+003, 1.183137e+005
1.167688e+003, 1.183451e+005
1.168170e+003, 1.184359e+005
1.168652e+003, 1.186121e+005
1.169134e+003, 1.189350e+005
1.169616e+003, 1.193458e+005
1.170099e+003, 1.195242e+005
1.170581e+003, 1.194663e+005
1.171063e+003, 1.195571e+005
1.171545e+003, 1.198213e+005
1.172027e+003, 1.200833e+005
1.172509e+003, 1.202913e+005
1.172991e+003, 1.204590e+005
1.173473e+003, 1.205918e+005
1.173956e+003, 1.207240e+005
1.174438e+003, 1.209353e+005
1.174920e+003, 1.211893e+005
1.175402e+003, 1.213600e+005
1.175884e+003, 1.214659e+005
1.176366e+003, 1.215714e+005
1.176848e+003, 1.216889e+005
1.177330e+003, 1.218073e+005
1.177813e+003, 1.219239e+005
1.178295e+003, 1.220796e+005
1.178777e+003, 1.223417e+005
1.179259e+003, 1.226196e+005
1.179741e+003, 1.228071e+005
1.180223e+003, 1.229337e+005
1.180705e+003, 1.230015e+005
1.181187e+003, 1.230567e+005
1.181669e+003, 1.232003e+005
1.182151e+003, 1.234299e+005
1.182634e+003, 1.236189e+005
1.183116e+003, 1.236801e+005
1.183598e+003, 1.238028e+005
1.184080e+003, 1.242005e+005
1.184562e+003, 1.245766e+005
1.185044e+003, 1.246968e+005
1.185526e+003, 1.247227e+005
1.186008e+003, 1.247864e+005
1.186490e+003, 1.249122e+005
1.186973e+003, 1.251377e+005
1.187455e+003, 1.254771e+005
1.187937e+003, 1.257401e+005
1.188419e+003, 1.257992e+005
1.188901e+003, 1.259147e+005
1.189383e+003, 1.262273e+005
1.189865e+003, 1.265033e+005
1.190347e+003, 1.265624e+005
1.190830e+003, 1.265736e+005
1.191312e+003, 1.267353e+005
1.191794e+003, 1.270084e+005
1.192276e+003, 1.271919e+005
1.192758e+003, 1.272299e+005
1.193240e+003, 1.273845e+005
1.193722e+003, 1.277221e+005
1.194204e+003, 1.279638e+005
1.194687e+003, 1.280070e+005
1.195169e+003, 1.280739e+005
1.195651e+003, 1.283198e+005
1.196133e+003, 1.286317e+005
1.196615e+003, 1.288345e+005
1.197097e+003, 1.289395e+005
1.197579e+003, 1.289944e+005
1.198061e+003, 1.290060e+005
1.198543e+003, 1.291142e+005
1.199026e+003, 1.293247e+005
1.199508e+003, 1.295032e+005
1.199990e+003, 1.296069e+005
1.200472e+003, 1.297480e+005
1.200954e+003, 1.300227e+005
1.201436e+003, 1.303388e+005
1.201918e+003, 1.305493e+005
1.202400e+003, 1.307062e+005
1.202883e+003, 1.309521e+005
1.203365e+003, 1.312154e+005
1.203847e+003, 1.312892e+005
1.204329e+003, 1.312049e+005
1.204811e+003, 1.311514e+005
1.205293e+003, 1.312032e+005
1.205775e+003, 1.313911e+005
1.206257e+003, 1.318640e+005
1.206740e+003, 1.323036e+005
1.207222e+003, 1.324521e+005
1.207704e+003, 1.324905e+005
1.208186e+003, 1.324955e+005
1.208668e+003, 1.325544e+005
1.209150e+003, 1.328296e+005
1.209632e+003, 1.332733e+005
1.210114e+003, 1.336012e+005
1.210596e+003, 1.337274e+005
1.211078e+003, 1.338098e+005
1.211561e+003, 1.337931e+005
1.212043e+003, 1.338567e+005
1.212525e+003, 1.340822e+005
1.213007e+003, 1.343765e+005
1.213489e+003, 1.347430e+005
1.213971e+003, 1.350898e+005
1.214453e+003, 1.352401e+005
1.214935e+003, 1.352106e+005
1.215417e+003, 1.353399e+005
1.215900e+003, 1.356885e+005
1.216382e+003, 1.359681e+005
1.216864e+003, 1.361678e+005
1.217346e+003, 1.362502e+005
1.217828e+003, 1.361770e+005
1.218310e+003, 1.361290e+005
1.218792e+003, 1.362494e+005
1.219274e+003, 1.364628e+005
1.219757e+003, 1.366291e+005
1.220239e+003, 1.367669e+005
1.220721e+003, 1.369888e+005
1.221203e+003, 1.372675e+005
1.221685e+003, 1.374419e+005
1.222167e+003, 1.375159e+005
1.222649e+003, 1.376229e+005
1.223131e+003, 1.378096e+005
1.223614e+003, 1.380242e+005
1.224096e+003, 1.382301e+005
1.224578e+003, 1.384377e+005
1.225060e+003, 1.386942e+005
1.225542e+003, 1.389259e+005
1.226024e+003, 1.389762e+005
1.226506e+003, 1.389793e+005
1.226988e+003, 1.391655e+005
1.227470e+003, 1.394999e+005
1.227953e+003, 1.398088e+005
1.228435e+003, 1.400429e+005
1.228917e+003, 1.402242e+005
1.229399e+003, 1.402868e+005
1.229881e+003, 1.404018e+005
1.230363e+003, 1.406616e+005
1.230845e+003, 1.409489e+005
1.231327e+003, 1.412458e+005
1.231810e+003, 1.414950e+005
1.232292e+003, 1.415863e+005
1.232774e+003, 1.415746e+005
1.233256e+003, 1.416842e+005
1.233738e+003, 1.419593e+005
1.234220e+003, 1.421570e+005
1.234702e+003, 1.422342e+005
1.235184e+003, 1.423793e+005
1.235667e+003, 1.426476e+005
1.236149e+003, 1.429140e+005
1.236631e+003, 1.431258e+005
1.237113e+003, 1.432374e+005
1.237595e+003, 1.431581e+005
1.238077e+003, 1.430018e+005
1.238559e+003, 1.431380e+005
1.239041e+003, 1.435091e+005
1.239523e+003, 1.438498e+005
1.240005e+003, 1.441390e+005
1.240488e+003, 1.443223e+005
1.240970e+003, 1.444066e+005
1.241452e+003, 1.444622e+005
1.241934e+003, 1.445234e+005
1.242416e+003, 1.447047e+005
1.242898e+003, 1.452817e+005
1.243380e+003, 1.458331e+005
1.243862e+003, 1.458394e+005
1.244344e+003, 1.456721e+005
1.244827e+003, 1.457034e+005
1.245309e+003, 1.459003e+005
1.245791e+003, 1.461668e+005
1.246273e+003, 1.464778e+005
1.246755e+003, 1.468318e+005
1.247237e+003, 1.472867e+005
1.247719e+003, 1.475806e+005
1.248201e+003, 1.474833e+005
1.248684e+003, 1.474605e+005
1.249166e+003, 1.477565e+005
1.249648e+003, 1.480347e+005
1.250130e+003, 1.480249e+005
1.250612e+003, 1.479742e+005
1.251094e+003, 1.482372e+005
1.251576e+003, 1.487584e+005
1.252058e+003, 1.491933e+005
1.252541e+003, 1.495588e+005
1.253023e+003, 1.496731e+005
1.253505e+003, 1.495029e+005
1.253987e+003, 1.494249e+005
1.254469e+003, 1.495254e+005
1.254951e+003, 1.497771e+005
1.255433e+003, 1.501716e+005
1.255915e+003, 1.505744e+005
1.256397e+003, 1.508073e+005
1.256880e+003, 1.509589e+005
1.257362e+003, 1.511888e+005
1.257844e+003, 1.514720e+005
1.258326e+003, 1.517885e+005
1.258808e+003, 1.521046e+005
1.259290e+003, 1.523504e+005
1.259772e+003, 1.525254e+005
1.260254e+003, 1.526904e+005
1.260737e+003, 1.528650e+005
1.261219e+003, 1.530677e+005
1.261701e+003, 1.533470e+005
1.262183e+003, 1.536050e+005
1.262665e+003, 1.537621e+005
1.263147e+003, 1.539162e+005
1.263629e+003, 1.541371e+005
1.264111e+003, 1.544000e+005
1.264594e+003, 1.546791e+005
1.265076e+003, 1.549654e+005
1.265558e+003, 1.552202e+005
1.266040e+003, 1.554361e+005
1.266522e+003, 1.556416e+005
1.267004e+003, 1.558312e+005
1.267486e+003, 1.560191e+005
1.267968e+003, 1.561936e+005
1.268450e+003, 1.564546e+005
1.268932e+003, 1.568678e+005
1.269415e+003, 1.572946e+005
1.269897e+003, 1.575854e+005
1.270379e+003, 1.577697e+005
1.270861e+003, 1.578830e+005
1.271343e+003, 1.579629e+005
1.271825e+003, 1.581367e+005
1.272307e+003, 1.583757e+005
1.272789e+003, 1.585893e+005
1.273271e+003, 1.587584e+005
1.273754e+003, 1.588482e+005
1.274236e+003, 1.588533e+005
1.274718e+003, 1.589915e+005
1.275200e+003, 1.595527e+005
1.275682e+003, 1.600705e+005
1.276164e+003, 1.601505e+005
1.276646e+003, 1.602184e+005
1.277128e+003, 1.606762e+005
1.277611e+003, 1.612182e+005
1.278093e+003, 1.614545e+005
1.278575e+003, 1.614621e+005
1.279057e+003, 1.615480e+005
1.279539e+003, 1.617388e+005
1.280021e+003, 1.619431e+005
1.280503e+003, 1.621216e+005
1.280985e+003, 1.623376e+005
1.281468e+003, 1.626586e+005
1.281950e+003, 1.629774e+005
1.282432e+003, 1.632513e+005
1.282914e+003, 1.634933e+005
1.283396e+003, 1.637115e+005
1.283878e+003, 1.639394e+005
1.284360e+003, 1.642525e+005
1.284842e+003, 1.645450e+005
1.285324e+003, 1.645456e+005
##END=



