##NAMES=Eglestonite
##RRUFFID=R060612
##IDEAL CHEMISTRY=Hg^1+^_6_OCl_3_(OH)
##LOCALITY=Cahill mine, Poverty Peak District, Humboldt County, Nevada, USA
##OWNER=RRUFF
##SOURCE=Michael Scott
##DESCRIPTION=Brown fragments
##STATUS=The identification of this mineral is confirmed by single-crystal X-ray diffraction and chemical analysis.
##URL=rruff.info/R060612
##MEASURED CHEMISTRY=Hg^1+^_6.00_OCl_3.00_(OH) ; O,H not measured but estimated by difference and stoichiometry
8.846484e+001, 1.131318e+001
8.894696e+001, 1.100442e+001
8.942908e+001, 1.102707e+001
8.991119e+001, 1.141664e+001
9.039331e+001, 1.192494e+001
9.087543e+001, 1.236939e+001
9.135754e+001, 1.272523e+001
9.183966e+001, 1.289655e+001
9.232178e+001, 1.279800e+001
9.280389e+001, 1.264550e+001
9.328601e+001, 1.242886e+001
9.376813e+001, 1.213930e+001
9.425024e+001, 1.184601e+001
9.473236e+001, 1.171993e+001
9.521448e+001, 1.194106e+001
9.569659e+001, 1.201380e+001
9.617871e+001, 1.187279e+001
9.666083e+001, 1.162182e+001
9.714294e+001, 1.136479e+001
9.762506e+001, 1.115597e+001
9.810718e+001, 1.099228e+001
9.858929e+001, 1.093915e+001
9.907141e+001, 1.111870e+001
9.955353e+001, 1.126025e+001
1.000356e+002, 1.126120e+001
1.005178e+002, 1.113049e+001
1.009999e+002, 1.093187e+001
1.014820e+002, 1.069187e+001
1.019641e+002, 1.039773e+001
1.024462e+002, 1.027451e+001
1.029283e+002, 1.048182e+001
1.034105e+002, 1.077639e+001
1.038926e+002, 1.089761e+001
1.043747e+002, 1.077943e+001
1.048568e+002, 1.058980e+001
1.053389e+002, 1.049895e+001
1.058210e+002, 1.049005e+001
1.063032e+002, 1.053171e+001
1.067853e+002, 1.065303e+001
1.072674e+002, 1.082864e+001
1.077495e+002, 1.092809e+001
1.082316e+002, 1.083306e+001
1.087137e+002, 1.074806e+001
1.091959e+002, 1.084743e+001
1.096780e+002, 1.113018e+001
1.101601e+002, 1.142928e+001
1.106422e+002, 1.155327e+001
1.111243e+002, 1.144680e+001
1.116064e+002, 1.136012e+001
1.120886e+002, 1.129834e+001
1.125707e+002, 1.128014e+001
1.130528e+002, 1.132891e+001
1.135349e+002, 1.145037e+001
1.140170e+002, 1.162322e+001
1.144991e+002, 1.180078e+001
1.149813e+002, 1.202176e+001
1.154634e+002, 1.219214e+001
1.159455e+002, 1.228004e+001
1.164276e+002, 1.232277e+001
1.169097e+002, 1.236169e+001
1.173918e+002, 1.241895e+001
1.178740e+002, 1.249080e+001
1.183561e+002, 1.255679e+001
1.188382e+002, 1.261979e+001
1.193203e+002, 1.267509e+001
1.198024e+002, 1.271136e+001
1.202845e+002, 1.273547e+001
1.207667e+002, 1.277368e+001
1.212488e+002, 1.285585e+001
1.217309e+002, 1.296852e+001
1.222130e+002, 1.302824e+001
1.226951e+002, 1.299708e+001
1.231772e+002, 1.293618e+001
1.236594e+002, 1.289005e+001
1.241415e+002, 1.285824e+001
1.246236e+002, 1.285175e+001
1.251057e+002, 1.292544e+001
1.255878e+002, 1.303231e+001
1.260699e+002, 1.308123e+001
1.265521e+002, 1.300828e+001
1.270342e+002, 1.285052e+001
1.275163e+002, 1.272062e+001
1.279984e+002, 1.265114e+001
1.284805e+002, 1.256312e+001
1.289626e+002, 1.238050e+001
1.294448e+002, 1.214401e+001
1.299269e+002, 1.195354e+001
1.304090e+002, 1.190908e+001
1.308911e+002, 1.202764e+001
1.313732e+002, 1.208842e+001
1.318553e+002, 1.206635e+001
1.323375e+002, 1.200336e+001
1.328196e+002, 1.187890e+001
1.333017e+002, 1.171237e+001
1.337838e+002, 1.156424e+001
1.342659e+002, 1.152314e+001
1.347480e+002, 1.168801e+001
1.352302e+002, 1.169621e+001
1.357123e+002, 1.148244e+001
1.361944e+002, 1.118775e+001
1.366765e+002, 1.087083e+001
1.371586e+002, 1.055695e+001
1.376407e+002, 1.028722e+001
1.381229e+002, 1.013294e+001
1.386050e+002, 1.016420e+001
1.390871e+002, 1.019771e+001
1.395692e+002, 1.025239e+001
1.400513e+002, 1.029669e+001
1.405334e+002, 1.027399e+001
1.410156e+002, 1.015036e+001
1.414977e+002, 9.988668e+000
1.419798e+002, 9.932807e+000
1.424619e+002, 1.000385e+001
1.429440e+002, 1.008394e+001
1.434261e+002, 1.014485e+001
1.439083e+002, 1.018162e+001
1.443904e+002, 1.016895e+001
1.448725e+002, 1.006652e+001
1.453546e+002, 9.931521e+000
1.458367e+002, 9.849869e+000
1.463188e+002, 9.831059e+000
1.468010e+002, 9.846385e+000
1.472831e+002, 9.882915e+000
1.477652e+002, 9.945526e+000
1.482473e+002, 9.989416e+000
1.487294e+002, 9.978614e+000
1.492115e+002, 9.948257e+000
1.496937e+002, 9.913261e+000
1.501758e+002, 9.869658e+000
1.506579e+002, 9.849330e+000
1.511400e+002, 9.929968e+000
1.516221e+002, 1.019464e+001
1.521042e+002, 1.038964e+001
1.525864e+002, 1.038428e+001
1.530685e+002, 1.031472e+001
1.535506e+002, 1.031994e+001
1.540327e+002, 1.047148e+001
1.545148e+002, 1.074538e+001
1.549969e+002, 1.104198e+001
1.554791e+002, 1.135767e+001
1.559612e+002, 1.170407e+001
1.564433e+002, 1.208189e+001
1.569254e+002, 1.249073e+001
1.574075e+002, 1.294001e+001
1.578896e+002, 1.344462e+001
1.583718e+002, 1.399690e+001
1.588539e+002, 1.442779e+001
1.593360e+002, 1.467684e+001
1.598181e+002, 1.488666e+001
1.603002e+002, 1.511014e+001
1.607823e+002, 1.533390e+001
1.612645e+002, 1.549805e+001
1.617466e+002, 1.553045e+001
1.622287e+002, 1.543442e+001
1.627108e+002, 1.553056e+001
1.631929e+002, 1.588721e+001
1.636750e+002, 1.635704e+001
1.641572e+002, 1.690411e+001
1.646393e+002, 1.751173e+001
1.651214e+002, 1.808137e+001
1.656035e+002, 1.854695e+001
1.660856e+002, 1.889757e+001
1.665677e+002, 1.910332e+001
1.670499e+002, 1.905028e+001
1.675320e+002, 1.889952e+001
1.680141e+002, 1.880276e+001
1.684962e+002, 1.875070e+001
1.689783e+002, 1.883794e+001
1.694604e+002, 1.920429e+001
1.699426e+002, 1.977041e+001
1.704247e+002, 2.039701e+001
1.709068e+002, 2.101173e+001
1.713889e+002, 2.164911e+001
1.718710e+002, 2.239655e+001
1.723531e+002, 2.323465e+001
1.728353e+002, 2.424298e+001
1.733174e+002, 2.532870e+001
1.737995e+002, 2.657310e+001
1.742816e+002, 2.816051e+001
1.747637e+002, 3.025865e+001
1.752458e+002, 3.285608e+001
1.757280e+002, 3.567506e+001
1.762101e+002, 3.907887e+001
1.766922e+002, 4.234937e+001
1.771743e+002, 4.572943e+001
1.776564e+002, 4.883999e+001
1.781385e+002, 5.085674e+001
1.786207e+002, 5.099557e+001
1.791028e+002, 4.915144e+001
1.795849e+002, 4.624013e+001
1.800670e+002, 4.118412e+001
1.805491e+002, 3.602771e+001
1.810313e+002, 3.135132e+001
1.815134e+002, 2.727524e+001
1.819955e+002, 2.379512e+001
1.824776e+002, 2.088201e+001
1.829597e+002, 1.856745e+001
1.834418e+002, 1.685669e+001
1.839240e+002, 1.587667e+001
1.844061e+002, 1.524935e+001
1.848882e+002, 1.483152e+001
1.853703e+002, 1.457137e+001
1.858524e+002, 1.442424e+001
1.863345e+002, 1.433852e+001
1.868167e+002, 1.431911e+001
1.872988e+002, 1.437782e+001
1.877809e+002, 1.456943e+001
1.882630e+002, 1.480130e+001
1.887451e+002, 1.503579e+001
1.892272e+002, 1.526060e+001
1.897094e+002, 1.540029e+001
1.901915e+002, 1.532262e+001
1.906736e+002, 1.496571e+001
1.911557e+002, 1.469551e+001
1.916378e+002, 1.457749e+001
1.921199e+002, 1.455391e+001
1.926021e+002, 1.453393e+001
1.930842e+002, 1.448474e+001
1.935663e+002, 1.450425e+001
1.940484e+002, 1.481356e+001
1.945305e+002, 1.538929e+001
1.950126e+002, 1.586204e+001
1.954948e+002, 1.599430e+001
1.959769e+002, 1.595725e+001
1.964590e+002, 1.611913e+001
1.969411e+002, 1.660481e+001
1.974232e+002, 1.720026e+001
1.979053e+002, 1.770028e+001
1.983875e+002, 1.811512e+001
1.988696e+002, 1.848875e+001
1.993517e+002, 1.886387e+001
1.998338e+002, 1.922123e+001
2.003159e+002, 1.949803e+001
2.007980e+002, 1.976199e+001
2.012802e+002, 1.981733e+001
2.017623e+002, 1.956845e+001
2.022444e+002, 1.902869e+001
2.027265e+002, 1.827438e+001
2.032086e+002, 1.731417e+001
2.036907e+002, 1.615713e+001
2.041729e+002, 1.495582e+001
2.046550e+002, 1.364511e+001
2.051371e+002, 1.237509e+001
2.056192e+002, 1.118115e+001
2.061013e+002, 1.008094e+001
2.065834e+002, 9.121413e+000
2.070656e+002, 8.387712e+000
2.075477e+002, 7.914963e+000
2.080298e+002, 7.428566e+000
2.085119e+002, 6.829099e+000
2.089940e+002, 6.297183e+000
2.094761e+002, 5.932556e+000
2.099583e+002, 5.720685e+000
2.104404e+002, 5.564247e+000
2.109225e+002, 5.354438e+000
2.114046e+002, 5.061744e+000
2.118867e+002, 4.843974e+000
2.123689e+002, 4.736427e+000
2.128510e+002, 4.664919e+000
2.133331e+002, 4.610424e+000
2.138152e+002, 4.563196e+000
2.142973e+002, 4.513160e+000
2.147794e+002, 4.451046e+000
2.152616e+002, 4.380047e+000
2.157437e+002, 4.280899e+000
2.162258e+002, 4.102224e+000
2.167079e+002, 3.942749e+000
2.171900e+002, 3.871420e+000
2.176721e+002, 3.885414e+000
2.181543e+002, 3.922219e+000
2.186364e+002, 3.911181e+000
2.191185e+002, 3.833156e+000
2.196006e+002, 3.780647e+000
2.200827e+002, 3.744286e+000
2.205648e+002, 3.736581e+000
2.210470e+002, 3.800153e+000
2.215291e+002, 3.924926e+000
2.220112e+002, 4.019968e+000
2.224933e+002, 3.980482e+000
2.229754e+002, 3.766711e+000
2.234575e+002, 3.597135e+000
2.239397e+002, 3.445171e+000
2.244218e+002, 3.354494e+000
2.249039e+002, 3.404536e+000
2.253860e+002, 3.595130e+000
2.258681e+002, 3.778848e+000
2.263502e+002, 3.793338e+000
2.268324e+002, 3.625279e+000
2.273145e+002, 3.511779e+000
2.277966e+002, 3.500462e+000
2.282787e+002, 3.529548e+000
2.287608e+002, 3.537354e+000
2.292429e+002, 3.515984e+000
2.297251e+002, 3.505022e+000
2.302072e+002, 3.564436e+000
2.306893e+002, 3.675363e+000
2.311714e+002, 3.722022e+000
2.316535e+002, 3.635695e+000
2.321356e+002, 3.500514e+000
2.326178e+002, 3.412811e+000
2.330999e+002, 3.381892e+000
2.335820e+002, 3.376356e+000
2.340641e+002, 3.397774e+000
2.345462e+002, 3.427741e+000
2.350283e+002, 3.418809e+000
2.355105e+002, 3.317892e+000
2.359926e+002, 3.187564e+000
2.364747e+002, 3.111618e+000
2.369568e+002, 3.091641e+000
2.374389e+002, 3.123126e+000
2.379210e+002, 3.270210e+000
2.384032e+002, 3.457911e+000
2.388853e+002, 3.567600e+000
2.393674e+002, 3.521780e+000
2.398495e+002, 3.401350e+000
2.403316e+002, 3.349366e+000
2.408137e+002, 3.395308e+000
2.412959e+002, 3.422521e+000
2.417780e+002, 3.335230e+000
2.422601e+002, 3.207190e+000
2.427422e+002, 3.135995e+000
2.432243e+002, 3.185544e+000
2.437064e+002, 3.275756e+000
2.441886e+002, 3.234047e+000
2.446707e+002, 2.987712e+000
2.451528e+002, 2.796927e+000
2.456349e+002, 2.783224e+000
2.461170e+002, 2.857518e+000
2.465991e+002, 2.935495e+000
2.470813e+002, 2.985950e+000
2.475634e+002, 3.024570e+000
2.480455e+002, 3.091660e+000
2.485276e+002, 3.220120e+000
2.490097e+002, 3.296652e+000
2.494918e+002, 3.250987e+000
2.499740e+002, 3.168301e+000
2.504561e+002, 3.131251e+000
2.509382e+002, 3.172417e+000
2.514203e+002, 3.242658e+000
2.519024e+002, 3.233819e+000
2.523845e+002, 3.072960e+000
2.528667e+002, 2.995726e+000
2.533488e+002, 3.078490e+000
2.538309e+002, 3.221006e+000
2.543130e+002, 3.357683e+000
2.547951e+002, 3.465033e+000
2.552772e+002, 3.537508e+000
2.557594e+002, 3.554404e+000
2.562415e+002, 3.466248e+000
2.567236e+002, 3.427229e+000
2.572057e+002, 3.495762e+000
2.576878e+002, 3.577853e+000
2.581699e+002, 3.600357e+000
2.586520e+002, 3.547411e+000
2.591342e+002, 3.458811e+000
2.596163e+002, 3.396646e+000
2.600984e+002, 3.374717e+000
2.605805e+002, 3.351355e+000
2.610626e+002, 3.313847e+000
2.615447e+002, 3.283500e+000
2.620269e+002, 3.278391e+000
2.625090e+002, 3.299461e+000
2.629911e+002, 3.331559e+000
2.634732e+002, 3.358697e+000
2.639553e+002, 3.394930e+000
2.644374e+002, 3.382805e+000
2.649196e+002, 3.245656e+000
2.654017e+002, 3.129323e+000
2.658838e+002, 3.153171e+000
2.663659e+002, 3.306963e+000
2.668480e+002, 3.468079e+000
2.673301e+002, 3.494506e+000
2.678123e+002, 3.333762e+000
2.682944e+002, 3.259181e+000
2.687765e+002, 3.321754e+000
2.692586e+002, 3.406996e+000
2.697407e+002, 3.464991e+000
2.702228e+002, 3.490356e+000
2.707050e+002, 3.496839e+000
2.711871e+002, 3.495156e+000
2.716692e+002, 3.483942e+000
2.721513e+002, 3.477465e+000
2.726334e+002, 3.468430e+000
2.731155e+002, 3.469515e+000
2.735977e+002, 3.499146e+000
2.740798e+002, 3.546739e+000
2.745619e+002, 3.582173e+000
2.750440e+002, 3.583926e+000
2.755261e+002, 3.552222e+000
2.760082e+002, 3.496552e+000
2.764904e+002, 3.378045e+000
2.769725e+002, 3.281336e+000
2.774546e+002, 3.243123e+000
2.779367e+002, 3.251904e+000
2.784188e+002, 3.280126e+000
2.789009e+002, 3.313187e+000
2.793831e+002, 3.349841e+000
2.798652e+002, 3.381749e+000
2.803473e+002, 3.443988e+000
2.808294e+002, 3.464358e+000
2.813115e+002, 3.384429e+000
2.817936e+002, 3.251599e+000
2.822758e+002, 3.157255e+000
2.827579e+002, 3.148470e+000
2.832400e+002, 3.197695e+000
2.837221e+002, 3.220669e+000
2.842042e+002, 3.199220e+000
2.846863e+002, 3.182354e+000
2.851685e+002, 3.176652e+000
2.856506e+002, 3.182314e+000
2.861327e+002, 3.199840e+000
2.866148e+002, 3.229463e+000
2.870969e+002, 3.271292e+000
2.875790e+002, 3.332517e+000
2.880612e+002, 3.441491e+000
2.885433e+002, 3.499230e+000
2.890254e+002, 3.444174e+000
2.895075e+002, 3.346963e+000
2.899896e+002, 3.301816e+000
2.904717e+002, 3.334685e+000
2.909539e+002, 3.394178e+000
2.914360e+002, 3.414471e+000
2.919181e+002, 3.392559e+000
2.924002e+002, 3.341425e+000
2.928823e+002, 3.216329e+000
2.933644e+002, 3.086693e+000
2.938466e+002, 3.031806e+000
2.943287e+002, 3.063227e+000
2.948108e+002, 3.119544e+000
2.952929e+002, 3.142808e+000
2.957750e+002, 3.129325e+000
2.962571e+002, 3.113683e+000
2.967393e+002, 3.119166e+000
2.972214e+002, 3.107126e+000
2.977035e+002, 3.011245e+000
2.981856e+002, 2.840428e+000
2.986677e+002, 2.721037e+000
2.991498e+002, 2.766349e+000
2.996320e+002, 2.963488e+000
3.001141e+002, 3.099575e+000
3.005962e+002, 3.155309e+000
3.010783e+002, 3.169957e+000
3.015604e+002, 3.169403e+000
3.020425e+002, 3.150055e+000
3.025247e+002, 3.081052e+000
3.030068e+002, 2.917944e+000
3.034889e+002, 2.709959e+000
3.039710e+002, 2.625139e+000
3.044531e+002, 2.737478e+000
3.049352e+002, 2.859195e+000
3.054174e+002, 2.905313e+000
3.058995e+002, 2.896584e+000
3.063816e+002, 2.886767e+000
3.068637e+002, 2.896850e+000
3.073458e+002, 2.918481e+000
3.078279e+002, 2.936282e+000
3.083101e+002, 2.954030e+000
3.087922e+002, 2.959589e+000
3.092743e+002, 2.949014e+000
3.097564e+002, 2.923689e+000
3.102385e+002, 2.873304e+000
3.107206e+002, 2.785407e+000
3.112028e+002, 2.710651e+000
3.116849e+002, 2.739523e+000
3.121670e+002, 2.881139e+000
3.126491e+002, 2.996993e+000
3.131312e+002, 3.058060e+000
3.136133e+002, 3.080881e+000
3.140955e+002, 3.077279e+000
3.145776e+002, 3.048376e+000
3.150597e+002, 3.015108e+000
3.155418e+002, 3.008145e+000
3.160239e+002, 3.024494e+000
3.165060e+002, 2.991029e+000
3.169882e+002, 2.842270e+000
3.174703e+002, 2.683372e+000
3.179524e+002, 2.597907e+000
3.184345e+002, 2.588340e+000
3.189166e+002, 2.627640e+000
3.193987e+002, 2.725164e+000
3.198809e+002, 2.855521e+000
3.203630e+002, 2.891272e+000
3.208451e+002, 2.716030e+000
3.213272e+002, 2.559278e+000
3.218093e+002, 2.584991e+000
3.222914e+002, 2.745476e+000
3.227736e+002, 2.860007e+000
3.232557e+002, 2.829553e+000
3.237378e+002, 2.712140e+000
3.242199e+002, 2.665900e+000
3.247020e+002, 2.718097e+000
3.251841e+002, 2.774017e+000
3.256663e+002, 2.801240e+000
3.261484e+002, 2.809398e+000
3.266305e+002, 2.814106e+000
3.271126e+002, 2.818943e+000
3.275947e+002, 2.827597e+000
3.280768e+002, 2.849960e+000
3.285590e+002, 2.890678e+000
3.290411e+002, 2.920001e+000
3.295232e+002, 2.922804e+000
3.300053e+002, 2.915961e+000
3.304874e+002, 2.929245e+000
3.309695e+002, 2.968137e+000
3.314517e+002, 2.987681e+000
3.319338e+002, 2.921133e+000
3.324159e+002, 2.756418e+000
3.328980e+002, 2.694802e+000
3.333801e+002, 2.855677e+000
3.338622e+002, 3.035924e+000
3.343444e+002, 3.064406e+000
3.348265e+002, 2.951285e+000
3.353086e+002, 2.838386e+000
3.357907e+002, 2.824879e+000
3.362729e+002, 2.899913e+000
3.367550e+002, 2.958171e+000
3.372371e+002, 3.004956e+000
3.377192e+002, 3.032108e+000
3.382013e+002, 3.022817e+000
3.386834e+002, 2.990697e+000
3.391656e+002, 2.969068e+000
3.396477e+002, 2.975519e+000
3.401298e+002, 2.997587e+000
3.406119e+002, 2.999348e+000
3.410940e+002, 2.961859e+000
3.415761e+002, 2.940761e+000
3.420583e+002, 2.959090e+000
3.425404e+002, 2.994793e+000
3.430225e+002, 3.021503e+000
3.435046e+002, 3.031754e+000
3.439867e+002, 3.029829e+000
3.444688e+002, 3.020608e+000
3.449510e+002, 3.000767e+000
3.454331e+002, 2.982441e+000
3.459152e+002, 2.960603e+000
3.463973e+002, 2.943830e+000
3.468794e+002, 2.937074e+000
3.473615e+002, 2.941483e+000
3.478437e+002, 2.960931e+000
3.483258e+002, 3.005034e+000
3.488079e+002, 3.076000e+000
3.492900e+002, 3.101033e+000
3.497721e+002, 3.040427e+000
3.502542e+002, 2.982355e+000
3.507364e+002, 2.961844e+000
3.512185e+002, 2.972671e+000
3.517006e+002, 2.997604e+000
3.521827e+002, 3.028815e+000
3.526648e+002, 3.061998e+000
3.531469e+002, 3.078875e+000
3.536291e+002, 3.051190e+000
3.541112e+002, 3.042519e+000
3.545933e+002, 3.101573e+000
3.550754e+002, 3.166641e+000
3.555575e+002, 3.143184e+000
3.560396e+002, 3.004899e+000
3.565218e+002, 2.838869e+000
3.570039e+002, 2.795527e+000
3.574860e+002, 2.951726e+000
3.579681e+002, 3.074705e+000
3.584502e+002, 3.160024e+000
3.589323e+002, 3.219324e+000
3.594145e+002, 3.256180e+000
3.598966e+002, 3.273306e+000
3.603787e+002, 3.276383e+000
3.608608e+002, 3.270726e+000
3.613429e+002, 3.256665e+000
3.618250e+002, 3.229158e+000
3.623072e+002, 3.176735e+000
3.627893e+002, 3.123913e+000
3.632714e+002, 3.060280e+000
3.637535e+002, 3.003966e+000
3.642356e+002, 2.994826e+000
3.647177e+002, 3.060976e+000
3.651999e+002, 3.173311e+000
3.656820e+002, 3.211826e+000
3.661641e+002, 3.107100e+000
3.666462e+002, 3.020963e+000
3.671283e+002, 2.951328e+000
3.676104e+002, 2.916726e+000
3.680926e+002, 2.959066e+000
3.685747e+002, 3.082610e+000
3.690568e+002, 3.214212e+000
3.695389e+002, 3.230701e+000
3.700210e+002, 3.075013e+000
3.705031e+002, 2.965094e+000
3.709853e+002, 2.922793e+000
3.714674e+002, 2.909414e+000
3.719495e+002, 2.904291e+000
3.724316e+002, 2.909678e+000
3.729137e+002, 2.944613e+000
3.733958e+002, 3.037498e+000
3.738780e+002, 3.183406e+000
3.743601e+002, 3.280636e+000
3.748422e+002, 3.318348e+000
3.753243e+002, 3.315132e+000
3.758064e+002, 3.229442e+000
3.762885e+002, 3.121652e+000
3.767707e+002, 3.089311e+000
3.772528e+002, 3.190608e+000
3.777349e+002, 3.349426e+000
3.782170e+002, 3.392798e+000
3.786991e+002, 3.270876e+000
3.791812e+002, 3.179697e+000
3.796634e+002, 3.196774e+000
3.801455e+002, 3.243280e+000
3.806276e+002, 3.259062e+000
3.811097e+002, 3.234493e+000
3.815918e+002, 3.212441e+000
3.820739e+002, 3.258189e+000
3.825561e+002, 3.368073e+000
3.830382e+002, 3.396342e+000
3.835203e+002, 3.254034e+000
3.840024e+002, 3.117305e+000
3.844845e+002, 3.100463e+000
3.849666e+002, 3.177928e+000
3.854488e+002, 3.272586e+000
3.859309e+002, 3.352684e+000
3.864130e+002, 3.420764e+000
3.868951e+002, 3.494143e+000
3.873772e+002, 3.587266e+000
3.878593e+002, 3.629132e+000
3.883415e+002, 3.521503e+000
3.888236e+002, 3.359152e+000
3.893057e+002, 3.262639e+000
3.897878e+002, 3.263438e+000
3.902699e+002, 3.309831e+000
3.907520e+002, 3.382964e+000
3.912342e+002, 3.474853e+000
3.917163e+002, 3.516195e+000
3.921984e+002, 3.466492e+000
3.926805e+002, 3.385778e+000
3.931626e+002, 3.350895e+000
3.936447e+002, 3.361352e+000
3.941269e+002, 3.372807e+000
3.946090e+002, 3.365297e+000
3.950911e+002, 3.349579e+000
3.955732e+002, 3.336143e+000
3.960553e+002, 3.324730e+000
3.965374e+002, 3.335721e+000
3.970196e+002, 3.400538e+000
3.975017e+002, 3.507399e+000
3.979838e+002, 3.577168e+000
3.984659e+002, 3.583051e+000
3.989480e+002, 3.571923e+000
3.994301e+002, 3.577395e+000
3.999123e+002, 3.590987e+000
4.003944e+002, 3.574311e+000
4.008765e+002, 3.498787e+000
4.013586e+002, 3.403862e+000
4.018407e+002, 3.391680e+000
4.023228e+002, 3.494853e+000
4.028050e+002, 3.592947e+000
4.032871e+002, 3.683542e+000
4.037692e+002, 3.749362e+000
4.042513e+002, 3.770266e+000
4.047334e+002, 3.743053e+000
4.052155e+002, 3.675364e+000
4.056977e+002, 3.561411e+000
4.061798e+002, 3.381506e+000
4.066619e+002, 3.316840e+000
4.071440e+002, 3.442182e+000
4.076261e+002, 3.591620e+000
4.081082e+002, 3.722849e+000
4.085904e+002, 3.817332e+000
4.090725e+002, 3.837424e+000
4.095546e+002, 3.756196e+000
4.100367e+002, 3.610521e+000
4.105188e+002, 3.535782e+000
4.110009e+002, 3.587039e+000
4.114831e+002, 3.641878e+000
4.119652e+002, 3.709602e+000
4.124473e+002, 3.769117e+000
4.129294e+002, 3.797286e+000
4.134115e+002, 3.791866e+000
4.138936e+002, 3.773082e+000
4.143758e+002, 3.760689e+000
4.148579e+002, 3.750131e+000
4.153400e+002, 3.771285e+000
4.158221e+002, 3.905215e+000
4.163042e+002, 3.991985e+000
4.167863e+002, 3.915002e+000
4.172685e+002, 3.752925e+000
4.177506e+002, 3.671733e+000
4.182327e+002, 3.787997e+000
4.187148e+002, 4.019471e+000
4.191969e+002, 4.107483e+000
4.196790e+002, 3.973302e+000
4.201612e+002, 3.878272e+000
4.206433e+002, 3.922776e+000
4.211254e+002, 4.008492e+000
4.216075e+002, 4.060062e+000
4.220896e+002, 4.062847e+000
4.225717e+002, 4.044793e+000
4.230539e+002, 4.028505e+000
4.235360e+002, 4.014042e+000
4.240181e+002, 4.004287e+000
4.245002e+002, 4.007853e+000
4.249823e+002, 4.003281e+000
4.254644e+002, 3.969010e+000
4.259466e+002, 3.916256e+000
4.264287e+002, 3.873960e+000
4.269108e+002, 3.860529e+000
4.273929e+002, 3.858525e+000
4.278750e+002, 3.834749e+000
4.283571e+002, 3.786817e+000
4.288393e+002, 3.767969e+000
4.293214e+002, 3.819648e+000
4.298035e+002, 3.902879e+000
4.302856e+002, 3.945490e+000
4.307677e+002, 3.935240e+000
4.312498e+002, 3.929592e+000
4.317320e+002, 3.968342e+000
4.322141e+002, 4.028735e+000
4.326962e+002, 4.062607e+000
4.331783e+002, 4.058157e+000
4.336604e+002, 4.048861e+000
4.341425e+002, 4.079372e+000
4.346247e+002, 4.149087e+000
4.351068e+002, 4.159377e+000
4.355889e+002, 4.030059e+000
4.360710e+002, 3.909515e+000
4.365531e+002, 3.905299e+000
4.370352e+002, 3.988908e+000
4.375174e+002, 4.068287e+000
4.379995e+002, 4.097453e+000
4.384816e+002, 4.091216e+000
4.389637e+002, 4.088656e+000
4.394458e+002, 4.087746e+000
4.399279e+002, 4.094039e+000
4.404101e+002, 4.120920e+000
4.408922e+002, 4.146803e+000
4.413743e+002, 4.143100e+000
4.418564e+002, 4.111850e+000
4.423385e+002, 4.090833e+000
4.428206e+002, 4.122354e+000
4.433028e+002, 4.211195e+000
4.437849e+002, 4.263886e+000
4.442670e+002, 4.239513e+000
4.447491e+002, 4.223254e+000
4.452312e+002, 4.238352e+000
4.457133e+002, 4.273696e+000
4.461955e+002, 4.312130e+000
4.466776e+002, 4.346145e+000
4.471597e+002, 4.379494e+000
4.476418e+002, 4.421832e+000
4.481239e+002, 4.480402e+000
4.486060e+002, 4.524753e+000
4.490882e+002, 4.566616e+000
4.495703e+002, 4.580473e+000
4.500524e+002, 4.520770e+000
4.505345e+002, 4.409063e+000
4.510166e+002, 4.332525e+000
4.514987e+002, 4.371462e+000
4.519809e+002, 4.492431e+000
4.524630e+002, 4.574466e+000
4.529451e+002, 4.609768e+000
4.534272e+002, 4.626866e+000
4.539093e+002, 4.607213e+000
4.543914e+002, 4.589427e+000
4.548736e+002, 4.631725e+000
4.553557e+002, 4.764317e+000
4.558378e+002, 4.884308e+000
4.563199e+002, 4.903404e+000
4.568020e+002, 4.839027e+000
4.572841e+002, 4.751912e+000
4.577663e+002, 4.639878e+000
4.582484e+002, 4.543353e+000
4.587305e+002, 4.522053e+000
4.592126e+002, 4.563526e+000
4.596947e+002, 4.586250e+000
4.601768e+002, 4.559367e+000
4.606590e+002, 4.521497e+000
4.611411e+002, 4.499475e+000
4.616232e+002, 4.493905e+000
4.621053e+002, 4.502243e+000
4.625874e+002, 4.524975e+000
4.630695e+002, 4.558033e+000
4.635517e+002, 4.592261e+000
4.640338e+002, 4.642093e+000
4.645159e+002, 4.666311e+000
4.649980e+002, 4.654601e+000
4.654801e+002, 4.618918e+000
4.659622e+002, 4.553817e+000
4.664444e+002, 4.468269e+000
4.669265e+002, 4.403996e+000
4.674086e+002, 4.406400e+000
4.678907e+002, 4.475747e+000
4.683728e+002, 4.497177e+000
4.688549e+002, 4.455564e+000
4.693371e+002, 4.380870e+000
4.698192e+002, 4.209154e+000
4.703013e+002, 4.034389e+000
4.707834e+002, 4.007180e+000
4.712655e+002, 4.174068e+000
4.717477e+002, 4.379208e+000
4.722298e+002, 4.355854e+000
4.727119e+002, 4.031597e+000
4.731940e+002, 3.823348e+000
4.736761e+002, 3.849691e+000
4.741582e+002, 3.912286e+000
4.746404e+002, 3.934993e+000
4.751225e+002, 3.921752e+000
4.756046e+002, 3.895249e+000
4.760867e+002, 3.861870e+000
4.765688e+002, 3.828089e+000
4.770509e+002, 3.807536e+000
4.775331e+002, 3.801469e+000
4.780152e+002, 3.801092e+000
4.784973e+002, 3.825361e+000
4.789794e+002, 3.835537e+000
4.794615e+002, 3.774388e+000
4.799436e+002, 3.632713e+000
4.804258e+002, 3.515515e+000
4.809079e+002, 3.472799e+000
4.813900e+002, 3.487735e+000
4.818721e+002, 3.559362e+000
4.823542e+002, 3.691194e+000
4.828363e+002, 3.776267e+000
4.833185e+002, 3.718761e+000
4.838006e+002, 3.545060e+000
4.842827e+002, 3.425679e+000
4.847648e+002, 3.357288e+000
4.852469e+002, 3.342702e+000
4.857290e+002, 3.442197e+000
4.862112e+002, 3.577734e+000
4.866933e+002, 3.624918e+000
4.871754e+002, 3.549170e+000
4.876575e+002, 3.413690e+000
4.881396e+002, 3.288019e+000
4.886217e+002, 3.157056e+000
4.891039e+002, 3.114007e+000
4.895860e+002, 3.241010e+000
4.900681e+002, 3.354576e+000
4.905502e+002, 3.383689e+000
4.910323e+002, 3.346831e+000
4.915144e+002, 3.272053e+000
4.919966e+002, 3.170966e+000
4.924787e+002, 3.075073e+000
4.929608e+002, 3.066917e+000
4.934429e+002, 3.196781e+000
4.939250e+002, 3.265258e+000
4.944071e+002, 3.216625e+000
4.948893e+002, 3.129459e+000
4.953714e+002, 3.011455e+000
4.958535e+002, 2.884318e+000
4.963356e+002, 2.806268e+000
4.968177e+002, 2.831305e+000
4.972998e+002, 2.920444e+000
4.977820e+002, 2.984226e+000
4.982641e+002, 3.021213e+000
4.987462e+002, 3.038556e+000
4.992283e+002, 3.027596e+000
4.997104e+002, 3.005028e+000
5.001925e+002, 2.995785e+000
5.006747e+002, 3.004529e+000
5.011568e+002, 3.002616e+000
5.016389e+002, 2.955996e+000
5.021210e+002, 2.896580e+000
5.026031e+002, 2.897165e+000
5.030852e+002, 2.966685e+000
5.035674e+002, 3.001134e+000
5.040495e+002, 2.898017e+000
5.045316e+002, 2.687488e+000
5.050137e+002, 2.597554e+000
5.054958e+002, 2.738902e+000
5.059779e+002, 2.851847e+000
5.064601e+002, 2.842309e+000
5.069422e+002, 2.772332e+000
5.074243e+002, 2.725712e+000
5.079064e+002, 2.722349e+000
5.083885e+002, 2.716789e+000
5.088706e+002, 2.644176e+000
5.093528e+002, 2.483094e+000
5.098349e+002, 2.422654e+000
5.103170e+002, 2.576499e+000
5.107991e+002, 2.707537e+000
5.112812e+002, 2.751966e+000
5.117633e+002, 2.731732e+000
5.122454e+002, 2.660357e+000
5.127275e+002, 2.541986e+000
5.132097e+002, 2.444960e+000
5.136918e+002, 2.503105e+000
5.141739e+002, 2.741254e+000
5.146560e+002, 2.900854e+000
5.151381e+002, 2.923849e+000
5.156202e+002, 2.892829e+000
5.161024e+002, 2.853592e+000
5.165845e+002, 2.805437e+000
5.170666e+002, 2.741465e+000
5.175487e+002, 2.633922e+000
5.180308e+002, 2.535860e+000
5.185129e+002, 2.532162e+000
5.189951e+002, 2.611275e+000
5.194772e+002, 2.658674e+000
5.199593e+002, 2.631371e+000
5.204414e+002, 2.563218e+000
5.209235e+002, 2.483963e+000
5.214056e+002, 2.384022e+000
5.218878e+002, 2.357161e+000
5.223699e+002, 2.501009e+000
5.228520e+002, 2.658171e+000
5.233341e+002, 2.684234e+000
5.238162e+002, 2.605071e+000
5.242983e+002, 2.543991e+000
5.247805e+002, 2.572182e+000
5.252626e+002, 2.652094e+000
5.257447e+002, 2.678886e+000
5.262268e+002, 2.604589e+000
5.267089e+002, 2.548606e+000
5.271910e+002, 2.506982e+000
5.276732e+002, 2.485920e+000
5.281553e+002, 2.505878e+000
5.286374e+002, 2.553293e+000
5.291195e+002, 2.582953e+000
5.296016e+002, 2.555937e+000
5.300837e+002, 2.493168e+000
5.305659e+002, 2.483546e+000
5.310480e+002, 2.567861e+000
5.315301e+002, 2.598201e+000
5.320122e+002, 2.467970e+000
5.324943e+002, 2.310004e+000
5.329764e+002, 2.218485e+000
5.334586e+002, 2.201714e+000
5.339407e+002, 2.220487e+000
5.344228e+002, 2.261161e+000
5.349049e+002, 2.317703e+000
5.353870e+002, 2.388838e+000
5.358691e+002, 2.476732e+000
5.363513e+002, 2.536329e+000
5.368334e+002, 2.539598e+000
5.373155e+002, 2.497937e+000
5.377976e+002, 2.436956e+000
5.382797e+002, 2.328331e+000
5.387618e+002, 2.267205e+000
5.392440e+002, 2.311508e+000
5.397261e+002, 2.398890e+000
5.402082e+002, 2.477530e+000
5.406903e+002, 2.533872e+000
5.411724e+002, 2.551869e+000
5.416545e+002, 2.515532e+000
5.421367e+002, 2.430806e+000
5.426188e+002, 2.345366e+000
5.431009e+002, 2.219215e+000
5.435830e+002, 2.147679e+000
5.440651e+002, 2.157765e+000
5.445472e+002, 2.213326e+000
5.450294e+002, 2.317202e+000
5.455115e+002, 2.448842e+000
5.459936e+002, 2.523749e+000
5.464757e+002, 2.428106e+000
5.469578e+002, 2.198563e+000
5.474399e+002, 2.094517e+000
5.479221e+002, 2.162783e+000
5.484042e+002, 2.246235e+000
5.488863e+002, 2.278904e+000
5.493684e+002, 2.292810e+000
5.498505e+002, 2.323601e+000
5.503326e+002, 2.379046e+000
5.508148e+002, 2.425147e+000
5.512969e+002, 2.461987e+000
5.517790e+002, 2.469629e+000
5.522611e+002, 2.376932e+000
5.527432e+002, 2.174260e+000
5.532253e+002, 2.018346e+000
5.537075e+002, 2.032671e+000
5.541896e+002, 2.180673e+000
5.546717e+002, 2.272276e+000
5.551538e+002, 2.301691e+000
5.556359e+002, 2.293899e+000
5.561180e+002, 2.227927e+000
5.566002e+002, 2.142125e+000
5.570823e+002, 2.072343e+000
5.575644e+002, 2.024760e+000
5.580465e+002, 1.986059e+000
5.585286e+002, 1.941978e+000
5.590107e+002, 1.896560e+000
5.594929e+002, 1.891504e+000
5.599750e+002, 1.946563e+000
5.604571e+002, 2.012811e+000
5.609392e+002, 2.100400e+000
5.614213e+002, 2.180367e+000
5.619034e+002, 2.221686e+000
5.623856e+002, 2.222622e+000
5.628677e+002, 2.219144e+000
5.633498e+002, 2.246194e+000
5.638319e+002, 2.290726e+000
5.643140e+002, 2.318967e+000
5.647961e+002, 2.334163e+000
5.652783e+002, 2.306911e+000
5.657604e+002, 2.188569e+000
5.662425e+002, 2.037253e+000
5.667246e+002, 1.968641e+000
5.672067e+002, 2.003196e+000
5.676888e+002, 2.046763e+000
5.681710e+002, 2.072253e+000
5.686531e+002, 2.087679e+000
5.691352e+002, 2.105769e+000
5.696173e+002, 2.124762e+000
5.700994e+002, 2.124763e+000
5.705815e+002, 2.088210e+000
5.710637e+002, 2.028444e+000
5.715458e+002, 2.000670e+000
5.720279e+002, 2.028678e+000
5.725100e+002, 2.055049e+000
5.729921e+002, 2.077655e+000
5.734742e+002, 2.097392e+000
5.739564e+002, 2.116706e+000
5.744385e+002, 2.134217e+000
5.749206e+002, 2.145628e+000
5.754027e+002, 2.149425e+000
5.758848e+002, 2.143294e+000
5.763669e+002, 2.103836e+000
5.768491e+002, 2.010730e+000
5.773312e+002, 1.992676e+000
5.778133e+002, 2.165131e+000
5.782954e+002, 2.359237e+000
5.787775e+002, 2.402607e+000
5.792596e+002, 2.300699e+000
5.797418e+002, 2.175631e+000
5.802239e+002, 2.031788e+000
5.807060e+002, 1.914283e+000
5.811881e+002, 1.879261e+000
5.816702e+002, 1.916537e+000
5.821523e+002, 1.984678e+000
5.826345e+002, 2.072480e+000
5.831166e+002, 2.152763e+000
5.835988e+002, 2.171818e+000
5.840809e+002, 2.102767e+000
5.845630e+002, 2.041274e+000
5.850451e+002, 1.958123e+000
5.855272e+002, 1.910015e+000
5.860093e+002, 1.948219e+000
5.864915e+002, 2.039656e+000
5.869736e+002, 2.127667e+000
5.874557e+002, 2.186982e+000
5.879378e+002, 2.209726e+000
5.884199e+002, 2.162811e+000
5.889020e+002, 2.031930e+000
5.893842e+002, 1.958281e+000
5.898663e+002, 1.985255e+000
5.903484e+002, 2.032880e+000
5.908305e+002, 2.065837e+000
5.913126e+002, 2.081091e+000
5.917947e+002, 2.066740e+000
5.922769e+002, 1.998139e+000
5.927590e+002, 1.937604e+000
5.932411e+002, 1.940676e+000
5.937232e+002, 1.989213e+000
5.942053e+002, 2.049862e+000
5.946874e+002, 2.117939e+000
5.951696e+002, 2.148874e+000
5.956517e+002, 2.081762e+000
5.961338e+002, 1.918977e+000
5.966159e+002, 1.864984e+000
5.970980e+002, 2.015389e+000
5.975801e+002, 2.138157e+000
5.980623e+002, 2.186238e+000
5.985444e+002, 2.179367e+000
5.990265e+002, 2.117834e+000
5.995086e+002, 2.015686e+000
5.999907e+002, 1.930248e+000
6.004728e+002, 1.925119e+000
6.009550e+002, 1.986180e+000
6.014371e+002, 2.005640e+000
6.019192e+002, 1.961636e+000
6.024013e+002, 1.929218e+000
6.028834e+002, 1.941752e+000
6.033655e+002, 1.974146e+000
6.038477e+002, 2.008676e+000
6.043298e+002, 2.043657e+000
6.048119e+002, 2.072304e+000
6.052940e+002, 2.101524e+000
6.057761e+002, 2.116550e+000
6.062582e+002, 2.079864e+000
6.067404e+002, 2.000793e+000
6.072225e+002, 1.953386e+000
6.077046e+002, 1.977716e+000
6.081867e+002, 2.042913e+000
6.086688e+002, 2.090382e+000
6.091509e+002, 2.131090e+000
6.096331e+002, 2.122174e+000
6.101152e+002, 2.001317e+000
6.105973e+002, 1.893853e+000
6.110794e+002, 1.871913e+000
6.115615e+002, 1.912638e+000
6.120436e+002, 1.967177e+000
6.125258e+002, 2.014466e+000
6.130079e+002, 2.047074e+000
6.134900e+002, 2.053481e+000
6.139721e+002, 2.033497e+000
6.144542e+002, 1.981879e+000
6.149363e+002, 1.848091e+000
6.154185e+002, 1.764865e+000
6.159006e+002, 1.885974e+000
6.163827e+002, 2.106306e+000
6.168648e+002, 2.215328e+000
6.173469e+002, 2.126731e+000
6.178290e+002, 2.018707e+000
6.183112e+002, 1.991810e+000
6.187933e+002, 2.015271e+000
6.192754e+002, 2.056381e+000
6.197575e+002, 2.104299e+000
6.202396e+002, 2.109531e+000
6.207217e+002, 2.020030e+000
6.212039e+002, 1.858997e+000
6.216860e+002, 1.781621e+000
6.221681e+002, 1.872519e+000
6.226502e+002, 1.932545e+000
6.231323e+002, 1.930828e+000
6.236144e+002, 1.908027e+000
6.240966e+002, 1.878995e+000
6.245787e+002, 1.855764e+000
6.250608e+002, 1.865490e+000
6.255429e+002, 1.937996e+000
6.260250e+002, 2.038913e+000
6.265071e+002, 2.095701e+000
6.269893e+002, 2.107096e+000
6.274714e+002, 2.103377e+000
6.279535e+002, 2.087091e+000
6.284356e+002, 2.066341e+000
6.289177e+002, 2.050529e+000
6.293998e+002, 2.038748e+000
6.298820e+002, 2.022760e+000
6.303641e+002, 1.998013e+000
6.308462e+002, 1.972251e+000
6.313283e+002, 1.946921e+000
6.318104e+002, 1.924233e+000
6.322925e+002, 1.911402e+000
6.327747e+002, 1.909116e+000
6.332568e+002, 1.902078e+000
6.337389e+002, 1.868225e+000
6.342210e+002, 1.807286e+000
6.347031e+002, 1.788294e+000
6.351852e+002, 1.864472e+000
6.356674e+002, 1.901108e+000
6.361495e+002, 1.814676e+000
6.366316e+002, 1.711698e+000
6.371137e+002, 1.701228e+000
6.375958e+002, 1.792618e+000
6.380779e+002, 1.899436e+000
6.385601e+002, 1.994906e+000
6.390422e+002, 2.057088e+000
6.395243e+002, 2.026617e+000
6.400064e+002, 1.909868e+000
6.404885e+002, 1.803532e+000
6.409706e+002, 1.742978e+000
6.414528e+002, 1.723679e+000
6.419349e+002, 1.739466e+000
6.424170e+002, 1.794448e+000
6.428991e+002, 1.878389e+000
6.433812e+002, 2.048284e+000
6.438633e+002, 2.186782e+000
6.443455e+002, 2.246648e+000
6.448276e+002, 2.236643e+000
6.453097e+002, 2.153815e+000
6.457918e+002, 2.003759e+000
6.462739e+002, 1.859710e+000
6.467560e+002, 1.822921e+000
6.472382e+002, 1.889206e+000
6.477203e+002, 1.945492e+000
6.482024e+002, 1.997643e+000
6.486845e+002, 2.025167e+000
6.491666e+002, 2.015188e+000
6.496487e+002, 1.975583e+000
6.501309e+002, 1.896932e+000
6.506130e+002, 1.760615e+000
6.510951e+002, 1.698149e+000
6.515772e+002, 1.835743e+000
6.520593e+002, 2.016752e+000
6.525414e+002, 2.066547e+000
6.530236e+002, 2.006757e+000
6.535057e+002, 1.965756e+000
6.539878e+002, 2.008104e+000
6.544699e+002, 2.082069e+000
6.549520e+002, 2.084399e+000
6.554341e+002, 1.980763e+000
6.559163e+002, 1.919471e+000
6.563984e+002, 1.927098e+000
6.568805e+002, 1.951373e+000
6.573626e+002, 2.005139e+000
6.578447e+002, 2.054465e+000
6.583268e+002, 2.038397e+000
6.588090e+002, 1.934152e+000
6.592911e+002, 1.836593e+000
6.597732e+002, 1.841875e+000
6.602553e+002, 1.910335e+000
6.607374e+002, 1.946912e+000
6.612195e+002, 1.943710e+000
6.617017e+002, 1.927886e+000
6.621838e+002, 1.915399e+000
6.626659e+002, 1.899234e+000
6.631480e+002, 1.860194e+000
6.636301e+002, 1.776029e+000
6.641122e+002, 1.716172e+000
6.645944e+002, 1.694117e+000
6.650765e+002, 1.685263e+000
6.655586e+002, 1.667823e+000
6.660407e+002, 1.654385e+000
6.665228e+002, 1.686203e+000
6.670049e+002, 1.781901e+000
6.674871e+002, 1.869515e+000
6.679692e+002, 1.816920e+000
6.684513e+002, 1.637940e+000
6.689334e+002, 1.578454e+000
6.694155e+002, 1.695608e+000
6.698976e+002, 1.814732e+000
6.703798e+002, 1.831035e+000
6.708619e+002, 1.783388e+000
6.713440e+002, 1.757781e+000
6.718261e+002, 1.761762e+000
6.723082e+002, 1.767697e+000
6.727903e+002, 1.757671e+000
6.732725e+002, 1.753973e+000
6.737546e+002, 1.793120e+000
6.742367e+002, 1.857384e+000
6.747188e+002, 1.882298e+000
6.752009e+002, 1.834092e+000
6.756830e+002, 1.766796e+000
6.761652e+002, 1.802099e+000
6.766473e+002, 1.979342e+000
6.771294e+002, 2.039050e+000
6.776115e+002, 1.883831e+000
6.780936e+002, 1.739894e+000
6.785757e+002, 1.714526e+000
6.790579e+002, 1.761134e+000
6.795400e+002, 1.820645e+000
6.800221e+002, 1.887294e+000
6.805042e+002, 1.944498e+000
6.809863e+002, 1.995714e+000
6.814684e+002, 2.024887e+000
6.819506e+002, 1.992201e+000
6.824327e+002, 1.909145e+000
6.829148e+002, 1.847128e+000
6.833969e+002, 1.847135e+000
6.838790e+002, 1.871905e+000
6.843611e+002, 1.839974e+000
6.848433e+002, 1.712201e+000
6.853254e+002, 1.648107e+000
6.858075e+002, 1.688392e+000
6.862896e+002, 1.749963e+000
6.867717e+002, 1.818443e+000
6.872538e+002, 1.886181e+000
6.877360e+002, 1.957587e+000
6.882181e+002, 2.035520e+000
6.887002e+002, 2.065508e+000
6.891823e+002, 1.951332e+000
6.896644e+002, 1.776000e+000
6.901465e+002, 1.730385e+000
6.906287e+002, 1.816315e+000
6.911108e+002, 1.878991e+000
6.915929e+002, 1.837860e+000
6.920750e+002, 1.746040e+000
6.925571e+002, 1.704240e+000
6.930392e+002, 1.740105e+000
6.935214e+002, 1.738185e+000
6.940035e+002, 1.656502e+000
6.944856e+002, 1.587027e+000
6.949677e+002, 1.570161e+000
6.954498e+002, 1.585861e+000
6.959319e+002, 1.602047e+000
6.964141e+002, 1.610774e+000
6.968962e+002, 1.634402e+000
6.973783e+002, 1.712958e+000
6.978604e+002, 1.820562e+000
6.983425e+002, 1.880911e+000
6.988246e+002, 1.891508e+000
6.993068e+002, 1.868492e+000
6.997889e+002, 1.804581e+000
7.002710e+002, 1.732709e+000
7.007531e+002, 1.704326e+000
7.012352e+002, 1.728470e+000
7.017173e+002, 1.755813e+000
7.021995e+002, 1.823840e+000
7.026816e+002, 1.852296e+000
7.031637e+002, 1.761904e+000
7.036458e+002, 1.633533e+000
7.041279e+002, 1.589166e+000
7.046100e+002, 1.647114e+000
7.050922e+002, 1.706034e+000
7.055743e+002, 1.654321e+000
7.060564e+002, 1.533916e+000
7.065385e+002, 1.503648e+000
7.070206e+002, 1.572678e+000
7.075027e+002, 1.651296e+000
7.079849e+002, 1.724304e+000
7.084670e+002, 1.776012e+000
7.089491e+002, 1.778182e+000
7.094312e+002, 1.731698e+000
7.099133e+002, 1.689894e+000
7.103954e+002, 1.644493e+000
7.108776e+002, 1.617930e+000
7.113597e+002, 1.625111e+000
7.118418e+002, 1.653150e+000
7.123239e+002, 1.693727e+000
7.128060e+002, 1.740638e+000
7.132881e+002, 1.778482e+000
7.137703e+002, 1.793967e+000
7.142524e+002, 1.791947e+000
7.147345e+002, 1.782925e+000
7.152166e+002, 1.764741e+000
7.156987e+002, 1.758719e+000
7.161808e+002, 1.775698e+000
7.166630e+002, 1.796753e+000
7.171451e+002, 1.803029e+000
7.176272e+002, 1.798203e+000
7.181093e+002, 1.798815e+000
7.185914e+002, 1.807548e+000
7.190735e+002, 1.820111e+000
7.195557e+002, 1.837427e+000
7.200378e+002, 1.856286e+000
7.205199e+002, 1.876390e+000
7.210020e+002, 1.895296e+000
7.214841e+002, 1.908252e+000
7.219662e+002, 1.913431e+000
7.224484e+002, 1.905273e+000
7.229305e+002, 1.858906e+000
7.234126e+002, 1.766826e+000
7.238947e+002, 1.727996e+000
7.243768e+002, 1.781438e+000
7.248589e+002, 1.835878e+000
7.253411e+002, 1.827896e+000
7.258232e+002, 1.777712e+000
7.263053e+002, 1.729651e+000
7.267874e+002, 1.674451e+000
7.272695e+002, 1.649377e+000
7.277516e+002, 1.691839e+000
7.282338e+002, 1.747862e+000
7.287159e+002, 1.766278e+000
7.291980e+002, 1.757603e+000
7.296801e+002, 1.770536e+000
7.301622e+002, 1.827625e+000
7.306443e+002, 1.874674e+000
7.311265e+002, 1.806987e+000
7.316086e+002, 1.623972e+000
7.320907e+002, 1.522416e+000
7.325728e+002, 1.525981e+000
7.330549e+002, 1.557509e+000
7.335370e+002, 1.599102e+000
7.340192e+002, 1.638157e+000
7.345013e+002, 1.650429e+000
7.349834e+002, 1.630861e+000
7.354655e+002, 1.626765e+000
7.359476e+002, 1.655601e+000
7.364297e+002, 1.694890e+000
7.369119e+002, 1.750752e+000
7.373940e+002, 1.800341e+000
7.378761e+002, 1.787979e+000
7.383582e+002, 1.709045e+000
7.388403e+002, 1.654075e+000
7.393224e+002, 1.738307e+000
7.398046e+002, 1.916563e+000
7.402867e+002, 1.954480e+000
7.407688e+002, 1.822264e+000
7.412509e+002, 1.723326e+000
7.417330e+002, 1.724621e+000
7.422151e+002, 1.767093e+000
7.426973e+002, 1.796070e+000
7.431794e+002, 1.812817e+000
7.436615e+002, 1.826345e+000
7.441436e+002, 1.827359e+000
7.446257e+002, 1.837550e+000
7.451078e+002, 1.902592e+000
7.455900e+002, 1.955680e+000
7.460721e+002, 1.894862e+000
7.465542e+002, 1.742664e+000
7.470363e+002, 1.630336e+000
7.475184e+002, 1.646456e+000
7.480005e+002, 1.730850e+000
7.484827e+002, 1.769863e+000
7.489648e+002, 1.764332e+000
7.494469e+002, 1.774314e+000
7.499290e+002, 1.824373e+000
7.504111e+002, 1.833620e+000
7.508932e+002, 1.711913e+000
7.513754e+002, 1.519944e+000
7.518575e+002, 1.457610e+000
7.523396e+002, 1.591860e+000
7.528217e+002, 1.686113e+000
7.533038e+002, 1.689583e+000
7.537859e+002, 1.665796e+000
7.542681e+002, 1.632095e+000
7.547502e+002, 1.607187e+000
7.552323e+002, 1.621754e+000
7.557144e+002, 1.685513e+000
7.561965e+002, 1.764831e+000
7.566786e+002, 1.840446e+000
7.571608e+002, 1.901831e+000
7.576429e+002, 1.903173e+000
7.581250e+002, 1.841759e+000
7.586071e+002, 1.772557e+000
7.590892e+002, 1.711441e+000
7.595714e+002, 1.665527e+000
7.600535e+002, 1.646001e+000
7.605356e+002, 1.655004e+000
7.610177e+002, 1.673779e+000
7.614998e+002, 1.712502e+000
7.619819e+002, 1.747320e+000
7.624641e+002, 1.773616e+000
7.629462e+002, 1.792391e+000
7.634283e+002, 1.817144e+000
7.639104e+002, 1.839081e+000
7.643925e+002, 1.812960e+000
7.648746e+002, 1.675998e+000
7.653568e+002, 1.536311e+000
7.658389e+002, 1.572051e+000
7.663210e+002, 1.732880e+000
7.668031e+002, 1.832328e+000
7.672852e+002, 1.835740e+000
7.677673e+002, 1.791523e+000
7.682495e+002, 1.729566e+000
7.687316e+002, 1.654104e+000
7.692137e+002, 1.575887e+000
7.696958e+002, 1.447608e+000
7.701779e+002, 1.409659e+000
7.706600e+002, 1.566860e+000
7.711422e+002, 1.701679e+000
7.716243e+002, 1.697435e+000
7.721064e+002, 1.614367e+000
7.725885e+002, 1.544241e+000
7.730706e+002, 1.506696e+000
7.735527e+002, 1.510561e+000
7.740349e+002, 1.594315e+000
7.745170e+002, 1.701728e+000
7.749991e+002, 1.766731e+000
7.754812e+002, 1.789446e+000
7.759633e+002, 1.779018e+000
7.764454e+002, 1.738949e+000
7.769276e+002, 1.689762e+000
7.774097e+002, 1.653778e+000
7.778918e+002, 1.631384e+000
7.783739e+002, 1.639482e+000
7.788560e+002, 1.697825e+000
7.793381e+002, 1.743224e+000
7.798203e+002, 1.766085e+000
7.803024e+002, 1.764566e+000
7.807845e+002, 1.718843e+000
7.812666e+002, 1.642920e+000
7.817487e+002, 1.603321e+000
7.822308e+002, 1.626547e+000
7.827130e+002, 1.672943e+000
7.831951e+002, 1.760981e+000
7.836772e+002, 1.838464e+000
7.841593e+002, 1.826675e+000
7.846414e+002, 1.739305e+000
7.851235e+002, 1.651594e+000
7.856057e+002, 1.604268e+000
7.860878e+002, 1.595365e+000
7.865699e+002, 1.632778e+000
7.870520e+002, 1.715252e+000
7.875341e+002, 1.788480e+000
7.880162e+002, 1.857205e+000
7.884984e+002, 1.882077e+000
7.889805e+002, 1.820714e+000
7.894626e+002, 1.723208e+000
7.899447e+002, 1.678063e+000
7.904268e+002, 1.691932e+000
7.909089e+002, 1.720740e+000
7.913911e+002, 1.798771e+000
7.918732e+002, 1.849368e+000
7.923553e+002, 1.830213e+000
7.928374e+002, 1.773040e+000
7.933195e+002, 1.702325e+000
7.938016e+002, 1.630287e+000
7.942838e+002, 1.579645e+000
7.947659e+002, 1.567218e+000
7.952480e+002, 1.582950e+000
7.957301e+002, 1.613813e+000
7.962122e+002, 1.659656e+000
7.966943e+002, 1.732054e+000
7.971765e+002, 1.835137e+000
7.976586e+002, 1.906877e+000
7.981407e+002, 1.896720e+000
7.986228e+002, 1.824376e+000
7.991049e+002, 1.758127e+000
7.995870e+002, 1.699616e+000
8.000692e+002, 1.643635e+000
8.005513e+002, 1.535481e+000
8.010334e+002, 1.489586e+000
8.015155e+002, 1.633145e+000
8.019976e+002, 1.832406e+000
8.024797e+002, 1.868449e+000
8.029619e+002, 1.691152e+000
8.034440e+002, 1.542978e+000
8.039261e+002, 1.593771e+000
8.044082e+002, 1.682477e+000
8.048903e+002, 1.626895e+000
8.053724e+002, 1.495360e+000
8.058546e+002, 1.462692e+000
8.063367e+002, 1.569226e+000
8.068188e+002, 1.696902e+000
8.073009e+002, 1.731475e+000
8.077830e+002, 1.697830e+000
8.082651e+002, 1.697569e+000
8.087473e+002, 1.736972e+000
8.092294e+002, 1.769143e+000
8.097115e+002, 1.794122e+000
8.101936e+002, 1.791746e+000
8.106757e+002, 1.726752e+000
8.111578e+002, 1.622245e+000
8.116400e+002, 1.571022e+000
8.121221e+002, 1.597984e+000
8.126042e+002, 1.625791e+000
8.130863e+002, 1.674502e+000
8.135684e+002, 1.691028e+000
8.140505e+002, 1.601520e+000
8.145327e+002, 1.469905e+000
8.150148e+002, 1.408401e+000
8.154969e+002, 1.448453e+000
8.159790e+002, 1.525463e+000
8.164611e+002, 1.611407e+000
8.169432e+002, 1.684293e+000
8.174254e+002, 1.696598e+000
8.179075e+002, 1.655655e+000
8.183896e+002, 1.593236e+000
8.188717e+002, 1.516389e+000
8.193538e+002, 1.463792e+000
8.198359e+002, 1.481829e+000
8.203181e+002, 1.554680e+000
8.208002e+002, 1.566508e+000
8.212823e+002, 1.469808e+000
8.217644e+002, 1.421365e+000
8.222465e+002, 1.466240e+000
8.227286e+002, 1.534992e+000
8.232108e+002, 1.612663e+000
8.236929e+002, 1.681137e+000
8.241750e+002, 1.698117e+000
8.246571e+002, 1.641951e+000
8.251392e+002, 1.594034e+000
8.256213e+002, 1.575846e+000
8.261035e+002, 1.586774e+000
8.265856e+002, 1.666038e+000
8.270677e+002, 1.763109e+000
8.275498e+002, 1.770247e+000
8.280319e+002, 1.663581e+000
8.285140e+002, 1.538815e+000
8.289962e+002, 1.475918e+000
8.294783e+002, 1.469139e+000
8.299604e+002, 1.522949e+000
8.304425e+002, 1.634606e+000
8.309246e+002, 1.698925e+000
8.314067e+002, 1.687617e+000
8.318889e+002, 1.641234e+000
8.323710e+002, 1.581044e+000
8.328531e+002, 1.518289e+000
8.333352e+002, 1.505906e+000
8.338173e+002, 1.599266e+000
8.342994e+002, 1.648452e+000
8.347816e+002, 1.604782e+000
8.352637e+002, 1.572629e+000
8.357458e+002, 1.604144e+000
8.362279e+002, 1.674069e+000
8.367100e+002, 1.760152e+000
8.371921e+002, 1.859338e+000
8.376743e+002, 1.900689e+000
8.381564e+002, 1.802432e+000
8.386385e+002, 1.671838e+000
8.391206e+002, 1.604399e+000
8.396027e+002, 1.579823e+000
8.400848e+002, 1.545258e+000
8.405670e+002, 1.494247e+000
8.410491e+002, 1.475191e+000
8.415312e+002, 1.536545e+000
8.420133e+002, 1.635266e+000
8.424954e+002, 1.647310e+000
8.429775e+002, 1.570328e+000
8.434597e+002, 1.535500e+000
8.439418e+002, 1.568519e+000
8.444239e+002, 1.614363e+000
8.449060e+002, 1.655706e+000
8.453881e+002, 1.674246e+000
8.458702e+002, 1.618628e+000
8.463524e+002, 1.435297e+000
8.468345e+002, 1.343315e+000
8.473166e+002, 1.383440e+000
8.477987e+002, 1.462085e+000
8.482808e+002, 1.593464e+000
8.487629e+002, 1.719471e+000
8.492451e+002, 1.782755e+000
8.497272e+002, 1.779909e+000
8.502093e+002, 1.739946e+000
8.506914e+002, 1.655210e+000
8.511735e+002, 1.567128e+000
8.516556e+002, 1.497328e+000
8.521378e+002, 1.452929e+000
8.526199e+002, 1.453880e+000
8.531020e+002, 1.494362e+000
8.535841e+002, 1.542910e+000
8.540662e+002, 1.582821e+000
8.545483e+002, 1.614554e+000
8.550305e+002, 1.633773e+000
8.555126e+002, 1.641598e+000
8.559947e+002, 1.682133e+000
8.564768e+002, 1.773052e+000
8.569589e+002, 1.793827e+000
8.574410e+002, 1.665647e+000
8.579232e+002, 1.511574e+000
8.584053e+002, 1.488883e+000
8.588874e+002, 1.599675e+000
8.593695e+002, 1.653015e+000
8.598516e+002, 1.580654e+000
8.603337e+002, 1.548896e+000
8.608159e+002, 1.624989e+000
8.612980e+002, 1.703172e+000
8.617801e+002, 1.713916e+000
8.622622e+002, 1.670329e+000
8.627443e+002, 1.603428e+000
8.632264e+002, 1.512788e+000
8.637086e+002, 1.451953e+000
8.641907e+002, 1.483490e+000
8.646728e+002, 1.537509e+000
8.651549e+002, 1.527089e+000
8.656370e+002, 1.478329e+000
8.661191e+002, 1.470184e+000
8.666013e+002, 1.521255e+000
8.670834e+002, 1.572171e+000
8.675655e+002, 1.559890e+000
8.680476e+002, 1.515820e+000
8.685297e+002, 1.544168e+000
8.690118e+002, 1.644069e+000
8.694940e+002, 1.701416e+000
8.699761e+002, 1.688953e+000
8.704582e+002, 1.676358e+000
8.709403e+002, 1.718050e+000
8.714224e+002, 1.783054e+000
8.719045e+002, 1.792303e+000
8.723867e+002, 1.734799e+000
8.728688e+002, 1.654427e+000
8.733509e+002, 1.468498e+000
8.738330e+002, 1.360536e+000
8.743151e+002, 1.445272e+000
8.747972e+002, 1.588704e+000
8.752794e+002, 1.660377e+000
8.757615e+002, 1.655849e+000
8.762436e+002, 1.636593e+000
8.767257e+002, 1.608351e+000
8.772078e+002, 1.588420e+000
8.776899e+002, 1.593960e+000
8.781721e+002, 1.606952e+000
8.786542e+002, 1.610023e+000
8.791363e+002, 1.601370e+000
8.796184e+002, 1.581161e+000
8.801005e+002, 1.549187e+000
8.805826e+002, 1.518753e+000
8.810648e+002, 1.503656e+000
8.815469e+002, 1.502605e+000
8.820290e+002, 1.522420e+000
8.825111e+002, 1.558629e+000
8.829932e+002, 1.558056e+000
8.834753e+002, 1.500456e+000
8.839575e+002, 1.450780e+000
8.844396e+002, 1.480137e+000
8.849217e+002, 1.565940e+000
8.854038e+002, 1.584731e+000
8.858859e+002, 1.509703e+000
8.863680e+002, 1.449948e+000
8.868502e+002, 1.432405e+000
8.873323e+002, 1.405241e+000
8.878144e+002, 1.299206e+000
8.882965e+002, 1.183694e+000
8.887786e+002, 1.190175e+000
8.892607e+002, 1.347560e+000
8.897429e+002, 1.458775e+000
8.902250e+002, 1.480547e+000
8.907071e+002, 1.470193e+000
8.911892e+002, 1.413366e+000
8.916713e+002, 1.362739e+000
8.921534e+002, 1.380149e+000
8.926356e+002, 1.457418e+000
8.931177e+002, 1.540978e+000
8.935998e+002, 1.614075e+000
8.940819e+002, 1.660427e+000
8.945640e+002, 1.648799e+000
8.950461e+002, 1.609887e+000
8.955283e+002, 1.594438e+000
8.960104e+002, 1.598718e+000
8.964925e+002, 1.590398e+000
8.969746e+002, 1.557634e+000
8.974567e+002, 1.522581e+000
8.979388e+002, 1.511801e+000
8.984210e+002, 1.518706e+000
8.989031e+002, 1.506833e+000
8.993852e+002, 1.474021e+000
8.998673e+002, 1.487988e+000
9.003494e+002, 1.578475e+000
9.008315e+002, 1.647578e+000
9.013137e+002, 1.609872e+000
9.017958e+002, 1.513803e+000
9.022779e+002, 1.503044e+000
9.027600e+002, 1.635120e+000
9.032421e+002, 1.688938e+000
9.037242e+002, 1.599766e+000
9.042064e+002, 1.516388e+000
9.046885e+002, 1.514878e+000
9.051706e+002, 1.517781e+000
9.056527e+002, 1.405579e+000
9.061348e+002, 1.201330e+000
9.066169e+002, 1.123969e+000
9.070991e+002, 1.332564e+000
9.075812e+002, 1.526892e+000
9.080633e+002, 1.591568e+000
9.085454e+002, 1.597117e+000
9.090275e+002, 1.590294e+000
9.095096e+002, 1.579855e+000
9.099918e+002, 1.564824e+000
9.104739e+002, 1.545269e+000
9.109560e+002, 1.533545e+000
9.114381e+002, 1.551497e+000
9.119202e+002, 1.575850e+000
9.124023e+002, 1.571449e+000
9.128845e+002, 1.544192e+000
9.133666e+002, 1.500498e+000
9.138487e+002, 1.447251e+000
9.143308e+002, 1.425717e+000
9.148129e+002, 1.467996e+000
9.152950e+002, 1.547197e+000
9.157772e+002, 1.620599e+000
9.162593e+002, 1.687214e+000
9.167414e+002, 1.660242e+000
9.172235e+002, 1.510139e+000
9.177056e+002, 1.434464e+000
9.181877e+002, 1.544991e+000
9.186699e+002, 1.689597e+000
9.191520e+002, 1.664003e+000
9.196341e+002, 1.474638e+000
9.201162e+002, 1.382682e+000
9.205983e+002, 1.451739e+000
9.210804e+002, 1.505504e+000
9.215626e+002, 1.523725e+000
9.220447e+002, 1.523807e+000
9.225268e+002, 1.492768e+000
9.230089e+002, 1.456901e+000
9.234910e+002, 1.474836e+000
9.239731e+002, 1.567304e+000
9.244553e+002, 1.613029e+000
9.249374e+002, 1.538129e+000
9.254195e+002, 1.460808e+000
9.259016e+002, 1.432499e+000
9.263837e+002, 1.437173e+000
9.268658e+002, 1.461687e+000
9.273480e+002, 1.499337e+000
9.278301e+002, 1.545104e+000
9.283122e+002, 1.606788e+000
9.287943e+002, 1.638034e+000
9.292764e+002, 1.578228e+000
9.297585e+002, 1.476554e+000
9.302407e+002, 1.388003e+000
9.307228e+002, 1.322632e+000
9.312049e+002, 1.287249e+000
9.316870e+002, 1.285848e+000
9.321691e+002, 1.341425e+000
9.326512e+002, 1.505233e+000
9.331334e+002, 1.694196e+000
9.336155e+002, 1.659730e+000
9.340976e+002, 1.435640e+000
9.345797e+002, 1.334612e+000
9.350618e+002, 1.403587e+000
9.355439e+002, 1.487262e+000
9.360261e+002, 1.502312e+000
9.365082e+002, 1.480661e+000
9.369903e+002, 1.471792e+000
9.374724e+002, 1.475615e+000
9.379545e+002, 1.503450e+000
9.384366e+002, 1.583288e+000
9.389188e+002, 1.603375e+000
9.394009e+002, 1.487634e+000
9.398830e+002, 1.380420e+000
9.403651e+002, 1.418464e+000
9.408472e+002, 1.551800e+000
9.413293e+002, 1.606633e+000
9.418115e+002, 1.562489e+000
9.422936e+002, 1.494390e+000
9.427757e+002, 1.332425e+000
9.432578e+002, 1.234343e+000
9.437399e+002, 1.308464e+000
9.442220e+002, 1.440692e+000
9.447042e+002, 1.514634e+000
9.451863e+002, 1.527373e+000
9.456684e+002, 1.536963e+000
9.461505e+002, 1.576391e+000
9.466326e+002, 1.589192e+000
9.471147e+002, 1.495205e+000
9.475969e+002, 1.409409e+000
9.480790e+002, 1.472324e+000
9.485611e+002, 1.612659e+000
9.490432e+002, 1.672409e+000
9.495253e+002, 1.613517e+000
9.500074e+002, 1.537778e+000
9.504896e+002, 1.518393e+000
9.509717e+002, 1.524651e+000
9.514538e+002, 1.538899e+000
9.519359e+002, 1.543002e+000
9.524180e+002, 1.472295e+000
9.529001e+002, 1.341702e+000
9.533823e+002, 1.269008e+000
9.538644e+002, 1.314792e+000
9.543465e+002, 1.392408e+000
9.548286e+002, 1.370991e+000
9.553107e+002, 1.279102e+000
9.557928e+002, 1.246333e+000
9.562750e+002, 1.271110e+000
9.567571e+002, 1.340943e+000
9.572392e+002, 1.459735e+000
9.577213e+002, 1.536690e+000
9.582034e+002, 1.491181e+000
9.586855e+002, 1.383929e+000
9.591677e+002, 1.385118e+000
9.596498e+002, 1.524662e+000
9.601319e+002, 1.600336e+000
9.606140e+002, 1.587084e+000
9.610961e+002, 1.586110e+000
9.615782e+002, 1.659850e+000
9.620604e+002, 1.715514e+000
9.625425e+002, 1.639423e+000
9.630246e+002, 1.452927e+000
9.635067e+002, 1.321611e+000
9.639888e+002, 1.250913e+000
9.644709e+002, 1.228300e+000
9.649531e+002, 1.308080e+000
9.654352e+002, 1.371174e+000
9.659173e+002, 1.356842e+000
9.663994e+002, 1.305931e+000
9.668815e+002, 1.252096e+000
9.673636e+002, 1.201518e+000
9.678458e+002, 1.209512e+000
9.683279e+002, 1.354318e+000
9.688100e+002, 1.468897e+000
9.692921e+002, 1.495875e+000
9.697742e+002, 1.477636e+000
9.702563e+002, 1.419513e+000
9.707385e+002, 1.351017e+000
9.712206e+002, 1.325485e+000
9.717027e+002, 1.354897e+000
9.721848e+002, 1.381265e+000
9.726669e+002, 1.367221e+000
9.731490e+002, 1.342600e+000
9.736312e+002, 1.301350e+000
9.741133e+002, 1.282187e+000
9.745954e+002, 1.382792e+000
9.750775e+002, 1.558503e+000
9.755596e+002, 1.633225e+000
9.760417e+002, 1.525283e+000
9.765239e+002, 1.387962e+000
9.770060e+002, 1.378809e+000
9.774881e+002, 1.439188e+000
9.779702e+002, 1.495827e+000
9.784523e+002, 1.532516e+000
9.789344e+002, 1.485882e+000
9.794166e+002, 1.357465e+000
9.798987e+002, 1.248853e+000
9.803808e+002, 1.225566e+000
9.808629e+002, 1.258209e+000
9.813450e+002, 1.313509e+000
9.818271e+002, 1.383134e+000
9.823093e+002, 1.422275e+000
9.827914e+002, 1.429860e+000
9.832735e+002, 1.405263e+000
9.837556e+002, 1.346093e+000
9.842377e+002, 1.279202e+000
9.847198e+002, 1.219604e+000
9.852020e+002, 1.187278e+000
9.856841e+002, 1.268067e+000
9.861662e+002, 1.486287e+000
9.866483e+002, 1.594918e+000
9.871304e+002, 1.560258e+000
9.876125e+002, 1.509343e+000
9.880947e+002, 1.486405e+000
9.885768e+002, 1.473450e+000
9.890589e+002, 1.452371e+000
9.895410e+002, 1.423319e+000
9.900231e+002, 1.384311e+000
9.905052e+002, 1.310473e+000
9.909874e+002, 1.287331e+000
9.914695e+002, 1.351438e+000
9.919516e+002, 1.418000e+000
9.924337e+002, 1.471241e+000
9.929158e+002, 1.492127e+000
9.933979e+002, 1.433411e+000
9.938801e+002, 1.295609e+000
9.943622e+002, 1.221474e+000
9.948443e+002, 1.232397e+000
9.953264e+002, 1.277302e+000
9.958085e+002, 1.414802e+000
9.962906e+002, 1.516349e+000
9.967728e+002, 1.467384e+000
9.972549e+002, 1.359879e+000
9.977370e+002, 1.342946e+000
9.982191e+002, 1.432310e+000
9.987012e+002, 1.496894e+000
9.991833e+002, 1.474766e+000
9.996655e+002, 1.463218e+000
1.000148e+003, 1.547448e+000
1.000630e+003, 1.609590e+000
1.001112e+003, 1.499680e+000
1.001594e+003, 1.312418e+000
1.002076e+003, 1.264340e+000
1.002558e+003, 1.405619e+000
1.003040e+003, 1.499939e+000
1.003522e+003, 1.357358e+000
1.004005e+003, 1.212429e+000
1.004487e+003, 1.234823e+000
1.004969e+003, 1.329990e+000
1.005451e+003, 1.401199e+000
1.005933e+003, 1.439398e+000
1.006415e+003, 1.463894e+000
1.006897e+003, 1.481592e+000
1.007379e+003, 1.482834e+000
1.007861e+003, 1.444979e+000
1.008344e+003, 1.400512e+000
1.008826e+003, 1.395836e+000
1.009308e+003, 1.405605e+000
1.009790e+003, 1.379689e+000
1.010272e+003, 1.320697e+000
1.010754e+003, 1.263450e+000
1.011236e+003, 1.223786e+000
1.011718e+003, 1.211549e+000
1.012201e+003, 1.257372e+000
1.012683e+003, 1.326331e+000
1.013165e+003, 1.347633e+000
1.013647e+003, 1.338162e+000
1.014129e+003, 1.360001e+000
1.014611e+003, 1.415716e+000
1.015093e+003, 1.434512e+000
1.015575e+003, 1.371749e+000
1.016057e+003, 1.303580e+000
1.016540e+003, 1.376086e+000
1.017022e+003, 1.528934e+000
1.017504e+003, 1.532917e+000
1.017986e+003, 1.407748e+000
1.018468e+003, 1.284521e+000
1.018950e+003, 1.195064e+000
1.019432e+003, 1.158823e+000
1.019914e+003, 1.192923e+000
1.020396e+003, 1.267677e+000
1.020879e+003, 1.340829e+000
1.021361e+003, 1.409061e+000
1.021843e+003, 1.424593e+000
1.022325e+003, 1.386630e+000
1.022807e+003, 1.343053e+000
1.023289e+003, 1.304765e+000
1.023771e+003, 1.272392e+000
1.024253e+003, 1.243506e+000
1.024735e+003, 1.228739e+000
1.025218e+003, 1.263577e+000
1.025700e+003, 1.354017e+000
1.026182e+003, 1.382974e+000
1.026664e+003, 1.336181e+000
1.027146e+003, 1.311185e+000
1.027628e+003, 1.337336e+000
1.028110e+003, 1.382443e+000
1.028592e+003, 1.429020e+000
1.029075e+003, 1.464876e+000
1.029557e+003, 1.447743e+000
1.030039e+003, 1.356728e+000
1.030521e+003, 1.334691e+000
1.031003e+003, 1.407181e+000
1.031485e+003, 1.478413e+000
1.031967e+003, 1.536285e+000
1.032449e+003, 1.554017e+000
1.032932e+003, 1.489558e+000
1.033414e+003, 1.378842e+000
1.033896e+003, 1.339987e+000
1.034378e+003, 1.395648e+000
1.034860e+003, 1.446994e+000
1.035342e+003, 1.521571e+000
1.035824e+003, 1.533793e+000
1.036306e+003, 1.399233e+000
1.036788e+003, 1.271774e+000
1.037271e+003, 1.302367e+000
1.037753e+003, 1.438255e+000
1.038235e+003, 1.503965e+000
1.038717e+003, 1.484004e+000
1.039199e+003, 1.434928e+000
1.039681e+003, 1.318389e+000
1.040163e+003, 1.227537e+000
1.040645e+003, 1.184294e+000
1.041127e+003, 1.176444e+000
1.041610e+003, 1.213339e+000
1.042092e+003, 1.276886e+000
1.042574e+003, 1.308307e+000
1.043056e+003, 1.296927e+000
1.043538e+003, 1.281898e+000
1.044020e+003, 1.231894e+000
1.044502e+003, 1.221633e+000
1.044984e+003, 1.326204e+000
1.045467e+003, 1.431231e+000
1.045949e+003, 1.429450e+000
1.046431e+003, 1.352437e+000
1.046913e+003, 1.300222e+000
1.047395e+003, 1.283685e+000
1.047877e+003, 1.283534e+000
1.048359e+003, 1.296022e+000
1.048841e+003, 1.326279e+000
1.049323e+003, 1.399591e+000
1.049806e+003, 1.470836e+000
1.050288e+003, 1.510717e+000
1.050770e+003, 1.516104e+000
1.051252e+003, 1.476304e+000
1.051734e+003, 1.371243e+000
1.052216e+003, 1.301119e+000
1.052698e+003, 1.320313e+000
1.053180e+003, 1.334738e+000
1.053662e+003, 1.295545e+000
1.054145e+003, 1.247146e+000
1.054627e+003, 1.222537e+000
1.055109e+003, 1.222487e+000
1.055591e+003, 1.251034e+000
1.056073e+003, 1.320741e+000
1.056555e+003, 1.345757e+000
1.057037e+003, 1.242497e+000
1.057519e+003, 1.165091e+000
1.058002e+003, 1.211286e+000
1.058484e+003, 1.283618e+000
1.058966e+003, 1.300466e+000
1.059448e+003, 1.270642e+000
1.059930e+003, 1.221333e+000
1.060412e+003, 1.152552e+000
1.060894e+003, 1.125651e+000
1.061376e+003, 1.214603e+000
1.061859e+003, 1.282864e+000
1.062341e+003, 1.231429e+000
1.062823e+003, 1.165667e+000
1.063305e+003, 1.194580e+000
1.063787e+003, 1.280300e+000
1.064269e+003, 1.327014e+000
1.064751e+003, 1.313540e+000
1.065233e+003, 1.295859e+000
1.065715e+003, 1.276389e+000
1.066198e+003, 1.282446e+000
1.066680e+003, 1.382198e+000
1.067162e+003, 1.463397e+000
1.067644e+003, 1.391258e+000
1.068126e+003, 1.238494e+000
1.068608e+003, 1.150652e+000
1.069090e+003, 1.157291e+000
1.069572e+003, 1.203112e+000
1.070054e+003, 1.302323e+000
1.070537e+003, 1.386958e+000
1.071019e+003, 1.418866e+000
1.071501e+003, 1.427689e+000
1.071983e+003, 1.448964e+000
1.072465e+003, 1.460801e+000
1.072947e+003, 1.401501e+000
1.073429e+003, 1.271050e+000
1.073911e+003, 1.188976e+000
1.074394e+003, 1.225048e+000
1.074876e+003, 1.290988e+000
1.075358e+003, 1.389341e+000
1.075840e+003, 1.457347e+000
1.076322e+003, 1.409483e+000
1.076804e+003, 1.314744e+000
1.077286e+003, 1.289989e+000
1.077768e+003, 1.343861e+000
1.078250e+003, 1.386462e+000
1.078733e+003, 1.370272e+000
1.079215e+003, 1.362674e+000
1.079697e+003, 1.417655e+000
1.080179e+003, 1.470901e+000
1.080661e+003, 1.471994e+000
1.081143e+003, 1.441964e+000
1.081625e+003, 1.407560e+000
1.082107e+003, 1.375052e+000
1.082590e+003, 1.346394e+000
1.083072e+003, 1.318972e+000
1.083554e+003, 1.304866e+000
1.084036e+003, 1.322064e+000
1.084518e+003, 1.340895e+000
1.085000e+003, 1.336410e+000
1.085482e+003, 1.325566e+000
1.085964e+003, 1.337741e+000
1.086447e+003, 1.364790e+000
1.086929e+003, 1.364665e+000
1.087411e+003, 1.315936e+000
1.087893e+003, 1.277547e+000
1.088375e+003, 1.292477e+000
1.088857e+003, 1.302912e+000
1.089339e+003, 1.257663e+000
1.089821e+003, 1.204671e+000
1.090303e+003, 1.200703e+000
1.090786e+003, 1.232652e+000
1.091268e+003, 1.251659e+000
1.091750e+003, 1.244315e+000
1.092232e+003, 1.237370e+000
1.092714e+003, 1.217062e+000
1.093196e+003, 1.229353e+000
1.093678e+003, 1.347801e+000
1.094160e+003, 1.462230e+000
1.094642e+003, 1.459426e+000
1.095125e+003, 1.382321e+000
1.095607e+003, 1.324619e+000
1.096089e+003, 1.303338e+000
1.096571e+003, 1.312859e+000
1.097053e+003, 1.382254e+000
1.097535e+003, 1.440023e+000
1.098017e+003, 1.464723e+000
1.098499e+003, 1.465169e+000
1.098982e+003, 1.431040e+000
1.099464e+003, 1.385811e+000
1.099946e+003, 1.368222e+000
1.100428e+003, 1.380533e+000
1.100910e+003, 1.385372e+000
1.101392e+003, 1.350917e+000
1.101874e+003, 1.341921e+000
1.102356e+003, 1.409130e+000
1.102839e+003, 1.465779e+000
1.103321e+003, 1.458173e+000
1.103803e+003, 1.416434e+000
1.104285e+003, 1.361599e+000
1.104767e+003, 1.305546e+000
1.105249e+003, 1.301538e+000
1.105731e+003, 1.398556e+000
1.106213e+003, 1.461985e+000
1.106695e+003, 1.463966e+000
1.107177e+003, 1.437633e+000
1.107660e+003, 1.366199e+000
1.108142e+003, 1.297068e+000
1.108624e+003, 1.284503e+000
1.109106e+003, 1.311429e+000
1.109588e+003, 1.311229e+000
1.110070e+003, 1.259676e+000
1.110552e+003, 1.244302e+000
1.111034e+003, 1.304559e+000
1.111517e+003, 1.355399e+000
1.111999e+003, 1.364061e+000
1.112481e+003, 1.368605e+000
1.112963e+003, 1.408799e+000
1.113445e+003, 1.459774e+000
1.113927e+003, 1.468922e+000
1.114409e+003, 1.432391e+000
1.114891e+003, 1.378835e+000
1.115374e+003, 1.253540e+000
1.115856e+003, 1.207027e+000
1.116338e+003, 1.325962e+000
1.116820e+003, 1.431849e+000
1.117302e+003, 1.425290e+000
1.117784e+003, 1.358852e+000
1.118266e+003, 1.297121e+000
1.118748e+003, 1.240888e+000
1.119230e+003, 1.209341e+000
1.119713e+003, 1.214582e+000
1.120195e+003, 1.213632e+000
1.120677e+003, 1.195630e+000
1.121159e+003, 1.192299e+000
1.121641e+003, 1.231961e+000
1.122123e+003, 1.261601e+000
1.122605e+003, 1.213600e+000
1.123087e+003, 1.117627e+000
1.123569e+003, 1.101850e+000
1.124052e+003, 1.191339e+000
1.124534e+003, 1.255067e+000
1.125016e+003, 1.291383e+000
1.125498e+003, 1.305646e+000
1.125980e+003, 1.295605e+000
1.126462e+003, 1.274139e+000
1.126944e+003, 1.246530e+000
1.127426e+003, 1.223467e+000
1.127909e+003, 1.235506e+000
1.128391e+003, 1.281997e+000
1.128873e+003, 1.254542e+000
1.129355e+003, 1.141308e+000
1.129837e+003, 1.089650e+000
1.130319e+003, 1.128896e+000
1.130801e+003, 1.191582e+000
1.131283e+003, 1.246132e+000
1.131766e+003, 1.285517e+000
1.132248e+003, 1.297797e+000
1.132730e+003, 1.290172e+000
1.133212e+003, 1.294871e+000
1.133694e+003, 1.309886e+000
1.134176e+003, 1.299266e+000
1.134658e+003, 1.263257e+000
1.135140e+003, 1.272105e+000
1.135622e+003, 1.350087e+000
1.136104e+003, 1.446020e+000
1.136587e+003, 1.523677e+000
1.137069e+003, 1.557487e+000
1.137551e+003, 1.457818e+000
1.138033e+003, 1.279068e+000
1.138515e+003, 1.214806e+000
1.138997e+003, 1.248787e+000
1.139479e+003, 1.270241e+000
1.139961e+003, 1.257387e+000
1.140444e+003, 1.259398e+000
1.140926e+003, 1.306513e+000
1.141408e+003, 1.349825e+000
1.141890e+003, 1.308750e+000
1.142372e+003, 1.239608e+000
1.142854e+003, 1.243690e+000
1.143336e+003, 1.293720e+000
1.143818e+003, 1.340458e+000
1.144301e+003, 1.372935e+000
1.144783e+003, 1.388831e+000
1.145265e+003, 1.386406e+000
1.145747e+003, 1.353906e+000
1.146229e+003, 1.243671e+000
1.146711e+003, 1.161754e+000
1.147193e+003, 1.284391e+000
1.147675e+003, 1.437228e+000
1.148157e+003, 1.352753e+000
1.148640e+003, 1.152529e+000
1.149122e+003, 1.117742e+000
1.149604e+003, 1.262036e+000
1.150086e+003, 1.346944e+000
1.150568e+003, 1.251783e+000
1.151050e+003, 1.130502e+000
1.151532e+003, 1.025278e+000
1.152014e+003, 9.760768e-001
1.152496e+003, 1.044858e+000
1.152979e+003, 1.159276e+000
1.153461e+003, 1.269847e+000
1.153943e+003, 1.349132e+000
1.154425e+003, 1.338627e+000
1.154907e+003, 1.214220e+000
1.155389e+003, 1.127151e+000
1.155871e+003, 1.134382e+000
1.156353e+003, 1.167398e+000
1.156836e+003, 1.238115e+000
1.157318e+003, 1.291681e+000
1.157800e+003, 1.282499e+000
1.158282e+003, 1.239278e+000
1.158764e+003, 1.187406e+000
1.159246e+003, 1.133185e+000
1.159728e+003, 1.145111e+000
1.160210e+003, 1.325310e+000
1.160693e+003, 1.407452e+000
1.161175e+003, 1.303572e+000
1.161657e+003, 1.229642e+000
1.162139e+003, 1.283013e+000
1.162621e+003, 1.353186e+000
1.163103e+003, 1.332845e+000
1.163585e+003, 1.266079e+000
1.164067e+003, 1.277091e+000
1.164549e+003, 1.379785e+000
1.165031e+003, 1.470278e+000
1.165514e+003, 1.570372e+000
1.165996e+003, 1.564197e+000
1.166478e+003, 1.392153e+000
1.166960e+003, 1.252637e+000
1.167442e+003, 1.256556e+000
1.167924e+003, 1.333670e+000
1.168406e+003, 1.405331e+000
1.168888e+003, 1.455299e+000
1.169371e+003, 1.364220e+000
1.169853e+003, 1.136744e+000
1.170335e+003, 1.087746e+000
1.170817e+003, 1.234365e+000
1.171299e+003, 1.316019e+000
1.171781e+003, 1.252070e+000
1.172263e+003, 1.214720e+000
1.172745e+003, 1.343917e+000
1.173228e+003, 1.515045e+000
1.173710e+003, 1.509675e+000
1.174192e+003, 1.382945e+000
1.174674e+003, 1.258673e+000
1.175156e+003, 1.160114e+000
1.175638e+003, 1.181581e+000
1.176120e+003, 1.304211e+000
1.176602e+003, 1.380041e+000
1.177084e+003, 1.349808e+000
1.177567e+003, 1.301848e+000
1.178049e+003, 1.311260e+000
1.178531e+003, 1.339194e+000
1.179013e+003, 1.334769e+000
1.179495e+003, 1.327178e+000
1.179977e+003, 1.372422e+000
1.180459e+003, 1.437716e+000
1.180941e+003, 1.466283e+000
1.181423e+003, 1.442854e+000
1.181906e+003, 1.350280e+000
1.182388e+003, 1.149109e+000
1.182870e+003, 1.012545e+000
1.183352e+003, 1.073159e+000
1.183834e+003, 1.176422e+000
1.184316e+003, 1.263185e+000
1.184798e+003, 1.319122e+000
1.185280e+003, 1.320750e+000
1.185763e+003, 1.287983e+000
1.186245e+003, 1.255483e+000
1.186727e+003, 1.227451e+000
1.187209e+003, 1.225363e+000
1.187691e+003, 1.284629e+000
1.188173e+003, 1.320980e+000
1.188655e+003, 1.293868e+000
1.189137e+003, 1.278134e+000
1.189620e+003, 1.320243e+000
1.190102e+003, 1.372584e+000
1.190584e+003, 1.396375e+000
1.191066e+003, 1.389802e+000
1.191548e+003, 1.334734e+000
1.192030e+003, 1.198288e+000
1.192512e+003, 1.195755e+000
1.192994e+003, 1.392285e+000
1.193476e+003, 1.473298e+000
1.193958e+003, 1.351064e+000
1.194441e+003, 1.209844e+000
1.194923e+003, 1.144688e+000
1.195405e+003, 1.147786e+000
1.195887e+003, 1.223677e+000
1.196369e+003, 1.341836e+000
1.196851e+003, 1.370167e+000
1.197333e+003, 1.320167e+000
1.197815e+003, 1.314920e+000
1.198298e+003, 1.356149e+000
1.198780e+003, 1.370065e+000
1.199262e+003, 1.339466e+000
1.199744e+003, 1.325072e+000
1.200226e+003, 1.371580e+000
1.200708e+003, 1.410802e+000
1.201190e+003, 1.325319e+000
1.201672e+003, 1.194976e+000
1.202155e+003, 1.145132e+000
1.202637e+003, 1.158760e+000
1.203119e+003, 1.230037e+000
1.203601e+003, 1.326201e+000
1.204083e+003, 1.365180e+000
1.204565e+003, 1.329168e+000
1.205047e+003, 1.292153e+000
1.205529e+003, 1.305406e+000
1.206011e+003, 1.308521e+000
1.206494e+003, 1.246982e+000
1.206976e+003, 1.178150e+000
1.207458e+003, 1.139724e+000
1.207940e+003, 1.123604e+000
1.208422e+003, 1.132417e+000
1.208904e+003, 1.150018e+000
1.209386e+003, 1.124109e+000
1.209868e+003, 1.031631e+000
1.210350e+003, 9.894385e-001
1.210833e+003, 1.040906e+000
1.211315e+003, 1.105494e+000
1.211797e+003, 1.192991e+000
1.212279e+003, 1.260322e+000
1.212761e+003, 1.288286e+000
1.213243e+003, 1.285298e+000
1.213725e+003, 1.251385e+000
1.214207e+003, 1.197125e+000
1.214690e+003, 1.172572e+000
1.215172e+003, 1.185122e+000
1.215654e+003, 1.182655e+000
1.216136e+003, 1.156075e+000
1.216618e+003, 1.182560e+000
1.217100e+003, 1.287819e+000
1.217582e+003, 1.371349e+000
1.218064e+003, 1.375827e+000
1.218547e+003, 1.334208e+000
1.219029e+003, 1.287268e+000
1.219511e+003, 1.230861e+000
1.219993e+003, 1.126835e+000
1.220475e+003, 1.006729e+000
1.220957e+003, 1.002724e+000
1.221439e+003, 1.089959e+000
1.221921e+003, 1.134835e+000
1.222403e+003, 1.111282e+000
1.222885e+003, 1.084589e+000
1.223368e+003, 1.088757e+000
1.223850e+003, 1.121150e+000
1.224332e+003, 1.197968e+000
1.224814e+003, 1.282022e+000
1.225296e+003, 1.343397e+000
1.225778e+003, 1.386698e+000
1.226260e+003, 1.413367e+000
1.226742e+003, 1.428911e+000
1.227225e+003, 1.454546e+000
1.227707e+003, 1.485701e+000
1.228189e+003, 1.454453e+000
1.228671e+003, 1.298389e+000
1.229153e+003, 1.170860e+000
1.229635e+003, 1.151071e+000
1.230117e+003, 1.109325e+000
1.230599e+003, 9.144225e-001
1.231082e+003, 7.641833e-001
1.231564e+003, 8.436503e-001
1.232046e+003, 1.041957e+000
1.232528e+003, 1.158922e+000
1.233010e+003, 1.195229e+000
1.233492e+003, 1.212822e+000
1.233974e+003, 1.211039e+000
1.234456e+003, 1.187596e+000
1.234938e+003, 1.134491e+000
1.235421e+003, 1.109961e+000
1.235903e+003, 1.136102e+000
1.236385e+003, 1.175924e+000
1.236867e+003, 1.205341e+000
1.237349e+003, 1.204506e+000
1.237831e+003, 1.092092e+000
1.238313e+003, 9.377971e-001
1.238795e+003, 1.028453e+000
1.239277e+003, 1.268040e+000
1.239760e+003, 1.347438e+000
1.240242e+003, 1.271353e+000
1.240724e+003, 1.204622e+000
1.241206e+003, 1.198697e+000
1.241688e+003, 1.212003e+000
1.242170e+003, 1.230409e+000
1.242652e+003, 1.220747e+000
1.243134e+003, 1.105499e+000
1.243617e+003, 1.006806e+000
1.244099e+003, 1.069092e+000
1.244581e+003, 1.170578e+000
1.245063e+003, 1.159079e+000
1.245545e+003, 1.076361e+000
1.246027e+003, 1.036206e+000
1.246509e+003, 1.055771e+000
1.246991e+003, 1.108465e+000
1.247474e+003, 1.270869e+000
1.247956e+003, 1.331545e+000
1.248438e+003, 1.194487e+000
1.248920e+003, 1.077911e+000
1.249402e+003, 1.046156e+000
1.249884e+003, 1.062212e+000
1.250366e+003, 1.110619e+000
1.250848e+003, 1.169809e+000
1.251330e+003, 1.197119e+000
1.251813e+003, 1.194002e+000
1.252295e+003, 1.172269e+000
1.252777e+003, 1.132118e+000
1.253259e+003, 1.128691e+000
1.253741e+003, 1.163953e+000
1.254223e+003, 1.165924e+000
1.254705e+003, 1.115282e+000
1.255187e+003, 1.084801e+000
1.255669e+003, 1.127642e+000
1.256152e+003, 1.200217e+000
1.256634e+003, 1.277824e+000
1.257116e+003, 1.326222e+000
1.257598e+003, 1.272495e+000
1.258080e+003, 1.171879e+000
1.258562e+003, 1.082366e+000
1.259044e+003, 1.030145e+000
1.259526e+003, 1.079192e+000
1.260009e+003, 1.218643e+000
1.260491e+003, 1.282892e+000
1.260973e+003, 1.170844e+000
1.261455e+003, 1.086475e+000
1.261937e+003, 1.128244e+000
1.262419e+003, 1.167884e+000
1.262901e+003, 1.118557e+000
1.263383e+003, 1.086110e+000
1.263865e+003, 1.183292e+000
1.264348e+003, 1.319525e+000
1.264830e+003, 1.365014e+000
1.265312e+003, 1.323315e+000
1.265794e+003, 1.212355e+000
1.266276e+003, 1.001898e+000
1.266758e+003, 9.073399e-001
1.267240e+003, 9.460927e-001
1.267722e+003, 1.019086e+000
1.268204e+003, 1.104561e+000
1.268687e+003, 1.139233e+000
1.269169e+003, 1.082121e+000
1.269651e+003, 1.026625e+000
1.270133e+003, 1.100855e+000
1.270615e+003, 1.226497e+000
1.271097e+003, 1.261248e+000
1.271579e+003, 1.240243e+000
1.272061e+003, 1.227653e+000
1.272544e+003, 1.215726e+000
1.273026e+003, 1.169868e+000
1.273508e+003, 1.093931e+000
1.273990e+003, 1.019173e+000
1.274472e+003, 9.539970e-001
1.274954e+003, 9.268229e-001
1.275436e+003, 9.725857e-001
1.275918e+003, 1.027605e+000
1.276401e+003, 1.104643e+000
1.276883e+003, 1.140552e+000
1.277365e+003, 1.039410e+000
1.277847e+003, 9.258050e-001
1.278329e+003, 9.517560e-001
1.278811e+003, 1.068969e+000
1.279293e+003, 1.132087e+000
1.279775e+003, 1.136299e+000
1.280257e+003, 1.137940e+000
1.280740e+003, 1.136665e+000
1.281222e+003, 1.132535e+000
1.281704e+003, 1.124567e+000
1.282186e+003, 1.129136e+000
1.282668e+003, 1.152287e+000
##END=



