##NAMES=Eglestonite
##RRUFFID=R140234
##IDEAL CHEMISTRY=Hg^1+^_6_OCl_3_(OH)
##LOCALITY=Cinnabar City mine, Spring Valley District, Pershing County, Nevada, USA
##OWNER=RRUFF
##SOURCE=Rock Currier
##DESCRIPTION=Micro group of yellow vitreous crystals with a greasy vitreous amber unknown mercury mineral, cinnabar, calomel and native mercury all in calcite.
##STATUS=The identification of this mineral has been confirmed by single-crystal X-ray diffraction.
##URL=rruff.info/R140234
9.059570e+001, 3.373122e+002
9.107782e+001, 3.279663e+002
9.155994e+001, 3.246594e+002
9.204205e+001, 3.318232e+002
9.252417e+001, 3.420208e+002
9.300629e+001, 3.529137e+002
9.348840e+001, 3.617601e+002
9.397052e+001, 3.659839e+002
9.445264e+001, 3.643901e+002
9.493475e+001, 3.619605e+002
9.541687e+001, 3.583492e+002
9.589898e+001, 3.533149e+002
9.638110e+001, 3.479002e+002
9.686321e+001, 3.429684e+002
9.734533e+001, 3.386315e+002
9.782745e+001, 3.341247e+002
9.830956e+001, 3.301468e+002
9.879168e+001, 3.265256e+002
9.927380e+001, 3.235321e+002
9.975591e+001, 3.209781e+002
1.002380e+002, 3.189290e+002
1.007201e+002, 3.178568e+002
1.012023e+002, 3.183829e+002
1.016844e+002, 3.200270e+002
1.021665e+002, 3.207143e+002
1.026486e+002, 3.202144e+002
1.031307e+002, 3.189182e+002
1.036128e+002, 3.166639e+002
1.040950e+002, 3.130677e+002
1.045771e+002, 3.103410e+002
1.050592e+002, 3.105366e+002
1.055413e+002, 3.123877e+002
1.060234e+002, 3.142068e+002
1.065055e+002, 3.154529e+002
1.069877e+002, 3.161148e+002
1.074698e+002, 3.160721e+002
1.079519e+002, 3.144778e+002
1.084340e+002, 3.131733e+002
1.089161e+002, 3.127654e+002
1.093982e+002, 3.132029e+002
1.098804e+002, 3.143043e+002
1.103625e+002, 3.160643e+002
1.108446e+002, 3.186689e+002
1.113267e+002, 3.208891e+002
1.118088e+002, 3.227928e+002
1.122909e+002, 3.243118e+002
1.127731e+002, 3.250415e+002
1.132552e+002, 3.251069e+002
1.137373e+002, 3.252468e+002
1.142194e+002, 3.265453e+002
1.147015e+002, 3.299147e+002
1.151836e+002, 3.329420e+002
1.156658e+002, 3.355263e+002
1.161479e+002, 3.378471e+002
1.166300e+002, 3.402168e+002
1.171121e+002, 3.427845e+002
1.175942e+002, 3.451627e+002
1.180763e+002, 3.461647e+002
1.185584e+002, 3.449889e+002
1.190406e+002, 3.444011e+002
1.195227e+002, 3.453739e+002
1.200048e+002, 3.475702e+002
1.204869e+002, 3.502120e+002
1.209690e+002, 3.533470e+002
1.214511e+002, 3.563564e+002
1.219333e+002, 3.581596e+002
1.224154e+002, 3.582905e+002
1.228975e+002, 3.580123e+002
1.233796e+002, 3.583244e+002
1.238617e+002, 3.592582e+002
1.243438e+002, 3.604922e+002
1.248260e+002, 3.625031e+002
1.253081e+002, 3.645087e+002
1.257902e+002, 3.657243e+002
1.262723e+002, 3.657642e+002
1.267544e+002, 3.649879e+002
1.272365e+002, 3.641515e+002
1.277187e+002, 3.631625e+002
1.282008e+002, 3.622731e+002
1.286829e+002, 3.620074e+002
1.291650e+002, 3.617892e+002
1.296471e+002, 3.607531e+002
1.301292e+002, 3.581945e+002
1.306114e+002, 3.542730e+002
1.310935e+002, 3.513354e+002
1.315756e+002, 3.503745e+002
1.320577e+002, 3.494948e+002
1.325398e+002, 3.483519e+002
1.330219e+002, 3.469218e+002
1.335041e+002, 3.453500e+002
1.339862e+002, 3.438080e+002
1.344683e+002, 3.423984e+002
1.349504e+002, 3.401035e+002
1.354325e+002, 3.364359e+002
1.359146e+002, 3.324600e+002
1.363968e+002, 3.285622e+002
1.368789e+002, 3.248663e+002
1.373610e+002, 3.215990e+002
1.378431e+002, 3.191445e+002
1.383252e+002, 3.176801e+002
1.388073e+002, 3.162073e+002
1.392895e+002, 3.147888e+002
1.397716e+002, 3.132855e+002
1.402537e+002, 3.114819e+002
1.407358e+002, 3.092965e+002
1.412179e+002, 3.069732e+002
1.417000e+002, 3.048454e+002
1.421821e+002, 3.028990e+002
1.426643e+002, 3.009351e+002
1.431464e+002, 2.985768e+002
1.436285e+002, 2.960673e+002
1.441106e+002, 2.943163e+002
1.445927e+002, 2.938189e+002
1.450748e+002, 2.938757e+002
1.455570e+002, 2.939464e+002
1.460391e+002, 2.940123e+002
1.465212e+002, 2.938209e+002
1.470033e+002, 2.930060e+002
1.474854e+002, 2.914793e+002
1.479675e+002, 2.901803e+002
1.484497e+002, 2.895562e+002
1.489318e+002, 2.890378e+002
1.494139e+002, 2.882678e+002
1.498960e+002, 2.871873e+002
1.503781e+002, 2.860614e+002
1.508602e+002, 2.852575e+002
1.513424e+002, 2.847341e+002
1.518245e+002, 2.846782e+002
1.523066e+002, 2.851689e+002
1.527887e+002, 2.859841e+002
1.532708e+002, 2.870043e+002
1.537529e+002, 2.881721e+002
1.542351e+002, 2.894455e+002
1.547172e+002, 2.907133e+002
1.551993e+002, 2.917634e+002
1.556814e+002, 2.930836e+002
1.561635e+002, 2.942584e+002
1.566456e+002, 2.958322e+002
1.571278e+002, 2.984034e+002
1.576099e+002, 3.022667e+002
1.580920e+002, 3.073529e+002
1.585741e+002, 3.135115e+002
1.590562e+002, 3.216161e+002
1.595383e+002, 3.296438e+002
1.600205e+002, 3.367120e+002
1.605026e+002, 3.432879e+002
1.609847e+002, 3.507706e+002
1.614668e+002, 3.604147e+002
1.619489e+002, 3.712103e+002
1.624310e+002, 3.788002e+002
1.629131e+002, 3.822340e+002
1.633953e+002, 3.837404e+002
1.638774e+002, 3.836388e+002
1.643595e+002, 3.821341e+002
1.648416e+002, 3.812495e+002
1.653237e+002, 3.822564e+002
1.658058e+002, 3.848688e+002
1.662880e+002, 3.881399e+002
1.667701e+002, 3.917145e+002
1.672522e+002, 3.961415e+002
1.677343e+002, 4.020370e+002
1.682164e+002, 4.094522e+002
1.686985e+002, 4.180546e+002
1.691807e+002, 4.285972e+002
1.696628e+002, 4.399491e+002
1.701449e+002, 4.507682e+002
1.706270e+002, 4.601757e+002
1.711091e+002, 4.689137e+002
1.715912e+002, 4.786021e+002
1.720734e+002, 4.891947e+002
1.725555e+002, 5.009930e+002
1.730376e+002, 5.133784e+002
1.735197e+002, 5.269678e+002
1.740018e+002, 5.425313e+002
1.744839e+002, 5.599936e+002
1.749661e+002, 5.797946e+002
1.754482e+002, 6.044061e+002
1.759303e+002, 6.335754e+002
1.764124e+002, 6.690109e+002
1.768945e+002, 7.094445e+002
1.773766e+002, 7.562125e+002
1.778588e+002, 8.116745e+002
1.783409e+002, 8.787259e+002
1.788230e+002, 9.576218e+002
1.793051e+002, 1.034327e+003
1.797872e+002, 1.136033e+003
1.802693e+002, 1.209451e+003
1.807515e+002, 1.240089e+003
1.812336e+002, 1.228240e+003
1.817157e+002, 1.176237e+003
1.821978e+002, 1.081737e+003
1.826799e+002, 9.383867e+002
1.831620e+002, 8.147561e+002
1.836441e+002, 7.075544e+002
1.841263e+002, 6.174242e+002
1.846084e+002, 5.477023e+002
1.850905e+002, 4.969951e+002
1.855726e+002, 4.595771e+002
1.860547e+002, 4.312528e+002
1.865368e+002, 4.133586e+002
1.870190e+002, 4.008201e+002
1.875011e+002, 3.956235e+002
1.879832e+002, 3.941452e+002
1.884653e+002, 3.944528e+002
1.889474e+002, 3.962261e+002
1.894296e+002, 3.988754e+002
1.899117e+002, 4.023734e+002
1.903938e+002, 4.066145e+002
1.908759e+002, 4.093403e+002
1.913580e+002, 4.095455e+002
1.918401e+002, 4.084522e+002
1.923223e+002, 4.074069e+002
1.928044e+002, 4.066023e+002
1.932865e+002, 4.056054e+002
1.937686e+002, 4.032979e+002
1.942507e+002, 4.002275e+002
1.947328e+002, 3.984327e+002
1.952150e+002, 3.987001e+002
1.956971e+002, 4.006279e+002
1.961792e+002, 4.034532e+002
1.966613e+002, 4.071305e+002
1.971434e+002, 4.117616e+002
1.976255e+002, 4.176411e+002
1.981077e+002, 4.244836e+002
1.985898e+002, 4.315306e+002
1.990719e+002, 4.379698e+002
1.995540e+002, 4.442164e+002
2.000361e+002, 4.521288e+002
2.005182e+002, 4.628136e+002
2.010004e+002, 4.738151e+002
2.014825e+002, 4.844424e+002
2.019646e+002, 4.943744e+002
2.024467e+002, 5.028343e+002
2.029288e+002, 5.102518e+002
2.034109e+002, 5.164131e+002
2.038930e+002, 5.170764e+002
2.043752e+002, 5.103436e+002
2.048573e+002, 4.992299e+002
2.053394e+002, 4.845742e+002
2.058215e+002, 4.666643e+002
2.063036e+002, 4.455763e+002
2.067857e+002, 4.206891e+002
2.072679e+002, 3.917056e+002
2.077500e+002, 3.647452e+002
2.082321e+002, 3.396615e+002
2.087142e+002, 3.168833e+002
2.091963e+002, 2.968414e+002
2.096784e+002, 2.794167e+002
2.101606e+002, 2.642393e+002
2.106427e+002, 2.509507e+002
2.111248e+002, 2.395728e+002
2.116069e+002, 2.307107e+002
2.120890e+002, 2.263465e+002
2.125711e+002, 2.224012e+002
2.130533e+002, 2.170123e+002
2.135354e+002, 2.104822e+002
2.140175e+002, 2.042332e+002
2.144996e+002, 1.995696e+002
2.149817e+002, 1.966536e+002
2.154638e+002, 1.943769e+002
2.159460e+002, 1.928920e+002
2.164281e+002, 1.917409e+002
2.169102e+002, 1.909517e+002
2.173923e+002, 1.903739e+002
2.178744e+002, 1.895002e+002
2.183565e+002, 1.877458e+002
2.188387e+002, 1.849284e+002
2.193208e+002, 1.831824e+002
2.198029e+002, 1.834692e+002
2.202850e+002, 1.839040e+002
2.207671e+002, 1.832284e+002
2.212492e+002, 1.814671e+002
2.217314e+002, 1.795567e+002
2.222135e+002, 1.782684e+002
2.226956e+002, 1.776702e+002
2.231777e+002, 1.771468e+002
2.236598e+002, 1.765914e+002
2.241419e+002, 1.761832e+002
2.246240e+002, 1.762968e+002
2.251062e+002, 1.768978e+002
2.255883e+002, 1.771392e+002
2.260704e+002, 1.759634e+002
2.265525e+002, 1.736688e+002
2.270346e+002, 1.725624e+002
2.275167e+002, 1.739255e+002
2.279989e+002, 1.758268e+002
2.284810e+002, 1.764092e+002
2.289631e+002, 1.755566e+002
2.294452e+002, 1.744474e+002
2.299273e+002, 1.739062e+002
2.304094e+002, 1.737679e+002
2.308916e+002, 1.735614e+002
2.313737e+002, 1.729882e+002
2.318558e+002, 1.724393e+002
2.323379e+002, 1.724978e+002
2.328200e+002, 1.732674e+002
2.333021e+002, 1.739141e+002
2.337843e+002, 1.737605e+002
2.342664e+002, 1.731591e+002
2.347485e+002, 1.726176e+002
2.352306e+002, 1.722875e+002
2.357127e+002, 1.720493e+002
2.361948e+002, 1.717525e+002
2.366770e+002, 1.713946e+002
2.371591e+002, 1.709793e+002
2.376412e+002, 1.703329e+002
2.381233e+002, 1.696825e+002
2.386054e+002, 1.693224e+002
2.390875e+002, 1.694289e+002
2.395697e+002, 1.697398e+002
2.400518e+002, 1.698729e+002
2.405339e+002, 1.698345e+002
2.410160e+002, 1.695885e+002
2.414981e+002, 1.688796e+002
2.419802e+002, 1.680664e+002
2.424624e+002, 1.674886e+002
2.429445e+002, 1.672716e+002
2.434266e+002, 1.673080e+002
2.439087e+002, 1.674934e+002
2.443908e+002, 1.679811e+002
2.448729e+002, 1.681824e+002
2.453550e+002, 1.675585e+002
2.458372e+002, 1.667928e+002
2.463193e+002, 1.665751e+002
2.468014e+002, 1.671672e+002
2.472835e+002, 1.680213e+002
2.477656e+002, 1.680681e+002
2.482477e+002, 1.667242e+002
2.487299e+002, 1.659885e+002
2.492120e+002, 1.667376e+002
2.496941e+002, 1.678409e+002
2.501762e+002, 1.684933e+002
2.506583e+002, 1.684420e+002
2.511404e+002, 1.678875e+002
2.516226e+002, 1.670642e+002
2.521047e+002, 1.656685e+002
2.525868e+002, 1.647292e+002
2.530689e+002, 1.648510e+002
2.535510e+002, 1.650556e+002
2.540331e+002, 1.643025e+002
2.545153e+002, 1.624655e+002
2.549974e+002, 1.606629e+002
2.554795e+002, 1.608671e+002
2.559616e+002, 1.647858e+002
2.564437e+002, 1.669795e+002
2.569258e+002, 1.663435e+002
2.574080e+002, 1.650255e+002
2.578901e+002, 1.644607e+002
2.583722e+002, 1.648855e+002
2.588543e+002, 1.655239e+002
2.593364e+002, 1.652250e+002
2.598185e+002, 1.632158e+002
2.603007e+002, 1.622665e+002
2.607828e+002, 1.630103e+002
2.612649e+002, 1.640806e+002
2.617470e+002, 1.646791e+002
2.622291e+002, 1.647075e+002
2.627112e+002, 1.645221e+002
2.631934e+002, 1.645346e+002
2.636755e+002, 1.648316e+002
2.641576e+002, 1.650098e+002
2.646397e+002, 1.652322e+002
2.651218e+002, 1.652311e+002
2.656039e+002, 1.646504e+002
2.660861e+002, 1.636148e+002
2.665682e+002, 1.626570e+002
2.670503e+002, 1.622988e+002
2.675324e+002, 1.626154e+002
2.680145e+002, 1.631382e+002
2.684966e+002, 1.642793e+002
2.689788e+002, 1.652158e+002
2.694609e+002, 1.654435e+002
2.699430e+002, 1.650605e+002
2.704251e+002, 1.645122e+002
2.709072e+002, 1.641426e+002
2.713893e+002, 1.639585e+002
2.718715e+002, 1.638478e+002
2.723536e+002, 1.639240e+002
2.728357e+002, 1.639471e+002
2.733178e+002, 1.638522e+002
2.737999e+002, 1.636247e+002
2.742820e+002, 1.631870e+002
2.747642e+002, 1.624125e+002
2.752463e+002, 1.613752e+002
2.757284e+002, 1.610570e+002
2.762105e+002, 1.620066e+002
2.766926e+002, 1.628952e+002
2.771747e+002, 1.632418e+002
2.776568e+002, 1.631904e+002
2.781389e+002, 1.631630e+002
2.786211e+002, 1.634520e+002
2.791032e+002, 1.638503e+002
2.795853e+002, 1.633932e+002
2.800674e+002, 1.607551e+002
2.805495e+002, 1.589752e+002
2.810316e+002, 1.594655e+002
2.815138e+002, 1.612478e+002
2.819959e+002, 1.625831e+002
2.824780e+002, 1.627019e+002
2.829601e+002, 1.620352e+002
2.834422e+002, 1.616624e+002
2.839243e+002, 1.617465e+002
2.844065e+002, 1.617637e+002
2.848886e+002, 1.614436e+002
2.853707e+002, 1.610363e+002
2.858528e+002, 1.609233e+002
2.863349e+002, 1.612400e+002
2.868170e+002, 1.618266e+002
2.872992e+002, 1.625105e+002
2.877813e+002, 1.634629e+002
2.882634e+002, 1.639392e+002
2.887455e+002, 1.635843e+002
2.892276e+002, 1.627808e+002
2.897097e+002, 1.618733e+002
2.901919e+002, 1.609254e+002
2.906740e+002, 1.601536e+002
2.911561e+002, 1.598528e+002
2.916382e+002, 1.600727e+002
2.921203e+002, 1.604371e+002
2.926024e+002, 1.612387e+002
2.930846e+002, 1.619844e+002
2.935667e+002, 1.619911e+002
2.940488e+002, 1.611913e+002
2.945309e+002, 1.604893e+002
2.950130e+002, 1.608904e+002
2.954951e+002, 1.623983e+002
2.959773e+002, 1.631629e+002
2.964594e+002, 1.626089e+002
2.969415e+002, 1.616587e+002
2.974236e+002, 1.609022e+002
2.979057e+002, 1.603866e+002
2.983878e+002, 1.600947e+002
2.988700e+002, 1.600197e+002
2.993521e+002, 1.601879e+002
2.998342e+002, 1.605642e+002
3.003163e+002, 1.616354e+002
3.007984e+002, 1.624682e+002
3.012805e+002, 1.623814e+002
3.017627e+002, 1.615270e+002
3.022448e+002, 1.606041e+002
3.027269e+002, 1.599315e+002
3.032090e+002, 1.594725e+002
3.036911e+002, 1.590762e+002
3.041732e+002, 1.587070e+002
3.046554e+002, 1.584424e+002
3.051375e+002, 1.582778e+002
3.056196e+002, 1.582418e+002
3.061017e+002, 1.584831e+002
3.065838e+002, 1.591640e+002
3.070659e+002, 1.599512e+002
3.075481e+002, 1.601214e+002
3.080302e+002, 1.595459e+002
3.085123e+002, 1.590408e+002
3.089944e+002, 1.589772e+002
3.094765e+002, 1.591327e+002
3.099586e+002, 1.590621e+002
3.104408e+002, 1.585989e+002
3.109229e+002, 1.581300e+002
3.114050e+002, 1.582983e+002
3.118871e+002, 1.591306e+002
3.123692e+002, 1.596993e+002
3.128513e+002, 1.596768e+002
3.133335e+002, 1.593626e+002
3.138156e+002, 1.591077e+002
3.142977e+002, 1.589644e+002
3.147798e+002, 1.588020e+002
3.152619e+002, 1.585216e+002
3.157440e+002, 1.581119e+002
3.162262e+002, 1.575512e+002
3.167083e+002, 1.564360e+002
3.171904e+002, 1.554523e+002
3.176725e+002, 1.553744e+002
3.181546e+002, 1.561482e+002
3.186367e+002, 1.567890e+002
3.191188e+002, 1.565139e+002
3.196010e+002, 1.555797e+002
3.200831e+002, 1.552718e+002
3.205652e+002, 1.562669e+002
3.210473e+002, 1.571957e+002
3.215294e+002, 1.572009e+002
3.220115e+002, 1.564870e+002
3.224937e+002, 1.557447e+002
3.229758e+002, 1.552470e+002
3.234579e+002, 1.549797e+002
3.239400e+002, 1.549451e+002
3.244221e+002, 1.552934e+002
3.249042e+002, 1.555136e+002
3.253864e+002, 1.552846e+002
3.258685e+002, 1.548253e+002
3.263506e+002, 1.545719e+002
3.268327e+002, 1.546865e+002
3.273148e+002, 1.549518e+002
3.277969e+002, 1.550827e+002
3.282791e+002, 1.551262e+002
3.287612e+002, 1.548684e+002
3.292433e+002, 1.537458e+002
3.297254e+002, 1.525432e+002
3.302075e+002, 1.523968e+002
3.306896e+002, 1.535031e+002
3.311718e+002, 1.547056e+002
3.316539e+002, 1.547274e+002
3.321360e+002, 1.534538e+002
3.326181e+002, 1.528374e+002
3.331002e+002, 1.535158e+002
3.335823e+002, 1.544348e+002
3.340645e+002, 1.548997e+002
3.345466e+002, 1.548821e+002
3.350287e+002, 1.545449e+002
3.355108e+002, 1.538499e+002
3.359929e+002, 1.529373e+002
3.364750e+002, 1.527503e+002
3.369572e+002, 1.541254e+002
3.374393e+002, 1.552609e+002
3.379214e+002, 1.550740e+002
3.384035e+002, 1.540569e+002
3.388856e+002, 1.534719e+002
3.393677e+002, 1.539841e+002
3.398499e+002, 1.550934e+002
3.403320e+002, 1.554160e+002
3.408141e+002, 1.546285e+002
3.412962e+002, 1.537839e+002
3.417783e+002, 1.527728e+002
3.422604e+002, 1.519210e+002
3.427426e+002, 1.517739e+002
3.432247e+002, 1.524885e+002
3.437068e+002, 1.535638e+002
3.441889e+002, 1.543597e+002
3.446710e+002, 1.548807e+002
3.451531e+002, 1.549570e+002
3.456353e+002, 1.540346e+002
3.461174e+002, 1.530493e+002
3.465995e+002, 1.528154e+002
3.470816e+002, 1.533376e+002
3.475637e+002, 1.539811e+002
3.480458e+002, 1.541495e+002
3.485280e+002, 1.538066e+002
3.490101e+002, 1.538528e+002
3.494922e+002, 1.548942e+002
3.499743e+002, 1.556530e+002
3.504564e+002, 1.553253e+002
3.509385e+002, 1.542742e+002
3.514207e+002, 1.533207e+002
3.519028e+002, 1.529160e+002
3.523849e+002, 1.530379e+002
3.528670e+002, 1.536233e+002
3.533491e+002, 1.556908e+002
3.538312e+002, 1.569584e+002
3.543134e+002, 1.564473e+002
3.547955e+002, 1.552697e+002
3.552776e+002, 1.548246e+002
3.557597e+002, 1.555812e+002
3.562418e+002, 1.568096e+002
3.567239e+002, 1.572662e+002
3.572061e+002, 1.564763e+002
3.576882e+002, 1.558252e+002
3.581703e+002, 1.553700e+002
3.586524e+002, 1.549941e+002
3.591345e+002, 1.546086e+002
3.596166e+002, 1.542127e+002
3.600987e+002, 1.538550e+002
3.605808e+002, 1.535359e+002
3.610630e+002, 1.532009e+002
3.615451e+002, 1.534589e+002
3.620272e+002, 1.552821e+002
3.625093e+002, 1.566523e+002
3.629914e+002, 1.565852e+002
3.634735e+002, 1.555892e+002
3.639557e+002, 1.546554e+002
3.644378e+002, 1.543767e+002
3.649199e+002, 1.546432e+002
3.654020e+002, 1.550021e+002
3.658841e+002, 1.556223e+002
3.663662e+002, 1.560974e+002
3.668484e+002, 1.564589e+002
3.673305e+002, 1.566241e+002
3.678126e+002, 1.564333e+002
3.682947e+002, 1.558601e+002
3.687768e+002, 1.551540e+002
3.692589e+002, 1.546757e+002
3.697411e+002, 1.544258e+002
3.702232e+002, 1.544266e+002
3.707053e+002, 1.551806e+002
3.711874e+002, 1.557515e+002
3.716695e+002, 1.553726e+002
3.721516e+002, 1.542322e+002
3.726338e+002, 1.532587e+002
3.731159e+002, 1.533499e+002
3.735980e+002, 1.544672e+002
3.740801e+002, 1.553872e+002
3.745622e+002, 1.563566e+002
3.750443e+002, 1.567588e+002
3.755265e+002, 1.557801e+002
3.760086e+002, 1.542749e+002
3.764907e+002, 1.536595e+002
3.769728e+002, 1.547879e+002
3.774549e+002, 1.567844e+002
3.779370e+002, 1.576391e+002
3.784192e+002, 1.569531e+002
3.789013e+002, 1.562456e+002
3.793834e+002, 1.557925e+002
3.798655e+002, 1.555658e+002
3.803476e+002, 1.555945e+002
3.808297e+002, 1.558822e+002
3.813119e+002, 1.563136e+002
3.817940e+002, 1.568198e+002
3.822761e+002, 1.573993e+002
3.827582e+002, 1.579277e+002
3.832403e+002, 1.584860e+002
3.837224e+002, 1.588549e+002
3.842046e+002, 1.589883e+002
3.846867e+002, 1.588592e+002
3.851688e+002, 1.583766e+002
3.856509e+002, 1.568988e+002
3.861330e+002, 1.551370e+002
3.866151e+002, 1.549656e+002
3.870973e+002, 1.568354e+002
3.875794e+002, 1.586717e+002
3.880615e+002, 1.590862e+002
3.885436e+002, 1.587801e+002
3.890257e+002, 1.587617e+002
3.895078e+002, 1.594463e+002
3.899900e+002, 1.600368e+002
3.904721e+002, 1.594939e+002
3.909542e+002, 1.580186e+002
3.914363e+002, 1.573561e+002
3.919184e+002, 1.585815e+002
3.924005e+002, 1.602296e+002
3.928827e+002, 1.599638e+002
3.933648e+002, 1.576052e+002
3.938469e+002, 1.559315e+002
3.943290e+002, 1.566047e+002
3.948111e+002, 1.584523e+002
3.952932e+002, 1.596392e+002
3.957754e+002, 1.598900e+002
3.962575e+002, 1.597544e+002
3.967396e+002, 1.595825e+002
3.972217e+002, 1.594071e+002
3.977038e+002, 1.594734e+002
3.981859e+002, 1.600510e+002
3.986681e+002, 1.606482e+002
3.991501e+002, 1.609268e+002
3.996323e+002, 1.609447e+002
4.001144e+002, 1.609568e+002
4.005965e+002, 1.611153e+002
4.010786e+002, 1.613092e+002
4.015607e+002, 1.611777e+002
4.020428e+002, 1.604178e+002
4.025250e+002, 1.599107e+002
4.030071e+002, 1.597594e+002
4.034892e+002, 1.599606e+002
4.039713e+002, 1.607182e+002
4.044534e+002, 1.620197e+002
4.049355e+002, 1.632700e+002
4.054177e+002, 1.637531e+002
4.058998e+002, 1.633069e+002
4.063819e+002, 1.628088e+002
4.068640e+002, 1.618889e+002
4.073461e+002, 1.612717e+002
4.078282e+002, 1.615092e+002
4.083104e+002, 1.623541e+002
4.087925e+002, 1.631816e+002
4.092746e+002, 1.636185e+002
4.097567e+002, 1.637092e+002
4.102388e+002, 1.636698e+002
4.107209e+002, 1.634738e+002
4.112031e+002, 1.631645e+002
4.116852e+002, 1.621899e+002
4.121673e+002, 1.614046e+002
4.126494e+002, 1.619656e+002
4.131315e+002, 1.640215e+002
4.136136e+002, 1.662803e+002
4.140958e+002, 1.668771e+002
4.145779e+002, 1.652587e+002
4.150600e+002, 1.642077e+002
4.155421e+002, 1.641769e+002
4.160242e+002, 1.643153e+002
4.165063e+002, 1.644313e+002
4.169885e+002, 1.644574e+002
4.174706e+002, 1.642645e+002
4.179527e+002, 1.636346e+002
4.184348e+002, 1.628504e+002
4.189169e+002, 1.630290e+002
4.193990e+002, 1.648013e+002
4.198812e+002, 1.661278e+002
4.203633e+002, 1.660501e+002
4.208454e+002, 1.654466e+002
4.213275e+002, 1.650500e+002
4.218096e+002, 1.650321e+002
4.222917e+002, 1.652467e+002
4.227739e+002, 1.657150e+002
4.232560e+002, 1.664050e+002
4.237381e+002, 1.666495e+002
4.242202e+002, 1.661201e+002
4.247023e+002, 1.654259e+002
4.251844e+002, 1.650260e+002
4.256666e+002, 1.648604e+002
4.261487e+002, 1.647148e+002
4.266308e+002, 1.643379e+002
4.271129e+002, 1.640020e+002
4.275950e+002, 1.642047e+002
4.280771e+002, 1.649802e+002
4.285593e+002, 1.657646e+002
4.290414e+002, 1.663413e+002
4.295235e+002, 1.666791e+002
4.300056e+002, 1.666937e+002
4.304877e+002, 1.660713e+002
4.309698e+002, 1.658423e+002
4.314520e+002, 1.670652e+002
4.319341e+002, 1.689586e+002
4.324162e+002, 1.698107e+002
4.328983e+002, 1.691050e+002
4.333804e+002, 1.679539e+002
4.338625e+002, 1.675973e+002
4.343447e+002, 1.681453e+002
4.348268e+002, 1.688357e+002
4.353089e+002, 1.701659e+002
4.357910e+002, 1.711875e+002
4.362731e+002, 1.709833e+002
4.367552e+002, 1.698566e+002
4.372374e+002, 1.688875e+002
4.377195e+002, 1.687108e+002
4.382016e+002, 1.691463e+002
4.386837e+002, 1.695186e+002
4.391658e+002, 1.698074e+002
4.396479e+002, 1.700576e+002
4.401301e+002, 1.701747e+002
4.406122e+002, 1.703094e+002
4.410943e+002, 1.706696e+002
4.415764e+002, 1.712610e+002
4.420585e+002, 1.718376e+002
4.425406e+002, 1.720849e+002
4.430227e+002, 1.719310e+002
4.435049e+002, 1.719838e+002
4.439870e+002, 1.728185e+002
4.444691e+002, 1.732616e+002
4.449512e+002, 1.724019e+002
4.454333e+002, 1.710101e+002
4.459154e+002, 1.703941e+002
4.463976e+002, 1.712758e+002
4.468797e+002, 1.730534e+002
4.473618e+002, 1.744661e+002
4.478439e+002, 1.755119e+002
4.483260e+002, 1.761875e+002
4.488081e+002, 1.762882e+002
4.492903e+002, 1.761632e+002
4.497724e+002, 1.758365e+002
4.502545e+002, 1.753977e+002
4.507366e+002, 1.752611e+002
4.512187e+002, 1.760512e+002
4.517008e+002, 1.774672e+002
4.521830e+002, 1.780769e+002
4.526651e+002, 1.774916e+002
4.531472e+002, 1.770017e+002
4.536293e+002, 1.775055e+002
4.541114e+002, 1.785544e+002
4.545935e+002, 1.796248e+002
4.550757e+002, 1.807962e+002
4.555578e+002, 1.815894e+002
4.560399e+002, 1.813267e+002
4.565220e+002, 1.802651e+002
4.570041e+002, 1.795183e+002
4.574862e+002, 1.794078e+002
4.579684e+002, 1.797042e+002
4.584505e+002, 1.802599e+002
4.589326e+002, 1.810809e+002
4.594147e+002, 1.816733e+002
4.598968e+002, 1.821504e+002
4.603789e+002, 1.822169e+002
4.608611e+002, 1.813486e+002
4.613432e+002, 1.797097e+002
4.618253e+002, 1.781457e+002
4.623074e+002, 1.770996e+002
4.627895e+002, 1.765922e+002
4.632716e+002, 1.767185e+002
4.637538e+002, 1.786555e+002
4.642359e+002, 1.796485e+002
4.647180e+002, 1.786503e+002
4.652001e+002, 1.769652e+002
4.656822e+002, 1.757378e+002
4.661643e+002, 1.752733e+002
4.666465e+002, 1.755567e+002
4.671286e+002, 1.767550e+002
4.676107e+002, 1.791006e+002
4.680928e+002, 1.801688e+002
4.685749e+002, 1.788781e+002
4.690570e+002, 1.774343e+002
4.695392e+002, 1.762827e+002
4.700213e+002, 1.753817e+002
4.705034e+002, 1.746614e+002
4.709855e+002, 1.741000e+002
4.714676e+002, 1.735520e+002
4.719497e+002, 1.726870e+002
4.724319e+002, 1.713708e+002
4.729140e+002, 1.703449e+002
4.733961e+002, 1.702678e+002
4.738782e+002, 1.700330e+002
4.743603e+002, 1.686062e+002
4.748424e+002, 1.663380e+002
4.753246e+002, 1.646980e+002
4.758067e+002, 1.650718e+002
4.762888e+002, 1.664889e+002
4.767709e+002, 1.667311e+002
4.772530e+002, 1.656206e+002
4.777351e+002, 1.644509e+002
4.782173e+002, 1.638141e+002
4.786994e+002, 1.634800e+002
4.791815e+002, 1.630995e+002
4.796636e+002, 1.626774e+002
4.801457e+002, 1.621445e+002
4.806278e+002, 1.614218e+002
4.811100e+002, 1.605752e+002
4.815920e+002, 1.597002e+002
4.820742e+002, 1.588103e+002
4.825563e+002, 1.579447e+002
4.830384e+002, 1.570987e+002
4.835205e+002, 1.562893e+002
4.840026e+002, 1.557283e+002
4.844847e+002, 1.558139e+002
4.849669e+002, 1.557024e+002
4.854490e+002, 1.549480e+002
4.859311e+002, 1.537812e+002
4.864132e+002, 1.524900e+002
4.868953e+002, 1.511853e+002
4.873774e+002, 1.501458e+002
4.878596e+002, 1.499369e+002
4.883417e+002, 1.512092e+002
4.888238e+002, 1.514972e+002
4.893059e+002, 1.498224e+002
4.897880e+002, 1.482676e+002
4.902701e+002, 1.478643e+002
4.907523e+002, 1.484054e+002
4.912344e+002, 1.493193e+002
4.917165e+002, 1.503455e+002
4.921986e+002, 1.512761e+002
4.926807e+002, 1.515229e+002
4.931628e+002, 1.509739e+002
4.936450e+002, 1.500493e+002
4.941271e+002, 1.481879e+002
4.946092e+002, 1.464534e+002
4.950913e+002, 1.458217e+002
4.955734e+002, 1.462137e+002
4.960555e+002, 1.464123e+002
4.965377e+002, 1.451646e+002
4.970198e+002, 1.431203e+002
4.975019e+002, 1.422453e+002
4.979840e+002, 1.428439e+002
4.984661e+002, 1.433350e+002
4.989482e+002, 1.426473e+002
4.994304e+002, 1.413710e+002
4.999125e+002, 1.406822e+002
5.003946e+002, 1.408558e+002
5.008767e+002, 1.410810e+002
5.013588e+002, 1.409661e+002
5.018409e+002, 1.406294e+002
5.023231e+002, 1.402344e+002
5.028052e+002, 1.398128e+002
5.032873e+002, 1.394610e+002
5.037694e+002, 1.392661e+002
5.042515e+002, 1.392341e+002
5.047336e+002, 1.393209e+002
5.052158e+002, 1.397530e+002
5.056979e+002, 1.400391e+002
5.061800e+002, 1.399725e+002
5.066621e+002, 1.396575e+002
5.071442e+002, 1.392759e+002
5.076263e+002, 1.388900e+002
5.081085e+002, 1.383795e+002
5.085906e+002, 1.373930e+002
5.090727e+002, 1.354108e+002
5.095548e+002, 1.348356e+002
5.100369e+002, 1.375199e+002
5.105190e+002, 1.397606e+002
5.110012e+002, 1.398380e+002
5.114833e+002, 1.384787e+002
5.119654e+002, 1.371994e+002
5.124475e+002, 1.367550e+002
5.129296e+002, 1.367410e+002
5.134117e+002, 1.364172e+002
5.138939e+002, 1.357311e+002
5.143760e+002, 1.351223e+002
5.148581e+002, 1.346120e+002
5.153402e+002, 1.342946e+002
5.158223e+002, 1.342955e+002
5.163044e+002, 1.345719e+002
5.167866e+002, 1.348427e+002
5.172687e+002, 1.351820e+002
5.177508e+002, 1.353430e+002
5.182329e+002, 1.347477e+002
5.187150e+002, 1.334783e+002
5.191971e+002, 1.327254e+002
5.196793e+002, 1.332460e+002
5.201614e+002, 1.343866e+002
5.206435e+002, 1.345595e+002
5.211256e+002, 1.333598e+002
5.216077e+002, 1.325898e+002
5.220898e+002, 1.330176e+002
5.225720e+002, 1.336704e+002
5.230541e+002, 1.336251e+002
5.235362e+002, 1.329132e+002
5.240183e+002, 1.321865e+002
5.245004e+002, 1.319342e+002
5.249825e+002, 1.320326e+002
5.254647e+002, 1.318132e+002
5.259468e+002, 1.307509e+002
5.264289e+002, 1.301376e+002
5.269110e+002, 1.305146e+002
5.273931e+002, 1.310602e+002
5.278752e+002, 1.310036e+002
5.283574e+002, 1.303324e+002
5.288395e+002, 1.297076e+002
5.293216e+002, 1.298933e+002
5.298037e+002, 1.306614e+002
5.302858e+002, 1.305075e+002
5.307679e+002, 1.290354e+002
5.312501e+002, 1.275600e+002
5.317322e+002, 1.261992e+002
5.322143e+002, 1.253454e+002
5.326964e+002, 1.257335e+002
5.331785e+002, 1.276819e+002
5.336606e+002, 1.294028e+002
5.341428e+002, 1.296398e+002
5.346249e+002, 1.288374e+002
5.351070e+002, 1.278036e+002
5.355891e+002, 1.266084e+002
5.360712e+002, 1.255857e+002
5.365533e+002, 1.249285e+002
5.370355e+002, 1.246751e+002
5.375176e+002, 1.249305e+002
5.379997e+002, 1.263697e+002
5.384818e+002, 1.274474e+002
5.389639e+002, 1.275240e+002
5.394460e+002, 1.270964e+002
5.399282e+002, 1.267674e+002
5.404103e+002, 1.266670e+002
5.408924e+002, 1.265813e+002
5.413745e+002, 1.262978e+002
5.418566e+002, 1.258148e+002
5.423387e+002, 1.251831e+002
5.428209e+002, 1.239853e+002
5.433029e+002, 1.231546e+002
5.437850e+002, 1.230738e+002
5.442672e+002, 1.233617e+002
5.447493e+002, 1.236883e+002
5.452314e+002, 1.239423e+002
5.457135e+002, 1.239711e+002
5.461956e+002, 1.233142e+002
5.466777e+002, 1.220893e+002
5.471599e+002, 1.218751e+002
5.476420e+002, 1.232584e+002
5.481241e+002, 1.245806e+002
5.486062e+002, 1.247664e+002
5.490883e+002, 1.242140e+002
5.495704e+002, 1.234426e+002
5.500526e+002, 1.223935e+002
5.505347e+002, 1.214470e+002
5.510168e+002, 1.207475e+002
5.514989e+002, 1.203361e+002
5.519810e+002, 1.204373e+002
5.524631e+002, 1.211122e+002
5.529453e+002, 1.217525e+002
5.534274e+002, 1.217298e+002
5.539095e+002, 1.210397e+002
5.543916e+002, 1.207411e+002
5.548737e+002, 1.213041e+002
5.553558e+002, 1.216353e+002
5.558380e+002, 1.212775e+002
5.563201e+002, 1.205935e+002
5.568022e+002, 1.199906e+002
5.572843e+002, 1.195919e+002
5.577664e+002, 1.193569e+002
5.582485e+002, 1.192771e+002
5.587307e+002, 1.193634e+002
5.592128e+002, 1.192804e+002
5.596949e+002, 1.186692e+002
5.601770e+002, 1.184259e+002
5.606591e+002, 1.190525e+002
5.611412e+002, 1.200742e+002
5.616234e+002, 1.210741e+002
5.621055e+002, 1.219928e+002
5.625876e+002, 1.223522e+002
5.630697e+002, 1.213905e+002
5.635518e+002, 1.195107e+002
5.640339e+002, 1.180736e+002
5.645161e+002, 1.172725e+002
5.649982e+002, 1.166875e+002
5.654803e+002, 1.159339e+002
5.659624e+002, 1.151703e+002
5.664445e+002, 1.149881e+002
5.669266e+002, 1.155858e+002
5.674088e+002, 1.164719e+002
5.678909e+002, 1.180659e+002
5.683730e+002, 1.195779e+002
5.688551e+002, 1.198483e+002
5.693372e+002, 1.187734e+002
5.698193e+002, 1.172624e+002
5.703015e+002, 1.161007e+002
5.707836e+002, 1.152894e+002
5.712657e+002, 1.149400e+002
5.717478e+002, 1.153133e+002
5.722299e+002, 1.158276e+002
5.727120e+002, 1.166318e+002
5.731942e+002, 1.173829e+002
5.736763e+002, 1.177053e+002
5.741584e+002, 1.175768e+002
5.746405e+002, 1.173595e+002
5.751226e+002, 1.175447e+002
5.756047e+002, 1.179261e+002
5.760869e+002, 1.174781e+002
5.765690e+002, 1.159483e+002
5.770511e+002, 1.146508e+002
5.775332e+002, 1.142835e+002
5.780153e+002, 1.144960e+002
5.784974e+002, 1.146827e+002
5.789796e+002, 1.148023e+002
5.794617e+002, 1.150399e+002
5.799438e+002, 1.158648e+002
5.804259e+002, 1.166078e+002
5.809080e+002, 1.162597e+002
5.813901e+002, 1.149295e+002
5.818723e+002, 1.137216e+002
5.823544e+002, 1.133316e+002
5.828365e+002, 1.135830e+002
5.833186e+002, 1.138760e+002
5.838007e+002, 1.142515e+002
5.842828e+002, 1.146110e+002
5.847650e+002, 1.151058e+002
5.852471e+002, 1.154603e+002
5.857292e+002, 1.152715e+002
5.862113e+002, 1.147553e+002
5.866934e+002, 1.146378e+002
5.871755e+002, 1.155212e+002
5.876577e+002, 1.168056e+002
5.881398e+002, 1.169645e+002
5.886219e+002, 1.157927e+002
5.891040e+002, 1.149181e+002
5.895861e+002, 1.149434e+002
5.900682e+002, 1.151567e+002
5.905504e+002, 1.148875e+002
5.910325e+002, 1.141993e+002
5.915146e+002, 1.134949e+002
5.919967e+002, 1.126831e+002
5.924788e+002, 1.120839e+002
5.929609e+002, 1.121869e+002
5.934431e+002, 1.127490e+002
5.939252e+002, 1.129461e+002
5.944073e+002, 1.124443e+002
5.948894e+002, 1.118728e+002
5.953715e+002, 1.122055e+002
5.958536e+002, 1.138290e+002
5.963358e+002, 1.145860e+002
5.968179e+002, 1.139886e+002
5.973000e+002, 1.132033e+002
5.977821e+002, 1.124456e+002
5.982642e+002, 1.118257e+002
5.987463e+002, 1.114696e+002
5.992285e+002, 1.114150e+002
5.997106e+002, 1.115291e+002
6.001927e+002, 1.117718e+002
6.006748e+002, 1.121253e+002
6.011569e+002, 1.119629e+002
6.016390e+002, 1.108785e+002
6.021212e+002, 1.100890e+002
6.026033e+002, 1.107693e+002
6.030854e+002, 1.120456e+002
6.035675e+002, 1.125156e+002
6.040496e+002, 1.117481e+002
6.045317e+002, 1.109763e+002
6.050139e+002, 1.108302e+002
6.054960e+002, 1.110576e+002
6.059781e+002, 1.114272e+002
6.064602e+002, 1.118580e+002
6.069423e+002, 1.120022e+002
6.074244e+002, 1.115326e+002
6.079066e+002, 1.106578e+002
6.083887e+002, 1.103361e+002
6.088708e+002, 1.114462e+002
6.093529e+002, 1.118452e+002
6.098350e+002, 1.108326e+002
6.103171e+002, 1.096136e+002
6.107993e+002, 1.088710e+002
6.112814e+002, 1.086989e+002
6.117635e+002, 1.090591e+002
6.122456e+002, 1.100847e+002
6.127277e+002, 1.113678e+002
6.132098e+002, 1.120892e+002
6.136920e+002, 1.122339e+002
6.141741e+002, 1.119445e+002
6.146562e+002, 1.108928e+002
6.151383e+002, 1.098947e+002
6.156204e+002, 1.100257e+002
6.161025e+002, 1.110575e+002
6.165847e+002, 1.115814e+002
6.170668e+002, 1.108329e+002
6.175489e+002, 1.099670e+002
6.180310e+002, 1.097005e+002
6.185131e+002, 1.098570e+002
6.189952e+002, 1.102433e+002
6.194774e+002, 1.107685e+002
6.199595e+002, 1.108641e+002
6.204416e+002, 1.096924e+002
6.209237e+002, 1.070916e+002
6.214058e+002, 1.056407e+002
6.218879e+002, 1.062525e+002
6.223701e+002, 1.069475e+002
6.228522e+002, 1.074864e+002
6.233343e+002, 1.078150e+002
6.238164e+002, 1.077263e+002
6.242985e+002, 1.072434e+002
6.247806e+002, 1.069691e+002
6.252628e+002, 1.077839e+002
6.257448e+002, 1.091268e+002
6.262269e+002, 1.093571e+002
6.267090e+002, 1.083583e+002
6.271912e+002, 1.072319e+002
6.276733e+002, 1.064076e+002
6.281554e+002, 1.058103e+002
6.286375e+002, 1.052331e+002
6.291196e+002, 1.045480e+002
6.296017e+002, 1.044072e+002
6.300839e+002, 1.056642e+002
6.305660e+002, 1.068189e+002
6.310481e+002, 1.066167e+002
6.315302e+002, 1.054765e+002
6.320123e+002, 1.044399e+002
6.324944e+002, 1.039871e+002
6.329766e+002, 1.040642e+002
6.334587e+002, 1.046882e+002
6.339408e+002, 1.060047e+002
6.344229e+002, 1.071724e+002
6.349050e+002, 1.085593e+002
6.353871e+002, 1.092505e+002
6.358693e+002, 1.084512e+002
6.363514e+002, 1.069118e+002
6.368335e+002, 1.058236e+002
6.373156e+002, 1.055750e+002
6.377977e+002, 1.053129e+002
6.382798e+002, 1.040267e+002
6.387620e+002, 1.024374e+002
6.392441e+002, 1.020472e+002
6.397262e+002, 1.029958e+002
6.402083e+002, 1.042423e+002
6.406904e+002, 1.052287e+002
6.411725e+002, 1.058814e+002
6.416547e+002, 1.059481e+002
6.421368e+002, 1.048739e+002
6.426189e+002, 1.040083e+002
6.431010e+002, 1.033966e+002
6.435831e+002, 1.029522e+002
6.440652e+002, 1.025390e+002
6.445474e+002, 1.022482e+002
6.450295e+002, 1.023801e+002
6.455116e+002, 1.031591e+002
6.459937e+002, 1.041081e+002
6.464758e+002, 1.044080e+002
6.469579e+002, 1.040644e+002
6.474401e+002, 1.037234e+002
6.479222e+002, 1.034464e+002
6.484043e+002, 1.032586e+002
6.488864e+002, 1.032165e+002
6.493685e+002, 1.032826e+002
6.498506e+002, 1.033465e+002
6.503328e+002, 1.034661e+002
6.508149e+002, 1.034819e+002
6.512970e+002, 1.033140e+002
6.517791e+002, 1.030188e+002
6.522612e+002, 1.025440e+002
6.527433e+002, 1.019642e+002
6.532255e+002, 1.016743e+002
6.537076e+002, 1.020446e+002
6.541897e+002, 1.027626e+002
6.546718e+002, 1.025058e+002
6.551539e+002, 1.004925e+002
6.556360e+002, 9.940373e+001
6.561182e+002, 1.005668e+002
6.566003e+002, 1.019357e+002
6.570824e+002, 1.024885e+002
6.575645e+002, 1.023177e+002
6.580466e+002, 1.018386e+002
6.585287e+002, 1.009265e+002
6.590109e+002, 1.002126e+002
6.594930e+002, 1.005139e+002
6.599751e+002, 1.014843e+002
6.604572e+002, 1.022080e+002
6.609393e+002, 1.024899e+002
6.614214e+002, 1.023797e+002
6.619036e+002, 1.017873e+002
6.623857e+002, 1.008139e+002
6.628678e+002, 1.005588e+002
6.633499e+002, 1.019848e+002
6.638320e+002, 1.028590e+002
6.643141e+002, 1.027363e+002
6.647963e+002, 1.021921e+002
6.652784e+002, 1.015262e+002
6.657605e+002, 1.008595e+002
6.662426e+002, 1.003563e+002
6.667247e+002, 1.001622e+002
6.672068e+002, 1.001104e+002
6.676890e+002, 9.980238e+001
6.681711e+002, 9.925502e+001
6.686532e+002, 9.914960e+001
6.691353e+002, 9.985157e+001
6.696174e+002, 1.005011e+002
6.700995e+002, 1.000612e+002
6.705817e+002, 9.870228e+001
6.710638e+002, 9.817784e+001
6.715459e+002, 9.945752e+001
6.720280e+002, 1.004120e+002
6.725101e+002, 1.001772e+002
6.729922e+002, 9.938821e+001
6.734744e+002, 9.857423e+001
6.739565e+002, 9.790685e+001
6.744386e+002, 9.751375e+001
6.749207e+002, 9.750354e+001
6.754028e+002, 9.781757e+001
6.758849e+002, 9.837096e+001
6.763671e+002, 9.931918e+001
6.768492e+002, 9.980879e+001
6.773313e+002, 9.955020e+001
6.778134e+002, 9.890745e+001
6.782955e+002, 9.799614e+001
6.787776e+002, 9.693694e+001
6.792598e+002, 9.618138e+001
6.797419e+002, 9.597923e+001
6.802240e+002, 9.591595e+001
6.807061e+002, 9.566341e+001
6.811882e+002, 9.542508e+001
6.816703e+002, 9.555193e+001
6.821525e+002, 9.608376e+001
6.826346e+002, 9.683813e+001
6.831167e+002, 9.774040e+001
6.835988e+002, 9.865086e+001
6.840809e+002, 9.880244e+001
6.845630e+002, 9.763746e+001
6.850452e+002, 9.693487e+001
6.855273e+002, 9.760140e+001
6.860094e+002, 9.820368e+001
6.864915e+002, 9.769364e+001
6.869736e+002, 9.641453e+001
6.874557e+002, 9.547343e+001
6.879379e+002, 9.531746e+001
6.884200e+002, 9.557479e+001
6.889021e+002, 9.616607e+001
6.893842e+002, 9.687939e+001
6.898663e+002, 9.712289e+001
6.903484e+002, 9.680356e+001
6.908306e+002, 9.648823e+001
6.913127e+002, 9.664182e+001
6.917948e+002, 9.715340e+001
6.922769e+002, 9.747173e+001
6.927590e+002, 9.760303e+001
6.932411e+002, 9.751563e+001
6.937233e+002, 9.696461e+001
6.942054e+002, 9.643581e+001
6.946875e+002, 9.630106e+001
6.951696e+002, 9.642868e+001
6.956517e+002, 9.642981e+001
6.961339e+002, 9.610596e+001
6.966160e+002, 9.568906e+001
6.970981e+002, 9.548513e+001
6.975802e+002, 9.540709e+001
6.980623e+002, 9.510991e+001
6.985444e+002, 9.453153e+001
6.990266e+002, 9.386623e+001
6.995087e+002, 9.311782e+001
6.999908e+002, 9.246776e+001
7.004729e+002, 9.263938e+001
7.009550e+002, 9.478295e+001
7.014371e+002, 9.597623e+001
7.019193e+002, 9.555220e+001
7.024014e+002, 9.475227e+001
7.028835e+002, 9.417751e+001
7.033656e+002, 9.385316e+001
7.038477e+002, 9.364806e+001
7.043298e+002, 9.350634e+001
7.048120e+002, 9.348231e+001
7.052941e+002, 9.380545e+001
7.057762e+002, 9.434367e+001
7.062583e+002, 9.437691e+001
7.067404e+002, 9.377583e+001
7.072225e+002, 9.307603e+001
7.077046e+002, 9.245153e+001
7.081867e+002, 9.203723e+001
7.086688e+002, 9.229632e+001
7.091509e+002, 9.382559e+001
7.096331e+002, 9.447001e+001
7.101152e+002, 9.317076e+001
7.105973e+002, 9.184364e+001
7.110794e+002, 9.178742e+001
7.115615e+002, 9.247159e+001
7.120436e+002, 9.273756e+001
7.125258e+002, 9.217891e+001
7.130079e+002, 9.158772e+001
7.134900e+002, 9.205321e+001
7.139721e+002, 9.333953e+001
7.144542e+002, 9.413452e+001
7.149363e+002, 9.435386e+001
7.154185e+002, 9.436548e+001
7.159006e+002, 9.432722e+001
7.163827e+002, 9.417531e+001
7.168648e+002, 9.360820e+001
7.173469e+002, 9.239753e+001
7.178290e+002, 9.214914e+001
7.183112e+002, 9.428543e+001
7.187933e+002, 9.603951e+001
7.192754e+002, 9.566679e+001
7.197575e+002, 9.419797e+001
7.202396e+002, 9.309489e+001
7.207217e+002, 9.277213e+001
7.212039e+002, 9.285991e+001
7.216860e+002, 9.316728e+001
7.221681e+002, 9.355634e+001
7.226502e+002, 9.337268e+001
7.231323e+002, 9.252233e+001
7.236144e+002, 9.186283e+001
7.240966e+002, 9.164407e+001
7.245787e+002, 9.175991e+001
7.250608e+002, 9.222615e+001
7.255429e+002, 9.303430e+001
7.260250e+002, 9.353170e+001
7.265071e+002, 9.383366e+001
7.269893e+002, 9.364441e+001
7.274714e+002, 9.246524e+001
7.279535e+002, 9.097110e+001
7.284356e+002, 8.974377e+001
7.289177e+002, 8.897572e+001
7.293998e+002, 8.889878e+001
7.298820e+002, 8.987987e+001
7.303641e+002, 9.130067e+001
7.308462e+002, 9.158089e+001
7.313283e+002, 9.066776e+001
7.318104e+002, 9.012125e+001
7.322925e+002, 9.030730e+001
7.327747e+002, 9.076482e+001
7.332568e+002, 9.119801e+001
7.337389e+002, 9.159432e+001
7.342210e+002, 9.191616e+001
7.347031e+002, 9.232128e+001
7.351852e+002, 9.240704e+001
7.356674e+002, 9.176389e+001
7.361495e+002, 9.103240e+001
7.366316e+002, 9.077029e+001
7.371137e+002, 9.089129e+001
7.375958e+002, 9.104240e+001
7.380779e+002, 9.106335e+001
7.385601e+002, 9.090276e+001
7.390422e+002, 9.031235e+001
7.395243e+002, 8.937924e+001
7.400064e+002, 8.903785e+001
7.404885e+002, 8.950225e+001
7.409706e+002, 8.990646e+001
7.414528e+002, 8.969557e+001
7.419349e+002, 8.917269e+001
7.424170e+002, 8.906095e+001
7.428991e+002, 8.956623e+001
7.433812e+002, 8.974050e+001
7.438633e+002, 8.921141e+001
7.443455e+002, 8.864346e+001
7.448276e+002, 8.841063e+001
7.453097e+002, 8.836134e+001
7.457918e+002, 8.822876e+001
7.462739e+002, 8.794132e+001
7.467560e+002, 8.762543e+001
7.472382e+002, 8.737904e+001
7.477203e+002, 8.720464e+001
7.482024e+002, 8.709522e+001
7.486845e+002, 8.704925e+001
7.491666e+002, 8.715547e+001
7.496487e+002, 8.746070e+001
7.501309e+002, 8.789504e+001
7.506130e+002, 8.845597e+001
7.510951e+002, 8.916412e+001
7.515772e+002, 8.947475e+001
7.520593e+002, 8.935561e+001
7.525414e+002, 8.891566e+001
7.530236e+002, 8.743373e+001
7.535057e+002, 8.617550e+001
7.539878e+002, 8.668393e+001
7.544699e+002, 8.861961e+001
7.549520e+002, 9.013509e+001
7.554341e+002, 9.007137e+001
7.559163e+002, 8.934668e+001
7.563984e+002, 8.932283e+001
7.568805e+002, 8.977843e+001
7.573626e+002, 8.959910e+001
7.578447e+002, 8.855511e+001
7.583268e+002, 8.771311e+001
7.588090e+002, 8.795156e+001
7.592911e+002, 8.883838e+001
7.597732e+002, 8.888410e+001
7.602553e+002, 8.709315e+001
7.607374e+002, 8.628985e+001
7.612195e+002, 8.732605e+001
7.617017e+002, 8.838419e+001
7.621838e+002, 8.839051e+001
7.626659e+002, 8.792971e+001
7.631480e+002, 8.817110e+001
7.636301e+002, 8.947647e+001
7.641122e+002, 9.044029e+001
7.645944e+002, 8.958046e+001
7.650765e+002, 8.795234e+001
7.655586e+002, 8.724986e+001
7.660407e+002, 8.739458e+001
7.665228e+002, 8.761768e+001
7.670049e+002, 8.763853e+001
7.674871e+002, 8.740782e+001
7.679692e+002, 8.678335e+001
7.684513e+002, 8.572361e+001
7.689334e+002, 8.524067e+001
7.694155e+002, 8.579012e+001
7.698976e+002, 8.617029e+001
7.703798e+002, 8.583006e+001
7.708619e+002, 8.545592e+001
7.713440e+002, 8.575533e+001
7.718261e+002, 8.657435e+001
7.723082e+002, 8.699855e+001
7.727903e+002, 8.645764e+001
7.732725e+002, 8.576891e+001
7.737546e+002, 8.550788e+001
7.742367e+002, 8.546461e+001
7.747188e+002, 8.527300e+001
7.752009e+002, 8.492272e+001
7.756830e+002, 8.471740e+001
7.761652e+002, 8.487836e+001
7.766473e+002, 8.520710e+001
7.771294e+002, 8.513998e+001
7.776115e+002, 8.454508e+001
7.780936e+002, 8.451748e+001
7.785757e+002, 8.557244e+001
7.790579e+002, 8.636712e+001
7.795400e+002, 8.578371e+001
7.800221e+002, 8.465017e+001
7.805042e+002, 8.446317e+001
7.809863e+002, 8.552672e+001
7.814684e+002, 8.621291e+001
7.819506e+002, 8.580199e+001
7.824327e+002, 8.522170e+001
7.829148e+002, 8.517510e+001
7.833969e+002, 8.533263e+001
7.838790e+002, 8.496120e+001
7.843611e+002, 8.395193e+001
7.848433e+002, 8.307736e+001
7.853254e+002, 8.317793e+001
7.858075e+002, 8.387527e+001
7.862896e+002, 8.400461e+001
7.867717e+002, 8.355736e+001
7.872538e+002, 8.300150e+001
7.877360e+002, 8.228124e+001
7.882181e+002, 8.204788e+001
7.887002e+002, 8.321665e+001
7.891823e+002, 8.550879e+001
7.896644e+002, 8.650675e+001
7.901465e+002, 8.515597e+001
7.906286e+002, 8.409575e+001
7.911107e+002, 8.343755e+001
7.915928e+002, 8.320206e+001
7.920750e+002, 8.366445e+001
7.925571e+002, 8.450278e+001
7.930392e+002, 8.512263e+001
7.935213e+002, 8.531763e+001
7.940034e+002, 8.518905e+001
7.944855e+002, 8.464915e+001
7.949677e+002, 8.391818e+001
7.954498e+002, 8.337883e+001
7.959319e+002, 8.304916e+001
7.964140e+002, 8.291415e+001
7.968961e+002, 8.297813e+001
7.973782e+002, 8.310545e+001
7.978604e+002, 8.309711e+001
7.983425e+002, 8.294226e+001
7.988246e+002, 8.293447e+001
7.993067e+002, 8.330956e+001
7.997888e+002, 8.340345e+001
8.002709e+002, 8.242312e+001
8.007531e+002, 8.160184e+001
8.012352e+002, 8.238644e+001
8.017173e+002, 8.431397e+001
8.021994e+002, 8.501273e+001
8.026815e+002, 8.283321e+001
8.031636e+002, 8.081029e+001
8.036458e+002, 8.067331e+001
8.041279e+002, 8.146500e+001
8.046100e+002, 8.238259e+001
8.050921e+002, 8.314139e+001
8.055742e+002, 8.330727e+001
8.060563e+002, 8.261240e+001
8.065385e+002, 8.161696e+001
8.070206e+002, 8.119955e+001
8.075027e+002, 8.132691e+001
8.079848e+002, 8.162935e+001
8.084669e+002, 8.216715e+001
8.089490e+002, 8.246188e+001
8.094312e+002, 8.216089e+001
8.099133e+002, 8.170187e+001
8.103954e+002, 8.180099e+001
8.108775e+002, 8.259822e+001
8.113596e+002, 8.302647e+001
8.118417e+002, 8.282114e+001
8.123239e+002, 8.258938e+001
8.128060e+002, 8.251016e+001
8.132881e+002, 8.246733e+001
8.137702e+002, 8.236386e+001
8.142523e+002, 8.218674e+001
8.147344e+002, 8.195681e+001
8.152166e+002, 8.169376e+001
8.156987e+002, 8.136354e+001
8.161808e+002, 8.070634e+001
8.166629e+002, 8.001551e+001
8.171450e+002, 8.010091e+001
8.176271e+002, 8.096214e+001
8.181093e+002, 8.180318e+001
8.185914e+002, 8.219710e+001
8.190735e+002, 8.214181e+001
8.195556e+002, 8.149137e+001
8.200377e+002, 8.003796e+001
8.205198e+002, 7.931713e+001
8.210020e+002, 7.955309e+001
8.214841e+002, 8.010091e+001
8.219662e+002, 8.113843e+001
8.224483e+002, 8.207332e+001
8.229304e+002, 8.217954e+001
8.234125e+002, 8.147708e+001
8.238947e+002, 8.072234e+001
8.243768e+002, 7.983422e+001
8.248589e+002, 7.920179e+001
8.253410e+002, 7.915210e+001
8.258231e+002, 7.934185e+001
8.263052e+002, 7.924841e+001
8.267874e+002, 7.898777e+001
8.272695e+002, 7.930279e+001
8.277516e+002, 8.074783e+001
8.282337e+002, 8.229444e+001
8.287158e+002, 8.231505e+001
8.291979e+002, 8.116328e+001
8.296801e+002, 8.025837e+001
8.301622e+002, 7.972867e+001
8.306443e+002, 7.942796e+001
8.311264e+002, 7.929975e+001
8.316085e+002, 7.933495e+001
8.320906e+002, 7.956697e+001
8.325728e+002, 8.006942e+001
8.330549e+002, 8.021825e+001
8.335370e+002, 7.980629e+001
8.340191e+002, 7.932883e+001
8.345012e+002, 7.882590e+001
8.349833e+002, 7.836372e+001
8.354655e+002, 7.793130e+001
8.359476e+002, 7.757232e+001
8.364297e+002, 7.747080e+001
8.369118e+002, 7.787872e+001
8.373939e+002, 7.824206e+001
8.378760e+002, 7.827567e+001
8.383582e+002, 7.809319e+001
8.388403e+002, 7.767113e+001
8.393224e+002, 7.715458e+001
8.398045e+002, 7.696148e+001
8.402866e+002, 7.729125e+001
8.407687e+002, 7.777806e+001
8.412509e+002, 7.793021e+001
8.417330e+002, 7.779510e+001
8.422151e+002, 7.755833e+001
8.426972e+002, 7.719982e+001
8.431793e+002, 7.718374e+001
8.436614e+002, 7.777007e+001
8.441436e+002, 7.850350e+001
8.446257e+002, 7.887541e+001
8.451078e+002, 7.889136e+001
8.455899e+002, 7.876943e+001
8.460720e+002, 7.827459e+001
8.465541e+002, 7.798866e+001
8.470363e+002, 7.797770e+001
8.475184e+002, 7.816701e+001
8.480005e+002, 7.874380e+001
8.484826e+002, 7.944217e+001
8.489647e+002, 7.968153e+001
8.494468e+002, 7.925619e+001
8.499290e+002, 7.863157e+001
8.504111e+002, 7.783804e+001
8.508932e+002, 7.714278e+001
8.513753e+002, 7.676948e+001
8.518574e+002, 7.672359e+001
8.523395e+002, 7.714524e+001
8.528217e+002, 7.799475e+001
8.533038e+002, 7.861453e+001
8.537859e+002, 7.818546e+001
8.542680e+002, 7.717567e+001
8.547501e+002, 7.728494e+001
8.552322e+002, 7.851214e+001
8.557144e+002, 7.892367e+001
8.561965e+002, 7.796463e+001
8.566786e+002, 7.689050e+001
8.571607e+002, 7.664745e+001
8.576428e+002, 7.699460e+001
8.581249e+002, 7.716405e+001
8.586071e+002, 7.710399e+001
8.590892e+002, 7.697311e+001
8.595713e+002, 7.665450e+001
8.600534e+002, 7.640246e+001
8.605355e+002, 7.660500e+001
8.610176e+002, 7.675166e+001
8.614998e+002, 7.585449e+001
8.619819e+002, 7.392726e+001
8.624640e+002, 7.298846e+001
8.629461e+002, 7.498940e+001
8.634282e+002, 7.700889e+001
8.639103e+002, 7.665241e+001
8.643925e+002, 7.528273e+001
8.648746e+002, 7.481689e+001
8.653567e+002, 7.537893e+001
8.658388e+002, 7.610439e+001
8.663209e+002, 7.651502e+001
8.668030e+002, 7.665261e+001
8.672852e+002, 7.649581e+001
8.677673e+002, 7.610317e+001
8.682494e+002, 7.577737e+001
8.687315e+002, 7.553745e+001
8.692136e+002, 7.525196e+001
8.696957e+002, 7.476022e+001
8.701779e+002, 7.460503e+001
8.706600e+002, 7.569016e+001
8.711421e+002, 7.803751e+001
8.716242e+002, 7.920797e+001
8.721063e+002, 7.850230e+001
8.725884e+002, 7.784992e+001
8.730705e+002, 7.786221e+001
8.735526e+002, 7.773373e+001
8.740347e+002, 7.658333e+001
8.745168e+002, 7.497099e+001
8.749990e+002, 7.434874e+001
8.754811e+002, 7.531961e+001
8.759632e+002, 7.615503e+001
8.764453e+002, 7.622480e+001
8.769274e+002, 7.597063e+001
8.774095e+002, 7.568250e+001
8.778917e+002, 7.531459e+001
8.783738e+002, 7.461391e+001
8.788559e+002, 7.360577e+001
8.793380e+002, 7.285328e+001
8.798201e+002, 7.296636e+001
8.803022e+002, 7.338496e+001
8.807844e+002, 7.297843e+001
8.812665e+002, 7.206892e+001
8.817486e+002, 7.194736e+001
8.822307e+002, 7.278073e+001
8.827128e+002, 7.376627e+001
8.831949e+002, 7.444608e+001
8.836771e+002, 7.474547e+001
8.841592e+002, 7.436682e+001
8.846413e+002, 7.313516e+001
8.851234e+002, 7.259746e+001
8.856055e+002, 7.307282e+001
8.860876e+002, 7.344579e+001
8.865698e+002, 7.322594e+001
8.870519e+002, 7.284507e+001
8.875340e+002, 7.282975e+001
8.880161e+002, 7.314677e+001
8.884982e+002, 7.327116e+001
8.889803e+002, 7.275296e+001
8.894625e+002, 7.265584e+001
8.899446e+002, 7.389314e+001
8.904267e+002, 7.492094e+001
8.909088e+002, 7.430523e+001
8.913909e+002, 7.277575e+001
8.918730e+002, 7.191759e+001
8.923552e+002, 7.218233e+001
8.928373e+002, 7.257110e+001
8.933194e+002, 7.252617e+001
8.938015e+002, 7.222120e+001
8.942836e+002, 7.173904e+001
8.947657e+002, 7.117006e+001
8.952479e+002, 7.060178e+001
8.957300e+002, 7.010693e+001
8.962121e+002, 6.995200e+001
8.966942e+002, 7.039124e+001
8.971763e+002, 7.109978e+001
8.976584e+002, 7.154082e+001
8.981406e+002, 7.168922e+001
8.986227e+002, 7.107803e+001
8.991048e+002, 6.956364e+001
8.995869e+002, 6.861961e+001
9.000690e+002, 6.904682e+001
9.005511e+002, 7.009227e+001
9.010333e+002, 7.064114e+001
9.015154e+002, 7.066358e+001
9.019975e+002, 7.088634e+001
9.024796e+002, 7.165799e+001
9.029617e+002, 7.197544e+001
9.034438e+002, 7.114790e+001
9.039260e+002, 7.030505e+001
9.044081e+002, 7.058706e+001
9.048902e+002, 7.140477e+001
9.053723e+002, 7.107227e+001
9.058544e+002, 6.871856e+001
9.063365e+002, 6.721093e+001
9.068187e+002, 6.784686e+001
9.073008e+002, 6.888953e+001
9.077829e+002, 6.941756e+001
9.082650e+002, 6.964625e+001
9.087471e+002, 6.991125e+001
9.092292e+002, 7.029314e+001
9.097114e+002, 7.080381e+001
9.101935e+002, 7.160636e+001
9.106756e+002, 7.228614e+001
9.111577e+002, 7.237745e+001
9.116398e+002, 7.206370e+001
9.121219e+002, 7.157291e+001
9.126041e+002, 7.100240e+001
9.130862e+002, 7.054118e+001
9.135683e+002, 7.027924e+001
9.140504e+002, 7.022655e+001
9.145325e+002, 7.050339e+001
9.150146e+002, 7.100906e+001
9.154968e+002, 7.114742e+001
9.159789e+002, 7.090986e+001
9.164610e+002, 7.046802e+001
9.169431e+002, 6.974981e+001
9.174252e+002, 6.941433e+001
9.179073e+002, 7.017935e+001
9.183895e+002, 7.160554e+001
9.188716e+002, 7.205428e+001
9.193537e+002, 7.109632e+001
9.198358e+002, 7.023383e+001
9.203179e+002, 6.921607e+001
9.208000e+002, 6.866293e+001
9.212822e+002, 6.917378e+001
9.217643e+002, 7.004428e+001
9.222464e+002, 7.072998e+001
9.227285e+002, 7.118430e+001
9.232106e+002, 7.080350e+001
9.236927e+002, 6.810770e+001
9.241749e+002, 6.645663e+001
9.246570e+002, 6.762086e+001
9.251391e+002, 6.944270e+001
9.256212e+002, 7.049986e+001
9.261033e+002, 7.079188e+001
9.265854e+002, 7.059993e+001
9.270676e+002, 6.999746e+001
9.275497e+002, 6.925266e+001
9.280318e+002, 6.825731e+001
9.285139e+002, 6.746244e+001
9.289960e+002, 6.743337e+001
9.294781e+002, 6.790690e+001
9.299603e+002, 6.848538e+001
9.304424e+002, 6.902172e+001
9.309245e+002, 6.931139e+001
9.314066e+002, 6.921099e+001
9.318887e+002, 6.888062e+001
9.323708e+002, 6.851448e+001
9.328530e+002, 6.813343e+001
9.333351e+002, 6.774532e+001
9.338172e+002, 6.737214e+001
9.342993e+002, 6.744278e+001
9.347814e+002, 6.815614e+001
9.352635e+002, 6.894636e+001
9.357457e+002, 6.919210e+001
9.362278e+002, 6.897575e+001
9.367099e+002, 6.878001e+001
9.371920e+002, 6.862231e+001
9.376741e+002, 6.842697e+001
9.381563e+002, 6.826624e+001
9.386384e+002, 6.785703e+001
9.391205e+002, 6.680087e+001
9.396026e+002, 6.559007e+001
9.400847e+002, 6.511408e+001
9.405668e+002, 6.547549e+001
9.410490e+002, 6.596860e+001
9.415311e+002, 6.699409e+001
9.420132e+002, 6.760225e+001
9.424953e+002, 6.722475e+001
9.429774e+002, 6.672341e+001
9.434595e+002, 6.685497e+001
9.439417e+002, 6.735693e+001
9.444238e+002, 6.740079e+001
9.449059e+002, 6.661052e+001
9.453880e+002, 6.619633e+001
9.458701e+002, 6.721323e+001
9.463522e+002, 6.808033e+001
9.468344e+002, 6.740847e+001
9.473165e+002, 6.612779e+001
9.477986e+002, 6.544866e+001
9.482807e+002, 6.555643e+001
9.487628e+002, 6.614490e+001
9.492449e+002, 6.731384e+001
9.497271e+002, 6.822377e+001
9.502092e+002, 6.771492e+001
9.506913e+002, 6.663919e+001
9.511734e+002, 6.642793e+001
9.516555e+002, 6.688807e+001
9.521376e+002, 6.696469e+001
9.526198e+002, 6.633010e+001
9.531019e+002, 6.565207e+001
9.535840e+002, 6.562525e+001
9.540661e+002, 6.593824e+001
9.545482e+002, 6.578538e+001
9.550303e+002, 6.524775e+001
9.555124e+002, 6.484065e+001
9.559945e+002, 6.463578e+001
9.564766e+002, 6.466403e+001
9.569587e+002, 6.500108e+001
9.574409e+002, 6.522635e+001
9.579230e+002, 6.450810e+001
9.584051e+002, 6.287611e+001
9.588872e+002, 6.244339e+001
9.593693e+002, 6.355595e+001
9.598514e+002, 6.436634e+001
9.603336e+002, 6.439700e+001
9.608157e+002, 6.423741e+001
9.612978e+002, 6.438161e+001
9.617799e+002, 6.462228e+001
9.622620e+002, 6.432390e+001
9.627441e+002, 6.315597e+001
9.632263e+002, 6.246794e+001
9.637084e+002, 6.222882e+001
9.641905e+002, 6.252692e+001
9.646726e+002, 6.397529e+001
9.651547e+002, 6.547243e+001
9.656368e+002, 6.597948e+001
9.661190e+002, 6.567976e+001
9.666011e+002, 6.551683e+001
9.670832e+002, 6.570144e+001
9.675653e+002, 6.583456e+001
9.680474e+002, 6.597422e+001
9.685295e+002, 6.588554e+001
9.690117e+002, 6.517680e+001
9.694938e+002, 6.430358e+001
9.699759e+002, 6.391567e+001
9.704580e+002, 6.403869e+001
9.709401e+002, 6.412786e+001
9.714222e+002, 6.380760e+001
9.719044e+002, 6.361736e+001
9.723865e+002, 6.408520e+001
9.728686e+002, 6.470786e+001
9.733507e+002, 6.499474e+001
9.738328e+002, 6.496858e+001
9.743149e+002, 6.472780e+001
9.747971e+002, 6.433640e+001
9.752792e+002, 6.404282e+001
9.757613e+002, 6.405894e+001
9.762434e+002, 6.426540e+001
9.767255e+002, 6.469200e+001
9.772076e+002, 6.512419e+001
9.776898e+002, 6.490773e+001
9.781719e+002, 6.415507e+001
9.786540e+002, 6.383036e+001
9.791361e+002, 6.438790e+001
9.796182e+002, 6.515068e+001
9.801003e+002, 6.530753e+001
9.805825e+002, 6.498223e+001
9.810646e+002, 6.446055e+001
9.815467e+002, 6.379356e+001
9.820288e+002, 6.341869e+001
9.825109e+002, 6.342334e+001
9.829930e+002, 6.356617e+001
9.834752e+002, 6.371260e+001
9.839573e+002, 6.379988e+001
9.844394e+002, 6.365646e+001
9.849215e+002, 6.327933e+001
9.854036e+002, 6.318575e+001
9.858857e+002, 6.343760e+001
9.863679e+002, 6.358318e+001
9.868500e+002, 6.344976e+001
9.873321e+002, 6.338678e+001
9.878142e+002, 6.377861e+001
9.882963e+002, 6.436240e+001
9.887784e+002, 6.421994e+001
9.892606e+002, 6.291952e+001
9.897427e+002, 6.252023e+001
9.902248e+002, 6.388741e+001
9.907069e+002, 6.444286e+001
9.911890e+002, 6.277240e+001
9.916711e+002, 6.063778e+001
9.921533e+002, 5.960100e+001
9.926354e+002, 5.956358e+001
9.931175e+002, 5.998867e+001
9.935996e+002, 6.148943e+001
9.940817e+002, 6.234547e+001
9.945638e+002, 6.197242e+001
9.950460e+002, 6.162698e+001
9.955281e+002, 6.200866e+001
9.960102e+002, 6.250792e+001
9.964923e+002, 6.224250e+001
9.969744e+002, 6.135578e+001
9.974565e+002, 6.115059e+001
9.979387e+002, 6.257595e+001
9.984208e+002, 6.352138e+001
9.989029e+002, 6.313669e+001
9.993850e+002, 6.244738e+001
9.998671e+002, 6.190186e+001
1.000349e+003, 6.156075e+001
1.000831e+003, 6.151363e+001
1.001313e+003, 6.172966e+001
1.001796e+003, 6.190480e+001
1.002278e+003, 6.192878e+001
1.002760e+003, 6.186004e+001
1.003242e+003, 6.183492e+001
1.003724e+003, 6.164222e+001
1.004206e+003, 6.083978e+001
1.004688e+003, 5.979441e+001
1.005170e+003, 5.916111e+001
1.005653e+003, 5.911322e+001
1.006135e+003, 5.953164e+001
1.006617e+003, 6.097738e+001
1.007099e+003, 6.200354e+001
1.007581e+003, 6.051118e+001
1.008063e+003, 5.821080e+001
1.008545e+003, 5.763784e+001
1.009027e+003, 5.851350e+001
1.009509e+003, 5.927298e+001
1.009992e+003, 5.937053e+001
1.010474e+003, 5.942876e+001
1.010956e+003, 6.013494e+001
1.011438e+003, 6.095886e+001
1.011920e+003, 6.102171e+001
1.012402e+003, 6.059716e+001
1.012884e+003, 6.021428e+001
1.013366e+003, 5.999070e+001
1.013849e+003, 6.012751e+001
1.014331e+003, 6.069990e+001
1.014813e+003, 6.122876e+001
1.015295e+003, 6.111192e+001
1.015777e+003, 6.060582e+001
1.016259e+003, 6.021950e+001
1.016741e+003, 6.000922e+001
1.017223e+003, 6.041621e+001
1.017705e+003, 6.142703e+001
1.018188e+003, 6.215303e+001
1.018670e+003, 6.212096e+001
1.019152e+003, 6.191188e+001
1.019634e+003, 6.256947e+001
1.020116e+003, 6.367206e+001
1.020598e+003, 6.273814e+001
1.021080e+003, 5.988075e+001
1.021562e+003, 5.807084e+001
1.022044e+003, 5.783942e+001
1.022527e+003, 5.847907e+001
1.023009e+003, 5.971454e+001
1.023491e+003, 6.094053e+001
1.023973e+003, 6.108650e+001
1.024455e+003, 6.023905e+001
1.024937e+003, 5.994649e+001
1.025419e+003, 6.032678e+001
1.025901e+003, 6.015086e+001
1.026384e+003, 5.899897e+001
1.026866e+003, 5.815744e+001
1.027348e+003, 5.847848e+001
1.027830e+003, 5.950103e+001
1.028312e+003, 6.046748e+001
1.028794e+003, 6.140932e+001
1.029276e+003, 6.157219e+001
1.029758e+003, 6.068225e+001
1.030240e+003, 5.996289e+001
1.030723e+003, 5.961147e+001
1.031205e+003, 5.957135e+001
1.031687e+003, 5.996464e+001
1.032169e+003, 6.046479e+001
1.032651e+003, 6.032343e+001
1.033133e+003, 5.938678e+001
1.033615e+003, 5.916229e+001
1.034097e+003, 6.021880e+001
1.034579e+003, 6.072340e+001
1.035062e+003, 6.008619e+001
1.035544e+003, 5.917712e+001
1.036026e+003, 5.837094e+001
1.036508e+003, 5.780640e+001
1.036990e+003, 5.788557e+001
1.037472e+003, 5.882302e+001
1.037954e+003, 5.919136e+001
1.038436e+003, 5.864656e+001
1.038919e+003, 5.807709e+001
1.039401e+003, 5.756942e+001
1.039883e+003, 5.715096e+001
1.040365e+003, 5.658589e+001
1.040847e+003, 5.620300e+001
1.041329e+003, 5.689651e+001
1.041811e+003, 5.904580e+001
1.042293e+003, 6.026865e+001
1.042776e+003, 6.002273e+001
1.043258e+003, 5.955593e+001
1.043740e+003, 5.888696e+001
1.044222e+003, 5.827600e+001
1.044704e+003, 5.778598e+001
1.045186e+003, 5.750676e+001
1.045668e+003, 5.761773e+001
1.046150e+003, 5.815120e+001
1.046632e+003, 5.892098e+001
1.047115e+003, 6.078001e+001
1.047597e+003, 6.166691e+001
1.048079e+003, 5.986312e+001
1.048561e+003, 5.810872e+001
1.049043e+003, 5.873845e+001
1.049525e+003, 6.059979e+001
1.050007e+003, 6.141342e+001
1.050489e+003, 6.085465e+001
1.050971e+003, 6.009913e+001
1.051454e+003, 5.897493e+001
1.051936e+003, 5.822682e+001
1.052418e+003, 5.866949e+001
1.052900e+003, 5.899003e+001
1.053382e+003, 5.769882e+001
1.053864e+003, 5.581030e+001
1.054346e+003, 5.542970e+001
1.054828e+003, 5.689367e+001
1.055311e+003, 5.791705e+001
1.055793e+003, 5.728023e+001
1.056275e+003, 5.694617e+001
1.056757e+003, 5.820496e+001
1.057239e+003, 5.940971e+001
1.057721e+003, 5.931455e+001
1.058203e+003, 5.828168e+001
1.058685e+003, 5.681116e+001
1.059167e+003, 5.502522e+001
1.059650e+003, 5.397202e+001
1.060132e+003, 5.427807e+001
1.060614e+003, 5.499013e+001
1.061096e+003, 5.609326e+001
1.061578e+003, 5.712893e+001
1.062060e+003, 5.766608e+001
1.062542e+003, 5.793809e+001
1.063024e+003, 5.850028e+001
1.063506e+003, 5.937335e+001
1.063989e+003, 5.966484e+001
1.064471e+003, 5.833566e+001
1.064953e+003, 5.738416e+001
1.065435e+003, 5.825661e+001
1.065917e+003, 5.919878e+001
1.066399e+003, 5.873960e+001
1.066881e+003, 5.750577e+001
1.067363e+003, 5.635683e+001
1.067846e+003, 5.553682e+001
1.068328e+003, 5.548273e+001
1.068810e+003, 5.697778e+001
1.069292e+003, 5.818080e+001
1.069774e+003, 5.814112e+001
1.070256e+003, 5.763141e+001
1.070738e+003, 5.676445e+001
1.071220e+003, 5.606870e+001
1.071703e+003, 5.656688e+001
1.072185e+003, 5.806571e+001
1.072667e+003, 5.870745e+001
1.073149e+003, 5.729396e+001
1.073631e+003, 5.612873e+001
1.074113e+003, 5.665797e+001
1.074595e+003, 5.742863e+001
1.075077e+003, 5.746514e+001
1.075559e+003, 5.705003e+001
1.076042e+003, 5.655587e+001
1.076524e+003, 5.606336e+001
1.077006e+003, 5.552923e+001
1.077488e+003, 5.474980e+001
1.077970e+003, 5.453233e+001
1.078452e+003, 5.597039e+001
1.078934e+003, 5.730922e+001
1.079416e+003, 5.719908e+001
1.079898e+003, 5.643109e+001
1.080380e+003, 5.583929e+001
1.080863e+003, 5.555936e+001
1.081345e+003, 5.560698e+001
1.081827e+003, 5.608343e+001
1.082309e+003, 5.639814e+001
1.082791e+003, 5.602175e+001
1.083273e+003, 5.571082e+001
1.083755e+003, 5.614031e+001
1.084237e+003, 5.671112e+001
1.084720e+003, 5.673145e+001
1.085202e+003, 5.632013e+001
1.085684e+003, 5.597089e+001
1.086166e+003, 5.581800e+001
1.086648e+003, 5.566947e+001
1.087130e+003, 5.528959e+001
1.087612e+003, 5.508560e+001
1.088094e+003, 5.534312e+001
1.088577e+003, 5.580778e+001
1.089059e+003, 5.646578e+001
1.089541e+003, 5.706526e+001
1.090023e+003, 5.708367e+001
1.090505e+003, 5.641339e+001
1.090987e+003, 5.573989e+001
1.091469e+003, 5.505796e+001
1.091951e+003, 5.477047e+001
1.092433e+003, 5.525948e+001
1.092916e+003, 5.600522e+001
1.093398e+003, 5.691349e+001
1.093880e+003, 5.763976e+001
1.094362e+003, 5.753728e+001
1.094844e+003, 5.659017e+001
1.095326e+003, 5.582707e+001
1.095808e+003, 5.589246e+001
1.096290e+003, 5.571485e+001
1.096772e+003, 5.438416e+001
1.097255e+003, 5.330450e+001
1.097737e+003, 5.360079e+001
1.098219e+003, 5.454426e+001
1.098701e+003, 5.521370e+001
1.099183e+003, 5.551278e+001
1.099665e+003, 5.564396e+001
1.100147e+003, 5.564726e+001
1.100629e+003, 5.549607e+001
1.101112e+003, 5.508612e+001
1.101594e+003, 5.463528e+001
1.102076e+003, 5.406907e+001
1.102558e+003, 5.365220e+001
1.103040e+003, 5.381439e+001
1.103522e+003, 5.437693e+001
1.104004e+003, 5.463219e+001
1.104486e+003, 5.442872e+001
1.104969e+003, 5.407523e+001
1.105451e+003, 5.325166e+001
1.105933e+003, 5.277435e+001
1.106415e+003, 5.320904e+001
1.106897e+003, 5.383923e+001
1.107379e+003, 5.399250e+001
1.107861e+003, 5.390944e+001
1.108343e+003, 5.437108e+001
1.108825e+003, 5.567593e+001
1.109307e+003, 5.612036e+001
1.109790e+003, 5.445264e+001
1.110272e+003, 5.348616e+001
1.110754e+003, 5.463694e+001
1.111236e+003, 5.574129e+001
1.111718e+003, 5.517327e+001
1.112200e+003, 5.387807e+001
1.112682e+003, 5.346457e+001
1.113164e+003, 5.400035e+001
1.113647e+003, 5.436930e+001
1.114129e+003, 5.460852e+001
1.114611e+003, 5.460743e+001
1.115093e+003, 5.398279e+001
1.115575e+003, 5.363900e+001
1.116057e+003, 5.423168e+001
1.116539e+003, 5.503766e+001
1.117021e+003, 5.510171e+001
1.117504e+003, 5.458284e+001
1.117986e+003, 5.473821e+001
1.118468e+003, 5.641014e+001
1.118950e+003, 5.664942e+001
1.119432e+003, 5.443601e+001
1.119914e+003, 5.278839e+001
1.120396e+003, 5.271516e+001
1.120878e+003, 5.346996e+001
1.121360e+003, 5.482984e+001
1.121843e+003, 5.622620e+001
1.122325e+003, 5.578486e+001
1.122807e+003, 5.299439e+001
1.123289e+003, 5.148315e+001
1.123771e+003, 5.141419e+001
1.124253e+003, 5.226082e+001
1.124735e+003, 5.444257e+001
1.125217e+003, 5.578050e+001
1.125699e+003, 5.453527e+001
1.126182e+003, 5.241689e+001
1.126664e+003, 5.252302e+001
1.127146e+003, 5.467893e+001
1.127628e+003, 5.561102e+001
1.128110e+003, 5.518684e+001
1.128592e+003, 5.465038e+001
1.129074e+003, 5.413333e+001
1.129556e+003, 5.373895e+001
1.130039e+003, 5.352894e+001
1.130521e+003, 5.338077e+001
1.131003e+003, 5.314569e+001
1.131485e+003, 5.287490e+001
1.131967e+003, 5.273122e+001
1.132449e+003, 5.271688e+001
1.132931e+003, 5.302453e+001
1.133413e+003, 5.364101e+001
1.133896e+003, 5.355520e+001
1.134378e+003, 5.246069e+001
1.134860e+003, 5.151295e+001
1.135342e+003, 5.166089e+001
1.135824e+003, 5.221267e+001
1.136306e+003, 5.167248e+001
1.136788e+003, 5.048933e+001
1.137270e+003, 5.065077e+001
1.137752e+003, 5.184017e+001
1.138234e+003, 5.234261e+001
1.138717e+003, 5.192942e+001
1.139199e+003, 5.147906e+001
1.139681e+003, 5.144004e+001
1.140163e+003, 5.166992e+001
1.140645e+003, 5.225429e+001
1.141127e+003, 5.276978e+001
1.141609e+003, 5.206961e+001
1.142091e+003, 5.084864e+001
1.142574e+003, 5.067743e+001
1.143056e+003, 5.148888e+001
1.143538e+003, 5.263770e+001
1.144020e+003, 5.380479e+001
1.144502e+003, 5.436745e+001
1.144984e+003, 5.373007e+001
1.145466e+003, 5.268668e+001
1.145948e+003, 5.179658e+001
1.146431e+003, 5.120097e+001
1.146913e+003, 5.112695e+001
1.147395e+003, 5.146189e+001
1.147877e+003, 5.214861e+001
1.148359e+003, 5.303252e+001
1.148841e+003, 5.369957e+001
1.149323e+003, 5.401411e+001
1.149805e+003, 5.386698e+001
1.150287e+003, 5.272167e+001
1.150770e+003, 5.162054e+001
1.151252e+003, 5.132296e+001
1.151734e+003, 5.146148e+001
1.152216e+003, 5.185803e+001
1.152698e+003, 5.226824e+001
1.153180e+003, 5.211659e+001
1.153662e+003, 5.129049e+001
1.154144e+003, 5.101129e+001
1.154626e+003, 5.225635e+001
1.155109e+003, 5.330370e+001
1.155591e+003, 5.355692e+001
1.156073e+003, 5.347361e+001
1.156555e+003, 5.337120e+001
1.157037e+003, 5.308246e+001
1.157519e+003, 5.203048e+001
1.158001e+003, 5.043853e+001
1.158483e+003, 4.997734e+001
1.158966e+003, 5.176008e+001
1.159448e+003, 5.260981e+001
1.159930e+003, 5.116183e+001
1.160412e+003, 5.037926e+001
1.160894e+003, 5.170866e+001
1.161376e+003, 5.322277e+001
1.161858e+003, 5.358941e+001
1.162340e+003, 5.307581e+001
1.162822e+003, 5.203615e+001
1.163305e+003, 5.027164e+001
1.163787e+003, 5.031733e+001
1.164269e+003, 5.337011e+001
1.164751e+003, 5.450344e+001
1.165233e+003, 5.222503e+001
1.165715e+003, 5.058266e+001
1.166197e+003, 5.179952e+001
1.166679e+003, 5.364367e+001
1.167161e+003, 5.339585e+001
1.167644e+003, 5.165091e+001
1.168126e+003, 5.084957e+001
1.168608e+003, 5.101845e+001
1.169090e+003, 5.132973e+001
1.169572e+003, 5.174817e+001
1.170054e+003, 5.244431e+001
1.170536e+003, 5.348112e+001
1.171018e+003, 5.387880e+001
1.171500e+003, 5.288078e+001
1.171983e+003, 5.144397e+001
1.172465e+003, 5.113612e+001
1.172947e+003, 5.163113e+001
1.173429e+003, 5.183159e+001
1.173911e+003, 5.185999e+001
1.174393e+003, 5.226609e+001
1.174875e+003, 5.301925e+001
1.175357e+003, 5.364768e+001
1.175840e+003, 5.395997e+001
1.176322e+003, 5.393596e+001
1.176804e+003, 5.354072e+001
1.177286e+003, 5.285063e+001
1.177768e+003, 5.133057e+001
1.178250e+003, 5.004012e+001
1.178732e+003, 5.114244e+001
1.179214e+003, 5.343685e+001
1.179697e+003, 5.452303e+001
1.180179e+003, 5.411975e+001
1.180661e+003, 5.298063e+001
1.181143e+003, 5.125408e+001
1.181625e+003, 5.017981e+001
1.182107e+003, 5.116071e+001
1.182589e+003, 5.226632e+001
1.183071e+003, 5.208593e+001
1.183553e+003, 5.156182e+001
1.184036e+003, 5.169870e+001
1.184518e+003, 5.216537e+001
1.185000e+003, 5.213688e+001
1.185482e+003, 5.153099e+001
1.185964e+003, 5.114821e+001
1.186446e+003, 5.167815e+001
1.186928e+003, 5.161957e+001
1.187410e+003, 4.998724e+001
1.187892e+003, 4.863673e+001
1.188375e+003, 4.840065e+001
1.188857e+003, 4.875663e+001
1.189339e+003, 4.927411e+001
1.189821e+003, 4.997276e+001
1.190303e+003, 5.102485e+001
1.190785e+003, 5.269008e+001
1.191267e+003, 5.307652e+001
1.191749e+003, 5.157621e+001
1.192232e+003, 5.051208e+001
1.192714e+003, 5.032851e+001
1.193196e+003, 5.040542e+001
1.193678e+003, 5.048064e+001
1.194160e+003, 5.052372e+001
1.194642e+003, 5.046648e+001
1.195124e+003, 5.038266e+001
1.195606e+003, 5.075455e+001
1.196089e+003, 5.153352e+001
1.196571e+003, 5.092708e+001
1.197053e+003, 4.898972e+001
1.197535e+003, 4.882409e+001
1.198017e+003, 5.108076e+001
1.198499e+003, 5.276080e+001
1.198981e+003, 5.196876e+001
1.199463e+003, 5.022310e+001
1.199945e+003, 4.919999e+001
1.200427e+003, 4.890247e+001
1.200910e+003, 4.991557e+001
1.201392e+003, 5.141248e+001
1.201874e+003, 5.127022e+001
1.202356e+003, 4.991371e+001
1.202838e+003, 4.936312e+001
1.203320e+003, 5.003133e+001
1.203802e+003, 5.038229e+001
1.204284e+003, 4.926544e+001
1.204767e+003, 4.835497e+001
1.205249e+003, 4.921339e+001
1.205731e+003, 5.048668e+001
1.206213e+003, 5.126402e+001
1.206695e+003, 5.163397e+001
1.207177e+003, 5.173090e+001
1.207659e+003, 5.159424e+001
1.208141e+003, 5.120810e+001
1.208624e+003, 5.055229e+001
1.209106e+003, 4.997459e+001
1.209588e+003, 4.968763e+001
1.210070e+003, 4.929625e+001
1.210552e+003, 4.816105e+001
1.211034e+003, 4.756154e+001
1.211516e+003, 4.885806e+001
1.211998e+003, 5.036843e+001
1.212480e+003, 5.027738e+001
1.212963e+003, 4.902026e+001
1.213445e+003, 4.821017e+001
1.213927e+003, 4.782726e+001
1.214409e+003, 4.810034e+001
1.214891e+003, 4.932152e+001
1.215373e+003, 4.999109e+001
1.215855e+003, 4.974405e+001
1.216337e+003, 4.930421e+001
1.216819e+003, 4.901946e+001
1.217302e+003, 4.890953e+001
1.217784e+003, 4.902059e+001
1.218266e+003, 4.929211e+001
1.218748e+003, 4.969661e+001
1.219230e+003, 5.010082e+001
1.219712e+003, 4.953003e+001
1.220194e+003, 4.823254e+001
1.220676e+003, 4.789016e+001
1.221159e+003, 4.870177e+001
1.221641e+003, 4.914933e+001
1.222123e+003, 4.839254e+001
1.222605e+003, 4.760220e+001
1.223087e+003, 4.835377e+001
1.223569e+003, 4.929203e+001
1.224051e+003, 4.834838e+001
1.224533e+003, 4.704050e+001
1.225016e+003, 4.776728e+001
1.225498e+003, 4.956533e+001
1.225980e+003, 5.009987e+001
1.226462e+003, 4.920203e+001
1.226944e+003, 4.872132e+001
1.227426e+003, 4.950800e+001
1.227908e+003, 5.012474e+001
1.228390e+003, 5.002402e+001
1.228872e+003, 4.972599e+001
1.229354e+003, 4.971633e+001
1.229837e+003, 4.932850e+001
1.230319e+003, 4.719698e+001
1.230801e+003, 4.475912e+001
1.231283e+003, 4.477561e+001
1.231765e+003, 4.715731e+001
1.232247e+003, 4.880157e+001
1.232729e+003, 4.960839e+001
1.233211e+003, 4.997746e+001
1.233694e+003, 4.991510e+001
1.234176e+003, 4.934336e+001
1.234658e+003, 4.805817e+001
1.235140e+003, 4.710413e+001
1.235622e+003, 4.729212e+001
1.236104e+003, 4.801660e+001
1.236586e+003, 4.829485e+001
1.237068e+003, 4.819262e+001
1.237551e+003, 4.779832e+001
1.238033e+003, 4.727564e+001
1.238515e+003, 4.756940e+001
1.238997e+003, 4.852190e+001
1.239479e+003, 4.886804e+001
1.239961e+003, 4.832725e+001
1.240443e+003, 4.787315e+001
1.240925e+003, 4.819457e+001
1.241407e+003, 4.841594e+001
1.241890e+003, 4.728567e+001
1.242372e+003, 4.607763e+001
1.242854e+003, 4.625270e+001
1.243336e+003, 4.692083e+001
1.243818e+003, 4.685101e+001
1.244300e+003, 4.637905e+001
1.244782e+003, 4.670815e+001
1.245264e+003, 4.790472e+001
1.245746e+003, 4.809674e+001
1.246229e+003, 4.574435e+001
1.246711e+003, 4.431401e+001
1.247193e+003, 4.475116e+001
1.247675e+003, 4.572263e+001
1.248157e+003, 4.737332e+001
1.248639e+003, 4.868992e+001
1.249121e+003, 4.897401e+001
1.249603e+003, 4.842884e+001
1.250085e+003, 4.719865e+001
1.250568e+003, 4.539323e+001
1.251050e+003, 4.509702e+001
1.251532e+003, 4.651439e+001
1.252014e+003, 4.713125e+001
1.252496e+003, 4.672974e+001
1.252978e+003, 4.636058e+001
1.253460e+003, 4.634001e+001
1.253942e+003, 4.653807e+001
1.254425e+003, 4.689029e+001
1.254907e+003, 4.714460e+001
1.255389e+003, 4.682999e+001
1.255871e+003, 4.626387e+001
1.256353e+003, 4.575768e+001
1.256835e+003, 4.560567e+001
1.257317e+003, 4.690090e+001
1.257799e+003, 4.888603e+001
1.258281e+003, 4.944664e+001
1.258764e+003, 4.841935e+001
1.259246e+003, 4.778708e+001
1.259728e+003, 4.853584e+001
1.260210e+003, 4.920537e+001
1.260692e+003, 4.914876e+001
1.261174e+003, 4.881225e+001
1.261656e+003, 4.834514e+001
1.262138e+003, 4.774134e+001
1.262620e+003, 4.662738e+001
1.263103e+003, 4.558228e+001
1.263585e+003, 4.567638e+001
1.264067e+003, 4.674169e+001
1.264549e+003, 4.737388e+001
1.265031e+003, 4.753228e+001
1.265513e+003, 4.738482e+001
1.265995e+003, 4.690717e+001
1.266477e+003, 4.608138e+001
1.266960e+003, 4.475072e+001
1.267442e+003, 4.429620e+001
1.267924e+003, 4.559276e+001
1.268406e+003, 4.712184e+001
1.268888e+003, 4.694910e+001
1.269370e+003, 4.595552e+001
1.269852e+003, 4.635150e+001
1.270334e+003, 4.748605e+001
1.270817e+003, 4.756976e+001
1.271299e+003, 4.697351e+001
1.271781e+003, 4.709246e+001
1.272263e+003, 4.789943e+001
1.272745e+003, 4.815829e+001
1.273227e+003, 4.739537e+001
1.273709e+003, 4.682273e+001
1.274191e+003, 4.763822e+001
1.274673e+003, 4.816335e+001
1.275156e+003, 4.695846e+001
1.275638e+003, 4.586324e+001
1.276120e+003, 4.642431e+001
1.276602e+003, 4.750566e+001
1.277084e+003, 4.782421e+001
1.277566e+003, 4.750763e+001
1.278048e+003, 4.713913e+001
1.278530e+003, 4.669069e+001
1.279012e+003, 4.648466e+001
1.279495e+003, 4.658635e+001
1.279977e+003, 4.664730e+001
1.280459e+003, 4.656836e+001
1.280941e+003, 4.694242e+001
1.281423e+003, 4.808487e+001
1.281905e+003, 4.875001e+001
1.282387e+003, 4.788386e+001
1.282869e+003, 4.636777e+001
1.283352e+003, 4.562791e+001
1.283834e+003, 4.540092e+001
1.284316e+003, 4.512371e+001
1.284798e+003, 4.479822e+001
##END=



