##NAMES=Eirikite
##RRUFFID=R120006
##IDEAL CHEMISTRY=KNa_6_Be_2_(Si_15_Al_3_)O_39_F_2_
##LOCALITY=Poudrette quarry, Mont Saint-Hilaire, Rouville RCM, Montérégie, Québec, Canada
##OWNER=RRUFF
##SOURCE=Donald Doell
##DESCRIPTION=Aggregate of parallel colorless acicular crystals
##STATUS=The identification of this mineral has been confirmed by single-crystal X-ray diffraction.
##URL=rruff.info/R120006
9.001007e+001, 0.000000e+000
9.049219e+001, 1.657130e+002
9.097430e+001, 1.661375e+002
9.145642e+001, 1.660832e+002
9.193854e+001, 1.655798e+002
9.242065e+001, 1.648746e+002
9.290277e+001, 1.641316e+002
9.338489e+001, 1.633351e+002
9.386700e+001, 1.624515e+002
9.434912e+001, 1.614731e+002
9.483124e+001, 1.604063e+002
9.531335e+001, 1.591869e+002
9.579547e+001, 1.577751e+002
9.627759e+001, 1.564693e+002
9.675970e+001, 1.557019e+002
9.724182e+001, 1.554370e+002
9.772394e+001, 1.551251e+002
9.820605e+001, 1.546231e+002
9.868817e+001, 1.539119e+002
9.917029e+001, 1.527320e+002
9.965240e+001, 1.509462e+002
1.001345e+002, 1.488940e+002
1.006166e+002, 1.472427e+002
1.010988e+002, 1.460222e+002
1.015809e+002, 1.450053e+002
1.020630e+002, 1.441617e+002
1.025451e+002, 1.435727e+002
1.030272e+002, 1.426835e+002
1.035093e+002, 1.413269e+002
1.039915e+002, 1.396574e+002
1.044736e+002, 1.382439e+002
1.049557e+002, 1.370763e+002
1.054378e+002, 1.361976e+002
1.059199e+002, 1.356759e+002
1.064020e+002, 1.357195e+002
1.068842e+002, 1.357385e+002
1.073663e+002, 1.357765e+002
1.078484e+002, 1.358407e+002
1.083305e+002, 1.353911e+002
1.088126e+002, 1.340729e+002
1.092947e+002, 1.324433e+002
1.097769e+002, 1.310084e+002
1.102590e+002, 1.294162e+002
1.107411e+002, 1.283797e+002
1.112232e+002, 1.282958e+002
1.117053e+002, 1.295403e+002
1.121874e+002, 1.300960e+002
1.126696e+002, 1.294079e+002
1.131517e+002, 1.280648e+002
1.136338e+002, 1.268297e+002
1.141159e+002, 1.259443e+002
1.145980e+002, 1.250850e+002
1.150801e+002, 1.240634e+002
1.155623e+002, 1.226647e+002
1.160444e+002, 1.215962e+002
1.165265e+002, 1.213694e+002
1.170086e+002, 1.216078e+002
1.174907e+002, 1.215405e+002
1.179728e+002, 1.206169e+002
1.184550e+002, 1.194704e+002
1.189371e+002, 1.184797e+002
1.194192e+002, 1.176872e+002
1.199013e+002, 1.171215e+002
1.203834e+002, 1.170498e+002
1.208655e+002, 1.173133e+002
1.213477e+002, 1.172890e+002
1.218298e+002, 1.164282e+002
1.223119e+002, 1.151750e+002
1.227940e+002, 1.139822e+002
1.232761e+002, 1.128138e+002
1.237582e+002, 1.119115e+002
1.242404e+002, 1.116462e+002
1.247225e+002, 1.119700e+002
1.252046e+002, 1.122930e+002
1.256867e+002, 1.121789e+002
1.261688e+002, 1.117466e+002
1.266509e+002, 1.112101e+002
1.271331e+002, 1.105313e+002
1.276152e+002, 1.098377e+002
1.280973e+002, 1.093272e+002
1.285794e+002, 1.090065e+002
1.290615e+002, 1.087884e+002
1.295436e+002, 1.086480e+002
1.300258e+002, 1.085563e+002
1.305079e+002, 1.083924e+002
1.309900e+002, 1.081172e+002
1.314721e+002, 1.077287e+002
1.319542e+002, 1.071643e+002
1.324363e+002, 1.063780e+002
1.329185e+002, 1.055549e+002
1.334006e+002, 1.049231e+002
1.338827e+002, 1.044802e+002
1.343648e+002, 1.042600e+002
1.348469e+002, 1.043538e+002
1.353290e+002, 1.047385e+002
1.358112e+002, 1.051165e+002
1.362933e+002, 1.055221e+002
1.367754e+002, 1.058388e+002
1.372575e+002, 1.057030e+002
1.377396e+002, 1.050134e+002
1.382217e+002, 1.043214e+002
1.387039e+002, 1.040783e+002
1.391860e+002, 1.044000e+002
1.396681e+002, 1.042778e+002
1.401502e+002, 1.033793e+002
1.406323e+002, 1.019893e+002
1.411144e+002, 1.014091e+002
1.415966e+002, 1.019562e+002
1.420787e+002, 1.027083e+002
1.425608e+002, 1.029146e+002
1.430429e+002, 1.023197e+002
1.435250e+002, 1.019118e+002
1.440071e+002, 1.019236e+002
1.444893e+002, 1.023296e+002
1.449714e+002, 1.024860e+002
1.454535e+002, 1.023665e+002
1.459356e+002, 1.020181e+002
1.464177e+002, 1.014223e+002
1.468998e+002, 1.000578e+002
1.473820e+002, 9.925639e+001
1.478641e+002, 9.939337e+001
1.483462e+002, 1.006243e+002
1.488283e+002, 1.017095e+002
1.493104e+002, 1.025761e+002
1.497925e+002, 1.033359e+002
1.502747e+002, 1.041293e+002
1.507568e+002, 1.046196e+002
1.512389e+002, 1.054686e+002
1.517210e+002, 1.067602e+002
1.522031e+002, 1.083752e+002
1.526852e+002, 1.107678e+002
1.531674e+002, 1.141186e+002
1.536495e+002, 1.182277e+002
1.541316e+002, 1.228187e+002
1.546137e+002, 1.275949e+002
1.550958e+002, 1.330875e+002
1.555779e+002, 1.393769e+002
1.560601e+002, 1.462030e+002
1.565422e+002, 1.544078e+002
1.570243e+002, 1.645633e+002
1.575064e+002, 1.761257e+002
1.579885e+002, 1.880415e+002
1.584706e+002, 1.987718e+002
1.589528e+002, 2.107656e+002
1.594349e+002, 2.252346e+002
1.599170e+002, 2.430425e+002
1.603991e+002, 2.621289e+002
1.608812e+002, 2.812400e+002
1.613633e+002, 3.011111e+002
1.618455e+002, 3.236727e+002
1.623276e+002, 3.495710e+002
1.628097e+002, 3.782336e+002
1.632918e+002, 4.100408e+002
1.637739e+002, 4.463746e+002
1.642560e+002, 4.836847e+002
1.647382e+002, 5.210200e+002
1.652203e+002, 5.582483e+002
1.657024e+002, 5.948642e+002
1.661845e+002, 6.301000e+002
1.666666e+002, 6.650016e+002
1.671487e+002, 7.001915e+002
1.676309e+002, 7.380657e+002
1.681130e+002, 7.745179e+002
1.685951e+002, 8.061747e+002
1.690772e+002, 8.336459e+002
1.695593e+002, 8.597051e+002
1.700414e+002, 8.859638e+002
1.705236e+002, 9.118538e+002
1.710057e+002, 9.363185e+002
1.714878e+002, 9.582157e+002
1.719699e+002, 9.795446e+002
1.724520e+002, 1.001339e+003
1.729341e+002, 1.023714e+003
1.734163e+002, 1.047022e+003
1.738984e+002, 1.071107e+003
1.743805e+002, 1.096564e+003
1.748626e+002, 1.123572e+003
1.753447e+002, 1.153166e+003
1.758268e+002, 1.184325e+003
1.763090e+002, 1.215408e+003
1.767911e+002, 1.246130e+003
1.772732e+002, 1.279165e+003
1.777553e+002, 1.312474e+003
1.782374e+002, 1.343673e+003
1.787195e+002, 1.373484e+003
1.792017e+002, 1.401617e+003
1.796838e+002, 1.429302e+003
1.801659e+002, 1.457754e+003
1.806480e+002, 1.487281e+003
1.811301e+002, 1.517336e+003
1.816122e+002, 1.548522e+003
1.820944e+002, 1.580507e+003
1.825765e+002, 1.611344e+003
1.830586e+002, 1.640969e+003
1.835407e+002, 1.668888e+003
1.840228e+002, 1.695231e+003
1.845049e+002, 1.719710e+003
1.849871e+002, 1.743242e+003
1.854692e+002, 1.766491e+003
1.859513e+002, 1.789553e+003
1.864334e+002, 1.811652e+003
1.869155e+002, 1.832593e+003
1.873976e+002, 1.852427e+003
1.878798e+002, 1.871734e+003
1.883619e+002, 1.890530e+003
1.888440e+002, 1.908568e+003
1.893261e+002, 1.924547e+003
1.898082e+002, 1.938766e+003
1.902903e+002, 1.953378e+003
1.907725e+002, 1.970283e+003
1.912546e+002, 1.989042e+003
1.917367e+002, 2.005448e+003
1.922188e+002, 2.019042e+003
1.927009e+002, 2.031226e+003
1.931830e+002, 2.043463e+003
1.936652e+002, 2.055677e+003
1.941473e+002, 2.069074e+003
1.946294e+002, 2.084573e+003
1.951115e+002, 2.102000e+003
1.955936e+002, 2.119289e+003
1.960757e+002, 2.136277e+003
1.965579e+002, 2.153149e+003
1.970400e+002, 2.170279e+003
1.975221e+002, 2.187685e+003
1.980042e+002, 2.205086e+003
1.984863e+002, 2.222708e+003
1.989684e+002, 2.240498e+003
1.994506e+002, 2.257769e+003
1.999327e+002, 2.274399e+003
2.004148e+002, 2.290379e+003
2.008969e+002, 2.305642e+003
2.013790e+002, 2.320479e+003
2.018611e+002, 2.333979e+003
2.023433e+002, 2.345187e+003
2.028254e+002, 2.353885e+003
2.033075e+002, 2.363234e+003
2.037896e+002, 2.373541e+003
2.042717e+002, 2.384435e+003
2.047538e+002, 2.394978e+003
2.052360e+002, 2.405196e+003
2.057181e+002, 2.414832e+003
2.062002e+002, 2.423622e+003
2.066823e+002, 2.431435e+003
2.071644e+002, 2.438999e+003
2.076465e+002, 2.446396e+003
2.081287e+002, 2.453495e+003
2.086108e+002, 2.460210e+003
2.090929e+002, 2.466601e+003
2.095750e+002, 2.472411e+003
2.100571e+002, 2.477271e+003
2.105392e+002, 2.480980e+003
2.110214e+002, 2.484825e+003
2.115035e+002, 2.488935e+003
2.119856e+002, 2.493283e+003
2.124677e+002, 2.498112e+003
2.129498e+002, 2.504037e+003
2.134319e+002, 2.509258e+003
2.139140e+002, 2.512111e+003
2.143962e+002, 2.511239e+003
2.148783e+002, 2.513201e+003
2.153604e+002, 2.519216e+003
2.158425e+002, 2.528407e+003
2.163246e+002, 2.537089e+003
2.168067e+002, 2.545346e+003
2.172889e+002, 2.553052e+003
2.177710e+002, 2.560319e+003
2.182531e+002, 2.567448e+003
2.187352e+002, 2.573085e+003
2.192173e+002, 2.576673e+003
2.196994e+002, 2.578664e+003
2.201816e+002, 2.581073e+003
2.206637e+002, 2.583850e+003
2.211458e+002, 2.587049e+003
2.216279e+002, 2.590893e+003
2.221100e+002, 2.596135e+003
2.225921e+002, 2.599995e+003
2.230743e+002, 2.601890e+003
2.235564e+002, 2.602243e+003
2.240385e+002, 2.602932e+003
2.245206e+002, 2.603600e+003
2.250027e+002, 2.605230e+003
2.254848e+002, 2.608686e+003
2.259670e+002, 2.614969e+003
2.264491e+002, 2.620794e+003
2.269312e+002, 2.626164e+003
2.274133e+002, 2.630965e+003
2.278954e+002, 2.634570e+003
2.283775e+002, 2.635954e+003
2.288597e+002, 2.637574e+003
2.293418e+002, 2.641147e+003
2.298239e+002, 2.648087e+003
2.303060e+002, 2.653553e+003
2.307881e+002, 2.656537e+003
2.312702e+002, 2.657634e+003
2.317524e+002, 2.659638e+003
2.322345e+002, 2.662666e+003
2.327166e+002, 2.666246e+003
2.331987e+002, 2.670159e+003
2.336808e+002, 2.674761e+003
2.341629e+002, 2.678705e+003
2.346451e+002, 2.681628e+003
2.351272e+002, 2.683772e+003
2.356093e+002, 2.686348e+003
2.360914e+002, 2.689512e+003
2.365735e+002, 2.692893e+003
2.370556e+002, 2.696319e+003
2.375378e+002, 2.699869e+003
2.380199e+002, 2.703418e+003
2.385020e+002, 2.707101e+003
2.389841e+002, 2.710875e+003
2.394662e+002, 2.714364e+003
2.399483e+002, 2.717868e+003
2.404305e+002, 2.720848e+003
2.409126e+002, 2.722759e+003
2.413947e+002, 2.722097e+003
2.418768e+002, 2.723954e+003
2.423589e+002, 2.729674e+003
2.428410e+002, 2.738009e+003
2.433232e+002, 2.744591e+003
2.438053e+002, 2.748606e+003
2.442874e+002, 2.751904e+003
2.447695e+002, 2.755256e+003
2.452516e+002, 2.758424e+003
2.457337e+002, 2.762099e+003
2.462159e+002, 2.766581e+003
2.466980e+002, 2.771472e+003
2.471801e+002, 2.775408e+003
2.476622e+002, 2.777754e+003
2.481443e+002, 2.780055e+003
2.486264e+002, 2.783026e+003
2.491086e+002, 2.786964e+003
2.495907e+002, 2.790890e+003
2.500728e+002, 2.794972e+003
2.505549e+002, 2.799009e+003
2.510370e+002, 2.802401e+003
2.515191e+002, 2.804895e+003
2.520013e+002, 2.807264e+003
2.524834e+002, 2.809917e+003
2.529655e+002, 2.813031e+003
2.534476e+002, 2.815989e+003
2.539297e+002, 2.818510e+003
2.544118e+002, 2.821041e+003
2.548940e+002, 2.824972e+003
2.553761e+002, 2.831860e+003
2.558582e+002, 2.837389e+003
2.563403e+002, 2.839414e+003
2.568224e+002, 2.836702e+003
2.573046e+002, 2.834328e+003
2.577867e+002, 2.832105e+003
2.582688e+002, 2.830262e+003
2.587509e+002, 2.829519e+003
2.592330e+002, 2.830648e+003
2.597151e+002, 2.831190e+003
2.601973e+002, 2.829736e+003
2.606794e+002, 2.825376e+003
2.611615e+002, 2.823280e+003
2.616436e+002, 2.824191e+003
2.621257e+002, 2.826766e+003
2.626078e+002, 2.828933e+003
2.630900e+002, 2.830871e+003
2.635721e+002, 2.832085e+003
2.640542e+002, 2.832205e+003
2.645363e+002, 2.831019e+003
2.650184e+002, 2.830692e+003
2.655005e+002, 2.831735e+003
2.659827e+002, 2.833154e+003
2.664648e+002, 2.833017e+003
2.669469e+002, 2.830155e+003
2.674290e+002, 2.829270e+003
2.679111e+002, 2.832637e+003
2.683932e+002, 2.840638e+003
2.688754e+002, 2.845713e+003
2.693575e+002, 2.846898e+003
2.698396e+002, 2.846517e+003
2.703217e+002, 2.847159e+003
2.708038e+002, 2.848640e+003
2.712859e+002, 2.851673e+003
2.717681e+002, 2.857152e+003
2.722502e+002, 2.864869e+003
2.727323e+002, 2.869793e+003
2.732144e+002, 2.870887e+003
2.736965e+002, 2.871081e+003
2.741786e+002, 2.873926e+003
2.746608e+002, 2.880171e+003
2.751429e+002, 2.885135e+003
2.756250e+002, 2.887333e+003
2.761071e+002, 2.887185e+003
2.765892e+002, 2.887897e+003
2.770714e+002, 2.889637e+003
2.775535e+002, 2.891742e+003
2.780356e+002, 2.893763e+003
2.785177e+002, 2.895736e+003
2.789998e+002, 2.896997e+003
2.794819e+002, 2.897080e+003
2.799641e+002, 2.896390e+003
2.804462e+002, 2.897076e+003
2.809283e+002, 2.899535e+003
2.814104e+002, 2.901616e+003
2.818925e+002, 2.901140e+003
2.823746e+002, 2.898074e+003
2.828568e+002, 2.895762e+003
2.833389e+002, 2.894846e+003
2.838210e+002, 2.895064e+003
2.843031e+002, 2.895658e+003
2.847852e+002, 2.896688e+003
2.852673e+002, 2.898286e+003
2.857495e+002, 2.901151e+003
2.862316e+002, 2.905154e+003
2.867137e+002, 2.907844e+003
2.871958e+002, 2.908656e+003
2.876779e+002, 2.908477e+003
2.881600e+002, 2.909122e+003
2.886422e+002, 2.910594e+003
2.891243e+002, 2.912026e+003
2.896064e+002, 2.912128e+003
2.900885e+002, 2.911383e+003
2.905706e+002, 2.912890e+003
2.910527e+002, 2.917438e+003
2.915349e+002, 2.922841e+003
2.920170e+002, 2.925188e+003
2.924991e+002, 2.924692e+003
2.929812e+002, 2.924482e+003
2.934633e+002, 2.926639e+003
2.939454e+002, 2.930427e+003
2.944276e+002, 2.933459e+003
2.949097e+002, 2.935461e+003
2.953918e+002, 2.937268e+003
2.958739e+002, 2.939887e+003
2.963560e+002, 2.943217e+003
2.968381e+002, 2.946875e+003
2.973203e+002, 2.951597e+003
2.978024e+002, 2.956339e+003
2.982845e+002, 2.958872e+003
2.987666e+002, 2.959082e+003
2.992487e+002, 2.957941e+003
2.997308e+002, 2.955234e+003
3.002130e+002, 2.951778e+003
3.006951e+002, 2.949973e+003
3.011772e+002, 2.951885e+003
3.016593e+002, 2.955427e+003
3.021414e+002, 2.957594e+003
3.026235e+002, 2.958382e+003
3.031057e+002, 2.958963e+003
3.035878e+002, 2.960753e+003
3.040699e+002, 2.962971e+003
3.045520e+002, 2.964073e+003
3.050341e+002, 2.962631e+003
3.055162e+002, 2.960736e+003
3.059984e+002, 2.960695e+003
3.064805e+002, 2.962313e+003
3.069626e+002, 2.964213e+003
3.074447e+002, 2.965331e+003
3.079268e+002, 2.966210e+003
3.084089e+002, 2.967633e+003
3.088911e+002, 2.970283e+003
3.093732e+002, 2.972792e+003
3.098553e+002, 2.973775e+003
3.103374e+002, 2.973620e+003
3.108195e+002, 2.973655e+003
3.113016e+002, 2.975109e+003
3.117838e+002, 2.976827e+003
3.122659e+002, 2.977801e+003
3.127480e+002, 2.977756e+003
3.132301e+002, 2.977062e+003
3.137122e+002, 2.975321e+003
3.141943e+002, 2.973069e+003
3.146765e+002, 2.971484e+003
3.151586e+002, 2.971572e+003
3.156407e+002, 2.972166e+003
3.161228e+002, 2.972597e+003
3.166049e+002, 2.972788e+003
3.170870e+002, 2.972833e+003
3.175692e+002, 2.972985e+003
3.180513e+002, 2.972989e+003
3.185334e+002, 2.972480e+003
3.190155e+002, 2.970213e+003
3.194976e+002, 2.968391e+003
3.199797e+002, 2.968253e+003
3.204619e+002, 2.970021e+003
3.209440e+002, 2.971621e+003
3.214261e+002, 2.971900e+003
3.219082e+002, 2.971904e+003
3.223903e+002, 2.972622e+003
3.228724e+002, 2.975668e+003
3.233546e+002, 2.977965e+003
3.238367e+002, 2.978035e+003
3.243188e+002, 2.975981e+003
3.248009e+002, 2.975151e+003
3.252830e+002, 2.977019e+003
3.257651e+002, 2.979745e+003
3.262473e+002, 2.982159e+003
3.267294e+002, 2.984660e+003
3.272115e+002, 2.986388e+003
3.276936e+002, 2.986771e+003
3.281757e+002, 2.986217e+003
3.286578e+002, 2.986558e+003
3.291400e+002, 2.988213e+003
3.296221e+002, 2.990553e+003
3.301042e+002, 2.993433e+003
3.305863e+002, 2.997932e+003
3.310684e+002, 3.001209e+003
3.315505e+002, 3.002469e+003
3.320327e+002, 3.002582e+003
3.325148e+002, 3.003442e+003
3.329969e+002, 3.005012e+003
3.334790e+002, 3.007185e+003
3.339611e+002, 3.009995e+003
3.344432e+002, 3.013567e+003
3.349254e+002, 3.016779e+003
3.354075e+002, 3.019090e+003
3.358896e+002, 3.021297e+003
3.363717e+002, 3.024861e+003
3.368538e+002, 3.030882e+003
3.373359e+002, 3.035351e+003
3.378180e+002, 3.036667e+003
3.383001e+002, 3.034910e+003
3.387823e+002, 3.034374e+003
3.392644e+002, 3.035345e+003
3.397465e+002, 3.037127e+003
3.402286e+002, 3.039564e+003
3.407107e+002, 3.043085e+003
3.411928e+002, 3.044777e+003
3.416750e+002, 3.043301e+003
3.421571e+002, 3.039893e+003
3.426392e+002, 3.039801e+003
3.431213e+002, 3.043616e+003
3.436034e+002, 3.047767e+003
3.440855e+002, 3.049737e+003
3.445677e+002, 3.049589e+003
3.450498e+002, 3.048740e+003
3.455319e+002, 3.046850e+003
3.460140e+002, 3.045184e+003
3.464961e+002, 3.046571e+003
3.469782e+002, 3.050895e+003
3.474604e+002, 3.055664e+003
3.479425e+002, 3.059265e+003
3.484246e+002, 3.062129e+003
3.489067e+002, 3.065913e+003
3.493888e+002, 3.070882e+003
3.498709e+002, 3.075881e+003
3.503531e+002, 3.079187e+003
3.508352e+002, 3.081226e+003
3.513173e+002, 3.083577e+003
3.517994e+002, 3.087188e+003
3.522815e+002, 3.091433e+003
3.527636e+002, 3.095551e+003
3.532458e+002, 3.099509e+003
3.537279e+002, 3.102716e+003
3.542100e+002, 3.104178e+003
3.546921e+002, 3.104578e+003
3.551742e+002, 3.105143e+003
3.556563e+002, 3.106575e+003
3.561385e+002, 3.107939e+003
3.566206e+002, 3.107916e+003
3.571027e+002, 3.106831e+003
3.575848e+002, 3.106349e+003
3.580669e+002, 3.107893e+003
3.585490e+002, 3.110305e+003
3.590312e+002, 3.112435e+003
3.595133e+002, 3.113871e+003
3.599954e+002, 3.115574e+003
3.604775e+002, 3.118367e+003
3.609596e+002, 3.121898e+003
3.614417e+002, 3.125336e+003
3.619239e+002, 3.127616e+003
3.624060e+002, 3.130365e+003
3.628881e+002, 3.134678e+003
3.633702e+002, 3.140953e+003
3.638523e+002, 3.147353e+003
3.643344e+002, 3.153027e+003
3.648166e+002, 3.158611e+003
3.652987e+002, 3.164882e+003
3.657808e+002, 3.172837e+003
3.662629e+002, 3.180524e+003
3.667450e+002, 3.187237e+003
3.672271e+002, 3.192962e+003
3.677093e+002, 3.198924e+003
3.681914e+002, 3.205289e+003
3.686735e+002, 3.211866e+003
3.691556e+002, 3.218564e+003
3.696377e+002, 3.223922e+003
3.701198e+002, 3.231004e+003
3.706020e+002, 3.241113e+003
3.710841e+002, 3.253151e+003
3.715662e+002, 3.263127e+003
3.720483e+002, 3.269119e+003
3.725304e+002, 3.275173e+003
3.730125e+002, 3.282899e+003
3.734947e+002, 3.292496e+003
3.739768e+002, 3.303009e+003
3.744589e+002, 3.314594e+003
3.749410e+002, 3.327088e+003
3.754231e+002, 3.340286e+003
3.759052e+002, 3.354779e+003
3.763874e+002, 3.368711e+003
3.768695e+002, 3.381150e+003
3.773516e+002, 3.392365e+003
3.778337e+002, 3.404729e+003
3.783158e+002, 3.418616e+003
3.787979e+002, 3.433279e+003
3.792801e+002, 3.448863e+003
3.797622e+002, 3.465742e+003
3.802443e+002, 3.479067e+003
3.807264e+002, 3.488150e+003
3.812085e+002, 3.493063e+003
3.816906e+002, 3.493707e+003
3.821728e+002, 3.490040e+003
3.826549e+002, 3.483518e+003
3.831370e+002, 3.474913e+003
3.836191e+002, 3.464128e+003
3.841012e+002, 3.450785e+003
3.845833e+002, 3.434103e+003
3.850655e+002, 3.416564e+003
3.855476e+002, 3.401635e+003
3.860297e+002, 3.388643e+003
3.865118e+002, 3.376070e+003
3.869939e+002, 3.362063e+003
3.874760e+002, 3.348358e+003
3.879582e+002, 3.337757e+003
3.884403e+002, 3.330267e+003
3.889224e+002, 3.323910e+003
3.894045e+002, 3.317698e+003
3.898866e+002, 3.311581e+003
3.903687e+002, 3.305348e+003
3.908509e+002, 3.298069e+003
3.913330e+002, 3.291807e+003
3.918151e+002, 3.288800e+003
3.922972e+002, 3.288337e+003
3.927793e+002, 3.287375e+003
3.932614e+002, 3.283547e+003
3.937436e+002, 3.279214e+003
3.942257e+002, 3.275979e+003
3.947078e+002, 3.274381e+003
3.951899e+002, 3.273263e+003
3.956720e+002, 3.272401e+003
3.961541e+002, 3.271678e+003
3.966363e+002, 3.270920e+003
3.971184e+002, 3.269726e+003
3.976005e+002, 3.268781e+003
3.980826e+002, 3.268583e+003
3.985647e+002, 3.269326e+003
3.990468e+002, 3.269235e+003
3.995290e+002, 3.267761e+003
4.000111e+002, 3.265598e+003
4.004932e+002, 3.263268e+003
4.009753e+002, 3.259795e+003
4.014574e+002, 3.257513e+003
4.019395e+002, 3.256940e+003
4.024217e+002, 3.257808e+003
4.029038e+002, 3.258723e+003
4.033859e+002, 3.258824e+003
4.038680e+002, 3.260266e+003
4.043501e+002, 3.264566e+003
4.048322e+002, 3.272987e+003
4.053144e+002, 3.279666e+003
4.057965e+002, 3.284134e+003
4.062786e+002, 3.287324e+003
4.067607e+002, 3.290429e+003
4.072428e+002, 3.293303e+003
4.077249e+002, 3.296867e+003
4.082071e+002, 3.301450e+003
4.086892e+002, 3.306962e+003
4.091713e+002, 3.312599e+003
4.096534e+002, 3.318258e+003
4.101355e+002, 3.324711e+003
4.106176e+002, 3.333641e+003
4.110998e+002, 3.344416e+003
4.115819e+002, 3.352874e+003
4.120640e+002, 3.357499e+003
4.125461e+002, 3.360633e+003
4.130282e+002, 3.366627e+003
4.135103e+002, 3.374938e+003
4.139925e+002, 3.382539e+003
4.144746e+002, 3.386794e+003
4.149567e+002, 3.389566e+003
4.154388e+002, 3.394180e+003
4.159209e+002, 3.401217e+003
4.164030e+002, 3.407531e+003
4.168852e+002, 3.410816e+003
4.173673e+002, 3.411639e+003
4.178494e+002, 3.410970e+003
4.183315e+002, 3.408800e+003
4.188136e+002, 3.405656e+003
4.192957e+002, 3.401126e+003
4.197779e+002, 3.395605e+003
4.202600e+002, 3.391176e+003
4.207421e+002, 3.389323e+003
4.212242e+002, 3.388705e+003
4.217063e+002, 3.388633e+003
4.221884e+002, 3.390094e+003
4.226706e+002, 3.390056e+003
4.231527e+002, 3.386159e+003
4.236348e+002, 3.380465e+003
4.241169e+002, 3.376825e+003
4.245990e+002, 3.379277e+003
4.250811e+002, 3.380437e+003
4.255633e+002, 3.378107e+003
4.260454e+002, 3.372029e+003
4.265275e+002, 3.363821e+003
4.270096e+002, 3.350872e+003
4.274917e+002, 3.337648e+003
4.279738e+002, 3.327759e+003
4.284560e+002, 3.322056e+003
4.289381e+002, 3.317934e+003
4.294202e+002, 3.315864e+003
4.299023e+002, 3.315035e+003
4.303844e+002, 3.312219e+003
4.308665e+002, 3.306532e+003
4.313487e+002, 3.301406e+003
4.318308e+002, 3.298826e+003
4.323129e+002, 3.298944e+003
4.327950e+002, 3.298807e+003
4.332771e+002, 3.298259e+003
4.337592e+002, 3.297908e+003
4.342414e+002, 3.298964e+003
4.347235e+002, 3.301284e+003
4.352056e+002, 3.302839e+003
4.356877e+002, 3.302844e+003
4.361698e+002, 3.301847e+003
4.366519e+002, 3.300553e+003
4.371341e+002, 3.299044e+003
4.376162e+002, 3.298335e+003
4.380983e+002, 3.299442e+003
4.385804e+002, 3.301797e+003
4.390625e+002, 3.304504e+003
4.395446e+002, 3.307505e+003
4.400268e+002, 3.310560e+003
4.405089e+002, 3.312805e+003
4.409910e+002, 3.314967e+003
4.414731e+002, 3.318476e+003
4.419552e+002, 3.326067e+003
4.424373e+002, 3.333556e+003
4.429195e+002, 3.337813e+003
4.434016e+002, 3.338803e+003
4.438837e+002, 3.340037e+003
4.443658e+002, 3.342827e+003
4.448479e+002, 3.346448e+003
4.453300e+002, 3.350327e+003
4.458122e+002, 3.355252e+003
4.462943e+002, 3.359205e+003
4.467764e+002, 3.361766e+003
4.472585e+002, 3.363104e+003
4.477406e+002, 3.363671e+003
4.482227e+002, 3.362021e+003
4.487049e+002, 3.361103e+003
4.491870e+002, 3.362174e+003
4.496691e+002, 3.365833e+003
4.501512e+002, 3.367909e+003
4.506333e+002, 3.367530e+003
4.511154e+002, 3.366585e+003
4.515976e+002, 3.366979e+003
4.520797e+002, 3.369241e+003
4.525618e+002, 3.371237e+003
4.530439e+002, 3.372565e+003
4.535260e+002, 3.373536e+003
4.540081e+002, 3.374800e+003
4.544903e+002, 3.376217e+003
4.549724e+002, 3.379038e+003
4.554545e+002, 3.384358e+003
4.559366e+002, 3.391847e+003
4.564187e+002, 3.399797e+003
4.569008e+002, 3.408167e+003
4.573830e+002, 3.416414e+003
4.578651e+002, 3.423098e+003
4.583472e+002, 3.428854e+003
4.588293e+002, 3.435694e+003
4.593114e+002, 3.445713e+003
4.597935e+002, 3.455616e+003
4.602757e+002, 3.460125e+003
4.607578e+002, 3.460278e+003
4.612399e+002, 3.461594e+003
4.617220e+002, 3.467994e+003
4.622041e+002, 3.476886e+003
4.626862e+002, 3.486168e+003
4.631684e+002, 3.495809e+003
4.636505e+002, 3.504603e+003
4.641326e+002, 3.510801e+003
4.646147e+002, 3.516084e+003
4.650968e+002, 3.522733e+003
4.655789e+002, 3.531329e+003
4.660611e+002, 3.541402e+003
4.665432e+002, 3.554348e+003
4.670253e+002, 3.569667e+003
4.675074e+002, 3.582249e+003
4.679895e+002, 3.589029e+003
4.684716e+002, 3.595003e+003
4.689538e+002, 3.602656e+003
4.694359e+002, 3.613695e+003
4.699180e+002, 3.622550e+003
4.704001e+002, 3.629735e+003
4.708822e+002, 3.634388e+003
4.713643e+002, 3.635227e+003
4.718465e+002, 3.631904e+003
4.723286e+002, 3.625572e+003
4.728107e+002, 3.616234e+003
4.732928e+002, 3.604156e+003
4.737749e+002, 3.589532e+003
4.742570e+002, 3.572020e+003
4.747392e+002, 3.553992e+003
4.752213e+002, 3.536070e+003
4.757034e+002, 3.518709e+003
4.761855e+002, 3.505453e+003
4.766676e+002, 3.497182e+003
4.771497e+002, 3.491381e+003
4.776319e+002, 3.484351e+003
4.781140e+002, 3.476955e+003
4.785961e+002, 3.472078e+003
4.790782e+002, 3.471970e+003
4.795603e+002, 3.474449e+003
4.800424e+002, 3.476581e+003
4.805246e+002, 3.478672e+003
4.810067e+002, 3.483089e+003
4.814888e+002, 3.493475e+003
4.819709e+002, 3.505598e+003
4.824530e+002, 3.515337e+003
4.829352e+002, 3.520503e+003
4.834173e+002, 3.526677e+003
4.838994e+002, 3.535974e+003
4.843815e+002, 3.547675e+003
4.848636e+002, 3.560602e+003
4.853457e+002, 3.573613e+003
4.858279e+002, 3.588611e+003
4.863100e+002, 3.606419e+003
4.867921e+002, 3.627175e+003
4.872742e+002, 3.648719e+003
4.877563e+002, 3.671445e+003
4.882384e+002, 3.694928e+003
4.887206e+002, 3.718854e+003
4.892027e+002, 3.743277e+003
4.896848e+002, 3.767947e+003
4.901669e+002, 3.793080e+003
4.906490e+002, 3.818325e+003
4.911311e+002, 3.843038e+003
4.916133e+002, 3.866552e+003
4.920954e+002, 3.892719e+003
4.925775e+002, 3.923229e+003
4.930596e+002, 3.957145e+003
4.935417e+002, 3.990572e+003
4.940238e+002, 4.023250e+003
4.945060e+002, 4.059366e+003
4.949881e+002, 4.102070e+003
4.954702e+002, 4.150266e+003
4.959523e+002, 4.202993e+003
4.964344e+002, 4.260150e+003
4.969165e+002, 4.320048e+003
4.973987e+002, 4.382316e+003
4.978808e+002, 4.446206e+003
4.983629e+002, 4.509104e+003
4.988450e+002, 4.570083e+003
4.993271e+002, 4.629785e+003
4.998092e+002, 4.690734e+003
5.002914e+002, 4.752051e+003
5.007735e+002, 4.803849e+003
5.012556e+002, 4.847897e+003
5.017377e+002, 4.878666e+003
5.022198e+002, 4.894019e+003
5.027019e+002, 4.896375e+003
5.031841e+002, 4.877124e+003
5.036662e+002, 4.830677e+003
5.041483e+002, 4.763667e+003
5.046304e+002, 4.683676e+003
5.051125e+002, 4.584862e+003
5.055946e+002, 4.483896e+003
5.060768e+002, 4.379309e+003
5.065589e+002, 4.273760e+003
5.070410e+002, 4.178112e+003
5.075231e+002, 4.092295e+003
5.080052e+002, 4.016672e+003
5.084873e+002, 3.951234e+003
5.089695e+002, 3.896822e+003
5.094516e+002, 3.849115e+003
5.099337e+002, 3.808383e+003
5.104158e+002, 3.772947e+003
5.108979e+002, 3.740874e+003
5.113800e+002, 3.712216e+003
5.118622e+002, 3.688933e+003
5.123443e+002, 3.672650e+003
5.128264e+002, 3.660241e+003
5.133085e+002, 3.647721e+003
5.137906e+002, 3.635362e+003
5.142728e+002, 3.624105e+003
5.147549e+002, 3.615502e+003
5.152370e+002, 3.607618e+003
5.157191e+002, 3.598082e+003
5.162012e+002, 3.586538e+003
5.166833e+002, 3.577297e+003
5.171655e+002, 3.574027e+003
5.176476e+002, 3.573007e+003
5.181297e+002, 3.571034e+003
5.186118e+002, 3.565143e+003
5.190939e+002, 3.561177e+003
5.195760e+002, 3.561697e+003
5.200582e+002, 3.564688e+003
5.205403e+002, 3.565209e+003
5.210224e+002, 3.560766e+003
5.215045e+002, 3.557298e+003
5.219866e+002, 3.556517e+003
5.224688e+002, 3.558401e+003
5.229509e+002, 3.560413e+003
5.234330e+002, 3.562435e+003
5.239151e+002, 3.564763e+003
5.243972e+002, 3.567835e+003
5.248793e+002, 3.571632e+003
5.253615e+002, 3.574996e+003
5.258436e+002, 3.577969e+003
5.263257e+002, 3.580039e+003
5.268078e+002, 3.579728e+003
5.272899e+002, 3.577551e+003
5.277720e+002, 3.576047e+003
5.282542e+002, 3.576703e+003
5.287363e+002, 3.578181e+003
5.292184e+002, 3.578328e+003
5.297005e+002, 3.577484e+003
5.301826e+002, 3.577511e+003
5.306647e+002, 3.581568e+003
5.311469e+002, 3.585806e+003
5.316290e+002, 3.586605e+003
5.321111e+002, 3.582859e+003
5.325932e+002, 3.578851e+003
5.330753e+002, 3.576346e+003
5.335574e+002, 3.574464e+003
5.340396e+002, 3.572331e+003
5.345217e+002, 3.569331e+003
5.350038e+002, 3.566683e+003
5.354859e+002, 3.564614e+003
5.359680e+002, 3.563042e+003
5.364501e+002, 3.561789e+003
5.369323e+002, 3.561590e+003
5.374144e+002, 3.560421e+003
5.378965e+002, 3.556892e+003
5.383786e+002, 3.550883e+003
5.388607e+002, 3.547841e+003
5.393428e+002, 3.548420e+003
5.398250e+002, 3.549884e+003
5.403071e+002, 3.549115e+003
5.407892e+002, 3.546499e+003
5.412713e+002, 3.546458e+003
5.417534e+002, 3.550446e+003
5.422355e+002, 3.554944e+003
5.427177e+002, 3.554236e+003
5.431998e+002, 3.549771e+003
5.436819e+002, 3.546194e+003
5.441640e+002, 3.546005e+003
5.446461e+002, 3.547467e+003
5.451282e+002, 3.549415e+003
5.456104e+002, 3.551760e+003
5.460925e+002, 3.553973e+003
5.465746e+002, 3.556442e+003
5.470567e+002, 3.558244e+003
5.475388e+002, 3.558434e+003
5.480209e+002, 3.556125e+003
5.485031e+002, 3.554818e+003
5.489852e+002, 3.555371e+003
5.494673e+002, 3.557192e+003
5.499494e+002, 3.559730e+003
5.504315e+002, 3.564401e+003
5.509136e+002, 3.567432e+003
5.513958e+002, 3.567864e+003
5.518779e+002, 3.566502e+003
5.523600e+002, 3.565645e+003
5.528421e+002, 3.565208e+003
5.533242e+002, 3.565503e+003
5.538063e+002, 3.567133e+003
5.542885e+002, 3.569784e+003
5.547706e+002, 3.570775e+003
5.552527e+002, 3.570005e+003
5.557348e+002, 3.568776e+003
5.562169e+002, 3.568019e+003
5.566990e+002, 3.567719e+003
5.571812e+002, 3.567968e+003
5.576633e+002, 3.568994e+003
5.581454e+002, 3.569855e+003
5.586275e+002, 3.569237e+003
5.591096e+002, 3.567906e+003
5.595917e+002, 3.567181e+003
5.600739e+002, 3.568319e+003
5.605560e+002, 3.569543e+003
5.610381e+002, 3.569863e+003
5.615202e+002, 3.569466e+003
5.620023e+002, 3.569244e+003
5.624844e+002, 3.569169e+003
5.629666e+002, 3.569483e+003
5.634487e+002, 3.570420e+003
5.639308e+002, 3.572150e+003
5.644129e+002, 3.573500e+003
5.648950e+002, 3.574486e+003
5.653771e+002, 3.575010e+003
5.658593e+002, 3.574849e+003
5.663414e+002, 3.573726e+003
5.668235e+002, 3.572867e+003
5.673056e+002, 3.572127e+003
5.677877e+002, 3.572074e+003
5.682698e+002, 3.574462e+003
5.687520e+002, 3.579132e+003
5.692341e+002, 3.582760e+003
5.697162e+002, 3.583854e+003
5.701983e+002, 3.583398e+003
5.706804e+002, 3.582880e+003
5.711625e+002, 3.582390e+003
5.716447e+002, 3.582266e+003
5.721268e+002, 3.582662e+003
5.726089e+002, 3.583633e+003
5.730910e+002, 3.585439e+003
5.735731e+002, 3.588277e+003
5.740552e+002, 3.590906e+003
5.745374e+002, 3.592877e+003
5.750195e+002, 3.594331e+003
5.755016e+002, 3.595393e+003
5.759837e+002, 3.594782e+003
5.764658e+002, 3.595278e+003
5.769479e+002, 3.597589e+003
5.774301e+002, 3.600919e+003
5.779122e+002, 3.603731e+003
5.783943e+002, 3.605475e+003
5.788764e+002, 3.607591e+003
5.793585e+002, 3.610471e+003
5.798406e+002, 3.613985e+003
5.803228e+002, 3.617934e+003
5.808049e+002, 3.622600e+003
5.812870e+002, 3.625806e+003
5.817691e+002, 3.624500e+003
5.822512e+002, 3.620324e+003
5.827333e+002, 3.620833e+003
5.832155e+002, 3.627012e+003
5.836975e+002, 3.633036e+003
5.841796e+002, 3.632409e+003
5.846617e+002, 3.628304e+003
5.851439e+002, 3.625985e+003
5.856260e+002, 3.627489e+003
5.861081e+002, 3.630153e+003
5.865902e+002, 3.633834e+003
5.870723e+002, 3.637399e+003
5.875544e+002, 3.638600e+003
5.880366e+002, 3.633370e+003
5.885187e+002, 3.629117e+003
5.890008e+002, 3.628714e+003
5.894829e+002, 3.631948e+003
5.899650e+002, 3.634132e+003
5.904471e+002, 3.634254e+003
5.909293e+002, 3.634449e+003
5.914114e+002, 3.636057e+003
5.918935e+002, 3.639542e+003
5.923756e+002, 3.640419e+003
5.928577e+002, 3.637888e+003
5.933398e+002, 3.634846e+003
5.938220e+002, 3.634521e+003
5.943041e+002, 3.636599e+003
5.947862e+002, 3.638714e+003
5.952683e+002, 3.640791e+003
5.957504e+002, 3.641967e+003
5.962325e+002, 3.640025e+003
5.967147e+002, 3.636265e+003
5.971968e+002, 3.634024e+003
5.976789e+002, 3.636502e+003
5.981610e+002, 3.639641e+003
5.986431e+002, 3.640491e+003
5.991252e+002, 3.639437e+003
5.996074e+002, 3.638331e+003
6.000895e+002, 3.638316e+003
6.005716e+002, 3.637984e+003
6.010537e+002, 3.636231e+003
6.015358e+002, 3.632336e+003
6.020179e+002, 3.630310e+003
6.025001e+002, 3.631118e+003
6.029822e+002, 3.632882e+003
6.034643e+002, 3.634156e+003
6.039464e+002, 3.634616e+003
6.044285e+002, 3.636093e+003
6.049106e+002, 3.639108e+003
6.053928e+002, 3.642452e+003
6.058749e+002, 3.643924e+003
6.063570e+002, 3.643710e+003
6.068391e+002, 3.644393e+003
6.073212e+002, 3.647344e+003
6.078033e+002, 3.650807e+003
6.082855e+002, 3.651321e+003
6.087676e+002, 3.649785e+003
6.092497e+002, 3.649611e+003
6.097318e+002, 3.655426e+003
6.102139e+002, 3.661268e+003
6.106960e+002, 3.660983e+003
6.111782e+002, 3.654584e+003
6.116603e+002, 3.650750e+003
6.121424e+002, 3.655619e+003
6.126245e+002, 3.661730e+003
6.131066e+002, 3.664242e+003
6.135887e+002, 3.660490e+003
6.140709e+002, 3.658725e+003
6.145530e+002, 3.660126e+003
6.150351e+002, 3.662549e+003
6.155172e+002, 3.663592e+003
6.159993e+002, 3.662788e+003
6.164814e+002, 3.662976e+003
6.169636e+002, 3.664761e+003
6.174457e+002, 3.667428e+003
6.179278e+002, 3.669883e+003
6.184099e+002, 3.672068e+003
6.188920e+002, 3.673614e+003
6.193741e+002, 3.673832e+003
6.198563e+002, 3.673646e+003
6.203384e+002, 3.674669e+003
6.208205e+002, 3.676601e+003
6.213026e+002, 3.678081e+003
6.217847e+002, 3.677354e+003
6.222668e+002, 3.676543e+003
6.227490e+002, 3.677895e+003
6.232311e+002, 3.681949e+003
6.237132e+002, 3.684103e+003
6.241953e+002, 3.681911e+003
6.246774e+002, 3.678326e+003
6.251595e+002, 3.675344e+003
6.256417e+002, 3.672734e+003
6.261238e+002, 3.671610e+003
6.266059e+002, 3.672775e+003
6.270880e+002, 3.674705e+003
6.275701e+002, 3.674846e+003
6.280522e+002, 3.672830e+003
6.285344e+002, 3.673142e+003
6.290165e+002, 3.677400e+003
6.294986e+002, 3.683464e+003
6.299807e+002, 3.687470e+003
6.304628e+002, 3.689582e+003
6.309449e+002, 3.690696e+003
6.314271e+002, 3.689458e+003
6.319092e+002, 3.688547e+003
6.323913e+002, 3.691843e+003
6.328734e+002, 3.698602e+003
6.333555e+002, 3.704242e+003
6.338376e+002, 3.706287e+003
6.343198e+002, 3.706613e+003
6.348019e+002, 3.705868e+003
6.352840e+002, 3.703655e+003
6.357661e+002, 3.702796e+003
6.362482e+002, 3.704891e+003
6.367303e+002, 3.707342e+003
6.372125e+002, 3.708200e+003
6.376946e+002, 3.706396e+003
6.381767e+002, 3.706437e+003
6.386588e+002, 3.709093e+003
6.391409e+002, 3.712683e+003
6.396230e+002, 3.714300e+003
6.401052e+002, 3.714189e+003
6.405873e+002, 3.716128e+003
6.410694e+002, 3.722437e+003
6.415515e+002, 3.728913e+003
6.420336e+002, 3.727408e+003
6.425157e+002, 3.720502e+003
6.429979e+002, 3.715702e+003
6.434800e+002, 3.718335e+003
6.439621e+002, 3.723048e+003
6.444442e+002, 3.726846e+003
6.449263e+002, 3.729629e+003
6.454084e+002, 3.731277e+003
6.458906e+002, 3.730658e+003
6.463727e+002, 3.729831e+003
6.468548e+002, 3.729813e+003
6.473369e+002, 3.730744e+003
6.478190e+002, 3.731633e+003
6.483011e+002, 3.732895e+003
6.487833e+002, 3.733499e+003
6.492654e+002, 3.731859e+003
6.497475e+002, 3.727527e+003
6.502296e+002, 3.726849e+003
6.507117e+002, 3.730691e+003
6.511938e+002, 3.736147e+003
6.516760e+002, 3.739724e+003
6.521581e+002, 3.741938e+003
6.526402e+002, 3.744317e+003
6.531223e+002, 3.747410e+003
6.536044e+002, 3.750419e+003
6.540865e+002, 3.752798e+003
6.545687e+002, 3.754581e+003
6.550508e+002, 3.755879e+003
6.555329e+002, 3.755334e+003
6.560150e+002, 3.755758e+003
6.564971e+002, 3.759462e+003
6.569792e+002, 3.765462e+003
6.574614e+002, 3.768502e+003
6.579435e+002, 3.765978e+003
6.584256e+002, 3.763916e+003
6.589077e+002, 3.764781e+003
6.593898e+002, 3.768360e+003
6.598719e+002, 3.768903e+003
6.603541e+002, 3.765681e+003
6.608362e+002, 3.762814e+003
6.613183e+002, 3.763609e+003
6.618004e+002, 3.767222e+003
6.622825e+002, 3.770673e+003
6.627646e+002, 3.773853e+003
6.632468e+002, 3.776020e+003
6.637289e+002, 3.775584e+003
6.642110e+002, 3.774141e+003
6.646931e+002, 3.773916e+003
6.651752e+002, 3.775995e+003
6.656573e+002, 3.777845e+003
6.661395e+002, 3.777764e+003
6.666216e+002, 3.777127e+003
6.671037e+002, 3.777618e+003
6.675858e+002, 3.781281e+003
6.680679e+002, 3.783757e+003
6.685500e+002, 3.784055e+003
6.690322e+002, 3.783259e+003
6.695143e+002, 3.784099e+003
6.699964e+002, 3.787193e+003
6.704785e+002, 3.788735e+003
6.709606e+002, 3.787059e+003
6.714427e+002, 3.783351e+003
6.719249e+002, 3.780323e+003
6.724070e+002, 3.778051e+003
6.728891e+002, 3.777446e+003
6.733712e+002, 3.780279e+003
6.738533e+002, 3.784342e+003
6.743354e+002, 3.787064e+003
6.748176e+002, 3.788496e+003
6.752997e+002, 3.789831e+003
6.757818e+002, 3.791935e+003
6.762639e+002, 3.793937e+003
6.767460e+002, 3.795116e+003
6.772281e+002, 3.794952e+003
6.777103e+002, 3.795754e+003
6.781924e+002, 3.798135e+003
6.786745e+002, 3.800946e+003
6.791566e+002, 3.803172e+003
6.796387e+002, 3.804422e+003
6.801208e+002, 3.807280e+003
6.806030e+002, 3.812392e+003
6.810851e+002, 3.817790e+003
6.815672e+002, 3.821084e+003
6.820493e+002, 3.822556e+003
6.825314e+002, 3.823522e+003
6.830135e+002, 3.824068e+003
6.834957e+002, 3.824652e+003
6.839778e+002, 3.825771e+003
6.844599e+002, 3.827265e+003
6.849420e+002, 3.828801e+003
6.854241e+002, 3.831035e+003
6.859063e+002, 3.832513e+003
6.863884e+002, 3.831281e+003
6.868705e+002, 3.828697e+003
6.873526e+002, 3.829537e+003
6.878347e+002, 3.836598e+003
6.883168e+002, 3.843514e+003
6.887990e+002, 3.849073e+003
6.892811e+002, 3.853214e+003
6.897632e+002, 3.853961e+003
6.902453e+002, 3.850685e+003
6.907274e+002, 3.848500e+003
6.912095e+002, 3.851056e+003
6.916917e+002, 3.856928e+003
6.921738e+002, 3.862321e+003
6.926559e+002, 3.867097e+003
6.931380e+002, 3.871185e+003
6.936201e+002, 3.874628e+003
6.941022e+002, 3.877188e+003
6.945844e+002, 3.877910e+003
6.950665e+002, 3.876062e+003
6.955486e+002, 3.876325e+003
6.960307e+002, 3.881772e+003
6.965128e+002, 3.888958e+003
6.969949e+002, 3.895420e+003
6.974771e+002, 3.902220e+003
6.979592e+002, 3.905534e+003
6.984413e+002, 3.903408e+003
6.989234e+002, 3.900378e+003
6.994055e+002, 3.902792e+003
6.998876e+002, 3.910838e+003
7.003698e+002, 3.916884e+003
7.008519e+002, 3.919293e+003
7.013340e+002, 3.920264e+003
7.018161e+002, 3.922993e+003
7.022982e+002, 3.926761e+003
7.027803e+002, 3.929651e+003
7.032625e+002, 3.930532e+003
7.037446e+002, 3.930884e+003
7.042267e+002, 3.932155e+003
7.047088e+002, 3.933584e+003
7.051909e+002, 3.933480e+003
7.056730e+002, 3.928901e+003
7.061552e+002, 3.925463e+003
7.066373e+002, 3.925205e+003
7.071194e+002, 3.927161e+003
7.076015e+002, 3.927016e+003
7.080836e+002, 3.924326e+003
7.085657e+002, 3.920505e+003
7.090479e+002, 3.915440e+003
7.095300e+002, 3.909683e+003
7.100121e+002, 3.905720e+003
7.104942e+002, 3.903487e+003
7.109763e+002, 3.902415e+003
7.114584e+002, 3.903374e+003
7.119406e+002, 3.904568e+003
7.124227e+002, 3.903768e+003
7.129048e+002, 3.900896e+003
7.133869e+002, 3.897034e+003
7.138690e+002, 3.890812e+003
7.143511e+002, 3.885285e+003
7.148333e+002, 3.883060e+003
7.153154e+002, 3.886525e+003
7.157975e+002, 3.886418e+003
7.162796e+002, 3.880372e+003
7.167617e+002, 3.873774e+003
7.172438e+002, 3.871215e+003
7.177260e+002, 3.873243e+003
7.182081e+002, 3.873981e+003
7.186902e+002, 3.872862e+003
7.191723e+002, 3.871518e+003
7.196544e+002, 3.872067e+003
7.201365e+002, 3.873878e+003
7.206187e+002, 3.875177e+003
7.211008e+002, 3.875195e+003
7.215829e+002, 3.875697e+003
7.220650e+002, 3.878003e+003
7.225471e+002, 3.881540e+003
7.230292e+002, 3.885612e+003
7.235114e+002, 3.891133e+003
7.239935e+002, 3.895568e+003
7.244756e+002, 3.897936e+003
7.249577e+002, 3.899142e+003
7.254398e+002, 3.900641e+003
7.259219e+002, 3.902260e+003
7.264041e+002, 3.904580e+003
7.268862e+002, 3.907842e+003
7.273683e+002, 3.911710e+003
7.278504e+002, 3.915723e+003
7.283325e+002, 3.919711e+003
7.288146e+002, 3.922478e+003
7.292968e+002, 3.922730e+003
7.297789e+002, 3.922087e+003
7.302610e+002, 3.922611e+003
7.307431e+002, 3.923838e+003
7.312252e+002, 3.924235e+003
7.317073e+002, 3.922676e+003
7.321895e+002, 3.920608e+003
7.326716e+002, 3.918271e+003
7.331537e+002, 3.915807e+003
7.336358e+002, 3.914480e+003
7.341179e+002, 3.914982e+003
7.346000e+002, 3.915541e+003
7.350822e+002, 3.915762e+003
7.355643e+002, 3.915563e+003
7.360464e+002, 3.912824e+003
7.365285e+002, 3.907354e+003
7.370106e+002, 3.903618e+003
7.374927e+002, 3.907218e+003
7.379749e+002, 3.913781e+003
7.384570e+002, 3.915187e+003
7.389391e+002, 3.911169e+003
7.394212e+002, 3.907243e+003
7.399033e+002, 3.906386e+003
7.403854e+002, 3.907002e+003
7.408676e+002, 3.908140e+003
7.413497e+002, 3.909871e+003
7.418318e+002, 3.911244e+003
7.423139e+002, 3.912282e+003
7.427960e+002, 3.912833e+003
7.432781e+002, 3.912532e+003
7.437603e+002, 3.911100e+003
7.442424e+002, 3.911084e+003
7.447245e+002, 3.912874e+003
7.452066e+002, 3.914877e+003
7.456887e+002, 3.915023e+003
7.461708e+002, 3.914158e+003
7.466530e+002, 3.914642e+003
7.471351e+002, 3.917150e+003
7.476172e+002, 3.919720e+003
7.480993e+002, 3.920634e+003
7.485814e+002, 3.920980e+003
7.490635e+002, 3.922010e+003
7.495457e+002, 3.925156e+003
7.500278e+002, 3.927077e+003
7.505099e+002, 3.925280e+003
7.509920e+002, 3.923295e+003
7.514741e+002, 3.925690e+003
7.519562e+002, 3.933683e+003
7.524384e+002, 3.940548e+003
7.529205e+002, 3.945350e+003
7.534026e+002, 3.948398e+003
7.538847e+002, 3.949506e+003
7.543668e+002, 3.949070e+003
7.548489e+002, 3.948752e+003
7.553311e+002, 3.948718e+003
7.558132e+002, 3.949557e+003
7.562953e+002, 3.952904e+003
7.567774e+002, 3.957302e+003
7.572595e+002, 3.960126e+003
7.577416e+002, 3.959547e+003
7.582238e+002, 3.958620e+003
7.587059e+002, 3.958212e+003
7.591880e+002, 3.958003e+003
7.596701e+002, 3.957013e+003
7.601522e+002, 3.954676e+003
7.606343e+002, 3.953784e+003
7.611165e+002, 3.955648e+003
7.615986e+002, 3.958871e+003
7.620807e+002, 3.959675e+003
7.625628e+002, 3.958507e+003
7.630449e+002, 3.957887e+003
7.635270e+002, 3.960027e+003
7.640092e+002, 3.962295e+003
7.644913e+002, 3.961388e+003
7.649734e+002, 3.958428e+003
7.654555e+002, 3.956933e+003
7.659376e+002, 3.958556e+003
7.664197e+002, 3.961406e+003
7.669019e+002, 3.965725e+003
7.673840e+002, 3.970874e+003
7.678661e+002, 3.973845e+003
7.683482e+002, 3.973890e+003
7.688303e+002, 3.973881e+003
7.693124e+002, 3.975304e+003
7.697946e+002, 3.977391e+003
7.702767e+002, 3.976640e+003
7.707588e+002, 3.973458e+003
7.712409e+002, 3.971654e+003
7.717230e+002, 3.974788e+003
7.722051e+002, 3.979568e+003
7.726873e+002, 3.983089e+003
7.731694e+002, 3.985350e+003
7.736515e+002, 3.986938e+003
7.741336e+002, 3.987720e+003
7.746157e+002, 3.988276e+003
7.750978e+002, 3.988823e+003
7.755800e+002, 3.989392e+003
7.760621e+002, 3.990075e+003
7.765442e+002, 3.990919e+003
7.770263e+002, 3.991799e+003
7.775084e+002, 3.992626e+003
7.779905e+002, 3.993411e+003
7.784727e+002, 3.993949e+003
7.789548e+002, 3.994271e+003
7.794369e+002, 3.995276e+003
7.799190e+002, 3.998478e+003
7.804011e+002, 4.002038e+003
7.808832e+002, 4.003684e+003
7.813654e+002, 4.003278e+003
7.818475e+002, 4.004028e+003
7.823296e+002, 4.010067e+003
7.828117e+002, 4.014583e+003
7.832938e+002, 4.013433e+003
7.837759e+002, 4.005822e+003
7.842581e+002, 4.002185e+003
7.847402e+002, 4.003409e+003
7.852223e+002, 4.006125e+003
7.857044e+002, 4.009513e+003
7.861865e+002, 4.012670e+003
7.866686e+002, 4.010835e+003
7.871508e+002, 4.003984e+003
7.876329e+002, 3.997533e+003
7.881150e+002, 3.994866e+003
7.885971e+002, 3.994900e+003
7.890792e+002, 3.997531e+003
7.895613e+002, 4.003179e+003
7.900435e+002, 4.006856e+003
7.905256e+002, 4.005203e+003
7.910077e+002, 4.003027e+003
7.914898e+002, 4.002573e+003
7.919719e+002, 4.003797e+003
7.924540e+002, 4.007319e+003
7.929362e+002, 4.013910e+003
7.934183e+002, 4.019084e+003
7.939004e+002, 4.016990e+003
7.943825e+002, 4.010603e+003
7.948646e+002, 4.009120e+003
7.953467e+002, 4.013251e+003
7.958289e+002, 4.017290e+003
7.963110e+002, 4.016733e+003
7.967931e+002, 4.014586e+003
7.972752e+002, 4.013465e+003
7.977573e+002, 4.014163e+003
7.982394e+002, 4.014033e+003
7.987216e+002, 4.012432e+003
7.992037e+002, 4.010473e+003
7.996858e+002, 4.008650e+003
8.001679e+002, 4.006856e+003
8.006500e+002, 4.006600e+003
8.011321e+002, 4.008084e+003
8.016143e+002, 4.009924e+003
8.020964e+002, 4.010720e+003
8.025785e+002, 4.010997e+003
8.030606e+002, 4.011711e+003
8.035427e+002, 4.012952e+003
8.040248e+002, 4.014591e+003
8.045070e+002, 4.016807e+003
8.049891e+002, 4.019150e+003
8.054712e+002, 4.021265e+003
8.059533e+002, 4.023048e+003
8.064354e+002, 4.024625e+003
8.069175e+002, 4.025592e+003
8.073997e+002, 4.026871e+003
8.078818e+002, 4.029501e+003
8.083639e+002, 4.033398e+003
8.088460e+002, 4.036177e+003
8.093281e+002, 4.037766e+003
8.098102e+002, 4.038133e+003
8.102924e+002, 4.035986e+003
8.107745e+002, 4.033202e+003
8.112566e+002, 4.032382e+003
8.117387e+002, 4.034003e+003
8.122208e+002, 4.036559e+003
8.127029e+002, 4.039948e+003
8.131851e+002, 4.043757e+003
8.136672e+002, 4.048007e+003
8.141493e+002, 4.053272e+003
8.146314e+002, 4.056521e+003
8.151135e+002, 4.057478e+003
8.155956e+002, 4.057024e+003
8.160778e+002, 4.054872e+003
8.165599e+002, 4.051688e+003
8.170420e+002, 4.050913e+003
8.175241e+002, 4.052723e+003
8.180062e+002, 4.055318e+003
8.184883e+002, 4.057460e+003
8.189705e+002, 4.059523e+003
8.194526e+002, 4.061719e+003
8.199347e+002, 4.063961e+003
8.204168e+002, 4.066869e+003
8.208989e+002, 4.071948e+003
8.213810e+002, 4.076421e+003
8.218632e+002, 4.078992e+003
8.223453e+002, 4.079628e+003
8.228274e+002, 4.078821e+003
8.233095e+002, 4.076550e+003
8.237916e+002, 4.073480e+003
8.242737e+002, 4.068883e+003
8.247559e+002, 4.064344e+003
8.252380e+002, 4.063801e+003
8.257201e+002, 4.067396e+003
8.262022e+002, 4.070971e+003
8.266843e+002, 4.071656e+003
8.271664e+002, 4.071754e+003
8.276486e+002, 4.073221e+003
8.281307e+002, 4.076685e+003
8.286128e+002, 4.077370e+003
8.290949e+002, 4.073014e+003
8.295770e+002, 4.069700e+003
8.300591e+002, 4.071228e+003
8.305413e+002, 4.077095e+003
8.310234e+002, 4.082321e+003
8.315055e+002, 4.086869e+003
8.319876e+002, 4.090344e+003
8.324697e+002, 4.092186e+003
8.329518e+002, 4.092995e+003
8.334340e+002, 4.093233e+003
8.339161e+002, 4.092980e+003
8.343982e+002, 4.092791e+003
8.348803e+002, 4.092660e+003
8.353624e+002, 4.092869e+003
8.358445e+002, 4.093603e+003
8.363267e+002, 4.094842e+003
8.368088e+002, 4.096279e+003
8.372909e+002, 4.098213e+003
8.377730e+002, 4.099005e+003
8.382551e+002, 4.096607e+003
8.387372e+002, 4.092792e+003
8.392194e+002, 4.092347e+003
8.397015e+002, 4.094825e+003
8.401836e+002, 4.097575e+003
8.406657e+002, 4.100262e+003
8.411478e+002, 4.101664e+003
8.416299e+002, 4.100046e+003
8.421121e+002, 4.095853e+003
8.425942e+002, 4.093358e+003
8.430763e+002, 4.092901e+003
8.435584e+002, 4.093835e+003
8.440405e+002, 4.096242e+003
8.445226e+002, 4.099751e+003
8.450048e+002, 4.103472e+003
8.454869e+002, 4.107279e+003
8.459690e+002, 4.109686e+003
8.464511e+002, 4.109328e+003
8.469332e+002, 4.107689e+003
8.474153e+002, 4.105761e+003
8.478975e+002, 4.103867e+003
8.483796e+002, 4.102877e+003
8.488617e+002, 4.104050e+003
8.493438e+002, 4.105228e+003
8.498259e+002, 4.106467e+003
8.503080e+002, 4.107208e+003
8.507902e+002, 4.104896e+003
8.512723e+002, 4.098470e+003
8.517544e+002, 4.096056e+003
8.522365e+002, 4.101222e+003
8.527186e+002, 4.109668e+003
8.532007e+002, 4.114415e+003
8.536829e+002, 4.116146e+003
8.541650e+002, 4.116724e+003
8.546471e+002, 4.115337e+003
8.551292e+002, 4.114888e+003
8.556113e+002, 4.118107e+003
8.560934e+002, 4.122800e+003
8.565756e+002, 4.124859e+003
8.570577e+002, 4.122381e+003
8.575398e+002, 4.120797e+003
8.580219e+002, 4.120734e+003
8.585040e+002, 4.121659e+003
8.589861e+002, 4.122759e+003
8.594683e+002, 4.124070e+003
8.599504e+002, 4.126041e+003
8.604325e+002, 4.129063e+003
8.609146e+002, 4.131676e+003
8.613967e+002, 4.131671e+003
8.618788e+002, 4.130804e+003
8.623610e+002, 4.131412e+003
8.628431e+002, 4.136295e+003
8.633252e+002, 4.138517e+003
8.638073e+002, 4.136561e+003
8.642894e+002, 4.132927e+003
8.647715e+002, 4.129632e+003
8.652537e+002, 4.126658e+003
8.657358e+002, 4.125974e+003
8.662179e+002, 4.128144e+003
8.667000e+002, 4.130228e+003
8.671821e+002, 4.128810e+003
8.676642e+002, 4.125681e+003
8.681464e+002, 4.122956e+003
8.686285e+002, 4.120728e+003
8.691106e+002, 4.120781e+003
8.695927e+002, 4.125456e+003
8.700748e+002, 4.131326e+003
8.705569e+002, 4.136302e+003
8.710391e+002, 4.140383e+003
8.715212e+002, 4.142510e+003
8.720033e+002, 4.142086e+003
8.724854e+002, 4.141439e+003
8.729675e+002, 4.142220e+003
8.734496e+002, 4.143945e+003
8.739318e+002, 4.145594e+003
8.744139e+002, 4.147085e+003
8.748960e+002, 4.148715e+003
8.753781e+002, 4.151354e+003
8.758602e+002, 4.153561e+003
8.763423e+002, 4.154579e+003
8.768245e+002, 4.154335e+003
8.773066e+002, 4.152891e+003
8.777887e+002, 4.149672e+003
8.782708e+002, 4.147061e+003
8.787529e+002, 4.146563e+003
8.792350e+002, 4.147419e+003
8.797172e+002, 4.146220e+003
8.801993e+002, 4.143506e+003
8.806814e+002, 4.142076e+003
8.811635e+002, 4.145053e+003
8.816456e+002, 4.148496e+003
8.821277e+002, 4.148786e+003
8.826099e+002, 4.147064e+003
8.830920e+002, 4.146840e+003
8.835741e+002, 4.149748e+003
8.840562e+002, 4.152528e+003
8.845383e+002, 4.154343e+003
8.850204e+002, 4.155785e+003
8.855026e+002, 4.158194e+003
8.859847e+002, 4.161464e+003
8.864668e+002, 4.165457e+003
8.869489e+002, 4.170729e+003
8.874310e+002, 4.175174e+003
8.879131e+002, 4.175819e+003
8.883953e+002, 4.174314e+003
8.888774e+002, 4.173168e+003
8.893595e+002, 4.173596e+003
8.898416e+002, 4.173788e+003
8.903237e+002, 4.173083e+003
8.908058e+002, 4.172510e+003
8.912880e+002, 4.173652e+003
8.917701e+002, 4.176828e+003
8.922522e+002, 4.177388e+003
8.927343e+002, 4.174577e+003
8.932164e+002, 4.171479e+003
8.936985e+002, 4.171267e+003
8.941807e+002, 4.172818e+003
8.946628e+002, 4.175065e+003
8.951449e+002, 4.178153e+003
8.956270e+002, 4.179298e+003
8.961091e+002, 4.175833e+003
8.965912e+002, 4.171531e+003
8.970734e+002, 4.168478e+003
8.975555e+002, 4.166743e+003
8.980376e+002, 4.166277e+003
8.985197e+002, 4.167317e+003
8.990018e+002, 4.168602e+003
8.994839e+002, 4.168873e+003
8.999661e+002, 4.169011e+003
9.004482e+002, 4.171395e+003
9.009303e+002, 4.175569e+003
9.014124e+002, 4.178245e+003
9.018945e+002, 4.176189e+003
9.023766e+002, 4.173844e+003
9.028588e+002, 4.173043e+003
9.033409e+002, 4.173659e+003
9.038230e+002, 4.175186e+003
9.043051e+002, 4.177653e+003
9.047872e+002, 4.180698e+003
9.052693e+002, 4.184406e+003
9.057515e+002, 4.188279e+003
9.062336e+002, 4.191348e+003
9.067157e+002, 4.193753e+003
9.071978e+002, 4.195978e+003
9.076799e+002, 4.198195e+003
9.081620e+002, 4.200289e+003
9.086442e+002, 4.202830e+003
9.091263e+002, 4.205050e+003
9.096084e+002, 4.205622e+003
9.100905e+002, 4.203726e+003
9.105726e+002, 4.202626e+003
9.110547e+002, 4.202829e+003
9.115369e+002, 4.203505e+003
9.120190e+002, 4.203604e+003
9.125011e+002, 4.203305e+003
9.129832e+002, 4.202902e+003
9.134653e+002, 4.202352e+003
9.139474e+002, 4.202409e+003
9.144296e+002, 4.204043e+003
9.149117e+002, 4.206126e+003
9.153938e+002, 4.207677e+003
9.158759e+002, 4.208468e+003
9.163580e+002, 4.208992e+003
9.168401e+002, 4.208820e+003
9.173223e+002, 4.209269e+003
9.178044e+002, 4.212300e+003
9.182865e+002, 4.216683e+003
9.187686e+002, 4.217316e+003
9.192507e+002, 4.214574e+003
9.197328e+002, 4.212086e+003
9.202150e+002, 4.213308e+003
9.206971e+002, 4.214524e+003
9.211792e+002, 4.212360e+003
9.216613e+002, 4.207608e+003
9.221434e+002, 4.206462e+003
9.226255e+002, 4.210412e+003
9.231077e+002, 4.215008e+003
9.235898e+002, 4.219586e+003
9.240719e+002, 4.223378e+003
9.245540e+002, 4.223858e+003
9.250361e+002, 4.221803e+003
9.255182e+002, 4.220540e+003
9.260004e+002, 4.221870e+003
9.264825e+002, 4.223188e+003
9.269646e+002, 4.221708e+003
9.274467e+002, 4.219472e+003
9.279288e+002, 4.219829e+003
9.284109e+002, 4.225081e+003
9.288931e+002, 4.228274e+003
9.293752e+002, 4.228605e+003
9.298573e+002, 4.227768e+003
9.303394e+002, 4.227671e+003
9.308215e+002, 4.228070e+003
9.313036e+002, 4.228185e+003
9.317858e+002, 4.228012e+003
9.322679e+002, 4.226984e+003
9.327500e+002, 4.222721e+003
9.332321e+002, 4.219067e+003
9.337142e+002, 4.220113e+003
9.341964e+002, 4.227323e+003
9.346785e+002, 4.229146e+003
9.351606e+002, 4.223375e+003
9.356427e+002, 4.217764e+003
9.361248e+002, 4.216650e+003
9.366069e+002, 4.218746e+003
9.370891e+002, 4.219226e+003
9.375712e+002, 4.218683e+003
9.380533e+002, 4.220182e+003
9.385354e+002, 4.228031e+003
9.390175e+002, 4.235646e+003
9.394996e+002, 4.239168e+003
9.399818e+002, 4.239356e+003
9.404639e+002, 4.238356e+003
9.409460e+002, 4.234512e+003
9.414281e+002, 4.234125e+003
9.419102e+002, 4.239149e+003
9.423923e+002, 4.246337e+003
9.428745e+002, 4.251443e+003
9.433566e+002, 4.254406e+003
9.438387e+002, 4.254014e+003
9.443208e+002, 4.248435e+003
9.448029e+002, 4.245389e+003
9.452850e+002, 4.253527e+003
9.457672e+002, 4.263615e+003
9.462493e+002, 4.266396e+003
9.467314e+002, 4.259447e+003
9.472135e+002, 4.254799e+003
9.476956e+002, 4.252871e+003
9.481777e+002, 4.252000e+003
9.486599e+002, 4.250969e+003
9.491420e+002, 4.250063e+003
9.496241e+002, 4.249757e+003
9.501062e+002, 4.250114e+003
9.505883e+002, 4.251589e+003
9.510704e+002, 4.255131e+003
9.515526e+002, 4.259104e+003
9.520347e+002, 4.263364e+003
9.525168e+002, 4.267383e+003
9.529989e+002, 4.268674e+003
9.534810e+002, 4.266445e+003
9.539631e+002, 4.265268e+003
9.544453e+002, 4.266765e+003
9.549274e+002, 4.269390e+003
9.554095e+002, 4.271056e+003
9.558916e+002, 4.271843e+003
9.563737e+002, 4.271828e+003
9.568558e+002, 4.270295e+003
9.573380e+002, 4.269463e+003
9.578201e+002, 4.270686e+003
9.583022e+002, 4.272647e+003
9.587843e+002, 4.274138e+003
9.592664e+002, 4.275082e+003
9.597485e+002, 4.276361e+003
9.602307e+002, 4.278124e+003
9.607128e+002, 4.279362e+003
9.611949e+002, 4.277436e+003
9.616770e+002, 4.275311e+003
9.621591e+002, 4.278426e+003
9.626412e+002, 4.286721e+003
9.631234e+002, 4.292868e+003
9.636055e+002, 4.291472e+003
9.640876e+002, 4.290563e+003
9.645697e+002, 4.292956e+003
9.650518e+002, 4.298006e+003
9.655339e+002, 4.304241e+003
9.660161e+002, 4.311625e+003
9.664982e+002, 4.315089e+003
9.669803e+002, 4.310687e+003
9.674624e+002, 4.304747e+003
9.679445e+002, 4.304924e+003
9.684266e+002, 4.308383e+003
9.689088e+002, 4.310450e+003
9.693909e+002, 4.308827e+003
9.698730e+002, 4.307303e+003
9.703551e+002, 4.306633e+003
9.708372e+002, 4.305636e+003
9.713193e+002, 4.302384e+003
9.718015e+002, 4.297358e+003
9.722836e+002, 4.294863e+003
9.727657e+002, 4.295355e+003
9.732478e+002, 4.296140e+003
9.737299e+002, 4.295413e+003
9.742120e+002, 4.293902e+003
9.746942e+002, 4.291317e+003
9.751763e+002, 4.287742e+003
9.756584e+002, 4.287892e+003
9.761405e+002, 4.293943e+003
9.766226e+002, 4.299208e+003
9.771047e+002, 4.300846e+003
9.775869e+002, 4.300300e+003
9.780690e+002, 4.300992e+003
9.785511e+002, 4.302878e+003
9.790332e+002, 4.306069e+003
9.795153e+002, 4.312795e+003
9.799974e+002, 4.317597e+003
9.804796e+002, 4.315831e+003
9.809617e+002, 4.311081e+003
9.814438e+002, 4.308552e+003
9.819259e+002, 4.309340e+003
9.824080e+002, 4.309195e+003
9.828901e+002, 4.307701e+003
9.833723e+002, 4.306258e+003
9.838544e+002, 4.306457e+003
9.843365e+002, 4.307699e+003
9.848186e+002, 4.308714e+003
9.853007e+002, 4.309457e+003
9.857828e+002, 4.310940e+003
9.862650e+002, 4.315002e+003
9.867471e+002, 4.318437e+003
9.872292e+002, 4.319310e+003
9.877113e+002, 4.318332e+003
9.881934e+002, 4.319534e+003
9.886755e+002, 4.322971e+003
9.891577e+002, 4.326333e+003
9.896398e+002, 4.328621e+003
9.901219e+002, 4.330433e+003
9.906040e+002, 4.332310e+003
9.910861e+002, 4.334204e+003
9.915682e+002, 4.336094e+003
9.920504e+002, 4.338998e+003
9.925325e+002, 4.340020e+003
9.930146e+002, 4.337500e+003
9.934967e+002, 4.335054e+003
9.939788e+002, 4.336779e+003
9.944609e+002, 4.342076e+003
9.949431e+002, 4.345625e+003
9.954252e+002, 4.347185e+003
9.959073e+002, 4.347379e+003
9.963894e+002, 4.346437e+003
9.968715e+002, 4.344576e+003
9.973536e+002, 4.340711e+003
9.978358e+002, 4.335426e+003
9.983179e+002, 4.334425e+003
9.988000e+002, 4.339599e+003
9.992821e+002, 4.344428e+003
9.997642e+002, 4.347182e+003
1.000246e+003, 4.348362e+003
1.000728e+003, 4.348301e+003
1.001211e+003, 4.347498e+003
1.001693e+003, 4.347249e+003
1.002175e+003, 4.348167e+003
1.002657e+003, 4.349274e+003
1.003139e+003, 4.349370e+003
1.003621e+003, 4.350083e+003
1.004103e+003, 4.352986e+003
1.004585e+003, 4.358545e+003
1.005068e+003, 4.363596e+003
1.005550e+003, 4.368134e+003
1.006032e+003, 4.372205e+003
1.006514e+003, 4.375741e+003
1.006996e+003, 4.378851e+003
1.007478e+003, 4.381434e+003
1.007960e+003, 4.383612e+003
1.008442e+003, 4.386223e+003
1.008924e+003, 4.390353e+003
1.009407e+003, 4.393686e+003
1.009889e+003, 4.395332e+003
1.010371e+003, 4.396323e+003
1.010853e+003, 4.399397e+003
1.011335e+003, 4.404125e+003
1.011817e+003, 4.407255e+003
1.012299e+003, 4.408000e+003
1.012781e+003, 4.407693e+003
1.013263e+003, 4.406350e+003
1.013746e+003, 4.405246e+003
1.014228e+003, 4.406217e+003
1.014710e+003, 4.410389e+003
1.015192e+003, 4.411259e+003
1.015674e+003, 4.408079e+003
1.016156e+003, 4.404194e+003
1.016638e+003, 4.400859e+003
1.017120e+003, 4.398530e+003
1.017603e+003, 4.398347e+003
1.018085e+003, 4.400015e+003
1.018567e+003, 4.402634e+003
1.019049e+003, 4.406905e+003
1.019531e+003, 4.410431e+003
1.020013e+003, 4.411447e+003
1.020495e+003, 4.411797e+003
1.020977e+003, 4.414597e+003
1.021459e+003, 4.419856e+003
1.021942e+003, 4.423691e+003
1.022424e+003, 4.425507e+003
1.022906e+003, 4.426524e+003
1.023388e+003, 4.428609e+003
1.023870e+003, 4.430101e+003
1.024352e+003, 4.428090e+003
1.024834e+003, 4.421917e+003
1.025316e+003, 4.421278e+003
1.025799e+003, 4.429792e+003
1.026281e+003, 4.437592e+003
1.026763e+003, 4.440277e+003
1.027245e+003, 4.440192e+003
1.027727e+003, 4.444102e+003
1.028209e+003, 4.450725e+003
1.028691e+003, 4.455568e+003
1.029173e+003, 4.455702e+003
1.029656e+003, 4.455583e+003
1.030138e+003, 4.457264e+003
1.030620e+003, 4.459623e+003
1.031102e+003, 4.461532e+003
1.031584e+003, 4.462947e+003
1.032066e+003, 4.463678e+003
1.032548e+003, 4.463626e+003
1.033030e+003, 4.463186e+003
1.033512e+003, 4.461403e+003
1.033995e+003, 4.460199e+003
1.034477e+003, 4.463287e+003
1.034959e+003, 4.469721e+003
1.035441e+003, 4.473046e+003
1.035923e+003, 4.470186e+003
1.036405e+003, 4.466368e+003
1.036887e+003, 4.462218e+003
1.037369e+003, 4.458124e+003
1.037851e+003, 4.455077e+003
1.038334e+003, 4.452777e+003
1.038816e+003, 4.449416e+003
1.039298e+003, 4.444124e+003
1.039780e+003, 4.440074e+003
1.040262e+003, 4.440755e+003
1.040744e+003, 4.442313e+003
1.041226e+003, 4.441233e+003
1.041708e+003, 4.437219e+003
1.042191e+003, 4.435933e+003
1.042673e+003, 4.437574e+003
1.043155e+003, 4.440232e+003
1.043637e+003, 4.443966e+003
1.044119e+003, 4.447208e+003
1.044601e+003, 4.446876e+003
1.045083e+003, 4.444446e+003
1.045565e+003, 4.443313e+003
1.046047e+003, 4.446063e+003
1.046530e+003, 4.447676e+003
1.047012e+003, 4.446793e+003
1.047494e+003, 4.445996e+003
1.047976e+003, 4.448971e+003
1.048458e+003, 4.454716e+003
1.048940e+003, 4.457678e+003
1.049422e+003, 4.457531e+003
1.049904e+003, 4.458160e+003
1.050386e+003, 4.463092e+003
1.050869e+003, 4.468531e+003
1.051351e+003, 4.472204e+003
1.051833e+003, 4.474385e+003
1.052315e+003, 4.476087e+003
1.052797e+003, 4.477130e+003
1.053279e+003, 4.479088e+003
1.053761e+003, 4.482841e+003
1.054243e+003, 4.486491e+003
1.054726e+003, 4.487314e+003
1.055208e+003, 4.486664e+003
1.055690e+003, 4.486161e+003
1.056172e+003, 4.485522e+003
1.056654e+003, 4.487571e+003
1.057136e+003, 4.494735e+003
1.057618e+003, 4.500419e+003
1.058100e+003, 4.499880e+003
1.058583e+003, 4.494844e+003
1.059065e+003, 4.491131e+003
1.059547e+003, 4.488898e+003
1.060029e+003, 4.488848e+003
1.060511e+003, 4.495228e+003
1.060993e+003, 4.499437e+003
1.061475e+003, 4.495141e+003
1.061957e+003, 4.487958e+003
1.062439e+003, 4.485767e+003
1.062922e+003, 4.489221e+003
1.063404e+003, 4.492449e+003
1.063886e+003, 4.495163e+003
1.064368e+003, 4.496025e+003
1.064850e+003, 4.491220e+003
1.065332e+003, 4.485875e+003
1.065814e+003, 4.486513e+003
1.066296e+003, 4.492821e+003
1.066778e+003, 4.494862e+003
1.067261e+003, 4.488922e+003
1.067743e+003, 4.485265e+003
1.068225e+003, 4.487051e+003
1.068707e+003, 4.491445e+003
1.069189e+003, 4.493386e+003
1.069671e+003, 4.493750e+003
1.070153e+003, 4.494752e+003
1.070635e+003, 4.497270e+003
1.071118e+003, 4.499038e+003
1.071600e+003, 4.498889e+003
1.072082e+003, 4.497907e+003
1.072564e+003, 4.496602e+003
1.073046e+003, 4.495060e+003
1.073528e+003, 4.493346e+003
1.074010e+003, 4.491616e+003
1.074492e+003, 4.491133e+003
1.074974e+003, 4.494154e+003
1.075457e+003, 4.496992e+003
1.075939e+003, 4.495533e+003
1.076421e+003, 4.492527e+003
1.076903e+003, 4.492860e+003
1.077385e+003, 4.498064e+003
1.077867e+003, 4.502352e+003
1.078349e+003, 4.505386e+003
1.078831e+003, 4.507561e+003
1.079313e+003, 4.508605e+003
1.079796e+003, 4.509284e+003
1.080278e+003, 4.511286e+003
1.080760e+003, 4.514285e+003
1.081242e+003, 4.515762e+003
1.081724e+003, 4.511930e+003
1.082206e+003, 4.510616e+003
1.082688e+003, 4.514188e+003
1.083170e+003, 4.520105e+003
1.083652e+003, 4.524500e+003
1.084135e+003, 4.527308e+003
1.084617e+003, 4.527454e+003
1.085099e+003, 4.524343e+003
1.085581e+003, 4.521971e+003
1.086063e+003, 4.523339e+003
1.086545e+003, 4.525677e+003
1.087027e+003, 4.527120e+003
1.087509e+003, 4.527832e+003
1.087992e+003, 4.529771e+003
1.088474e+003, 4.532958e+003
1.088956e+003, 4.536384e+003
1.089438e+003, 4.540393e+003
1.089920e+003, 4.543138e+003
1.090402e+003, 4.540563e+003
1.090884e+003, 4.536603e+003
1.091366e+003, 4.537130e+003
1.091849e+003, 4.545843e+003
1.092331e+003, 4.550651e+003
1.092813e+003, 4.550538e+003
1.093295e+003, 4.549973e+003
1.093777e+003, 4.553054e+003
1.094259e+003, 4.557476e+003
1.094741e+003, 4.558932e+003
1.095223e+003, 4.557884e+003
1.095705e+003, 4.556200e+003
1.096188e+003, 4.551938e+003
1.096670e+003, 4.550828e+003
1.097152e+003, 4.554681e+003
1.097634e+003, 4.560519e+003
1.098116e+003, 4.565201e+003
1.098598e+003, 4.568608e+003
1.099080e+003, 4.569647e+003
1.099562e+003, 4.568270e+003
1.100044e+003, 4.567276e+003
1.100527e+003, 4.569513e+003
1.101009e+003, 4.571533e+003
1.101491e+003, 4.571335e+003
1.101973e+003, 4.569594e+003
1.102455e+003, 4.568036e+003
1.102937e+003, 4.566707e+003
1.103419e+003, 4.566282e+003
1.103901e+003, 4.567208e+003
1.104384e+003, 4.568203e+003
1.104866e+003, 4.566720e+003
1.105348e+003, 4.565549e+003
1.105830e+003, 4.568375e+003
1.106312e+003, 4.576302e+003
1.106794e+003, 4.580236e+003
1.107276e+003, 4.579147e+003
1.107758e+003, 4.578002e+003
1.108240e+003, 4.578955e+003
1.108723e+003, 4.581228e+003
1.109205e+003, 4.583573e+003
1.109687e+003, 4.586311e+003
1.110169e+003, 4.590111e+003
1.110651e+003, 4.595721e+003
1.111133e+003, 4.601631e+003
1.111615e+003, 4.608962e+003
1.112097e+003, 4.614383e+003
1.112579e+003, 4.613383e+003
1.113062e+003, 4.608558e+003
1.113544e+003, 4.609878e+003
1.114026e+003, 4.616258e+003
1.114508e+003, 4.622074e+003
1.114990e+003, 4.623173e+003
1.115472e+003, 4.625089e+003
1.115954e+003, 4.629582e+003
1.116436e+003, 4.635750e+003
1.116919e+003, 4.643057e+003
1.117401e+003, 4.651436e+003
1.117883e+003, 4.658127e+003
1.118365e+003, 4.662943e+003
1.118847e+003, 4.668142e+003
1.119329e+003, 4.675745e+003
1.119811e+003, 4.683957e+003
1.120293e+003, 4.691651e+003
1.120776e+003, 4.698957e+003
1.121258e+003, 4.705644e+003
1.121740e+003, 4.711177e+003
1.122222e+003, 4.721777e+003
1.122704e+003, 4.739846e+003
1.123186e+003, 4.758192e+003
1.123668e+003, 4.768003e+003
1.124150e+003, 4.775400e+003
1.124632e+003, 4.787378e+003
1.125115e+003, 4.805260e+003
1.125597e+003, 4.820955e+003
1.126079e+003, 4.833836e+003
1.126561e+003, 4.846761e+003
1.127043e+003, 4.862795e+003
1.127525e+003, 4.876461e+003
1.128007e+003, 4.878011e+003
1.128489e+003, 4.871213e+003
1.128971e+003, 4.862159e+003
1.129454e+003, 4.851962e+003
1.129936e+003, 4.840786e+003
1.130418e+003, 4.828816e+003
1.130900e+003, 4.815913e+003
1.131382e+003, 4.800647e+003
1.131864e+003, 4.784848e+003
1.132346e+003, 4.773753e+003
1.132828e+003, 4.766602e+003
1.133311e+003, 4.760919e+003
1.133793e+003, 4.756495e+003
1.134275e+003, 4.752109e+003
1.134757e+003, 4.747686e+003
1.135239e+003, 4.742597e+003
1.135721e+003, 4.735460e+003
1.136203e+003, 4.726701e+003
1.136685e+003, 4.720192e+003
1.137167e+003, 4.715879e+003
1.137650e+003, 4.712833e+003
1.138132e+003, 4.711062e+003
1.138614e+003, 4.709740e+003
1.139096e+003, 4.711062e+003
1.139578e+003, 4.711337e+003
1.140060e+003, 4.702338e+003
1.140542e+003, 4.683719e+003
1.141024e+003, 4.674631e+003
1.141506e+003, 4.677588e+003
1.141989e+003, 4.681706e+003
1.142471e+003, 4.678583e+003
1.142953e+003, 4.673162e+003
1.143435e+003, 4.668529e+003
1.143917e+003, 4.664963e+003
1.144399e+003, 4.662208e+003
1.144881e+003, 4.660189e+003
1.145363e+003, 4.659876e+003
1.145846e+003, 4.661715e+003
1.146328e+003, 4.664120e+003
1.146810e+003, 4.665762e+003
1.147292e+003, 4.666664e+003
1.147774e+003, 4.666420e+003
1.148256e+003, 4.664799e+003
1.148738e+003, 4.665041e+003
1.149220e+003, 4.667993e+003
1.149703e+003, 4.669561e+003
1.150185e+003, 4.667810e+003
1.150667e+003, 4.664943e+003
1.151149e+003, 4.663182e+003
1.151631e+003, 4.662948e+003
1.152113e+003, 4.665439e+003
1.152595e+003, 4.672439e+003
1.153077e+003, 4.676699e+003
1.153559e+003, 4.677755e+003
1.154042e+003, 4.676214e+003
1.154524e+003, 4.670601e+003
1.155006e+003, 4.664184e+003
1.155488e+003, 4.666186e+003
1.155970e+003, 4.673128e+003
1.156452e+003, 4.676387e+003
1.156934e+003, 4.670354e+003
1.157416e+003, 4.665666e+003
1.157898e+003, 4.663614e+003
1.158381e+003, 4.663261e+003
1.158863e+003, 4.664468e+003
1.159345e+003, 4.666786e+003
1.159827e+003, 4.668349e+003
1.160309e+003, 4.669300e+003
1.160791e+003, 4.670223e+003
1.161273e+003, 4.671103e+003
1.161755e+003, 4.672223e+003
1.162238e+003, 4.673206e+003
1.162720e+003, 4.674783e+003
1.163202e+003, 4.678884e+003
1.163684e+003, 4.684582e+003
1.164166e+003, 4.684990e+003
1.164648e+003, 4.680444e+003
1.165130e+003, 4.677186e+003
1.165612e+003, 4.681318e+003
1.166094e+003, 4.684492e+003
1.166577e+003, 4.681653e+003
1.167059e+003, 4.676841e+003
1.167541e+003, 4.677139e+003
1.168023e+003, 4.682025e+003
1.168505e+003, 4.683511e+003
1.168987e+003, 4.680801e+003
1.169469e+003, 4.679000e+003
1.169951e+003, 4.682705e+003
1.170433e+003, 4.687428e+003
1.170916e+003, 4.691152e+003
1.171398e+003, 4.693688e+003
1.171880e+003, 4.693962e+003
1.172362e+003, 4.692006e+003
1.172844e+003, 4.691389e+003
1.173326e+003, 4.692767e+003
1.173808e+003, 4.695353e+003
1.174290e+003, 4.700859e+003
1.174773e+003, 4.705235e+003
1.175255e+003, 4.703171e+003
1.175737e+003, 4.696580e+003
1.176219e+003, 4.696574e+003
1.176701e+003, 4.703538e+003
1.177183e+003, 4.708963e+003
1.177665e+003, 4.710427e+003
1.178147e+003, 4.710369e+003
1.178630e+003, 4.710904e+003
1.179112e+003, 4.711300e+003
1.179594e+003, 4.710139e+003
1.180076e+003, 4.707446e+003
1.180558e+003, 4.708782e+003
1.181040e+003, 4.714768e+003
1.181522e+003, 4.719060e+003
1.182004e+003, 4.718850e+003
1.182486e+003, 4.716813e+003
1.182969e+003, 4.714120e+003
1.183451e+003, 4.712178e+003
1.183933e+003, 4.713191e+003
1.184415e+003, 4.717956e+003
1.184897e+003, 4.720884e+003
1.185379e+003, 4.721670e+003
1.185861e+003, 4.722247e+003
1.186343e+003, 4.722962e+003
1.186825e+003, 4.724748e+003
1.187308e+003, 4.730954e+003
1.187790e+003, 4.738146e+003
1.188272e+003, 4.740342e+003
1.188754e+003, 4.734238e+003
1.189236e+003, 4.731128e+003
1.189718e+003, 4.731514e+003
1.190200e+003, 4.732649e+003
1.190682e+003, 4.733581e+003
1.191165e+003, 4.733687e+003
1.191647e+003, 4.730438e+003
1.192129e+003, 4.726180e+003
1.192611e+003, 4.725938e+003
1.193093e+003, 4.734179e+003
1.193575e+003, 4.737938e+003
1.194057e+003, 4.736087e+003
1.194539e+003, 4.733785e+003
1.195021e+003, 4.735256e+003
1.195504e+003, 4.738541e+003
1.195986e+003, 4.741215e+003
1.196468e+003, 4.743395e+003
1.196950e+003, 4.745570e+003
1.197432e+003, 4.747871e+003
1.197914e+003, 4.749929e+003
1.198396e+003, 4.751686e+003
1.198878e+003, 4.753146e+003
1.199360e+003, 4.754604e+003
1.199843e+003, 4.755589e+003
1.200325e+003, 4.754704e+003
1.200807e+003, 4.752641e+003
1.201289e+003, 4.752305e+003
1.201771e+003, 4.754840e+003
1.202253e+003, 4.758050e+003
1.202735e+003, 4.762144e+003
1.203217e+003, 4.765731e+003
1.203700e+003, 4.766392e+003
1.204182e+003, 4.766075e+003
1.204664e+003, 4.767983e+003
1.205146e+003, 4.771820e+003
1.205628e+003, 4.774357e+003
1.206110e+003, 4.774338e+003
1.206592e+003, 4.774282e+003
1.207074e+003, 4.774210e+003
1.207557e+003, 4.774886e+003
1.208039e+003, 4.777833e+003
1.208521e+003, 4.781728e+003
1.209003e+003, 4.784467e+003
1.209485e+003, 4.785953e+003
1.209967e+003, 4.788507e+003
1.210449e+003, 4.793492e+003
1.210931e+003, 4.796978e+003
1.211413e+003, 4.798130e+003
1.211896e+003, 4.797732e+003
1.212378e+003, 4.795894e+003
1.212860e+003, 4.793803e+003
1.213342e+003, 4.793829e+003
1.213824e+003, 4.796267e+003
1.214306e+003, 4.796363e+003
1.214788e+003, 4.792565e+003
1.215270e+003, 4.789949e+003
1.215752e+003, 4.790336e+003
1.216235e+003, 4.791389e+003
1.216717e+003, 4.789239e+003
1.217199e+003, 4.785868e+003
1.217681e+003, 4.784275e+003
1.218163e+003, 4.785031e+003
1.218645e+003, 4.785417e+003
1.219127e+003, 4.784800e+003
1.219609e+003, 4.785159e+003
1.220092e+003, 4.787375e+003
1.220574e+003, 4.790295e+003
1.221056e+003, 4.792050e+003
1.221538e+003, 4.793447e+003
1.222020e+003, 4.795708e+003
1.222502e+003, 4.799085e+003
1.222984e+003, 4.802338e+003
1.223466e+003, 4.805455e+003
1.223948e+003, 4.807869e+003
1.224431e+003, 4.809073e+003
1.224913e+003, 4.809923e+003
1.225395e+003, 4.812195e+003
1.225877e+003, 4.814651e+003
1.226359e+003, 4.815630e+003
1.226841e+003, 4.814628e+003
1.227323e+003, 4.812433e+003
1.227805e+003, 4.808370e+003
1.228287e+003, 4.806062e+003
1.228770e+003, 4.807586e+003
1.229252e+003, 4.810568e+003
1.229734e+003, 4.812370e+003
1.230216e+003, 4.813269e+003
1.230698e+003, 4.813478e+003
1.231180e+003, 4.812841e+003
1.231662e+003, 4.812768e+003
1.232144e+003, 4.813476e+003
1.232627e+003, 4.813622e+003
1.233109e+003, 4.812359e+003
1.233591e+003, 4.810751e+003
1.234073e+003, 4.810002e+003
1.234555e+003, 4.809800e+003
1.235037e+003, 4.809829e+003
1.235519e+003, 4.810262e+003
1.236001e+003, 4.809909e+003
1.236484e+003, 4.808652e+003
1.236966e+003, 4.808363e+003
1.237448e+003, 4.810616e+003
1.237930e+003, 4.813285e+003
1.238412e+003, 4.813110e+003
1.238894e+003, 4.812556e+003
1.239376e+003, 4.815340e+003
1.239858e+003, 4.821991e+003
1.240340e+003, 4.827487e+003
1.240823e+003, 4.831600e+003
1.241305e+003, 4.835575e+003
1.241787e+003, 4.840301e+003
1.242269e+003, 4.844488e+003
1.242751e+003, 4.846231e+003
1.243233e+003, 4.847089e+003
1.243715e+003, 4.849297e+003
1.244197e+003, 4.853194e+003
1.244679e+003, 4.854697e+003
1.245162e+003, 4.853875e+003
1.245644e+003, 4.852801e+003
1.246126e+003, 4.852146e+003
1.246608e+003, 4.852382e+003
1.247090e+003, 4.855154e+003
1.247572e+003, 4.858296e+003
1.248054e+003, 4.859347e+003
1.248536e+003, 4.858360e+003
1.249019e+003, 4.857017e+003
1.249501e+003, 4.855514e+003
1.249983e+003, 4.855152e+003
1.250465e+003, 4.857384e+003
1.250947e+003, 4.860073e+003
1.251429e+003, 4.862015e+003
1.251911e+003, 4.863915e+003
1.252393e+003, 4.866590e+003
1.252875e+003, 4.869855e+003
1.253358e+003, 4.871688e+003
1.253840e+003, 4.872179e+003
1.254322e+003, 4.872586e+003
1.254804e+003, 4.872380e+003
1.255286e+003, 4.873582e+003
1.255768e+003, 4.878004e+003
1.256250e+003, 4.882842e+003
1.256732e+003, 4.885529e+003
1.257214e+003, 4.886537e+003
1.257697e+003, 4.889283e+003
1.258179e+003, 4.893198e+003
1.258661e+003, 4.895333e+003
1.259143e+003, 4.892689e+003
1.259625e+003, 4.890780e+003
1.260107e+003, 4.890754e+003
1.260589e+003, 4.891704e+003
1.261071e+003, 4.892212e+003
1.261554e+003, 4.893223e+003
1.262036e+003, 4.899645e+003
1.262518e+003, 4.909351e+003
1.263000e+003, 4.915360e+003
1.263482e+003, 4.910893e+003
1.263964e+003, 4.908808e+003
1.264446e+003, 4.910921e+003
1.264928e+003, 4.913621e+003
1.265411e+003, 4.914439e+003
1.265893e+003, 4.913434e+003
1.266375e+003, 4.908271e+003
1.266857e+003, 4.901560e+003
1.267339e+003, 4.900425e+003
1.267821e+003, 4.912190e+003
1.268303e+003, 4.919883e+003
1.268785e+003, 4.922761e+003
1.269267e+003, 4.923543e+003
1.269750e+003, 4.924338e+003
1.270232e+003, 4.924374e+003
1.270714e+003, 4.921301e+003
1.271196e+003, 4.916893e+003
1.271678e+003, 4.915489e+003
1.272160e+003, 4.918299e+003
1.272642e+003, 4.920547e+003
1.273124e+003, 4.921854e+003
1.273606e+003, 4.924230e+003
1.274089e+003, 4.930011e+003
1.274571e+003, 4.936488e+003
1.275053e+003, 4.942469e+003
1.275535e+003, 4.946748e+003
1.276017e+003, 4.947071e+003
1.276499e+003, 4.942356e+003
1.276981e+003, 4.941363e+003
1.277463e+003, 4.944242e+003
1.277946e+003, 4.947804e+003
1.278428e+003, 4.951504e+003
1.278910e+003, 4.953667e+003
1.279392e+003, 4.952587e+003
1.279874e+003, 4.949864e+003
1.280356e+003, 4.946776e+003
1.280838e+003, 4.943472e+003
1.281320e+003, 4.943721e+003
1.281802e+003, 4.947065e+003
1.282285e+003, 4.949042e+003
1.282767e+003, 4.943869e+003
1.283249e+003, 4.941286e+003
1.283731e+003, 4.946426e+003
1.284213e+003, 4.953661e+003
1.284695e+003, 4.958360e+003
1.285177e+003, 4.960918e+003
1.285659e+003, 4.963256e+003
1.286141e+003, 4.965331e+003
1.286624e+003, 4.966947e+003
1.287106e+003, 4.967367e+003
1.287588e+003, 4.968291e+003
1.288070e+003, 4.970175e+003
1.288552e+003, 4.972051e+003
1.289034e+003, 4.972528e+003
1.289516e+003, 4.972693e+003
1.289998e+003, 4.975429e+003
1.290481e+003, 4.979878e+003
1.290963e+003, 4.983815e+003
1.291445e+003, 4.987365e+003
1.291927e+003, 4.988454e+003
1.292409e+003, 4.986253e+003
1.292891e+003, 4.984861e+003
1.293373e+003, 4.988395e+003
1.293855e+003, 4.993483e+003
1.294338e+003, 4.996312e+003
1.294820e+003, 4.997377e+003
1.295302e+003, 4.997361e+003
1.295784e+003, 4.995956e+003
1.296266e+003, 4.994980e+003
1.296748e+003, 4.994353e+003
1.297230e+003, 4.995476e+003
1.297712e+003, 5.001088e+003
1.298194e+003, 5.006491e+003
1.298677e+003, 5.006633e+003
1.299159e+003, 5.005075e+003
1.299641e+003, 5.006300e+003
1.300123e+003, 5.010361e+003
1.300605e+003, 5.011905e+003
1.301087e+003, 5.010917e+003
1.301569e+003, 5.007372e+003
1.302051e+003, 4.998944e+003
1.302533e+003, 4.990482e+003
1.303016e+003, 4.983443e+003
##END=



