##NAMES=Eirikite
##RRUFFID=R120006
##IDEAL CHEMISTRY=KNa_6_Be_2_(Si_15_Al_3_)O_39_F_2_
##LOCALITY=Poudrette quarry, Mont Saint-Hilaire, Rouville RCM, Montérégie, Québec, Canada
##OWNER=RRUFF
##SOURCE=Donald Doell
##DESCRIPTION=Aggregate of parallel colorless acicular crystals
##STATUS=The identification of this mineral has been confirmed by single-crystal X-ray diffraction.
##URL=rruff.info/R120006
9.112140e+001, 0.000000e+000
9.160352e+001, 4.965642e+003
9.208563e+001, 4.856208e+003
9.256775e+001, 4.843009e+003
9.304987e+001, 4.977927e+003
9.353198e+001, 5.141138e+003
9.401410e+001, 5.236458e+003
9.449622e+001, 5.268857e+003
9.497833e+001, 5.268407e+003
9.546045e+001, 5.258749e+003
9.594257e+001, 5.239500e+003
9.642468e+001, 5.218135e+003
9.690680e+001, 5.199039e+003
9.738892e+001, 5.180740e+003
9.787103e+001, 5.163501e+003
9.835315e+001, 5.141042e+003
9.883527e+001, 5.110060e+003
9.931738e+001, 5.081410e+003
9.979950e+001, 5.056409e+003
1.002816e+002, 5.036444e+003
1.007637e+002, 5.022354e+003
1.012458e+002, 5.010215e+003
1.017280e+002, 4.995880e+003
1.022101e+002, 4.977651e+003
1.026922e+002, 4.959320e+003
1.031743e+002, 4.947368e+003
1.036564e+002, 4.941168e+003
1.041385e+002, 4.935350e+003
1.046207e+002, 4.927223e+003
1.051028e+002, 4.917491e+003
1.055849e+002, 4.908870e+003
1.060670e+002, 4.901981e+003
1.065491e+002, 4.894745e+003
1.070313e+002, 4.884915e+003
1.075134e+002, 4.871853e+003
1.079955e+002, 4.858111e+003
1.084776e+002, 4.845847e+003
1.089597e+002, 4.834735e+003
1.094418e+002, 4.825743e+003
1.099240e+002, 4.820097e+003
1.104061e+002, 4.815843e+003
1.108882e+002, 4.811465e+003
1.113703e+002, 4.806276e+003
1.118524e+002, 4.801163e+003
1.123345e+002, 4.798704e+003
1.128167e+002, 4.801428e+003
1.132988e+002, 4.803667e+003
1.137809e+002, 4.804265e+003
1.142630e+002, 4.803925e+003
1.147451e+002, 4.803573e+003
1.152272e+002, 4.803773e+003
1.157094e+002, 4.804488e+003
1.161915e+002, 4.805247e+003
1.166736e+002, 4.807645e+003
1.171557e+002, 4.808482e+003
1.176378e+002, 4.804819e+003
1.181199e+002, 4.797960e+003
1.186021e+002, 4.792431e+003
1.190842e+002, 4.792287e+003
1.195663e+002, 4.798067e+003
1.200484e+002, 4.802835e+003
1.205305e+002, 4.805292e+003
1.210126e+002, 4.807458e+003
1.214948e+002, 4.812037e+003
1.219769e+002, 4.819722e+003
1.224590e+002, 4.826286e+003
1.229411e+002, 4.826348e+003
1.234232e+002, 4.821426e+003
1.239053e+002, 4.815246e+003
1.243875e+002, 4.808542e+003
1.248696e+002, 4.801449e+003
1.253517e+002, 4.794182e+003
1.258338e+002, 4.785816e+003
1.263159e+002, 4.778766e+003
1.267980e+002, 4.774386e+003
1.272802e+002, 4.772489e+003
1.277623e+002, 4.772163e+003
1.282444e+002, 4.773232e+003
1.287265e+002, 4.775897e+003
1.292086e+002, 4.777860e+003
1.296907e+002, 4.778278e+003
1.301729e+002, 4.778427e+003
1.306550e+002, 4.779768e+003
1.311371e+002, 4.782063e+003
1.316192e+002, 4.783144e+003
1.321013e+002, 4.779335e+003
1.325834e+002, 4.765976e+003
1.330656e+002, 4.756982e+003
1.335477e+002, 4.753560e+003
1.340298e+002, 4.753138e+003
1.345119e+002, 4.754501e+003
1.349940e+002, 4.757078e+003
1.354761e+002, 4.760102e+003
1.359583e+002, 4.761772e+003
1.364404e+002, 4.759190e+003
1.369225e+002, 4.758902e+003
1.374046e+002, 4.763406e+003
1.378867e+002, 4.770010e+003
1.383688e+002, 4.774822e+003
1.388510e+002, 4.775977e+003
1.393331e+002, 4.774398e+003
1.398152e+002, 4.773071e+003
1.402973e+002, 4.772427e+003
1.407794e+002, 4.771364e+003
1.412615e+002, 4.768372e+003
1.417437e+002, 4.764118e+003
1.422258e+002, 4.761810e+003
1.427079e+002, 4.764170e+003
1.431900e+002, 4.769120e+003
1.436721e+002, 4.771882e+003
1.441542e+002, 4.770893e+003
1.446364e+002, 4.769319e+003
1.451185e+002, 4.770732e+003
1.456006e+002, 4.775701e+003
1.460827e+002, 4.780169e+003
1.465648e+002, 4.781556e+003
1.470469e+002, 4.781496e+003
1.475291e+002, 4.781654e+003
1.480112e+002, 4.782996e+003
1.484933e+002, 4.784521e+003
1.489754e+002, 4.783668e+003
1.494575e+002, 4.778641e+003
1.499396e+002, 4.774321e+003
1.504218e+002, 4.771784e+003
1.509039e+002, 4.770862e+003
1.513860e+002, 4.771656e+003
1.518681e+002, 4.774631e+003
1.523502e+002, 4.779319e+003
1.528323e+002, 4.781516e+003
1.533145e+002, 4.776857e+003
1.537966e+002, 4.773805e+003
1.542787e+002, 4.774942e+003
1.547608e+002, 4.779005e+003
1.552429e+002, 4.783307e+003
1.557250e+002, 4.785744e+003
1.562072e+002, 4.786138e+003
1.566893e+002, 4.786825e+003
1.571714e+002, 4.787799e+003
1.576535e+002, 4.788943e+003
1.581356e+002, 4.790209e+003
1.586177e+002, 4.791586e+003
1.590999e+002, 4.793131e+003
1.595820e+002, 4.794978e+003
1.600641e+002, 4.797223e+003
1.605462e+002, 4.798799e+003
1.610283e+002, 4.799394e+003
1.615104e+002, 4.799582e+003
1.619926e+002, 4.799813e+003
1.624747e+002, 4.800154e+003
1.629568e+002, 4.800348e+003
1.634389e+002, 4.800049e+003
1.639210e+002, 4.799297e+003
1.644031e+002, 4.798600e+003
1.648853e+002, 4.798966e+003
1.653674e+002, 4.799190e+003
1.658495e+002, 4.797215e+003
1.663316e+002, 4.792255e+003
1.668137e+002, 4.786442e+003
1.672958e+002, 4.781157e+003
1.677780e+002, 4.776464e+003
1.682601e+002, 4.773202e+003
1.687422e+002, 4.772718e+003
1.692243e+002, 4.774246e+003
1.697064e+002, 4.774577e+003
1.701885e+002, 4.772448e+003
1.706707e+002, 4.770254e+003
1.711528e+002, 4.770132e+003
1.716349e+002, 4.771550e+003
1.721170e+002, 4.772241e+003
1.725991e+002, 4.769371e+003
1.730812e+002, 4.762639e+003
1.735634e+002, 4.758815e+003
1.740455e+002, 4.760589e+003
1.745276e+002, 4.763703e+003
1.750097e+002, 4.767081e+003
1.754918e+002, 4.770363e+003
1.759739e+002, 4.773174e+003
1.764561e+002, 4.775137e+003
1.769382e+002, 4.776277e+003
1.774203e+002, 4.776373e+003
1.779024e+002, 4.774795e+003
1.783845e+002, 4.772770e+003
1.788666e+002, 4.770818e+003
1.793488e+002, 4.769065e+003
1.798309e+002, 4.767372e+003
1.803130e+002, 4.765491e+003
1.807951e+002, 4.762800e+003
1.812772e+002, 4.761497e+003
1.817593e+002, 4.763188e+003
1.822415e+002, 4.765069e+003
1.827236e+002, 4.765124e+003
1.832057e+002, 4.762880e+003
1.836878e+002, 4.759133e+003
1.841699e+002, 4.754912e+003
1.846520e+002, 4.749161e+003
1.851342e+002, 4.745400e+003
1.856163e+002, 4.745817e+003
1.860984e+002, 4.747417e+003
1.865805e+002, 4.746761e+003
1.870626e+002, 4.742764e+003
1.875447e+002, 4.737340e+003
1.880269e+002, 4.733669e+003
1.885090e+002, 4.732009e+003
1.889911e+002, 4.730570e+003
1.894732e+002, 4.728323e+003
1.899553e+002, 4.726131e+003
1.904374e+002, 4.725870e+003
1.909196e+002, 4.728616e+003
1.914017e+002, 4.732200e+003
1.918838e+002, 4.733238e+003
1.923659e+002, 4.731580e+003
1.928480e+002, 4.730052e+003
1.933301e+002, 4.730304e+003
1.938123e+002, 4.731785e+003
1.942944e+002, 4.732306e+003
1.947765e+002, 4.730304e+003
1.952586e+002, 4.728419e+003
1.957407e+002, 4.729595e+003
1.962228e+002, 4.733873e+003
1.967050e+002, 4.738410e+003
1.971871e+002, 4.741264e+003
1.976692e+002, 4.742497e+003
1.981513e+002, 4.743231e+003
1.986334e+002, 4.743015e+003
1.991155e+002, 4.742986e+003
1.995977e+002, 4.744259e+003
2.000798e+002, 4.746823e+003
2.005619e+002, 4.749269e+003
2.010440e+002, 4.750200e+003
2.015261e+002, 4.749462e+003
2.020082e+002, 4.748411e+003
2.024904e+002, 4.747256e+003
2.029725e+002, 4.745807e+003
2.034546e+002, 4.743646e+003
2.039367e+002, 4.740859e+003
2.044188e+002, 4.738181e+003
2.049009e+002, 4.736341e+003
2.053831e+002, 4.735083e+003
2.058652e+002, 4.735570e+003
2.063473e+002, 4.741124e+003
2.068294e+002, 4.745836e+003
2.073115e+002, 4.745438e+003
2.077936e+002, 4.739672e+003
2.082758e+002, 4.731967e+003
2.087579e+002, 4.727051e+003
2.092400e+002, 4.725917e+003
2.097221e+002, 4.725704e+003
2.102042e+002, 4.726428e+003
2.106863e+002, 4.727854e+003
2.111685e+002, 4.730032e+003
2.116506e+002, 4.732877e+003
2.121327e+002, 4.736017e+003
2.126148e+002, 4.739008e+003
2.130969e+002, 4.742241e+003
2.135790e+002, 4.744229e+003
2.140612e+002, 4.744277e+003
2.145433e+002, 4.743608e+003
2.150254e+002, 4.742660e+003
2.155075e+002, 4.741680e+003
2.159896e+002, 4.741596e+003
2.164717e+002, 4.743938e+003
2.169539e+002, 4.750448e+003
2.174360e+002, 4.755238e+003
2.179181e+002, 4.758562e+003
2.184002e+002, 4.759964e+003
2.188823e+002, 4.758459e+003
2.193644e+002, 4.753790e+003
2.198466e+002, 4.747781e+003
2.203287e+002, 4.742888e+003
2.208108e+002, 4.739352e+003
2.212929e+002, 4.735392e+003
2.217750e+002, 4.731225e+003
2.222571e+002, 4.726353e+003
2.227393e+002, 4.719645e+003
2.232214e+002, 4.710619e+003
2.237035e+002, 4.701350e+003
2.241856e+002, 4.694500e+003
2.246677e+002, 4.689850e+003
2.251498e+002, 4.686237e+003
2.256320e+002, 4.684133e+003
2.261141e+002, 4.682716e+003
2.265962e+002, 4.680564e+003
2.270783e+002, 4.677296e+003
2.275604e+002, 4.673742e+003
2.280425e+002, 4.670611e+003
2.285247e+002, 4.667856e+003
2.290068e+002, 4.665320e+003
2.294889e+002, 4.662790e+003
2.299710e+002, 4.660471e+003
2.304531e+002, 4.658884e+003
2.309352e+002, 4.658297e+003
2.314174e+002, 4.658013e+003
2.318995e+002, 4.657523e+003
2.323816e+002, 4.656887e+003
2.328637e+002, 4.656271e+003
2.333458e+002, 4.655676e+003
2.338279e+002, 4.655149e+003
2.343101e+002, 4.654889e+003
2.347922e+002, 4.655045e+003
2.352743e+002, 4.655219e+003
2.357564e+002, 4.654387e+003
2.362385e+002, 4.653370e+003
2.367206e+002, 4.654025e+003
2.372028e+002, 4.658829e+003
2.376849e+002, 4.666237e+003
2.381670e+002, 4.669409e+003
2.386491e+002, 4.665853e+003
2.391312e+002, 4.661496e+003
2.396133e+002, 4.658640e+003
2.400955e+002, 4.656805e+003
2.405776e+002, 4.655008e+003
2.410597e+002, 4.652436e+003
2.415418e+002, 4.649518e+003
2.420239e+002, 4.648563e+003
2.425060e+002, 4.651550e+003
2.429882e+002, 4.653829e+003
2.434703e+002, 4.653554e+003
2.439524e+002, 4.651873e+003
2.444345e+002, 4.650456e+003
2.449166e+002, 4.650261e+003
2.453987e+002, 4.651057e+003
2.458809e+002, 4.651777e+003
2.463630e+002, 4.652153e+003
2.468451e+002, 4.652806e+003
2.473272e+002, 4.654271e+003
2.478093e+002, 4.655953e+003
2.482914e+002, 4.657221e+003
2.487736e+002, 4.657775e+003
2.492557e+002, 4.657502e+003
2.497378e+002, 4.655855e+003
2.502199e+002, 4.650578e+003
2.507020e+002, 4.646739e+003
2.511841e+002, 4.645898e+003
2.516663e+002, 4.646539e+003
2.521484e+002, 4.646847e+003
2.526305e+002, 4.645944e+003
2.531126e+002, 4.644297e+003
2.535947e+002, 4.643379e+003
2.540768e+002, 4.645922e+003
2.545590e+002, 4.645769e+003
2.550411e+002, 4.640199e+003
2.555232e+002, 4.632704e+003
2.560053e+002, 4.626967e+003
2.564874e+002, 4.624571e+003
2.569695e+002, 4.624658e+003
2.574517e+002, 4.625147e+003
2.579338e+002, 4.626785e+003
2.584159e+002, 4.627925e+003
2.588980e+002, 4.627836e+003
2.593801e+002, 4.627535e+003
2.598622e+002, 4.628561e+003
2.603444e+002, 4.631382e+003
2.608265e+002, 4.634419e+003
2.613086e+002, 4.634642e+003
2.617907e+002, 4.629353e+003
2.622728e+002, 4.625265e+003
2.627549e+002, 4.622749e+003
2.632371e+002, 4.621283e+003
2.637192e+002, 4.620562e+003
2.642013e+002, 4.620463e+003
2.646834e+002, 4.620675e+003
2.651655e+002, 4.620826e+003
2.656476e+002, 4.621246e+003
2.661298e+002, 4.620625e+003
2.666119e+002, 4.617784e+003
2.670940e+002, 4.614552e+003
2.675761e+002, 4.612646e+003
2.680582e+002, 4.612403e+003
2.685403e+002, 4.613122e+003
2.690225e+002, 4.614230e+003
2.695046e+002, 4.616024e+003
2.699867e+002, 4.616638e+003
2.704688e+002, 4.615371e+003
2.709509e+002, 4.613348e+003
2.714330e+002, 4.611118e+003
2.719152e+002, 4.608846e+003
2.723973e+002, 4.607336e+003
2.728794e+002, 4.607714e+003
2.733615e+002, 4.610141e+003
2.738436e+002, 4.611250e+003
2.743257e+002, 4.609406e+003
2.748079e+002, 4.607325e+003
2.752900e+002, 4.607709e+003
2.757721e+002, 4.610491e+003
2.762542e+002, 4.612706e+003
2.767363e+002, 4.611714e+003
2.772184e+002, 4.607927e+003
2.777006e+002, 4.605865e+003
2.781827e+002, 4.606361e+003
2.786648e+002, 4.607920e+003
2.791469e+002, 4.610072e+003
2.796290e+002, 4.612640e+003
2.801111e+002, 4.614478e+003
2.805933e+002, 4.614656e+003
2.810754e+002, 4.613612e+003
2.815575e+002, 4.613133e+003
2.820396e+002, 4.613797e+003
2.825217e+002, 4.614350e+003
2.830038e+002, 4.614100e+003
2.834860e+002, 4.613108e+003
2.839681e+002, 4.611520e+003
2.844502e+002, 4.608974e+003
2.849323e+002, 4.606265e+003
2.854144e+002, 4.604894e+003
2.858965e+002, 4.605034e+003
2.863787e+002, 4.605984e+003
2.868608e+002, 4.608387e+003
2.873429e+002, 4.611533e+003
2.878250e+002, 4.612578e+003
2.883071e+002, 4.609782e+003
2.887892e+002, 4.605560e+003
2.892714e+002, 4.603782e+003
2.897535e+002, 4.604812e+003
2.902356e+002, 4.605051e+003
2.907177e+002, 4.602266e+003
2.911998e+002, 4.597391e+003
2.916819e+002, 4.592713e+003
2.921641e+002, 4.588485e+003
2.926462e+002, 4.585058e+003
2.931283e+002, 4.583521e+003
2.936104e+002, 4.583593e+003
2.940925e+002, 4.582442e+003
2.945746e+002, 4.577632e+003
2.950568e+002, 4.571067e+003
2.955389e+002, 4.566604e+003
2.960210e+002, 4.564967e+003
2.965031e+002, 4.564620e+003
2.969852e+002, 4.565256e+003
2.974673e+002, 4.566312e+003
2.979495e+002, 4.565958e+003
2.984316e+002, 4.562928e+003
2.989137e+002, 4.558414e+003
2.993958e+002, 4.554138e+003
2.998779e+002, 4.550202e+003
3.003600e+002, 4.546190e+003
3.008422e+002, 4.541610e+003
3.013243e+002, 4.536798e+003
3.018064e+002, 4.532389e+003
3.022885e+002, 4.528285e+003
3.027706e+002, 4.524806e+003
3.032527e+002, 4.522589e+003
3.037349e+002, 4.521725e+003
3.042170e+002, 4.520764e+003
3.046991e+002, 4.519050e+003
3.051812e+002, 4.516822e+003
3.056633e+002, 4.514236e+003
3.061454e+002, 4.510978e+003
3.066276e+002, 4.508229e+003
3.071097e+002, 4.507942e+003
3.075918e+002, 4.509891e+003
3.080739e+002, 4.509717e+003
3.085560e+002, 4.504510e+003
3.090381e+002, 4.497837e+003
3.095203e+002, 4.494039e+003
3.100024e+002, 4.493458e+003
3.104845e+002, 4.492982e+003
3.109666e+002, 4.489811e+003
3.114487e+002, 4.484674e+003
3.119308e+002, 4.481531e+003
3.124130e+002, 4.482272e+003
3.128951e+002, 4.483539e+003
3.133772e+002, 4.481655e+003
3.138593e+002, 4.477141e+003
3.143414e+002, 4.473579e+003
3.148235e+002, 4.473218e+003
3.153057e+002, 4.475084e+003
3.157878e+002, 4.477239e+003
3.162699e+002, 4.480466e+003
3.167520e+002, 4.481632e+003
3.172341e+002, 4.476811e+003
3.177162e+002, 4.468272e+003
3.181984e+002, 4.460733e+003
3.186805e+002, 4.455946e+003
3.191626e+002, 4.453146e+003
3.196447e+002, 4.451234e+003
3.201268e+002, 4.450236e+003
3.206089e+002, 4.450117e+003
3.210911e+002, 4.452462e+003
3.215732e+002, 4.455247e+003
3.220553e+002, 4.455286e+003
3.225374e+002, 4.450846e+003
3.230195e+002, 4.445319e+003
3.235016e+002, 4.442611e+003
3.239838e+002, 4.442732e+003
3.244659e+002, 4.441874e+003
3.249480e+002, 4.437338e+003
3.254301e+002, 4.432000e+003
3.259122e+002, 4.429468e+003
3.263943e+002, 4.430245e+003
3.268765e+002, 4.432013e+003
3.273586e+002, 4.433712e+003
3.278407e+002, 4.435190e+003
3.283228e+002, 4.435345e+003
3.288049e+002, 4.433133e+003
3.292870e+002, 4.430604e+003
3.297692e+002, 4.430634e+003
3.302513e+002, 4.432906e+003
3.307334e+002, 4.433444e+003
3.312155e+002, 4.428478e+003
3.316976e+002, 4.420562e+003
3.321797e+002, 4.416164e+003
3.326619e+002, 4.417028e+003
3.331440e+002, 4.418375e+003
3.336261e+002, 4.415466e+003
3.341082e+002, 4.409943e+003
3.345903e+002, 4.405636e+003
3.350724e+002, 4.403163e+003
3.355546e+002, 4.402802e+003
3.360367e+002, 4.406359e+003
3.365188e+002, 4.414367e+003
3.370009e+002, 4.420424e+003
3.374830e+002, 4.419875e+003
3.379651e+002, 4.415102e+003
3.384473e+002, 4.410636e+003
3.389294e+002, 4.406929e+003
3.394115e+002, 4.403670e+003
3.398936e+002, 4.400896e+003
3.403757e+002, 4.398505e+003
3.408578e+002, 4.395733e+003
3.413400e+002, 4.391948e+003
3.418221e+002, 4.387991e+003
3.423042e+002, 4.385246e+003
3.427863e+002, 4.383929e+003
3.432684e+002, 4.382444e+003
3.437505e+002, 4.379604e+003
3.442327e+002, 4.376023e+003
3.447148e+002, 4.373090e+003
3.451969e+002, 4.370999e+003
3.456790e+002, 4.369837e+003
3.461611e+002, 4.369657e+003
3.466432e+002, 4.370355e+003
3.471254e+002, 4.372576e+003
3.476075e+002, 4.378093e+003
3.480896e+002, 4.384440e+003
3.485717e+002, 4.389468e+003
3.490538e+002, 4.393115e+003
3.495359e+002, 4.392771e+003
3.500181e+002, 4.384145e+003
3.505002e+002, 4.369542e+003
3.509823e+002, 4.359848e+003
3.514644e+002, 4.359381e+003
3.519465e+002, 4.360833e+003
3.524286e+002, 4.359088e+003
3.529108e+002, 4.354849e+003
3.533929e+002, 4.351604e+003
3.538750e+002, 4.351418e+003
3.543571e+002, 4.352904e+003
3.548392e+002, 4.352353e+003
3.553214e+002, 4.348419e+003
3.558035e+002, 4.345715e+003
3.562856e+002, 4.347786e+003
3.567677e+002, 4.351859e+003
3.572498e+002, 4.352407e+003
3.577319e+002, 4.347485e+003
3.582141e+002, 4.340822e+003
3.586962e+002, 4.337498e+003
3.591783e+002, 4.337974e+003
3.596604e+002, 4.338796e+003
3.601425e+002, 4.340825e+003
3.606246e+002, 4.342290e+003
3.611068e+002, 4.340810e+003
3.615889e+002, 4.336414e+003
3.620710e+002, 4.332129e+003
3.625531e+002, 4.330440e+003
3.630352e+002, 4.331413e+003
3.635173e+002, 4.332768e+003
3.639995e+002, 4.334937e+003
3.644816e+002, 4.337038e+003
3.649637e+002, 4.339032e+003
3.654458e+002, 4.340638e+003
3.659279e+002, 4.340667e+003
3.664100e+002, 4.338059e+003
3.668922e+002, 4.334466e+003
3.673743e+002, 4.335543e+003
3.678564e+002, 4.344923e+003
3.683385e+002, 4.353430e+003
3.688206e+002, 4.360359e+003
3.693027e+002, 4.365609e+003
3.697849e+002, 4.368477e+003
3.702670e+002, 4.368865e+003
3.707491e+002, 4.368391e+003
3.712312e+002, 4.369372e+003
3.717133e+002, 4.372699e+003
3.721954e+002, 4.374680e+003
3.726776e+002, 4.373895e+003
3.731597e+002, 4.373056e+003
3.736418e+002, 4.373369e+003
3.741239e+002, 4.375121e+003
3.746060e+002, 4.378553e+003
3.750881e+002, 4.384115e+003
3.755703e+002, 4.391713e+003
3.760524e+002, 4.398311e+003
3.765345e+002, 4.403245e+003
3.770166e+002, 4.408045e+003
3.774987e+002, 4.413263e+003
3.779808e+002, 4.418538e+003
3.784630e+002, 4.423177e+003
3.789451e+002, 4.426860e+003
3.794272e+002, 4.430159e+003
3.799093e+002, 4.434686e+003
3.803914e+002, 4.443554e+003
3.808735e+002, 4.448199e+003
3.813557e+002, 4.447462e+003
3.818378e+002, 4.443540e+003
3.823199e+002, 4.437605e+003
3.828020e+002, 4.430043e+003
3.832841e+002, 4.421089e+003
3.837662e+002, 4.410839e+003
3.842484e+002, 4.399006e+003
3.847305e+002, 4.387481e+003
3.852126e+002, 4.375552e+003
3.856947e+002, 4.364566e+003
3.861768e+002, 4.355250e+003
3.866589e+002, 4.347196e+003
3.871411e+002, 4.339620e+003
3.876232e+002, 4.332097e+003
3.881053e+002, 4.324542e+003
3.885874e+002, 4.316629e+003
3.890695e+002, 4.307782e+003
3.895516e+002, 4.299711e+003
3.900338e+002, 4.292223e+003
3.905159e+002, 4.285829e+003
3.909980e+002, 4.281366e+003
3.914801e+002, 4.279037e+003
3.919622e+002, 4.277591e+003
3.924443e+002, 4.275120e+003
3.929265e+002, 4.271350e+003
3.934086e+002, 4.269504e+003
3.938907e+002, 4.272368e+003
3.943728e+002, 4.275051e+003
3.948549e+002, 4.275021e+003
3.953370e+002, 4.272417e+003
3.958192e+002, 4.268268e+003
3.963013e+002, 4.262501e+003
3.967834e+002, 4.255707e+003
3.972655e+002, 4.249751e+003
3.977476e+002, 4.244558e+003
3.982297e+002, 4.240451e+003
3.987119e+002, 4.238864e+003
3.991940e+002, 4.238056e+003
3.996761e+002, 4.235625e+003
4.001582e+002, 4.230493e+003
4.006403e+002, 4.224613e+003
4.011224e+002, 4.219740e+003
4.016046e+002, 4.215811e+003
4.020867e+002, 4.212643e+003
4.025688e+002, 4.210383e+003
4.030509e+002, 4.208657e+003
4.035330e+002, 4.206638e+003
4.040151e+002, 4.204266e+003
4.044973e+002, 4.203173e+003
4.049794e+002, 4.205430e+003
4.054615e+002, 4.209048e+003
4.059436e+002, 4.210416e+003
4.064257e+002, 4.208959e+003
4.069078e+002, 4.206573e+003
4.073900e+002, 4.204781e+003
4.078721e+002, 4.203365e+003
4.083542e+002, 4.201147e+003
4.088363e+002, 4.196600e+003
4.093184e+002, 4.192572e+003
4.098005e+002, 4.191388e+003
4.102827e+002, 4.192404e+003
4.107648e+002, 4.193261e+003
4.112469e+002, 4.192776e+003
4.117290e+002, 4.191834e+003
4.122111e+002, 4.192466e+003
4.126932e+002, 4.194736e+003
4.131754e+002, 4.198017e+003
4.136575e+002, 4.203216e+003
4.141396e+002, 4.208808e+003
4.146217e+002, 4.213558e+003
4.151038e+002, 4.217125e+003
4.155859e+002, 4.219231e+003
4.160681e+002, 4.219628e+003
4.165502e+002, 4.218267e+003
4.170323e+002, 4.214981e+003
4.175144e+002, 4.207358e+003
4.179965e+002, 4.200624e+003
4.184786e+002, 4.197477e+003
4.189608e+002, 4.196714e+003
4.194429e+002, 4.195790e+003
4.199250e+002, 4.193387e+003
4.204071e+002, 4.190118e+003
4.208892e+002, 4.187739e+003
4.213713e+002, 4.187936e+003
4.218535e+002, 4.186444e+003
4.223356e+002, 4.182559e+003
4.228177e+002, 4.177502e+003
4.232998e+002, 4.172227e+003
4.237819e+002, 4.166836e+003
4.242640e+002, 4.160793e+003
4.247462e+002, 4.153135e+003
4.252283e+002, 4.143560e+003
4.257104e+002, 4.136431e+003
4.261925e+002, 4.135352e+003
4.266746e+002, 4.132844e+003
4.271567e+002, 4.125140e+003
4.276389e+002, 4.114985e+003
4.281210e+002, 4.106724e+003
4.286031e+002, 4.102471e+003
4.290852e+002, 4.100925e+003
4.295673e+002, 4.099796e+003
4.300494e+002, 4.099323e+003
4.305316e+002, 4.098426e+003
4.310137e+002, 4.096592e+003
4.314958e+002, 4.094439e+003
4.319779e+002, 4.092484e+003
4.324600e+002, 4.090712e+003
4.329421e+002, 4.088506e+003
4.334243e+002, 4.084938e+003
4.339064e+002, 4.080457e+003
4.343885e+002, 4.077001e+003
4.348706e+002, 4.074823e+003
4.353527e+002, 4.073279e+003
4.358348e+002, 4.073054e+003
4.363170e+002, 4.073004e+003
4.367991e+002, 4.070866e+003
4.372812e+002, 4.064985e+003
4.377633e+002, 4.058388e+003
4.382454e+002, 4.053642e+003
4.387275e+002, 4.050610e+003
4.392097e+002, 4.048718e+003
4.396918e+002, 4.048168e+003
4.401739e+002, 4.048092e+003
4.406560e+002, 4.046407e+003
4.411381e+002, 4.042615e+003
4.416202e+002, 4.041933e+003
4.421024e+002, 4.049472e+003
4.425845e+002, 4.058871e+003
4.430666e+002, 4.062728e+003
4.435487e+002, 4.060489e+003
4.440308e+002, 4.055549e+003
4.445129e+002, 4.049463e+003
4.449951e+002, 4.042804e+003
4.454772e+002, 4.040413e+003
4.459593e+002, 4.046490e+003
4.464414e+002, 4.051308e+003
4.469235e+002, 4.050584e+003
4.474056e+002, 4.047150e+003
4.478878e+002, 4.045832e+003
4.483699e+002, 4.048215e+003
4.488520e+002, 4.051220e+003
4.493341e+002, 4.049895e+003
4.498162e+002, 4.041955e+003
4.502983e+002, 4.036098e+003
4.507805e+002, 4.032494e+003
4.512626e+002, 4.030469e+003
4.517447e+002, 4.030746e+003
4.522268e+002, 4.032357e+003
4.527089e+002, 4.032883e+003
4.531910e+002, 4.030435e+003
4.536732e+002, 4.026201e+003
4.541553e+002, 4.025486e+003
4.546374e+002, 4.031212e+003
4.551195e+002, 4.035508e+003
4.556016e+002, 4.037249e+003
4.560837e+002, 4.037168e+003
4.565659e+002, 4.035004e+003
4.570480e+002, 4.031045e+003
4.575301e+002, 4.027571e+003
4.580122e+002, 4.026911e+003
4.584943e+002, 4.029028e+003
4.589764e+002, 4.032547e+003
4.594586e+002, 4.039189e+003
4.599407e+002, 4.044507e+003
4.604228e+002, 4.045717e+003
4.609049e+002, 4.044269e+003
4.613870e+002, 4.042551e+003
4.618691e+002, 4.040974e+003
4.623513e+002, 4.040159e+003
4.628334e+002, 4.041321e+003
4.633155e+002, 4.044377e+003
4.637976e+002, 4.047046e+003
4.642797e+002, 4.048548e+003
4.647618e+002, 4.049459e+003
4.652440e+002, 4.049999e+003
4.657261e+002, 4.050078e+003
4.662082e+002, 4.051916e+003
4.666903e+002, 4.057797e+003
4.671724e+002, 4.065020e+003
4.676545e+002, 4.070054e+003
4.681367e+002, 4.072727e+003
4.686188e+002, 4.075689e+003
4.691009e+002, 4.081384e+003
4.695830e+002, 4.088571e+003
4.700651e+002, 4.091110e+003
4.705472e+002, 4.085887e+003
4.710294e+002, 4.080645e+003
4.715115e+002, 4.078460e+003
4.719936e+002, 4.076863e+003
4.724757e+002, 4.072633e+003
4.729578e+002, 4.064986e+003
4.734399e+002, 4.055358e+003
4.739221e+002, 4.045422e+003
4.744042e+002, 4.035287e+003
4.748863e+002, 4.024133e+003
4.753684e+002, 4.009665e+003
4.758505e+002, 3.996604e+003
4.763326e+002, 3.986324e+003
4.768148e+002, 3.978751e+003
4.772969e+002, 3.974117e+003
4.777790e+002, 3.972664e+003
4.782611e+002, 3.972635e+003
4.787432e+002, 3.970021e+003
4.792253e+002, 3.963366e+003
4.797075e+002, 3.958338e+003
4.801896e+002, 3.955965e+003
4.806717e+002, 3.955095e+003
4.811538e+002, 3.955687e+003
4.816359e+002, 3.957414e+003
4.821180e+002, 3.959249e+003
4.826002e+002, 3.959652e+003
4.830823e+002, 3.959919e+003
4.835644e+002, 3.964670e+003
4.840465e+002, 3.975475e+003
4.845286e+002, 3.984901e+003
4.850107e+002, 3.988338e+003
4.854929e+002, 3.989263e+003
4.859750e+002, 3.991503e+003
4.864571e+002, 3.995368e+003
4.869392e+002, 4.000761e+003
4.874213e+002, 4.008482e+003
4.879034e+002, 4.017569e+003
4.883856e+002, 4.026097e+003
4.888677e+002, 4.033905e+003
4.893498e+002, 4.040299e+003
4.898319e+002, 4.043752e+003
4.903140e+002, 4.044749e+003
4.907961e+002, 4.048892e+003
4.912783e+002, 4.057593e+003
4.917604e+002, 4.067946e+003
4.922425e+002, 4.078632e+003
4.927246e+002, 4.090086e+003
4.932067e+002, 4.103298e+003
4.936888e+002, 4.118563e+003
4.941710e+002, 4.135310e+003
4.946531e+002, 4.152247e+003
4.951352e+002, 4.168380e+003
4.956173e+002, 4.188189e+003
4.960994e+002, 4.213018e+003
4.965815e+002, 4.239622e+003
4.970637e+002, 4.265999e+003
4.975458e+002, 4.292860e+003
4.980279e+002, 4.322416e+003
4.985100e+002, 4.356198e+003
4.989921e+002, 4.392075e+003
4.994742e+002, 4.425794e+003
4.999564e+002, 4.458245e+003
5.004385e+002, 4.485891e+003
5.009206e+002, 4.509992e+003
5.014027e+002, 4.527945e+003
5.018848e+002, 4.539642e+003
5.023669e+002, 4.543918e+003
5.028491e+002, 4.536428e+003
5.033312e+002, 4.512674e+003
5.038133e+002, 4.475437e+003
5.042954e+002, 4.431025e+003
5.047775e+002, 4.378810e+003
5.052596e+002, 4.322931e+003
5.057418e+002, 4.260763e+003
5.062239e+002, 4.198979e+003
5.067060e+002, 4.146379e+003
5.071881e+002, 4.104272e+003
5.076702e+002, 4.068432e+003
5.081523e+002, 4.038918e+003
5.086345e+002, 4.013604e+003
5.091166e+002, 3.988752e+003
5.095987e+002, 3.963696e+003
5.100808e+002, 3.940712e+003
5.105629e+002, 3.921482e+003
5.110450e+002, 3.906081e+003
5.115272e+002, 3.893556e+003
5.120093e+002, 3.885911e+003
5.124914e+002, 3.878244e+003
5.129735e+002, 3.867448e+003
5.134556e+002, 3.856447e+003
5.139377e+002, 3.850002e+003
5.144199e+002, 3.849058e+003
5.149020e+002, 3.849081e+003
5.153841e+002, 3.844214e+003
5.158662e+002, 3.833568e+003
5.163483e+002, 3.824294e+003
5.168304e+002, 3.817456e+003
5.173126e+002, 3.810955e+003
5.177947e+002, 3.803836e+003
5.182768e+002, 3.796845e+003
5.187589e+002, 3.791115e+003
5.192410e+002, 3.787106e+003
5.197231e+002, 3.784269e+003
5.202053e+002, 3.781849e+003
5.206874e+002, 3.779832e+003
5.211695e+002, 3.778542e+003
5.216516e+002, 3.779026e+003
5.221337e+002, 3.778899e+003
5.226158e+002, 3.776515e+003
5.230980e+002, 3.772313e+003
5.235801e+002, 3.767416e+003
5.240622e+002, 3.760916e+003
5.245443e+002, 3.755206e+003
5.250264e+002, 3.753429e+003
5.255085e+002, 3.755016e+003
5.259907e+002, 3.756799e+003
5.264728e+002, 3.757901e+003
5.269549e+002, 3.758299e+003
5.274370e+002, 3.757777e+003
5.279191e+002, 3.756199e+003
5.284012e+002, 3.754774e+003
5.288834e+002, 3.753327e+003
5.293655e+002, 3.752345e+003
5.298476e+002, 3.753246e+003
5.303297e+002, 3.754975e+003
5.308118e+002, 3.754577e+003
5.312939e+002, 3.750395e+003
5.317761e+002, 3.743503e+003
5.322582e+002, 3.736449e+003
5.327403e+002, 3.727820e+003
5.332224e+002, 3.721682e+003
5.337045e+002, 3.719250e+003
5.341866e+002, 3.717911e+003
5.346688e+002, 3.717170e+003
5.351509e+002, 3.716191e+003
5.356330e+002, 3.713091e+003
5.361151e+002, 3.705967e+003
5.365972e+002, 3.696791e+003
5.370793e+002, 3.691234e+003
5.375615e+002, 3.690425e+003
5.380436e+002, 3.688757e+003
5.385257e+002, 3.683894e+003
5.390078e+002, 3.678162e+003
5.394899e+002, 3.673533e+003
5.399720e+002, 3.670063e+003
5.404542e+002, 3.666930e+003
5.409363e+002, 3.664090e+003
5.414184e+002, 3.661229e+003
5.419005e+002, 3.657819e+003
5.423826e+002, 3.653876e+003
5.428647e+002, 3.649891e+003
5.433469e+002, 3.646103e+003
5.438290e+002, 3.642416e+003
5.443111e+002, 3.638410e+003
5.447932e+002, 3.633274e+003
5.452753e+002, 3.629690e+003
5.457574e+002, 3.629418e+003
5.462396e+002, 3.629807e+003
5.467217e+002, 3.628424e+003
5.472038e+002, 3.625368e+003
5.476859e+002, 3.622355e+003
5.481680e+002, 3.620637e+003
5.486501e+002, 3.619790e+003
5.491323e+002, 3.617800e+003
5.496144e+002, 3.613029e+003
5.500965e+002, 3.610031e+003
5.505786e+002, 3.610221e+003
5.510607e+002, 3.611402e+003
5.515428e+002, 3.612655e+003
5.520250e+002, 3.613523e+003
5.525071e+002, 3.613059e+003
5.529892e+002, 3.610024e+003
5.534713e+002, 3.605332e+003
5.539534e+002, 3.601306e+003
5.544355e+002, 3.597781e+003
5.549177e+002, 3.595956e+003
5.553998e+002, 3.597852e+003
5.558819e+002, 3.600557e+003
5.563640e+002, 3.599736e+003
5.568461e+002, 3.594802e+003
5.573282e+002, 3.590693e+003
5.578104e+002, 3.590163e+003
5.582925e+002, 3.590952e+003
5.587746e+002, 3.590434e+003
5.592567e+002, 3.588520e+003
5.597388e+002, 3.586345e+003
5.602209e+002, 3.584563e+003
5.607031e+002, 3.583031e+003
5.611852e+002, 3.581302e+003
5.616673e+002, 3.580346e+003
5.621494e+002, 3.577699e+003
5.626315e+002, 3.571688e+003
5.631136e+002, 3.565270e+003
5.635958e+002, 3.560158e+003
5.640779e+002, 3.556617e+003
5.645600e+002, 3.554779e+003
5.650421e+002, 3.555069e+003
5.655242e+002, 3.556501e+003
5.660063e+002, 3.555325e+003
5.664885e+002, 3.550075e+003
5.669706e+002, 3.546496e+003
5.674527e+002, 3.547766e+003
5.679348e+002, 3.549821e+003
5.684169e+002, 3.549919e+003
5.688990e+002, 3.548089e+003
5.693812e+002, 3.545891e+003
5.698633e+002, 3.544336e+003
5.703454e+002, 3.542806e+003
5.708275e+002, 3.540112e+003
5.713096e+002, 3.536364e+003
5.717917e+002, 3.533065e+003
5.722739e+002, 3.530716e+003
5.727560e+002, 3.529332e+003
5.732381e+002, 3.529339e+003
5.737202e+002, 3.531586e+003
5.742023e+002, 3.531893e+003
5.746844e+002, 3.528714e+003
5.751666e+002, 3.524506e+003
5.756487e+002, 3.520248e+003
5.761308e+002, 3.516396e+003
5.766129e+002, 3.513713e+003
5.770950e+002, 3.512614e+003
5.775771e+002, 3.512506e+003
5.780593e+002, 3.512035e+003
5.785414e+002, 3.510854e+003
5.790235e+002, 3.510219e+003
5.795056e+002, 3.510676e+003
5.799877e+002, 3.511209e+003
5.804698e+002, 3.511768e+003
5.809520e+002, 3.512004e+003
5.814341e+002, 3.511171e+003
5.819162e+002, 3.508675e+003
5.823983e+002, 3.505486e+003
5.828804e+002, 3.502529e+003
5.833625e+002, 3.499869e+003
5.838447e+002, 3.498413e+003
5.843268e+002, 3.498531e+003
5.848089e+002, 3.499571e+003
5.852910e+002, 3.501712e+003
5.857731e+002, 3.504667e+003
5.862552e+002, 3.505182e+003
5.867374e+002, 3.502350e+003
5.872195e+002, 3.497700e+003
5.877016e+002, 3.490871e+003
5.881837e+002, 3.483083e+003
5.886658e+002, 3.476287e+003
5.891479e+002, 3.471086e+003
5.896301e+002, 3.466904e+003
5.901122e+002, 3.462799e+003
5.905943e+002, 3.458499e+003
5.910764e+002, 3.457018e+003
5.915585e+002, 3.461531e+003
5.920406e+002, 3.465197e+003
5.925228e+002, 3.466806e+003
5.930049e+002, 3.466498e+003
5.934870e+002, 3.464188e+003
5.939691e+002, 3.459898e+003
5.944512e+002, 3.454835e+003
5.949333e+002, 3.449006e+003
5.954155e+002, 3.443145e+003
5.958976e+002, 3.441202e+003
5.963797e+002, 3.444288e+003
5.968618e+002, 3.447329e+003
5.973439e+002, 3.447690e+003
5.978260e+002, 3.445810e+003
5.983082e+002, 3.442942e+003
5.987903e+002, 3.438418e+003
5.992724e+002, 3.434645e+003
5.997545e+002, 3.432633e+003
6.002366e+002, 3.431622e+003
6.007188e+002, 3.430466e+003
6.012009e+002, 3.429344e+003
6.016830e+002, 3.430145e+003
6.021651e+002, 3.434564e+003
6.026472e+002, 3.440841e+003
6.031293e+002, 3.442212e+003
6.036115e+002, 3.435294e+003
6.040936e+002, 3.429584e+003
6.045757e+002, 3.426128e+003
6.050578e+002, 3.423574e+003
6.055399e+002, 3.422172e+003
6.060220e+002, 3.421046e+003
6.065042e+002, 3.417696e+003
6.069863e+002, 3.409623e+003
6.074684e+002, 3.400305e+003
6.079505e+002, 3.395831e+003
6.084326e+002, 3.396075e+003
6.089147e+002, 3.396103e+003
6.093969e+002, 3.394614e+003
6.098790e+002, 3.392565e+003
6.103611e+002, 3.390952e+003
6.108432e+002, 3.389734e+003
6.113253e+002, 3.388446e+003
6.118074e+002, 3.387042e+003
6.122896e+002, 3.385565e+003
6.127717e+002, 3.384207e+003
6.132538e+002, 3.382736e+003
6.137359e+002, 3.380440e+003
6.142180e+002, 3.377200e+003
6.147001e+002, 3.374271e+003
6.151823e+002, 3.373354e+003
6.156644e+002, 3.374610e+003
6.161465e+002, 3.374359e+003
6.166286e+002, 3.372210e+003
6.171107e+002, 3.368955e+003
6.175928e+002, 3.363207e+003
6.180750e+002, 3.357443e+003
6.185571e+002, 3.354350e+003
6.190392e+002, 3.354404e+003
6.195213e+002, 3.355716e+003
6.200034e+002, 3.358026e+003
6.204855e+002, 3.360309e+003
6.209677e+002, 3.359830e+003
6.214498e+002, 3.356409e+003
6.219319e+002, 3.352764e+003
6.224140e+002, 3.350063e+003
6.228961e+002, 3.348153e+003
6.233782e+002, 3.346904e+003
6.238604e+002, 3.346803e+003
6.243425e+002, 3.345793e+003
6.248246e+002, 3.342906e+003
6.253067e+002, 3.339698e+003
6.257888e+002, 3.336687e+003
6.262709e+002, 3.334250e+003
6.267531e+002, 3.333114e+003
6.272352e+002, 3.333662e+003
6.277173e+002, 3.334987e+003
6.281994e+002, 3.335786e+003
6.286815e+002, 3.336327e+003
6.291636e+002, 3.334640e+003
6.296458e+002, 3.328997e+003
6.301279e+002, 3.323136e+003
6.306100e+002, 3.318280e+003
6.310921e+002, 3.314611e+003
6.315742e+002, 3.312638e+003
6.320563e+002, 3.312804e+003
6.325385e+002, 3.313698e+003
6.330206e+002, 3.314286e+003
6.335027e+002, 3.314894e+003
6.339848e+002, 3.317091e+003
6.344669e+002, 3.320991e+003
6.349490e+002, 3.322464e+003
6.354312e+002, 3.317944e+003
6.359133e+002, 3.308937e+003
6.363954e+002, 3.302466e+003
6.368775e+002, 3.301265e+003
6.373596e+002, 3.299080e+003
6.378417e+002, 3.294693e+003
6.383239e+002, 3.290120e+003
6.388060e+002, 3.286739e+003
6.392881e+002, 3.284491e+003
6.397702e+002, 3.282529e+003
6.402523e+002, 3.280176e+003
6.407344e+002, 3.278242e+003
6.412166e+002, 3.279066e+003
6.416987e+002, 3.282849e+003
6.421808e+002, 3.284436e+003
6.426629e+002, 3.282115e+003
6.431450e+002, 3.278490e+003
6.436271e+002, 3.275713e+003
6.441093e+002, 3.273535e+003
6.445914e+002, 3.271127e+003
6.450735e+002, 3.267612e+003
6.455556e+002, 3.264746e+003
6.460377e+002, 3.264292e+003
6.465198e+002, 3.264608e+003
6.470020e+002, 3.262826e+003
6.474841e+002, 3.258714e+003
6.479662e+002, 3.254952e+003
6.484483e+002, 3.254036e+003
6.489304e+002, 3.255538e+003
6.494125e+002, 3.256502e+003
6.498947e+002, 3.257248e+003
6.503768e+002, 3.256783e+003
6.508589e+002, 3.254173e+003
6.513410e+002, 3.250962e+003
6.518231e+002, 3.248258e+003
6.523052e+002, 3.245985e+003
6.527874e+002, 3.243312e+003
6.532695e+002, 3.239710e+003
6.537516e+002, 3.235592e+003
6.542337e+002, 3.230932e+003
6.547158e+002, 3.226067e+003
6.551979e+002, 3.222603e+003
6.556801e+002, 3.221030e+003
6.561622e+002, 3.220853e+003
6.566443e+002, 3.221952e+003
6.571264e+002, 3.224501e+003
6.576085e+002, 3.224893e+003
6.580906e+002, 3.221759e+003
6.585728e+002, 3.218531e+003
6.590549e+002, 3.215981e+003
6.595370e+002, 3.213756e+003
6.600191e+002, 3.211393e+003
6.605012e+002, 3.208856e+003
6.609833e+002, 3.206536e+003
6.614655e+002, 3.205013e+003
6.619476e+002, 3.203805e+003
6.624297e+002, 3.201165e+003
6.629118e+002, 3.196854e+003
6.633939e+002, 3.193086e+003
6.638760e+002, 3.190643e+003
6.643582e+002, 3.188923e+003
6.648403e+002, 3.187241e+003
6.653224e+002, 3.185605e+003
6.658045e+002, 3.184395e+003
6.662866e+002, 3.183077e+003
6.667687e+002, 3.182818e+003
6.672509e+002, 3.186020e+003
6.677330e+002, 3.190145e+003
6.682151e+002, 3.190526e+003
6.686972e+002, 3.186219e+003
6.691793e+002, 3.180846e+003
6.696614e+002, 3.178251e+003
6.701436e+002, 3.178167e+003
6.706257e+002, 3.176575e+003
6.711078e+002, 3.172327e+003
6.715899e+002, 3.168929e+003
6.720720e+002, 3.167794e+003
6.725541e+002, 3.167551e+003
6.730363e+002, 3.167178e+003
6.735184e+002, 3.166643e+003
6.740005e+002, 3.166403e+003
6.744826e+002, 3.167521e+003
6.749647e+002, 3.168309e+003
6.754468e+002, 3.166863e+003
6.759290e+002, 3.163670e+003
6.764111e+002, 3.159951e+003
6.768932e+002, 3.156065e+003
6.773753e+002, 3.152734e+003
6.778574e+002, 3.150884e+003
6.783395e+002, 3.150566e+003
6.788217e+002, 3.150550e+003
6.793038e+002, 3.152699e+003
6.797859e+002, 3.152710e+003
6.802680e+002, 3.148582e+003
6.807501e+002, 3.142931e+003
6.812322e+002, 3.137170e+003
6.817144e+002, 3.132011e+003
6.821965e+002, 3.129146e+003
6.826786e+002, 3.131094e+003
6.831607e+002, 3.135082e+003
6.836428e+002, 3.136926e+003
6.841249e+002, 3.136689e+003
6.846071e+002, 3.134387e+003
6.850892e+002, 3.129497e+003
6.855713e+002, 3.124425e+003
6.860534e+002, 3.121901e+003
6.865355e+002, 3.122064e+003
6.870176e+002, 3.122467e+003
6.874998e+002, 3.123851e+003
6.879819e+002, 3.124489e+003
6.884640e+002, 3.122942e+003
6.889461e+002, 3.121059e+003
6.894282e+002, 3.121055e+003
6.899103e+002, 3.122918e+003
6.903925e+002, 3.124700e+003
6.908746e+002, 3.125248e+003
6.913567e+002, 3.124406e+003
6.918388e+002, 3.121029e+003
6.923209e+002, 3.114973e+003
6.928030e+002, 3.110714e+003
6.932852e+002, 3.110250e+003
6.937673e+002, 3.110421e+003
6.942494e+002, 3.107344e+003
6.947315e+002, 3.101380e+003
6.952136e+002, 3.098075e+003
6.956957e+002, 3.099391e+003
6.961779e+002, 3.101263e+003
6.966600e+002, 3.102527e+003
6.971421e+002, 3.103485e+003
6.976242e+002, 3.104581e+003
6.981063e+002, 3.105798e+003
6.985884e+002, 3.106593e+003
6.990706e+002, 3.106312e+003
6.995527e+002, 3.105714e+003
7.000348e+002, 3.107644e+003
7.005169e+002, 3.112852e+003
7.009990e+002, 3.115508e+003
7.014811e+002, 3.113250e+003
7.019633e+002, 3.109866e+003
7.024454e+002, 3.108816e+003
7.029275e+002, 3.109316e+003
7.034096e+002, 3.108692e+003
7.038917e+002, 3.105719e+003
7.043738e+002, 3.102762e+003
7.048560e+002, 3.100831e+003
7.053381e+002, 3.099405e+003
7.058202e+002, 3.098202e+003
7.063023e+002, 3.096936e+003
7.067844e+002, 3.094636e+003
7.072665e+002, 3.090470e+003
7.077487e+002, 3.085441e+003
7.082308e+002, 3.082871e+003
7.087129e+002, 3.083754e+003
7.091950e+002, 3.082293e+003
7.096771e+002, 3.076404e+003
7.101592e+002, 3.069895e+003
7.106414e+002, 3.065331e+003
7.111235e+002, 3.061942e+003
7.116056e+002, 3.058058e+003
7.120877e+002, 3.053155e+003
7.125698e+002, 3.048375e+003
7.130519e+002, 3.044090e+003
7.135341e+002, 3.040403e+003
7.140162e+002, 3.037551e+003
7.144983e+002, 3.035474e+003
7.149804e+002, 3.034019e+003
7.154625e+002, 3.033182e+003
7.159446e+002, 3.032256e+003
7.164268e+002, 3.029190e+003
7.169089e+002, 3.022832e+003
7.173910e+002, 3.019656e+003
7.178731e+002, 3.022235e+003
7.183552e+002, 3.024703e+003
7.188373e+002, 3.023902e+003
7.193195e+002, 3.021469e+003
7.198016e+002, 3.019935e+003
7.202837e+002, 3.019949e+003
7.207658e+002, 3.019081e+003
7.212479e+002, 3.015514e+003
7.217300e+002, 3.010949e+003
7.222122e+002, 3.006322e+003
7.226943e+002, 3.002283e+003
7.231764e+002, 3.000911e+003
7.236585e+002, 3.003153e+003
7.241406e+002, 3.006474e+003
7.246227e+002, 3.006922e+003
7.251049e+002, 3.004172e+003
7.255870e+002, 3.001579e+003
7.260691e+002, 2.998756e+003
7.265512e+002, 2.996744e+003
7.270333e+002, 2.996755e+003
7.275154e+002, 2.997187e+003
7.279976e+002, 2.996299e+003
7.284797e+002, 2.993970e+003
7.289618e+002, 2.991766e+003
7.294439e+002, 2.988889e+003
7.299260e+002, 2.987658e+003
7.304081e+002, 2.992310e+003
7.308903e+002, 3.000030e+003
7.313724e+002, 3.004253e+003
7.318545e+002, 3.003075e+003
7.323366e+002, 2.998405e+003
7.328187e+002, 2.991707e+003
7.333008e+002, 2.983315e+003
7.337830e+002, 2.977163e+003
7.342651e+002, 2.974248e+003
7.347472e+002, 2.971451e+003
7.352293e+002, 2.967543e+003
7.357114e+002, 2.964024e+003
7.361935e+002, 2.962285e+003
7.366757e+002, 2.961989e+003
7.371578e+002, 2.961405e+003
7.376399e+002, 2.959408e+003
7.381220e+002, 2.957761e+003
7.386041e+002, 2.958881e+003
7.390862e+002, 2.960618e+003
7.395684e+002, 2.958867e+003
7.400505e+002, 2.953516e+003
7.405326e+002, 2.948298e+003
7.410147e+002, 2.945991e+003
7.414968e+002, 2.945525e+003
7.419789e+002, 2.943366e+003
7.424611e+002, 2.938559e+003
7.429432e+002, 2.935643e+003
7.434253e+002, 2.936300e+003
7.439074e+002, 2.937351e+003
7.443895e+002, 2.936872e+003
7.448716e+002, 2.935548e+003
7.453538e+002, 2.934726e+003
7.458359e+002, 2.934890e+003
7.463180e+002, 2.934666e+003
7.468001e+002, 2.933444e+003
7.472822e+002, 2.931551e+003
7.477643e+002, 2.928830e+003
7.482465e+002, 2.925730e+003
7.487286e+002, 2.923450e+003
7.492107e+002, 2.922545e+003
7.496928e+002, 2.922401e+003
7.501749e+002, 2.922451e+003
7.506570e+002, 2.922791e+003
7.511392e+002, 2.921087e+003
7.516213e+002, 2.916394e+003
7.521034e+002, 2.911793e+003
7.525855e+002, 2.908477e+003
7.530676e+002, 2.905869e+003
7.535497e+002, 2.903273e+003
7.540319e+002, 2.900663e+003
7.545140e+002, 2.898323e+003
7.549961e+002, 2.896404e+003
7.554782e+002, 2.894655e+003
7.559603e+002, 2.893015e+003
7.564424e+002, 2.891401e+003
7.569246e+002, 2.889449e+003
7.574067e+002, 2.887226e+003
7.578888e+002, 2.885694e+003
7.583709e+002, 2.886003e+003
7.588530e+002, 2.887242e+003
7.593351e+002, 2.885840e+003
7.598173e+002, 2.881328e+003
7.602994e+002, 2.878347e+003
7.607815e+002, 2.878360e+003
7.612636e+002, 2.879345e+003
7.617457e+002, 2.880239e+003
7.622278e+002, 2.880763e+003
7.627100e+002, 2.879666e+003
7.631921e+002, 2.875441e+003
7.636742e+002, 2.871938e+003
7.641563e+002, 2.869951e+003
7.646384e+002, 2.869141e+003
7.651205e+002, 2.869748e+003
7.656027e+002, 2.871269e+003
7.660848e+002, 2.872814e+003
7.665669e+002, 2.874028e+003
7.670490e+002, 2.874324e+003
7.675311e+002, 2.872478e+003
7.680132e+002, 2.868898e+003
7.684954e+002, 2.865878e+003
7.689775e+002, 2.863591e+003
7.694596e+002, 2.861374e+003
7.699417e+002, 2.858695e+003
7.704238e+002, 2.856181e+003
7.709059e+002, 2.855096e+003
7.713881e+002, 2.856019e+003
7.718702e+002, 2.855997e+003
7.723523e+002, 2.854557e+003
7.728344e+002, 2.852752e+003
7.733165e+002, 2.850561e+003
7.737986e+002, 2.848412e+003
7.742808e+002, 2.846536e+003
7.747629e+002, 2.845094e+003
7.752450e+002, 2.844524e+003
7.757271e+002, 2.845275e+003
7.762092e+002, 2.846929e+003
7.766913e+002, 2.849840e+003
7.771735e+002, 2.853277e+003
7.776556e+002, 2.853520e+003
7.781377e+002, 2.849602e+003
7.786198e+002, 2.845600e+003
7.791019e+002, 2.845321e+003
7.795840e+002, 2.847666e+003
7.800662e+002, 2.846876e+003
7.805483e+002, 2.840706e+003
7.810304e+002, 2.835635e+003
7.815125e+002, 2.832314e+003
7.819946e+002, 2.829897e+003
7.824767e+002, 2.828451e+003
7.829589e+002, 2.827491e+003
7.834410e+002, 2.826198e+003
7.839231e+002, 2.824339e+003
7.844052e+002, 2.822281e+003
7.848873e+002, 2.820004e+003
7.853694e+002, 2.817815e+003
7.858516e+002, 2.816339e+003
7.863337e+002, 2.815337e+003
7.868158e+002, 2.813780e+003
7.872979e+002, 2.811271e+003
7.877800e+002, 2.808735e+003
7.882621e+002, 2.807335e+003
7.887443e+002, 2.807068e+003
7.892264e+002, 2.807301e+003
7.897085e+002, 2.807673e+003
7.901906e+002, 2.809726e+003
7.906727e+002, 2.815844e+003
7.911548e+002, 2.821979e+003
7.916370e+002, 2.823694e+003
7.921191e+002, 2.821576e+003
7.926012e+002, 2.819600e+003
7.930833e+002, 2.818522e+003
7.935654e+002, 2.817428e+003
7.940475e+002, 2.817165e+003
7.945297e+002, 2.815886e+003
7.950118e+002, 2.810486e+003
7.954939e+002, 2.802061e+003
7.959760e+002, 2.795026e+003
7.964581e+002, 2.791869e+003
7.969402e+002, 2.790745e+003
7.974224e+002, 2.789146e+003
7.979045e+002, 2.787129e+003
7.983866e+002, 2.784987e+003
7.988687e+002, 2.782639e+003
7.993508e+002, 2.781134e+003
7.998329e+002, 2.781187e+003
8.003151e+002, 2.782147e+003
8.007972e+002, 2.783166e+003
8.012793e+002, 2.785118e+003
8.017614e+002, 2.783582e+003
8.022435e+002, 2.774632e+003
8.027256e+002, 2.767360e+003
8.032078e+002, 2.765243e+003
8.036899e+002, 2.765577e+003
8.041720e+002, 2.765438e+003
8.046541e+002, 2.764647e+003
8.051362e+002, 2.765009e+003
8.056183e+002, 2.768804e+003
8.061005e+002, 2.772675e+003
8.065826e+002, 2.772657e+003
8.070647e+002, 2.770145e+003
8.075468e+002, 2.767851e+003
8.080289e+002, 2.766385e+003
8.085110e+002, 2.766361e+003
8.089932e+002, 2.768479e+003
8.094753e+002, 2.771433e+003
8.099574e+002, 2.771609e+003
8.104395e+002, 2.768404e+003
8.109216e+002, 2.764975e+003
8.114037e+002, 2.760746e+003
8.118859e+002, 2.757533e+003
8.123680e+002, 2.757590e+003
8.128501e+002, 2.758586e+003
8.133322e+002, 2.756624e+003
8.138143e+002, 2.750909e+003
8.142964e+002, 2.746985e+003
8.147786e+002, 2.747383e+003
8.152607e+002, 2.748543e+003
8.157428e+002, 2.747883e+003
8.162249e+002, 2.746929e+003
8.167070e+002, 2.748782e+003
8.171891e+002, 2.753365e+003
8.176713e+002, 2.756699e+003
8.181534e+002, 2.755110e+003
8.186355e+002, 2.751353e+003
8.191176e+002, 2.751068e+003
8.195997e+002, 2.753766e+003
8.200818e+002, 2.755909e+003
8.205640e+002, 2.756973e+003
8.210461e+002, 2.756292e+003
8.215282e+002, 2.752930e+003
8.220103e+002, 2.747974e+003
8.224924e+002, 2.744920e+003
8.229745e+002, 2.745547e+003
8.234567e+002, 2.744022e+003
8.239388e+002, 2.737635e+003
8.244209e+002, 2.732227e+003
8.249030e+002, 2.730677e+003
8.253851e+002, 2.730869e+003
8.258672e+002, 2.729715e+003
8.263494e+002, 2.726837e+003
8.268315e+002, 2.725359e+003
8.273136e+002, 2.728525e+003
8.277957e+002, 2.732035e+003
8.282778e+002, 2.732094e+003
8.287599e+002, 2.729952e+003
8.292421e+002, 2.727866e+003
8.297242e+002, 2.726320e+003
8.302063e+002, 2.724530e+003
8.306884e+002, 2.721632e+003
8.311705e+002, 2.718782e+003
8.316526e+002, 2.719649e+003
8.321348e+002, 2.724407e+003
8.326169e+002, 2.726591e+003
8.330990e+002, 2.724863e+003
8.335811e+002, 2.722134e+003
8.340632e+002, 2.719128e+003
8.345453e+002, 2.716946e+003
8.350275e+002, 2.718692e+003
8.355096e+002, 2.727267e+003
8.359917e+002, 2.730793e+003
8.364738e+002, 2.725104e+003
8.369559e+002, 2.719178e+003
8.374380e+002, 2.716375e+003
8.379202e+002, 2.715026e+003
8.384023e+002, 2.713146e+003
8.388844e+002, 2.710524e+003
8.393665e+002, 2.708114e+003
8.398486e+002, 2.707071e+003
8.403307e+002, 2.705690e+003
8.408129e+002, 2.701201e+003
8.412950e+002, 2.695461e+003
8.417771e+002, 2.692287e+003
8.422592e+002, 2.692074e+003
8.427413e+002, 2.693293e+003
8.432234e+002, 2.695181e+003
8.437056e+002, 2.696682e+003
8.441877e+002, 2.695348e+003
8.446698e+002, 2.690945e+003
8.451519e+002, 2.686590e+003
8.456340e+002, 2.682209e+003
8.461161e+002, 2.678294e+003
8.465983e+002, 2.674809e+003
8.470804e+002, 2.672077e+003
8.475625e+002, 2.670841e+003
8.480446e+002, 2.671204e+003
8.485267e+002, 2.670954e+003
8.490089e+002, 2.669990e+003
8.494910e+002, 2.668398e+003
8.499731e+002, 2.665113e+003
8.504552e+002, 2.662040e+003
8.509373e+002, 2.661119e+003
8.514194e+002, 2.661996e+003
8.519016e+002, 2.663164e+003
8.523837e+002, 2.664271e+003
8.528658e+002, 2.664413e+003
8.533479e+002, 2.661823e+003
8.538300e+002, 2.658146e+003
8.543121e+002, 2.656489e+003
8.547943e+002, 2.656687e+003
8.552764e+002, 2.656818e+003
8.557585e+002, 2.656057e+003
8.562406e+002, 2.654798e+003
8.567227e+002, 2.653427e+003
8.572048e+002, 2.651992e+003
8.576870e+002, 2.651225e+003
8.581691e+002, 2.651403e+003
8.586512e+002, 2.651184e+003
8.591333e+002, 2.650600e+003
8.596154e+002, 2.648885e+003
8.600975e+002, 2.644605e+003
8.605797e+002, 2.638432e+003
8.610618e+002, 2.634104e+003
8.615439e+002, 2.631341e+003
8.620260e+002, 2.630840e+003
8.625081e+002, 2.634762e+003
8.629902e+002, 2.638880e+003
8.634724e+002, 2.641259e+003
8.639545e+002, 2.641913e+003
8.644366e+002, 2.640699e+003
8.649187e+002, 2.637669e+003
8.654008e+002, 2.635098e+003
8.658829e+002, 2.634896e+003
8.663651e+002, 2.635611e+003
8.668472e+002, 2.636410e+003
8.673293e+002, 2.636621e+003
8.678114e+002, 2.633962e+003
8.682935e+002, 2.628382e+003
8.687756e+002, 2.623457e+003
8.692578e+002, 2.622035e+003
8.697399e+002, 2.622701e+003
8.702220e+002, 2.621912e+003
8.707041e+002, 2.619566e+003
8.711862e+002, 2.617661e+003
8.716683e+002, 2.616479e+003
8.721505e+002, 2.615145e+003
8.726326e+002, 2.612712e+003
8.731147e+002, 2.610466e+003
8.735968e+002, 2.611095e+003
8.740789e+002, 2.615752e+003
8.745610e+002, 2.616951e+003
8.750432e+002, 2.611438e+003
8.755253e+002, 2.606909e+003
8.760074e+002, 2.605634e+003
8.764895e+002, 2.605602e+003
8.769716e+002, 2.605556e+003
8.774537e+002, 2.605191e+003
8.779359e+002, 2.604195e+003
8.784180e+002, 2.602699e+003
8.789001e+002, 2.599991e+003
8.793822e+002, 2.593637e+003
8.798643e+002, 2.587286e+003
8.803464e+002, 2.586046e+003
8.808286e+002, 2.588406e+003
8.813107e+002, 2.589157e+003
8.817928e+002, 2.586529e+003
8.822749e+002, 2.583774e+003
8.827570e+002, 2.585198e+003
8.832391e+002, 2.588883e+003
8.837213e+002, 2.587569e+003
8.842034e+002, 2.581718e+003
8.846855e+002, 2.579959e+003
8.851676e+002, 2.584888e+003
8.856497e+002, 2.589915e+003
8.861318e+002, 2.590070e+003
8.866140e+002, 2.586167e+003
8.870961e+002, 2.580664e+003
8.875782e+002, 2.572137e+003
8.880603e+002, 2.565595e+003
8.885424e+002, 2.560928e+003
8.890245e+002, 2.558438e+003
8.895067e+002, 2.560275e+003
8.899888e+002, 2.563086e+003
8.904709e+002, 2.562510e+003
8.909530e+002, 2.558411e+003
8.914351e+002, 2.555582e+003
8.919172e+002, 2.556377e+003
8.923994e+002, 2.556880e+003
8.928815e+002, 2.555849e+003
8.933636e+002, 2.553512e+003
8.938457e+002, 2.549133e+003
8.943278e+002, 2.543742e+003
8.948099e+002, 2.540199e+003
8.952921e+002, 2.539936e+003
8.957742e+002, 2.539981e+003
8.962563e+002, 2.536865e+003
8.967384e+002, 2.532559e+003
8.972205e+002, 2.530403e+003
8.977026e+002, 2.530262e+003
8.981848e+002, 2.531256e+003
8.986669e+002, 2.533039e+003
8.991490e+002, 2.534580e+003
8.996311e+002, 2.534852e+003
9.001132e+002, 2.534119e+003
9.005953e+002, 2.533339e+003
9.010775e+002, 2.532523e+003
9.015596e+002, 2.531633e+003
9.020417e+002, 2.530926e+003
9.025238e+002, 2.529085e+003
9.030059e+002, 2.524583e+003
9.034880e+002, 2.519183e+003
9.039702e+002, 2.516620e+003
9.044523e+002, 2.517664e+003
9.049344e+002, 2.518393e+003
9.054165e+002, 2.518299e+003
9.058986e+002, 2.518507e+003
9.063807e+002, 2.519362e+003
9.068629e+002, 2.520531e+003
9.073450e+002, 2.522567e+003
9.078271e+002, 2.524773e+003
9.083092e+002, 2.524397e+003
9.087913e+002, 2.519320e+003
9.092734e+002, 2.514530e+003
9.097556e+002, 2.512680e+003
9.102377e+002, 2.511694e+003
9.107198e+002, 2.509652e+003
9.112019e+002, 2.507040e+003
9.116840e+002, 2.505281e+003
9.121661e+002, 2.504720e+003
9.126483e+002, 2.504136e+003
9.131304e+002, 2.502387e+003
9.136125e+002, 2.500117e+003
9.140946e+002, 2.498172e+003
9.145767e+002, 2.496605e+003
9.150588e+002, 2.495837e+003
9.155410e+002, 2.495825e+003
9.160231e+002, 2.495351e+003
9.165052e+002, 2.493497e+003
9.169873e+002, 2.491564e+003
9.174694e+002, 2.492679e+003
9.179515e+002, 2.497036e+003
9.184337e+002, 2.498785e+003
9.189158e+002, 2.497587e+003
9.193979e+002, 2.494971e+003
9.198800e+002, 2.490706e+003
9.203621e+002, 2.486781e+003
9.208442e+002, 2.485854e+003
9.213264e+002, 2.487444e+003
9.218085e+002, 2.486451e+003
9.222906e+002, 2.479786e+003
9.227727e+002, 2.475616e+003
9.232548e+002, 2.476352e+003
9.237369e+002, 2.477321e+003
9.242191e+002, 2.476293e+003
9.247012e+002, 2.474153e+003
9.251833e+002, 2.471977e+003
9.256654e+002, 2.469839e+003
9.261475e+002, 2.469044e+003
9.266296e+002, 2.471678e+003
9.271118e+002, 2.473762e+003
9.275939e+002, 2.473091e+003
9.280760e+002, 2.470963e+003
9.285581e+002, 2.468336e+003
9.290402e+002, 2.465660e+003
9.295223e+002, 2.463377e+003
9.300045e+002, 2.461547e+003
9.304866e+002, 2.460984e+003
9.309687e+002, 2.463589e+003
9.314508e+002, 2.467218e+003
9.319329e+002, 2.468577e+003
9.324150e+002, 2.467946e+003
9.328972e+002, 2.466748e+003
9.333793e+002, 2.465373e+003
9.338614e+002, 2.463038e+003
9.343435e+002, 2.458623e+003
9.348256e+002, 2.453811e+003
9.353077e+002, 2.453671e+003
9.357899e+002, 2.457754e+003
9.362720e+002, 2.459426e+003
9.367541e+002, 2.457900e+003
9.372362e+002, 2.454635e+003
9.377183e+002, 2.449950e+003
9.382004e+002, 2.445128e+003
9.386826e+002, 2.442072e+003
9.391647e+002, 2.440802e+003
9.396468e+002, 2.440612e+003
9.401289e+002, 2.442674e+003
9.406110e+002, 2.442886e+003
9.410931e+002, 2.439157e+003
9.415753e+002, 2.435130e+003
9.420574e+002, 2.433691e+003
9.425395e+002, 2.433826e+003
9.430216e+002, 2.432488e+003
9.435037e+002, 2.428531e+003
9.439858e+002, 2.426655e+003
9.444680e+002, 2.429840e+003
9.449501e+002, 2.432013e+003
9.454322e+002, 2.429679e+003
9.459143e+002, 2.426120e+003
9.463964e+002, 2.424745e+003
9.468785e+002, 2.425484e+003
9.473607e+002, 2.426237e+003
9.478428e+002, 2.426113e+003
9.483249e+002, 2.426292e+003
9.488070e+002, 2.428585e+003
9.492891e+002, 2.430439e+003
9.497712e+002, 2.428687e+003
9.502534e+002, 2.424804e+003
9.507355e+002, 2.421662e+003
9.512176e+002, 2.420146e+003
9.516997e+002, 2.420081e+003
9.521818e+002, 2.422076e+003
9.526639e+002, 2.424492e+003
9.531461e+002, 2.425306e+003
9.536282e+002, 2.424738e+003
9.541103e+002, 2.422991e+003
9.545924e+002, 2.420301e+003
9.550745e+002, 2.417457e+003
9.555566e+002, 2.414826e+003
9.560388e+002, 2.412614e+003
9.565209e+002, 2.411026e+003
9.570030e+002, 2.410087e+003
9.574851e+002, 2.409927e+003
9.579672e+002, 2.410556e+003
9.584493e+002, 2.411848e+003
9.589315e+002, 2.413888e+003
9.594136e+002, 2.415880e+003
9.598957e+002, 2.417427e+003
9.603778e+002, 2.418150e+003
9.608599e+002, 2.416749e+003
9.613420e+002, 2.412499e+003
9.618242e+002, 2.409990e+003
9.623063e+002, 2.410124e+003
9.627884e+002, 2.409743e+003
9.632705e+002, 2.407441e+003
9.637526e+002, 2.404712e+003
9.642347e+002, 2.402842e+003
9.647169e+002, 2.401829e+003
9.651990e+002, 2.401681e+003
9.656811e+002, 2.402998e+003
9.661632e+002, 2.404271e+003
9.666453e+002, 2.405912e+003
9.671274e+002, 2.407038e+003
9.676096e+002, 2.407759e+003
9.680917e+002, 2.407482e+003
9.685738e+002, 2.405178e+003
9.690559e+002, 2.400888e+003
9.695380e+002, 2.396521e+003
9.700201e+002, 2.391730e+003
9.705023e+002, 2.387959e+003
9.709844e+002, 2.386443e+003
9.714665e+002, 2.385473e+003
9.719486e+002, 2.383624e+003
9.724307e+002, 2.381233e+003
9.729128e+002, 2.379180e+003
9.733950e+002, 2.377700e+003
9.738771e+002, 2.376484e+003
9.743592e+002, 2.375803e+003
9.748413e+002, 2.374833e+003
9.753234e+002, 2.371843e+003
9.758055e+002, 2.368647e+003
9.762877e+002, 2.368471e+003
9.767698e+002, 2.370855e+003
9.772519e+002, 2.372844e+003
9.777340e+002, 2.373061e+003
9.782161e+002, 2.372399e+003
9.786982e+002, 2.371606e+003
9.791804e+002, 2.370702e+003
9.796625e+002, 2.369392e+003
9.801446e+002, 2.368011e+003
9.806267e+002, 2.367528e+003
9.811088e+002, 2.368205e+003
9.815909e+002, 2.370732e+003
9.820731e+002, 2.375978e+003
9.825552e+002, 2.380960e+003
9.830373e+002, 2.378976e+003
9.835194e+002, 2.371318e+003
9.840015e+002, 2.368115e+003
9.844836e+002, 2.369636e+003
9.849658e+002, 2.369359e+003
9.854479e+002, 2.365095e+003
9.859300e+002, 2.359606e+003
9.864121e+002, 2.355089e+003
9.868942e+002, 2.351897e+003
9.873763e+002, 2.351750e+003
9.878585e+002, 2.355229e+003
9.883406e+002, 2.358124e+003
9.888227e+002, 2.360463e+003
9.893048e+002, 2.361262e+003
9.897869e+002, 2.359597e+003
9.902690e+002, 2.357111e+003
9.907512e+002, 2.355743e+003
9.912333e+002, 2.355390e+003
9.917154e+002, 2.354807e+003
9.921975e+002, 2.353409e+003
9.926796e+002, 2.353059e+003
9.931617e+002, 2.354814e+003
9.936439e+002, 2.356340e+003
9.941260e+002, 2.356505e+003
9.946081e+002, 2.355837e+003
9.950902e+002, 2.355301e+003
9.955723e+002, 2.354958e+003
9.960544e+002, 2.353188e+003
9.965366e+002, 2.347261e+003
9.970187e+002, 2.343740e+003
9.975008e+002, 2.345729e+003
9.979829e+002, 2.348333e+003
9.984650e+002, 2.348558e+003
9.989471e+002, 2.347360e+003
9.994293e+002, 2.346437e+003
9.999114e+002, 2.346002e+003
1.000393e+003, 2.346002e+003
1.000876e+003, 2.347531e+003
1.001358e+003, 2.348070e+003
1.001840e+003, 2.344985e+003
1.002322e+003, 2.341798e+003
1.002804e+003, 2.342270e+003
1.003286e+003, 2.345096e+003
1.003768e+003, 2.346536e+003
1.004250e+003, 2.345471e+003
1.004733e+003, 2.344884e+003
1.005215e+003, 2.347751e+003
1.005697e+003, 2.350213e+003
1.006179e+003, 2.348269e+003
1.006661e+003, 2.344899e+003
1.007143e+003, 2.343780e+003
1.007625e+003, 2.345063e+003
1.008107e+003, 2.347802e+003
1.008589e+003, 2.351795e+003
1.009072e+003, 2.354439e+003
1.009554e+003, 2.352124e+003
1.010036e+003, 2.348415e+003
1.010518e+003, 2.347482e+003
1.011000e+003, 2.348468e+003
1.011482e+003, 2.349586e+003
1.011964e+003, 2.350496e+003
1.012446e+003, 2.351699e+003
1.012929e+003, 2.353560e+003
1.013411e+003, 2.355059e+003
1.013893e+003, 2.354755e+003
1.014375e+003, 2.353340e+003
1.014857e+003, 2.351648e+003
1.015339e+003, 2.350126e+003
1.015821e+003, 2.350737e+003
1.016303e+003, 2.353527e+003
1.016785e+003, 2.355212e+003
1.017268e+003, 2.353480e+003
1.017750e+003, 2.349955e+003
1.018232e+003, 2.346934e+003
1.018714e+003, 2.344400e+003
1.019196e+003, 2.342218e+003
1.019678e+003, 2.340408e+003
1.020160e+003, 2.339249e+003
1.020642e+003, 2.338806e+003
1.021125e+003, 2.338384e+003
1.021607e+003, 2.337388e+003
1.022089e+003, 2.336136e+003
1.022571e+003, 2.335685e+003
1.023053e+003, 2.335908e+003
1.023535e+003, 2.333659e+003
1.024017e+003, 2.328612e+003
1.024499e+003, 2.327229e+003
1.024981e+003, 2.332031e+003
1.025464e+003, 2.337368e+003
1.025946e+003, 2.337980e+003
1.026428e+003, 2.335433e+003
1.026910e+003, 2.334539e+003
1.027392e+003, 2.335420e+003
1.027874e+003, 2.336668e+003
1.028356e+003, 2.337974e+003
1.028838e+003, 2.341249e+003
1.029321e+003, 2.347891e+003
1.029803e+003, 2.354570e+003
1.030285e+003, 2.358080e+003
1.030767e+003, 2.358909e+003
1.031249e+003, 2.359566e+003
1.031731e+003, 2.360973e+003
1.032213e+003, 2.358293e+003
1.032695e+003, 2.349881e+003
1.033177e+003, 2.340973e+003
1.033660e+003, 2.332353e+003
1.034142e+003, 2.325906e+003
1.034624e+003, 2.324108e+003
1.035106e+003, 2.326214e+003
1.035588e+003, 2.327814e+003
1.036070e+003, 2.329587e+003
1.036552e+003, 2.329126e+003
1.037034e+003, 2.325159e+003
1.037516e+003, 2.321089e+003
1.037999e+003, 2.318281e+003
1.038481e+003, 2.315869e+003
1.038963e+003, 2.312849e+003
1.039445e+003, 2.309357e+003
1.039927e+003, 2.306422e+003
1.040409e+003, 2.304081e+003
1.040891e+003, 2.302253e+003
1.041373e+003, 2.301365e+003
1.041855e+003, 2.300465e+003
1.042338e+003, 2.298952e+003
1.042820e+003, 2.297476e+003
1.043302e+003, 2.296666e+003
1.043784e+003, 2.296503e+003
1.044266e+003, 2.296768e+003
1.044748e+003, 2.299147e+003
1.045230e+003, 2.299124e+003
1.045712e+003, 2.293485e+003
1.046195e+003, 2.289007e+003
1.046677e+003, 2.289014e+003
1.047159e+003, 2.291057e+003
1.047641e+003, 2.293063e+003
1.048123e+003, 2.294749e+003
1.048605e+003, 2.295190e+003
1.049087e+003, 2.293858e+003
1.049569e+003, 2.292045e+003
1.050052e+003, 2.289192e+003
1.050534e+003, 2.286749e+003
1.051016e+003, 2.285691e+003
1.051498e+003, 2.285154e+003
1.051980e+003, 2.283913e+003
1.052462e+003, 2.282164e+003
1.052944e+003, 2.281438e+003
1.053426e+003, 2.282107e+003
1.053908e+003, 2.283578e+003
1.054391e+003, 2.286739e+003
1.054873e+003, 2.289487e+003
1.055355e+003, 2.291021e+003
1.055837e+003, 2.291404e+003
1.056319e+003, 2.290065e+003
1.056801e+003, 2.287571e+003
1.057283e+003, 2.286507e+003
1.057765e+003, 2.288119e+003
1.058248e+003, 2.289688e+003
1.058730e+003, 2.291294e+003
1.059212e+003, 2.291684e+003
1.059694e+003, 2.289539e+003
1.060176e+003, 2.286251e+003
1.060658e+003, 2.282923e+003
1.061140e+003, 2.279942e+003
1.061622e+003, 2.278167e+003
1.062104e+003, 2.278469e+003
1.062587e+003, 2.278189e+003
1.063069e+003, 2.275246e+003
1.063551e+003, 2.272738e+003
1.064033e+003, 2.273185e+003
1.064515e+003, 2.274550e+003
1.064997e+003, 2.274589e+003
1.065479e+003, 2.273243e+003
1.065961e+003, 2.271349e+003
1.066443e+003, 2.268962e+003
1.066926e+003, 2.266686e+003
1.067408e+003, 2.263848e+003
1.067890e+003, 2.262225e+003
1.068372e+003, 2.263423e+003
1.068854e+003, 2.266005e+003
1.069336e+003, 2.269400e+003
1.069818e+003, 2.272580e+003
1.070300e+003, 2.272812e+003
1.070782e+003, 2.268596e+003
1.071265e+003, 2.264964e+003
1.071747e+003, 2.265147e+003
1.072229e+003, 2.265383e+003
1.072711e+003, 2.262862e+003
1.073193e+003, 2.259615e+003
1.073675e+003, 2.258314e+003
1.074157e+003, 2.258330e+003
1.074639e+003, 2.256904e+003
1.075122e+003, 2.252949e+003
1.075604e+003, 2.250116e+003
1.076086e+003, 2.251829e+003
1.076568e+003, 2.253070e+003
1.077050e+003, 2.250230e+003
1.077532e+003, 2.245976e+003
1.078014e+003, 2.242113e+003
1.078496e+003, 2.239500e+003
1.078979e+003, 2.239910e+003
1.079461e+003, 2.243987e+003
1.079943e+003, 2.247075e+003
1.080425e+003, 2.245812e+003
1.080907e+003, 2.244490e+003
1.081389e+003, 2.246237e+003
1.081871e+003, 2.248378e+003
1.082353e+003, 2.248392e+003
1.082835e+003, 2.246697e+003
1.083318e+003, 2.244338e+003
1.083800e+003, 2.241592e+003
1.084282e+003, 2.239773e+003
1.084764e+003, 2.240214e+003
1.085246e+003, 2.240746e+003
1.085728e+003, 2.240114e+003
1.086210e+003, 2.239270e+003
1.086692e+003, 2.238130e+003
1.087175e+003, 2.237779e+003
1.087657e+003, 2.240937e+003
1.088139e+003, 2.247660e+003
1.088621e+003, 2.252166e+003
1.089103e+003, 2.251417e+003
1.089585e+003, 2.249019e+003
1.090067e+003, 2.245094e+003
1.090549e+003, 2.241506e+003
1.091031e+003, 2.239471e+003
1.091514e+003, 2.238843e+003
1.091996e+003, 2.239272e+003
1.092478e+003, 2.240700e+003
1.092960e+003, 2.243362e+003
1.093442e+003, 2.248987e+003
1.093924e+003, 2.252745e+003
1.094406e+003, 2.252509e+003
1.094888e+003, 2.250220e+003
1.095370e+003, 2.246433e+003
1.095853e+003, 2.241840e+003
1.096335e+003, 2.236446e+003
1.096817e+003, 2.230833e+003
1.097299e+003, 2.227632e+003
1.097781e+003, 2.229214e+003
1.098263e+003, 2.228967e+003
1.098745e+003, 2.221865e+003
1.099227e+003, 2.215920e+003
1.099709e+003, 2.216603e+003
1.100192e+003, 2.219634e+003
1.100674e+003, 2.220241e+003
1.101156e+003, 2.218970e+003
1.101638e+003, 2.219333e+003
1.102120e+003, 2.222889e+003
1.102602e+003, 2.224565e+003
1.103084e+003, 2.221993e+003
1.103566e+003, 2.218721e+003
1.104049e+003, 2.215152e+003
1.104531e+003, 2.212292e+003
1.105013e+003, 2.211314e+003
1.105495e+003, 2.211552e+003
1.105977e+003, 2.210985e+003
1.106459e+003, 2.208858e+003
1.106941e+003, 2.209407e+003
1.107423e+003, 2.216196e+003
1.107906e+003, 2.221756e+003
1.108388e+003, 2.224333e+003
1.108870e+003, 2.224862e+003
1.109352e+003, 2.222717e+003
1.109834e+003, 2.219509e+003
1.110316e+003, 2.218426e+003
1.110798e+003, 2.219837e+003
1.111280e+003, 2.218917e+003
1.111762e+003, 2.213271e+003
1.112245e+003, 2.208373e+003
1.112727e+003, 2.204232e+003
1.113209e+003, 2.201736e+003
1.113691e+003, 2.202684e+003
1.114173e+003, 2.204671e+003
1.114655e+003, 2.203925e+003
1.115137e+003, 2.200827e+003
1.115619e+003, 2.200827e+003
1.116102e+003, 2.205805e+003
1.116584e+003, 2.210578e+003
1.117066e+003, 2.216170e+003
1.117548e+003, 2.219843e+003
1.118030e+003, 2.219543e+003
1.118512e+003, 2.218078e+003
1.118994e+003, 2.217719e+003
1.119476e+003, 2.218473e+003
1.119958e+003, 2.220402e+003
1.120441e+003, 2.223599e+003
1.120923e+003, 2.227764e+003
1.121405e+003, 2.233448e+003
1.121887e+003, 2.238885e+003
1.122369e+003, 2.243631e+003
1.122851e+003, 2.247961e+003
1.123333e+003, 2.251937e+003
1.123815e+003, 2.255775e+003
1.124297e+003, 2.259851e+003
1.124780e+003, 2.264082e+003
1.125262e+003, 2.270013e+003
1.125744e+003, 2.278998e+003
1.126226e+003, 2.284121e+003
1.126708e+003, 2.283066e+003
1.127190e+003, 2.281914e+003
1.127672e+003, 2.284222e+003
1.128154e+003, 2.287758e+003
1.128636e+003, 2.289616e+003
1.129119e+003, 2.289629e+003
1.129601e+003, 2.286404e+003
1.130083e+003, 2.279793e+003
1.130565e+003, 2.270424e+003
1.131047e+003, 2.257833e+003
1.131529e+003, 2.247634e+003
1.132011e+003, 2.242238e+003
1.132493e+003, 2.239205e+003
1.132976e+003, 2.236209e+003
1.133458e+003, 2.233438e+003
1.133940e+003, 2.231814e+003
1.134422e+003, 2.231143e+003
1.134904e+003, 2.228631e+003
1.135386e+003, 2.224272e+003
1.135868e+003, 2.220237e+003
1.136350e+003, 2.217130e+003
1.136833e+003, 2.215016e+003
1.137315e+003, 2.214104e+003
1.137797e+003, 2.213060e+003
1.138279e+003, 2.208783e+003
1.138761e+003, 2.202700e+003
1.139243e+003, 2.200048e+003
1.139725e+003, 2.200175e+003
1.140207e+003, 2.200613e+003
1.140689e+003, 2.200714e+003
1.141172e+003, 2.199513e+003
1.141654e+003, 2.196571e+003
1.142136e+003, 2.193294e+003
1.142618e+003, 2.191375e+003
1.143100e+003, 2.189872e+003
1.143582e+003, 2.186648e+003
1.144064e+003, 2.182866e+003
1.144546e+003, 2.181225e+003
1.145029e+003, 2.181313e+003
1.145511e+003, 2.180861e+003
1.145993e+003, 2.179343e+003
1.146475e+003, 2.178685e+003
1.146957e+003, 2.180898e+003
1.147439e+003, 2.182644e+003
1.147921e+003, 2.179738e+003
1.148403e+003, 2.175250e+003
1.148885e+003, 2.172455e+003
1.149368e+003, 2.171095e+003
1.149850e+003, 2.170899e+003
1.150332e+003, 2.171276e+003
1.150814e+003, 2.170253e+003
1.151296e+003, 2.166598e+003
1.151778e+003, 2.164178e+003
1.152260e+003, 2.166775e+003
1.152742e+003, 2.169732e+003
1.153224e+003, 2.169735e+003
1.153707e+003, 2.168594e+003
1.154189e+003, 2.168554e+003
1.154671e+003, 2.169025e+003
1.155153e+003, 2.167902e+003
1.155635e+003, 2.164735e+003
1.156117e+003, 2.162517e+003
1.156599e+003, 2.163103e+003
1.157081e+003, 2.163476e+003
1.157563e+003, 2.162390e+003
1.158046e+003, 2.161153e+003
1.158528e+003, 2.160597e+003
1.159010e+003, 2.160363e+003
1.159492e+003, 2.159913e+003
1.159974e+003, 2.159255e+003
1.160456e+003, 2.158700e+003
1.160938e+003, 2.157679e+003
1.161420e+003, 2.157912e+003
1.161903e+003, 2.161629e+003
1.162385e+003, 2.163451e+003
1.162867e+003, 2.160274e+003
1.163349e+003, 2.156608e+003
1.163831e+003, 2.156354e+003
1.164313e+003, 2.157918e+003
1.164795e+003, 2.157198e+003
1.165277e+003, 2.153671e+003
1.165760e+003, 2.152447e+003
1.166242e+003, 2.154594e+003
1.166724e+003, 2.155506e+003
1.167206e+003, 2.154050e+003
1.167688e+003, 2.152715e+003
1.168170e+003, 2.152784e+003
1.168652e+003, 2.153670e+003
1.169134e+003, 2.154874e+003
1.169616e+003, 2.156015e+003
1.170099e+003, 2.154851e+003
1.170581e+003, 2.151342e+003
1.171063e+003, 2.148898e+003
1.171545e+003, 2.147720e+003
1.172027e+003, 2.147936e+003
1.172509e+003, 2.149591e+003
1.172991e+003, 2.152311e+003
1.173473e+003, 2.156082e+003
1.173956e+003, 2.159166e+003
1.174438e+003, 2.158190e+003
1.174920e+003, 2.154169e+003
1.175402e+003, 2.149165e+003
1.175884e+003, 2.144185e+003
1.176366e+003, 2.143167e+003
1.176848e+003, 2.146071e+003
1.177330e+003, 2.150011e+003
1.177813e+003, 2.153643e+003
1.178295e+003, 2.155649e+003
1.178777e+003, 2.154103e+003
1.179259e+003, 2.151500e+003
1.179741e+003, 2.150837e+003
1.180223e+003, 2.151199e+003
1.180705e+003, 2.152033e+003
1.181187e+003, 2.152537e+003
1.181669e+003, 2.150902e+003
1.182151e+003, 2.147271e+003
1.182634e+003, 2.144081e+003
1.183116e+003, 2.142462e+003
1.183598e+003, 2.141372e+003
1.184080e+003, 2.140112e+003
1.184562e+003, 2.139283e+003
1.185044e+003, 2.139612e+003
1.185526e+003, 2.140298e+003
1.186008e+003, 2.140559e+003
1.186490e+003, 2.140460e+003
1.186973e+003, 2.140594e+003
1.187455e+003, 2.141135e+003
1.187937e+003, 2.140305e+003
1.188419e+003, 2.135190e+003
1.188901e+003, 2.132493e+003
1.189383e+003, 2.135484e+003
1.189865e+003, 2.138856e+003
1.190347e+003, 2.140279e+003
1.190830e+003, 2.140452e+003
1.191312e+003, 2.139861e+003
1.191794e+003, 2.138665e+003
1.192276e+003, 2.137658e+003
1.192758e+003, 2.136932e+003
1.193240e+003, 2.136033e+003
1.193722e+003, 2.134747e+003
1.194204e+003, 2.133968e+003
1.194687e+003, 2.133973e+003
1.195169e+003, 2.134352e+003
1.195651e+003, 2.134924e+003
1.196133e+003, 2.135552e+003
1.196615e+003, 2.136196e+003
1.197097e+003, 2.136634e+003
1.197579e+003, 2.135157e+003
1.198061e+003, 2.131889e+003
1.198543e+003, 2.129027e+003
1.199026e+003, 2.126874e+003
1.199508e+003, 2.127061e+003
1.199990e+003, 2.130004e+003
1.200472e+003, 2.132787e+003
1.200954e+003, 2.133089e+003
1.201436e+003, 2.131932e+003
1.201918e+003, 2.130565e+003
1.202400e+003, 2.129014e+003
1.202883e+003, 2.126500e+003
1.203365e+003, 2.124154e+003
1.203847e+003, 2.125399e+003
1.204329e+003, 2.129445e+003
1.204811e+003, 2.132153e+003
1.205293e+003, 2.131981e+003
1.205775e+003, 2.130317e+003
1.206257e+003, 2.127643e+003
1.206740e+003, 2.124478e+003
1.207222e+003, 2.120205e+003
1.207704e+003, 2.116583e+003
1.208186e+003, 2.115285e+003
1.208668e+003, 2.115684e+003
1.209150e+003, 2.117410e+003
1.209632e+003, 2.119844e+003
1.210114e+003, 2.120864e+003
1.210596e+003, 2.119748e+003
1.211078e+003, 2.118046e+003
1.211561e+003, 2.113974e+003
1.212043e+003, 2.112207e+003
1.212525e+003, 2.116958e+003
1.213007e+003, 2.121366e+003
1.213489e+003, 2.119786e+003
1.213971e+003, 2.116111e+003
1.214453e+003, 2.116914e+003
1.214935e+003, 2.121775e+003
1.215417e+003, 2.122903e+003
1.215900e+003, 2.118868e+003
1.216382e+003, 2.116643e+003
1.216864e+003, 2.117110e+003
1.217346e+003, 2.117021e+003
1.217828e+003, 2.115237e+003
1.218310e+003, 2.113340e+003
1.218792e+003, 2.112522e+003
1.219274e+003, 2.112396e+003
1.219757e+003, 2.112563e+003
1.220239e+003, 2.112730e+003
1.220721e+003, 2.110709e+003
1.221203e+003, 2.107248e+003
1.221685e+003, 2.106429e+003
1.222167e+003, 2.108233e+003
1.222649e+003, 2.109515e+003
1.223131e+003, 2.109208e+003
1.223614e+003, 2.108522e+003
1.224096e+003, 2.107993e+003
1.224578e+003, 2.108653e+003
1.225060e+003, 2.113126e+003
1.225542e+003, 2.118086e+003
1.226024e+003, 2.119506e+003
1.226506e+003, 2.118623e+003
1.226988e+003, 2.118007e+003
1.227470e+003, 2.117152e+003
1.227953e+003, 2.112475e+003
1.228435e+003, 2.102748e+003
1.228917e+003, 2.096980e+003
1.229399e+003, 2.103113e+003
1.229881e+003, 2.107302e+003
1.230363e+003, 2.102629e+003
1.230845e+003, 2.097447e+003
1.231327e+003, 2.096621e+003
1.231810e+003, 2.097985e+003
1.232292e+003, 2.099248e+003
1.232774e+003, 2.100303e+003
1.233256e+003, 2.100894e+003
1.233738e+003, 2.100952e+003
1.234220e+003, 2.100708e+003
1.234702e+003, 2.099754e+003
1.235184e+003, 2.099943e+003
1.235667e+003, 2.101894e+003
1.236149e+003, 2.104167e+003
1.236631e+003, 2.106306e+003
1.237113e+003, 2.106998e+003
1.237595e+003, 2.104251e+003
1.238077e+003, 2.099574e+003
1.238559e+003, 2.097752e+003
1.239041e+003, 2.098094e+003
1.239523e+003, 2.096504e+003
1.240005e+003, 2.093482e+003
1.240488e+003, 2.093083e+003
1.240970e+003, 2.095479e+003
1.241452e+003, 2.096191e+003
1.241934e+003, 2.092992e+003
1.242416e+003, 2.088948e+003
1.242898e+003, 2.086073e+003
1.243380e+003, 2.084622e+003
1.243862e+003, 2.085305e+003
1.244344e+003, 2.087128e+003
1.244827e+003, 2.090078e+003
1.245309e+003, 2.092724e+003
1.245791e+003, 2.092144e+003
1.246273e+003, 2.088875e+003
1.246755e+003, 2.087315e+003
1.247237e+003, 2.088967e+003
1.247719e+003, 2.090992e+003
1.248201e+003, 2.094000e+003
1.248684e+003, 2.095552e+003
1.249166e+003, 2.094101e+003
1.249648e+003, 2.091901e+003
1.250130e+003, 2.089553e+003
1.250612e+003, 2.087803e+003
1.251094e+003, 2.087441e+003
1.251576e+003, 2.088599e+003
1.252058e+003, 2.093131e+003
1.252541e+003, 2.102516e+003
1.253023e+003, 2.103334e+003
1.253505e+003, 2.094338e+003
1.253987e+003, 2.087371e+003
1.254469e+003, 2.085151e+003
1.254951e+003, 2.086491e+003
1.255433e+003, 2.090905e+003
1.255915e+003, 2.094983e+003
1.256397e+003, 2.094410e+003
1.256880e+003, 2.090940e+003
1.257362e+003, 2.086353e+003
1.257844e+003, 2.082366e+003
1.258326e+003, 2.083478e+003
1.258808e+003, 2.087827e+003
1.259290e+003, 2.090776e+003
1.259772e+003, 2.091533e+003
1.260254e+003, 2.091574e+003
1.260737e+003, 2.091440e+003
1.261219e+003, 2.091087e+003
1.261701e+003, 2.090168e+003
1.262183e+003, 2.089471e+003
1.262665e+003, 2.088885e+003
1.263147e+003, 2.089182e+003
1.263629e+003, 2.091256e+003
1.264111e+003, 2.094327e+003
1.264594e+003, 2.098443e+003
1.265076e+003, 2.102742e+003
1.265558e+003, 2.102387e+003
1.266040e+003, 2.095408e+003
1.266522e+003, 2.090829e+003
1.267004e+003, 2.088903e+003
1.267486e+003, 2.088640e+003
1.267968e+003, 2.090206e+003
1.268450e+003, 2.091860e+003
1.268932e+003, 2.092847e+003
1.269415e+003, 2.092588e+003
1.269897e+003, 2.090108e+003
1.270379e+003, 2.086639e+003
1.270861e+003, 2.085018e+003
1.271343e+003, 2.084909e+003
1.271825e+003, 2.085615e+003
1.272307e+003, 2.086833e+003
1.272789e+003, 2.087985e+003
1.273271e+003, 2.088877e+003
1.273754e+003, 2.089191e+003
1.274236e+003, 2.088825e+003
1.274718e+003, 2.088616e+003
1.275200e+003, 2.089776e+003
1.275682e+003, 2.090335e+003
1.276164e+003, 2.087595e+003
1.276646e+003, 2.085522e+003
1.277128e+003, 2.087787e+003
1.277611e+003, 2.091689e+003
1.278093e+003, 2.094833e+003
1.278575e+003, 2.096749e+003
1.279057e+003, 2.096283e+003
1.279539e+003, 2.093202e+003
1.280021e+003, 2.090504e+003
1.280503e+003, 2.086829e+003
1.280985e+003, 2.086581e+003
1.281468e+003, 2.091836e+003
1.281950e+003, 2.096972e+003
1.282432e+003, 2.100022e+003
1.282914e+003, 2.101285e+003
1.283396e+003, 2.100829e+003
1.283878e+003, 2.099750e+003
1.284360e+003, 2.100034e+003
1.284842e+003, 2.100335e+003
1.285324e+003, 2.097228e+003
##END=



