##NAMES=Eitelite
##RRUFFID=R110214
##IDEAL CHEMISTRY=Na_2_Mg(CO_3_)_2_
##LOCALITY=Westvaco mine, Green River, Sweetwater County, Wyoming, USA
##OWNER=RRUFF
##SOURCE=Gunnar Farber
##DESCRIPTION=Dirty yellow-brown platy and massive
##STATUS=The identification of this mineral is confirmed by single-crystal X-ray diffraction and chemical analysis.
##URL=rruff.info/R110214
##MEASURED CHEMISTRY=Na_2_(Mg_0.97_Ca_0.02_Fe_0.01_)_Î£=1.00_(CO_3_)_2_
9.112140e+001, 0.000000e+000
9.160352e+001, 3.946403e+004
9.208563e+001, 3.846641e+004
9.256775e+001, 3.834846e+004
9.304987e+001, 3.959753e+004
9.353198e+001, 4.108187e+004
9.401410e+001, 4.198312e+004
9.449622e+001, 4.234568e+004
9.497833e+001, 4.242295e+004
9.546045e+001, 4.241596e+004
9.594257e+001, 4.232360e+004
9.642468e+001, 4.218043e+004
9.690680e+001, 4.201057e+004
9.738892e+001, 4.183380e+004
9.787103e+001, 4.165847e+004
9.835315e+001, 4.143694e+004
9.883527e+001, 4.114527e+004
9.931738e+001, 4.087382e+004
9.979950e+001, 4.063449e+004
1.002816e+002, 4.043087e+004
1.007637e+002, 4.024738e+004
1.012458e+002, 4.008620e+004
1.017280e+002, 3.995035e+004
1.022101e+002, 3.983701e+004
1.026922e+002, 3.974646e+004
1.031743e+002, 3.968227e+004
1.036564e+002, 3.963821e+004
1.041385e+002, 3.960384e+004
1.046207e+002, 3.957047e+004
1.051028e+002, 3.954010e+004
1.055849e+002, 3.952193e+004
1.060670e+002, 3.951195e+004
1.065491e+002, 3.950729e+004
1.070313e+002, 3.950495e+004
1.075134e+002, 3.950327e+004
1.079955e+002, 3.950424e+004
1.084776e+002, 3.950871e+004
1.089597e+002, 3.951469e+004
1.094418e+002, 3.952664e+004
1.099240e+002, 3.954893e+004
1.104061e+002, 3.957403e+004
1.108882e+002, 3.959654e+004
1.113703e+002, 3.961423e+004
1.118524e+002, 3.962835e+004
1.123345e+002, 3.964219e+004
1.128167e+002, 3.965260e+004
1.132988e+002, 3.966748e+004
1.137809e+002, 3.968999e+004
1.142630e+002, 3.971651e+004
1.147451e+002, 3.974283e+004
1.152272e+002, 3.976606e+004
1.157094e+002, 3.978639e+004
1.161915e+002, 3.980608e+004
1.166736e+002, 3.983641e+004
1.171557e+002, 3.985498e+004
1.176378e+002, 3.984912e+004
1.181199e+002, 3.982258e+004
1.186021e+002, 3.978896e+004
1.190842e+002, 3.975813e+004
1.195663e+002, 3.973017e+004
1.200484e+002, 3.970577e+004
1.205305e+002, 3.968559e+004
1.210126e+002, 3.966754e+004
1.214948e+002, 3.964997e+004
1.219769e+002, 3.963243e+004
1.224590e+002, 3.961521e+004
1.229411e+002, 3.959629e+004
1.234232e+002, 3.957677e+004
1.239053e+002, 3.956341e+004
1.243875e+002, 3.956148e+004
1.248696e+002, 3.956764e+004
1.253517e+002, 3.957327e+004
1.258338e+002, 3.957925e+004
1.263159e+002, 3.958154e+004
1.267980e+002, 3.957727e+004
1.272802e+002, 3.956733e+004
1.277623e+002, 3.955581e+004
1.282444e+002, 3.954382e+004
1.287265e+002, 3.953077e+004
1.292086e+002, 3.952501e+004
1.296907e+002, 3.953732e+004
1.301729e+002, 3.955018e+004
1.306550e+002, 3.955521e+004
1.311371e+002, 3.955167e+004
1.316192e+002, 3.954460e+004
1.321013e+002, 3.954052e+004
1.325834e+002, 3.953930e+004
1.330656e+002, 3.954243e+004
1.335477e+002, 3.955305e+004
1.340298e+002, 3.956562e+004
1.345119e+002, 3.957588e+004
1.349940e+002, 3.958250e+004
1.354761e+002, 3.958723e+004
1.359583e+002, 3.959388e+004
1.364404e+002, 3.960338e+004
1.369225e+002, 3.961422e+004
1.374046e+002, 3.962759e+004
1.378867e+002, 3.964223e+004
1.383688e+002, 3.965699e+004
1.388510e+002, 3.967202e+004
1.393331e+002, 3.968555e+004
1.398152e+002, 3.969112e+004
1.402973e+002, 3.968226e+004
1.407794e+002, 3.967623e+004
1.412615e+002, 3.968312e+004
1.417437e+002, 3.970007e+004
1.422258e+002, 3.971402e+004
1.427079e+002, 3.971500e+004
1.431900e+002, 3.971001e+004
1.436721e+002, 3.971455e+004
1.441542e+002, 3.973461e+004
1.446364e+002, 3.975770e+004
1.451185e+002, 3.977102e+004
1.456006e+002, 3.977314e+004
1.460827e+002, 3.977399e+004
1.465648e+002, 3.977663e+004
1.470469e+002, 3.978145e+004
1.475291e+002, 3.979011e+004
1.480112e+002, 3.980524e+004
1.484933e+002, 3.982268e+004
1.489754e+002, 3.983113e+004
1.494575e+002, 3.982093e+004
1.499396e+002, 3.981950e+004
1.504218e+002, 3.984373e+004
1.509039e+002, 3.987882e+004
1.513860e+002, 3.990475e+004
1.518681e+002, 3.990873e+004
1.523502e+002, 3.989343e+004
1.528323e+002, 3.988235e+004
1.533145e+002, 3.987324e+004
1.537966e+002, 3.987125e+004
1.542787e+002, 3.988273e+004
1.547608e+002, 3.990215e+004
1.552429e+002, 3.991857e+004
1.557250e+002, 3.992234e+004
1.562072e+002, 3.991166e+004
1.566893e+002, 3.991354e+004
1.571714e+002, 3.993448e+004
1.576535e+002, 3.995871e+004
1.581356e+002, 3.998437e+004
1.586177e+002, 4.000865e+004
1.590999e+002, 4.002507e+004
1.595820e+002, 4.002663e+004
1.600641e+002, 4.001030e+004
1.605462e+002, 3.999583e+004
1.610283e+002, 3.998299e+004
1.615104e+002, 3.997220e+004
1.619926e+002, 3.996240e+004
1.624747e+002, 3.995364e+004
1.629568e+002, 3.995038e+004
1.634389e+002, 3.996153e+004
1.639210e+002, 3.998623e+004
1.644031e+002, 4.000370e+004
1.648853e+002, 4.000685e+004
1.653674e+002, 4.000199e+004
1.658495e+002, 3.999771e+004
1.663316e+002, 3.999515e+004
1.668137e+002, 3.999377e+004
1.672958e+002, 3.999440e+004
1.677780e+002, 3.999637e+004
1.682601e+002, 3.999613e+004
1.687422e+002, 3.999105e+004
1.692243e+002, 3.998222e+004
1.697064e+002, 3.997334e+004
1.701885e+002, 3.996184e+004
1.706707e+002, 3.995484e+004
1.711528e+002, 3.995857e+004
1.716349e+002, 3.997098e+004
1.721170e+002, 3.998340e+004
1.725991e+002, 3.998859e+004
1.730812e+002, 3.998616e+004
1.735634e+002, 3.998436e+004
1.740455e+002, 3.998323e+004
1.745276e+002, 3.998302e+004
1.750097e+002, 3.998267e+004
1.754918e+002, 3.998277e+004
1.759739e+002, 3.998573e+004
1.764561e+002, 3.999607e+004
1.769382e+002, 4.001871e+004
1.774203e+002, 4.003128e+004
1.779024e+002, 4.002709e+004
1.783845e+002, 4.001907e+004
1.788666e+002, 4.001373e+004
1.793488e+002, 4.001191e+004
1.798309e+002, 4.001016e+004
1.803130e+002, 4.000299e+004
1.807951e+002, 3.998294e+004
1.812772e+002, 3.997538e+004
1.817593e+002, 3.998825e+004
1.822415e+002, 4.000679e+004
1.827236e+002, 4.002232e+004
1.832057e+002, 4.003223e+004
1.836878e+002, 4.003636e+004
1.841699e+002, 4.003370e+004
1.846520e+002, 4.001784e+004
1.851342e+002, 4.000898e+004
1.856163e+002, 4.001085e+004
1.860984e+002, 4.001884e+004
1.865805e+002, 4.002912e+004
1.870626e+002, 4.004084e+004
1.875447e+002, 4.005281e+004
1.880269e+002, 4.006246e+004
1.885090e+002, 4.006887e+004
1.889911e+002, 4.007726e+004
1.894732e+002, 4.008668e+004
1.899553e+002, 4.009900e+004
1.904374e+002, 4.011912e+004
1.909196e+002, 4.015103e+004
1.914017e+002, 4.018523e+004
1.918838e+002, 4.020659e+004
1.923659e+002, 4.021405e+004
1.928480e+002, 4.022266e+004
1.933301e+002, 4.024410e+004
1.938123e+002, 4.027310e+004
1.942944e+002, 4.028892e+004
1.947765e+002, 4.027753e+004
1.952586e+002, 4.026148e+004
1.957407e+002, 4.026494e+004
1.962228e+002, 4.028814e+004
1.967050e+002, 4.031585e+004
1.971871e+002, 4.033961e+004
1.976692e+002, 4.035943e+004
1.981513e+002, 4.037382e+004
1.986334e+002, 4.037768e+004
1.991155e+002, 4.038025e+004
1.995977e+002, 4.038620e+004
2.000798e+002, 4.039635e+004
2.005619e+002, 4.041216e+004
2.010440e+002, 4.043573e+004
2.015261e+002, 4.046806e+004
2.020082e+002, 4.050398e+004
2.024904e+002, 4.055227e+004
2.029725e+002, 4.059777e+004
2.034546e+002, 4.063255e+004
2.039367e+002, 4.065584e+004
2.044188e+002, 4.067235e+004
2.049009e+002, 4.068539e+004
2.053831e+002, 4.069052e+004
2.058652e+002, 4.070616e+004
2.063473e+002, 4.075526e+004
2.068294e+002, 4.079754e+004
2.073115e+002, 4.080842e+004
2.077936e+002, 4.078455e+004
2.082758e+002, 4.073943e+004
2.087579e+002, 4.069198e+004
2.092400e+002, 4.064736e+004
2.097221e+002, 4.058712e+004
2.102042e+002, 4.049673e+004
2.106863e+002, 4.040382e+004
2.111685e+002, 4.032615e+004
2.116506e+002, 4.026740e+004
2.121327e+002, 4.022001e+004
2.126148e+002, 4.017251e+004
2.130969e+002, 4.012151e+004
2.135790e+002, 4.007979e+004
2.140612e+002, 4.005351e+004
2.145433e+002, 4.003201e+004
2.150254e+002, 4.000552e+004
2.155075e+002, 3.997227e+004
2.159896e+002, 3.993813e+004
2.164717e+002, 3.991174e+004
2.169539e+002, 3.989599e+004
2.174360e+002, 3.988220e+004
2.179181e+002, 3.987005e+004
2.184002e+002, 3.985980e+004
2.188823e+002, 3.985287e+004
2.193644e+002, 3.984965e+004
2.198466e+002, 3.984641e+004
2.203287e+002, 3.983786e+004
2.208108e+002, 3.982336e+004
2.212929e+002, 3.980751e+004
2.217750e+002, 3.979124e+004
2.222571e+002, 3.977393e+004
2.227393e+002, 3.975307e+004
2.232214e+002, 3.972736e+004
2.237035e+002, 3.970350e+004
2.241856e+002, 3.969384e+004
2.246677e+002, 3.969731e+004
2.251498e+002, 3.969520e+004
2.256320e+002, 3.967418e+004
2.261141e+002, 3.964677e+004
2.265962e+002, 3.963743e+004
2.270783e+002, 3.965608e+004
2.275604e+002, 3.967523e+004
2.280425e+002, 3.966036e+004
2.285247e+002, 3.961983e+004
2.290068e+002, 3.958654e+004
2.294889e+002, 3.957764e+004
2.299710e+002, 3.958453e+004
2.304531e+002, 3.958858e+004
2.309352e+002, 3.958792e+004
2.314174e+002, 3.958427e+004
2.318995e+002, 3.957726e+004
2.323816e+002, 3.956818e+004
2.328637e+002, 3.956085e+004
2.333458e+002, 3.955575e+004
2.338279e+002, 3.955361e+004
2.343101e+002, 3.955884e+004
2.347922e+002, 3.957898e+004
2.352743e+002, 3.959324e+004
2.357564e+002, 3.958620e+004
2.362385e+002, 3.956558e+004
2.367206e+002, 3.954686e+004
2.372028e+002, 3.954007e+004
2.376849e+002, 3.954228e+004
2.381670e+002, 3.954096e+004
2.386491e+002, 3.953522e+004
2.391312e+002, 3.952689e+004
2.396133e+002, 3.951680e+004
2.400955e+002, 3.950515e+004
2.405776e+002, 3.949127e+004
2.410597e+002, 3.947264e+004
2.415418e+002, 3.945208e+004
2.420239e+002, 3.944465e+004
2.425060e+002, 3.946272e+004
2.429882e+002, 3.947735e+004
2.434703e+002, 3.947795e+004
2.439524e+002, 3.947046e+004
2.444345e+002, 3.946277e+004
2.449166e+002, 3.945855e+004
2.453987e+002, 3.945852e+004
2.458809e+002, 3.946682e+004
2.463630e+002, 3.949109e+004
2.468451e+002, 3.951420e+004
2.473272e+002, 3.953756e+004
2.478093e+002, 3.955647e+004
2.482914e+002, 3.956438e+004
2.487736e+002, 3.955743e+004
2.492557e+002, 3.953835e+004
2.497378e+002, 3.951791e+004
2.502199e+002, 3.948629e+004
2.507020e+002, 3.946645e+004
2.511841e+002, 3.946795e+004
2.516663e+002, 3.948043e+004
2.521484e+002, 3.949313e+004
2.526305e+002, 3.950102e+004
2.531126e+002, 3.950399e+004
2.535947e+002, 3.950125e+004
2.540768e+002, 3.947789e+004
2.545590e+002, 3.946768e+004
2.550411e+002, 3.948177e+004
2.555232e+002, 3.950646e+004
2.560053e+002, 3.952661e+004
2.564874e+002, 3.953580e+004
2.569695e+002, 3.953867e+004
2.574517e+002, 3.954630e+004
2.579338e+002, 3.956624e+004
2.584159e+002, 3.958199e+004
2.588980e+002, 3.959173e+004
2.593801e+002, 3.959781e+004
2.598622e+002, 3.960370e+004
2.603444e+002, 3.961041e+004
2.608265e+002, 3.961456e+004
2.613086e+002, 3.960978e+004
2.617907e+002, 3.959044e+004
2.622728e+002, 3.956919e+004
2.627549e+002, 3.954243e+004
2.632371e+002, 3.951530e+004
2.637192e+002, 3.949614e+004
2.642013e+002, 3.948660e+004
2.646834e+002, 3.947598e+004
2.651655e+002, 3.944698e+004
2.656476e+002, 3.938712e+004
2.661298e+002, 3.933928e+004
2.666119e+002, 3.931189e+004
2.670940e+002, 3.929266e+004
2.675761e+002, 3.927038e+004
2.680582e+002, 3.924286e+004
2.685403e+002, 3.921588e+004
2.690225e+002, 3.919765e+004
2.695046e+002, 3.919216e+004
2.699867e+002, 3.917663e+004
2.704688e+002, 3.914520e+004
2.709509e+002, 3.910727e+004
2.714330e+002, 3.906841e+004
2.719152e+002, 3.902991e+004
2.723973e+002, 3.899493e+004
2.728794e+002, 3.896649e+004
2.733615e+002, 3.894538e+004
2.738436e+002, 3.892940e+004
2.743257e+002, 3.892284e+004
2.748079e+002, 3.891807e+004
2.752900e+002, 3.890784e+004
2.757721e+002, 3.889212e+004
2.762542e+002, 3.887824e+004
2.767363e+002, 3.887225e+004
2.772184e+002, 3.887344e+004
2.777006e+002, 3.887243e+004
2.781827e+002, 3.887062e+004
2.786648e+002, 3.886528e+004
2.791469e+002, 3.885122e+004
2.796290e+002, 3.882988e+004
2.801111e+002, 3.881237e+004
2.805933e+002, 3.880623e+004
2.810754e+002, 3.880923e+004
2.815575e+002, 3.881141e+004
2.820396e+002, 3.881580e+004
2.825217e+002, 3.881608e+004
2.830038e+002, 3.880639e+004
2.834860e+002, 3.878841e+004
2.839681e+002, 3.877037e+004
2.844502e+002, 3.875561e+004
2.849323e+002, 3.874352e+004
2.854144e+002, 3.873229e+004
2.858965e+002, 3.872208e+004
2.863787e+002, 3.871240e+004
2.868608e+002, 3.870152e+004
2.873429e+002, 3.869065e+004
2.878250e+002, 3.868448e+004
2.883071e+002, 3.868611e+004
2.887892e+002, 3.869108e+004
2.892714e+002, 3.869332e+004
2.897535e+002, 3.869288e+004
2.902356e+002, 3.869009e+004
2.907177e+002, 3.868443e+004
2.911998e+002, 3.867643e+004
2.916819e+002, 3.866825e+004
2.921641e+002, 3.866164e+004
2.926462e+002, 3.865203e+004
2.931283e+002, 3.862874e+004
2.936104e+002, 3.859396e+004
2.940925e+002, 3.857062e+004
2.945746e+002, 3.857641e+004
2.950568e+002, 3.859845e+004
2.955389e+002, 3.861157e+004
2.960210e+002, 3.861218e+004
2.965031e+002, 3.860591e+004
2.969852e+002, 3.859232e+004
2.974673e+002, 3.857475e+004
2.979495e+002, 3.856313e+004
2.984316e+002, 3.856879e+004
2.989137e+002, 3.857917e+004
2.993958e+002, 3.857363e+004
2.998779e+002, 3.854893e+004
3.003600e+002, 3.852181e+004
3.008422e+002, 3.850184e+004
3.013243e+002, 3.848722e+004
3.018064e+002, 3.847615e+004
3.022885e+002, 3.847043e+004
3.027706e+002, 3.846580e+004
3.032527e+002, 3.845807e+004
3.037349e+002, 3.844722e+004
3.042170e+002, 3.843286e+004
3.046991e+002, 3.841235e+004
3.051812e+002, 3.838931e+004
3.056633e+002, 3.836848e+004
3.061454e+002, 3.835050e+004
3.066276e+002, 3.833490e+004
3.071097e+002, 3.832367e+004
3.075918e+002, 3.831637e+004
3.080739e+002, 3.830346e+004
3.085560e+002, 3.827671e+004
3.090381e+002, 3.824773e+004
3.095203e+002, 3.823191e+004
3.100024e+002, 3.823099e+004
3.104845e+002, 3.822709e+004
3.109666e+002, 3.820526e+004
3.114487e+002, 3.816896e+004
3.119308e+002, 3.813497e+004
3.124130e+002, 3.810515e+004
3.128951e+002, 3.808067e+004
3.133772e+002, 3.806296e+004
3.138593e+002, 3.805116e+004
3.143414e+002, 3.804160e+004
3.148235e+002, 3.803385e+004
3.153057e+002, 3.802684e+004
3.157878e+002, 3.801913e+004
3.162699e+002, 3.801307e+004
3.167520e+002, 3.800018e+004
3.172341e+002, 3.796713e+004
3.177162e+002, 3.792278e+004
3.181984e+002, 3.788640e+004
3.186805e+002, 3.787170e+004
3.191626e+002, 3.786617e+004
3.196447e+002, 3.784864e+004
3.201268e+002, 3.781665e+004
3.206089e+002, 3.778585e+004
3.210911e+002, 3.776432e+004
3.215732e+002, 3.774995e+004
3.220553e+002, 3.774195e+004
3.225374e+002, 3.774494e+004
3.230195e+002, 3.774646e+004
3.235016e+002, 3.773151e+004
3.239838e+002, 3.769987e+004
3.244659e+002, 3.766775e+004
3.249480e+002, 3.763708e+004
3.254301e+002, 3.761259e+004
3.259122e+002, 3.760069e+004
3.263943e+002, 3.760332e+004
3.268765e+002, 3.760935e+004
3.273586e+002, 3.761395e+004
3.278407e+002, 3.761621e+004
3.283228e+002, 3.761081e+004
3.288049e+002, 3.759529e+004
3.292870e+002, 3.757283e+004
3.297692e+002, 3.754243e+004
3.302513e+002, 3.750530e+004
3.307334e+002, 3.747816e+004
3.312155e+002, 3.747791e+004
3.316976e+002, 3.749270e+004
3.321797e+002, 3.749297e+004
3.326619e+002, 3.747134e+004
3.331440e+002, 3.744733e+004
3.336261e+002, 3.743902e+004
3.341082e+002, 3.744081e+004
3.345903e+002, 3.744002e+004
3.350724e+002, 3.742759e+004
3.355546e+002, 3.741321e+004
3.360367e+002, 3.741203e+004
3.365188e+002, 3.742553e+004
3.370009e+002, 3.743716e+004
3.374830e+002, 3.743838e+004
3.379651e+002, 3.743088e+004
3.384473e+002, 3.741671e+004
3.389294e+002, 3.738894e+004
3.394115e+002, 3.736610e+004
3.398936e+002, 3.737216e+004
3.403757e+002, 3.740193e+004
3.408578e+002, 3.741395e+004
3.413400e+002, 3.738504e+004
3.418221e+002, 3.733855e+004
3.423042e+002, 3.731163e+004
3.427863e+002, 3.730713e+004
3.432684e+002, 3.730366e+004
3.437505e+002, 3.728885e+004
3.442327e+002, 3.726735e+004
3.447148e+002, 3.725048e+004
3.451969e+002, 3.724109e+004
3.456790e+002, 3.723530e+004
3.461611e+002, 3.722995e+004
3.466432e+002, 3.722486e+004
3.471254e+002, 3.721838e+004
3.476075e+002, 3.721025e+004
3.480896e+002, 3.720039e+004
3.485717e+002, 3.718836e+004
3.490538e+002, 3.717401e+004
3.495359e+002, 3.715928e+004
3.500181e+002, 3.714486e+004
3.505002e+002, 3.713126e+004
3.509823e+002, 3.712010e+004
3.514644e+002, 3.711316e+004
3.519465e+002, 3.710734e+004
3.524286e+002, 3.710259e+004
3.529108e+002, 3.709790e+004
3.533929e+002, 3.708758e+004
3.538750e+002, 3.706677e+004
3.543571e+002, 3.704070e+004
3.548392e+002, 3.702198e+004
3.553214e+002, 3.701070e+004
3.558035e+002, 3.700473e+004
3.562856e+002, 3.701073e+004
3.567677e+002, 3.702026e+004
3.572498e+002, 3.701621e+004
3.577319e+002, 3.699244e+004
3.582141e+002, 3.696140e+004
3.586962e+002, 3.694016e+004
3.591783e+002, 3.693070e+004
3.596604e+002, 3.691864e+004
3.601425e+002, 3.690033e+004
3.606246e+002, 3.688010e+004
3.611068e+002, 3.686092e+004
3.615889e+002, 3.684336e+004
3.620710e+002, 3.683016e+004
3.625531e+002, 3.682600e+004
3.630352e+002, 3.683023e+004
3.635173e+002, 3.682031e+004
3.639995e+002, 3.678243e+004
3.644816e+002, 3.674548e+004
3.649637e+002, 3.672173e+004
3.654458e+002, 3.670980e+004
3.659279e+002, 3.670615e+004
3.664100e+002, 3.671004e+004
3.668922e+002, 3.671821e+004
3.673743e+002, 3.671990e+004
3.678564e+002, 3.670111e+004
3.683385e+002, 3.669558e+004
3.688206e+002, 3.672798e+004
3.693027e+002, 3.676704e+004
3.697849e+002, 3.677191e+004
3.702670e+002, 3.673227e+004
3.707491e+002, 3.667513e+004
3.712312e+002, 3.663771e+004
3.717133e+002, 3.662833e+004
3.721954e+002, 3.661546e+004
3.726776e+002, 3.659724e+004
3.731597e+002, 3.657757e+004
3.736418e+002, 3.655875e+004
3.741239e+002, 3.654082e+004
3.746060e+002, 3.652198e+004
3.750881e+002, 3.649987e+004
3.755703e+002, 3.647499e+004
3.760524e+002, 3.645938e+004
3.765345e+002, 3.647076e+004
3.770166e+002, 3.647130e+004
3.774987e+002, 3.644388e+004
3.779808e+002, 3.640262e+004
3.784630e+002, 3.636798e+004
3.789451e+002, 3.634941e+004
3.794272e+002, 3.634165e+004
3.799093e+002, 3.633234e+004
3.803914e+002, 3.631927e+004
3.808735e+002, 3.630829e+004
3.813557e+002, 3.630334e+004
3.818378e+002, 3.629760e+004
3.823199e+002, 3.628403e+004
3.828020e+002, 3.626270e+004
3.832841e+002, 3.624104e+004
3.837662e+002, 3.622770e+004
3.842484e+002, 3.622378e+004
3.847305e+002, 3.621913e+004
3.852126e+002, 3.621477e+004
3.856947e+002, 3.620814e+004
3.861768e+002, 3.619676e+004
3.866589e+002, 3.618233e+004
3.871411e+002, 3.616807e+004
3.876232e+002, 3.615571e+004
3.881053e+002, 3.614502e+004
3.885874e+002, 3.613631e+004
3.890695e+002, 3.613396e+004
3.895516e+002, 3.612488e+004
3.900338e+002, 3.610279e+004
3.905159e+002, 3.607549e+004
3.909980e+002, 3.604976e+004
3.914801e+002, 3.602753e+004
3.919622e+002, 3.600721e+004
3.924443e+002, 3.598482e+004
3.929265e+002, 3.595935e+004
3.934086e+002, 3.594398e+004
3.938907e+002, 3.595473e+004
3.943728e+002, 3.596265e+004
3.948549e+002, 3.594757e+004
3.953370e+002, 3.591411e+004
3.958192e+002, 3.588220e+004
3.963013e+002, 3.586935e+004
3.967834e+002, 3.586770e+004
3.972655e+002, 3.584787e+004
3.977476e+002, 3.580075e+004
3.982297e+002, 3.575936e+004
3.987119e+002, 3.574934e+004
3.991940e+002, 3.575274e+004
3.996761e+002, 3.574601e+004
4.001582e+002, 3.571941e+004
4.006403e+002, 3.568940e+004
4.011224e+002, 3.567405e+004
4.016046e+002, 3.567223e+004
4.020867e+002, 3.566843e+004
4.025688e+002, 3.565620e+004
4.030509e+002, 3.564192e+004
4.035330e+002, 3.563416e+004
4.040151e+002, 3.563305e+004
4.044973e+002, 3.563011e+004
4.049794e+002, 3.561955e+004
4.054615e+002, 3.560534e+004
4.059436e+002, 3.559634e+004
4.064257e+002, 3.559478e+004
4.069078e+002, 3.558921e+004
4.073900e+002, 3.556648e+004
4.078721e+002, 3.553093e+004
4.083542e+002, 3.550501e+004
4.088363e+002, 3.549580e+004
4.093184e+002, 3.549196e+004
4.098005e+002, 3.548959e+004
4.102827e+002, 3.548735e+004
4.107648e+002, 3.548028e+004
4.112469e+002, 3.546546e+004
4.117290e+002, 3.544613e+004
4.122111e+002, 3.542920e+004
4.126932e+002, 3.541477e+004
4.131754e+002, 3.540190e+004
4.136575e+002, 3.539012e+004
4.141396e+002, 3.537985e+004
4.146217e+002, 3.537250e+004
4.151038e+002, 3.536788e+004
4.155859e+002, 3.536259e+004
4.160681e+002, 3.535348e+004
4.165502e+002, 3.534034e+004
4.170323e+002, 3.532337e+004
4.175144e+002, 3.529841e+004
4.179965e+002, 3.527445e+004
4.184786e+002, 3.525268e+004
4.189608e+002, 3.523487e+004
4.194429e+002, 3.522496e+004
4.199250e+002, 3.522543e+004
4.204071e+002, 3.523162e+004
4.208892e+002, 3.523041e+004
4.213713e+002, 3.521520e+004
4.218535e+002, 3.520263e+004
4.223356e+002, 3.519657e+004
4.228177e+002, 3.519096e+004
4.232998e+002, 3.518264e+004
4.237819e+002, 3.517037e+004
4.242640e+002, 3.515246e+004
4.247462e+002, 3.512521e+004
4.252283e+002, 3.508718e+004
4.257104e+002, 3.505900e+004
4.261925e+002, 3.505021e+004
4.266746e+002, 3.504144e+004
4.271567e+002, 3.502539e+004
4.276389e+002, 3.500607e+004
4.281210e+002, 3.499013e+004
4.286031e+002, 3.498075e+004
4.290852e+002, 3.497612e+004
4.295673e+002, 3.497416e+004
4.300494e+002, 3.497713e+004
4.305316e+002, 3.497487e+004
4.310137e+002, 3.496316e+004
4.314958e+002, 3.494664e+004
4.319779e+002, 3.492623e+004
4.324600e+002, 3.490272e+004
4.329421e+002, 3.488020e+004
4.334243e+002, 3.486150e+004
4.339064e+002, 3.484639e+004
4.343885e+002, 3.483452e+004
4.348706e+002, 3.482780e+004
4.353527e+002, 3.481971e+004
4.358348e+002, 3.480141e+004
4.363170e+002, 3.477952e+004
4.367991e+002, 3.476650e+004
4.372812e+002, 3.477180e+004
4.377633e+002, 3.477765e+004
4.382454e+002, 3.476573e+004
4.387275e+002, 3.473813e+004
4.392097e+002, 3.470959e+004
4.396918e+002, 3.468348e+004
4.401739e+002, 3.466110e+004
4.406560e+002, 3.464251e+004
4.411381e+002, 3.462593e+004
4.416202e+002, 3.462252e+004
4.421024e+002, 3.465433e+004
4.425845e+002, 3.469063e+004
4.430666e+002, 3.469126e+004
4.435487e+002, 3.465448e+004
4.440308e+002, 3.461302e+004
4.445129e+002, 3.459116e+004
4.449951e+002, 3.458685e+004
4.454772e+002, 3.457808e+004
4.459593e+002, 3.456445e+004
4.464414e+002, 3.454781e+004
4.469235e+002, 3.452533e+004
4.474056e+002, 3.450125e+004
4.478878e+002, 3.448213e+004
4.483699e+002, 3.447017e+004
4.488520e+002, 3.446227e+004
4.493341e+002, 3.445418e+004
4.498162e+002, 3.444780e+004
4.502983e+002, 3.443532e+004
4.507805e+002, 3.440956e+004
4.512626e+002, 3.438530e+004
4.517447e+002, 3.437196e+004
4.522268e+002, 3.436682e+004
4.527089e+002, 3.436135e+004
4.531910e+002, 3.435007e+004
4.536732e+002, 3.433366e+004
4.541553e+002, 3.431420e+004
4.546374e+002, 3.428558e+004
4.551195e+002, 3.426454e+004
4.556016e+002, 3.425749e+004
4.560837e+002, 3.425548e+004
4.565659e+002, 3.425207e+004
4.570480e+002, 3.424563e+004
4.575301e+002, 3.423688e+004
4.580122e+002, 3.422542e+004
4.584943e+002, 3.421127e+004
4.589764e+002, 3.420011e+004
4.594586e+002, 3.419423e+004
4.599407e+002, 3.418816e+004
4.604228e+002, 3.417957e+004
4.609049e+002, 3.416879e+004
4.613870e+002, 3.415648e+004
4.618691e+002, 3.414326e+004
4.623513e+002, 3.412791e+004
4.628334e+002, 3.410790e+004
4.633155e+002, 3.408346e+004
4.637976e+002, 3.405971e+004
4.642797e+002, 3.403698e+004
4.647618e+002, 3.401736e+004
4.652440e+002, 3.400495e+004
4.657261e+002, 3.399992e+004
4.662082e+002, 3.399221e+004
4.666903e+002, 3.397457e+004
4.671724e+002, 3.395451e+004
4.676545e+002, 3.394383e+004
4.681367e+002, 3.394267e+004
4.686188e+002, 3.393729e+004
4.691009e+002, 3.391699e+004
4.695830e+002, 3.388548e+004
4.700651e+002, 3.386097e+004
4.705472e+002, 3.384550e+004
4.710294e+002, 3.383341e+004
4.715115e+002, 3.382570e+004
4.719936e+002, 3.381947e+004
4.724757e+002, 3.381090e+004
4.729578e+002, 3.379905e+004
4.734399e+002, 3.378585e+004
4.739221e+002, 3.377390e+004
4.744042e+002, 3.376390e+004
4.748863e+002, 3.375036e+004
4.753684e+002, 3.373001e+004
4.758505e+002, 3.370979e+004
4.763326e+002, 3.369489e+004
4.768148e+002, 3.368135e+004
4.772969e+002, 3.366199e+004
4.777790e+002, 3.363338e+004
4.782611e+002, 3.359896e+004
4.787432e+002, 3.356507e+004
4.792253e+002, 3.352929e+004
4.797075e+002, 3.350163e+004
4.801896e+002, 3.348773e+004
4.806717e+002, 3.347886e+004
4.811538e+002, 3.347370e+004
4.816359e+002, 3.347029e+004
4.821180e+002, 3.346321e+004
4.826002e+002, 3.344832e+004
4.830823e+002, 3.342745e+004
4.835644e+002, 3.340463e+004
4.840465e+002, 3.337930e+004
4.845286e+002, 3.335463e+004
4.850107e+002, 3.333226e+004
4.854929e+002, 3.331123e+004
4.859750e+002, 3.328928e+004
4.864571e+002, 3.326536e+004
4.869392e+002, 3.324555e+004
4.874213e+002, 3.323532e+004
4.879034e+002, 3.323154e+004
4.883856e+002, 3.322937e+004
4.888677e+002, 3.322880e+004
4.893498e+002, 3.322296e+004
4.898319e+002, 3.320366e+004
4.903140e+002, 3.317196e+004
4.907961e+002, 3.314703e+004
4.912783e+002, 3.313438e+004
4.917604e+002, 3.312244e+004
4.922425e+002, 3.310515e+004
4.927246e+002, 3.308499e+004
4.932067e+002, 3.306621e+004
4.936888e+002, 3.305041e+004
4.941710e+002, 3.303740e+004
4.946531e+002, 3.302762e+004
4.951352e+002, 3.302304e+004
4.956173e+002, 3.301556e+004
4.960994e+002, 3.300746e+004
4.965815e+002, 3.299482e+004
4.970637e+002, 3.297158e+004
4.975458e+002, 3.294258e+004
4.980279e+002, 3.291794e+004
4.985100e+002, 3.290348e+004
4.989921e+002, 3.289576e+004
4.994742e+002, 3.288689e+004
4.999564e+002, 3.287880e+004
5.004385e+002, 3.286404e+004
5.009206e+002, 3.283211e+004
5.014027e+002, 3.280027e+004
5.018848e+002, 3.278029e+004
5.023669e+002, 3.277133e+004
5.028491e+002, 3.276436e+004
5.033312e+002, 3.275516e+004
5.038133e+002, 3.274309e+004
5.042954e+002, 3.272534e+004
5.047775e+002, 3.270094e+004
5.052596e+002, 3.267618e+004
5.057418e+002, 3.265252e+004
5.062239e+002, 3.263146e+004
5.067060e+002, 3.261462e+004
5.071881e+002, 3.260231e+004
5.076702e+002, 3.259396e+004
5.081523e+002, 3.259447e+004
5.086345e+002, 3.259712e+004
5.091166e+002, 3.258901e+004
5.095987e+002, 3.256816e+004
5.100808e+002, 3.254549e+004
5.105629e+002, 3.253052e+004
5.110450e+002, 3.252209e+004
5.115272e+002, 3.250630e+004
5.120093e+002, 3.247671e+004
5.124914e+002, 3.244816e+004
5.129735e+002, 3.242191e+004
5.134556e+002, 3.240023e+004
5.139377e+002, 3.238735e+004
5.144199e+002, 3.238389e+004
5.149020e+002, 3.238468e+004
5.153841e+002, 3.238544e+004
5.158662e+002, 3.238891e+004
5.163483e+002, 3.237392e+004
5.168304e+002, 3.231926e+004
5.173126e+002, 3.226847e+004
5.177947e+002, 3.223450e+004
5.182768e+002, 3.221196e+004
5.187589e+002, 3.219271e+004
5.192410e+002, 3.217364e+004
5.197231e+002, 3.215498e+004
5.202053e+002, 3.213680e+004
5.206874e+002, 3.211905e+004
5.211695e+002, 3.210225e+004
5.216516e+002, 3.208730e+004
5.221337e+002, 3.207204e+004
5.226158e+002, 3.205380e+004
5.230980e+002, 3.203394e+004
5.235801e+002, 3.201659e+004
5.240622e+002, 3.200619e+004
5.245443e+002, 3.199614e+004
5.250264e+002, 3.197684e+004
5.255085e+002, 3.195051e+004
5.259907e+002, 3.193286e+004
5.264728e+002, 3.193286e+004
5.269549e+002, 3.193618e+004
5.274370e+002, 3.191844e+004
5.279191e+002, 3.187474e+004
5.284012e+002, 3.184312e+004
5.288834e+002, 3.183828e+004
5.293655e+002, 3.183743e+004
5.298476e+002, 3.182379e+004
5.303297e+002, 3.180034e+004
5.308118e+002, 3.177908e+004
5.312939e+002, 3.176651e+004
5.317761e+002, 3.175897e+004
5.322582e+002, 3.174714e+004
5.327403e+002, 3.172666e+004
5.332224e+002, 3.170906e+004
5.337045e+002, 3.169335e+004
5.341866e+002, 3.168059e+004
5.346688e+002, 3.167494e+004
5.351509e+002, 3.167291e+004
5.356330e+002, 3.166509e+004
5.361151e+002, 3.164441e+004
5.365972e+002, 3.161503e+004
5.370793e+002, 3.158689e+004
5.375615e+002, 3.155970e+004
5.380436e+002, 3.153628e+004
5.385257e+002, 3.151986e+004
5.390078e+002, 3.150663e+004
5.394899e+002, 3.149330e+004
5.399720e+002, 3.148000e+004
5.404542e+002, 3.146856e+004
5.409363e+002, 3.146563e+004
5.414184e+002, 3.146258e+004
5.419005e+002, 3.144406e+004
5.423826e+002, 3.141051e+004
5.428647e+002, 3.137844e+004
5.433469e+002, 3.135604e+004
5.438290e+002, 3.134077e+004
5.443111e+002, 3.132638e+004
5.447932e+002, 3.131305e+004
5.452753e+002, 3.129973e+004
5.457574e+002, 3.128844e+004
5.462396e+002, 3.127517e+004
5.467217e+002, 3.125264e+004
5.472038e+002, 3.122347e+004
5.476859e+002, 3.119994e+004
5.481680e+002, 3.119106e+004
5.486501e+002, 3.119359e+004
5.491323e+002, 3.119388e+004
5.496144e+002, 3.119366e+004
5.500965e+002, 3.118773e+004
5.505786e+002, 3.117220e+004
5.510607e+002, 3.115427e+004
5.515428e+002, 3.113831e+004
5.520250e+002, 3.112507e+004
5.525071e+002, 3.111401e+004
5.529892e+002, 3.110537e+004
5.534713e+002, 3.109838e+004
5.539534e+002, 3.109226e+004
5.544355e+002, 3.108854e+004
5.549177e+002, 3.107685e+004
5.553998e+002, 3.104456e+004
5.558819e+002, 3.100830e+004
5.563640e+002, 3.099161e+004
5.568461e+002, 3.099715e+004
5.573282e+002, 3.100270e+004
5.578104e+002, 3.100221e+004
5.582925e+002, 3.099566e+004
5.587746e+002, 3.098167e+004
5.592567e+002, 3.096077e+004
5.597388e+002, 3.093638e+004
5.602209e+002, 3.090885e+004
5.607031e+002, 3.088173e+004
5.611852e+002, 3.086647e+004
5.616673e+002, 3.088092e+004
5.621494e+002, 3.088183e+004
5.626315e+002, 3.085727e+004
5.631136e+002, 3.082803e+004
5.635958e+002, 3.081027e+004
5.640779e+002, 3.080255e+004
5.645600e+002, 3.079308e+004
5.650421e+002, 3.077262e+004
5.655242e+002, 3.074576e+004
5.660063e+002, 3.072831e+004
5.664885e+002, 3.072297e+004
5.669706e+002, 3.071917e+004
5.674527e+002, 3.071868e+004
5.679348e+002, 3.071564e+004
5.684169e+002, 3.070436e+004
5.688990e+002, 3.068577e+004
5.693812e+002, 3.066728e+004
5.698633e+002, 3.065749e+004
5.703454e+002, 3.064779e+004
5.708275e+002, 3.062174e+004
5.713096e+002, 3.058079e+004
5.717917e+002, 3.054595e+004
5.722739e+002, 3.052621e+004
5.727560e+002, 3.051671e+004
5.732381e+002, 3.051012e+004
5.737202e+002, 3.050822e+004
5.742023e+002, 3.050246e+004
5.746844e+002, 3.049252e+004
5.751666e+002, 3.047816e+004
5.756487e+002, 3.045479e+004
5.761308e+002, 3.042690e+004
5.766129e+002, 3.040662e+004
5.770950e+002, 3.040055e+004
5.775771e+002, 3.040061e+004
5.780593e+002, 3.038762e+004
5.785414e+002, 3.035414e+004
5.790235e+002, 3.032760e+004
5.795056e+002, 3.030845e+004
5.799877e+002, 3.029729e+004
5.804698e+002, 3.030073e+004
5.809520e+002, 3.031211e+004
5.814341e+002, 3.031748e+004
5.819162e+002, 3.031118e+004
5.823983e+002, 3.029484e+004
5.828804e+002, 3.026340e+004
5.833625e+002, 3.021942e+004
5.838447e+002, 3.019371e+004
5.843268e+002, 3.019767e+004
5.848089e+002, 3.021229e+004
5.852910e+002, 3.022311e+004
5.857731e+002, 3.022947e+004
5.862552e+002, 3.022265e+004
5.867374e+002, 3.019118e+004
5.872195e+002, 3.015779e+004
5.877016e+002, 3.013236e+004
5.881837e+002, 3.011367e+004
5.886658e+002, 3.010036e+004
5.891479e+002, 3.009168e+004
5.896301e+002, 3.008376e+004
5.901122e+002, 3.007063e+004
5.905943e+002, 3.005062e+004
5.910764e+002, 3.004131e+004
5.915585e+002, 3.006080e+004
5.920406e+002, 3.006938e+004
5.925228e+002, 3.004939e+004
5.930049e+002, 3.001728e+004
5.934870e+002, 2.999154e+004
5.939691e+002, 2.997692e+004
5.944512e+002, 2.996842e+004
5.949333e+002, 2.996550e+004
5.954155e+002, 2.996537e+004
5.958976e+002, 2.995378e+004
5.963797e+002, 2.992706e+004
5.968618e+002, 2.990245e+004
5.973439e+002, 2.989411e+004
5.978260e+002, 2.989329e+004
5.983082e+002, 2.987776e+004
5.987903e+002, 2.983976e+004
5.992724e+002, 2.980708e+004
5.997545e+002, 2.979136e+004
6.002366e+002, 2.978378e+004
6.007188e+002, 2.977680e+004
6.012009e+002, 2.976894e+004
6.016830e+002, 2.975986e+004
6.021651e+002, 2.974931e+004
6.026472e+002, 2.973713e+004
6.031293e+002, 2.972236e+004
6.036115e+002, 2.970116e+004
6.040936e+002, 2.968435e+004
6.045757e+002, 2.967667e+004
6.050578e+002, 2.966945e+004
6.055399e+002, 2.965832e+004
6.060220e+002, 2.964296e+004
6.065042e+002, 2.962347e+004
6.069863e+002, 2.959761e+004
6.074684e+002, 2.957132e+004
6.079505e+002, 2.955599e+004
6.084326e+002, 2.955130e+004
6.089147e+002, 2.954335e+004
6.093969e+002, 2.952628e+004
6.098790e+002, 2.950936e+004
6.103611e+002, 2.950711e+004
6.108432e+002, 2.951766e+004
6.113253e+002, 2.951496e+004
6.118074e+002, 2.948268e+004
6.122896e+002, 2.945081e+004
6.127717e+002, 2.943766e+004
6.132538e+002, 2.943483e+004
6.137359e+002, 2.942726e+004
6.142180e+002, 2.941054e+004
6.147001e+002, 2.939091e+004
6.151823e+002, 2.937554e+004
6.156644e+002, 2.936457e+004
6.161465e+002, 2.935367e+004
6.166286e+002, 2.934401e+004
6.171107e+002, 2.933257e+004
6.175928e+002, 2.931796e+004
6.180750e+002, 2.930170e+004
6.185571e+002, 2.928458e+004
6.190392e+002, 2.926696e+004
6.195213e+002, 2.925123e+004
6.200034e+002, 2.924204e+004
6.204855e+002, 2.923550e+004
6.209677e+002, 2.922060e+004
6.214498e+002, 2.919667e+004
6.219319e+002, 2.917709e+004
6.224140e+002, 2.917019e+004
6.228961e+002, 2.917006e+004
6.233782e+002, 2.916341e+004
6.238604e+002, 2.914732e+004
6.243425e+002, 2.913520e+004
6.248246e+002, 2.913240e+004
6.253067e+002, 2.913068e+004
6.257888e+002, 2.912459e+004
6.262709e+002, 2.911484e+004
6.267531e+002, 2.910392e+004
6.272352e+002, 2.909303e+004
6.277173e+002, 2.908244e+004
6.281994e+002, 2.907277e+004
6.286815e+002, 2.906379e+004
6.291636e+002, 2.905662e+004
6.296458e+002, 2.905938e+004
6.301279e+002, 2.905272e+004
6.306100e+002, 2.901882e+004
6.310921e+002, 2.897188e+004
6.315742e+002, 2.893713e+004
6.320563e+002, 2.892185e+004
6.325385e+002, 2.891646e+004
6.330206e+002, 2.892028e+004
6.335027e+002, 2.892763e+004
6.339848e+002, 2.892830e+004
6.344669e+002, 2.892075e+004
6.349490e+002, 2.890390e+004
6.354312e+002, 2.887465e+004
6.359133e+002, 2.883705e+004
6.363954e+002, 2.880949e+004
6.368775e+002, 2.879608e+004
6.373596e+002, 2.878833e+004
6.378417e+002, 2.879618e+004
6.383239e+002, 2.880139e+004
6.388060e+002, 2.878632e+004
6.392881e+002, 2.875613e+004
6.397702e+002, 2.873104e+004
6.402523e+002, 2.872440e+004
6.407344e+002, 2.872606e+004
6.412166e+002, 2.871449e+004
6.416987e+002, 2.868867e+004
6.421808e+002, 2.867184e+004
6.426629e+002, 2.867499e+004
6.431450e+002, 2.867741e+004
6.436271e+002, 2.865416e+004
6.441093e+002, 2.861321e+004
6.445914e+002, 2.858451e+004
6.450735e+002, 2.858284e+004
6.455556e+002, 2.858215e+004
6.460377e+002, 2.856906e+004
6.465198e+002, 2.855017e+004
6.470020e+002, 2.853498e+004
6.474841e+002, 2.852527e+004
6.479662e+002, 2.851692e+004
6.484483e+002, 2.850629e+004
6.489304e+002, 2.849388e+004
6.494125e+002, 2.848343e+004
6.498947e+002, 2.848061e+004
6.503768e+002, 2.846891e+004
6.508589e+002, 2.843429e+004
6.513410e+002, 2.839916e+004
6.518231e+002, 2.838212e+004
6.523052e+002, 2.838051e+004
6.527874e+002, 2.837541e+004
6.532695e+002, 2.835573e+004
6.537516e+002, 2.832929e+004
6.542337e+002, 2.830268e+004
6.547158e+002, 2.827701e+004
6.551979e+002, 2.825813e+004
6.556801e+002, 2.824815e+004
6.561622e+002, 2.824295e+004
6.566443e+002, 2.823920e+004
6.571264e+002, 2.823730e+004
6.576085e+002, 2.822926e+004
6.580906e+002, 2.820997e+004
6.585728e+002, 2.819204e+004
6.590549e+002, 2.818186e+004
6.595370e+002, 2.817242e+004
6.600191e+002, 2.815631e+004
6.605012e+002, 2.813253e+004
6.609833e+002, 2.810454e+004
6.614655e+002, 2.807284e+004
6.619476e+002, 2.804036e+004
6.624297e+002, 2.801781e+004
6.629118e+002, 2.800625e+004
6.633939e+002, 2.799758e+004
6.638760e+002, 2.799275e+004
6.643582e+002, 2.798579e+004
6.648403e+002, 2.796433e+004
6.653224e+002, 2.793005e+004
6.658045e+002, 2.790977e+004
6.662866e+002, 2.791574e+004
6.667687e+002, 2.792830e+004
6.672509e+002, 2.794496e+004
6.677330e+002, 2.795814e+004
6.682151e+002, 2.795403e+004
6.686972e+002, 2.793008e+004
6.691793e+002, 2.789843e+004
6.696614e+002, 2.787015e+004
6.701436e+002, 2.784543e+004
6.706257e+002, 2.782677e+004
6.711078e+002, 2.781680e+004
6.715899e+002, 2.780724e+004
6.720720e+002, 2.779792e+004
6.725541e+002, 2.778638e+004
6.730363e+002, 2.776686e+004
6.735184e+002, 2.774072e+004
6.740005e+002, 2.772263e+004
6.744826e+002, 2.772562e+004
6.749647e+002, 2.773367e+004
6.754468e+002, 2.773155e+004
6.759290e+002, 2.772108e+004
6.764111e+002, 2.770787e+004
6.768932e+002, 2.769363e+004
6.773753e+002, 2.767847e+004
6.778574e+002, 2.766184e+004
6.783395e+002, 2.764347e+004
6.788217e+002, 2.763222e+004
6.793038e+002, 2.763989e+004
6.797859e+002, 2.763974e+004
6.802680e+002, 2.762379e+004
6.807501e+002, 2.760084e+004
6.812322e+002, 2.757691e+004
6.817144e+002, 2.755384e+004
6.821965e+002, 2.753314e+004
6.826786e+002, 2.751253e+004
6.831607e+002, 2.749751e+004
6.836428e+002, 2.750412e+004
6.841249e+002, 2.752879e+004
6.846071e+002, 2.753877e+004
6.850892e+002, 2.752148e+004
6.855713e+002, 2.749590e+004
6.860534e+002, 2.748315e+004
6.865355e+002, 2.748400e+004
6.870176e+002, 2.748335e+004
6.874998e+002, 2.748446e+004
6.879819e+002, 2.747981e+004
6.884640e+002, 2.746379e+004
6.889461e+002, 2.744334e+004
6.894282e+002, 2.742209e+004
6.899103e+002, 2.740276e+004
6.903925e+002, 2.739176e+004
6.908746e+002, 2.739616e+004
6.913567e+002, 2.741033e+004
6.918388e+002, 2.742245e+004
6.923209e+002, 2.743277e+004
6.928030e+002, 2.743764e+004
6.932852e+002, 2.743503e+004
6.937673e+002, 2.742906e+004
6.942494e+002, 2.742317e+004
6.947315e+002, 2.741752e+004
6.952136e+002, 2.741305e+004
6.956957e+002, 2.740773e+004
6.961779e+002, 2.740625e+004
6.966600e+002, 2.741837e+004
6.971421e+002, 2.743038e+004
6.976242e+002, 2.741966e+004
6.981063e+002, 2.738921e+004
6.985884e+002, 2.736946e+004
6.990706e+002, 2.738618e+004
6.995527e+002, 2.742548e+004
7.000348e+002, 2.744642e+004
7.005169e+002, 2.744531e+004
7.009990e+002, 2.744930e+004
7.014811e+002, 2.746596e+004
7.019633e+002, 2.748567e+004
7.024454e+002, 2.749895e+004
7.029275e+002, 2.750824e+004
7.034096e+002, 2.752239e+004
7.038917e+002, 2.754342e+004
7.043738e+002, 2.756812e+004
7.048560e+002, 2.759494e+004
7.053381e+002, 2.762493e+004
7.058202e+002, 2.766327e+004
7.063023e+002, 2.770757e+004
7.067844e+002, 2.774751e+004
7.072665e+002, 2.777666e+004
7.077487e+002, 2.779392e+004
7.082308e+002, 2.779266e+004
7.087129e+002, 2.776786e+004
7.091950e+002, 2.774939e+004
7.096771e+002, 2.775393e+004
7.101592e+002, 2.774772e+004
7.106414e+002, 2.770380e+004
7.111235e+002, 2.763521e+004
7.116056e+002, 2.756905e+004
7.120877e+002, 2.751190e+004
7.125698e+002, 2.745285e+004
7.130519e+002, 2.738355e+004
7.135341e+002, 2.731216e+004
7.140162e+002, 2.724668e+004
7.144983e+002, 2.718875e+004
7.149804e+002, 2.714086e+004
7.154625e+002, 2.710524e+004
7.159446e+002, 2.707262e+004
7.164268e+002, 2.701768e+004
7.169089e+002, 2.692855e+004
7.173910e+002, 2.687108e+004
7.178731e+002, 2.686740e+004
7.183552e+002, 2.686728e+004
7.188373e+002, 2.684730e+004
7.193195e+002, 2.681607e+004
7.198016e+002, 2.678571e+004
7.202837e+002, 2.675821e+004
7.207658e+002, 2.672897e+004
7.212479e+002, 2.668649e+004
7.217300e+002, 2.664769e+004
7.222122e+002, 2.663679e+004
7.226943e+002, 2.664700e+004
7.231764e+002, 2.665119e+004
7.236585e+002, 2.663749e+004
7.241406e+002, 2.661599e+004
7.246227e+002, 2.660257e+004
7.251049e+002, 2.659848e+004
7.255870e+002, 2.658921e+004
7.260691e+002, 2.657065e+004
7.265512e+002, 2.655357e+004
7.270333e+002, 2.654292e+004
7.275154e+002, 2.653464e+004
7.279976e+002, 2.652514e+004
7.284797e+002, 2.651406e+004
7.289618e+002, 2.650238e+004
7.294439e+002, 2.648615e+004
7.299260e+002, 2.647314e+004
7.304081e+002, 2.647569e+004
7.308903e+002, 2.648642e+004
7.313724e+002, 2.648836e+004
7.318545e+002, 2.647648e+004
7.323366e+002, 2.645470e+004
7.328187e+002, 2.642603e+004
7.333008e+002, 2.639114e+004
7.337830e+002, 2.635684e+004
7.342651e+002, 2.632141e+004
7.347472e+002, 2.629054e+004
7.352293e+002, 2.626609e+004
7.357114e+002, 2.624652e+004
7.361935e+002, 2.623488e+004
7.366757e+002, 2.622839e+004
7.371578e+002, 2.621466e+004
7.376399e+002, 2.618477e+004
7.381220e+002, 2.615339e+004
7.386041e+002, 2.612918e+004
7.390862e+002, 2.611038e+004
7.395684e+002, 2.609700e+004
7.400505e+002, 2.608742e+004
7.405326e+002, 2.607246e+004
7.410147e+002, 2.604392e+004
7.414968e+002, 2.600949e+004
7.419789e+002, 2.599596e+004
7.424611e+002, 2.601347e+004
7.429432e+002, 2.601318e+004
7.434253e+002, 2.597380e+004
7.439074e+002, 2.593700e+004
7.443895e+002, 2.593455e+004
7.448716e+002, 2.594871e+004
7.453538e+002, 2.594518e+004
7.458359e+002, 2.591320e+004
7.463180e+002, 2.588171e+004
7.468001e+002, 2.586114e+004
7.472822e+002, 2.584954e+004
7.477643e+002, 2.584904e+004
7.482465e+002, 2.585599e+004
7.487286e+002, 2.586112e+004
7.492107e+002, 2.586026e+004
7.496928e+002, 2.585397e+004
7.501749e+002, 2.584235e+004
7.506570e+002, 2.582516e+004
7.511392e+002, 2.580687e+004
7.516213e+002, 2.578641e+004
7.521034e+002, 2.576714e+004
7.525855e+002, 2.575206e+004
7.530676e+002, 2.573752e+004
7.535497e+002, 2.571763e+004
7.540319e+002, 2.569197e+004
7.545140e+002, 2.567139e+004
7.549961e+002, 2.566036e+004
7.554782e+002, 2.565289e+004
7.559603e+002, 2.564803e+004
7.564424e+002, 2.564319e+004
7.569246e+002, 2.563378e+004
7.574067e+002, 2.561939e+004
7.578888e+002, 2.560497e+004
7.583709e+002, 2.559542e+004
7.588530e+002, 2.558805e+004
7.593351e+002, 2.557199e+004
7.598173e+002, 2.554559e+004
7.602994e+002, 2.552536e+004
7.607815e+002, 2.551616e+004
7.612636e+002, 2.551216e+004
7.617457e+002, 2.551322e+004
7.622278e+002, 2.551620e+004
7.627100e+002, 2.550604e+004
7.631921e+002, 2.547251e+004
7.636742e+002, 2.544169e+004
7.641563e+002, 2.541953e+004
7.646384e+002, 2.540281e+004
7.651205e+002, 2.538905e+004
7.656027e+002, 2.537841e+004
7.660848e+002, 2.537295e+004
7.665669e+002, 2.537386e+004
7.670490e+002, 2.537644e+004
7.675311e+002, 2.537761e+004
7.680132e+002, 2.537574e+004
7.684954e+002, 2.535807e+004
7.689775e+002, 2.532134e+004
7.694596e+002, 2.528982e+004
7.699417e+002, 2.527598e+004
7.704238e+002, 2.527229e+004
7.709059e+002, 2.526602e+004
7.713881e+002, 2.525613e+004
7.718702e+002, 2.524736e+004
7.723523e+002, 2.524242e+004
7.728344e+002, 2.523510e+004
7.733165e+002, 2.521939e+004
7.737986e+002, 2.520238e+004
7.742808e+002, 2.519232e+004
7.747629e+002, 2.518996e+004
7.752450e+002, 2.518973e+004
7.757271e+002, 2.518948e+004
7.762092e+002, 2.518776e+004
7.766913e+002, 2.518233e+004
7.771735e+002, 2.517356e+004
7.776556e+002, 2.516210e+004
7.781377e+002, 2.514790e+004
7.786198e+002, 2.513466e+004
7.791019e+002, 2.512554e+004
7.795840e+002, 2.512002e+004
7.800662e+002, 2.511622e+004
7.805483e+002, 2.512080e+004
7.810304e+002, 2.511421e+004
7.815125e+002, 2.507979e+004
7.819946e+002, 2.504979e+004
7.824767e+002, 2.504594e+004
7.829589e+002, 2.505618e+004
7.834410e+002, 2.505629e+004
7.839231e+002, 2.503874e+004
7.844052e+002, 2.501926e+004
7.848873e+002, 2.500719e+004
7.853694e+002, 2.499849e+004
7.858516e+002, 2.498883e+004
7.863337e+002, 2.497817e+004
7.868158e+002, 2.496808e+004
7.872979e+002, 2.495918e+004
7.877800e+002, 2.494953e+004
7.882621e+002, 2.493591e+004
7.887443e+002, 2.491868e+004
7.892264e+002, 2.490359e+004
7.897085e+002, 2.488924e+004
7.901906e+002, 2.488150e+004
7.906727e+002, 2.488663e+004
7.911548e+002, 2.489460e+004
7.916370e+002, 2.489278e+004
7.921191e+002, 2.488331e+004
7.926012e+002, 2.488205e+004
7.930833e+002, 2.489836e+004
7.935654e+002, 2.491424e+004
7.940475e+002, 2.492929e+004
7.945297e+002, 2.493602e+004
7.950118e+002, 2.492306e+004
7.954939e+002, 2.489380e+004
7.959760e+002, 2.486198e+004
7.964581e+002, 2.483481e+004
7.969402e+002, 2.481059e+004
7.974224e+002, 2.478471e+004
7.979045e+002, 2.475859e+004
7.983866e+002, 2.474607e+004
7.988687e+002, 2.475012e+004
7.993508e+002, 2.475001e+004
7.998329e+002, 2.473390e+004
8.003151e+002, 2.470940e+004
8.007972e+002, 2.469103e+004
8.012793e+002, 2.468124e+004
8.017614e+002, 2.466772e+004
8.022435e+002, 2.464762e+004
8.027256e+002, 2.462780e+004
8.032078e+002, 2.460641e+004
8.036899e+002, 2.458902e+004
8.041720e+002, 2.458084e+004
8.046541e+002, 2.458252e+004
8.051362e+002, 2.459232e+004
8.056183e+002, 2.461742e+004
8.061005e+002, 2.464104e+004
8.065826e+002, 2.464581e+004
8.070647e+002, 2.463578e+004
8.075468e+002, 2.461499e+004
8.080289e+002, 2.458627e+004
8.085110e+002, 2.456552e+004
8.089932e+002, 2.456511e+004
8.094753e+002, 2.457666e+004
8.099574e+002, 2.457836e+004
8.104395e+002, 2.456907e+004
8.109216e+002, 2.455444e+004
8.114037e+002, 2.453234e+004
8.118859e+002, 2.450886e+004
8.123680e+002, 2.448653e+004
8.128501e+002, 2.446479e+004
8.133322e+002, 2.444047e+004
8.138143e+002, 2.441135e+004
8.142964e+002, 2.439537e+004
8.147786e+002, 2.440648e+004
8.152607e+002, 2.442121e+004
8.157428e+002, 2.442859e+004
8.162249e+002, 2.442971e+004
8.167070e+002, 2.442590e+004
8.171891e+002, 2.441818e+004
8.176713e+002, 2.440896e+004
8.181534e+002, 2.439973e+004
8.186355e+002, 2.439057e+004
8.191176e+002, 2.438116e+004
8.195997e+002, 2.437167e+004
8.200818e+002, 2.436557e+004
8.205640e+002, 2.436403e+004
8.210461e+002, 2.435942e+004
8.215282e+002, 2.434507e+004
8.220103e+002, 2.432503e+004
8.224924e+002, 2.431234e+004
8.229745e+002, 2.431344e+004
8.234567e+002, 2.430714e+004
8.239388e+002, 2.428804e+004
8.244209e+002, 2.426790e+004
8.249030e+002, 2.425153e+004
8.253851e+002, 2.423632e+004
8.258672e+002, 2.421573e+004
8.263494e+002, 2.418938e+004
8.268315e+002, 2.417419e+004
8.273136e+002, 2.419282e+004
8.277957e+002, 2.421221e+004
8.282778e+002, 2.419814e+004
8.287599e+002, 2.416696e+004
8.292421e+002, 2.415010e+004
8.297242e+002, 2.415247e+004
8.302063e+002, 2.415757e+004
8.306884e+002, 2.415274e+004
8.311705e+002, 2.414220e+004
8.316526e+002, 2.413929e+004
8.321348e+002, 2.414460e+004
8.326169e+002, 2.413207e+004
8.330990e+002, 2.409075e+004
8.335811e+002, 2.405664e+004
8.340632e+002, 2.405353e+004
8.345453e+002, 2.406912e+004
8.350275e+002, 2.407743e+004
8.355096e+002, 2.407688e+004
8.359917e+002, 2.407212e+004
8.364738e+002, 2.406000e+004
8.369559e+002, 2.404714e+004
8.374380e+002, 2.403516e+004
8.379202e+002, 2.402418e+004
8.384023e+002, 2.401543e+004
8.388844e+002, 2.400832e+004
8.393665e+002, 2.399856e+004
8.398486e+002, 2.398271e+004
8.403307e+002, 2.396496e+004
8.408129e+002, 2.395063e+004
8.412950e+002, 2.393752e+004
8.417771e+002, 2.392028e+004
8.422592e+002, 2.389889e+004
8.427413e+002, 2.387752e+004
8.432234e+002, 2.385881e+004
8.437056e+002, 2.384287e+004
8.441877e+002, 2.383061e+004
8.446698e+002, 2.382243e+004
8.451519e+002, 2.381249e+004
8.456340e+002, 2.379862e+004
8.461161e+002, 2.378880e+004
8.465983e+002, 2.378907e+004
8.470804e+002, 2.379222e+004
8.475625e+002, 2.378625e+004
8.480446e+002, 2.377001e+004
8.485267e+002, 2.376196e+004
8.490089e+002, 2.377443e+004
8.494910e+002, 2.378002e+004
8.499731e+002, 2.376686e+004
8.504552e+002, 2.374686e+004
8.509373e+002, 2.373001e+004
8.514194e+002, 2.371649e+004
8.519016e+002, 2.370174e+004
8.523837e+002, 2.368275e+004
8.528658e+002, 2.366580e+004
8.533479e+002, 2.365983e+004
8.538300e+002, 2.365823e+004
8.543121e+002, 2.364716e+004
8.547943e+002, 2.362828e+004
8.552764e+002, 2.361490e+004
8.557585e+002, 2.361285e+004
8.562406e+002, 2.361391e+004
8.567227e+002, 2.360703e+004
8.572048e+002, 2.359286e+004
8.576870e+002, 2.357999e+004
8.581691e+002, 2.356779e+004
8.586512e+002, 2.355988e+004
8.591333e+002, 2.356040e+004
8.596154e+002, 2.356010e+004
8.600975e+002, 2.355019e+004
8.605797e+002, 2.353213e+004
8.610618e+002, 2.351445e+004
8.615439e+002, 2.349152e+004
8.620260e+002, 2.347846e+004
8.625081e+002, 2.348789e+004
8.629902e+002, 2.349664e+004
8.634724e+002, 2.349223e+004
8.639545e+002, 2.347744e+004
8.644366e+002, 2.345519e+004
8.649187e+002, 2.342667e+004
8.654008e+002, 2.340418e+004
8.658829e+002, 2.340212e+004
8.663651e+002, 2.340528e+004
8.668472e+002, 2.339473e+004
8.673293e+002, 2.337545e+004
8.678114e+002, 2.336046e+004
8.682935e+002, 2.335208e+004
8.687756e+002, 2.334218e+004
8.692578e+002, 2.332373e+004
8.697399e+002, 2.330223e+004
8.702220e+002, 2.329313e+004
8.707041e+002, 2.329712e+004
8.711862e+002, 2.329622e+004
8.716683e+002, 2.328707e+004
8.721505e+002, 2.327975e+004
8.726326e+002, 2.328149e+004
8.731147e+002, 2.328554e+004
8.735968e+002, 2.327985e+004
8.740789e+002, 2.326203e+004
8.745610e+002, 2.324715e+004
8.750432e+002, 2.323998e+004
8.755253e+002, 2.322947e+004
8.760074e+002, 2.320695e+004
8.764895e+002, 2.318509e+004
8.769716e+002, 2.317971e+004
8.774537e+002, 2.318521e+004
8.779359e+002, 2.317736e+004
8.784180e+002, 2.314097e+004
8.789001e+002, 2.310755e+004
8.793822e+002, 2.309981e+004
8.798643e+002, 2.310285e+004
8.803464e+002, 2.310450e+004
8.808286e+002, 2.310139e+004
8.813107e+002, 2.308628e+004
8.817928e+002, 2.305772e+004
8.822749e+002, 2.303079e+004
8.827570e+002, 2.302443e+004
8.832391e+002, 2.303138e+004
8.837213e+002, 2.302681e+004
8.842034e+002, 2.301175e+004
8.846855e+002, 2.300432e+004
8.851676e+002, 2.300954e+004
8.856497e+002, 2.301780e+004
8.861318e+002, 2.302364e+004
8.866140e+002, 2.302434e+004
8.870961e+002, 2.300898e+004
8.875782e+002, 2.296651e+004
8.880603e+002, 2.293626e+004
8.885424e+002, 2.292465e+004
8.890245e+002, 2.291650e+004
8.895067e+002, 2.290698e+004
8.899888e+002, 2.289669e+004
8.904709e+002, 2.288434e+004
8.909530e+002, 2.286993e+004
8.914351e+002, 2.286311e+004
8.919172e+002, 2.287804e+004
8.923994e+002, 2.288552e+004
8.928815e+002, 2.286615e+004
8.933636e+002, 2.283950e+004
8.938457e+002, 2.282741e+004
8.943278e+002, 2.282581e+004
8.948099e+002, 2.281577e+004
8.952921e+002, 2.278853e+004
8.957742e+002, 2.275790e+004
8.962563e+002, 2.273619e+004
8.967384e+002, 2.272037e+004
8.972205e+002, 2.270467e+004
8.977026e+002, 2.269018e+004
8.981848e+002, 2.268404e+004
8.986669e+002, 2.268800e+004
8.991490e+002, 2.269196e+004
8.996311e+002, 2.268603e+004
9.001132e+002, 2.267226e+004
9.005953e+002, 2.265690e+004
9.010775e+002, 2.263930e+004
9.015596e+002, 2.262898e+004
9.020417e+002, 2.263005e+004
9.025238e+002, 2.262870e+004
9.030059e+002, 2.261496e+004
9.034880e+002, 2.259510e+004
9.039702e+002, 2.258173e+004
9.044523e+002, 2.257572e+004
9.049344e+002, 2.257224e+004
9.054165e+002, 2.257261e+004
9.058986e+002, 2.257347e+004
9.063807e+002, 2.257725e+004
9.068629e+002, 2.257857e+004
9.073450e+002, 2.257058e+004
9.078271e+002, 2.255559e+004
9.083092e+002, 2.254450e+004
9.087913e+002, 2.254484e+004
9.092734e+002, 2.253943e+004
9.097556e+002, 2.251254e+004
9.102377e+002, 2.248368e+004
9.107198e+002, 2.247129e+004
9.112019e+002, 2.247042e+004
9.116840e+002, 2.246887e+004
9.121661e+002, 2.246312e+004
9.126483e+002, 2.245822e+004
9.131304e+002, 2.246219e+004
9.136125e+002, 2.246628e+004
9.140946e+002, 2.245175e+004
9.145767e+002, 2.242531e+004
9.150588e+002, 2.241114e+004
9.155410e+002, 2.241191e+004
9.160231e+002, 2.240840e+004
9.165052e+002, 2.238742e+004
9.169873e+002, 2.236098e+004
9.174694e+002, 2.235608e+004
9.179515e+002, 2.237404e+004
9.184337e+002, 2.237257e+004
9.189158e+002, 2.234647e+004
9.193979e+002, 2.232389e+004
9.198800e+002, 2.231535e+004
9.203621e+002, 2.231213e+004
9.208442e+002, 2.230596e+004
9.213264e+002, 2.229690e+004
9.218085e+002, 2.228599e+004
9.222906e+002, 2.226853e+004
9.227727e+002, 2.225698e+004
9.232548e+002, 2.225808e+004
9.237369e+002, 2.225834e+004
9.242191e+002, 2.225313e+004
9.247012e+002, 2.224248e+004
9.251833e+002, 2.222436e+004
9.256654e+002, 2.219810e+004
9.261475e+002, 2.217794e+004
9.266296e+002, 2.216758e+004
9.271118e+002, 2.216513e+004
9.275939e+002, 2.217892e+004
9.280760e+002, 2.219355e+004
9.285581e+002, 2.218818e+004
9.290402e+002, 2.216750e+004
9.295223e+002, 2.215458e+004
9.300045e+002, 2.216104e+004
9.304866e+002, 2.216675e+004
9.309687e+002, 2.214445e+004
9.314508e+002, 2.211490e+004
9.319329e+002, 2.211754e+004
9.324150e+002, 2.214181e+004
9.328972e+002, 2.214952e+004
9.333793e+002, 2.213089e+004
9.338614e+002, 2.210410e+004
9.343435e+002, 2.208390e+004
9.348256e+002, 2.206903e+004
9.353077e+002, 2.205636e+004
9.357899e+002, 2.204604e+004
9.362720e+002, 2.204185e+004
9.367541e+002, 2.204523e+004
9.372362e+002, 2.204204e+004
9.377183e+002, 2.202352e+004
9.382004e+002, 2.200077e+004
9.386826e+002, 2.199147e+004
9.391647e+002, 2.199607e+004
9.396468e+002, 2.199224e+004
9.401289e+002, 2.197459e+004
9.406110e+002, 2.196229e+004
9.410931e+002, 2.196599e+004
9.415753e+002, 2.196674e+004
9.420574e+002, 2.194504e+004
9.425395e+002, 2.191152e+004
9.430216e+002, 2.189617e+004
9.435037e+002, 2.190770e+004
9.439858e+002, 2.191119e+004
9.444680e+002, 2.190262e+004
9.449501e+002, 2.188739e+004
9.454322e+002, 2.185654e+004
9.459143e+002, 2.182794e+004
9.463964e+002, 2.182389e+004
9.468785e+002, 2.184042e+004
9.473607e+002, 2.185168e+004
9.478428e+002, 2.184821e+004
9.483249e+002, 2.183998e+004
9.488070e+002, 2.182809e+004
9.492891e+002, 2.181734e+004
9.497712e+002, 2.181288e+004
9.502534e+002, 2.181277e+004
9.507355e+002, 2.181316e+004
9.512176e+002, 2.181279e+004
9.516997e+002, 2.181203e+004
9.521818e+002, 2.181035e+004
9.526639e+002, 2.180929e+004
9.531461e+002, 2.181506e+004
9.536282e+002, 2.182205e+004
9.541103e+002, 2.181252e+004
9.545924e+002, 2.178837e+004
9.550745e+002, 2.177359e+004
9.555566e+002, 2.178026e+004
9.560388e+002, 2.179160e+004
9.565209e+002, 2.178407e+004
9.570030e+002, 2.176147e+004
9.574851e+002, 2.174075e+004
9.579672e+002, 2.172191e+004
9.584493e+002, 2.171132e+004
9.589315e+002, 2.171097e+004
9.594136e+002, 2.171526e+004
9.598957e+002, 2.172166e+004
9.603778e+002, 2.172649e+004
9.608599e+002, 2.171848e+004
9.613420e+002, 2.169317e+004
9.618242e+002, 2.167900e+004
9.623063e+002, 2.168297e+004
9.627884e+002, 2.168042e+004
9.632705e+002, 2.165983e+004
9.637526e+002, 2.163407e+004
9.642347e+002, 2.161424e+004
9.647169e+002, 2.160032e+004
9.651990e+002, 2.159221e+004
9.656811e+002, 2.159487e+004
9.661632e+002, 2.159586e+004
9.666453e+002, 2.160165e+004
9.671274e+002, 2.159840e+004
9.676096e+002, 2.157070e+004
9.680917e+002, 2.153632e+004
9.685738e+002, 2.151870e+004
9.690559e+002, 2.151869e+004
9.695380e+002, 2.151815e+004
9.700201e+002, 2.151222e+004
9.705023e+002, 2.150566e+004
9.709844e+002, 2.150199e+004
9.714665e+002, 2.149666e+004
9.719486e+002, 2.148164e+004
9.724307e+002, 2.146336e+004
9.729128e+002, 2.145777e+004
9.733950e+002, 2.146858e+004
9.738771e+002, 2.147249e+004
9.743592e+002, 2.144536e+004
9.748413e+002, 2.141585e+004
9.753234e+002, 2.141362e+004
9.758055e+002, 2.142273e+004
9.762877e+002, 2.141896e+004
9.767698e+002, 2.140225e+004
9.772519e+002, 2.138606e+004
9.777340e+002, 2.137671e+004
9.782161e+002, 2.136829e+004
9.786982e+002, 2.135057e+004
9.791804e+002, 2.133139e+004
9.796625e+002, 2.132770e+004
9.801446e+002, 2.133597e+004
9.806267e+002, 2.134540e+004
9.811088e+002, 2.135275e+004
9.815909e+002, 2.135450e+004
9.820731e+002, 2.134774e+004
9.825552e+002, 2.133654e+004
9.830373e+002, 2.132725e+004
9.835194e+002, 2.131998e+004
9.840015e+002, 2.131652e+004
9.844836e+002, 2.131688e+004
9.849658e+002, 2.131519e+004
9.854479e+002, 2.130954e+004
9.859300e+002, 2.130219e+004
9.864121e+002, 2.129495e+004
9.868942e+002, 2.128809e+004
9.873763e+002, 2.128215e+004
9.878585e+002, 2.127654e+004
9.883406e+002, 2.127688e+004
9.888227e+002, 2.128611e+004
9.893048e+002, 2.129231e+004
9.897869e+002, 2.129127e+004
9.902690e+002, 2.128337e+004
9.907512e+002, 2.126700e+004
9.912333e+002, 2.124331e+004
9.917154e+002, 2.122770e+004
9.921975e+002, 2.122301e+004
9.926796e+002, 2.122038e+004
9.931617e+002, 2.122026e+004
9.936439e+002, 2.122067e+004
9.941260e+002, 2.122247e+004
9.946081e+002, 2.122329e+004
9.950902e+002, 2.121962e+004
9.955723e+002, 2.121147e+004
9.960544e+002, 2.120153e+004
9.965366e+002, 2.118545e+004
9.970187e+002, 2.117403e+004
9.975008e+002, 2.117143e+004
9.979829e+002, 2.117162e+004
9.984650e+002, 2.117460e+004
9.989471e+002, 2.117632e+004
9.994293e+002, 2.116846e+004
9.999114e+002, 2.114931e+004
1.000393e+003, 2.113444e+004
1.000876e+003, 2.113253e+004
1.001358e+003, 2.113005e+004
1.001840e+003, 2.111732e+004
1.002322e+003, 2.110509e+004
1.002804e+003, 2.110808e+004
1.003286e+003, 2.111835e+004
1.003768e+003, 2.111378e+004
1.004250e+003, 2.108729e+004
1.004733e+003, 2.106686e+004
1.005215e+003, 2.107906e+004
1.005697e+003, 2.109058e+004
1.006179e+003, 2.107005e+004
1.006661e+003, 2.103811e+004
1.007143e+003, 2.101952e+004
1.007625e+003, 2.101627e+004
1.008107e+003, 2.102206e+004
1.008589e+003, 2.103487e+004
1.009072e+003, 2.104831e+004
1.009554e+003, 2.106119e+004
1.010036e+003, 2.106812e+004
1.010518e+003, 2.105485e+004
1.011000e+003, 2.103327e+004
1.011482e+003, 2.103134e+004
1.011964e+003, 2.104824e+004
1.012446e+003, 2.105636e+004
1.012929e+003, 2.103993e+004
1.013411e+003, 2.101596e+004
1.013893e+003, 2.100402e+004
1.014375e+003, 2.099975e+004
1.014857e+003, 2.099535e+004
1.015339e+003, 2.099062e+004
1.015821e+003, 2.098537e+004
1.016303e+003, 2.097985e+004
1.016785e+003, 2.097579e+004
1.017268e+003, 2.097465e+004
1.017750e+003, 2.097430e+004
1.018232e+003, 2.097286e+004
1.018714e+003, 2.096915e+004
1.019196e+003, 2.095346e+004
1.019678e+003, 2.092820e+004
1.020160e+003, 2.091864e+004
1.020642e+003, 2.093155e+004
1.021125e+003, 2.094352e+004
1.021607e+003, 2.093530e+004
1.022089e+003, 2.091525e+004
1.022571e+003, 2.090204e+004
1.023053e+003, 2.089520e+004
1.023535e+003, 2.088681e+004
1.024017e+003, 2.087627e+004
1.024499e+003, 2.087388e+004
1.024981e+003, 2.088428e+004
1.025464e+003, 2.089280e+004
1.025946e+003, 2.088482e+004
1.026428e+003, 2.086723e+004
1.026910e+003, 2.086411e+004
1.027392e+003, 2.087835e+004
1.027874e+003, 2.087647e+004
1.028356e+003, 2.085220e+004
1.028838e+003, 2.083805e+004
1.029321e+003, 2.084812e+004
1.029803e+003, 2.086354e+004
1.030285e+003, 2.086569e+004
1.030767e+003, 2.085779e+004
1.031249e+003, 2.085481e+004
1.031731e+003, 2.085818e+004
1.032213e+003, 2.086079e+004
1.032695e+003, 2.086325e+004
1.033177e+003, 2.086229e+004
1.033660e+003, 2.085575e+004
1.034142e+003, 2.084644e+004
1.034624e+003, 2.083541e+004
1.035106e+003, 2.082417e+004
1.035588e+003, 2.082344e+004
1.036070e+003, 2.084121e+004
1.036552e+003, 2.085024e+004
1.037034e+003, 2.084702e+004
1.037516e+003, 2.084038e+004
1.037999e+003, 2.083347e+004
1.038481e+003, 2.082480e+004
1.038963e+003, 2.081092e+004
1.039445e+003, 2.079321e+004
1.039927e+003, 2.078239e+004
1.040409e+003, 2.078593e+004
1.040891e+003, 2.078331e+004
1.041373e+003, 2.077024e+004
1.041855e+003, 2.075652e+004
1.042338e+003, 2.074677e+004
1.042820e+003, 2.073761e+004
1.043302e+003, 2.072344e+004
1.043784e+003, 2.070580e+004
1.044266e+003, 2.069593e+004
1.044748e+003, 2.070385e+004
1.045230e+003, 2.070346e+004
1.045712e+003, 2.068619e+004
1.046195e+003, 2.066927e+004
1.046677e+003, 2.065862e+004
1.047159e+003, 2.065238e+004
1.047641e+003, 2.064891e+004
1.048123e+003, 2.064792e+004
1.048605e+003, 2.064850e+004
1.049087e+003, 2.065555e+004
1.049569e+003, 2.065485e+004
1.050052e+003, 2.063080e+004
1.050534e+003, 2.061437e+004
1.051016e+003, 2.063218e+004
1.051498e+003, 2.065606e+004
1.051980e+003, 2.064776e+004
1.052462e+003, 2.061296e+004
1.052944e+003, 2.059797e+004
1.053426e+003, 2.062184e+004
1.053908e+003, 2.064344e+004
1.054391e+003, 2.066115e+004
1.054873e+003, 2.066558e+004
1.055355e+003, 2.064113e+004
1.055837e+003, 2.060846e+004
1.056319e+003, 2.058937e+004
1.056801e+003, 2.058451e+004
1.057283e+003, 2.058532e+004
1.057765e+003, 2.059359e+004
1.058248e+003, 2.059866e+004
1.058730e+003, 2.059481e+004
1.059212e+003, 2.059010e+004
1.059694e+003, 2.058763e+004
1.060176e+003, 2.058784e+004
1.060658e+003, 2.059450e+004
1.061140e+003, 2.060449e+004
1.061622e+003, 2.060421e+004
1.062104e+003, 2.058512e+004
1.062587e+003, 2.056978e+004
1.063069e+003, 2.056446e+004
1.063551e+003, 2.056732e+004
1.064033e+003, 2.058763e+004
1.064515e+003, 2.060823e+004
1.064997e+003, 2.060513e+004
1.065479e+003, 2.058366e+004
1.065961e+003, 2.057162e+004
1.066443e+003, 2.057995e+004
1.066926e+003, 2.058709e+004
1.067408e+003, 2.058121e+004
1.067890e+003, 2.057494e+004
1.068372e+003, 2.057710e+004
1.068854e+003, 2.058196e+004
1.069336e+003, 2.058293e+004
1.069818e+003, 2.058022e+004
1.070300e+003, 2.057727e+004
1.070782e+003, 2.057491e+004
1.071265e+003, 2.057288e+004
1.071747e+003, 2.056902e+004
1.072229e+003, 2.056781e+004
1.072711e+003, 2.057640e+004
1.073193e+003, 2.058578e+004
1.073675e+003, 2.058185e+004
1.074157e+003, 2.057039e+004
1.074639e+003, 2.057163e+004
1.075122e+003, 2.059336e+004
1.075604e+003, 2.061129e+004
1.076086e+003, 2.061221e+004
1.076568e+003, 2.060880e+004
1.077050e+003, 2.060532e+004
1.077532e+003, 2.060385e+004
1.078014e+003, 2.060802e+004
1.078496e+003, 2.061552e+004
1.078979e+003, 2.061961e+004
1.079461e+003, 2.061823e+004
1.079943e+003, 2.062016e+004
1.080425e+003, 2.063059e+004
1.080907e+003, 2.064389e+004
1.081389e+003, 2.066089e+004
1.081871e+003, 2.067589e+004
1.082353e+003, 2.067840e+004
1.082835e+003, 2.067622e+004
1.083318e+003, 2.068668e+004
1.083800e+003, 2.071359e+004
1.084282e+003, 2.074383e+004
1.084764e+003, 2.077068e+004
1.085246e+003, 2.080100e+004
1.085728e+003, 2.083886e+004
1.086210e+003, 2.088114e+004
1.086692e+003, 2.092204e+004
1.087175e+003, 2.096670e+004
1.087657e+003, 2.102586e+004
1.088139e+003, 2.110054e+004
1.088621e+003, 2.117677e+004
1.089103e+003, 2.123936e+004
1.089585e+003, 2.131573e+004
1.090067e+003, 2.141733e+004
1.090549e+003, 2.153761e+004
1.091031e+003, 2.166352e+004
1.091514e+003, 2.180819e+004
1.091996e+003, 2.199498e+004
1.092478e+003, 2.222399e+004
1.092960e+003, 2.246854e+004
1.093442e+003, 2.273019e+004
1.093924e+003, 2.298581e+004
1.094406e+003, 2.323190e+004
1.094888e+003, 2.346680e+004
1.095370e+003, 2.367836e+004
1.095853e+003, 2.388616e+004
1.096335e+003, 2.410528e+004
1.096817e+003, 2.434344e+004
1.097299e+003, 2.461723e+004
1.097781e+003, 2.493105e+004
1.098263e+003, 2.528166e+004
1.098745e+003, 2.564716e+004
1.099227e+003, 2.607443e+004
1.099709e+003, 2.658847e+004
1.100192e+003, 2.717791e+004
1.100674e+003, 2.781348e+004
1.101156e+003, 2.851094e+004
1.101638e+003, 2.932042e+004
1.102120e+003, 3.025450e+004
1.102602e+003, 3.129348e+004
1.103084e+003, 3.261306e+004
1.103566e+003, 3.380980e+004
1.104049e+003, 3.497878e+004
1.104531e+003, 3.573684e+004
1.105013e+003, 3.578086e+004
1.105495e+003, 3.516181e+004
1.105977e+003, 3.396847e+004
1.106459e+003, 3.212552e+004
1.106941e+003, 3.028019e+004
1.107423e+003, 2.838117e+004
1.107906e+003, 2.670956e+004
1.108388e+003, 2.535792e+004
1.108870e+003, 2.424772e+004
1.109352e+003, 2.337347e+004
1.109834e+003, 2.269370e+004
1.110316e+003, 2.216683e+004
1.110798e+003, 2.178971e+004
1.111280e+003, 2.147637e+004
1.111762e+003, 2.123710e+004
1.112245e+003, 2.103356e+004
1.112727e+003, 2.086731e+004
1.113209e+003, 2.072748e+004
1.113691e+003, 2.061418e+004
1.114173e+003, 2.052190e+004
1.114655e+003, 2.044585e+004
1.115137e+003, 2.038551e+004
1.115619e+003, 2.033214e+004
1.116102e+003, 2.028580e+004
1.116584e+003, 2.024628e+004
1.117066e+003, 2.021583e+004
1.117548e+003, 2.018861e+004
1.118030e+003, 2.016512e+004
1.118512e+003, 2.014070e+004
1.118994e+003, 2.010731e+004
1.119476e+003, 2.006961e+004
1.119958e+003, 2.004782e+004
1.120441e+003, 2.004999e+004
1.120923e+003, 2.004154e+004
1.121405e+003, 2.001470e+004
1.121887e+003, 1.999517e+004
1.122369e+003, 1.999361e+004
1.122851e+003, 1.999389e+004
1.123333e+003, 1.998481e+004
1.123815e+003, 1.996861e+004
1.124297e+003, 1.994837e+004
1.124780e+003, 1.992287e+004
1.125262e+003, 1.991292e+004
1.125744e+003, 1.992595e+004
1.126226e+003, 1.992460e+004
1.126708e+003, 1.989573e+004
1.127190e+003, 1.987557e+004
1.127672e+003, 1.988696e+004
1.128154e+003, 1.991050e+004
1.128636e+003, 1.991838e+004
1.129119e+003, 1.991202e+004
1.129601e+003, 1.990294e+004
1.130083e+003, 1.989051e+004
1.130565e+003, 1.988094e+004
1.131047e+003, 1.987510e+004
1.131529e+003, 1.986856e+004
1.132011e+003, 1.985900e+004
1.132493e+003, 1.985213e+004
1.132976e+003, 1.985424e+004
1.133458e+003, 1.986245e+004
1.133940e+003, 1.987064e+004
1.134422e+003, 1.987820e+004
1.134904e+003, 1.987603e+004
1.135386e+003, 1.986402e+004
1.135868e+003, 1.984518e+004
1.136350e+003, 1.982065e+004
1.136833e+003, 1.980030e+004
1.137315e+003, 1.979107e+004
1.137797e+003, 1.979036e+004
1.138279e+003, 1.979819e+004
1.138761e+003, 1.981010e+004
1.139243e+003, 1.980745e+004
1.139725e+003, 1.979426e+004
1.140207e+003, 1.978950e+004
1.140689e+003, 1.979453e+004
1.141172e+003, 1.979492e+004
1.141654e+003, 1.978389e+004
1.142136e+003, 1.976954e+004
1.142618e+003, 1.975798e+004
1.143100e+003, 1.975145e+004
1.143582e+003, 1.975772e+004
1.144064e+003, 1.977023e+004
1.144546e+003, 1.977618e+004
1.145029e+003, 1.977519e+004
1.145511e+003, 1.976788e+004
1.145993e+003, 1.975634e+004
1.146475e+003, 1.975473e+004
1.146957e+003, 1.977877e+004
1.147439e+003, 1.980055e+004
1.147921e+003, 1.978683e+004
1.148403e+003, 1.976002e+004
1.148885e+003, 1.974447e+004
1.149368e+003, 1.973759e+004
1.149850e+003, 1.973350e+004
1.150332e+003, 1.973012e+004
1.150814e+003, 1.972498e+004
1.151296e+003, 1.971682e+004
1.151778e+003, 1.970916e+004
1.152260e+003, 1.970382e+004
1.152742e+003, 1.970026e+004
1.153224e+003, 1.969703e+004
1.153707e+003, 1.969634e+004
1.154189e+003, 1.970406e+004
1.154671e+003, 1.971529e+004
1.155153e+003, 1.971796e+004
1.155635e+003, 1.970957e+004
1.156117e+003, 1.970292e+004
1.156599e+003, 1.970648e+004
1.157081e+003, 1.970608e+004
1.157563e+003, 1.969188e+004
1.158046e+003, 1.967836e+004
1.158528e+003, 1.967799e+004
1.159010e+003, 1.968148e+004
1.159492e+003, 1.967477e+004
1.159974e+003, 1.965878e+004
1.160456e+003, 1.964747e+004
1.160938e+003, 1.964086e+004
1.161420e+003, 1.964094e+004
1.161903e+003, 1.965245e+004
1.162385e+003, 1.966393e+004
1.162867e+003, 1.967475e+004
1.163349e+003, 1.968141e+004
1.163831e+003, 1.968076e+004
1.164313e+003, 1.967402e+004
1.164795e+003, 1.966314e+004
1.165277e+003, 1.964673e+004
1.165760e+003, 1.963772e+004
1.166242e+003, 1.963828e+004
1.166724e+003, 1.963996e+004
1.167206e+003, 1.964271e+004
1.167688e+003, 1.964207e+004
1.168170e+003, 1.963390e+004
1.168652e+003, 1.962736e+004
1.169134e+003, 1.963647e+004
1.169616e+003, 1.965539e+004
1.170099e+003, 1.965297e+004
1.170581e+003, 1.962883e+004
1.171063e+003, 1.961686e+004
1.171545e+003, 1.961915e+004
1.172027e+003, 1.962457e+004
1.172509e+003, 1.962973e+004
1.172991e+003, 1.963471e+004
1.173473e+003, 1.964002e+004
1.173956e+003, 1.964231e+004
1.174438e+003, 1.963321e+004
1.174920e+003, 1.961703e+004
1.175402e+003, 1.960967e+004
1.175884e+003, 1.960785e+004
1.176366e+003, 1.959598e+004
1.176848e+003, 1.957535e+004
1.177330e+003, 1.956675e+004
1.177813e+003, 1.957852e+004
1.178295e+003, 1.959137e+004
1.178777e+003, 1.958489e+004
1.179259e+003, 1.957561e+004
1.179741e+003, 1.959015e+004
1.180223e+003, 1.961073e+004
1.180705e+003, 1.961063e+004
1.181187e+003, 1.959584e+004
1.181669e+003, 1.958247e+004
1.182151e+003, 1.957334e+004
1.182634e+003, 1.956139e+004
1.183116e+003, 1.954139e+004
1.183598e+003, 1.952594e+004
1.184080e+003, 1.952448e+004
1.184562e+003, 1.952759e+004
1.185044e+003, 1.953215e+004
1.185526e+003, 1.953524e+004
1.186008e+003, 1.953387e+004
1.186490e+003, 1.952880e+004
1.186973e+003, 1.952032e+004
1.187455e+003, 1.950777e+004
1.187937e+003, 1.950490e+004
1.188419e+003, 1.952608e+004
1.188901e+003, 1.953971e+004
1.189383e+003, 1.953307e+004
1.189865e+003, 1.952531e+004
1.190347e+003, 1.952900e+004
1.190830e+003, 1.953406e+004
1.191312e+003, 1.952887e+004
1.191794e+003, 1.951546e+004
1.192276e+003, 1.950300e+004
1.192758e+003, 1.948782e+004
1.193240e+003, 1.948811e+004
1.193722e+003, 1.951278e+004
1.194204e+003, 1.952519e+004
1.194687e+003, 1.951361e+004
1.195169e+003, 1.949911e+004
1.195651e+003, 1.949471e+004
1.196133e+003, 1.949631e+004
1.196615e+003, 1.949945e+004
1.197097e+003, 1.950189e+004
1.197579e+003, 1.948425e+004
1.198061e+003, 1.944842e+004
1.198543e+003, 1.943717e+004
1.199026e+003, 1.945226e+004
1.199508e+003, 1.945442e+004
1.199990e+003, 1.943132e+004
1.200472e+003, 1.941315e+004
1.200954e+003, 1.942557e+004
1.201436e+003, 1.944786e+004
1.201918e+003, 1.944992e+004
1.202400e+003, 1.943857e+004
1.202883e+003, 1.942334e+004
1.203365e+003, 1.940759e+004
1.203847e+003, 1.939732e+004
1.204329e+003, 1.939315e+004
1.204811e+003, 1.939518e+004
1.205293e+003, 1.940304e+004
1.205775e+003, 1.940753e+004
1.206257e+003, 1.940257e+004
1.206740e+003, 1.939183e+004
1.207222e+003, 1.937212e+004
1.207704e+003, 1.935360e+004
1.208186e+003, 1.934194e+004
1.208668e+003, 1.933992e+004
1.209150e+003, 1.935983e+004
1.209632e+003, 1.939376e+004
1.210114e+003, 1.940070e+004
1.210596e+003, 1.935777e+004
1.211078e+003, 1.933380e+004
1.211561e+003, 1.936403e+004
1.212043e+003, 1.938475e+004
1.212525e+003, 1.936842e+004
1.213007e+003, 1.934521e+004
1.213489e+003, 1.933178e+004
1.213971e+003, 1.932533e+004
1.214453e+003, 1.932227e+004
1.214935e+003, 1.932238e+004
1.215417e+003, 1.932476e+004
1.215900e+003, 1.933036e+004
1.216382e+003, 1.933442e+004
1.216864e+003, 1.933711e+004
1.217346e+003, 1.933641e+004
1.217828e+003, 1.933210e+004
1.218310e+003, 1.932097e+004
1.218792e+003, 1.929892e+004
1.219274e+003, 1.927505e+004
1.219757e+003, 1.926749e+004
1.220239e+003, 1.927260e+004
1.220721e+003, 1.927353e+004
1.221203e+003, 1.927042e+004
1.221685e+003, 1.926008e+004
1.222167e+003, 1.924499e+004
1.222649e+003, 1.924202e+004
1.223131e+003, 1.925540e+004
1.223614e+003, 1.926283e+004
1.224096e+003, 1.924391e+004
1.224578e+003, 1.922259e+004
1.225060e+003, 1.922766e+004
1.225542e+003, 1.924282e+004
1.226024e+003, 1.925293e+004
1.226506e+003, 1.925680e+004
1.226988e+003, 1.924920e+004
1.227470e+003, 1.923593e+004
1.227953e+003, 1.923356e+004
1.228435e+003, 1.924686e+004
1.228917e+003, 1.926297e+004
1.229399e+003, 1.928702e+004
1.229881e+003, 1.929837e+004
1.230363e+003, 1.927661e+004
1.230845e+003, 1.925576e+004
1.231327e+003, 1.925892e+004
1.231810e+003, 1.927136e+004
1.232292e+003, 1.927425e+004
1.232774e+003, 1.927068e+004
1.233256e+003, 1.927500e+004
1.233738e+003, 1.929142e+004
1.234220e+003, 1.929652e+004
1.234702e+003, 1.928593e+004
1.235184e+003, 1.927916e+004
1.235667e+003, 1.928211e+004
1.236149e+003, 1.927922e+004
1.236631e+003, 1.926119e+004
1.237113e+003, 1.924002e+004
1.237595e+003, 1.923000e+004
1.238077e+003, 1.922810e+004
1.238559e+003, 1.922714e+004
1.239041e+003, 1.922584e+004
1.239523e+003, 1.921392e+004
1.240005e+003, 1.919448e+004
1.240488e+003, 1.918433e+004
1.240970e+003, 1.918633e+004
1.241452e+003, 1.919458e+004
1.241934e+003, 1.920629e+004
1.242416e+003, 1.921645e+004
1.242898e+003, 1.922070e+004
1.243380e+003, 1.922088e+004
1.243862e+003, 1.921544e+004
1.244344e+003, 1.920982e+004
1.244827e+003, 1.920828e+004
1.245309e+003, 1.921202e+004
1.245791e+003, 1.922622e+004
1.246273e+003, 1.924757e+004
1.246755e+003, 1.925971e+004
1.247237e+003, 1.925813e+004
1.247719e+003, 1.924830e+004
1.248201e+003, 1.922189e+004
1.248684e+003, 1.920085e+004
1.249166e+003, 1.919369e+004
1.249648e+003, 1.919161e+004
1.250130e+003, 1.919133e+004
1.250612e+003, 1.919184e+004
1.251094e+003, 1.919162e+004
1.251576e+003, 1.919106e+004
1.252058e+003, 1.919360e+004
1.252541e+003, 1.920144e+004
1.253023e+003, 1.919383e+004
1.253505e+003, 1.916808e+004
1.253987e+003, 1.915307e+004
1.254469e+003, 1.915556e+004
1.254951e+003, 1.916480e+004
1.255433e+003, 1.917486e+004
1.255915e+003, 1.918439e+004
1.256397e+003, 1.919319e+004
1.256880e+003, 1.919838e+004
1.257362e+003, 1.919025e+004
1.257844e+003, 1.917659e+004
1.258326e+003, 1.917228e+004
1.258808e+003, 1.917618e+004
1.259290e+003, 1.918425e+004
1.259772e+003, 1.919432e+004
1.260254e+003, 1.920267e+004
1.260737e+003, 1.920765e+004
1.261219e+003, 1.921209e+004
1.261701e+003, 1.922216e+004
1.262183e+003, 1.922589e+004
1.262665e+003, 1.921022e+004
1.263147e+003, 1.919385e+004
1.263629e+003, 1.918839e+004
1.264111e+003, 1.919187e+004
1.264594e+003, 1.920689e+004
1.265076e+003, 1.922859e+004
1.265558e+003, 1.922928e+004
1.266040e+003, 1.919871e+004
1.266522e+003, 1.918486e+004
1.267004e+003, 1.919276e+004
1.267486e+003, 1.919980e+004
1.267968e+003, 1.920221e+004
1.268450e+003, 1.919978e+004
1.268932e+003, 1.919138e+004
1.269415e+003, 1.918558e+004
1.269897e+003, 1.919343e+004
1.270379e+003, 1.920753e+004
1.270861e+003, 1.920906e+004
1.271343e+003, 1.920244e+004
1.271825e+003, 1.919804e+004
1.272307e+003, 1.919807e+004
1.272789e+003, 1.921362e+004
1.273271e+003, 1.923905e+004
1.273754e+003, 1.924356e+004
1.274236e+003, 1.921638e+004
1.274718e+003, 1.919346e+004
1.275200e+003, 1.920404e+004
1.275682e+003, 1.921775e+004
1.276164e+003, 1.920899e+004
1.276646e+003, 1.920525e+004
1.277128e+003, 1.923909e+004
1.277611e+003, 1.927913e+004
1.278093e+003, 1.928699e+004
1.278575e+003, 1.926956e+004
1.279057e+003, 1.925446e+004
1.279539e+003, 1.924352e+004
1.280021e+003, 1.923656e+004
1.280503e+003, 1.922720e+004
1.280985e+003, 1.923063e+004
1.281468e+003, 1.925830e+004
1.281950e+003, 1.928427e+004
1.282432e+003, 1.929879e+004
1.282914e+003, 1.930580e+004
1.283396e+003, 1.930798e+004
1.283878e+003, 1.930954e+004
1.284360e+003, 1.931752e+004
1.284842e+003, 1.932222e+004
1.285324e+003, 1.929971e+004
##END=



