##NAMES=Enstatite
##RRUFFID=R120174
##IDEAL CHEMISTRY=MgSiO_3_
##LOCALITY=Nuestra Se√±ora del Carmen Mines, La Celia, Jumilla, Murcia, Spain
##OWNER=RRUFF
##SOURCE=Bob Jenkins
##DESCRIPTION=Transparent, pale greenish-brown bladed crystals associated with R120173 pseudobrookite
##STATUS=The identification of this mineral has been confirmed by single-crystal X-ray diffraction.
##URL=rruff.info/R120174
8.936163e+001, 0.000000e+000
8.984375e+001, 1.030200e+002
9.032587e+001, 1.034688e+002
9.080798e+001, 1.035910e+002
9.129010e+001, 1.033713e+002
9.177222e+001, 1.028387e+002
9.225433e+001, 1.018949e+002
9.273645e+001, 1.005711e+002
9.321857e+001, 9.923874e+001
9.370068e+001, 9.843542e+001
9.418280e+001, 9.793592e+001
9.466492e+001, 9.698820e+001
9.514703e+001, 9.499308e+001
9.562915e+001, 9.244646e+001
9.611127e+001, 9.076333e+001
9.659338e+001, 9.004729e+001
9.707550e+001, 8.973522e+001
9.755762e+001, 8.925760e+001
9.803973e+001, 8.861163e+001
9.852185e+001, 8.776454e+001
9.900397e+001, 8.648220e+001
9.948608e+001, 8.473811e+001
9.996820e+001, 8.373817e+001
1.004503e+002, 8.374583e+001
1.009324e+002, 8.418610e+001
1.014146e+002, 8.376930e+001
1.018967e+002, 8.220625e+001
1.023788e+002, 8.060158e+001
1.028609e+002, 7.953873e+001
1.033430e+002, 7.918600e+001
1.038251e+002, 7.888459e+001
1.043073e+002, 7.867886e+001
1.047894e+002, 7.850594e+001
1.052715e+002, 7.800524e+001
1.057536e+002, 7.692377e+001
1.062357e+002, 7.578838e+001
1.067178e+002, 7.496530e+001
1.072000e+002, 7.474380e+001
1.076821e+002, 7.442410e+001
1.081642e+002, 7.387685e+001
1.086463e+002, 7.307908e+001
1.091284e+002, 7.237460e+001
1.096105e+002, 7.194588e+001
1.100927e+002, 7.152978e+001
1.105748e+002, 7.088670e+001
1.110569e+002, 6.968954e+001
1.115390e+002, 6.856926e+001
1.120211e+002, 6.771505e+001
1.125032e+002, 6.722991e+001
1.129854e+002, 6.665378e+001
1.134675e+002, 6.581888e+001
1.139496e+002, 6.487940e+001
1.144317e+002, 6.404649e+001
1.149138e+002, 6.346275e+001
1.153959e+002, 6.293476e+001
1.158781e+002, 6.237403e+001
1.163602e+002, 6.173037e+001
1.168423e+002, 6.111475e+001
1.173244e+002, 6.053662e+001
1.178065e+002, 6.000769e+001
1.182886e+002, 5.955778e+001
1.187708e+002, 5.928777e+001
1.192529e+002, 5.905632e+001
1.197350e+002, 5.875990e+001
1.202171e+002, 5.838292e+001
1.206992e+002, 5.791892e+001
1.211813e+002, 5.737280e+001
1.216635e+002, 5.674129e+001
1.221456e+002, 5.601570e+001
1.226277e+002, 5.505701e+001
1.231098e+002, 5.403142e+001
1.235919e+002, 5.316077e+001
1.240740e+002, 5.264622e+001
1.245562e+002, 5.224488e+001
1.250383e+002, 5.161721e+001
1.255204e+002, 5.076237e+001
1.260025e+002, 5.007544e+001
1.264846e+002, 5.010862e+001
1.269667e+002, 5.060268e+001
1.274489e+002, 5.090966e+001
1.279310e+002, 5.062590e+001
1.284131e+002, 4.998595e+001
1.288952e+002, 4.942853e+001
1.293773e+002, 4.896650e+001
1.298594e+002, 4.857338e+001
1.303416e+002, 4.820997e+001
1.308237e+002, 4.788132e+001
1.313058e+002, 4.759995e+001
1.317879e+002, 4.740504e+001
1.322700e+002, 4.727477e+001
1.327521e+002, 4.712444e+001
1.332343e+002, 4.697555e+001
1.337164e+002, 4.675225e+001
1.341985e+002, 4.623381e+001
1.346806e+002, 4.539606e+001
1.351627e+002, 4.457983e+001
1.356448e+002, 4.401745e+001
1.361270e+002, 4.370844e+001
1.366091e+002, 4.347211e+001
1.370912e+002, 4.331074e+001
1.375733e+002, 4.319733e+001
1.380554e+002, 4.306812e+001
1.385375e+002, 4.296580e+001
1.390197e+002, 4.271962e+001
1.395018e+002, 4.210849e+001
1.399839e+002, 4.101270e+001
1.404660e+002, 4.010320e+001
1.409481e+002, 3.951191e+001
1.414302e+002, 3.922353e+001
1.419124e+002, 3.900098e+001
1.423945e+002, 3.885920e+001
1.428766e+002, 3.876306e+001
1.433587e+002, 3.869164e+001
1.438408e+002, 3.868747e+001
1.443229e+002, 3.862321e+001
1.448051e+002, 3.847997e+001
1.452872e+002, 3.825713e+001
1.457693e+002, 3.792812e+001
1.462514e+002, 3.739434e+001
1.467335e+002, 3.681206e+001
1.472156e+002, 3.638157e+001
1.476978e+002, 3.627674e+001
1.481799e+002, 3.611465e+001
1.486620e+002, 3.577901e+001
1.491441e+002, 3.518737e+001
1.496262e+002, 3.464897e+001
1.501083e+002, 3.406004e+001
1.505905e+002, 3.354718e+001
1.510726e+002, 3.333657e+001
1.515547e+002, 3.397254e+001
1.520368e+002, 3.444305e+001
1.525189e+002, 3.441600e+001
1.530010e+002, 3.354470e+001
1.534832e+002, 3.276426e+001
1.539653e+002, 3.207545e+001
1.544474e+002, 3.151364e+001
1.549295e+002, 3.116374e+001
1.554116e+002, 3.116018e+001
1.558937e+002, 3.128048e+001
1.563759e+002, 3.143471e+001
1.568580e+002, 3.170710e+001
1.573401e+002, 3.188209e+001
1.578222e+002, 3.188150e+001
1.583043e+002, 3.174040e+001
1.587864e+002, 3.158811e+001
1.592686e+002, 3.151586e+001
1.597507e+002, 3.141062e+001
1.602328e+002, 3.119949e+001
1.607149e+002, 3.077262e+001
1.611970e+002, 3.033088e+001
1.616791e+002, 2.987659e+001
1.621613e+002, 2.943571e+001
1.626434e+002, 2.913754e+001
1.631255e+002, 2.925975e+001
1.636076e+002, 2.945672e+001
1.640897e+002, 2.942056e+001
1.645718e+002, 2.874633e+001
1.650540e+002, 2.806862e+001
1.655361e+002, 2.772491e+001
1.660182e+002, 2.770684e+001
1.665003e+002, 2.775584e+001
1.669824e+002, 2.781474e+001
1.674645e+002, 2.783835e+001
1.679467e+002, 2.777099e+001
1.684288e+002, 2.748423e+001
1.689109e+002, 2.717241e+001
1.693930e+002, 2.698000e+001
1.698751e+002, 2.691478e+001
1.703572e+002, 2.688272e+001
1.708394e+002, 2.678462e+001
1.713215e+002, 2.667777e+001
1.718036e+002, 2.665955e+001
1.722857e+002, 2.700274e+001
1.727678e+002, 2.733563e+001
1.732499e+002, 2.721304e+001
1.737321e+002, 2.655408e+001
1.742142e+002, 2.583156e+001
1.746963e+002, 2.539249e+001
1.751784e+002, 2.518357e+001
1.756605e+002, 2.507830e+001
1.761426e+002, 2.498290e+001
1.766248e+002, 2.496384e+001
1.771069e+002, 2.517421e+001
1.775890e+002, 2.568252e+001
1.780711e+002, 2.618799e+001
1.785532e+002, 2.626522e+001
1.790353e+002, 2.603292e+001
1.795175e+002, 2.591330e+001
1.799996e+002, 2.631784e+001
1.804817e+002, 2.697289e+001
1.809638e+002, 2.730101e+001
1.814459e+002, 2.714923e+001
1.819280e+002, 2.689177e+001
1.824102e+002, 2.705247e+001
1.828923e+002, 2.757879e+001
1.833744e+002, 2.815785e+001
1.838565e+002, 2.863612e+001
1.843386e+002, 2.901619e+001
1.848207e+002, 2.927606e+001
1.853029e+002, 2.939081e+001
1.857850e+002, 2.943087e+001
1.862671e+002, 2.948672e+001
1.867492e+002, 2.956017e+001
1.872313e+002, 2.968801e+001
1.877134e+002, 2.992849e+001
1.881956e+002, 3.025817e+001
1.886777e+002, 3.056288e+001
1.891598e+002, 3.084548e+001
1.896419e+002, 3.107337e+001
1.901240e+002, 3.114546e+001
1.906061e+002, 3.105574e+001
1.910883e+002, 3.095319e+001
1.915704e+002, 3.093628e+001
1.920525e+002, 3.100245e+001
1.925346e+002, 3.113575e+001
1.930167e+002, 3.135477e+001
1.934988e+002, 3.160082e+001
1.939810e+002, 3.163973e+001
1.944631e+002, 3.142890e+001
1.949452e+002, 3.125608e+001
1.954273e+002, 3.126659e+001
1.959094e+002, 3.145378e+001
1.963915e+002, 3.155680e+001
1.968737e+002, 3.148819e+001
1.973558e+002, 3.131701e+001
1.978379e+002, 3.131314e+001
1.983200e+002, 3.150830e+001
1.988021e+002, 3.172220e+001
1.992842e+002, 3.175341e+001
1.997664e+002, 3.158826e+001
2.002485e+002, 3.154235e+001
2.007306e+002, 3.171885e+001
2.012127e+002, 3.206703e+001
2.016948e+002, 3.230201e+001
2.021769e+002, 3.240629e+001
2.026591e+002, 3.246218e+001
2.031412e+002, 3.253547e+001
2.036233e+002, 3.262449e+001
2.041054e+002, 3.274949e+001
2.045875e+002, 3.294823e+001
2.050696e+002, 3.320039e+001
2.055518e+002, 3.328683e+001
2.060339e+002, 3.315409e+001
2.065160e+002, 3.297885e+001
2.069981e+002, 3.296349e+001
2.074802e+002, 3.314971e+001
2.079623e+002, 3.328833e+001
2.084445e+002, 3.327840e+001
2.089266e+002, 3.313229e+001
2.094087e+002, 3.320762e+001
2.098908e+002, 3.360369e+001
2.103729e+002, 3.403879e+001
2.108550e+002, 3.418148e+001
2.113372e+002, 3.395036e+001
2.118193e+002, 3.370965e+001
2.123014e+002, 3.350697e+001
2.127835e+002, 3.334197e+001
2.132656e+002, 3.339196e+001
2.137477e+002, 3.371209e+001
2.142299e+002, 3.416673e+001
2.147120e+002, 3.462298e+001
2.151941e+002, 3.513304e+001
2.156762e+002, 3.550336e+001
2.161583e+002, 3.562088e+001
2.166404e+002, 3.545834e+001
2.171226e+002, 3.555166e+001
2.176047e+002, 3.598947e+001
2.180868e+002, 3.657487e+001
2.185689e+002, 3.708118e+001
2.190510e+002, 3.748851e+001
2.195331e+002, 3.786967e+001
2.200153e+002, 3.824524e+001
2.204974e+002, 3.861691e+001
2.209795e+002, 3.898763e+001
2.214616e+002, 3.937055e+001
2.219437e+002, 3.974400e+001
2.224258e+002, 4.007812e+001
2.229080e+002, 4.033324e+001
2.233901e+002, 4.063124e+001
2.238722e+002, 4.100140e+001
2.243543e+002, 4.145278e+001
2.248364e+002, 4.192694e+001
2.253185e+002, 4.243634e+001
2.258007e+002, 4.294993e+001
2.262828e+002, 4.344692e+001
2.267649e+002, 4.396248e+001
2.272470e+002, 4.438005e+001
2.277291e+002, 4.463050e+001
2.282112e+002, 4.468504e+001
2.286934e+002, 4.483824e+001
2.291755e+002, 4.520370e+001
2.296576e+002, 4.556872e+001
2.301397e+002, 4.564324e+001
2.306218e+002, 4.532207e+001
2.311039e+002, 4.490326e+001
2.315861e+002, 4.444819e+001
2.320682e+002, 4.394054e+001
2.325503e+002, 4.348597e+001
2.330324e+002, 4.316270e+001
2.335145e+002, 4.283160e+001
2.339966e+002, 4.229766e+001
2.344788e+002, 4.146252e+001
2.349609e+002, 4.060767e+001
2.354430e+002, 3.980355e+001
2.359251e+002, 3.905835e+001
2.364072e+002, 3.830515e+001
2.368893e+002, 3.754090e+001
2.373715e+002, 3.677002e+001
2.378536e+002, 3.598973e+001
2.383357e+002, 3.513393e+001
2.388178e+002, 3.436879e+001
2.392999e+002, 3.375167e+001
2.397820e+002, 3.330939e+001
2.402642e+002, 3.284700e+001
2.407463e+002, 3.235616e+001
2.412284e+002, 3.185094e+001
2.417105e+002, 3.133902e+001
2.421926e+002, 3.077845e+001
2.426747e+002, 3.028825e+001
2.431569e+002, 2.991260e+001
2.436390e+002, 2.966356e+001
2.441211e+002, 2.942103e+001
2.446032e+002, 2.919324e+001
2.450853e+002, 2.896284e+001
2.455674e+002, 2.870028e+001
2.460496e+002, 2.835373e+001
2.465317e+002, 2.807409e+001
2.470138e+002, 2.792577e+001
2.474959e+002, 2.792970e+001
2.479780e+002, 2.781513e+001
2.484601e+002, 2.753298e+001
2.489423e+002, 2.718213e+001
2.494244e+002, 2.686368e+001
2.499065e+002, 2.656839e+001
2.503886e+002, 2.632524e+001
2.508707e+002, 2.614701e+001
2.513528e+002, 2.603735e+001
2.518350e+002, 2.594315e+001
2.523171e+002, 2.586589e+001
2.527992e+002, 2.580338e+001
2.532813e+002, 2.576028e+001
2.537634e+002, 2.576138e+001
2.542455e+002, 2.572992e+001
2.547277e+002, 2.565951e+001
2.552098e+002, 2.554978e+001
2.556919e+002, 2.533254e+001
2.561740e+002, 2.489655e+001
2.566561e+002, 2.449062e+001
2.571382e+002, 2.439414e+001
2.576204e+002, 2.477536e+001
2.581025e+002, 2.505211e+001
2.585846e+002, 2.508790e+001
2.590667e+002, 2.489602e+001
2.595488e+002, 2.473876e+001
2.600309e+002, 2.459719e+001
2.605131e+002, 2.452204e+001
2.609952e+002, 2.459268e+001
2.614773e+002, 2.490289e+001
2.619594e+002, 2.509397e+001
2.624415e+002, 2.507523e+001
2.629236e+002, 2.486978e+001
2.634058e+002, 2.470916e+001
2.638879e+002, 2.458918e+001
2.643700e+002, 2.451871e+001
2.648521e+002, 2.451502e+001
2.653342e+002, 2.460384e+001
2.658163e+002, 2.467630e+001
2.662985e+002, 2.472883e+001
2.667806e+002, 2.475366e+001
2.672627e+002, 2.468262e+001
2.677448e+002, 2.446356e+001
2.682269e+002, 2.425854e+001
2.687090e+002, 2.422164e+001
2.691912e+002, 2.442095e+001
2.696733e+002, 2.447182e+001
2.701554e+002, 2.424649e+001
2.706375e+002, 2.385677e+001
2.711196e+002, 2.379031e+001
2.716017e+002, 2.412977e+001
2.720839e+002, 2.456168e+001
2.725660e+002, 2.491870e+001
2.730481e+002, 2.522483e+001
2.735302e+002, 2.528930e+001
2.740123e+002, 2.500906e+001
2.744944e+002, 2.453052e+001
2.749766e+002, 2.428094e+001
2.754587e+002, 2.429218e+001
2.759408e+002, 2.440804e+001
2.764229e+002, 2.454596e+001
2.769050e+002, 2.470649e+001
2.773871e+002, 2.489865e+001
2.778693e+002, 2.514230e+001
2.783514e+002, 2.539651e+001
2.788335e+002, 2.554828e+001
2.793156e+002, 2.557871e+001
2.797977e+002, 2.562763e+001
2.802798e+002, 2.580445e+001
2.807620e+002, 2.610880e+001
2.812441e+002, 2.631505e+001
2.817262e+002, 2.639487e+001
2.822083e+002, 2.640402e+001
2.826904e+002, 2.641563e+001
2.831725e+002, 2.642527e+001
2.836547e+002, 2.649681e+001
2.841368e+002, 2.673071e+001
2.846189e+002, 2.709918e+001
2.851010e+002, 2.725575e+001
2.855831e+002, 2.714585e+001
2.860652e+002, 2.695638e+001
2.865474e+002, 2.693250e+001
2.870295e+002, 2.707317e+001
2.875116e+002, 2.733572e+001
2.879937e+002, 2.778647e+001
2.884758e+002, 2.837697e+001
2.889579e+002, 2.878868e+001
2.894401e+002, 2.901229e+001
2.899222e+002, 2.913595e+001
2.904043e+002, 2.926530e+001
2.908864e+002, 2.939352e+001
2.913685e+002, 2.946140e+001
2.918506e+002, 2.938882e+001
2.923328e+002, 2.924545e+001
2.928149e+002, 2.925659e+001
2.932970e+002, 2.943062e+001
2.937791e+002, 2.965079e+001
2.942612e+002, 2.981777e+001
2.947433e+002, 2.993418e+001
2.952255e+002, 3.000455e+001
2.957076e+002, 3.001420e+001
2.961897e+002, 2.998717e+001
2.966718e+002, 2.992341e+001
2.971539e+002, 2.982612e+001
2.976360e+002, 2.983038e+001
2.981182e+002, 3.017797e+001
2.986003e+002, 3.072098e+001
2.990824e+002, 3.108411e+001
2.995645e+002, 3.109034e+001
3.000466e+002, 3.095217e+001
3.005287e+002, 3.092757e+001
3.010109e+002, 3.101568e+001
3.014930e+002, 3.121601e+001
3.019751e+002, 3.166009e+001
3.024572e+002, 3.219242e+001
3.029393e+002, 3.250906e+001
3.034214e+002, 3.245274e+001
3.039036e+002, 3.234042e+001
3.043857e+002, 3.250628e+001
3.048678e+002, 3.290598e+001
3.053499e+002, 3.338418e+001
3.058320e+002, 3.394931e+001
3.063141e+002, 3.449780e+001
3.067963e+002, 3.485090e+001
3.072784e+002, 3.490590e+001
3.077605e+002, 3.499419e+001
3.082426e+002, 3.549152e+001
3.087247e+002, 3.624433e+001
3.092068e+002, 3.688452e+001
3.096890e+002, 3.706775e+001
3.101711e+002, 3.714605e+001
3.106532e+002, 3.743305e+001
3.111353e+002, 3.799048e+001
3.116174e+002, 3.860338e+001
3.120995e+002, 3.923976e+001
3.125817e+002, 3.981910e+001
3.130638e+002, 4.022226e+001
3.135459e+002, 4.017973e+001
3.140280e+002, 4.011485e+001
3.145101e+002, 4.031830e+001
3.149922e+002, 4.082335e+001
3.154744e+002, 4.133757e+001
3.159565e+002, 4.179061e+001
3.164386e+002, 4.215408e+001
3.169207e+002, 4.239093e+001
3.174028e+002, 4.218078e+001
3.178849e+002, 4.213018e+001
3.183671e+002, 4.260310e+001
3.188492e+002, 4.357729e+001
3.193313e+002, 4.443229e+001
3.198134e+002, 4.475464e+001
3.202955e+002, 4.498417e+001
3.207776e+002, 4.546648e+001
3.212598e+002, 4.643877e+001
3.217419e+002, 4.750118e+001
3.222240e+002, 4.853189e+001
3.227061e+002, 4.956107e+001
3.231882e+002, 5.075147e+001
3.236703e+002, 5.244245e+001
3.241525e+002, 5.409549e+001
3.246346e+002, 5.538584e+001
3.251167e+002, 5.586525e+001
3.255988e+002, 5.656418e+001
3.260809e+002, 5.767139e+001
3.265630e+002, 5.907151e+001
3.270452e+002, 6.045359e+001
3.275273e+002, 6.175471e+001
3.280094e+002, 6.305914e+001
3.284915e+002, 6.441285e+001
3.289736e+002, 6.586696e+001
3.294557e+002, 6.722363e+001
3.299379e+002, 6.842332e+001
3.304200e+002, 6.954949e+001
3.309021e+002, 7.073362e+001
3.313842e+002, 7.220146e+001
3.318663e+002, 7.343608e+001
3.323484e+002, 7.424477e+001
3.328306e+002, 7.453247e+001
3.333127e+002, 7.493232e+001
3.337948e+002, 7.555038e+001
3.342769e+002, 7.618630e+001
3.347590e+002, 7.663350e+001
3.352411e+002, 7.692749e+001
3.357233e+002, 7.695454e+001
3.362054e+002, 7.663519e+001
3.366875e+002, 7.598923e+001
3.371696e+002, 7.536539e+001
3.376517e+002, 7.475777e+001
3.381339e+002, 7.418837e+001
3.386160e+002, 7.378359e+001
3.390981e+002, 7.366547e+001
3.395802e+002, 7.306960e+001
3.400623e+002, 7.179443e+001
3.405444e+002, 7.000375e+001
3.410266e+002, 6.828631e+001
3.415087e+002, 6.660835e+001
3.419908e+002, 6.504484e+001
3.424729e+002, 6.363136e+001
3.429550e+002, 6.237842e+001
3.434371e+002, 6.120777e+001
3.439193e+002, 6.013924e+001
3.444014e+002, 5.912124e+001
3.448835e+002, 5.815285e+001
3.453656e+002, 5.723267e+001
3.458477e+002, 5.613008e+001
3.463298e+002, 5.453768e+001
3.468120e+002, 5.261629e+001
3.472941e+002, 5.115894e+001
3.477762e+002, 5.020591e+001
3.482583e+002, 4.952732e+001
3.487404e+002, 4.898407e+001
3.492225e+002, 4.851947e+001
3.497047e+002, 4.788152e+001
3.501868e+002, 4.677993e+001
3.506689e+002, 4.553527e+001
3.511510e+002, 4.476028e+001
3.516331e+002, 4.445097e+001
3.521152e+002, 4.421971e+001
3.525974e+002, 4.378009e+001
3.530795e+002, 4.318575e+001
3.535616e+002, 4.252492e+001
3.540437e+002, 4.176731e+001
3.545258e+002, 4.102559e+001
3.550079e+002, 4.037267e+001
3.554901e+002, 3.981895e+001
3.559722e+002, 3.939526e+001
3.564543e+002, 3.922258e+001
3.569364e+002, 3.914265e+001
3.574185e+002, 3.899028e+001
3.579006e+002, 3.872312e+001
3.583828e+002, 3.841756e+001
3.588649e+002, 3.804565e+001
3.593470e+002, 3.767002e+001
3.598291e+002, 3.741338e+001
3.603112e+002, 3.735408e+001
3.607933e+002, 3.741135e+001
3.612755e+002, 3.759171e+001
3.617576e+002, 3.792668e+001
3.622397e+002, 3.814597e+001
3.627218e+002, 3.800433e+001
3.632039e+002, 3.774306e+001
3.636860e+002, 3.763154e+001
3.641682e+002, 3.783530e+001
3.646503e+002, 3.810717e+001
3.651324e+002, 3.839658e+001
3.656145e+002, 3.870108e+001
3.660966e+002, 3.896334e+001
3.665787e+002, 3.918256e+001
3.670609e+002, 3.935152e+001
3.675430e+002, 3.946565e+001
3.680251e+002, 3.948044e+001
3.685072e+002, 3.949271e+001
3.689893e+002, 3.944707e+001
3.694714e+002, 3.939351e+001
3.699536e+002, 3.950814e+001
3.704357e+002, 3.994316e+001
3.709178e+002, 4.038728e+001
3.713999e+002, 4.070356e+001
3.718820e+002, 4.081300e+001
3.723641e+002, 4.100385e+001
3.728463e+002, 4.128444e+001
3.733284e+002, 4.163826e+001
3.738105e+002, 4.207585e+001
3.742926e+002, 4.270268e+001
3.747747e+002, 4.316761e+001
3.752568e+002, 4.329927e+001
3.757390e+002, 4.309225e+001
3.762211e+002, 4.318114e+001
3.767032e+002, 4.368951e+001
3.771853e+002, 4.423692e+001
3.776674e+002, 4.437873e+001
3.781495e+002, 4.404305e+001
3.786317e+002, 4.395974e+001
3.791138e+002, 4.431346e+001
3.795959e+002, 4.498256e+001
3.800780e+002, 4.565222e+001
3.805601e+002, 4.632645e+001
3.810422e+002, 4.692157e+001
3.815244e+002, 4.728440e+001
3.820065e+002, 4.748503e+001
3.824886e+002, 4.792651e+001
3.829707e+002, 4.870570e+001
3.834528e+002, 4.958332e+001
3.839349e+002, 5.017188e+001
3.844171e+002, 5.053593e+001
3.848992e+002, 5.101516e+001
3.853813e+002, 5.190424e+001
3.858634e+002, 5.298311e+001
3.863455e+002, 5.386049e+001
3.868276e+002, 5.451244e+001
3.873098e+002, 5.516973e+001
3.877919e+002, 5.602416e+001
3.882740e+002, 5.703269e+001
3.887561e+002, 5.811906e+001
3.892382e+002, 5.940161e+001
3.897203e+002, 6.062151e+001
3.902025e+002, 6.150008e+001
3.906846e+002, 6.208758e+001
3.911667e+002, 6.264574e+001
3.916488e+002, 6.353262e+001
3.921309e+002, 6.432793e+001
3.926130e+002, 6.459326e+001
3.930952e+002, 6.392146e+001
3.935773e+002, 6.342856e+001
3.940594e+002, 6.392049e+001
3.945415e+002, 6.488767e+001
3.950236e+002, 6.538406e+001
3.955057e+002, 6.477594e+001
3.959879e+002, 6.394879e+001
3.964700e+002, 6.326355e+001
3.969521e+002, 6.278798e+001
3.974342e+002, 6.218810e+001
3.979163e+002, 6.133486e+001
3.983984e+002, 6.037256e+001
3.988806e+002, 5.943287e+001
3.993627e+002, 5.884294e+001
3.998448e+002, 5.790205e+001
4.003269e+002, 5.630536e+001
4.008090e+002, 5.417457e+001
4.012911e+002, 5.250480e+001
4.017733e+002, 5.155107e+001
4.022554e+002, 5.073870e+001
4.027375e+002, 4.977729e+001
4.032196e+002, 4.861613e+001
4.037017e+002, 4.741371e+001
4.041838e+002, 4.612949e+001
4.046660e+002, 4.484591e+001
4.051481e+002, 4.375060e+001
4.056302e+002, 4.285743e+001
4.061123e+002, 4.208228e+001
4.065944e+002, 4.144830e+001
4.070765e+002, 4.093987e+001
4.075587e+002, 4.025650e+001
4.080408e+002, 3.935722e+001
4.085229e+002, 3.842516e+001
4.090050e+002, 3.763124e+001
4.094871e+002, 3.697515e+001
4.099692e+002, 3.641050e+001
4.104514e+002, 3.594505e+001
4.109335e+002, 3.553758e+001
4.114156e+002, 3.511119e+001
4.118977e+002, 3.466964e+001
4.123798e+002, 3.421311e+001
4.128619e+002, 3.373857e+001
4.133441e+002, 3.325631e+001
4.138262e+002, 3.278078e+001
4.143083e+002, 3.231288e+001
4.147904e+002, 3.185020e+001
4.152725e+002, 3.139960e+001
4.157546e+002, 3.094956e+001
4.162368e+002, 3.046420e+001
4.167189e+002, 2.985098e+001
4.172010e+002, 2.925811e+001
4.176831e+002, 2.881403e+001
4.181652e+002, 2.851742e+001
4.186473e+002, 2.824498e+001
4.191295e+002, 2.795863e+001
4.196116e+002, 2.765467e+001
4.200937e+002, 2.732998e+001
4.205758e+002, 2.693300e+001
4.210579e+002, 2.658354e+001
4.215400e+002, 2.634579e+001
4.220222e+002, 2.618211e+001
4.225043e+002, 2.599272e+001
4.229864e+002, 2.568522e+001
4.234685e+002, 2.541218e+001
4.239506e+002, 2.525647e+001
4.244327e+002, 2.529184e+001
4.249149e+002, 2.521090e+001
4.253970e+002, 2.487075e+001
4.258791e+002, 2.448358e+001
4.263612e+002, 2.425900e+001
4.268433e+002, 2.428805e+001
4.273254e+002, 2.434147e+001
4.278076e+002, 2.441135e+001
4.282897e+002, 2.448576e+001
4.287718e+002, 2.446623e+001
4.292539e+002, 2.431446e+001
4.297360e+002, 2.414646e+001
4.302181e+002, 2.404437e+001
4.307003e+002, 2.402605e+001
4.311824e+002, 2.394710e+001
4.316645e+002, 2.378708e+001
4.321466e+002, 2.358972e+001
4.326287e+002, 2.343586e+001
4.331108e+002, 2.332804e+001
4.335930e+002, 2.320687e+001
4.340751e+002, 2.303429e+001
4.345572e+002, 2.283372e+001
4.350393e+002, 2.271611e+001
4.355214e+002, 2.268600e+001
4.360035e+002, 2.260149e+001
4.364857e+002, 2.225405e+001
4.369678e+002, 2.175895e+001
4.374499e+002, 2.139833e+001
4.379320e+002, 2.127159e+001
4.384141e+002, 2.122448e+001
4.388962e+002, 2.111529e+001
4.393784e+002, 2.095094e+001
4.398605e+002, 2.075213e+001
4.403426e+002, 2.045193e+001
4.408247e+002, 2.017159e+001
4.413068e+002, 2.001261e+001
4.417889e+002, 1.998942e+001
4.422711e+002, 2.003189e+001
4.427532e+002, 2.020257e+001
4.432353e+002, 2.038095e+001
4.437174e+002, 2.044190e+001
4.441995e+002, 2.025916e+001
4.446816e+002, 2.005021e+001
4.451638e+002, 1.984573e+001
4.456459e+002, 1.965670e+001
4.461280e+002, 1.952091e+001
4.466101e+002, 1.948433e+001
4.470922e+002, 1.946891e+001
4.475743e+002, 1.944253e+001
4.480565e+002, 1.940200e+001
4.485386e+002, 1.935434e+001
4.490207e+002, 1.926043e+001
4.495028e+002, 1.918442e+001
4.499849e+002, 1.924239e+001
4.504670e+002, 1.957765e+001
4.509492e+002, 1.971036e+001
4.514313e+002, 1.944205e+001
4.519134e+002, 1.885762e+001
4.523955e+002, 1.861323e+001
4.528776e+002, 1.878230e+001
4.533597e+002, 1.905032e+001
4.538419e+002, 1.924982e+001
4.543240e+002, 1.937784e+001
4.548061e+002, 1.933173e+001
4.552882e+002, 1.906345e+001
4.557703e+002, 1.872347e+001
4.562524e+002, 1.855275e+001
4.567346e+002, 1.852765e+001
4.572167e+002, 1.850532e+001
4.576988e+002, 1.837978e+001
4.581809e+002, 1.823678e+001
4.586630e+002, 1.826421e+001
4.591451e+002, 1.844995e+001
4.596273e+002, 1.860608e+001
4.601094e+002, 1.852943e+001
4.605915e+002, 1.835779e+001
4.610736e+002, 1.828184e+001
4.615557e+002, 1.839075e+001
4.620378e+002, 1.849535e+001
4.625200e+002, 1.845185e+001
4.630021e+002, 1.831785e+001
4.634842e+002, 1.820609e+001
4.639663e+002, 1.822812e+001
4.644484e+002, 1.822354e+001
4.649305e+002, 1.808307e+001
4.654127e+002, 1.779113e+001
4.658948e+002, 1.757298e+001
4.663769e+002, 1.747852e+001
4.668590e+002, 1.747362e+001
4.673411e+002, 1.753515e+001
4.678232e+002, 1.778730e+001
4.683054e+002, 1.793988e+001
4.687875e+002, 1.793921e+001
4.692696e+002, 1.784040e+001
4.697517e+002, 1.777979e+001
4.702338e+002, 1.778292e+001
4.707159e+002, 1.777523e+001
4.711981e+002, 1.770900e+001
4.716802e+002, 1.757775e+001
4.721623e+002, 1.758464e+001
4.726444e+002, 1.777980e+001
4.731265e+002, 1.797626e+001
4.736086e+002, 1.792397e+001
4.740908e+002, 1.762945e+001
4.745729e+002, 1.751428e+001
4.750550e+002, 1.770362e+001
4.755371e+002, 1.803179e+001
4.760192e+002, 1.821295e+001
4.765013e+002, 1.825460e+001
4.769835e+002, 1.821467e+001
4.774656e+002, 1.807129e+001
4.779477e+002, 1.788591e+001
4.784298e+002, 1.775247e+001
4.789119e+002, 1.767521e+001
4.793940e+002, 1.764305e+001
4.798762e+002, 1.766715e+001
4.803583e+002, 1.772501e+001
4.808404e+002, 1.778891e+001
4.813225e+002, 1.787025e+001
4.818046e+002, 1.793049e+001
4.822867e+002, 1.794956e+001
4.827689e+002, 1.793268e+001
4.832510e+002, 1.789274e+001
4.837331e+002, 1.782581e+001
4.842152e+002, 1.774412e+001
4.846973e+002, 1.763576e+001
4.851794e+002, 1.748003e+001
4.856616e+002, 1.739955e+001
4.861437e+002, 1.741448e+001
4.866258e+002, 1.750368e+001
4.871079e+002, 1.766901e+001
4.875900e+002, 1.805998e+001
4.880721e+002, 1.824993e+001
4.885543e+002, 1.810782e+001
4.890364e+002, 1.777017e+001
4.895185e+002, 1.764301e+001
4.900006e+002, 1.778129e+001
4.904827e+002, 1.796024e+001
4.909648e+002, 1.811673e+001
4.914470e+002, 1.824638e+001
4.919291e+002, 1.818827e+001
4.924112e+002, 1.790211e+001
4.928933e+002, 1.762427e+001
4.933754e+002, 1.764597e+001
4.938575e+002, 1.789905e+001
4.943397e+002, 1.807909e+001
4.948218e+002, 1.810013e+001
4.953039e+002, 1.805536e+001
4.957860e+002, 1.804877e+001
4.962681e+002, 1.807906e+001
4.967502e+002, 1.814113e+001
4.972324e+002, 1.831640e+001
4.977145e+002, 1.846997e+001
4.981966e+002, 1.842488e+001
4.986787e+002, 1.817155e+001
4.991608e+002, 1.798586e+001
4.996429e+002, 1.801602e+001
5.001251e+002, 1.817641e+001
5.006072e+002, 1.839823e+001
5.010893e+002, 1.875801e+001
5.015714e+002, 1.904590e+001
5.020535e+002, 1.914276e+001
5.025356e+002, 1.913979e+001
5.030178e+002, 1.924682e+001
5.034999e+002, 1.963358e+001
5.039820e+002, 1.996689e+001
5.044641e+002, 2.014761e+001
5.049462e+002, 2.017008e+001
5.054283e+002, 2.020493e+001
5.059105e+002, 2.022817e+001
5.063926e+002, 2.030177e+001
5.068747e+002, 2.047865e+001
5.073568e+002, 2.076753e+001
5.078389e+002, 2.110723e+001
5.083210e+002, 2.150897e+001
5.088032e+002, 2.192068e+001
5.092853e+002, 2.223492e+001
5.097674e+002, 2.245743e+001
5.102495e+002, 2.268359e+001
5.107316e+002, 2.295780e+001
5.112137e+002, 2.326145e+001
5.116959e+002, 2.358262e+001
5.121780e+002, 2.391320e+001
5.126601e+002, 2.418678e+001
5.131422e+002, 2.427193e+001
5.136243e+002, 2.430300e+001
5.141064e+002, 2.447203e+001
5.145886e+002, 2.485050e+001
5.150707e+002, 2.522790e+001
5.155528e+002, 2.547241e+001
5.160349e+002, 2.563339e+001
5.165170e+002, 2.578634e+001
5.169991e+002, 2.599320e+001
5.174813e+002, 2.615773e+001
5.179634e+002, 2.620318e+001
5.184455e+002, 2.615261e+001
5.189276e+002, 2.619399e+001
5.194097e+002, 2.650578e+001
5.198918e+002, 2.677537e+001
5.203740e+002, 2.686588e+001
5.208561e+002, 2.671911e+001
5.213382e+002, 2.657915e+001
5.218203e+002, 2.642491e+001
5.223024e+002, 2.630100e+001
5.227845e+002, 2.627902e+001
5.232667e+002, 2.638590e+001
5.237488e+002, 2.644039e+001
5.242309e+002, 2.640313e+001
5.247130e+002, 2.629465e+001
5.251951e+002, 2.610551e+001
5.256772e+002, 2.583991e+001
5.261594e+002, 2.570690e+001
5.266415e+002, 2.596677e+001
5.271236e+002, 2.641732e+001
5.276057e+002, 2.656470e+001
5.280878e+002, 2.639029e+001
5.285699e+002, 2.617544e+001
5.290521e+002, 2.592014e+001
5.295342e+002, 2.584378e+001
5.300163e+002, 2.634064e+001
5.304984e+002, 2.797726e+001
5.309805e+002, 2.933920e+001
5.314626e+002, 2.927852e+001
5.319448e+002, 2.841493e+001
5.324269e+002, 2.795061e+001
5.329090e+002, 2.884726e+001
5.333911e+002, 2.959699e+001
5.338732e+002, 2.953866e+001
5.343553e+002, 2.861518e+001
5.348375e+002, 2.808270e+001
5.353196e+002, 2.822466e+001
5.358017e+002, 2.851223e+001
5.362838e+002, 2.865921e+001
5.367659e+002, 2.861060e+001
5.372480e+002, 2.857508e+001
5.377302e+002, 2.855465e+001
5.382123e+002, 2.854669e+001
5.386944e+002, 2.857077e+001
5.391765e+002, 2.863498e+001
5.396586e+002, 2.861205e+001
5.401407e+002, 2.843866e+001
5.406229e+002, 2.818337e+001
5.411050e+002, 2.799260e+001
5.415871e+002, 2.786713e+001
5.420692e+002, 2.781183e+001
5.425513e+002, 2.793751e+001
5.430334e+002, 2.809474e+001
5.435156e+002, 2.802269e+001
5.439977e+002, 2.769762e+001
5.444798e+002, 2.734759e+001
5.449619e+002, 2.721699e+001
5.454440e+002, 2.711473e+001
5.459261e+002, 2.682119e+001
5.464083e+002, 2.612088e+001
5.468904e+002, 2.544788e+001
5.473725e+002, 2.493973e+001
5.478546e+002, 2.456609e+001
5.483367e+002, 2.425073e+001
5.488188e+002, 2.400965e+001
5.493010e+002, 2.379908e+001
5.497831e+002, 2.362902e+001
5.502652e+002, 2.349796e+001
5.507473e+002, 2.330337e+001
5.512294e+002, 2.303952e+001
5.517115e+002, 2.272106e+001
5.521937e+002, 2.231614e+001
5.526758e+002, 2.180073e+001
5.531579e+002, 2.143581e+001
5.536400e+002, 2.124343e+001
5.541221e+002, 2.117223e+001
5.546042e+002, 2.124272e+001
5.550864e+002, 2.141253e+001
5.555685e+002, 2.138939e+001
5.560506e+002, 2.097092e+001
5.565327e+002, 2.046692e+001
5.570148e+002, 2.036372e+001
5.574969e+002, 2.057271e+001
5.579791e+002, 2.076155e+001
5.584612e+002, 2.068719e+001
5.589433e+002, 2.054963e+001
5.594254e+002, 2.051472e+001
5.599075e+002, 2.059493e+001
5.603896e+002, 2.068540e+001
5.608718e+002, 2.079641e+001
5.613539e+002, 2.086801e+001
5.618360e+002, 2.085539e+001
5.623181e+002, 2.073627e+001
5.628002e+002, 2.055068e+001
5.632823e+002, 2.019988e+001
5.637645e+002, 1.982969e+001
5.642466e+002, 1.968522e+001
5.647287e+002, 1.989258e+001
5.652108e+002, 2.003966e+001
5.656929e+002, 2.000135e+001
5.661750e+002, 1.983467e+001
5.666572e+002, 1.981014e+001
5.671393e+002, 1.994489e+001
5.676214e+002, 2.009875e+001
5.681035e+002, 2.022112e+001
5.685856e+002, 2.029777e+001
5.690677e+002, 2.025537e+001
5.695499e+002, 2.008585e+001
5.700320e+002, 1.988992e+001
5.705141e+002, 1.971039e+001
5.709962e+002, 1.958146e+001
5.714783e+002, 1.957610e+001
5.719604e+002, 1.977449e+001
5.724426e+002, 1.996840e+001
5.729247e+002, 2.004000e+001
5.734068e+002, 2.001313e+001
5.738889e+002, 1.993194e+001
5.743710e+002, 1.974021e+001
5.748531e+002, 1.956769e+001
5.753353e+002, 1.944888e+001
5.758174e+002, 1.938632e+001
5.762995e+002, 1.938446e+001
5.767816e+002, 1.953456e+001
5.772637e+002, 1.963697e+001
5.777458e+002, 1.958048e+001
5.782280e+002, 1.931577e+001
5.787101e+002, 1.917515e+001
5.791922e+002, 1.920875e+001
5.796743e+002, 1.925616e+001
5.801564e+002, 1.910113e+001
5.806385e+002, 1.876076e+001
5.811207e+002, 1.856269e+001
5.816028e+002, 1.861045e+001
5.820849e+002, 1.872104e+001
5.825670e+002, 1.857752e+001
5.830491e+002, 1.825669e+001
5.835313e+002, 1.800014e+001
5.840134e+002, 1.800326e+001
5.844955e+002, 1.806653e+001
5.849776e+002, 1.798816e+001
5.854597e+002, 1.779470e+001
5.859418e+002, 1.764118e+001
5.864240e+002, 1.764743e+001
5.869061e+002, 1.767935e+001
5.873882e+002, 1.766108e+001
5.878703e+002, 1.757876e+001
5.883524e+002, 1.746694e+001
5.888345e+002, 1.731165e+001
5.893167e+002, 1.713977e+001
5.897988e+002, 1.696563e+001
5.902809e+002, 1.676131e+001
5.907630e+002, 1.662158e+001
5.912451e+002, 1.656697e+001
5.917272e+002, 1.656462e+001
5.922094e+002, 1.658124e+001
5.926915e+002, 1.662385e+001
5.931736e+002, 1.656689e+001
5.936557e+002, 1.632389e+001
5.941378e+002, 1.598312e+001
5.946199e+002, 1.574165e+001
5.951021e+002, 1.559716e+001
5.955842e+002, 1.551314e+001
5.960663e+002, 1.552788e+001
5.965484e+002, 1.555853e+001
5.970305e+002, 1.551395e+001
5.975126e+002, 1.538638e+001
5.979948e+002, 1.519608e+001
5.984769e+002, 1.483327e+001
5.989590e+002, 1.448305e+001
5.994411e+002, 1.430965e+001
5.999232e+002, 1.446158e+001
6.004053e+002, 1.459839e+001
6.008875e+002, 1.473467e+001
6.013696e+002, 1.480484e+001
6.018517e+002, 1.469427e+001
6.023338e+002, 1.426946e+001
6.028159e+002, 1.393180e+001
6.032980e+002, 1.377098e+001
6.037802e+002, 1.374347e+001
6.042623e+002, 1.368967e+001
6.047444e+002, 1.360680e+001
6.052265e+002, 1.352470e+001
6.057086e+002, 1.345140e+001
6.061907e+002, 1.339101e+001
6.066729e+002, 1.336927e+001
6.071550e+002, 1.338515e+001
6.076371e+002, 1.338925e+001
6.081192e+002, 1.332631e+001
6.086013e+002, 1.323419e+001
6.090834e+002, 1.317383e+001
6.095656e+002, 1.317059e+001
6.100477e+002, 1.313060e+001
6.105298e+002, 1.296084e+001
6.110119e+002, 1.274437e+001
6.114940e+002, 1.257242e+001
6.119761e+002, 1.242220e+001
6.124583e+002, 1.237378e+001
6.129404e+002, 1.254062e+001
6.134225e+002, 1.280226e+001
6.139046e+002, 1.287881e+001
6.143867e+002, 1.265891e+001
6.148688e+002, 1.248752e+001
6.153510e+002, 1.248141e+001
6.158331e+002, 1.260907e+001
6.163152e+002, 1.266096e+001
6.167973e+002, 1.262850e+001
6.172794e+002, 1.260144e+001
6.177615e+002, 1.263413e+001
6.182437e+002, 1.271876e+001
6.187258e+002, 1.286199e+001
6.192079e+002, 1.306915e+001
6.196900e+002, 1.323082e+001
6.201721e+002, 1.319943e+001
6.206542e+002, 1.309013e+001
6.211364e+002, 1.304695e+001
6.216185e+002, 1.311287e+001
6.221006e+002, 1.322563e+001
6.225827e+002, 1.342934e+001
6.230648e+002, 1.364240e+001
6.235469e+002, 1.375082e+001
6.240291e+002, 1.363112e+001
6.245112e+002, 1.353123e+001
6.249933e+002, 1.350427e+001
6.254754e+002, 1.352131e+001
6.259575e+002, 1.347673e+001
6.264396e+002, 1.334361e+001
6.269218e+002, 1.322502e+001
6.274039e+002, 1.314108e+001
6.278860e+002, 1.310219e+001
6.283681e+002, 1.321202e+001
6.288502e+002, 1.347696e+001
6.293323e+002, 1.372051e+001
6.298145e+002, 1.378405e+001
6.302966e+002, 1.373952e+001
6.307787e+002, 1.372391e+001
6.312608e+002, 1.375140e+001
6.317429e+002, 1.378847e+001
6.322250e+002, 1.380545e+001
6.327072e+002, 1.382071e+001
6.331893e+002, 1.385498e+001
6.336714e+002, 1.391983e+001
6.341535e+002, 1.399191e+001
6.346356e+002, 1.403577e+001
6.351177e+002, 1.409149e+001
6.355999e+002, 1.422810e+001
6.360820e+002, 1.452759e+001
6.365641e+002, 1.477054e+001
6.370462e+002, 1.488814e+001
6.375283e+002, 1.493429e+001
6.380104e+002, 1.508647e+001
6.384926e+002, 1.535163e+001
6.389747e+002, 1.569142e+001
6.394568e+002, 1.616185e+001
6.399389e+002, 1.668638e+001
6.404210e+002, 1.692573e+001
6.409031e+002, 1.690153e+001
6.413853e+002, 1.694947e+001
6.418674e+002, 1.736492e+001
6.423495e+002, 1.796546e+001
6.428316e+002, 1.856506e+001
6.433137e+002, 1.915798e+001
6.437958e+002, 1.964041e+001
6.442780e+002, 1.985090e+001
6.447601e+002, 1.999527e+001
6.452422e+002, 2.025392e+001
6.457243e+002, 2.075379e+001
6.462064e+002, 2.121588e+001
6.466885e+002, 2.153197e+001
6.471707e+002, 2.185843e+001
6.476528e+002, 2.239042e+001
6.481349e+002, 2.314893e+001
6.486170e+002, 2.409950e+001
6.490991e+002, 2.537236e+001
6.495812e+002, 2.670789e+001
6.500634e+002, 2.744558e+001
6.505455e+002, 2.763020e+001
6.510276e+002, 2.781369e+001
6.515097e+002, 2.813059e+001
6.519918e+002, 2.867736e+001
6.524739e+002, 2.980890e+001
6.529561e+002, 3.138532e+001
6.534382e+002, 3.275642e+001
6.539203e+002, 3.344473e+001
6.544024e+002, 3.384613e+001
6.548845e+002, 3.418132e+001
6.553666e+002, 3.445897e+001
6.558488e+002, 3.480455e+001
6.563309e+002, 3.543084e+001
6.568130e+002, 3.598969e+001
6.572951e+002, 3.626264e+001
6.577772e+002, 3.614040e+001
6.582593e+002, 3.601870e+001
6.587415e+002, 3.588860e+001
6.592236e+002, 3.577358e+001
6.597057e+002, 3.574325e+001
6.601878e+002, 3.579358e+001
6.606699e+002, 3.568289e+001
6.611520e+002, 3.533035e+001
6.616342e+002, 3.490210e+001
6.621163e+002, 3.462468e+001
6.625984e+002, 3.446137e+001
6.630805e+002, 3.431466e+001
6.635626e+002, 3.411616e+001
6.640447e+002, 3.395010e+001
6.645269e+002, 3.381833e+001
6.650090e+002, 3.376094e+001
6.654911e+002, 3.389068e+001
6.659732e+002, 3.433254e+001
6.664553e+002, 3.487896e+001
6.669374e+002, 3.549444e+001
6.674196e+002, 3.617303e+001
6.679017e+002, 3.679729e+001
6.683838e+002, 3.732621e+001
6.688659e+002, 3.788836e+001
6.693480e+002, 3.855693e+001
6.698301e+002, 3.933116e+001
6.703123e+002, 4.015287e+001
6.707944e+002, 4.103453e+001
6.712765e+002, 4.189168e+001
6.717586e+002, 4.259058e+001
6.722407e+002, 4.323042e+001
6.727228e+002, 4.406488e+001
6.732050e+002, 4.517262e+001
6.736871e+002, 4.623005e+001
6.741692e+002, 4.706800e+001
6.746513e+002, 4.770204e+001
6.751334e+002, 4.813641e+001
6.756155e+002, 4.830370e+001
6.760977e+002, 4.838385e+001
6.765798e+002, 4.842022e+001
6.770619e+002, 4.838636e+001
6.775440e+002, 4.825647e+001
6.780261e+002, 4.809504e+001
6.785082e+002, 4.769651e+001
6.789904e+002, 4.697913e+001
6.794725e+002, 4.603839e+001
6.799546e+002, 4.513196e+001
6.804367e+002, 4.427773e+001
6.809188e+002, 4.320658e+001
6.814009e+002, 4.170692e+001
6.818831e+002, 3.999558e+001
6.823652e+002, 3.848423e+001
6.828473e+002, 3.713932e+001
6.833294e+002, 3.586646e+001
6.838115e+002, 3.458645e+001
6.842936e+002, 3.336089e+001
6.847758e+002, 3.222189e+001
6.852579e+002, 3.118030e+001
6.857400e+002, 3.012969e+001
6.862221e+002, 2.901284e+001
6.867042e+002, 2.791911e+001
6.871863e+002, 2.685208e+001
6.876685e+002, 2.576003e+001
6.881506e+002, 2.497741e+001
6.886327e+002, 2.461063e+001
6.891148e+002, 2.431045e+001
6.895969e+002, 2.369937e+001
6.900790e+002, 2.280451e+001
6.905612e+002, 2.216248e+001
6.910433e+002, 2.186480e+001
6.915254e+002, 2.163514e+001
6.920075e+002, 2.109522e+001
6.924896e+002, 2.041488e+001
6.929717e+002, 1.993315e+001
6.934539e+002, 1.985667e+001
6.939360e+002, 1.977206e+001
6.944181e+002, 1.938635e+001
6.949002e+002, 1.885545e+001
6.953823e+002, 1.841967e+001
6.958644e+002, 1.822351e+001
6.963466e+002, 1.802120e+001
6.968287e+002, 1.777657e+001
6.973108e+002, 1.750331e+001
6.977929e+002, 1.722599e+001
6.982750e+002, 1.691888e+001
6.987571e+002, 1.671910e+001
6.992393e+002, 1.673736e+001
6.997214e+002, 1.685556e+001
7.002035e+002, 1.666218e+001
7.006856e+002, 1.619223e+001
7.011677e+002, 1.575526e+001
7.016498e+002, 1.553683e+001
7.021320e+002, 1.544505e+001
7.026141e+002, 1.541650e+001
7.030962e+002, 1.543653e+001
7.035783e+002, 1.541370e+001
7.040604e+002, 1.523580e+001
7.045425e+002, 1.505857e+001
7.050247e+002, 1.497043e+001
7.055068e+002, 1.498886e+001
7.059889e+002, 1.505123e+001
7.064710e+002, 1.522223e+001
7.069531e+002, 1.535162e+001
7.074352e+002, 1.532660e+001
7.079174e+002, 1.513285e+001
7.083995e+002, 1.494638e+001
7.088816e+002, 1.476653e+001
7.093637e+002, 1.461215e+001
7.098458e+002, 1.451616e+001
7.103279e+002, 1.446058e+001
7.108101e+002, 1.438550e+001
7.112922e+002, 1.426632e+001
7.117743e+002, 1.419432e+001
7.122564e+002, 1.433034e+001
7.127385e+002, 1.451588e+001
7.132206e+002, 1.455455e+001
7.137028e+002, 1.417923e+001
7.141849e+002, 1.395296e+001
7.146670e+002, 1.412110e+001
7.151491e+002, 1.443892e+001
7.156312e+002, 1.457860e+001
7.161133e+002, 1.448341e+001
7.165955e+002, 1.435912e+001
7.170776e+002, 1.422777e+001
7.175597e+002, 1.410139e+001
7.180418e+002, 1.400387e+001
7.185239e+002, 1.393496e+001
7.190060e+002, 1.390081e+001
7.194882e+002, 1.389959e+001
7.199703e+002, 1.393809e+001
7.204524e+002, 1.406382e+001
7.209345e+002, 1.424077e+001
7.214166e+002, 1.436661e+001
7.218987e+002, 1.438183e+001
7.223809e+002, 1.434431e+001
7.228630e+002, 1.423855e+001
7.233451e+002, 1.408325e+001
7.238272e+002, 1.402884e+001
7.243093e+002, 1.416995e+001
7.247914e+002, 1.427617e+001
7.252736e+002, 1.423133e+001
7.257557e+002, 1.405759e+001
7.262378e+002, 1.406273e+001
7.267199e+002, 1.427002e+001
7.272020e+002, 1.446064e+001
7.276841e+002, 1.448642e+001
7.281663e+002, 1.439343e+001
7.286484e+002, 1.424760e+001
7.291305e+002, 1.405641e+001
7.296126e+002, 1.391813e+001
7.300947e+002, 1.389572e+001
7.305768e+002, 1.395627e+001
7.310590e+002, 1.410624e+001
7.315411e+002, 1.438121e+001
7.320232e+002, 1.455503e+001
7.325053e+002, 1.443817e+001
7.329874e+002, 1.432878e+001
7.334695e+002, 1.443984e+001
7.339517e+002, 1.489524e+001
7.344338e+002, 1.510213e+001
7.349159e+002, 1.499896e+001
7.353980e+002, 1.482542e+001
7.358801e+002, 1.486549e+001
7.363622e+002, 1.506208e+001
7.368444e+002, 1.516891e+001
7.373265e+002, 1.513713e+001
7.378086e+002, 1.506808e+001
7.382907e+002, 1.501200e+001
7.387728e+002, 1.499353e+001
7.392549e+002, 1.505286e+001
7.397371e+002, 1.526648e+001
7.402192e+002, 1.544541e+001
7.407013e+002, 1.556249e+001
7.411834e+002, 1.560285e+001
7.416655e+002, 1.553467e+001
7.421476e+002, 1.525414e+001
7.426298e+002, 1.512655e+001
7.431119e+002, 1.523920e+001
7.435940e+002, 1.546477e+001
7.440761e+002, 1.557727e+001
7.445582e+002, 1.558452e+001
7.450403e+002, 1.557524e+001
7.455225e+002, 1.556598e+001
7.460046e+002, 1.556815e+001
7.464867e+002, 1.562010e+001
7.469688e+002, 1.569259e+001
7.474509e+002, 1.572223e+001
7.479330e+002, 1.562549e+001
7.484152e+002, 1.554140e+001
7.488973e+002, 1.557149e+001
7.493794e+002, 1.566006e+001
7.498615e+002, 1.562081e+001
7.503436e+002, 1.536986e+001
7.508257e+002, 1.513694e+001
7.513079e+002, 1.498149e+001
7.517900e+002, 1.488492e+001
7.522721e+002, 1.480043e+001
7.527542e+002, 1.472790e+001
7.532363e+002, 1.462095e+001
7.537184e+002, 1.441110e+001
7.542006e+002, 1.418429e+001
7.546827e+002, 1.412691e+001
7.551648e+002, 1.418902e+001
7.556469e+002, 1.416483e+001
7.561290e+002, 1.383016e+001
7.566111e+002, 1.348780e+001
7.570933e+002, 1.330115e+001
7.575754e+002, 1.327402e+001
7.580575e+002, 1.325447e+001
7.585396e+002, 1.317945e+001
7.590217e+002, 1.319376e+001
7.595038e+002, 1.340096e+001
7.599860e+002, 1.377059e+001
7.604681e+002, 1.396722e+001
7.609502e+002, 1.398304e+001
7.614323e+002, 1.389960e+001
7.619144e+002, 1.372869e+001
7.623965e+002, 1.351040e+001
7.628787e+002, 1.328636e+001
7.633608e+002, 1.306720e+001
7.638429e+002, 1.293813e+001
7.643250e+002, 1.305844e+001
7.648071e+002, 1.320588e+001
7.652892e+002, 1.320732e+001
7.657714e+002, 1.302217e+001
7.662535e+002, 1.291142e+001
7.667356e+002, 1.289311e+001
7.672177e+002, 1.294608e+001
7.676998e+002, 1.309403e+001
7.681819e+002, 1.335177e+001
7.686641e+002, 1.344031e+001
7.691462e+002, 1.333972e+001
7.696283e+002, 1.321711e+001
7.701104e+002, 1.323039e+001
7.705925e+002, 1.331588e+001
7.710746e+002, 1.331957e+001
7.715568e+002, 1.322129e+001
7.720389e+002, 1.321254e+001
7.725210e+002, 1.359820e+001
7.730031e+002, 1.399631e+001
7.734852e+002, 1.406714e+001
7.739673e+002, 1.359889e+001
7.744495e+002, 1.335278e+001
7.749316e+002, 1.346701e+001
7.754137e+002, 1.367143e+001
7.758958e+002, 1.376528e+001
7.763779e+002, 1.373861e+001
7.768600e+002, 1.375005e+001
7.773422e+002, 1.381829e+001
7.778243e+002, 1.384463e+001
7.783064e+002, 1.363578e+001
7.787885e+002, 1.333811e+001
7.792706e+002, 1.327261e+001
7.797527e+002, 1.353461e+001
7.802349e+002, 1.374640e+001
7.807170e+002, 1.363106e+001
7.811991e+002, 1.339494e+001
7.816812e+002, 1.321224e+001
7.821633e+002, 1.308991e+001
7.826454e+002, 1.307564e+001
7.831276e+002, 1.322629e+001
7.836097e+002, 1.341739e+001
7.840918e+002, 1.352676e+001
7.845739e+002, 1.355316e+001
7.850560e+002, 1.357361e+001
7.855381e+002, 1.360474e+001
7.860203e+002, 1.357951e+001
7.865024e+002, 1.334577e+001
7.869845e+002, 1.302524e+001
7.874666e+002, 1.283634e+001
7.879487e+002, 1.286108e+001
7.884308e+002, 1.290756e+001
7.889130e+002, 1.292410e+001
7.893951e+002, 1.289206e+001
7.898772e+002, 1.278400e+001
7.903593e+002, 1.249014e+001
7.908414e+002, 1.232331e+001
7.913235e+002, 1.231570e+001
7.918057e+002, 1.239606e+001
7.922878e+002, 1.252283e+001
7.927699e+002, 1.268761e+001
7.932520e+002, 1.271532e+001
7.937341e+002, 1.256333e+001
7.942162e+002, 1.235312e+001
7.946984e+002, 1.215674e+001
7.951805e+002, 1.200663e+001
7.956626e+002, 1.197221e+001
7.961447e+002, 1.214594e+001
7.966268e+002, 1.225626e+001
7.971089e+002, 1.213126e+001
7.975911e+002, 1.193234e+001
7.980732e+002, 1.184863e+001
7.985553e+002, 1.196967e+001
7.990374e+002, 1.198469e+001
7.995195e+002, 1.183468e+001
8.000016e+002, 1.165615e+001
8.004838e+002, 1.160600e+001
8.009659e+002, 1.167902e+001
8.014480e+002, 1.188703e+001
8.019301e+002, 1.228260e+001
8.024122e+002, 1.259468e+001
8.028943e+002, 1.245998e+001
8.033765e+002, 1.211747e+001
8.038586e+002, 1.187727e+001
8.043407e+002, 1.184363e+001
8.048228e+002, 1.186779e+001
8.053049e+002, 1.195657e+001
8.057870e+002, 1.206739e+001
8.062692e+002, 1.215983e+001
8.067513e+002, 1.223014e+001
8.072334e+002, 1.229882e+001
8.077155e+002, 1.237075e+001
8.081976e+002, 1.243013e+001
8.086797e+002, 1.246727e+001
8.091619e+002, 1.247481e+001
8.096440e+002, 1.241584e+001
8.101261e+002, 1.225994e+001
8.106082e+002, 1.212497e+001
8.110903e+002, 1.210111e+001
8.115724e+002, 1.214496e+001
8.120546e+002, 1.221081e+001
8.125367e+002, 1.230203e+001
8.130188e+002, 1.239828e+001
8.135009e+002, 1.251871e+001
8.139830e+002, 1.262432e+001
8.144651e+002, 1.265355e+001
8.149473e+002, 1.259879e+001
8.154294e+002, 1.261999e+001
8.159115e+002, 1.275010e+001
8.163936e+002, 1.287998e+001
8.168757e+002, 1.284794e+001
8.173578e+002, 1.273751e+001
8.178400e+002, 1.269053e+001
8.183221e+002, 1.273856e+001
8.188042e+002, 1.284825e+001
8.192863e+002, 1.304719e+001
8.197684e+002, 1.327439e+001
8.202505e+002, 1.347768e+001
8.207327e+002, 1.369394e+001
8.212148e+002, 1.378730e+001
8.216969e+002, 1.372048e+001
8.221790e+002, 1.359692e+001
8.226611e+002, 1.346408e+001
8.231432e+002, 1.335031e+001
8.236254e+002, 1.351463e+001
8.241075e+002, 1.401825e+001
8.245896e+002, 1.449727e+001
8.250717e+002, 1.459391e+001
8.255538e+002, 1.448999e+001
8.260359e+002, 1.437149e+001
8.265181e+002, 1.425427e+001
8.270002e+002, 1.418990e+001
8.274823e+002, 1.420071e+001
8.279644e+002, 1.426145e+001
8.284465e+002, 1.437331e+001
8.289286e+002, 1.456081e+001
8.294108e+002, 1.467271e+001
8.298929e+002, 1.470041e+001
8.303750e+002, 1.468778e+001
8.308571e+002, 1.467489e+001
8.313392e+002, 1.465239e+001
8.318214e+002, 1.458358e+001
8.323035e+002, 1.446305e+001
8.327856e+002, 1.437054e+001
8.332677e+002, 1.438615e+001
8.337498e+002, 1.442867e+001
8.342319e+002, 1.441765e+001
8.347141e+002, 1.430246e+001
8.351962e+002, 1.434683e+001
8.356783e+002, 1.467229e+001
8.361604e+002, 1.495086e+001
8.366425e+002, 1.489322e+001
8.371246e+002, 1.453466e+001
8.376068e+002, 1.443224e+001
8.380889e+002, 1.458992e+001
8.385710e+002, 1.484100e+001
8.390531e+002, 1.519448e+001
8.395352e+002, 1.548867e+001
8.400173e+002, 1.547347e+001
8.404995e+002, 1.514218e+001
8.409816e+002, 1.492283e+001
8.414637e+002, 1.503722e+001
8.419458e+002, 1.522285e+001
8.424279e+002, 1.538667e+001
8.429100e+002, 1.552738e+001
8.433922e+002, 1.555444e+001
8.438743e+002, 1.544684e+001
8.443564e+002, 1.534009e+001
8.448385e+002, 1.529715e+001
8.453206e+002, 1.531814e+001
8.458027e+002, 1.542834e+001
8.462849e+002, 1.561336e+001
8.467670e+002, 1.579098e+001
8.472491e+002, 1.600931e+001
8.477312e+002, 1.612066e+001
8.482133e+002, 1.595488e+001
8.486954e+002, 1.555413e+001
8.491776e+002, 1.534310e+001
8.496597e+002, 1.539028e+001
8.501418e+002, 1.551086e+001
8.506239e+002, 1.566838e+001
8.511060e+002, 1.584184e+001
8.515881e+002, 1.597672e+001
8.520703e+002, 1.606811e+001
8.525524e+002, 1.607084e+001
8.530345e+002, 1.586116e+001
8.535166e+002, 1.564708e+001
8.539987e+002, 1.565332e+001
8.544808e+002, 1.580484e+001
8.549630e+002, 1.591161e+001
8.554451e+002, 1.587045e+001
8.559272e+002, 1.583510e+001
8.564093e+002, 1.584814e+001
8.568914e+002, 1.588060e+001
8.573735e+002, 1.586064e+001
8.578557e+002, 1.578314e+001
8.583378e+002, 1.570221e+001
8.588199e+002, 1.560890e+001
8.593020e+002, 1.556544e+001
8.597841e+002, 1.574583e+001
8.602662e+002, 1.603595e+001
8.607484e+002, 1.618992e+001
8.612305e+002, 1.600320e+001
8.617126e+002, 1.584759e+001
8.621947e+002, 1.595317e+001
8.626768e+002, 1.612920e+001
8.631589e+002, 1.608062e+001
8.636411e+002, 1.564326e+001
8.641232e+002, 1.547832e+001
8.646053e+002, 1.571325e+001
8.650874e+002, 1.606908e+001
8.655695e+002, 1.621300e+001
8.660516e+002, 1.617533e+001
8.665338e+002, 1.602274e+001
8.670159e+002, 1.573501e+001
8.674980e+002, 1.549736e+001
8.679801e+002, 1.546866e+001
8.684622e+002, 1.553618e+001
8.689443e+002, 1.559966e+001
8.694265e+002, 1.568424e+001
8.699086e+002, 1.564733e+001
8.703907e+002, 1.540378e+001
8.708728e+002, 1.517317e+001
8.713549e+002, 1.516649e+001
8.718370e+002, 1.536155e+001
8.723192e+002, 1.550444e+001
8.728013e+002, 1.558778e+001
8.732834e+002, 1.560289e+001
8.737655e+002, 1.546614e+001
8.742476e+002, 1.530768e+001
8.747297e+002, 1.530080e+001
8.752119e+002, 1.546639e+001
8.756940e+002, 1.550874e+001
8.761761e+002, 1.513826e+001
8.766582e+002, 1.486501e+001
8.771403e+002, 1.493998e+001
8.776224e+002, 1.532739e+001
8.781046e+002, 1.553139e+001
8.785867e+002, 1.554615e+001
8.790688e+002, 1.550148e+001
8.795509e+002, 1.542640e+001
8.800330e+002, 1.536661e+001
8.805151e+002, 1.542677e+001
8.809973e+002, 1.556962e+001
8.814794e+002, 1.565144e+001
8.819615e+002, 1.549485e+001
8.824436e+002, 1.539444e+001
8.829257e+002, 1.553416e+001
8.834078e+002, 1.580430e+001
8.838900e+002, 1.586352e+001
8.843721e+002, 1.565033e+001
8.848542e+002, 1.556666e+001
8.853363e+002, 1.578056e+001
8.858184e+002, 1.609743e+001
8.863005e+002, 1.614089e+001
8.867827e+002, 1.601193e+001
8.872648e+002, 1.597063e+001
8.877469e+002, 1.616342e+001
8.882290e+002, 1.638346e+001
8.887111e+002, 1.661156e+001
8.891932e+002, 1.678238e+001
8.896754e+002, 1.679003e+001
8.901575e+002, 1.653546e+001
8.906396e+002, 1.638792e+001
8.911217e+002, 1.639806e+001
8.916038e+002, 1.647090e+001
8.920859e+002, 1.651366e+001
8.925681e+002, 1.652200e+001
8.930502e+002, 1.644978e+001
8.935323e+002, 1.626893e+001
8.940144e+002, 1.616993e+001
8.944965e+002, 1.639266e+001
8.949786e+002, 1.668452e+001
8.954608e+002, 1.681886e+001
8.959429e+002, 1.671125e+001
8.964250e+002, 1.666296e+001
8.969071e+002, 1.667761e+001
8.973892e+002, 1.674500e+001
8.978713e+002, 1.689166e+001
8.983535e+002, 1.709426e+001
8.988356e+002, 1.721039e+001
8.993177e+002, 1.724095e+001
8.997998e+002, 1.721485e+001
9.002819e+002, 1.709926e+001
9.007640e+002, 1.697786e+001
9.012462e+002, 1.689601e+001
9.017283e+002, 1.686064e+001
9.022104e+002, 1.690298e+001
9.026925e+002, 1.705363e+001
9.031746e+002, 1.723217e+001
9.036567e+002, 1.743873e+001
9.041389e+002, 1.764462e+001
9.046210e+002, 1.776648e+001
9.051031e+002, 1.780585e+001
9.055852e+002, 1.777335e+001
9.060673e+002, 1.758685e+001
9.065494e+002, 1.745046e+001
9.070316e+002, 1.761106e+001
9.075137e+002, 1.793854e+001
9.079958e+002, 1.820608e+001
9.084779e+002, 1.834497e+001
9.089600e+002, 1.842043e+001
9.094421e+002, 1.837825e+001
9.099243e+002, 1.834121e+001
9.104064e+002, 1.852191e+001
9.108885e+002, 1.890291e+001
9.113706e+002, 1.917035e+001
9.118527e+002, 1.926832e+001
9.123348e+002, 1.931137e+001
9.128170e+002, 1.934748e+001
9.132991e+002, 1.942352e+001
9.137812e+002, 1.962136e+001
9.142633e+002, 2.000776e+001
9.147454e+002, 2.027949e+001
9.152275e+002, 2.027946e+001
9.157097e+002, 2.028980e+001
9.161918e+002, 2.049245e+001
9.166739e+002, 2.088357e+001
9.171560e+002, 2.119881e+001
9.176381e+002, 2.143508e+001
9.181202e+002, 2.167138e+001
9.186024e+002, 2.196540e+001
9.190845e+002, 2.228512e+001
9.195666e+002, 2.264938e+001
9.200487e+002, 2.302510e+001
9.205308e+002, 2.325733e+001
9.210129e+002, 2.304554e+001
9.214951e+002, 2.300036e+001
9.219772e+002, 2.334890e+001
9.224593e+002, 2.393767e+001
9.229414e+002, 2.431330e+001
9.234235e+002, 2.447523e+001
9.239056e+002, 2.455393e+001
9.243878e+002, 2.456701e+001
9.248699e+002, 2.456241e+001
9.253520e+002, 2.459039e+001
9.258341e+002, 2.463967e+001
9.263162e+002, 2.469133e+001
9.267983e+002, 2.469153e+001
9.272805e+002, 2.477772e+001
9.277626e+002, 2.505689e+001
9.282447e+002, 2.533288e+001
9.287268e+002, 2.536012e+001
9.292089e+002, 2.513665e+001
9.296910e+002, 2.507258e+001
9.301732e+002, 2.520903e+001
9.306553e+002, 2.536813e+001
9.311374e+002, 2.535302e+001
9.316195e+002, 2.529288e+001
9.321016e+002, 2.537366e+001
9.325837e+002, 2.562405e+001
9.330659e+002, 2.574124e+001
9.335480e+002, 2.549807e+001
9.340301e+002, 2.529784e+001
9.345122e+002, 2.534463e+001
9.349943e+002, 2.557688e+001
9.354764e+002, 2.552966e+001
9.359586e+002, 2.521010e+001
9.364407e+002, 2.493378e+001
9.369228e+002, 2.490959e+001
9.374049e+002, 2.495239e+001
9.378870e+002, 2.486078e+001
9.383691e+002, 2.468646e+001
9.388513e+002, 2.455123e+001
9.393334e+002, 2.458182e+001
9.398155e+002, 2.452076e+001
9.402976e+002, 2.430567e+001
9.407797e+002, 2.401838e+001
9.412618e+002, 2.380894e+001
9.417440e+002, 2.366656e+001
9.422261e+002, 2.340651e+001
9.427082e+002, 2.296506e+001
9.431903e+002, 2.257419e+001
9.436724e+002, 2.251532e+001
9.441545e+002, 2.259212e+001
9.446367e+002, 2.261445e+001
9.451188e+002, 2.255664e+001
9.456009e+002, 2.240665e+001
9.460830e+002, 2.210864e+001
9.465651e+002, 2.181170e+001
9.470472e+002, 2.161087e+001
9.475294e+002, 2.149047e+001
9.480115e+002, 2.135502e+001
9.484936e+002, 2.120226e+001
9.489757e+002, 2.101189e+001
9.494578e+002, 2.071242e+001
9.499399e+002, 2.042246e+001
9.504221e+002, 2.028277e+001
9.509042e+002, 2.023940e+001
9.513863e+002, 2.006927e+001
9.518684e+002, 1.963594e+001
9.523505e+002, 1.930335e+001
9.528326e+002, 1.917041e+001
9.533148e+002, 1.912600e+001
9.537969e+002, 1.892400e+001
9.542790e+002, 1.861715e+001
9.547611e+002, 1.845346e+001
9.552432e+002, 1.853734e+001
9.557253e+002, 1.862156e+001
9.562075e+002, 1.857274e+001
9.566896e+002, 1.841043e+001
9.571717e+002, 1.812136e+001
9.576538e+002, 1.760906e+001
9.581359e+002, 1.730407e+001
9.586180e+002, 1.726073e+001
9.591002e+002, 1.728637e+001
9.595823e+002, 1.722512e+001
9.600644e+002, 1.712119e+001
9.605465e+002, 1.714193e+001
9.610286e+002, 1.727004e+001
9.615107e+002, 1.735265e+001
9.619929e+002, 1.732303e+001
9.624750e+002, 1.720628e+001
9.629571e+002, 1.693894e+001
9.634392e+002, 1.659109e+001
9.639213e+002, 1.639683e+001
9.644034e+002, 1.637264e+001
9.648856e+002, 1.646541e+001
9.653677e+002, 1.671395e+001
9.658498e+002, 1.696676e+001
9.663319e+002, 1.695879e+001
9.668140e+002, 1.677786e+001
9.672961e+002, 1.659432e+001
9.677783e+002, 1.642419e+001
9.682604e+002, 1.633285e+001
9.687425e+002, 1.635337e+001
9.692246e+002, 1.645978e+001
9.697067e+002, 1.666309e+001
9.701888e+002, 1.699705e+001
9.706710e+002, 1.712774e+001
9.711531e+002, 1.703390e+001
9.716352e+002, 1.692928e+001
9.721173e+002, 1.700797e+001
9.725994e+002, 1.715392e+001
9.730815e+002, 1.718435e+001
9.735637e+002, 1.712550e+001
9.740458e+002, 1.715973e+001
9.745279e+002, 1.743189e+001
9.750100e+002, 1.770411e+001
9.754921e+002, 1.791881e+001
9.759742e+002, 1.809596e+001
9.764564e+002, 1.826539e+001
9.769385e+002, 1.843269e+001
9.774206e+002, 1.869777e+001
9.779027e+002, 1.912821e+001
9.783848e+002, 1.952496e+001
9.788669e+002, 1.965183e+001
9.793491e+002, 1.965974e+001
9.798312e+002, 1.972172e+001
9.803133e+002, 1.985537e+001
9.807954e+002, 2.009401e+001
9.812775e+002, 2.045673e+001
9.817596e+002, 2.089324e+001
9.822418e+002, 2.141861e+001
9.827239e+002, 2.199908e+001
9.832060e+002, 2.240358e+001
9.836881e+002, 2.265754e+001
9.841702e+002, 2.299484e+001
9.846523e+002, 2.362312e+001
9.851345e+002, 2.431553e+001
9.856166e+002, 2.496697e+001
9.860987e+002, 2.557352e+001
9.865808e+002, 2.612435e+001
9.870629e+002, 2.654220e+001
9.875450e+002, 2.716967e+001
9.880272e+002, 2.811796e+001
9.885093e+002, 2.919840e+001
9.889914e+002, 3.011438e+001
9.894735e+002, 3.093978e+001
9.899556e+002, 3.180060e+001
9.904377e+002, 3.270537e+001
9.909199e+002, 3.373100e+001
9.914020e+002, 3.505079e+001
9.918841e+002, 3.638107e+001
9.923662e+002, 3.749155e+001
9.928483e+002, 3.835027e+001
9.933304e+002, 3.952889e+001
9.938126e+002, 4.104137e+001
9.942947e+002, 4.263264e+001
9.947768e+002, 4.428570e+001
9.952589e+002, 4.582472e+001
9.957410e+002, 4.691215e+001
9.962231e+002, 4.771711e+001
9.967053e+002, 4.876172e+001
9.971874e+002, 5.037093e+001
9.976695e+002, 5.199765e+001
9.981516e+002, 5.363417e+001
9.986337e+002, 5.517682e+001
9.991158e+002, 5.639588e+001
9.995980e+002, 5.736860e+001
1.000080e+003, 5.860889e+001
1.000562e+003, 6.024536e+001
1.001044e+003, 6.182573e+001
1.001526e+003, 6.304889e+001
1.002009e+003, 6.405952e+001
1.002491e+003, 6.494418e+001
1.002973e+003, 6.571326e+001
1.003455e+003, 6.641561e+001
1.003937e+003, 6.705609e+001
1.004419e+003, 6.761647e+001
1.004901e+003, 6.809915e+001
1.005383e+003, 6.849333e+001
1.005865e+003, 6.880227e+001
1.006348e+003, 6.901055e+001
1.006830e+003, 6.908279e+001
1.007312e+003, 6.895938e+001
1.007794e+003, 6.874812e+001
1.008276e+003, 6.839513e+001
1.008758e+003, 6.802138e+001
1.009240e+003, 6.775665e+001
1.009722e+003, 6.761237e+001
1.010205e+003, 6.746227e+001
1.010687e+003, 6.729295e+001
1.011169e+003, 6.715230e+001
1.011651e+003, 6.718383e+001
1.012133e+003, 6.719624e+001
1.012615e+003, 6.690023e+001
1.013097e+003, 6.630526e+001
1.013579e+003, 6.593201e+001
1.014061e+003, 6.608905e+001
1.014544e+003, 6.609823e+001
1.015026e+003, 6.574580e+001
1.015508e+003, 6.514297e+001
1.015990e+003, 6.449199e+001
1.016472e+003, 6.381504e+001
1.016954e+003, 6.319659e+001
1.017436e+003, 6.263405e+001
1.017918e+003, 6.219240e+001
1.018401e+003, 6.218012e+001
1.018883e+003, 6.213321e+001
1.019365e+003, 6.151276e+001
1.019847e+003, 6.011461e+001
1.020329e+003, 5.916096e+001
1.020811e+003, 5.870708e+001
1.021293e+003, 5.839728e+001
1.021775e+003, 5.808048e+001
1.022257e+003, 5.768862e+001
1.022740e+003, 5.698675e+001
1.023222e+003, 5.608540e+001
1.023704e+003, 5.540498e+001
1.024186e+003, 5.547152e+001
1.024668e+003, 5.527839e+001
1.025150e+003, 5.455288e+001
1.025632e+003, 5.353499e+001
1.026114e+003, 5.259015e+001
1.026596e+003, 5.172430e+001
1.027079e+003, 5.084742e+001
1.027561e+003, 4.994159e+001
1.028043e+003, 4.906345e+001
1.028525e+003, 4.827739e+001
1.029007e+003, 4.752310e+001
1.029489e+003, 4.680163e+001
1.029971e+003, 4.612130e+001
1.030453e+003, 4.517450e+001
1.030936e+003, 4.385161e+001
1.031418e+003, 4.261852e+001
1.031900e+003, 4.166690e+001
1.032382e+003, 4.091378e+001
1.032864e+003, 4.032156e+001
1.033346e+003, 3.979311e+001
1.033828e+003, 3.910606e+001
1.034310e+003, 3.803918e+001
1.034792e+003, 3.702700e+001
1.035275e+003, 3.615859e+001
1.035757e+003, 3.540094e+001
1.036239e+003, 3.474740e+001
1.036721e+003, 3.420316e+001
1.037203e+003, 3.362005e+001
1.037685e+003, 3.300269e+001
1.038167e+003, 3.228452e+001
1.038649e+003, 3.128666e+001
1.039132e+003, 3.028342e+001
1.039614e+003, 2.947725e+001
1.040096e+003, 2.886029e+001
1.040578e+003, 2.832134e+001
1.041060e+003, 2.789835e+001
1.041542e+003, 2.739538e+001
1.042024e+003, 2.672605e+001
1.042506e+003, 2.605254e+001
1.042989e+003, 2.567025e+001
1.043471e+003, 2.544576e+001
1.043953e+003, 2.506955e+001
1.044435e+003, 2.443883e+001
1.044917e+003, 2.389423e+001
1.045399e+003, 2.363684e+001
1.045881e+003, 2.342559e+001
1.046363e+003, 2.314569e+001
1.046845e+003, 2.280745e+001
1.047328e+003, 2.249987e+001
1.047810e+003, 2.221666e+001
1.048292e+003, 2.191149e+001
1.048774e+003, 2.154866e+001
1.049256e+003, 2.117192e+001
1.049738e+003, 2.080585e+001
1.050220e+003, 2.044953e+001
1.050702e+003, 2.009341e+001
1.051184e+003, 1.968097e+001
1.051667e+003, 1.942191e+001
1.052149e+003, 1.936663e+001
1.052631e+003, 1.931137e+001
1.053113e+003, 1.902966e+001
1.053595e+003, 1.863654e+001
1.054077e+003, 1.835034e+001
1.054559e+003, 1.817074e+001
1.055041e+003, 1.802184e+001
1.055523e+003, 1.794584e+001
1.056006e+003, 1.779808e+001
1.056488e+003, 1.749123e+001
1.056970e+003, 1.713221e+001
1.057452e+003, 1.699903e+001
1.057934e+003, 1.705166e+001
1.058416e+003, 1.687132e+001
1.058898e+003, 1.633559e+001
1.059380e+003, 1.583614e+001
1.059863e+003, 1.577892e+001
1.060345e+003, 1.583682e+001
1.060827e+003, 1.570776e+001
1.061309e+003, 1.536760e+001
1.061791e+003, 1.521191e+001
1.062273e+003, 1.528870e+001
1.062755e+003, 1.531760e+001
1.063237e+003, 1.514794e+001
1.063719e+003, 1.490044e+001
1.064202e+003, 1.475623e+001
1.064684e+003, 1.467384e+001
1.065166e+003, 1.457172e+001
1.065648e+003, 1.438288e+001
1.066130e+003, 1.425429e+001
1.066612e+003, 1.421439e+001
1.067094e+003, 1.421232e+001
1.067576e+003, 1.423864e+001
1.068059e+003, 1.427299e+001
1.068541e+003, 1.414120e+001
1.069023e+003, 1.387053e+001
1.069505e+003, 1.369798e+001
1.069987e+003, 1.395946e+001
1.070469e+003, 1.415063e+001
1.070951e+003, 1.386943e+001
1.071433e+003, 1.338287e+001
1.071916e+003, 1.322177e+001
1.072398e+003, 1.343666e+001
1.072880e+003, 1.353419e+001
1.073362e+003, 1.344092e+001
1.073844e+003, 1.327050e+001
1.074326e+003, 1.307585e+001
1.074808e+003, 1.290652e+001
1.075290e+003, 1.281896e+001
1.075772e+003, 1.281966e+001
1.076255e+003, 1.286377e+001
1.076737e+003, 1.299084e+001
1.077219e+003, 1.304721e+001
1.077701e+003, 1.295259e+001
1.078183e+003, 1.280395e+001
1.078665e+003, 1.281981e+001
1.079147e+003, 1.292822e+001
1.079629e+003, 1.293968e+001
1.080111e+003, 1.273070e+001
1.080594e+003, 1.264403e+001
1.081076e+003, 1.301759e+001
1.081558e+003, 1.333365e+001
1.082040e+003, 1.323557e+001
1.082522e+003, 1.277965e+001
1.083004e+003, 1.257033e+001
1.083486e+003, 1.258375e+001
1.083968e+003, 1.260863e+001
1.084450e+003, 1.251350e+001
1.084933e+003, 1.241008e+001
1.085415e+003, 1.233051e+001
1.085897e+003, 1.230689e+001
1.086379e+003, 1.240180e+001
1.086861e+003, 1.267641e+001
1.087343e+003, 1.282238e+001
1.087825e+003, 1.282189e+001
1.088307e+003, 1.272255e+001
1.088790e+003, 1.246207e+001
1.089272e+003, 1.219688e+001
1.089754e+003, 1.218063e+001
1.090236e+003, 1.235913e+001
1.090718e+003, 1.237787e+001
1.091200e+003, 1.200615e+001
1.091682e+003, 1.178234e+001
1.092164e+003, 1.182780e+001
1.092646e+003, 1.200236e+001
1.093129e+003, 1.212490e+001
1.093611e+003, 1.220033e+001
1.094093e+003, 1.223056e+001
1.094575e+003, 1.221186e+001
1.095057e+003, 1.221322e+001
1.095539e+003, 1.231870e+001
1.096021e+003, 1.238890e+001
1.096503e+003, 1.234407e+001
1.096986e+003, 1.222516e+001
1.097468e+003, 1.221360e+001
1.097950e+003, 1.229007e+001
1.098432e+003, 1.228156e+001
1.098914e+003, 1.210042e+001
1.099396e+003, 1.190916e+001
1.099878e+003, 1.177438e+001
1.100360e+003, 1.172341e+001
1.100843e+003, 1.179462e+001
1.101325e+003, 1.199621e+001
1.101807e+003, 1.224910e+001
1.102289e+003, 1.257817e+001
1.102771e+003, 1.270473e+001
1.103253e+003, 1.228993e+001
1.103735e+003, 1.176719e+001
1.104217e+003, 1.166428e+001
1.104699e+003, 1.182985e+001
1.105182e+003, 1.197890e+001
1.105664e+003, 1.202690e+001
1.106146e+003, 1.212266e+001
1.106628e+003, 1.230342e+001
1.107110e+003, 1.244288e+001
1.107592e+003, 1.241868e+001
1.108074e+003, 1.227698e+001
1.108556e+003, 1.207228e+001
1.109038e+003, 1.182811e+001
1.109521e+003, 1.164346e+001
1.110003e+003, 1.155069e+001
1.110485e+003, 1.153892e+001
1.110967e+003, 1.164252e+001
1.111449e+003, 1.177377e+001
1.111931e+003, 1.179674e+001
1.112413e+003, 1.172993e+001
1.112895e+003, 1.164413e+001
1.113377e+003, 1.154644e+001
1.113860e+003, 1.147837e+001
1.114342e+003, 1.143427e+001
1.114824e+003, 1.146360e+001
1.115306e+003, 1.166556e+001
1.115788e+003, 1.194531e+001
1.116270e+003, 1.195699e+001
1.116752e+003, 1.170590e+001
1.117234e+003, 1.146844e+001
1.117717e+003, 1.130303e+001
1.118199e+003, 1.121542e+001
1.118681e+003, 1.128865e+001
1.119163e+003, 1.138784e+001
1.119645e+003, 1.134785e+001
1.120127e+003, 1.115201e+001
1.120609e+003, 1.116921e+001
1.121091e+003, 1.145491e+001
1.121573e+003, 1.158119e+001
1.122056e+003, 1.124951e+001
1.122538e+003, 1.085913e+001
1.123020e+003, 1.102343e+001
1.123502e+003, 1.143894e+001
1.123984e+003, 1.161998e+001
1.124466e+003, 1.130033e+001
1.124948e+003, 1.112996e+001
1.125430e+003, 1.116130e+001
1.125913e+003, 1.122886e+001
1.126395e+003, 1.124100e+001
1.126877e+003, 1.120260e+001
1.127359e+003, 1.110330e+001
1.127841e+003, 1.096327e+001
1.128323e+003, 1.083931e+001
1.128805e+003, 1.069411e+001
1.129287e+003, 1.066744e+001
1.129770e+003, 1.085560e+001
1.130252e+003, 1.103928e+001
1.130734e+003, 1.097424e+001
1.131216e+003, 1.072204e+001
1.131698e+003, 1.048704e+001
1.132180e+003, 1.029055e+001
1.132662e+003, 1.022088e+001
1.133144e+003, 1.049188e+001
1.133626e+003, 1.069773e+001
1.134109e+003, 1.067076e+001
1.134591e+003, 1.051789e+001
1.135073e+003, 1.038580e+001
1.135555e+003, 1.027417e+001
1.136037e+003, 1.014900e+001
1.136519e+003, 1.000427e+001
1.137001e+003, 9.930971e+000
1.137483e+003, 1.009313e+001
1.137965e+003, 1.025365e+001
1.138448e+003, 1.022756e+001
1.138930e+003, 1.007972e+001
1.139412e+003, 1.002407e+001
1.139894e+003, 1.006819e+001
1.140376e+003, 1.003396e+001
1.140858e+003, 9.870965e+000
1.141340e+003, 9.695193e+000
1.141822e+003, 9.617630e+000
1.142304e+003, 9.574686e+000
1.142787e+003, 9.501773e+000
1.143269e+003, 9.395903e+000
1.143751e+003, 9.331129e+000
1.144233e+003, 9.319287e+000
1.144715e+003, 9.276317e+000
1.145197e+003, 9.151272e+000
1.145679e+003, 9.037667e+000
1.146161e+003, 9.073847e+000
1.146644e+003, 9.188296e+000
1.147126e+003, 9.299042e+000
1.147608e+003, 9.404109e+000
1.148090e+003, 9.433263e+000
1.148572e+003, 9.368376e+000
1.149054e+003, 9.278706e+000
1.149536e+003, 9.168929e+000
1.150018e+003, 9.088458e+000
1.150500e+003, 9.199251e+000
1.150983e+003, 9.388156e+000
1.151465e+003, 9.421876e+000
1.151947e+003, 9.122362e+000
1.152429e+003, 8.901761e+000
1.152911e+003, 8.794667e+000
1.153393e+003, 8.755044e+000
1.153875e+003, 8.780058e+000
1.154357e+003, 8.837912e+000
1.154840e+003, 8.813246e+000
1.155322e+003, 8.743479e+000
1.155804e+003, 8.748407e+000
1.156286e+003, 9.063432e+000
1.156768e+003, 9.168514e+000
1.157250e+003, 8.885263e+000
1.157732e+003, 8.547588e+000
1.158214e+003, 8.484388e+000
1.158697e+003, 8.632337e+000
1.159179e+003, 8.739111e+000
1.159661e+003, 8.799290e+000
1.160143e+003, 8.825474e+000
1.160625e+003, 8.786990e+000
1.161107e+003, 8.764495e+000
1.161589e+003, 8.817998e+000
1.162071e+003, 8.864225e+000
1.162553e+003, 8.757431e+000
1.163036e+003, 8.531589e+000
1.163518e+003, 8.435968e+000
1.164000e+003, 8.482671e+000
1.164482e+003, 8.566573e+000
1.164964e+003, 8.688842e+000
1.165446e+003, 8.760464e+000
1.165928e+003, 8.726047e+000
1.166410e+003, 8.621817e+000
1.166892e+003, 8.473370e+000
1.167375e+003, 8.290701e+000
1.167857e+003, 8.270532e+000
1.168339e+003, 8.445889e+000
1.168821e+003, 8.596242e+000
1.169303e+003, 8.509501e+000
1.169785e+003, 8.395690e+000
1.170267e+003, 8.404520e+000
1.170749e+003, 8.492583e+000
1.171231e+003, 8.542020e+000
1.171714e+003, 8.553105e+000
1.172196e+003, 8.513089e+000
1.172678e+003, 8.404856e+000
1.173160e+003, 8.342092e+000
1.173642e+003, 8.491655e+000
1.174124e+003, 8.669619e+000
1.174606e+003, 8.691945e+000
1.175088e+003, 8.594799e+000
1.175571e+003, 8.629221e+000
1.176053e+003, 8.805340e+000
1.176535e+003, 8.912955e+000
1.177017e+003, 8.884180e+000
1.177499e+003, 8.801764e+000
1.177981e+003, 8.751168e+000
1.178463e+003, 8.682941e+000
1.178945e+003, 8.520991e+000
1.179427e+003, 8.264865e+000
1.179910e+003, 8.085722e+000
1.180392e+003, 7.978156e+000
1.180874e+003, 8.003056e+000
1.181356e+003, 8.228559e+000
1.181838e+003, 8.488966e+000
1.182320e+003, 8.689816e+000
1.182802e+003, 8.777996e+000
1.183284e+003, 8.633389e+000
1.183767e+003, 8.197741e+000
1.184249e+003, 7.990178e+000
1.184731e+003, 8.035684e+000
1.185213e+003, 8.133623e+000
1.185695e+003, 8.215498e+000
1.186177e+003, 8.262364e+000
1.186659e+003, 8.223315e+000
1.187141e+003, 8.147249e+000
1.187624e+003, 8.105646e+000
1.188106e+003, 8.114957e+000
1.188588e+003, 8.126927e+000
1.189070e+003, 8.138062e+000
1.189552e+003, 8.173738e+000
1.190034e+003, 8.283403e+000
1.190516e+003, 8.388014e+000
1.190998e+003, 8.351438e+000
1.191480e+003, 8.251401e+000
1.191963e+003, 8.228570e+000
1.192445e+003, 8.367563e+000
1.192927e+003, 8.410563e+000
1.193409e+003, 8.339312e+000
1.193891e+003, 8.254958e+000
1.194373e+003, 8.218487e+000
1.194855e+003, 8.214851e+000
1.195337e+003, 8.230484e+000
1.195819e+003, 8.262473e+000
1.196302e+003, 8.308546e+000
1.196784e+003, 8.411558e+000
1.197266e+003, 8.408022e+000
1.197748e+003, 8.263426e+000
1.198230e+003, 8.146633e+000
1.198712e+003, 8.254998e+000
1.199194e+003, 8.427835e+000
1.199676e+003, 8.434220e+000
1.200158e+003, 8.324969e+000
1.200641e+003, 8.247575e+000
1.201123e+003, 8.255575e+000
1.201605e+003, 8.223028e+000
1.202087e+003, 8.135091e+000
1.202569e+003, 8.040228e+000
1.203051e+003, 7.943934e+000
1.203533e+003, 7.894202e+000
1.204015e+003, 7.990041e+000
1.204498e+003, 8.190883e+000
1.204980e+003, 8.351744e+000
1.205462e+003, 8.447276e+000
1.205944e+003, 8.509273e+000
1.206426e+003, 8.531129e+000
1.206908e+003, 8.558501e+000
1.207390e+003, 8.719720e+000
1.207872e+003, 8.856699e+000
1.208354e+003, 8.668896e+000
1.208837e+003, 8.245669e+000
1.209319e+003, 8.059869e+000
1.209801e+003, 8.273447e+000
1.210283e+003, 8.417398e+000
1.210765e+003, 8.429869e+000
1.211247e+003, 8.391841e+000
1.211729e+003, 8.376766e+000
1.212211e+003, 8.369938e+000
1.212694e+003, 8.355596e+000
1.213176e+003, 8.332568e+000
1.213658e+003, 8.299586e+000
1.214140e+003, 8.249979e+000
1.214622e+003, 8.203342e+000
1.215104e+003, 8.152002e+000
1.215586e+003, 8.149409e+000
1.216068e+003, 8.240551e+000
1.216551e+003, 8.422969e+000
1.217033e+003, 8.826334e+000
1.217515e+003, 9.373851e+000
1.217997e+003, 9.444839e+000
1.218479e+003, 8.833188e+000
1.218961e+003, 8.399649e+000
1.219443e+003, 8.308905e+000
1.219925e+003, 8.336080e+000
1.220407e+003, 8.223205e+000
1.220890e+003, 8.090281e+000
1.221372e+003, 8.076442e+000
1.221854e+003, 8.185800e+000
1.222336e+003, 8.311459e+000
1.222818e+003, 8.432340e+000
1.223300e+003, 8.680627e+000
1.223782e+003, 9.142386e+000
1.224264e+003, 9.460478e+000
1.224746e+003, 9.056760e+000
1.225229e+003, 8.436139e+000
1.225711e+003, 8.067624e+000
1.226193e+003, 8.006753e+000
1.226675e+003, 8.233751e+000
1.227157e+003, 8.870057e+000
1.227639e+003, 9.060488e+000
1.228121e+003, 8.536351e+000
1.228603e+003, 7.946301e+000
1.229085e+003, 8.020082e+000
1.229568e+003, 8.332763e+000
1.230050e+003, 8.525664e+000
1.230532e+003, 8.567834e+000
1.231014e+003, 8.468799e+000
1.231496e+003, 8.196145e+000
1.231978e+003, 8.084122e+000
1.232460e+003, 8.236342e+000
1.232942e+003, 8.428467e+000
1.233425e+003, 8.405254e+000
1.233907e+003, 8.356934e+000
1.234389e+003, 8.519829e+000
1.234871e+003, 8.835177e+000
1.235353e+003, 8.857298e+000
1.235835e+003, 8.568725e+000
1.236317e+003, 8.416409e+000
1.236799e+003, 8.539547e+000
1.237281e+003, 8.643726e+000
1.237764e+003, 8.378590e+000
1.238246e+003, 8.079076e+000
1.238728e+003, 8.054667e+000
1.239210e+003, 8.233197e+000
1.239692e+003, 8.307966e+000
1.240174e+003, 8.282407e+000
1.240656e+003, 8.270822e+000
1.241138e+003, 8.297002e+000
1.241621e+003, 8.360406e+000
1.242103e+003, 8.576639e+000
1.242585e+003, 8.710412e+000
1.243067e+003, 8.541322e+000
1.243549e+003, 8.183189e+000
1.244031e+003, 8.053837e+000
1.244513e+003, 8.129566e+000
1.244995e+003, 8.246777e+000
1.245478e+003, 8.381235e+000
1.245960e+003, 8.467862e+000
1.246442e+003, 8.425889e+000
1.246924e+003, 8.369217e+000
1.247406e+003, 8.369523e+000
1.247888e+003, 8.398376e+000
1.248370e+003, 8.348590e+000
1.248852e+003, 8.246358e+000
1.249334e+003, 8.213726e+000
1.249817e+003, 8.290924e+000
1.250299e+003, 8.351357e+000
1.250781e+003, 8.279667e+000
1.251263e+003, 8.247351e+000
1.251745e+003, 8.337307e+000
1.252227e+003, 8.496369e+000
1.252709e+003, 8.625647e+000
1.253191e+003, 8.712548e+000
1.253673e+003, 8.717224e+000
1.254156e+003, 8.626199e+000
1.254638e+003, 8.490823e+000
1.255120e+003, 8.208684e+000
1.255602e+003, 8.074886e+000
1.256084e+003, 8.237958e+000
1.256566e+003, 8.536831e+000
1.257048e+003, 8.681457e+000
1.257530e+003, 8.707023e+000
1.258012e+003, 8.668920e+000
1.258495e+003, 8.570022e+000
1.258977e+003, 8.482167e+000
1.259459e+003, 8.400060e+000
1.259941e+003, 8.364612e+000
1.260423e+003, 8.391813e+000
1.260905e+003, 8.465857e+000
1.261387e+003, 8.604590e+000
1.261869e+003, 8.751994e+000
1.262352e+003, 8.834042e+000
1.262834e+003, 8.837055e+000
1.263316e+003, 8.745189e+000
1.263798e+003, 8.511085e+000
1.264280e+003, 8.369928e+000
1.264762e+003, 8.408003e+000
1.265244e+003, 8.513591e+000
1.265726e+003, 8.591830e+000
1.266208e+003, 8.635086e+000
1.266691e+003, 8.624095e+000
1.267173e+003, 8.558021e+000
1.267655e+003, 8.491575e+000
1.268137e+003, 8.416162e+000
1.268619e+003, 8.424018e+000
1.269101e+003, 8.562319e+000
1.269583e+003, 8.686921e+000
1.270065e+003, 8.633239e+000
1.270548e+003, 8.527810e+000
1.271030e+003, 8.460072e+000
1.271512e+003, 8.439861e+000
1.271994e+003, 8.546177e+000
1.272476e+003, 8.773438e+000
1.272958e+003, 8.859862e+000
1.273440e+003, 8.726905e+000
1.273922e+003, 8.604239e+000
1.274405e+003, 8.696671e+000
1.274887e+003, 8.811320e+000
1.275369e+003, 8.842197e+000
1.275851e+003, 8.804540e+000
1.276333e+003, 8.700671e+000
1.276815e+003, 8.559875e+000
1.277297e+003, 8.553209e+000
1.277779e+003, 8.721207e+000
1.278261e+003, 8.881304e+000
1.278744e+003, 8.944645e+000
1.279226e+003, 8.969260e+000
1.279708e+003, 8.970492e+000
1.280190e+003, 8.956503e+000
1.280672e+003, 8.921692e+000
1.281154e+003, 8.888886e+000
1.281636e+003, 8.932070e+000
1.282118e+003, 9.061422e+000
1.282600e+003, 9.164877e+000
1.283083e+003, 9.233350e+000
1.283565e+003, 9.219731e+000
1.284047e+003, 9.084604e+000
1.284529e+003, 8.929712e+000
1.285011e+003, 8.934580e+000
1.285493e+003, 8.997497e+000
1.285975e+003, 8.927244e+000
1.286457e+003, 8.724260e+000
1.286939e+003, 8.665510e+000
1.287422e+003, 8.813625e+000
1.287904e+003, 8.956995e+000
1.288386e+003, 9.062195e+000
1.288868e+003, 9.121881e+000
1.289350e+003, 9.066373e+000
1.289832e+003, 9.010062e+000
1.290314e+003, 9.139636e+000
1.290796e+003, 9.382152e+000
1.291279e+003, 9.327346e+000
1.291761e+003, 8.921293e+000
1.292243e+003, 8.849830e+000
1.292725e+003, 9.234241e+000
1.293207e+003, 9.544880e+000
1.293689e+003, 9.198809e+000
1.294171e+003, 8.792201e+000
1.294653e+003, 8.753284e+000
1.295135e+003, 8.918019e+000
1.295618e+003, 9.030391e+000
1.296100e+003, 9.095447e+000
1.296582e+003, 9.173158e+000
1.297064e+003, 9.266987e+000
1.297546e+003, 9.316148e+000
1.298028e+003, 9.233020e+000
1.298510e+003, 9.161304e+000
1.298992e+003, 9.139522e+000
1.299475e+003, 9.159705e+000
1.299957e+003, 9.244495e+000
1.300439e+003, 9.356701e+000
1.300921e+003, 9.374302e+000
1.301403e+003, 9.305318e+000
1.301885e+003, 9.239100e+000
##END=



