##NAMES=Enstatite
##RRUFFID=R120174
##IDEAL CHEMISTRY=MgSiO_3_
##LOCALITY=Nuestra Se√±ora del Carmen Mines, La Celia, Jumilla, Murcia, Spain
##OWNER=RRUFF
##SOURCE=Bob Jenkins
##DESCRIPTION=Transparent, pale greenish-brown bladed crystals associated with R120173 pseudobrookite
##STATUS=The identification of this mineral has been confirmed by single-crystal X-ray diffraction.
##URL=rruff.info/R120174
8.975323e+001, 0.000000e+000
9.023535e+001, 1.752474e+002
9.071747e+001, 1.767031e+002
9.119958e+001, 1.765537e+002
9.168170e+001, 1.765124e+002
9.216382e+001, 1.751633e+002
9.264594e+001, 1.729867e+002
9.312805e+001, 1.707704e+002
9.361017e+001, 1.687677e+002
9.409229e+001, 1.663648e+002
9.457440e+001, 1.630874e+002
9.505651e+001, 1.602070e+002
9.553863e+001, 1.580590e+002
9.602074e+001, 1.562287e+002
9.650286e+001, 1.543184e+002
9.698498e+001, 1.520535e+002
9.746709e+001, 1.493024e+002
9.794921e+001, 1.469475e+002
9.843133e+001, 1.450905e+002
9.891344e+001, 1.434043e+002
9.939556e+001, 1.418299e+002
9.987768e+001, 1.403229e+002
1.003598e+002, 1.387833e+002
1.008419e+002, 1.370186e+002
1.013240e+002, 1.352176e+002
1.018061e+002, 1.339871e+002
1.022883e+002, 1.336042e+002
1.027704e+002, 1.335692e+002
1.032525e+002, 1.334514e+002
1.037346e+002, 1.332276e+002
1.042167e+002, 1.330029e+002
1.046988e+002, 1.327440e+002
1.051810e+002, 1.325000e+002
1.056631e+002, 1.323786e+002
1.061452e+002, 1.324807e+002
1.066273e+002, 1.327461e+002
1.071094e+002, 1.329517e+002
1.075915e+002, 1.331844e+002
1.080737e+002, 1.332127e+002
1.085558e+002, 1.327187e+002
1.090379e+002, 1.319185e+002
1.095200e+002, 1.313192e+002
1.100021e+002, 1.313988e+002
1.104842e+002, 1.322650e+002
1.109664e+002, 1.332635e+002
1.114485e+002, 1.345748e+002
1.119306e+002, 1.358658e+002
1.124127e+002, 1.368443e+002
1.128948e+002, 1.375374e+002
1.133769e+002, 1.383072e+002
1.138591e+002, 1.396886e+002
1.143412e+002, 1.422691e+002
1.148233e+002, 1.444602e+002
1.153054e+002, 1.460034e+002
1.157875e+002, 1.473020e+002
1.162696e+002, 1.487003e+002
1.167517e+002, 1.503178e+002
1.172339e+002, 1.521491e+002
1.177160e+002, 1.542083e+002
1.181981e+002, 1.564829e+002
1.186802e+002, 1.589207e+002
1.191623e+002, 1.615248e+002
1.196444e+002, 1.642768e+002
1.201266e+002, 1.672157e+002
1.206087e+002, 1.705436e+002
1.210908e+002, 1.738750e+002
1.215729e+002, 1.765735e+002
1.220550e+002, 1.785526e+002
1.225371e+002, 1.800508e+002
1.230193e+002, 1.813191e+002
1.235014e+002, 1.824054e+002
1.239835e+002, 1.828846e+002
1.244656e+002, 1.822361e+002
1.249477e+002, 1.809648e+002
1.254298e+002, 1.794416e+002
1.259120e+002, 1.778398e+002
1.263941e+002, 1.760141e+002
1.268762e+002, 1.736063e+002
1.273583e+002, 1.702788e+002
1.278404e+002, 1.668773e+002
1.283225e+002, 1.635585e+002
1.288047e+002, 1.603430e+002
1.292868e+002, 1.572568e+002
1.297689e+002, 1.542996e+002
1.302510e+002, 1.514796e+002
1.307331e+002, 1.489300e+002
1.312152e+002, 1.467536e+002
1.316974e+002, 1.447527e+002
1.321795e+002, 1.428857e+002
1.326616e+002, 1.411608e+002
1.331437e+002, 1.396404e+002
1.336258e+002, 1.383970e+002
1.341079e+002, 1.374908e+002
1.345901e+002, 1.364372e+002
1.350722e+002, 1.350266e+002
1.355543e+002, 1.336610e+002
1.360364e+002, 1.325874e+002
1.365185e+002, 1.318228e+002
1.370006e+002, 1.312223e+002
1.374828e+002, 1.306800e+002
1.379649e+002, 1.302326e+002
1.384470e+002, 1.295750e+002
1.389291e+002, 1.285666e+002
1.394112e+002, 1.273865e+002
1.398933e+002, 1.261873e+002
1.403755e+002, 1.249736e+002
1.408576e+002, 1.238752e+002
1.413397e+002, 1.232243e+002
1.418218e+002, 1.229876e+002
1.423039e+002, 1.225204e+002
1.427860e+002, 1.212559e+002
1.432681e+002, 1.194763e+002
1.437503e+002, 1.182424e+002
1.442324e+002, 1.180782e+002
1.447145e+002, 1.182247e+002
1.451966e+002, 1.180706e+002
1.456787e+002, 1.176013e+002
1.461608e+002, 1.168363e+002
1.466430e+002, 1.156604e+002
1.471251e+002, 1.140107e+002
1.476072e+002, 1.125470e+002
1.480893e+002, 1.113668e+002
1.485714e+002, 1.104300e+002
1.490535e+002, 1.097833e+002
1.495357e+002, 1.094289e+002
1.500178e+002, 1.092481e+002
1.504999e+002, 1.091245e+002
1.509820e+002, 1.092277e+002
1.514641e+002, 1.089826e+002
1.519462e+002, 1.081316e+002
1.524284e+002, 1.071016e+002
1.529105e+002, 1.061821e+002
1.533926e+002, 1.054925e+002
1.538747e+002, 1.050032e+002
1.543568e+002, 1.046529e+002
1.548389e+002, 1.047416e+002
1.553211e+002, 1.046052e+002
1.558032e+002, 1.040074e+002
1.562853e+002, 1.032300e+002
1.567674e+002, 1.026246e+002
1.572495e+002, 1.023723e+002
1.577316e+002, 1.023831e+002
1.582138e+002, 1.022791e+002
1.586959e+002, 1.019867e+002
1.591780e+002, 1.016811e+002
1.596601e+002, 1.014228e+002
1.601422e+002, 1.011846e+002
1.606243e+002, 1.008963e+002
1.611065e+002, 1.005113e+002
1.615886e+002, 1.000491e+002
1.620707e+002, 9.961895e+001
1.625528e+002, 9.922563e+001
1.630349e+002, 9.885757e+001
1.635170e+002, 9.854340e+001
1.639991e+002, 9.827315e+001
1.644813e+002, 9.794776e+001
1.649634e+002, 9.746800e+001
1.654455e+002, 9.689571e+001
1.659276e+002, 9.637457e+001
1.664097e+002, 9.589158e+001
1.668918e+002, 9.548496e+001
1.673740e+002, 9.523867e+001
1.678561e+002, 9.519064e+001
1.683382e+002, 9.512398e+001
1.688203e+002, 9.491666e+001
1.693024e+002, 9.461597e+001
1.697845e+002, 9.424561e+001
1.702667e+002, 9.373633e+001
1.707488e+002, 9.320982e+001
1.712309e+002, 9.298990e+001
1.717130e+002, 9.328300e+001
1.721951e+002, 9.350840e+001
1.726772e+002, 9.349980e+001
1.731594e+002, 9.328602e+001
1.736415e+002, 9.286879e+001
1.741236e+002, 9.217408e+001
1.746057e+002, 9.128693e+001
1.750878e+002, 9.074574e+001
1.755699e+002, 9.087679e+001
1.760521e+002, 9.101882e+001
1.765342e+002, 9.104499e+001
1.770163e+002, 9.095330e+001
1.774984e+002, 9.074577e+001
1.779805e+002, 9.039551e+001
1.784626e+002, 8.989939e+001
1.789448e+002, 8.961825e+001
1.794269e+002, 8.976986e+001
1.799090e+002, 8.991995e+001
1.803911e+002, 8.996462e+001
1.808732e+002, 8.990095e+001
1.813553e+002, 8.975752e+001
1.818375e+002, 8.955019e+001
1.823196e+002, 8.926842e+001
1.828017e+002, 8.902390e+001
1.832838e+002, 8.885874e+001
1.837659e+002, 8.868400e+001
1.842480e+002, 8.838058e+001
1.847301e+002, 8.798972e+001
1.852123e+002, 8.773605e+001
1.856944e+002, 8.789379e+001
1.861765e+002, 8.855119e+001
1.866586e+002, 8.872317e+001
1.871407e+002, 8.807578e+001
1.876228e+002, 8.720351e+001
1.881050e+002, 8.648811e+001
1.885871e+002, 8.598066e+001
1.890692e+002, 8.560896e+001
1.895513e+002, 8.532792e+001
1.900334e+002, 8.514071e+001
1.905155e+002, 8.500386e+001
1.909977e+002, 8.506509e+001
1.914798e+002, 8.510655e+001
1.919619e+002, 8.480431e+001
1.924440e+002, 8.406087e+001
1.929261e+002, 8.329454e+001
1.934082e+002, 8.295747e+001
1.938904e+002, 8.293545e+001
1.943725e+002, 8.293938e+001
1.948546e+002, 8.291346e+001
1.953367e+002, 8.284963e+001
1.958188e+002, 8.274348e+001
1.963009e+002, 8.261718e+001
1.967831e+002, 8.239072e+001
1.972652e+002, 8.190273e+001
1.977473e+002, 8.125790e+001
1.982294e+002, 8.074358e+001
1.987115e+002, 8.058316e+001
1.991936e+002, 8.069224e+001
1.996758e+002, 8.070058e+001
2.001579e+002, 8.051695e+001
2.006400e+002, 8.034658e+001
2.011221e+002, 8.034122e+001
2.016042e+002, 8.043970e+001
2.020863e+002, 8.049027e+001
2.025685e+002, 8.037953e+001
2.030506e+002, 8.011532e+001
2.035327e+002, 7.982933e+001
2.040148e+002, 7.945776e+001
2.044969e+002, 7.913536e+001
2.049790e+002, 7.890541e+001
2.054612e+002, 7.876472e+001
2.059433e+002, 7.870158e+001
2.064254e+002, 7.873696e+001
2.069075e+002, 7.888194e+001
2.073896e+002, 7.890544e+001
2.078717e+002, 7.854604e+001
2.083539e+002, 7.829978e+001
2.088360e+002, 7.835813e+001
2.093181e+002, 7.867680e+001
2.098002e+002, 7.911600e+001
2.102823e+002, 7.958891e+001
2.107644e+002, 8.012886e+001
2.112466e+002, 8.037097e+001
2.117287e+002, 7.990405e+001
2.122108e+002, 7.954935e+001
2.126929e+002, 7.974509e+001
2.131750e+002, 8.038513e+001
2.136571e+002, 8.103392e+001
2.141393e+002, 8.126788e+001
2.146214e+002, 8.098648e+001
2.151035e+002, 8.101270e+001
2.155856e+002, 8.151763e+001
2.160677e+002, 8.210283e+001
2.165498e+002, 8.255894e+001
2.170320e+002, 8.289712e+001
2.175141e+002, 8.326156e+001
2.179962e+002, 8.376744e+001
2.184783e+002, 8.442449e+001
2.189604e+002, 8.526975e+001
2.194425e+002, 8.662013e+001
2.199247e+002, 8.788521e+001
2.204068e+002, 8.853537e+001
2.208889e+002, 8.863502e+001
2.213710e+002, 8.884679e+001
2.218531e+002, 8.980113e+001
2.223352e+002, 9.155846e+001
2.228174e+002, 9.298463e+001
2.232995e+002, 9.384551e+001
2.237816e+002, 9.455424e+001
2.242637e+002, 9.538131e+001
2.247458e+002, 9.634738e+001
2.252279e+002, 9.738824e+001
2.257100e+002, 9.849435e+001
2.261922e+002, 9.964156e+001
2.266743e+002, 1.006930e+002
2.271564e+002, 1.015923e+002
2.276385e+002, 1.024200e+002
2.281206e+002, 1.033195e+002
2.286027e+002, 1.043062e+002
2.290849e+002, 1.050524e+002
2.295670e+002, 1.051919e+002
2.300491e+002, 1.048886e+002
2.305312e+002, 1.046078e+002
2.310133e+002, 1.046231e+002
2.314954e+002, 1.045822e+002
2.319776e+002, 1.040376e+002
2.324597e+002, 1.029386e+002
2.329418e+002, 1.016953e+002
2.334239e+002, 1.006027e+002
2.339060e+002, 9.951682e+001
2.343881e+002, 9.818150e+001
2.348703e+002, 9.639687e+001
2.353524e+002, 9.444963e+001
2.358345e+002, 9.275597e+001
2.363166e+002, 9.137985e+001
2.367987e+002, 8.994939e+001
2.372808e+002, 8.818441e+001
2.377630e+002, 8.627721e+001
2.382451e+002, 8.436054e+001
2.387272e+002, 8.234524e+001
2.392093e+002, 8.052616e+001
2.396914e+002, 7.957316e+001
2.401735e+002, 7.985688e+001
2.406557e+002, 7.979620e+001
2.411378e+002, 7.847915e+001
2.416199e+002, 7.666219e+001
2.421020e+002, 7.500063e+001
2.425841e+002, 7.371289e+001
2.430662e+002, 7.269484e+001
2.435484e+002, 7.176876e+001
2.440305e+002, 7.090934e+001
2.445126e+002, 7.022734e+001
2.449947e+002, 6.995643e+001
2.454768e+002, 6.975914e+001
2.459589e+002, 6.932312e+001
2.464410e+002, 6.853368e+001
2.469232e+002, 6.757641e+001
2.474053e+002, 6.674265e+001
2.478874e+002, 6.604186e+001
2.483695e+002, 6.546107e+001
2.488516e+002, 6.501900e+001
2.493337e+002, 6.466560e+001
2.498159e+002, 6.432928e+001
2.502980e+002, 6.399400e+001
2.507801e+002, 6.377031e+001
2.512622e+002, 6.393230e+001
2.517443e+002, 6.486968e+001
2.522264e+002, 6.528117e+001
2.527086e+002, 6.473902e+001
2.531907e+002, 6.392506e+001
2.536728e+002, 6.330128e+001
2.541549e+002, 6.298951e+001
2.546370e+002, 6.281965e+001
2.551191e+002, 6.252574e+001
2.556013e+002, 6.202119e+001
2.560834e+002, 6.158059e+001
2.565655e+002, 6.111589e+001
2.570476e+002, 6.076667e+001
2.575297e+002, 6.069646e+001
2.580118e+002, 6.089858e+001
2.584940e+002, 6.116027e+001
2.589761e+002, 6.117024e+001
2.594582e+002, 6.073794e+001
2.599403e+002, 6.054313e+001
2.604224e+002, 6.070839e+001
2.609045e+002, 6.096130e+001
2.613867e+002, 6.120023e+001
2.618688e+002, 6.137894e+001
2.623509e+002, 6.143488e+001
2.628330e+002, 6.128141e+001
2.633151e+002, 6.084458e+001
2.637972e+002, 6.045844e+001
2.642794e+002, 6.007517e+001
2.647615e+002, 5.977048e+001
2.652436e+002, 5.961957e+001
2.657257e+002, 5.960376e+001
2.662078e+002, 5.962701e+001
2.666899e+002, 5.959174e+001
2.671721e+002, 5.947776e+001
2.676542e+002, 5.944211e+001
2.681363e+002, 5.958147e+001
2.686184e+002, 5.969542e+001
2.691005e+002, 5.964543e+001
2.695826e+002, 5.946707e+001
2.700648e+002, 5.931496e+001
2.705469e+002, 5.932693e+001
2.710290e+002, 5.951204e+001
2.715111e+002, 5.958300e+001
2.719932e+002, 5.934159e+001
2.724753e+002, 5.920320e+001
2.729575e+002, 5.941875e+001
2.734396e+002, 5.989545e+001
2.739217e+002, 6.037530e+001
2.744038e+002, 6.069733e+001
2.748859e+002, 6.086474e+001
2.753680e+002, 6.089345e+001
2.758501e+002, 6.055257e+001
2.763322e+002, 6.035318e+001
2.768144e+002, 6.058750e+001
2.772965e+002, 6.109625e+001
2.777786e+002, 6.150723e+001
2.782607e+002, 6.160356e+001
2.787428e+002, 6.147120e+001
2.792249e+002, 6.148168e+001
2.797071e+002, 6.164378e+001
2.801892e+002, 6.190220e+001
2.806713e+002, 6.228701e+001
2.811534e+002, 6.275431e+001
2.816355e+002, 6.324892e+001
2.821176e+002, 6.376007e+001
2.825998e+002, 6.424371e+001
2.830819e+002, 6.455479e+001
2.835640e+002, 6.458973e+001
2.840461e+002, 6.467974e+001
2.845282e+002, 6.491580e+001
2.850103e+002, 6.524091e+001
2.854925e+002, 6.557529e+001
2.859746e+002, 6.589424e+001
2.864567e+002, 6.621143e+001
2.869388e+002, 6.655729e+001
2.874209e+002, 6.694156e+001
2.879030e+002, 6.731432e+001
2.883852e+002, 6.763411e+001
2.888673e+002, 6.795000e+001
2.893494e+002, 6.836533e+001
2.898315e+002, 6.891063e+001
2.903136e+002, 6.940649e+001
2.907957e+002, 6.959335e+001
2.912779e+002, 6.941783e+001
2.917600e+002, 6.934155e+001
2.922421e+002, 6.952200e+001
2.927242e+002, 6.975740e+001
2.932063e+002, 6.980476e+001
2.936884e+002, 6.963778e+001
2.941706e+002, 6.950618e+001
2.946527e+002, 6.969409e+001
2.951348e+002, 7.020145e+001
2.956169e+002, 7.047779e+001
2.960990e+002, 7.028085e+001
2.965811e+002, 7.000828e+001
2.970633e+002, 6.998724e+001
2.975454e+002, 7.021493e+001
2.980275e+002, 7.046776e+001
2.985096e+002, 7.058485e+001
2.989917e+002, 7.059158e+001
2.994738e+002, 7.067229e+001
2.999560e+002, 7.097123e+001
3.004381e+002, 7.121183e+001
3.009202e+002, 7.113107e+001
3.014023e+002, 7.081180e+001
3.018844e+002, 7.065834e+001
3.023665e+002, 7.094723e+001
3.028487e+002, 7.149998e+001
3.033308e+002, 7.175731e+001
3.038129e+002, 7.150392e+001
3.042950e+002, 7.133391e+001
3.047771e+002, 7.158310e+001
3.052592e+002, 7.212251e+001
3.057414e+002, 7.262476e+001
3.062235e+002, 7.296993e+001
3.067056e+002, 7.321474e+001
3.071877e+002, 7.343737e+001
3.076698e+002, 7.360068e+001
3.081519e+002, 7.386751e+001
3.086341e+002, 7.439323e+001
3.091162e+002, 7.503554e+001
3.095983e+002, 7.551746e+001
3.100804e+002, 7.574252e+001
3.105625e+002, 7.590479e+001
3.110446e+002, 7.628748e+001
3.115268e+002, 7.689899e+001
3.120089e+002, 7.744058e+001
3.124910e+002, 7.773882e+001
3.129731e+002, 7.798946e+001
3.134552e+002, 7.843337e+001
3.139373e+002, 7.910672e+001
3.144195e+002, 7.989127e+001
3.149016e+002, 8.069666e+001
3.153837e+002, 8.152821e+001
3.158658e+002, 8.240317e+001
3.163479e+002, 8.335819e+001
3.168300e+002, 8.433224e+001
3.173121e+002, 8.520699e+001
3.177943e+002, 8.600365e+001
3.182764e+002, 8.696606e+001
3.187585e+002, 8.830592e+001
3.192406e+002, 8.995190e+001
3.197227e+002, 9.150626e+001
3.202048e+002, 9.287418e+001
3.206870e+002, 9.425573e+001
3.211691e+002, 9.574134e+001
3.216512e+002, 9.732453e+001
3.221333e+002, 9.900173e+001
3.226154e+002, 1.007461e+002
3.230975e+002, 1.026052e+002
3.235797e+002, 1.046730e+002
3.240618e+002, 1.070513e+002
3.245439e+002, 1.093914e+002
3.250260e+002, 1.114571e+002
3.255081e+002, 1.134200e+002
3.259902e+002, 1.156506e+002
3.264724e+002, 1.182950e+002
3.269545e+002, 1.211411e+002
3.274366e+002, 1.238823e+002
3.279187e+002, 1.265042e+002
3.284008e+002, 1.291243e+002
3.288829e+002, 1.318110e+002
3.293651e+002, 1.344753e+002
3.298472e+002, 1.370640e+002
3.303293e+002, 1.395677e+002
3.308114e+002, 1.418509e+002
3.312935e+002, 1.437446e+002
3.317756e+002, 1.452061e+002
3.322578e+002, 1.466697e+002
3.327399e+002, 1.483285e+002
3.332220e+002, 1.498459e+002
3.337041e+002, 1.510879e+002
3.341862e+002, 1.520007e+002
3.346683e+002, 1.524067e+002
3.351505e+002, 1.521259e+002
3.356326e+002, 1.512024e+002
3.361147e+002, 1.501525e+002
3.365968e+002, 1.489436e+002
3.370789e+002, 1.476512e+002
3.375610e+002, 1.463288e+002
3.380432e+002, 1.449450e+002
3.385253e+002, 1.434524e+002
3.390074e+002, 1.418427e+002
3.394895e+002, 1.400866e+002
3.399716e+002, 1.380869e+002
3.404537e+002, 1.358632e+002
3.409359e+002, 1.334257e+002
3.414180e+002, 1.305786e+002
3.419001e+002, 1.275856e+002
3.423822e+002, 1.248379e+002
3.428643e+002, 1.224580e+002
3.433464e+002, 1.201930e+002
3.438286e+002, 1.176757e+002
3.443107e+002, 1.147256e+002
3.447928e+002, 1.120762e+002
3.452749e+002, 1.098297e+002
3.457570e+002, 1.078377e+002
3.462391e+002, 1.060728e+002
3.467213e+002, 1.045006e+002
3.472034e+002, 1.029353e+002
3.476855e+002, 1.012156e+002
3.481676e+002, 9.932214e+001
3.486497e+002, 9.760950e+001
3.491318e+002, 9.617522e+001
3.496140e+002, 9.479093e+001
3.500961e+002, 9.337373e+001
3.505782e+002, 9.194238e+001
3.510603e+002, 9.052138e+001
3.515424e+002, 8.911736e+001
3.520245e+002, 8.777172e+001
3.525067e+002, 8.665911e+001
3.529888e+002, 8.620663e+001
3.534709e+002, 8.546052e+001
3.539530e+002, 8.395126e+001
3.544351e+002, 8.222893e+001
3.549172e+002, 8.099496e+001
3.553994e+002, 8.048421e+001
3.558815e+002, 8.029375e+001
3.563636e+002, 7.972427e+001
3.568457e+002, 7.847428e+001
3.573278e+002, 7.744841e+001
3.578099e+002, 7.669444e+001
3.582920e+002, 7.610267e+001
3.587741e+002, 7.564144e+001
3.592563e+002, 7.528194e+001
3.597384e+002, 7.496870e+001
3.602205e+002, 7.463828e+001
3.607026e+002, 7.427702e+001
3.611847e+002, 7.403661e+001
3.616668e+002, 7.406786e+001
3.621490e+002, 7.405613e+001
3.626311e+002, 7.381432e+001
3.631132e+002, 7.345773e+001
3.635953e+002, 7.321380e+001
3.640774e+002, 7.322221e+001
3.645595e+002, 7.344070e+001
3.650417e+002, 7.370922e+001
3.655238e+002, 7.432164e+001
3.660059e+002, 7.454925e+001
3.664880e+002, 7.391471e+001
3.669701e+002, 7.307516e+001
3.674522e+002, 7.269966e+001
3.679344e+002, 7.299235e+001
3.684165e+002, 7.361964e+001
3.688986e+002, 7.408792e+001
3.693807e+002, 7.436239e+001
3.698628e+002, 7.456231e+001
3.703449e+002, 7.465315e+001
3.708271e+002, 7.470973e+001
3.713092e+002, 7.475018e+001
3.717913e+002, 7.478848e+001
3.722734e+002, 7.485473e+001
3.727555e+002, 7.499756e+001
3.732376e+002, 7.521190e+001
3.737198e+002, 7.531716e+001
3.742019e+002, 7.520488e+001
3.746840e+002, 7.511401e+001
3.751661e+002, 7.510979e+001
3.756482e+002, 7.517976e+001
3.761303e+002, 7.532464e+001
3.766125e+002, 7.557345e+001
3.770946e+002, 7.583043e+001
3.775767e+002, 7.584068e+001
3.780588e+002, 7.547678e+001
3.785409e+002, 7.522801e+001
3.790230e+002, 7.527874e+001
3.795052e+002, 7.546390e+001
3.799873e+002, 7.565062e+001
3.804694e+002, 7.581353e+001
3.809515e+002, 7.605770e+001
3.814336e+002, 7.654310e+001
3.819157e+002, 7.726395e+001
3.823979e+002, 7.788427e+001
3.828800e+002, 7.830761e+001
3.833621e+002, 7.867921e+001
3.838442e+002, 7.906200e+001
3.843263e+002, 7.947047e+001
3.848084e+002, 7.996383e+001
3.852906e+002, 8.057352e+001
3.857727e+002, 8.128539e+001
3.862548e+002, 8.211267e+001
3.867369e+002, 8.310324e+001
3.872190e+002, 8.402641e+001
3.877011e+002, 8.470068e+001
3.881833e+002, 8.523926e+001
3.886654e+002, 8.579002e+001
3.891475e+002, 8.637440e+001
3.896296e+002, 8.698808e+001
3.901117e+002, 8.764510e+001
3.905938e+002, 8.834010e+001
3.910760e+002, 8.902396e+001
3.915581e+002, 8.973083e+001
3.920402e+002, 9.035256e+001
3.925223e+002, 9.070406e+001
3.930044e+002, 9.076612e+001
3.934865e+002, 9.087598e+001
3.939687e+002, 9.134233e+001
3.944508e+002, 9.188140e+001
3.949329e+002, 9.200642e+001
3.954150e+002, 9.162910e+001
3.958971e+002, 9.104844e+001
3.963792e+002, 9.047134e+001
3.968614e+002, 8.990318e+001
3.973435e+002, 8.937842e+001
3.978256e+002, 8.898345e+001
3.983077e+002, 8.855137e+001
3.987898e+002, 8.802953e+001
3.992719e+002, 8.738892e+001
3.997540e+002, 8.648729e+001
4.002361e+002, 8.518537e+001
4.007183e+002, 8.368647e+001
4.012004e+002, 8.263452e+001
4.016825e+002, 8.235784e+001
4.021646e+002, 8.187668e+001
4.026467e+002, 8.084959e+001
4.031288e+002, 7.960863e+001
4.036110e+002, 7.852946e+001
4.040931e+002, 7.770279e+001
4.045752e+002, 7.699543e+001
4.050573e+002, 7.625577e+001
4.055394e+002, 7.547392e+001
4.060215e+002, 7.473835e+001
4.065037e+002, 7.402709e+001
4.069858e+002, 7.337890e+001
4.074679e+002, 7.288635e+001
4.079500e+002, 7.247385e+001
4.084321e+002, 7.193189e+001
4.089142e+002, 7.110034e+001
4.093964e+002, 7.008949e+001
4.098785e+002, 6.939920e+001
4.103606e+002, 6.940355e+001
4.108427e+002, 6.925779e+001
4.113248e+002, 6.875397e+001
4.118069e+002, 6.814694e+001
4.122891e+002, 6.770390e+001
4.127712e+002, 6.748343e+001
4.132533e+002, 6.731867e+001
4.137354e+002, 6.697323e+001
4.142175e+002, 6.638112e+001
4.146996e+002, 6.586619e+001
4.151818e+002, 6.553365e+001
4.156639e+002, 6.518441e+001
4.161460e+002, 6.469590e+001
4.166281e+002, 6.412461e+001
4.171102e+002, 6.363999e+001
4.175923e+002, 6.339197e+001
4.180745e+002, 6.326674e+001
4.185566e+002, 6.282214e+001
4.190387e+002, 6.185943e+001
4.195208e+002, 6.102593e+001
4.200029e+002, 6.064651e+001
4.204850e+002, 6.041406e+001
4.209672e+002, 6.002243e+001
4.214493e+002, 5.939360e+001
4.219314e+002, 5.877504e+001
4.224135e+002, 5.846064e+001
4.228956e+002, 5.843412e+001
4.233777e+002, 5.833305e+001
4.238599e+002, 5.804401e+001
4.243420e+002, 5.775439e+001
4.248241e+002, 5.754346e+001
4.253062e+002, 5.743197e+001
4.257883e+002, 5.750652e+001
4.262704e+002, 5.794999e+001
4.267526e+002, 5.853482e+001
4.272347e+002, 5.893681e+001
4.277168e+002, 5.915343e+001
4.281989e+002, 5.924634e+001
4.286810e+002, 5.922033e+001
4.291631e+002, 5.909497e+001
4.296453e+002, 5.890894e+001
4.301274e+002, 5.857290e+001
4.306095e+002, 5.837908e+001
4.310916e+002, 5.859611e+001
4.315737e+002, 5.903893e+001
4.320558e+002, 5.936534e+001
4.325380e+002, 5.949715e+001
4.330201e+002, 5.944365e+001
4.335022e+002, 5.918766e+001
4.339843e+002, 5.870104e+001
4.344664e+002, 5.817559e+001
4.349485e+002, 5.760160e+001
4.354307e+002, 5.700322e+001
4.359128e+002, 5.636065e+001
4.363949e+002, 5.570272e+001
4.368770e+002, 5.511497e+001
4.373591e+002, 5.465053e+001
4.378412e+002, 5.428740e+001
4.383234e+002, 5.395084e+001
4.388055e+002, 5.373838e+001
4.392876e+002, 5.342540e+001
4.397697e+002, 5.292506e+001
4.402518e+002, 5.236005e+001
4.407339e+002, 5.179954e+001
4.412160e+002, 5.128362e+001
4.416982e+002, 5.089048e+001
4.421803e+002, 5.073470e+001
4.426624e+002, 5.085761e+001
4.431445e+002, 5.091393e+001
4.436266e+002, 5.101089e+001
4.441087e+002, 5.092644e+001
4.445909e+002, 5.041752e+001
4.450730e+002, 4.971351e+001
4.455551e+002, 4.918193e+001
4.460372e+002, 4.902217e+001
4.465193e+002, 4.909961e+001
4.470014e+002, 4.910094e+001
4.474836e+002, 4.895000e+001
4.479657e+002, 4.895186e+001
4.484478e+002, 4.945077e+001
4.489299e+002, 4.990900e+001
4.494120e+002, 4.990367e+001
4.498941e+002, 4.945485e+001
4.503763e+002, 4.899726e+001
4.508584e+002, 4.890403e+001
4.513405e+002, 4.908540e+001
4.518226e+002, 4.916202e+001
4.523047e+002, 4.910380e+001
4.527868e+002, 4.899781e+001
4.532690e+002, 4.883353e+001
4.537511e+002, 4.866822e+001
4.542332e+002, 4.860291e+001
4.547153e+002, 4.870755e+001
4.551974e+002, 4.882101e+001
4.556795e+002, 4.881126e+001
4.561617e+002, 4.869617e+001
4.566438e+002, 4.853769e+001
4.571259e+002, 4.832642e+001
4.576080e+002, 4.813501e+001
4.580901e+002, 4.810085e+001
4.585722e+002, 4.822521e+001
4.590544e+002, 4.825574e+001
4.595365e+002, 4.806075e+001
4.600186e+002, 4.781688e+001
4.605007e+002, 4.770503e+001
4.609828e+002, 4.770533e+001
4.614649e+002, 4.765248e+001
4.619471e+002, 4.743532e+001
4.624292e+002, 4.709685e+001
4.629113e+002, 4.680958e+001
4.633934e+002, 4.659660e+001
4.638755e+002, 4.640041e+001
4.643576e+002, 4.623299e+001
4.648398e+002, 4.606722e+001
4.653219e+002, 4.583773e+001
4.658040e+002, 4.555011e+001
4.662861e+002, 4.533630e+001
4.667682e+002, 4.538068e+001
4.672503e+002, 4.574239e+001
4.677325e+002, 4.578473e+001
4.682146e+002, 4.511848e+001
4.686967e+002, 4.454409e+001
4.691788e+002, 4.429229e+001
4.696609e+002, 4.426423e+001
4.701430e+002, 4.430459e+001
4.706252e+002, 4.434605e+001
4.711073e+002, 4.441293e+001
4.715894e+002, 4.458226e+001
4.720715e+002, 4.490835e+001
4.725536e+002, 4.509623e+001
4.730357e+002, 4.496566e+001
4.735179e+002, 4.479921e+001
4.740000e+002, 4.475452e+001
4.744821e+002, 4.481968e+001
4.749642e+002, 4.490335e+001
4.754463e+002, 4.496525e+001
4.759284e+002, 4.500463e+001
4.764106e+002, 4.502932e+001
4.768927e+002, 4.504596e+001
4.773748e+002, 4.500059e+001
4.778569e+002, 4.480964e+001
4.783390e+002, 4.457242e+001
4.788211e+002, 4.444609e+001
4.793033e+002, 4.445533e+001
4.797854e+002, 4.450705e+001
4.802675e+002, 4.457967e+001
4.807496e+002, 4.465709e+001
4.812317e+002, 4.472159e+001
4.817138e+002, 4.477171e+001
4.821959e+002, 4.476708e+001
4.826780e+002, 4.464324e+001
4.831602e+002, 4.440615e+001
4.836423e+002, 4.429039e+001
4.841244e+002, 4.440432e+001
4.846065e+002, 4.451396e+001
4.850886e+002, 4.453472e+001
4.855707e+002, 4.448431e+001
4.860529e+002, 4.438400e+001
4.865350e+002, 4.424247e+001
4.870171e+002, 4.409702e+001
4.874992e+002, 4.401175e+001
4.879813e+002, 4.401017e+001
4.884634e+002, 4.400504e+001
4.889456e+002, 4.397551e+001
4.894277e+002, 4.396284e+001
4.899098e+002, 4.400798e+001
4.903919e+002, 4.408576e+001
4.908740e+002, 4.414137e+001
4.913561e+002, 4.414252e+001
4.918383e+002, 4.409762e+001
4.923204e+002, 4.400716e+001
4.928025e+002, 4.381273e+001
4.932846e+002, 4.373553e+001
4.937667e+002, 4.389534e+001
4.942488e+002, 4.413684e+001
4.947310e+002, 4.442054e+001
4.952131e+002, 4.471680e+001
4.956952e+002, 4.490136e+001
4.961773e+002, 4.480584e+001
4.966594e+002, 4.453852e+001
4.971415e+002, 4.438808e+001
4.976237e+002, 4.436586e+001
4.981058e+002, 4.443606e+001
4.985879e+002, 4.461373e+001
4.990700e+002, 4.486397e+001
4.995521e+002, 4.512490e+001
5.000342e+002, 4.542168e+001
5.005164e+002, 4.566160e+001
5.009985e+002, 4.575916e+001
5.014806e+002, 4.578087e+001
5.019627e+002, 4.584056e+001
5.024448e+002, 4.596110e+001
5.029269e+002, 4.612412e+001
5.034091e+002, 4.631800e+001
5.038912e+002, 4.654564e+001
5.043733e+002, 4.676326e+001
5.048554e+002, 4.696247e+001
5.053375e+002, 4.716230e+001
5.058196e+002, 4.728494e+001
5.063018e+002, 4.743806e+001
5.067839e+002, 4.781071e+001
5.072660e+002, 4.846376e+001
5.077481e+002, 4.924577e+001
5.082302e+002, 4.992420e+001
5.087123e+002, 5.047565e+001
5.091945e+002, 5.101004e+001
5.096766e+002, 5.163651e+001
5.101587e+002, 5.213430e+001
5.106408e+002, 5.228468e+001
5.111229e+002, 5.226308e+001
5.116050e+002, 5.241018e+001
5.120872e+002, 5.291603e+001
5.125693e+002, 5.360516e+001
5.130514e+002, 5.418269e+001
5.135335e+002, 5.464649e+001
5.140156e+002, 5.503115e+001
5.144977e+002, 5.533701e+001
5.149799e+002, 5.556808e+001
5.154620e+002, 5.573173e+001
5.159441e+002, 5.582988e+001
5.164262e+002, 5.587429e+001
5.169083e+002, 5.583368e+001
5.173904e+002, 5.576276e+001
5.178726e+002, 5.572706e+001
5.183547e+002, 5.572668e+001
5.188368e+002, 5.576082e+001
5.193189e+002, 5.586260e+001
5.198010e+002, 5.595897e+001
5.202831e+002, 5.585041e+001
5.207653e+002, 5.544832e+001
5.212474e+002, 5.514309e+001
5.217295e+002, 5.507712e+001
5.222116e+002, 5.508092e+001
5.226937e+002, 5.503123e+001
5.231758e+002, 5.490982e+001
5.236580e+002, 5.471215e+001
5.241401e+002, 5.441774e+001
5.246222e+002, 5.406980e+001
5.251043e+002, 5.388984e+001
5.255864e+002, 5.397186e+001
5.260685e+002, 5.410319e+001
5.265507e+002, 5.431528e+001
5.270328e+002, 5.453184e+001
5.275149e+002, 5.465271e+001
5.279970e+002, 5.469208e+001
5.284791e+002, 5.479646e+001
5.289612e+002, 5.517152e+001
5.294434e+002, 5.573584e+001
5.299255e+002, 5.593370e+001
5.304076e+002, 5.555310e+001
5.308897e+002, 5.529858e+001
5.313718e+002, 5.557507e+001
5.318539e+002, 5.608542e+001
5.323361e+002, 5.655584e+001
5.328182e+002, 5.694503e+001
5.333003e+002, 5.730128e+001
5.337824e+002, 5.774310e+001
5.342645e+002, 5.815963e+001
5.347466e+002, 5.826258e+001
5.352288e+002, 5.799587e+001
5.357109e+002, 5.767559e+001
5.361930e+002, 5.753230e+001
5.366751e+002, 5.754046e+001
5.371572e+002, 5.752282e+001
5.376393e+002, 5.751282e+001
5.381215e+002, 5.743921e+001
5.386036e+002, 5.709102e+001
5.390857e+002, 5.675484e+001
5.395678e+002, 5.693343e+001
5.400499e+002, 5.765953e+001
5.405320e+002, 5.833041e+001
5.410142e+002, 5.826348e+001
5.414963e+002, 5.742823e+001
5.419784e+002, 5.689926e+001
5.424604e+002, 5.704195e+001
5.429426e+002, 5.706781e+001
5.434247e+002, 5.675682e+001
5.439068e+002, 5.627860e+001
5.443889e+002, 5.582449e+001
5.448710e+002, 5.544670e+001
5.453531e+002, 5.507985e+001
5.458353e+002, 5.464496e+001
5.463174e+002, 5.414901e+001
5.467995e+002, 5.371508e+001
5.472816e+002, 5.341082e+001
5.477637e+002, 5.304063e+001
5.482458e+002, 5.232995e+001
5.487280e+002, 5.150559e+001
5.492101e+002, 5.096527e+001
5.496922e+002, 5.090725e+001
5.501743e+002, 5.086104e+001
5.506564e+002, 5.049830e+001
5.511385e+002, 4.994037e+001
5.516207e+002, 4.941279e+001
5.521028e+002, 4.896084e+001
5.525849e+002, 4.861424e+001
5.530670e+002, 4.844625e+001
5.535491e+002, 4.845685e+001
5.540313e+002, 4.821148e+001
5.545134e+002, 4.731410e+001
5.549955e+002, 4.667335e+001
5.554776e+002, 4.676217e+001
5.559597e+002, 4.714111e+001
5.564418e+002, 4.726892e+001
5.569240e+002, 4.700841e+001
5.574061e+002, 4.658484e+001
5.578882e+002, 4.622971e+001
5.583703e+002, 4.594353e+001
5.588524e+002, 4.574862e+001
5.593345e+002, 4.561882e+001
5.598167e+002, 4.563211e+001
5.602988e+002, 4.597202e+001
5.607809e+002, 4.638004e+001
5.612630e+002, 4.649949e+001
5.617451e+002, 4.621687e+001
5.622272e+002, 4.590137e+001
5.627094e+002, 4.592756e+001
5.631915e+002, 4.618390e+001
5.636736e+002, 4.626929e+001
5.641557e+002, 4.610440e+001
5.646378e+002, 4.594524e+001
5.651199e+002, 4.601273e+001
5.656021e+002, 4.623655e+001
5.660842e+002, 4.629782e+001
5.665663e+002, 4.607724e+001
5.670484e+002, 4.586663e+001
5.675305e+002, 4.581645e+001
5.680126e+002, 4.580733e+001
5.684948e+002, 4.566555e+001
5.689769e+002, 4.537516e+001
5.694590e+002, 4.506798e+001
5.699411e+002, 4.486848e+001
5.704232e+002, 4.477129e+001
5.709053e+002, 4.468404e+001
5.713875e+002, 4.455630e+001
5.718696e+002, 4.451162e+001
5.723517e+002, 4.466053e+001
5.728338e+002, 4.483971e+001
5.733159e+002, 4.490069e+001
5.737980e+002, 4.482082e+001
5.742802e+002, 4.467268e+001
5.747623e+002, 4.448273e+001
5.752444e+002, 4.427228e+001
5.757265e+002, 4.416063e+001
5.762086e+002, 4.419137e+001
5.766907e+002, 4.413328e+001
5.771729e+002, 4.381040e+001
5.776550e+002, 4.337138e+001
5.781371e+002, 4.306395e+001
5.786192e+002, 4.291799e+001
5.791013e+002, 4.278647e+001
5.795834e+002, 4.266686e+001
5.800656e+002, 4.250161e+001
5.805477e+002, 4.214629e+001
5.810298e+002, 4.164118e+001
5.815119e+002, 4.127156e+001
5.819940e+002, 4.124085e+001
5.824761e+002, 4.143447e+001
5.829583e+002, 4.145626e+001
5.834404e+002, 4.107267e+001
5.839225e+002, 4.087325e+001
5.844046e+002, 4.105327e+001
5.848867e+002, 4.125270e+001
5.853688e+002, 4.126096e+001
5.858510e+002, 4.107299e+001
5.863331e+002, 4.074137e+001
5.868152e+002, 4.025010e+001
5.872973e+002, 3.972840e+001
5.877794e+002, 3.951971e+001
5.882615e+002, 3.967727e+001
5.887437e+002, 3.977856e+001
5.892258e+002, 3.968251e+001
5.897079e+002, 3.954099e+001
5.901900e+002, 3.953601e+001
5.906721e+002, 3.963497e+001
5.911542e+002, 3.961936e+001
5.916364e+002, 3.936824e+001
5.921185e+002, 3.902354e+001
5.926006e+002, 3.866356e+001
5.930827e+002, 3.830944e+001
5.935648e+002, 3.801137e+001
5.940469e+002, 3.778837e+001
5.945291e+002, 3.763327e+001
5.950112e+002, 3.754448e+001
5.954933e+002, 3.754573e+001
5.959754e+002, 3.750595e+001
5.964575e+002, 3.744433e+001
5.969396e+002, 3.732815e+001
5.974218e+002, 3.708541e+001
5.979039e+002, 3.680254e+001
5.983860e+002, 3.661626e+001
5.988681e+002, 3.656932e+001
5.993502e+002, 3.654856e+001
5.998323e+002, 3.639496e+001
6.003145e+002, 3.611480e+001
6.007966e+002, 3.590507e+001
6.012787e+002, 3.578256e+001
6.017608e+002, 3.571399e+001
6.022429e+002, 3.580775e+001
6.027250e+002, 3.590386e+001
6.032072e+002, 3.569067e+001
6.036893e+002, 3.497764e+001
6.041714e+002, 3.441185e+001
6.046535e+002, 3.446291e+001
6.051356e+002, 3.479698e+001
6.056177e+002, 3.490623e+001
6.060999e+002, 3.474763e+001
6.065820e+002, 3.461096e+001
6.070641e+002, 3.472399e+001
6.075462e+002, 3.500515e+001
6.080283e+002, 3.508263e+001
6.085104e+002, 3.478669e+001
6.089926e+002, 3.451985e+001
6.094747e+002, 3.422014e+001
6.099568e+002, 3.401599e+001
6.104389e+002, 3.407713e+001
6.109210e+002, 3.432936e+001
6.114031e+002, 3.451687e+001
6.118853e+002, 3.447105e+001
6.123674e+002, 3.427404e+001
6.128495e+002, 3.407434e+001
6.133316e+002, 3.386634e+001
6.138137e+002, 3.371121e+001
6.142958e+002, 3.362484e+001
6.147780e+002, 3.359493e+001
6.152601e+002, 3.362673e+001
6.157422e+002, 3.370999e+001
6.162243e+002, 3.378608e+001
6.167064e+002, 3.387044e+001
6.171885e+002, 3.391710e+001
6.176707e+002, 3.387212e+001
6.181528e+002, 3.377212e+001
6.186349e+002, 3.369494e+001
6.191170e+002, 3.366293e+001
6.195991e+002, 3.363181e+001
6.200812e+002, 3.353800e+001
6.205634e+002, 3.337006e+001
6.210455e+002, 3.330800e+001
6.215276e+002, 3.338924e+001
6.220097e+002, 3.353893e+001
6.224918e+002, 3.386518e+001
6.229739e+002, 3.418119e+001
6.234561e+002, 3.424208e+001
6.239382e+002, 3.402241e+001
6.244203e+002, 3.380894e+001
6.249023e+002, 3.387387e+001
6.253845e+002, 3.411689e+001
6.258666e+002, 3.426397e+001
6.263487e+002, 3.430221e+001
6.268308e+002, 3.433138e+001
6.273129e+002, 3.438004e+001
6.277950e+002, 3.446231e+001
6.282772e+002, 3.465826e+001
6.287593e+002, 3.504408e+001
6.292414e+002, 3.518502e+001
6.297235e+002, 3.475044e+001
6.302056e+002, 3.428967e+001
6.306877e+002, 3.413532e+001
6.311699e+002, 3.427048e+001
6.316520e+002, 3.462100e+001
6.321341e+002, 3.515202e+001
6.326162e+002, 3.574410e+001
6.330983e+002, 3.621389e+001
6.335804e+002, 3.657240e+001
6.340626e+002, 3.675097e+001
6.345447e+002, 3.661913e+001
6.350268e+002, 3.647207e+001
6.355089e+002, 3.631755e+001
6.359910e+002, 3.627040e+001
6.364731e+002, 3.657565e+001
6.369553e+002, 3.737926e+001
6.374374e+002, 3.812713e+001
6.379195e+002, 3.832164e+001
6.384016e+002, 3.821657e+001
6.388837e+002, 3.825972e+001
6.393658e+002, 3.850585e+001
6.398480e+002, 3.892253e+001
6.403301e+002, 3.952534e+001
6.408122e+002, 4.024060e+001
6.412943e+002, 4.082439e+001
6.417764e+002, 4.102853e+001
6.422585e+002, 4.146996e+001
6.427407e+002, 4.232554e+001
6.432228e+002, 4.325782e+001
6.437049e+002, 4.407276e+001
6.441870e+002, 4.478390e+001
6.446691e+002, 4.549166e+001
6.451512e+002, 4.624753e+001
6.456334e+002, 4.701176e+001
6.461155e+002, 4.761906e+001
6.465976e+002, 4.807394e+001
6.470797e+002, 4.896857e+001
6.475618e+002, 5.053880e+001
6.480439e+002, 5.224080e+001
6.485261e+002, 5.366146e+001
6.490082e+002, 5.488377e+001
6.494903e+002, 5.612079e+001
6.499724e+002, 5.736503e+001
6.504545e+002, 5.866151e+001
6.509366e+002, 5.995861e+001
6.514188e+002, 6.135099e+001
6.519009e+002, 6.304120e+001
6.523830e+002, 6.498331e+001
6.528651e+002, 6.685176e+001
6.533472e+002, 6.841448e+001
6.538293e+002, 6.969451e+001
6.543115e+002, 7.076479e+001
6.547936e+002, 7.152600e+001
6.552757e+002, 7.230985e+001
6.557578e+002, 7.325649e+001
6.562399e+002, 7.415209e+001
6.567220e+002, 7.497032e+001
6.572042e+002, 7.564463e+001
6.576863e+002, 7.599159e+001
6.581684e+002, 7.587752e+001
6.586505e+002, 7.552044e+001
6.591326e+002, 7.501936e+001
6.596147e+002, 7.444336e+001
6.600969e+002, 7.401553e+001
6.605790e+002, 7.379003e+001
6.610611e+002, 7.354348e+001
6.615432e+002, 7.305648e+001
6.620253e+002, 7.236159e+001
6.625074e+002, 7.181963e+001
6.629896e+002, 7.154064e+001
6.634717e+002, 7.127357e+001
6.639538e+002, 7.081142e+001
6.644359e+002, 7.049477e+001
6.649180e+002, 7.062691e+001
6.654001e+002, 7.117156e+001
6.658823e+002, 7.188843e+001
6.663644e+002, 7.267316e+001
6.668465e+002, 7.347898e+001
6.673286e+002, 7.410910e+001
6.678107e+002, 7.458083e+001
6.682928e+002, 7.555643e+001
6.687750e+002, 7.729471e+001
6.692571e+002, 7.929027e+001
6.697392e+002, 8.108350e+001
6.702213e+002, 8.269994e+001
6.707034e+002, 8.435756e+001
6.711855e+002, 8.598153e+001
6.716677e+002, 8.774068e+001
6.721498e+002, 8.988242e+001
6.726319e+002, 9.205296e+001
6.731140e+002, 9.384550e+001
6.735961e+002, 9.524111e+001
6.740782e+002, 9.654945e+001
6.745604e+002, 9.805396e+001
6.750425e+002, 9.958128e+001
6.755246e+002, 1.005530e+002
6.760067e+002, 1.008937e+002
6.764888e+002, 1.010254e+002
6.769709e+002, 1.011447e+002
6.774531e+002, 1.009300e+002
6.779352e+002, 1.000868e+002
6.784173e+002, 9.872167e+001
6.788994e+002, 9.720157e+001
6.793815e+002, 9.565279e+001
6.798636e+002, 9.391488e+001
6.803458e+002, 9.186768e+001
6.808279e+002, 8.958264e+001
6.813100e+002, 8.713452e+001
6.817921e+002, 8.455446e+001
6.822742e+002, 8.183084e+001
6.827563e+002, 7.892220e+001
6.832385e+002, 7.590173e+001
6.837206e+002, 7.309636e+001
6.842027e+002, 7.050712e+001
6.846848e+002, 6.814252e+001
6.851669e+002, 6.616657e+001
6.856490e+002, 6.429124e+001
6.861312e+002, 6.230674e+001
6.866133e+002, 6.028693e+001
6.870954e+002, 5.847106e+001
6.875775e+002, 5.705030e+001
6.880596e+002, 5.569242e+001
6.885417e+002, 5.399755e+001
6.890239e+002, 5.216316e+001
6.895060e+002, 5.069291e+001
6.899881e+002, 4.966503e+001
6.904702e+002, 4.878809e+001
6.909523e+002, 4.783055e+001
6.914344e+002, 4.682520e+001
6.919166e+002, 4.592377e+001
6.923987e+002, 4.526696e+001
6.928808e+002, 4.448618e+001
6.933629e+002, 4.336986e+001
6.938450e+002, 4.231477e+001
6.943271e+002, 4.157049e+001
6.948093e+002, 4.108295e+001
6.952914e+002, 4.068638e+001
6.957735e+002, 4.032917e+001
6.962556e+002, 3.996992e+001
6.967377e+002, 3.955538e+001
6.972198e+002, 3.909913e+001
6.977020e+002, 3.859974e+001
6.981841e+002, 3.804753e+001
6.986662e+002, 3.766072e+001
6.991483e+002, 3.766823e+001
6.996304e+002, 3.791368e+001
7.001125e+002, 3.779899e+001
7.005947e+002, 3.702254e+001
7.010768e+002, 3.634135e+001
7.015589e+002, 3.565373e+001
7.020410e+002, 3.516669e+001
7.025231e+002, 3.516264e+001
7.030052e+002, 3.543510e+001
7.034874e+002, 3.553050e+001
7.039695e+002, 3.524128e+001
7.044516e+002, 3.484537e+001
7.049337e+002, 3.472545e+001
7.054158e+002, 3.480894e+001
7.058979e+002, 3.473456e+001
7.063801e+002, 3.445959e+001
7.068622e+002, 3.406709e+001
7.073442e+002, 3.349937e+001
7.078264e+002, 3.292234e+001
7.083085e+002, 3.280993e+001
7.087906e+002, 3.345106e+001
7.092727e+002, 3.379163e+001
7.097548e+002, 3.349102e+001
7.102369e+002, 3.313694e+001
7.107191e+002, 3.309507e+001
7.112012e+002, 3.324427e+001
7.116833e+002, 3.334189e+001
7.121654e+002, 3.329822e+001
7.126475e+002, 3.315852e+001
7.131296e+002, 3.293451e+001
7.136118e+002, 3.265069e+001
7.140939e+002, 3.245174e+001
7.145760e+002, 3.235831e+001
7.150581e+002, 3.223721e+001
7.155402e+002, 3.196371e+001
7.160223e+002, 3.169803e+001
7.165045e+002, 3.178259e+001
7.169866e+002, 3.231277e+001
7.174687e+002, 3.258522e+001
7.179508e+002, 3.230342e+001
7.184329e+002, 3.200448e+001
7.189150e+002, 3.197699e+001
7.193972e+002, 3.209203e+001
7.198793e+002, 3.215112e+001
7.203614e+002, 3.210141e+001
7.208435e+002, 3.201297e+001
7.213256e+002, 3.193788e+001
7.218077e+002, 3.188278e+001
7.222899e+002, 3.189886e+001
7.227720e+002, 3.200350e+001
7.232541e+002, 3.202320e+001
7.237362e+002, 3.185518e+001
7.242183e+002, 3.165278e+001
7.247004e+002, 3.163102e+001
7.251826e+002, 3.178394e+001
7.256647e+002, 3.180214e+001
7.261468e+002, 3.144594e+001
7.266289e+002, 3.122062e+001
7.271110e+002, 3.145518e+001
7.275931e+002, 3.182969e+001
7.280753e+002, 3.195690e+001
7.285574e+002, 3.181679e+001
7.290395e+002, 3.166155e+001
7.295216e+002, 3.166766e+001
7.300037e+002, 3.179303e+001
7.304858e+002, 3.196800e+001
7.309680e+002, 3.219565e+001
7.314501e+002, 3.237474e+001
7.319322e+002, 3.249278e+001
7.324143e+002, 3.254026e+001
7.328964e+002, 3.248290e+001
7.333785e+002, 3.234222e+001
7.338607e+002, 3.223725e+001
7.343428e+002, 3.212333e+001
7.348249e+002, 3.211348e+001
7.353070e+002, 3.235999e+001
7.357891e+002, 3.261535e+001
7.362712e+002, 3.266124e+001
7.367534e+002, 3.253386e+001
7.372355e+002, 3.236532e+001
7.377176e+002, 3.220985e+001
7.381997e+002, 3.213924e+001
7.386818e+002, 3.234595e+001
7.391639e+002, 3.278214e+001
7.396461e+002, 3.294767e+001
7.401282e+002, 3.274540e+001
7.406103e+002, 3.253369e+001
7.410924e+002, 3.250474e+001
7.415745e+002, 3.259776e+001
7.420566e+002, 3.267825e+001
7.425388e+002, 3.272528e+001
7.430209e+002, 3.283140e+001
7.435030e+002, 3.314011e+001
7.439851e+002, 3.336842e+001
7.444672e+002, 3.329219e+001
7.449493e+002, 3.306572e+001
7.454315e+002, 3.294851e+001
7.459136e+002, 3.300590e+001
7.463957e+002, 3.306970e+001
7.468778e+002, 3.294046e+001
7.473599e+002, 3.269758e+001
7.478420e+002, 3.263414e+001
7.483242e+002, 3.275739e+001
7.488063e+002, 3.272339e+001
7.492884e+002, 3.237551e+001
7.497705e+002, 3.193002e+001
7.502526e+002, 3.163138e+001
7.507347e+002, 3.148973e+001
7.512169e+002, 3.134472e+001
7.516990e+002, 3.124374e+001
7.521811e+002, 3.107898e+001
7.526632e+002, 3.078054e+001
7.531453e+002, 3.044103e+001
7.536274e+002, 3.011095e+001
7.541096e+002, 2.981800e+001
7.545917e+002, 2.961039e+001
7.550738e+002, 2.953214e+001
7.555559e+002, 2.951484e+001
7.560380e+002, 2.947656e+001
7.565201e+002, 2.941784e+001
7.570023e+002, 2.933270e+001
7.574844e+002, 2.921744e+001
7.579665e+002, 2.912463e+001
7.584486e+002, 2.911134e+001
7.589307e+002, 2.912903e+001
7.594128e+002, 2.900982e+001
7.598950e+002, 2.862749e+001
7.603771e+002, 2.833600e+001
7.608592e+002, 2.811103e+001
7.613413e+002, 2.799612e+001
7.618234e+002, 2.805316e+001
7.623055e+002, 2.821895e+001
7.627877e+002, 2.844035e+001
7.632698e+002, 2.870997e+001
7.637519e+002, 2.884930e+001
7.642340e+002, 2.856455e+001
7.647161e+002, 2.815019e+001
7.651982e+002, 2.815828e+001
7.656804e+002, 2.851505e+001
7.661625e+002, 2.867611e+001
7.666446e+002, 2.841932e+001
7.671267e+002, 2.806596e+001
7.676088e+002, 2.805525e+001
7.680909e+002, 2.840593e+001
7.685731e+002, 2.861246e+001
7.690552e+002, 2.859774e+001
7.695373e+002, 2.856400e+001
7.700194e+002, 2.852533e+001
7.705015e+002, 2.850847e+001
7.709836e+002, 2.855304e+001
7.714658e+002, 2.864493e+001
7.719479e+002, 2.871088e+001
7.724300e+002, 2.871006e+001
7.729121e+002, 2.869665e+001
7.733942e+002, 2.871186e+001
7.738763e+002, 2.873733e+001
7.743585e+002, 2.874851e+001
7.748406e+002, 2.874036e+001
7.753227e+002, 2.870958e+001
7.758048e+002, 2.865156e+001
7.762869e+002, 2.858091e+001
7.767690e+002, 2.852246e+001
7.772512e+002, 2.846799e+001
7.777333e+002, 2.849430e+001
7.782154e+002, 2.867748e+001
7.786975e+002, 2.880887e+001
7.791796e+002, 2.869737e+001
7.796617e+002, 2.849646e+001
7.801439e+002, 2.849097e+001
7.806260e+002, 2.874830e+001
7.811081e+002, 2.890207e+001
7.815902e+002, 2.877109e+001
7.820723e+002, 2.860199e+001
7.825544e+002, 2.852373e+001
7.830366e+002, 2.852730e+001
7.835187e+002, 2.863955e+001
7.840008e+002, 2.883603e+001
7.844829e+002, 2.891922e+001
7.849650e+002, 2.864587e+001
7.854471e+002, 2.815829e+001
7.859293e+002, 2.785225e+001
7.864114e+002, 2.772846e+001
7.868935e+002, 2.785366e+001
7.873756e+002, 2.831620e+001
7.878577e+002, 2.882436e+001
7.883398e+002, 2.914909e+001
7.888220e+002, 2.928749e+001
7.893040e+002, 2.920095e+001
7.897861e+002, 2.869526e+001
7.902682e+002, 2.825477e+001
7.907504e+002, 2.784798e+001
7.912325e+002, 2.757901e+001
7.917146e+002, 2.759308e+001
7.921967e+002, 2.778046e+001
7.926788e+002, 2.791910e+001
7.931609e+002, 2.792932e+001
7.936431e+002, 2.787875e+001
7.941252e+002, 2.778374e+001
7.946073e+002, 2.768576e+001
7.950894e+002, 2.764956e+001
7.955715e+002, 2.768293e+001
7.960536e+002, 2.785482e+001
7.965358e+002, 2.821346e+001
7.970179e+002, 2.851127e+001
7.975000e+002, 2.836781e+001
7.979821e+002, 2.775498e+001
7.984642e+002, 2.736831e+001
7.989464e+002, 2.730081e+001
7.994285e+002, 2.728827e+001
7.999106e+002, 2.725884e+001
8.003927e+002, 2.726900e+001
8.008748e+002, 2.741146e+001
8.013569e+002, 2.764658e+001
8.018391e+002, 2.777870e+001
8.023212e+002, 2.768674e+001
8.028033e+002, 2.758484e+001
8.032854e+002, 2.757056e+001
8.037675e+002, 2.761570e+001
8.042496e+002, 2.773584e+001
8.047318e+002, 2.788798e+001
8.052139e+002, 2.793117e+001
8.056960e+002, 2.778223e+001
8.061781e+002, 2.757769e+001
8.066602e+002, 2.755286e+001
8.071423e+002, 2.769195e+001
8.076245e+002, 2.776459e+001
8.081066e+002, 2.774139e+001
8.085887e+002, 2.776321e+001
8.090708e+002, 2.791916e+001
8.095529e+002, 2.811561e+001
8.100350e+002, 2.821518e+001
8.105172e+002, 2.820616e+001
8.109993e+002, 2.816418e+001
8.114814e+002, 2.808897e+001
8.119635e+002, 2.798233e+001
8.124456e+002, 2.776616e+001
8.129277e+002, 2.757537e+001
8.134099e+002, 2.756173e+001
8.138920e+002, 2.770486e+001
8.143741e+002, 2.785242e+001
8.148562e+002, 2.790850e+001
8.153383e+002, 2.798236e+001
8.158204e+002, 2.826340e+001
8.163026e+002, 2.862774e+001
8.167847e+002, 2.875501e+001
8.172668e+002, 2.863673e+001
8.177489e+002, 2.856033e+001
8.182310e+002, 2.869669e+001
8.187131e+002, 2.892623e+001
8.191953e+002, 2.899703e+001
8.196774e+002, 2.886124e+001
8.201595e+002, 2.888358e+001
8.206416e+002, 2.917532e+001
8.211237e+002, 2.941430e+001
8.216058e+002, 2.942822e+001
8.220880e+002, 2.936591e+001
8.225701e+002, 2.939719e+001
8.230522e+002, 2.952008e+001
8.235343e+002, 2.961256e+001
8.240164e+002, 2.967287e+001
8.244985e+002, 2.967119e+001
8.249807e+002, 2.954067e+001
8.254628e+002, 2.937650e+001
8.259449e+002, 2.922938e+001
8.264270e+002, 2.914813e+001
8.269091e+002, 2.927210e+001
8.273912e+002, 2.972153e+001
8.278734e+002, 3.021106e+001
8.283555e+002, 3.026600e+001
8.288376e+002, 3.000510e+001
8.293197e+002, 2.997232e+001
8.298018e+002, 3.021697e+001
8.302839e+002, 3.034265e+001
8.307661e+002, 3.012108e+001
8.312482e+002, 2.977203e+001
8.317303e+002, 2.966704e+001
8.322124e+002, 2.985262e+001
8.326945e+002, 2.994211e+001
8.331766e+002, 2.980053e+001
8.336588e+002, 2.975828e+001
8.341409e+002, 3.002944e+001
8.346230e+002, 3.031050e+001
8.351051e+002, 3.031669e+001
8.355872e+002, 3.009200e+001
8.360693e+002, 2.992503e+001
8.365515e+002, 2.997158e+001
8.370336e+002, 2.998270e+001
8.375157e+002, 2.970599e+001
8.379978e+002, 2.939832e+001
8.384799e+002, 2.942209e+001
8.389620e+002, 2.970399e+001
8.394442e+002, 2.989272e+001
8.399263e+002, 2.982181e+001
8.404084e+002, 2.968190e+001
8.408905e+002, 2.976867e+001
8.413726e+002, 3.002703e+001
8.418547e+002, 3.010828e+001
8.423369e+002, 2.999319e+001
8.428190e+002, 2.992892e+001
8.433011e+002, 3.001142e+001
8.437832e+002, 3.015994e+001
8.442653e+002, 3.030049e+001
8.447474e+002, 3.043118e+001
8.452296e+002, 3.045419e+001
8.457117e+002, 3.019288e+001
8.461938e+002, 3.008468e+001
8.466759e+002, 3.034767e+001
8.471580e+002, 3.059938e+001
8.476401e+002, 3.056885e+001
8.481223e+002, 3.034763e+001
8.486044e+002, 3.015600e+001
8.490865e+002, 3.003983e+001
8.495686e+002, 3.000064e+001
8.500507e+002, 3.006187e+001
8.505328e+002, 3.018238e+001
8.510150e+002, 3.036232e+001
8.514971e+002, 3.055938e+001
8.519792e+002, 3.068188e+001
8.524613e+002, 3.070514e+001
8.529434e+002, 3.068416e+001
8.534255e+002, 3.065280e+001
8.539077e+002, 3.063526e+001
8.543898e+002, 3.072320e+001
8.548719e+002, 3.091662e+001
8.553540e+002, 3.112597e+001
8.558361e+002, 3.136317e+001
8.563182e+002, 3.145811e+001
8.568004e+002, 3.119925e+001
8.572825e+002, 3.076285e+001
8.577646e+002, 3.074261e+001
8.582467e+002, 3.149569e+001
8.587288e+002, 3.188713e+001
8.592109e+002, 3.161047e+001
8.596931e+002, 3.134085e+001
8.601752e+002, 3.135493e+001
8.606573e+002, 3.148221e+001
8.611394e+002, 3.149854e+001
8.616215e+002, 3.138455e+001
8.621036e+002, 3.130673e+001
8.625858e+002, 3.141596e+001
8.630679e+002, 3.149269e+001
8.635500e+002, 3.131599e+001
8.640321e+002, 3.105149e+001
8.645142e+002, 3.092227e+001
8.649963e+002, 3.095002e+001
8.654785e+002, 3.108074e+001
8.659606e+002, 3.129785e+001
8.664427e+002, 3.148409e+001
8.669248e+002, 3.141957e+001
8.674069e+002, 3.115416e+001
8.678890e+002, 3.094715e+001
8.683712e+002, 3.081445e+001
8.688533e+002, 3.071903e+001
8.693354e+002, 3.065086e+001
8.698175e+002, 3.059299e+001
8.702996e+002, 3.052077e+001
8.707817e+002, 3.043361e+001
8.712639e+002, 3.037820e+001
8.717459e+002, 3.038540e+001
8.722280e+002, 3.036984e+001
8.727101e+002, 3.023250e+001
8.731923e+002, 3.014895e+001
8.736744e+002, 3.033983e+001
8.741565e+002, 3.065162e+001
8.746386e+002, 3.068347e+001
8.751207e+002, 3.026383e+001
8.756028e+002, 2.989389e+001
8.760850e+002, 2.978290e+001
8.765671e+002, 2.975163e+001
8.770492e+002, 2.966406e+001
8.775313e+002, 2.956390e+001
8.780134e+002, 2.955689e+001
8.784955e+002, 2.965554e+001
8.789777e+002, 2.975337e+001
8.794598e+002, 2.976492e+001
8.799419e+002, 2.973111e+001
8.804240e+002, 2.966210e+001
8.809061e+002, 2.960342e+001
8.813882e+002, 2.981580e+001
8.818704e+002, 3.031364e+001
8.823525e+002, 3.059982e+001
8.828346e+002, 3.032648e+001
8.833167e+002, 2.979108e+001
8.837988e+002, 2.962973e+001
8.842809e+002, 2.989965e+001
8.847631e+002, 3.011932e+001
8.852452e+002, 3.030435e+001
8.857273e+002, 3.039653e+001
8.862094e+002, 3.033889e+001
8.866915e+002, 3.021809e+001
8.871736e+002, 3.012554e+001
8.876558e+002, 3.005892e+001
8.881379e+002, 2.997845e+001
8.886200e+002, 2.978192e+001
8.891021e+002, 2.971403e+001
8.895842e+002, 2.986511e+001
8.900663e+002, 3.011202e+001
8.905485e+002, 3.050141e+001
8.910306e+002, 3.088501e+001
8.915127e+002, 3.094120e+001
8.919948e+002, 3.056718e+001
8.924769e+002, 3.024631e+001
8.929590e+002, 3.041972e+001
8.934412e+002, 3.068851e+001
8.939233e+002, 3.055817e+001
8.944054e+002, 3.021021e+001
8.948875e+002, 3.004442e+001
8.953696e+002, 3.013897e+001
8.958517e+002, 3.035152e+001
8.963339e+002, 3.060247e+001
8.968160e+002, 3.081483e+001
8.972981e+002, 3.079597e+001
8.977802e+002, 3.057118e+001
8.982623e+002, 3.038581e+001
8.987444e+002, 3.026102e+001
8.992266e+002, 3.018383e+001
8.997087e+002, 3.014084e+001
9.001908e+002, 3.017089e+001
9.006729e+002, 3.037506e+001
9.011550e+002, 3.077526e+001
9.016371e+002, 3.082259e+001
9.021193e+002, 3.019273e+001
9.026014e+002, 2.981330e+001
9.030835e+002, 2.998233e+001
9.035656e+002, 3.033278e+001
9.040477e+002, 3.071308e+001
9.045298e+002, 3.106973e+001
9.050120e+002, 3.125574e+001
9.054941e+002, 3.121047e+001
9.059762e+002, 3.112282e+001
9.064583e+002, 3.108468e+001
9.069404e+002, 3.096826e+001
9.074225e+002, 3.056414e+001
9.079047e+002, 3.010549e+001
9.083868e+002, 2.991125e+001
9.088689e+002, 3.002153e+001
9.093510e+002, 3.026127e+001
9.098331e+002, 3.059518e+001
9.103152e+002, 3.090702e+001
9.107974e+002, 3.104418e+001
9.112795e+002, 3.109004e+001
9.117616e+002, 3.124255e+001
9.122437e+002, 3.147319e+001
9.127258e+002, 3.151077e+001
9.132079e+002, 3.122593e+001
9.136901e+002, 3.093565e+001
9.141722e+002, 3.112282e+001
9.146543e+002, 3.168551e+001
9.151364e+002, 3.203813e+001
9.156185e+002, 3.217569e+001
9.161006e+002, 3.223102e+001
9.165828e+002, 3.221755e+001
9.170649e+002, 3.222892e+001
9.175470e+002, 3.235969e+001
9.180291e+002, 3.256229e+001
9.185112e+002, 3.265480e+001
9.189933e+002, 3.256433e+001
9.194755e+002, 3.255298e+001
9.199576e+002, 3.265501e+001
9.204397e+002, 3.278861e+001
9.209218e+002, 3.290809e+001
9.214039e+002, 3.305305e+001
9.218860e+002, 3.328248e+001
9.223682e+002, 3.359254e+001
9.228503e+002, 3.388028e+001
9.233324e+002, 3.416573e+001
9.238145e+002, 3.438119e+001
9.242966e+002, 3.453257e+001
9.247787e+002, 3.458343e+001
9.252609e+002, 3.439198e+001
9.257430e+002, 3.410679e+001
9.262251e+002, 3.404190e+001
9.267072e+002, 3.429374e+001
9.271893e+002, 3.459543e+001
9.276714e+002, 3.485250e+001
9.281536e+002, 3.500117e+001
9.286357e+002, 3.489655e+001
9.291178e+002, 3.466392e+001
9.295999e+002, 3.453269e+001
9.300820e+002, 3.454034e+001
9.305641e+002, 3.462712e+001
9.310463e+002, 3.476911e+001
9.315284e+002, 3.488786e+001
9.320105e+002, 3.481017e+001
9.324926e+002, 3.459953e+001
9.329747e+002, 3.454628e+001
9.334568e+002, 3.465472e+001
9.339390e+002, 3.471057e+001
9.344211e+002, 3.463045e+001
9.349032e+002, 3.452351e+001
9.353853e+002, 3.452640e+001
9.358674e+002, 3.459562e+001
9.363495e+002, 3.442344e+001
9.368317e+002, 3.389296e+001
9.373138e+002, 3.366464e+001
9.377959e+002, 3.396084e+001
9.382780e+002, 3.422902e+001
9.387601e+002, 3.410666e+001
9.392422e+002, 3.382123e+001
9.397244e+002, 3.381780e+001
9.402065e+002, 3.419116e+001
9.406886e+002, 3.428479e+001
9.411707e+002, 3.383514e+001
9.416528e+002, 3.347635e+001
9.421349e+002, 3.339286e+001
9.426171e+002, 3.338048e+001
9.430992e+002, 3.332651e+001
9.435813e+002, 3.321657e+001
9.440634e+002, 3.302269e+001
9.445455e+002, 3.270082e+001
9.450276e+002, 3.244403e+001
9.455098e+002, 3.238420e+001
9.459919e+002, 3.234307e+001
9.464740e+002, 3.217777e+001
9.469561e+002, 3.197382e+001
9.474382e+002, 3.187112e+001
9.479203e+002, 3.186822e+001
9.484025e+002, 3.183452e+001
9.488846e+002, 3.168224e+001
9.493667e+002, 3.152264e+001
9.498488e+002, 3.150988e+001
9.503309e+002, 3.153024e+001
9.508130e+002, 3.137215e+001
9.512952e+002, 3.108117e+001
9.517773e+002, 3.086288e+001
9.522594e+002, 3.078053e+001
9.527415e+002, 3.069414e+001
9.532236e+002, 3.043548e+001
9.537057e+002, 3.011890e+001
9.541878e+002, 3.007341e+001
9.546699e+002, 3.024647e+001
9.551520e+002, 3.027243e+001
9.556342e+002, 3.010026e+001
9.561163e+002, 2.994032e+001
9.565984e+002, 2.991751e+001
9.570805e+002, 2.989330e+001
9.575626e+002, 2.960630e+001
9.580447e+002, 2.906416e+001
9.585269e+002, 2.884030e+001
9.590090e+002, 2.902795e+001
9.594911e+002, 2.913195e+001
9.599732e+002, 2.903879e+001
9.604553e+002, 2.884857e+001
9.609374e+002, 2.858461e+001
9.614196e+002, 2.831060e+001
9.619017e+002, 2.821819e+001
9.623838e+002, 2.839011e+001
9.628659e+002, 2.848879e+001
9.633480e+002, 2.853768e+001
9.638301e+002, 2.847798e+001
9.643123e+002, 2.811000e+001
9.647944e+002, 2.777936e+001
9.652765e+002, 2.787542e+001
9.657586e+002, 2.828997e+001
9.662407e+002, 2.849469e+001
9.667228e+002, 2.828581e+001
9.672050e+002, 2.814883e+001
9.676871e+002, 2.827495e+001
9.681692e+002, 2.840494e+001
9.686513e+002, 2.835582e+001
9.691334e+002, 2.824059e+001
9.696155e+002, 2.823396e+001
9.700977e+002, 2.834165e+001
9.705798e+002, 2.840937e+001
9.710619e+002, 2.833790e+001
9.715440e+002, 2.826137e+001
9.720261e+002, 2.825594e+001
9.725082e+002, 2.829493e+001
9.729904e+002, 2.841378e+001
9.734725e+002, 2.853806e+001
9.739546e+002, 2.845174e+001
9.744367e+002, 2.812219e+001
9.749188e+002, 2.790291e+001
9.754009e+002, 2.815648e+001
9.758831e+002, 2.858187e+001
9.763652e+002, 2.878316e+001
9.768473e+002, 2.884569e+001
9.773294e+002, 2.892889e+001
9.778115e+002, 2.906351e+001
9.782936e+002, 2.927105e+001
9.787758e+002, 2.956231e+001
9.792579e+002, 2.986908e+001
9.797400e+002, 3.013232e+001
9.802221e+002, 3.033521e+001
9.807042e+002, 3.032412e+001
9.811863e+002, 3.015141e+001
9.816685e+002, 3.032140e+001
9.821506e+002, 3.093151e+001
9.826327e+002, 3.143280e+001
9.831148e+002, 3.143442e+001
9.835969e+002, 3.127046e+001
9.840790e+002, 3.161843e+001
9.845612e+002, 3.248203e+001
9.850433e+002, 3.319175e+001
9.855254e+002, 3.374934e+001
9.860075e+002, 3.409280e+001
9.864896e+002, 3.412300e+001
9.869717e+002, 3.420313e+001
9.874539e+002, 3.463695e+001
9.879360e+002, 3.533813e+001
9.884181e+002, 3.604937e+001
9.889002e+002, 3.679115e+001
9.893823e+002, 3.745620e+001
9.898644e+002, 3.801318e+001
9.903466e+002, 3.854950e+001
9.908287e+002, 3.903824e+001
9.913108e+002, 3.958144e+001
9.917929e+002, 4.030577e+001
9.922750e+002, 4.117940e+001
9.927571e+002, 4.200471e+001
9.932393e+002, 4.270978e+001
9.937214e+002, 4.349294e+001
9.942035e+002, 4.431015e+001
9.946856e+002, 4.526906e+001
9.951677e+002, 4.657974e+001
9.956498e+002, 4.793244e+001
9.961320e+002, 4.890404e+001
9.966141e+002, 4.955790e+001
9.970962e+002, 5.046043e+001
9.975783e+002, 5.199934e+001
9.980604e+002, 5.331738e+001
9.985425e+002, 5.385383e+001
9.990247e+002, 5.446065e+001
9.995068e+002, 5.589785e+001
9.999889e+002, 5.761635e+001
1.000471e+003, 5.874242e+001
1.000953e+003, 5.921501e+001
1.001435e+003, 5.972633e+001
1.001917e+003, 6.067250e+001
1.002399e+003, 6.154747e+001
1.002882e+003, 6.203587e+001
1.003364e+003, 6.236095e+001
1.003846e+003, 6.271334e+001
1.004328e+003, 6.307705e+001
1.004810e+003, 6.340139e+001
1.005292e+003, 6.366703e+001
1.005774e+003, 6.384095e+001
1.006256e+003, 6.389497e+001
1.006739e+003, 6.386089e+001
1.007221e+003, 6.367682e+001
1.007703e+003, 6.348142e+001
1.008185e+003, 6.359586e+001
1.008667e+003, 6.387183e+001
1.009149e+003, 6.378375e+001
1.009631e+003, 6.317619e+001
1.010113e+003, 6.252393e+001
1.010595e+003, 6.220496e+001
1.011078e+003, 6.212881e+001
1.011560e+003, 6.230291e+001
1.012042e+003, 6.257257e+001
1.012524e+003, 6.251649e+001
1.013006e+003, 6.216203e+001
1.013488e+003, 6.189447e+001
1.013970e+003, 6.187950e+001
1.014452e+003, 6.192320e+001
1.014935e+003, 6.184314e+001
1.015417e+003, 6.163251e+001
1.015899e+003, 6.122465e+001
1.016381e+003, 6.066278e+001
1.016863e+003, 6.014254e+001
1.017345e+003, 5.969781e+001
1.017827e+003, 5.934905e+001
1.018309e+003, 5.911581e+001
1.018791e+003, 5.882812e+001
1.019274e+003, 5.817502e+001
1.019756e+003, 5.728808e+001
1.020238e+003, 5.689134e+001
1.020720e+003, 5.696000e+001
1.021202e+003, 5.675903e+001
1.021684e+003, 5.615050e+001
1.022166e+003, 5.544118e+001
1.022648e+003, 5.478504e+001
1.023130e+003, 5.423977e+001
1.023613e+003, 5.394713e+001
1.024095e+003, 5.387618e+001
1.024577e+003, 5.346729e+001
1.025059e+003, 5.266352e+001
1.025541e+003, 5.203029e+001
1.026023e+003, 5.170266e+001
1.026505e+003, 5.140873e+001
1.026987e+003, 5.098789e+001
1.027469e+003, 5.047539e+001
1.027952e+003, 4.993738e+001
1.028434e+003, 4.936980e+001
1.028916e+003, 4.877045e+001
1.029398e+003, 4.811146e+001
1.029880e+003, 4.753077e+001
1.030362e+003, 4.712386e+001
1.030844e+003, 4.661953e+001
1.031326e+003, 4.577440e+001
1.031809e+003, 4.478873e+001
1.032291e+003, 4.407407e+001
1.032773e+003, 4.366602e+001
1.033255e+003, 4.324584e+001
1.033737e+003, 4.284344e+001
1.034219e+003, 4.235082e+001
1.034701e+003, 4.163393e+001
1.035183e+003, 4.100359e+001
1.035666e+003, 4.078683e+001
1.036148e+003, 4.072735e+001
1.036630e+003, 4.024572e+001
1.037112e+003, 3.922277e+001
1.037594e+003, 3.845036e+001
1.038076e+003, 3.807020e+001
1.038558e+003, 3.772101e+001
1.039040e+003, 3.735412e+001
1.039522e+003, 3.698877e+001
1.040005e+003, 3.666973e+001
1.040487e+003, 3.635006e+001
1.040969e+003, 3.591079e+001
1.041451e+003, 3.530524e+001
1.041933e+003, 3.481901e+001
1.042415e+003, 3.455246e+001
1.042897e+003, 3.426924e+001
1.043379e+003, 3.382938e+001
1.043861e+003, 3.345644e+001
1.044344e+003, 3.338855e+001
1.044826e+003, 3.346047e+001
1.045308e+003, 3.332227e+001
1.045790e+003, 3.290829e+001
1.046272e+003, 3.260787e+001
1.046754e+003, 3.264378e+001
1.047236e+003, 3.254756e+001
1.047718e+003, 3.201960e+001
1.048201e+003, 3.150525e+001
1.048683e+003, 3.142360e+001
1.049165e+003, 3.153332e+001
1.049647e+003, 3.129448e+001
1.050129e+003, 3.059967e+001
1.050611e+003, 3.016479e+001
1.051093e+003, 3.037468e+001
1.051575e+003, 3.052662e+001
1.052057e+003, 3.038102e+001
1.052540e+003, 3.013511e+001
1.053022e+003, 2.989504e+001
1.053504e+003, 2.967546e+001
1.053986e+003, 2.947891e+001
1.054468e+003, 2.930460e+001
1.054950e+003, 2.917051e+001
1.055432e+003, 2.910547e+001
1.055914e+003, 2.904873e+001
1.056396e+003, 2.904266e+001
1.056879e+003, 2.897654e+001
1.057361e+003, 2.868113e+001
1.057843e+003, 2.830440e+001
1.058325e+003, 2.813519e+001
1.058807e+003, 2.821161e+001
1.059289e+003, 2.821015e+001
1.059771e+003, 2.793299e+001
1.060253e+003, 2.768554e+001
1.060736e+003, 2.756167e+001
1.061218e+003, 2.753130e+001
1.061700e+003, 2.766652e+001
1.062182e+003, 2.783374e+001
1.062664e+003, 2.779469e+001
1.063146e+003, 2.752898e+001
1.063628e+003, 2.729811e+001
1.064110e+003, 2.726991e+001
1.064593e+003, 2.718843e+001
1.065075e+003, 2.678913e+001
1.065557e+003, 2.645429e+001
1.066039e+003, 2.659374e+001
1.066521e+003, 2.693645e+001
1.067003e+003, 2.706267e+001
1.067485e+003, 2.691229e+001
1.067967e+003, 2.664056e+001
1.068449e+003, 2.616754e+001
1.068932e+003, 2.582442e+001
1.069414e+003, 2.584249e+001
1.069896e+003, 2.596178e+001
1.070378e+003, 2.603033e+001
1.070860e+003, 2.604898e+001
1.071342e+003, 2.606855e+001
1.071824e+003, 2.607289e+001
1.072306e+003, 2.592634e+001
1.072788e+003, 2.545720e+001
1.073271e+003, 2.511236e+001
1.073753e+003, 2.521663e+001
1.074235e+003, 2.539826e+001
1.074717e+003, 2.539211e+001
1.075199e+003, 2.529541e+001
1.075681e+003, 2.526594e+001
1.076163e+003, 2.530021e+001
1.076645e+003, 2.526816e+001
1.077127e+003, 2.508762e+001
1.077610e+003, 2.495935e+001
1.078092e+003, 2.505554e+001
1.078574e+003, 2.514869e+001
1.079056e+003, 2.504882e+001
1.079538e+003, 2.488334e+001
1.080020e+003, 2.480628e+001
1.080502e+003, 2.481675e+001
1.080984e+003, 2.484638e+001
1.081467e+003, 2.488512e+001
1.081949e+003, 2.488686e+001
1.082431e+003, 2.474665e+001
1.082913e+003, 2.466102e+001
1.083395e+003, 2.483463e+001
1.083877e+003, 2.506011e+001
1.084359e+003, 2.511535e+001
1.084841e+003, 2.502355e+001
1.085323e+003, 2.490665e+001
1.085806e+003, 2.479462e+001
1.086288e+003, 2.467557e+001
1.086770e+003, 2.449881e+001
1.087252e+003, 2.437048e+001
1.087734e+003, 2.439902e+001
1.088216e+003, 2.445368e+001
1.088698e+003, 2.430848e+001
1.089180e+003, 2.412351e+001
1.089662e+003, 2.435739e+001
1.090145e+003, 2.510758e+001
1.090627e+003, 2.551394e+001
1.091109e+003, 2.493634e+001
1.091591e+003, 2.437546e+001
1.092073e+003, 2.429269e+001
1.092555e+003, 2.436000e+001
1.093037e+003, 2.436845e+001
1.093519e+003, 2.431927e+001
1.094002e+003, 2.422724e+001
1.094484e+003, 2.410459e+001
1.094966e+003, 2.405134e+001
1.095448e+003, 2.422856e+001
1.095930e+003, 2.428797e+001
1.096412e+003, 2.400756e+001
1.096894e+003, 2.369057e+001
1.097376e+003, 2.350869e+001
1.097859e+003, 2.341925e+001
1.098341e+003, 2.334055e+001
1.098823e+003, 2.327596e+001
1.099305e+003, 2.331011e+001
1.099787e+003, 2.354710e+001
1.100269e+003, 2.370584e+001
1.100751e+003, 2.364321e+001
1.101233e+003, 2.356973e+001
1.101715e+003, 2.360448e+001
1.102198e+003, 2.366867e+001
1.102680e+003, 2.367713e+001
1.103162e+003, 2.363634e+001
1.103644e+003, 2.359510e+001
1.104126e+003, 2.356298e+001
1.104608e+003, 2.352249e+001
1.105090e+003, 2.346520e+001
1.105572e+003, 2.340640e+001
1.106054e+003, 2.335031e+001
1.106537e+003, 2.329568e+001
1.107019e+003, 2.323739e+001
1.107501e+003, 2.318022e+001
1.107983e+003, 2.314371e+001
1.108465e+003, 2.314085e+001
1.108947e+003, 2.309031e+001
1.109429e+003, 2.285527e+001
1.109911e+003, 2.275668e+001
1.110394e+003, 2.297717e+001
1.110876e+003, 2.322669e+001
1.111358e+003, 2.335349e+001
1.111840e+003, 2.338734e+001
1.112322e+003, 2.336747e+001
1.112804e+003, 2.329180e+001
1.113286e+003, 2.321818e+001
1.113768e+003, 2.309881e+001
1.114250e+003, 2.306521e+001
1.114733e+003, 2.326899e+001
1.115215e+003, 2.336111e+001
1.115697e+003, 2.308028e+001
1.116179e+003, 2.271974e+001
1.116661e+003, 2.263240e+001
1.117143e+003, 2.277888e+001
1.117625e+003, 2.287275e+001
1.118107e+003, 2.294734e+001
1.118589e+003, 2.287421e+001
1.119072e+003, 2.251297e+001
1.119554e+003, 2.228920e+001
1.120036e+003, 2.237670e+001
1.120518e+003, 2.258550e+001
1.121000e+003, 2.279969e+001
1.121482e+003, 2.297713e+001
1.121964e+003, 2.297186e+001
1.122446e+003, 2.273220e+001
1.122929e+003, 2.263801e+001
1.123411e+003, 2.274943e+001
1.123893e+003, 2.279569e+001
1.124375e+003, 2.270394e+001
1.124857e+003, 2.257528e+001
1.125339e+003, 2.245291e+001
1.125821e+003, 2.237863e+001
1.126303e+003, 2.244019e+001
1.126786e+003, 2.262713e+001
1.127268e+003, 2.277649e+001
1.127750e+003, 2.290740e+001
1.128232e+003, 2.278259e+001
1.128714e+003, 2.233363e+001
1.129196e+003, 2.190273e+001
1.129678e+003, 2.163173e+001
1.130160e+003, 2.153717e+001
1.130642e+003, 2.167220e+001
1.131125e+003, 2.194849e+001
1.131607e+003, 2.204139e+001
1.132089e+003, 2.196242e+001
1.132571e+003, 2.192234e+001
1.133053e+003, 2.193120e+001
1.133535e+003, 2.189004e+001
1.134017e+003, 2.176871e+001
1.134499e+003, 2.161497e+001
1.134981e+003, 2.145440e+001
1.135464e+003, 2.134352e+001
1.135946e+003, 2.143859e+001
1.136428e+003, 2.166503e+001
1.136910e+003, 2.170235e+001
1.137392e+003, 2.159481e+001
1.137874e+003, 2.159521e+001
1.138356e+003, 2.173231e+001
1.138838e+003, 2.185233e+001
1.139321e+003, 2.187700e+001
1.139803e+003, 2.180623e+001
1.140285e+003, 2.159944e+001
1.140767e+003, 2.133462e+001
1.141249e+003, 2.112826e+001
1.141731e+003, 2.098502e+001
1.142213e+003, 2.094543e+001
1.142695e+003, 2.097949e+001
1.143177e+003, 2.096599e+001
1.143660e+003, 2.087986e+001
1.144142e+003, 2.086044e+001
1.144624e+003, 2.104346e+001
1.145106e+003, 2.124431e+001
1.145588e+003, 2.123483e+001
1.146070e+003, 2.116013e+001
1.146552e+003, 2.128589e+001
1.147034e+003, 2.144920e+001
1.147516e+003, 2.125422e+001
1.147999e+003, 2.074609e+001
1.148481e+003, 2.038227e+001
1.148963e+003, 2.035381e+001
1.149445e+003, 2.049259e+001
1.149927e+003, 2.080236e+001
1.150409e+003, 2.111703e+001
1.150891e+003, 2.138590e+001
1.151373e+003, 2.154013e+001
1.151856e+003, 2.144702e+001
1.152338e+003, 2.119860e+001
1.152820e+003, 2.099467e+001
1.153302e+003, 2.087761e+001
1.153784e+003, 2.081403e+001
1.154266e+003, 2.081918e+001
1.154748e+003, 2.083775e+001
1.155230e+003, 2.082275e+001
1.155713e+003, 2.084721e+001
1.156195e+003, 2.103227e+001
1.156677e+003, 2.123479e+001
1.157159e+003, 2.129517e+001
1.157641e+003, 2.120180e+001
1.158123e+003, 2.094592e+001
1.158605e+003, 2.028326e+001
1.159087e+003, 1.997896e+001
1.159569e+003, 2.039079e+001
1.160052e+003, 2.073785e+001
1.160534e+003, 2.072050e+001
1.161016e+003, 2.067834e+001
1.161498e+003, 2.091309e+001
1.161980e+003, 2.126883e+001
1.162462e+003, 2.139307e+001
1.162944e+003, 2.125974e+001
1.163426e+003, 2.118450e+001
1.163908e+003, 2.121074e+001
1.164391e+003, 2.115722e+001
1.164873e+003, 2.096175e+001
1.165355e+003, 2.080223e+001
1.165837e+003, 2.077323e+001
1.166319e+003, 2.078079e+001
1.166801e+003, 2.069110e+001
1.167283e+003, 2.056796e+001
1.167765e+003, 2.073706e+001
1.168247e+003, 2.121664e+001
1.168730e+003, 2.139747e+001
1.169212e+003, 2.124693e+001
1.169694e+003, 2.100577e+001
1.170176e+003, 2.073500e+001
1.170658e+003, 2.062389e+001
1.171140e+003, 2.082494e+001
1.171622e+003, 2.110120e+001
1.172104e+003, 2.102306e+001
1.172587e+003, 2.072776e+001
1.173069e+003, 2.069931e+001
1.173551e+003, 2.086325e+001
1.174033e+003, 2.092505e+001
1.174515e+003, 2.087316e+001
1.174997e+003, 2.088503e+001
1.175479e+003, 2.102049e+001
1.175961e+003, 2.113284e+001
1.176443e+003, 2.108162e+001
1.176926e+003, 2.099279e+001
1.177408e+003, 2.103247e+001
1.177890e+003, 2.112733e+001
1.178372e+003, 2.118108e+001
1.178854e+003, 2.120084e+001
1.179336e+003, 2.120935e+001
1.179818e+003, 2.121525e+001
1.180300e+003, 2.123559e+001
1.180782e+003, 2.128418e+001
1.181265e+003, 2.129275e+001
1.181747e+003, 2.116315e+001
1.182229e+003, 2.104846e+001
1.182711e+003, 2.108640e+001
1.183193e+003, 2.115365e+001
1.183675e+003, 2.111889e+001
1.184157e+003, 2.102768e+001
1.184639e+003, 2.098170e+001
1.185122e+003, 2.099398e+001
1.185604e+003, 2.100851e+001
1.186086e+003, 2.109020e+001
1.186568e+003, 2.104791e+001
1.187050e+003, 2.068824e+001
1.187532e+003, 2.039963e+001
1.188014e+003, 2.035493e+001
1.188496e+003, 2.044830e+001
1.188979e+003, 2.061611e+001
1.189461e+003, 2.083142e+001
1.189943e+003, 2.102172e+001
1.190425e+003, 2.119937e+001
1.190907e+003, 2.126536e+001
1.191389e+003, 2.114980e+001
1.191871e+003, 2.113971e+001
1.192353e+003, 2.135386e+001
1.192835e+003, 2.144059e+001
1.193318e+003, 2.117788e+001
1.193800e+003, 2.083747e+001
1.194282e+003, 2.074656e+001
1.194764e+003, 2.086236e+001
1.195246e+003, 2.106021e+001
1.195728e+003, 2.133205e+001
1.196210e+003, 2.143532e+001
1.196692e+003, 2.136505e+001
1.197174e+003, 2.126416e+001
1.197657e+003, 2.116907e+001
1.198139e+003, 2.104583e+001
1.198621e+003, 2.087180e+001
1.199103e+003, 2.068135e+001
1.199585e+003, 2.045335e+001
1.200067e+003, 2.029320e+001
1.200549e+003, 2.053074e+001
1.201031e+003, 2.095184e+001
1.201514e+003, 2.107531e+001
1.201996e+003, 2.093319e+001
1.202478e+003, 2.074232e+001
1.202960e+003, 2.058993e+001
1.203442e+003, 2.057953e+001
1.203924e+003, 2.082346e+001
1.204406e+003, 2.106691e+001
1.204888e+003, 2.110111e+001
1.205370e+003, 2.107177e+001
1.205853e+003, 2.106684e+001
1.206335e+003, 2.109337e+001
1.206817e+003, 2.119937e+001
1.207299e+003, 2.132676e+001
1.207781e+003, 2.131755e+001
1.208263e+003, 2.113232e+001
1.208745e+003, 2.096722e+001
1.209227e+003, 2.084443e+001
1.209709e+003, 2.078379e+001
1.210192e+003, 2.084314e+001
1.210674e+003, 2.090049e+001
1.211156e+003, 2.085194e+001
1.211638e+003, 2.081125e+001
1.212120e+003, 2.092903e+001
1.212602e+003, 2.114290e+001
1.213084e+003, 2.120037e+001
1.213566e+003, 2.104674e+001
1.214049e+003, 2.102544e+001
1.214531e+003, 2.118607e+001
1.215013e+003, 2.127119e+001
1.215495e+003, 2.121345e+001
1.215977e+003, 2.118431e+001
1.216459e+003, 2.129029e+001
1.216941e+003, 2.137671e+001
1.217423e+003, 2.123078e+001
1.217906e+003, 2.095408e+001
1.218388e+003, 2.093306e+001
1.218870e+003, 2.107382e+001
1.219352e+003, 2.075090e+001
1.219834e+003, 2.008900e+001
1.220316e+003, 1.999650e+001
1.220798e+003, 2.057425e+001
1.221280e+003, 2.099317e+001
1.221762e+003, 2.080055e+001
1.222245e+003, 2.047898e+001
1.222727e+003, 2.049131e+001
1.223209e+003, 2.065429e+001
1.223691e+003, 2.081054e+001
1.224173e+003, 2.094958e+001
1.224655e+003, 2.105727e+001
1.225137e+003, 2.113636e+001
1.225619e+003, 2.122581e+001
1.226101e+003, 2.130585e+001
1.226584e+003, 2.122427e+001
1.227066e+003, 2.083872e+001
1.227548e+003, 2.055706e+001
1.228030e+003, 2.052930e+001
1.228512e+003, 2.062066e+001
1.228994e+003, 2.090078e+001
1.229476e+003, 2.115523e+001
1.229958e+003, 2.119960e+001
1.230441e+003, 2.111454e+001
1.230923e+003, 2.105333e+001
1.231405e+003, 2.101353e+001
1.231887e+003, 2.090187e+001
1.232369e+003, 2.061735e+001
1.232851e+003, 2.059483e+001
1.233333e+003, 2.093742e+001
1.233815e+003, 2.124506e+001
1.234297e+003, 2.140159e+001
1.234780e+003, 2.148231e+001
1.235262e+003, 2.154642e+001
1.235744e+003, 2.154606e+001
1.236226e+003, 2.135216e+001
1.236708e+003, 2.104754e+001
1.237190e+003, 2.101847e+001
1.237672e+003, 2.119576e+001
1.238154e+003, 2.129209e+001
1.238636e+003, 2.127833e+001
1.239119e+003, 2.114080e+001
1.239601e+003, 2.091067e+001
1.240083e+003, 2.081886e+001
1.240565e+003, 2.103501e+001
1.241047e+003, 2.131483e+001
1.241529e+003, 2.138796e+001
1.242011e+003, 2.144849e+001
1.242493e+003, 2.183395e+001
1.242975e+003, 2.220664e+001
1.243458e+003, 2.195370e+001
1.243940e+003, 2.141961e+001
1.244422e+003, 2.150685e+001
1.244904e+003, 2.229576e+001
1.245386e+003, 2.274640e+001
1.245868e+003, 2.241957e+001
1.246350e+003, 2.205237e+001
1.246832e+003, 2.169950e+001
1.247315e+003, 2.141735e+001
1.247797e+003, 2.120798e+001
1.248279e+003, 2.109602e+001
1.248761e+003, 2.112794e+001
1.249243e+003, 2.124211e+001
1.249725e+003, 2.133753e+001
1.250207e+003, 2.141176e+001
1.250689e+003, 2.141635e+001
1.251172e+003, 2.133937e+001
1.251654e+003, 2.134410e+001
1.252136e+003, 2.144874e+001
1.252618e+003, 2.142123e+001
1.253100e+003, 2.119313e+001
1.253582e+003, 2.104957e+001
1.254064e+003, 2.119367e+001
1.254546e+003, 2.144749e+001
1.255028e+003, 2.162393e+001
1.255510e+003, 2.169374e+001
1.255993e+003, 2.150256e+001
1.256475e+003, 2.121778e+001
1.256957e+003, 2.113723e+001
1.257439e+003, 2.124869e+001
1.257921e+003, 2.151385e+001
1.258403e+003, 2.186307e+001
1.258885e+003, 2.203042e+001
1.259367e+003, 2.186401e+001
1.259850e+003, 2.165310e+001
1.260332e+003, 2.144048e+001
1.260814e+003, 2.133568e+001
1.261296e+003, 2.146546e+001
1.261778e+003, 2.164618e+001
1.262260e+003, 2.177729e+001
1.262742e+003, 2.184306e+001
1.263224e+003, 2.180429e+001
1.263707e+003, 2.167942e+001
1.264189e+003, 2.162004e+001
1.264671e+003, 2.164088e+001
1.265153e+003, 2.169160e+001
1.265635e+003, 2.180220e+001
1.266117e+003, 2.178961e+001
1.266599e+003, 2.159511e+001
1.267081e+003, 2.138299e+001
1.267563e+003, 2.123668e+001
1.268046e+003, 2.118575e+001
1.268528e+003, 2.127127e+001
1.269010e+003, 2.146650e+001
1.269492e+003, 2.175914e+001
1.269974e+003, 2.209036e+001
1.270456e+003, 2.238389e+001
1.270938e+003, 2.256581e+001
1.271420e+003, 2.234893e+001
1.271902e+003, 2.183509e+001
1.272385e+003, 2.159785e+001
1.272867e+003, 2.185760e+001
1.273349e+003, 2.205136e+001
1.273831e+003, 2.166071e+001
1.274313e+003, 2.137386e+001
1.274795e+003, 2.172509e+001
1.275277e+003, 2.207887e+001
1.275759e+003, 2.190013e+001
1.276242e+003, 2.158228e+001
1.276724e+003, 2.164557e+001
1.277206e+003, 2.195749e+001
1.277688e+003, 2.202602e+001
1.278170e+003, 2.182508e+001
1.278652e+003, 2.158832e+001
1.279134e+003, 2.123672e+001
1.279616e+003, 2.117821e+001
1.280099e+003, 2.152660e+001
1.280581e+003, 2.176720e+001
1.281063e+003, 2.169673e+001
1.281545e+003, 2.164569e+001
1.282027e+003, 2.189156e+001
1.282509e+003, 2.222348e+001
1.282991e+003, 2.228988e+001
1.283473e+003, 2.216925e+001
1.283955e+003, 2.203339e+001
##END=



