##NAMES=Epididymite
##RRUFFID=R070580
##IDEAL CHEMISTRY=Na_2_Be_2_Si_6_O_15_&#183;H_2_O
##LOCALITY=Narsarsuk, Narsaq, Kitaa, Greenland
##OWNER=RRUFF
##SOURCE=James Shigley
##DESCRIPTION=A translucent to white elongated prism.
##STATUS=The identification of this mineral is confirmed by single-crystal X-ray diffraction and chemical analysis.
##URL=rruff.info/R070580
##MEASURED CHEMISTRY=(Na_1.97_K_0.03_)_Σ=2_Be_2_Si_6.00_O_15_·H_2_O; trace amounts of Al; Be and H_2_O assumed by stoichiometry
116.8639, 1453.017
117.3460, 1580.459
117.8282, 1703.561
118.3103, 1825.823
118.7924, 1954.063
119.2745, 2078.704
119.7566, 2216.554
120.2387, 2380.058
120.7209, 2579.527
121.2030, 2788.437
121.6851, 2983.219
122.1672, 3172.146
122.6493, 3384.902
123.1314, 3660.663
123.6136, 3962.900
124.0957, 4248.996
124.5778, 4494.450
125.0599, 4726.925
125.5420, 4963.526
126.0241, 5205.222
126.5063, 5460.834
126.9884, 5733.414
127.4705, 6025.050
127.9526, 6340.815
128.4347, 6661.375
128.9168, 7013.012
129.3990, 7424.288
129.8811, 7887.343
130.3632, 8446.859
130.8453, 9169.633
131.3274, 10044.83
131.8095, 11034.10
132.2917, 12288.98
132.7738, 13698.91
133.2559, 14765.83
133.7380, 15433.22
134.2201, 15680.43
134.7022, 15388.55
135.1843, 14519.61
135.6665, 13385.73
136.1486, 12192.32
136.6307, 10944.55
137.1128, 9830.395
137.5949, 8903.208
138.0770, 8164.803
138.5592, 7572.473
139.0413, 7137.532
139.5234, 6819.873
140.0055, 6571.207
140.4876, 6397.987
140.9697, 6264.386
141.4519, 6161.011
141.9340, 6091.767
142.4161, 6031.243
142.8982, 5973.672
143.3803, 5924.519
143.8624, 5907.148
144.3446, 5935.087
144.8267, 5959.286
145.3088, 5924.101
145.7909, 5844.603
146.2730, 5801.275
146.7551, 5806.148
147.2373, 5858.500
147.7194, 5923.679
148.2015, 5990.563
148.6836, 6077.371
149.1657, 6206.524
149.6478, 6431.594
150.1300, 6632.745
150.6121, 6793.729
151.0942, 6928.460
151.5763, 6988.531
152.0584, 6968.780
152.5405, 6878.066
153.0227, 6729.437
153.5048, 6488.542
153.9869, 6220.697
154.4690, 5946.964
154.9511, 5655.056
155.4332, 5376.794
155.9154, 5106.106
156.3975, 4847.103
156.8796, 4612.842
157.3617, 4398.001
157.8438, 4210.275
158.3259, 4058.665
158.8080, 3967.441
159.2902, 3886.412
159.7723, 3802.169
160.2544, 3714.834
160.7365, 3638.780
161.2186, 3578.254
161.7007, 3531.404
162.1829, 3496.157
162.6650, 3474.014
163.1471, 3461.827
163.6292, 3462.803
164.1113, 3481.346
164.5934, 3492.395
165.0756, 3476.102
165.5577, 3445.711
166.0398, 3424.766
166.5219, 3418.734
167.0040, 3428.340
167.4861, 3458.995
167.9683, 3527.898
168.4504, 3586.942
168.9325, 3595.781
169.4146, 3567.366
169.8967, 3547.246
170.3788, 3572.794
170.8610, 3615.589
171.3431, 3645.307
171.8252, 3644.417
172.3073, 3635.470
172.7894, 3634.089
173.2715, 3640.139
173.7537, 3653.141
174.2358, 3674.540
174.7179, 3702.542
175.2000, 3734.058
175.6821, 3772.205
176.1642, 3811.523
176.6464, 3843.465
177.1285, 3866.406
177.6106, 3892.182
178.0927, 3930.601
178.5748, 3980.450
179.0569, 4038.291
179.5390, 4108.368
180.0212, 4184.744
180.5033, 4254.858
180.9854, 4315.755
181.4675, 4376.582
181.9496, 4449.214
182.4317, 4533.092
182.9139, 4617.708
183.3960, 4698.775
183.8781, 4777.098
184.3602, 4852.637
184.8423, 4924.189
185.3244, 4995.136
185.8066, 5074.632
186.2887, 5161.836
186.7708, 5250.353
187.2529, 5332.466
187.7350, 5410.025
188.2171, 5484.912
188.6993, 5551.746
189.1814, 5618.724
189.6635, 5713.955
190.1456, 5841.234
190.6277, 5976.499
191.1098, 6088.290
191.5920, 6179.474
192.0741, 6283.283
192.5562, 6420.896
193.0383, 6585.757
193.5204, 6738.194
194.0025, 6877.707
194.4847, 7011.165
194.9668, 7152.527
195.4489, 7302.468
195.9310, 7443.930
196.4131, 7565.055
196.8952, 7666.255
197.3774, 7775.355
197.8595, 7904.315
198.3416, 8026.178
198.8237, 8078.744
199.3058, 8055.523
199.7879, 8002.560
200.2701, 7951.045
200.7522, 7902.463
201.2343, 7824.919
201.7164, 7714.227
202.1985, 7572.243
202.6806, 7398.208
203.1628, 7188.283
203.6449, 6969.147
204.1270, 6768.550
204.6091, 6591.223
205.0912, 6399.846
205.5733, 6175.711
206.0555, 5927.208
206.5376, 5731.238
207.0197, 5599.031
207.5018, 5495.803
207.9839, 5381.360
208.4660, 5248.888
208.9482, 5133.711
209.4303, 5053.354
209.9124, 5008.865
210.3945, 4939.748
210.8766, 4830.852
211.3587, 4717.095
211.8409, 4650.640
212.3230, 4646.078
212.8051, 4645.830
213.2872, 4627.306
213.7693, 4584.043
214.2514, 4558.890
214.7336, 4556.570
215.2157, 4568.814
215.6978, 4578.990
216.1799, 4586.107
216.6620, 4593.478
217.1441, 4601.960
217.6263, 4610.282
218.1084, 4622.040
218.5905, 4632.261
219.0726, 4647.419
219.5547, 4687.834
220.0368, 4758.505
220.5190, 4846.139
221.0011, 4946.280
221.4832, 5065.151
221.9653, 5180.025
222.4474, 5283.565
222.9295, 5380.979
223.4117, 5505.498
223.8938, 5668.003
224.3759, 5843.888
224.8580, 6018.857
225.3401, 6190.142
225.8222, 6363.690
226.3043, 6538.700
226.7865, 6716.693
227.2686, 6894.916
227.7507, 7067.469
228.2328, 7246.057
228.7149, 7445.797
229.1970, 7677.839
229.6792, 7905.535
230.1613, 8121.838
230.6434, 8323.429
231.1255, 8533.317
231.6076, 8742.943
232.0897, 8962.854
232.5719, 9209.515
233.0540, 9494.398
233.5361, 9780.822
234.0182, 10053.93
234.5003, 10299.52
234.9824, 10599.37
235.4646, 10963.07
235.9467, 11374.91
236.4288, 11815.66
236.9109, 12303.73
237.3930, 12789.57
237.8751, 13261.57
238.3573, 13711.06
238.8394, 14168.20
239.3215, 14642.33
239.8036, 15117.53
240.2857, 15585.66
240.7678, 16072.38
241.2500, 16509.54
241.7321, 16879.83
242.2142, 17215.00
242.6963, 17406.24
243.1784, 17427.33
243.6605, 17308.42
244.1427, 17131.72
244.6248, 16909.84
245.1069, 16611.32
245.5890, 16210.32
246.0711, 15647.83
246.5532, 15106.88
247.0353, 14590.18
247.5175, 14097.20
247.9996, 13632.50
248.4817, 13171.08
248.9638, 12767.12
249.4459, 12458.45
249.9280, 12287.31
250.4102, 12123.12
250.8923, 11954.68
251.3744, 11783.94
251.8565, 11631.26
252.3386, 11487.60
252.8207, 11370.50
253.3029, 11298.78
253.7850, 11305.29
254.2671, 11285.54
254.7492, 11216.02
255.2313, 11103.08
255.7134, 11021.00
256.1956, 10979.41
256.6777, 10957.51
257.1598, 10938.62
257.6419, 10918.88
258.1240, 10910.39
258.6061, 10914.18
259.0883, 10930.34
259.5704, 10963.87
260.0525, 11027.89
260.5346, 11092.20
261.0167, 11126.01
261.4988, 11118.49
261.9810, 11107.86
262.4631, 11108.34
262.9452, 11120.51
263.4273, 11088.55
263.9094, 10993.36
264.3915, 10879.29
264.8737, 10793.84
265.3558, 10748.55
265.8379, 10703.90
266.3200, 10654.71
266.8021, 10601.23
267.2842, 10531.17
267.7664, 10447.33
268.2485, 10342.78
268.7306, 10204.08
269.2127, 10026.90
269.6948, 9831.917
270.1769, 9626.133
270.6591, 9412.660
271.1412, 9160.489
271.6233, 8863.398
272.1054, 8538.750
272.5875, 8193.615
273.0696, 7821.389
273.5518, 7459.707
274.0339, 7113.090
274.5160, 6782.184
274.9981, 6483.961
275.4802, 6222.099
275.9623, 5986.840
276.4445, 5773.913
276.9266, 5583.972
277.4087, 5407.604
277.8908, 5238.957
278.3729, 5075.776
278.8550, 4941.150
279.3372, 4837.229
279.8193, 4758.040
280.3014, 4699.121
280.7835, 4661.947
281.2656, 4631.794
281.7477, 4601.180
282.2298, 4570.072
282.7119, 4549.255
283.1941, 4539.107
283.6762, 4538.374
284.1583, 4549.229
284.6404, 4572.802
285.1225, 4591.903
285.6046, 4604.090
286.0868, 4608.242
286.5689, 4584.076
287.0510, 4526.918
287.5331, 4450.740
288.0152, 4376.934
288.4973, 4306.237
288.9795, 4230.332
289.4616, 4137.430
289.9437, 4032.570
290.4258, 3951.557
290.9079, 3898.902
291.3900, 3862.694
291.8722, 3825.620
292.3543, 3788.167
292.8364, 3755.489
293.3185, 3726.790
293.8006, 3704.187
294.2827, 3700.656
294.7649, 3722.455
295.2470, 3747.185
295.7291, 3736.298
296.2112, 3694.372
296.6933, 3659.837
297.1754, 3660.285
297.6576, 3683.119
298.1397, 3694.973
298.6218, 3691.269
299.1039, 3681.706
299.5860, 3672.913
300.0681, 3666.905
300.5503, 3672.811
301.0324, 3709.247
301.5145, 3758.640
301.9966, 3784.159
302.4787, 3777.776
302.9608, 3765.709
303.4430, 3778.731
303.9251, 3811.070
304.4072, 3843.511
304.8893, 3865.523
305.3714, 3881.640
305.8535, 3899.487
306.3357, 3921.039
306.8178, 3939.285
307.2999, 3938.471
307.7820, 3927.668
308.2641, 3930.644
308.7462, 3968.944
309.2284, 4023.070
309.7105, 4074.542
310.1926, 4122.111
310.6747, 4163.090
311.1568, 4188.882
311.6389, 4205.952
312.1211, 4228.190
312.6032, 4265.770
313.0853, 4309.021
313.5674, 4351.085
314.0495, 4390.578
314.5316, 4429.936
315.0138, 4471.524
315.4959, 4514.012
315.9780, 4554.375
316.4601, 4583.868
316.9422, 4615.608
317.4243, 4657.224
317.9065, 4710.687
318.3886, 4771.028
318.8707, 4846.278
319.3528, 4925.577
319.8349, 4992.097
320.3170, 5023.523
320.7992, 5053.326
321.2813, 5098.063
321.7634, 5162.840
322.2455, 5228.062
322.7276, 5286.505
323.2097, 5342.646
323.6919, 5403.005
324.1740, 5450.601
324.6561, 5518.274
325.1382, 5624.595
325.6203, 5782.990
326.1024, 5928.716
326.5845, 6052.919
327.0667, 6159.800
327.5488, 6254.977
328.0309, 6297.625
328.5130, 6367.170
328.9951, 6491.341
329.4772, 6687.546
329.9594, 6869.572
330.4415, 7025.850
330.9236, 7172.877
331.4057, 7327.583
331.8878, 7513.402
332.3699, 7679.295
332.8521, 7812.011
333.3342, 7907.266
333.8163, 8002.402
334.2984, 8088.195
334.7805, 8181.348
335.2626, 8301.842
335.7448, 8462.546
336.2269, 8624.724
336.7090, 8783.990
337.1911, 8939.129
337.6732, 9083.813
338.1553, 9207.423
338.6375, 9335.918
339.1196, 9499.608
339.6017, 9710.382
340.0838, 9919.915
340.5659, 10113.29
341.0480, 10294.54
341.5302, 10500.12
342.0123, 10722.40
342.4944, 10984.05
342.9765, 11313.88
343.4586, 11713.34
343.9407, 12139.95
344.4229, 12594.88
344.9050, 13061.99
345.3871, 13487.33
345.8692, 13880.35
346.3513, 14154.58
346.8334, 14228.57
347.3156, 14109.42
347.7977, 13856.23
348.2798, 13454.39
348.7619, 12946.92
349.2440, 12384.79
349.7261, 11765.32
350.2083, 11168.32
350.6904, 10652.45
351.1725, 10202.38
351.6546, 9785.866
352.1367, 9400.350
352.6188, 9049.354
353.1010, 8753.511
353.5831, 8508.186
354.0652, 8288.904
354.5473, 8070.938
355.0294, 7869.268
355.5115, 7707.226
355.9937, 7595.081
356.4758, 7510.901
356.9579, 7441.840
357.4400, 7385.776
357.9221, 7338.767
358.4042, 7297.986
358.8864, 7265.419
359.3685, 7245.540
359.8506, 7242.691
360.3327, 7239.018
360.8148, 7219.628
361.2969, 7192.133
361.7791, 7170.514
362.2612, 7142.536
362.7433, 7135.338
363.2254, 7169.258
363.7075, 7253.328
364.1896, 7347.502
364.6718, 7434.871
365.1539, 7525.944
365.6360, 7634.637
366.1181, 7776.154
366.6002, 7925.359
367.0823, 8080.731
367.5645, 8246.046
368.0466, 8389.624
368.5287, 8473.820
369.0108, 8547.193
369.4929, 8656.237
369.9750, 8830.197
370.4571, 9012.947
370.9392, 9199.319
371.4214, 9390.211
371.9035, 9574.278
372.3856, 9736.211
372.8677, 9902.418
373.3498, 10093.28
373.8319, 10309.61
374.3141, 10544.46
374.7962, 10795.79
375.2783, 11065.45
375.7604, 11359.84
376.2425, 11683.49
376.7246, 12023.11
377.2068, 12355.33
377.6889, 12665.40
378.1710, 13048.15
378.6531, 13531.70
379.1352, 14082.15
379.6173, 14595.01
380.0995, 15081.91
380.5816, 15505.26
381.0637, 15867.07
381.5458, 16166.68
382.0279, 16349.61
382.5100, 16419.14
382.9922, 16359.80
383.4743, 16125.86
383.9564, 15719.32
384.4385, 15224.62
384.9206, 14637.57
385.4027, 13992.45
385.8849, 13363.62
386.3670, 12759.35
386.8491, 12177.62
387.3312, 11620.69
387.8133, 11091.12
388.2954, 10596.55
388.7776, 10136.03
389.2597, 9716.380
389.7418, 9339.080
390.2239, 9006.104
390.7060, 8720.962
391.1881, 8470.716
391.6703, 8270.042
392.1524, 8141.447
392.6345, 8121.482
393.1166, 8150.583
393.5987, 8200.233
394.0808, 8269.476
394.5630, 8352.454
395.0451, 8467.573
395.5272, 8585.109
396.0093, 8677.067
396.4914, 8689.678
396.9735, 8729.184
397.4557, 8832.952
397.9378, 8990.521
398.4199, 9156.624
398.9020, 9302.850
399.3841, 9469.674
399.8662, 9678.591
400.3484, 9956.064
400.8305, 10238.84
401.3126, 10499.49
401.7947, 10765.47
402.2768, 11098.06
402.7589, 11489.54
403.2411, 11958.72
403.7232, 12506.71
404.2053, 13125.43
404.6874, 13836.95
405.1695, 14626.26
405.6516, 15521.00
406.1338, 16573.66
406.6159, 17814.36
407.0980, 19131.01
407.5801, 20578.82
408.0622, 22148.50
408.5443, 23375.84
409.0265, 24323.44
409.5086, 24794.89
409.9907, 24520.83
410.4728, 23503.47
410.9549, 22136.07
411.4370, 20417.43
411.9192, 18458.80
412.4013, 16506.09
412.8834, 14568.11
413.3655, 12779.78
413.8476, 11231.01
414.3297, 9923.446
414.8119, 8833.137
415.2939, 7972.972
415.7761, 7290.025
416.2582, 6730.322
416.7403, 6279.924
417.2224, 5899.157
417.7045, 5569.858
418.1866, 5291.681
418.6688, 5065.087
419.1509, 4898.687
419.6330, 4756.374
420.1151, 4627.035
420.5972, 4507.069
421.0793, 4388.848
421.5615, 4254.249
422.0436, 4134.641
422.5257, 4049.446
423.0078, 4001.926
423.4899, 3964.395
423.9720, 3941.123
424.4542, 3919.793
424.9363, 3889.774
425.4184, 3821.694
425.9005, 3774.872
426.3826, 3773.039
426.8647, 3811.108
427.3469, 3825.150
427.8290, 3796.425
428.3111, 3761.397
428.7932, 3740.010
429.2753, 3735.724
429.7574, 3737.712
430.2396, 3745.807
430.7217, 3759.672
431.2038, 3780.177
431.6859, 3811.020
432.1680, 3838.671
432.6501, 3854.633
433.1323, 3857.676
433.6144, 3868.312
434.0965, 3887.389
434.5786, 3911.629
435.0607, 3938.667
435.5428, 3968.283
436.0250, 3993.325
436.5071, 4012.145
436.9892, 4024.625
437.4713, 4027.708
437.9534, 4021.320
438.4355, 4015.138
438.9177, 4024.143
439.3998, 4039.208
439.8819, 4040.077
440.3640, 4012.983
440.8461, 3980.799
441.3282, 3961.243
441.8104, 3954.276
442.2925, 3959.748
442.7746, 3987.577
443.2567, 4022.161
443.7388, 4048.309
444.2209, 4057.712
444.7031, 4074.219
445.1852, 4120.410
445.6673, 4178.389
446.1494, 4217.684
446.6315, 4223.326
447.1136, 4214.278
447.5958, 4194.915
448.0779, 4164.422
448.5600, 4130.377
449.0421, 4083.404
449.5242, 4038.862
450.0063, 4010.708
450.4885, 4010.650
450.9706, 4008.381
451.4527, 3994.029
451.9348, 3972.250
452.4169, 3977.651
452.8990, 4021.566
453.3812, 4070.032
453.8633, 4092.808
454.3454, 4081.776
454.8275, 4112.011
455.3096, 4197.771
455.7917, 4314.414
456.2739, 4416.720
456.7560, 4505.213
457.2381, 4593.381
457.7202, 4671.313
458.2023, 4752.961
458.6844, 4891.027
459.1666, 5093.316
459.6487, 5306.456
460.1308, 5479.369
460.6129, 5626.098
461.0950, 5782.776
461.5771, 5968.661
462.0592, 6161.938
462.5414, 6351.264
463.0235, 6534.147
463.5056, 6700.374
463.9877, 6827.465
464.4698, 6944.349
464.9519, 7076.804
465.4341, 7234.197
465.9162, 7397.793
466.3983, 7559.031
466.8804, 7721.838
467.3625, 7890.784
467.8446, 8070.918
468.3268, 8257.186
468.8089, 8444.888
469.2910, 8628.085
469.7731, 8833.895
470.2552, 9041.604
470.7373, 9284.730
471.2195, 9593.868
471.7016, 9966.368
472.1837, 10410.63
472.6658, 10932.43
473.1479, 11527.21
473.6300, 12174.57
474.1122, 12878.56
474.5943, 13620.94
475.0764, 14438.83
475.5585, 15314.80
476.0406, 16078.50
476.5227, 16734.94
477.0049, 17213.18
477.4870, 17414.29
477.9691, 17342.08
478.4512, 17016.51
478.9333, 16353.51
479.4154, 15477.49
479.8976, 14542.47
480.3797, 13550.60
480.8618, 12569.83
481.3439, 11606.19
481.8260, 10708.51
482.3081, 9948.343
482.7903, 9370.975
483.2724, 8909.877
483.7545, 8537.538
484.2366, 8250.564
484.7187, 8035.977
485.2008, 7936.373
485.6830, 7874.833
486.1651, 7816.256
486.6472, 7764.069
487.1293, 7697.533
487.6114, 7631.911
488.0935, 7545.168
488.5757, 7406.938
489.0578, 7193.527
489.5399, 6962.860
490.0220, 6712.244
490.5041, 6443.162
490.9862, 6227.334
491.4684, 6073.295
491.9505, 5954.018
492.4326, 5851.758
492.9147, 5765.399
493.3968, 5701.558
493.8789, 5662.564
494.3611, 5642.642
494.8432, 5631.657
495.3253, 5629.748
495.8074, 5639.248
496.2895, 5653.067
496.7716, 5680.989
497.2538, 5744.483
497.7359, 5844.697
498.2180, 5967.503
498.7001, 6094.204
499.1822, 6236.274
499.6643, 6409.800
500.1465, 6617.545
500.6286, 6862.417
501.1107, 7146.837
501.5928, 7470.964
502.0749, 7837.790
502.5570, 8228.634
503.0392, 8681.432
503.5213, 9218.218
504.0034, 9849.574
504.4855, 10559.77
504.9676, 11375.00
505.4497, 12261.36
505.9318, 13164.84
506.4139, 14097.49
506.8961, 15027.39
507.3782, 15969.59
507.8603, 16917.46
508.3424, 17821.16
508.8245, 18663.88
509.3066, 19502.29
509.7888, 20382.52
510.2709, 21300.82
510.7530, 22260.06
511.2351, 23243.18
511.7172, 24281.15
512.1993, 25397.73
512.6815, 26594.50
513.1636, 27920.72
513.6457, 29372.49
514.1278, 30975.44
514.6099, 32735.75
515.0920, 34660.00
515.5742, 36769.17
516.0563, 39008.47
516.5384, 41467.19
517.0205, 44252.34
517.5026, 47495.33
517.9847, 50942.87
518.4669, 54717.41
518.9490, 58649.50
519.4311, 62244.99
519.9132, 65899.63
520.3953, 68796.53
520.8774, 70660.68
521.3596, 71588.15
521.8417, 71208.27
522.3238, 69277.95
522.8059, 66227.42
523.2880, 62405.79
523.7701, 57582.02
524.2523, 52606.32
524.7344, 47500.10
525.2165, 42376.05
525.6986, 37738.56
526.1807, 33549.73
526.6628, 29820.91
527.1450, 26595.96
527.6271, 23828.49
528.1092, 21426.79
528.5913, 19391.34
529.0734, 17648.50
529.5555, 16137.69
530.0377, 14825.27
530.5198, 13681.08
531.0019, 12710.57
531.4840, 11860.03
531.9661, 11087.37
532.4482, 10389.40
532.9304, 9769.984
533.4125, 9241.010
533.8946, 8775.371
534.3767, 8354.300
534.8588, 7975.298
535.3409, 7641.886
535.8231, 7385.348
536.3052, 7167.534
536.7873, 6936.905
537.2694, 6658.013
537.7515, 6417.945
538.2336, 6245.862
538.7158, 6134.560
539.1979, 6001.471
539.6800, 5836.796
540.1621, 5674.121
540.6442, 5537.433
541.1263, 5425.130
541.6085, 5323.167
542.0906, 5231.973
542.5727, 5145.833
543.0548, 5053.060
543.5369, 4957.184
544.0190, 4872.349
544.5012, 4812.064
544.9833, 4761.025
545.4654, 4700.630
545.9475, 4632.349
546.4296, 4563.591
546.9117, 4494.021
547.3939, 4429.375
547.8760, 4375.075
548.3581, 4335.863
548.8402, 4299.836
549.3223, 4261.403
549.8044, 4224.092
550.2866, 4194.632
550.7687, 4185.641
551.2508, 4169.941
551.7329, 4138.747
552.2150, 4092.537
552.6971, 4055.774
553.1793, 4032.654
553.6614, 4010.973
554.1435, 3982.050
554.6256, 3945.436
555.1077, 3905.912
555.5898, 3860.269
556.0720, 3820.269
556.5541, 3810.601
557.0362, 3826.416
557.5183, 3838.868
558.0004, 3837.965
558.4825, 3824.884
558.9647, 3794.960
559.4468, 3750.219
559.9289, 3710.938
560.4110, 3687.478
560.8931, 3676.979
561.3752, 3679.531
561.8574, 3704.369
562.3395, 3721.030
562.8216, 3707.404
563.3037, 3681.973
563.7858, 3674.342
564.2679, 3702.851
564.7501, 3733.493
565.2322, 3759.478
565.7143, 3780.955
566.1964, 3809.212
566.6785, 3851.599
567.1606, 3887.206
567.6428, 3892.028
568.1249, 3860.375
568.6070, 3875.711
569.0891, 3950.605
569.5712, 4053.386
570.0533, 4138.290
570.5355, 4209.961
571.0176, 4294.405
571.4997, 4413.503
571.9818, 4541.243
572.4639, 4642.434
572.9460, 4720.342
573.4281, 4797.730
573.9102, 4887.739
574.3923, 4983.318
574.8745, 5077.413
575.3566, 5167.115
575.8387, 5260.759
576.3208, 5359.224
576.8029, 5463.536
577.2850, 5571.797
577.7672, 5656.794
578.2493, 5782.444
578.7314, 5967.486
579.2135, 6199.700
579.6956, 6426.370
580.1777, 6639.548
580.6599, 6862.810
581.1420, 7106.667
581.6241, 7368.353
582.1062, 7671.910
582.5883, 8021.125
583.0704, 8388.001
583.5526, 8764.688
584.0347, 9133.041
584.5168, 9442.145
584.9989, 9691.111
585.4810, 9849.887
585.9631, 9886.377
586.4453, 9804.108
586.9274, 9613.063
587.4095, 9278.254
587.8916, 8868.043
588.3737, 8401.493
588.8558, 7869.933
589.3380, 7362.746
589.8201, 6880.053
590.3022, 6435.695
590.7843, 6039.343
591.2664, 5702.795
591.7485, 5391.557
592.2307, 5100.291
592.7128, 4834.925
593.1949, 4612.392
593.6770, 4432.799
594.1591, 4288.744
594.6412, 4191.237
595.1234, 4125.241
595.6055, 4029.310
596.0876, 3903.071
596.5697, 3786.201
597.0518, 3708.531
597.5339, 3659.810
598.0161, 3626.250
598.4982, 3609.836
598.9803, 3592.206
599.4624, 3556.221
599.9445, 3512.460
600.4266, 3475.536
600.9088, 3460.204
601.3909, 3442.054
601.8730, 3410.400
602.3551, 3367.636
602.8372, 3334.057
603.3193, 3316.319
603.8015, 3300.051
604.2836, 3276.507
604.7657, 3242.584
605.2478, 3227.428
605.7299, 3235.477
606.2120, 3251.517
606.6942, 3261.773
607.1763, 3266.107
607.6584, 3262.513
608.1405, 3246.887
608.6226, 3229.808
609.1047, 3226.827
609.5869, 3234.938
610.0690, 3244.282
610.5511, 3250.940
611.0332, 3255.878
611.5153, 3258.001
611.9974, 3257.481
612.4796, 3261.089
612.9617, 3270.600
613.4438, 3285.546
613.9259, 3306.338
614.4080, 3345.081
614.8901, 3368.726
615.3723, 3367.003
615.8544, 3357.116
616.3365, 3365.755
616.8186, 3398.374
617.3007, 3426.763
617.7828, 3440.457
618.2650, 3446.845
618.7471, 3471.947
619.2292, 3515.564
619.7113, 3558.859
620.1934, 3582.768
620.6755, 3600.280
621.1577, 3638.368
621.6398, 3700.140
622.1219, 3756.207
622.6040, 3780.422
623.0861, 3790.150
623.5682, 3804.212
624.0504, 3833.093
624.5325, 3858.959
625.0146, 3875.201
625.4967, 3885.465
625.9788, 3897.497
626.4609, 3906.401
626.9431, 3925.075
627.4252, 3962.170
627.9073, 4014.773
628.3894, 4043.869
628.8715, 4043.143
629.3536, 4045.179
629.8358, 4072.846
630.3179, 4123.071
630.8000, 4183.311
631.2821, 4255.317
631.7642, 4322.051
632.2463, 4360.464
632.7285, 4383.068
633.2106, 4412.984
633.6927, 4470.297
634.1748, 4520.719
634.6569, 4554.093
635.1390, 4566.089
635.6212, 4545.088
636.1033, 4465.323
636.5854, 4374.579
637.0675, 4289.826
637.5496, 4211.960
638.0317, 4118.744
638.5139, 4003.318
638.9960, 3885.411
639.4781, 3777.453
639.9602, 3681.592
640.4423, 3588.789
640.9244, 3497.035
641.4066, 3412.728
641.8887, 3342.278
642.3708, 3284.737
642.8529, 3238.407
643.3350, 3206.524
643.8171, 3180.671
644.2993, 3155.445
644.7814, 3130.145
645.2635, 3103.518
645.7456, 3069.198
646.2277, 3038.131
646.7098, 3014.409
647.1920, 2998.390
647.6741, 2991.158
648.1562, 3001.448
648.6383, 3011.130
649.1204, 3009.179
649.6025, 2993.430
650.0847, 2971.192
650.5668, 2937.993
651.0489, 2907.681
651.5310, 2905.621
652.0131, 2928.236
652.4952, 2946.306
652.9774, 2951.911
653.4595, 2948.454
653.9416, 2935.304
654.4237, 2915.895
654.9058, 2901.752
655.3879, 2904.625
655.8701, 2910.166
656.3522, 2908.045
656.8343, 2897.416
657.3164, 2890.309
657.7985, 2891.394
658.2806, 2895.395
658.7628, 2900.666
659.2449, 2914.063
659.7270, 2909.553
660.2091, 2879.586
660.6912, 2842.238
661.1733, 2820.387
661.6555, 2814.069
662.1375, 2814.753
662.6196, 2822.189
663.1017, 2833.012
663.5839, 2843.207
664.0660, 2852.320
664.5481, 2858.647
665.0302, 2863.826
665.5123, 2863.997
665.9944, 2851.007
666.4766, 2826.091
666.9587, 2810.695
667.4408, 2820.414
667.9229, 2835.375
668.4050, 2843.895
668.8871, 2844.136
669.3693, 2842.931
669.8514, 2840.269
670.3335, 2836.195
670.8156, 2827.834
671.2977, 2813.783
671.7798, 2814.233
672.2620, 2837.246
672.7441, 2866.913
673.2262, 2873.704
673.7083, 2862.979
674.1904, 2856.044
674.6725, 2868.357
675.1547, 2884.482
675.6368, 2895.192
676.1189, 2899.208
676.6010, 2890.906
677.0831, 2848.374
677.5652, 2808.923
678.0474, 2794.978
678.5295, 2815.065
679.0116, 2827.356
679.4937, 2826.430
679.9758, 2824.138
680.4579, 2831.838
680.9401, 2851.750
681.4222, 2861.675
681.9043, 2856.523
682.3864, 2849.013
682.8685, 2862.120
683.3506, 2889.450
683.8328, 2907.407
684.3149, 2907.147
684.7970, 2895.531
685.2791, 2870.991
685.7612, 2839.636
686.2433, 2817.558
686.7255, 2816.601
687.2076, 2821.582
687.6897, 2828.940
688.1718, 2838.671
688.6539, 2841.019
689.1360, 2833.503
689.6182, 2821.794
690.1003, 2806.080
690.5824, 2784.489
691.0645, 2776.837
691.5466, 2784.607
692.0287, 2800.646
692.5109, 2824.730
692.9930, 2851.026
693.4751, 2860.065
693.9572, 2841.863
694.4393, 2819.190
694.9214, 2810.470
695.4036, 2811.258
695.8857, 2813.790
696.3678, 2817.396
696.8499, 2820.235
697.3320, 2822.376
697.8141, 2823.377
698.2963, 2821.156
698.7784, 2813.237
699.2605, 2806.487
699.7426, 2804.539
700.2247, 2806.793
700.7068, 2802.626
701.1890, 2791.156
701.6711, 2780.351
702.1532, 2777.664
702.6353, 2779.910
703.1174, 2779.487
703.5995, 2775.081
704.0817, 2772.153
704.5638, 2774.987
705.0459, 2781.486
705.5280, 2789.540
706.0101, 2802.491
706.4922, 2811.704
706.9744, 2815.783
707.4565, 2815.186
707.9386, 2809.910
708.4207, 2798.039
708.9028, 2785.452
709.3849, 2771.461
709.8671, 2758.737
710.3492, 2756.668
710.8313, 2765.055
711.3134, 2776.714
711.7955, 2792.099
712.2776, 2806.409
712.7598, 2809.494
713.2419, 2802.430
713.7240, 2797.582
714.2061, 2808.234
714.6882, 2819.075
715.1703, 2817.337
715.6525, 2795.134
716.1346, 2783.134
716.6167, 2787.322
717.0988, 2799.071
717.5809, 2814.478
718.0630, 2837.324
718.5452, 2845.906
719.0273, 2835.871
719.5094, 2817.616
719.9915, 2803.449
720.4736, 2793.564
720.9557, 2788.544
721.4379, 2789.469
721.9200, 2794.041
722.4021, 2804.149
722.8842, 2816.299
723.3663, 2821.734
723.8484, 2810.369
724.3306, 2798.401
724.8127, 2790.461
725.2948, 2786.880
725.7769, 2789.480
726.2590, 2802.519
726.7411, 2814.208
727.2233, 2819.329
727.7054, 2818.013
728.1875, 2810.966
728.6696, 2797.096
729.1517, 2788.725
729.6339, 2801.201
730.1160, 2825.094
730.5981, 2844.299
731.0802, 2857.393
731.5623, 2861.116
732.0444, 2841.824
732.5266, 2817.637
733.0087, 2807.137
733.4908, 2821.142
733.9729, 2840.612
734.4550, 2875.553
734.9371, 2908.503
735.4193, 2908.113
735.9014, 2863.704
736.3835, 2833.275
736.8656, 2831.705
737.3477, 2848.222
737.8298, 2860.849
738.3120, 2870.699
738.7941, 2883.962
739.2762, 2910.817
739.7583, 2937.200
740.2404, 2946.372
740.7225, 2941.913
741.2047, 2943.196
741.6868, 2964.478
742.1689, 2986.868
742.6510, 3000.875
743.1331, 3005.764
743.6152, 3012.825
744.0974, 3022.191
744.5795, 3033.596
745.0616, 3050.164
745.5437, 3070.811
746.0258, 3073.792
746.5079, 3054.871
746.9901, 3045.654
747.4722, 3093.086
747.9543, 3166.121
748.4364, 3215.604
748.9185, 3223.145
749.4006, 3227.118
749.8828, 3237.858
750.3649, 3258.666
750.8470, 3294.993
751.3291, 3367.198
751.8112, 3423.180
752.2933, 3453.107
752.7754, 3468.327
753.2575, 3489.656
753.7396, 3516.846
754.2217, 3552.591
754.7039, 3604.692
755.1860, 3657.790
755.6681, 3677.667
756.1502, 3671.721
756.6323, 3668.185
757.1144, 3694.734
757.5966, 3717.765
758.0787, 3708.727
758.5608, 3670.353
759.0429, 3644.738
759.5250, 3660.994
760.0071, 3667.350
760.4893, 3638.004
760.9714, 3570.265
761.4535, 3537.205
761.9356, 3546.162
762.4177, 3556.576
762.8998, 3526.627
763.3820, 3473.756
763.8641, 3453.334
764.3462, 3472.970
764.8283, 3485.198
765.3104, 3438.012
765.7925, 3372.583
766.2747, 3332.662
766.7568, 3341.260
767.2389, 3346.732
767.7210, 3339.057
768.2031, 3324.789
768.6852, 3309.328
769.1674, 3291.410
769.6495, 3277.986
770.1316, 3272.240
770.6137, 3266.648
771.0958, 3245.722
771.5779, 3213.040
772.0601, 3183.975
772.5422, 3164.313
773.0243, 3149.664
773.5064, 3139.510
773.9885, 3131.264
774.4706, 3119.073
774.9528, 3092.418
775.4349, 3071.038
775.9170, 3063.216
776.3991, 3065.488
776.8812, 3062.932
777.3633, 3052.318
777.8455, 3046.816
778.3276, 3052.431
778.8097, 3067.182
779.2918, 3086.854
779.7739, 3110.889
780.2560, 3131.234
780.7382, 3139.968
781.2203, 3144.398
781.7024, 3152.794
782.1845, 3165.647
782.6666, 3173.471
783.1487, 3158.646
783.6309, 3150.313
784.1130, 3166.319
784.5951, 3213.192
785.0772, 3254.546
785.5593, 3293.596
786.0414, 3319.973
786.5236, 3318.280
787.0057, 3294.833
787.4878, 3274.272
787.9699, 3257.445
788.4520, 3258.089
788.9341, 3307.392
789.4163, 3372.948
789.8984, 3416.767
790.3805, 3421.867
790.8626, 3420.435
791.3447, 3413.868
791.8268, 3407.488
792.3090, 3406.003
792.7911, 3407.294
793.2732, 3420.212
793.7553, 3445.865
794.2374, 3482.769
794.7195, 3535.588
795.2017, 3599.465
795.6838, 3649.196
796.1659, 3668.208
796.6480, 3683.449
797.1301, 3726.487
797.6122, 3782.367
798.0944, 3820.170
798.5765, 3827.107
799.0586, 3818.065
799.5407, 3788.273
800.0228, 3746.634
800.5049, 3723.401
800.9871, 3727.905
801.4692, 3711.481
801.9513, 3647.874
802.4334, 3558.181
802.9155, 3498.480
803.3976, 3464.199
803.8798, 3430.224
804.3619, 3369.574
804.8440, 3313.432
805.3261, 3293.734
805.8082, 3306.098
806.2903, 3301.354
806.7725, 3248.274
807.2546, 3197.181
807.7367, 3163.049
808.2188, 3145.904
808.7009, 3144.665
809.1830, 3162.982
809.6652, 3174.596
810.1473, 3147.967
810.6294, 3104.681
811.1115, 3101.672
811.5936, 3139.748
812.0757, 3170.914
812.5579, 3149.686
813.0400, 3120.796
813.5221, 3118.493
814.0042, 3153.521
814.4863, 3188.095
814.9684, 3226.103
815.4506, 3255.084
815.9327, 3263.681
816.4148, 3250.873
816.8969, 3237.611
817.3790, 3223.521
817.8611, 3215.850
818.3433, 3226.871
818.8254, 3247.595
819.3075, 3265.699
819.7896, 3281.110
820.2717, 3283.837
820.7538, 3260.672
821.2360, 3227.377
821.7181, 3198.764
822.2002, 3174.617
822.6823, 3159.488
823.1644, 3160.624
823.6465, 3159.433
824.1287, 3123.892
824.6108, 3060.000
825.0929, 3023.131
825.5750, 3028.316
826.0571, 3041.846
826.5392, 3025.855
827.0214, 2996.644
827.5035, 2979.634
827.9856, 2994.028
828.4677, 3003.644
828.9498, 2997.325
829.4319, 2983.125
829.9141, 2970.131
830.3962, 2957.540
830.8783, 2950.818
831.3604, 2953.880
831.8425, 2957.522
832.3246, 2939.717
832.8068, 2908.679
833.2889, 2892.227
833.7710, 2910.275
834.2531, 2930.913
834.7352, 2929.579
835.2173, 2915.619
835.6995, 2907.174
836.1816, 2913.402
836.6637, 2918.291
837.1458, 2919.407
837.6279, 2918.211
838.1100, 2918.581
838.5922, 2920.659
839.0743, 2920.691
839.5564, 2917.528
840.0385, 2911.698
840.5206, 2900.360
841.0027, 2886.858
841.4848, 2880.031
841.9669, 2888.080
842.4490, 2899.001
842.9312, 2914.821
843.4133, 2930.024
843.8954, 2925.793
844.3775, 2893.483
844.8596, 2862.129
845.3417, 2836.831
845.8239, 2820.072
846.3060, 2822.845
846.7881, 2842.555
847.2702, 2863.136
847.7523, 2878.266
848.2344, 2889.316
848.7166, 2899.790
849.1987, 2907.620
849.6808, 2905.229
850.1629, 2869.387
850.6450, 2848.065
851.1271, 2857.773
851.6093, 2891.087
852.0914, 2919.090
852.5735, 2942.703
853.0556, 2950.896
853.5377, 2928.363
854.0198, 2893.937
854.5020, 2881.178
854.9841, 2886.156
855.4662, 2893.867
855.9483, 2901.966
856.4304, 2906.172
856.9125, 2900.715
857.3947, 2887.511
857.8768, 2884.292
858.3589, 2894.373
858.8410, 2906.547
859.3231, 2917.560
859.8052, 2927.093
860.2874, 2936.113
860.7695, 2943.955
861.2516, 2944.828
861.7337, 2925.675
862.2158, 2905.906
862.6979, 2905.355
863.1801, 2920.876
863.6622, 2928.756
864.1443, 2907.383
864.6264, 2896.033
865.1085, 2910.913
865.5906, 2946.453
866.0728, 2964.049
866.5549, 2962.821
867.0370, 2960.524
867.5191, 2971.360
868.0012, 2984.819
868.4833, 2982.291
868.9655, 2966.600
869.4476, 2952.450
869.9297, 2939.299
870.4118, 2935.921
870.8939, 2950.918
871.3760, 2981.252
871.8582, 3008.962
872.3403, 3037.208
872.8224, 3051.766
873.3045, 3037.659
873.7866, 3008.776
874.2687, 3008.657
874.7509, 3032.650
875.2330, 3053.512
875.7151, 3054.485
876.1972, 3047.770
876.6793, 3039.797
877.1614, 3030.941
877.6436, 3021.397
878.1257, 3002.894
878.6078, 2997.608
879.0899, 3017.783
879.5720, 3056.120
880.0541, 3083.342
880.5363, 3099.113
881.0184, 3096.754
881.5005, 3051.156
881.9826, 3001.477
882.4647, 2994.216
882.9468, 3020.293
883.4290, 3039.427
883.9111, 3033.362
884.3932, 3024.180
884.8753, 3017.932
885.3574, 3013.884
885.8395, 3009.729
886.3217, 3005.896
886.8038, 2996.907
887.2859, 2973.235
887.7680, 2948.884
888.2501, 2955.035
888.7322, 2981.885
889.2144, 2996.799
889.6965, 2969.571
890.1786, 2943.271
890.6607, 2936.497
891.1428, 2945.387
891.6249, 2957.295
892.1071, 2975.722
892.5892, 2984.089
893.0713, 2972.477
893.5534, 2952.703
894.0355, 2954.224
894.5176, 2971.640
894.9998, 2984.762
895.4819, 2981.357
895.9640, 2973.364
896.4461, 2966.542
896.9282, 2960.210
897.4103, 2951.701
897.8925, 2937.218
898.3746, 2927.984
898.8567, 2927.536
899.3388, 2931.924
899.8209, 2931.662
900.3030, 2927.750
900.7852, 2925.929
901.2673, 2927.444
901.7494, 2932.979
902.2315, 2949.662
902.7136, 2969.653
903.1957, 2977.932
903.6779, 2958.264
904.1600, 2943.997
904.6421, 2940.439
905.1242, 2942.153
905.6063, 2940.316
906.0884, 2935.048
906.5706, 2926.080
907.0527, 2910.581
907.5348, 2899.150
908.0169, 2909.634
908.4990, 2930.005
908.9811, 2941.534
909.4633, 2929.364
909.9454, 2921.528
910.4275, 2924.968
910.9096, 2932.391
911.3917, 2934.967
911.8738, 2932.170
912.3560, 2931.883
912.8381, 2935.726
913.3202, 2939.689
913.8023, 2938.000
914.2844, 2933.640
914.7665, 2931.158
915.2487, 2931.750
915.7308, 2933.698
916.2129, 2940.250
916.6950, 2945.142
917.1771, 2941.741
917.6592, 2926.652
918.1414, 2920.780
918.6235, 2926.559
919.1056, 2933.164
919.5877, 2927.064
920.0698, 2915.092
920.5519, 2909.618
921.0341, 2912.796
921.5162, 2917.025
921.9983, 2920.877
922.4804, 2922.904
922.9625, 2922.550
923.4446, 2920.179
923.9268, 2911.326
924.4089, 2893.228
924.8910, 2880.562
925.3731, 2889.597
925.8552, 2910.748
926.3373, 2924.154
926.8195, 2928.997
927.3016, 2929.218
927.7837, 2918.774
928.2658, 2911.332
928.7479, 2919.337
929.2300, 2942.052
929.7122, 2949.977
930.1943, 2938.022
930.6764, 2929.152
931.1584, 2938.640
931.6406, 2957.982
932.1227, 2965.449
932.6048, 2962.534
933.0869, 2957.050
933.5690, 2947.938
934.0511, 2942.446
934.5333, 2946.297
935.0154, 2957.617
935.4975, 2967.246
935.9796, 2976.677
936.4617, 2979.259
936.9438, 2970.399
937.4260, 2956.643
937.9081, 2955.546
938.3902, 2962.302
938.8723, 2960.777
939.3544, 2930.400
939.8365, 2906.035
940.3187, 2914.954
940.8008, 2939.929
941.2829, 2945.431
941.7650, 2916.658
942.2471, 2906.772
942.7292, 2928.764
943.2114, 2959.829
943.6935, 2961.044
944.1756, 2942.083
944.6577, 2933.598
945.1398, 2949.664
945.6219, 2958.250
946.1041, 2925.821
946.5862, 2883.860
947.0683, 2869.057
947.5504, 2899.371
948.0325, 2915.559
948.5146, 2914.685
948.9968, 2906.966
949.4789, 2900.685
949.9610, 2895.682
950.4431, 2891.178
950.9252, 2887.024
951.4073, 2884.461
951.8895, 2880.425
952.3716, 2881.163
952.8537, 2894.768
953.3358, 2923.864
953.8179, 2941.485
954.3000, 2947.657
954.7822, 2942.134
955.2643, 2913.633
955.7464, 2875.390
956.2285, 2867.959
956.7106, 2887.599
957.1927, 2906.786
957.6749, 2907.814
958.1570, 2906.289
958.6391, 2912.416
959.1212, 2924.017
959.6033, 2926.551
960.0854, 2918.125
960.5676, 2907.672
961.0497, 2898.179
961.5318, 2888.333
962.0139, 2869.713
962.4960, 2848.154
962.9781, 2840.387
963.4603, 2860.121
963.9424, 2887.413
964.4245, 2922.097
964.9066, 2956.869
965.3887, 2981.007
965.8708, 2995.522
966.3530, 2990.900
966.8351, 2959.878
967.3172, 2925.898
967.7993, 2921.990
968.2814, 2936.239
968.7635, 2946.146
969.2457, 2945.280
969.7278, 2943.548
970.2099, 2944.273
970.6920, 2945.882
971.1741, 2946.394
971.6563, 2944.481
972.1384, 2950.513
972.6205, 2966.127
973.1026, 2978.783
973.5847, 2974.645
974.0668, 2962.637
974.5490, 2954.774
975.0311, 2952.014
975.5132, 2950.991
975.9953, 2948.639
976.4774, 2950.070
976.9595, 2957.483
977.4417, 2970.516
977.9238, 2989.306
978.4059, 3013.872
978.8880, 3028.146
979.3701, 3018.214
979.8522, 2998.406
980.3344, 2981.340
980.8165, 2967.524
981.2986, 2958.740
981.7807, 2955.388
982.2628, 2958.150
982.7449, 2969.260
983.2271, 2984.299
983.7092, 2994.714
984.1913, 3000.952
984.6734, 3010.076
985.1555, 3025.370
985.6376, 3038.725
986.1198, 3037.542
986.6019, 3032.763
987.0840, 3038.302
987.5661, 3069.167
988.0482, 3084.526
988.5303, 3077.279
989.0125, 3066.341
989.4946, 3069.916
989.9767, 3084.440
990.4588, 3092.749
990.9409, 3093.991
991.4230, 3095.597
991.9052, 3100.344
992.3873, 3109.228
992.8694, 3126.208
993.3515, 3151.346
993.8336, 3163.938
994.3157, 3158.756
994.7979, 3157.572
995.2800, 3171.872
995.7621, 3194.972
996.2442, 3210.355
996.7263, 3220.333
997.2084, 3232.808
997.6906, 3244.497
998.1727, 3267.157
998.6548, 3316.256
999.1369, 3376.089
999.6190, 3416.858
1000.101, 3434.912
1000.583, 3458.084
1001.065, 3491.430
1001.547, 3528.819
1002.030, 3562.906
1002.512, 3595.561
1002.994, 3631.819
1003.476, 3676.219
1003.958, 3711.244
1004.440, 3712.700
1004.922, 3722.689
1005.404, 3772.786
1005.887, 3863.448
1006.369, 3949.180
1006.851, 4029.437
1007.333, 4094.243
1007.815, 4119.361
1008.297, 4136.606
1008.779, 4178.307
1009.261, 4242.155
1009.743, 4295.759
1010.226, 4343.367
1010.708, 4365.702
1011.190, 4351.691
1011.672, 4314.115
1012.154, 4287.398
1012.636, 4266.336
1013.118, 4229.471
1013.600, 4159.302
1014.083, 4085.820
1014.565, 4024.162
1015.047, 3971.215
1015.529, 3922.885
1016.011, 3879.435
1016.493, 3839.882
1016.975, 3806.665
1017.457, 3769.351
1017.939, 3706.830
1018.422, 3635.500
1018.904, 3590.242
1019.386, 3575.818
1019.868, 3557.709
1020.350, 3515.415
1020.832, 3472.522
1021.314, 3439.344
1021.796, 3415.646
1022.278, 3400.193
1022.761, 3393.002
1023.243, 3387.665
1023.725, 3381.812
1024.207, 3375.079
1024.689, 3366.533
1025.171, 3356.813
1025.653, 3347.675
1026.135, 3341.987
1026.618, 3331.798
1027.100, 3312.341
1027.582, 3293.780
1028.064, 3293.559
1028.546, 3308.161
1029.028, 3325.311
1029.510, 3343.786
1029.992, 3359.018
1030.474, 3362.007
1030.957, 3364.853
1031.439, 3379.899
1031.921, 3410.415
1032.403, 3427.913
1032.885, 3428.820
1033.367, 3435.749
1033.849, 3473.506
1034.331, 3522.183
1034.813, 3547.180
1035.296, 3553.293
1035.778, 3564.608
1036.260, 3594.128
1036.742, 3625.716
1037.224, 3656.486
1037.706, 3685.942
1038.188, 3710.770
1038.670, 3732.027
1039.153, 3760.295
1039.635, 3798.504
1040.117, 3844.360
1040.599, 3901.923
1041.081, 3963.111
1041.563, 4021.740
1042.045, 4082.135
1042.527, 4118.853
1043.010, 4119.756
1043.492, 4128.465
1043.974, 4188.818
1044.456, 4280.536
1044.938, 4356.263
1045.420, 4415.206
1045.902, 4463.953
1046.384, 4500.319
1046.866, 4533.517
1047.349, 4566.374
1047.831, 4599.602
1048.313, 4636.312
1048.795, 4676.354
1049.277, 4709.627
1049.759, 4733.148
1050.241, 4748.041
1050.723, 4754.185
1051.205, 4753.000
1051.688, 4745.771
1052.170, 4725.232
1052.652, 4714.666
1053.134, 4720.625
1053.616, 4723.982
1054.098, 4703.064
1054.580, 4666.568
1055.062, 4645.730
1055.545, 4640.405
1056.027, 4635.560
1056.509, 4624.301
1056.991, 4609.460
1057.473, 4591.764
1057.955, 4571.716
1058.437, 4549.167
1058.919, 4523.517
1059.401, 4502.266
1059.884, 4487.583
1060.366, 4478.958
1060.848, 4480.964
1061.330, 4486.643
1061.812, 4485.418
1062.294, 4468.505
1062.776, 4457.708
1063.258, 4458.508
1063.740, 4457.607
1064.223, 4434.083
1064.705, 4399.280
1065.187, 4408.515
1065.669, 4459.146
1066.151, 4493.686
1066.633, 4437.912
1067.115, 4397.205
1067.597, 4449.046
1068.079, 4557.948
1068.562, 4617.960
1069.044, 4627.396
1069.526, 4602.796
1070.008, 4540.275
1070.490, 4466.055
1070.972, 4407.657
1071.454, 4360.989
1071.936, 4321.736
1072.419, 4293.891
1072.901, 4262.995
1073.383, 4224.813
1073.865, 4190.863
1074.347, 4173.801
1074.829, 4168.466
1075.311, 4160.938
1075.793, 4149.483
1076.276, 4124.572
1076.758, 4066.205
1077.240, 4008.736
1077.722, 3970.246
1078.204, 3943.427
1078.686, 3903.694
1079.168, 3849.720
1079.650, 3822.071
1080.132, 3838.749
1080.615, 3857.576
1081.097, 3828.222
1081.579, 3777.660
1082.061, 3737.850
1082.543, 3714.189
1083.025, 3705.770
1083.507, 3719.961
1083.989, 3731.356
1084.471, 3718.202
1084.954, 3690.673
1085.436, 3675.469
1085.918, 3670.719
1086.400, 3667.317
1086.882, 3659.031
1087.364, 3654.279
1087.846, 3659.308
1088.328, 3666.781
1088.811, 3659.423
1089.293, 3638.285
1089.775, 3632.179
1090.257, 3649.596
1090.739, 3662.193
1091.221, 3628.809
1091.703, 3590.837
1092.185, 3592.116
1092.667, 3642.538
1093.150, 3675.002
1093.632, 3687.977
1094.114, 3690.092
1094.596, 3679.398
1095.078, 3665.740
1095.560, 3668.329
1096.042, 3682.102
1096.524, 3693.171
1097.006, 3693.308
1097.489, 3694.823
1097.971, 3695.405
1098.453, 3702.805
1098.935, 3731.833
1099.417, 3777.203
1099.899, 3813.742
1100.381, 3838.132
1100.863, 3863.742
1101.346, 3907.189
1101.828, 3946.315
1102.310, 3961.503
1102.792, 3958.371
1103.274, 3977.764
1103.756, 4021.338
1104.238, 4060.646
1104.720, 4080.863
1105.203, 4099.420
1105.685, 4137.612
1106.167, 4185.312
1106.649, 4226.873
1107.131, 4249.091
1107.613, 4287.068
1108.095, 4345.989
1108.577, 4404.611
1109.059, 4439.986
1109.542, 4462.702
1110.024, 4486.156
1110.506, 4514.384
1110.988, 4568.190
1111.470, 4678.772
1111.952, 4788.839
1112.434, 4883.855
1112.916, 4968.867
1113.398, 5055.404
1113.881, 5143.395
1114.363, 5226.639
1114.845, 5300.584
1115.327, 5379.019
1115.809, 5476.697
1116.291, 5576.975
1116.773, 5665.155
1117.255, 5739.507
1117.738, 5828.864
1118.220, 5934.312
1118.702, 6034.261
1119.184, 6102.603
1119.666, 6167.626
1120.148, 6264.963
1120.630, 6380.557
1121.112, 6481.948
1121.594, 6547.846
1122.077, 6631.033
1122.559, 6732.313
1123.041, 6857.957
1123.523, 7033.914
1124.005, 7232.283
1124.487, 7394.463
1124.969, 7515.368
1125.451, 7646.495
1125.933, 7802.621
1126.416, 7978.079
1126.898, 8174.182
1127.380, 8388.062
1127.862, 8610.169
1128.344, 8842.171
1128.826, 9093.696
1129.308, 9378.491
1129.790, 9659.915
1130.273, 9902.436
1130.755, 10148.26
1131.237, 10439.78
1131.719, 10785.01
1132.201, 11096.55
1132.683, 11376.16
1133.165, 11654.85
1133.647, 11966.18
1134.130, 12279.13
1134.612, 12564.75
1135.094, 12828.38
1135.576, 13089.04
1136.058, 13357.10
1136.540, 13594.43
1137.022, 13797.58
1137.504, 13970.52
1137.986, 14118.76
1138.469, 14240.36
1138.951, 14340.76
1139.433, 14422.84
1139.915, 14426.79
1140.397, 14322.96
1140.879, 14192.89
1141.361, 14070.59
1141.843, 13935.45
1142.325, 13733.31
1142.808, 13476.07
1143.290, 13187.64
1143.772, 12861.80
1144.254, 12537.64
1144.736, 12244.11
1145.218, 11936.37
1145.700, 11580.21
1146.182, 11176.74
1146.665, 10755.44
1147.147, 10321.97
1147.629, 9908.468
1148.111, 9560.931
1148.593, 9224.066
1149.075, 8853.008
1149.557, 8476.595
1150.039, 8152.540
1150.521, 7880.032
1151.004, 7619.472
1151.486, 7368.657
1151.968, 7121.536
1152.450, 6865.454
1152.932, 6620.603
1153.414, 6409.591
1153.896, 6234.369
1154.378, 6055.688
1154.860, 5870.250
1155.343, 5703.691
1155.825, 5572.772
1156.307, 5457.204
1156.789, 5330.409
1157.271, 5202.056
1157.753, 5085.803
1158.235, 4992.378
1158.717, 4897.871
1159.199, 4800.606
1159.682, 4708.954
1160.164, 4624.104
1160.646, 4551.781
1161.128, 4514.772
1161.610, 4503.479
1162.092, 4477.746
1162.574, 4416.848
1163.056, 4345.631
1163.539, 4259.842
1164.021, 4179.644
1164.503, 4141.993
1164.985, 4133.034
1165.467, 4108.876
1165.949, 4063.535
1166.431, 4019.528
1166.913, 3987.609
1167.396, 3959.541
1167.878, 3930.631
1168.360, 3903.361
1168.842, 3889.429
1169.324, 3886.149
1169.806, 3877.059
1170.288, 3855.232
1170.770, 3831.219
1171.252, 3811.688
1171.734, 3791.566
1172.217, 3766.090
1172.699, 3735.020
1173.181, 3706.533
1173.663, 3680.983
1174.145, 3665.083
1174.627, 3677.411
1175.109, 3685.657
1175.591, 3654.710
1176.074, 3609.297
1176.556, 3596.630
1177.038, 3625.445
1177.520, 3640.179
1178.002, 3635.981
1178.484, 3628.748
1178.966, 3639.516
1179.448, 3648.242
1179.931, 3634.474
1180.413, 3599.074
1180.895, 3558.231
1181.377, 3506.291
1181.859, 3476.083
1182.341, 3479.448
1182.823, 3493.908
1183.305, 3489.913
1183.787, 3480.773
1184.270, 3487.626
1184.752, 3518.725
1185.234, 3529.487
1185.716, 3513.763
1186.198, 3491.077
1186.680, 3465.526
1187.162, 3443.227
1187.644, 3438.851
1188.126, 3445.095
1188.609, 3447.446
1189.091, 3439.177
1189.573, 3431.541
1190.055, 3424.946
1190.537, 3419.623
1191.019, 3416.916
1191.501, 3415.227
1191.983, 3409.247
1192.466, 3400.416
1192.948, 3394.946
1193.430, 3398.539
1193.912, 3401.082
1194.394, 3400.252
1194.876, 3398.927
1195.358, 3401.124
1195.840, 3405.851
1196.323, 3413.523
1196.805, 3423.721
1197.287, 3422.638
1197.769, 3387.548
1198.251, 3360.838
1198.733, 3358.920
1199.215, 3371.160
1199.697, 3373.958
1200.179, 3369.286
1200.661, 3362.891
1201.144, 3354.788
1201.626, 3351.178
1202.108, 3361.419
1202.590, 3370.315
1203.072, 3368.227
1203.554, 3358.130
1204.036, 3354.441
1204.518, 3356.776
1205.001, 3364.045
1205.483, 3381.899
1205.965, 3394.217
1206.447, 3392.433
1206.929, 3382.246
1207.411, 3363.421
1207.893, 3336.492
1208.375, 3335.860
1208.858, 3358.824
1209.340, 3374.107
1209.822, 3356.342
1210.304, 3334.115
1210.786, 3316.180
1211.268, 3305.478
1211.750, 3309.218
1212.232, 3326.911
1212.714, 3341.782
1213.197, 3352.473
1213.679, 3348.885
1214.161, 3298.446
1214.643, 3256.180
1215.125, 3272.799
1215.607, 3321.417
1216.089, 3326.482
1216.571, 3289.028
1217.053, 3275.917
1217.536, 3306.023
1218.018, 3335.244
1218.500, 3322.146
1218.982, 3299.915
1219.464, 3296.160
1219.946, 3308.207
1220.428, 3307.562
1220.910, 3294.514
1221.393, 3284.896
1221.875, 3284.668
1222.357, 3289.116
1222.839, 3304.151
1223.321, 3315.035
1223.803, 3301.228
1224.285, 3258.373
1224.767, 3258.346
1225.250, 3300.793
1225.732, 3334.206
1226.214, 3317.206
1226.696, 3293.077
1227.178, 3294.413
1227.660, 3307.744
1228.142, 3312.195
1228.624, 3307.025
1229.106, 3293.350
1229.589, 3270.640
1230.071, 3258.495
1230.553, 3289.964
1231.035, 3319.838
1231.517, 3300.188
1231.999, 3256.172
1232.481, 3254.461
1232.963, 3300.561
1233.445, 3324.732
1233.928, 3317.084
1234.410, 3303.719
1234.892, 3308.609
1235.374, 3315.478
1235.856, 3305.065
1236.338, 3285.074
1236.820, 3295.200
1237.302, 3337.551
1237.785, 3357.748
1238.267, 3339.282
1238.749, 3313.261
1239.231, 3307.715
1239.713, 3306.497
1240.195, 3292.427
1240.677, 3267.511
1241.159, 3259.619
1241.641, 3268.737
1242.124, 3270.293
1242.606, 3247.606
1243.088, 3232.293
1243.570, 3265.244
1244.052, 3307.743
1244.534, 3319.993
1245.016, 3300.717
1245.498, 3271.156
1245.980, 3231.658
1246.463, 3216.961
1246.945, 3268.650
1247.427, 3320.987
1247.909, 3326.423
1248.391, 3308.188
1248.873, 3295.944
1249.355, 3289.618
1249.837, 3291.572
1250.319, 3301.523
1250.802, 3310.556
1251.284, 3317.185
1251.766, 3316.337
1252.248, 3292.737
1252.730, 3265.811
1253.212, 3269.262
1253.694, 3302.707
1254.176, 3330.939
1254.659, 3351.450
1255.141, 3358.507
1255.623, 3337.082
1256.105, 3312.604
1256.587, 3295.236
1257.069, 3286.502
1257.551, 3296.586
1258.033, 3322.342
1258.516, 3326.685
1258.998, 3302.628
1259.480, 3279.244
1259.962, 3275.139
1260.444, 3277.303
1260.926, 3278.216
1261.408, 3279.884
1261.890, 3293.354
1262.372, 3314.498
1262.854, 3317.012
1263.337, 3289.205
1263.819, 3271.427
1264.301, 3299.034
1264.783, 3328.279
1265.265, 3338.654
1265.747, 3332.761
1266.229, 3312.896
1266.711, 3284.575
1267.194, 3269.157
1267.676, 3277.180
1268.158, 3288.588
1268.640, 3300.285
1269.122, 3308.451
1269.604, 3309.958
1270.086, 3306.424
1270.568, 3303.094
1271.051, 3300.011
1271.533, 3297.406
1272.015, 3294.276
1272.497, 3293.839
1272.979, 3298.521
1273.461, 3302.241
1273.943, 3296.301
1274.425, 3286.983
1274.907, 3296.244
1275.390, 3318.606
1275.872, 3335.953
1276.354, 3342.858
1276.836, 3341.893
1277.318, 3331.300
1277.800, 3318.360
1278.282, 3307.439
1278.764, 3300.361
1279.246, 3300.279
1279.729, 3307.038
1280.211, 3320.636
1280.693, 3350.800
1281.175, 3365.675
1281.657, 3359.406
1282.139, 3345.068
1282.621, 3331.196
##END=



