##NAMES=Ericssonite
##RRUFFID=R130001
##IDEAL CHEMISTRY=BaMn^2+^_2_Fe^3+^(Si_2_O_7_)O(OH)
##LOCALITY=Langban, Filipstad, Varmland, Sweden
##OWNER=RRUFF
##SOURCE=Marcus Origlieri
##DESCRIPTION=Dark red platy, massive, monoclinic polytype, associated with caryopilite
##STATUS=The identification of this mineral is confirmed by single-crystal X-ray diffraction and chemical analysis.
##URL=rruff.info/R130001
##MEASURED CHEMISTRY=(Ba_1.01_Pb_0.01_)(Mn_1.95_Mg_0.05_)Fe_0.98_(Si_2_O_7_)O[(OH)_0.96_F_0.04_]
8.936163e+001, 0.000000e+000
8.984375e+001, 6.536118e+001
9.032587e+001, 6.568961e+001
9.080798e+001, 6.577135e+001
9.129010e+001, 6.556764e+001
9.177222e+001, 6.516006e+001
9.225433e+001, 6.459070e+001
9.273645e+001, 6.386934e+001
9.321857e+001, 6.312312e+001
9.370068e+001, 6.258723e+001
9.418280e+001, 6.214688e+001
9.466492e+001, 6.141964e+001
9.514703e+001, 6.010283e+001
9.562915e+001, 5.844719e+001
9.611127e+001, 5.707912e+001
9.659338e+001, 5.600679e+001
9.707550e+001, 5.523047e+001
9.755762e+001, 5.487859e+001
9.803973e+001, 5.495940e+001
9.852185e+001, 5.495708e+001
9.900397e+001, 5.456739e+001
9.948608e+001, 5.377508e+001
9.996820e+001, 5.328897e+001
1.004503e+002, 5.323828e+001
1.009324e+002, 5.334132e+001
1.014146e+002, 5.293950e+001
1.018967e+002, 5.184502e+001
1.023788e+002, 5.077185e+001
1.028609e+002, 5.010661e+001
1.033430e+002, 4.997913e+001
1.038251e+002, 4.985060e+001
1.043073e+002, 4.962506e+001
1.047894e+002, 4.936245e+001
1.052715e+002, 4.940998e+001
1.057536e+002, 5.001613e+001
1.062357e+002, 5.065930e+001
1.067178e+002, 5.100074e+001
1.072000e+002, 5.106895e+001
1.076821e+002, 5.078500e+001
1.081642e+002, 5.006558e+001
1.086463e+002, 4.888304e+001
1.091284e+002, 4.764782e+001
1.096105e+002, 4.620442e+001
1.100927e+002, 4.477343e+001
1.105748e+002, 4.357523e+001
1.110569e+002, 4.262824e+001
1.115390e+002, 4.189923e+001
1.120211e+002, 4.147416e+001
1.125032e+002, 4.148579e+001
1.129854e+002, 4.130747e+001
1.134675e+002, 4.071589e+001
1.139496e+002, 3.991295e+001
1.144317e+002, 3.918165e+001
1.149138e+002, 3.848193e+001
1.153959e+002, 3.795263e+001
1.158781e+002, 3.770027e+001
1.163602e+002, 3.789441e+001
1.168423e+002, 3.803550e+001
1.173244e+002, 3.798649e+001
1.178065e+002, 3.775789e+001
1.182886e+002, 3.737654e+001
1.187708e+002, 3.661743e+001
1.192529e+002, 3.582834e+001
1.197350e+002, 3.530714e+001
1.202171e+002, 3.532540e+001
1.206992e+002, 3.539229e+001
1.211813e+002, 3.516928e+001
1.216635e+002, 3.470179e+001
1.221456e+002, 3.424369e+001
1.226277e+002, 3.401454e+001
1.231098e+002, 3.387524e+001
1.235919e+002, 3.364055e+001
1.240740e+002, 3.315821e+001
1.245562e+002, 3.260194e+001
1.250383e+002, 3.217911e+001
1.255204e+002, 3.188690e+001
1.260025e+002, 3.159098e+001
1.264846e+002, 3.110311e+001
1.269667e+002, 3.051184e+001
1.274489e+002, 3.003858e+001
1.279310e+002, 2.982527e+001
1.284131e+002, 2.978709e+001
1.288952e+002, 2.980334e+001
1.293773e+002, 2.989376e+001
1.298594e+002, 2.992564e+001
1.303416e+002, 2.966323e+001
1.308237e+002, 2.914912e+001
1.313058e+002, 2.867607e+001
1.317879e+002, 2.845142e+001
1.322700e+002, 2.841831e+001
1.327521e+002, 2.828136e+001
1.332343e+002, 2.798288e+001
1.337164e+002, 2.763437e+001
1.341985e+002, 2.745787e+001
1.346806e+002, 2.746653e+001
1.351627e+002, 2.747295e+001
1.356448e+002, 2.732648e+001
1.361270e+002, 2.702327e+001
1.366091e+002, 2.681593e+001
1.370912e+002, 2.679472e+001
1.375733e+002, 2.686210e+001
1.380554e+002, 2.663754e+001
1.385375e+002, 2.603153e+001
1.390197e+002, 2.539156e+001
1.395018e+002, 2.497966e+001
1.399839e+002, 2.483503e+001
1.404660e+002, 2.477257e+001
1.409481e+002, 2.480363e+001
1.414302e+002, 2.491263e+001
1.419124e+002, 2.490080e+001
1.423945e+002, 2.476270e+001
1.428766e+002, 2.451338e+001
1.433587e+002, 2.412611e+001
1.438408e+002, 2.345790e+001
1.443229e+002, 2.295745e+001
1.448051e+002, 2.278382e+001
1.452872e+002, 2.300163e+001
1.457693e+002, 2.303617e+001
1.462514e+002, 2.279210e+001
1.467335e+002, 2.242588e+001
1.472156e+002, 2.213131e+001
1.476978e+002, 2.194850e+001
1.481799e+002, 2.179202e+001
1.486620e+002, 2.164157e+001
1.491441e+002, 2.149954e+001
1.496262e+002, 2.136123e+001
1.501083e+002, 2.128129e+001
1.505905e+002, 2.119870e+001
1.510726e+002, 2.100331e+001
1.515547e+002, 2.042354e+001
1.520368e+002, 1.996708e+001
1.525189e+002, 1.981956e+001
1.530010e+002, 2.029819e+001
1.534832e+002, 2.054016e+001
1.539653e+002, 2.030935e+001
1.544474e+002, 1.979438e+001
1.549295e+002, 1.944811e+001
1.554116e+002, 1.941703e+001
1.558937e+002, 1.950080e+001
1.563759e+002, 1.962197e+001
1.568580e+002, 1.990351e+001
1.573401e+002, 2.004125e+001
1.578222e+002, 1.987831e+001
1.583043e+002, 1.949721e+001
1.587864e+002, 1.920211e+001
1.592686e+002, 1.916116e+001
1.597507e+002, 1.918205e+001
1.602328e+002, 1.914168e+001
1.607149e+002, 1.893802e+001
1.611970e+002, 1.874286e+001
1.616791e+002, 1.864888e+001
1.621613e+002, 1.863441e+001
1.626434e+002, 1.854600e+001
1.631255e+002, 1.822403e+001
1.636076e+002, 1.784279e+001
1.640897e+002, 1.755750e+001
1.645718e+002, 1.742892e+001
1.650540e+002, 1.739899e+001
1.655361e+002, 1.750281e+001
1.660182e+002, 1.773168e+001
1.665003e+002, 1.788423e+001
1.669824e+002, 1.768912e+001
1.674645e+002, 1.739905e+001
1.679467e+002, 1.732748e+001
1.684288e+002, 1.789896e+001
1.689109e+002, 1.852078e+001
1.693930e+002, 1.870135e+001
1.698751e+002, 1.840687e+001
1.703572e+002, 1.812006e+001
1.708394e+002, 1.810320e+001
1.713215e+002, 1.832330e+001
1.718036e+002, 1.872153e+001
1.722857e+002, 1.950192e+001
1.727678e+002, 2.033140e+001
1.732499e+002, 2.081156e+001
1.737321e+002, 2.087589e+001
1.742142e+002, 2.093533e+001
1.746963e+002, 2.132643e+001
1.751784e+002, 2.198239e+001
1.756605e+002, 2.274837e+001
1.761426e+002, 2.362260e+001
1.766248e+002, 2.452778e+001
1.771069e+002, 2.536051e+001
1.775890e+002, 2.611587e+001
1.780711e+002, 2.679338e+001
1.785532e+002, 2.738430e+001
1.790353e+002, 2.789990e+001
1.795175e+002, 2.835791e+001
1.799996e+002, 2.868228e+001
1.804817e+002, 2.897041e+001
1.809638e+002, 2.945010e+001
1.814459e+002, 3.019705e+001
1.819280e+002, 3.101095e+001
1.824102e+002, 3.163111e+001
1.828923e+002, 3.207164e+001
1.833744e+002, 3.249626e+001
1.838565e+002, 3.301524e+001
1.843386e+002, 3.359698e+001
1.848207e+002, 3.412539e+001
1.853029e+002, 3.457337e+001
1.857850e+002, 3.499314e+001
1.862671e+002, 3.549434e+001
1.867492e+002, 3.607101e+001
1.872313e+002, 3.664106e+001
1.877134e+002, 3.710886e+001
1.881956e+002, 3.751014e+001
1.886777e+002, 3.800106e+001
1.891598e+002, 3.863590e+001
1.896419e+002, 3.934690e+001
1.901240e+002, 3.997066e+001
1.906061e+002, 4.050965e+001
1.910883e+002, 4.108390e+001
1.915704e+002, 4.190063e+001
1.920525e+002, 4.291950e+001
1.925346e+002, 4.365186e+001
1.930167e+002, 4.395874e+001
1.934988e+002, 4.393193e+001
1.939810e+002, 4.370186e+001
1.944631e+002, 4.321507e+001
1.949452e+002, 4.283794e+001
1.954273e+002, 4.271362e+001
1.959094e+002, 4.283372e+001
1.963915e+002, 4.301240e+001
1.968737e+002, 4.325780e+001
1.973558e+002, 4.351954e+001
1.978379e+002, 4.359260e+001
1.983200e+002, 4.345146e+001
1.988021e+002, 4.325332e+001
1.992842e+002, 4.315522e+001
1.997664e+002, 4.316570e+001
2.002485e+002, 4.310651e+001
2.007306e+002, 4.290977e+001
2.012127e+002, 4.261454e+001
2.016948e+002, 4.242207e+001
2.021769e+002, 4.232963e+001
2.026591e+002, 4.233987e+001
2.031412e+002, 4.252010e+001
2.036233e+002, 4.291578e+001
2.041054e+002, 4.314571e+001
2.045875e+002, 4.308148e+001
2.050696e+002, 4.276194e+001
2.055518e+002, 4.250592e+001
2.060339e+002, 4.228482e+001
2.065160e+002, 4.218145e+001
2.069981e+002, 4.232824e+001
2.074802e+002, 4.278450e+001
2.079623e+002, 4.319968e+001
2.084445e+002, 4.350030e+001
2.089266e+002, 4.368915e+001
2.094087e+002, 4.376929e+001
2.098908e+002, 4.368340e+001
2.103729e+002, 4.359270e+001
2.108550e+002, 4.370060e+001
2.113372e+002, 4.407320e+001
2.118193e+002, 4.440470e+001
2.123014e+002, 4.462385e+001
2.127835e+002, 4.472969e+001
2.132656e+002, 4.477430e+001
2.137477e+002, 4.472320e+001
2.142299e+002, 4.465928e+001
2.147120e+002, 4.469087e+001
2.151941e+002, 4.485774e+001
2.156762e+002, 4.501007e+001
2.161583e+002, 4.513251e+001
2.166404e+002, 4.523002e+001
2.171226e+002, 4.516952e+001
2.176047e+002, 4.485535e+001
2.180868e+002, 4.449646e+001
2.185689e+002, 4.435844e+001
2.190510e+002, 4.453258e+001
2.195331e+002, 4.471368e+001
2.200153e+002, 4.484365e+001
2.204974e+002, 4.492670e+001
2.209795e+002, 4.491357e+001
2.214616e+002, 4.475880e+001
2.219437e+002, 4.455792e+001
2.224258e+002, 4.442367e+001
2.229080e+002, 4.436662e+001
2.233901e+002, 4.435273e+001
2.238722e+002, 4.434531e+001
2.243543e+002, 4.431939e+001
2.248364e+002, 4.452814e+001
2.253185e+002, 4.511716e+001
2.258007e+002, 4.580036e+001
2.262828e+002, 4.622047e+001
2.267649e+002, 4.629419e+001
2.272470e+002, 4.625309e+001
2.277291e+002, 4.609005e+001
2.282112e+002, 4.574753e+001
2.286934e+002, 4.572323e+001
2.291755e+002, 4.617025e+001
2.296576e+002, 4.679875e+001
2.301397e+002, 4.720827e+001
2.306218e+002, 4.724153e+001
2.311039e+002, 4.735839e+001
2.315861e+002, 4.770807e+001
2.320682e+002, 4.834704e+001
2.325503e+002, 4.886343e+001
2.330324e+002, 4.924031e+001
2.335145e+002, 4.951206e+001
2.339966e+002, 4.970102e+001
2.344788e+002, 4.969830e+001
2.349609e+002, 4.981472e+001
2.354430e+002, 5.020774e+001
2.359251e+002, 5.096552e+001
2.364072e+002, 5.136041e+001
2.368893e+002, 5.120829e+001
2.373715e+002, 5.084566e+001
2.378536e+002, 5.070017e+001
2.383357e+002, 5.090864e+001
2.388178e+002, 5.109032e+001
2.392999e+002, 5.115079e+001
2.397820e+002, 5.107876e+001
2.402642e+002, 5.096405e+001
2.407463e+002, 5.080983e+001
2.412284e+002, 5.060845e+001
2.417105e+002, 5.034623e+001
2.421926e+002, 5.000012e+001
2.426747e+002, 4.963365e+001
2.431569e+002, 4.925733e+001
2.436390e+002, 4.886576e+001
2.441211e+002, 4.849667e+001
2.446032e+002, 4.816025e+001
2.450853e+002, 4.783425e+001
2.455674e+002, 4.748290e+001
2.460496e+002, 4.704995e+001
2.465317e+002, 4.669992e+001
2.470138e+002, 4.650734e+001
2.474959e+002, 4.649763e+001
2.479780e+002, 4.634075e+001
2.484601e+002, 4.596357e+001
2.489423e+002, 4.551315e+001
2.494244e+002, 4.515277e+001
2.499065e+002, 4.492569e+001
2.503886e+002, 4.470369e+001
2.508707e+002, 4.444448e+001
2.513528e+002, 4.414532e+001
2.518350e+002, 4.392912e+001
2.523171e+002, 4.382801e+001
2.527992e+002, 4.377686e+001
2.532813e+002, 4.371281e+001
2.537634e+002, 4.363438e+001
2.542455e+002, 4.354339e+001
2.547277e+002, 4.342024e+001
2.552098e+002, 4.326214e+001
2.556919e+002, 4.320173e+001
2.561740e+002, 4.328562e+001
2.566561e+002, 4.340699e+001
2.571382e+002, 4.346581e+001
2.576204e+002, 4.344955e+001
2.581025e+002, 4.339737e+001
2.585846e+002, 4.329340e+001
2.590667e+002, 4.314289e+001
2.595488e+002, 4.308131e+001
2.600309e+002, 4.314331e+001
2.605131e+002, 4.324566e+001
2.609952e+002, 4.332056e+001
2.614773e+002, 4.337044e+001
2.619594e+002, 4.338556e+001
2.624415e+002, 4.334182e+001
2.629236e+002, 4.325157e+001
2.634058e+002, 4.325178e+001
2.638879e+002, 4.338031e+001
2.643700e+002, 4.353602e+001
2.648521e+002, 4.363897e+001
2.653342e+002, 4.367023e+001
2.658163e+002, 4.370434e+001
2.662985e+002, 4.372771e+001
2.667806e+002, 4.375861e+001
2.672627e+002, 4.394381e+001
2.677448e+002, 4.437088e+001
2.682269e+002, 4.476501e+001
2.687090e+002, 4.486237e+001
2.691912e+002, 4.454408e+001
2.696733e+002, 4.446469e+001
2.701554e+002, 4.479578e+001
2.706375e+002, 4.540167e+001
2.711196e+002, 4.570341e+001
2.716017e+002, 4.562088e+001
2.720839e+002, 4.545513e+001
2.725660e+002, 4.540328e+001
2.730481e+002, 4.548015e+001
2.735302e+002, 4.556787e+001
2.740123e+002, 4.565114e+001
2.744944e+002, 4.574220e+001
2.749766e+002, 4.587984e+001
2.754587e+002, 4.606879e+001
2.759408e+002, 4.628587e+001
2.764229e+002, 4.655814e+001
2.769050e+002, 4.690559e+001
2.773871e+002, 4.705285e+001
2.778693e+002, 4.690998e+001
2.783514e+002, 4.663832e+001
2.788335e+002, 4.661430e+001
2.793156e+002, 4.687136e+001
2.797977e+002, 4.717712e+001
2.802798e+002, 4.740209e+001
2.807620e+002, 4.754370e+001
2.812441e+002, 4.773178e+001
2.817262e+002, 4.799289e+001
2.822083e+002, 4.826482e+001
2.826904e+002, 4.842292e+001
2.831725e+002, 4.845951e+001
2.836547e+002, 4.848731e+001
2.841368e+002, 4.851029e+001
2.846189e+002, 4.854203e+001
2.851010e+002, 4.880315e+001
2.855831e+002, 4.935755e+001
2.860652e+002, 4.997421e+001
2.865474e+002, 5.035010e+001
2.870295e+002, 5.048658e+001
2.875116e+002, 5.043673e+001
2.879937e+002, 5.010360e+001
2.884758e+002, 4.955877e+001
2.889579e+002, 4.922547e+001
2.894401e+002, 4.910244e+001
2.899222e+002, 4.916555e+001
2.904043e+002, 4.952166e+001
2.908864e+002, 5.011828e+001
2.913685e+002, 5.053178e+001
2.918506e+002, 5.058443e+001
2.923328e+002, 5.033528e+001
2.928149e+002, 4.985614e+001
2.932970e+002, 4.912036e+001
2.937791e+002, 4.844805e+001
2.942612e+002, 4.824776e+001
2.947433e+002, 4.841795e+001
2.952255e+002, 4.856602e+001
2.957076e+002, 4.858050e+001
2.961897e+002, 4.848214e+001
2.966718e+002, 4.828576e+001
2.971539e+002, 4.799424e+001
2.976360e+002, 4.767493e+001
2.981182e+002, 4.742424e+001
2.986003e+002, 4.719349e+001
2.990824e+002, 4.684021e+001
2.995645e+002, 4.625472e+001
3.000466e+002, 4.560526e+001
3.005287e+002, 4.513165e+001
3.010109e+002, 4.481961e+001
3.014930e+002, 4.455328e+001
3.019751e+002, 4.426572e+001
3.024572e+002, 4.396737e+001
3.029393e+002, 4.369446e+001
3.034214e+002, 4.348516e+001
3.039036e+002, 4.324152e+001
3.043857e+002, 4.278997e+001
3.048678e+002, 4.219334e+001
3.053499e+002, 4.167121e+001
3.058320e+002, 4.140229e+001
3.063141e+002, 4.127074e+001
3.067963e+002, 4.115089e+001
3.072784e+002, 4.102632e+001
3.077605e+002, 4.089413e+001
3.082426e+002, 4.067931e+001
3.087247e+002, 4.044758e+001
3.092068e+002, 4.035686e+001
3.096890e+002, 4.070599e+001
3.101711e+002, 4.110482e+001
3.106532e+002, 4.117519e+001
3.111353e+002, 4.082352e+001
3.116174e+002, 4.041805e+001
3.120995e+002, 4.013733e+001
3.125817e+002, 3.996834e+001
3.130638e+002, 3.988511e+001
3.135459e+002, 3.988013e+001
3.140280e+002, 3.995459e+001
3.145101e+002, 4.017318e+001
3.149922e+002, 4.055465e+001
3.154744e+002, 4.081506e+001
3.159565e+002, 4.065913e+001
3.164386e+002, 4.036069e+001
3.169207e+002, 4.023312e+001
3.174028e+002, 4.054593e+001
3.178849e+002, 4.089106e+001
3.183671e+002, 4.110772e+001
3.188492e+002, 4.119879e+001
3.193313e+002, 4.126461e+001
3.198134e+002, 4.124892e+001
3.202955e+002, 4.126857e+001
3.207776e+002, 4.141597e+001
3.212598e+002, 4.196792e+001
3.217419e+002, 4.237666e+001
3.222240e+002, 4.240842e+001
3.227061e+002, 4.214405e+001
3.231882e+002, 4.201037e+001
3.236703e+002, 4.216445e+001
3.241525e+002, 4.241895e+001
3.246346e+002, 4.266810e+001
3.251167e+002, 4.283110e+001
3.255988e+002, 4.308509e+001
3.260809e+002, 4.354421e+001
3.265630e+002, 4.411501e+001
3.270452e+002, 4.454251e+001
3.275273e+002, 4.468559e+001
3.280094e+002, 4.478772e+001
3.284915e+002, 4.492880e+001
3.289736e+002, 4.511082e+001
3.294557e+002, 4.532321e+001
3.299379e+002, 4.554158e+001
3.304200e+002, 4.579942e+001
3.309021e+002, 4.615511e+001
3.313842e+002, 4.673996e+001
3.318663e+002, 4.724923e+001
3.323484e+002, 4.756872e+001
3.328306e+002, 4.764491e+001
3.333127e+002, 4.784911e+001
3.337948e+002, 4.825518e+001
3.342769e+002, 4.872399e+001
3.347590e+002, 4.907698e+001
3.352411e+002, 4.920993e+001
3.357233e+002, 4.947505e+001
3.362054e+002, 4.999394e+001
3.366875e+002, 5.074794e+001
3.371696e+002, 5.134009e+001
3.376517e+002, 5.172060e+001
3.381339e+002, 5.203579e+001
3.386160e+002, 5.240819e+001
3.390981e+002, 5.286372e+001
3.395802e+002, 5.325392e+001
3.400623e+002, 5.353172e+001
3.405444e+002, 5.374065e+001
3.410266e+002, 5.400975e+001
3.415087e+002, 5.434756e+001
3.419908e+002, 5.471673e+001
3.424729e+002, 5.511438e+001
3.429550e+002, 5.553609e+001
3.434371e+002, 5.594065e+001
3.439193e+002, 5.634683e+001
3.444014e+002, 5.668408e+001
3.448835e+002, 5.674900e+001
3.453656e+002, 5.654414e+001
3.458477e+002, 5.639472e+001
3.463298e+002, 5.653065e+001
3.468120e+002, 5.687397e+001
3.472941e+002, 5.705513e+001
3.477762e+002, 5.704531e+001
3.482583e+002, 5.699754e+001
3.487404e+002, 5.707117e+001
3.492225e+002, 5.725823e+001
3.497047e+002, 5.752490e+001
3.501868e+002, 5.788782e+001
3.506689e+002, 5.830738e+001
3.511510e+002, 5.870198e+001
3.516331e+002, 5.907150e+001
3.521152e+002, 5.949630e+001
3.525974e+002, 6.009872e+001
3.530795e+002, 6.079653e+001
3.535616e+002, 6.141499e+001
3.540437e+002, 6.177873e+001
3.545258e+002, 6.220456e+001
3.550079e+002, 6.314729e+001
3.554901e+002, 6.449208e+001
3.559722e+002, 6.573988e+001
3.564543e+002, 6.650156e+001
3.569364e+002, 6.704784e+001
3.574185e+002, 6.768410e+001
3.579006e+002, 6.852074e+001
3.583828e+002, 6.929776e+001
3.588649e+002, 6.985583e+001
3.593470e+002, 7.024106e+001
3.598291e+002, 7.055288e+001
3.603112e+002, 7.088314e+001
3.607933e+002, 7.111594e+001
3.612755e+002, 7.116467e+001
3.617576e+002, 7.100327e+001
3.622397e+002, 7.078932e+001
3.627218e+002, 7.065737e+001
3.632039e+002, 7.047720e+001
3.636860e+002, 7.010365e+001
3.641682e+002, 6.938444e+001
3.646503e+002, 6.857137e+001
3.651324e+002, 6.772186e+001
3.656145e+002, 6.683475e+001
3.660966e+002, 6.598462e+001
3.665787e+002, 6.525700e+001
3.670609e+002, 6.452480e+001
3.675430e+002, 6.370663e+001
3.680251e+002, 6.279556e+001
3.685072e+002, 6.178999e+001
3.689893e+002, 6.060640e+001
3.694714e+002, 5.932133e+001
3.699536e+002, 5.821173e+001
3.704357e+002, 5.720997e+001
3.709178e+002, 5.645483e+001
3.713999e+002, 5.606099e+001
3.718820e+002, 5.626381e+001
3.723641e+002, 5.619128e+001
3.728463e+002, 5.565676e+001
3.733284e+002, 5.497060e+001
3.738105e+002, 5.463961e+001
3.742926e+002, 5.483578e+001
3.747747e+002, 5.499618e+001
3.752568e+002, 5.492875e+001
3.757390e+002, 5.462914e+001
3.762211e+002, 5.445889e+001
3.767032e+002, 5.441382e+001
3.771853e+002, 5.450250e+001
3.776674e+002, 5.477689e+001
3.781495e+002, 5.526425e+001
3.786317e+002, 5.568499e+001
3.791138e+002, 5.593214e+001
3.795959e+002, 5.611247e+001
3.800780e+002, 5.662400e+001
3.805601e+002, 5.749354e+001
3.810422e+002, 5.837731e+001
3.815244e+002, 5.899902e+001
3.820065e+002, 5.941752e+001
3.824886e+002, 5.994564e+001
3.829707e+002, 6.065441e+001
3.834528e+002, 6.138166e+001
3.839349e+002, 6.192170e+001
3.844171e+002, 6.228798e+001
3.848992e+002, 6.255430e+001
3.853813e+002, 6.274936e+001
3.858634e+002, 6.287616e+001
3.863455e+002, 6.302998e+001
3.868276e+002, 6.322416e+001
3.873098e+002, 6.313362e+001
3.877919e+002, 6.230371e+001
3.882740e+002, 6.100944e+001
3.887561e+002, 5.975584e+001
3.892382e+002, 5.879334e+001
3.897203e+002, 5.784136e+001
3.902025e+002, 5.667965e+001
3.906846e+002, 5.533758e+001
3.911667e+002, 5.391974e+001
3.916488e+002, 5.244186e+001
3.921309e+002, 5.095114e+001
3.926130e+002, 4.947114e+001
3.930952e+002, 4.799854e+001
3.935773e+002, 4.660028e+001
3.940594e+002, 4.532621e+001
3.945415e+002, 4.415756e+001
3.950236e+002, 4.305917e+001
3.955057e+002, 4.200834e+001
3.959879e+002, 4.103720e+001
3.964700e+002, 4.013618e+001
3.969521e+002, 3.928843e+001
3.974342e+002, 3.862194e+001
3.979163e+002, 3.827236e+001
3.983984e+002, 3.805725e+001
3.988806e+002, 3.781008e+001
3.993627e+002, 3.757993e+001
3.998448e+002, 3.724510e+001
4.003269e+002, 3.670570e+001
4.008090e+002, 3.600615e+001
4.012911e+002, 3.550373e+001
4.017733e+002, 3.527171e+001
4.022554e+002, 3.514392e+001
4.027375e+002, 3.503778e+001
4.032196e+002, 3.494417e+001
4.037017e+002, 3.490417e+001
4.041838e+002, 3.495684e+001
4.046660e+002, 3.503387e+001
4.051481e+002, 3.498100e+001
4.056302e+002, 3.474938e+001
4.061123e+002, 3.456872e+001
4.065944e+002, 3.454222e+001
4.070765e+002, 3.466076e+001
4.075587e+002, 3.470520e+001
4.080408e+002, 3.465093e+001
4.085229e+002, 3.461593e+001
4.090050e+002, 3.473267e+001
4.094871e+002, 3.499290e+001
4.099692e+002, 3.529912e+001
4.104514e+002, 3.568071e+001
4.109335e+002, 3.604141e+001
4.114156e+002, 3.610402e+001
4.118977e+002, 3.589646e+001
4.123798e+002, 3.575304e+001
4.128619e+002, 3.602198e+001
4.133441e+002, 3.648902e+001
4.138262e+002, 3.670695e+001
4.143083e+002, 3.658805e+001
4.147904e+002, 3.641319e+001
4.152725e+002, 3.651231e+001
4.157546e+002, 3.675769e+001
4.162368e+002, 3.688649e+001
4.167189e+002, 3.672932e+001
4.172010e+002, 3.644491e+001
4.176831e+002, 3.607946e+001
4.181652e+002, 3.565238e+001
4.186473e+002, 3.536283e+001
4.191295e+002, 3.550111e+001
4.196116e+002, 3.573740e+001
4.200937e+002, 3.577314e+001
4.205758e+002, 3.543484e+001
4.210579e+002, 3.503630e+001
4.215400e+002, 3.460736e+001
4.220222e+002, 3.418933e+001
4.225043e+002, 3.387174e+001
4.229864e+002, 3.375813e+001
4.234685e+002, 3.368131e+001
4.239506e+002, 3.357274e+001
4.244327e+002, 3.340820e+001
4.249149e+002, 3.328497e+001
4.253970e+002, 3.325095e+001
4.258791e+002, 3.323537e+001
4.263612e+002, 3.316248e+001
4.268433e+002, 3.296438e+001
4.273254e+002, 3.281769e+001
4.278076e+002, 3.275470e+001
4.282897e+002, 3.276640e+001
4.287718e+002, 3.280822e+001
4.292539e+002, 3.291613e+001
4.297360e+002, 3.297932e+001
4.302181e+002, 3.287145e+001
4.307003e+002, 3.252994e+001
4.311824e+002, 3.246752e+001
4.316645e+002, 3.278265e+001
4.321466e+002, 3.325076e+001
4.326287e+002, 3.348671e+001
4.331108e+002, 3.348531e+001
4.335930e+002, 3.344173e+001
4.340751e+002, 3.340162e+001
4.345572e+002, 3.338036e+001
4.350393e+002, 3.337840e+001
4.355214e+002, 3.339075e+001
4.360035e+002, 3.358453e+001
4.364857e+002, 3.438103e+001
4.369678e+002, 3.546560e+001
4.374499e+002, 3.603407e+001
4.379320e+002, 3.573612e+001
4.384141e+002, 3.521371e+001
4.388962e+002, 3.512792e+001
4.393784e+002, 3.539014e+001
4.398605e+002, 3.574086e+001
4.403426e+002, 3.616106e+001
4.408247e+002, 3.653247e+001
4.413068e+002, 3.674162e+001
4.417889e+002, 3.676706e+001
4.422711e+002, 3.675316e+001
4.427532e+002, 3.670104e+001
4.432353e+002, 3.667564e+001
4.437174e+002, 3.674442e+001
4.441995e+002, 3.694639e+001
4.446816e+002, 3.722381e+001
4.451638e+002, 3.762524e+001
4.456459e+002, 3.810871e+001
4.461280e+002, 3.850111e+001
4.466101e+002, 3.862337e+001
4.470922e+002, 3.877630e+001
4.475743e+002, 3.910167e+001
4.480565e+002, 3.966990e+001
4.485386e+002, 4.022935e+001
4.490207e+002, 4.080254e+001
4.495028e+002, 4.134967e+001
4.499849e+002, 4.179791e+001
4.504670e+002, 4.209377e+001
4.509492e+002, 4.242000e+001
4.514313e+002, 4.281791e+001
4.519134e+002, 4.327995e+001
4.523955e+002, 4.377442e+001
4.528776e+002, 4.433356e+001
4.533597e+002, 4.478594e+001
4.538419e+002, 4.492570e+001
4.543240e+002, 4.476353e+001
4.548061e+002, 4.481514e+001
4.552882e+002, 4.516633e+001
4.557703e+002, 4.562796e+001
4.562524e+002, 4.594469e+001
4.567346e+002, 4.612364e+001
4.572167e+002, 4.618547e+001
4.576988e+002, 4.605294e+001
4.581809e+002, 4.584932e+001
4.586630e+002, 4.581432e+001
4.591451e+002, 4.593732e+001
4.596273e+002, 4.604982e+001
4.601094e+002, 4.609032e+001
4.605915e+002, 4.601916e+001
4.610736e+002, 4.574897e+001
4.615557e+002, 4.514622e+001
4.620378e+002, 4.459048e+001
4.625200e+002, 4.439865e+001
4.630021e+002, 4.442378e+001
4.634842e+002, 4.438383e+001
4.639663e+002, 4.414966e+001
4.644484e+002, 4.384289e+001
4.649305e+002, 4.349465e+001
4.654127e+002, 4.310297e+001
4.658948e+002, 4.277012e+001
4.663769e+002, 4.252334e+001
4.668590e+002, 4.234240e+001
4.673411e+002, 4.221413e+001
4.678232e+002, 4.217680e+001
4.683054e+002, 4.214072e+001
4.687875e+002, 4.213292e+001
4.692696e+002, 4.211972e+001
4.697517e+002, 4.204483e+001
4.702338e+002, 4.202700e+001
4.707159e+002, 4.171552e+001
4.711981e+002, 4.089479e+001
4.716802e+002, 3.953675e+001
4.721623e+002, 3.840413e+001
4.726444e+002, 3.755343e+001
4.731265e+002, 3.680963e+001
4.736086e+002, 3.597943e+001
4.740908e+002, 3.506702e+001
4.745729e+002, 3.435064e+001
4.750550e+002, 3.391906e+001
4.755371e+002, 3.364679e+001
4.760192e+002, 3.331992e+001
4.765013e+002, 3.294139e+001
4.769835e+002, 3.255041e+001
4.774656e+002, 3.213023e+001
4.779477e+002, 3.172074e+001
4.784298e+002, 3.138337e+001
4.789119e+002, 3.112088e+001
4.793940e+002, 3.092437e+001
4.798762e+002, 3.081754e+001
4.803583e+002, 3.076291e+001
4.808404e+002, 3.071509e+001
4.813225e+002, 3.070111e+001
4.818046e+002, 3.063656e+001
4.822867e+002, 3.057967e+001
4.827689e+002, 3.044748e+001
4.832510e+002, 3.002520e+001
4.837331e+002, 2.862858e+001
4.842152e+002, 2.745134e+001
4.846973e+002, 2.713045e+001
4.851794e+002, 2.790134e+001
4.856616e+002, 2.850632e+001
4.861437e+002, 2.892432e+001
4.866258e+002, 2.908084e+001
4.871079e+002, 2.889507e+001
4.875900e+002, 2.814486e+001
4.880721e+002, 2.742725e+001
4.885543e+002, 2.675086e+001
4.890364e+002, 2.615442e+001
4.895185e+002, 2.576980e+001
4.900006e+002, 2.562919e+001
4.904827e+002, 2.561079e+001
4.909648e+002, 2.573359e+001
4.914470e+002, 2.598175e+001
4.919291e+002, 2.597600e+001
4.924112e+002, 2.567926e+001
4.928933e+002, 2.530581e+001
4.933754e+002, 2.506424e+001
4.938575e+002, 2.493214e+001
4.943397e+002, 2.481777e+001
4.948218e+002, 2.470561e+001
4.953039e+002, 2.459733e+001
4.957860e+002, 2.447587e+001
4.962681e+002, 2.435675e+001
4.967502e+002, 2.429266e+001
4.972324e+002, 2.439659e+001
4.977145e+002, 2.451465e+001
4.981966e+002, 2.447309e+001
4.986787e+002, 2.426211e+001
4.991608e+002, 2.407935e+001
4.996429e+002, 2.404128e+001
5.001251e+002, 2.407056e+001
5.006072e+002, 2.410028e+001
5.010893e+002, 2.414883e+001
5.015714e+002, 2.414876e+001
5.020535e+002, 2.402354e+001
5.025356e+002, 2.384133e+001
5.030178e+002, 2.375803e+001
5.034999e+002, 2.392967e+001
5.039820e+002, 2.404204e+001
5.044641e+002, 2.398867e+001
5.049462e+002, 2.376051e+001
5.054283e+002, 2.362475e+001
5.059105e+002, 2.362702e+001
5.063926e+002, 2.365351e+001
5.068747e+002, 2.359472e+001
5.073568e+002, 2.342174e+001
5.078389e+002, 2.338808e+001
5.083210e+002, 2.356966e+001
5.088032e+002, 2.380882e+001
5.092853e+002, 2.378859e+001
5.097674e+002, 2.352614e+001
5.102495e+002, 2.330850e+001
5.107316e+002, 2.325547e+001
5.112137e+002, 2.332317e+001
5.116959e+002, 2.346527e+001
5.121780e+002, 2.367050e+001
5.126601e+002, 2.381098e+001
5.131422e+002, 2.371410e+001
5.136243e+002, 2.352789e+001
5.141064e+002, 2.344727e+001
5.145886e+002, 2.352440e+001
5.150707e+002, 2.364164e+001
5.155528e+002, 2.380916e+001
5.160349e+002, 2.395003e+001
5.165170e+002, 2.395598e+001
5.169991e+002, 2.358220e+001
5.174813e+002, 2.328206e+001
5.179634e+002, 2.328101e+001
5.184455e+002, 2.353349e+001
5.189276e+002, 2.364552e+001
5.194097e+002, 2.338861e+001
5.198918e+002, 2.314250e+001
5.203740e+002, 2.306582e+001
5.208561e+002, 2.321164e+001
5.213382e+002, 2.336320e+001
5.218203e+002, 2.357034e+001
5.223024e+002, 2.372460e+001
5.227845e+002, 2.365575e+001
5.232667e+002, 2.330337e+001
5.237488e+002, 2.306864e+001
5.242309e+002, 2.304891e+001
5.247130e+002, 2.317912e+001
5.251951e+002, 2.332071e+001
5.256772e+002, 2.347355e+001
5.261594e+002, 2.360689e+001
5.266415e+002, 2.371959e+001
5.271236e+002, 2.379926e+001
5.276057e+002, 2.380543e+001
5.280878e+002, 2.373668e+001
5.285699e+002, 2.364559e+001
5.290521e+002, 2.351272e+001
5.295342e+002, 2.340589e+001
5.300163e+002, 2.343907e+001
5.304984e+002, 2.375338e+001
5.309805e+002, 2.400660e+001
5.314626e+002, 2.388210e+001
5.319448e+002, 2.357286e+001
5.324269e+002, 2.345318e+001
5.329090e+002, 2.377148e+001
5.333911e+002, 2.415805e+001
5.338732e+002, 2.451585e+001
5.343553e+002, 2.483673e+001
5.348375e+002, 2.511089e+001
5.353196e+002, 2.532966e+001
5.358017e+002, 2.550739e+001
5.362838e+002, 2.565962e+001
5.367659e+002, 2.581956e+001
5.372480e+002, 2.583522e+001
5.377302e+002, 2.562208e+001
5.382123e+002, 2.537833e+001
5.386944e+002, 2.541713e+001
5.391765e+002, 2.575566e+001
5.396586e+002, 2.618568e+001
5.401407e+002, 2.680860e+001
5.406229e+002, 2.734818e+001
5.411050e+002, 2.674707e+001
5.415871e+002, 2.515560e+001
5.420692e+002, 2.408332e+001
5.425513e+002, 2.509249e+001
5.430334e+002, 2.698252e+001
5.435156e+002, 2.787771e+001
5.439977e+002, 2.763035e+001
5.444798e+002, 2.709767e+001
5.449619e+002, 2.661313e+001
5.454440e+002, 2.627965e+001
5.459261e+002, 2.623856e+001
5.464083e+002, 2.688603e+001
5.468904e+002, 2.731291e+001
5.473725e+002, 2.699821e+001
5.478546e+002, 2.625921e+001
5.483367e+002, 2.576870e+001
5.488188e+002, 2.564466e+001
5.493010e+002, 2.577242e+001
5.497831e+002, 2.630807e+001
5.502652e+002, 2.723808e+001
5.507473e+002, 2.747796e+001
5.512294e+002, 2.655440e+001
5.517115e+002, 2.574168e+001
5.521937e+002, 2.605875e+001
5.526758e+002, 2.771188e+001
5.531579e+002, 2.842555e+001
5.536400e+002, 2.792444e+001
5.541221e+002, 2.698080e+001
5.546042e+002, 2.657715e+001
5.550864e+002, 2.665141e+001
5.555685e+002, 2.682249e+001
5.560506e+002, 2.698796e+001
5.565327e+002, 2.717680e+001
5.570148e+002, 2.744506e+001
5.574969e+002, 2.777612e+001
5.579791e+002, 2.810946e+001
5.584612e+002, 2.834549e+001
5.589433e+002, 2.861109e+001
5.594254e+002, 2.900259e+001
5.599075e+002, 2.952832e+001
5.603896e+002, 3.014386e+001
5.608718e+002, 3.104175e+001
5.613539e+002, 3.188672e+001
5.618360e+002, 3.241670e+001
5.623181e+002, 3.229887e+001
5.628002e+002, 3.231483e+001
5.632823e+002, 3.256487e+001
5.637645e+002, 3.294634e+001
5.642466e+002, 3.330278e+001
5.647287e+002, 3.359974e+001
5.652108e+002, 3.394926e+001
5.656929e+002, 3.441248e+001
5.661750e+002, 3.494207e+001
5.666572e+002, 3.532256e+001
5.671393e+002, 3.553294e+001
5.676214e+002, 3.572976e+001
5.681035e+002, 3.605489e+001
5.685856e+002, 3.644881e+001
5.690677e+002, 3.670107e+001
5.695499e+002, 3.680134e+001
5.700320e+002, 3.677360e+001
5.705141e+002, 3.661827e+001
5.709962e+002, 3.635346e+001
5.714783e+002, 3.599890e+001
5.719604e+002, 3.551960e+001
5.724426e+002, 3.502915e+001
5.729247e+002, 3.462193e+001
5.734068e+002, 3.424906e+001
5.738889e+002, 3.381349e+001
5.743710e+002, 3.323533e+001
5.748531e+002, 3.264342e+001
5.753353e+002, 3.209274e+001
5.758174e+002, 3.158109e+001
5.762995e+002, 3.101087e+001
5.767816e+002, 3.026203e+001
5.772637e+002, 2.960162e+001
5.777458e+002, 2.916721e+001
5.782280e+002, 2.901797e+001
5.787101e+002, 2.878746e+001
5.791922e+002, 2.845350e+001
5.796743e+002, 2.808680e+001
5.801564e+002, 2.775123e+001
5.806385e+002, 2.744799e+001
5.811207e+002, 2.717796e+001
5.816028e+002, 2.694492e+001
5.820849e+002, 2.674189e+001
5.825670e+002, 2.658237e+001
5.830491e+002, 2.645006e+001
5.835313e+002, 2.628356e+001
5.840134e+002, 2.600432e+001
5.844955e+002, 2.571551e+001
5.849776e+002, 2.550494e+001
5.854597e+002, 2.536808e+001
5.859418e+002, 2.527559e+001
5.864240e+002, 2.530971e+001
5.869061e+002, 2.531063e+001
5.873882e+002, 2.514866e+001
5.878703e+002, 2.473802e+001
5.883524e+002, 2.445280e+001
5.888345e+002, 2.443215e+001
5.893167e+002, 2.449207e+001
5.897988e+002, 2.447457e+001
5.902809e+002, 2.425776e+001
5.907630e+002, 2.427194e+001
5.912451e+002, 2.465806e+001
5.917272e+002, 2.517768e+001
5.922094e+002, 2.532770e+001
5.926915e+002, 2.507936e+001
5.931736e+002, 2.491093e+001
5.936557e+002, 2.504156e+001
5.941378e+002, 2.531921e+001
5.946199e+002, 2.539474e+001
5.951021e+002, 2.527831e+001
5.955842e+002, 2.505725e+001
5.960663e+002, 2.465193e+001
5.965484e+002, 2.424485e+001
5.970305e+002, 2.406752e+001
5.975126e+002, 2.414413e+001
5.979948e+002, 2.427049e+001
5.984769e+002, 2.434794e+001
5.989590e+002, 2.441526e+001
5.994411e+002, 2.451467e+001
5.999232e+002, 2.474653e+001
6.004053e+002, 2.485868e+001
6.008875e+002, 2.468531e+001
6.013696e+002, 2.441599e+001
6.018517e+002, 2.432993e+001
6.023338e+002, 2.457497e+001
6.028159e+002, 2.471025e+001
6.032980e+002, 2.463426e+001
6.037802e+002, 2.439804e+001
6.042623e+002, 2.413313e+001
6.047444e+002, 2.382072e+001
6.052265e+002, 2.365742e+001
6.057086e+002, 2.385725e+001
6.061907e+002, 2.428918e+001
6.066729e+002, 2.448379e+001
6.071550e+002, 2.444418e+001
6.076371e+002, 2.434851e+001
6.081192e+002, 2.427454e+001
6.086013e+002, 2.425557e+001
6.090834e+002, 2.437322e+001
6.095656e+002, 2.469048e+001
6.100477e+002, 2.493324e+001
6.105298e+002, 2.486459e+001
6.110119e+002, 2.467670e+001
6.114940e+002, 2.458463e+001
6.119761e+002, 2.479081e+001
6.124583e+002, 2.491452e+001
6.129404e+002, 2.483172e+001
6.134225e+002, 2.464101e+001
6.139046e+002, 2.456418e+001
6.143867e+002, 2.466593e+001
6.148688e+002, 2.474411e+001
6.153510e+002, 2.470791e+001
6.158331e+002, 2.459522e+001
6.163152e+002, 2.469040e+001
6.167973e+002, 2.501735e+001
6.172794e+002, 2.530754e+001
6.177615e+002, 2.531034e+001
6.182437e+002, 2.513723e+001
6.187258e+002, 2.511411e+001
6.192079e+002, 2.526095e+001
6.196900e+002, 2.544752e+001
6.201721e+002, 2.562334e+001
6.206542e+002, 2.575001e+001
6.211364e+002, 2.576066e+001
6.216185e+002, 2.557035e+001
6.221006e+002, 2.542263e+001
6.225827e+002, 2.544632e+001
6.230648e+002, 2.556969e+001
6.235469e+002, 2.569236e+001
6.240291e+002, 2.585464e+001
6.245112e+002, 2.594230e+001
6.249933e+002, 2.586677e+001
6.254754e+002, 2.571042e+001
6.259575e+002, 2.577770e+001
6.264396e+002, 2.615575e+001
6.269218e+002, 2.650247e+001
6.274039e+002, 2.666445e+001
6.278860e+002, 2.668030e+001
6.283681e+002, 2.681066e+001
6.288502e+002, 2.706132e+001
6.293323e+002, 2.727128e+001
6.298145e+002, 2.728196e+001
6.302966e+002, 2.717625e+001
6.307787e+002, 2.708223e+001
6.312608e+002, 2.700460e+001
6.317429e+002, 2.703645e+001
6.322250e+002, 2.735883e+001
6.327072e+002, 2.777578e+001
6.331893e+002, 2.807741e+001
6.336714e+002, 2.815205e+001
6.341535e+002, 2.820396e+001
6.346356e+002, 2.821659e+001
6.351177e+002, 2.825760e+001
6.355999e+002, 2.844426e+001
6.360820e+002, 2.894160e+001
6.365641e+002, 2.930993e+001
6.370462e+002, 2.942234e+001
6.375283e+002, 2.937257e+001
6.380104e+002, 2.949246e+001
6.384926e+002, 2.981127e+001
6.389747e+002, 3.011936e+001
6.394568e+002, 3.030053e+001
6.399389e+002, 3.040545e+001
6.404210e+002, 3.060352e+001
6.409031e+002, 3.089303e+001
6.413853e+002, 3.121096e+001
6.418674e+002, 3.150549e+001
6.423495e+002, 3.180724e+001
6.428316e+002, 3.214915e+001
6.433137e+002, 3.253986e+001
6.437958e+002, 3.295038e+001
6.442780e+002, 3.338363e+001
6.447601e+002, 3.382589e+001
6.452422e+002, 3.425300e+001
6.457243e+002, 3.448513e+001
6.462064e+002, 3.498920e+001
6.466885e+002, 3.594674e+001
6.471707e+002, 3.708258e+001
6.476528e+002, 3.800109e+001
6.481349e+002, 3.862782e+001
6.486170e+002, 3.929930e+001
6.490991e+002, 4.008967e+001
6.495812e+002, 4.095744e+001
6.500634e+002, 4.182577e+001
6.505455e+002, 4.270406e+001
6.510276e+002, 4.361610e+001
6.515097e+002, 4.452225e+001
6.519918e+002, 4.551200e+001
6.524739e+002, 4.681024e+001
6.529561e+002, 4.834676e+001
6.534382e+002, 4.985192e+001
6.539203e+002, 5.099727e+001
6.544024e+002, 5.215871e+001
6.548845e+002, 5.367298e+001
6.553666e+002, 5.560291e+001
6.558488e+002, 5.740757e+001
6.563309e+002, 5.879181e+001
6.568130e+002, 6.014818e+001
6.572951e+002, 6.172285e+001
6.577772e+002, 6.362838e+001
6.582593e+002, 6.545530e+001
6.587415e+002, 6.720475e+001
6.592236e+002, 6.887417e+001
6.597057e+002, 7.042329e+001
6.601878e+002, 7.184958e+001
6.606699e+002, 7.337012e+001
6.611520e+002, 7.503450e+001
6.616342e+002, 7.670983e+001
6.621163e+002, 7.828027e+001
6.625984e+002, 7.970691e+001
6.630805e+002, 8.088181e+001
6.635626e+002, 8.161143e+001
6.640447e+002, 8.222828e+001
6.645269e+002, 8.289745e+001
6.650090e+002, 8.363099e+001
6.654911e+002, 8.448251e+001
6.659732e+002, 8.545040e+001
6.664553e+002, 8.655638e+001
6.669374e+002, 8.781511e+001
6.674196e+002, 8.922798e+001
6.679017e+002, 9.078233e+001
6.683838e+002, 9.253561e+001
6.688659e+002, 9.434776e+001
6.693480e+002, 9.610557e+001
6.698301e+002, 9.781499e+001
6.703123e+002, 9.986197e+001
6.707944e+002, 1.022600e+002
6.712765e+002, 1.049673e+002
6.717586e+002, 1.080633e+002
6.722407e+002, 1.114638e+002
6.727228e+002, 1.149641e+002
6.732050e+002, 1.185900e+002
6.736871e+002, 1.221643e+002
6.741692e+002, 1.255308e+002
6.746513e+002, 1.288336e+002
6.751334e+002, 1.321966e+002
6.756155e+002, 1.356946e+002
6.760977e+002, 1.392571e+002
6.765798e+002, 1.429610e+002
6.770619e+002, 1.466326e+002
6.775440e+002, 1.499890e+002
6.780261e+002, 1.529866e+002
6.785082e+002, 1.557207e+002
6.789904e+002, 1.583206e+002
6.794725e+002, 1.605839e+002
6.799546e+002, 1.619721e+002
6.804367e+002, 1.624609e+002
6.809188e+002, 1.626145e+002
6.814009e+002, 1.628177e+002
6.818831e+002, 1.627320e+002
6.823652e+002, 1.616699e+002
6.828473e+002, 1.597134e+002
6.833294e+002, 1.573186e+002
6.838115e+002, 1.547103e+002
6.842936e+002, 1.517777e+002
6.847758e+002, 1.483465e+002
6.852579e+002, 1.444359e+002
6.857400e+002, 1.402177e+002
6.862221e+002, 1.354325e+002
6.867042e+002, 1.306566e+002
6.871863e+002, 1.261608e+002
6.876685e+002, 1.220324e+002
6.881506e+002, 1.178465e+002
6.886327e+002, 1.135065e+002
6.891148e+002, 1.091634e+002
6.895969e+002, 1.049098e+002
6.900790e+002, 1.007185e+002
6.905612e+002, 9.670818e+001
6.910433e+002, 9.288640e+001
6.915254e+002, 8.930070e+001
6.920075e+002, 8.619394e+001
6.924896e+002, 8.341234e+001
6.929717e+002, 8.068462e+001
6.934539e+002, 7.787289e+001
6.939360e+002, 7.523759e+001
6.944181e+002, 7.302090e+001
6.949002e+002, 7.108121e+001
6.953823e+002, 6.919064e+001
6.958644e+002, 6.738282e+001
6.963466e+002, 6.554707e+001
6.968287e+002, 6.358593e+001
6.973108e+002, 6.160568e+001
6.977929e+002, 5.996286e+001
6.982750e+002, 5.874249e+001
6.987571e+002, 5.753388e+001
6.992393e+002, 5.614286e+001
6.997214e+002, 5.470292e+001
7.002035e+002, 5.371397e+001
7.006856e+002, 5.312659e+001
7.011677e+002, 5.255122e+001
7.016498e+002, 5.179525e+001
7.021320e+002, 5.090693e+001
7.026141e+002, 4.983332e+001
7.030962e+002, 4.861274e+001
7.035783e+002, 4.759760e+001
7.040604e+002, 4.711541e+001
7.045425e+002, 4.673458e+001
7.050247e+002, 4.619442e+001
7.055068e+002, 4.541946e+001
7.059889e+002, 4.479658e+001
7.064710e+002, 4.440980e+001
7.069531e+002, 4.406628e+001
7.074352e+002, 4.364325e+001
7.079174e+002, 4.313409e+001
7.083995e+002, 4.265792e+001
7.088816e+002, 4.223070e+001
7.093637e+002, 4.177151e+001
7.098458e+002, 4.107460e+001
7.103279e+002, 4.029149e+001
7.108101e+002, 3.982939e+001
7.112922e+002, 3.982584e+001
7.117743e+002, 3.987152e+001
7.122564e+002, 3.965755e+001
7.127385e+002, 3.931339e+001
7.132206e+002, 3.898390e+001
7.137028e+002, 3.852609e+001
7.141849e+002, 3.834301e+001
7.146670e+002, 3.875216e+001
7.151491e+002, 3.938226e+001
7.156312e+002, 3.977605e+001
7.161133e+002, 3.997408e+001
7.165955e+002, 3.977419e+001
7.170776e+002, 3.902981e+001
7.175597e+002, 3.800219e+001
7.180418e+002, 3.723412e+001
7.185239e+002, 3.670668e+001
7.190060e+002, 3.630943e+001
7.194882e+002, 3.606687e+001
7.199703e+002, 3.585705e+001
7.204524e+002, 3.548709e+001
7.209345e+002, 3.501772e+001
7.214166e+002, 3.461779e+001
7.218987e+002, 3.440279e+001
7.223809e+002, 3.424400e+001
7.228630e+002, 3.409161e+001
7.233451e+002, 3.394595e+001
7.238272e+002, 3.382845e+001
7.243093e+002, 3.376656e+001
7.247914e+002, 3.369781e+001
7.252736e+002, 3.362309e+001
7.257557e+002, 3.353360e+001
7.262378e+002, 3.326234e+001
7.267199e+002, 3.277615e+001
7.272020e+002, 3.236930e+001
7.276841e+002, 3.230559e+001
7.281663e+002, 3.244114e+001
7.286484e+002, 3.248076e+001
7.291305e+002, 3.241380e+001
7.296126e+002, 3.226632e+001
7.300947e+002, 3.201159e+001
7.305768e+002, 3.171339e+001
7.310590e+002, 3.139175e+001
7.315411e+002, 3.101820e+001
7.320232e+002, 3.078901e+001
7.325053e+002, 3.083129e+001
7.329874e+002, 3.095466e+001
7.334695e+002, 3.105061e+001
7.339517e+002, 3.110629e+001
7.344338e+002, 3.120265e+001
7.349159e+002, 3.138208e+001
7.353980e+002, 3.148354e+001
7.358801e+002, 3.123504e+001
7.363622e+002, 3.074032e+001
7.368444e+002, 3.044940e+001
7.373265e+002, 3.045426e+001
7.378086e+002, 3.055621e+001
7.382907e+002, 3.060036e+001
7.387728e+002, 3.061746e+001
7.392549e+002, 3.064565e+001
7.397371e+002, 3.068821e+001
7.402192e+002, 3.075578e+001
7.407013e+002, 3.090322e+001
7.411834e+002, 3.105509e+001
7.416655e+002, 3.112181e+001
7.421476e+002, 3.111576e+001
7.426298e+002, 3.097286e+001
7.431119e+002, 3.062257e+001
7.435940e+002, 3.021423e+001
7.440761e+002, 3.005007e+001
7.445582e+002, 3.010628e+001
7.450403e+002, 3.012374e+001
7.455225e+002, 3.000110e+001
7.460046e+002, 2.984649e+001
7.464867e+002, 2.980430e+001
7.469688e+002, 2.983089e+001
7.474509e+002, 2.983321e+001
7.479330e+002, 2.971916e+001
7.484152e+002, 2.963014e+001
7.488973e+002, 2.967776e+001
7.493794e+002, 2.979794e+001
7.498615e+002, 2.977301e+001
7.503436e+002, 2.948613e+001
7.508257e+002, 2.926149e+001
7.513079e+002, 2.919618e+001
7.517900e+002, 2.924566e+001
7.522721e+002, 2.924708e+001
7.527542e+002, 2.920078e+001
7.532363e+002, 2.918036e+001
7.537184e+002, 2.924656e+001
7.542006e+002, 2.934446e+001
7.546827e+002, 2.938197e+001
7.551648e+002, 2.937214e+001
7.556469e+002, 2.936745e+001
7.561290e+002, 2.943507e+001
7.566111e+002, 2.947879e+001
7.570933e+002, 2.943724e+001
7.575754e+002, 2.931250e+001
7.580575e+002, 2.918167e+001
7.585396e+002, 2.900679e+001
7.590217e+002, 2.889023e+001
7.595038e+002, 2.887736e+001
7.599860e+002, 2.896133e+001
7.604681e+002, 2.910221e+001
7.609502e+002, 2.931120e+001
7.614323e+002, 2.942908e+001
7.619144e+002, 2.928018e+001
7.623965e+002, 2.899382e+001
7.628787e+002, 2.878490e+001
7.633608e+002, 2.866137e+001
7.638429e+002, 2.861247e+001
7.643250e+002, 2.871113e+001
7.648071e+002, 2.882322e+001
7.652892e+002, 2.885852e+001
7.657714e+002, 2.880389e+001
7.662535e+002, 2.871033e+001
7.667356e+002, 2.849915e+001
7.672177e+002, 2.835822e+001
7.676998e+002, 2.842148e+001
7.681819e+002, 2.870658e+001
7.686641e+002, 2.890479e+001
7.691462e+002, 2.901119e+001
7.696283e+002, 2.905662e+001
7.701104e+002, 2.903052e+001
7.705925e+002, 2.897126e+001
7.710746e+002, 2.895950e+001
7.715568e+002, 2.900447e+001
7.720389e+002, 2.904679e+001
7.725210e+002, 2.905185e+001
7.730031e+002, 2.903731e+001
7.734852e+002, 2.901584e+001
7.739673e+002, 2.898758e+001
7.744495e+002, 2.895769e+001
7.749316e+002, 2.894767e+001
7.754137e+002, 2.891011e+001
7.758958e+002, 2.877087e+001
7.763779e+002, 2.850910e+001
7.768600e+002, 2.844432e+001
7.773422e+002, 2.860865e+001
7.778243e+002, 2.883463e+001
7.783064e+002, 2.903348e+001
7.787885e+002, 2.915415e+001
7.792706e+002, 2.903072e+001
7.797527e+002, 2.858137e+001
7.802349e+002, 2.825717e+001
7.807170e+002, 2.850520e+001
7.811991e+002, 2.889675e+001
7.816812e+002, 2.904538e+001
7.821633e+002, 2.871891e+001
7.826454e+002, 2.847775e+001
7.831276e+002, 2.830087e+001
7.836097e+002, 2.823503e+001
7.840918e+002, 2.840400e+001
7.845739e+002, 2.881514e+001
7.850560e+002, 2.896392e+001
7.855381e+002, 2.876760e+001
7.860203e+002, 2.848390e+001
7.865024e+002, 2.836752e+001
7.869845e+002, 2.836973e+001
7.874666e+002, 2.841645e+001
7.879487e+002, 2.851220e+001
7.884308e+002, 2.858340e+001
7.889130e+002, 2.859862e+001
7.893951e+002, 2.856998e+001
7.898772e+002, 2.850699e+001
7.903593e+002, 2.838360e+001
7.908414e+002, 2.827370e+001
7.913235e+002, 2.816958e+001
7.918057e+002, 2.809108e+001
7.922878e+002, 2.806137e+001
7.927699e+002, 2.807960e+001
7.932520e+002, 2.815775e+001
7.937341e+002, 2.831167e+001
7.942162e+002, 2.846097e+001
7.946984e+002, 2.853711e+001
7.951805e+002, 2.854615e+001
7.956626e+002, 2.848917e+001
7.961447e+002, 2.832955e+001
7.966268e+002, 2.819094e+001
7.971089e+002, 2.807837e+001
7.975911e+002, 2.803129e+001
7.980732e+002, 2.809817e+001
7.985553e+002, 2.835748e+001
7.990374e+002, 2.855613e+001
7.995195e+002, 2.869989e+001
8.000016e+002, 2.874721e+001
8.004838e+002, 2.856037e+001
8.009659e+002, 2.820037e+001
8.014480e+002, 2.803618e+001
8.019301e+002, 2.816896e+001
8.024122e+002, 2.836882e+001
8.028943e+002, 2.845677e+001
8.033765e+002, 2.845907e+001
8.038586e+002, 2.840335e+001
8.043407e+002, 2.823504e+001
8.048228e+002, 2.812148e+001
8.053049e+002, 2.815216e+001
8.057870e+002, 2.822034e+001
8.062692e+002, 2.820318e+001
8.067513e+002, 2.804771e+001
8.072334e+002, 2.803604e+001
8.077155e+002, 2.822727e+001
8.081976e+002, 2.846736e+001
8.086797e+002, 2.854902e+001
8.091619e+002, 2.851618e+001
8.096440e+002, 2.849622e+001
8.101261e+002, 2.851793e+001
8.106082e+002, 2.854875e+001
8.110903e+002, 2.860831e+001
8.115724e+002, 2.864325e+001
8.120546e+002, 2.858967e+001
8.125367e+002, 2.832595e+001
8.130188e+002, 2.815396e+001
8.135009e+002, 2.809160e+001
8.139830e+002, 2.812004e+001
8.144651e+002, 2.825091e+001
8.149473e+002, 2.849640e+001
8.154294e+002, 2.866399e+001
8.159115e+002, 2.873543e+001
8.163936e+002, 2.872764e+001
8.168757e+002, 2.857969e+001
8.173578e+002, 2.838830e+001
8.178400e+002, 2.834444e+001
8.183221e+002, 2.854228e+001
8.188042e+002, 2.869935e+001
8.192863e+002, 2.863931e+001
8.197684e+002, 2.849720e+001
8.202505e+002, 2.839363e+001
8.207327e+002, 2.829552e+001
8.212148e+002, 2.833645e+001
8.216969e+002, 2.857556e+001
8.221790e+002, 2.884582e+001
8.226611e+002, 2.897472e+001
8.231432e+002, 2.897455e+001
8.236254e+002, 2.888962e+001
8.241075e+002, 2.871412e+001
8.245896e+002, 2.854787e+001
8.250717e+002, 2.845986e+001
8.255538e+002, 2.844471e+001
8.260359e+002, 2.853131e+001
8.265181e+002, 2.879170e+001
8.270002e+002, 2.891196e+001
8.274823e+002, 2.862066e+001
8.279644e+002, 2.832811e+001
8.284465e+002, 2.833646e+001
8.289286e+002, 2.874854e+001
8.294108e+002, 2.894591e+001
8.298929e+002, 2.889748e+001
8.303750e+002, 2.876367e+001
8.308571e+002, 2.866446e+001
8.313392e+002, 2.859741e+001
8.318214e+002, 2.854675e+001
8.323035e+002, 2.851005e+001
8.327856e+002, 2.853201e+001
8.332677e+002, 2.869518e+001
8.337498e+002, 2.888887e+001
8.342319e+002, 2.903190e+001
8.347141e+002, 2.910520e+001
8.351962e+002, 2.915961e+001
8.356783e+002, 2.919059e+001
8.361604e+002, 2.920862e+001
8.366425e+002, 2.919027e+001
8.371246e+002, 2.914517e+001
8.376068e+002, 2.926299e+001
8.380889e+002, 2.954576e+001
8.385710e+002, 2.980321e+001
8.390531e+002, 2.986994e+001
8.395352e+002, 2.984613e+001
8.400173e+002, 2.983078e+001
8.404995e+002, 2.983183e+001
8.409816e+002, 2.983305e+001
8.414637e+002, 2.980137e+001
8.419458e+002, 2.979728e+001
8.424279e+002, 2.984952e+001
8.429100e+002, 2.995718e+001
8.433922e+002, 3.008374e+001
8.438743e+002, 3.023735e+001
8.443564e+002, 3.036340e+001
8.448385e+002, 3.044918e+001
8.453206e+002, 3.047794e+001
8.458027e+002, 3.039334e+001
8.462849e+002, 3.020784e+001
8.467670e+002, 2.999228e+001
8.472491e+002, 2.969712e+001
8.477312e+002, 2.946565e+001
8.482133e+002, 2.943185e+001
8.486954e+002, 2.956952e+001
8.491776e+002, 2.959427e+001
8.496597e+002, 2.944090e+001
8.501418e+002, 2.929553e+001
8.506239e+002, 2.923070e+001
8.511060e+002, 2.921496e+001
8.515881e+002, 2.914367e+001
8.520703e+002, 2.902094e+001
8.525524e+002, 2.887812e+001
8.530345e+002, 2.868097e+001
8.535166e+002, 2.851865e+001
8.539987e+002, 2.850576e+001
8.544808e+002, 2.859094e+001
8.549630e+002, 2.864432e+001
8.554451e+002, 2.860461e+001
8.559272e+002, 2.855419e+001
8.564093e+002, 2.850275e+001
8.568914e+002, 2.845427e+001
8.573735e+002, 2.840969e+001
8.578557e+002, 2.836611e+001
8.583378e+002, 2.836782e+001
8.588199e+002, 2.844828e+001
8.593020e+002, 2.853449e+001
8.597841e+002, 2.848882e+001
8.602662e+002, 2.837060e+001
8.607484e+002, 2.830540e+001
8.612305e+002, 2.838433e+001
8.617126e+002, 2.845196e+001
8.621947e+002, 2.848175e+001
8.626768e+002, 2.845153e+001
8.631589e+002, 2.831620e+001
8.636411e+002, 2.797898e+001
8.641232e+002, 2.782503e+001
8.646053e+002, 2.792409e+001
8.650874e+002, 2.812860e+001
8.655695e+002, 2.827018e+001
8.660516e+002, 2.835764e+001
8.665338e+002, 2.842351e+001
8.670159e+002, 2.847750e+001
8.674980e+002, 2.849422e+001
8.679801e+002, 2.839623e+001
8.684622e+002, 2.828674e+001
8.689443e+002, 2.826092e+001
8.694265e+002, 2.833288e+001
8.699086e+002, 2.852082e+001
8.703907e+002, 2.892846e+001
8.708728e+002, 2.928733e+001
8.713549e+002, 2.928446e+001
8.718370e+002, 2.896973e+001
8.723192e+002, 2.898617e+001
8.728013e+002, 2.936402e+001
8.732834e+002, 2.976104e+001
8.737655e+002, 2.983077e+001
8.742476e+002, 2.982248e+001
8.747297e+002, 2.998705e+001
8.752119e+002, 3.035238e+001
8.756940e+002, 3.076184e+001
8.761761e+002, 3.124594e+001
8.766582e+002, 3.168839e+001
8.771403e+002, 3.203005e+001
8.776224e+002, 3.227940e+001
8.781046e+002, 3.250943e+001
8.785867e+002, 3.271043e+001
8.790688e+002, 3.307187e+001
8.795509e+002, 3.373641e+001
8.800330e+002, 3.460402e+001
8.805151e+002, 3.553162e+001
8.809973e+002, 3.653468e+001
8.814794e+002, 3.767384e+001
8.819615e+002, 3.905664e+001
8.824436e+002, 4.049277e+001
8.829257e+002, 4.189627e+001
8.834078e+002, 4.329198e+001
8.838900e+002, 4.482302e+001
8.843721e+002, 4.648079e+001
8.848542e+002, 4.832679e+001
8.853363e+002, 5.039791e+001
8.858184e+002, 5.263486e+001
8.863005e+002, 5.496930e+001
8.867827e+002, 5.739425e+001
8.872648e+002, 5.985136e+001
8.877469e+002, 6.222167e+001
8.882290e+002, 6.475672e+001
8.887111e+002, 6.764425e+001
8.891932e+002, 7.073055e+001
8.896754e+002, 7.381991e+001
8.901575e+002, 7.693544e+001
8.906396e+002, 7.992149e+001
8.911217e+002, 8.277379e+001
8.916038e+002, 8.541833e+001
8.920859e+002, 8.776702e+001
8.925681e+002, 8.985388e+001
8.930502e+002, 9.190954e+001
8.935323e+002, 9.403269e+001
8.940144e+002, 9.551900e+001
8.944965e+002, 9.574678e+001
8.949786e+002, 9.518776e+001
8.954608e+002, 9.428719e+001
8.959429e+002, 9.325120e+001
8.964250e+002, 9.112594e+001
8.969071e+002, 8.763731e+001
8.973892e+002, 8.363993e+001
8.978713e+002, 7.968243e+001
8.983535e+002, 7.572054e+001
8.988356e+002, 7.159942e+001
8.993177e+002, 6.734435e+001
8.997998e+002, 6.334774e+001
9.002819e+002, 5.983020e+001
9.007640e+002, 5.666999e+001
9.012462e+002, 5.374972e+001
9.017283e+002, 5.108567e+001
9.022104e+002, 4.865171e+001
9.026925e+002, 4.652008e+001
9.031746e+002, 4.453092e+001
9.036567e+002, 4.256807e+001
9.041389e+002, 4.074414e+001
9.046210e+002, 3.943789e+001
9.051031e+002, 3.860954e+001
9.055852e+002, 3.784694e+001
9.060673e+002, 3.695167e+001
9.065494e+002, 3.609426e+001
9.070316e+002, 3.541870e+001
9.075137e+002, 3.489465e+001
9.079958e+002, 3.446027e+001
9.084779e+002, 3.414230e+001
9.089600e+002, 3.387082e+001
9.094421e+002, 3.365081e+001
9.099243e+002, 3.346163e+001
9.104064e+002, 3.325784e+001
9.108885e+002, 3.304443e+001
9.113706e+002, 3.290023e+001
9.118527e+002, 3.284254e+001
9.123348e+002, 3.281948e+001
9.128170e+002, 3.282998e+001
9.132991e+002, 3.282146e+001
9.137812e+002, 3.269751e+001
9.142633e+002, 3.237497e+001
9.147454e+002, 3.223742e+001
9.152275e+002, 3.245686e+001
9.157097e+002, 3.273523e+001
9.161918e+002, 3.293739e+001
9.166739e+002, 3.306200e+001
9.171560e+002, 3.295664e+001
9.176381e+002, 3.261993e+001
9.181202e+002, 3.232455e+001
9.186024e+002, 3.232099e+001
9.190845e+002, 3.241544e+001
9.195666e+002, 3.244309e+001
9.200487e+002, 3.238907e+001
9.205308e+002, 3.221986e+001
9.210129e+002, 3.176617e+001
9.214951e+002, 3.138168e+001
9.219772e+002, 3.113770e+001
9.224593e+002, 3.102853e+001
9.229414e+002, 3.107357e+001
9.234235e+002, 3.126908e+001
9.239056e+002, 3.143437e+001
9.243878e+002, 3.145368e+001
9.248699e+002, 3.153205e+001
9.253520e+002, 3.202265e+001
9.258341e+002, 3.269731e+001
9.263162e+002, 3.319803e+001
9.267983e+002, 3.325889e+001
9.272805e+002, 3.339128e+001
9.277626e+002, 3.369489e+001
9.282447e+002, 3.405278e+001
9.287268e+002, 3.434171e+001
9.292089e+002, 3.456067e+001
9.296910e+002, 3.483944e+001
9.301732e+002, 3.520095e+001
9.306553e+002, 3.544434e+001
9.311374e+002, 3.539000e+001
9.316195e+002, 3.511381e+001
9.321016e+002, 3.463775e+001
9.325837e+002, 3.396286e+001
9.330659e+002, 3.335860e+001
9.335480e+002, 3.300433e+001
9.340301e+002, 3.259497e+001
9.345122e+002, 3.199820e+001
9.349943e+002, 3.124029e+001
9.354764e+002, 3.052942e+001
9.359586e+002, 2.985682e+001
9.364407e+002, 2.922948e+001
9.369228e+002, 2.864082e+001
9.374049e+002, 2.808827e+001
9.378870e+002, 2.754807e+001
9.383691e+002, 2.703930e+001
9.388513e+002, 2.661994e+001
9.393334e+002, 2.635548e+001
9.398155e+002, 2.611451e+001
9.402976e+002, 2.589373e+001
9.407797e+002, 2.567680e+001
9.412618e+002, 2.542451e+001
9.417440e+002, 2.514443e+001
9.422261e+002, 2.495516e+001
9.427082e+002, 2.489348e+001
9.431903e+002, 2.482041e+001
9.436724e+002, 2.451282e+001
9.441545e+002, 2.417702e+001
9.446367e+002, 2.404272e+001
9.451188e+002, 2.420107e+001
9.456009e+002, 2.435568e+001
9.460830e+002, 2.454479e+001
9.465651e+002, 2.462530e+001
9.470472e+002, 2.447728e+001
9.475294e+002, 2.412999e+001
9.480115e+002, 2.381866e+001
9.484936e+002, 2.354685e+001
9.489757e+002, 2.337710e+001
9.494578e+002, 2.343778e+001
9.499399e+002, 2.353789e+001
9.504221e+002, 2.351766e+001
9.509042e+002, 2.340863e+001
9.513863e+002, 2.334356e+001
9.518684e+002, 2.331968e+001
9.523505e+002, 2.338026e+001
9.528326e+002, 2.357350e+001
9.533148e+002, 2.380261e+001
9.537969e+002, 2.394090e+001
9.542790e+002, 2.396529e+001
9.547611e+002, 2.369854e+001
9.552432e+002, 2.297464e+001
9.557253e+002, 2.241115e+001
9.562075e+002, 2.260433e+001
9.566896e+002, 2.308951e+001
9.571717e+002, 2.341455e+001
9.576538e+002, 2.351605e+001
9.581359e+002, 2.348738e+001
9.586180e+002, 2.324072e+001
9.591002e+002, 2.308358e+001
9.595823e+002, 2.336004e+001
9.600644e+002, 2.388957e+001
9.605465e+002, 2.408575e+001
9.610286e+002, 2.397602e+001
9.615107e+002, 2.385355e+001
9.619929e+002, 2.391751e+001
9.624750e+002, 2.398001e+001
9.629571e+002, 2.388058e+001
9.634392e+002, 2.369451e+001
9.639213e+002, 2.373092e+001
9.644034e+002, 2.408053e+001
9.648856e+002, 2.426810e+001
9.653677e+002, 2.412406e+001
9.658498e+002, 2.387934e+001
9.663319e+002, 2.390088e+001
9.668140e+002, 2.410119e+001
9.672961e+002, 2.431466e+001
9.677783e+002, 2.454100e+001
9.682604e+002, 2.466063e+001
9.687425e+002, 2.449703e+001
9.692246e+002, 2.431008e+001
9.697067e+002, 2.430831e+001
9.701888e+002, 2.451771e+001
9.706710e+002, 2.475096e+001
9.711531e+002, 2.501696e+001
9.716352e+002, 2.520271e+001
9.721173e+002, 2.515964e+001
9.725994e+002, 2.501973e+001
9.730815e+002, 2.492380e+001
9.735637e+002, 2.488328e+001
9.740458e+002, 2.491954e+001
9.745279e+002, 2.509857e+001
9.750100e+002, 2.528662e+001
9.754921e+002, 2.545864e+001
9.759742e+002, 2.561420e+001
9.764564e+002, 2.575216e+001
9.769385e+002, 2.587418e+001
9.774206e+002, 2.599041e+001
9.779027e+002, 2.611002e+001
9.783848e+002, 2.620267e+001
9.788669e+002, 2.619607e+001
9.793491e+002, 2.616797e+001
9.798312e+002, 2.621976e+001
9.803133e+002, 2.642245e+001
9.807954e+002, 2.655852e+001
9.812775e+002, 2.655877e+001
9.817596e+002, 2.660272e+001
9.822418e+002, 2.687936e+001
9.827239e+002, 2.732198e+001
9.832060e+002, 2.753826e+001
9.836881e+002, 2.755188e+001
9.841702e+002, 2.759261e+001
9.846523e+002, 2.775119e+001
9.851345e+002, 2.802781e+001
9.856166e+002, 2.849981e+001
9.860987e+002, 2.909716e+001
9.865808e+002, 2.956476e+001
9.870629e+002, 2.985824e+001
9.875450e+002, 3.014666e+001
9.880272e+002, 3.044003e+001
9.885093e+002, 3.079783e+001
9.889914e+002, 3.138113e+001
9.894735e+002, 3.207656e+001
9.899556e+002, 3.259497e+001
9.904377e+002, 3.278445e+001
9.909199e+002, 3.318707e+001
9.914020e+002, 3.422389e+001
9.918841e+002, 3.538845e+001
9.923662e+002, 3.631697e+001
9.928483e+002, 3.698192e+001
9.933304e+002, 3.786632e+001
9.938126e+002, 3.897373e+001
9.942947e+002, 4.023945e+001
9.947768e+002, 4.164373e+001
9.952589e+002, 4.316783e+001
9.957410e+002, 4.480904e+001
9.962231e+002, 4.656086e+001
9.967053e+002, 4.845474e+001
9.971874e+002, 5.051363e+001
9.976695e+002, 5.267378e+001
9.981516e+002, 5.493255e+001
9.986337e+002, 5.727546e+001
9.991158e+002, 5.965612e+001
9.995980e+002, 6.213091e+001
1.000080e+003, 6.499928e+001
1.000562e+003, 6.839410e+001
1.001044e+003, 7.172141e+001
1.001526e+003, 7.438777e+001
1.002009e+003, 7.694714e+001
1.002491e+003, 7.988512e+001
1.002973e+003, 8.332324e+001
1.003455e+003, 8.656358e+001
1.003937e+003, 8.968642e+001
1.004419e+003, 9.234798e+001
1.004901e+003, 9.436140e+001
1.005383e+003, 9.586574e+001
1.005865e+003, 9.743465e+001
1.006348e+003, 9.879164e+001
1.006830e+003, 9.918979e+001
1.007312e+003, 9.798661e+001
1.007794e+003, 9.615411e+001
1.008276e+003, 9.382840e+001
1.008758e+003, 9.108693e+001
1.009240e+003, 8.791560e+001
1.009722e+003, 8.430323e+001
1.010205e+003, 8.042677e+001
1.010687e+003, 7.621482e+001
1.011169e+003, 7.208192e+001
1.011651e+003, 6.829296e+001
1.012133e+003, 6.478557e+001
1.012615e+003, 6.143970e+001
1.013097e+003, 5.826874e+001
1.013579e+003, 5.538848e+001
1.014061e+003, 5.289471e+001
1.014544e+003, 5.053673e+001
1.015026e+003, 4.820878e+001
1.015508e+003, 4.603595e+001
1.015990e+003, 4.432862e+001
1.016472e+003, 4.301382e+001
1.016954e+003, 4.181512e+001
1.017436e+003, 4.068007e+001
1.017918e+003, 3.952492e+001
1.018401e+003, 3.816333e+001
1.018883e+003, 3.684264e+001
1.019365e+003, 3.580090e+001
1.019847e+003, 3.508136e+001
1.020329e+003, 3.443400e+001
1.020811e+003, 3.386165e+001
1.021293e+003, 3.334717e+001
1.021775e+003, 3.292626e+001
1.022257e+003, 3.252942e+001
1.022740e+003, 3.200169e+001
1.023222e+003, 3.138584e+001
1.023704e+003, 3.084998e+001
1.024186e+003, 3.051642e+001
1.024668e+003, 3.018937e+001
1.025150e+003, 2.980777e+001
1.025632e+003, 2.942749e+001
1.026114e+003, 2.916278e+001
1.026596e+003, 2.900128e+001
1.027079e+003, 2.879011e+001
1.027561e+003, 2.850184e+001
1.028043e+003, 2.819084e+001
1.028525e+003, 2.785104e+001
1.029007e+003, 2.754344e+001
1.029489e+003, 2.733099e+001
1.029971e+003, 2.722411e+001
1.030453e+003, 2.715109e+001
1.030936e+003, 2.714036e+001
1.031418e+003, 2.706498e+001
1.031900e+003, 2.684975e+001
1.032382e+003, 2.655906e+001
1.032864e+003, 2.626834e+001
1.033346e+003, 2.600991e+001
1.033828e+003, 2.587212e+001
1.034310e+003, 2.599995e+001
1.034792e+003, 2.607597e+001
1.035275e+003, 2.599800e+001
1.035757e+003, 2.586062e+001
1.036239e+003, 2.573581e+001
1.036721e+003, 2.562468e+001
1.037203e+003, 2.553102e+001
1.037685e+003, 2.545631e+001
1.038167e+003, 2.534264e+001
1.038649e+003, 2.505193e+001
1.039132e+003, 2.478745e+001
1.039614e+003, 2.477036e+001
1.040096e+003, 2.494238e+001
1.040578e+003, 2.496221e+001
1.041060e+003, 2.472798e+001
1.041542e+003, 2.457687e+001
1.042024e+003, 2.459438e+001
1.042506e+003, 2.466714e+001
1.042989e+003, 2.463636e+001
1.043471e+003, 2.452815e+001
1.043953e+003, 2.440173e+001
1.044435e+003, 2.427160e+001
1.044917e+003, 2.409082e+001
1.045399e+003, 2.366997e+001
1.045881e+003, 2.337650e+001
1.046363e+003, 2.346756e+001
1.046845e+003, 2.386890e+001
1.047328e+003, 2.394228e+001
1.047810e+003, 2.370848e+001
1.048292e+003, 2.351295e+001
1.048774e+003, 2.357819e+001
1.049256e+003, 2.365580e+001
1.049738e+003, 2.352631e+001
1.050220e+003, 2.328374e+001
1.050702e+003, 2.307301e+001
1.051184e+003, 2.288152e+001
1.051667e+003, 2.279598e+001
1.052149e+003, 2.284461e+001
1.052631e+003, 2.291147e+001
1.053113e+003, 2.291645e+001
1.053595e+003, 2.285879e+001
1.054077e+003, 2.269179e+001
1.054559e+003, 2.244040e+001
1.055041e+003, 2.226968e+001
1.055523e+003, 2.237221e+001
1.056006e+003, 2.240449e+001
1.056488e+003, 2.222675e+001
1.056970e+003, 2.196389e+001
1.057452e+003, 2.189677e+001
1.057934e+003, 2.199962e+001
1.058416e+003, 2.200653e+001
1.058898e+003, 2.184286e+001
1.059380e+003, 2.173597e+001
1.059863e+003, 2.196793e+001
1.060345e+003, 2.226338e+001
1.060827e+003, 2.238705e+001
1.061309e+003, 2.232302e+001
1.061791e+003, 2.221067e+001
1.062273e+003, 2.201960e+001
1.062755e+003, 2.193562e+001
1.063237e+003, 2.211337e+001
1.063719e+003, 2.234522e+001
1.064202e+003, 2.226746e+001
1.064684e+003, 2.201307e+001
1.065166e+003, 2.184033e+001
1.065648e+003, 2.193782e+001
1.066130e+003, 2.191560e+001
1.066612e+003, 2.165856e+001
1.067094e+003, 2.138983e+001
1.067576e+003, 2.130648e+001
1.068059e+003, 2.137497e+001
1.068541e+003, 2.143432e+001
1.069023e+003, 2.147512e+001
1.069505e+003, 2.144552e+001
1.069987e+003, 2.117662e+001
1.070469e+003, 2.097493e+001
1.070951e+003, 2.110511e+001
1.071433e+003, 2.137999e+001
1.071916e+003, 2.139008e+001
1.072398e+003, 2.106985e+001
1.072880e+003, 2.115319e+001
1.073362e+003, 2.180584e+001
1.073844e+003, 2.241849e+001
1.074326e+003, 2.230188e+001
1.074808e+003, 2.186273e+001
1.075290e+003, 2.150083e+001
1.075772e+003, 2.125829e+001
1.076255e+003, 2.101411e+001
1.076737e+003, 2.070286e+001
1.077219e+003, 2.053358e+001
1.077701e+003, 2.062171e+001
1.078183e+003, 2.082202e+001
1.078665e+003, 2.084682e+001
1.079147e+003, 2.075833e+001
1.079629e+003, 2.069910e+001
1.080111e+003, 2.070947e+001
1.080594e+003, 2.074274e+001
1.081076e+003, 2.084743e+001
1.081558e+003, 2.090375e+001
1.082040e+003, 2.080473e+001
1.082522e+003, 2.057675e+001
1.083004e+003, 2.054836e+001
1.083486e+003, 2.069218e+001
1.083968e+003, 2.074929e+001
1.084450e+003, 2.045883e+001
1.084933e+003, 2.016713e+001
1.085415e+003, 2.011342e+001
1.085897e+003, 2.019463e+001
1.086379e+003, 2.023840e+001
1.086861e+003, 2.022991e+001
1.087343e+003, 2.023000e+001
1.087825e+003, 2.024345e+001
1.088307e+003, 2.025284e+001
1.088790e+003, 2.028891e+001
1.089272e+003, 2.028148e+001
1.089754e+003, 2.006046e+001
1.090236e+003, 1.968717e+001
1.090718e+003, 1.952478e+001
1.091200e+003, 1.977147e+001
1.091682e+003, 1.999396e+001
1.092164e+003, 2.013177e+001
1.092646e+003, 2.019232e+001
1.093129e+003, 2.017765e+001
1.093611e+003, 2.009616e+001
1.094093e+003, 1.995330e+001
1.094575e+003, 1.974535e+001
1.095057e+003, 1.954962e+001
1.095539e+003, 1.935172e+001
1.096021e+003, 1.923530e+001
1.096503e+003, 1.924508e+001
1.096986e+003, 1.935691e+001
1.097468e+003, 1.952317e+001
1.097950e+003, 1.972692e+001
1.098432e+003, 1.980281e+001
1.098914e+003, 1.964618e+001
1.099396e+003, 1.949321e+001
1.099878e+003, 1.955857e+001
1.100360e+003, 1.968229e+001
1.100843e+003, 1.969011e+001
1.101325e+003, 1.955794e+001
1.101807e+003, 1.953204e+001
1.102289e+003, 1.962102e+001
1.102771e+003, 1.972408e+001
1.103253e+003, 1.984286e+001
1.103735e+003, 1.988725e+001
1.104217e+003, 1.960759e+001
1.104699e+003, 1.920787e+001
1.105182e+003, 1.908428e+001
1.105664e+003, 1.957177e+001
1.106146e+003, 1.985716e+001
1.106628e+003, 1.990014e+001
1.107110e+003, 1.979912e+001
1.107592e+003, 1.955760e+001
1.108074e+003, 1.926978e+001
1.108556e+003, 1.916191e+001
1.109038e+003, 1.920166e+001
1.109521e+003, 1.917543e+001
1.110003e+003, 1.879623e+001
1.110485e+003, 1.863669e+001
1.110967e+003, 1.892112e+001
1.111449e+003, 1.934069e+001
1.111931e+003, 1.939904e+001
1.112413e+003, 1.917590e+001
1.112895e+003, 1.902736e+001
1.113377e+003, 1.899503e+001
1.113860e+003, 1.900149e+001
1.114342e+003, 1.905905e+001
1.114824e+003, 1.908009e+001
1.115306e+003, 1.899034e+001
1.115788e+003, 1.883335e+001
1.116270e+003, 1.874120e+001
1.116752e+003, 1.871326e+001
1.117234e+003, 1.875877e+001
1.117717e+003, 1.889698e+001
1.118199e+003, 1.903852e+001
1.118681e+003, 1.912948e+001
1.119163e+003, 1.916810e+001
1.119645e+003, 1.913665e+001
1.120127e+003, 1.903349e+001
1.120609e+003, 1.895486e+001
1.121091e+003, 1.890904e+001
1.121573e+003, 1.882620e+001
1.122056e+003, 1.863472e+001
1.122538e+003, 1.845966e+001
1.123020e+003, 1.848151e+001
1.123502e+003, 1.861912e+001
1.123984e+003, 1.875443e+001
1.124466e+003, 1.890344e+001
1.124948e+003, 1.892114e+001
1.125430e+003, 1.874123e+001
1.125913e+003, 1.860098e+001
1.126395e+003, 1.872512e+001
1.126877e+003, 1.896902e+001
1.127359e+003, 1.899450e+001
1.127841e+003, 1.886235e+001
1.128323e+003, 1.873996e+001
1.128805e+003, 1.870466e+001
1.129287e+003, 1.866046e+001
1.129770e+003, 1.858364e+001
1.130252e+003, 1.850985e+001
1.130734e+003, 1.846321e+001
1.131216e+003, 1.844836e+001
1.131698e+003, 1.850717e+001
1.132180e+003, 1.862795e+001
1.132662e+003, 1.871594e+001
1.133144e+003, 1.868686e+001
1.133626e+003, 1.865596e+001
1.134109e+003, 1.868386e+001
1.134591e+003, 1.871959e+001
1.135073e+003, 1.865281e+001
1.135555e+003, 1.850010e+001
1.136037e+003, 1.849378e+001
1.136519e+003, 1.866479e+001
1.137001e+003, 1.878811e+001
1.137483e+003, 1.865476e+001
1.137965e+003, 1.846726e+001
1.138448e+003, 1.831407e+001
1.138930e+003, 1.821490e+001
1.139412e+003, 1.826180e+001
1.139894e+003, 1.846650e+001
1.140376e+003, 1.859223e+001
1.140858e+003, 1.858582e+001
1.141340e+003, 1.851333e+001
1.141822e+003, 1.838291e+001
1.142304e+003, 1.825440e+001
1.142787e+003, 1.818788e+001
1.143269e+003, 1.818744e+001
1.143751e+003, 1.819003e+001
1.144233e+003, 1.820317e+001
1.144715e+003, 1.817041e+001
1.145197e+003, 1.805825e+001
1.145679e+003, 1.792645e+001
1.146161e+003, 1.782646e+001
1.146644e+003, 1.776835e+001
1.147126e+003, 1.777235e+001
1.147608e+003, 1.786260e+001
1.148090e+003, 1.794843e+001
1.148572e+003, 1.805167e+001
1.149054e+003, 1.806988e+001
1.149536e+003, 1.790061e+001
1.150018e+003, 1.767728e+001
1.150500e+003, 1.763043e+001
1.150983e+003, 1.770733e+001
1.151465e+003, 1.781260e+001
1.151947e+003, 1.800890e+001
1.152429e+003, 1.802069e+001
1.152911e+003, 1.775791e+001
1.153393e+003, 1.747400e+001
1.153875e+003, 1.733858e+001
1.154357e+003, 1.731534e+001
1.154840e+003, 1.733055e+001
1.155322e+003, 1.737374e+001
1.155804e+003, 1.741073e+001
1.156286e+003, 1.745159e+001
1.156768e+003, 1.744156e+001
1.157250e+003, 1.731338e+001
1.157732e+003, 1.722379e+001
1.158214e+003, 1.739130e+001
1.158697e+003, 1.772491e+001
1.159179e+003, 1.777900e+001
1.159661e+003, 1.759484e+001
1.160143e+003, 1.747613e+001
1.160625e+003, 1.769488e+001
1.161107e+003, 1.784655e+001
1.161589e+003, 1.778596e+001
1.162071e+003, 1.762562e+001
1.162553e+003, 1.749209e+001
1.163036e+003, 1.738363e+001
1.163518e+003, 1.726042e+001
1.164000e+003, 1.712537e+001
1.164482e+003, 1.708566e+001
1.164964e+003, 1.737158e+001
1.165446e+003, 1.758272e+001
1.165928e+003, 1.745036e+001
1.166410e+003, 1.716469e+001
1.166892e+003, 1.710086e+001
1.167375e+003, 1.723743e+001
1.167857e+003, 1.724228e+001
1.168339e+003, 1.706559e+001
1.168821e+003, 1.691152e+001
1.169303e+003, 1.689931e+001
1.169785e+003, 1.698589e+001
1.170267e+003, 1.722647e+001
1.170749e+003, 1.752933e+001
1.171231e+003, 1.763346e+001
1.171714e+003, 1.754059e+001
1.172196e+003, 1.736873e+001
1.172678e+003, 1.711823e+001
1.173160e+003, 1.695668e+001
1.173642e+003, 1.719727e+001
1.174124e+003, 1.744805e+001
1.174606e+003, 1.725656e+001
1.175088e+003, 1.674250e+001
1.175571e+003, 1.673038e+001
1.176053e+003, 1.725357e+001
1.176535e+003, 1.760361e+001
1.177017e+003, 1.755815e+001
1.177499e+003, 1.736561e+001
1.177981e+003, 1.712732e+001
1.178463e+003, 1.695761e+001
1.178945e+003, 1.703361e+001
1.179427e+003, 1.735609e+001
1.179910e+003, 1.746970e+001
1.180392e+003, 1.736005e+001
1.180874e+003, 1.718148e+001
1.181356e+003, 1.696196e+001
1.181838e+003, 1.676516e+001
1.182320e+003, 1.664628e+001
1.182802e+003, 1.659602e+001
1.183284e+003, 1.662453e+001
1.183767e+003, 1.674822e+001
1.184249e+003, 1.678993e+001
1.184731e+003, 1.673511e+001
1.185213e+003, 1.670491e+001
1.185695e+003, 1.678810e+001
1.186177e+003, 1.687516e+001
1.186659e+003, 1.681130e+001
1.187141e+003, 1.668093e+001
1.187624e+003, 1.660897e+001
1.188106e+003, 1.662913e+001
1.188588e+003, 1.663387e+001
1.189070e+003, 1.661781e+001
1.189552e+003, 1.662004e+001
1.190034e+003, 1.669816e+001
1.190516e+003, 1.676905e+001
1.190998e+003, 1.668192e+001
1.191480e+003, 1.652873e+001
1.191963e+003, 1.647806e+001
1.192445e+003, 1.664886e+001
1.192927e+003, 1.664372e+001
1.193409e+003, 1.640658e+001
1.193891e+003, 1.625044e+001
1.194373e+003, 1.651027e+001
1.194855e+003, 1.688325e+001
1.195337e+003, 1.695432e+001
1.195819e+003, 1.683130e+001
1.196302e+003, 1.675428e+001
1.196784e+003, 1.682031e+001
1.197266e+003, 1.677245e+001
1.197748e+003, 1.656664e+001
1.198230e+003, 1.641492e+001
1.198712e+003, 1.653903e+001
1.199194e+003, 1.678197e+001
1.199676e+003, 1.699675e+001
1.200158e+003, 1.714952e+001
1.200641e+003, 1.714361e+001
1.201123e+003, 1.689471e+001
1.201605e+003, 1.664762e+001
1.202087e+003, 1.639692e+001
1.202569e+003, 1.622259e+001
1.203051e+003, 1.622434e+001
1.203533e+003, 1.632872e+001
1.204015e+003, 1.649294e+001
1.204498e+003, 1.667731e+001
1.204980e+003, 1.675566e+001
1.205462e+003, 1.668290e+001
1.205944e+003, 1.656385e+001
1.206426e+003, 1.638491e+001
1.206908e+003, 1.624489e+001
1.207390e+003, 1.622587e+001
1.207872e+003, 1.631296e+001
1.208354e+003, 1.659131e+001
1.208837e+003, 1.698125e+001
1.209319e+003, 1.709416e+001
1.209801e+003, 1.673585e+001
1.210283e+003, 1.653445e+001
1.210765e+003, 1.658683e+001
1.211247e+003, 1.671489e+001
1.211729e+003, 1.680226e+001
1.212211e+003, 1.680801e+001
1.212694e+003, 1.661571e+001
1.213176e+003, 1.626878e+001
1.213658e+003, 1.605019e+001
1.214140e+003, 1.600019e+001
1.214622e+003, 1.602271e+001
1.215104e+003, 1.611486e+001
1.215586e+003, 1.623041e+001
1.216068e+003, 1.637384e+001
1.216551e+003, 1.647674e+001
1.217033e+003, 1.643349e+001
1.217515e+003, 1.625656e+001
1.217997e+003, 1.608685e+001
1.218479e+003, 1.591084e+001
1.218961e+003, 1.582578e+001
1.219443e+003, 1.585625e+001
1.219925e+003, 1.594357e+001
1.220407e+003, 1.606826e+001
1.220890e+003, 1.618051e+001
1.221372e+003, 1.620465e+001
1.221854e+003, 1.614753e+001
1.222336e+003, 1.612779e+001
1.222818e+003, 1.614272e+001
1.223300e+003, 1.623982e+001
1.223782e+003, 1.645153e+001
1.224264e+003, 1.664088e+001
1.224746e+003, 1.664425e+001
1.225229e+003, 1.655504e+001
1.225711e+003, 1.643099e+001
1.226193e+003, 1.629551e+001
1.226675e+003, 1.630677e+001
1.227157e+003, 1.652208e+001
1.227639e+003, 1.654596e+001
1.228121e+003, 1.625399e+001
1.228603e+003, 1.594701e+001
1.229085e+003, 1.597036e+001
1.229568e+003, 1.611521e+001
1.230050e+003, 1.621779e+001
1.230532e+003, 1.625518e+001
1.231014e+003, 1.615567e+001
1.231496e+003, 1.588669e+001
1.231978e+003, 1.579101e+001
1.232460e+003, 1.598253e+001
1.232942e+003, 1.618440e+001
1.233425e+003, 1.604655e+001
1.233907e+003, 1.586707e+001
1.234389e+003, 1.594532e+001
1.234871e+003, 1.624122e+001
1.235353e+003, 1.645909e+001
1.235835e+003, 1.659729e+001
1.236317e+003, 1.665958e+001
1.236799e+003, 1.664365e+001
1.237281e+003, 1.656555e+001
1.237764e+003, 1.636616e+001
1.238246e+003, 1.617183e+001
1.238728e+003, 1.610023e+001
1.239210e+003, 1.612333e+001
1.239692e+003, 1.613261e+001
1.240174e+003, 1.612901e+001
1.240656e+003, 1.615264e+001
1.241138e+003, 1.622355e+001
1.241621e+003, 1.625707e+001
1.242103e+003, 1.615253e+001
1.242585e+003, 1.602290e+001
1.243067e+003, 1.593326e+001
1.243549e+003, 1.588352e+001
1.244031e+003, 1.587376e+001
1.244513e+003, 1.590304e+001
1.244995e+003, 1.597008e+001
1.245478e+003, 1.607979e+001
1.245960e+003, 1.619606e+001
1.246442e+003, 1.635527e+001
1.246924e+003, 1.644759e+001
1.247406e+003, 1.640406e+001
1.247888e+003, 1.626716e+001
1.248370e+003, 1.615388e+001
1.248852e+003, 1.606382e+001
1.249334e+003, 1.596980e+001
1.249817e+003, 1.584632e+001
1.250299e+003, 1.586274e+001
1.250781e+003, 1.633002e+001
1.251263e+003, 1.667374e+001
1.251745e+003, 1.661933e+001
1.252227e+003, 1.633808e+001
1.252709e+003, 1.621906e+001
1.253191e+003, 1.622870e+001
1.253673e+003, 1.627928e+001
1.254156e+003, 1.635962e+001
1.254638e+003, 1.642714e+001
1.255120e+003, 1.645707e+001
1.255602e+003, 1.649459e+001
1.256084e+003, 1.657322e+001
1.256566e+003, 1.663974e+001
1.257048e+003, 1.653721e+001
1.257530e+003, 1.635645e+001
1.258012e+003, 1.629398e+001
1.258495e+003, 1.639403e+001
1.258977e+003, 1.650006e+001
1.259459e+003, 1.663740e+001
1.259941e+003, 1.664649e+001
1.260423e+003, 1.641987e+001
1.260905e+003, 1.616126e+001
1.261387e+003, 1.624091e+001
1.261869e+003, 1.647875e+001
1.262352e+003, 1.660932e+001
1.262834e+003, 1.658714e+001
1.263316e+003, 1.656638e+001
1.263798e+003, 1.654911e+001
1.264280e+003, 1.656962e+001
1.264762e+003, 1.665663e+001
1.265244e+003, 1.672699e+001
1.265726e+003, 1.661529e+001
1.266208e+003, 1.647414e+001
1.266691e+003, 1.649904e+001
1.267173e+003, 1.670368e+001
1.267655e+003, 1.683143e+001
1.268137e+003, 1.687534e+001
1.268619e+003, 1.690606e+001
1.269101e+003, 1.694262e+001
1.269583e+003, 1.696674e+001
1.270065e+003, 1.693604e+001
1.270548e+003, 1.690548e+001
1.271030e+003, 1.695887e+001
1.271512e+003, 1.705986e+001
1.271994e+003, 1.701234e+001
1.272476e+003, 1.682122e+001
1.272958e+003, 1.671905e+001
1.273440e+003, 1.677095e+001
1.273922e+003, 1.681579e+001
1.274405e+003, 1.668554e+001
1.274887e+003, 1.656998e+001
1.275369e+003, 1.661151e+001
1.275851e+003, 1.673442e+001
1.276333e+003, 1.666079e+001
1.276815e+003, 1.645891e+001
1.277297e+003, 1.654260e+001
1.277779e+003, 1.701223e+001
1.278261e+003, 1.737069e+001
1.278744e+003, 1.721560e+001
1.279226e+003, 1.707117e+001
1.279708e+003, 1.713193e+001
1.280190e+003, 1.730811e+001
1.280672e+003, 1.744478e+001
1.281154e+003, 1.755436e+001
1.281636e+003, 1.768173e+001
1.282118e+003, 1.783378e+001
1.282600e+003, 1.792960e+001
1.283083e+003, 1.791432e+001
1.283565e+003, 1.789377e+001
1.284047e+003, 1.789122e+001
1.284529e+003, 1.789331e+001
1.285011e+003, 1.790676e+001
1.285493e+003, 1.789874e+001
1.285975e+003, 1.775336e+001
1.286457e+003, 1.748746e+001
1.286939e+003, 1.749093e+001
1.287422e+003, 1.790757e+001
1.287904e+003, 1.814588e+001
1.288386e+003, 1.806030e+001
1.288868e+003, 1.792777e+001
1.289350e+003, 1.807102e+001
1.289832e+003, 1.830011e+001
1.290314e+003, 1.844858e+001
1.290796e+003, 1.850271e+001
1.291279e+003, 1.848644e+001
1.291761e+003, 1.839222e+001
1.292243e+003, 1.827413e+001
1.292725e+003, 1.813097e+001
1.293207e+003, 1.809717e+001
1.293689e+003, 1.849136e+001
1.294171e+003, 1.881901e+001
1.294653e+003, 1.860231e+001
1.295135e+003, 1.815878e+001
1.295618e+003, 1.802839e+001
1.296100e+003, 1.818071e+001
1.296582e+003, 1.835987e+001
1.297064e+003, 1.853666e+001
1.297546e+003, 1.861608e+001
1.298028e+003, 1.847799e+001
1.298510e+003, 1.829241e+001
1.298992e+003, 1.804371e+001
1.299475e+003, 1.788253e+001
1.299957e+003, 1.809408e+001
1.300439e+003, 1.853650e+001
1.300921e+003, 1.882998e+001
1.301403e+003, 1.895037e+001
1.301885e+003, 1.894096e+001
##END=



