##NAMES=Ericaite
##RRUFFID=R130476
##IDEAL CHEMISTRY=Fe^2+^_3_B_7_O_13_Cl
##LOCALITY=Bischofferode, Kreis Worbis, Thuringen, Germany
##OWNER=RRUFF
##SOURCE=Rock Currier
##DESCRIPTION=Dark purple cube
##STATUS=The identification of this mineral has been confirmed only by single crystal X-ray diffraction.
##URL=rruff.info/R130476
8.813672e+001, 1.041406e+003
8.861884e+001, 1.052930e+003
8.910095e+001, 1.065391e+003
8.958307e+001, 1.083485e+003
9.006519e+001, 1.105703e+003
9.054730e+001, 1.127683e+003
9.102942e+001, 1.151290e+003
9.151154e+001, 1.172125e+003
9.199365e+001, 1.183888e+003
9.247577e+001, 1.188196e+003
9.295789e+001, 1.191775e+003
9.344000e+001, 1.199889e+003
9.392212e+001, 1.210023e+003
9.440424e+001, 1.217840e+003
9.488635e+001, 1.223602e+003
9.536847e+001, 1.228827e+003
9.585059e+001, 1.235926e+003
9.633270e+001, 1.244813e+003
9.681482e+001, 1.254974e+003
9.729694e+001, 1.265521e+003
9.777905e+001, 1.276483e+003
9.826117e+001, 1.289534e+003
9.874329e+001, 1.305917e+003
9.922540e+001, 1.324836e+003
9.970752e+001, 1.340937e+003
1.001896e+002, 1.353259e+003
1.006718e+002, 1.364265e+003
1.011539e+002, 1.376680e+003
1.016360e+002, 1.390548e+003
1.021181e+002, 1.405907e+003
1.026002e+002, 1.422756e+003
1.030823e+002, 1.441174e+003
1.035645e+002, 1.460284e+003
1.040466e+002, 1.479597e+003
1.045287e+002, 1.500059e+003
1.050108e+002, 1.524194e+003
1.054929e+002, 1.553654e+003
1.059750e+002, 1.584277e+003
1.064572e+002, 1.614752e+003
1.069393e+002, 1.647626e+003
1.074214e+002, 1.676071e+003
1.079035e+002, 1.697733e+003
1.083856e+002, 1.714974e+003
1.088677e+002, 1.735011e+003
1.093499e+002, 1.760073e+003
1.098320e+002, 1.786655e+003
1.103141e+002, 1.813227e+003
1.107962e+002, 1.839646e+003
1.112783e+002, 1.866773e+003
1.117604e+002, 1.895724e+003
1.122426e+002, 1.926332e+003
1.127247e+002, 1.955257e+003
1.132068e+002, 1.980477e+003
1.136889e+002, 2.004783e+003
1.141710e+002, 2.029837e+003
1.146531e+002, 2.059634e+003
1.151353e+002, 2.086683e+003
1.156174e+002, 2.108192e+003
1.160995e+002, 2.124017e+003
1.165816e+002, 2.139614e+003
1.170637e+002, 2.157523e+003
1.175458e+002, 2.175949e+003
1.180280e+002, 2.193175e+003
1.185101e+002, 2.206625e+003
1.189922e+002, 2.219823e+003
1.194743e+002, 2.234713e+003
1.199564e+002, 2.251571e+003
1.204385e+002, 2.269036e+003
1.209207e+002, 2.284931e+003
1.214028e+002, 2.300872e+003
1.218849e+002, 2.319644e+003
1.223670e+002, 2.347844e+003
1.228491e+002, 2.377466e+003
1.233312e+002, 2.398798e+003
1.238134e+002, 2.409196e+003
1.242955e+002, 2.417643e+003
1.247776e+002, 2.432086e+003
1.252597e+002, 2.451554e+003
1.257418e+002, 2.472719e+003
1.262239e+002, 2.493152e+003
1.267061e+002, 2.514181e+003
1.271882e+002, 2.537775e+003
1.276703e+002, 2.564974e+003
1.281524e+002, 2.594118e+003
1.286345e+002, 2.622522e+003
1.291166e+002, 2.650380e+003
1.295988e+002, 2.679734e+003
1.300809e+002, 2.713013e+003
1.305630e+002, 2.749344e+003
1.310451e+002, 2.784782e+003
1.315272e+002, 2.817033e+003
1.320093e+002, 2.848633e+003
1.324915e+002, 2.886424e+003
1.329736e+002, 2.930728e+003
1.334557e+002, 2.978112e+003
1.339378e+002, 3.024862e+003
1.344199e+002, 3.071130e+003
1.349020e+002, 3.119276e+003
1.353842e+002, 3.171025e+003
1.358663e+002, 3.224527e+003
1.363484e+002, 3.276059e+003
1.368305e+002, 3.325744e+003
1.373126e+002, 3.372559e+003
1.377947e+002, 3.416393e+003
1.382769e+002, 3.458668e+003
1.387590e+002, 3.490883e+003
1.392411e+002, 3.509543e+003
1.397232e+002, 3.514609e+003
1.402053e+002, 3.513240e+003
1.406874e+002, 3.504397e+003
1.411696e+002, 3.490600e+003
1.416517e+002, 3.474896e+003
1.421338e+002, 3.456348e+003
1.426159e+002, 3.438182e+003
1.430980e+002, 3.421351e+003
1.435801e+002, 3.406386e+003
1.440623e+002, 3.391308e+003
1.445444e+002, 3.375450e+003
1.450265e+002, 3.360097e+003
1.455086e+002, 3.347892e+003
1.459907e+002, 3.340986e+003
1.464728e+002, 3.334452e+003
1.469550e+002, 3.326317e+003
1.474371e+002, 3.314594e+003
1.479192e+002, 3.306085e+003
1.484013e+002, 3.301773e+003
1.488834e+002, 3.300573e+003
1.493655e+002, 3.300067e+003
1.498477e+002, 3.299343e+003
1.503298e+002, 3.300074e+003
1.508119e+002, 3.303003e+003
1.512940e+002, 3.310673e+003
1.517761e+002, 3.316731e+003
1.522583e+002, 3.319253e+003
1.527404e+002, 3.319721e+003
1.532225e+002, 3.322391e+003
1.537046e+002, 3.329856e+003
1.541867e+002, 3.337949e+003
1.546688e+002, 3.344761e+003
1.551510e+002, 3.349859e+003
1.556331e+002, 3.354083e+003
1.561152e+002, 3.357657e+003
1.565973e+002, 3.360507e+003
1.570794e+002, 3.362205e+003
1.575615e+002, 3.363653e+003
1.580437e+002, 3.363386e+003
1.585258e+002, 3.360528e+003
1.590079e+002, 3.356120e+003
1.594900e+002, 3.347858e+003
1.599721e+002, 3.333537e+003
1.604542e+002, 3.314042e+003
1.609364e+002, 3.294477e+003
1.614185e+002, 3.278489e+003
1.619006e+002, 3.262326e+003
1.623827e+002, 3.242967e+003
1.628648e+002, 3.215989e+003
1.633469e+002, 3.188734e+003
1.638291e+002, 3.164177e+003
1.643112e+002, 3.142389e+003
1.647933e+002, 3.121670e+003
1.652754e+002, 3.100897e+003
1.657575e+002, 3.080901e+003
1.662396e+002, 3.062554e+003
1.667218e+002, 3.046531e+003
1.672039e+002, 3.031970e+003
1.676860e+002, 3.018327e+003
1.681681e+002, 3.005717e+003
1.686502e+002, 2.994144e+003
1.691323e+002, 2.984292e+003
1.696145e+002, 2.975476e+003
1.700966e+002, 2.966822e+003
1.705787e+002, 2.958530e+003
1.710608e+002, 2.949938e+003
1.715429e+002, 2.939660e+003
1.720250e+002, 2.927481e+003
1.725072e+002, 2.916810e+003
1.729893e+002, 2.911210e+003
1.734714e+002, 2.908719e+003
1.739535e+002, 2.905699e+003
1.744356e+002, 2.899421e+003
1.749177e+002, 2.892271e+003
1.753999e+002, 2.887414e+003
1.758820e+002, 2.885136e+003
1.763641e+002, 2.882940e+003
1.768462e+002, 2.877525e+003
1.773283e+002, 2.870150e+003
1.778104e+002, 2.864071e+003
1.782926e+002, 2.861492e+003
1.787747e+002, 2.861005e+003
1.792568e+002, 2.860588e+003
1.797389e+002, 2.860183e+003
1.802210e+002, 2.859450e+003
1.807031e+002, 2.857846e+003
1.811853e+002, 2.855530e+003
1.816674e+002, 2.853156e+003
1.821495e+002, 2.850796e+003
1.826316e+002, 2.848649e+003
1.831137e+002, 2.847422e+003
1.835958e+002, 2.847316e+003
1.840780e+002, 2.847565e+003
1.845601e+002, 2.847095e+003
1.850422e+002, 2.846068e+003
1.855243e+002, 2.845233e+003
1.860064e+002, 2.845220e+003
1.864885e+002, 2.845829e+003
1.869707e+002, 2.846301e+003
1.874528e+002, 2.846665e+003
1.879349e+002, 2.846803e+003
1.884170e+002, 2.845858e+003
1.888991e+002, 2.843961e+003
1.893812e+002, 2.843374e+003
1.898634e+002, 2.846487e+003
1.903455e+002, 2.852467e+003
1.908276e+002, 2.856011e+003
1.913097e+002, 2.856352e+003
1.917918e+002, 2.855058e+003
1.922739e+002, 2.854571e+003
1.927561e+002, 2.854856e+003
1.932382e+002, 2.855852e+003
1.937203e+002, 2.857905e+003
1.942024e+002, 2.860870e+003
1.946845e+002, 2.863181e+003
1.951666e+002, 2.864681e+003
1.956488e+002, 2.865507e+003
1.961309e+002, 2.865396e+003
1.966130e+002, 2.864121e+003
1.970951e+002, 2.863911e+003
1.975772e+002, 2.866747e+003
1.980593e+002, 2.872693e+003
1.985415e+002, 2.877196e+003
1.990236e+002, 2.879728e+003
1.995057e+002, 2.880958e+003
1.999878e+002, 2.882233e+003
2.004699e+002, 2.883573e+003
2.009520e+002, 2.884881e+003
2.014342e+002, 2.885872e+003
2.019163e+002, 2.886451e+003
2.023984e+002, 2.888078e+003
2.028805e+002, 2.891305e+003
2.033626e+002, 2.895221e+003
2.038447e+002, 2.897295e+003
2.043269e+002, 2.897031e+003
2.048090e+002, 2.896681e+003
2.052911e+002, 2.897232e+003
2.057732e+002, 2.898566e+003
2.062553e+002, 2.901935e+003
2.067374e+002, 2.908533e+003
2.072196e+002, 2.916499e+003
2.077017e+002, 2.920392e+003
2.081838e+002, 2.919191e+003
2.086659e+002, 2.916765e+003
2.091480e+002, 2.915216e+003
2.096301e+002, 2.914735e+003
2.101123e+002, 2.914167e+003
2.105944e+002, 2.913200e+003
2.110765e+002, 2.912243e+003
2.115586e+002, 2.912691e+003
2.120407e+002, 2.915191e+003
2.125228e+002, 2.917645e+003
2.130050e+002, 2.918782e+003
2.134871e+002, 2.918223e+003
2.139692e+002, 2.917694e+003
2.144513e+002, 2.917183e+003
2.149334e+002, 2.916764e+003
2.154155e+002, 2.916792e+003
2.158977e+002, 2.917591e+003
2.163798e+002, 2.918108e+003
2.168619e+002, 2.917482e+003
2.173440e+002, 2.914894e+003
2.178261e+002, 2.913721e+003
2.183082e+002, 2.914709e+003
2.187904e+002, 2.916991e+003
2.192725e+002, 2.917849e+003
2.197546e+002, 2.916590e+003
2.202367e+002, 2.915122e+003
2.207188e+002, 2.914578e+003
2.212009e+002, 2.915646e+003
2.216831e+002, 2.915826e+003
2.221652e+002, 2.914884e+003
2.226473e+002, 2.913123e+003
2.231294e+002, 2.911375e+003
2.236115e+002, 2.909664e+003
2.240936e+002, 2.908047e+003
2.245758e+002, 2.906586e+003
2.250579e+002, 2.905467e+003
2.255400e+002, 2.904167e+003
2.260221e+002, 2.902468e+003
2.265042e+002, 2.900680e+003
2.269863e+002, 2.899745e+003
2.274685e+002, 2.900161e+003
2.279506e+002, 2.900640e+003
2.284327e+002, 2.900372e+003
2.289148e+002, 2.898202e+003
2.293969e+002, 2.897967e+003
2.298790e+002, 2.900292e+003
2.303612e+002, 2.904334e+003
2.308433e+002, 2.908039e+003
2.313254e+002, 2.911398e+003
2.318075e+002, 2.914393e+003
2.322896e+002, 2.916970e+003
2.327717e+002, 2.918949e+003
2.332539e+002, 2.920832e+003
2.337360e+002, 2.922590e+003
2.342181e+002, 2.924174e+003
2.347002e+002, 2.925482e+003
2.351823e+002, 2.926320e+003
2.356644e+002, 2.927077e+003
2.361466e+002, 2.927844e+003
2.366287e+002, 2.928467e+003
2.371108e+002, 2.929465e+003
2.375929e+002, 2.931009e+003
2.380750e+002, 2.932837e+003
2.385571e+002, 2.934453e+003
2.390393e+002, 2.936067e+003
2.395214e+002, 2.937181e+003
2.400035e+002, 2.937564e+003
2.404856e+002, 2.936998e+003
2.409677e+002, 2.936522e+003
2.414498e+002, 2.936226e+003
2.419320e+002, 2.936069e+003
2.424141e+002, 2.935961e+003
2.428962e+002, 2.936009e+003
2.433783e+002, 2.936067e+003
2.438604e+002, 2.936078e+003
2.443425e+002, 2.935983e+003
2.448247e+002, 2.936304e+003
2.453068e+002, 2.937559e+003
2.457889e+002, 2.938945e+003
2.462710e+002, 2.938965e+003
2.467531e+002, 2.936258e+003
2.472352e+002, 2.934497e+003
2.477174e+002, 2.935087e+003
2.481995e+002, 2.938637e+003
2.486816e+002, 2.941229e+003
2.491637e+002, 2.942462e+003
2.496458e+002, 2.942976e+003
2.501279e+002, 2.943552e+003
2.506101e+002, 2.943797e+003
2.510922e+002, 2.944807e+003
2.515743e+002, 2.947148e+003
2.520564e+002, 2.951122e+003
2.525385e+002, 2.954083e+003
2.530206e+002, 2.955779e+003
2.535028e+002, 2.956696e+003
2.539849e+002, 2.957232e+003
2.544670e+002, 2.956869e+003
2.549491e+002, 2.957297e+003
2.554312e+002, 2.959172e+003
2.559133e+002, 2.962595e+003
2.563955e+002, 2.965495e+003
2.568776e+002, 2.967668e+003
2.573597e+002, 2.969554e+003
2.578418e+002, 2.971695e+003
2.583239e+002, 2.974422e+003
2.588061e+002, 2.976550e+003
2.592882e+002, 2.977532e+003
2.597703e+002, 2.977398e+003
2.602524e+002, 2.978446e+003
2.607345e+002, 2.981290e+003
2.612166e+002, 2.984467e+003
2.616988e+002, 2.986696e+003
2.621809e+002, 2.987683e+003
2.626630e+002, 2.988541e+003
2.631451e+002, 2.989753e+003
2.636272e+002, 2.991142e+003
2.641093e+002, 2.990547e+003
2.645915e+002, 2.986806e+003
2.650736e+002, 2.983188e+003
2.655557e+002, 2.982703e+003
2.660378e+002, 2.986630e+003
2.665199e+002, 2.989264e+003
2.670020e+002, 2.989664e+003
2.674842e+002, 2.988174e+003
2.679663e+002, 2.986228e+003
2.684484e+002, 2.983375e+003
2.689305e+002, 2.981069e+003
2.694126e+002, 2.980568e+003
2.698947e+002, 2.982348e+003
2.703769e+002, 2.983776e+003
2.708590e+002, 2.984664e+003
2.713411e+002, 2.984988e+003
2.718232e+002, 2.984476e+003
2.723053e+002, 2.982817e+003
2.727874e+002, 2.981227e+003
2.732696e+002, 2.980582e+003
2.737517e+002, 2.981104e+003
2.742338e+002, 2.980946e+003
2.747159e+002, 2.979716e+003
2.751980e+002, 2.978029e+003
2.756801e+002, 2.977353e+003
2.761623e+002, 2.977828e+003
2.766444e+002, 2.978800e+003
2.771265e+002, 2.980066e+003
2.776086e+002, 2.981693e+003
2.780907e+002, 2.983399e+003
2.785728e+002, 2.985485e+003
2.790550e+002, 2.987208e+003
2.795371e+002, 2.986881e+003
2.800192e+002, 2.984245e+003
2.805013e+002, 2.981645e+003
2.809834e+002, 2.979916e+003
2.814655e+002, 2.979046e+003
2.819477e+002, 2.979184e+003
2.824298e+002, 2.980429e+003
2.829119e+002, 2.982304e+003
2.833940e+002, 2.984312e+003
2.838761e+002, 2.986423e+003
2.843582e+002, 2.988269e+003
2.848404e+002, 2.989551e+003
2.853225e+002, 2.990352e+003
2.858046e+002, 2.991569e+003
2.862867e+002, 2.993359e+003
2.867688e+002, 2.994676e+003
2.872509e+002, 2.994101e+003
2.877331e+002, 2.991755e+003
2.882152e+002, 2.989165e+003
2.886973e+002, 2.986439e+003
2.891794e+002, 2.983956e+003
2.896615e+002, 2.983267e+003
2.901436e+002, 2.984529e+003
2.906258e+002, 2.986153e+003
2.911079e+002, 2.986816e+003
2.915900e+002, 2.986652e+003
2.920721e+002, 2.986229e+003
2.925542e+002, 2.985818e+003
2.930363e+002, 2.985204e+003
2.935185e+002, 2.983257e+003
2.940006e+002, 2.980020e+003
2.944827e+002, 2.977891e+003
2.949648e+002, 2.979453e+003
2.954469e+002, 2.983649e+003
2.959290e+002, 2.987215e+003
2.964112e+002, 2.989571e+003
2.968933e+002, 2.990989e+003
2.973754e+002, 2.991517e+003
2.978575e+002, 2.991258e+003
2.983396e+002, 2.991008e+003
2.988217e+002, 2.990619e+003
2.993039e+002, 2.990657e+003
2.997860e+002, 2.992607e+003
3.002681e+002, 2.997094e+003
3.007502e+002, 3.002081e+003
3.012323e+002, 3.005187e+003
3.017144e+002, 3.006767e+003
3.021966e+002, 3.007919e+003
3.026787e+002, 3.009806e+003
3.031608e+002, 3.011425e+003
3.036429e+002, 3.010720e+003
3.041250e+002, 3.007146e+003
3.046071e+002, 3.004206e+003
3.050893e+002, 3.006082e+003
3.055714e+002, 3.010983e+003
3.060535e+002, 3.015078e+003
3.065356e+002, 3.016544e+003
3.070177e+002, 3.016529e+003
3.074998e+002, 3.015634e+003
3.079820e+002, 3.013885e+003
3.084641e+002, 3.012593e+003
3.089462e+002, 3.013353e+003
3.094283e+002, 3.015013e+003
3.099104e+002, 3.015984e+003
3.103925e+002, 3.014587e+003
3.108747e+002, 3.013220e+003
3.113568e+002, 3.014027e+003
3.118389e+002, 3.016710e+003
3.123210e+002, 3.018869e+003
3.128031e+002, 3.018329e+003
3.132852e+002, 3.017064e+003
3.137674e+002, 3.017060e+003
3.142495e+002, 3.020099e+003
3.147316e+002, 3.022875e+003
3.152137e+002, 3.023281e+003
3.156958e+002, 3.021952e+003
3.161779e+002, 3.021030e+003
3.166601e+002, 3.021699e+003
3.171422e+002, 3.022837e+003
3.176243e+002, 3.023652e+003
3.181064e+002, 3.023667e+003
3.185885e+002, 3.023947e+003
3.190706e+002, 3.025513e+003
3.195528e+002, 3.027516e+003
3.200349e+002, 3.028335e+003
3.205170e+002, 3.025884e+003
3.209991e+002, 3.023460e+003
3.214812e+002, 3.022632e+003
3.219633e+002, 3.024006e+003
3.224455e+002, 3.025235e+003
3.229276e+002, 3.025321e+003
3.234097e+002, 3.025194e+003
3.238918e+002, 3.026002e+003
3.243739e+002, 3.029539e+003
3.248560e+002, 3.032484e+003
3.253382e+002, 3.033654e+003
3.258203e+002, 3.032785e+003
3.263024e+002, 3.032720e+003
3.267845e+002, 3.034735e+003
3.272666e+002, 3.037093e+003
3.277487e+002, 3.038415e+003
3.282309e+002, 3.037125e+003
3.287130e+002, 3.036650e+003
3.291951e+002, 3.037803e+003
3.296772e+002, 3.040360e+003
3.301593e+002, 3.041969e+003
3.306414e+002, 3.041253e+003
3.311236e+002, 3.040849e+003
3.316057e+002, 3.042137e+003
3.320878e+002, 3.045309e+003
3.325699e+002, 3.049856e+003
3.330520e+002, 3.056504e+003
3.335341e+002, 3.064295e+003
3.340163e+002, 3.070490e+003
3.344984e+002, 3.074276e+003
3.349805e+002, 3.077674e+003
3.354626e+002, 3.081446e+003
3.359447e+002, 3.085584e+003
3.364268e+002, 3.090384e+003
3.369090e+002, 3.096489e+003
3.373911e+002, 3.102710e+003
3.378732e+002, 3.106600e+003
3.383553e+002, 3.107157e+003
3.388374e+002, 3.109040e+003
3.393195e+002, 3.114283e+003
3.398017e+002, 3.122711e+003
3.402838e+002, 3.129593e+003
3.407659e+002, 3.134527e+003
3.412480e+002, 3.139082e+003
3.417301e+002, 3.144724e+003
3.422122e+002, 3.151419e+003
3.426944e+002, 3.159533e+003
3.431765e+002, 3.169360e+003
3.436586e+002, 3.180554e+003
3.441407e+002, 3.191560e+003
3.446228e+002, 3.202253e+003
3.451049e+002, 3.213520e+003
3.455871e+002, 3.225536e+003
3.460692e+002, 3.238563e+003
3.465513e+002, 3.253669e+003
3.470334e+002, 3.271754e+003
3.475155e+002, 3.290503e+003
3.479977e+002, 3.307399e+003
3.484798e+002, 3.322174e+003
3.489619e+002, 3.331370e+003
3.494440e+002, 3.333856e+003
3.499261e+002, 3.329282e+003
3.504082e+002, 3.315394e+003
3.508904e+002, 3.291265e+003
3.513725e+002, 3.263310e+003
3.518546e+002, 3.235623e+003
3.523367e+002, 3.209005e+003
3.528188e+002, 3.185223e+003
3.533009e+002, 3.165807e+003
3.537831e+002, 3.149220e+003
3.542652e+002, 3.133030e+003
3.547473e+002, 3.117359e+003
3.552294e+002, 3.104991e+003
3.557115e+002, 3.100297e+003
3.561936e+002, 3.099407e+003
3.566758e+002, 3.097139e+003
3.571579e+002, 3.090378e+003
3.576400e+002, 3.083816e+003
3.581221e+002, 3.081438e+003
3.586042e+002, 3.082285e+003
3.590863e+002, 3.082775e+003
3.595685e+002, 3.079574e+003
3.600506e+002, 3.076319e+003
3.605327e+002, 3.075939e+003
3.610148e+002, 3.079800e+003
3.614969e+002, 3.084252e+003
3.619790e+002, 3.087873e+003
3.624612e+002, 3.091075e+003
3.629433e+002, 3.094619e+003
3.634254e+002, 3.098639e+003
3.639075e+002, 3.103083e+003
3.643896e+002, 3.108022e+003
3.648717e+002, 3.113498e+003
3.653539e+002, 3.118928e+003
3.658360e+002, 3.123717e+003
3.663181e+002, 3.128567e+003
3.668002e+002, 3.134227e+003
3.672823e+002, 3.141012e+003
3.677644e+002, 3.148294e+003
3.682466e+002, 3.156445e+003
3.687287e+002, 3.165328e+003
3.692108e+002, 3.173142e+003
3.696929e+002, 3.179691e+003
3.701750e+002, 3.185438e+003
3.706571e+002, 3.190618e+003
3.711393e+002, 3.195882e+003
3.716214e+002, 3.199519e+003
3.721035e+002, 3.200952e+003
3.725856e+002, 3.201004e+003
3.730677e+002, 3.201405e+003
3.735498e+002, 3.202039e+003
3.740320e+002, 3.203301e+003
3.745141e+002, 3.205308e+003
3.749962e+002, 3.208041e+003
3.754783e+002, 3.211632e+003
3.759604e+002, 3.216065e+003
3.764425e+002, 3.221319e+003
3.769247e+002, 3.227719e+003
3.774068e+002, 3.235491e+003
3.778889e+002, 3.242582e+003
3.783710e+002, 3.248199e+003
3.788531e+002, 3.252713e+003
3.793352e+002, 3.258411e+003
3.798174e+002, 3.265607e+003
3.802995e+002, 3.271487e+003
3.807816e+002, 3.273626e+003
3.812637e+002, 3.272290e+003
3.817458e+002, 3.269623e+003
3.822279e+002, 3.266074e+003
3.827101e+002, 3.260905e+003
3.831922e+002, 3.252362e+003
3.836743e+002, 3.240692e+003
3.841564e+002, 3.228133e+003
3.846385e+002, 3.215233e+003
3.851206e+002, 3.202314e+003
3.856028e+002, 3.189570e+003
3.860849e+002, 3.176921e+003
3.865670e+002, 3.165589e+003
3.870491e+002, 3.157639e+003
3.875312e+002, 3.151683e+003
3.880133e+002, 3.144817e+003
3.884955e+002, 3.134064e+003
3.889776e+002, 3.123530e+003
3.894597e+002, 3.117867e+003
3.899418e+002, 3.116379e+003
3.904239e+002, 3.114927e+003
3.909060e+002, 3.110003e+003
3.913882e+002, 3.104514e+003
3.918703e+002, 3.101246e+003
3.923524e+002, 3.101456e+003
3.928345e+002, 3.102411e+003
3.933166e+002, 3.103230e+003
3.937987e+002, 3.103836e+003
3.942809e+002, 3.104067e+003
3.947630e+002, 3.103421e+003
3.952451e+002, 3.102768e+003
3.957272e+002, 3.102694e+003
3.962093e+002, 3.103440e+003
3.966914e+002, 3.103379e+003
3.971736e+002, 3.102202e+003
3.976557e+002, 3.100037e+003
3.981378e+002, 3.096981e+003
3.986199e+002, 3.091769e+003
3.991020e+002, 3.087108e+003
3.995841e+002, 3.084136e+003
4.000663e+002, 3.082351e+003
4.005484e+002, 3.078257e+003
4.010305e+002, 3.069347e+003
4.015126e+002, 3.060852e+003
4.019947e+002, 3.055559e+003
4.024768e+002, 3.055554e+003
4.029590e+002, 3.053913e+003
4.034411e+002, 3.049820e+003
4.039232e+002, 3.044784e+003
4.044053e+002, 3.041560e+003
4.048874e+002, 3.040703e+003
4.053695e+002, 3.040137e+003
4.058517e+002, 3.039182e+003
4.063338e+002, 3.037923e+003
4.068159e+002, 3.037296e+003
4.072980e+002, 3.037501e+003
4.077801e+002, 3.037715e+003
4.082622e+002, 3.036850e+003
4.087444e+002, 3.034967e+003
4.092265e+002, 3.033819e+003
4.097086e+002, 3.033806e+003
4.101907e+002, 3.034528e+003
4.106728e+002, 3.035065e+003
4.111549e+002, 3.035444e+003
4.116371e+002, 3.036370e+003
4.121192e+002, 3.038886e+003
4.126013e+002, 3.042122e+003
4.130834e+002, 3.044151e+003
4.135655e+002, 3.044729e+003
4.140476e+002, 3.044567e+003
4.145298e+002, 3.043849e+003
4.150119e+002, 3.042917e+003
4.154940e+002, 3.042453e+003
4.159761e+002, 3.042873e+003
4.164582e+002, 3.043786e+003
4.169403e+002, 3.045166e+003
4.174225e+002, 3.046912e+003
4.179046e+002, 3.048302e+003
4.183867e+002, 3.049374e+003
4.188688e+002, 3.049684e+003
4.193509e+002, 3.048506e+003
4.198330e+002, 3.044401e+003
4.203152e+002, 3.041688e+003
4.207973e+002, 3.043254e+003
4.212794e+002, 3.047198e+003
4.217615e+002, 3.050054e+003
4.222436e+002, 3.049364e+003
4.227257e+002, 3.048969e+003
4.232079e+002, 3.050331e+003
4.236900e+002, 3.053741e+003
4.241721e+002, 3.057190e+003
4.246542e+002, 3.060670e+003
4.251363e+002, 3.064059e+003
4.256184e+002, 3.067317e+003
4.261006e+002, 3.070357e+003
4.265827e+002, 3.073270e+003
4.270648e+002, 3.076333e+003
4.275469e+002, 3.079209e+003
4.280290e+002, 3.080550e+003
4.285111e+002, 3.079565e+003
4.289933e+002, 3.078447e+003
4.294754e+002, 3.078134e+003
4.299575e+002, 3.078692e+003
4.304396e+002, 3.079389e+003
4.309217e+002, 3.080403e+003
4.314038e+002, 3.081101e+003
4.318860e+002, 3.080697e+003
4.323681e+002, 3.079186e+003
4.328502e+002, 3.076863e+003
4.333323e+002, 3.073451e+003
4.338144e+002, 3.069596e+003
4.342965e+002, 3.067267e+003
4.347787e+002, 3.066485e+003
4.352608e+002, 3.065736e+003
4.357429e+002, 3.063969e+003
4.362250e+002, 3.061486e+003
4.367071e+002, 3.058641e+003
4.371892e+002, 3.055224e+003
4.376714e+002, 3.052733e+003
4.381535e+002, 3.053560e+003
4.386356e+002, 3.056567e+003
4.391177e+002, 3.059220e+003
4.395998e+002, 3.060539e+003
4.400819e+002, 3.060887e+003
4.405641e+002, 3.059948e+003
4.410462e+002, 3.057873e+003
4.415283e+002, 3.056453e+003
4.420104e+002, 3.056858e+003
4.424925e+002, 3.058169e+003
4.429746e+002, 3.059626e+003
4.434568e+002, 3.061040e+003
4.439389e+002, 3.062558e+003
4.444210e+002, 3.063789e+003
4.449031e+002, 3.065175e+003
4.453852e+002, 3.067583e+003
4.458673e+002, 3.073874e+003
4.463495e+002, 3.078630e+003
4.468316e+002, 3.079647e+003
4.473137e+002, 3.076226e+003
4.477958e+002, 3.074015e+003
4.482779e+002, 3.073667e+003
4.487600e+002, 3.074082e+003
4.492422e+002, 3.074607e+003
4.497243e+002, 3.075879e+003
4.502064e+002, 3.075938e+003
4.506885e+002, 3.074367e+003
4.511706e+002, 3.071613e+003
4.516527e+002, 3.068888e+003
4.521349e+002, 3.066183e+003
4.526170e+002, 3.063380e+003
4.530991e+002, 3.060012e+003
4.535812e+002, 3.056112e+003
4.540633e+002, 3.054446e+003
4.545454e+002, 3.055307e+003
4.550276e+002, 3.056722e+003
4.555097e+002, 3.056421e+003
4.559918e+002, 3.054688e+003
4.564739e+002, 3.053422e+003
4.569560e+002, 3.053436e+003
4.574381e+002, 3.053533e+003
4.579203e+002, 3.051466e+003
4.584024e+002, 3.047651e+003
4.588845e+002, 3.043943e+003
4.593666e+002, 3.041336e+003
4.598488e+002, 3.039569e+003
4.603309e+002, 3.038585e+003
4.608130e+002, 3.038451e+003
4.612951e+002, 3.038290e+003
4.617772e+002, 3.037402e+003
4.622593e+002, 3.036198e+003
4.627415e+002, 3.035176e+003
4.632236e+002, 3.034611e+003
4.637057e+002, 3.034173e+003
4.641878e+002, 3.033794e+003
4.646699e+002, 3.033474e+003
4.651520e+002, 3.033173e+003
4.656342e+002, 3.032594e+003
4.661163e+002, 3.032314e+003
4.665984e+002, 3.032695e+003
4.670805e+002, 3.034127e+003
4.675626e+002, 3.035213e+003
4.680447e+002, 3.035972e+003
4.685269e+002, 3.036359e+003
4.690090e+002, 3.036292e+003
4.694911e+002, 3.035488e+003
4.699732e+002, 3.034698e+003
4.704553e+002, 3.033785e+003
4.709374e+002, 3.032950e+003
4.714196e+002, 3.033355e+003
4.719017e+002, 3.035408e+003
4.723838e+002, 3.037308e+003
4.728659e+002, 3.037900e+003
4.733480e+002, 3.037157e+003
4.738301e+002, 3.036679e+003
4.743123e+002, 3.036506e+003
4.747944e+002, 3.036401e+003
4.752765e+002, 3.035950e+003
4.757586e+002, 3.035251e+003
4.762407e+002, 3.034914e+003
4.767228e+002, 3.035346e+003
4.772050e+002, 3.036009e+003
4.776871e+002, 3.036065e+003
4.781692e+002, 3.035622e+003
4.786513e+002, 3.035103e+003
4.791334e+002, 3.034255e+003
4.796155e+002, 3.033802e+003
4.800977e+002, 3.035202e+003
4.805798e+002, 3.039069e+003
4.810619e+002, 3.041579e+003
4.815440e+002, 3.038603e+003
4.820261e+002, 3.033687e+003
4.825082e+002, 3.030916e+003
4.829904e+002, 3.033478e+003
4.834725e+002, 3.036310e+003
4.839546e+002, 3.037909e+003
4.844367e+002, 3.038497e+003
4.849188e+002, 3.039109e+003
4.854009e+002, 3.039338e+003
4.858831e+002, 3.040054e+003
4.863652e+002, 3.041630e+003
4.868473e+002, 3.044234e+003
4.873294e+002, 3.046844e+003
4.878115e+002, 3.049569e+003
4.882936e+002, 3.052089e+003
4.887758e+002, 3.054112e+003
4.892579e+002, 3.055577e+003
4.897400e+002, 3.056518e+003
4.902221e+002, 3.056672e+003
4.907042e+002, 3.056437e+003
4.911863e+002, 3.057228e+003
4.916685e+002, 3.059170e+003
4.921506e+002, 3.060978e+003
4.926327e+002, 3.062501e+003
4.931148e+002, 3.063465e+003
4.935969e+002, 3.061647e+003
4.940790e+002, 3.056750e+003
4.945612e+002, 3.052297e+003
4.950433e+002, 3.052570e+003
4.955254e+002, 3.055859e+003
4.960075e+002, 3.058319e+003
4.964896e+002, 3.058428e+003
4.969717e+002, 3.058104e+003
4.974539e+002, 3.058628e+003
4.979360e+002, 3.060099e+003
4.984181e+002, 3.062746e+003
4.989002e+002, 3.067137e+003
4.993823e+002, 3.072369e+003
4.998644e+002, 3.079044e+003
5.003466e+002, 3.087528e+003
5.008287e+002, 3.092148e+003
5.013108e+002, 3.086612e+003
5.017929e+002, 3.079098e+003
5.022750e+002, 3.075835e+003
5.027571e+002, 3.081771e+003
5.032393e+002, 3.086491e+003
5.037214e+002, 3.088630e+003
5.042035e+002, 3.089438e+003
5.046856e+002, 3.091821e+003
5.051677e+002, 3.097298e+003
5.056498e+002, 3.101479e+003
5.061320e+002, 3.102560e+003
5.066141e+002, 3.100746e+003
5.070962e+002, 3.100782e+003
5.075783e+002, 3.103002e+003
5.080604e+002, 3.106138e+003
5.085425e+002, 3.109120e+003
5.090247e+002, 3.112056e+003
5.095068e+002, 3.116073e+003
5.099889e+002, 3.121598e+003
5.104710e+002, 3.127457e+003
5.109531e+002, 3.131550e+003
5.114352e+002, 3.134452e+003
5.119174e+002, 3.138238e+003
5.123995e+002, 3.144153e+003
5.128816e+002, 3.151156e+003
5.133637e+002, 3.158433e+003
5.138458e+002, 3.165884e+003
5.143279e+002, 3.173029e+003
5.148101e+002, 3.179659e+003
5.152922e+002, 3.185730e+003
5.157743e+002, 3.190752e+003
5.162564e+002, 3.193859e+003
5.167385e+002, 3.198605e+003
5.172206e+002, 3.207505e+003
5.177028e+002, 3.218102e+003
5.181849e+002, 3.227583e+003
5.186670e+002, 3.234740e+003
5.191491e+002, 3.241645e+003
5.196312e+002, 3.248395e+003
5.201133e+002, 3.255110e+003
5.205955e+002, 3.262853e+003
5.210776e+002, 3.273403e+003
5.215597e+002, 3.282020e+003
5.220418e+002, 3.286211e+003
5.225239e+002, 3.285540e+003
5.230060e+002, 3.286527e+003
5.234882e+002, 3.290289e+003
5.239703e+002, 3.292831e+003
5.244524e+002, 3.289550e+003
5.249345e+002, 3.280738e+003
5.254166e+002, 3.270539e+003
5.258987e+002, 3.259601e+003
5.263809e+002, 3.247618e+003
5.268630e+002, 3.232755e+003
5.273451e+002, 3.215777e+003
5.278272e+002, 3.200300e+003
5.283093e+002, 3.188271e+003
5.287914e+002, 3.178322e+003
5.292736e+002, 3.169215e+003
5.297557e+002, 3.160766e+003
5.302378e+002, 3.152693e+003
5.307199e+002, 3.143988e+003
5.312020e+002, 3.135902e+003
5.316841e+002, 3.129781e+003
5.321663e+002, 3.126819e+003
5.326484e+002, 3.123507e+003
5.331305e+002, 3.118085e+003
5.336126e+002, 3.112024e+003
5.340947e+002, 3.107340e+003
5.345768e+002, 3.105448e+003
5.350590e+002, 3.103532e+003
5.355411e+002, 3.100942e+003
5.360232e+002, 3.097968e+003
5.365053e+002, 3.096475e+003
5.369874e+002, 3.097140e+003
5.374695e+002, 3.097963e+003
5.379517e+002, 3.097623e+003
5.384338e+002, 3.096003e+003
5.389159e+002, 3.096198e+003
5.393980e+002, 3.098448e+003
5.398801e+002, 3.101517e+003
5.403622e+002, 3.104208e+003
5.408444e+002, 3.106515e+003
5.413265e+002, 3.108545e+003
5.418086e+002, 3.110276e+003
5.422907e+002, 3.111797e+003
5.427728e+002, 3.112034e+003
5.432549e+002, 3.111971e+003
5.437371e+002, 3.114472e+003
5.442192e+002, 3.123254e+003
5.447013e+002, 3.133439e+003
5.451834e+002, 3.141461e+003
5.456655e+002, 3.147382e+003
5.461476e+002, 3.152938e+003
5.466298e+002, 3.157628e+003
5.471119e+002, 3.163106e+003
5.475940e+002, 3.170548e+003
5.480761e+002, 3.180834e+003
5.485582e+002, 3.191737e+003
5.490403e+002, 3.203005e+003
5.495225e+002, 3.214949e+003
5.500046e+002, 3.228086e+003
5.504867e+002, 3.244155e+003
5.509688e+002, 3.257838e+003
5.514509e+002, 3.267906e+003
5.519330e+002, 3.275039e+003
5.524152e+002, 3.281566e+003
5.528973e+002, 3.287593e+003
5.533794e+002, 3.292373e+003
5.538615e+002, 3.296028e+003
5.543436e+002, 3.298208e+003
5.548257e+002, 3.297102e+003
5.553079e+002, 3.292680e+003
5.557900e+002, 3.285328e+003
5.562721e+002, 3.273708e+003
5.567542e+002, 3.259823e+003
5.572363e+002, 3.247503e+003
5.577184e+002, 3.237880e+003
5.582006e+002, 3.229063e+003
5.586827e+002, 3.219653e+003
5.591648e+002, 3.210094e+003
5.596469e+002, 3.200912e+003
5.601290e+002, 3.192376e+003
5.606111e+002, 3.184339e+003
5.610933e+002, 3.176695e+003
5.615754e+002, 3.169500e+003
5.620575e+002, 3.163298e+003
5.625396e+002, 3.157849e+003
5.630217e+002, 3.153743e+003
5.635038e+002, 3.151444e+003
5.639860e+002, 3.151442e+003
5.644681e+002, 3.150971e+003
5.649502e+002, 3.150303e+003
5.654323e+002, 3.148731e+003
5.659144e+002, 3.144902e+003
5.663965e+002, 3.138440e+003
5.668787e+002, 3.134250e+003
5.673608e+002, 3.133598e+003
5.678429e+002, 3.134427e+003
5.683250e+002, 3.133009e+003
5.688071e+002, 3.129763e+003
5.692892e+002, 3.126926e+003
5.697714e+002, 3.125235e+003
5.702535e+002, 3.124694e+003
5.707356e+002, 3.125945e+003
5.712177e+002, 3.128673e+003
5.716998e+002, 3.130954e+003
5.721819e+002, 3.131206e+003
5.726641e+002, 3.130881e+003
5.731462e+002, 3.131225e+003
5.736283e+002, 3.132583e+003
5.741104e+002, 3.133372e+003
5.745925e+002, 3.132976e+003
5.750746e+002, 3.131830e+003
5.755568e+002, 3.130288e+003
5.760389e+002, 3.126940e+003
5.765210e+002, 3.125261e+003
5.770031e+002, 3.125872e+003
5.774852e+002, 3.128031e+003
5.779673e+002, 3.130426e+003
5.784495e+002, 3.133432e+003
5.789316e+002, 3.135643e+003
5.794137e+002, 3.136520e+003
5.798958e+002, 3.136336e+003
5.803779e+002, 3.136149e+003
5.808600e+002, 3.135988e+003
5.813422e+002, 3.135801e+003
5.818243e+002, 3.135308e+003
5.823064e+002, 3.134817e+003
5.827885e+002, 3.134911e+003
5.832706e+002, 3.135609e+003
5.837527e+002, 3.137190e+003
5.842349e+002, 3.141696e+003
5.847170e+002, 3.146497e+003
5.851991e+002, 3.147943e+003
5.856812e+002, 3.142413e+003
5.861633e+002, 3.137945e+003
5.866454e+002, 3.139542e+003
5.871276e+002, 3.144213e+003
5.876097e+002, 3.146528e+003
5.880918e+002, 3.142949e+003
5.885739e+002, 3.139721e+003
5.890560e+002, 3.138203e+003
5.895381e+002, 3.138189e+003
5.900203e+002, 3.138238e+003
5.905024e+002, 3.138378e+003
5.909845e+002, 3.138595e+003
5.914666e+002, 3.138966e+003
5.919487e+002, 3.139531e+003
5.924308e+002, 3.139890e+003
5.929130e+002, 3.140031e+003
5.933951e+002, 3.140280e+003
5.938772e+002, 3.140466e+003
5.943593e+002, 3.140992e+003
5.948414e+002, 3.143423e+003
5.953235e+002, 3.148417e+003
5.958057e+002, 3.154031e+003
5.962878e+002, 3.158801e+003
5.967699e+002, 3.162702e+003
5.972520e+002, 3.165630e+003
5.977341e+002, 3.166238e+003
5.982162e+002, 3.167117e+003
5.986984e+002, 3.169245e+003
5.991805e+002, 3.172575e+003
5.996626e+002, 3.177098e+003
6.001447e+002, 3.184754e+003
6.006268e+002, 3.191676e+003
6.011089e+002, 3.196141e+003
6.015911e+002, 3.197938e+003
6.020732e+002, 3.200131e+003
6.025553e+002, 3.202914e+003
6.030374e+002, 3.205770e+003
6.035195e+002, 3.208110e+003
6.040016e+002, 3.209823e+003
6.044838e+002, 3.212945e+003
6.049659e+002, 3.218083e+003
6.054480e+002, 3.222974e+003
6.059301e+002, 3.224435e+003
6.064122e+002, 3.223055e+003
6.068943e+002, 3.221419e+003
6.073765e+002, 3.220917e+003
6.078586e+002, 3.219270e+003
6.083407e+002, 3.212487e+003
6.088228e+002, 3.202481e+003
6.093049e+002, 3.194136e+003
6.097870e+002, 3.190430e+003
6.102692e+002, 3.188189e+003
6.107513e+002, 3.185922e+003
6.112334e+002, 3.183582e+003
6.117155e+002, 3.181468e+003
6.121976e+002, 3.179527e+003
6.126797e+002, 3.177923e+003
6.131619e+002, 3.176554e+003
6.136440e+002, 3.175147e+003
6.141261e+002, 3.175426e+003
6.146082e+002, 3.178037e+003
6.150903e+002, 3.181372e+003
6.155724e+002, 3.183944e+003
6.160546e+002, 3.185707e+003
6.165367e+002, 3.187751e+003
6.170188e+002, 3.190023e+003
6.175009e+002, 3.193085e+003
6.179830e+002, 3.197968e+003
6.184651e+002, 3.204371e+003
6.189473e+002, 3.211315e+003
6.194294e+002, 3.218845e+003
6.199115e+002, 3.226241e+003
6.203936e+002, 3.232496e+003
6.208757e+002, 3.238029e+003
6.213578e+002, 3.244184e+003
6.218400e+002, 3.252843e+003
6.223221e+002, 3.261170e+003
6.228042e+002, 3.267168e+003
6.232863e+002, 3.270760e+003
6.237684e+002, 3.275501e+003
6.242505e+002, 3.282689e+003
6.247327e+002, 3.290211e+003
6.252148e+002, 3.296818e+003
6.256969e+002, 3.301938e+003
6.261790e+002, 3.308562e+003
6.266611e+002, 3.316734e+003
6.271432e+002, 3.326199e+003
6.276254e+002, 3.337388e+003
6.281075e+002, 3.350113e+003
6.285896e+002, 3.360918e+003
6.290717e+002, 3.368387e+003
6.295538e+002, 3.375805e+003
6.300359e+002, 3.388433e+003
6.305181e+002, 3.404440e+003
6.310002e+002, 3.419505e+003
6.314823e+002, 3.429918e+003
6.319644e+002, 3.440659e+003
6.324465e+002, 3.455676e+003
6.329286e+002, 3.474024e+003
6.334108e+002, 3.492427e+003
6.338929e+002, 3.510395e+003
6.343750e+002, 3.527792e+003
6.348571e+002, 3.543769e+003
6.353392e+002, 3.558250e+003
6.358214e+002, 3.576352e+003
6.363035e+002, 3.600113e+003
6.367856e+002, 3.624847e+003
6.372677e+002, 3.648103e+003
6.377498e+002, 3.669628e+003
6.382319e+002, 3.690775e+003
6.387141e+002, 3.711508e+003
6.391962e+002, 3.732846e+003
6.396783e+002, 3.757139e+003
6.401604e+002, 3.783482e+003
6.406425e+002, 3.808245e+003
6.411246e+002, 3.831598e+003
6.416068e+002, 3.851353e+003
6.420889e+002, 3.865793e+003
6.425710e+002, 3.875138e+003
6.430531e+002, 3.879456e+003
6.435352e+002, 3.881385e+003
6.440173e+002, 3.875656e+003
6.444995e+002, 3.858964e+003
6.449816e+002, 3.832864e+003
6.454637e+002, 3.801273e+003
6.459458e+002, 3.762305e+003
6.464279e+002, 3.720997e+003
6.469100e+002, 3.678010e+003
6.473922e+002, 3.633264e+003
6.478743e+002, 3.590307e+003
6.483564e+002, 3.548137e+003
6.488385e+002, 3.509509e+003
6.493206e+002, 3.476597e+003
6.498027e+002, 3.448608e+003
6.502849e+002, 3.422249e+003
6.507670e+002, 3.397430e+003
6.512491e+002, 3.374611e+003
6.517312e+002, 3.353825e+003
6.522133e+002, 3.335814e+003
6.526954e+002, 3.321883e+003
6.531776e+002, 3.312813e+003
6.536597e+002, 3.305910e+003
6.541418e+002, 3.299247e+003
6.546239e+002, 3.293766e+003
6.551060e+002, 3.290518e+003
6.555881e+002, 3.290602e+003
6.560703e+002, 3.291924e+003
6.565524e+002, 3.294507e+003
6.570345e+002, 3.298094e+003
6.575166e+002, 3.302200e+003
6.579987e+002, 3.306667e+003
6.584808e+002, 3.312070e+003
6.589630e+002, 3.318636e+003
6.594451e+002, 3.326233e+003
6.599272e+002, 3.334789e+003
6.604093e+002, 3.344311e+003
6.608914e+002, 3.353694e+003
6.613735e+002, 3.361667e+003
6.618557e+002, 3.369357e+003
6.623378e+002, 3.379323e+003
6.628199e+002, 3.391379e+003
6.633020e+002, 3.403641e+003
6.637841e+002, 3.415135e+003
6.642662e+002, 3.426231e+003
6.647484e+002, 3.437599e+003
6.652305e+002, 3.449508e+003
6.657126e+002, 3.459708e+003
6.661947e+002, 3.466093e+003
6.666768e+002, 3.471612e+003
6.671589e+002, 3.478787e+003
6.676411e+002, 3.491177e+003
6.681232e+002, 3.497239e+003
6.686053e+002, 3.495798e+003
6.690874e+002, 3.489464e+003
6.695695e+002, 3.481005e+003
6.700516e+002, 3.470372e+003
6.705338e+002, 3.458894e+003
6.710159e+002, 3.447015e+003
6.714980e+002, 3.433853e+003
6.719801e+002, 3.417653e+003
6.724622e+002, 3.399111e+003
6.729443e+002, 3.380637e+003
6.734265e+002, 3.363073e+003
6.739086e+002, 3.345916e+003
6.743907e+002, 3.327958e+003
6.748728e+002, 3.309852e+003
6.753549e+002, 3.293884e+003
6.758370e+002, 3.282619e+003
6.763192e+002, 3.271481e+003
6.768013e+002, 3.258244e+003
6.772834e+002, 3.243207e+003
6.777655e+002, 3.231856e+003
6.782476e+002, 3.225537e+003
6.787297e+002, 3.220350e+003
6.792119e+002, 3.214450e+003
6.796940e+002, 3.207870e+003
6.801761e+002, 3.201985e+003
6.806582e+002, 3.196857e+003
6.811403e+002, 3.191861e+003
6.816224e+002, 3.186083e+003
6.821046e+002, 3.180114e+003
6.825867e+002, 3.175145e+003
6.830688e+002, 3.171256e+003
6.835509e+002, 3.168395e+003
6.840330e+002, 3.167074e+003
6.845151e+002, 3.166433e+003
6.849973e+002, 3.165565e+003
6.854794e+002, 3.164041e+003
6.859615e+002, 3.162666e+003
6.864436e+002, 3.161725e+003
6.869257e+002, 3.160930e+003
6.874078e+002, 3.159886e+003
6.878900e+002, 3.158300e+003
6.883721e+002, 3.157422e+003
6.888542e+002, 3.157789e+003
6.893363e+002, 3.158581e+003
6.898184e+002, 3.157996e+003
6.903005e+002, 3.156140e+003
6.907827e+002, 3.154132e+003
6.912648e+002, 3.152094e+003
6.917469e+002, 3.150451e+003
6.922290e+002, 3.149669e+003
6.927111e+002, 3.149761e+003
6.931932e+002, 3.150861e+003
6.936754e+002, 3.154049e+003
6.941575e+002, 3.157309e+003
6.946396e+002, 3.159459e+003
6.951217e+002, 3.160502e+003
6.956038e+002, 3.161405e+003
6.960859e+002, 3.162936e+003
6.965681e+002, 3.163554e+003
6.970502e+002, 3.161986e+003
6.975323e+002, 3.158027e+003
6.980144e+002, 3.157710e+003
6.984965e+002, 3.161969e+003
6.989786e+002, 3.166593e+003
6.994608e+002, 3.168395e+003
6.999429e+002, 3.167897e+003
7.004250e+002, 3.167257e+003
7.009071e+002, 3.166615e+003
7.013892e+002, 3.165953e+003
7.018713e+002, 3.164763e+003
7.023535e+002, 3.163778e+003
7.028356e+002, 3.163926e+003
7.033177e+002, 3.165504e+003
7.037998e+002, 3.167885e+003
7.042819e+002, 3.171914e+003
7.047640e+002, 3.176098e+003
7.052462e+002, 3.178775e+003
7.057283e+002, 3.178882e+003
7.062104e+002, 3.179038e+003
7.066925e+002, 3.179095e+003
7.071746e+002, 3.179454e+003
7.076567e+002, 3.181017e+003
7.081389e+002, 3.183876e+003
7.086210e+002, 3.186228e+003
7.091031e+002, 3.187589e+003
7.095852e+002, 3.188400e+003
7.100673e+002, 3.189580e+003
7.105494e+002, 3.190856e+003
7.110316e+002, 3.191425e+003
7.115137e+002, 3.189465e+003
7.119958e+002, 3.188005e+003
7.124779e+002, 3.189337e+003
7.129600e+002, 3.192839e+003
7.134421e+002, 3.196548e+003
7.139243e+002, 3.200415e+003
7.144064e+002, 3.203950e+003
7.148885e+002, 3.206914e+003
7.153706e+002, 3.209387e+003
7.158527e+002, 3.211820e+003
7.163348e+002, 3.214171e+003
7.168170e+002, 3.216592e+003
7.172991e+002, 3.219608e+003
7.177812e+002, 3.222785e+003
7.182633e+002, 3.222724e+003
7.187454e+002, 3.219539e+003
7.192275e+002, 3.217874e+003
7.197097e+002, 3.222861e+003
7.201918e+002, 3.230196e+003
7.206739e+002, 3.234344e+003
7.211560e+002, 3.234825e+003
7.216381e+002, 3.236014e+003
7.221202e+002, 3.241323e+003
7.226024e+002, 3.247091e+003
7.230845e+002, 3.250928e+003
7.235666e+002, 3.252438e+003
7.240487e+002, 3.252417e+003
7.245308e+002, 3.249649e+003
7.250129e+002, 3.246996e+003
7.254951e+002, 3.247349e+003
7.259772e+002, 3.250955e+003
7.264593e+002, 3.253042e+003
7.269414e+002, 3.253262e+003
7.274235e+002, 3.251928e+003
7.279056e+002, 3.248431e+003
7.283878e+002, 3.243750e+003
7.288699e+002, 3.240147e+003
7.293520e+002, 3.238408e+003
7.298341e+002, 3.236848e+003
7.303162e+002, 3.234214e+003
7.307983e+002, 3.231129e+003
7.312805e+002, 3.228347e+003
7.317626e+002, 3.226403e+003
7.322447e+002, 3.224294e+003
7.327268e+002, 3.221402e+003
7.332089e+002, 3.218615e+003
7.336910e+002, 3.217638e+003
7.341732e+002, 3.219011e+003
7.346553e+002, 3.219888e+003
7.351374e+002, 3.219660e+003
7.356195e+002, 3.218686e+003
7.361016e+002, 3.216882e+003
7.365837e+002, 3.214703e+003
7.370659e+002, 3.214219e+003
7.375480e+002, 3.217801e+003
7.380301e+002, 3.221822e+003
7.385122e+002, 3.222552e+003
7.389943e+002, 3.221069e+003
7.394764e+002, 3.220161e+003
7.399586e+002, 3.222018e+003
7.404407e+002, 3.223250e+003
7.409228e+002, 3.221888e+003
7.414049e+002, 3.218764e+003
7.418870e+002, 3.217699e+003
7.423691e+002, 3.219306e+003
7.428513e+002, 3.221495e+003
7.433334e+002, 3.224117e+003
7.438155e+002, 3.226625e+003
7.442976e+002, 3.226125e+003
7.447797e+002, 3.222784e+003
7.452618e+002, 3.219327e+003
7.457440e+002, 3.217490e+003
7.462261e+002, 3.216439e+003
7.467082e+002, 3.215274e+003
7.471903e+002, 3.213973e+003
7.476724e+002, 3.212578e+003
7.481545e+002, 3.210371e+003
7.486367e+002, 3.208694e+003
7.491188e+002, 3.208926e+003
7.496009e+002, 3.211499e+003
7.500830e+002, 3.211128e+003
7.505651e+002, 3.206351e+003
7.510472e+002, 3.201231e+003
7.515294e+002, 3.198086e+003
7.520115e+002, 3.196837e+003
7.524936e+002, 3.196830e+003
7.529757e+002, 3.198194e+003
7.534578e+002, 3.198610e+003
7.539399e+002, 3.194608e+003
7.544221e+002, 3.189027e+003
7.549042e+002, 3.186531e+003
7.553863e+002, 3.187848e+003
7.558684e+002, 3.189174e+003
7.563505e+002, 3.188388e+003
7.568326e+002, 3.186973e+003
7.573148e+002, 3.186130e+003
7.577969e+002, 3.186430e+003
7.582790e+002, 3.186118e+003
7.587611e+002, 3.184832e+003
7.592432e+002, 3.183426e+003
7.597253e+002, 3.182546e+003
7.602075e+002, 3.182171e+003
7.606896e+002, 3.182493e+003
7.611717e+002, 3.183661e+003
7.616538e+002, 3.184647e+003
7.621359e+002, 3.183405e+003
7.626180e+002, 3.181411e+003
7.631002e+002, 3.181639e+003
7.635823e+002, 3.185317e+003
7.640644e+002, 3.189083e+003
7.645465e+002, 3.191781e+003
7.650286e+002, 3.193372e+003
7.655107e+002, 3.193796e+003
7.659929e+002, 3.191992e+003
7.664750e+002, 3.190692e+003
7.669571e+002, 3.189939e+003
7.674392e+002, 3.189722e+003
7.679213e+002, 3.190047e+003
7.684034e+002, 3.190932e+003
7.688856e+002, 3.192230e+003
7.693677e+002, 3.193966e+003
7.698498e+002, 3.195864e+003
7.703319e+002, 3.197416e+003
7.708140e+002, 3.198853e+003
7.712961e+002, 3.200754e+003
7.717783e+002, 3.203587e+003
7.722604e+002, 3.206276e+003
7.727425e+002, 3.208109e+003
7.732246e+002, 3.209450e+003
7.737067e+002, 3.210919e+003
7.741888e+002, 3.213740e+003
7.746710e+002, 3.214764e+003
7.751531e+002, 3.212453e+003
7.756352e+002, 3.209340e+003
7.761173e+002, 3.210984e+003
7.765994e+002, 3.217573e+003
7.770815e+002, 3.221468e+003
7.775637e+002, 3.220047e+003
7.780458e+002, 3.216798e+003
7.785279e+002, 3.216398e+003
7.790100e+002, 3.218059e+003
7.794921e+002, 3.220009e+003
7.799742e+002, 3.221785e+003
7.804564e+002, 3.223348e+003
7.809385e+002, 3.224464e+003
7.814206e+002, 3.225356e+003
7.819027e+002, 3.226538e+003
7.823848e+002, 3.228148e+003
7.828669e+002, 3.229922e+003
7.833491e+002, 3.232324e+003
7.838312e+002, 3.234526e+003
7.843133e+002, 3.233782e+003
7.847954e+002, 3.230213e+003
7.852775e+002, 3.227973e+003
7.857596e+002, 3.228893e+003
7.862418e+002, 3.231306e+003
7.867239e+002, 3.233358e+003
7.872060e+002, 3.235062e+003
7.876881e+002, 3.236495e+003
7.881702e+002, 3.237516e+003
7.886523e+002, 3.238411e+003
7.891345e+002, 3.238866e+003
7.896166e+002, 3.239264e+003
7.900987e+002, 3.240873e+003
7.905808e+002, 3.244920e+003
7.910629e+002, 3.247599e+003
7.915450e+002, 3.247724e+003
7.920272e+002, 3.246084e+003
7.925093e+002, 3.244755e+003
7.929914e+002, 3.243699e+003
7.934735e+002, 3.242855e+003
7.939556e+002, 3.242372e+003
7.944377e+002, 3.241879e+003
7.949199e+002, 3.241079e+003
7.954020e+002, 3.239912e+003
7.958841e+002, 3.238254e+003
7.963662e+002, 3.234548e+003
7.968483e+002, 3.231947e+003
7.973304e+002, 3.232306e+003
7.978126e+002, 3.234671e+003
7.982947e+002, 3.235993e+003
7.987768e+002, 3.235677e+003
7.992589e+002, 3.236263e+003
7.997410e+002, 3.239391e+003
8.002231e+002, 3.243107e+003
8.007053e+002, 3.241046e+003
8.011874e+002, 3.234339e+003
8.016695e+002, 3.229240e+003
8.021516e+002, 3.229994e+003
8.026337e+002, 3.232677e+003
8.031158e+002, 3.234704e+003
8.035980e+002, 3.235880e+003
8.040801e+002, 3.235744e+003
8.045622e+002, 3.231226e+003
8.050443e+002, 3.228789e+003
8.055264e+002, 3.231039e+003
8.060085e+002, 3.236335e+003
8.064907e+002, 3.239483e+003
8.069728e+002, 3.240264e+003
8.074549e+002, 3.239785e+003
8.079370e+002, 3.237844e+003
8.084191e+002, 3.235472e+003
8.089012e+002, 3.234844e+003
8.093834e+002, 3.235678e+003
8.098655e+002, 3.236957e+003
8.103476e+002, 3.238716e+003
8.108297e+002, 3.240281e+003
8.113118e+002, 3.241022e+003
8.117939e+002, 3.241237e+003
8.122761e+002, 3.241803e+003
8.127582e+002, 3.243802e+003
8.132403e+002, 3.244797e+003
8.137224e+002, 3.243777e+003
8.142045e+002, 3.241698e+003
8.146866e+002, 3.241495e+003
8.151688e+002, 3.243192e+003
8.156509e+002, 3.245050e+003
8.161330e+002, 3.246168e+003
8.166151e+002, 3.247425e+003
8.170972e+002, 3.250632e+003
8.175793e+002, 3.255004e+003
8.180615e+002, 3.258625e+003
8.185436e+002, 3.261160e+003
8.190257e+002, 3.262157e+003
8.195078e+002, 3.260058e+003
8.199899e+002, 3.256285e+003
8.204720e+002, 3.254808e+003
8.209542e+002, 3.256472e+003
8.214363e+002, 3.258485e+003
8.219184e+002, 3.260617e+003
8.224005e+002, 3.262342e+003
8.228826e+002, 3.261911e+003
8.233647e+002, 3.259773e+003
8.238469e+002, 3.258598e+003
8.243290e+002, 3.260237e+003
8.248111e+002, 3.262013e+003
8.252932e+002, 3.260714e+003
8.257753e+002, 3.257894e+003
8.262574e+002, 3.256635e+003
8.267396e+002, 3.259458e+003
8.272217e+002, 3.261922e+003
8.277038e+002, 3.263542e+003
8.281859e+002, 3.264266e+003
8.286681e+002, 3.263658e+003
8.291502e+002, 3.261416e+003
8.296323e+002, 3.260094e+003
8.301144e+002, 3.260478e+003
8.305966e+002, 3.261554e+003
8.310787e+002, 3.261778e+003
8.315608e+002, 3.261452e+003
8.320429e+002, 3.261319e+003
8.325250e+002, 3.261639e+003
8.330071e+002, 3.262192e+003
8.334893e+002, 3.263016e+003
8.339714e+002, 3.263961e+003
8.344535e+002, 3.264805e+003
8.349356e+002, 3.265536e+003
8.354177e+002, 3.266164e+003
8.358998e+002, 3.266677e+003
8.363820e+002, 3.267076e+003
8.368641e+002, 3.267117e+003
8.373462e+002, 3.266914e+003
8.378283e+002, 3.267676e+003
8.383104e+002, 3.269926e+003
8.387925e+002, 3.272136e+003
8.392747e+002, 3.272807e+003
8.397568e+002, 3.272490e+003
8.402389e+002, 3.271814e+003
8.407210e+002, 3.269862e+003
8.412031e+002, 3.269564e+003
8.416852e+002, 3.273133e+003
8.421674e+002, 3.277454e+003
8.426495e+002, 3.279417e+003
8.431316e+002, 3.278484e+003
8.436137e+002, 3.278745e+003
8.440958e+002, 3.280798e+003
8.445779e+002, 3.283054e+003
8.450601e+002, 3.282910e+003
8.455422e+002, 3.281772e+003
8.460243e+002, 3.282863e+003
8.465064e+002, 3.287096e+003
8.469885e+002, 3.291445e+003
8.474706e+002, 3.293659e+003
8.479528e+002, 3.295590e+003
8.484349e+002, 3.298786e+003
8.489170e+002, 3.303391e+003
8.493991e+002, 3.309375e+003
8.498812e+002, 3.317901e+003
8.503633e+002, 3.325436e+003
8.508455e+002, 3.328109e+003
8.513276e+002, 3.326767e+003
8.518097e+002, 3.327145e+003
8.522918e+002, 3.329559e+003
8.527739e+002, 3.333071e+003
8.532560e+002, 3.338959e+003
8.537382e+002, 3.344352e+003
8.542203e+002, 3.346163e+003
8.547024e+002, 3.343801e+003
8.551845e+002, 3.341581e+003
8.556666e+002, 3.340828e+003
8.561487e+002, 3.339995e+003
8.566309e+002, 3.337996e+003
8.571130e+002, 3.334912e+003
8.575951e+002, 3.334367e+003
8.580772e+002, 3.336599e+003
8.585593e+002, 3.338386e+003
8.590414e+002, 3.336251e+003
8.595236e+002, 3.332908e+003
8.600057e+002, 3.333839e+003
8.604878e+002, 3.338248e+003
8.609699e+002, 3.340127e+003
8.614520e+002, 3.333208e+003
8.619341e+002, 3.326515e+003
8.624163e+002, 3.324696e+003
8.628984e+002, 3.327059e+003
8.633805e+002, 3.329224e+003
8.638626e+002, 3.331407e+003
8.643447e+002, 3.332767e+003
8.648268e+002, 3.332996e+003
8.653090e+002, 3.332184e+003
8.657911e+002, 3.329621e+003
8.662732e+002, 3.325924e+003
8.667553e+002, 3.323809e+003
8.672374e+002, 3.325478e+003
8.677195e+002, 3.328252e+003
8.682017e+002, 3.331551e+003
8.686838e+002, 3.334667e+003
8.691659e+002, 3.335340e+003
8.696480e+002, 3.331811e+003
8.701301e+002, 3.328951e+003
8.706122e+002, 3.327983e+003
8.710944e+002, 3.327846e+003
8.715765e+002, 3.325927e+003
8.720586e+002, 3.322571e+003
8.725407e+002, 3.320256e+003
8.730228e+002, 3.320062e+003
8.735049e+002, 3.320602e+003
8.739871e+002, 3.321192e+003
8.744692e+002, 3.321535e+003
8.749513e+002, 3.321150e+003
8.754334e+002, 3.319984e+003
8.759155e+002, 3.317944e+003
8.763976e+002, 3.313801e+003
8.768798e+002, 3.310008e+003
8.773619e+002, 3.309842e+003
8.778440e+002, 3.313526e+003
8.783261e+002, 3.316545e+003
8.788082e+002, 3.318343e+003
8.792903e+002, 3.319480e+003
8.797725e+002, 3.320614e+003
8.802546e+002, 3.321406e+003
8.807367e+002, 3.321057e+003
8.812188e+002, 3.318948e+003
8.817009e+002, 3.317775e+003
8.821830e+002, 3.319791e+003
8.826652e+002, 3.321952e+003
8.831473e+002, 3.321921e+003
8.836294e+002, 3.319126e+003
8.841115e+002, 3.318112e+003
8.845936e+002, 3.319227e+003
8.850757e+002, 3.320567e+003
8.855579e+002, 3.320261e+003
8.860400e+002, 3.319326e+003
8.865221e+002, 3.320697e+003
8.870042e+002, 3.324177e+003
8.874863e+002, 3.325601e+003
8.879684e+002, 3.319505e+003
8.884506e+002, 3.313690e+003
8.889327e+002, 3.313430e+003
8.894148e+002, 3.318354e+003
8.898969e+002, 3.320814e+003
8.903790e+002, 3.319685e+003
8.908611e+002, 3.319446e+003
8.913433e+002, 3.322438e+003
8.918254e+002, 3.327219e+003
8.923075e+002, 3.330099e+003
8.927896e+002, 3.331396e+003
8.932717e+002, 3.332583e+003
8.937538e+002, 3.334668e+003
8.942360e+002, 3.336552e+003
8.947181e+002, 3.337071e+003
8.952002e+002, 3.336857e+003
8.956823e+002, 3.337712e+003
8.961644e+002, 3.340538e+003
8.966465e+002, 3.342623e+003
8.971287e+002, 3.343351e+003
8.976108e+002, 3.343404e+003
8.980929e+002, 3.344377e+003
8.985750e+002, 3.345899e+003
8.990571e+002, 3.345923e+003
8.995392e+002, 3.343453e+003
9.000214e+002, 3.340862e+003
9.005035e+002, 3.340210e+003
9.009856e+002, 3.340457e+003
9.014677e+002, 3.340311e+003
9.019498e+002, 3.338507e+003
9.024319e+002, 3.338474e+003
9.029141e+002, 3.341495e+003
9.033962e+002, 3.344434e+003
9.038783e+002, 3.343800e+003
9.043604e+002, 3.340055e+003
9.048425e+002, 3.337790e+003
9.053246e+002, 3.337272e+003
9.058068e+002, 3.338156e+003
9.062889e+002, 3.341216e+003
9.067710e+002, 3.344766e+003
9.072531e+002, 3.347192e+003
9.077352e+002, 3.348235e+003
9.082173e+002, 3.349401e+003
9.086995e+002, 3.351063e+003
9.091816e+002, 3.352700e+003
9.096637e+002, 3.354343e+003
9.101458e+002, 3.355802e+003
9.106279e+002, 3.355248e+003
9.111100e+002, 3.352798e+003
9.115922e+002, 3.350679e+003
9.120743e+002, 3.350188e+003
9.125564e+002, 3.350617e+003
9.130385e+002, 3.350938e+003
9.135206e+002, 3.351561e+003
9.140027e+002, 3.353712e+003
9.144849e+002, 3.360507e+003
9.149670e+002, 3.365269e+003
9.154491e+002, 3.366097e+003
9.159312e+002, 3.364732e+003
9.164133e+002, 3.364728e+003
9.168954e+002, 3.366056e+003
9.173776e+002, 3.367534e+003
9.178597e+002, 3.368859e+003
9.183418e+002, 3.370275e+003
9.188239e+002, 3.372445e+003
9.193060e+002, 3.374712e+003
9.197881e+002, 3.376107e+003
9.202703e+002, 3.375882e+003
9.207524e+002, 3.375737e+003
9.212345e+002, 3.375390e+003
9.217166e+002, 3.375725e+003
9.221987e+002, 3.377870e+003
9.226808e+002, 3.381928e+003
9.231630e+002, 3.384626e+003
9.236451e+002, 3.385756e+003
9.241272e+002, 3.386810e+003
9.246093e+002, 3.389372e+003
9.250914e+002, 3.392368e+003
9.255735e+002, 3.394590e+003
9.260557e+002, 3.395921e+003
9.265378e+002, 3.396992e+003
9.270199e+002, 3.397179e+003
9.275020e+002, 3.398065e+003
9.279841e+002, 3.400754e+003
9.284662e+002, 3.404663e+003
9.289484e+002, 3.406184e+003
9.294305e+002, 3.405355e+003
9.299126e+002, 3.403744e+003
9.303947e+002, 3.401677e+003
9.308768e+002, 3.399682e+003
9.313589e+002, 3.398806e+003
9.318411e+002, 3.398486e+003
9.323232e+002, 3.397471e+003
9.328053e+002, 3.394362e+003
9.332874e+002, 3.391926e+003
9.337695e+002, 3.390462e+003
9.342516e+002, 3.390010e+003
9.347338e+002, 3.391124e+003
9.352159e+002, 3.393807e+003
9.356980e+002, 3.395214e+003
9.361801e+002, 3.394790e+003
9.366622e+002, 3.393588e+003
9.371443e+002, 3.392327e+003
9.376265e+002, 3.391055e+003
9.381086e+002, 3.389843e+003
9.385907e+002, 3.388654e+003
9.390728e+002, 3.387460e+003
9.395549e+002, 3.385655e+003
9.400370e+002, 3.384519e+003
9.405192e+002, 3.385241e+003
9.410013e+002, 3.387631e+003
9.414834e+002, 3.387910e+003
9.419655e+002, 3.386115e+003
9.424476e+002, 3.384649e+003
9.429297e+002, 3.385726e+003
9.434119e+002, 3.387431e+003
9.438940e+002, 3.387861e+003
9.443761e+002, 3.387244e+003
9.448582e+002, 3.386827e+003
9.453403e+002, 3.386734e+003
9.458224e+002, 3.387151e+003
9.463046e+002, 3.388250e+003
9.467867e+002, 3.389831e+003
9.472688e+002, 3.391556e+003
9.477509e+002, 3.393393e+003
9.482330e+002, 3.394661e+003
9.487151e+002, 3.394687e+003
9.491973e+002, 3.395496e+003
9.496794e+002, 3.399658e+003
9.501615e+002, 3.405379e+003
9.506436e+002, 3.410544e+003
9.511257e+002, 3.414802e+003
9.516078e+002, 3.418147e+003
9.520900e+002, 3.419944e+003
9.525721e+002, 3.421962e+003
9.530542e+002, 3.425759e+003
9.535363e+002, 3.431126e+003
9.540184e+002, 3.437187e+003
9.545005e+002, 3.443791e+003
9.549827e+002, 3.449673e+003
9.554648e+002, 3.452693e+003
9.559469e+002, 3.455620e+003
9.564290e+002, 3.460417e+003
9.569111e+002, 3.467126e+003
9.573932e+002, 3.474398e+003
9.578754e+002, 3.482632e+003
9.583575e+002, 3.490165e+003
9.588396e+002, 3.496048e+003
9.593217e+002, 3.501196e+003
9.598038e+002, 3.508700e+003
9.602859e+002, 3.517430e+003
9.607681e+002, 3.523050e+003
9.612502e+002, 3.521532e+003
9.617323e+002, 3.520605e+003
9.622144e+002, 3.526745e+003
9.626965e+002, 3.535051e+003
9.631786e+002, 3.538926e+003
9.636608e+002, 3.536087e+003
9.641429e+002, 3.534969e+003
9.646250e+002, 3.536160e+003
9.651071e+002, 3.538302e+003
9.655892e+002, 3.541325e+003
9.660714e+002, 3.543995e+003
9.665535e+002, 3.542862e+003
9.670356e+002, 3.537809e+003
9.675177e+002, 3.533441e+003
9.679998e+002, 3.533302e+003
9.684819e+002, 3.533362e+003
9.689641e+002, 3.530765e+003
9.694462e+002, 3.526143e+003
9.699283e+002, 3.524589e+003
9.704104e+002, 3.526519e+003
9.708925e+002, 3.528122e+003
9.713746e+002, 3.527851e+003
9.718568e+002, 3.526443e+003
9.723389e+002, 3.523898e+003
9.728210e+002, 3.521196e+003
9.733031e+002, 3.520453e+003
9.737852e+002, 3.524682e+003
9.742673e+002, 3.527780e+003
9.747495e+002, 3.528399e+003
9.752316e+002, 3.527574e+003
9.757137e+002, 3.525812e+003
9.761958e+002, 3.523006e+003
9.766779e+002, 3.522802e+003
9.771600e+002, 3.525779e+003
9.776422e+002, 3.528217e+003
9.781243e+002, 3.525273e+003
9.786064e+002, 3.521180e+003
9.790885e+002, 3.521215e+003
9.795706e+002, 3.525903e+003
9.800527e+002, 3.528344e+003
9.805349e+002, 3.526234e+003
9.810170e+002, 3.523523e+003
9.814991e+002, 3.521238e+003
9.819812e+002, 3.519495e+003
9.824633e+002, 3.518839e+003
9.829454e+002, 3.519159e+003
9.834276e+002, 3.519892e+003
9.839097e+002, 3.520920e+003
9.843918e+002, 3.522073e+003
9.848739e+002, 3.523370e+003
9.853560e+002, 3.524664e+003
9.858381e+002, 3.525770e+003
9.863203e+002, 3.527035e+003
9.868024e+002, 3.527257e+003
9.872845e+002, 3.526048e+003
9.877666e+002, 3.524789e+003
9.882487e+002, 3.525080e+003
9.887308e+002, 3.526446e+003
9.892130e+002, 3.527781e+003
9.896951e+002, 3.528974e+003
9.901772e+002, 3.529751e+003
9.906593e+002, 3.528534e+003
9.911414e+002, 3.528192e+003
9.916235e+002, 3.530865e+003
9.921057e+002, 3.535857e+003
9.925878e+002, 3.539857e+003
9.930699e+002, 3.542897e+003
9.935520e+002, 3.544229e+003
9.940341e+002, 3.543065e+003
9.945162e+002, 3.540885e+003
9.949984e+002, 3.539931e+003
9.954805e+002, 3.539521e+003
9.959626e+002, 3.538305e+003
9.964447e+002, 3.534382e+003
9.969268e+002, 3.532284e+003
9.974089e+002, 3.533641e+003
9.978911e+002, 3.536114e+003
9.983732e+002, 3.537928e+003
9.988553e+002, 3.539112e+003
9.993374e+002, 3.539335e+003
9.998195e+002, 3.538603e+003
1.000302e+003, 3.537399e+003
1.000784e+003, 3.535035e+003
1.001266e+003, 3.533172e+003
1.001748e+003, 3.533911e+003
1.002230e+003, 3.536869e+003
1.002712e+003, 3.537618e+003
1.003194e+003, 3.534193e+003
1.003676e+003, 3.532217e+003
1.004159e+003, 3.533422e+003
1.004641e+003, 3.536401e+003
1.005123e+003, 3.539063e+003
1.005605e+003, 3.541138e+003
1.006087e+003, 3.541822e+003
1.006569e+003, 3.540610e+003
1.007051e+003, 3.538785e+003
1.007533e+003, 3.535624e+003
1.008016e+003, 3.533226e+003
1.008498e+003, 3.533946e+003
1.008980e+003, 3.539019e+003
1.009462e+003, 3.540143e+003
1.009944e+003, 3.536973e+003
1.010426e+003, 3.532671e+003
1.010908e+003, 3.527618e+003
1.011390e+003, 3.524085e+003
1.011872e+003, 3.526187e+003
1.012355e+003, 3.532845e+003
1.012837e+003, 3.539081e+003
1.013319e+003, 3.544032e+003
1.013801e+003, 3.547240e+003
1.014283e+003, 3.548089e+003
1.014765e+003, 3.547610e+003
1.015247e+003, 3.547564e+003
1.015729e+003, 3.547927e+003
1.016211e+003, 3.548945e+003
1.016694e+003, 3.550979e+003
1.017176e+003, 3.552027e+003
1.017658e+003, 3.548992e+003
1.018140e+003, 3.545288e+003
1.018622e+003, 3.544167e+003
1.019104e+003, 3.546333e+003
1.019586e+003, 3.548754e+003
1.020068e+003, 3.551737e+003
1.020551e+003, 3.554163e+003
1.021033e+003, 3.555343e+003
1.021515e+003, 3.555647e+003
1.021997e+003, 3.555550e+003
1.022479e+003, 3.555224e+003
1.022961e+003, 3.555178e+003
1.023443e+003, 3.554608e+003
1.023925e+003, 3.555596e+003
1.024407e+003, 3.559543e+003
1.024890e+003, 3.564732e+003
1.025372e+003, 3.569368e+003
1.025854e+003, 3.573406e+003
1.026336e+003, 3.576309e+003
1.026818e+003, 3.577958e+003
1.027300e+003, 3.579051e+003
1.027782e+003, 3.579393e+003
1.028264e+003, 3.580068e+003
1.028746e+003, 3.582577e+003
1.029229e+003, 3.586993e+003
1.029711e+003, 3.590160e+003
1.030193e+003, 3.591445e+003
1.030675e+003, 3.592300e+003
1.031157e+003, 3.592453e+003
1.031639e+003, 3.593332e+003
1.032121e+003, 3.599917e+003
1.032603e+003, 3.610157e+003
1.033086e+003, 3.617211e+003
1.033568e+003, 3.617648e+003
1.034050e+003, 3.617661e+003
1.034532e+003, 3.619639e+003
1.035014e+003, 3.622775e+003
1.035496e+003, 3.626603e+003
1.035978e+003, 3.631424e+003
1.036460e+003, 3.634418e+003
1.036943e+003, 3.635409e+003
1.037425e+003, 3.636840e+003
1.037907e+003, 3.640203e+003
1.038389e+003, 3.645096e+003
1.038871e+003, 3.651738e+003
1.039353e+003, 3.659619e+003
1.039835e+003, 3.666578e+003
1.040317e+003, 3.670854e+003
1.040799e+003, 3.676524e+003
1.041281e+003, 3.684945e+003
1.041764e+003, 3.693833e+003
1.042246e+003, 3.698696e+003
1.042728e+003, 3.701028e+003
1.043210e+003, 3.706208e+003
1.043692e+003, 3.715746e+003
1.044174e+003, 3.723707e+003
1.044656e+003, 3.724650e+003
1.045138e+003, 3.724885e+003
1.045621e+003, 3.729105e+003
1.046103e+003, 3.736862e+003
1.046585e+003, 3.741366e+003
1.047067e+003, 3.742434e+003
1.047549e+003, 3.742470e+003
1.048031e+003, 3.742498e+003
1.048513e+003, 3.742108e+003
1.048995e+003, 3.740461e+003
1.049478e+003, 3.738151e+003
1.049960e+003, 3.736186e+003
1.050442e+003, 3.736042e+003
1.050924e+003, 3.734336e+003
1.051406e+003, 3.730812e+003
1.051888e+003, 3.726119e+003
1.052370e+003, 3.719643e+003
1.052852e+003, 3.712536e+003
1.053334e+003, 3.709580e+003
1.053817e+003, 3.710503e+003
1.054299e+003, 3.710715e+003
1.054781e+003, 3.707917e+003
1.055263e+003, 3.703541e+003
1.055745e+003, 3.696551e+003
1.056227e+003, 3.688941e+003
1.056709e+003, 3.686101e+003
1.057191e+003, 3.688336e+003
1.057673e+003, 3.688888e+003
1.058156e+003, 3.685980e+003
1.058638e+003, 3.682576e+003
1.059120e+003, 3.681772e+003
1.059602e+003, 3.682064e+003
1.060084e+003, 3.681522e+003
1.060566e+003, 3.679454e+003
1.061048e+003, 3.679844e+003
1.061530e+003, 3.684448e+003
1.062013e+003, 3.687451e+003
1.062495e+003, 3.685081e+003
1.062977e+003, 3.680016e+003
1.063459e+003, 3.679372e+003
1.063941e+003, 3.681647e+003
1.064423e+003, 3.682464e+003
1.064905e+003, 3.678840e+003
1.065387e+003, 3.675278e+003
1.065870e+003, 3.672531e+003
1.066352e+003, 3.671011e+003
1.066834e+003, 3.671518e+003
1.067316e+003, 3.674069e+003
1.067798e+003, 3.676019e+003
1.068280e+003, 3.677286e+003
1.068762e+003, 3.678638e+003
1.069244e+003, 3.681395e+003
1.069726e+003, 3.683845e+003
1.070208e+003, 3.684323e+003
1.070691e+003, 3.683194e+003
1.071173e+003, 3.682139e+003
1.071655e+003, 3.680672e+003
1.072137e+003, 3.681190e+003
1.072619e+003, 3.684574e+003
1.073101e+003, 3.688757e+003
1.073583e+003, 3.691000e+003
1.074065e+003, 3.692118e+003
1.074548e+003, 3.693705e+003
1.075030e+003, 3.696183e+003
1.075512e+003, 3.697272e+003
1.075994e+003, 3.694962e+003
1.076476e+003, 3.692944e+003
1.076958e+003, 3.692684e+003
1.077440e+003, 3.693868e+003
1.077922e+003, 3.695964e+003
1.078405e+003, 3.698616e+003
1.078887e+003, 3.699975e+003
1.079369e+003, 3.698624e+003
1.079851e+003, 3.697127e+003
1.080333e+003, 3.696458e+003
1.080815e+003, 3.696753e+003
1.081297e+003, 3.698102e+003
1.081779e+003, 3.700639e+003
1.082261e+003, 3.703756e+003
1.082744e+003, 3.707571e+003
1.083226e+003, 3.710697e+003
1.083708e+003, 3.711847e+003
1.084190e+003, 3.711995e+003
1.084672e+003, 3.710994e+003
1.085154e+003, 3.709767e+003
1.085636e+003, 3.711578e+003
1.086118e+003, 3.719160e+003
1.086601e+003, 3.724822e+003
1.087083e+003, 3.727437e+003
1.087565e+003, 3.728440e+003
1.088047e+003, 3.729042e+003
1.088529e+003, 3.729562e+003
1.089011e+003, 3.730954e+003
1.089493e+003, 3.733302e+003
1.089975e+003, 3.735003e+003
1.090458e+003, 3.733677e+003
1.090940e+003, 3.733688e+003
1.091422e+003, 3.737445e+003
1.091904e+003, 3.743156e+003
1.092386e+003, 3.744641e+003
1.092868e+003, 3.742625e+003
1.093350e+003, 3.741734e+003
1.093832e+003, 3.743501e+003
1.094314e+003, 3.746029e+003
1.094797e+003, 3.749079e+003
1.095279e+003, 3.751548e+003
1.095761e+003, 3.751800e+003
1.096243e+003, 3.749551e+003
1.096725e+003, 3.750878e+003
1.097207e+003, 3.756097e+003
1.097689e+003, 3.761701e+003
1.098171e+003, 3.766473e+003
1.098653e+003, 3.769926e+003
1.099136e+003, 3.770842e+003
1.099618e+003, 3.770213e+003
1.100100e+003, 3.769961e+003
1.100582e+003, 3.769985e+003
1.101064e+003, 3.771470e+003
1.101546e+003, 3.775055e+003
1.102028e+003, 3.778417e+003
1.102510e+003, 3.778555e+003
1.102993e+003, 3.777196e+003
1.103475e+003, 3.778906e+003
1.103957e+003, 3.783142e+003
1.104439e+003, 3.785490e+003
1.104921e+003, 3.782311e+003
1.105403e+003, 3.779234e+003
1.105885e+003, 3.777332e+003
1.106367e+003, 3.776710e+003
1.106849e+003, 3.778140e+003
1.107332e+003, 3.781208e+003
1.107814e+003, 3.783397e+003
1.108296e+003, 3.784274e+003
1.108778e+003, 3.785608e+003
1.109260e+003, 3.789348e+003
1.109742e+003, 3.793192e+003
1.110224e+003, 3.795667e+003
1.110706e+003, 3.796938e+003
1.111188e+003, 3.797959e+003
1.111671e+003, 3.798692e+003
1.112153e+003, 3.799418e+003
1.112635e+003, 3.799680e+003
1.113117e+003, 3.801300e+003
1.113599e+003, 3.808291e+003
1.114081e+003, 3.816432e+003
1.114563e+003, 3.820242e+003
1.115045e+003, 3.818168e+003
1.115528e+003, 3.817208e+003
1.116010e+003, 3.817597e+003
1.116492e+003, 3.818087e+003
1.116974e+003, 3.817924e+003
1.117456e+003, 3.817533e+003
1.117938e+003, 3.817770e+003
1.118420e+003, 3.818323e+003
1.118902e+003, 3.818481e+003
1.119385e+003, 3.816943e+003
1.119867e+003, 3.816955e+003
1.120349e+003, 3.819306e+003
1.120831e+003, 3.822010e+003
1.121313e+003, 3.823277e+003
1.121795e+003, 3.823428e+003
1.122277e+003, 3.823192e+003
1.122759e+003, 3.822669e+003
1.123241e+003, 3.822320e+003
1.123724e+003, 3.821749e+003
1.124206e+003, 3.822111e+003
1.124688e+003, 3.823629e+003
1.125170e+003, 3.826143e+003
1.125652e+003, 3.830189e+003
1.126134e+003, 3.835280e+003
1.126616e+003, 3.837669e+003
1.127098e+003, 3.836850e+003
1.127580e+003, 3.835542e+003
1.128063e+003, 3.834959e+003
1.128545e+003, 3.835103e+003
1.129027e+003, 3.836188e+003
1.129509e+003, 3.838024e+003
1.129991e+003, 3.840410e+003
1.130473e+003, 3.843423e+003
1.130955e+003, 3.844805e+003
1.131437e+003, 3.843573e+003
1.131920e+003, 3.842308e+003
1.132402e+003, 3.843933e+003
1.132884e+003, 3.846412e+003
1.133366e+003, 3.847448e+003
1.133848e+003, 3.846705e+003
1.134330e+003, 3.847613e+003
1.134812e+003, 3.850368e+003
1.135294e+003, 3.853635e+003
1.135776e+003, 3.857066e+003
1.136259e+003, 3.860211e+003
1.136741e+003, 3.861543e+003
1.137223e+003, 3.862494e+003
1.137705e+003, 3.865508e+003
1.138187e+003, 3.872611e+003
1.138669e+003, 3.878140e+003
1.139151e+003, 3.881698e+003
1.139633e+003, 3.884515e+003
1.140115e+003, 3.887553e+003
1.140598e+003, 3.890354e+003
1.141080e+003, 3.891448e+003
1.141562e+003, 3.891522e+003
1.142044e+003, 3.892528e+003
1.142526e+003, 3.895756e+003
1.143008e+003, 3.899336e+003
1.143490e+003, 3.903564e+003
1.143972e+003, 3.907294e+003
1.144455e+003, 3.908657e+003
1.144937e+003, 3.908676e+003
1.145419e+003, 3.910839e+003
1.145901e+003, 3.915093e+003
1.146383e+003, 3.919910e+003
1.146865e+003, 3.926851e+003
1.147347e+003, 3.931031e+003
1.147829e+003, 3.929363e+003
1.148312e+003, 3.926088e+003
1.148794e+003, 3.927859e+003
1.149276e+003, 3.934151e+003
1.149758e+003, 3.942286e+003
1.150240e+003, 3.951981e+003
1.150722e+003, 3.959690e+003
1.151204e+003, 3.960773e+003
1.151686e+003, 3.961604e+003
1.152168e+003, 3.966102e+003
1.152651e+003, 3.972927e+003
1.153133e+003, 3.978263e+003
1.153615e+003, 3.982138e+003
1.154097e+003, 3.985967e+003
1.154579e+003, 3.990015e+003
1.155061e+003, 3.993936e+003
1.155543e+003, 3.996883e+003
1.156025e+003, 3.999990e+003
1.156507e+003, 4.004833e+003
1.156990e+003, 4.011080e+003
1.157472e+003, 4.014773e+003
1.157954e+003, 4.015722e+003
1.158436e+003, 4.017765e+003
1.158918e+003, 4.022940e+003
1.159400e+003, 4.028087e+003
1.159882e+003, 4.029944e+003
1.160364e+003, 4.030050e+003
1.160847e+003, 4.029865e+003
1.161329e+003, 4.029310e+003
1.161811e+003, 4.030483e+003
1.162293e+003, 4.033710e+003
1.162775e+003, 4.036452e+003
1.163257e+003, 4.036684e+003
1.163739e+003, 4.036584e+003
1.164221e+003, 4.040234e+003
1.164703e+003, 4.045026e+003
1.165186e+003, 4.046305e+003
1.165668e+003, 4.040221e+003
1.166150e+003, 4.038088e+003
1.166632e+003, 4.041170e+003
1.167114e+003, 4.043507e+003
1.167596e+003, 4.038770e+003
1.168078e+003, 4.031778e+003
1.168560e+003, 4.030898e+003
1.169042e+003, 4.034321e+003
1.169525e+003, 4.037184e+003
1.170007e+003, 4.038792e+003
1.170489e+003, 4.038539e+003
1.170971e+003, 4.035627e+003
1.171453e+003, 4.032877e+003
1.171935e+003, 4.034488e+003
1.172417e+003, 4.037531e+003
1.172899e+003, 4.034222e+003
1.173382e+003, 4.026254e+003
1.173864e+003, 4.023199e+003
1.174346e+003, 4.034911e+003
1.174828e+003, 4.042028e+003
1.175310e+003, 4.040989e+003
1.175792e+003, 4.036261e+003
1.176274e+003, 4.032153e+003
1.176756e+003, 4.029185e+003
1.177239e+003, 4.028617e+003
1.177721e+003, 4.030460e+003
1.178203e+003, 4.033394e+003
1.178685e+003, 4.039315e+003
1.179167e+003, 4.042751e+003
1.179649e+003, 4.041448e+003
1.180131e+003, 4.038275e+003
1.180613e+003, 4.038524e+003
1.181095e+003, 4.041153e+003
1.181578e+003, 4.043442e+003
1.182060e+003, 4.045035e+003
1.182542e+003, 4.045452e+003
1.183024e+003, 4.042684e+003
1.183506e+003, 4.040854e+003
1.183988e+003, 4.041077e+003
1.184470e+003, 4.043523e+003
1.184952e+003, 4.050709e+003
1.185434e+003, 4.060582e+003
1.185917e+003, 4.065350e+003
1.186399e+003, 4.062293e+003
1.186881e+003, 4.058879e+003
1.187363e+003, 4.057063e+003
1.187845e+003, 4.057733e+003
1.188327e+003, 4.062080e+003
1.188809e+003, 4.068752e+003
1.189291e+003, 4.072595e+003
1.189774e+003, 4.074122e+003
1.190256e+003, 4.075960e+003
1.190738e+003, 4.079141e+003
1.191220e+003, 4.082067e+003
1.191702e+003, 4.083933e+003
1.192184e+003, 4.085224e+003
1.192666e+003, 4.085847e+003
1.193148e+003, 4.086137e+003
1.193630e+003, 4.088794e+003
1.194113e+003, 4.093407e+003
1.194595e+003, 4.097602e+003
1.195077e+003, 4.100632e+003
1.195559e+003, 4.102588e+003
1.196041e+003, 4.103058e+003
1.196523e+003, 4.102802e+003
1.197005e+003, 4.102063e+003
1.197487e+003, 4.100968e+003
1.197969e+003, 4.101837e+003
1.198452e+003, 4.104444e+003
1.198934e+003, 4.107060e+003
1.199416e+003, 4.108606e+003
1.199898e+003, 4.110165e+003
1.200380e+003, 4.112416e+003
1.200862e+003, 4.114815e+003
1.201344e+003, 4.116230e+003
1.201826e+003, 4.116683e+003
1.202309e+003, 4.121818e+003
1.202791e+003, 4.131131e+003
1.203273e+003, 4.138200e+003
1.203755e+003, 4.136545e+003
1.204237e+003, 4.134886e+003
1.204719e+003, 4.138436e+003
1.205201e+003, 4.143889e+003
1.205683e+003, 4.147167e+003
1.206166e+003, 4.148263e+003
1.206648e+003, 4.150508e+003
1.207130e+003, 4.153992e+003
1.207612e+003, 4.158491e+003
1.208094e+003, 4.165293e+003
1.208576e+003, 4.171429e+003
1.209058e+003, 4.174772e+003
1.209540e+003, 4.176656e+003
1.210022e+003, 4.178704e+003
1.210505e+003, 4.180940e+003
1.210987e+003, 4.183539e+003
1.211469e+003, 4.186520e+003
1.211951e+003, 4.188923e+003
1.212433e+003, 4.189060e+003
1.212915e+003, 4.189665e+003
1.213397e+003, 4.192468e+003
1.213879e+003, 4.196706e+003
1.214361e+003, 4.201767e+003
1.214844e+003, 4.207481e+003
1.215326e+003, 4.210812e+003
1.215808e+003, 4.211384e+003
1.216290e+003, 4.211440e+003
1.216772e+003, 4.211368e+003
1.217254e+003, 4.212422e+003
1.217736e+003, 4.215800e+003
1.218218e+003, 4.220424e+003
1.218701e+003, 4.224230e+003
1.219183e+003, 4.227259e+003
1.219665e+003, 4.230754e+003
1.220147e+003, 4.234913e+003
1.220629e+003, 4.237992e+003
1.221111e+003, 4.236444e+003
1.221593e+003, 4.236175e+003
1.222075e+003, 4.241976e+003
1.222557e+003, 4.250421e+003
1.223040e+003, 4.252005e+003
1.223522e+003, 4.247690e+003
1.224004e+003, 4.244846e+003
1.224486e+003, 4.244875e+003
1.224968e+003, 4.245872e+003
1.225450e+003, 4.248357e+003
1.225932e+003, 4.249639e+003
1.226414e+003, 4.247862e+003
1.226896e+003, 4.244353e+003
1.227379e+003, 4.243104e+003
1.227861e+003, 4.243797e+003
1.228343e+003, 4.244640e+003
1.228825e+003, 4.245303e+003
1.229307e+003, 4.245686e+003
1.229789e+003, 4.244920e+003
1.230271e+003, 4.244795e+003
1.230753e+003, 4.246789e+003
1.231236e+003, 4.249667e+003
1.231718e+003, 4.249008e+003
1.232200e+003, 4.245563e+003
1.232682e+003, 4.242272e+003
1.233164e+003, 4.239738e+003
1.233646e+003, 4.238037e+003
1.234128e+003, 4.237327e+003
1.234610e+003, 4.237515e+003
1.235093e+003, 4.238887e+003
1.235575e+003, 4.240952e+003
1.236057e+003, 4.241603e+003
1.236539e+003, 4.241525e+003
1.237021e+003, 4.243425e+003
1.237503e+003, 4.249170e+003
1.237985e+003, 4.252638e+003
1.238467e+003, 4.249187e+003
1.238949e+003, 4.245795e+003
1.239432e+003, 4.245717e+003
1.239914e+003, 4.247676e+003
1.240396e+003, 4.247488e+003
1.240878e+003, 4.246114e+003
1.241360e+003, 4.246403e+003
1.241842e+003, 4.249704e+003
1.242324e+003, 4.252950e+003
1.242806e+003, 4.255850e+003
1.243288e+003, 4.257860e+003
1.243771e+003, 4.258116e+003
1.244253e+003, 4.257827e+003
1.244735e+003, 4.260475e+003
1.245217e+003, 4.265033e+003
1.245699e+003, 4.269066e+003
1.246181e+003, 4.271708e+003
1.246663e+003, 4.274448e+003
1.247145e+003, 4.277895e+003
1.247628e+003, 4.280542e+003
1.248110e+003, 4.280875e+003
1.248592e+003, 4.280566e+003
1.249074e+003, 4.284168e+003
1.249556e+003, 4.289507e+003
1.250038e+003, 4.292299e+003
1.250520e+003, 4.290028e+003
1.251002e+003, 4.288334e+003
1.251484e+003, 4.286856e+003
1.251967e+003, 4.287899e+003
1.252449e+003, 4.294486e+003
1.252931e+003, 4.302518e+003
1.253413e+003, 4.304542e+003
1.253895e+003, 4.303583e+003
1.254377e+003, 4.305119e+003
1.254859e+003, 4.311783e+003
1.255341e+003, 4.316376e+003
1.255823e+003, 4.318577e+003
1.256306e+003, 4.320127e+003
1.256788e+003, 4.321906e+003
1.257270e+003, 4.323703e+003
1.257752e+003, 4.325411e+003
1.258234e+003, 4.326936e+003
1.258716e+003, 4.327873e+003
1.259198e+003, 4.327560e+003
1.259680e+003, 4.330680e+003
1.260163e+003, 4.337937e+003
1.260645e+003, 4.342403e+003
1.261127e+003, 4.337526e+003
1.261609e+003, 4.331584e+003
1.262091e+003, 4.333433e+003
1.262573e+003, 4.338146e+003
1.263055e+003, 4.338143e+003
1.263537e+003, 4.331881e+003
1.264020e+003, 4.332301e+003
1.264502e+003, 4.339276e+003
1.264984e+003, 4.346180e+003
1.265466e+003, 4.347290e+003
1.265948e+003, 4.349256e+003
1.266430e+003, 4.359514e+003
1.266912e+003, 4.370684e+003
1.267394e+003, 4.373701e+003
1.267876e+003, 4.368338e+003
1.268359e+003, 4.367757e+003
1.268841e+003, 4.371436e+003
1.269323e+003, 4.374672e+003
1.269805e+003, 4.374391e+003
1.270287e+003, 4.373874e+003
1.270769e+003, 4.374390e+003
1.271251e+003, 4.375530e+003
1.271733e+003, 4.377000e+003
1.272215e+003, 4.378876e+003
1.272698e+003, 4.382341e+003
1.273180e+003, 4.386789e+003
1.273662e+003, 4.389136e+003
1.274144e+003, 4.385477e+003
1.274626e+003, 4.383273e+003
1.275108e+003, 4.384426e+003
1.275590e+003, 4.386859e+003
1.276072e+003, 4.389036e+003
1.276555e+003, 4.391175e+003
1.277037e+003, 4.394501e+003
1.277519e+003, 4.398369e+003
1.278001e+003, 4.400947e+003
1.278483e+003, 4.399073e+003
1.278965e+003, 4.399886e+003
1.279447e+003, 4.404575e+003
1.279929e+003, 4.409797e+003
1.280411e+003, 4.413321e+003
1.280894e+003, 4.415384e+003
1.281376e+003, 4.415552e+003
1.281858e+003, 4.414800e+003
1.282340e+003, 4.415407e+003
1.282822e+003, 4.418638e+003
1.283304e+003, 4.421761e+003
1.283786e+003, 4.424771e+003
1.284268e+003, 4.427849e+003
1.284750e+003, 4.431265e+003
1.285233e+003, 4.434770e+003
1.285715e+003, 4.438420e+003
1.286197e+003, 4.441780e+003
1.286679e+003, 4.443713e+003
1.287161e+003, 4.443045e+003
1.287643e+003, 4.446591e+003
1.288125e+003, 4.454519e+003
1.288607e+003, 4.461281e+003
1.289090e+003, 4.463186e+003
1.289572e+003, 4.462730e+003
1.290054e+003, 4.459526e+003
1.290536e+003, 4.456263e+003
1.291018e+003, 4.456340e+003
1.291500e+003, 4.459873e+003
1.291982e+003, 4.463083e+003
1.292464e+003, 4.465946e+003
1.292947e+003, 4.468526e+003
1.293429e+003, 4.472587e+003
1.293911e+003, 4.474101e+003
1.294393e+003, 4.468128e+003
1.294875e+003, 4.462060e+003
1.295357e+003, 4.461725e+003
1.295839e+003, 4.466060e+003
1.296321e+003, 4.470391e+003
1.296803e+003, 4.474558e+003
1.297286e+003, 4.477446e+003
1.297768e+003, 4.477322e+003
1.298250e+003, 4.478212e+003
1.298732e+003, 4.481088e+003
1.299214e+003, 4.484510e+003
1.299696e+003, 4.487242e+003
1.300178e+003, 4.489478e+003
1.300660e+003, 4.493351e+003
##END=



