##NAMES=Ericssonite
##RRUFFID=R130001
##IDEAL CHEMISTRY=BaMn^2+^_2_Fe^3+^(Si_2_O_7_)O(OH)
##LOCALITY=Langban, Filipstad, Varmland, Sweden
##OWNER=RRUFF
##SOURCE=Marcus Origlieri
##DESCRIPTION=Dark red platy, massive, monoclinic polytype, associated with caryopilite
##STATUS=The identification of this mineral is confirmed by single-crystal X-ray diffraction and chemical analysis.
##URL=rruff.info/R130001
##MEASURED CHEMISTRY=(Ba_1.01_Pb_0.01_)(Mn_1.95_Mg_0.05_)Fe_0.98_(Si_2_O_7_)O[(OH)_0.96_F_0.04_]
8.975323e+001, 0.000000e+000
9.023535e+001, 5.997000e+002
9.071747e+001, 5.955326e+002
9.119958e+001, 5.917557e+002
9.168170e+001, 5.992100e+002
9.216382e+001, 6.046295e+002
9.264594e+001, 6.061280e+002
9.312805e+001, 6.055914e+002
9.361017e+001, 6.048652e+002
9.409229e+001, 6.033761e+002
9.457440e+001, 6.004973e+002
9.505651e+001, 5.978203e+002
9.553863e+001, 5.960248e+002
9.602074e+001, 5.946303e+002
9.650286e+001, 5.936974e+002
9.698498e+001, 5.929426e+002
9.746709e+001, 5.905153e+002
9.794921e+001, 5.848463e+002
9.843133e+001, 5.766589e+002
9.891344e+001, 5.658252e+002
9.939556e+001, 5.509059e+002
9.987768e+001, 5.329257e+002
1.003598e+002, 5.146305e+002
1.008419e+002, 4.966539e+002
1.013240e+002, 4.799896e+002
1.018061e+002, 4.670052e+002
1.022883e+002, 4.575778e+002
1.027704e+002, 4.515944e+002
1.032525e+002, 4.494361e+002
1.037346e+002, 4.513397e+002
1.042167e+002, 4.554673e+002
1.046988e+002, 4.632172e+002
1.051810e+002, 4.720096e+002
1.056631e+002, 4.776761e+002
1.061452e+002, 4.795923e+002
1.066273e+002, 4.771975e+002
1.071094e+002, 4.677474e+002
1.075915e+002, 4.473405e+002
1.080737e+002, 4.237786e+002
1.085558e+002, 3.988208e+002
1.090379e+002, 3.733683e+002
1.095200e+002, 3.492328e+002
1.100021e+002, 3.276774e+002
1.104842e+002, 3.086364e+002
1.109664e+002, 2.932059e+002
1.114485e+002, 2.826160e+002
1.119306e+002, 2.741817e+002
1.124127e+002, 2.670444e+002
1.128948e+002, 2.609465e+002
1.133769e+002, 2.558171e+002
1.138591e+002, 2.516553e+002
1.143412e+002, 2.489680e+002
1.148233e+002, 2.464306e+002
1.153054e+002, 2.439717e+002
1.157875e+002, 2.416691e+002
1.162696e+002, 2.395471e+002
1.167517e+002, 2.375966e+002
1.172339e+002, 2.359111e+002
1.177160e+002, 2.348369e+002
1.181981e+002, 2.345867e+002
1.186802e+002, 2.343241e+002
1.191623e+002, 2.338150e+002
1.196444e+002, 2.331083e+002
1.201266e+002, 2.323411e+002
1.206087e+002, 2.315971e+002
1.210908e+002, 2.307919e+002
1.215729e+002, 2.297962e+002
1.220550e+002, 2.285481e+002
1.225371e+002, 2.272138e+002
1.230193e+002, 2.258182e+002
1.235014e+002, 2.243064e+002
1.239835e+002, 2.231669e+002
1.244656e+002, 2.227458e+002
1.249477e+002, 2.227979e+002
1.254298e+002, 2.232248e+002
1.259120e+002, 2.240753e+002
1.263941e+002, 2.251817e+002
1.268762e+002, 2.261415e+002
1.273583e+002, 2.268103e+002
1.278404e+002, 2.275899e+002
1.283225e+002, 2.290321e+002
1.288047e+002, 2.305683e+002
1.292868e+002, 2.314547e+002
1.297689e+002, 2.312183e+002
1.302510e+002, 2.299010e+002
1.307331e+002, 2.280758e+002
1.312152e+002, 2.250268e+002
1.316974e+002, 2.221162e+002
1.321795e+002, 2.199713e+002
1.326616e+002, 2.182935e+002
1.331437e+002, 2.163046e+002
1.336258e+002, 2.132403e+002
1.341079e+002, 2.088120e+002
1.345901e+002, 2.051608e+002
1.350722e+002, 2.025767e+002
1.355543e+002, 2.003575e+002
1.360364e+002, 1.982025e+002
1.365185e+002, 1.960490e+002
1.370006e+002, 1.938966e+002
1.374828e+002, 1.917833e+002
1.379649e+002, 1.897148e+002
1.384470e+002, 1.875878e+002
1.389291e+002, 1.853491e+002
1.394112e+002, 1.830616e+002
1.398933e+002, 1.806320e+002
1.403755e+002, 1.779306e+002
1.408576e+002, 1.755635e+002
1.413397e+002, 1.746162e+002
1.418218e+002, 1.749474e+002
1.423039e+002, 1.752425e+002
1.427860e+002, 1.749683e+002
1.432681e+002, 1.742279e+002
1.437503e+002, 1.733359e+002
1.442324e+002, 1.720938e+002
1.447145e+002, 1.710523e+002
1.451966e+002, 1.706696e+002
1.456787e+002, 1.709495e+002
1.461608e+002, 1.715041e+002
1.466430e+002, 1.721190e+002
1.471251e+002, 1.728245e+002
1.476072e+002, 1.732917e+002
1.480893e+002, 1.731107e+002
1.485714e+002, 1.728874e+002
1.490535e+002, 1.729294e+002
1.495357e+002, 1.733054e+002
1.500178e+002, 1.739206e+002
1.504999e+002, 1.746953e+002
1.509820e+002, 1.758570e+002
1.514641e+002, 1.766710e+002
1.519462e+002, 1.767639e+002
1.524284e+002, 1.767262e+002
1.529105e+002, 1.770882e+002
1.533926e+002, 1.780355e+002
1.538747e+002, 1.792877e+002
1.543568e+002, 1.801409e+002
1.548389e+002, 1.801830e+002
1.553211e+002, 1.802704e+002
1.558032e+002, 1.803005e+002
1.562853e+002, 1.804379e+002
1.567674e+002, 1.808513e+002
1.572495e+002, 1.816207e+002
1.577316e+002, 1.827431e+002
1.582138e+002, 1.842547e+002
1.586959e+002, 1.867362e+002
1.591780e+002, 1.889056e+002
1.596601e+002, 1.901665e+002
1.601422e+002, 1.908529e+002
1.606243e+002, 1.917519e+002
1.611065e+002, 1.933347e+002
1.615886e+002, 1.954711e+002
1.620707e+002, 1.974470e+002
1.625528e+002, 1.995207e+002
1.630349e+002, 2.012186e+002
1.635170e+002, 2.019347e+002
1.639991e+002, 2.017856e+002
1.644813e+002, 2.019462e+002
1.649634e+002, 2.034577e+002
1.654455e+002, 2.057218e+002
1.659276e+002, 2.073309e+002
1.664097e+002, 2.079285e+002
1.668918e+002, 2.079864e+002
1.673740e+002, 2.080314e+002
1.678561e+002, 2.081100e+002
1.683382e+002, 2.079523e+002
1.688203e+002, 2.072442e+002
1.693024e+002, 2.062442e+002
1.697845e+002, 2.052224e+002
1.702667e+002, 2.042450e+002
1.707488e+002, 2.033315e+002
1.712309e+002, 2.025238e+002
1.717130e+002, 2.018180e+002
1.721951e+002, 2.012455e+002
1.726772e+002, 2.006913e+002
1.731594e+002, 2.002653e+002
1.736415e+002, 2.001026e+002
1.741236e+002, 2.002369e+002
1.746057e+002, 2.007043e+002
1.750878e+002, 2.017656e+002
1.755699e+002, 2.041092e+002
1.760521e+002, 2.063142e+002
1.765342e+002, 2.078963e+002
1.770163e+002, 2.090759e+002
1.774984e+002, 2.102452e+002
1.779805e+002, 2.116913e+002
1.784626e+002, 2.134196e+002
1.789448e+002, 2.151970e+002
1.794269e+002, 2.171974e+002
1.799090e+002, 2.190798e+002
1.803911e+002, 2.205025e+002
1.808732e+002, 2.216784e+002
1.813553e+002, 2.231211e+002
1.818375e+002, 2.253032e+002
1.823196e+002, 2.283174e+002
1.828017e+002, 2.311833e+002
1.832838e+002, 2.337696e+002
1.837659e+002, 2.363551e+002
1.842480e+002, 2.390782e+002
1.847301e+002, 2.419304e+002
1.852123e+002, 2.448595e+002
1.856944e+002, 2.479165e+002
1.861765e+002, 2.511621e+002
1.866586e+002, 2.533876e+002
1.871407e+002, 2.545086e+002
1.876228e+002, 2.547243e+002
1.881050e+002, 2.540643e+002
1.885871e+002, 2.525539e+002
1.890692e+002, 2.504356e+002
1.895513e+002, 2.478956e+002
1.900334e+002, 2.449148e+002
1.905155e+002, 2.413958e+002
1.909977e+002, 2.366299e+002
1.914798e+002, 2.316553e+002
1.919619e+002, 2.277254e+002
1.924440e+002, 2.250945e+002
1.929261e+002, 2.228850e+002
1.934082e+002, 2.200879e+002
1.938904e+002, 2.169551e+002
1.943725e+002, 2.144418e+002
1.948546e+002, 2.128796e+002
1.953367e+002, 2.121180e+002
1.958188e+002, 2.120527e+002
1.963009e+002, 2.130747e+002
1.967831e+002, 2.139095e+002
1.972652e+002, 2.134548e+002
1.977473e+002, 2.120779e+002
1.982294e+002, 2.106678e+002
1.987115e+002, 2.094748e+002
1.991936e+002, 2.085655e+002
1.996758e+002, 2.082785e+002
2.001579e+002, 2.088975e+002
2.006400e+002, 2.098100e+002
2.011221e+002, 2.107359e+002
2.016042e+002, 2.116580e+002
2.020863e+002, 2.125362e+002
2.025685e+002, 2.132983e+002
2.030506e+002, 2.139588e+002
2.035327e+002, 2.147604e+002
2.040148e+002, 2.157962e+002
2.044969e+002, 2.168873e+002
2.049790e+002, 2.180422e+002
2.054612e+002, 2.191989e+002
2.059433e+002, 2.202275e+002
2.064254e+002, 2.209399e+002
2.069075e+002, 2.213010e+002
2.073896e+002, 2.220332e+002
2.078717e+002, 2.236281e+002
2.083539e+002, 2.251659e+002
2.088360e+002, 2.263278e+002
2.093181e+002, 2.271694e+002
2.098002e+002, 2.279259e+002
2.102823e+002, 2.288208e+002
2.107644e+002, 2.298871e+002
2.112466e+002, 2.307503e+002
2.117287e+002, 2.314617e+002
2.122108e+002, 2.319512e+002
2.126929e+002, 2.321507e+002
2.131750e+002, 2.320906e+002
2.136571e+002, 2.318603e+002
2.141393e+002, 2.315288e+002
2.146214e+002, 2.310822e+002
2.151035e+002, 2.306221e+002
2.155856e+002, 2.302927e+002
2.160677e+002, 2.298316e+002
2.165498e+002, 2.289031e+002
2.170320e+002, 2.276361e+002
2.175141e+002, 2.265750e+002
2.179962e+002, 2.262697e+002
2.184783e+002, 2.268436e+002
2.189604e+002, 2.271286e+002
2.194425e+002, 2.267823e+002
2.199247e+002, 2.264594e+002
2.204068e+002, 2.266223e+002
2.208889e+002, 2.272513e+002
2.213710e+002, 2.279310e+002
2.218531e+002, 2.282422e+002
2.223352e+002, 2.281705e+002
2.228174e+002, 2.286014e+002
2.232995e+002, 2.299173e+002
2.237816e+002, 2.314471e+002
2.242637e+002, 2.325877e+002
2.247458e+002, 2.333349e+002
2.252279e+002, 2.342599e+002
2.257100e+002, 2.358945e+002
2.261922e+002, 2.381761e+002
2.266743e+002, 2.404029e+002
2.271564e+002, 2.423543e+002
2.276385e+002, 2.443431e+002
2.281206e+002, 2.465388e+002
2.286027e+002, 2.489373e+002
2.290849e+002, 2.517739e+002
2.295670e+002, 2.554991e+002
2.300491e+002, 2.597960e+002
2.305312e+002, 2.637964e+002
2.310133e+002, 2.670327e+002
2.314954e+002, 2.700792e+002
2.319776e+002, 2.736112e+002
2.324597e+002, 2.776825e+002
2.329418e+002, 2.818613e+002
2.334239e+002, 2.860488e+002
2.339060e+002, 2.901506e+002
2.343881e+002, 2.940227e+002
2.348703e+002, 2.977712e+002
2.353524e+002, 3.011508e+002
2.358345e+002, 3.038118e+002
2.363166e+002, 3.056956e+002
2.367987e+002, 3.071484e+002
2.372808e+002, 3.083882e+002
2.377630e+002, 3.092887e+002
2.382451e+002, 3.096364e+002
2.387272e+002, 3.093246e+002
2.392093e+002, 3.084892e+002
2.396914e+002, 3.074166e+002
2.401735e+002, 3.062358e+002
2.406557e+002, 3.043539e+002
2.411378e+002, 3.012530e+002
2.416199e+002, 2.974992e+002
2.421020e+002, 2.934994e+002
2.425841e+002, 2.893484e+002
2.430662e+002, 2.851789e+002
2.435484e+002, 2.811071e+002
2.440305e+002, 2.769218e+002
2.445126e+002, 2.734742e+002
2.449947e+002, 2.718608e+002
2.454768e+002, 2.705927e+002
2.459589e+002, 2.682641e+002
2.464410e+002, 2.643527e+002
2.469232e+002, 2.597685e+002
2.474053e+002, 2.560507e+002
2.478874e+002, 2.535851e+002
2.483695e+002, 2.511138e+002
2.488516e+002, 2.481343e+002
2.493337e+002, 2.452256e+002
2.498159e+002, 2.429713e+002
2.502980e+002, 2.415232e+002
2.507801e+002, 2.403671e+002
2.512622e+002, 2.385874e+002
2.517443e+002, 2.358523e+002
2.522264e+002, 2.332472e+002
2.527086e+002, 2.307529e+002
2.531907e+002, 2.284729e+002
2.536728e+002, 2.264498e+002
2.541549e+002, 2.247079e+002
2.546370e+002, 2.232608e+002
2.551191e+002, 2.221778e+002
2.556013e+002, 2.217357e+002
2.560834e+002, 2.210698e+002
2.565655e+002, 2.199545e+002
2.570476e+002, 2.188049e+002
2.575297e+002, 2.178398e+002
2.580118e+002, 2.171239e+002
2.584940e+002, 2.166347e+002
2.589761e+002, 2.163692e+002
2.594582e+002, 2.164525e+002
2.599403e+002, 2.164495e+002
2.604224e+002, 2.162863e+002
2.609045e+002, 2.161131e+002
2.613867e+002, 2.160252e+002
2.618688e+002, 2.160298e+002
2.623509e+002, 2.160721e+002
2.628330e+002, 2.160904e+002
2.633151e+002, 2.160786e+002
2.637972e+002, 2.160639e+002
2.642794e+002, 2.158175e+002
2.647615e+002, 2.157528e+002
2.652436e+002, 2.161923e+002
2.657257e+002, 2.170806e+002
2.662078e+002, 2.180810e+002
2.666899e+002, 2.188607e+002
2.671721e+002, 2.193640e+002
2.676542e+002, 2.199887e+002
2.681363e+002, 2.205517e+002
2.686184e+002, 2.213657e+002
2.691005e+002, 2.226618e+002
2.695826e+002, 2.243716e+002
2.700648e+002, 2.262511e+002
2.705469e+002, 2.281355e+002
2.710290e+002, 2.300191e+002
2.715111e+002, 2.316860e+002
2.719932e+002, 2.328697e+002
2.724753e+002, 2.341407e+002
2.729575e+002, 2.357204e+002
2.734396e+002, 2.375830e+002
2.739217e+002, 2.396099e+002
2.744038e+002, 2.417293e+002
2.748859e+002, 2.439441e+002
2.753680e+002, 2.462556e+002
2.758501e+002, 2.489144e+002
2.763322e+002, 2.513884e+002
2.768144e+002, 2.533040e+002
2.772965e+002, 2.549053e+002
2.777786e+002, 2.567829e+002
2.782607e+002, 2.593217e+002
2.787428e+002, 2.622871e+002
2.792249e+002, 2.646635e+002
2.797071e+002, 2.658129e+002
2.801892e+002, 2.672521e+002
2.806713e+002, 2.697191e+002
2.811534e+002, 2.726902e+002
2.816355e+002, 2.751967e+002
2.821176e+002, 2.767836e+002
2.825998e+002, 2.777995e+002
2.830819e+002, 2.790987e+002
2.835640e+002, 2.808698e+002
2.840461e+002, 2.825327e+002
2.845282e+002, 2.838763e+002
2.850103e+002, 2.850674e+002
2.854925e+002, 2.863863e+002
2.859746e+002, 2.879456e+002
2.864567e+002, 2.895493e+002
2.869388e+002, 2.909185e+002
2.874209e+002, 2.921406e+002
2.879030e+002, 2.928768e+002
2.883852e+002, 2.927126e+002
2.888673e+002, 2.921693e+002
2.893494e+002, 2.919890e+002
2.898315e+002, 2.923595e+002
2.903136e+002, 2.926579e+002
2.907957e+002, 2.919848e+002
2.912779e+002, 2.901716e+002
2.917600e+002, 2.887173e+002
2.922421e+002, 2.882328e+002
2.927242e+002, 2.879071e+002
2.932063e+002, 2.869797e+002
2.936884e+002, 2.853468e+002
2.941706e+002, 2.832829e+002
2.946527e+002, 2.809654e+002
2.951348e+002, 2.783773e+002
2.956169e+002, 2.757438e+002
2.960990e+002, 2.730257e+002
2.965811e+002, 2.702990e+002
2.970633e+002, 2.678343e+002
2.975454e+002, 2.655754e+002
2.980275e+002, 2.627998e+002
2.985096e+002, 2.588596e+002
2.989917e+002, 2.539094e+002
2.994738e+002, 2.492676e+002
2.999560e+002, 2.449193e+002
3.004381e+002, 2.409173e+002
3.009202e+002, 2.373866e+002
3.014023e+002, 2.342570e+002
3.018844e+002, 2.311498e+002
3.023665e+002, 2.278366e+002
3.028487e+002, 2.244167e+002
3.033308e+002, 2.211493e+002
3.038129e+002, 2.179302e+002
3.042950e+002, 2.149723e+002
3.047771e+002, 2.125466e+002
3.052592e+002, 2.104653e+002
3.057414e+002, 2.081709e+002
3.062235e+002, 2.053487e+002
3.067056e+002, 2.024193e+002
3.071877e+002, 2.002612e+002
3.076698e+002, 1.989374e+002
3.081519e+002, 1.978321e+002
3.086341e+002, 1.967345e+002
3.091162e+002, 1.957326e+002
3.095983e+002, 1.950478e+002
3.100804e+002, 1.947826e+002
3.105625e+002, 1.946531e+002
3.110446e+002, 1.942695e+002
3.115268e+002, 1.936249e+002
3.120089e+002, 1.930336e+002
3.124910e+002, 1.925590e+002
3.129731e+002, 1.921685e+002
3.134552e+002, 1.916996e+002
3.139373e+002, 1.911131e+002
3.144195e+002, 1.908737e+002
3.149016e+002, 1.915677e+002
3.153837e+002, 1.931419e+002
3.158658e+002, 1.945031e+002
3.163479e+002, 1.955515e+002
3.168300e+002, 1.963642e+002
3.173121e+002, 1.967924e+002
3.177943e+002, 1.968965e+002
3.182764e+002, 1.973331e+002
3.187585e+002, 1.986618e+002
3.192406e+002, 2.006911e+002
3.197227e+002, 2.023764e+002
3.202048e+002, 2.033585e+002
3.206870e+002, 2.043742e+002
3.211691e+002, 2.057712e+002
3.216512e+002, 2.075216e+002
3.221333e+002, 2.096110e+002
3.226154e+002, 2.121239e+002
3.230975e+002, 2.148512e+002
3.235797e+002, 2.171717e+002
3.240618e+002, 2.188938e+002
3.245439e+002, 2.207180e+002
3.250260e+002, 2.229492e+002
3.255081e+002, 2.254455e+002
3.259902e+002, 2.279625e+002
3.264724e+002, 2.304266e+002
3.269545e+002, 2.328928e+002
3.274366e+002, 2.354282e+002
3.279187e+002, 2.379949e+002
3.284008e+002, 2.407735e+002
3.288829e+002, 2.439726e+002
3.293651e+002, 2.473106e+002
3.298472e+002, 2.504081e+002
3.303293e+002, 2.531991e+002
3.308114e+002, 2.559889e+002
3.312935e+002, 2.591112e+002
3.317756e+002, 2.625947e+002
3.322578e+002, 2.660667e+002
3.327399e+002, 2.692525e+002
3.332220e+002, 2.725970e+002
3.337041e+002, 2.765643e+002
3.341862e+002, 2.810749e+002
3.346683e+002, 2.856072e+002
3.351505e+002, 2.897030e+002
3.356326e+002, 2.935041e+002
3.361147e+002, 2.978692e+002
3.365968e+002, 3.031362e+002
3.370789e+002, 3.085827e+002
3.375610e+002, 3.139815e+002
3.380432e+002, 3.193478e+002
3.385253e+002, 3.246973e+002
3.390074e+002, 3.300558e+002
3.394895e+002, 3.353536e+002
3.399716e+002, 3.403587e+002
3.404537e+002, 3.450539e+002
3.409359e+002, 3.495404e+002
3.414180e+002, 3.540463e+002
3.419001e+002, 3.582856e+002
3.423822e+002, 3.618499e+002
3.428643e+002, 3.646107e+002
3.433464e+002, 3.667638e+002
3.438286e+002, 3.685861e+002
3.443107e+002, 3.701365e+002
3.447928e+002, 3.709529e+002
3.452749e+002, 3.704471e+002
3.457570e+002, 3.696028e+002
3.462391e+002, 3.691919e+002
3.467213e+002, 3.692565e+002
3.472034e+002, 3.693071e+002
3.476855e+002, 3.688141e+002
3.481676e+002, 3.677213e+002
3.486497e+002, 3.676032e+002
3.491318e+002, 3.684785e+002
3.496140e+002, 3.701130e+002
3.500961e+002, 3.724019e+002
3.505782e+002, 3.753633e+002
3.510603e+002, 3.791413e+002
3.515424e+002, 3.838479e+002
3.520245e+002, 3.893257e+002
3.525067e+002, 3.949820e+002
3.529888e+002, 4.003622e+002
3.534709e+002, 4.064630e+002
3.539530e+002, 4.134959e+002
3.544351e+002, 4.212650e+002
3.549172e+002, 4.297798e+002
3.553994e+002, 4.390049e+002
3.558815e+002, 4.484610e+002
3.563636e+002, 4.574046e+002
3.568457e+002, 4.655329e+002
3.573278e+002, 4.737129e+002
3.578099e+002, 4.822135e+002
3.582920e+002, 4.905699e+002
3.587741e+002, 4.988390e+002
3.592563e+002, 5.068003e+002
3.597384e+002, 5.136153e+002
3.602205e+002, 5.184844e+002
3.607026e+002, 5.213111e+002
3.611847e+002, 5.230191e+002
3.616668e+002, 5.242933e+002
3.621490e+002, 5.238463e+002
3.626311e+002, 5.208929e+002
3.631132e+002, 5.158995e+002
3.635953e+002, 5.098042e+002
3.640774e+002, 5.031751e+002
3.645595e+002, 4.958659e+002
3.650417e+002, 4.871898e+002
3.655238e+002, 4.758937e+002
3.660059e+002, 4.648867e+002
3.664880e+002, 4.549230e+002
3.669701e+002, 4.452285e+002
3.674522e+002, 4.348659e+002
3.679344e+002, 4.236277e+002
3.684165e+002, 4.122177e+002
3.688986e+002, 4.016611e+002
3.693807e+002, 3.920882e+002
3.698628e+002, 3.831211e+002
3.703449e+002, 3.749289e+002
3.708271e+002, 3.671194e+002
3.713092e+002, 3.591266e+002
3.717913e+002, 3.511925e+002
3.722734e+002, 3.440685e+002
3.727555e+002, 3.384503e+002
3.732376e+002, 3.343278e+002
3.737198e+002, 3.311700e+002
3.742019e+002, 3.296750e+002
3.746840e+002, 3.283516e+002
3.751661e+002, 3.261948e+002
3.756482e+002, 3.239731e+002
3.761303e+002, 3.229268e+002
3.766125e+002, 3.237275e+002
3.770946e+002, 3.258551e+002
3.775767e+002, 3.280903e+002
3.780588e+002, 3.301475e+002
3.785409e+002, 3.331500e+002
3.790230e+002, 3.375620e+002
3.795052e+002, 3.429269e+002
3.799873e+002, 3.490391e+002
3.804694e+002, 3.558513e+002
3.809515e+002, 3.632373e+002
3.814336e+002, 3.711190e+002
3.819157e+002, 3.795034e+002
3.823979e+002, 3.881108e+002
3.828800e+002, 3.971702e+002
3.833621e+002, 4.061257e+002
3.838442e+002, 4.151859e+002
3.843263e+002, 4.239787e+002
3.848084e+002, 4.314427e+002
3.852906e+002, 4.375059e+002
3.857727e+002, 4.416810e+002
3.862548e+002, 4.428474e+002
3.867369e+002, 4.408776e+002
3.872190e+002, 4.363244e+002
3.877011e+002, 4.289556e+002
3.881833e+002, 4.192031e+002
3.886654e+002, 4.072031e+002
3.891475e+002, 3.923508e+002
3.896296e+002, 3.764043e+002
3.901117e+002, 3.607738e+002
3.905938e+002, 3.453540e+002
3.910760e+002, 3.296490e+002
3.915581e+002, 3.129568e+002
3.920402e+002, 2.966187e+002
3.925223e+002, 2.824585e+002
3.930044e+002, 2.705057e+002
3.934865e+002, 2.593310e+002
3.939687e+002, 2.483218e+002
3.944508e+002, 2.377888e+002
3.949329e+002, 2.283220e+002
3.954150e+002, 2.199279e+002
3.958971e+002, 2.125613e+002
3.963792e+002, 2.062610e+002
3.968614e+002, 2.010445e+002
3.973435e+002, 1.963074e+002
3.978256e+002, 1.921035e+002
3.983077e+002, 1.882506e+002
3.987898e+002, 1.846009e+002
3.992719e+002, 1.811841e+002
3.997540e+002, 1.781081e+002
4.002361e+002, 1.754172e+002
4.007183e+002, 1.731172e+002
4.012004e+002, 1.713136e+002
4.016825e+002, 1.700879e+002
4.021646e+002, 1.691117e+002
4.026467e+002, 1.683770e+002
4.031288e+002, 1.678407e+002
4.036110e+002, 1.674398e+002
4.040931e+002, 1.671669e+002
4.045752e+002, 1.671033e+002
4.050573e+002, 1.673761e+002
4.055394e+002, 1.680730e+002
4.060215e+002, 1.686800e+002
4.065037e+002, 1.689326e+002
4.069858e+002, 1.693540e+002
4.074679e+002, 1.701633e+002
4.079500e+002, 1.713567e+002
4.084321e+002, 1.728858e+002
4.089142e+002, 1.747556e+002
4.093964e+002, 1.768985e+002
4.098785e+002, 1.790391e+002
4.103606e+002, 1.813203e+002
4.108427e+002, 1.833906e+002
4.113248e+002, 1.852376e+002
4.118069e+002, 1.868577e+002
4.122891e+002, 1.882048e+002
4.127712e+002, 1.892869e+002
4.132533e+002, 1.902342e+002
4.137354e+002, 1.912808e+002
4.142175e+002, 1.925807e+002
4.146996e+002, 1.933699e+002
4.151818e+002, 1.936783e+002
4.156639e+002, 1.934193e+002
4.161460e+002, 1.925412e+002
4.166281e+002, 1.910460e+002
4.171102e+002, 1.889294e+002
4.175923e+002, 1.860891e+002
4.180745e+002, 1.827069e+002
4.185566e+002, 1.793529e+002
4.190387e+002, 1.760994e+002
4.195208e+002, 1.727489e+002
4.200029e+002, 1.691925e+002
4.204850e+002, 1.655655e+002
4.209672e+002, 1.619636e+002
4.214493e+002, 1.584094e+002
4.219314e+002, 1.550092e+002
4.224135e+002, 1.518001e+002
4.228956e+002, 1.488004e+002
4.233777e+002, 1.462760e+002
4.238599e+002, 1.444321e+002
4.243420e+002, 1.428736e+002
4.248241e+002, 1.412997e+002
4.253062e+002, 1.397282e+002
4.257883e+002, 1.382135e+002
4.262704e+002, 1.366205e+002
4.267526e+002, 1.351668e+002
4.272347e+002, 1.343041e+002
4.277168e+002, 1.340643e+002
4.281989e+002, 1.337735e+002
4.286810e+002, 1.329739e+002
4.291631e+002, 1.319532e+002
4.296453e+002, 1.313628e+002
4.301274e+002, 1.313760e+002
4.306095e+002, 1.314280e+002
4.310916e+002, 1.311041e+002
4.315737e+002, 1.306420e+002
4.320558e+002, 1.305935e+002
4.325380e+002, 1.311358e+002
4.330201e+002, 1.318046e+002
4.335022e+002, 1.320010e+002
4.339843e+002, 1.316258e+002
4.344664e+002, 1.316343e+002
4.349485e+002, 1.325294e+002
4.354307e+002, 1.334152e+002
4.359128e+002, 1.335983e+002
4.363949e+002, 1.332261e+002
4.368770e+002, 1.328813e+002
4.373591e+002, 1.328917e+002
4.378412e+002, 1.332046e+002
4.383234e+002, 1.336241e+002
4.388055e+002, 1.343626e+002
4.392876e+002, 1.349373e+002
4.397697e+002, 1.350873e+002
4.402518e+002, 1.351887e+002
4.407339e+002, 1.356076e+002
4.412160e+002, 1.364066e+002
4.416982e+002, 1.373932e+002
4.421803e+002, 1.383435e+002
4.426624e+002, 1.392407e+002
4.431445e+002, 1.402449e+002
4.436266e+002, 1.415159e+002
4.441087e+002, 1.427264e+002
4.445909e+002, 1.436412e+002
4.450730e+002, 1.444462e+002
4.455551e+002, 1.454429e+002
4.460372e+002, 1.467735e+002
4.465193e+002, 1.484000e+002
4.470014e+002, 1.502966e+002
4.474836e+002, 1.525921e+002
4.479657e+002, 1.547684e+002
4.484478e+002, 1.567386e+002
4.489299e+002, 1.585636e+002
4.494120e+002, 1.601567e+002
4.498941e+002, 1.615719e+002
4.503763e+002, 1.631422e+002
4.508584e+002, 1.651230e+002
4.513405e+002, 1.674702e+002
4.518226e+002, 1.700468e+002
4.523047e+002, 1.730337e+002
4.527868e+002, 1.757579e+002
4.532690e+002, 1.776727e+002
4.537511e+002, 1.791041e+002
4.542332e+002, 1.804568e+002
4.547153e+002, 1.817811e+002
4.551974e+002, 1.830955e+002
4.556795e+002, 1.844122e+002
4.561617e+002, 1.857309e+002
4.566438e+002, 1.871298e+002
4.571259e+002, 1.887261e+002
4.576080e+002, 1.902091e+002
4.580901e+002, 1.910862e+002
4.585722e+002, 1.913749e+002
4.590544e+002, 1.916472e+002
4.595365e+002, 1.919360e+002
4.600186e+002, 1.922978e+002
4.605007e+002, 1.929481e+002
4.609828e+002, 1.937891e+002
4.614649e+002, 1.942585e+002
4.619471e+002, 1.939176e+002
4.624292e+002, 1.930396e+002
4.629113e+002, 1.927647e+002
4.633934e+002, 1.936720e+002
4.638755e+002, 1.943799e+002
4.643576e+002, 1.946280e+002
4.648398e+002, 1.946645e+002
4.653219e+002, 1.948305e+002
4.658040e+002, 1.951472e+002
4.662861e+002, 1.952631e+002
4.667682e+002, 1.948074e+002
4.672503e+002, 1.937565e+002
4.677325e+002, 1.922919e+002
4.682146e+002, 1.901730e+002
4.686967e+002, 1.878815e+002
4.691788e+002, 1.857567e+002
4.696609e+002, 1.834794e+002
4.701430e+002, 1.805444e+002
4.706252e+002, 1.767154e+002
4.711073e+002, 1.723377e+002
4.715894e+002, 1.680430e+002
4.720715e+002, 1.639408e+002
4.725536e+002, 1.594631e+002
4.730357e+002, 1.540154e+002
4.735179e+002, 1.486278e+002
4.740000e+002, 1.439386e+002
4.744821e+002, 1.398820e+002
4.749642e+002, 1.359097e+002
4.754463e+002, 1.315344e+002
4.759284e+002, 1.271149e+002
4.764106e+002, 1.234768e+002
4.768927e+002, 1.207382e+002
4.773748e+002, 1.181226e+002
4.778569e+002, 1.152245e+002
4.783390e+002, 1.122711e+002
4.788211e+002, 1.096104e+002
4.793033e+002, 1.072755e+002
4.797854e+002, 1.051771e+002
4.802675e+002, 1.033859e+002
4.807496e+002, 1.017742e+002
4.812317e+002, 1.000824e+002
4.817138e+002, 9.825997e+001
4.821959e+002, 9.647601e+001
4.826780e+002, 9.486742e+001
4.831602e+002, 9.344478e+001
4.836423e+002, 9.209592e+001
4.841244e+002, 9.080747e+001
4.846065e+002, 8.960466e+001
4.850886e+002, 8.848299e+001
4.855707e+002, 8.745130e+001
4.860529e+002, 8.655529e+001
4.865350e+002, 8.580716e+001
4.870171e+002, 8.511264e+001
4.874992e+002, 8.431133e+001
4.879813e+002, 8.330094e+001
4.884634e+002, 8.245396e+001
4.889456e+002, 8.184145e+001
4.894277e+002, 8.129688e+001
4.899098e+002, 8.073156e+001
4.903919e+002, 8.017119e+001
4.908740e+002, 7.969888e+001
4.913561e+002, 7.937467e+001
4.918383e+002, 7.914851e+001
4.923204e+002, 7.889413e+001
4.928025e+002, 7.862772e+001
4.932846e+002, 7.829052e+001
4.937667e+002, 7.783894e+001
4.942488e+002, 7.733641e+001
4.947310e+002, 7.678158e+001
4.952131e+002, 7.619424e+001
4.956952e+002, 7.567386e+001
4.961773e+002, 7.524710e+001
4.966594e+002, 7.494624e+001
4.971415e+002, 7.497456e+001
4.976237e+002, 7.545288e+001
4.981058e+002, 7.568618e+001
4.985879e+002, 7.505049e+001
4.990700e+002, 7.401192e+001
4.995521e+002, 7.351510e+001
5.000342e+002, 7.384865e+001
5.005164e+002, 7.412721e+001
5.009985e+002, 7.377705e+001
5.014806e+002, 7.311153e+001
5.019627e+002, 7.269736e+001
5.024448e+002, 7.265263e+001
5.029269e+002, 7.272316e+001
5.034091e+002, 7.265195e+001
5.038912e+002, 7.243161e+001
5.043733e+002, 7.243284e+001
5.048554e+002, 7.298878e+001
5.053375e+002, 7.336967e+001
5.058196e+002, 7.317870e+001
5.063018e+002, 7.268736e+001
5.067839e+002, 7.229543e+001
5.072660e+002, 7.215002e+001
5.077481e+002, 7.216299e+001
5.082302e+002, 7.220751e+001
5.087123e+002, 7.228637e+001
5.091945e+002, 7.238676e+001
5.096766e+002, 7.261401e+001
5.101587e+002, 7.275646e+001
5.106408e+002, 7.264299e+001
5.111229e+002, 7.239729e+001
5.116050e+002, 7.225591e+001
5.120872e+002, 7.234313e+001
5.125693e+002, 7.256911e+001
5.130514e+002, 7.279742e+001
5.135335e+002, 7.303754e+001
5.140156e+002, 7.320872e+001
5.144977e+002, 7.324039e+001
5.149799e+002, 7.325038e+001
5.154620e+002, 7.333366e+001
5.159441e+002, 7.348408e+001
5.164262e+002, 7.365271e+001
5.169083e+002, 7.380778e+001
5.173904e+002, 7.397691e+001
5.178726e+002, 7.430282e+001
5.183547e+002, 7.475374e+001
5.188368e+002, 7.487856e+001
5.193189e+002, 7.436321e+001
5.198010e+002, 7.351353e+001
5.202831e+002, 7.304252e+001
5.207653e+002, 7.303955e+001
5.212474e+002, 7.305145e+001
5.217295e+002, 7.302658e+001
5.222116e+002, 7.297039e+001
5.226937e+002, 7.289116e+001
5.231758e+002, 7.278688e+001
5.236580e+002, 7.263211e+001
5.241401e+002, 7.239653e+001
5.246222e+002, 7.211358e+001
5.251043e+002, 7.195413e+001
5.255864e+002, 7.198869e+001
5.260685e+002, 7.205781e+001
5.265507e+002, 7.220914e+001
5.270328e+002, 7.234529e+001
5.275149e+002, 7.229932e+001
5.279970e+002, 7.210991e+001
5.284791e+002, 7.206895e+001
5.289612e+002, 7.251609e+001
5.294434e+002, 7.334729e+001
5.299255e+002, 7.394677e+001
5.304076e+002, 7.431043e+001
5.308897e+002, 7.444551e+001
5.313718e+002, 7.411304e+001
5.318539e+002, 7.366728e+001
5.323361e+002, 7.347519e+001
5.328182e+002, 7.360957e+001
5.333003e+002, 7.387084e+001
5.337824e+002, 7.417419e+001
5.342645e+002, 7.450274e+001
5.347466e+002, 7.483755e+001
5.352288e+002, 7.518015e+001
5.357109e+002, 7.547784e+001
5.361930e+002, 7.568877e+001
5.366751e+002, 7.581734e+001
5.371572e+002, 7.590609e+001
5.376393e+002, 7.575658e+001
5.381215e+002, 7.581129e+001
5.386036e+002, 7.637106e+001
5.390857e+002, 7.712366e+001
5.395678e+002, 7.762794e+001
5.400499e+002, 7.781879e+001
5.405320e+002, 7.804396e+001
5.410142e+002, 7.872005e+001
5.414963e+002, 7.987292e+001
5.419784e+002, 8.057486e+001
5.424604e+002, 8.039243e+001
5.429426e+002, 8.024892e+001
5.434247e+002, 8.024953e+001
5.439068e+002, 8.042113e+001
5.443889e+002, 8.077760e+001
5.448710e+002, 8.132211e+001
5.453531e+002, 8.205976e+001
5.458353e+002, 8.300729e+001
5.463174e+002, 8.416111e+001
5.467995e+002, 8.551530e+001
5.472816e+002, 8.729644e+001
5.477637e+002, 8.879082e+001
5.482458e+002, 8.902157e+001
5.487280e+002, 8.877998e+001
5.492101e+002, 8.945562e+001
5.496922e+002, 9.167809e+001
5.501743e+002, 9.397729e+001
5.506564e+002, 9.524154e+001
5.511385e+002, 9.595907e+001
5.516207e+002, 9.714804e+001
5.521028e+002, 9.902333e+001
5.525849e+002, 1.012578e+002
5.530670e+002, 1.035687e+002
5.535491e+002, 1.059655e+002
5.540313e+002, 1.084883e+002
5.545134e+002, 1.110663e+002
5.549955e+002, 1.138323e+002
5.554776e+002, 1.169406e+002
5.559597e+002, 1.202224e+002
5.564418e+002, 1.234094e+002
5.569240e+002, 1.264615e+002
5.574061e+002, 1.295301e+002
5.578882e+002, 1.327575e+002
5.583703e+002, 1.361124e+002
5.588524e+002, 1.399909e+002
5.593345e+002, 1.447489e+002
5.598167e+002, 1.494898e+002
5.602988e+002, 1.536160e+002
5.607809e+002, 1.576894e+002
5.612630e+002, 1.624173e+002
5.617451e+002, 1.679744e+002
5.622272e+002, 1.740734e+002
5.627094e+002, 1.806156e+002
5.631915e+002, 1.875061e+002
5.636736e+002, 1.943551e+002
5.641557e+002, 2.010825e+002
5.646378e+002, 2.081414e+002
5.651199e+002, 2.161952e+002
5.656021e+002, 2.248447e+002
5.660842e+002, 2.324161e+002
5.665663e+002, 2.384885e+002
5.670484e+002, 2.440974e+002
5.675305e+002, 2.501314e+002
5.680126e+002, 2.556388e+002
5.684948e+002, 2.596225e+002
5.689769e+002, 2.618245e+002
5.694590e+002, 2.623238e+002
5.699411e+002, 2.611753e+002
5.704232e+002, 2.583714e+002
5.709053e+002, 2.538349e+002
5.713875e+002, 2.467567e+002
5.718696e+002, 2.388768e+002
5.723517e+002, 2.299319e+002
5.728338e+002, 2.206487e+002
5.733159e+002, 2.117591e+002
5.737980e+002, 2.032996e+002
5.742802e+002, 1.947250e+002
5.747623e+002, 1.851842e+002
5.752444e+002, 1.750744e+002
5.757265e+002, 1.660729e+002
5.762086e+002, 1.582951e+002
5.766907e+002, 1.511691e+002
5.771729e+002, 1.444912e+002
5.776550e+002, 1.383988e+002
5.781371e+002, 1.330342e+002
5.786192e+002, 1.284225e+002
5.791013e+002, 1.244386e+002
5.795834e+002, 1.214177e+002
5.800656e+002, 1.187776e+002
5.805477e+002, 1.156624e+002
5.810298e+002, 1.121486e+002
5.815119e+002, 1.091036e+002
5.819940e+002, 1.071362e+002
5.824761e+002, 1.059280e+002
5.829583e+002, 1.043767e+002
5.834404e+002, 1.020395e+002
5.839225e+002, 1.000223e+002
5.844046e+002, 9.849796e+001
5.848867e+002, 9.714023e+001
5.853688e+002, 9.566672e+001
5.858510e+002, 9.415310e+001
5.863331e+002, 9.293075e+001
5.868152e+002, 9.228723e+001
5.872973e+002, 9.191371e+001
5.877794e+002, 9.104102e+001
5.882615e+002, 8.956726e+001
5.887437e+002, 8.828132e+001
5.892258e+002, 8.740012e+001
5.897079e+002, 8.674029e+001
5.901900e+002, 8.611520e+001
5.906721e+002, 8.553849e+001
5.911542e+002, 8.511790e+001
5.916364e+002, 8.506961e+001
5.921185e+002, 8.503780e+001
5.926006e+002, 8.470574e+001
5.930827e+002, 8.414158e+001
5.935648e+002, 8.351089e+001
5.940469e+002, 8.286221e+001
5.945291e+002, 8.231120e+001
5.950112e+002, 8.204973e+001
5.954933e+002, 8.218993e+001
5.959754e+002, 8.210711e+001
5.964575e+002, 8.155466e+001
5.969396e+002, 8.108865e+001
5.974218e+002, 8.095537e+001
5.979039e+002, 8.101138e+001
5.983860e+002, 8.104488e+001
5.988681e+002, 8.098277e+001
5.993502e+002, 8.088975e+001
5.998323e+002, 8.086282e+001
6.003145e+002, 8.089641e+001
6.007966e+002, 8.083012e+001
6.012787e+002, 8.060468e+001
6.017608e+002, 8.038939e+001
6.022429e+002, 8.023379e+001
6.027250e+002, 8.016533e+001
6.032072e+002, 8.028489e+001
6.036893e+002, 8.071326e+001
6.041714e+002, 8.100362e+001
6.046535e+002, 8.072488e+001
6.051356e+002, 8.026012e+001
6.056177e+002, 8.022972e+001
6.060999e+002, 8.067076e+001
6.065820e+002, 8.115210e+001
6.070641e+002, 8.137273e+001
6.075462e+002, 8.137423e+001
6.080283e+002, 8.133945e+001
6.085104e+002, 8.110045e+001
6.089926e+002, 8.107702e+001
6.094747e+002, 8.147891e+001
6.099568e+002, 8.193655e+001
6.104389e+002, 8.213536e+001
6.109210e+002, 8.213789e+001
6.114031e+002, 8.227905e+001
6.118853e+002, 8.286462e+001
6.123674e+002, 8.356177e+001
6.128495e+002, 8.349510e+001
6.133316e+002, 8.255795e+001
6.138137e+002, 8.218481e+001
6.142958e+002, 8.307456e+001
6.147780e+002, 8.417873e+001
6.152601e+002, 8.427336e+001
6.157422e+002, 8.355845e+001
6.162243e+002, 8.325689e+001
6.167064e+002, 8.392109e+001
6.171885e+002, 8.476836e+001
6.176707e+002, 8.534084e+001
6.181528e+002, 8.572532e+001
6.186349e+002, 8.609421e+001
6.191170e+002, 8.650278e+001
6.195991e+002, 8.696529e+001
6.200812e+002, 8.750916e+001
6.205634e+002, 8.814573e+001
6.210455e+002, 8.871950e+001
6.215276e+002, 8.916145e+001
6.220097e+002, 8.962438e+001
6.224918e+002, 9.010496e+001
6.229739e+002, 9.063880e+001
6.234561e+002, 9.129057e+001
6.239382e+002, 9.205810e+001
6.244203e+002, 9.281482e+001
6.249023e+002, 9.346461e+001
6.253845e+002, 9.402146e+001
6.258666e+002, 9.448463e+001
6.263487e+002, 9.484266e+001
6.268308e+002, 9.524174e+001
6.273129e+002, 9.568423e+001
6.277950e+002, 9.626968e+001
6.282772e+002, 9.730080e+001
6.287593e+002, 9.890870e+001
6.292414e+002, 1.002419e+002
6.297235e+002, 1.008602e+002
6.302056e+002, 1.014505e+002
6.306877e+002, 1.025025e+002
6.311699e+002, 1.039206e+002
6.316520e+002, 1.054179e+002
6.321341e+002, 1.068567e+002
6.326162e+002, 1.082760e+002
6.330983e+002, 1.097249e+002
6.335804e+002, 1.112018e+002
6.340626e+002, 1.127550e+002
6.345447e+002, 1.144132e+002
6.350268e+002, 1.161048e+002
6.355089e+002, 1.177157e+002
6.359910e+002, 1.193605e+002
6.364731e+002, 1.212242e+002
6.369553e+002, 1.233578e+002
6.374374e+002, 1.256443e+002
6.379195e+002, 1.279342e+002
6.384016e+002, 1.303202e+002
6.388837e+002, 1.330868e+002
6.393658e+002, 1.362399e+002
6.398480e+002, 1.393770e+002
6.403301e+002, 1.421570e+002
6.408122e+002, 1.448096e+002
6.412943e+002, 1.481435e+002
6.417764e+002, 1.526264e+002
6.422585e+002, 1.571249e+002
6.427407e+002, 1.612625e+002
6.432228e+002, 1.657343e+002
6.437049e+002, 1.710479e+002
6.441870e+002, 1.770821e+002
6.446691e+002, 1.834274e+002
6.451512e+002, 1.898083e+002
6.456334e+002, 1.965414e+002
6.461155e+002, 2.042289e+002
6.465976e+002, 2.128644e+002
6.470797e+002, 2.215989e+002
6.475618e+002, 2.301245e+002
6.480439e+002, 2.390451e+002
6.485261e+002, 2.486455e+002
6.490082e+002, 2.590309e+002
6.494903e+002, 2.702716e+002
6.499724e+002, 2.826595e+002
6.504545e+002, 2.954571e+002
6.509366e+002, 3.079418e+002
6.514188e+002, 3.208769e+002
6.519009e+002, 3.349682e+002
6.523830e+002, 3.503661e+002
6.528651e+002, 3.670633e+002
6.533472e+002, 3.850789e+002
6.538293e+002, 4.042980e+002
6.543115e+002, 4.243949e+002
6.547936e+002, 4.448599e+002
6.552757e+002, 4.673117e+002
6.557578e+002, 4.934069e+002
6.562399e+002, 5.204072e+002
6.567220e+002, 5.469192e+002
6.572042e+002, 5.731631e+002
6.576863e+002, 5.999210e+002
6.581684e+002, 6.282355e+002
6.586505e+002, 6.561641e+002
6.591326e+002, 6.826979e+002
6.596147e+002, 7.073123e+002
6.600969e+002, 7.289485e+002
6.605790e+002, 7.473191e+002
6.610611e+002, 7.625944e+002
6.615432e+002, 7.750521e+002
6.620253e+002, 7.846361e+002
6.625074e+002, 7.905254e+002
6.629896e+002, 7.920926e+002
6.634717e+002, 7.906479e+002
6.639538e+002, 7.844064e+002
6.644359e+002, 7.766319e+002
6.649180e+002, 7.692478e+002
6.654001e+002, 7.627129e+002
6.658823e+002, 7.571267e+002
6.663644e+002, 7.523867e+002
6.668465e+002, 7.488509e+002
6.673286e+002, 7.469447e+002
6.678107e+002, 7.466813e+002
6.682928e+002, 7.483688e+002
6.687750e+002, 7.516991e+002
6.692571e+002, 7.578699e+002
6.697392e+002, 7.682664e+002
6.702213e+002, 7.828542e+002
6.707034e+002, 7.990494e+002
6.711855e+002, 8.161163e+002
6.716677e+002, 8.356127e+002
6.721498e+002, 8.581096e+002
6.726319e+002, 8.830476e+002
6.731140e+002, 9.101918e+002
6.735961e+002, 9.392919e+002
6.740782e+002, 9.699035e+002
6.745604e+002, 1.001860e+003
6.750425e+002, 1.035132e+003
6.755246e+002, 1.070216e+003
6.760067e+002, 1.107746e+003
6.764888e+002, 1.144224e+003
6.769709e+002, 1.179161e+003
6.774531e+002, 1.212865e+003
6.779352e+002, 1.246803e+003
6.784173e+002, 1.280014e+003
6.788994e+002, 1.308677e+003
6.793815e+002, 1.332048e+003
6.798636e+002, 1.350541e+003
6.803458e+002, 1.365027e+003
6.808279e+002, 1.374543e+003
6.813100e+002, 1.377956e+003
6.817921e+002, 1.374934e+003
6.822742e+002, 1.365107e+003
6.827563e+002, 1.347989e+003
6.832385e+002, 1.323939e+003
6.837206e+002, 1.294434e+003
6.842027e+002, 1.258565e+003
6.846848e+002, 1.219339e+003
6.851669e+002, 1.176337e+003
6.856490e+002, 1.130980e+003
6.861312e+002, 1.082987e+003
6.866133e+002, 1.033294e+003
6.870954e+002, 9.838209e+002
6.875775e+002, 9.349894e+002
6.880596e+002, 8.874379e+002
6.885417e+002, 8.414846e+002
6.890239e+002, 7.974633e+002
6.895060e+002, 7.565786e+002
6.899881e+002, 7.188013e+002
6.904702e+002, 6.834117e+002
6.909523e+002, 6.495509e+002
6.914344e+002, 6.174620e+002
6.919166e+002, 5.877257e+002
6.923987e+002, 5.610030e+002
6.928808e+002, 5.356862e+002
6.933629e+002, 5.117290e+002
6.938450e+002, 4.891525e+002
6.943271e+002, 4.677451e+002
6.948093e+002, 4.476325e+002
6.952914e+002, 4.292886e+002
6.957735e+002, 4.130058e+002
6.962556e+002, 3.982493e+002
6.967377e+002, 3.845770e+002
6.972198e+002, 3.719202e+002
6.977020e+002, 3.598154e+002
6.981841e+002, 3.482728e+002
6.986662e+002, 3.372954e+002
6.991483e+002, 3.269128e+002
6.996304e+002, 3.170944e+002
7.001125e+002, 3.078727e+002
7.005947e+002, 2.992473e+002
7.010768e+002, 2.913246e+002
7.015589e+002, 2.843729e+002
7.020410e+002, 2.778815e+002
7.025231e+002, 2.716333e+002
7.030052e+002, 2.655959e+002
7.034874e+002, 2.596677e+002
7.039695e+002, 2.538275e+002
7.044516e+002, 2.482551e+002
7.049337e+002, 2.432952e+002
7.054158e+002, 2.388823e+002
7.058979e+002, 2.346980e+002
7.063801e+002, 2.307540e+002
7.068622e+002, 2.268221e+002
7.073442e+002, 2.227368e+002
7.078264e+002, 2.185704e+002
7.083085e+002, 2.144476e+002
7.087906e+002, 2.101577e+002
7.092727e+002, 2.064321e+002
7.097548e+002, 2.038745e+002
7.102369e+002, 2.013235e+002
7.107191e+002, 1.978173e+002
7.112012e+002, 1.939074e+002
7.116833e+002, 1.907144e+002
7.121654e+002, 1.886162e+002
7.126475e+002, 1.869124e+002
7.131296e+002, 1.848244e+002
7.136118e+002, 1.824158e+002
7.140939e+002, 1.799651e+002
7.145760e+002, 1.774842e+002
7.150581e+002, 1.750037e+002
7.155402e+002, 1.724691e+002
7.160223e+002, 1.700497e+002
7.165045e+002, 1.681113e+002
7.169866e+002, 1.667732e+002
7.174687e+002, 1.651812e+002
7.179508e+002, 1.630410e+002
7.184329e+002, 1.608768e+002
7.189150e+002, 1.590017e+002
7.193972e+002, 1.572481e+002
7.198793e+002, 1.552940e+002
7.203614e+002, 1.530896e+002
7.208435e+002, 1.509319e+002
7.213256e+002, 1.491465e+002
7.218077e+002, 1.476314e+002
7.222899e+002, 1.459786e+002
7.227720e+002, 1.441464e+002
7.232541e+002, 1.424160e+002
7.237362e+002, 1.408145e+002
7.242183e+002, 1.394568e+002
7.247004e+002, 1.386982e+002
7.251826e+002, 1.385097e+002
7.256647e+002, 1.376967e+002
7.261468e+002, 1.357004e+002
7.266289e+002, 1.336600e+002
7.271110e+002, 1.318674e+002
7.275931e+002, 1.303139e+002
7.280753e+002, 1.290980e+002
7.285574e+002, 1.281528e+002
7.290395e+002, 1.271806e+002
7.295216e+002, 1.259482e+002
7.300037e+002, 1.245780e+002
7.304858e+002, 1.233152e+002
7.309680e+002, 1.221614e+002
7.314501e+002, 1.211637e+002
7.319322e+002, 1.203819e+002
7.324143e+002, 1.196395e+002
7.328964e+002, 1.187890e+002
7.333785e+002, 1.178538e+002
7.338607e+002, 1.169658e+002
7.343428e+002, 1.162803e+002
7.348249e+002, 1.154112e+002
7.353070e+002, 1.139772e+002
7.357891e+002, 1.125689e+002
7.362712e+002, 1.116932e+002
7.367534e+002, 1.112729e+002
7.372355e+002, 1.109911e+002
7.377176e+002, 1.107018e+002
7.381997e+002, 1.103419e+002
7.386818e+002, 1.097971e+002
7.391639e+002, 1.090838e+002
7.396461e+002, 1.083083e+002
7.401282e+002, 1.074391e+002
7.406103e+002, 1.067222e+002
7.410924e+002, 1.063984e+002
7.415745e+002, 1.062447e+002
7.420566e+002, 1.057076e+002
7.425388e+002, 1.045885e+002
7.430209e+002, 1.038000e+002
7.435030e+002, 1.038212e+002
7.439851e+002, 1.037683e+002
7.444672e+002, 1.029415e+002
7.449493e+002, 1.018228e+002
7.454315e+002, 1.012393e+002
7.459136e+002, 1.013940e+002
7.463957e+002, 1.017037e+002
7.468778e+002, 1.016631e+002
7.473599e+002, 1.013304e+002
7.478420e+002, 1.007743e+002
7.483242e+002, 9.998229e+001
7.488063e+002, 9.952270e+001
7.492884e+002, 9.971754e+001
7.497705e+002, 9.997788e+001
7.502526e+002, 9.949947e+001
7.507347e+002, 9.821348e+001
7.512169e+002, 9.759126e+001
7.516990e+002, 9.834474e+001
7.521811e+002, 9.878030e+001
7.526632e+002, 9.831116e+001
7.531453e+002, 9.752470e+001
7.536274e+002, 9.684350e+001
7.541096e+002, 9.636507e+001
7.545917e+002, 9.614182e+001
7.550738e+002, 9.631271e+001
7.555559e+002, 9.651840e+001
7.560380e+002, 9.614404e+001
7.565201e+002, 9.534371e+001
7.570023e+002, 9.482230e+001
7.574844e+002, 9.470468e+001
7.579665e+002, 9.466306e+001
7.584486e+002, 9.444473e+001
7.589307e+002, 9.414926e+001
7.594128e+002, 9.413155e+001
7.598950e+002, 9.483721e+001
7.603771e+002, 9.499782e+001
7.608592e+002, 9.415676e+001
7.613413e+002, 9.328959e+001
7.618234e+002, 9.286012e+001
7.623055e+002, 9.270918e+001
7.627877e+002, 9.255058e+001
7.632698e+002, 9.230669e+001
7.637519e+002, 9.206273e+001
7.642340e+002, 9.190733e+001
7.647161e+002, 9.177849e+001
7.651982e+002, 9.157238e+001
7.656804e+002, 9.129537e+001
7.661625e+002, 9.102267e+001
7.666446e+002, 9.078514e+001
7.671267e+002, 9.051391e+001
7.676088e+002, 9.008095e+001
7.680909e+002, 8.946391e+001
7.685731e+002, 8.922205e+001
7.690552e+002, 8.974120e+001
7.695373e+002, 9.000081e+001
7.700194e+002, 8.956695e+001
7.705015e+002, 8.896915e+001
7.709836e+002, 8.861686e+001
7.714658e+002, 8.848646e+001
7.719479e+002, 8.831811e+001
7.724300e+002, 8.793217e+001
7.729121e+002, 8.760229e+001
7.733942e+002, 8.770664e+001
7.738763e+002, 8.790988e+001
7.743585e+002, 8.754287e+001
7.748406e+002, 8.663721e+001
7.753227e+002, 8.592735e+001
7.758048e+002, 8.591647e+001
7.762869e+002, 8.630538e+001
7.767690e+002, 8.639259e+001
7.772512e+002, 8.614116e+001
7.777333e+002, 8.583290e+001
7.782154e+002, 8.545148e+001
7.786975e+002, 8.507533e+001
7.791796e+002, 8.471197e+001
7.796617e+002, 8.439775e+001
7.801439e+002, 8.420443e+001
7.806260e+002, 8.415088e+001
7.811081e+002, 8.412312e+001
7.815902e+002, 8.421080e+001
7.820723e+002, 8.419768e+001
7.825544e+002, 8.382056e+001
7.830366e+002, 8.328921e+001
7.835187e+002, 8.299135e+001
7.840008e+002, 8.300419e+001
7.844829e+002, 8.304108e+001
7.849650e+002, 8.282681e+001
7.854471e+002, 8.244190e+001
7.859293e+002, 8.208334e+001
7.864114e+002, 8.175003e+001
7.868935e+002, 8.165574e+001
7.873756e+002, 8.194539e+001
7.878577e+002, 8.220955e+001
7.883398e+002, 8.205400e+001
7.888220e+002, 8.152737e+001
7.893040e+002, 8.104544e+001
7.897861e+002, 8.062412e+001
7.902682e+002, 8.022085e+001
7.907504e+002, 7.956453e+001
7.912325e+002, 7.917439e+001
7.917146e+002, 7.966814e+001
7.921967e+002, 8.063394e+001
7.926788e+002, 8.117659e+001
7.931609e+002, 8.094804e+001
7.936431e+002, 8.048180e+001
7.941252e+002, 8.009988e+001
7.946073e+002, 7.985778e+001
7.950894e+002, 7.995271e+001
7.955715e+002, 8.033494e+001
7.960536e+002, 8.061600e+001
7.965358e+002, 8.062900e+001
7.970179e+002, 8.055091e+001
7.975000e+002, 8.063572e+001
7.979821e+002, 8.089479e+001
7.984642e+002, 8.104881e+001
7.989464e+002, 8.113348e+001
7.994285e+002, 8.104903e+001
7.999106e+002, 8.062914e+001
8.003927e+002, 8.014084e+001
8.008748e+002, 7.973943e+001
8.013569e+002, 7.943820e+001
8.018391e+002, 7.927264e+001
8.023212e+002, 7.940818e+001
8.028033e+002, 7.945393e+001
8.032854e+002, 7.900545e+001
8.037675e+002, 7.848463e+001
8.042496e+002, 7.848368e+001
8.047318e+002, 7.891685e+001
8.052139e+002, 7.925049e+001
8.056960e+002, 7.918933e+001
8.061781e+002, 7.897460e+001
8.066602e+002, 7.909368e+001
8.071423e+002, 7.949316e+001
8.076245e+002, 7.927323e+001
8.081066e+002, 7.820901e+001
8.085887e+002, 7.754026e+001
8.090708e+002, 7.801103e+001
8.095529e+002, 7.889262e+001
8.100350e+002, 7.906467e+001
8.105172e+002, 7.837961e+001
8.109993e+002, 7.792992e+001
8.114814e+002, 7.776025e+001
8.119635e+002, 7.776530e+001
8.124456e+002, 7.810947e+001
8.129277e+002, 7.847847e+001
8.134099e+002, 7.855856e+001
8.138920e+002, 7.836777e+001
8.143741e+002, 7.813916e+001
8.148562e+002, 7.798813e+001
8.153383e+002, 7.784567e+001
8.158204e+002, 7.761160e+001
8.163026e+002, 7.734114e+001
8.167847e+002, 7.712649e+001
8.172668e+002, 7.699123e+001
8.177489e+002, 7.705106e+001
8.182310e+002, 7.740236e+001
8.187131e+002, 7.780233e+001
8.191953e+002, 7.769482e+001
8.196774e+002, 7.691712e+001
8.201595e+002, 7.671189e+001
8.206416e+002, 7.748158e+001
8.211237e+002, 7.805569e+001
8.216058e+002, 7.776289e+001
8.220880e+002, 7.722327e+001
8.225701e+002, 7.712788e+001
8.230522e+002, 7.747075e+001
8.235343e+002, 7.782096e+001
8.240164e+002, 7.812479e+001
8.244985e+002, 7.838164e+001
8.249807e+002, 7.859032e+001
8.254628e+002, 7.875430e+001
8.259449e+002, 7.890381e+001
8.264270e+002, 7.901570e+001
8.269091e+002, 7.896950e+001
8.273912e+002, 7.865617e+001
8.278734e+002, 7.835442e+001
8.283555e+002, 7.853577e+001
8.288376e+002, 7.907722e+001
8.293197e+002, 7.944884e+001
8.298018e+002, 7.960161e+001
8.302839e+002, 7.976730e+001
8.307661e+002, 8.006624e+001
8.312482e+002, 8.041357e+001
8.317303e+002, 8.064501e+001
8.322124e+002, 8.070537e+001
8.326945e+002, 8.104915e+001
8.331766e+002, 8.194891e+001
8.336588e+002, 8.273602e+001
8.341409e+002, 8.312699e+001
8.346230e+002, 8.345560e+001
8.351051e+002, 8.399707e+001
8.355872e+002, 8.473372e+001
8.360693e+002, 8.549612e+001
8.365515e+002, 8.618266e+001
8.370336e+002, 8.696456e+001
8.375157e+002, 8.804119e+001
8.379978e+002, 8.919748e+001
8.384799e+002, 9.017198e+001
8.389620e+002, 9.098751e+001
8.394442e+002, 9.178891e+001
8.399263e+002, 9.264212e+001
8.404084e+002, 9.359205e+001
8.408905e+002, 9.479099e+001
8.413726e+002, 9.615771e+001
8.418547e+002, 9.715395e+001
8.423369e+002, 9.774253e+001
8.428190e+002, 9.842175e+001
8.433011e+002, 9.947149e+001
8.437832e+002, 1.003648e+002
8.442653e+002, 1.004406e+002
8.447474e+002, 9.971896e+001
8.452296e+002, 9.905705e+001
8.457117e+002, 9.881876e+001
8.461938e+002, 9.809607e+001
8.466759e+002, 9.641921e+001
8.471580e+002, 9.461763e+001
8.476401e+002, 9.321526e+001
8.481223e+002, 9.208299e+001
8.486044e+002, 9.085436e+001
8.490865e+002, 8.941701e+001
8.495686e+002, 8.797063e+001
8.500507e+002, 8.620438e+001
8.505328e+002, 8.481063e+001
8.510150e+002, 8.508401e+001
8.514971e+002, 8.619685e+001
8.519792e+002, 8.602526e+001
8.524613e+002, 8.402916e+001
8.529434e+002, 8.167906e+001
8.534255e+002, 8.037888e+001
8.539077e+002, 7.988779e+001
8.543898e+002, 7.952686e+001
8.548719e+002, 7.929513e+001
8.553540e+002, 7.917093e+001
8.558361e+002, 7.917583e+001
8.563182e+002, 7.918151e+001
8.568004e+002, 7.910900e+001
8.572825e+002, 7.895214e+001
8.577646e+002, 7.867925e+001
8.582467e+002, 7.817899e+001
8.587288e+002, 7.780616e+001
8.592109e+002, 7.752724e+001
8.596931e+002, 7.741010e+001
8.601752e+002, 7.757301e+001
8.606573e+002, 7.785745e+001
8.611394e+002, 7.808997e+001
8.616215e+002, 7.824889e+001
8.621036e+002, 7.837173e+001
8.625858e+002, 7.846561e+001
8.630679e+002, 7.853976e+001
8.635500e+002, 7.850361e+001
8.640321e+002, 7.850362e+001
8.645142e+002, 7.885229e+001
8.649963e+002, 7.947896e+001
8.654785e+002, 7.992078e+001
8.659606e+002, 7.989258e+001
8.664427e+002, 7.968346e+001
8.669248e+002, 7.966214e+001
8.674069e+002, 7.983872e+001
8.678890e+002, 8.033325e+001
8.683712e+002, 8.116113e+001
8.688533e+002, 8.198470e+001
8.693354e+002, 8.266891e+001
8.698175e+002, 8.327990e+001
8.702996e+002, 8.388607e+001
8.707817e+002, 8.448759e+001
8.712639e+002, 8.514786e+001
8.717459e+002, 8.572222e+001
8.722280e+002, 8.661060e+001
8.727101e+002, 8.815634e+001
8.731923e+002, 8.977159e+001
8.736744e+002, 9.101847e+001
8.741565e+002, 9.207076e+001
8.746386e+002, 9.337063e+001
8.751207e+002, 9.494366e+001
8.756028e+002, 9.688050e+001
8.760850e+002, 9.940767e+001
8.765671e+002, 1.021107e+002
8.770492e+002, 1.043210e+002
8.775313e+002, 1.066288e+002
8.780134e+002, 1.100956e+002
8.784955e+002, 1.149065e+002
8.789777e+002, 1.204003e+002
8.794598e+002, 1.264022e+002
8.799419e+002, 1.323916e+002
8.804240e+002, 1.370398e+002
8.809061e+002, 1.409349e+002
8.813882e+002, 1.462215e+002
8.818704e+002, 1.532153e+002
8.823525e+002, 1.610096e+002
8.828346e+002, 1.689828e+002
8.833167e+002, 1.775093e+002
8.837988e+002, 1.874131e+002
8.842809e+002, 1.988884e+002
8.847631e+002, 2.103364e+002
8.852452e+002, 2.213841e+002
8.857273e+002, 2.333225e+002
8.862094e+002, 2.463525e+002
8.866915e+002, 2.607516e+002
8.871736e+002, 2.769628e+002
8.876558e+002, 2.949575e+002
8.881379e+002, 3.148573e+002
8.886200e+002, 3.375702e+002
8.891021e+002, 3.608699e+002
8.895842e+002, 3.839518e+002
8.900663e+002, 4.080216e+002
8.905485e+002, 4.347597e+002
8.910306e+002, 4.628412e+002
8.915127e+002, 4.899632e+002
8.919948e+002, 5.157601e+002
8.924769e+002, 5.387319e+002
8.929590e+002, 5.598994e+002
8.934412e+002, 5.761776e+002
8.939233e+002, 5.848320e+002
8.944054e+002, 5.858429e+002
8.948875e+002, 5.786940e+002
8.953696e+002, 5.636748e+002
8.958517e+002, 5.422522e+002
8.963339e+002, 5.151531e+002
8.968160e+002, 4.840067e+002
8.972981e+002, 4.512134e+002
8.977802e+002, 4.171483e+002
8.982623e+002, 3.839911e+002
8.987444e+002, 3.518911e+002
8.992266e+002, 3.221331e+002
8.997087e+002, 2.950445e+002
9.001908e+002, 2.710114e+002
9.006729e+002, 2.506984e+002
9.011550e+002, 2.341998e+002
9.016371e+002, 2.193513e+002
9.021193e+002, 2.061842e+002
9.026014e+002, 1.944978e+002
9.030835e+002, 1.843589e+002
9.035656e+002, 1.756111e+002
9.040477e+002, 1.683814e+002
9.045298e+002, 1.624237e+002
9.050120e+002, 1.571833e+002
9.054941e+002, 1.524180e+002
9.059762e+002, 1.489612e+002
9.064583e+002, 1.482111e+002
9.069404e+002, 1.475815e+002
9.074225e+002, 1.449888e+002
9.079047e+002, 1.418625e+002
9.083868e+002, 1.403724e+002
9.088689e+002, 1.407211e+002
9.093510e+002, 1.413165e+002
9.098331e+002, 1.410980e+002
9.103152e+002, 1.409371e+002
9.107974e+002, 1.415986e+002
9.112795e+002, 1.430063e+002
9.117616e+002, 1.452034e+002
9.122437e+002, 1.480376e+002
9.127258e+002, 1.509509e+002
9.132079e+002, 1.536767e+002
9.136901e+002, 1.564940e+002
9.141722e+002, 1.599319e+002
9.146543e+002, 1.638080e+002
9.151364e+002, 1.672317e+002
9.156185e+002, 1.702084e+002
9.161006e+002, 1.726573e+002
9.165828e+002, 1.745632e+002
9.170649e+002, 1.760173e+002
9.175470e+002, 1.771338e+002
9.180291e+002, 1.778458e+002
9.185112e+002, 1.778376e+002
9.189933e+002, 1.765811e+002
9.194755e+002, 1.759615e+002
9.199576e+002, 1.762381e+002
9.204397e+002, 1.767893e+002
9.209218e+002, 1.771072e+002
9.214039e+002, 1.777590e+002
9.218860e+002, 1.792417e+002
9.223682e+002, 1.815814e+002
9.228503e+002, 1.850120e+002
9.233324e+002, 1.897677e+002
9.238145e+002, 1.953409e+002
9.242966e+002, 2.014289e+002
9.247787e+002, 2.084217e+002
9.252609e+002, 2.165757e+002
9.257430e+002, 2.258614e+002
9.262251e+002, 2.362503e+002
9.267072e+002, 2.477483e+002
9.271893e+002, 2.598267e+002
9.276714e+002, 2.727113e+002
9.281536e+002, 2.853992e+002
9.286357e+002, 2.980379e+002
9.291178e+002, 3.094129e+002
9.295999e+002, 3.175548e+002
9.300820e+002, 3.221126e+002
9.305641e+002, 3.236255e+002
9.310463e+002, 3.225327e+002
9.315284e+002, 3.181226e+002
9.320105e+002, 3.085862e+002
9.324926e+002, 2.947398e+002
9.329747e+002, 2.795443e+002
9.334568e+002, 2.632657e+002
9.339390e+002, 2.465027e+002
9.344211e+002, 2.294991e+002
9.349032e+002, 2.130953e+002
9.353853e+002, 1.981852e+002
9.358674e+002, 1.847377e+002
9.363495e+002, 1.725728e+002
9.368317e+002, 1.616678e+002
9.373138e+002, 1.521283e+002
9.377959e+002, 1.440960e+002
9.382780e+002, 1.370789e+002
9.387601e+002, 1.308263e+002
9.392422e+002, 1.253208e+002
9.397244e+002, 1.205633e+002
9.402065e+002, 1.166674e+002
9.406886e+002, 1.128921e+002
9.411707e+002, 1.089711e+002
9.416528e+002, 1.055123e+002
9.421349e+002, 1.027791e+002
9.426171e+002, 1.004091e+002
9.430992e+002, 9.817142e+001
9.435813e+002, 9.607344e+001
9.440634e+002, 9.421722e+001
9.445455e+002, 9.265820e+001
9.450276e+002, 9.119456e+001
9.455098e+002, 8.976893e+001
9.459919e+002, 8.839095e+001
9.464740e+002, 8.698805e+001
9.469561e+002, 8.569643e+001
9.474382e+002, 8.473203e+001
9.479203e+002, 8.408823e+001
9.484025e+002, 8.355633e+001
9.488846e+002, 8.305679e+001
9.493667e+002, 8.254956e+001
9.498488e+002, 8.195295e+001
9.503309e+002, 8.134532e+001
9.508130e+002, 8.088152e+001
9.512952e+002, 8.051638e+001
9.517773e+002, 8.007590e+001
9.522594e+002, 7.950124e+001
9.527415e+002, 7.884470e+001
9.532236e+002, 7.809627e+001
9.537057e+002, 7.737133e+001
9.541878e+002, 7.697491e+001
9.546699e+002, 7.687035e+001
9.551520e+002, 7.688647e+001
9.556342e+002, 7.699678e+001
9.561163e+002, 7.686028e+001
9.565984e+002, 7.624754e+001
9.570805e+002, 7.554751e+001
9.575626e+002, 7.540928e+001
9.580447e+002, 7.582140e+001
9.585269e+002, 7.616600e+001
9.590090e+002, 7.644633e+001
9.594911e+002, 7.664915e+001
9.599732e+002, 7.676013e+001
9.604553e+002, 7.681351e+001
9.609374e+002, 7.679697e+001
9.614196e+002, 7.676440e+001
9.619017e+002, 7.689951e+001
9.623838e+002, 7.737797e+001
9.628659e+002, 7.747280e+001
9.633480e+002, 7.675340e+001
9.638301e+002, 7.623206e+001
9.643123e+002, 7.613554e+001
9.647944e+002, 7.637177e+001
9.652765e+002, 7.711201e+001
9.657586e+002, 7.816286e+001
9.662407e+002, 7.864948e+001
9.667228e+002, 7.803422e+001
9.672050e+002, 7.773145e+001
9.676871e+002, 7.826620e+001
9.681692e+002, 7.895036e+001
9.686513e+002, 7.966241e+001
9.691334e+002, 8.013132e+001
9.696155e+002, 7.987524e+001
9.700977e+002, 7.895741e+001
9.705798e+002, 7.819743e+001
9.710619e+002, 7.797072e+001
9.715440e+002, 7.797038e+001
9.720261e+002, 7.805529e+001
9.725082e+002, 7.822847e+001
9.729904e+002, 7.853740e+001
9.734725e+002, 7.892659e+001
9.739546e+002, 7.926655e+001
9.744367e+002, 7.952474e+001
9.749188e+002, 7.980444e+001
9.754009e+002, 8.011787e+001
9.758831e+002, 8.057098e+001
9.763652e+002, 8.150285e+001
9.768473e+002, 8.261668e+001
9.773294e+002, 8.313170e+001
9.778115e+002, 8.311935e+001
9.782936e+002, 8.340797e+001
9.787758e+002, 8.439237e+001
9.792579e+002, 8.564651e+001
9.797400e+002, 8.672626e+001
9.802221e+002, 8.762337e+001
9.807042e+002, 8.814883e+001
9.811863e+002, 8.837739e+001
9.816685e+002, 8.893638e+001
9.821506e+002, 8.994725e+001
9.826327e+002, 9.118242e+001
9.831148e+002, 9.250036e+001
9.835969e+002, 9.390837e+001
9.840790e+002, 9.543481e+001
9.845612e+002, 9.707816e+001
9.850433e+002, 9.871098e+001
9.855254e+002, 1.003213e+002
9.860075e+002, 1.019417e+002
9.864896e+002, 1.034925e+002
9.869717e+002, 1.053593e+002
9.874539e+002, 1.078943e+002
9.879360e+002, 1.109476e+002
9.884181e+002, 1.140287e+002
9.889002e+002, 1.169839e+002
9.893823e+002, 1.204724e+002
9.898644e+002, 1.245992e+002
9.903466e+002, 1.290560e+002
9.908287e+002, 1.336600e+002
9.913108e+002, 1.386865e+002
9.917929e+002, 1.444614e+002
9.922750e+002, 1.509145e+002
9.927571e+002, 1.575768e+002
9.932393e+002, 1.642030e+002
9.937214e+002, 1.714467e+002
9.942035e+002, 1.790500e+002
9.946856e+002, 1.876530e+002
9.951677e+002, 1.980631e+002
9.956498e+002, 2.091735e+002
9.961320e+002, 2.194500e+002
9.966141e+002, 2.291420e+002
9.970962e+002, 2.402591e+002
9.975783e+002, 2.537244e+002
9.980604e+002, 2.676628e+002
9.985425e+002, 2.807487e+002
9.990247e+002, 2.949996e+002
9.995068e+002, 3.116441e+002
9.999889e+002, 3.301490e+002
1.000471e+003, 3.495003e+002
1.000953e+003, 3.696328e+002
1.001435e+003, 3.912108e+002
1.001917e+003, 4.150142e+002
1.002399e+003, 4.394327e+002
1.002882e+003, 4.647940e+002
1.003364e+003, 4.892428e+002
1.003846e+003, 5.122673e+002
1.004328e+003, 5.327848e+002
1.004810e+003, 5.501843e+002
1.005292e+003, 5.639893e+002
1.005774e+003, 5.720966e+002
1.006256e+003, 5.735015e+002
1.006739e+003, 5.682822e+002
1.007221e+003, 5.552791e+002
1.007703e+003, 5.365324e+002
1.008185e+003, 5.138845e+002
1.008667e+003, 4.882977e+002
1.009149e+003, 4.607673e+002
1.009631e+003, 4.319210e+002
1.010113e+003, 4.030063e+002
1.010595e+003, 3.747907e+002
1.011078e+003, 3.477950e+002
1.011560e+003, 3.227213e+002
1.012042e+003, 2.995853e+002
1.012524e+003, 2.782496e+002
1.013006e+003, 2.587592e+002
1.013488e+003, 2.414880e+002
1.013970e+003, 2.265160e+002
1.014452e+003, 2.134000e+002
1.014935e+003, 2.017734e+002
1.015417e+003, 1.914805e+002
1.015899e+003, 1.822787e+002
1.016381e+003, 1.740584e+002
1.016863e+003, 1.664812e+002
1.017345e+003, 1.595171e+002
1.017827e+003, 1.531993e+002
1.018309e+003, 1.475606e+002
1.018791e+003, 1.424337e+002
1.019274e+003, 1.375701e+002
1.019756e+003, 1.330309e+002
1.020238e+003, 1.290978e+002
1.020720e+003, 1.257658e+002
1.021202e+003, 1.224657e+002
1.021684e+003, 1.190775e+002
1.022166e+003, 1.161213e+002
1.022648e+003, 1.139478e+002
1.023130e+003, 1.121026e+002
1.023613e+003, 1.098022e+002
1.024095e+003, 1.070902e+002
1.024577e+003, 1.047918e+002
1.025059e+003, 1.029529e+002
1.025541e+003, 1.012072e+002
1.026023e+003, 9.947769e+001
1.026505e+003, 9.783796e+001
1.026987e+003, 9.631296e+001
1.027469e+003, 9.494588e+001
1.027952e+003, 9.385171e+001
1.028434e+003, 9.303565e+001
1.028916e+003, 9.220402e+001
1.029398e+003, 9.142655e+001
1.029880e+003, 9.031635e+001
1.030362e+003, 8.856642e+001
1.030844e+003, 8.704199e+001
1.031326e+003, 8.643590e+001
1.031809e+003, 8.628002e+001
1.032291e+003, 8.558702e+001
1.032773e+003, 8.425857e+001
1.033255e+003, 8.325214e+001
1.033737e+003, 8.270229e+001
1.034219e+003, 8.217889e+001
1.034701e+003, 8.157719e+001
1.035183e+003, 8.103224e+001
1.035666e+003, 8.076205e+001
1.036148e+003, 8.053379e+001
1.036630e+003, 7.976012e+001
1.037112e+003, 7.822365e+001
1.037594e+003, 7.737943e+001
1.038076e+003, 7.786940e+001
1.038558e+003, 7.802399e+001
1.039040e+003, 7.730212e+001
1.039522e+003, 7.644352e+001
1.040005e+003, 7.589910e+001
1.040487e+003, 7.555619e+001
1.040969e+003, 7.521951e+001
1.041451e+003, 7.492867e+001
1.041933e+003, 7.442712e+001
1.042415e+003, 7.340781e+001
1.042897e+003, 7.259969e+001
1.043379e+003, 7.233274e+001
1.043861e+003, 7.212209e+001
1.044344e+003, 7.150410e+001
1.044826e+003, 7.077352e+001
1.045308e+003, 7.061234e+001
1.045790e+003, 7.119316e+001
1.046272e+003, 7.141100e+001
1.046754e+003, 7.093415e+001
1.047236e+003, 7.038081e+001
1.047718e+003, 6.973717e+001
1.048201e+003, 6.922734e+001
1.048683e+003, 6.918197e+001
1.049165e+003, 6.931033e+001
1.049647e+003, 6.898835e+001
1.050129e+003, 6.809124e+001
1.050611e+003, 6.745217e+001
1.051093e+003, 6.745307e+001
1.051575e+003, 6.743182e+001
1.052057e+003, 6.717223e+001
1.052540e+003, 6.684053e+001
1.053022e+003, 6.651656e+001
1.053504e+003, 6.622602e+001
1.053986e+003, 6.600593e+001
1.054468e+003, 6.586176e+001
1.054950e+003, 6.572831e+001
1.055432e+003, 6.567298e+001
1.055914e+003, 6.551120e+001
1.056396e+003, 6.499451e+001
1.056879e+003, 6.452870e+001
1.057361e+003, 6.446747e+001
1.057843e+003, 6.465510e+001
1.058325e+003, 6.484180e+001
1.058807e+003, 6.498128e+001
1.059289e+003, 6.496261e+001
1.059771e+003, 6.468810e+001
1.060253e+003, 6.433316e+001
1.060736e+003, 6.386874e+001
1.061218e+003, 6.344117e+001
1.061700e+003, 6.318493e+001
1.062182e+003, 6.302934e+001
1.062664e+003, 6.288814e+001
1.063146e+003, 6.273338e+001
1.063628e+003, 6.244920e+001
1.064110e+003, 6.175370e+001
1.064593e+003, 6.126020e+001
1.065075e+003, 6.134054e+001
1.065557e+003, 6.159909e+001
1.066039e+003, 6.184336e+001
1.066521e+003, 6.200532e+001
1.067003e+003, 6.198655e+001
1.067485e+003, 6.179671e+001
1.067967e+003, 6.162152e+001
1.068449e+003, 6.153648e+001
1.068932e+003, 6.146685e+001
1.069414e+003, 6.136881e+001
1.069896e+003, 6.128412e+001
1.070378e+003, 6.137779e+001
1.070860e+003, 6.142908e+001
1.071342e+003, 6.096265e+001
1.071824e+003, 6.006581e+001
1.072306e+003, 5.958538e+001
1.072788e+003, 6.006396e+001
1.073271e+003, 6.046433e+001
1.073753e+003, 6.014735e+001
1.074235e+003, 5.974162e+001
1.074717e+003, 5.971180e+001
1.075199e+003, 5.986670e+001
1.075681e+003, 5.994850e+001
1.076163e+003, 5.992669e+001
1.076645e+003, 5.986982e+001
1.077127e+003, 5.979519e+001
1.077610e+003, 5.970824e+001
1.078092e+003, 5.965873e+001
1.078574e+003, 5.954552e+001
1.079056e+003, 5.916614e+001
1.079538e+003, 5.877728e+001
1.080020e+003, 5.872097e+001
1.080502e+003, 5.894590e+001
1.080984e+003, 5.920051e+001
1.081467e+003, 5.947008e+001
1.081949e+003, 5.944541e+001
1.082431e+003, 5.862756e+001
1.082913e+003, 5.789156e+001
1.083395e+003, 5.779519e+001
1.083877e+003, 5.804280e+001
1.084359e+003, 5.849652e+001
1.084841e+003, 5.896266e+001
1.085323e+003, 5.900728e+001
1.085806e+003, 5.846395e+001
1.086288e+003, 5.804014e+001
1.086770e+003, 5.827788e+001
1.087252e+003, 5.840789e+001
1.087734e+003, 5.772370e+001
1.088216e+003, 5.701181e+001
1.088698e+003, 5.715830e+001
1.089180e+003, 5.782411e+001
1.089662e+003, 5.816343e+001
1.090145e+003, 5.800250e+001
1.090627e+003, 5.788338e+001
1.091109e+003, 5.815171e+001
1.091591e+003, 5.831401e+001
1.092073e+003, 5.811575e+001
1.092555e+003, 5.777248e+001
1.093037e+003, 5.725099e+001
1.093519e+003, 5.680222e+001
1.094002e+003, 5.696532e+001
1.094484e+003, 5.774119e+001
1.094966e+003, 5.813879e+001
1.095448e+003, 5.764464e+001
1.095930e+003, 5.702393e+001
1.096412e+003, 5.621625e+001
1.096894e+003, 5.569347e+001
1.097376e+003, 5.605397e+001
1.097859e+003, 5.669376e+001
1.098341e+003, 5.674356e+001
1.098823e+003, 5.622059e+001
1.099305e+003, 5.586937e+001
1.099787e+003, 5.601762e+001
1.100269e+003, 5.601608e+001
1.100751e+003, 5.538562e+001
1.101233e+003, 5.493998e+001
1.101715e+003, 5.530040e+001
1.102198e+003, 5.587704e+001
1.102680e+003, 5.604198e+001
1.103162e+003, 5.585108e+001
1.103644e+003, 5.566935e+001
1.104126e+003, 5.550257e+001
1.104608e+003, 5.549715e+001
1.105090e+003, 5.593677e+001
1.105572e+003, 5.620637e+001
1.106054e+003, 5.589243e+001
1.106537e+003, 5.550982e+001
1.107019e+003, 5.553688e+001
1.107501e+003, 5.580730e+001
1.107983e+003, 5.586699e+001
1.108465e+003, 5.563701e+001
1.108947e+003, 5.546217e+001
1.109429e+003, 5.545613e+001
1.109911e+003, 5.538743e+001
1.110394e+003, 5.514648e+001
1.110876e+003, 5.489705e+001
1.111358e+003, 5.466216e+001
1.111840e+003, 5.451579e+001
1.112322e+003, 5.464796e+001
1.112804e+003, 5.508362e+001
1.113286e+003, 5.528230e+001
1.113768e+003, 5.515329e+001
1.114250e+003, 5.493044e+001
1.114733e+003, 5.443565e+001
1.115215e+003, 5.411684e+001
1.115697e+003, 5.427003e+001
1.116179e+003, 5.459960e+001
1.116661e+003, 5.482428e+001
1.117143e+003, 5.493011e+001
1.117625e+003, 5.478755e+001
1.118107e+003, 5.415715e+001
1.118589e+003, 5.386597e+001
1.119072e+003, 5.408666e+001
1.119554e+003, 5.431843e+001
1.120036e+003, 5.441366e+001
1.120518e+003, 5.446664e+001
1.121000e+003, 5.461999e+001
1.121482e+003, 5.474450e+001
1.121964e+003, 5.437243e+001
1.122446e+003, 5.329891e+001
1.122929e+003, 5.304729e+001
1.123411e+003, 5.390601e+001
1.123893e+003, 5.461925e+001
1.124375e+003, 5.494689e+001
1.124857e+003, 5.494765e+001
1.125339e+003, 5.451256e+001
1.125821e+003, 5.410474e+001
1.126303e+003, 5.464650e+001
1.126786e+003, 5.604604e+001
1.127268e+003, 5.654481e+001
1.127750e+003, 5.603858e+001
1.128232e+003, 5.552828e+001
1.128714e+003, 5.513367e+001
1.129196e+003, 5.482359e+001
1.129678e+003, 5.459293e+001
1.130160e+003, 5.439504e+001
1.130642e+003, 5.416289e+001
1.131125e+003, 5.394343e+001
1.131607e+003, 5.391753e+001
1.132089e+003, 5.407646e+001
1.132571e+003, 5.430774e+001
1.133053e+003, 5.459903e+001
1.133535e+003, 5.468687e+001
1.134017e+003, 5.449171e+001
1.134499e+003, 5.433559e+001
1.134981e+003, 5.448713e+001
1.135464e+003, 5.472680e+001
1.135946e+003, 5.469149e+001
1.136428e+003, 5.439923e+001
1.136910e+003, 5.370161e+001
1.137392e+003, 5.278246e+001
1.137874e+003, 5.263713e+001
1.138356e+003, 5.334013e+001
1.138838e+003, 5.404338e+001
1.139321e+003, 5.431507e+001
1.139803e+003, 5.427525e+001
1.140285e+003, 5.394213e+001
1.140767e+003, 5.349942e+001
1.141249e+003, 5.326103e+001
1.141731e+003, 5.318341e+001
1.142213e+003, 5.320099e+001
1.142695e+003, 5.328658e+001
1.143177e+003, 5.341420e+001
1.143660e+003, 5.356414e+001
1.144142e+003, 5.366900e+001
1.144624e+003, 5.369767e+001
1.145106e+003, 5.362325e+001
1.145588e+003, 5.329730e+001
1.146070e+003, 5.294983e+001
1.146552e+003, 5.299759e+001
1.147034e+003, 5.318881e+001
1.147516e+003, 5.296177e+001
1.147999e+003, 5.234370e+001
1.148481e+003, 5.188058e+001
1.148963e+003, 5.181495e+001
1.149445e+003, 5.184053e+001
1.149927e+003, 5.179033e+001
1.150409e+003, 5.173196e+001
1.150891e+003, 5.171300e+001
1.151373e+003, 5.171206e+001
1.151856e+003, 5.175038e+001
1.152338e+003, 5.177244e+001
1.152820e+003, 5.158394e+001
1.153302e+003, 5.114776e+001
1.153784e+003, 5.101152e+001
1.154266e+003, 5.172836e+001
1.154748e+003, 5.224744e+001
1.155230e+003, 5.210938e+001
1.155713e+003, 5.179383e+001
1.156195e+003, 5.146708e+001
1.156677e+003, 5.122593e+001
1.157159e+003, 5.125438e+001
1.157641e+003, 5.149478e+001
1.158123e+003, 5.150840e+001
1.158605e+003, 5.109869e+001
1.159087e+003, 5.079746e+001
1.159569e+003, 5.067293e+001
1.160052e+003, 5.061046e+001
1.160534e+003, 5.051522e+001
1.161016e+003, 5.054684e+001
1.161498e+003, 5.091158e+001
1.161980e+003, 5.143924e+001
1.162462e+003, 5.178553e+001
1.162944e+003, 5.196181e+001
1.163426e+003, 5.181440e+001
1.163908e+003, 5.119355e+001
1.164391e+003, 5.066647e+001
1.164873e+003, 5.025927e+001
1.165355e+003, 5.011679e+001
1.165837e+003, 5.037219e+001
1.166319e+003, 5.076336e+001
1.166801e+003, 5.100419e+001
1.167283e+003, 5.109740e+001
1.167765e+003, 5.102564e+001
1.168247e+003, 5.078137e+001
1.168730e+003, 5.059595e+001
1.169212e+003, 5.047916e+001
1.169694e+003, 5.050837e+001
1.170176e+003, 5.071350e+001
1.170658e+003, 5.056884e+001
1.171140e+003, 4.962021e+001
1.171622e+003, 4.878705e+001
1.172104e+003, 4.975529e+001
1.172587e+003, 5.196218e+001
1.173069e+003, 5.399266e+001
1.173551e+003, 5.556823e+001
1.174033e+003, 5.524384e+001
1.174515e+003, 5.325342e+001
1.174997e+003, 5.156322e+001
1.175479e+003, 5.091378e+001
1.175961e+003, 5.072252e+001
1.176443e+003, 5.060222e+001
1.176926e+003, 5.046988e+001
1.177408e+003, 5.011109e+001
1.177890e+003, 4.975634e+001
1.178372e+003, 4.976681e+001
1.178854e+003, 5.003730e+001
1.179336e+003, 5.027660e+001
1.179818e+003, 5.050090e+001
1.180300e+003, 5.106553e+001
1.180782e+003, 5.218538e+001
1.181265e+003, 5.308962e+001
1.181747e+003, 5.337523e+001
1.182229e+003, 5.320809e+001
1.182711e+003, 5.234045e+001
1.183193e+003, 5.138806e+001
1.183675e+003, 5.094585e+001
1.184157e+003, 5.085355e+001
1.184639e+003, 5.075318e+001
1.185122e+003, 5.058951e+001
1.185604e+003, 5.041331e+001
1.186086e+003, 5.012970e+001
1.186568e+003, 5.000537e+001
1.187050e+003, 5.022176e+001
1.187532e+003, 5.043480e+001
1.188014e+003, 5.048143e+001
1.188496e+003, 5.047656e+001
1.188979e+003, 5.054443e+001
1.189461e+003, 5.064202e+001
1.189943e+003, 5.063606e+001
1.190425e+003, 5.050185e+001
1.190907e+003, 5.039866e+001
1.191389e+003, 5.028241e+001
1.191871e+003, 5.033613e+001
1.192353e+003, 5.063786e+001
1.192835e+003, 5.100824e+001
1.193318e+003, 5.144670e+001
1.193800e+003, 5.162914e+001
1.194282e+003, 5.107734e+001
1.194764e+003, 5.003477e+001
1.195246e+003, 4.940037e+001
1.195728e+003, 4.917406e+001
1.196210e+003, 4.959263e+001
1.196692e+003, 5.061361e+001
1.197174e+003, 5.121996e+001
1.197657e+003, 5.116198e+001
1.198139e+003, 5.072274e+001
1.198621e+003, 5.004607e+001
1.199103e+003, 4.952282e+001
1.199585e+003, 4.983178e+001
1.200067e+003, 5.053637e+001
1.200549e+003, 5.079571e+001
1.201031e+003, 5.075216e+001
1.201514e+003, 5.072359e+001
1.201996e+003, 5.069675e+001
1.202478e+003, 5.044702e+001
1.202960e+003, 4.996344e+001
1.203442e+003, 4.961286e+001
1.203924e+003, 4.962040e+001
1.204406e+003, 4.978685e+001
1.204888e+003, 5.020186e+001
1.205370e+003, 5.045668e+001
1.205853e+003, 4.984370e+001
1.206335e+003, 4.914724e+001
1.206817e+003, 4.956697e+001
1.207299e+003, 5.067736e+001
1.207781e+003, 5.106096e+001
1.208263e+003, 5.038563e+001
1.208745e+003, 4.998440e+001
1.209227e+003, 5.055056e+001
1.209709e+003, 5.085773e+001
1.210192e+003, 5.039912e+001
1.210674e+003, 4.992258e+001
1.211156e+003, 4.979168e+001
1.211638e+003, 4.983091e+001
1.212120e+003, 4.991024e+001
1.212602e+003, 5.000368e+001
1.213084e+003, 5.000122e+001
1.213566e+003, 4.986554e+001
1.214049e+003, 4.981879e+001
1.214531e+003, 4.986610e+001
1.215013e+003, 5.001143e+001
1.215495e+003, 5.030121e+001
1.215977e+003, 5.044279e+001
1.216459e+003, 5.025092e+001
1.216941e+003, 4.999618e+001
1.217423e+003, 5.000605e+001
1.217906e+003, 5.022246e+001
1.218388e+003, 5.049825e+001
1.218870e+003, 5.081726e+001
1.219352e+003, 5.114311e+001
1.219834e+003, 5.144139e+001
1.220316e+003, 5.156185e+001
1.220798e+003, 5.147377e+001
1.221280e+003, 5.118209e+001
1.221762e+003, 5.067761e+001
1.222245e+003, 5.025028e+001
1.222727e+003, 5.018290e+001
1.223209e+003, 5.035404e+001
1.223691e+003, 5.086028e+001
1.224173e+003, 5.133953e+001
1.224655e+003, 5.115482e+001
1.225137e+003, 5.062952e+001
1.225619e+003, 5.054043e+001
1.226101e+003, 5.091506e+001
1.226584e+003, 5.098414e+001
1.227066e+003, 5.029405e+001
1.227548e+003, 4.984476e+001
1.228030e+003, 5.014613e+001
1.228512e+003, 5.053712e+001
1.228994e+003, 5.093091e+001
1.229476e+003, 5.112164e+001
1.229958e+003, 5.069987e+001
1.230441e+003, 5.010106e+001
1.230923e+003, 5.017054e+001
1.231405e+003, 5.088050e+001
1.231887e+003, 5.123347e+001
1.232369e+003, 5.107000e+001
1.232851e+003, 5.107002e+001
1.233333e+003, 5.137794e+001
1.233815e+003, 5.138534e+001
1.234297e+003, 5.082414e+001
1.234780e+003, 5.030241e+001
1.235262e+003, 5.026559e+001
1.235744e+003, 5.049926e+001
1.236226e+003, 5.064314e+001
1.236708e+003, 5.073855e+001
1.237190e+003, 5.098979e+001
1.237672e+003, 5.135408e+001
1.238154e+003, 5.173534e+001
1.238636e+003, 5.205334e+001
1.239119e+003, 5.198476e+001
1.239601e+003, 5.147742e+001
1.240083e+003, 5.081224e+001
1.240565e+003, 5.008107e+001
1.241047e+003, 4.970918e+001
1.241529e+003, 5.050850e+001
1.242011e+003, 5.144083e+001
1.242493e+003, 5.143257e+001
1.242975e+003, 5.100013e+001
1.243458e+003, 5.072062e+001
1.243940e+003, 5.060360e+001
1.244422e+003, 5.045373e+001
1.244904e+003, 5.026225e+001
1.245386e+003, 5.036934e+001
1.245868e+003, 5.116297e+001
1.246350e+003, 5.170452e+001
1.246832e+003, 5.156685e+001
1.247315e+003, 5.152362e+001
1.247797e+003, 5.203019e+001
1.248279e+003, 5.247621e+001
1.248761e+003, 5.237322e+001
1.249243e+003, 5.198742e+001
1.249725e+003, 5.177707e+001
1.250207e+003, 5.173976e+001
1.250689e+003, 5.187544e+001
1.251172e+003, 5.221655e+001
1.251654e+003, 5.232411e+001
1.252136e+003, 5.215305e+001
1.252618e+003, 5.210346e+001
1.253100e+003, 5.229497e+001
1.253582e+003, 5.254635e+001
1.254064e+003, 5.273080e+001
1.254546e+003, 5.292307e+001
1.255028e+003, 5.310080e+001
1.255510e+003, 5.345005e+001
1.255993e+003, 5.491061e+001
1.256475e+003, 5.647152e+001
1.256957e+003, 5.578240e+001
1.257439e+003, 5.362764e+001
1.257921e+003, 5.223571e+001
1.258403e+003, 5.205283e+001
1.258885e+003, 5.230878e+001
1.259367e+003, 5.287392e+001
1.259850e+003, 5.309272e+001
1.260332e+003, 5.209139e+001
1.260814e+003, 5.142241e+001
1.261296e+003, 5.214376e+001
1.261778e+003, 5.314965e+001
1.262260e+003, 5.373933e+001
1.262742e+003, 5.395622e+001
1.263224e+003, 5.382725e+001
1.263707e+003, 5.341902e+001
1.264189e+003, 5.329297e+001
1.264671e+003, 5.365434e+001
1.265153e+003, 5.350191e+001
1.265635e+003, 5.259380e+001
1.266117e+003, 5.232588e+001
1.266599e+003, 5.310843e+001
1.267081e+003, 5.388529e+001
1.267563e+003, 5.407431e+001
1.268046e+003, 5.392205e+001
1.268528e+003, 5.366924e+001
1.269010e+003, 5.338954e+001
1.269492e+003, 5.318253e+001
1.269974e+003, 5.311216e+001
1.270456e+003, 5.348233e+001
1.270938e+003, 5.409525e+001
1.271420e+003, 5.437149e+001
1.271902e+003, 5.430162e+001
1.272385e+003, 5.428266e+001
1.272867e+003, 5.446626e+001
1.273349e+003, 5.470393e+001
1.273831e+003, 5.509138e+001
1.274313e+003, 5.525536e+001
1.274795e+003, 5.463692e+001
1.275277e+003, 5.415720e+001
1.275759e+003, 5.423603e+001
1.276242e+003, 5.493766e+001
1.276724e+003, 5.702751e+001
1.277206e+003, 5.965776e+001
1.277688e+003, 5.996624e+001
1.278170e+003, 5.757461e+001
1.278652e+003, 5.640828e+001
1.279134e+003, 5.688496e+001
1.279616e+003, 5.702617e+001
1.280099e+003, 5.652061e+001
1.280581e+003, 5.629429e+001
1.281063e+003, 5.671758e+001
1.281545e+003, 5.716952e+001
1.282027e+003, 5.715715e+001
1.282509e+003, 5.690292e+001
1.282991e+003, 5.676217e+001
1.283473e+003, 5.667629e+001
1.283955e+003, 5.653241e+001
##END=



