##NAMES=Erionite-Ca
##RRUFFID=R061110
##IDEAL CHEMISTRY=Ca_5_(Si_26_Al_10_O_72_)&#183;30H_2_O
##LOCALITY=Maze, Niigata Prefecture, Japan
##OWNER=RRUFF
##SOURCE=Michael Scott
##DESCRIPTION=Radiating white crystals with clinoptilolite
##STATUS=The identification of this mineral is confirmed by single-crystal X-ray diffraction and chemical analysis.
##URL=rruff.info/R061110
##MEASURED CHEMISTRY=(Ca_2.02_Na_2.64_K_1.92_)_Σ=6.58_(Si_27.40_Al_8.60_)O_72_·19.40H_2_O
8.936163e+001, 0.000000e+000
8.984375e+001, 4.996412e+002
9.032587e+001, 5.040200e+002
9.080798e+001, 5.048986e+002
9.129010e+001, 5.010157e+002
9.177222e+001, 4.950919e+002
9.225433e+001, 4.904382e+002
9.273645e+001, 4.869153e+002
9.321857e+001, 4.832159e+002
9.370068e+001, 4.784146e+002
9.418280e+001, 4.726057e+002
9.466492e+001, 4.660652e+002
9.514703e+001, 4.580854e+002
9.562915e+001, 4.495962e+002
9.611127e+001, 4.431362e+002
9.659338e+001, 4.389247e+002
9.707550e+001, 4.358662e+002
9.755762e+001, 4.329217e+002
9.803973e+001, 4.300847e+002
9.852185e+001, 4.269585e+002
9.900397e+001, 4.230289e+002
9.948608e+001, 4.182437e+002
9.996820e+001, 4.147121e+002
1.004503e+002, 4.130580e+002
1.009324e+002, 4.118955e+002
1.014146e+002, 4.079240e+002
1.018967e+002, 4.001029e+002
1.023788e+002, 3.923442e+002
1.028609e+002, 3.865988e+002
1.033430e+002, 3.832911e+002
1.038251e+002, 3.809575e+002
1.043073e+002, 3.802777e+002
1.047894e+002, 3.806307e+002
1.052715e+002, 3.786015e+002
1.057536e+002, 3.726678e+002
1.062357e+002, 3.660117e+002
1.067178e+002, 3.607601e+002
1.072000e+002, 3.577745e+002
1.076821e+002, 3.550216e+002
1.081642e+002, 3.524119e+002
1.086463e+002, 3.499794e+002
1.091284e+002, 3.472172e+002
1.096105e+002, 3.440106e+002
1.100927e+002, 3.405156e+002
1.105748e+002, 3.369128e+002
1.110569e+002, 3.327375e+002
1.115390e+002, 3.288935e+002
1.120211e+002, 3.258440e+002
1.125032e+002, 3.240120e+002
1.129854e+002, 3.214422e+002
1.134675e+002, 3.172123e+002
1.139496e+002, 3.122277e+002
1.144317e+002, 3.077358e+002
1.149138e+002, 3.036125e+002
1.153959e+002, 3.003933e+002
1.158781e+002, 2.986635e+002
1.163602e+002, 2.996700e+002
1.168423e+002, 2.996744e+002
1.173244e+002, 2.966978e+002
1.178065e+002, 2.916396e+002
1.182886e+002, 2.867896e+002
1.187708e+002, 2.827610e+002
1.192529e+002, 2.794923e+002
1.197350e+002, 2.770620e+002
1.202171e+002, 2.761170e+002
1.206992e+002, 2.752455e+002
1.211813e+002, 2.733911e+002
1.216635e+002, 2.707249e+002
1.221456e+002, 2.682319e+002
1.226277e+002, 2.671791e+002
1.231098e+002, 2.665174e+002
1.235919e+002, 2.648443e+002
1.240740e+002, 2.608019e+002
1.245562e+002, 2.560331e+002
1.250383e+002, 2.521792e+002
1.255204e+002, 2.492172e+002
1.260025e+002, 2.468875e+002
1.264846e+002, 2.452170e+002
1.269667e+002, 2.440363e+002
1.274489e+002, 2.429224e+002
1.279310e+002, 2.418248e+002
1.284131e+002, 2.406493e+002
1.288952e+002, 2.392636e+002
1.293773e+002, 2.376831e+002
1.298594e+002, 2.357671e+002
1.303416e+002, 2.329755e+002
1.308237e+002, 2.294774e+002
1.313058e+002, 2.263173e+002
1.317879e+002, 2.241684e+002
1.322700e+002, 2.228735e+002
1.327521e+002, 2.217060e+002
1.332343e+002, 2.206429e+002
1.337164e+002, 2.196252e+002
1.341985e+002, 2.185270e+002
1.346806e+002, 2.173508e+002
1.351627e+002, 2.160514e+002
1.356448e+002, 2.146417e+002
1.361270e+002, 2.131180e+002
1.366091e+002, 2.113511e+002
1.370912e+002, 2.092347e+002
1.375733e+002, 2.069158e+002
1.380554e+002, 2.048100e+002
1.385375e+002, 2.030130e+002
1.390197e+002, 2.011307e+002
1.395018e+002, 1.985723e+002
1.399839e+002, 1.949937e+002
1.404660e+002, 1.924036e+002
1.409481e+002, 1.914384e+002
1.414302e+002, 1.919466e+002
1.419124e+002, 1.918897e+002
1.423945e+002, 1.912603e+002
1.428766e+002, 1.900869e+002
1.433587e+002, 1.882906e+002
1.438408e+002, 1.855266e+002
1.443229e+002, 1.828621e+002
1.448051e+002, 1.804466e+002
1.452872e+002, 1.781991e+002
1.457693e+002, 1.766836e+002
1.462514e+002, 1.763827e+002
1.467335e+002, 1.764907e+002
1.472156e+002, 1.759401e+002
1.476978e+002, 1.741079e+002
1.481799e+002, 1.723958e+002
1.486620e+002, 1.712180e+002
1.491441e+002, 1.709302e+002
1.496262e+002, 1.702249e+002
1.501083e+002, 1.686638e+002
1.505905e+002, 1.667663e+002
1.510726e+002, 1.654395e+002
1.515547e+002, 1.654772e+002
1.520368e+002, 1.654127e+002
1.525189e+002, 1.647666e+002
1.530010e+002, 1.631041e+002
1.534832e+002, 1.616033e+002
1.539653e+002, 1.603203e+002
1.544474e+002, 1.592477e+002
1.549295e+002, 1.583681e+002
1.554116e+002, 1.579764e+002
1.558937e+002, 1.575613e+002
1.563759e+002, 1.568864e+002
1.568580e+002, 1.557052e+002
1.573401e+002, 1.545509e+002
1.578222e+002, 1.534182e+002
1.583043e+002, 1.523614e+002
1.587864e+002, 1.515801e+002
1.592686e+002, 1.514326e+002
1.597507e+002, 1.514006e+002
1.602328e+002, 1.511549e+002
1.607149e+002, 1.506758e+002
1.611970e+002, 1.499150e+002
1.616791e+002, 1.485620e+002
1.621613e+002, 1.467660e+002
1.626434e+002, 1.453854e+002
1.631255e+002, 1.448888e+002
1.636076e+002, 1.449267e+002
1.640897e+002, 1.451878e+002
1.645718e+002, 1.461041e+002
1.650540e+002, 1.467807e+002
1.655361e+002, 1.465361e+002
1.660182e+002, 1.454097e+002
1.665003e+002, 1.444711e+002
1.669824e+002, 1.443743e+002
1.674645e+002, 1.447681e+002
1.679467e+002, 1.452171e+002
1.684288e+002, 1.454517e+002
1.689109e+002, 1.457554e+002
1.693930e+002, 1.463430e+002
1.698751e+002, 1.472307e+002
1.703572e+002, 1.482587e+002
1.708394e+002, 1.494115e+002
1.713215e+002, 1.506346e+002
1.718036e+002, 1.518171e+002
1.722857e+002, 1.530904e+002
1.727678e+002, 1.542202e+002
1.732499e+002, 1.549054e+002
1.737321e+002, 1.550896e+002
1.742142e+002, 1.551439e+002
1.746963e+002, 1.554597e+002
1.751784e+002, 1.559014e+002
1.756605e+002, 1.561488e+002
1.761426e+002, 1.554884e+002
1.766248e+002, 1.547190e+002
1.771069e+002, 1.552597e+002
1.775890e+002, 1.575512e+002
1.780711e+002, 1.598069e+002
1.785532e+002, 1.594917e+002
1.790353e+002, 1.573103e+002
1.795175e+002, 1.557993e+002
1.799996e+002, 1.569996e+002
1.804817e+002, 1.597522e+002
1.809638e+002, 1.618684e+002
1.814459e+002, 1.630694e+002
1.819280e+002, 1.636611e+002
1.824102e+002, 1.637431e+002
1.828923e+002, 1.634242e+002
1.833744e+002, 1.634054e+002
1.838565e+002, 1.644121e+002
1.843386e+002, 1.660955e+002
1.848207e+002, 1.674661e+002
1.853029e+002, 1.684528e+002
1.857850e+002, 1.689853e+002
1.862671e+002, 1.685981e+002
1.867492e+002, 1.673504e+002
1.872313e+002, 1.664429e+002
1.877134e+002, 1.669392e+002
1.881956e+002, 1.685762e+002
1.886777e+002, 1.700866e+002
1.891598e+002, 1.712852e+002
1.896419e+002, 1.722551e+002
1.901240e+002, 1.732184e+002
1.906061e+002, 1.741952e+002
1.910883e+002, 1.749773e+002
1.915704e+002, 1.753639e+002
1.920525e+002, 1.753882e+002
1.925346e+002, 1.753277e+002
1.930167e+002, 1.751821e+002
1.934988e+002, 1.748906e+002
1.939810e+002, 1.740546e+002
1.944631e+002, 1.725249e+002
1.949452e+002, 1.711919e+002
1.954273e+002, 1.700477e+002
1.959094e+002, 1.690860e+002
1.963915e+002, 1.684137e+002
1.968737e+002, 1.682677e+002
1.973558e+002, 1.683469e+002
1.978379e+002, 1.673555e+002
1.983200e+002, 1.651030e+002
1.988021e+002, 1.627309e+002
1.992842e+002, 1.613919e+002
1.997664e+002, 1.611345e+002
2.002485e+002, 1.606820e+002
2.007306e+002, 1.597496e+002
2.012127e+002, 1.584193e+002
2.016948e+002, 1.570507e+002
2.021769e+002, 1.556056e+002
2.026591e+002, 1.542370e+002
2.031412e+002, 1.531026e+002
2.036233e+002, 1.522026e+002
2.041054e+002, 1.514561e+002
2.045875e+002, 1.508631e+002
2.050696e+002, 1.504102e+002
2.055518e+002, 1.500225e+002
2.060339e+002, 1.497357e+002
2.065160e+002, 1.494275e+002
2.069981e+002, 1.489279e+002
2.074802e+002, 1.481789e+002
2.079623e+002, 1.475287e+002
2.084445e+002, 1.471025e+002
2.089266e+002, 1.468823e+002
2.094087e+002, 1.464598e+002
2.098908e+002, 1.457063e+002
2.103729e+002, 1.449726e+002
2.108550e+002, 1.447124e+002
2.113372e+002, 1.450939e+002
2.118193e+002, 1.453580e+002
2.123014e+002, 1.453354e+002
2.127835e+002, 1.450292e+002
2.132656e+002, 1.444610e+002
2.137477e+002, 1.434219e+002
2.142299e+002, 1.424093e+002
2.147120e+002, 1.421023e+002
2.151941e+002, 1.427832e+002
2.156762e+002, 1.433581e+002
2.161583e+002, 1.435393e+002
2.166404e+002, 1.433072e+002
2.171226e+002, 1.430308e+002
2.176047e+002, 1.426656e+002
2.180868e+002, 1.423067e+002
2.185689e+002, 1.421116e+002
2.190510e+002, 1.422377e+002
2.195331e+002, 1.421458e+002
2.200153e+002, 1.416076e+002
2.204974e+002, 1.405519e+002
2.209795e+002, 1.398582e+002
2.214616e+002, 1.396626e+002
2.219437e+002, 1.396803e+002
2.224258e+002, 1.395570e+002
2.229080e+002, 1.392460e+002
2.233901e+002, 1.388973e+002
2.238722e+002, 1.385255e+002
2.243543e+002, 1.381050e+002
2.248364e+002, 1.378595e+002
2.253185e+002, 1.379102e+002
2.258007e+002, 1.380208e+002
2.262828e+002, 1.378592e+002
2.267649e+002, 1.372367e+002
2.272470e+002, 1.367136e+002
2.277291e+002, 1.365222e+002
2.282112e+002, 1.367479e+002
2.286934e+002, 1.365831e+002
2.291755e+002, 1.358539e+002
2.296576e+002, 1.348868e+002
2.301397e+002, 1.340983e+002
2.306218e+002, 1.334750e+002
2.311039e+002, 1.330474e+002
2.315861e+002, 1.329050e+002
2.320682e+002, 1.331276e+002
2.325503e+002, 1.330737e+002
2.330324e+002, 1.326637e+002
2.335145e+002, 1.320562e+002
2.339966e+002, 1.313903e+002
2.344788e+002, 1.304606e+002
2.349609e+002, 1.298632e+002
2.354430e+002, 1.298654e+002
2.359251e+002, 1.306019e+002
2.364072e+002, 1.309931e+002
2.368893e+002, 1.309685e+002
2.373715e+002, 1.306576e+002
2.378536e+002, 1.302152e+002
2.383357e+002, 1.296280e+002
2.388178e+002, 1.289077e+002
2.392999e+002, 1.279474e+002
2.397820e+002, 1.266607e+002
2.402642e+002, 1.258768e+002
2.407463e+002, 1.258943e+002
2.412284e+002, 1.261576e+002
2.417105e+002, 1.259731e+002
2.421926e+002, 1.251084e+002
2.426747e+002, 1.242104e+002
2.431569e+002, 1.233912e+002
2.436390e+002, 1.226276e+002
2.441211e+002, 1.221283e+002
2.446032e+002, 1.220044e+002
2.450853e+002, 1.220400e+002
2.455674e+002, 1.220246e+002
2.460496e+002, 1.220966e+002
2.465317e+002, 1.218499e+002
2.470138e+002, 1.210544e+002
2.474959e+002, 1.196205e+002
2.479780e+002, 1.186931e+002
2.484601e+002, 1.185247e+002
2.489423e+002, 1.186073e+002
2.494244e+002, 1.183565e+002
2.499065e+002, 1.175379e+002
2.503886e+002, 1.168666e+002
2.508707e+002, 1.165925e+002
2.513528e+002, 1.167517e+002
2.518350e+002, 1.165125e+002
2.523171e+002, 1.156327e+002
2.527992e+002, 1.146216e+002
2.532813e+002, 1.140282e+002
2.537634e+002, 1.140736e+002
2.542455e+002, 1.140689e+002
2.547277e+002, 1.138959e+002
2.552098e+002, 1.135510e+002
2.556919e+002, 1.130107e+002
2.561740e+002, 1.120794e+002
2.566561e+002, 1.111923e+002
2.571382e+002, 1.108372e+002
2.576204e+002, 1.112956e+002
2.581025e+002, 1.115838e+002
2.585846e+002, 1.114498e+002
2.590667e+002, 1.109206e+002
2.595488e+002, 1.106289e+002
2.600309e+002, 1.107420e+002
2.605131e+002, 1.108583e+002
2.609952e+002, 1.105774e+002
2.614773e+002, 1.097065e+002
2.619594e+002, 1.089838e+002
2.624415e+002, 1.085753e+002
2.629236e+002, 1.084445e+002
2.634058e+002, 1.082320e+002
2.638879e+002, 1.078740e+002
2.643700e+002, 1.075415e+002
2.648521e+002, 1.073952e+002
2.653342e+002, 1.075225e+002
2.658163e+002, 1.075405e+002
2.662985e+002, 1.073617e+002
2.667806e+002, 1.070257e+002
2.672627e+002, 1.067743e+002
2.677448e+002, 1.066712e+002
2.682269e+002, 1.065197e+002
2.687090e+002, 1.061520e+002
2.691912e+002, 1.055056e+002
2.696733e+002, 1.048910e+002
2.701554e+002, 1.043589e+002
2.706375e+002, 1.038788e+002
2.711196e+002, 1.033330e+002
2.716017e+002, 1.026852e+002
2.720839e+002, 1.020706e+002
2.725660e+002, 1.015845e+002
2.730481e+002, 1.012273e+002
2.735302e+002, 1.009827e+002
2.740123e+002, 1.008656e+002
2.744944e+002, 1.008485e+002
2.749766e+002, 1.008845e+002
2.754587e+002, 1.010091e+002
2.759408e+002, 1.010539e+002
2.764229e+002, 1.008725e+002
2.769050e+002, 1.004406e+002
2.773871e+002, 1.001198e+002
2.778693e+002, 1.000032e+002
2.783514e+002, 9.993575e+001
2.788335e+002, 9.946688e+001
2.793156e+002, 9.849655e+001
2.797977e+002, 9.769267e+001
2.802798e+002, 9.760176e+001
2.807620e+002, 9.823074e+001
2.812441e+002, 9.831889e+001
2.817262e+002, 9.767147e+001
2.822083e+002, 9.670348e+001
2.826904e+002, 9.616283e+001
2.831725e+002, 9.607412e+001
2.836547e+002, 9.604627e+001
2.841368e+002, 9.583372e+001
2.846189e+002, 9.546913e+001
2.851010e+002, 9.538634e+001
2.855831e+002, 9.566752e+001
2.860652e+002, 9.602497e+001
2.865474e+002, 9.598911e+001
2.870295e+002, 9.556845e+001
2.875116e+002, 9.517369e+001
2.879937e+002, 9.505692e+001
2.884758e+002, 9.514546e+001
2.889579e+002, 9.496107e+001
2.894401e+002, 9.444997e+001
2.899222e+002, 9.393705e+001
2.904043e+002, 9.392884e+001
2.908864e+002, 9.435271e+001
2.913685e+002, 9.461848e+001
2.918506e+002, 9.442453e+001
2.923328e+002, 9.391453e+001
2.928149e+002, 9.349300e+001
2.932970e+002, 9.315868e+001
2.937791e+002, 9.289336e+001
2.942612e+002, 9.271413e+001
2.947433e+002, 9.259985e+001
2.952255e+002, 9.246589e+001
2.957076e+002, 9.225404e+001
2.961897e+002, 9.202321e+001
2.966718e+002, 9.193085e+001
2.971539e+002, 9.197303e+001
2.976360e+002, 9.198643e+001
2.981182e+002, 9.170968e+001
2.986003e+002, 9.129179e+001
2.990824e+002, 9.114906e+001
2.995645e+002, 9.163087e+001
3.000466e+002, 9.217951e+001
3.005287e+002, 9.178704e+001
3.010109e+002, 9.059097e+001
3.014930e+002, 8.955183e+001
3.019751e+002, 8.949426e+001
3.024572e+002, 9.004377e+001
3.029393e+002, 9.062178e+001
3.034214e+002, 9.122404e+001
3.039036e+002, 9.161006e+001
3.043857e+002, 9.131746e+001
3.048678e+002, 9.052539e+001
3.053499e+002, 8.988200e+001
3.058320e+002, 8.992510e+001
3.063141e+002, 9.029009e+001
3.067963e+002, 9.054844e+001
3.072784e+002, 9.062268e+001
3.077605e+002, 9.061275e+001
3.082426e+002, 9.056625e+001
3.087247e+002, 9.049614e+001
3.092068e+002, 9.043408e+001
3.096890e+002, 9.038276e+001
3.101711e+002, 9.035146e+001
3.106532e+002, 9.033733e+001
3.111353e+002, 9.032998e+001
3.116174e+002, 9.038448e+001
3.120995e+002, 9.066341e+001
3.125817e+002, 9.100764e+001
3.130638e+002, 9.116596e+001
3.135459e+002, 9.072129e+001
3.140280e+002, 9.029525e+001
3.145101e+002, 9.034775e+001
3.149922e+002, 9.093912e+001
3.154744e+002, 9.148682e+001
3.159565e+002, 9.160827e+001
3.164386e+002, 9.157185e+001
3.169207e+002, 9.168115e+001
3.174028e+002, 9.226766e+001
3.178849e+002, 9.280672e+001
3.183671e+002, 9.305230e+001
3.188492e+002, 9.301636e+001
3.193313e+002, 9.297440e+001
3.198134e+002, 9.299922e+001
3.202955e+002, 9.306560e+001
3.207776e+002, 9.315261e+001
3.212598e+002, 9.313741e+001
3.217419e+002, 9.326563e+001
3.222240e+002, 9.367471e+001
3.227061e+002, 9.430756e+001
3.231882e+002, 9.486949e+001
3.236703e+002, 9.519769e+001
3.241525e+002, 9.551299e+001
3.246346e+002, 9.594189e+001
3.251167e+002, 9.676222e+001
3.255988e+002, 9.733934e+001
3.260809e+002, 9.735242e+001
3.265630e+002, 9.705856e+001
3.270452e+002, 9.716285e+001
3.275273e+002, 9.829347e+001
3.280094e+002, 9.932129e+001
3.284915e+002, 9.980521e+001
3.289736e+002, 9.936097e+001
3.294557e+002, 9.922192e+001
3.299379e+002, 9.958720e+001
3.304200e+002, 1.001959e+002
3.309021e+002, 1.006221e+002
3.313842e+002, 1.007349e+002
3.318663e+002, 1.008438e+002
3.323484e+002, 1.010745e+002
3.328306e+002, 1.014784e+002
3.333127e+002, 1.016068e+002
3.337948e+002, 1.012389e+002
3.342769e+002, 1.007918e+002
3.347590e+002, 1.007542e+002
3.352411e+002, 1.013143e+002
3.357233e+002, 1.018725e+002
3.362054e+002, 1.023488e+002
3.366875e+002, 1.027404e+002
3.371696e+002, 1.028831e+002
3.376517e+002, 1.026768e+002
3.381339e+002, 1.024187e+002
3.386160e+002, 1.023667e+002
3.390981e+002, 1.025644e+002
3.395802e+002, 1.027524e+002
3.400623e+002, 1.028910e+002
3.405444e+002, 1.029953e+002
3.410266e+002, 1.031260e+002
3.415087e+002, 1.032998e+002
3.419908e+002, 1.034209e+002
3.424729e+002, 1.034353e+002
3.429550e+002, 1.033416e+002
3.434371e+002, 1.031364e+002
3.439193e+002, 1.027906e+002
3.444014e+002, 1.023873e+002
3.448835e+002, 1.021288e+002
3.453656e+002, 1.020134e+002
3.458477e+002, 1.017938e+002
3.463298e+002, 1.012268e+002
3.468120e+002, 1.004243e+002
3.472941e+002, 9.992420e+001
3.477762e+002, 9.976695e+001
3.482583e+002, 9.974247e+001
3.487404e+002, 9.963773e+001
3.492225e+002, 9.946058e+001
3.497047e+002, 9.924316e+001
3.501868e+002, 9.904208e+001
3.506689e+002, 9.879051e+001
3.511510e+002, 9.831951e+001
3.516331e+002, 9.763400e+001
3.521152e+002, 9.692330e+001
3.525974e+002, 9.627030e+001
3.530795e+002, 9.571147e+001
3.535616e+002, 9.534176e+001
3.540437e+002, 9.532995e+001
3.545258e+002, 9.533382e+001
3.550079e+002, 9.492760e+001
3.554901e+002, 9.419773e+001
3.559722e+002, 9.352523e+001
3.564543e+002, 9.326708e+001
3.569364e+002, 9.312947e+001
3.574185e+002, 9.275838e+001
3.579006e+002, 9.197044e+001
3.583828e+002, 9.127715e+001
3.588649e+002, 9.109370e+001
3.593470e+002, 9.123135e+001
3.598291e+002, 9.130473e+001
3.603112e+002, 9.113338e+001
3.607933e+002, 9.085640e+001
3.612755e+002, 9.051720e+001
3.617576e+002, 9.010161e+001
3.622397e+002, 8.975989e+001
3.627218e+002, 8.972715e+001
3.632039e+002, 8.973411e+001
3.636860e+002, 8.948038e+001
3.641682e+002, 8.850316e+001
3.646503e+002, 8.762298e+001
3.651324e+002, 8.720603e+001
3.656145e+002, 8.722897e+001
3.660966e+002, 8.709596e+001
3.665787e+002, 8.644579e+001
3.670609e+002, 8.577446e+001
3.675430e+002, 8.539983e+001
3.680251e+002, 8.573038e+001
3.685072e+002, 8.590661e+001
3.689893e+002, 8.575427e+001
3.694714e+002, 8.538873e+001
3.699536e+002, 8.519870e+001
3.704357e+002, 8.542397e+001
3.709178e+002, 8.557136e+001
3.713999e+002, 8.541856e+001
3.718820e+002, 8.479165e+001
3.723641e+002, 8.430572e+001
3.728463e+002, 8.396182e+001
3.733284e+002, 8.376231e+001
3.738105e+002, 8.373642e+001
3.742926e+002, 8.397648e+001
3.747747e+002, 8.417876e+001
3.752568e+002, 8.423014e+001
3.757390e+002, 8.412773e+001
3.762211e+002, 8.417962e+001
3.767032e+002, 8.448572e+001
3.771853e+002, 8.473614e+001
3.776674e+002, 8.455616e+001
3.781495e+002, 8.387962e+001
3.786317e+002, 8.337241e+001
3.791138e+002, 8.322934e+001
3.795959e+002, 8.329549e+001
3.800780e+002, 8.299779e+001
3.805601e+002, 8.229556e+001
3.810422e+002, 8.170493e+001
3.815244e+002, 8.168935e+001
3.820065e+002, 8.213715e+001
3.824886e+002, 8.242490e+001
3.829707e+002, 8.247824e+001
3.834528e+002, 8.240221e+001
3.839349e+002, 8.234464e+001
3.844171e+002, 8.229279e+001
3.848992e+002, 8.217897e+001
3.853813e+002, 8.191113e+001
3.858634e+002, 8.157717e+001
3.863455e+002, 8.133122e+001
3.868276e+002, 8.118137e+001
3.873098e+002, 8.104832e+001
3.877919e+002, 8.084740e+001
3.882740e+002, 8.061459e+001
3.887561e+002, 8.041650e+001
3.892382e+002, 8.028683e+001
3.897203e+002, 8.018414e+001
3.902025e+002, 8.007450e+001
3.906846e+002, 7.996187e+001
3.911667e+002, 7.986510e+001
3.916488e+002, 7.987622e+001
3.921309e+002, 7.986329e+001
3.926130e+002, 7.970293e+001
3.930952e+002, 7.932249e+001
3.935773e+002, 7.890775e+001
3.940594e+002, 7.846867e+001
3.945415e+002, 7.805846e+001
3.950236e+002, 7.777549e+001
3.955057e+002, 7.774117e+001
3.959879e+002, 7.776111e+001
3.964700e+002, 7.773514e+001
3.969521e+002, 7.763087e+001
3.974342e+002, 7.765337e+001
3.979163e+002, 7.794451e+001
3.983984e+002, 7.832423e+001
3.988806e+002, 7.862810e+001
3.993627e+002, 7.898135e+001
3.998448e+002, 7.909672e+001
4.003269e+002, 7.881456e+001
4.008090e+002, 7.820372e+001
4.012911e+002, 7.780079e+001
4.017733e+002, 7.770529e+001
4.022554e+002, 7.769454e+001
4.027375e+002, 7.764731e+001
4.032196e+002, 7.750789e+001
4.037017e+002, 7.748561e+001
4.041838e+002, 7.764512e+001
4.046660e+002, 7.787530e+001
4.051481e+002, 7.794608e+001
4.056302e+002, 7.781387e+001
4.061123e+002, 7.768605e+001
4.065944e+002, 7.764017e+001
4.070765e+002, 7.767200e+001
4.075587e+002, 7.768186e+001
4.080408e+002, 7.765800e+001
4.085229e+002, 7.765484e+001
4.090050e+002, 7.775961e+001
4.094871e+002, 7.796049e+001
4.099692e+002, 7.808810e+001
4.104514e+002, 7.806450e+001
4.109335e+002, 7.799180e+001
4.114156e+002, 7.808384e+001
4.118977e+002, 7.833152e+001
4.123798e+002, 7.864379e+001
4.128619e+002, 7.911705e+001
4.133441e+002, 7.958065e+001
4.138262e+002, 7.964232e+001
4.143083e+002, 7.919775e+001
4.147904e+002, 7.865507e+001
4.152725e+002, 7.832080e+001
4.157546e+002, 7.818442e+001
4.162368e+002, 7.821612e+001
4.167189e+002, 7.844193e+001
4.172010e+002, 7.880371e+001
4.176831e+002, 7.937084e+001
4.181652e+002, 8.011368e+001
4.186473e+002, 8.067403e+001
4.191295e+002, 8.067817e+001
4.196116e+002, 8.049612e+001
4.200937e+002, 8.045515e+001
4.205758e+002, 8.069182e+001
4.210579e+002, 8.099409e+001
4.215400e+002, 8.136518e+001
4.220222e+002, 8.175484e+001
4.225043e+002, 8.204951e+001
4.229864e+002, 8.209179e+001
4.234685e+002, 8.214663e+001
4.239506e+002, 8.233933e+001
4.244327e+002, 8.274519e+001
4.249149e+002, 8.305524e+001
4.253970e+002, 8.315592e+001
4.258791e+002, 8.321280e+001
4.263612e+002, 8.339348e+001
4.268433e+002, 8.376443e+001
4.273254e+002, 8.413418e+001
4.278076e+002, 8.434136e+001
4.282897e+002, 8.447890e+001
4.287718e+002, 8.531255e+001
4.292539e+002, 8.720652e+001
4.297360e+002, 8.903175e+001
4.302181e+002, 9.011003e+001
4.307003e+002, 9.038527e+001
4.311824e+002, 9.016833e+001
4.316645e+002, 8.926958e+001
4.321466e+002, 8.823024e+001
4.326287e+002, 8.809807e+001
4.331108e+002, 8.889265e+001
4.335930e+002, 8.964357e+001
4.340751e+002, 8.993923e+001
4.345572e+002, 8.991573e+001
4.350393e+002, 8.995425e+001
4.355214e+002, 9.005110e+001
4.360035e+002, 9.033772e+001
4.364857e+002, 9.101399e+001
4.369678e+002, 9.196509e+001
4.374499e+002, 9.294077e+001
4.379320e+002, 9.390665e+001
4.384141e+002, 9.483526e+001
4.388962e+002, 9.565536e+001
4.393784e+002, 9.640512e+001
4.398605e+002, 9.719773e+001
4.403426e+002, 9.807520e+001
4.408247e+002, 9.903069e+001
4.413068e+002, 1.000901e+002
4.417889e+002, 1.012518e+002
4.422711e+002, 1.024340e+002
4.427532e+002, 1.034300e+002
4.432353e+002, 1.044901e+002
4.437174e+002, 1.058739e+002
4.441995e+002, 1.079782e+002
4.446816e+002, 1.100745e+002
4.451638e+002, 1.119295e+002
4.456459e+002, 1.135921e+002
4.461280e+002, 1.153736e+002
4.466101e+002, 1.171775e+002
4.470922e+002, 1.192243e+002
4.475743e+002, 1.217197e+002
4.480565e+002, 1.250462e+002
4.485386e+002, 1.277620e+002
4.490207e+002, 1.293322e+002
4.495028e+002, 1.306137e+002
4.499849e+002, 1.327318e+002
4.504670e+002, 1.361098e+002
4.509492e+002, 1.394068e+002
4.514313e+002, 1.422657e+002
4.519134e+002, 1.447727e+002
4.523955e+002, 1.474715e+002
4.528776e+002, 1.503298e+002
4.533597e+002, 1.533188e+002
4.538419e+002, 1.563830e+002
4.543240e+002, 1.595019e+002
4.548061e+002, 1.629681e+002
4.552882e+002, 1.668826e+002
4.557703e+002, 1.708687e+002
4.562524e+002, 1.741635e+002
4.567346e+002, 1.769098e+002
4.572167e+002, 1.797383e+002
4.576988e+002, 1.831866e+002
4.581809e+002, 1.868164e+002
4.586630e+002, 1.899097e+002
4.591451e+002, 1.924619e+002
4.596273e+002, 1.948594e+002
4.601094e+002, 1.973944e+002
4.605915e+002, 1.999164e+002
4.610736e+002, 2.022305e+002
4.615557e+002, 2.043263e+002
4.620378e+002, 2.061927e+002
4.625200e+002, 2.076778e+002
4.630021e+002, 2.089510e+002
4.634842e+002, 2.103106e+002
4.639663e+002, 2.122271e+002
4.644484e+002, 2.139631e+002
4.649305e+002, 2.150807e+002
4.654127e+002, 2.155359e+002
4.658948e+002, 2.159099e+002
4.663769e+002, 2.163709e+002
4.668590e+002, 2.167586e+002
4.673411e+002, 2.169540e+002
4.678232e+002, 2.167134e+002
4.683054e+002, 2.166034e+002
4.687875e+002, 2.167658e+002
4.692696e+002, 2.170477e+002
4.697517e+002, 2.170113e+002
4.702338e+002, 2.163296e+002
4.707159e+002, 2.159505e+002
4.711981e+002, 2.163875e+002
4.716802e+002, 2.176976e+002
4.721623e+002, 2.182215e+002
4.726444e+002, 2.177666e+002
4.731265e+002, 2.170357e+002
4.736086e+002, 2.166494e+002
4.740908e+002, 2.166057e+002
4.745729e+002, 2.168245e+002
4.750550e+002, 2.172958e+002
4.755371e+002, 2.180114e+002
4.760192e+002, 2.189858e+002
4.765013e+002, 2.202113e+002
4.769835e+002, 2.215903e+002
4.774656e+002, 2.231456e+002
4.779477e+002, 2.248028e+002
4.784298e+002, 2.264608e+002
4.789119e+002, 2.281149e+002
4.793940e+002, 2.297317e+002
4.798762e+002, 2.311950e+002
4.803583e+002, 2.326355e+002
4.808404e+002, 2.342414e+002
4.813225e+002, 2.362440e+002
4.818046e+002, 2.382054e+002
4.822867e+002, 2.400834e+002
4.827689e+002, 2.417657e+002
4.832510e+002, 2.429571e+002
4.837331e+002, 2.432354e+002
4.842152e+002, 2.432914e+002
4.846973e+002, 2.435296e+002
4.851794e+002, 2.441326e+002
4.856616e+002, 2.441434e+002
4.861437e+002, 2.435353e+002
4.866258e+002, 2.422642e+002
4.871079e+002, 2.402468e+002
4.875900e+002, 2.371822e+002
4.880721e+002, 2.338683e+002
4.885543e+002, 2.304069e+002
4.890364e+002, 2.267327e+002
4.895185e+002, 2.226783e+002
4.900006e+002, 2.182533e+002
4.904827e+002, 2.135017e+002
4.909648e+002, 2.083880e+002
4.914470e+002, 2.029173e+002
4.919291e+002, 1.976585e+002
4.924112e+002, 1.926680e+002
4.928933e+002, 1.877501e+002
4.933754e+002, 1.826630e+002
4.938575e+002, 1.774592e+002
4.943397e+002, 1.724371e+002
4.948218e+002, 1.677162e+002
4.953039e+002, 1.631973e+002
4.957860e+002, 1.588256e+002
4.962681e+002, 1.546082e+002
4.967502e+002, 1.505829e+002
4.972324e+002, 1.467078e+002
4.977145e+002, 1.430251e+002
4.981966e+002, 1.396205e+002
4.986787e+002, 1.364674e+002
4.991608e+002, 1.333802e+002
4.996429e+002, 1.300776e+002
5.001251e+002, 1.268676e+002
5.006072e+002, 1.239352e+002
5.010893e+002, 1.214057e+002
5.015714e+002, 1.190927e+002
5.020535e+002, 1.171346e+002
5.025356e+002, 1.153458e+002
5.030178e+002, 1.132910e+002
5.034999e+002, 1.103440e+002
5.039820e+002, 1.077427e+002
5.044641e+002, 1.059482e+002
5.049462e+002, 1.050025e+002
5.054283e+002, 1.036945e+002
5.059105e+002, 1.018289e+002
5.063926e+002, 9.992113e+001
5.068747e+002, 9.838240e+001
5.073568e+002, 9.727422e+001
5.078389e+002, 9.613693e+001
5.083210e+002, 9.492045e+001
5.088032e+002, 9.371239e+001
5.092853e+002, 9.271864e+001
5.097674e+002, 9.192380e+001
5.102495e+002, 9.108310e+001
5.107316e+002, 9.003465e+001
5.112137e+002, 8.888905e+001
5.116959e+002, 8.785229e+001
5.121780e+002, 8.693086e+001
5.126601e+002, 8.610734e+001
5.131422e+002, 8.538779e+001
5.136243e+002, 8.475349e+001
5.141064e+002, 8.417650e+001
5.145886e+002, 8.364451e+001
5.150707e+002, 8.319838e+001
5.155528e+002, 8.302097e+001
5.160349e+002, 8.290849e+001
5.165170e+002, 8.256341e+001
5.169991e+002, 8.163645e+001
5.174813e+002, 8.072398e+001
5.179634e+002, 7.999129e+001
5.184455e+002, 7.943776e+001
5.189276e+002, 7.901079e+001
5.194097e+002, 7.888118e+001
5.198918e+002, 7.872672e+001
5.203740e+002, 7.840727e+001
5.208561e+002, 7.784824e+001
5.213382e+002, 7.735802e+001
5.218203e+002, 7.693420e+001
5.223024e+002, 7.657912e+001
5.227845e+002, 7.629722e+001
5.232667e+002, 7.609502e+001
5.237488e+002, 7.592477e+001
5.242309e+002, 7.578805e+001
5.247130e+002, 7.566856e+001
5.251951e+002, 7.550239e+001
5.256772e+002, 7.529119e+001
5.261594e+002, 7.513467e+001
5.266415e+002, 7.512873e+001
5.271236e+002, 7.520994e+001
5.276057e+002, 7.523183e+001
5.280878e+002, 7.518994e+001
5.285699e+002, 7.514266e+001
5.290521e+002, 7.516300e+001
5.295342e+002, 7.520020e+001
5.300163e+002, 7.518740e+001
5.304984e+002, 7.510515e+001
5.309805e+002, 7.497453e+001
5.314626e+002, 7.472151e+001
5.319448e+002, 7.443629e+001
5.324269e+002, 7.429427e+001
5.329090e+002, 7.448356e+001
5.333911e+002, 7.468678e+001
5.338732e+002, 7.480408e+001
5.343553e+002, 7.482695e+001
5.348375e+002, 7.481888e+001
5.353196e+002, 7.476941e+001
5.358017e+002, 7.469926e+001
5.362838e+002, 7.460629e+001
5.367659e+002, 7.444255e+001
5.372480e+002, 7.438034e+001
5.377302e+002, 7.441383e+001
5.382123e+002, 7.455681e+001
5.386944e+002, 7.489462e+001
5.391765e+002, 7.545397e+001
5.396586e+002, 7.586183e+001
5.401407e+002, 7.597346e+001
5.406229e+002, 7.590725e+001
5.411050e+002, 7.589954e+001
5.415871e+002, 7.595327e+001
5.420692e+002, 7.608780e+001
5.425513e+002, 7.640266e+001
5.430334e+002, 7.677769e+001
5.435156e+002, 7.700713e+001
5.439977e+002, 7.707365e+001
5.444798e+002, 7.713452e+001
5.449619e+002, 7.720266e+001
5.454440e+002, 7.736453e+001
5.459261e+002, 7.772862e+001
5.464083e+002, 7.850431e+001
5.468904e+002, 7.922208e+001
5.473725e+002, 7.966395e+001
5.478546e+002, 7.993288e+001
5.483367e+002, 8.026064e+001
5.488188e+002, 8.058369e+001
5.493010e+002, 8.107574e+001
5.497831e+002, 8.187334e+001
5.502652e+002, 8.296812e+001
5.507473e+002, 8.375442e+001
5.512294e+002, 8.405260e+001
5.517115e+002, 8.434792e+001
5.521937e+002, 8.500141e+001
5.526758e+002, 8.607121e+001
5.531579e+002, 8.694252e+001
5.536400e+002, 8.756323e+001
5.541221e+002, 8.806326e+001
5.546042e+002, 8.858572e+001
5.550864e+002, 8.913266e+001
5.555685e+002, 8.972398e+001
5.560506e+002, 9.039432e+001
5.565327e+002, 9.106430e+001
5.570148e+002, 9.153880e+001
5.574969e+002, 9.188752e+001
5.579791e+002, 9.237749e+001
5.584612e+002, 9.334946e+001
5.589433e+002, 9.439014e+001
5.594254e+002, 9.515357e+001
5.599075e+002, 9.561703e+001
5.603896e+002, 9.596309e+001
5.608718e+002, 9.623054e+001
5.613539e+002, 9.642696e+001
5.618360e+002, 9.655180e+001
5.623181e+002, 9.650877e+001
5.628002e+002, 9.654817e+001
5.632823e+002, 9.681844e+001
5.637645e+002, 9.712321e+001
5.642466e+002, 9.716606e+001
5.647287e+002, 9.692042e+001
5.652108e+002, 9.647625e+001
5.656929e+002, 9.583751e+001
5.661750e+002, 9.502067e+001
5.666572e+002, 9.403498e+001
5.671393e+002, 9.286564e+001
5.676214e+002, 9.166512e+001
5.681035e+002, 9.044915e+001
5.685856e+002, 8.926530e+001
5.690677e+002, 8.833031e+001
5.695499e+002, 8.767812e+001
5.700320e+002, 8.695946e+001
5.705141e+002, 8.571334e+001
5.709962e+002, 8.422392e+001
5.714783e+002, 8.297751e+001
5.719604e+002, 8.217622e+001
5.724426e+002, 8.144441e+001
5.729247e+002, 8.051610e+001
5.734068e+002, 7.948850e+001
5.738889e+002, 7.851424e+001
5.743710e+002, 7.773284e+001
5.748531e+002, 7.693530e+001
5.753353e+002, 7.602385e+001
5.758174e+002, 7.501407e+001
5.762995e+002, 7.407566e+001
5.767816e+002, 7.322474e+001
5.772637e+002, 7.244250e+001
5.777458e+002, 7.169199e+001
5.782280e+002, 7.094379e+001
5.787101e+002, 7.044587e+001
5.791922e+002, 7.028690e+001
5.796743e+002, 7.018275e+001
5.801564e+002, 6.980994e+001
5.806385e+002, 6.918558e+001
5.811207e+002, 6.856482e+001
5.816028e+002, 6.796224e+001
5.820849e+002, 6.745924e+001
5.825670e+002, 6.727705e+001
5.830491e+002, 6.731889e+001
5.835313e+002, 6.726176e+001
5.840134e+002, 6.679523e+001
5.844955e+002, 6.627568e+001
5.849776e+002, 6.610007e+001
5.854597e+002, 6.620076e+001
5.859418e+002, 6.618868e+001
5.864240e+002, 6.572730e+001
5.869061e+002, 6.521801e+001
5.873882e+002, 6.488728e+001
5.878703e+002, 6.479155e+001
5.883524e+002, 6.476041e+001
5.888345e+002, 6.490076e+001
5.893167e+002, 6.501412e+001
5.897988e+002, 6.493565e+001
5.902809e+002, 6.457491e+001
5.907630e+002, 6.422828e+001
5.912451e+002, 6.392463e+001
5.917272e+002, 6.363511e+001
5.922094e+002, 6.325292e+001
5.926915e+002, 6.276451e+001
5.931736e+002, 6.246378e+001
5.936557e+002, 6.253501e+001
5.941378e+002, 6.280300e+001
5.946199e+002, 6.286066e+001
5.951021e+002, 6.272178e+001
5.955842e+002, 6.250161e+001
5.960663e+002, 6.222911e+001
5.965484e+002, 6.194069e+001
5.970305e+002, 6.162426e+001
5.975126e+002, 6.127279e+001
5.979948e+002, 6.109312e+001
5.984769e+002, 6.135812e+001
5.989590e+002, 6.175924e+001
5.994411e+002, 6.203688e+001
5.999232e+002, 6.211548e+001
6.004053e+002, 6.211264e+001
6.008875e+002, 6.204611e+001
6.013696e+002, 6.190612e+001
6.018517e+002, 6.167091e+001
6.023338e+002, 6.130771e+001
6.028159e+002, 6.090633e+001
6.032980e+002, 6.042357e+001
6.037802e+002, 5.993114e+001
6.042623e+002, 5.968964e+001
6.047444e+002, 5.971710e+001
6.052265e+002, 5.985568e+001
6.057086e+002, 6.010557e+001
6.061907e+002, 6.040269e+001
6.066729e+002, 6.054677e+001
6.071550e+002, 6.053754e+001
6.076371e+002, 6.036956e+001
6.081192e+002, 5.981776e+001
6.086013e+002, 5.919384e+001
6.090834e+002, 5.898442e+001
6.095656e+002, 5.937944e+001
6.100477e+002, 5.970564e+001
6.105298e+002, 5.948949e+001
6.110119e+002, 5.904940e+001
6.114940e+002, 5.874014e+001
6.119761e+002, 5.879197e+001
6.124583e+002, 5.880713e+001
6.129404e+002, 5.860902e+001
6.134225e+002, 5.835358e+001
6.139046e+002, 5.842987e+001
6.143867e+002, 5.907591e+001
6.148688e+002, 5.955040e+001
6.153510e+002, 5.961104e+001
6.158331e+002, 5.931730e+001
6.163152e+002, 5.900698e+001
6.167973e+002, 5.866845e+001
6.172794e+002, 5.842404e+001
6.177615e+002, 5.842633e+001
6.182437e+002, 5.858358e+001
6.187258e+002, 5.860572e+001
6.192079e+002, 5.847004e+001
6.196900e+002, 5.838304e+001
6.201721e+002, 5.867951e+001
6.206542e+002, 5.906338e+001
6.211364e+002, 5.912653e+001
6.216185e+002, 5.861501e+001
6.221006e+002, 5.814088e+001
6.225827e+002, 5.803797e+001
6.230648e+002, 5.811323e+001
6.235469e+002, 5.809680e+001
6.240291e+002, 5.771227e+001
6.245112e+002, 5.752189e+001
6.249933e+002, 5.769331e+001
6.254754e+002, 5.811097e+001
6.259575e+002, 5.838079e+001
6.264396e+002, 5.848046e+001
6.269218e+002, 5.850863e+001
6.274039e+002, 5.851192e+001
6.278860e+002, 5.847766e+001
6.283681e+002, 5.827070e+001
6.288502e+002, 5.788180e+001
6.293323e+002, 5.755872e+001
6.298145e+002, 5.753709e+001
6.302966e+002, 5.769884e+001
6.307787e+002, 5.784053e+001
6.312608e+002, 5.794621e+001
6.317429e+002, 5.798048e+001
6.322250e+002, 5.786013e+001
6.327072e+002, 5.767947e+001
6.331893e+002, 5.753233e+001
6.336714e+002, 5.740817e+001
6.341535e+002, 5.737781e+001
6.346356e+002, 5.760264e+001
6.351177e+002, 5.789219e+001
6.355999e+002, 5.793807e+001
6.360820e+002, 5.754527e+001
6.365641e+002, 5.721946e+001
6.370462e+002, 5.705605e+001
6.375283e+002, 5.701186e+001
6.380104e+002, 5.690599e+001
6.384926e+002, 5.670446e+001
6.389747e+002, 5.666201e+001
6.394568e+002, 5.702064e+001
6.399389e+002, 5.760764e+001
6.404210e+002, 5.782589e+001
6.409031e+002, 5.768988e+001
6.413853e+002, 5.740411e+001
6.418674e+002, 5.694511e+001
6.423495e+002, 5.650664e+001
6.428316e+002, 5.637061e+001
6.433137e+002, 5.659238e+001
6.437958e+002, 5.683217e+001
6.442780e+002, 5.695374e+001
6.447601e+002, 5.699848e+001
6.452422e+002, 5.699815e+001
6.457243e+002, 5.690142e+001
6.462064e+002, 5.684569e+001
6.466885e+002, 5.682079e+001
6.471707e+002, 5.684796e+001
6.476528e+002, 5.698563e+001
6.481349e+002, 5.731261e+001
6.486170e+002, 5.747660e+001
6.490991e+002, 5.734798e+001
6.495812e+002, 5.708661e+001
6.500634e+002, 5.713933e+001
6.505455e+002, 5.747700e+001
6.510276e+002, 5.766355e+001
6.515097e+002, 5.724574e+001
6.519918e+002, 5.670936e+001
6.524739e+002, 5.702718e+001
6.529561e+002, 5.801271e+001
6.534382e+002, 5.870851e+001
6.539203e+002, 5.837332e+001
6.544024e+002, 5.768245e+001
6.548845e+002, 5.699514e+001
6.553666e+002, 5.633076e+001
6.558488e+002, 5.591683e+001
6.563309e+002, 5.595431e+001
6.568130e+002, 5.614914e+001
6.572951e+002, 5.635316e+001
6.577772e+002, 5.667194e+001
6.582593e+002, 5.667604e+001
6.587415e+002, 5.622816e+001
6.592236e+002, 5.568725e+001
6.597057e+002, 5.550759e+001
6.601878e+002, 5.568046e+001
6.606699e+002, 5.577905e+001
6.611520e+002, 5.572144e+001
6.616342e+002, 5.557302e+001
6.621163e+002, 5.535943e+001
6.625984e+002, 5.512550e+001
6.630805e+002, 5.499368e+001
6.635626e+002, 5.512897e+001
6.640447e+002, 5.526365e+001
6.645269e+002, 5.513935e+001
6.650090e+002, 5.485539e+001
6.654911e+002, 5.469964e+001
6.659732e+002, 5.494436e+001
6.664553e+002, 5.515209e+001
6.669374e+002, 5.510669e+001
6.674196e+002, 5.483303e+001
6.679017e+002, 5.472673e+001
6.683838e+002, 5.486973e+001
6.688659e+002, 5.502721e+001
6.693480e+002, 5.508241e+001
6.698301e+002, 5.503695e+001
6.703123e+002, 5.498923e+001
6.707944e+002, 5.494188e+001
6.712765e+002, 5.487063e+001
6.717586e+002, 5.471863e+001
6.722407e+002, 5.453040e+001
6.727228e+002, 5.441843e+001
6.732050e+002, 5.440643e+001
6.736871e+002, 5.440365e+001
6.741692e+002, 5.429962e+001
6.746513e+002, 5.418237e+001
6.751334e+002, 5.416112e+001
6.756155e+002, 5.436133e+001
6.760977e+002, 5.450903e+001
6.765798e+002, 5.453149e+001
6.770619e+002, 5.446632e+001
6.775440e+002, 5.435332e+001
6.780261e+002, 5.411035e+001
6.785082e+002, 5.401163e+001
6.789904e+002, 5.416896e+001
6.794725e+002, 5.445438e+001
6.799546e+002, 5.449930e+001
6.804367e+002, 5.430093e+001
6.809188e+002, 5.416111e+001
6.814009e+002, 5.429429e+001
6.818831e+002, 5.451060e+001
6.823652e+002, 5.441259e+001
6.828473e+002, 5.405571e+001
6.833294e+002, 5.371928e+001
6.838115e+002, 5.354487e+001
6.842936e+002, 5.346675e+001
6.847758e+002, 5.344429e+001
6.852579e+002, 5.347442e+001
6.857400e+002, 5.353627e+001
6.862221e+002, 5.367991e+001
6.867042e+002, 5.380540e+001
6.871863e+002, 5.385333e+001
6.876685e+002, 5.379469e+001
6.881506e+002, 5.377678e+001
6.886327e+002, 5.379156e+001
6.891148e+002, 5.386116e+001
6.895969e+002, 5.408543e+001
6.900790e+002, 5.444022e+001
6.905612e+002, 5.449194e+001
6.910433e+002, 5.415571e+001
6.915254e+002, 5.372129e+001
6.920075e+002, 5.347216e+001
6.924896e+002, 5.337910e+001
6.929717e+002, 5.341249e+001
6.934539e+002, 5.364522e+001
6.939360e+002, 5.383819e+001
6.944181e+002, 5.379528e+001
6.949002e+002, 5.363752e+001
6.953823e+002, 5.355257e+001
6.958644e+002, 5.366509e+001
6.963466e+002, 5.375528e+001
6.968287e+002, 5.381071e+001
6.973108e+002, 5.382158e+001
6.977929e+002, 5.374699e+001
6.982750e+002, 5.356317e+001
6.987571e+002, 5.338073e+001
6.992393e+002, 5.319945e+001
6.997214e+002, 5.306617e+001
7.002035e+002, 5.318696e+001
7.006856e+002, 5.353149e+001
7.011677e+002, 5.383083e+001
7.016498e+002, 5.389399e+001
7.021320e+002, 5.384801e+001
7.026141e+002, 5.379460e+001
7.030962e+002, 5.374710e+001
7.035783e+002, 5.378259e+001
7.040604e+002, 5.406923e+001
7.045425e+002, 5.433940e+001
7.050247e+002, 5.442178e+001
7.055068e+002, 5.426329e+001
7.059889e+002, 5.413629e+001
7.064710e+002, 5.408247e+001
7.069531e+002, 5.400623e+001
7.074352e+002, 5.379043e+001
7.079174e+002, 5.339959e+001
7.083995e+002, 5.331860e+001
7.088816e+002, 5.359867e+001
7.093637e+002, 5.398239e+001
7.098458e+002, 5.431830e+001
7.103279e+002, 5.454041e+001
7.108101e+002, 5.441298e+001
7.112922e+002, 5.380475e+001
7.117743e+002, 5.325456e+001
7.122564e+002, 5.319471e+001
7.127385e+002, 5.341539e+001
7.132206e+002, 5.367608e+001
7.137028e+002, 5.410184e+001
7.141849e+002, 5.429946e+001
7.146670e+002, 5.393989e+001
7.151491e+002, 5.341404e+001
7.156312e+002, 5.329530e+001
7.161133e+002, 5.382392e+001
7.165955e+002, 5.405354e+001
7.170776e+002, 5.370087e+001
7.175597e+002, 5.310775e+001
7.180418e+002, 5.309254e+001
7.185239e+002, 5.359098e+001
7.190060e+002, 5.396878e+001
7.194882e+002, 5.388448e+001
7.199703e+002, 5.365503e+001
7.204524e+002, 5.365910e+001
7.209345e+002, 5.384349e+001
7.214166e+002, 5.405231e+001
7.218987e+002, 5.427550e+001
7.223809e+002, 5.444551e+001
7.228630e+002, 5.450602e+001
7.233451e+002, 5.446864e+001
7.238272e+002, 5.443755e+001
7.243093e+002, 5.440184e+001
7.247914e+002, 5.440026e+001
7.252736e+002, 5.447356e+001
7.257557e+002, 5.460862e+001
7.262378e+002, 5.462674e+001
7.267199e+002, 5.452044e+001
7.272020e+002, 5.436593e+001
7.276841e+002, 5.413977e+001
7.281663e+002, 5.391880e+001
7.286484e+002, 5.394448e+001
7.291305e+002, 5.421189e+001
7.296126e+002, 5.440710e+001
7.300947e+002, 5.419180e+001
7.305768e+002, 5.390025e+001
7.310590e+002, 5.381664e+001
7.315411e+002, 5.401655e+001
7.320232e+002, 5.420891e+001
7.325053e+002, 5.442021e+001
7.329874e+002, 5.454141e+001
7.334695e+002, 5.447058e+001
7.339517e+002, 5.410156e+001
7.344338e+002, 5.393049e+001
7.349159e+002, 5.399743e+001
7.353980e+002, 5.414370e+001
7.358801e+002, 5.421815e+001
7.363622e+002, 5.422918e+001
7.368444e+002, 5.420004e+001
7.373265e+002, 5.412509e+001
7.378086e+002, 5.406159e+001
7.382907e+002, 5.408590e+001
7.387728e+002, 5.414735e+001
7.392549e+002, 5.418199e+001
7.397371e+002, 5.418389e+001
7.402192e+002, 5.414014e+001
7.407013e+002, 5.394028e+001
7.411834e+002, 5.374001e+001
7.416655e+002, 5.376303e+001
7.421476e+002, 5.417306e+001
7.426298e+002, 5.439927e+001
7.431119e+002, 5.431898e+001
7.435940e+002, 5.409653e+001
7.440761e+002, 5.403082e+001
7.445582e+002, 5.410743e+001
7.450403e+002, 5.418423e+001
7.455225e+002, 5.422536e+001
7.460046e+002, 5.423451e+001
7.464867e+002, 5.418287e+001
7.469688e+002, 5.410463e+001
7.474509e+002, 5.407487e+001
7.479330e+002, 5.417659e+001
7.484152e+002, 5.427776e+001
7.488973e+002, 5.435240e+001
7.493794e+002, 5.438794e+001
7.498615e+002, 5.433923e+001
7.503436e+002, 5.410920e+001
7.508257e+002, 5.398335e+001
7.513079e+002, 5.408944e+001
7.517900e+002, 5.433067e+001
7.522721e+002, 5.433020e+001
7.527542e+002, 5.408939e+001
7.532363e+002, 5.383248e+001
7.537184e+002, 5.361814e+001
7.542006e+002, 5.348885e+001
7.546827e+002, 5.357487e+001
7.551648e+002, 5.382537e+001
7.556469e+002, 5.402433e+001
7.561290e+002, 5.396051e+001
7.566111e+002, 5.390798e+001
7.570933e+002, 5.400328e+001
7.575754e+002, 5.424981e+001
7.580575e+002, 5.460365e+001
7.585396e+002, 5.526553e+001
7.590217e+002, 5.571597e+001
7.595038e+002, 5.567664e+001
7.599860e+002, 5.520526e+001
7.604681e+002, 5.498661e+001
7.609502e+002, 5.503822e+001
7.614323e+002, 5.514776e+001
7.619144e+002, 5.513951e+001
7.623965e+002, 5.510612e+001
7.628787e+002, 5.526851e+001
7.633608e+002, 5.561055e+001
7.638429e+002, 5.588733e+001
7.643250e+002, 5.584930e+001
7.648071e+002, 5.577163e+001
7.652892e+002, 5.588707e+001
7.657714e+002, 5.626221e+001
7.662535e+002, 5.642168e+001
7.667356e+002, 5.613460e+001
7.672177e+002, 5.589983e+001
7.676998e+002, 5.605858e+001
7.681819e+002, 5.665154e+001
7.686641e+002, 5.691817e+001
7.691462e+002, 5.682331e+001
7.696283e+002, 5.665635e+001
7.701104e+002, 5.661379e+001
7.705925e+002, 5.668359e+001
7.710746e+002, 5.688408e+001
7.715568e+002, 5.722231e+001
7.720389e+002, 5.751526e+001
7.725210e+002, 5.763918e+001
7.730031e+002, 5.767719e+001
7.734852e+002, 5.768224e+001
7.739673e+002, 5.763375e+001
7.744495e+002, 5.764111e+001
7.749316e+002, 5.773071e+001
7.754137e+002, 5.784668e+001
7.758958e+002, 5.795142e+001
7.763779e+002, 5.804503e+001
7.768600e+002, 5.813051e+001
7.773422e+002, 5.820929e+001
7.778243e+002, 5.827673e+001
7.783064e+002, 5.831621e+001
7.787885e+002, 5.834486e+001
7.792706e+002, 5.839635e+001
7.797527e+002, 5.847818e+001
7.802349e+002, 5.857022e+001
7.807170e+002, 5.875282e+001
7.811991e+002, 5.888633e+001
7.816812e+002, 5.882154e+001
7.821633e+002, 5.827471e+001
7.826454e+002, 5.807169e+001
7.831276e+002, 5.839086e+001
7.836097e+002, 5.884150e+001
7.840918e+002, 5.902434e+001
7.845739e+002, 5.893412e+001
7.850560e+002, 5.885601e+001
7.855381e+002, 5.880769e+001
7.860203e+002, 5.882600e+001
7.865024e+002, 5.907022e+001
7.869845e+002, 5.937745e+001
7.874666e+002, 5.943724e+001
7.879487e+002, 5.910025e+001
7.884308e+002, 5.877558e+001
7.889130e+002, 5.869887e+001
7.893951e+002, 5.871279e+001
7.898772e+002, 5.865162e+001
7.903593e+002, 5.843383e+001
7.908414e+002, 5.825197e+001
7.913235e+002, 5.806691e+001
7.918057e+002, 5.797603e+001
7.922878e+002, 5.816693e+001
7.927699e+002, 5.861633e+001
7.932520e+002, 5.890484e+001
7.937341e+002, 5.894932e+001
7.942162e+002, 5.893904e+001
7.946984e+002, 5.915977e+001
7.951805e+002, 5.943995e+001
7.956626e+002, 5.948846e+001
7.961447e+002, 5.912617e+001
7.966268e+002, 5.878497e+001
7.971089e+002, 5.864672e+001
7.975911e+002, 5.859361e+001
7.980732e+002, 5.848115e+001
7.985553e+002, 5.822178e+001
7.990374e+002, 5.810398e+001
7.995195e+002, 5.814996e+001
8.000016e+002, 5.832787e+001
8.004838e+002, 5.868019e+001
8.009659e+002, 5.915804e+001
8.014480e+002, 5.945479e+001
8.019301e+002, 5.947267e+001
8.024122e+002, 5.947582e+001
8.028943e+002, 5.973275e+001
8.033765e+002, 6.012355e+001
8.038586e+002, 6.050104e+001
8.043407e+002, 6.086379e+001
8.048228e+002, 6.114443e+001
8.053049e+002, 6.120936e+001
8.057870e+002, 6.125865e+001
8.062692e+002, 6.152535e+001
8.067513e+002, 6.210946e+001
8.072334e+002, 6.249165e+001
8.077155e+002, 6.258398e+001
8.081976e+002, 6.257475e+001
8.086797e+002, 6.267980e+001
8.091619e+002, 6.288007e+001
8.096440e+002, 6.314531e+001
8.101261e+002, 6.350089e+001
8.106082e+002, 6.379432e+001
8.110903e+002, 6.381467e+001
8.115724e+002, 6.375634e+001
8.120546e+002, 6.383771e+001
8.125367e+002, 6.426240e+001
8.130188e+002, 6.456197e+001
8.135009e+002, 6.466763e+001
8.139830e+002, 6.469328e+001
8.144651e+002, 6.477387e+001
8.149473e+002, 6.491939e+001
8.154294e+002, 6.497755e+001
8.159115e+002, 6.493460e+001
8.163936e+002, 6.480122e+001
8.168757e+002, 6.455727e+001
8.173578e+002, 6.424065e+001
8.178400e+002, 6.390126e+001
8.183221e+002, 6.353008e+001
8.188042e+002, 6.320075e+001
8.192863e+002, 6.305442e+001
8.197684e+002, 6.290440e+001
8.202505e+002, 6.254865e+001
8.207327e+002, 6.180827e+001
8.212148e+002, 6.128521e+001
8.216969e+002, 6.108495e+001
8.221790e+002, 6.090366e+001
8.226611e+002, 6.036837e+001
8.231432e+002, 5.953942e+001
8.236254e+002, 5.881787e+001
8.241075e+002, 5.823378e+001
8.245896e+002, 5.783590e+001
8.250717e+002, 5.789904e+001
8.255538e+002, 5.806101e+001
8.260359e+002, 5.785025e+001
8.265181e+002, 5.702313e+001
8.270002e+002, 5.640395e+001
8.274823e+002, 5.639920e+001
8.279644e+002, 5.648941e+001
8.284465e+002, 5.631947e+001
8.289286e+002, 5.581081e+001
8.294108e+002, 5.547655e+001
8.298929e+002, 5.536685e+001
8.303750e+002, 5.522706e+001
8.308571e+002, 5.464000e+001
8.313392e+002, 5.389059e+001
8.318214e+002, 5.368745e+001
8.323035e+002, 5.412304e+001
8.327856e+002, 5.449989e+001
8.332677e+002, 5.424549e+001
8.337498e+002, 5.385521e+001
8.342319e+002, 5.372597e+001
8.347141e+002, 5.400105e+001
8.351962e+002, 5.409892e+001
8.356783e+002, 5.394021e+001
8.361604e+002, 5.373537e+001
8.366425e+002, 5.359973e+001
8.371246e+002, 5.353385e+001
8.376068e+002, 5.358052e+001
8.380889e+002, 5.374053e+001
8.385710e+002, 5.389571e+001
8.390531e+002, 5.392578e+001
8.395352e+002, 5.392171e+001
8.400173e+002, 5.405859e+001
8.404995e+002, 5.433944e+001
8.409816e+002, 5.436876e+001
8.414637e+002, 5.361592e+001
8.419458e+002, 5.297590e+001
8.424279e+002, 5.287981e+001
8.429100e+002, 5.331650e+001
8.433922e+002, 5.369887e+001
8.438743e+002, 5.404551e+001
8.443564e+002, 5.423271e+001
8.448385e+002, 5.405327e+001
8.453206e+002, 5.369743e+001
8.458027e+002, 5.367293e+001
8.462849e+002, 5.391645e+001
8.467670e+002, 5.407504e+001
8.472491e+002, 5.383309e+001
8.477312e+002, 5.355861e+001
8.482133e+002, 5.347459e+001
8.486954e+002, 5.356867e+001
8.491776e+002, 5.361946e+001
8.496597e+002, 5.360536e+001
8.501418e+002, 5.358184e+001
8.506239e+002, 5.356427e+001
8.511060e+002, 5.355367e+001
8.515881e+002, 5.357843e+001
8.520703e+002, 5.362757e+001
8.525524e+002, 5.360385e+001
8.530345e+002, 5.339199e+001
8.535166e+002, 5.314827e+001
8.539987e+002, 5.297555e+001
8.544808e+002, 5.288218e+001
8.549630e+002, 5.289027e+001
8.554451e+002, 5.311929e+001
8.559272e+002, 5.331392e+001
8.564093e+002, 5.343963e+001
8.568914e+002, 5.349070e+001
8.573735e+002, 5.342671e+001
8.578557e+002, 5.323180e+001
8.583378e+002, 5.310997e+001
8.588199e+002, 5.312321e+001
8.593020e+002, 5.321590e+001
8.597841e+002, 5.329540e+001
8.602662e+002, 5.339360e+001
8.607484e+002, 5.358748e+001
8.612305e+002, 5.408212e+001
8.617126e+002, 5.440937e+001
8.621947e+002, 5.432457e+001
8.626768e+002, 5.399233e+001
8.631589e+002, 5.362611e+001
8.636411e+002, 5.310632e+001
8.641232e+002, 5.292536e+001
8.646053e+002, 5.320931e+001
8.650874e+002, 5.364305e+001
8.655695e+002, 5.376941e+001
8.660516e+002, 5.370201e+001
8.665338e+002, 5.384808e+001
8.670159e+002, 5.434180e+001
8.674980e+002, 5.475536e+001
8.679801e+002, 5.478086e+001
8.684622e+002, 5.458339e+001
8.689443e+002, 5.430770e+001
8.694265e+002, 5.389232e+001
8.699086e+002, 5.359367e+001
8.703907e+002, 5.342470e+001
8.708728e+002, 5.335445e+001
8.713549e+002, 5.340493e+001
8.718370e+002, 5.355906e+001
8.723192e+002, 5.359900e+001
8.728013e+002, 5.351559e+001
8.732834e+002, 5.339884e+001
8.737655e+002, 5.329191e+001
8.742476e+002, 5.320779e+001
8.747297e+002, 5.317048e+001
8.752119e+002, 5.318250e+001
8.756940e+002, 5.318048e+001
8.761761e+002, 5.313608e+001
8.766582e+002, 5.308682e+001
8.771403e+002, 5.304402e+001
8.776224e+002, 5.300801e+001
8.781046e+002, 5.299094e+001
8.785867e+002, 5.299440e+001
8.790688e+002, 5.298850e+001
8.795509e+002, 5.291824e+001
8.800330e+002, 5.285094e+001
8.805151e+002, 5.294279e+001
8.809973e+002, 5.313743e+001
8.814794e+002, 5.321647e+001
8.819615e+002, 5.291734e+001
8.824436e+002, 5.267290e+001
8.829257e+002, 5.270572e+001
8.834078e+002, 5.290818e+001
8.838900e+002, 5.295890e+001
8.843721e+002, 5.281750e+001
8.848542e+002, 5.274326e+001
8.853363e+002, 5.283250e+001
8.858184e+002, 5.299092e+001
8.863005e+002, 5.300596e+001
8.867827e+002, 5.295720e+001
8.872648e+002, 5.306126e+001
8.877469e+002, 5.357453e+001
8.882290e+002, 5.398441e+001
8.887111e+002, 5.395538e+001
8.891932e+002, 5.372959e+001
8.896754e+002, 5.367262e+001
8.901575e+002, 5.389202e+001
8.906396e+002, 5.402527e+001
8.911217e+002, 5.405686e+001
8.916038e+002, 5.396491e+001
8.920859e+002, 5.359049e+001
8.925681e+002, 5.306952e+001
8.930502e+002, 5.285365e+001
8.935323e+002, 5.304845e+001
8.940144e+002, 5.331466e+001
8.944965e+002, 5.352820e+001
8.949786e+002, 5.363623e+001
8.954608e+002, 5.355719e+001
8.959429e+002, 5.319324e+001
8.964250e+002, 5.299650e+001
8.969071e+002, 5.302580e+001
8.973892e+002, 5.310656e+001
8.978713e+002, 5.310824e+001
8.983535e+002, 5.305363e+001
8.988356e+002, 5.309306e+001
8.993177e+002, 5.322118e+001
8.997998e+002, 5.334508e+001
9.002819e+002, 5.338010e+001
9.007640e+002, 5.340612e+001
9.012462e+002, 5.351479e+001
9.017283e+002, 5.369210e+001
9.022104e+002, 5.376936e+001
9.026925e+002, 5.365795e+001
9.031746e+002, 5.357126e+001
9.036567e+002, 5.358518e+001
9.041389e+002, 5.366055e+001
9.046210e+002, 5.364996e+001
9.051031e+002, 5.356779e+001
9.055852e+002, 5.354213e+001
9.060673e+002, 5.363903e+001
9.065494e+002, 5.379449e+001
9.070316e+002, 5.408212e+001
9.075137e+002, 5.435778e+001
9.079958e+002, 5.436941e+001
9.084779e+002, 5.366824e+001
9.089600e+002, 5.322973e+001
9.094421e+002, 5.321092e+001
9.099243e+002, 5.340750e+001
9.104064e+002, 5.355777e+001
9.108885e+002, 5.366519e+001
9.113706e+002, 5.383599e+001
9.118527e+002, 5.411006e+001
9.123348e+002, 5.429286e+001
9.128170e+002, 5.401988e+001
9.132991e+002, 5.364650e+001
9.137812e+002, 5.363586e+001
9.142633e+002, 5.420246e+001
9.147454e+002, 5.452673e+001
9.152275e+002, 5.426587e+001
9.157097e+002, 5.400182e+001
9.161918e+002, 5.416497e+001
9.166739e+002, 5.474195e+001
9.171560e+002, 5.468806e+001
9.176381e+002, 5.399721e+001
9.181202e+002, 5.347463e+001
9.186024e+002, 5.396493e+001
9.190845e+002, 5.471690e+001
9.195666e+002, 5.487337e+001
9.200487e+002, 5.451206e+001
9.205308e+002, 5.424054e+001
9.210129e+002, 5.433696e+001
9.214951e+002, 5.441148e+001
9.219772e+002, 5.430419e+001
9.224593e+002, 5.413091e+001
9.229414e+002, 5.433105e+001
9.234235e+002, 5.489214e+001
9.239056e+002, 5.525231e+001
9.243878e+002, 5.518452e+001
9.248699e+002, 5.492476e+001
9.253520e+002, 5.461296e+001
9.258341e+002, 5.433168e+001
9.263162e+002, 5.420863e+001
9.267983e+002, 5.436144e+001
9.272805e+002, 5.455952e+001
9.277626e+002, 5.479338e+001
9.282447e+002, 5.504250e+001
9.287268e+002, 5.533735e+001
9.292089e+002, 5.568046e+001
9.296910e+002, 5.572464e+001
9.301732e+002, 5.542537e+001
9.306553e+002, 5.506862e+001
9.311374e+002, 5.487741e+001
9.316195e+002, 5.479446e+001
9.321016e+002, 5.476417e+001
9.325837e+002, 5.478211e+001
9.330659e+002, 5.481934e+001
9.335480e+002, 5.478852e+001
9.340301e+002, 5.488459e+001
9.345122e+002, 5.529320e+001
9.349943e+002, 5.591253e+001
9.354764e+002, 5.594033e+001
9.359586e+002, 5.539090e+001
9.364407e+002, 5.485929e+001
9.369228e+002, 5.465111e+001
9.374049e+002, 5.458977e+001
9.378870e+002, 5.450770e+001
9.383691e+002, 5.442688e+001
9.388513e+002, 5.440033e+001
9.393334e+002, 5.441035e+001
9.398155e+002, 5.454199e+001
9.402976e+002, 5.489635e+001
9.407797e+002, 5.528184e+001
9.412618e+002, 5.538550e+001
9.417440e+002, 5.522215e+001
9.422261e+002, 5.493290e+001
9.427082e+002, 5.450159e+001
9.431903e+002, 5.416365e+001
9.436724e+002, 5.419820e+001
9.441545e+002, 5.441437e+001
9.446367e+002, 5.464213e+001
9.451188e+002, 5.488293e+001
9.456009e+002, 5.499268e+001
9.460830e+002, 5.491454e+001
9.465651e+002, 5.478029e+001
9.470472e+002, 5.462091e+001
9.475294e+002, 5.445666e+001
9.480115e+002, 5.451535e+001
9.484936e+002, 5.477940e+001
9.489757e+002, 5.505348e+001
9.494578e+002, 5.528305e+001
9.499399e+002, 5.541527e+001
9.504221e+002, 5.540840e+001
9.509042e+002, 5.527026e+001
9.513863e+002, 5.501229e+001
9.518684e+002, 5.446333e+001
9.523505e+002, 5.414775e+001
9.528326e+002, 5.422523e+001
9.533148e+002, 5.449754e+001
9.537969e+002, 5.463552e+001
9.542790e+002, 5.464679e+001
9.547611e+002, 5.452901e+001
9.552432e+002, 5.423301e+001
9.557253e+002, 5.399128e+001
9.562075e+002, 5.400984e+001
9.566896e+002, 5.414220e+001
9.571717e+002, 5.423985e+001
9.576538e+002, 5.426061e+001
9.581359e+002, 5.433763e+001
9.586180e+002, 5.448791e+001
9.591002e+002, 5.464853e+001
9.595823e+002, 5.475788e+001
9.600644e+002, 5.484177e+001
9.605465e+002, 5.502534e+001
9.610286e+002, 5.528566e+001
9.615107e+002, 5.543439e+001
9.619929e+002, 5.526237e+001
9.624750e+002, 5.505426e+001
9.629571e+002, 5.494584e+001
9.634392e+002, 5.492672e+001
9.639213e+002, 5.495072e+001
9.644034e+002, 5.504451e+001
9.648856e+002, 5.506022e+001
9.653677e+002, 5.492591e+001
9.658498e+002, 5.477329e+001
9.663319e+002, 5.485152e+001
9.668140e+002, 5.506313e+001
9.672961e+002, 5.520491e+001
9.677783e+002, 5.521540e+001
9.682604e+002, 5.517503e+001
9.687425e+002, 5.505912e+001
9.692246e+002, 5.494664e+001
9.697067e+002, 5.488662e+001
9.701888e+002, 5.487292e+001
9.706710e+002, 5.497240e+001
9.711531e+002, 5.519039e+001
9.716352e+002, 5.545948e+001
9.721173e+002, 5.587754e+001
9.725994e+002, 5.622053e+001
9.730815e+002, 5.606655e+001
9.735637e+002, 5.550868e+001
9.740458e+002, 5.513638e+001
9.745279e+002, 5.524818e+001
9.750100e+002, 5.546443e+001
9.754921e+002, 5.576969e+001
9.759742e+002, 5.606751e+001
9.764564e+002, 5.606490e+001
9.769385e+002, 5.578213e+001
9.774206e+002, 5.558876e+001
9.779027e+002, 5.558869e+001
9.783848e+002, 5.568995e+001
9.788669e+002, 5.592222e+001
9.793491e+002, 5.615008e+001
9.798312e+002, 5.619374e+001
9.803133e+002, 5.591001e+001
9.807954e+002, 5.572813e+001
9.812775e+002, 5.567374e+001
9.817596e+002, 5.569887e+001
9.822418e+002, 5.580634e+001
9.827239e+002, 5.596906e+001
9.832060e+002, 5.601673e+001
9.836881e+002, 5.596368e+001
9.841702e+002, 5.594965e+001
9.846523e+002, 5.613223e+001
9.851345e+002, 5.630825e+001
9.856166e+002, 5.633374e+001
9.860987e+002, 5.624826e+001
9.865808e+002, 5.621904e+001
9.870629e+002, 5.626644e+001
9.875450e+002, 5.631183e+001
9.880272e+002, 5.634901e+001
9.885093e+002, 5.635792e+001
9.889914e+002, 5.625281e+001
9.894735e+002, 5.610940e+001
9.899556e+002, 5.609301e+001
9.904377e+002, 5.626188e+001
9.909199e+002, 5.646401e+001
9.914020e+002, 5.669434e+001
9.918841e+002, 5.688708e+001
9.923662e+002, 5.700674e+001
9.928483e+002, 5.705205e+001
9.933304e+002, 5.698676e+001
9.938126e+002, 5.680079e+001
9.942947e+002, 5.667821e+001
9.947768e+002, 5.681737e+001
9.952589e+002, 5.702250e+001
9.957410e+002, 5.703980e+001
9.962231e+002, 5.692627e+001
9.967053e+002, 5.685188e+001
9.971874e+002, 5.684150e+001
9.976695e+002, 5.691443e+001
9.981516e+002, 5.709502e+001
9.986337e+002, 5.733213e+001
9.991158e+002, 5.761074e+001
9.995980e+002, 5.790136e+001
1.000080e+003, 5.794662e+001
1.000562e+003, 5.768536e+001
1.001044e+003, 5.741148e+001
1.001526e+003, 5.730458e+001
1.002009e+003, 5.731362e+001
1.002491e+003, 5.744249e+001
1.002973e+003, 5.771153e+001
1.003455e+003, 5.782571e+001
1.003937e+003, 5.774744e+001
1.004419e+003, 5.763272e+001
1.004901e+003, 5.753584e+001
1.005383e+003, 5.746319e+001
1.005865e+003, 5.739071e+001
1.006348e+003, 5.735094e+001
1.006830e+003, 5.743534e+001
1.007312e+003, 5.785038e+001
1.007794e+003, 5.818810e+001
1.008276e+003, 5.827231e+001
1.008758e+003, 5.824975e+001
1.009240e+003, 5.826363e+001
1.009722e+003, 5.831538e+001
1.010205e+003, 5.838540e+001
1.010687e+003, 5.847384e+001
1.011169e+003, 5.857392e+001
1.011651e+003, 5.868710e+001
1.012133e+003, 5.880487e+001
1.012615e+003, 5.891836e+001
1.013097e+003, 5.902718e+001
1.013579e+003, 5.914555e+001
1.014061e+003, 5.932288e+001
1.014544e+003, 5.943278e+001
1.015026e+003, 5.943040e+001
1.015508e+003, 5.934434e+001
1.015990e+003, 5.921701e+001
1.016472e+003, 5.906316e+001
1.016954e+003, 5.892747e+001
1.017436e+003, 5.877524e+001
1.017918e+003, 5.876524e+001
1.018401e+003, 5.922581e+001
1.018883e+003, 5.972963e+001
1.019365e+003, 5.981172e+001
1.019847e+003, 5.933699e+001
1.020329e+003, 5.909167e+001
1.020811e+003, 5.910358e+001
1.021293e+003, 5.919461e+001
1.021775e+003, 5.927192e+001
1.022257e+003, 5.932793e+001
1.022740e+003, 5.934053e+001
1.023222e+003, 5.931995e+001
1.023704e+003, 5.930518e+001
1.024186e+003, 5.925050e+001
1.024668e+003, 5.929743e+001
1.025150e+003, 5.958178e+001
1.025632e+003, 5.987645e+001
1.026114e+003, 5.961836e+001
1.026596e+003, 5.892060e+001
1.027079e+003, 5.891097e+001
1.027561e+003, 5.985646e+001
1.028043e+003, 6.075783e+001
1.028525e+003, 6.073248e+001
1.029007e+003, 6.035942e+001
1.029489e+003, 6.010620e+001
1.029971e+003, 6.002256e+001
1.030453e+003, 5.993892e+001
1.030936e+003, 5.986256e+001
1.031418e+003, 5.975083e+001
1.031900e+003, 5.951929e+001
1.032382e+003, 5.931365e+001
1.032864e+003, 5.948712e+001
1.033346e+003, 5.991405e+001
1.033828e+003, 6.029510e+001
1.034310e+003, 6.051795e+001
1.034792e+003, 6.069069e+001
1.035275e+003, 6.089778e+001
1.035757e+003, 6.101271e+001
1.036239e+003, 6.088899e+001
1.036721e+003, 6.052813e+001
1.037203e+003, 6.014926e+001
1.037685e+003, 5.976667e+001
1.038167e+003, 5.956871e+001
1.038649e+003, 5.990707e+001
1.039132e+003, 6.030917e+001
1.039614e+003, 6.030761e+001
1.040096e+003, 6.000318e+001
1.040578e+003, 6.000840e+001
1.041060e+003, 6.053419e+001
1.041542e+003, 6.087180e+001
1.042024e+003, 6.085294e+001
1.042506e+003, 6.067372e+001
1.042989e+003, 6.061861e+001
1.043471e+003, 6.062825e+001
1.043953e+003, 6.056281e+001
1.044435e+003, 6.037348e+001
1.044917e+003, 6.023494e+001
1.045399e+003, 6.026103e+001
1.045881e+003, 6.030485e+001
1.046363e+003, 6.026645e+001
1.046845e+003, 6.017366e+001
1.047328e+003, 6.029848e+001
1.047810e+003, 6.062651e+001
1.048292e+003, 6.087693e+001
1.048774e+003, 6.090707e+001
1.049256e+003, 6.083402e+001
1.049738e+003, 6.069695e+001
1.050220e+003, 6.053817e+001
1.050702e+003, 6.041687e+001
1.051184e+003, 6.026581e+001
1.051667e+003, 6.036012e+001
1.052149e+003, 6.078608e+001
1.052631e+003, 6.119142e+001
1.053113e+003, 6.124266e+001
1.053595e+003, 6.106925e+001
1.054077e+003, 6.083069e+001
1.054559e+003, 6.057544e+001
1.055041e+003, 6.053944e+001
1.055523e+003, 6.118909e+001
1.056006e+003, 6.159805e+001
1.056488e+003, 6.140000e+001
1.056970e+003, 6.092262e+001
1.057452e+003, 6.092186e+001
1.057934e+003, 6.132110e+001
1.058416e+003, 6.132364e+001
1.058898e+003, 6.070161e+001
1.059380e+003, 6.016673e+001
1.059863e+003, 6.047911e+001
1.060345e+003, 6.099568e+001
1.060827e+003, 6.115688e+001
1.061309e+003, 6.092194e+001
1.061791e+003, 6.076480e+001
1.062273e+003, 6.069247e+001
1.062755e+003, 6.066671e+001
1.063237e+003, 6.069842e+001
1.063719e+003, 6.072979e+001
1.064202e+003, 6.058512e+001
1.064684e+003, 6.039153e+001
1.065166e+003, 6.040056e+001
1.065648e+003, 6.085231e+001
1.066130e+003, 6.121739e+001
1.066612e+003, 6.139434e+001
1.067094e+003, 6.154423e+001
1.067576e+003, 6.185810e+001
1.068059e+003, 6.227617e+001
1.068541e+003, 6.240201e+001
1.069023e+003, 6.225968e+001
1.069505e+003, 6.208130e+001
1.069987e+003, 6.194228e+001
1.070469e+003, 6.186866e+001
1.070951e+003, 6.190488e+001
1.071433e+003, 6.200898e+001
1.071916e+003, 6.211827e+001
1.072398e+003, 6.223757e+001
1.072880e+003, 6.231657e+001
1.073362e+003, 6.235151e+001
1.073844e+003, 6.232220e+001
1.074326e+003, 6.209668e+001
1.074808e+003, 6.187032e+001
1.075290e+003, 6.186719e+001
1.075772e+003, 6.210975e+001
1.076255e+003, 6.238610e+001
1.076737e+003, 6.271742e+001
1.077219e+003, 6.297932e+001
1.077701e+003, 6.310658e+001
1.078183e+003, 6.317515e+001
1.078665e+003, 6.336561e+001
1.079147e+003, 6.361054e+001
1.079629e+003, 6.373963e+001
1.080111e+003, 6.366112e+001
1.080594e+003, 6.360715e+001
1.081076e+003, 6.364038e+001
1.081558e+003, 6.374209e+001
1.082040e+003, 6.391868e+001
1.082522e+003, 6.416123e+001
1.083004e+003, 6.441879e+001
1.083486e+003, 6.467788e+001
1.083968e+003, 6.479284e+001
1.084450e+003, 6.452098e+001
1.084933e+003, 6.425860e+001
1.085415e+003, 6.419614e+001
1.085897e+003, 6.433727e+001
1.086379e+003, 6.470822e+001
1.086861e+003, 6.542111e+001
1.087343e+003, 6.589655e+001
1.087825e+003, 6.610034e+001
1.088307e+003, 6.612979e+001
1.088790e+003, 6.600418e+001
1.089272e+003, 6.579774e+001
1.089754e+003, 6.546666e+001
1.090236e+003, 6.509500e+001
1.090718e+003, 6.513518e+001
1.091200e+003, 6.597050e+001
1.091682e+003, 6.667152e+001
1.092164e+003, 6.708828e+001
1.092646e+003, 6.729330e+001
1.093129e+003, 6.732637e+001
1.093611e+003, 6.724722e+001
1.094093e+003, 6.721287e+001
1.094575e+003, 6.725166e+001
1.095057e+003, 6.725486e+001
1.095539e+003, 6.700524e+001
1.096021e+003, 6.691151e+001
1.096503e+003, 6.724988e+001
1.096986e+003, 6.784123e+001
1.097468e+003, 6.791811e+001
1.097950e+003, 6.755464e+001
1.098432e+003, 6.741484e+001
1.098914e+003, 6.782764e+001
1.099396e+003, 6.819812e+001
1.099878e+003, 6.795528e+001
1.100360e+003, 6.755190e+001
1.100843e+003, 6.742681e+001
1.101325e+003, 6.760091e+001
1.101807e+003, 6.797769e+001
1.102289e+003, 6.859480e+001
1.102771e+003, 6.903291e+001
1.103253e+003, 6.896268e+001
1.103735e+003, 6.867578e+001
1.104217e+003, 6.839565e+001
1.104699e+003, 6.818025e+001
1.105182e+003, 6.814939e+001
1.105664e+003, 6.856083e+001
1.106146e+003, 6.866779e+001
1.106628e+003, 6.831531e+001
1.107110e+003, 6.802345e+001
1.107592e+003, 6.838383e+001
1.108074e+003, 6.908828e+001
1.108556e+003, 6.960100e+001
1.109038e+003, 6.988235e+001
1.109521e+003, 6.987973e+001
1.110003e+003, 6.907341e+001
1.110485e+003, 6.867928e+001
1.110967e+003, 6.913897e+001
1.111449e+003, 6.987668e+001
1.111931e+003, 6.993645e+001
1.112413e+003, 6.949231e+001
1.112895e+003, 6.937440e+001
1.113377e+003, 6.968484e+001
1.113860e+003, 6.998900e+001
1.114342e+003, 7.001448e+001
1.114824e+003, 6.996832e+001
1.115306e+003, 6.997036e+001
1.115788e+003, 6.999168e+001
1.116270e+003, 6.990871e+001
1.116752e+003, 6.972349e+001
1.117234e+003, 6.955947e+001
1.117717e+003, 6.943152e+001
1.118199e+003, 6.939973e+001
1.118681e+003, 6.955001e+001
1.119163e+003, 6.979872e+001
1.119645e+003, 7.010673e+001
1.120127e+003, 7.047372e+001
1.120609e+003, 7.068539e+001
1.121091e+003, 7.072337e+001
1.121573e+003, 7.072148e+001
1.122056e+003, 7.076205e+001
1.122538e+003, 7.074815e+001
1.123020e+003, 7.045029e+001
1.123502e+003, 7.005048e+001
1.123984e+003, 6.983729e+001
1.124466e+003, 6.996441e+001
1.124948e+003, 7.008168e+001
1.125430e+003, 7.018399e+001
1.125913e+003, 7.027969e+001
1.126395e+003, 7.041261e+001
1.126877e+003, 7.052577e+001
1.127359e+003, 7.044617e+001
1.127841e+003, 7.023845e+001
1.128323e+003, 7.008138e+001
1.128805e+003, 6.994835e+001
1.129287e+003, 7.003268e+001
1.129770e+003, 7.047111e+001
1.130252e+003, 7.094261e+001
1.130734e+003, 7.118851e+001
1.131216e+003, 7.120261e+001
1.131698e+003, 7.078067e+001
1.132180e+003, 7.001199e+001
1.132662e+003, 6.960046e+001
1.133144e+003, 7.031976e+001
1.133626e+003, 7.098707e+001
1.134109e+003, 7.112572e+001
1.134591e+003, 7.101301e+001
1.135073e+003, 7.113807e+001
1.135555e+003, 7.145475e+001
1.136037e+003, 7.130179e+001
1.136519e+003, 7.058979e+001
1.137001e+003, 7.001139e+001
1.137483e+003, 7.016030e+001
1.137965e+003, 7.051340e+001
1.138448e+003, 7.091833e+001
1.138930e+003, 7.124392e+001
1.139412e+003, 7.093790e+001
1.139894e+003, 6.994534e+001
1.140376e+003, 6.947778e+001
1.140858e+003, 6.986555e+001
1.141340e+003, 7.041093e+001
1.141822e+003, 7.051491e+001
1.142304e+003, 7.043615e+001
1.142787e+003, 7.036302e+001
1.143269e+003, 7.031852e+001
1.143751e+003, 7.047378e+001
1.144233e+003, 7.088645e+001
1.144715e+003, 7.116032e+001
1.145197e+003, 7.113038e+001
1.145679e+003, 7.096092e+001
1.146161e+003, 7.079285e+001
1.146644e+003, 7.064719e+001
1.147126e+003, 7.054185e+001
1.147608e+003, 7.046980e+001
1.148090e+003, 7.053111e+001
1.148572e+003, 7.079446e+001
1.149054e+003, 7.097676e+001
1.149536e+003, 7.093493e+001
1.150018e+003, 7.073632e+001
1.150500e+003, 7.041933e+001
1.150983e+003, 7.005199e+001
1.151465e+003, 6.976603e+001
1.151947e+003, 6.961167e+001
1.152429e+003, 6.953622e+001
1.152911e+003, 6.959521e+001
1.153393e+003, 6.960084e+001
1.153875e+003, 6.934546e+001
1.154357e+003, 6.896867e+001
1.154840e+003, 6.887225e+001
1.155322e+003, 6.898705e+001
1.155804e+003, 6.909642e+001
1.156286e+003, 6.920028e+001
1.156768e+003, 6.915405e+001
1.157250e+003, 6.888020e+001
1.157732e+003, 6.855722e+001
1.158214e+003, 6.833108e+001
1.158697e+003, 6.819590e+001
1.159179e+003, 6.813252e+001
1.159661e+003, 6.813911e+001
1.160143e+003, 6.821349e+001
1.160625e+003, 6.865157e+001
1.161107e+003, 6.875014e+001
1.161589e+003, 6.801263e+001
1.162071e+003, 6.713073e+001
1.162553e+003, 6.714001e+001
1.163036e+003, 6.786868e+001
1.163518e+003, 6.801265e+001
1.164000e+003, 6.751325e+001
1.164482e+003, 6.702950e+001
1.164964e+003, 6.693546e+001
1.165446e+003, 6.698872e+001
1.165928e+003, 6.718205e+001
1.166410e+003, 6.738454e+001
1.166892e+003, 6.732401e+001
1.167375e+003, 6.701920e+001
1.167857e+003, 6.674226e+001
1.168339e+003, 6.652841e+001
1.168821e+003, 6.633109e+001
1.169303e+003, 6.592435e+001
1.169785e+003, 6.570877e+001
1.170267e+003, 6.622727e+001
1.170749e+003, 6.709373e+001
1.171231e+003, 6.708768e+001
1.171714e+003, 6.621759e+001
1.172196e+003, 6.569726e+001
1.172678e+003, 6.581640e+001
1.173160e+003, 6.607373e+001
1.173642e+003, 6.614336e+001
1.174124e+003, 6.609769e+001
1.174606e+003, 6.591814e+001
1.175088e+003, 6.565678e+001
1.175571e+003, 6.569195e+001
1.176053e+003, 6.605446e+001
1.176535e+003, 6.603917e+001
1.177017e+003, 6.531699e+001
1.177499e+003, 6.461270e+001
1.177981e+003, 6.475038e+001
1.178463e+003, 6.515955e+001
1.178945e+003, 6.529937e+001
1.179427e+003, 6.513926e+001
1.179910e+003, 6.490456e+001
1.180392e+003, 6.458957e+001
1.180874e+003, 6.420595e+001
1.181356e+003, 6.367244e+001
1.181838e+003, 6.326905e+001
1.182320e+003, 6.352149e+001
1.182802e+003, 6.394242e+001
1.183284e+003, 6.386195e+001
1.183767e+003, 6.310899e+001
1.184249e+003, 6.291683e+001
1.184731e+003, 6.338951e+001
1.185213e+003, 6.368617e+001
1.185695e+003, 6.326301e+001
1.186177e+003, 6.269935e+001
1.186659e+003, 6.276276e+001
1.187141e+003, 6.308173e+001
1.187624e+003, 6.307605e+001
1.188106e+003, 6.250058e+001
1.188588e+003, 6.234487e+001
1.189070e+003, 6.269119e+001
1.189552e+003, 6.299665e+001
1.190034e+003, 6.293861e+001
1.190516e+003, 6.268448e+001
1.190998e+003, 6.231412e+001
1.191480e+003, 6.193962e+001
1.191963e+003, 6.177584e+001
1.192445e+003, 6.203923e+001
1.192927e+003, 6.195557e+001
1.193409e+003, 6.140419e+001
1.193891e+003, 6.105701e+001
1.194373e+003, 6.168422e+001
1.194855e+003, 6.254479e+001
1.195337e+003, 6.267069e+001
1.195819e+003, 6.226844e+001
1.196302e+003, 6.176149e+001
1.196784e+003, 6.094633e+001
1.197266e+003, 6.075150e+001
1.197748e+003, 6.134083e+001
1.198230e+003, 6.192398e+001
1.198712e+003, 6.175829e+001
1.199194e+003, 6.128758e+001
1.199676e+003, 6.105939e+001
1.200158e+003, 6.102866e+001
1.200641e+003, 6.105214e+001
1.201123e+003, 6.109998e+001
1.201605e+003, 6.123328e+001
1.202087e+003, 6.148771e+001
1.202569e+003, 6.169961e+001
1.203051e+003, 6.171541e+001
1.203533e+003, 6.160271e+001
1.204015e+003, 6.147927e+001
1.204498e+003, 6.130876e+001
1.204980e+003, 6.090779e+001
1.205462e+003, 5.994123e+001
1.205944e+003, 5.956294e+001
1.206426e+003, 5.998470e+001
1.206908e+003, 6.054108e+001
1.207390e+003, 6.052463e+001
1.207872e+003, 6.028608e+001
1.208354e+003, 6.030772e+001
1.208837e+003, 6.053521e+001
1.209319e+003, 6.061119e+001
1.209801e+003, 6.044751e+001
1.210283e+003, 6.026750e+001
1.210765e+003, 6.009666e+001
1.211247e+003, 5.990721e+001
1.211729e+003, 5.955540e+001
1.212211e+003, 5.924030e+001
1.212694e+003, 5.930553e+001
1.213176e+003, 5.968446e+001
1.213658e+003, 5.989368e+001
1.214140e+003, 5.988258e+001
1.214622e+003, 5.970889e+001
1.215104e+003, 5.933136e+001
1.215586e+003, 5.901085e+001
1.216068e+003, 5.913422e+001
1.216551e+003, 5.940435e+001
1.217033e+003, 5.943188e+001
1.217515e+003, 5.923639e+001
1.217997e+003, 5.916452e+001
1.218479e+003, 5.926490e+001
1.218961e+003, 5.939261e+001
1.219443e+003, 5.952875e+001
1.219925e+003, 5.966532e+001
1.220407e+003, 5.991695e+001
1.220890e+003, 6.007806e+001
1.221372e+003, 5.980808e+001
1.221854e+003, 5.915302e+001
1.222336e+003, 5.875698e+001
1.222818e+003, 5.870664e+001
1.223300e+003, 5.865155e+001
1.223782e+003, 5.851910e+001
1.224264e+003, 5.838768e+001
1.224746e+003, 5.827857e+001
1.225229e+003, 5.826378e+001
1.225711e+003, 5.844258e+001
1.226193e+003, 5.881446e+001
1.226675e+003, 5.925045e+001
1.227157e+003, 5.981575e+001
1.227639e+003, 6.007531e+001
1.228121e+003, 5.991693e+001
1.228603e+003, 5.952602e+001
1.229085e+003, 5.879320e+001
1.229568e+003, 5.815989e+001
1.230050e+003, 5.820424e+001
1.230532e+003, 5.885442e+001
1.231014e+003, 5.908761e+001
1.231496e+003, 5.884403e+001
1.231978e+003, 5.874955e+001
1.232460e+003, 5.898601e+001
1.232942e+003, 5.920642e+001
1.233425e+003, 5.901466e+001
1.233907e+003, 5.870769e+001
1.234389e+003, 5.854229e+001
1.234871e+003, 5.850829e+001
1.235353e+003, 5.846411e+001
1.235835e+003, 5.840838e+001
1.236317e+003, 5.839362e+001
1.236799e+003, 5.843889e+001
1.237281e+003, 5.849492e+001
1.237764e+003, 5.846993e+001
1.238246e+003, 5.848376e+001
1.238728e+003, 5.871935e+001
1.239210e+003, 5.908140e+001
1.239692e+003, 5.910445e+001
1.240174e+003, 5.880461e+001
1.240656e+003, 5.860727e+001
1.241138e+003, 5.861442e+001
1.241621e+003, 5.873925e+001
1.242103e+003, 5.912263e+001
1.242585e+003, 5.939515e+001
1.243067e+003, 5.923558e+001
1.243549e+003, 5.879005e+001
1.244031e+003, 5.858769e+001
1.244513e+003, 5.860081e+001
1.244995e+003, 5.861650e+001
1.245478e+003, 5.857384e+001
1.245960e+003, 5.859792e+001
1.246442e+003, 5.894219e+001
1.246924e+003, 5.916875e+001
1.247406e+003, 5.896821e+001
1.247888e+003, 5.853537e+001
1.248370e+003, 5.852258e+001
1.248852e+003, 5.882763e+001
1.249334e+003, 5.902177e+001
1.249817e+003, 5.900271e+001
1.250299e+003, 5.890406e+001
1.250781e+003, 5.864078e+001
1.251263e+003, 5.850274e+001
1.251745e+003, 5.865949e+001
1.252227e+003, 5.896162e+001
1.252709e+003, 5.902962e+001
1.253191e+003, 5.893646e+001
1.253673e+003, 5.888923e+001
1.254156e+003, 5.893212e+001
1.254638e+003, 5.900968e+001
1.255120e+003, 5.925045e+001
1.255602e+003, 5.927671e+001
1.256084e+003, 5.886134e+001
1.256566e+003, 5.830124e+001
1.257048e+003, 5.821782e+001
1.257530e+003, 5.843325e+001
1.258012e+003, 5.858394e+001
1.258495e+003, 5.859596e+001
1.258977e+003, 5.867411e+001
1.259459e+003, 5.891867e+001
1.259941e+003, 5.905586e+001
1.260423e+003, 5.895880e+001
1.260905e+003, 5.879614e+001
1.261387e+003, 5.884451e+001
1.261869e+003, 5.899988e+001
1.262352e+003, 5.915274e+001
1.262834e+003, 5.929144e+001
1.263316e+003, 5.916456e+001
1.263798e+003, 5.864022e+001
1.264280e+003, 5.831092e+001
1.264762e+003, 5.836214e+001
1.265244e+003, 5.864373e+001
1.265726e+003, 5.921775e+001
1.266208e+003, 5.975910e+001
1.266691e+003, 5.981693e+001
1.267173e+003, 5.936497e+001
1.267655e+003, 5.914934e+001
1.268137e+003, 5.919572e+001
1.268619e+003, 5.926987e+001
1.269101e+003, 5.932807e+001
1.269583e+003, 5.931630e+001
1.270065e+003, 5.909356e+001
1.270548e+003, 5.884953e+001
1.271030e+003, 5.878394e+001
1.271512e+003, 5.885275e+001
1.271994e+003, 5.885183e+001
1.272476e+003, 5.878381e+001
1.272958e+003, 5.876120e+001
1.273440e+003, 5.881279e+001
1.273922e+003, 5.888599e+001
1.274405e+003, 5.898755e+001
1.274887e+003, 5.905124e+001
1.275369e+003, 5.901678e+001
1.275851e+003, 5.893171e+001
1.276333e+003, 5.889935e+001
1.276815e+003, 5.893048e+001
1.277297e+003, 5.914042e+001
1.277779e+003, 5.956880e+001
1.278261e+003, 5.985112e+001
1.278744e+003, 5.968954e+001
1.279226e+003, 5.945673e+001
1.279708e+003, 5.925082e+001
1.280190e+003, 5.910216e+001
1.280672e+003, 5.910924e+001
1.281154e+003, 5.920588e+001
1.281636e+003, 5.919640e+001
1.282118e+003, 5.905362e+001
1.282600e+003, 5.900201e+001
1.283083e+003, 5.918176e+001
1.283565e+003, 5.932927e+001
1.284047e+003, 5.938059e+001
1.284529e+003, 5.938974e+001
1.285011e+003, 5.946177e+001
1.285493e+003, 5.952855e+001
1.285975e+003, 5.945717e+001
1.286457e+003, 5.924891e+001
1.286939e+003, 5.909261e+001
1.287422e+003, 5.899292e+001
1.287904e+003, 5.902037e+001
1.288386e+003, 5.923104e+001
1.288868e+003, 5.937556e+001
1.289350e+003, 5.900587e+001
1.289832e+003, 5.857459e+001
1.290314e+003, 5.859314e+001
1.290796e+003, 5.899232e+001
1.291279e+003, 5.926709e+001
1.291761e+003, 5.941402e+001
1.292243e+003, 5.942067e+001
1.292725e+003, 5.927250e+001
1.293207e+003, 5.917242e+001
1.293689e+003, 5.937946e+001
1.294171e+003, 5.959176e+001
1.294653e+003, 5.959448e+001
1.295135e+003, 5.946546e+001
1.295618e+003, 5.927959e+001
1.296100e+003, 5.905655e+001
1.296582e+003, 5.905812e+001
1.297064e+003, 5.929564e+001
1.297546e+003, 5.940481e+001
1.298028e+003, 5.888052e+001
1.298510e+003, 5.857140e+001
1.298992e+003, 5.882014e+001
1.299475e+003, 5.927496e+001
1.299957e+003, 5.954015e+001
1.300439e+003, 5.962854e+001
1.300921e+003, 5.945490e+001
1.301403e+003, 5.909477e+001
1.301885e+003, 5.894707e+001
##END=



