##NAMES=Erionite-Ca
##RRUFFID=R061110
##IDEAL CHEMISTRY=Ca_5_(Si_26_Al_10_O_72_)&#183;30H_2_O
##LOCALITY=Maze, Niigata Prefecture, Japan
##OWNER=RRUFF
##SOURCE=Michael Scott
##DESCRIPTION=Radiating white crystals with clinoptilolite
##STATUS=The identification of this mineral is confirmed by single-crystal X-ray diffraction and chemical analysis.
##URL=rruff.info/R061110
##MEASURED CHEMISTRY=(Ca_2.02_Na_2.64_K_1.92_)_Σ=6.58_(Si_27.40_Al_8.60_)O_72_·19.40H_2_O
8.975323e+001, 0.000000e+000
9.023535e+001, 2.350293e+002
9.071747e+001, 2.337478e+002
9.119958e+001, 2.323931e+002
9.168170e+001, 2.354051e+002
9.216382e+001, 2.372418e+002
9.264594e+001, 2.370458e+002
9.312805e+001, 2.355525e+002
9.361017e+001, 2.335179e+002
9.409229e+001, 2.307282e+002
9.457440e+001, 2.267112e+002
9.505651e+001, 2.227243e+002
9.553863e+001, 2.187747e+002
9.602074e+001, 2.150586e+002
9.650286e+001, 2.117765e+002
9.698498e+001, 2.088705e+002
9.746709e+001, 2.058657e+002
9.794921e+001, 2.030288e+002
9.843133e+001, 2.005958e+002
9.891344e+001, 1.980641e+002
9.939556e+001, 1.948968e+002
9.987768e+001, 1.913843e+002
1.003598e+002, 1.884835e+002
1.008419e+002, 1.868929e+002
1.013240e+002, 1.863592e+002
1.018061e+002, 1.855064e+002
1.022883e+002, 1.839762e+002
1.027704e+002, 1.823318e+002
1.032525e+002, 1.811609e+002
1.037346e+002, 1.805359e+002
1.042167e+002, 1.799180e+002
1.046988e+002, 1.788292e+002
1.051810e+002, 1.774687e+002
1.056631e+002, 1.761281e+002
1.061452e+002, 1.749389e+002
1.066273e+002, 1.738606e+002
1.071094e+002, 1.727187e+002
1.075915e+002, 1.713952e+002
1.080737e+002, 1.701433e+002
1.085558e+002, 1.690709e+002
1.090379e+002, 1.681445e+002
1.095200e+002, 1.672861e+002
1.100021e+002, 1.663920e+002
1.104842e+002, 1.654090e+002
1.109664e+002, 1.646987e+002
1.114485e+002, 1.644718e+002
1.119306e+002, 1.643193e+002
1.124127e+002, 1.639795e+002
1.128948e+002, 1.634552e+002
1.133769e+002, 1.629906e+002
1.138591e+002, 1.629679e+002
1.143412e+002, 1.638912e+002
1.148233e+002, 1.643402e+002
1.153054e+002, 1.640225e+002
1.157875e+002, 1.633898e+002
1.162696e+002, 1.628641e+002
1.167517e+002, 1.625940e+002
1.172339e+002, 1.624826e+002
1.177160e+002, 1.622935e+002
1.181981e+002, 1.618895e+002
1.186802e+002, 1.616771e+002
1.191623e+002, 1.619495e+002
1.196444e+002, 1.625317e+002
1.201266e+002, 1.629134e+002
1.206087e+002, 1.627503e+002
1.210908e+002, 1.623363e+002
1.215729e+002, 1.623219e+002
1.220550e+002, 1.629404e+002
1.225371e+002, 1.635567e+002
1.230193e+002, 1.634798e+002
1.235014e+002, 1.626074e+002
1.239835e+002, 1.619107e+002
1.244656e+002, 1.621921e+002
1.249477e+002, 1.627737e+002
1.254298e+002, 1.630524e+002
1.259120e+002, 1.627792e+002
1.263941e+002, 1.621404e+002
1.268762e+002, 1.615386e+002
1.273583e+002, 1.609673e+002
1.278404e+002, 1.604518e+002
1.283225e+002, 1.599817e+002
1.288047e+002, 1.595623e+002
1.292868e+002, 1.592317e+002
1.297689e+002, 1.590507e+002
1.302510e+002, 1.589905e+002
1.307331e+002, 1.586148e+002
1.312152e+002, 1.575141e+002
1.316974e+002, 1.564702e+002
1.321795e+002, 1.557201e+002
1.326616e+002, 1.551967e+002
1.331437e+002, 1.546931e+002
1.336258e+002, 1.540158e+002
1.341079e+002, 1.531129e+002
1.345901e+002, 1.523736e+002
1.350722e+002, 1.520241e+002
1.355543e+002, 1.516274e+002
1.360364e+002, 1.508625e+002
1.365185e+002, 1.497292e+002
1.370006e+002, 1.485337e+002
1.374828e+002, 1.476484e+002
1.379649e+002, 1.471489e+002
1.384470e+002, 1.465871e+002
1.389291e+002, 1.458782e+002
1.394112e+002, 1.451173e+002
1.398933e+002, 1.444132e+002
1.403755e+002, 1.437958e+002
1.408576e+002, 1.432251e+002
1.413397e+002, 1.427102e+002
1.418218e+002, 1.422528e+002
1.423039e+002, 1.416634e+002
1.427860e+002, 1.407247e+002
1.432681e+002, 1.395580e+002
1.437503e+002, 1.386078e+002
1.442324e+002, 1.380541e+002
1.447145e+002, 1.376700e+002
1.451966e+002, 1.372597e+002
1.456787e+002, 1.368189e+002
1.461608e+002, 1.363309e+002
1.466430e+002, 1.357781e+002
1.471251e+002, 1.351565e+002
1.476072e+002, 1.344972e+002
1.480893e+002, 1.336908e+002
1.485714e+002, 1.329145e+002
1.490535e+002, 1.323064e+002
1.495357e+002, 1.318889e+002
1.500178e+002, 1.315156e+002
1.504999e+002, 1.309538e+002
1.509820e+002, 1.300582e+002
1.514641e+002, 1.292814e+002
1.519462e+002, 1.287525e+002
1.524284e+002, 1.282852e+002
1.529105e+002, 1.277322e+002
1.533926e+002, 1.270410e+002
1.538747e+002, 1.262521e+002
1.543568e+002, 1.254636e+002
1.548389e+002, 1.245704e+002
1.553211e+002, 1.238219e+002
1.558032e+002, 1.233323e+002
1.562853e+002, 1.229601e+002
1.567674e+002, 1.225511e+002
1.572495e+002, 1.220293e+002
1.577316e+002, 1.214089e+002
1.582138e+002, 1.207426e+002
1.586959e+002, 1.199345e+002
1.591780e+002, 1.191913e+002
1.596601e+002, 1.186112e+002
1.601422e+002, 1.181395e+002
1.606243e+002, 1.176623e+002
1.611065e+002, 1.171380e+002
1.615886e+002, 1.165406e+002
1.620707e+002, 1.158088e+002
1.625528e+002, 1.147778e+002
1.630349e+002, 1.137825e+002
1.635170e+002, 1.129930e+002
1.639991e+002, 1.124036e+002
1.644813e+002, 1.119961e+002
1.649634e+002, 1.119041e+002
1.654455e+002, 1.119554e+002
1.659276e+002, 1.117614e+002
1.664097e+002, 1.112365e+002
1.668918e+002, 1.104834e+002
1.673740e+002, 1.095428e+002
1.678561e+002, 1.083604e+002
1.683382e+002, 1.072563e+002
1.688203e+002, 1.064921e+002
1.693024e+002, 1.059053e+002
1.697845e+002, 1.052979e+002
1.702667e+002, 1.045438e+002
1.707488e+002, 1.037584e+002
1.712309e+002, 1.032729e+002
1.717130e+002, 1.033718e+002
1.721951e+002, 1.032341e+002
1.726772e+002, 1.023572e+002
1.731594e+002, 1.011166e+002
1.736415e+002, 1.000414e+002
1.741236e+002, 9.946790e+001
1.746057e+002, 9.931371e+001
1.750878e+002, 9.909904e+001
1.755699e+002, 9.893834e+001
1.760521e+002, 9.855984e+001
1.765342e+002, 9.773747e+001
1.770163e+002, 9.666113e+001
1.774984e+002, 9.566533e+001
1.779805e+002, 9.500101e+001
1.784626e+002, 9.467019e+001
1.789448e+002, 9.427860e+001
1.794269e+002, 9.380437e+001
1.799090e+002, 9.329137e+001
1.803911e+002, 9.274056e+001
1.808732e+002, 9.215884e+001
1.813553e+002, 9.155163e+001
1.818375e+002, 9.090710e+001
1.823196e+002, 9.020383e+001
1.828017e+002, 8.970143e+001
1.832838e+002, 8.947075e+001
1.837659e+002, 8.932480e+001
1.842480e+002, 8.924353e+001
1.847301e+002, 8.918910e+001
1.852123e+002, 8.905135e+001
1.856944e+002, 8.871562e+001
1.861765e+002, 8.814644e+001
1.866586e+002, 8.762310e+001
1.871407e+002, 8.708733e+001
1.876228e+002, 8.663782e+001
1.881050e+002, 8.638248e+001
1.885871e+002, 8.632735e+001
1.890692e+002, 8.633963e+001
1.895513e+002, 8.633763e+001
1.900334e+002, 8.631215e+001
1.905155e+002, 8.612401e+001
1.909977e+002, 8.560302e+001
1.914798e+002, 8.498389e+001
1.919619e+002, 8.457751e+001
1.924440e+002, 8.446084e+001
1.929261e+002, 8.433098e+001
1.934082e+002, 8.369794e+001
1.938904e+002, 8.275066e+001
1.943725e+002, 8.214539e+001
1.948546e+002, 8.239846e+001
1.953367e+002, 8.307646e+001
1.958188e+002, 8.326733e+001
1.963009e+002, 8.271330e+001
1.967831e+002, 8.207668e+001
1.972652e+002, 8.192355e+001
1.977473e+002, 8.208939e+001
1.982294e+002, 8.216167e+001
1.987115e+002, 8.180627e+001
1.991936e+002, 8.115071e+001
1.996758e+002, 8.076687e+001
2.001579e+002, 8.083056e+001
2.006400e+002, 8.095262e+001
2.011221e+002, 8.095297e+001
2.016042e+002, 8.084359e+001
2.020863e+002, 8.065932e+001
2.025685e+002, 8.039108e+001
2.030506e+002, 8.004640e+001
2.035327e+002, 7.976092e+001
2.040148e+002, 7.946561e+001
2.044969e+002, 7.932284e+001
2.049790e+002, 7.948455e+001
2.054612e+002, 7.985536e+001
2.059433e+002, 8.022567e+001
2.064254e+002, 8.046140e+001
2.069075e+002, 8.056951e+001
2.073896e+002, 8.040137e+001
2.078717e+002, 7.936298e+001
2.083539e+002, 7.858134e+001
2.088360e+002, 7.861707e+001
2.093181e+002, 7.926588e+001
2.098002e+002, 7.992225e+001
2.102823e+002, 8.002275e+001
2.107644e+002, 7.948045e+001
2.112466e+002, 7.915578e+001
2.117287e+002, 7.923476e+001
2.122108e+002, 7.933616e+001
2.126929e+002, 7.932977e+001
2.131750e+002, 7.921140e+001
2.136571e+002, 7.901789e+001
2.141393e+002, 7.875793e+001
2.146214e+002, 7.838764e+001
2.151035e+002, 7.829559e+001
2.155856e+002, 7.870068e+001
2.160677e+002, 7.912382e+001
2.165498e+002, 7.937224e+001
2.170320e+002, 7.942431e+001
2.175141e+002, 7.930627e+001
2.179962e+002, 7.899866e+001
2.184783e+002, 7.845849e+001
2.189604e+002, 7.821407e+001
2.194425e+002, 7.843073e+001
2.199247e+002, 7.876723e+001
2.204068e+002, 7.908064e+001
2.208889e+002, 7.934017e+001
2.213710e+002, 7.948690e+001
2.218531e+002, 7.942207e+001
2.223352e+002, 7.913477e+001
2.228174e+002, 7.907687e+001
2.232995e+002, 7.947696e+001
2.237816e+002, 7.993604e+001
2.242637e+002, 8.014104e+001
2.247458e+002, 8.008172e+001
2.252279e+002, 7.996630e+001
2.257100e+002, 7.998172e+001
2.261922e+002, 8.009618e+001
2.266743e+002, 8.007362e+001
2.271564e+002, 7.970175e+001
2.276385e+002, 7.931026e+001
2.281206e+002, 7.929663e+001
2.286027e+002, 7.969303e+001
2.290849e+002, 8.000355e+001
2.295670e+002, 7.970802e+001
2.300491e+002, 7.904648e+001
2.305312e+002, 7.869120e+001
2.310133e+002, 7.900536e+001
2.314954e+002, 7.953491e+001
2.319776e+002, 7.977414e+001
2.324597e+002, 7.969667e+001
2.329418e+002, 7.951355e+001
2.334239e+002, 7.930056e+001
2.339060e+002, 7.907549e+001
2.343881e+002, 7.886637e+001
2.348703e+002, 7.868682e+001
2.353524e+002, 7.852048e+001
2.358345e+002, 7.831344e+001
2.363166e+002, 7.802953e+001
2.367987e+002, 7.785262e+001
2.372808e+002, 7.801743e+001
2.377630e+002, 7.829891e+001
2.382451e+002, 7.845248e+001
2.387272e+002, 7.839232e+001
2.392093e+002, 7.818734e+001
2.396914e+002, 7.791679e+001
2.401735e+002, 7.754159e+001
2.406557e+002, 7.722473e+001
2.411378e+002, 7.707087e+001
2.416199e+002, 7.698569e+001
2.421020e+002, 7.689444e+001
2.425841e+002, 7.677901e+001
2.430662e+002, 7.662671e+001
2.435484e+002, 7.640827e+001
2.440305e+002, 7.610378e+001
2.445126e+002, 7.578711e+001
2.449947e+002, 7.545676e+001
2.454768e+002, 7.513588e+001
2.459589e+002, 7.482701e+001
2.464410e+002, 7.452674e+001
2.469232e+002, 7.428486e+001
2.474053e+002, 7.425454e+001
2.478874e+002, 7.467160e+001
2.483695e+002, 7.471159e+001
2.488516e+002, 7.387489e+001
2.493337e+002, 7.286405e+001
2.498159e+002, 7.222043e+001
2.502980e+002, 7.210692e+001
2.507801e+002, 7.229831e+001
2.512622e+002, 7.246156e+001
2.517443e+002, 7.268504e+001
2.522264e+002, 7.265565e+001
2.527086e+002, 7.224259e+001
2.531907e+002, 7.168121e+001
2.536728e+002, 7.106377e+001
2.541549e+002, 7.044083e+001
2.546370e+002, 6.990748e+001
2.551191e+002, 6.963309e+001
2.556013e+002, 6.978169e+001
2.560834e+002, 6.984475e+001
2.565655e+002, 6.977084e+001
2.570476e+002, 6.965562e+001
2.575297e+002, 6.957740e+001
2.580118e+002, 6.954217e+001
2.584940e+002, 6.948024e+001
2.589761e+002, 6.927406e+001
2.594582e+002, 6.878599e+001
2.599403e+002, 6.851374e+001
2.604224e+002, 6.854082e+001
2.609045e+002, 6.866734e+001
2.613867e+002, 6.882536e+001
2.618688e+002, 6.897776e+001
2.623509e+002, 6.906339e+001
2.628330e+002, 6.899889e+001
2.633151e+002, 6.871806e+001
2.637972e+002, 6.852804e+001
2.642794e+002, 6.854147e+001
2.647615e+002, 6.853463e+001
2.652436e+002, 6.834447e+001
2.657257e+002, 6.799408e+001
2.662078e+002, 6.764161e+001
2.666899e+002, 6.744378e+001
2.671721e+002, 6.742667e+001
2.676542e+002, 6.741370e+001
2.681363e+002, 6.746214e+001
2.686184e+002, 6.746370e+001
2.691005e+002, 6.732726e+001
2.695826e+002, 6.708372e+001
2.700648e+002, 6.685320e+001
2.705469e+002, 6.674218e+001
2.710290e+002, 6.675823e+001
2.715111e+002, 6.668085e+001
2.719932e+002, 6.636832e+001
2.724753e+002, 6.612077e+001
2.729575e+002, 6.611465e+001
2.734396e+002, 6.628732e+001
2.739217e+002, 6.646768e+001
2.744038e+002, 6.655392e+001
2.748859e+002, 6.654322e+001
2.753680e+002, 6.638355e+001
2.758501e+002, 6.590376e+001
2.763322e+002, 6.549570e+001
2.768144e+002, 6.535078e+001
2.772965e+002, 6.537744e+001
2.777786e+002, 6.536869e+001
2.782607e+002, 6.521133e+001
2.787428e+002, 6.493509e+001
2.792249e+002, 6.465947e+001
2.797071e+002, 6.423278e+001
2.801892e+002, 6.397677e+001
2.806713e+002, 6.410054e+001
2.811534e+002, 6.443430e+001
2.816355e+002, 6.469298e+001
2.821176e+002, 6.476101e+001
2.825998e+002, 6.466489e+001
2.830819e+002, 6.444391e+001
2.835640e+002, 6.400572e+001
2.840461e+002, 6.363515e+001
2.845282e+002, 6.339851e+001
2.850103e+002, 6.326183e+001
2.854925e+002, 6.317110e+001
2.859746e+002, 6.310649e+001
2.864567e+002, 6.310090e+001
2.869388e+002, 6.326416e+001
2.874209e+002, 6.372358e+001
2.879030e+002, 6.391392e+001
2.883852e+002, 6.349150e+001
2.888673e+002, 6.285390e+001
2.893494e+002, 6.248935e+001
2.898315e+002, 6.251183e+001
2.903136e+002, 6.271994e+001
2.907957e+002, 6.289755e+001
2.912779e+002, 6.304234e+001
2.917600e+002, 6.316168e+001
2.922421e+002, 6.333351e+001
2.927242e+002, 6.343600e+001
2.932063e+002, 6.323603e+001
2.936884e+002, 6.271416e+001
2.941706e+002, 6.231267e+001
2.946527e+002, 6.254836e+001
2.951348e+002, 6.342363e+001
2.956169e+002, 6.387790e+001
2.960990e+002, 6.353490e+001
2.965811e+002, 6.300467e+001
2.970633e+002, 6.273744e+001
2.975454e+002, 6.274546e+001
2.980275e+002, 6.285278e+001
2.985096e+002, 6.298422e+001
2.989917e+002, 6.311086e+001
2.994738e+002, 6.310601e+001
2.999560e+002, 6.280369e+001
3.004381e+002, 6.252338e+001
3.009202e+002, 6.244862e+001
3.014023e+002, 6.255784e+001
3.018844e+002, 6.276124e+001
3.023665e+002, 6.306316e+001
3.028487e+002, 6.338897e+001
3.033308e+002, 6.352048e+001
3.038129e+002, 6.334233e+001
3.042950e+002, 6.317896e+001
3.047771e+002, 6.318644e+001
3.052592e+002, 6.331957e+001
3.057414e+002, 6.347321e+001
3.062235e+002, 6.362266e+001
3.067056e+002, 6.374677e+001
3.071877e+002, 6.378526e+001
3.076698e+002, 6.371154e+001
3.081519e+002, 6.367448e+001
3.086341e+002, 6.375744e+001
3.091162e+002, 6.390111e+001
3.095983e+002, 6.401009e+001
3.100804e+002, 6.406278e+001
3.105625e+002, 6.406472e+001
3.110446e+002, 6.399889e+001
3.115268e+002, 6.386179e+001
3.120089e+002, 6.375807e+001
3.124910e+002, 6.366278e+001
3.129731e+002, 6.363243e+001
3.134552e+002, 6.381213e+001
3.139373e+002, 6.423379e+001
3.144195e+002, 6.457800e+001
3.149016e+002, 6.447112e+001
3.153837e+002, 6.394952e+001
3.158658e+002, 6.363932e+001
3.163479e+002, 6.365272e+001
3.168300e+002, 6.385163e+001
3.173121e+002, 6.422884e+001
3.177943e+002, 6.475546e+001
3.182764e+002, 6.514663e+001
3.187585e+002, 6.517876e+001
3.192406e+002, 6.491097e+001
3.197227e+002, 6.471223e+001
3.202048e+002, 6.458003e+001
3.206870e+002, 6.451506e+001
3.211691e+002, 6.452438e+001
3.216512e+002, 6.460302e+001
3.221333e+002, 6.474271e+001
3.226154e+002, 6.495542e+001
3.230975e+002, 6.520845e+001
3.235797e+002, 6.542953e+001
3.240618e+002, 6.567923e+001
3.245439e+002, 6.578923e+001
3.250260e+002, 6.553704e+001
3.255081e+002, 6.512737e+001
3.259902e+002, 6.496986e+001
3.264724e+002, 6.521820e+001
3.269545e+002, 6.566011e+001
3.274366e+002, 6.596993e+001
3.279187e+002, 6.612219e+001
3.284008e+002, 6.631776e+001
3.288829e+002, 6.662012e+001
3.293651e+002, 6.697128e+001
3.298472e+002, 6.735686e+001
3.303293e+002, 6.777438e+001
3.308114e+002, 6.806777e+001
3.312935e+002, 6.803799e+001
3.317756e+002, 6.765260e+001
3.322578e+002, 6.736237e+001
3.327399e+002, 6.718636e+001
3.332220e+002, 6.710676e+001
3.337041e+002, 6.712986e+001
3.341862e+002, 6.724706e+001
3.346683e+002, 6.743194e+001
3.351505e+002, 6.771279e+001
3.356326e+002, 6.804152e+001
3.361147e+002, 6.810519e+001
3.365968e+002, 6.761774e+001
3.370789e+002, 6.719849e+001
3.375610e+002, 6.719608e+001
3.380432e+002, 6.746347e+001
3.385253e+002, 6.763777e+001
3.390074e+002, 6.754018e+001
3.394895e+002, 6.727500e+001
3.399716e+002, 6.712655e+001
3.404537e+002, 6.718284e+001
3.409359e+002, 6.717927e+001
3.414180e+002, 6.703055e+001
3.419001e+002, 6.680738e+001
3.423822e+002, 6.661607e+001
3.428643e+002, 6.648795e+001
3.433464e+002, 6.634312e+001
3.438286e+002, 6.606458e+001
3.443107e+002, 6.559071e+001
3.447928e+002, 6.514659e+001
3.452749e+002, 6.471106e+001
3.457570e+002, 6.432430e+001
3.462391e+002, 6.401480e+001
3.467213e+002, 6.378722e+001
3.472034e+002, 6.364176e+001
3.476855e+002, 6.360476e+001
3.481676e+002, 6.368638e+001
3.486497e+002, 6.360865e+001
3.491318e+002, 6.325840e+001
3.496140e+002, 6.289259e+001
3.500961e+002, 6.266369e+001
3.505782e+002, 6.250939e+001
3.510603e+002, 6.224973e+001
3.515424e+002, 6.176442e+001
3.520245e+002, 6.113220e+001
3.525067e+002, 6.069085e+001
3.529888e+002, 6.055723e+001
3.534709e+002, 6.046897e+001
3.539530e+002, 6.049465e+001
3.544351e+002, 6.051082e+001
3.549172e+002, 6.035193e+001
3.553994e+002, 5.996379e+001
3.558815e+002, 5.945770e+001
3.563636e+002, 5.900936e+001
3.568457e+002, 5.858350e+001
3.573278e+002, 5.830969e+001
3.578099e+002, 5.838071e+001
3.582920e+002, 5.844519e+001
3.587741e+002, 5.821870e+001
3.592563e+002, 5.770931e+001
3.597384e+002, 5.714912e+001
3.602205e+002, 5.675540e+001
3.607026e+002, 5.653743e+001
3.611847e+002, 5.640447e+001
3.616668e+002, 5.641129e+001
3.621490e+002, 5.644020e+001
3.626311e+002, 5.656660e+001
3.631132e+002, 5.667756e+001
3.635953e+002, 5.653685e+001
3.640774e+002, 5.597644e+001
3.645595e+002, 5.513074e+001
3.650417e+002, 5.457827e+001
3.655238e+002, 5.455632e+001
3.660059e+002, 5.452250e+001
3.664880e+002, 5.440046e+001
3.669701e+002, 5.424325e+001
3.674522e+002, 5.411342e+001
3.679344e+002, 5.402900e+001
3.684165e+002, 5.394694e+001
3.688986e+002, 5.377867e+001
3.693807e+002, 5.344640e+001
3.698628e+002, 5.324628e+001
3.703449e+002, 5.334446e+001
3.708271e+002, 5.343734e+001
3.713092e+002, 5.338688e+001
3.717913e+002, 5.317999e+001
3.722734e+002, 5.284792e+001
3.727555e+002, 5.234095e+001
3.732376e+002, 5.167463e+001
3.737198e+002, 5.136874e+001
3.742019e+002, 5.172322e+001
3.746840e+002, 5.209027e+001
3.751661e+002, 5.233512e+001
3.756482e+002, 5.243552e+001
3.761303e+002, 5.235924e+001
3.766125e+002, 5.207694e+001
3.770946e+002, 5.164150e+001
3.775767e+002, 5.110589e+001
3.780588e+002, 5.033649e+001
3.785409e+002, 4.985354e+001
3.790230e+002, 5.001615e+001
3.795052e+002, 5.038478e+001
3.799873e+002, 5.065295e+001
3.804694e+002, 5.075812e+001
3.809515e+002, 5.078011e+001
3.814336e+002, 5.077165e+001
3.819157e+002, 5.073384e+001
3.823979e+002, 5.073884e+001
3.828800e+002, 5.084099e+001
3.833621e+002, 5.093307e+001
3.838442e+002, 5.096013e+001
3.843263e+002, 5.092240e+001
3.848084e+002, 5.082407e+001
3.852906e+002, 5.059467e+001
3.857727e+002, 5.031903e+001
3.862548e+002, 5.023603e+001
3.867369e+002, 5.042004e+001
3.872190e+002, 5.052697e+001
3.877011e+002, 5.020946e+001
3.881833e+002, 4.973177e+001
3.886654e+002, 4.948303e+001
3.891475e+002, 4.961007e+001
3.896296e+002, 4.984489e+001
3.901117e+002, 5.003341e+001
3.905938e+002, 5.015879e+001
3.910760e+002, 5.003765e+001
3.915581e+002, 4.946095e+001
3.920402e+002, 4.879833e+001
3.925223e+002, 4.858605e+001
3.930044e+002, 4.884451e+001
3.934865e+002, 4.913467e+001
3.939687e+002, 4.928456e+001
3.944508e+002, 4.936070e+001
3.949329e+002, 4.948902e+001
3.954150e+002, 4.969801e+001
3.958971e+002, 4.985366e+001
3.963792e+002, 4.981148e+001
3.968614e+002, 4.958643e+001
3.973435e+002, 4.941483e+001
3.978256e+002, 4.937661e+001
3.983077e+002, 4.933116e+001
3.987898e+002, 4.912310e+001
3.992719e+002, 4.881308e+001
3.997540e+002, 4.864214e+001
4.002361e+002, 4.875892e+001
4.007183e+002, 4.904689e+001
4.012004e+002, 4.916315e+001
4.016825e+002, 4.903124e+001
4.021646e+002, 4.889318e+001
4.026467e+002, 4.879224e+001
4.031288e+002, 4.870591e+001
4.036110e+002, 4.858272e+001
4.040931e+002, 4.841869e+001
4.045752e+002, 4.830766e+001
4.050573e+002, 4.838254e+001
4.055394e+002, 4.871320e+001
4.060215e+002, 4.886858e+001
4.065037e+002, 4.870775e+001
4.069858e+002, 4.852968e+001
4.074679e+002, 4.845190e+001
4.079500e+002, 4.847840e+001
4.084321e+002, 4.859833e+001
4.089142e+002, 4.881799e+001
4.093964e+002, 4.909711e+001
4.098785e+002, 4.925373e+001
4.103606e+002, 4.920362e+001
4.108427e+002, 4.912812e+001
4.113248e+002, 4.894469e+001
4.118069e+002, 4.879528e+001
4.122891e+002, 4.887572e+001
4.127712e+002, 4.920965e+001
4.132533e+002, 4.957048e+001
4.137354e+002, 4.962885e+001
4.142175e+002, 4.928271e+001
4.146996e+002, 4.904382e+001
4.151818e+002, 4.893517e+001
4.156639e+002, 4.891839e+001
4.161460e+002, 4.904953e+001
4.166281e+002, 4.926588e+001
4.171102e+002, 4.942006e+001
4.175923e+002, 4.938915e+001
4.180745e+002, 4.925539e+001
4.185566e+002, 4.932690e+001
4.190387e+002, 4.972351e+001
4.195208e+002, 5.005848e+001
4.200029e+002, 5.010847e+001
4.204850e+002, 5.010130e+001
4.209672e+002, 5.029416e+001
4.214493e+002, 5.075560e+001
4.219314e+002, 5.119816e+001
4.224135e+002, 5.128415e+001
4.228956e+002, 5.103226e+001
4.233777e+002, 5.082999e+001
4.238599e+002, 5.071654e+001
4.243420e+002, 5.069487e+001
4.248241e+002, 5.079945e+001
4.253062e+002, 5.099641e+001
4.257883e+002, 5.116299e+001
4.262704e+002, 5.122431e+001
4.267526e+002, 5.123692e+001
4.272347e+002, 5.125130e+001
4.277168e+002, 5.126198e+001
4.281989e+002, 5.139418e+001
4.286810e+002, 5.180558e+001
4.291631e+002, 5.233642e+001
4.296453e+002, 5.261914e+001
4.301274e+002, 5.253535e+001
4.306095e+002, 5.247041e+001
4.310916e+002, 5.269227e+001
4.315737e+002, 5.305516e+001
4.320558e+002, 5.324368e+001
4.325380e+002, 5.316383e+001
4.330201e+002, 5.300611e+001
4.335022e+002, 5.297868e+001
4.339843e+002, 5.309738e+001
4.344664e+002, 5.326723e+001
4.349485e+002, 5.351705e+001
4.354307e+002, 5.378962e+001
4.359128e+002, 5.408161e+001
4.363949e+002, 5.436867e+001
4.368770e+002, 5.456862e+001
4.373591e+002, 5.461782e+001
4.378412e+002, 5.457564e+001
4.383234e+002, 5.466879e+001
4.388055e+002, 5.501940e+001
4.392876e+002, 5.535268e+001
4.397697e+002, 5.561145e+001
4.402518e+002, 5.586687e+001
4.407339e+002, 5.616335e+001
4.412160e+002, 5.651933e+001
4.416982e+002, 5.697104e+001
4.421803e+002, 5.758452e+001
4.426624e+002, 5.840667e+001
4.431445e+002, 5.905870e+001
4.436266e+002, 5.928103e+001
4.441087e+002, 5.960009e+001
4.445909e+002, 6.018944e+001
4.450730e+002, 6.097973e+001
4.455551e+002, 6.187672e+001
4.460372e+002, 6.284077e+001
4.465193e+002, 6.380922e+001
4.470014e+002, 6.459053e+001
4.474836e+002, 6.503933e+001
4.479657e+002, 6.573578e+001
4.484478e+002, 6.701173e+001
4.489299e+002, 6.841160e+001
4.494120e+002, 6.963799e+001
4.498941e+002, 7.068639e+001
4.503763e+002, 7.177515e+001
4.508584e+002, 7.308628e+001
4.513405e+002, 7.457932e+001
4.518226e+002, 7.606519e+001
4.523047e+002, 7.755288e+001
4.527868e+002, 7.898412e+001
4.532690e+002, 8.016333e+001
4.537511e+002, 8.130241e+001
4.542332e+002, 8.275265e+001
4.547153e+002, 8.469809e+001
4.551974e+002, 8.673996e+001
4.556795e+002, 8.859870e+001
4.561617e+002, 9.028423e+001
4.566438e+002, 9.186098e+001
4.571259e+002, 9.332642e+001
4.576080e+002, 9.473628e+001
4.580901e+002, 9.616811e+001
4.585722e+002, 9.762231e+001
4.590544e+002, 9.903912e+001
4.595365e+002, 1.004082e+002
4.600186e+002, 1.017307e+002
4.605007e+002, 1.030668e+002
4.609828e+002, 1.043823e+002
4.614649e+002, 1.054779e+002
4.619471e+002, 1.061963e+002
4.624292e+002, 1.066453e+002
4.629113e+002, 1.072921e+002
4.633934e+002, 1.083174e+002
4.638755e+002, 1.092895e+002
4.643576e+002, 1.101780e+002
4.648398e+002, 1.109889e+002
4.653219e+002, 1.117475e+002
4.658040e+002, 1.124510e+002
4.662861e+002, 1.130290e+002
4.667682e+002, 1.133870e+002
4.672503e+002, 1.134999e+002
4.677325e+002, 1.136560e+002
4.682146e+002, 1.139791e+002
4.686967e+002, 1.142104e+002
4.691788e+002, 1.141623e+002
4.696609e+002, 1.140088e+002
4.701430e+002, 1.140273e+002
4.706252e+002, 1.143452e+002
4.711073e+002, 1.147959e+002
4.715894e+002, 1.150765e+002
4.720715e+002, 1.151421e+002
4.725536e+002, 1.152327e+002
4.730357e+002, 1.152693e+002
4.735179e+002, 1.154468e+002
4.740000e+002, 1.159538e+002
4.744821e+002, 1.167241e+002
4.749642e+002, 1.174853e+002
4.754463e+002, 1.179560e+002
4.759284e+002, 1.183479e+002
4.764106e+002, 1.191376e+002
4.768927e+002, 1.203504e+002
4.773748e+002, 1.217883e+002
4.778569e+002, 1.234388e+002
4.783390e+002, 1.252336e+002
4.788211e+002, 1.270827e+002
4.793033e+002, 1.290350e+002
4.797854e+002, 1.308369e+002
4.802675e+002, 1.322183e+002
4.807496e+002, 1.333976e+002
4.812317e+002, 1.348486e+002
4.817138e+002, 1.366681e+002
4.821959e+002, 1.384333e+002
4.826780e+002, 1.398022e+002
4.831602e+002, 1.407508e+002
4.836423e+002, 1.414542e+002
4.841244e+002, 1.417307e+002
4.846065e+002, 1.419740e+002
4.850886e+002, 1.425722e+002
4.855707e+002, 1.431990e+002
4.860529e+002, 1.433001e+002
4.865350e+002, 1.426700e+002
4.870171e+002, 1.414634e+002
4.874992e+002, 1.399146e+002
4.879813e+002, 1.378982e+002
4.884634e+002, 1.358349e+002
4.889456e+002, 1.339736e+002
4.894277e+002, 1.318461e+002
4.899098e+002, 1.291047e+002
4.903919e+002, 1.259239e+002
4.908740e+002, 1.227141e+002
4.913561e+002, 1.197321e+002
4.918383e+002, 1.168890e+002
4.923204e+002, 1.139530e+002
4.928025e+002, 1.109409e+002
4.932846e+002, 1.078103e+002
4.937667e+002, 1.041507e+002
4.942488e+002, 1.006851e+002
4.947310e+002, 9.811595e+001
4.952131e+002, 9.637957e+001
4.956952e+002, 9.453064e+001
4.961773e+002, 9.172146e+001
4.966594e+002, 8.833646e+001
4.971415e+002, 8.545431e+001
4.976237e+002, 8.315398e+001
4.981058e+002, 8.107311e+001
4.985879e+002, 7.903056e+001
4.990700e+002, 7.706285e+001
4.995521e+002, 7.524406e+001
5.000342e+002, 7.360344e+001
5.005164e+002, 7.203413e+001
5.009985e+002, 7.051607e+001
5.014806e+002, 6.901441e+001
5.019627e+002, 6.739059e+001
5.024448e+002, 6.561753e+001
5.029269e+002, 6.393808e+001
5.034091e+002, 6.260985e+001
5.038912e+002, 6.163940e+001
5.043733e+002, 6.061409e+001
5.048554e+002, 5.925536e+001
5.053375e+002, 5.815688e+001
5.058196e+002, 5.783372e+001
5.063018e+002, 5.781453e+001
5.067839e+002, 5.735218e+001
5.072660e+002, 5.618798e+001
5.077481e+002, 5.469186e+001
5.082302e+002, 5.338973e+001
5.087123e+002, 5.222540e+001
5.091945e+002, 5.145657e+001
5.096766e+002, 5.160141e+001
5.101587e+002, 5.162556e+001
5.106408e+002, 5.097366e+001
5.111229e+002, 4.993238e+001
5.116050e+002, 4.908938e+001
5.120872e+002, 4.875499e+001
5.125693e+002, 4.869497e+001
5.130514e+002, 4.853022e+001
5.135335e+002, 4.826568e+001
5.140156e+002, 4.784427e+001
5.144977e+002, 4.715630e+001
5.149799e+002, 4.639543e+001
5.154620e+002, 4.563374e+001
5.159441e+002, 4.490800e+001
5.164262e+002, 4.443908e+001
5.169083e+002, 4.459904e+001
5.173904e+002, 4.490377e+001
5.178726e+002, 4.461251e+001
5.183547e+002, 4.377061e+001
5.188368e+002, 4.312915e+001
5.193189e+002, 4.310269e+001
5.198010e+002, 4.341618e+001
5.202831e+002, 4.343222e+001
5.207653e+002, 4.303729e+001
5.212474e+002, 4.274400e+001
5.217295e+002, 4.272735e+001
5.222116e+002, 4.278468e+001
5.226937e+002, 4.275990e+001
5.231758e+002, 4.263652e+001
5.236580e+002, 4.245759e+001
5.241401e+002, 4.225903e+001
5.246222e+002, 4.202633e+001
5.251043e+002, 4.165943e+001
5.255864e+002, 4.081500e+001
5.260685e+002, 4.035069e+001
5.265507e+002, 4.061357e+001
5.270328e+002, 4.107179e+001
5.275149e+002, 4.133448e+001
5.279970e+002, 4.133667e+001
5.284791e+002, 4.119299e+001
5.289612e+002, 4.095898e+001
5.294434e+002, 4.065974e+001
5.299255e+002, 4.045431e+001
5.304076e+002, 4.037925e+001
5.308897e+002, 4.031505e+001
5.313718e+002, 4.013493e+001
5.318539e+002, 3.997705e+001
5.323361e+002, 4.003611e+001
5.328182e+002, 4.037874e+001
5.333003e+002, 4.067135e+001
5.337824e+002, 4.068164e+001
5.342645e+002, 4.049032e+001
5.347466e+002, 4.023002e+001
5.352288e+002, 3.990763e+001
5.357109e+002, 3.964805e+001
5.361930e+002, 3.955302e+001
5.366751e+002, 3.960647e+001
5.371572e+002, 3.968208e+001
5.376393e+002, 3.983739e+001
5.381215e+002, 3.994307e+001
5.386036e+002, 3.988471e+001
5.390857e+002, 3.979255e+001
5.395678e+002, 3.987748e+001
5.400499e+002, 4.015914e+001
5.405320e+002, 4.041364e+001
5.410142e+002, 4.037820e+001
5.414963e+002, 4.003845e+001
5.419784e+002, 3.990283e+001
5.424604e+002, 4.025010e+001
5.429426e+002, 4.047327e+001
5.434247e+002, 4.031759e+001
5.439068e+002, 4.003965e+001
5.443889e+002, 3.991104e+001
5.448710e+002, 4.000752e+001
5.453531e+002, 4.026469e+001
5.458353e+002, 4.071381e+001
5.463174e+002, 4.132190e+001
5.467995e+002, 4.163114e+001
5.472816e+002, 4.146745e+001
5.477637e+002, 4.132264e+001
5.482458e+002, 4.158857e+001
5.487280e+002, 4.205802e+001
5.492101e+002, 4.239124e+001
5.496922e+002, 4.245221e+001
5.501743e+002, 4.254049e+001
5.506564e+002, 4.294963e+001
5.511385e+002, 4.350354e+001
5.516207e+002, 4.378652e+001
5.521028e+002, 4.370607e+001
5.525849e+002, 4.358426e+001
5.530670e+002, 4.371632e+001
5.535491e+002, 4.410509e+001
5.540313e+002, 4.453012e+001
5.545134e+002, 4.504891e+001
5.549955e+002, 4.553016e+001
5.554776e+002, 4.594762e+001
5.559597e+002, 4.630651e+001
5.564418e+002, 4.660106e+001
5.569240e+002, 4.683568e+001
5.574061e+002, 4.703140e+001
5.578882e+002, 4.719349e+001
5.583703e+002, 4.731545e+001
5.588524e+002, 4.755581e+001
5.593345e+002, 4.797645e+001
5.598167e+002, 4.842910e+001
5.602988e+002, 4.893821e+001
5.607809e+002, 4.941437e+001
5.612630e+002, 4.974085e+001
5.617451e+002, 4.988010e+001
5.622272e+002, 4.994320e+001
5.627094e+002, 5.000671e+001
5.631915e+002, 5.007069e+001
5.636736e+002, 5.016124e+001
5.641557e+002, 5.030402e+001
5.646378e+002, 5.035469e+001
5.651199e+002, 5.018390e+001
5.656021e+002, 4.982962e+001
5.660842e+002, 4.949518e+001
5.665663e+002, 4.917363e+001
5.670484e+002, 4.888229e+001
5.675305e+002, 4.873932e+001
5.680126e+002, 4.857749e+001
5.684948e+002, 4.812477e+001
5.689769e+002, 4.736950e+001
5.694590e+002, 4.657515e+001
5.699411e+002, 4.599109e+001
5.704232e+002, 4.560661e+001
5.709053e+002, 4.526413e+001
5.713875e+002, 4.512301e+001
5.718696e+002, 4.479886e+001
5.723517e+002, 4.413388e+001
5.728338e+002, 4.332928e+001
5.733159e+002, 4.253193e+001
5.737980e+002, 4.178043e+001
5.742802e+002, 4.110410e+001
5.747623e+002, 4.049982e+001
5.752444e+002, 3.998713e+001
5.757265e+002, 3.970095e+001
5.762086e+002, 3.971412e+001
5.766907e+002, 3.964381e+001
5.771729e+002, 3.923848e+001
5.776550e+002, 3.868370e+001
5.781371e+002, 3.827395e+001
5.786192e+002, 3.802602e+001
5.791013e+002, 3.786922e+001
5.795834e+002, 3.785813e+001
5.800656e+002, 3.787647e+001
5.805477e+002, 3.779336e+001
5.810298e+002, 3.760319e+001
5.815119e+002, 3.735108e+001
5.819940e+002, 3.705512e+001
5.824761e+002, 3.673753e+001
5.829583e+002, 3.647204e+001
5.834404e+002, 3.625944e+001
5.839225e+002, 3.610215e+001
5.844046e+002, 3.609478e+001
5.848867e+002, 3.605910e+001
5.853688e+002, 3.583166e+001
5.858510e+002, 3.546337e+001
5.863331e+002, 3.513650e+001
5.868152e+002, 3.496691e+001
5.872973e+002, 3.490639e+001
5.877794e+002, 3.487071e+001
5.882615e+002, 3.487323e+001
5.887437e+002, 3.480078e+001
5.892258e+002, 3.457262e+001
5.897079e+002, 3.431812e+001
5.901900e+002, 3.417081e+001
5.906721e+002, 3.411329e+001
5.911542e+002, 3.403428e+001
5.916364e+002, 3.388405e+001
5.921185e+002, 3.371346e+001
5.926006e+002, 3.355372e+001
5.930827e+002, 3.341020e+001
5.935648e+002, 3.328577e+001
5.940469e+002, 3.317929e+001
5.945291e+002, 3.312590e+001
5.950112e+002, 3.319270e+001
5.954933e+002, 3.343676e+001
5.959754e+002, 3.353890e+001
5.964575e+002, 3.337113e+001
5.969396e+002, 3.322630e+001
5.974218e+002, 3.331054e+001
5.979039e+002, 3.344448e+001
5.983860e+002, 3.331826e+001
5.988681e+002, 3.283597e+001
5.993502e+002, 3.229439e+001
5.998323e+002, 3.207188e+001
6.003145e+002, 3.215554e+001
6.007966e+002, 3.221832e+001
6.012787e+002, 3.225578e+001
6.017608e+002, 3.225167e+001
6.022429e+002, 3.213540e+001
6.027250e+002, 3.198950e+001
6.032072e+002, 3.196423e+001
6.036893e+002, 3.213443e+001
6.041714e+002, 3.225346e+001
6.046535e+002, 3.216395e+001
6.051356e+002, 3.196119e+001
6.056177e+002, 3.175420e+001
6.060999e+002, 3.156721e+001
6.065820e+002, 3.145858e+001
6.070641e+002, 3.149435e+001
6.075462e+002, 3.161804e+001
6.080283e+002, 3.156514e+001
6.085104e+002, 3.098728e+001
6.089926e+002, 3.074097e+001
6.094747e+002, 3.111657e+001
6.099568e+002, 3.161219e+001
6.104389e+002, 3.196662e+001
6.109210e+002, 3.212094e+001
6.114031e+002, 3.203809e+001
6.118853e+002, 3.163891e+001
6.123674e+002, 3.108064e+001
6.128495e+002, 3.064083e+001
6.133316e+002, 3.030709e+001
6.138137e+002, 3.025350e+001
6.142958e+002, 3.069626e+001
6.147780e+002, 3.120440e+001
6.152601e+002, 3.132025e+001
6.157422e+002, 3.110505e+001
6.162243e+002, 3.089310e+001
6.167064e+002, 3.071143e+001
6.171885e+002, 3.059305e+001
6.176707e+002, 3.063574e+001
6.181528e+002, 3.074338e+001
6.186349e+002, 3.066990e+001
6.191170e+002, 3.035194e+001
6.195991e+002, 3.006153e+001
6.200812e+002, 3.016324e+001
6.205634e+002, 3.070529e+001
6.210455e+002, 3.090465e+001
6.215276e+002, 3.035641e+001
6.220097e+002, 2.995576e+001
6.224918e+002, 3.002030e+001
6.229739e+002, 3.024453e+001
6.234561e+002, 3.032226e+001
6.239382e+002, 3.019285e+001
6.244203e+002, 2.997895e+001
6.249023e+002, 2.967641e+001
6.253845e+002, 2.937957e+001
6.258666e+002, 2.941397e+001
6.263487e+002, 2.981890e+001
6.268308e+002, 3.015398e+001
6.273129e+002, 3.020139e+001
6.277950e+002, 3.008085e+001
6.282772e+002, 3.001467e+001
6.287593e+002, 3.001858e+001
6.292414e+002, 2.999231e+001
6.297235e+002, 2.986908e+001
6.302056e+002, 2.975731e+001
6.306877e+002, 2.977497e+001
6.311699e+002, 2.986209e+001
6.316520e+002, 2.985969e+001
6.321341e+002, 2.969482e+001
6.326162e+002, 2.945873e+001
6.330983e+002, 2.930027e+001
6.335804e+002, 2.922618e+001
6.340626e+002, 2.919718e+001
6.345447e+002, 2.926404e+001
6.350268e+002, 2.930881e+001
6.355089e+002, 2.920931e+001
6.359910e+002, 2.908024e+001
6.364731e+002, 2.913262e+001
6.369553e+002, 2.946500e+001
6.374374e+002, 2.975534e+001
6.379195e+002, 2.970619e+001
6.384016e+002, 2.947697e+001
6.388837e+002, 2.938825e+001
6.393658e+002, 2.947141e+001
6.398480e+002, 2.952936e+001
6.403301e+002, 2.942923e+001
6.408122e+002, 2.921464e+001
6.412943e+002, 2.902909e+001
6.417764e+002, 2.882598e+001
6.422585e+002, 2.872929e+001
6.427407e+002, 2.883463e+001
6.432228e+002, 2.896072e+001
6.437049e+002, 2.897316e+001
6.441870e+002, 2.890953e+001
6.446691e+002, 2.891157e+001
6.451512e+002, 2.907322e+001
6.456334e+002, 2.924055e+001
6.461155e+002, 2.909513e+001
6.465976e+002, 2.864106e+001
6.470797e+002, 2.838483e+001
6.475618e+002, 2.845726e+001
6.480439e+002, 2.862355e+001
6.485261e+002, 2.877932e+001
6.490082e+002, 2.888707e+001
6.494903e+002, 2.880910e+001
6.499724e+002, 2.832980e+001
6.504545e+002, 2.798169e+001
6.509366e+002, 2.809078e+001
6.514188e+002, 2.838029e+001
6.519009e+002, 2.852503e+001
6.523830e+002, 2.849197e+001
6.528651e+002, 2.842230e+001
6.533472e+002, 2.842084e+001
6.538293e+002, 2.846280e+001
6.543115e+002, 2.845762e+001
6.547936e+002, 2.840197e+001
6.552757e+002, 2.830650e+001
6.557578e+002, 2.803943e+001
6.562399e+002, 2.784966e+001
6.567220e+002, 2.798863e+001
6.572042e+002, 2.833009e+001
6.576863e+002, 2.847189e+001
6.581684e+002, 2.816379e+001
6.586505e+002, 2.776128e+001
6.591326e+002, 2.759340e+001
6.596147e+002, 2.759989e+001
6.600969e+002, 2.759433e+001
6.605790e+002, 2.753466e+001
6.610611e+002, 2.756146e+001
6.615432e+002, 2.784848e+001
6.620253e+002, 2.834675e+001
6.625074e+002, 2.852197e+001
6.629896e+002, 2.800934e+001
6.634717e+002, 2.765374e+001
6.639538e+002, 2.765633e+001
6.644359e+002, 2.774198e+001
6.649180e+002, 2.767983e+001
6.654001e+002, 2.748523e+001
6.658823e+002, 2.732923e+001
6.663644e+002, 2.734107e+001
6.668465e+002, 2.741023e+001
6.673286e+002, 2.729587e+001
6.678107e+002, 2.700616e+001
6.682928e+002, 2.684839e+001
6.687750e+002, 2.693985e+001
6.692571e+002, 2.705930e+001
6.697392e+002, 2.696091e+001
6.702213e+002, 2.667895e+001
6.707034e+002, 2.656633e+001
6.711855e+002, 2.683718e+001
6.716677e+002, 2.702055e+001
6.721498e+002, 2.685342e+001
6.726319e+002, 2.659072e+001
6.731140e+002, 2.653805e+001
6.735961e+002, 2.670449e+001
6.740782e+002, 2.687226e+001
6.745604e+002, 2.687672e+001
6.750425e+002, 2.675793e+001
6.755246e+002, 2.663079e+001
6.760067e+002, 2.647897e+001
6.764888e+002, 2.639633e+001
6.769709e+002, 2.645189e+001
6.774531e+002, 2.652545e+001
6.779352e+002, 2.647023e+001
6.784173e+002, 2.634435e+001
6.788994e+002, 2.637012e+001
6.793815e+002, 2.682151e+001
6.798636e+002, 2.714985e+001
6.803458e+002, 2.688305e+001
6.808279e+002, 2.634223e+001
6.813100e+002, 2.599609e+001
6.817921e+002, 2.593842e+001
6.822742e+002, 2.610455e+001
6.827563e+002, 2.649036e+001
6.832385e+002, 2.699825e+001
6.837206e+002, 2.711634e+001
6.842027e+002, 2.659900e+001
6.846848e+002, 2.622891e+001
6.851669e+002, 2.623488e+001
6.856490e+002, 2.630743e+001
6.861312e+002, 2.630412e+001
6.866133e+002, 2.622100e+001
6.870954e+002, 2.606833e+001
6.875775e+002, 2.579209e+001
6.880596e+002, 2.555123e+001
6.885417e+002, 2.548948e+001
6.890239e+002, 2.557072e+001
6.895060e+002, 2.578960e+001
6.899881e+002, 2.613603e+001
6.904702e+002, 2.629564e+001
6.909523e+002, 2.596242e+001
6.914344e+002, 2.528367e+001
6.919166e+002, 2.500941e+001
6.923987e+002, 2.552853e+001
6.928808e+002, 2.583575e+001
6.933629e+002, 2.574174e+001
6.938450e+002, 2.556591e+001
6.943271e+002, 2.547509e+001
6.948093e+002, 2.546509e+001
6.952914e+002, 2.549368e+001
6.957735e+002, 2.556817e+001
6.962556e+002, 2.559324e+001
6.967377e+002, 2.536815e+001
6.972198e+002, 2.499802e+001
6.977020e+002, 2.491171e+001
6.981841e+002, 2.519483e+001
6.986662e+002, 2.544061e+001
6.991483e+002, 2.533447e+001
6.996304e+002, 2.498929e+001
7.001125e+002, 2.483618e+001
7.005947e+002, 2.500407e+001
7.010768e+002, 2.517394e+001
7.015589e+002, 2.542998e+001
7.020410e+002, 2.560593e+001
7.025231e+002, 2.554075e+001
7.030052e+002, 2.532480e+001
7.034874e+002, 2.515081e+001
7.039695e+002, 2.510123e+001
7.044516e+002, 2.512523e+001
7.049337e+002, 2.521065e+001
7.054158e+002, 2.532724e+001
7.058979e+002, 2.530114e+001
7.063801e+002, 2.509548e+001
7.068622e+002, 2.488700e+001
7.073442e+002, 2.475758e+001
7.078264e+002, 2.470873e+001
7.083085e+002, 2.476176e+001
7.087906e+002, 2.499234e+001
7.092727e+002, 2.512546e+001
7.097548e+002, 2.505471e+001
7.102369e+002, 2.496809e+001
7.107191e+002, 2.499968e+001
7.112012e+002, 2.508883e+001
7.116833e+002, 2.510137e+001
7.121654e+002, 2.499076e+001
7.126475e+002, 2.486441e+001
7.131296e+002, 2.485746e+001
7.136118e+002, 2.494725e+001
7.140939e+002, 2.501381e+001
7.145760e+002, 2.505573e+001
7.150581e+002, 2.504945e+001
7.155402e+002, 2.492841e+001
7.160223e+002, 2.481062e+001
7.165045e+002, 2.495130e+001
7.169866e+002, 2.542391e+001
7.174687e+002, 2.568802e+001
7.179508e+002, 2.559652e+001
7.184329e+002, 2.539483e+001
7.189150e+002, 2.510148e+001
7.193972e+002, 2.481828e+001
7.198793e+002, 2.469880e+001
7.203614e+002, 2.476926e+001
7.208435e+002, 2.488721e+001
7.213256e+002, 2.493218e+001
7.218077e+002, 2.490775e+001
7.222899e+002, 2.478266e+001
7.227720e+002, 2.452508e+001
7.232541e+002, 2.444311e+001
7.237362e+002, 2.471495e+001
7.242183e+002, 2.508203e+001
7.247004e+002, 2.526043e+001
7.251826e+002, 2.525300e+001
7.256647e+002, 2.515236e+001
7.261468e+002, 2.487244e+001
7.266289e+002, 2.460883e+001
7.271110e+002, 2.438257e+001
7.275931e+002, 2.423841e+001
7.280753e+002, 2.423636e+001
7.285574e+002, 2.437467e+001
7.290395e+002, 2.462072e+001
7.295216e+002, 2.499590e+001
7.300037e+002, 2.538034e+001
7.304858e+002, 2.546286e+001
7.309680e+002, 2.523210e+001
7.314501e+002, 2.501380e+001
7.319322e+002, 2.486648e+001
7.324143e+002, 2.474969e+001
7.328964e+002, 2.461003e+001
7.333785e+002, 2.447208e+001
7.338607e+002, 2.445012e+001
7.343428e+002, 2.461785e+001
7.348249e+002, 2.478590e+001
7.353070e+002, 2.496733e+001
7.357891e+002, 2.509387e+001
7.362712e+002, 2.510936e+001
7.367534e+002, 2.502035e+001
7.372355e+002, 2.483965e+001
7.377176e+002, 2.456286e+001
7.381997e+002, 2.428708e+001
7.386818e+002, 2.414391e+001
7.391639e+002, 2.412958e+001
7.396461e+002, 2.424935e+001
7.401282e+002, 2.455305e+001
7.406103e+002, 2.475446e+001
7.410924e+002, 2.463958e+001
7.415745e+002, 2.435931e+001
7.420566e+002, 2.425410e+001
7.425388e+002, 2.437190e+001
7.430209e+002, 2.447967e+001
7.435030e+002, 2.459524e+001
7.439851e+002, 2.465883e+001
7.444672e+002, 2.459221e+001
7.449493e+002, 2.447070e+001
7.454315e+002, 2.442339e+001
7.459136e+002, 2.447982e+001
7.463957e+002, 2.453307e+001
7.468778e+002, 2.444915e+001
7.473599e+002, 2.428677e+001
7.478420e+002, 2.425326e+001
7.483242e+002, 2.435298e+001
7.488063e+002, 2.437364e+001
7.492884e+002, 2.420235e+001
7.497705e+002, 2.403441e+001
7.502526e+002, 2.414913e+001
7.507347e+002, 2.457426e+001
7.512169e+002, 2.471244e+001
7.516990e+002, 2.425433e+001
7.521811e+002, 2.393580e+001
7.526632e+002, 2.403795e+001
7.531453e+002, 2.426001e+001
7.536274e+002, 2.431913e+001
7.541096e+002, 2.422149e+001
7.545917e+002, 2.415079e+001
7.550738e+002, 2.421979e+001
7.555559e+002, 2.434539e+001
7.560380e+002, 2.443184e+001
7.565201e+002, 2.447687e+001
7.570023e+002, 2.443784e+001
7.574844e+002, 2.429886e+001
7.579665e+002, 2.422849e+001
7.584486e+002, 2.437247e+001
7.589307e+002, 2.464938e+001
7.594128e+002, 2.478173e+001
7.598950e+002, 2.463383e+001
7.603771e+002, 2.458816e+001
7.608592e+002, 2.480115e+001
7.613413e+002, 2.494476e+001
7.618234e+002, 2.476495e+001
7.623055e+002, 2.444846e+001
7.627877e+002, 2.430634e+001
7.632698e+002, 2.442865e+001
7.637519e+002, 2.461628e+001
7.642340e+002, 2.473042e+001
7.647161e+002, 2.481232e+001
7.651982e+002, 2.494199e+001
7.656804e+002, 2.510780e+001
7.661625e+002, 2.522789e+001
7.666446e+002, 2.527094e+001
7.671267e+002, 2.525941e+001
7.676088e+002, 2.521103e+001
7.680909e+002, 2.512123e+001
7.685731e+002, 2.510954e+001
7.690552e+002, 2.522876e+001
7.695373e+002, 2.534038e+001
7.700194e+002, 2.548807e+001
7.705015e+002, 2.555951e+001
7.709836e+002, 2.536651e+001
7.714658e+002, 2.498397e+001
7.719479e+002, 2.479818e+001
7.724300e+002, 2.510547e+001
7.729121e+002, 2.543036e+001
7.733942e+002, 2.536091e+001
7.738763e+002, 2.513057e+001
7.743585e+002, 2.513996e+001
7.748406e+002, 2.540446e+001
7.753227e+002, 2.563413e+001
7.758048e+002, 2.563267e+001
7.762869e+002, 2.550432e+001
7.767690e+002, 2.551144e+001
7.772512e+002, 2.568729e+001
7.777333e+002, 2.576376e+001
7.782154e+002, 2.564722e+001
7.786975e+002, 2.557530e+001
7.791796e+002, 2.578791e+001
7.796617e+002, 2.607704e+001
7.801439e+002, 2.604254e+001
7.806260e+002, 2.557150e+001
7.811081e+002, 2.528536e+001
7.815902e+002, 2.542713e+001
7.820723e+002, 2.570571e+001
7.825544e+002, 2.605286e+001
7.830366e+002, 2.636496e+001
7.835187e+002, 2.648717e+001
7.840008e+002, 2.638661e+001
7.844829e+002, 2.615820e+001
7.849650e+002, 2.584258e+001
7.854471e+002, 2.549451e+001
7.859293e+002, 2.527771e+001
7.864114e+002, 2.519345e+001
7.868935e+002, 2.522946e+001
7.873756e+002, 2.542808e+001
7.878577e+002, 2.560896e+001
7.883398e+002, 2.559397e+001
7.888220e+002, 2.540743e+001
7.893040e+002, 2.525555e+001
7.897861e+002, 2.510403e+001
7.902682e+002, 2.503422e+001
7.907504e+002, 2.517040e+001
7.912325e+002, 2.528092e+001
7.917146e+002, 2.516770e+001
7.921967e+002, 2.492085e+001
7.926788e+002, 2.474947e+001
7.931609e+002, 2.473304e+001
7.936431e+002, 2.476502e+001
7.941252e+002, 2.477363e+001
7.946073e+002, 2.475808e+001
7.950894e+002, 2.468793e+001
7.955715e+002, 2.457903e+001
7.960536e+002, 2.454451e+001
7.965358e+002, 2.463367e+001
7.970179e+002, 2.478985e+001
7.975000e+002, 2.495207e+001
7.979821e+002, 2.512634e+001
7.984642e+002, 2.515413e+001
7.989464e+002, 2.489559e+001
7.994285e+002, 2.474405e+001
7.999106e+002, 2.491861e+001
8.003927e+002, 2.513917e+001
8.008748e+002, 2.521913e+001
8.013569e+002, 2.516269e+001
8.018391e+002, 2.502062e+001
8.023212e+002, 2.465876e+001
8.028033e+002, 2.442980e+001
8.032854e+002, 2.471749e+001
8.037675e+002, 2.511411e+001
8.042496e+002, 2.506446e+001
8.047318e+002, 2.463682e+001
8.052139e+002, 2.428119e+001
8.056960e+002, 2.424289e+001
8.061781e+002, 2.438352e+001
8.066602e+002, 2.451869e+001
8.071423e+002, 2.464482e+001
8.076245e+002, 2.467648e+001
8.081066e+002, 2.457413e+001
8.085887e+002, 2.457596e+001
8.090708e+002, 2.483329e+001
8.095529e+002, 2.518459e+001
8.100350e+002, 2.536924e+001
8.105172e+002, 2.534116e+001
8.109993e+002, 2.545616e+001
8.114814e+002, 2.594337e+001
8.119635e+002, 2.627988e+001
8.124456e+002, 2.626177e+001
8.129277e+002, 2.607362e+001
8.134099e+002, 2.583257e+001
8.138920e+002, 2.558613e+001
8.143741e+002, 2.540334e+001
8.148562e+002, 2.531576e+001
8.153383e+002, 2.531084e+001
8.158204e+002, 2.549964e+001
8.163026e+002, 2.573085e+001
8.167847e+002, 2.556754e+001
8.172668e+002, 2.501729e+001
8.177489e+002, 2.461718e+001
8.182310e+002, 2.469230e+001
8.187131e+002, 2.498102e+001
8.191953e+002, 2.495959e+001
8.196774e+002, 2.456246e+001
8.201595e+002, 2.426442e+001
8.206416e+002, 2.408125e+001
8.211237e+002, 2.396551e+001
8.216058e+002, 2.398782e+001
8.220880e+002, 2.400695e+001
8.225701e+002, 2.379002e+001
8.230522e+002, 2.335164e+001
8.235343e+002, 2.315798e+001
8.240164e+002, 2.362953e+001
8.244985e+002, 2.397057e+001
8.249807e+002, 2.371766e+001
8.254628e+002, 2.322956e+001
8.259449e+002, 2.285547e+001
8.264270e+002, 2.264962e+001
8.269091e+002, 2.256716e+001
8.273912e+002, 2.259956e+001
8.278734e+002, 2.266277e+001
8.283555e+002, 2.264236e+001
8.288376e+002, 2.255034e+001
8.293197e+002, 2.243251e+001
8.298018e+002, 2.229358e+001
8.302839e+002, 2.211834e+001
8.307661e+002, 2.187284e+001
8.312482e+002, 2.167243e+001
8.317303e+002, 2.173927e+001
8.322124e+002, 2.214060e+001
8.326945e+002, 2.231167e+001
8.331766e+002, 2.204559e+001
8.336588e+002, 2.184437e+001
8.341409e+002, 2.193955e+001
8.346230e+002, 2.204518e+001
8.351051e+002, 2.184985e+001
8.355872e+002, 2.142663e+001
8.360693e+002, 2.118618e+001
8.365515e+002, 2.133301e+001
8.370336e+002, 2.155684e+001
8.375157e+002, 2.174814e+001
8.379978e+002, 2.188680e+001
8.384799e+002, 2.196224e+001
8.389620e+002, 2.196374e+001
8.394442e+002, 2.183526e+001
8.399263e+002, 2.154936e+001
8.404084e+002, 2.126011e+001
8.408905e+002, 2.122527e+001
8.413726e+002, 2.138757e+001
8.418547e+002, 2.137859e+001
8.423369e+002, 2.117617e+001
8.428190e+002, 2.108916e+001
8.433011e+002, 2.125330e+001
8.437832e+002, 2.150885e+001
8.442653e+002, 2.169512e+001
8.447474e+002, 2.181106e+001
8.452296e+002, 2.178727e+001
8.457117e+002, 2.144703e+001
8.461938e+002, 2.122675e+001
8.466759e+002, 2.122445e+001
8.471580e+002, 2.129171e+001
8.476401e+002, 2.137392e+001
8.481223e+002, 2.144646e+001
8.486044e+002, 2.145266e+001
8.490865e+002, 2.134821e+001
8.495686e+002, 2.131220e+001
8.500507e+002, 2.157449e+001
8.505328e+002, 2.184584e+001
8.510150e+002, 2.178469e+001
8.514971e+002, 2.149774e+001
8.519792e+002, 2.125537e+001
8.524613e+002, 2.114530e+001
8.529434e+002, 2.110219e+001
8.534255e+002, 2.107252e+001
8.539077e+002, 2.105404e+001
8.543898e+002, 2.103732e+001
8.548719e+002, 2.102233e+001
8.553540e+002, 2.102793e+001
8.558361e+002, 2.106029e+001
8.563182e+002, 2.110136e+001
8.568004e+002, 2.113295e+001
8.572825e+002, 2.116638e+001
8.577646e+002, 2.124623e+001
8.582467e+002, 2.145283e+001
8.587288e+002, 2.152876e+001
8.592109e+002, 2.139844e+001
8.596931e+002, 2.122985e+001
8.601752e+002, 2.106484e+001
8.606573e+002, 2.090272e+001
8.611394e+002, 2.071506e+001
8.616215e+002, 2.050626e+001
8.621036e+002, 2.038695e+001
8.625858e+002, 2.038499e+001
8.630679e+002, 2.050342e+001
8.635500e+002, 2.090506e+001
8.640321e+002, 2.134292e+001
8.645142e+002, 2.139349e+001
8.649963e+002, 2.109668e+001
8.654785e+002, 2.087324e+001
8.659606e+002, 2.097728e+001
8.664427e+002, 2.119662e+001
8.669248e+002, 2.117869e+001
8.674069e+002, 2.097943e+001
8.678890e+002, 2.092637e+001
8.683712e+002, 2.104429e+001
8.688533e+002, 2.108137e+001
8.693354e+002, 2.090927e+001
8.698175e+002, 2.069703e+001
8.702996e+002, 2.068336e+001
8.707817e+002, 2.087052e+001
8.712639e+002, 2.097035e+001
8.717459e+002, 2.097379e+001
8.722280e+002, 2.090556e+001
8.727101e+002, 2.057306e+001
8.731923e+002, 2.035449e+001
8.736744e+002, 2.062226e+001
8.741565e+002, 2.116181e+001
8.746386e+002, 2.143590e+001
8.751207e+002, 2.128778e+001
8.756028e+002, 2.108614e+001
8.760850e+002, 2.092218e+001
8.765671e+002, 2.078624e+001
8.770492e+002, 2.063921e+001
8.775313e+002, 2.052781e+001
8.780134e+002, 2.056305e+001
8.784955e+002, 2.074811e+001
8.789777e+002, 2.091887e+001
8.794598e+002, 2.094281e+001
8.799419e+002, 2.088457e+001
8.804240e+002, 2.086570e+001
8.809061e+002, 2.085760e+001
8.813882e+002, 2.070005e+001
8.818704e+002, 2.038361e+001
8.823525e+002, 2.021179e+001
8.828346e+002, 2.040172e+001
8.833167e+002, 2.074600e+001
8.837988e+002, 2.077131e+001
8.842809e+002, 2.040273e+001
8.847631e+002, 2.030463e+001
8.852452e+002, 2.060672e+001
8.857273e+002, 2.085727e+001
8.862094e+002, 2.086817e+001
8.866915e+002, 2.079354e+001
8.871736e+002, 2.081695e+001
8.876558e+002, 2.092783e+001
8.881379e+002, 2.096214e+001
8.886200e+002, 2.086073e+001
8.891021e+002, 2.075957e+001
8.895842e+002, 2.059258e+001
8.900663e+002, 2.051665e+001
8.905485e+002, 2.076905e+001
8.910306e+002, 2.115837e+001
8.915127e+002, 2.128934e+001
8.919948e+002, 2.104683e+001
8.924769e+002, 2.074151e+001
8.929590e+002, 2.051901e+001
8.934412e+002, 2.037638e+001
8.939233e+002, 2.032271e+001
8.944054e+002, 2.034354e+001
8.948875e+002, 2.042382e+001
8.953696e+002, 2.055236e+001
8.958517e+002, 2.070766e+001
8.963339e+002, 2.088499e+001
8.968160e+002, 2.103738e+001
8.972981e+002, 2.105292e+001
8.977802e+002, 2.094426e+001
8.982623e+002, 2.083165e+001
8.987444e+002, 2.072405e+001
8.992266e+002, 2.063566e+001
8.997087e+002, 2.057247e+001
9.001908e+002, 2.053416e+001
9.006729e+002, 2.052818e+001
9.011550e+002, 2.055823e+001
9.016371e+002, 2.052604e+001
9.021193e+002, 2.033319e+001
9.026014e+002, 2.026307e+001
9.030835e+002, 2.051197e+001
9.035656e+002, 2.075836e+001
9.040477e+002, 2.074331e+001
9.045298e+002, 2.056294e+001
9.050120e+002, 2.046933e+001
9.054941e+002, 2.052203e+001
9.059762e+002, 2.056721e+001
9.064583e+002, 2.056510e+001
9.069404e+002, 2.054815e+001
9.074225e+002, 2.052756e+001
9.079047e+002, 2.050852e+001
9.083868e+002, 2.051818e+001
9.088689e+002, 2.054519e+001
9.093510e+002, 2.049865e+001
9.098331e+002, 2.025600e+001
9.103152e+002, 2.002808e+001
9.107974e+002, 2.004720e+001
9.112795e+002, 2.022692e+001
9.117616e+002, 2.044763e+001
9.122437e+002, 2.067260e+001
9.127258e+002, 2.085056e+001
9.132079e+002, 2.095701e+001
9.136901e+002, 2.098151e+001
9.141722e+002, 2.086718e+001
9.146543e+002, 2.065542e+001
9.151364e+002, 2.062292e+001
9.156185e+002, 2.077934e+001
9.161006e+002, 2.080708e+001
9.165828e+002, 2.059830e+001
9.170649e+002, 2.037236e+001
9.175470e+002, 2.030821e+001
9.180291e+002, 2.037117e+001
9.185112e+002, 2.043810e+001
9.189933e+002, 2.052320e+001
9.194755e+002, 2.057543e+001
9.199576e+002, 2.055734e+001
9.204397e+002, 2.056083e+001
9.209218e+002, 2.070191e+001
9.214039e+002, 2.083072e+001
9.218860e+002, 2.073886e+001
9.223682e+002, 2.043746e+001
9.228503e+002, 2.023488e+001
9.233324e+002, 2.021731e+001
9.238145e+002, 2.024388e+001
9.242966e+002, 2.023942e+001
9.247787e+002, 2.029727e+001
9.252609e+002, 2.058872e+001
9.257430e+002, 2.097492e+001
9.262251e+002, 2.115701e+001
9.267072e+002, 2.104375e+001
9.271893e+002, 2.086136e+001
9.276714e+002, 2.069243e+001
9.281536e+002, 2.058521e+001
9.286357e+002, 2.066714e+001
9.291178e+002, 2.081900e+001
9.295999e+002, 2.075246e+001
9.300820e+002, 2.047532e+001
9.305641e+002, 2.031800e+001
9.310463e+002, 2.050461e+001
9.315284e+002, 2.083630e+001
9.320105e+002, 2.103551e+001
9.324926e+002, 2.111022e+001
9.329747e+002, 2.106353e+001
9.334568e+002, 2.090411e+001
9.339390e+002, 2.075167e+001
9.344211e+002, 2.064874e+001
9.349032e+002, 2.059599e+001
9.353853e+002, 2.059904e+001
9.358674e+002, 2.065042e+001
9.363495e+002, 2.071672e+001
9.368317e+002, 2.081734e+001
9.373138e+002, 2.084375e+001
9.377959e+002, 2.076261e+001
9.382780e+002, 2.064976e+001
9.387601e+002, 2.051957e+001
9.392422e+002, 2.040360e+001
9.397244e+002, 2.035809e+001
9.402065e+002, 2.038895e+001
9.406886e+002, 2.045478e+001
9.411707e+002, 2.068445e+001
9.416528e+002, 2.077191e+001
9.421349e+002, 2.049950e+001
9.426171e+002, 2.020958e+001
9.430992e+002, 2.015679e+001
9.435813e+002, 2.028843e+001
9.440634e+002, 2.045328e+001
9.445455e+002, 2.064900e+001
9.450276e+002, 2.077466e+001
9.455098e+002, 2.079138e+001
9.459919e+002, 2.073136e+001
9.464740e+002, 2.056083e+001
9.469561e+002, 2.035765e+001
9.474382e+002, 2.019691e+001
9.479203e+002, 2.010577e+001
9.484025e+002, 2.012120e+001
9.488846e+002, 2.029291e+001
9.493667e+002, 2.050061e+001
9.498488e+002, 2.071978e+001
9.503309e+002, 2.084960e+001
9.508130e+002, 2.061406e+001
9.512952e+002, 2.014373e+001
9.517773e+002, 1.991540e+001
9.522594e+002, 2.007513e+001
9.527415e+002, 2.030597e+001
9.532236e+002, 2.029296e+001
9.537057e+002, 2.014982e+001
9.541878e+002, 2.016921e+001
9.546699e+002, 2.032244e+001
9.551520e+002, 2.041712e+001
9.556342e+002, 2.042663e+001
9.561163e+002, 2.041070e+001
9.565984e+002, 2.039512e+001
9.570805e+002, 2.041105e+001
9.575626e+002, 2.053464e+001
9.580447e+002, 2.076163e+001
9.585269e+002, 2.077402e+001
9.590090e+002, 2.050540e+001
9.594911e+002, 2.031331e+001
9.599732e+002, 2.030061e+001
9.604553e+002, 2.032250e+001
9.609374e+002, 2.027976e+001
9.614196e+002, 2.018666e+001
9.619017e+002, 2.007584e+001
9.623838e+002, 1.991411e+001
9.628659e+002, 1.983710e+001
9.633480e+002, 1.988513e+001
9.638301e+002, 1.996426e+001
9.643123e+002, 2.012150e+001
9.647944e+002, 2.024002e+001
9.652765e+002, 2.014774e+001
9.657586e+002, 1.991397e+001
9.662407e+002, 1.987082e+001
9.667228e+002, 2.021335e+001
9.672050e+002, 2.043291e+001
9.676871e+002, 2.024613e+001
9.681692e+002, 2.009776e+001
9.686513e+002, 2.037040e+001
9.691334e+002, 2.076335e+001
9.696155e+002, 2.081964e+001
9.700977e+002, 2.052840e+001
9.705798e+002, 2.030837e+001
9.710619e+002, 2.040526e+001
9.715440e+002, 2.051907e+001
9.720261e+002, 2.040091e+001
9.725082e+002, 2.025116e+001
9.729904e+002, 2.034882e+001
9.734725e+002, 2.058105e+001
9.739546e+002, 2.062361e+001
9.744367e+002, 2.039902e+001
9.749188e+002, 2.019688e+001
9.754009e+002, 2.031083e+001
9.758831e+002, 2.050087e+001
9.763652e+002, 2.038930e+001
9.768473e+002, 2.012673e+001
9.773294e+002, 2.004837e+001
9.778115e+002, 2.016539e+001
9.782936e+002, 2.028989e+001
9.787758e+002, 2.033303e+001
9.792579e+002, 2.037696e+001
9.797400e+002, 2.056475e+001
9.802221e+002, 2.082177e+001
9.807042e+002, 2.086975e+001
9.811863e+002, 2.073312e+001
9.816685e+002, 2.060175e+001
9.821506e+002, 2.051379e+001
9.826327e+002, 2.043691e+001
9.831148e+002, 2.034369e+001
9.835969e+002, 2.028331e+001
9.840790e+002, 2.037842e+001
9.845612e+002, 2.063083e+001
9.850433e+002, 2.073984e+001
9.855254e+002, 2.067571e+001
9.860075e+002, 2.064534e+001
9.864896e+002, 2.070919e+001
9.869717e+002, 2.079857e+001
9.874539e+002, 2.085984e+001
9.879360e+002, 2.090242e+001
9.884181e+002, 2.096960e+001
9.889002e+002, 2.111536e+001
9.893823e+002, 2.107469e+001
9.898644e+002, 2.069025e+001
9.903466e+002, 2.042628e+001
9.908287e+002, 2.048797e+001
9.913108e+002, 2.065943e+001
9.917929e+002, 2.073398e+001
9.922750e+002, 2.073485e+001
9.927571e+002, 2.080335e+001
9.932393e+002, 2.105018e+001
9.937214e+002, 2.116521e+001
9.942035e+002, 2.105415e+001
9.946856e+002, 2.091917e+001
9.951677e+002, 2.077418e+001
9.956498e+002, 2.068824e+001
9.961320e+002, 2.079396e+001
9.966141e+002, 2.105366e+001
9.970962e+002, 2.117278e+001
9.975783e+002, 2.095764e+001
9.980604e+002, 2.082892e+001
9.985425e+002, 2.097610e+001
9.990247e+002, 2.115322e+001
9.995068e+002, 2.120041e+001
9.999889e+002, 2.118207e+001
1.000471e+003, 2.118482e+001
1.000953e+003, 2.122754e+001
1.001435e+003, 2.132971e+001
1.001917e+003, 2.161680e+001
1.002399e+003, 2.178547e+001
1.002882e+003, 2.149286e+001
1.003364e+003, 2.116128e+001
1.003846e+003, 2.123008e+001
1.004328e+003, 2.155567e+001
1.004810e+003, 2.183323e+001
1.005292e+003, 2.197379e+001
1.005774e+003, 2.198077e+001
1.006256e+003, 2.174913e+001
1.006739e+003, 2.152964e+001
1.007221e+003, 2.162010e+001
1.007703e+003, 2.183144e+001
1.008185e+003, 2.187477e+001
1.008667e+003, 2.179086e+001
1.009149e+003, 2.179953e+001
1.009631e+003, 2.196905e+001
1.010113e+003, 2.213170e+001
1.010595e+003, 2.213969e+001
1.011078e+003, 2.205526e+001
1.011560e+003, 2.191545e+001
1.012042e+003, 2.177288e+001
1.012524e+003, 2.181062e+001
1.013006e+003, 2.198895e+001
1.013488e+003, 2.199979e+001
1.013970e+003, 2.171412e+001
1.014452e+003, 2.142570e+001
1.014935e+003, 2.149114e+001
1.015417e+003, 2.177610e+001
1.015899e+003, 2.196650e+001
1.016381e+003, 2.207306e+001
1.016863e+003, 2.214207e+001
1.017345e+003, 2.217995e+001
1.017827e+003, 2.216716e+001
1.018309e+003, 2.209188e+001
1.018791e+003, 2.199124e+001
1.019274e+003, 2.190591e+001
1.019756e+003, 2.184262e+001
1.020238e+003, 2.184870e+001
1.020720e+003, 2.192057e+001
1.021202e+003, 2.194020e+001
1.021684e+003, 2.188132e+001
1.022166e+003, 2.190411e+001
1.022648e+003, 2.211911e+001
1.023130e+003, 2.237506e+001
1.023613e+003, 2.241093e+001
1.024095e+003, 2.224460e+001
1.024577e+003, 2.218094e+001
1.025059e+003, 2.222986e+001
1.025541e+003, 2.231827e+001
1.026023e+003, 2.246039e+001
1.026505e+003, 2.250720e+001
1.026987e+003, 2.234286e+001
1.027469e+003, 2.207213e+001
1.027952e+003, 2.186789e+001
1.028434e+003, 2.172339e+001
1.028916e+003, 2.182753e+001
1.029398e+003, 2.230532e+001
1.029880e+003, 2.257630e+001
1.030362e+003, 2.245880e+001
1.030844e+003, 2.229520e+001
1.031326e+003, 2.233368e+001
1.031809e+003, 2.244099e+001
1.032291e+003, 2.231706e+001
1.032773e+003, 2.190726e+001
1.033255e+003, 2.175070e+001
1.033737e+003, 2.203211e+001
1.034219e+003, 2.215438e+001
1.034701e+003, 2.190755e+001
1.035183e+003, 2.162430e+001
1.035666e+003, 2.149659e+001
1.036148e+003, 2.149873e+001
1.036630e+003, 2.159641e+001
1.037112e+003, 2.181849e+001
1.037594e+003, 2.197409e+001
1.038076e+003, 2.207949e+001
1.038558e+003, 2.208645e+001
1.039040e+003, 2.184464e+001
1.039522e+003, 2.165680e+001
1.040005e+003, 2.182116e+001
1.040487e+003, 2.214406e+001
1.040969e+003, 2.215727e+001
1.041451e+003, 2.173665e+001
1.041933e+003, 2.166437e+001
1.042415e+003, 2.242494e+001
1.042897e+003, 2.287448e+001
1.043379e+003, 2.259615e+001
1.043861e+003, 2.215142e+001
1.044344e+003, 2.181180e+001
1.044826e+003, 2.159291e+001
1.045308e+003, 2.152218e+001
1.045790e+003, 2.161766e+001
1.046272e+003, 2.174685e+001
1.046754e+003, 2.199860e+001
1.047236e+003, 2.214078e+001
1.047718e+003, 2.202808e+001
1.048201e+003, 2.187378e+001
1.048683e+003, 2.180942e+001
1.049165e+003, 2.181433e+001
1.049647e+003, 2.184194e+001
1.050129e+003, 2.188921e+001
1.050611e+003, 2.193231e+001
1.051093e+003, 2.201995e+001
1.051575e+003, 2.202936e+001
1.052057e+003, 2.178759e+001
1.052540e+003, 2.158631e+001
1.053022e+003, 2.172051e+001
1.053504e+003, 2.201431e+001
1.053986e+003, 2.210528e+001
1.054468e+003, 2.193633e+001
1.054950e+003, 2.185332e+001
1.055432e+003, 2.209103e+001
1.055914e+003, 2.223432e+001
1.056396e+003, 2.204093e+001
1.056879e+003, 2.179937e+001
1.057361e+003, 2.173999e+001
1.057843e+003, 2.178237e+001
1.058325e+003, 2.176146e+001
1.058807e+003, 2.165235e+001
1.059289e+003, 2.154482e+001
1.059771e+003, 2.138931e+001
1.060253e+003, 2.134687e+001
1.060736e+003, 2.157470e+001
1.061218e+003, 2.184404e+001
1.061700e+003, 2.204235e+001
1.062182e+003, 2.213252e+001
1.062664e+003, 2.203060e+001
1.063146e+003, 2.174517e+001
1.063628e+003, 2.152749e+001
1.064110e+003, 2.148754e+001
1.064593e+003, 2.150357e+001
1.065075e+003, 2.152855e+001
1.065557e+003, 2.158752e+001
1.066039e+003, 2.177365e+001
1.066521e+003, 2.196955e+001
1.067003e+003, 2.196234e+001
1.067485e+003, 2.174819e+001
1.067967e+003, 2.156945e+001
1.068449e+003, 2.144889e+001
1.068932e+003, 2.149778e+001
1.069414e+003, 2.204265e+001
1.069896e+003, 2.249502e+001
1.070378e+003, 2.223400e+001
1.070860e+003, 2.169862e+001
1.071342e+003, 2.158375e+001
1.071824e+003, 2.191027e+001
1.072306e+003, 2.212220e+001
1.072788e+003, 2.193421e+001
1.073271e+003, 2.179192e+001
1.073753e+003, 2.199577e+001
1.074235e+003, 2.222256e+001
1.074717e+003, 2.219814e+001
1.075199e+003, 2.207813e+001
1.075681e+003, 2.209914e+001
1.076163e+003, 2.225339e+001
1.076645e+003, 2.234919e+001
1.077127e+003, 2.230017e+001
1.077610e+003, 2.225558e+001
1.078092e+003, 2.227580e+001
1.078574e+003, 2.233400e+001
1.079056e+003, 2.246006e+001
1.079538e+003, 2.258041e+001
1.080020e+003, 2.256592e+001
1.080502e+003, 2.246529e+001
1.080984e+003, 2.248078e+001
1.081467e+003, 2.269753e+001
1.081949e+003, 2.291531e+001
1.082431e+003, 2.308850e+001
1.082913e+003, 2.318518e+001
1.083395e+003, 2.314775e+001
1.083877e+003, 2.305231e+001
1.084359e+003, 2.295663e+001
1.084841e+003, 2.287856e+001
1.085323e+003, 2.282780e+001
1.085806e+003, 2.280313e+001
1.086288e+003, 2.284673e+001
1.086770e+003, 2.304294e+001
1.087252e+003, 2.322904e+001
1.087734e+003, 2.332383e+001
1.088216e+003, 2.336835e+001
1.088698e+003, 2.337466e+001
1.089180e+003, 2.337197e+001
1.089662e+003, 2.340919e+001
1.090145e+003, 2.349672e+001
1.090627e+003, 2.360359e+001
1.091109e+003, 2.379227e+001
1.091591e+003, 2.390023e+001
1.092073e+003, 2.375591e+001
1.092555e+003, 2.360293e+001
1.093037e+003, 2.366922e+001
1.093519e+003, 2.384694e+001
1.094002e+003, 2.393050e+001
1.094484e+003, 2.389653e+001
1.094966e+003, 2.388342e+001
1.095448e+003, 2.385089e+001
1.095930e+003, 2.396976e+001
1.096412e+003, 2.459415e+001
1.096894e+003, 2.506632e+001
1.097376e+003, 2.476107e+001
1.097859e+003, 2.417843e+001
1.098341e+003, 2.402293e+001
1.098823e+003, 2.430073e+001
1.099305e+003, 2.451459e+001
1.099787e+003, 2.447651e+001
1.100269e+003, 2.452418e+001
1.100751e+003, 2.488352e+001
1.101233e+003, 2.518196e+001
1.101715e+003, 2.520966e+001
1.102198e+003, 2.510565e+001
1.102680e+003, 2.497226e+001
1.103162e+003, 2.484412e+001
1.103644e+003, 2.481619e+001
1.104126e+003, 2.497624e+001
1.104608e+003, 2.499798e+001
1.105090e+003, 2.455304e+001
1.105572e+003, 2.431480e+001
1.106054e+003, 2.472902e+001
1.106537e+003, 2.524560e+001
1.107019e+003, 2.545043e+001
1.107501e+003, 2.540274e+001
1.107983e+003, 2.524953e+001
1.108465e+003, 2.495017e+001
1.108947e+003, 2.484611e+001
1.109429e+003, 2.518876e+001
1.109911e+003, 2.541297e+001
1.110394e+003, 2.528078e+001
1.110876e+003, 2.513064e+001
1.111358e+003, 2.517521e+001
1.111840e+003, 2.532825e+001
1.112322e+003, 2.545454e+001
1.112804e+003, 2.555164e+001
1.113286e+003, 2.563152e+001
1.113768e+003, 2.574645e+001
1.114250e+003, 2.575460e+001
1.114733e+003, 2.556419e+001
1.115215e+003, 2.537602e+001
1.115697e+003, 2.524132e+001
1.116179e+003, 2.518322e+001
1.116661e+003, 2.525694e+001
1.117143e+003, 2.543962e+001
1.117625e+003, 2.556093e+001
1.118107e+003, 2.560281e+001
1.118589e+003, 2.562572e+001
1.119072e+003, 2.563169e+001
1.119554e+003, 2.562148e+001
1.120036e+003, 2.563431e+001
1.120518e+003, 2.555419e+001
1.121000e+003, 2.519938e+001
1.121482e+003, 2.473332e+001
1.121964e+003, 2.466479e+001
1.122446e+003, 2.507761e+001
1.122929e+003, 2.539768e+001
1.123411e+003, 2.565907e+001
1.123893e+003, 2.567133e+001
1.124375e+003, 2.527940e+001
1.124857e+003, 2.498720e+001
1.125339e+003, 2.514200e+001
1.125821e+003, 2.553170e+001
1.126303e+003, 2.581665e+001
1.126786e+003, 2.599421e+001
1.127268e+003, 2.598073e+001
1.127750e+003, 2.574284e+001
1.128232e+003, 2.563894e+001
1.128714e+003, 2.574035e+001
1.129196e+003, 2.577774e+001
1.129678e+003, 2.561877e+001
1.130160e+003, 2.540179e+001
1.130642e+003, 2.526532e+001
1.131125e+003, 2.522776e+001
1.131607e+003, 2.540234e+001
1.132089e+003, 2.577133e+001
1.132571e+003, 2.603772e+001
1.133053e+003, 2.618360e+001
1.133535e+003, 2.613237e+001
1.134017e+003, 2.586159e+001
1.134499e+003, 2.561592e+001
1.134981e+003, 2.558562e+001
1.135464e+003, 2.569046e+001
1.135946e+003, 2.583939e+001
1.136428e+003, 2.599266e+001
1.136910e+003, 2.592663e+001
1.137392e+003, 2.571035e+001
1.137874e+003, 2.573399e+001
1.138356e+003, 2.602799e+001
1.138838e+003, 2.624557e+001
1.139321e+003, 2.620940e+001
1.139803e+003, 2.608079e+001
1.140285e+003, 2.603616e+001
1.140767e+003, 2.602341e+001
1.141249e+003, 2.594127e+001
1.141731e+003, 2.581840e+001
1.142213e+003, 2.570386e+001
1.142695e+003, 2.561114e+001
1.143177e+003, 2.558340e+001
1.143660e+003, 2.561806e+001
1.144142e+003, 2.557856e+001
1.144624e+003, 2.532525e+001
1.145106e+003, 2.506177e+001
1.145588e+003, 2.493042e+001
1.146070e+003, 2.496896e+001
1.146552e+003, 2.539832e+001
1.147034e+003, 2.595464e+001
1.147516e+003, 2.613286e+001
1.147999e+003, 2.592492e+001
1.148481e+003, 2.570908e+001
1.148963e+003, 2.564875e+001
1.149445e+003, 2.557124e+001
1.149927e+003, 2.530936e+001
1.150409e+003, 2.505704e+001
1.150891e+003, 2.492305e+001
1.151373e+003, 2.489757e+001
1.151856e+003, 2.502738e+001
1.152338e+003, 2.523485e+001
1.152820e+003, 2.536492e+001
1.153302e+003, 2.538486e+001
1.153784e+003, 2.535280e+001
1.154266e+003, 2.526262e+001
1.154748e+003, 2.515983e+001
1.155230e+003, 2.498880e+001
1.155713e+003, 2.488737e+001
1.156195e+003, 2.506866e+001
1.156677e+003, 2.528695e+001
1.157159e+003, 2.513724e+001
1.157641e+003, 2.468233e+001
1.158123e+003, 2.450914e+001
1.158605e+003, 2.491628e+001
1.159087e+003, 2.507976e+001
1.159569e+003, 2.474987e+001
1.160052e+003, 2.444230e+001
1.160534e+003, 2.422342e+001
1.161016e+003, 2.415423e+001
1.161498e+003, 2.438655e+001
1.161980e+003, 2.474104e+001
1.162462e+003, 2.481235e+001
1.162944e+003, 2.457042e+001
1.163426e+003, 2.436091e+001
1.163908e+003, 2.415456e+001
1.164391e+003, 2.408502e+001
1.164873e+003, 2.422843e+001
1.165355e+003, 2.434042e+001
1.165837e+003, 2.430864e+001
1.166319e+003, 2.417734e+001
1.166801e+003, 2.396715e+001
1.167283e+003, 2.373391e+001
1.167765e+003, 2.375707e+001
1.168247e+003, 2.405172e+001
1.168730e+003, 2.409061e+001
1.169212e+003, 2.384224e+001
1.169694e+003, 2.370532e+001
1.170176e+003, 2.379076e+001
1.170658e+003, 2.391362e+001
1.171140e+003, 2.395199e+001
1.171622e+003, 2.391877e+001
1.172104e+003, 2.383099e+001
1.172587e+003, 2.369060e+001
1.173069e+003, 2.342573e+001
1.173551e+003, 2.311593e+001
1.174033e+003, 2.314325e+001
1.174515e+003, 2.346678e+001
1.174997e+003, 2.364437e+001
1.175479e+003, 2.351162e+001
1.175961e+003, 2.322519e+001
1.176443e+003, 2.283743e+001
1.176926e+003, 2.253505e+001
1.177408e+003, 2.268609e+001
1.177890e+003, 2.297032e+001
1.178372e+003, 2.285427e+001
1.178854e+003, 2.252982e+001
1.179336e+003, 2.245768e+001
1.179818e+003, 2.264790e+001
1.180300e+003, 2.277701e+001
1.180782e+003, 2.271132e+001
1.181265e+003, 2.257684e+001
1.181747e+003, 2.242472e+001
1.182229e+003, 2.226001e+001
1.182711e+003, 2.200367e+001
1.183193e+003, 2.181107e+001
1.183675e+003, 2.192902e+001
1.184157e+003, 2.217957e+001
1.184639e+003, 2.218714e+001
1.185122e+003, 2.191521e+001
1.185604e+003, 2.174089e+001
1.186086e+003, 2.182212e+001
1.186568e+003, 2.188818e+001
1.187050e+003, 2.185260e+001
1.187532e+003, 2.184508e+001
1.188014e+003, 2.199332e+001
1.188496e+003, 2.212847e+001
1.188979e+003, 2.206951e+001
1.189461e+003, 2.188205e+001
1.189943e+003, 2.175255e+001
1.190425e+003, 2.168504e+001
1.190907e+003, 2.166159e+001
1.191389e+003, 2.173050e+001
1.191871e+003, 2.169227e+001
1.192353e+003, 2.146195e+001
1.192835e+003, 2.128034e+001
1.193318e+003, 2.127101e+001
1.193800e+003, 2.136296e+001
1.194282e+003, 2.148713e+001
1.194764e+003, 2.161956e+001
1.195246e+003, 2.165369e+001
1.195728e+003, 2.159380e+001
1.196210e+003, 2.156570e+001
1.196692e+003, 2.157004e+001
1.197174e+003, 2.147946e+001
1.197657e+003, 2.126823e+001
1.198139e+003, 2.106058e+001
1.198621e+003, 2.093189e+001
1.199103e+003, 2.086933e+001
1.199585e+003, 2.088623e+001
1.200067e+003, 2.093450e+001
1.200549e+003, 2.090821e+001
1.201031e+003, 2.084155e+001
1.201514e+003, 2.078072e+001
1.201996e+003, 2.075533e+001
1.202478e+003, 2.087082e+001
1.202960e+003, 2.112066e+001
1.203442e+003, 2.125671e+001
1.203924e+003, 2.109629e+001
1.204406e+003, 2.089840e+001
1.204888e+003, 2.089622e+001
1.205370e+003, 2.089867e+001
1.205853e+003, 2.072546e+001
1.206335e+003, 2.048116e+001
1.206817e+003, 2.025807e+001
1.207299e+003, 2.008949e+001
1.207781e+003, 2.003931e+001
1.208263e+003, 2.013012e+001
1.208745e+003, 2.016167e+001
1.209227e+003, 1.993930e+001
1.209709e+003, 1.987354e+001
1.210192e+003, 2.022390e+001
1.210674e+003, 2.054307e+001
1.211156e+003, 2.062913e+001
1.211638e+003, 2.055516e+001
1.212120e+003, 2.032169e+001
1.212602e+003, 2.000146e+001
1.213084e+003, 1.988890e+001
1.213566e+003, 2.004178e+001
1.214049e+003, 2.010856e+001
1.214531e+003, 2.006893e+001
1.215013e+003, 2.001288e+001
1.215495e+003, 1.994210e+001
1.215977e+003, 1.995230e+001
1.216459e+003, 2.011989e+001
1.216941e+003, 2.024703e+001
1.217423e+003, 2.005910e+001
1.217906e+003, 1.969218e+001
1.218388e+003, 1.957395e+001
1.218870e+003, 1.966214e+001
1.219352e+003, 1.978057e+001
1.219834e+003, 1.989997e+001
1.220316e+003, 1.991858e+001
1.220798e+003, 1.983144e+001
1.221280e+003, 1.975928e+001
1.221762e+003, 1.976645e+001
1.222245e+003, 1.982322e+001
1.222727e+003, 1.998790e+001
1.223209e+003, 2.009699e+001
1.223691e+003, 1.982322e+001
1.224173e+003, 1.948743e+001
1.224655e+003, 1.959794e+001
1.225137e+003, 1.994854e+001
1.225619e+003, 2.005681e+001
1.226101e+003, 1.987782e+001
1.226584e+003, 1.973248e+001
1.227066e+003, 1.972297e+001
1.227548e+003, 1.978119e+001
1.228030e+003, 2.004286e+001
1.228512e+003, 2.015908e+001
1.228994e+003, 1.983877e+001
1.229476e+003, 1.945857e+001
1.229958e+003, 1.928599e+001
1.230441e+003, 1.927126e+001
1.230923e+003, 1.931956e+001
1.231405e+003, 1.942963e+001
1.231887e+003, 1.956202e+001
1.232369e+003, 1.977334e+001
1.232851e+003, 1.981155e+001
1.233333e+003, 1.959734e+001
1.233815e+003, 1.945243e+001
1.234297e+003, 1.947438e+001
1.234780e+003, 1.959784e+001
1.235262e+003, 1.979592e+001
1.235744e+003, 1.998205e+001
1.236226e+003, 1.998771e+001
1.236708e+003, 1.986433e+001
1.237190e+003, 1.983416e+001
1.237672e+003, 1.987333e+001
1.238154e+003, 1.986587e+001
1.238636e+003, 1.981545e+001
1.239119e+003, 1.981366e+001
1.239601e+003, 1.987698e+001
1.240083e+003, 1.990936e+001
1.240565e+003, 1.984142e+001
1.241047e+003, 1.976864e+001
1.241529e+003, 1.983722e+001
1.242011e+003, 1.988871e+001
1.242493e+003, 1.965893e+001
1.242975e+003, 1.940534e+001
1.243458e+003, 1.955289e+001
1.243940e+003, 1.989814e+001
1.244422e+003, 1.990378e+001
1.244904e+003, 1.951624e+001
1.245386e+003, 1.929133e+001
1.245868e+003, 1.950826e+001
1.246350e+003, 1.964638e+001
1.246832e+003, 1.950193e+001
1.247315e+003, 1.942397e+001
1.247797e+003, 1.956387e+001
1.248279e+003, 1.977591e+001
1.248761e+003, 2.004861e+001
1.249243e+003, 2.023252e+001
1.249725e+003, 1.999271e+001
1.250207e+003, 1.937224e+001
1.250689e+003, 1.918099e+001
1.251172e+003, 1.948021e+001
1.251654e+003, 1.947793e+001
1.252136e+003, 1.909697e+001
1.252618e+003, 1.894016e+001
1.253100e+003, 1.918744e+001
1.253582e+003, 1.954423e+001
1.254064e+003, 1.982134e+001
1.254546e+003, 1.995073e+001
1.255028e+003, 1.969700e+001
1.255510e+003, 1.933315e+001
1.255993e+003, 1.948294e+001
1.256475e+003, 1.984418e+001
1.256957e+003, 1.977661e+001
1.257439e+003, 1.943923e+001
1.257921e+003, 1.941412e+001
1.258403e+003, 1.974922e+001
1.258885e+003, 1.990048e+001
1.259367e+003, 1.956229e+001
1.259850e+003, 1.930670e+001
1.260332e+003, 1.948720e+001
1.260814e+003, 1.969701e+001
1.261296e+003, 1.976037e+001
1.261778e+003, 1.976231e+001
1.262260e+003, 1.974142e+001
1.262742e+003, 1.972285e+001
1.263224e+003, 1.976387e+001
1.263707e+003, 1.984741e+001
1.264189e+003, 1.981416e+001
1.264671e+003, 1.958274e+001
1.265153e+003, 1.953250e+001
1.265635e+003, 1.972445e+001
1.266117e+003, 1.982334e+001
1.266599e+003, 1.974245e+001
1.267081e+003, 1.964305e+001
1.267563e+003, 1.961386e+001
1.268046e+003, 1.962012e+001
1.268528e+003, 1.963180e+001
1.269010e+003, 1.962643e+001
1.269492e+003, 1.946948e+001
1.269974e+003, 1.928878e+001
1.270456e+003, 1.954672e+001
1.270938e+003, 2.003069e+001
1.271420e+003, 2.004986e+001
1.271902e+003, 1.963082e+001
1.272385e+003, 1.937511e+001
1.272867e+003, 1.951318e+001
1.273349e+003, 1.972937e+001
1.273831e+003, 1.989594e+001
1.274313e+003, 2.000906e+001
1.274795e+003, 2.006092e+001
1.275277e+003, 2.006737e+001
1.275759e+003, 1.999252e+001
1.276242e+003, 1.991512e+001
1.276724e+003, 1.997819e+001
1.277206e+003, 2.010286e+001
1.277688e+003, 1.999089e+001
1.278170e+003, 1.958415e+001
1.278652e+003, 1.951693e+001
1.279134e+003, 1.996465e+001
1.279616e+003, 2.007421e+001
1.280099e+003, 1.967835e+001
1.280581e+003, 1.935045e+001
1.281063e+003, 1.929246e+001
1.281545e+003, 1.941895e+001
1.282027e+003, 1.968495e+001
1.282509e+003, 1.996730e+001
1.282991e+003, 2.004556e+001
1.283473e+003, 1.998861e+001
1.283955e+003, 1.994743e+001
##END=



