##NAMES=Erythrosiderite
##RRUFFID=R120084
##IDEAL CHEMISTRY=K_2_Fe^3+^Cl_5_&#183;H_2_O
##LOCALITY=Mount Vesuvius, Campania, Italy
##OWNER=RRUFF
##SOURCE=Robert Jenkins
##DESCRIPTION=Reddish-yellow unconsolidated grains, associated with yellow or pale yellow salammoniac.
##STATUS=The identification of this mineral has been confirmed only by single crystal X-ray diffraction.
##URL=rruff.info/R120084
9.001007e+001, 0.000000e+000
9.049219e+001, 6.370702e+001
9.097430e+001, 6.431054e+001
9.145642e+001, 6.421548e+001
9.193854e+001, 6.346702e+001
9.242065e+001, 6.244336e+001
9.290277e+001, 6.121494e+001
9.338489e+001, 5.992382e+001
9.386700e+001, 5.891670e+001
9.434912e+001, 5.841841e+001
9.483124e+001, 5.825682e+001
9.531335e+001, 5.806035e+001
9.579547e+001, 5.780892e+001
9.627759e+001, 5.766761e+001
9.675970e+001, 5.806677e+001
9.724182e+001, 5.893866e+001
9.772394e+001, 5.938650e+001
9.820605e+001, 5.854517e+001
9.868817e+001, 5.659569e+001
9.917029e+001, 5.607689e+001
9.965240e+001, 5.748967e+001
1.001345e+002, 5.955992e+001
1.006166e+002, 5.954608e+001
1.010988e+002, 5.697180e+001
1.015809e+002, 5.439274e+001
1.020630e+002, 5.342870e+001
1.025451e+002, 5.456156e+001
1.030272e+002, 5.472482e+001
1.035093e+002, 5.315956e+001
1.039915e+002, 5.053969e+001
1.044736e+002, 4.992201e+001
1.049557e+002, 5.259831e+001
1.054378e+002, 5.541672e+001
1.059199e+002, 5.604145e+001
1.064020e+002, 5.280182e+001
1.068842e+002, 5.050054e+001
1.073663e+002, 5.009974e+001
1.078484e+002, 5.163799e+001
1.083305e+002, 5.227588e+001
1.088126e+002, 5.140944e+001
1.092947e+002, 4.997760e+001
1.097769e+002, 4.883775e+001
1.102590e+002, 4.794886e+001
1.107411e+002, 4.739669e+001
1.112232e+002, 4.700629e+001
1.117053e+002, 4.653148e+001
1.121874e+002, 4.728964e+001
1.126696e+002, 5.134464e+001
1.131517e+002, 5.619244e+001
1.136338e+002, 5.858796e+001
1.141159e+002, 5.585222e+001
1.145980e+002, 5.239183e+001
1.150801e+002, 4.963685e+001
1.155623e+002, 4.778830e+001
1.160444e+002, 4.663654e+001
1.165265e+002, 4.683887e+001
1.170086e+002, 4.771592e+001
1.174907e+002, 4.785405e+001
1.179728e+002, 4.574136e+001
1.184550e+002, 4.335307e+001
1.189371e+002, 4.200452e+001
1.194192e+002, 4.255200e+001
1.199013e+002, 4.328264e+001
1.203834e+002, 4.336927e+001
1.208655e+002, 4.291673e+001
1.213477e+002, 4.233272e+001
1.218298e+002, 4.157900e+001
1.223119e+002, 4.090846e+001
1.227940e+002, 4.061555e+001
1.232761e+002, 4.111926e+001
1.237582e+002, 4.173741e+001
1.242404e+002, 4.188768e+001
1.247225e+002, 4.159357e+001
1.252046e+002, 4.114377e+001
1.256867e+002, 4.078851e+001
1.261688e+002, 4.043380e+001
1.266509e+002, 3.990997e+001
1.271331e+002, 3.878197e+001
1.276152e+002, 3.757384e+001
1.280973e+002, 3.706133e+001
1.285794e+002, 3.726171e+001
1.290615e+002, 3.794958e+001
1.295436e+002, 3.932143e+001
1.300258e+002, 4.115207e+001
1.305079e+002, 4.242894e+001
1.309900e+002, 4.240876e+001
1.314721e+002, 4.145807e+001
1.319542e+002, 4.065886e+001
1.324363e+002, 4.003588e+001
1.329185e+002, 3.960163e+001
1.334006e+002, 3.949088e+001
1.338827e+002, 3.970159e+001
1.343648e+002, 3.981465e+001
1.348469e+002, 3.963373e+001
1.353290e+002, 3.916356e+001
1.358112e+002, 3.839076e+001
1.362933e+002, 3.717957e+001
1.367754e+002, 3.583993e+001
1.372575e+002, 3.509680e+001
1.377396e+002, 3.500476e+001
1.382217e+002, 3.526385e+001
1.387039e+002, 3.588314e+001
1.391860e+002, 3.699415e+001
1.396681e+002, 3.748330e+001
1.401502e+002, 3.703357e+001
1.406323e+002, 3.590475e+001
1.411144e+002, 3.517741e+001
1.415966e+002, 3.486247e+001
1.420787e+002, 3.493143e+001
1.425608e+002, 3.544732e+001
1.430429e+002, 3.661395e+001
1.435250e+002, 3.767121e+001
1.440071e+002, 3.865506e+001
1.444893e+002, 3.953210e+001
1.449714e+002, 3.955892e+001
1.454535e+002, 3.833223e+001
1.459356e+002, 3.664109e+001
1.464177e+002, 3.520985e+001
1.468998e+002, 3.387910e+001
1.473820e+002, 3.301280e+001
1.478641e+002, 3.261037e+001
1.483462e+002, 3.263408e+001
1.488283e+002, 3.348007e+001
1.493104e+002, 3.638518e+001
1.497925e+002, 3.953801e+001
1.502747e+002, 4.083620e+001
1.507568e+002, 3.781638e+001
1.512389e+002, 3.545454e+001
1.517210e+002, 3.517616e+001
1.522031e+002, 3.805606e+001
1.526852e+002, 3.960054e+001
1.531674e+002, 3.841702e+001
1.536495e+002, 3.615884e+001
1.541316e+002, 3.521315e+001
1.546137e+002, 3.688220e+001
1.550958e+002, 3.892256e+001
1.555779e+002, 4.051781e+001
1.560601e+002, 4.102888e+001
1.565422e+002, 4.244439e+001
1.570243e+002, 4.571991e+001
1.575064e+002, 5.005471e+001
1.579885e+002, 5.389801e+001
1.584706e+002, 5.610871e+001
1.589528e+002, 5.834437e+001
1.594349e+002, 6.134208e+001
1.599170e+002, 6.524248e+001
1.603991e+002, 6.986286e+001
1.608812e+002, 7.559119e+001
1.613633e+002, 8.206107e+001
1.618455e+002, 8.831055e+001
1.623276e+002, 9.273532e+001
1.628097e+002, 9.757041e+001
1.632918e+002, 1.043769e+002
1.637739e+002, 1.141339e+002
1.642560e+002, 1.249766e+002
1.647382e+002, 1.366327e+002
1.652203e+002, 1.488817e+002
1.657024e+002, 1.608806e+002
1.661845e+002, 1.720018e+002
1.666666e+002, 1.828412e+002
1.671487e+002, 1.937878e+002
1.676309e+002, 2.050567e+002
1.681130e+002, 2.165277e+002
1.685951e+002, 2.280859e+002
1.690772e+002, 2.397506e+002
1.695593e+002, 2.513373e+002
1.700414e+002, 2.634070e+002
1.705236e+002, 2.751884e+002
1.710057e+002, 2.855899e+002
1.714878e+002, 2.937379e+002
1.719699e+002, 3.009272e+002
1.724520e+002, 3.080612e+002
1.729341e+002, 3.151523e+002
1.734163e+002, 3.219446e+002
1.738984e+002, 3.276941e+002
1.743805e+002, 3.331361e+002
1.748626e+002, 3.392981e+002
1.753447e+002, 3.464098e+002
1.758268e+002, 3.546155e+002
1.763090e+002, 3.645545e+002
1.767911e+002, 3.761562e+002
1.772732e+002, 3.879561e+002
1.777553e+002, 3.966107e+002
1.782374e+002, 4.026036e+002
1.787195e+002, 4.089144e+002
1.792017e+002, 4.171050e+002
1.796838e+002, 4.263339e+002
1.801659e+002, 4.349962e+002
1.806480e+002, 4.431026e+002
1.811301e+002, 4.515493e+002
1.816122e+002, 4.617577e+002
1.820944e+002, 4.732944e+002
1.825765e+002, 4.844640e+002
1.830586e+002, 4.943418e+002
1.835407e+002, 5.034088e+002
1.840228e+002, 5.131866e+002
1.845049e+002, 5.236695e+002
1.849871e+002, 5.345633e+002
1.854692e+002, 5.456559e+002
1.859513e+002, 5.569170e+002
1.864334e+002, 5.675490e+002
1.869155e+002, 5.779793e+002
1.873976e+002, 5.876571e+002
1.878798e+002, 5.943544e+002
1.883619e+002, 5.975219e+002
1.888440e+002, 5.995437e+002
1.893261e+002, 6.038431e+002
1.898082e+002, 6.102703e+002
1.902903e+002, 6.164451e+002
1.907725e+002, 6.205354e+002
1.912546e+002, 6.231228e+002
1.917367e+002, 6.275451e+002
1.922188e+002, 6.343912e+002
1.927009e+002, 6.419874e+002
1.931830e+002, 6.472013e+002
1.936652e+002, 6.500103e+002
1.941473e+002, 6.527974e+002
1.946294e+002, 6.569254e+002
1.951115e+002, 6.622777e+002
1.955936e+002, 6.674542e+002
1.960757e+002, 6.723910e+002
1.965579e+002, 6.770939e+002
1.970400e+002, 6.816248e+002
1.975221e+002, 6.860059e+002
1.980042e+002, 6.900057e+002
1.984863e+002, 6.930277e+002
1.989684e+002, 6.950311e+002
1.994506e+002, 6.989202e+002
1.999327e+002, 7.055222e+002
2.004148e+002, 7.132429e+002
2.008969e+002, 7.182462e+002
2.013790e+002, 7.201469e+002
2.018611e+002, 7.217269e+002
2.023433e+002, 7.246895e+002
2.028254e+002, 7.291702e+002
2.033075e+002, 7.334565e+002
2.037896e+002, 7.374135e+002
2.042717e+002, 7.410668e+002
2.047538e+002, 7.444095e+002
2.052360e+002, 7.474099e+002
2.057181e+002, 7.501787e+002
2.062002e+002, 7.527632e+002
2.066823e+002, 7.551495e+002
2.071644e+002, 7.573735e+002
2.076465e+002, 7.594658e+002
2.081287e+002, 7.613610e+002
2.086108e+002, 7.629411e+002
2.090929e+002, 7.642003e+002
2.095750e+002, 7.651490e+002
2.100571e+002, 7.657507e+002
2.105392e+002, 7.659665e+002
2.110214e+002, 7.660037e+002
2.115035e+002, 7.657159e+002
2.119856e+002, 7.653276e+002
2.124677e+002, 7.657936e+002
2.129498e+002, 7.676221e+002
2.134319e+002, 7.692204e+002
2.139140e+002, 7.694911e+002
2.143962e+002, 7.679954e+002
2.148783e+002, 7.667800e+002
2.153604e+002, 7.659572e+002
2.158425e+002, 7.655577e+002
2.163246e+002, 7.658842e+002
2.168067e+002, 7.673788e+002
2.172889e+002, 7.687418e+002
2.177710e+002, 7.689283e+002
2.182531e+002, 7.671237e+002
2.187352e+002, 7.666518e+002
2.192173e+002, 7.684409e+002
2.196994e+002, 7.717720e+002
2.201816e+002, 7.730268e+002
2.206637e+002, 7.711907e+002
2.211458e+002, 7.690355e+002
2.216279e+002, 7.683535e+002
2.221100e+002, 7.696790e+002
2.225921e+002, 7.710788e+002
2.230743e+002, 7.726777e+002
2.235564e+002, 7.742566e+002
2.240385e+002, 7.746155e+002
2.245206e+002, 7.728604e+002
2.250027e+002, 7.713151e+002
2.254848e+002, 7.716908e+002
2.259670e+002, 7.753685e+002
2.264491e+002, 7.775985e+002
2.269312e+002, 7.775228e+002
2.274133e+002, 7.756976e+002
2.278954e+002, 7.747610e+002
2.283775e+002, 7.749819e+002
2.288597e+002, 7.757291e+002
2.293418e+002, 7.766702e+002
2.298239e+002, 7.778975e+002
2.303060e+002, 7.790982e+002
2.307881e+002, 7.803209e+002
2.312702e+002, 7.814911e+002
2.317524e+002, 7.822454e+002
2.322345e+002, 7.825463e+002
2.327166e+002, 7.824379e+002
2.331987e+002, 7.818005e+002
2.336808e+002, 7.800214e+002
2.341629e+002, 7.790500e+002
2.346451e+002, 7.792374e+002
2.351272e+002, 7.803240e+002
2.356093e+002, 7.812001e+002
2.360914e+002, 7.817568e+002
2.365735e+002, 7.822532e+002
2.370556e+002, 7.829033e+002
2.375378e+002, 7.840696e+002
2.380199e+002, 7.845871e+002
2.385020e+002, 7.840720e+002
2.389841e+002, 7.828768e+002
2.394662e+002, 7.824656e+002
2.399483e+002, 7.833627e+002
2.404305e+002, 7.843752e+002
2.409126e+002, 7.848179e+002
2.413947e+002, 7.841990e+002
2.418768e+002, 7.841827e+002
2.423589e+002, 7.852075e+002
2.428410e+002, 7.868719e+002
2.433232e+002, 7.876992e+002
2.438053e+002, 7.871936e+002
2.442874e+002, 7.865140e+002
2.447695e+002, 7.861743e+002
2.452516e+002, 7.860221e+002
2.457337e+002, 7.865283e+002
2.462159e+002, 7.879719e+002
2.466980e+002, 7.900287e+002
2.471801e+002, 7.916781e+002
2.476622e+002, 7.928900e+002
2.481443e+002, 7.937344e+002
2.486264e+002, 7.941718e+002
2.491086e+002, 7.939431e+002
2.495907e+002, 7.938939e+002
2.500728e+002, 7.939045e+002
2.505549e+002, 7.941462e+002
2.510370e+002, 7.952364e+002
2.515191e+002, 7.980157e+002
2.520013e+002, 8.003436e+002
2.524834e+002, 8.010349e+002
2.529655e+002, 7.988561e+002
2.534476e+002, 7.984149e+002
2.539297e+002, 8.006022e+002
2.544118e+002, 8.041412e+002
2.548940e+002, 8.061676e+002
2.553761e+002, 8.061064e+002
2.558582e+002, 8.055408e+002
2.563403e+002, 8.049091e+002
2.568224e+002, 8.038237e+002
2.573046e+002, 8.040497e+002
2.577867e+002, 8.063077e+002
2.582688e+002, 8.093868e+002
2.587509e+002, 8.107765e+002
2.592330e+002, 8.096273e+002
2.597151e+002, 8.084639e+002
2.601973e+002, 8.082321e+002
2.606794e+002, 8.090876e+002
2.611615e+002, 8.101937e+002
2.616436e+002, 8.116084e+002
2.621257e+002, 8.132184e+002
2.626078e+002, 8.149168e+002
2.630900e+002, 8.168990e+002
2.635721e+002, 8.185205e+002
2.640542e+002, 8.195385e+002
2.645363e+002, 8.199297e+002
2.650184e+002, 8.199780e+002
2.655005e+002, 8.194604e+002
2.659827e+002, 8.188945e+002
2.664648e+002, 8.190627e+002
2.669469e+002, 8.201643e+002
2.674290e+002, 8.214382e+002
2.679111e+002, 8.226979e+002
2.683932e+002, 8.239337e+002
2.688754e+002, 8.251240e+002
2.693575e+002, 8.262822e+002
2.698396e+002, 8.273371e+002
2.703217e+002, 8.282188e+002
2.708038e+002, 8.289523e+002
2.712859e+002, 8.292706e+002
2.717681e+002, 8.286721e+002
2.722502e+002, 8.272291e+002
2.727323e+002, 8.278163e+002
2.732144e+002, 8.310977e+002
2.736965e+002, 8.350303e+002
2.741786e+002, 8.372301e+002
2.746608e+002, 8.373303e+002
2.751429e+002, 8.378625e+002
2.756250e+002, 8.397426e+002
2.761071e+002, 8.426681e+002
2.765892e+002, 8.441647e+002
2.770714e+002, 8.438223e+002
2.775535e+002, 8.431584e+002
2.780356e+002, 8.437891e+002
2.785177e+002, 8.458883e+002
2.789998e+002, 8.473470e+002
2.794819e+002, 8.474055e+002
2.799641e+002, 8.465556e+002
2.804462e+002, 8.471818e+002
2.809283e+002, 8.496038e+002
2.814104e+002, 8.521236e+002
2.818925e+002, 8.531412e+002
2.823746e+002, 8.526326e+002
2.828568e+002, 8.527304e+002
2.833389e+002, 8.540059e+002
2.838210e+002, 8.559640e+002
2.843031e+002, 8.571302e+002
2.847852e+002, 8.574451e+002
2.852673e+002, 8.576992e+002
2.857495e+002, 8.583487e+002
2.862316e+002, 8.594116e+002
2.867137e+002, 8.610969e+002
2.871958e+002, 8.636924e+002
2.876779e+002, 8.665602e+002
2.881600e+002, 8.681027e+002
2.886422e+002, 8.682926e+002
2.891243e+002, 8.687209e+002
2.896064e+002, 8.706055e+002
2.900885e+002, 8.736533e+002
2.905706e+002, 8.763358e+002
2.910527e+002, 8.784775e+002
2.915349e+002, 8.802412e+002
2.920170e+002, 8.815801e+002
2.924991e+002, 8.825477e+002
2.929812e+002, 8.840384e+002
2.934633e+002, 8.871210e+002
2.939454e+002, 8.911462e+002
2.944276e+002, 8.938986e+002
2.949097e+002, 8.950875e+002
2.953918e+002, 8.956747e+002
2.958739e+002, 8.967255e+002
2.963560e+002, 8.981803e+002
2.968381e+002, 8.997917e+002
2.973203e+002, 9.015037e+002
2.978024e+002, 9.032693e+002
2.982845e+002, 9.049990e+002
2.987666e+002, 9.066955e+002
2.992487e+002, 9.084129e+002
2.997308e+002, 9.103801e+002
3.002130e+002, 9.124630e+002
3.006951e+002, 9.142367e+002
3.011772e+002, 9.151873e+002
3.016593e+002, 9.158952e+002
3.021414e+002, 9.173142e+002
3.026235e+002, 9.194140e+002
3.031057e+002, 9.215731e+002
3.035878e+002, 9.233757e+002
3.040699e+002, 9.248510e+002
3.045520e+002, 9.260117e+002
3.050341e+002, 9.268112e+002
3.055162e+002, 9.273539e+002
3.059984e+002, 9.276678e+002
3.064805e+002, 9.277813e+002
3.069626e+002, 9.279034e+002
3.074447e+002, 9.282194e+002
3.079268e+002, 9.286149e+002
3.084089e+002, 9.289566e+002
3.088911e+002, 9.292816e+002
3.093732e+002, 9.294380e+002
3.098553e+002, 9.291459e+002
3.103374e+002, 9.285428e+002
3.108195e+002, 9.280833e+002
3.113016e+002, 9.282453e+002
3.117838e+002, 9.285546e+002
3.122659e+002, 9.285384e+002
3.127480e+002, 9.279465e+002
3.132301e+002, 9.273912e+002
3.137122e+002, 9.272091e+002
3.141943e+002, 9.273201e+002
3.146765e+002, 9.275637e+002
3.151586e+002, 9.280856e+002
3.156407e+002, 9.285673e+002
3.161228e+002, 9.287393e+002
3.166049e+002, 9.284622e+002
3.170870e+002, 9.283455e+002
3.175692e+002, 9.290431e+002
3.180513e+002, 9.299846e+002
3.185334e+002, 9.303651e+002
3.190155e+002, 9.292020e+002
3.194976e+002, 9.280486e+002
3.199797e+002, 9.275470e+002
3.204619e+002, 9.277635e+002
3.209440e+002, 9.283478e+002
3.214261e+002, 9.295338e+002
3.219082e+002, 9.308763e+002
3.223903e+002, 9.319492e+002
3.228724e+002, 9.322145e+002
3.233546e+002, 9.326290e+002
3.238367e+002, 9.334531e+002
3.243188e+002, 9.346791e+002
3.248009e+002, 9.360203e+002
3.252830e+002, 9.372781e+002
3.257651e+002, 9.387301e+002
3.262473e+002, 9.405590e+002
3.267294e+002, 9.438676e+002
3.272115e+002, 9.463423e+002
3.276936e+002, 9.473543e+002
3.281757e+002, 9.472277e+002
3.286578e+002, 9.475690e+002
3.291400e+002, 9.489384e+002
3.296221e+002, 9.503663e+002
3.301042e+002, 9.515012e+002
3.305863e+002, 9.526920e+002
3.310684e+002, 9.530069e+002
3.315505e+002, 9.520793e+002
3.320327e+002, 9.503264e+002
3.325148e+002, 9.486061e+002
3.329969e+002, 9.463707e+002
3.334790e+002, 9.448485e+002
3.339611e+002, 9.446334e+002
3.344432e+002, 9.462369e+002
3.349254e+002, 9.469205e+002
3.354075e+002, 9.462988e+002
3.358896e+002, 9.450256e+002
3.363717e+002, 9.440397e+002
3.368538e+002, 9.435808e+002
3.373359e+002, 9.427802e+002
3.378180e+002, 9.411580e+002
3.383001e+002, 9.387518e+002
3.387823e+002, 9.376166e+002
3.392644e+002, 9.383636e+002
3.397465e+002, 9.392479e+002
3.402286e+002, 9.382349e+002
3.407107e+002, 9.348855e+002
3.411928e+002, 9.324765e+002
3.416750e+002, 9.318927e+002
3.421571e+002, 9.326779e+002
3.426392e+002, 9.332086e+002
3.431213e+002, 9.335286e+002
3.436034e+002, 9.334442e+002
3.440855e+002, 9.326359e+002
3.445677e+002, 9.311488e+002
3.450498e+002, 9.297695e+002
3.455319e+002, 9.284669e+002
3.460140e+002, 9.275389e+002
3.464961e+002, 9.280137e+002
3.469782e+002, 9.298168e+002
3.474604e+002, 9.310871e+002
3.479425e+002, 9.301158e+002
3.484246e+002, 9.276474e+002
3.489067e+002, 9.264958e+002
3.493888e+002, 9.269225e+002
3.498709e+002, 9.280959e+002
3.503531e+002, 9.292421e+002
3.508352e+002, 9.303405e+002
3.513173e+002, 9.313146e+002
3.517994e+002, 9.324061e+002
3.522815e+002, 9.332576e+002
3.527636e+002, 9.329910e+002
3.532458e+002, 9.315992e+002
3.537279e+002, 9.302766e+002
3.542100e+002, 9.299303e+002
3.546921e+002, 9.303435e+002
3.551742e+002, 9.311957e+002
3.556563e+002, 9.327960e+002
3.561385e+002, 9.343527e+002
3.566206e+002, 9.350927e+002
3.571027e+002, 9.351068e+002
3.575848e+002, 9.348541e+002
3.580669e+002, 9.341959e+002
3.585490e+002, 9.336109e+002
3.590312e+002, 9.336510e+002
3.595133e+002, 9.347312e+002
3.599954e+002, 9.357693e+002
3.604775e+002, 9.361532e+002
3.609596e+002, 9.360569e+002
3.614417e+002, 9.358376e+002
3.619239e+002, 9.353744e+002
3.624060e+002, 9.350507e+002
3.628881e+002, 9.351034e+002
3.633702e+002, 9.356019e+002
3.638523e+002, 9.362559e+002
3.643344e+002, 9.371938e+002
3.648166e+002, 9.381614e+002
3.652987e+002, 9.388751e+002
3.657808e+002, 9.391879e+002
3.662629e+002, 9.393039e+002
3.667450e+002, 9.390458e+002
3.672271e+002, 9.384232e+002
3.677093e+002, 9.383631e+002
3.681914e+002, 9.394070e+002
3.686735e+002, 9.407578e+002
3.691556e+002, 9.419092e+002
3.696377e+002, 9.431740e+002
3.701198e+002, 9.437336e+002
3.706020e+002, 9.426002e+002
3.710841e+002, 9.405875e+002
3.715662e+002, 9.408213e+002
3.720483e+002, 9.452934e+002
3.725304e+002, 9.495607e+002
3.730125e+002, 9.516403e+002
3.734947e+002, 9.504962e+002
3.739768e+002, 9.500806e+002
3.744589e+002, 9.506034e+002
3.749410e+002, 9.516799e+002
3.754231e+002, 9.528896e+002
3.759052e+002, 9.546436e+002
3.763874e+002, 9.554133e+002
3.768695e+002, 9.544094e+002
3.773516e+002, 9.516947e+002
3.778337e+002, 9.499177e+002
3.783158e+002, 9.491414e+002
3.787979e+002, 9.491029e+002
3.792801e+002, 9.496993e+002
3.797622e+002, 9.509710e+002
3.802443e+002, 9.523237e+002
3.807264e+002, 9.537448e+002
3.812085e+002, 9.551080e+002
3.816906e+002, 9.559018e+002
3.821728e+002, 9.560978e+002
3.826549e+002, 9.565152e+002
3.831370e+002, 9.579438e+002
3.836191e+002, 9.600870e+002
3.841012e+002, 9.617467e+002
3.845833e+002, 9.627587e+002
3.850655e+002, 9.633876e+002
3.855476e+002, 9.637645e+002
3.860297e+002, 9.639908e+002
3.865118e+002, 9.644514e+002
3.869939e+002, 9.656412e+002
3.874760e+002, 9.670592e+002
3.879582e+002, 9.680153e+002
3.884403e+002, 9.685088e+002
3.889224e+002, 9.686878e+002
3.894045e+002, 9.683317e+002
3.898866e+002, 9.678424e+002
3.903687e+002, 9.678382e+002
3.908509e+002, 9.692794e+002
3.913330e+002, 9.704778e+002
3.918151e+002, 9.697650e+002
3.922972e+002, 9.676379e+002
3.927793e+002, 9.660881e+002
3.932614e+002, 9.662419e+002
3.937436e+002, 9.672538e+002
3.942257e+002, 9.686707e+002
3.947078e+002, 9.707444e+002
3.951899e+002, 9.723533e+002
3.956720e+002, 9.725976e+002
3.961541e+002, 9.721980e+002
3.966363e+002, 9.723189e+002
3.971184e+002, 9.741531e+002
3.976005e+002, 9.756913e+002
3.980826e+002, 9.760136e+002
3.985647e+002, 9.748733e+002
3.990468e+002, 9.742740e+002
3.995290e+002, 9.751819e+002
4.000111e+002, 9.762697e+002
4.004932e+002, 9.764436e+002
4.009753e+002, 9.742177e+002
4.014574e+002, 9.731041e+002
4.019395e+002, 9.739321e+002
4.024217e+002, 9.762278e+002
4.029038e+002, 9.777084e+002
4.033859e+002, 9.779851e+002
4.038680e+002, 9.780275e+002
4.043501e+002, 9.783459e+002
4.048322e+002, 9.791385e+002
4.053144e+002, 9.794245e+002
4.057965e+002, 9.789203e+002
4.062786e+002, 9.782405e+002
4.067607e+002, 9.784518e+002
4.072428e+002, 9.797041e+002
4.077249e+002, 9.810250e+002
4.082071e+002, 9.820908e+002
4.086892e+002, 9.829432e+002
4.091713e+002, 9.838635e+002
4.096534e+002, 9.848821e+002
4.101355e+002, 9.857766e+002
4.106176e+002, 9.862262e+002
4.110998e+002, 9.863176e+002
4.115819e+002, 9.865971e+002
4.120640e+002, 9.872468e+002
4.125461e+002, 9.879919e+002
4.130282e+002, 9.885861e+002
4.135103e+002, 9.889640e+002
4.139925e+002, 9.887844e+002
4.144746e+002, 9.870468e+002
4.149567e+002, 9.848788e+002
4.154388e+002, 9.842703e+002
4.159209e+002, 9.855059e+002
4.164030e+002, 9.870410e+002
4.168852e+002, 9.879848e+002
4.173673e+002, 9.883077e+002
4.178494e+002, 9.879740e+002
4.183315e+002, 9.863095e+002
4.188136e+002, 9.845528e+002
4.192957e+002, 9.834122e+002
4.197779e+002, 9.828762e+002
4.202600e+002, 9.827079e+002
4.207421e+002, 9.831967e+002
4.212242e+002, 9.838005e+002
4.217063e+002, 9.840953e+002
4.221884e+002, 9.838117e+002
4.226706e+002, 9.836216e+002
4.231527e+002, 9.836484e+002
4.236348e+002, 9.838857e+002
4.241169e+002, 9.843141e+002
4.245990e+002, 9.849770e+002
4.250811e+002, 9.857753e+002
4.255633e+002, 9.866951e+002
4.260454e+002, 9.877389e+002
4.265275e+002, 9.887940e+002
4.270096e+002, 9.900982e+002
4.274917e+002, 9.912014e+002
4.279738e+002, 9.916552e+002
4.284560e+002, 9.909272e+002
4.289381e+002, 9.906542e+002
4.294202e+002, 9.912346e+002
4.299023e+002, 9.923353e+002
4.303844e+002, 9.929238e+002
4.308665e+002, 9.930403e+002
4.313487e+002, 9.925082e+002
4.318308e+002, 9.907850e+002
4.323129e+002, 9.877529e+002
4.327950e+002, 9.863412e+002
4.332771e+002, 9.869131e+002
4.337592e+002, 9.882627e+002
4.342414e+002, 9.889548e+002
4.347235e+002, 9.890299e+002
4.352056e+002, 9.888562e+002
4.356877e+002, 9.883583e+002
4.361698e+002, 9.878351e+002
4.366519e+002, 9.881771e+002
4.371341e+002, 9.893293e+002
4.376162e+002, 9.901950e+002
4.380983e+002, 9.899905e+002
4.385804e+002, 9.889638e+002
4.390625e+002, 9.872355e+002
4.395446e+002, 9.844422e+002
4.400268e+002, 9.822709e+002
4.405089e+002, 9.829500e+002
4.409910e+002, 9.853414e+002
4.414731e+002, 9.871048e+002
4.419552e+002, 9.868280e+002
4.424373e+002, 9.858709e+002
4.429195e+002, 9.848289e+002
4.434016e+002, 9.837449e+002
4.438837e+002, 9.831295e+002
4.443658e+002, 9.838307e+002
4.448479e+002, 9.847049e+002
4.453300e+002, 9.848090e+002
4.458122e+002, 9.825551e+002
4.462943e+002, 9.813340e+002
4.467764e+002, 9.824968e+002
4.472585e+002, 9.851148e+002
4.477406e+002, 9.868203e+002
4.482227e+002, 9.869288e+002
4.487049e+002, 9.866245e+002
4.491870e+002, 9.861964e+002
4.496691e+002, 9.856497e+002
4.501512e+002, 9.849578e+002
4.506333e+002, 9.837591e+002
4.511154e+002, 9.828400e+002
4.515976e+002, 9.832891e+002
4.520797e+002, 9.859492e+002
4.525618e+002, 9.870824e+002
4.530439e+002, 9.855712e+002
4.535260e+002, 9.824739e+002
4.540081e+002, 9.810134e+002
4.544903e+002, 9.813680e+002
4.549724e+002, 9.822215e+002
4.554545e+002, 9.828542e+002
4.559366e+002, 9.833268e+002
4.564187e+002, 9.843651e+002
4.569008e+002, 9.861289e+002
4.573830e+002, 9.875979e+002
4.578651e+002, 9.870026e+002
4.583472e+002, 9.849919e+002
4.588293e+002, 9.837587e+002
4.593114e+002, 9.844142e+002
4.597935e+002, 9.857382e+002
4.602757e+002, 9.860983e+002
4.607578e+002, 9.856825e+002
4.612399e+002, 9.854962e+002
4.617220e+002, 9.865642e+002
4.622041e+002, 9.879329e+002
4.626862e+002, 9.887672e+002
4.631684e+002, 9.889775e+002
4.636505e+002, 9.885547e+002
4.641326e+002, 9.868625e+002
4.646147e+002, 9.847453e+002
4.650968e+002, 9.832680e+002
4.655789e+002, 9.834176e+002
4.660611e+002, 9.836426e+002
4.665432e+002, 9.833734e+002
4.670253e+002, 9.826850e+002
4.675074e+002, 9.824037e+002
4.679895e+002, 9.829597e+002
4.684716e+002, 9.836913e+002
4.689538e+002, 9.842018e+002
4.694359e+002, 9.838943e+002
4.699180e+002, 9.847476e+002
4.704001e+002, 9.876400e+002
4.708822e+002, 9.910762e+002
4.713643e+002, 9.926545e+002
4.718465e+002, 9.916527e+002
4.723286e+002, 9.908547e+002
4.728107e+002, 9.910325e+002
4.732928e+002, 9.919960e+002
4.737749e+002, 9.927651e+002
4.742570e+002, 9.933483e+002
4.747392e+002, 9.936287e+002
4.752213e+002, 9.933204e+002
4.757034e+002, 9.925419e+002
4.761855e+002, 9.920843e+002
4.766676e+002, 9.920305e+002
4.771497e+002, 9.923401e+002
4.776319e+002, 9.932883e+002
4.781140e+002, 9.946293e+002
4.785961e+002, 9.955250e+002
4.790782e+002, 9.951321e+002
4.795603e+002, 9.944079e+002
4.800424e+002, 9.946869e+002
4.805246e+002, 9.958204e+002
4.810067e+002, 9.965949e+002
4.814888e+002, 9.955486e+002
4.819709e+002, 9.941828e+002
4.824530e+002, 9.939402e+002
4.829352e+002, 9.955582e+002
4.834173e+002, 9.971304e+002
4.838994e+002, 9.977680e+002
4.843815e+002, 9.979067e+002
4.848636e+002, 9.982076e+002
4.853457e+002, 9.992050e+002
4.858279e+002, 9.999744e+002
4.863100e+002, 1.000197e+003
4.867921e+002, 9.998698e+002
4.872742e+002, 9.995823e+002
4.877563e+002, 9.990668e+002
4.882384e+002, 9.988933e+002
4.887206e+002, 9.995107e+002
4.892027e+002, 1.001496e+003
4.896848e+002, 1.002691e+003
4.901669e+002, 1.002766e+003
4.906490e+002, 1.002399e+003
4.911311e+002, 1.002682e+003
4.916133e+002, 1.003685e+003
4.920954e+002, 1.004867e+003
4.925775e+002, 1.006223e+003
4.930596e+002, 1.007577e+003
4.935417e+002, 1.008117e+003
4.940238e+002, 1.007816e+003
4.945060e+002, 1.007538e+003
4.949881e+002, 1.008176e+003
4.954702e+002, 1.009290e+003
4.959523e+002, 1.009719e+003
4.964344e+002, 1.009186e+003
4.969165e+002, 1.008459e+003
4.973987e+002, 1.008262e+003
4.978808e+002, 1.008418e+003
4.983629e+002, 1.008607e+003
4.988450e+002, 1.008500e+003
4.993271e+002, 1.008557e+003
4.998092e+002, 1.009362e+003
5.002914e+002, 1.010743e+003
5.007735e+002, 1.011665e+003
5.012556e+002, 1.011111e+003
5.017377e+002, 1.010479e+003
5.022198e+002, 1.010788e+003
5.027019e+002, 1.012941e+003
5.031841e+002, 1.014022e+003
5.036662e+002, 1.012556e+003
5.041483e+002, 1.010317e+003
5.046304e+002, 1.009394e+003
5.051125e+002, 1.010642e+003
5.055946e+002, 1.011846e+003
5.060768e+002, 1.012725e+003
5.065589e+002, 1.013298e+003
5.070410e+002, 1.013677e+003
5.075231e+002, 1.013852e+003
5.080052e+002, 1.013833e+003
5.084873e+002, 1.013493e+003
5.089695e+002, 1.012824e+003
5.094516e+002, 1.012451e+003
5.099337e+002, 1.012351e+003
5.104158e+002, 1.012613e+003
5.108979e+002, 1.013398e+003
5.113800e+002, 1.014652e+003
5.118622e+002, 1.016186e+003
5.123443e+002, 1.018208e+003
5.128264e+002, 1.020109e+003
5.133085e+002, 1.021228e+003
5.137906e+002, 1.021588e+003
5.142728e+002, 1.021259e+003
5.147549e+002, 1.019435e+003
5.152370e+002, 1.017506e+003
5.157191e+002, 1.016751e+003
5.162012e+002, 1.017317e+003
5.166833e+002, 1.018169e+003
5.171655e+002, 1.019456e+003
5.176476e+002, 1.020500e+003
5.181297e+002, 1.020689e+003
5.186118e+002, 1.017764e+003
5.190939e+002, 1.016652e+003
5.195760e+002, 1.019951e+003
5.200582e+002, 1.025483e+003
5.205403e+002, 1.028048e+003
5.210224e+002, 1.025175e+003
5.215045e+002, 1.022718e+003
5.219866e+002, 1.022204e+003
5.224688e+002, 1.023629e+003
5.229509e+002, 1.025836e+003
5.234330e+002, 1.029336e+003
5.239151e+002, 1.032435e+003
5.243972e+002, 1.033621e+003
5.248793e+002, 1.032837e+003
5.253615e+002, 1.031934e+003
5.258436e+002, 1.030891e+003
5.263257e+002, 1.030239e+003
5.268078e+002, 1.031012e+003
5.272899e+002, 1.032968e+003
5.277720e+002, 1.035027e+003
5.282542e+002, 1.037343e+003
5.287363e+002, 1.039051e+003
5.292184e+002, 1.038246e+003
5.297005e+002, 1.035434e+003
5.301826e+002, 1.033330e+003
5.306647e+002, 1.034734e+003
5.311469e+002, 1.036898e+003
5.316290e+002, 1.037089e+003
5.321111e+002, 1.034358e+003
5.325932e+002, 1.032567e+003
5.330753e+002, 1.034171e+003
5.335574e+002, 1.037096e+003
5.340396e+002, 1.039162e+003
5.345217e+002, 1.039782e+003
5.350038e+002, 1.039807e+003
5.354859e+002, 1.038724e+003
5.359680e+002, 1.037108e+003
5.364501e+002, 1.036865e+003
5.369323e+002, 1.038799e+003
5.374144e+002, 1.040749e+003
5.378965e+002, 1.041956e+003
5.383786e+002, 1.042400e+003
5.388607e+002, 1.042512e+003
5.393428e+002, 1.042161e+003
5.398250e+002, 1.041836e+003
5.403071e+002, 1.042020e+003
5.407892e+002, 1.042660e+003
5.412713e+002, 1.043276e+003
5.417534e+002, 1.043676e+003
5.422355e+002, 1.044344e+003
5.427177e+002, 1.046193e+003
5.431998e+002, 1.048932e+003
5.436819e+002, 1.051587e+003
5.441640e+002, 1.054802e+003
5.446461e+002, 1.056943e+003
5.451282e+002, 1.055550e+003
5.456104e+002, 1.051214e+003
5.460925e+002, 1.047567e+003
5.465746e+002, 1.046346e+003
5.470567e+002, 1.046571e+003
5.475388e+002, 1.047889e+003
5.480209e+002, 1.050769e+003
5.485031e+002, 1.052965e+003
5.489852e+002, 1.053746e+003
5.494673e+002, 1.053754e+003
5.499494e+002, 1.053680e+003
5.504315e+002, 1.053829e+003
5.509136e+002, 1.053366e+003
5.513958e+002, 1.051660e+003
5.518779e+002, 1.049403e+003
5.523600e+002, 1.048933e+003
5.528421e+002, 1.050801e+003
5.533242e+002, 1.052491e+003
5.538063e+002, 1.052933e+003
5.542885e+002, 1.052257e+003
5.547706e+002, 1.051233e+003
5.552527e+002, 1.049782e+003
5.557348e+002, 1.048836e+003
5.562169e+002, 1.049669e+003
5.566990e+002, 1.051628e+003
5.571812e+002, 1.053079e+003
5.576633e+002, 1.053769e+003
5.581454e+002, 1.053928e+003
5.586275e+002, 1.053344e+003
5.591096e+002, 1.052452e+003
5.595917e+002, 1.052005e+003
5.600739e+002, 1.052883e+003
5.605560e+002, 1.053745e+003
5.610381e+002, 1.053738e+003
5.615202e+002, 1.053080e+003
5.620023e+002, 1.052769e+003
5.624844e+002, 1.053489e+003
5.629666e+002, 1.054219e+003
5.634487e+002, 1.054432e+003
5.639308e+002, 1.053961e+003
5.644129e+002, 1.053754e+003
5.648950e+002, 1.053975e+003
5.653771e+002, 1.054263e+003
5.658593e+002, 1.054337e+003
5.663414e+002, 1.054183e+003
5.668235e+002, 1.053714e+003
5.673056e+002, 1.052621e+003
5.677877e+002, 1.051661e+003
5.682698e+002, 1.052816e+003
5.687520e+002, 1.055919e+003
5.692341e+002, 1.057892e+003
5.697162e+002, 1.057036e+003
5.701983e+002, 1.054724e+003
5.706804e+002, 1.053261e+003
5.711625e+002, 1.052614e+003
5.716447e+002, 1.052419e+003
5.721268e+002, 1.052572e+003
5.726089e+002, 1.053004e+003
5.730910e+002, 1.053879e+003
5.735731e+002, 1.055364e+003
5.740552e+002, 1.056184e+003
5.745374e+002, 1.054549e+003
5.750195e+002, 1.052581e+003
5.755016e+002, 1.052253e+003
5.759837e+002, 1.056108e+003
5.764658e+002, 1.058890e+003
5.769479e+002, 1.059609e+003
5.774301e+002, 1.059055e+003
5.779122e+002, 1.058672e+003
5.783943e+002, 1.058110e+003
5.788764e+002, 1.058397e+003
5.793585e+002, 1.060161e+003
5.798406e+002, 1.063065e+003
5.803228e+002, 1.064724e+003
5.808049e+002, 1.065002e+003
5.812870e+002, 1.064874e+003
5.817691e+002, 1.065003e+003
5.822512e+002, 1.065288e+003
5.827333e+002, 1.065341e+003
5.832155e+002, 1.065169e+003
5.836975e+002, 1.064675e+003
5.841796e+002, 1.063109e+003
5.846617e+002, 1.061331e+003
5.851439e+002, 1.060865e+003
5.856260e+002, 1.062787e+003
5.861081e+002, 1.064947e+003
5.865902e+002, 1.066109e+003
5.870723e+002, 1.066582e+003
5.875544e+002, 1.066948e+003
5.880366e+002, 1.067531e+003
5.885187e+002, 1.067864e+003
5.890008e+002, 1.067516e+003
5.894829e+002, 1.066539e+003
5.899650e+002, 1.066215e+003
5.904471e+002, 1.066617e+003
5.909293e+002, 1.067532e+003
5.914114e+002, 1.069155e+003
5.918935e+002, 1.071797e+003
5.923756e+002, 1.072543e+003
5.928577e+002, 1.070772e+003
5.933398e+002, 1.068763e+003
5.938220e+002, 1.069438e+003
5.943041e+002, 1.072353e+003
5.947862e+002, 1.073778e+003
5.952683e+002, 1.072645e+003
5.957504e+002, 1.070901e+003
5.962325e+002, 1.071198e+003
5.967147e+002, 1.072938e+003
5.971968e+002, 1.074531e+003
5.976789e+002, 1.075414e+003
5.981610e+002, 1.075820e+003
5.986431e+002, 1.075672e+003
5.991252e+002, 1.075114e+003
5.996074e+002, 1.074781e+003
6.000895e+002, 1.074829e+003
6.005716e+002, 1.075207e+003
6.010537e+002, 1.075972e+003
6.015358e+002, 1.077229e+003
6.020179e+002, 1.078346e+003
6.025001e+002, 1.079230e+003
6.029822e+002, 1.080061e+003
6.034643e+002, 1.081063e+003
6.039464e+002, 1.082457e+003
6.044285e+002, 1.083140e+003
6.049106e+002, 1.082908e+003
6.053928e+002, 1.082219e+003
6.058749e+002, 1.081436e+003
6.063570e+002, 1.080629e+003
6.068391e+002, 1.080887e+003
6.073212e+002, 1.083081e+003
6.078033e+002, 1.085799e+003
6.082855e+002, 1.086593e+003
6.087676e+002, 1.085952e+003
6.092497e+002, 1.085723e+003
6.097318e+002, 1.087594e+003
6.102139e+002, 1.089773e+003
6.106960e+002, 1.090657e+003
6.111782e+002, 1.090218e+003
6.116603e+002, 1.090060e+003
6.121424e+002, 1.091146e+003
6.126245e+002, 1.092399e+003
6.131066e+002, 1.093108e+003
6.135887e+002, 1.092807e+003
6.140709e+002, 1.093013e+003
6.145530e+002, 1.094233e+003
6.150351e+002, 1.095537e+003
6.155172e+002, 1.095799e+003
6.159993e+002, 1.094666e+003
6.164814e+002, 1.094202e+003
6.169636e+002, 1.094850e+003
6.174457e+002, 1.096079e+003
6.179278e+002, 1.096808e+003
6.184099e+002, 1.097101e+003
6.188920e+002, 1.097658e+003
6.193741e+002, 1.099092e+003
6.198563e+002, 1.100706e+003
6.203384e+002, 1.101246e+003
6.208205e+002, 1.100915e+003
6.213026e+002, 1.100770e+003
6.217847e+002, 1.101736e+003
6.222668e+002, 1.102885e+003
6.227490e+002, 1.103387e+003
6.232311e+002, 1.103091e+003
6.237132e+002, 1.103168e+003
6.241953e+002, 1.104213e+003
6.246774e+002, 1.105580e+003
6.251595e+002, 1.106869e+003
6.256417e+002, 1.108377e+003
6.261238e+002, 1.109231e+003
6.266059e+002, 1.109186e+003
6.270880e+002, 1.108789e+003
6.275701e+002, 1.108590e+003
6.280522e+002, 1.108538e+003
6.285344e+002, 1.109276e+003
6.290165e+002, 1.110986e+003
6.294986e+002, 1.113490e+003
6.299807e+002, 1.117111e+003
6.304628e+002, 1.121501e+003
6.309449e+002, 1.124718e+003
6.314271e+002, 1.124514e+003
6.319092e+002, 1.123493e+003
6.323913e+002, 1.124904e+003
6.328734e+002, 1.128323e+003
6.333555e+002, 1.131019e+003
6.338376e+002, 1.131350e+003
6.343198e+002, 1.130756e+003
6.348019e+002, 1.129785e+003
6.352840e+002, 1.128210e+003
6.357661e+002, 1.127779e+003
6.362482e+002, 1.129659e+003
6.367303e+002, 1.131902e+003
6.372125e+002, 1.133059e+003
6.376946e+002, 1.132389e+003
6.381767e+002, 1.133017e+003
6.386588e+002, 1.135552e+003
6.391409e+002, 1.138580e+003
6.396230e+002, 1.139992e+003
6.401052e+002, 1.139892e+003
6.405873e+002, 1.139556e+003
6.410694e+002, 1.139143e+003
6.415515e+002, 1.138958e+003
6.420336e+002, 1.139558e+003
6.425157e+002, 1.140779e+003
6.429979e+002, 1.142148e+003
6.434800e+002, 1.143559e+003
6.439621e+002, 1.144911e+003
6.444442e+002, 1.146315e+003
6.449263e+002, 1.147667e+003
6.454084e+002, 1.148367e+003
6.458906e+002, 1.147349e+003
6.463727e+002, 1.146387e+003
6.468548e+002, 1.146285e+003
6.473369e+002, 1.147086e+003
6.478190e+002, 1.148505e+003
6.483011e+002, 1.151147e+003
6.487833e+002, 1.153489e+003
6.492654e+002, 1.154037e+003
6.497475e+002, 1.152574e+003
6.502296e+002, 1.152262e+003
6.507117e+002, 1.153440e+003
6.511938e+002, 1.155141e+003
6.516760e+002, 1.156052e+003
6.521581e+002, 1.156481e+003
6.526402e+002, 1.157444e+003
6.531223e+002, 1.159505e+003
6.536044e+002, 1.161531e+003
6.540865e+002, 1.162673e+003
6.545687e+002, 1.163047e+003
6.550508e+002, 1.162902e+003
6.555329e+002, 1.161675e+003
6.560150e+002, 1.160614e+003
6.564971e+002, 1.160163e+003
6.569792e+002, 1.160275e+003
6.574614e+002, 1.160628e+003
6.579435e+002, 1.161071e+003
6.584256e+002, 1.161952e+003
6.589077e+002, 1.163667e+003
6.593898e+002, 1.166137e+003
6.598719e+002, 1.167295e+003
6.603541e+002, 1.166900e+003
6.608362e+002, 1.166315e+003
6.613183e+002, 1.166706e+003
6.618004e+002, 1.167732e+003
6.622825e+002, 1.167925e+003
6.627646e+002, 1.167169e+003
6.632468e+002, 1.166295e+003
6.637289e+002, 1.165726e+003
6.642110e+002, 1.165613e+003
6.646931e+002, 1.166438e+003
6.651752e+002, 1.169087e+003
6.656573e+002, 1.170614e+003
6.661395e+002, 1.168615e+003
6.666216e+002, 1.165231e+003
6.671037e+002, 1.163091e+003
6.675858e+002, 1.163379e+003
6.680679e+002, 1.163955e+003
6.685500e+002, 1.164701e+003
6.690322e+002, 1.165626e+003
6.695143e+002, 1.166865e+003
6.699964e+002, 1.168590e+003
6.704785e+002, 1.169765e+003
6.709606e+002, 1.169953e+003
6.714427e+002, 1.169445e+003
6.719249e+002, 1.168798e+003
6.724070e+002, 1.168070e+003
6.728891e+002, 1.167824e+003
6.733712e+002, 1.168964e+003
6.738533e+002, 1.170425e+003
6.743354e+002, 1.170885e+003
6.748176e+002, 1.170395e+003
6.752997e+002, 1.169808e+003
6.757818e+002, 1.169551e+003
6.762639e+002, 1.169347e+003
6.767460e+002, 1.168970e+003
6.772281e+002, 1.168276e+003
6.777103e+002, 1.167952e+003
6.781924e+002, 1.168080e+003
6.786745e+002, 1.168515e+003
6.791566e+002, 1.169141e+003
6.796387e+002, 1.169929e+003
6.801208e+002, 1.171203e+003
6.806030e+002, 1.173231e+003
6.810851e+002, 1.175093e+003
6.815672e+002, 1.175282e+003
6.820493e+002, 1.174223e+003
6.825314e+002, 1.173810e+003
6.830135e+002, 1.174614e+003
6.834957e+002, 1.175925e+003
6.839778e+002, 1.177404e+003
6.844599e+002, 1.178805e+003
6.849420e+002, 1.179620e+003
6.854241e+002, 1.179196e+003
6.859063e+002, 1.178673e+003
6.863884e+002, 1.178369e+003
6.868705e+002, 1.178301e+003
6.873526e+002, 1.178501e+003
6.878347e+002, 1.179189e+003
6.883168e+002, 1.179845e+003
6.887990e+002, 1.180290e+003
6.892811e+002, 1.180595e+003
6.897632e+002, 1.181136e+003
6.902453e+002, 1.181934e+003
6.907274e+002, 1.182870e+003
6.912095e+002, 1.184015e+003
6.916917e+002, 1.185221e+003
6.921738e+002, 1.186071e+003
6.926559e+002, 1.186548e+003
6.931380e+002, 1.186748e+003
6.936201e+002, 1.186365e+003
6.941022e+002, 1.185937e+003
6.945844e+002, 1.186125e+003
6.950665e+002, 1.187143e+003
6.955486e+002, 1.187769e+003
6.960307e+002, 1.186762e+003
6.965128e+002, 1.185708e+003
6.969949e+002, 1.185960e+003
6.974771e+002, 1.188754e+003
6.979592e+002, 1.190232e+003
6.984413e+002, 1.189955e+003
6.989234e+002, 1.188943e+003
6.994055e+002, 1.188314e+003
6.998876e+002, 1.188087e+003
7.003698e+002, 1.188367e+003
7.008519e+002, 1.189394e+003
7.013340e+002, 1.190411e+003
7.018161e+002, 1.189931e+003
7.022982e+002, 1.188601e+003
7.027803e+002, 1.188064e+003
7.032625e+002, 1.189663e+003
7.037446e+002, 1.191374e+003
7.042267e+002, 1.191608e+003
7.047088e+002, 1.190959e+003
7.051909e+002, 1.190734e+003
7.056730e+002, 1.191404e+003
7.061552e+002, 1.192360e+003
7.066373e+002, 1.193345e+003
7.071194e+002, 1.194438e+003
7.076015e+002, 1.196254e+003
7.080836e+002, 1.199182e+003
7.085657e+002, 1.201503e+003
7.090479e+002, 1.202240e+003
7.095300e+002, 1.201824e+003
7.100121e+002, 1.202154e+003
7.104942e+002, 1.203198e+003
7.109763e+002, 1.204337e+003
7.114584e+002, 1.205318e+003
7.119406e+002, 1.206077e+003
7.124227e+002, 1.206320e+003
7.129048e+002, 1.206075e+003
7.133869e+002, 1.206307e+003
7.138690e+002, 1.208807e+003
7.143511e+002, 1.210998e+003
7.148333e+002, 1.210816e+003
7.153154e+002, 1.206703e+003
7.157975e+002, 1.204882e+003
7.162796e+002, 1.206891e+003
7.167617e+002, 1.209383e+003
7.172438e+002, 1.209575e+003
7.177260e+002, 1.207230e+003
7.182081e+002, 1.205219e+003
7.186902e+002, 1.203628e+003
7.191723e+002, 1.202826e+003
7.196544e+002, 1.203881e+003
7.201365e+002, 1.206049e+003
7.206187e+002, 1.207297e+003
7.211008e+002, 1.206844e+003
7.215829e+002, 1.206416e+003
7.220650e+002, 1.207592e+003
7.225471e+002, 1.209470e+003
7.230292e+002, 1.210867e+003
7.235114e+002, 1.210676e+003
7.239935e+002, 1.210855e+003
7.244756e+002, 1.211984e+003
7.249577e+002, 1.213527e+003
7.254398e+002, 1.214627e+003
7.259219e+002, 1.215174e+003
7.264041e+002, 1.215551e+003
7.268862e+002, 1.215882e+003
7.273683e+002, 1.216034e+003
7.278504e+002, 1.215358e+003
7.283325e+002, 1.214038e+003
7.288146e+002, 1.213379e+003
7.292968e+002, 1.214926e+003
7.297789e+002, 1.216615e+003
7.302610e+002, 1.215460e+003
7.307431e+002, 1.212346e+003
7.312252e+002, 1.210211e+003
7.317073e+002, 1.211724e+003
7.321895e+002, 1.213125e+003
7.326716e+002, 1.212401e+003
7.331537e+002, 1.209708e+003
7.336358e+002, 1.208230e+003
7.341179e+002, 1.208693e+003
7.346000e+002, 1.209139e+003
7.350822e+002, 1.208733e+003
7.355643e+002, 1.207576e+003
7.360464e+002, 1.206514e+003
7.365285e+002, 1.205547e+003
7.370106e+002, 1.204802e+003
7.374927e+002, 1.204379e+003
7.379749e+002, 1.204239e+003
7.384570e+002, 1.204493e+003
7.389391e+002, 1.205119e+003
7.394212e+002, 1.205418e+003
7.399033e+002, 1.205049e+003
7.403854e+002, 1.204136e+003
7.408676e+002, 1.202591e+003
7.413497e+002, 1.200091e+003
7.418318e+002, 1.198191e+003
7.423139e+002, 1.196963e+003
7.427960e+002, 1.196313e+003
7.432781e+002, 1.196271e+003
7.437603e+002, 1.196940e+003
7.442424e+002, 1.197506e+003
7.447245e+002, 1.197942e+003
7.452066e+002, 1.198361e+003
7.456887e+002, 1.199086e+003
7.461708e+002, 1.199896e+003
7.466530e+002, 1.200042e+003
7.471351e+002, 1.199246e+003
7.476172e+002, 1.198637e+003
7.480993e+002, 1.199239e+003
7.485814e+002, 1.200413e+003
7.490635e+002, 1.201465e+003
7.495457e+002, 1.202590e+003
7.500278e+002, 1.202999e+003
7.505099e+002, 1.201801e+003
7.509920e+002, 1.200335e+003
7.514741e+002, 1.200301e+003
7.519562e+002, 1.202131e+003
7.524384e+002, 1.203443e+003
7.529205e+002, 1.203834e+003
7.534026e+002, 1.203678e+003
7.538847e+002, 1.203246e+003
7.543668e+002, 1.202702e+003
7.548489e+002, 1.202799e+003
7.553311e+002, 1.204059e+003
7.558132e+002, 1.205464e+003
7.562953e+002, 1.206176e+003
7.567774e+002, 1.206396e+003
7.572595e+002, 1.206464e+003
7.577416e+002, 1.206012e+003
7.582238e+002, 1.206016e+003
7.587059e+002, 1.207708e+003
7.591880e+002, 1.209802e+003
7.596701e+002, 1.209172e+003
7.601522e+002, 1.204543e+003
7.606343e+002, 1.201467e+003
7.611165e+002, 1.201725e+003
7.615986e+002, 1.204007e+003
7.620807e+002, 1.205201e+003
7.625628e+002, 1.205475e+003
7.630449e+002, 1.205776e+003
7.635270e+002, 1.206482e+003
7.640092e+002, 1.207454e+003
7.644913e+002, 1.209109e+003
7.649734e+002, 1.210990e+003
7.654555e+002, 1.211725e+003
7.659376e+002, 1.209328e+003
7.664197e+002, 1.207240e+003
7.669019e+002, 1.206698e+003
7.673840e+002, 1.207456e+003
7.678661e+002, 1.208702e+003
7.683482e+002, 1.210929e+003
7.688303e+002, 1.212098e+003
7.693124e+002, 1.210842e+003
7.697946e+002, 1.208085e+003
7.702767e+002, 1.207053e+003
7.707588e+002, 1.207634e+003
7.712409e+002, 1.208798e+003
7.717230e+002, 1.210410e+003
7.722051e+002, 1.211968e+003
7.726873e+002, 1.213069e+003
7.731694e+002, 1.213697e+003
7.736515e+002, 1.213814e+003
7.741336e+002, 1.212876e+003
7.746157e+002, 1.211953e+003
7.750978e+002, 1.211354e+003
7.755800e+002, 1.211099e+003
7.760621e+002, 1.211897e+003
7.765442e+002, 1.214379e+003
7.770263e+002, 1.216122e+003
7.775084e+002, 1.214856e+003
7.779905e+002, 1.211630e+003
7.784727e+002, 1.212157e+003
7.789548e+002, 1.216205e+003
7.794369e+002, 1.219807e+003
7.799190e+002, 1.219757e+003
7.804011e+002, 1.218103e+003
7.808832e+002, 1.216460e+003
7.813654e+002, 1.214984e+003
7.818475e+002, 1.214299e+003
7.823296e+002, 1.215495e+003
7.828117e+002, 1.216726e+003
7.832938e+002, 1.216913e+003
7.837759e+002, 1.215889e+003
7.842581e+002, 1.215931e+003
7.847402e+002, 1.217348e+003
7.852223e+002, 1.218919e+003
7.857044e+002, 1.220058e+003
7.861865e+002, 1.220697e+003
7.866686e+002, 1.220233e+003
7.871508e+002, 1.218679e+003
7.876329e+002, 1.217389e+003
7.881150e+002, 1.217754e+003
7.885971e+002, 1.218617e+003
7.890792e+002, 1.218754e+003
7.895613e+002, 1.217913e+003
7.900435e+002, 1.217444e+003
7.905256e+002, 1.217675e+003
7.910077e+002, 1.218324e+003
7.914898e+002, 1.219149e+003
7.919719e+002, 1.220011e+003
7.924540e+002, 1.222230e+003
7.929362e+002, 1.226224e+003
7.934183e+002, 1.229603e+003
7.939004e+002, 1.229801e+003
7.943825e+002, 1.227806e+003
7.948646e+002, 1.226244e+003
7.953467e+002, 1.225289e+003
7.958289e+002, 1.224813e+003
7.963110e+002, 1.225127e+003
7.967931e+002, 1.225632e+003
7.972752e+002, 1.225765e+003
7.977573e+002, 1.225313e+003
7.982394e+002, 1.225255e+003
7.987216e+002, 1.226113e+003
7.992037e+002, 1.226983e+003
7.996858e+002, 1.227221e+003
8.001679e+002, 1.226705e+003
8.006500e+002, 1.226707e+003
8.011321e+002, 1.227323e+003
8.016143e+002, 1.227892e+003
8.020964e+002, 1.227454e+003
8.025785e+002, 1.226640e+003
8.030606e+002, 1.226780e+003
8.035427e+002, 1.228072e+003
8.040248e+002, 1.229428e+003
8.045070e+002, 1.230140e+003
8.049891e+002, 1.230691e+003
8.054712e+002, 1.231511e+003
8.059533e+002, 1.232893e+003
8.064354e+002, 1.233609e+003
8.069175e+002, 1.233110e+003
8.073997e+002, 1.232718e+003
8.078818e+002, 1.233753e+003
8.083639e+002, 1.236148e+003
8.088460e+002, 1.237027e+003
8.093281e+002, 1.236179e+003
8.098102e+002, 1.235238e+003
8.102924e+002, 1.235893e+003
8.107745e+002, 1.237272e+003
8.112566e+002, 1.238231e+003
8.117387e+002, 1.238601e+003
8.122208e+002, 1.238742e+003
8.127029e+002, 1.238441e+003
8.131851e+002, 1.238256e+003
8.136672e+002, 1.238640e+003
8.141493e+002, 1.239778e+003
8.146314e+002, 1.240686e+003
8.151135e+002, 1.241281e+003
8.155956e+002, 1.241826e+003
8.160778e+002, 1.242582e+003
8.165599e+002, 1.243466e+003
8.170420e+002, 1.244052e+003
8.175241e+002, 1.244303e+003
8.180062e+002, 1.244509e+003
8.184883e+002, 1.244951e+003
8.189705e+002, 1.245404e+003
8.194526e+002, 1.245484e+003
8.199347e+002, 1.245013e+003
8.204168e+002, 1.245147e+003
8.208989e+002, 1.247073e+003
8.213810e+002, 1.248779e+003
8.218632e+002, 1.249161e+003
8.223453e+002, 1.248066e+003
8.228274e+002, 1.247233e+003
8.233095e+002, 1.246733e+003
8.237916e+002, 1.246280e+003
8.242737e+002, 1.245496e+003
8.247559e+002, 1.244676e+003
8.252380e+002, 1.244298e+003
8.257201e+002, 1.244418e+003
8.262022e+002, 1.245266e+003
8.266843e+002, 1.248807e+003
8.271664e+002, 1.251703e+003
8.276486e+002, 1.250809e+003
8.281307e+002, 1.244902e+003
8.286128e+002, 1.242747e+003
8.290949e+002, 1.246054e+003
8.295770e+002, 1.250151e+003
8.300591e+002, 1.252613e+003
8.305413e+002, 1.253543e+003
8.310234e+002, 1.254353e+003
8.315055e+002, 1.255031e+003
8.319876e+002, 1.255333e+003
8.324697e+002, 1.254848e+003
8.329518e+002, 1.254047e+003
8.334340e+002, 1.253143e+003
8.339161e+002, 1.252233e+003
8.343982e+002, 1.252229e+003
8.348803e+002, 1.254988e+003
8.353624e+002, 1.257180e+003
8.358445e+002, 1.256967e+003
8.363267e+002, 1.254513e+003
8.368088e+002, 1.253843e+003
8.372909e+002, 1.255359e+003
8.377730e+002, 1.256854e+003
8.382551e+002, 1.256666e+003
8.387372e+002, 1.255714e+003
8.392194e+002, 1.256807e+003
8.397015e+002, 1.259534e+003
8.401836e+002, 1.261483e+003
8.406657e+002, 1.260417e+003
8.411478e+002, 1.258896e+003
8.416299e+002, 1.258342e+003
8.421121e+002, 1.258763e+003
8.425942e+002, 1.259645e+003
8.430763e+002, 1.261256e+003
8.435584e+002, 1.262717e+003
8.440405e+002, 1.263690e+003
8.445226e+002, 1.264305e+003
8.450048e+002, 1.265149e+003
8.454869e+002, 1.266189e+003
8.459690e+002, 1.267011e+003
8.464511e+002, 1.267349e+003
8.469332e+002, 1.267410e+003
8.474153e+002, 1.267430e+003
8.478975e+002, 1.267367e+003
8.483796e+002, 1.267087e+003
8.488617e+002, 1.266055e+003
8.493438e+002, 1.265407e+003
8.498259e+002, 1.265596e+003
8.503080e+002, 1.266370e+003
8.507902e+002, 1.267113e+003
8.512723e+002, 1.267827e+003
8.517544e+002, 1.268512e+003
8.522365e+002, 1.269137e+003
8.527186e+002, 1.269792e+003
8.532007e+002, 1.270663e+003
8.536829e+002, 1.271690e+003
8.541650e+002, 1.272702e+003
8.546471e+002, 1.273449e+003
8.551292e+002, 1.274387e+003
8.556113e+002, 1.276172e+003
8.560934e+002, 1.278161e+003
8.565756e+002, 1.279205e+003
8.570577e+002, 1.279068e+003
8.575398e+002, 1.278250e+003
8.580219e+002, 1.276372e+003
8.585040e+002, 1.274474e+003
8.589861e+002, 1.274551e+003
8.594683e+002, 1.276235e+003
8.599504e+002, 1.277510e+003
8.604325e+002, 1.277754e+003
8.609146e+002, 1.277917e+003
8.613967e+002, 1.279035e+003
8.618788e+002, 1.280490e+003
8.623610e+002, 1.281510e+003
8.628431e+002, 1.281515e+003
8.633252e+002, 1.281828e+003
8.638073e+002, 1.283112e+003
8.642894e+002, 1.284202e+003
8.647715e+002, 1.283686e+003
8.652537e+002, 1.281467e+003
8.657358e+002, 1.280086e+003
8.662179e+002, 1.279806e+003
8.667000e+002, 1.279927e+003
8.671821e+002, 1.279755e+003
8.676642e+002, 1.279548e+003
8.681464e+002, 1.279696e+003
8.686285e+002, 1.280301e+003
8.691106e+002, 1.281059e+003
8.695927e+002, 1.282230e+003
8.700748e+002, 1.283196e+003
8.705569e+002, 1.283412e+003
8.710391e+002, 1.282643e+003
8.715212e+002, 1.282579e+003
8.720033e+002, 1.283257e+003
8.724854e+002, 1.284332e+003
8.729675e+002, 1.285595e+003
8.734496e+002, 1.286993e+003
8.739318e+002, 1.288699e+003
8.744139e+002, 1.290596e+003
8.748960e+002, 1.291618e+003
8.753781e+002, 1.290381e+003
8.758602e+002, 1.288717e+003
8.763423e+002, 1.287577e+003
8.768245e+002, 1.287084e+003
8.773066e+002, 1.287331e+003
8.777887e+002, 1.288791e+003
8.782708e+002, 1.290074e+003
8.787529e+002, 1.290738e+003
8.792350e+002, 1.290832e+003
8.797172e+002, 1.290129e+003
8.801993e+002, 1.288815e+003
8.806814e+002, 1.287875e+003
8.811635e+002, 1.287856e+003
8.816456e+002, 1.288414e+003
8.821277e+002, 1.289328e+003
8.826099e+002, 1.290596e+003
8.830920e+002, 1.292255e+003
8.835741e+002, 1.295057e+003
8.840562e+002, 1.297068e+003
8.845383e+002, 1.297676e+003
8.850204e+002, 1.297523e+003
8.855026e+002, 1.298022e+003
8.859847e+002, 1.299111e+003
8.864668e+002, 1.300328e+003
8.869489e+002, 1.301750e+003
8.874310e+002, 1.302708e+003
8.879131e+002, 1.301803e+003
8.883953e+002, 1.300157e+003
8.888774e+002, 1.299501e+003
8.893595e+002, 1.301676e+003
8.898416e+002, 1.302831e+003
8.903237e+002, 1.301933e+003
8.908058e+002, 1.300285e+003
8.912880e+002, 1.299041e+003
8.917701e+002, 1.298189e+003
8.922522e+002, 1.298292e+003
8.927343e+002, 1.299537e+003
8.932164e+002, 1.300847e+003
8.936985e+002, 1.300675e+003
8.941807e+002, 1.300017e+003
8.946628e+002, 1.300618e+003
8.951449e+002, 1.303010e+003
8.956270e+002, 1.304585e+003
8.961091e+002, 1.303409e+003
8.965912e+002, 1.302006e+003
8.970734e+002, 1.302047e+003
8.975555e+002, 1.303729e+003
8.980376e+002, 1.304500e+003
8.985197e+002, 1.304303e+003
8.990018e+002, 1.303639e+003
8.994839e+002, 1.302260e+003
8.999661e+002, 1.300920e+003
9.004482e+002, 1.301362e+003
9.009303e+002, 1.303349e+003
9.014124e+002, 1.305156e+003
9.018945e+002, 1.305527e+003
9.023766e+002, 1.305929e+003
9.028588e+002, 1.307422e+003
9.033409e+002, 1.309604e+003
9.038230e+002, 1.310404e+003
9.043051e+002, 1.309194e+003
9.047872e+002, 1.309154e+003
9.052693e+002, 1.311973e+003
9.057515e+002, 1.315755e+003
9.062336e+002, 1.316268e+003
9.067157e+002, 1.314483e+003
9.071978e+002, 1.313258e+003
9.076799e+002, 1.314292e+003
9.081620e+002, 1.315476e+003
9.086442e+002, 1.315823e+003
9.091263e+002, 1.315746e+003
9.096084e+002, 1.315977e+003
9.100905e+002, 1.316790e+003
9.105726e+002, 1.317207e+003
9.110547e+002, 1.317010e+003
9.115369e+002, 1.316774e+003
9.120190e+002, 1.317549e+003
9.125011e+002, 1.318891e+003
9.129832e+002, 1.319543e+003
9.134653e+002, 1.319273e+003
9.139474e+002, 1.318405e+003
9.144296e+002, 1.315632e+003
9.149117e+002, 1.313351e+003
9.153938e+002, 1.314080e+003
9.158759e+002, 1.319010e+003
9.163580e+002, 1.321975e+003
9.168401e+002, 1.322320e+003
9.173223e+002, 1.322266e+003
9.178044e+002, 1.323830e+003
9.182865e+002, 1.326240e+003
9.187686e+002, 1.326094e+003
9.192507e+002, 1.323690e+003
9.197328e+002, 1.321928e+003
9.202150e+002, 1.323572e+003
9.206971e+002, 1.325604e+003
9.211792e+002, 1.325856e+003
9.216613e+002, 1.324608e+003
9.221434e+002, 1.324514e+003
9.226255e+002, 1.326202e+003
9.231077e+002, 1.327738e+003
9.235898e+002, 1.328536e+003
9.240719e+002, 1.328878e+003
9.245540e+002, 1.329371e+003
9.250361e+002, 1.329986e+003
9.255182e+002, 1.330628e+003
9.260004e+002, 1.331312e+003
9.264825e+002, 1.331870e+003
9.269646e+002, 1.332148e+003
9.274467e+002, 1.332222e+003
9.279288e+002, 1.332170e+003
9.284109e+002, 1.331605e+003
9.288931e+002, 1.331805e+003
9.293752e+002, 1.333140e+003
9.298573e+002, 1.334607e+003
9.303394e+002, 1.335102e+003
9.308215e+002, 1.334793e+003
9.313036e+002, 1.334193e+003
9.317858e+002, 1.333359e+003
9.322679e+002, 1.332557e+003
9.327500e+002, 1.331582e+003
9.332321e+002, 1.331042e+003
9.337142e+002, 1.331784e+003
9.341964e+002, 1.334199e+003
9.346785e+002, 1.334938e+003
9.351606e+002, 1.333400e+003
9.356427e+002, 1.331662e+003
9.361248e+002, 1.330552e+003
9.366069e+002, 1.330152e+003
9.370891e+002, 1.331220e+003
9.375712e+002, 1.333453e+003
9.380533e+002, 1.335294e+003
9.385354e+002, 1.335029e+003
9.390175e+002, 1.334962e+003
9.394996e+002, 1.336720e+003
9.399818e+002, 1.339662e+003
9.404639e+002, 1.341846e+003
9.409460e+002, 1.342800e+003
9.414281e+002, 1.344115e+003
9.419102e+002, 1.346482e+003
9.423923e+002, 1.348457e+003
9.428745e+002, 1.346469e+003
9.433566e+002, 1.342168e+003
9.438387e+002, 1.340797e+003
9.443208e+002, 1.344487e+003
9.448029e+002, 1.348017e+003
9.452850e+002, 1.347588e+003
9.457672e+002, 1.346184e+003
9.462493e+002, 1.346963e+003
9.467314e+002, 1.351162e+003
9.472135e+002, 1.352596e+003
9.476956e+002, 1.350605e+003
9.481777e+002, 1.348149e+003
9.486599e+002, 1.347626e+003
9.491420e+002, 1.348346e+003
9.496241e+002, 1.348601e+003
9.501062e+002, 1.348436e+003
9.505883e+002, 1.348625e+003
9.510704e+002, 1.349941e+003
9.515526e+002, 1.351346e+003
9.520347e+002, 1.352330e+003
9.525168e+002, 1.352951e+003
9.529989e+002, 1.353393e+003
9.534810e+002, 1.353612e+003
9.539631e+002, 1.353798e+003
9.544453e+002, 1.353886e+003
9.549274e+002, 1.354182e+003
9.554095e+002, 1.355566e+003
9.558916e+002, 1.357493e+003
9.563737e+002, 1.358811e+003
9.568558e+002, 1.359076e+003
9.573380e+002, 1.358869e+003
9.578201e+002, 1.358073e+003
9.583022e+002, 1.357133e+003
9.587843e+002, 1.356456e+003
9.592664e+002, 1.356084e+003
9.597485e+002, 1.355569e+003
9.602307e+002, 1.354760e+003
9.607128e+002, 1.354846e+003
9.611949e+002, 1.357801e+003
9.616770e+002, 1.361844e+003
9.621591e+002, 1.364606e+003
9.626412e+002, 1.365942e+003
9.631234e+002, 1.366244e+003
9.636055e+002, 1.363904e+003
9.640876e+002, 1.362522e+003
9.645697e+002, 1.363763e+003
9.650518e+002, 1.366870e+003
9.655339e+002, 1.368509e+003
9.660161e+002, 1.368670e+003
9.664982e+002, 1.368707e+003
9.669803e+002, 1.368952e+003
9.674624e+002, 1.369577e+003
9.679445e+002, 1.371432e+003
9.684266e+002, 1.373629e+003
9.689088e+002, 1.374665e+003
9.693909e+002, 1.373219e+003
9.698730e+002, 1.371811e+003
9.703551e+002, 1.370095e+003
9.708372e+002, 1.369147e+003
9.713193e+002, 1.370824e+003
9.718015e+002, 1.374690e+003
9.722836e+002, 1.376211e+003
9.727657e+002, 1.374989e+003
9.732478e+002, 1.373636e+003
9.737299e+002, 1.374521e+003
9.742120e+002, 1.375913e+003
9.746942e+002, 1.376262e+003
9.751763e+002, 1.375443e+003
9.756584e+002, 1.375062e+003
9.761405e+002, 1.375213e+003
9.766226e+002, 1.375751e+003
9.771047e+002, 1.376750e+003
9.775869e+002, 1.377971e+003
9.780690e+002, 1.378507e+003
9.785511e+002, 1.378614e+003
9.790332e+002, 1.379352e+003
9.795153e+002, 1.381920e+003
9.799974e+002, 1.384077e+003
9.804796e+002, 1.384378e+003
9.809617e+002, 1.383633e+003
9.814438e+002, 1.382947e+003
9.819259e+002, 1.382172e+003
9.824080e+002, 1.382208e+003
9.828901e+002, 1.383364e+003
9.833723e+002, 1.384362e+003
9.838544e+002, 1.383285e+003
9.843365e+002, 1.381381e+003
9.848186e+002, 1.381124e+003
9.853007e+002, 1.382701e+003
9.857828e+002, 1.384539e+003
9.862650e+002, 1.386714e+003
9.867471e+002, 1.388158e+003
9.872292e+002, 1.387947e+003
9.877113e+002, 1.386611e+003
9.881934e+002, 1.387424e+003
9.886755e+002, 1.390506e+003
9.891577e+002, 1.392463e+003
9.896398e+002, 1.391398e+003
9.901219e+002, 1.389532e+003
9.906040e+002, 1.389671e+003
9.910861e+002, 1.390830e+003
9.915682e+002, 1.391341e+003
9.920504e+002, 1.389761e+003
9.925325e+002, 1.389027e+003
9.930146e+002, 1.389633e+003
9.934967e+002, 1.390758e+003
9.939788e+002, 1.391726e+003
9.944609e+002, 1.392556e+003
9.949431e+002, 1.393500e+003
9.954252e+002, 1.394577e+003
9.959073e+002, 1.395036e+003
9.963894e+002, 1.393700e+003
9.968715e+002, 1.392088e+003
9.973536e+002, 1.391416e+003
9.978358e+002, 1.391670e+003
9.983179e+002, 1.391526e+003
9.988000e+002, 1.390711e+003
9.992821e+002, 1.390114e+003
9.997642e+002, 1.389856e+003
1.000246e+003, 1.390159e+003
1.000728e+003, 1.391957e+003
1.001211e+003, 1.394647e+003
1.001693e+003, 1.396589e+003
1.002175e+003, 1.397066e+003
1.002657e+003, 1.397252e+003
1.003139e+003, 1.397641e+003
1.003621e+003, 1.397963e+003
1.004103e+003, 1.397915e+003
1.004585e+003, 1.397370e+003
1.005068e+003, 1.397053e+003
1.005550e+003, 1.396907e+003
1.006032e+003, 1.397402e+003
1.006514e+003, 1.399829e+003
1.006996e+003, 1.402467e+003
1.007478e+003, 1.402892e+003
1.007960e+003, 1.401386e+003
1.008442e+003, 1.400110e+003
1.008924e+003, 1.399423e+003
1.009407e+003, 1.399393e+003
1.009889e+003, 1.400467e+003
1.010371e+003, 1.401792e+003
1.010853e+003, 1.401260e+003
1.011335e+003, 1.399212e+003
1.011817e+003, 1.397882e+003
1.012299e+003, 1.397844e+003
1.012781e+003, 1.398436e+003
1.013263e+003, 1.400033e+003
1.013746e+003, 1.401527e+003
1.014228e+003, 1.401654e+003
1.014710e+003, 1.400022e+003
1.015192e+003, 1.398980e+003
1.015674e+003, 1.398528e+003
1.016156e+003, 1.398776e+003
1.016638e+003, 1.400095e+003
1.017120e+003, 1.401997e+003
1.017603e+003, 1.403498e+003
1.018085e+003, 1.404642e+003
1.018567e+003, 1.405580e+003
1.019049e+003, 1.405696e+003
1.019531e+003, 1.406385e+003
1.020013e+003, 1.408592e+003
1.020495e+003, 1.411160e+003
1.020977e+003, 1.412278e+003
1.021459e+003, 1.411881e+003
1.021942e+003, 1.411808e+003
1.022424e+003, 1.412322e+003
1.022906e+003, 1.412836e+003
1.023388e+003, 1.412664e+003
1.023870e+003, 1.412341e+003
1.024352e+003, 1.412600e+003
1.024834e+003, 1.413614e+003
1.025316e+003, 1.413826e+003
1.025799e+003, 1.412835e+003
1.026281e+003, 1.411799e+003
1.026763e+003, 1.411111e+003
1.027245e+003, 1.410789e+003
1.027727e+003, 1.410680e+003
1.028209e+003, 1.410918e+003
1.028691e+003, 1.411975e+003
1.029173e+003, 1.414731e+003
1.029656e+003, 1.417230e+003
1.030138e+003, 1.418399e+003
1.030620e+003, 1.418896e+003
1.031102e+003, 1.419483e+003
1.031584e+003, 1.420248e+003
1.032066e+003, 1.420314e+003
1.032548e+003, 1.419561e+003
1.033030e+003, 1.418918e+003
1.033512e+003, 1.419011e+003
1.033995e+003, 1.419726e+003
1.034477e+003, 1.421082e+003
1.034959e+003, 1.422979e+003
1.035441e+003, 1.424961e+003
1.035923e+003, 1.427797e+003
1.036405e+003, 1.429307e+003
1.036887e+003, 1.428721e+003
1.037369e+003, 1.427002e+003
1.037851e+003, 1.425883e+003
1.038334e+003, 1.425272e+003
1.038816e+003, 1.424672e+003
1.039298e+003, 1.423921e+003
1.039780e+003, 1.423467e+003
1.040262e+003, 1.423920e+003
1.040744e+003, 1.424542e+003
1.041226e+003, 1.424701e+003
1.041708e+003, 1.424362e+003
1.042191e+003, 1.424476e+003
1.042673e+003, 1.425174e+003
1.043155e+003, 1.425210e+003
1.043637e+003, 1.423045e+003
1.044119e+003, 1.420584e+003
1.044601e+003, 1.420378e+003
1.045083e+003, 1.421950e+003
1.045565e+003, 1.424201e+003
1.046047e+003, 1.428451e+003
1.046530e+003, 1.430788e+003
1.047012e+003, 1.429931e+003
1.047494e+003, 1.428504e+003
1.047976e+003, 1.430169e+003
1.048458e+003, 1.433977e+003
1.048940e+003, 1.434661e+003
1.049422e+003, 1.431928e+003
1.049904e+003, 1.429815e+003
1.050386e+003, 1.431509e+003
1.050869e+003, 1.433975e+003
1.051351e+003, 1.435436e+003
1.051833e+003, 1.436083e+003
1.052315e+003, 1.436816e+003
1.052797e+003, 1.437627e+003
1.053279e+003, 1.438625e+003
1.053761e+003, 1.440026e+003
1.054243e+003, 1.441159e+003
1.054726e+003, 1.440620e+003
1.055208e+003, 1.439525e+003
1.055690e+003, 1.439459e+003
1.056172e+003, 1.440992e+003
1.056654e+003, 1.442955e+003
1.057136e+003, 1.445892e+003
1.057618e+003, 1.448036e+003
1.058100e+003, 1.447998e+003
1.058583e+003, 1.446381e+003
1.059065e+003, 1.445590e+003
1.059547e+003, 1.445427e+003
1.060029e+003, 1.444958e+003
1.060511e+003, 1.442504e+003
1.060993e+003, 1.441051e+003
1.061475e+003, 1.442483e+003
1.061957e+003, 1.445373e+003
1.062439e+003, 1.448177e+003
1.062922e+003, 1.451122e+003
1.063404e+003, 1.451563e+003
1.063886e+003, 1.449057e+003
1.064368e+003, 1.446379e+003
1.064850e+003, 1.446040e+003
1.065332e+003, 1.446715e+003
1.065814e+003, 1.447214e+003
1.066296e+003, 1.447443e+003
1.066778e+003, 1.447555e+003
1.067261e+003, 1.447231e+003
1.067743e+003, 1.447539e+003
1.068225e+003, 1.448931e+003
1.068707e+003, 1.450760e+003
1.069189e+003, 1.451980e+003
1.069671e+003, 1.452649e+003
1.070153e+003, 1.452828e+003
1.070635e+003, 1.452399e+003
1.071118e+003, 1.451952e+003
1.071600e+003, 1.451888e+003
1.072082e+003, 1.451722e+003
1.072564e+003, 1.451065e+003
1.073046e+003, 1.450016e+003
1.073528e+003, 1.449552e+003
1.074010e+003, 1.449690e+003
1.074492e+003, 1.450403e+003
1.074974e+003, 1.452535e+003
1.075457e+003, 1.454293e+003
1.075939e+003, 1.453836e+003
1.076421e+003, 1.452280e+003
1.076903e+003, 1.451526e+003
1.077385e+003, 1.451890e+003
1.077867e+003, 1.452238e+003
1.078349e+003, 1.452389e+003
1.078831e+003, 1.453021e+003
1.079313e+003, 1.455446e+003
1.079796e+003, 1.458357e+003
1.080278e+003, 1.459672e+003
1.080760e+003, 1.459474e+003
1.081242e+003, 1.459115e+003
1.081724e+003, 1.458701e+003
1.082206e+003, 1.458562e+003
1.082688e+003, 1.458763e+003
1.083170e+003, 1.459295e+003
1.083652e+003, 1.460639e+003
1.084135e+003, 1.462366e+003
1.084617e+003, 1.462436e+003
1.085099e+003, 1.460207e+003
1.085581e+003, 1.458461e+003
1.086063e+003, 1.459151e+003
1.086545e+003, 1.460605e+003
1.087027e+003, 1.461837e+003
1.087509e+003, 1.462856e+003
1.087992e+003, 1.464153e+003
1.088474e+003, 1.465749e+003
1.088956e+003, 1.466105e+003
1.089438e+003, 1.463774e+003
1.089920e+003, 1.461385e+003
1.090402e+003, 1.461529e+003
1.090884e+003, 1.463199e+003
1.091366e+003, 1.465158e+003
1.091849e+003, 1.467780e+003
1.092331e+003, 1.469051e+003
1.092813e+003, 1.468626e+003
1.093295e+003, 1.468013e+003
1.093777e+003, 1.468248e+003
1.094259e+003, 1.469066e+003
1.094741e+003, 1.470258e+003
1.095223e+003, 1.471622e+003
1.095705e+003, 1.472509e+003
1.096188e+003, 1.471340e+003
1.096670e+003, 1.471614e+003
1.097152e+003, 1.474685e+003
1.097634e+003, 1.478255e+003
1.098116e+003, 1.478836e+003
1.098598e+003, 1.477231e+003
1.099080e+003, 1.477653e+003
1.099562e+003, 1.480448e+003
1.100044e+003, 1.482534e+003
1.100527e+003, 1.481387e+003
1.101009e+003, 1.479650e+003
1.101491e+003, 1.478458e+003
1.101973e+003, 1.477910e+003
1.102455e+003, 1.478785e+003
1.102937e+003, 1.481133e+003
1.103419e+003, 1.481801e+003
1.103901e+003, 1.479520e+003
1.104384e+003, 1.477400e+003
1.104866e+003, 1.478927e+003
1.105348e+003, 1.481836e+003
1.105830e+003, 1.484103e+003
1.106312e+003, 1.485522e+003
1.106794e+003, 1.485589e+003
1.107276e+003, 1.483944e+003
1.107758e+003, 1.482271e+003
1.108240e+003, 1.481010e+003
1.108723e+003, 1.480522e+003
1.109205e+003, 1.481950e+003
1.109687e+003, 1.484408e+003
1.110169e+003, 1.486155e+003
1.110651e+003, 1.485724e+003
1.111133e+003, 1.486520e+003
1.111615e+003, 1.489496e+003
1.112097e+003, 1.492384e+003
1.112579e+003, 1.493142e+003
1.113062e+003, 1.492413e+003
1.113544e+003, 1.492486e+003
1.114026e+003, 1.493223e+003
1.114508e+003, 1.493875e+003
1.114990e+003, 1.494753e+003
1.115472e+003, 1.494583e+003
1.115954e+003, 1.491923e+003
1.116436e+003, 1.488947e+003
1.116919e+003, 1.488737e+003
1.117401e+003, 1.491096e+003
1.117883e+003, 1.493233e+003
1.118365e+003, 1.494921e+003
1.118847e+003, 1.495924e+003
1.119329e+003, 1.495666e+003
1.119811e+003, 1.495066e+003
1.120293e+003, 1.494592e+003
1.120776e+003, 1.494283e+003
1.121258e+003, 1.494120e+003
1.121740e+003, 1.494048e+003
1.122222e+003, 1.494647e+003
1.122704e+003, 1.496161e+003
1.123186e+003, 1.497720e+003
1.123668e+003, 1.498374e+003
1.124150e+003, 1.498636e+003
1.124632e+003, 1.499262e+003
1.125115e+003, 1.500402e+003
1.125597e+003, 1.499918e+003
1.126079e+003, 1.496874e+003
1.126561e+003, 1.495433e+003
1.127043e+003, 1.497893e+003
1.127525e+003, 1.501684e+003
1.128007e+003, 1.502579e+003
1.128489e+003, 1.501804e+003
1.128971e+003, 1.501490e+003
1.129454e+003, 1.502644e+003
1.129936e+003, 1.503000e+003
1.130418e+003, 1.502209e+003
1.130900e+003, 1.500970e+003
1.131382e+003, 1.499071e+003
1.131864e+003, 1.497304e+003
1.132346e+003, 1.498699e+003
1.132828e+003, 1.502356e+003
1.133311e+003, 1.505323e+003
1.133793e+003, 1.505506e+003
1.134275e+003, 1.505875e+003
1.134757e+003, 1.507339e+003
1.135239e+003, 1.508936e+003
1.135721e+003, 1.509565e+003
1.136203e+003, 1.509375e+003
1.136685e+003, 1.510050e+003
1.137167e+003, 1.511534e+003
1.137650e+003, 1.512912e+003
1.138132e+003, 1.513636e+003
1.138614e+003, 1.514103e+003
1.139096e+003, 1.514647e+003
1.139578e+003, 1.515004e+003
1.140060e+003, 1.514450e+003
1.140542e+003, 1.512961e+003
1.141024e+003, 1.512839e+003
1.141506e+003, 1.514427e+003
1.141989e+003, 1.515873e+003
1.142471e+003, 1.515584e+003
1.142953e+003, 1.514734e+003
1.143435e+003, 1.513908e+003
1.143917e+003, 1.513313e+003
1.144399e+003, 1.513633e+003
1.144881e+003, 1.515024e+003
1.145363e+003, 1.516332e+003
1.145846e+003, 1.517331e+003
1.146328e+003, 1.517913e+003
1.146810e+003, 1.517405e+003
1.147292e+003, 1.516726e+003
1.147774e+003, 1.516739e+003
1.148256e+003, 1.517584e+003
1.148738e+003, 1.519555e+003
1.149220e+003, 1.523348e+003
1.149703e+003, 1.525528e+003
1.150185e+003, 1.524371e+003
1.150667e+003, 1.522050e+003
1.151149e+003, 1.521509e+003
1.151631e+003, 1.522111e+003
1.152113e+003, 1.522845e+003
1.152595e+003, 1.523439e+003
1.153077e+003, 1.524638e+003
1.153559e+003, 1.527240e+003
1.154042e+003, 1.528617e+003
1.154524e+003, 1.526487e+003
1.155006e+003, 1.523000e+003
1.155488e+003, 1.523621e+003
1.155970e+003, 1.526729e+003
1.156452e+003, 1.528320e+003
1.156934e+003, 1.525860e+003
1.157416e+003, 1.524065e+003
1.157898e+003, 1.523351e+003
1.158381e+003, 1.523676e+003
1.158863e+003, 1.525840e+003
1.159345e+003, 1.528990e+003
1.159827e+003, 1.529115e+003
1.160309e+003, 1.526930e+003
1.160791e+003, 1.525326e+003
1.161273e+003, 1.524745e+003
1.161755e+003, 1.526242e+003
1.162238e+003, 1.531650e+003
1.162720e+003, 1.537340e+003
1.163202e+003, 1.539137e+003
1.163684e+003, 1.537611e+003
1.164166e+003, 1.536243e+003
1.164648e+003, 1.535249e+003
1.165130e+003, 1.535112e+003
1.165612e+003, 1.537190e+003
1.166094e+003, 1.538938e+003
1.166577e+003, 1.539234e+003
1.167059e+003, 1.538604e+003
1.167541e+003, 1.537533e+003
1.168023e+003, 1.536113e+003
1.168505e+003, 1.535616e+003
1.168987e+003, 1.536187e+003
1.169469e+003, 1.536698e+003
1.169951e+003, 1.535625e+003
1.170433e+003, 1.535001e+003
1.170916e+003, 1.536736e+003
1.171398e+003, 1.539683e+003
1.171880e+003, 1.540944e+003
1.172362e+003, 1.540541e+003
1.172844e+003, 1.539930e+003
1.173326e+003, 1.539237e+003
1.173808e+003, 1.539401e+003
1.174290e+003, 1.542293e+003
1.174773e+003, 1.545423e+003
1.175255e+003, 1.546291e+003
1.175737e+003, 1.545489e+003
1.176219e+003, 1.546538e+003
1.176701e+003, 1.549571e+003
1.177183e+003, 1.551972e+003
1.177665e+003, 1.553171e+003
1.178147e+003, 1.553130e+003
1.178630e+003, 1.550912e+003
1.179112e+003, 1.548099e+003
1.179594e+003, 1.545761e+003
1.180076e+003, 1.543999e+003
1.180558e+003, 1.545679e+003
1.181040e+003, 1.551389e+003
1.181522e+003, 1.554828e+003
1.182004e+003, 1.552643e+003
1.182486e+003, 1.549281e+003
1.182969e+003, 1.549610e+003
1.183451e+003, 1.551484e+003
1.183933e+003, 1.552099e+003
1.184415e+003, 1.550739e+003
1.184897e+003, 1.551149e+003
1.185379e+003, 1.553632e+003
1.185861e+003, 1.555853e+003
1.186343e+003, 1.556391e+003
1.186825e+003, 1.556332e+003
1.187308e+003, 1.557093e+003
1.187790e+003, 1.558080e+003
1.188272e+003, 1.558284e+003
1.188754e+003, 1.557199e+003
1.189236e+003, 1.556507e+003
1.189718e+003, 1.556286e+003
1.190200e+003, 1.556149e+003
1.190682e+003, 1.555855e+003
1.191165e+003, 1.555527e+003
1.191647e+003, 1.555095e+003
1.192129e+003, 1.554813e+003
1.192611e+003, 1.555268e+003
1.193093e+003, 1.557357e+003
1.193575e+003, 1.558300e+003
1.194057e+003, 1.557847e+003
1.194539e+003, 1.557156e+003
1.195021e+003, 1.557038e+003
1.195504e+003, 1.557279e+003
1.195986e+003, 1.557752e+003
1.196468e+003, 1.558320e+003
1.196950e+003, 1.558580e+003
1.197432e+003, 1.558017e+003
1.197914e+003, 1.558041e+003
1.198396e+003, 1.558686e+003
1.198878e+003, 1.560058e+003
1.199360e+003, 1.563105e+003
1.199843e+003, 1.566398e+003
1.200325e+003, 1.567725e+003
1.200807e+003, 1.567387e+003
1.201289e+003, 1.566817e+003
1.201771e+003, 1.566180e+003
1.202253e+003, 1.565548e+003
1.202735e+003, 1.564794e+003
1.203217e+003, 1.564597e+003
1.203700e+003, 1.566043e+003
1.204182e+003, 1.568329e+003
1.204664e+003, 1.570606e+003
1.205146e+003, 1.572683e+003
1.205628e+003, 1.573877e+003
1.206110e+003, 1.573591e+003
1.206592e+003, 1.573478e+003
1.207074e+003, 1.573750e+003
1.207557e+003, 1.574270e+003
1.208039e+003, 1.574811e+003
1.208521e+003, 1.575487e+003
1.209003e+003, 1.576721e+003
1.209485e+003, 1.578453e+003
1.209967e+003, 1.579328e+003
1.210449e+003, 1.578734e+003
1.210931e+003, 1.578464e+003
1.211413e+003, 1.578981e+003
1.211896e+003, 1.579750e+003
1.212378e+003, 1.579995e+003
1.212860e+003, 1.580088e+003
1.213342e+003, 1.580737e+003
1.213824e+003, 1.582037e+003
1.214306e+003, 1.582626e+003
1.214788e+003, 1.582103e+003
1.215270e+003, 1.581717e+003
1.215752e+003, 1.581775e+003
1.216235e+003, 1.582213e+003
1.216717e+003, 1.583640e+003
1.217199e+003, 1.585051e+003
1.217681e+003, 1.584691e+003
1.218163e+003, 1.582166e+003
1.218645e+003, 1.580398e+003
1.219127e+003, 1.579614e+003
1.219609e+003, 1.579505e+003
1.220092e+003, 1.580018e+003
1.220574e+003, 1.581049e+003
1.221056e+003, 1.583315e+003
1.221538e+003, 1.585555e+003
1.222020e+003, 1.585403e+003
1.222502e+003, 1.581932e+003
1.222984e+003, 1.581011e+003
1.223466e+003, 1.583472e+003
1.223948e+003, 1.586360e+003
1.224431e+003, 1.588802e+003
1.224913e+003, 1.590675e+003
1.225395e+003, 1.591684e+003
1.225877e+003, 1.592061e+003
1.226359e+003, 1.592050e+003
1.226841e+003, 1.591558e+003
1.227323e+003, 1.591453e+003
1.227805e+003, 1.591906e+003
1.228287e+003, 1.592019e+003
1.228770e+003, 1.591178e+003
1.229252e+003, 1.590258e+003
1.229734e+003, 1.590648e+003
1.230216e+003, 1.591621e+003
1.230698e+003, 1.592268e+003
1.231180e+003, 1.592490e+003
1.231662e+003, 1.591943e+003
1.232144e+003, 1.590434e+003
1.232627e+003, 1.589329e+003
1.233109e+003, 1.589484e+003
1.233591e+003, 1.589981e+003
1.234073e+003, 1.589764e+003
1.234555e+003, 1.589206e+003
1.235037e+003, 1.588822e+003
1.235519e+003, 1.588739e+003
1.236001e+003, 1.588379e+003
1.236484e+003, 1.587654e+003
1.236966e+003, 1.587714e+003
1.237448e+003, 1.589699e+003
1.237930e+003, 1.591851e+003
1.238412e+003, 1.592093e+003
1.238894e+003, 1.591556e+003
1.239376e+003, 1.591828e+003
1.239858e+003, 1.593094e+003
1.240340e+003, 1.593767e+003
1.240823e+003, 1.593745e+003
1.241305e+003, 1.594563e+003
1.241787e+003, 1.597783e+003
1.242269e+003, 1.601012e+003
1.242751e+003, 1.601825e+003
1.243233e+003, 1.601611e+003
1.243715e+003, 1.602272e+003
1.244197e+003, 1.604047e+003
1.244679e+003, 1.604121e+003
1.245162e+003, 1.602554e+003
1.245644e+003, 1.601931e+003
1.246126e+003, 1.604924e+003
1.246608e+003, 1.607678e+003
1.247090e+003, 1.607483e+003
1.247572e+003, 1.605729e+003
1.248054e+003, 1.603844e+003
1.248536e+003, 1.601772e+003
1.249019e+003, 1.601943e+003
1.249501e+003, 1.604162e+003
1.249983e+003, 1.606107e+003
1.250465e+003, 1.605637e+003
1.250947e+003, 1.605640e+003
1.251429e+003, 1.608324e+003
1.251911e+003, 1.611601e+003
1.252393e+003, 1.613611e+003
1.252875e+003, 1.614361e+003
1.253358e+003, 1.614221e+003
1.253840e+003, 1.613358e+003
1.254322e+003, 1.613071e+003
1.254804e+003, 1.614690e+003
1.255286e+003, 1.616085e+003
1.255768e+003, 1.616483e+003
1.256250e+003, 1.616380e+003
1.256732e+003, 1.615818e+003
1.257214e+003, 1.615048e+003
1.257697e+003, 1.615941e+003
1.258179e+003, 1.618151e+003
1.258661e+003, 1.619961e+003
1.259143e+003, 1.620461e+003
1.259625e+003, 1.620737e+003
1.260107e+003, 1.620934e+003
1.260589e+003, 1.621176e+003
1.261071e+003, 1.621494e+003
1.261554e+003, 1.621950e+003
1.262036e+003, 1.622968e+003
1.262518e+003, 1.624294e+003
1.263000e+003, 1.625118e+003
1.263482e+003, 1.624116e+003
1.263964e+003, 1.624260e+003
1.264446e+003, 1.626313e+003
1.264928e+003, 1.628221e+003
1.265411e+003, 1.627967e+003
1.265893e+003, 1.626529e+003
1.266375e+003, 1.625434e+003
1.266857e+003, 1.624789e+003
1.267339e+003, 1.624828e+003
1.267821e+003, 1.625905e+003
1.268303e+003, 1.627387e+003
1.268785e+003, 1.629471e+003
1.269267e+003, 1.631327e+003
1.269750e+003, 1.632223e+003
1.270232e+003, 1.632573e+003
1.270714e+003, 1.632846e+003
1.271196e+003, 1.633009e+003
1.271678e+003, 1.632933e+003
1.272160e+003, 1.632580e+003
1.272642e+003, 1.631754e+003
1.273124e+003, 1.630231e+003
1.273606e+003, 1.629946e+003
1.274089e+003, 1.633808e+003
1.274571e+003, 1.638014e+003
1.275053e+003, 1.638635e+003
1.275535e+003, 1.637368e+003
1.276017e+003, 1.637404e+003
1.276499e+003, 1.639067e+003
1.276981e+003, 1.640296e+003
1.277463e+003, 1.641059e+003
1.277946e+003, 1.641722e+003
1.278428e+003, 1.642974e+003
1.278910e+003, 1.643742e+003
1.279392e+003, 1.643060e+003
1.279874e+003, 1.641743e+003
1.280356e+003, 1.640491e+003
1.280838e+003, 1.639361e+003
1.281320e+003, 1.639857e+003
1.281802e+003, 1.641776e+003
1.282285e+003, 1.643197e+003
1.282767e+003, 1.642081e+003
1.283249e+003, 1.641592e+003
1.283731e+003, 1.643648e+003
1.284213e+003, 1.645899e+003
1.284695e+003, 1.645734e+003
1.285177e+003, 1.643937e+003
1.285659e+003, 1.644753e+003
1.286141e+003, 1.647552e+003
1.286624e+003, 1.649650e+003
1.287106e+003, 1.648812e+003
1.287588e+003, 1.648865e+003
1.288070e+003, 1.650674e+003
1.288552e+003, 1.652638e+003
1.289034e+003, 1.653354e+003
1.289516e+003, 1.653304e+003
1.289998e+003, 1.653345e+003
1.290481e+003, 1.653558e+003
1.290963e+003, 1.654132e+003
1.291445e+003, 1.655308e+003
1.291927e+003, 1.656578e+003
1.292409e+003, 1.657963e+003
1.292891e+003, 1.659376e+003
1.293373e+003, 1.661040e+003
1.293855e+003, 1.662479e+003
1.294338e+003, 1.662946e+003
1.294820e+003, 1.662781e+003
1.295302e+003, 1.662569e+003
1.295784e+003, 1.662242e+003
1.296266e+003, 1.662324e+003
1.296748e+003, 1.662818e+003
1.297230e+003, 1.663674e+003
1.297712e+003, 1.665630e+003
1.298194e+003, 1.667006e+003
1.298677e+003, 1.665361e+003
1.299159e+003, 1.663036e+003
1.299641e+003, 1.663086e+003
1.300123e+003, 1.665583e+003
1.300605e+003, 1.665883e+003
1.301087e+003, 1.664214e+003
1.301569e+003, 1.662722e+003
1.302051e+003, 1.662812e+003
1.302533e+003, 1.662391e+003
1.303016e+003, 1.660707e+003
##END=



