##NAMES=Eucairite
##RRUFFID=R060639
##IDEAL CHEMISTRY=CuAgSe
##LOCALITY=Mina Santa Brigida, Sierra de Famatina, La Rioja, Argentina
##OWNER=RRUFF
##SOURCE=Michael Scott
##DESCRIPTION=Black metallic coarsely crystalline massive
##STATUS=The identification of this mineral has been confirmed by X-ray diffraction and chemical analysis
##URL=rruff.info/R060639
##MEASURED CHEMISTRY=Cu_1.00_Ag_1.00_Se_1.00_
9.059570e+001, 7.914987e+002
9.107782e+001, 7.914631e+002
9.155994e+001, 7.914893e+002
9.204205e+001, 7.919075e+002
9.252417e+001, 7.921483e+002
9.300629e+001, 7.916224e+002
9.348840e+001, 7.863041e+002
9.397052e+001, 7.722851e+002
9.445264e+001, 7.500062e+002
9.493475e+001, 7.319493e+002
9.541687e+001, 7.129666e+002
9.589898e+001, 6.927150e+002
9.638110e+001, 6.726243e+002
9.686321e+001, 6.537219e+002
9.734533e+001, 6.359175e+002
9.782745e+001, 6.181160e+002
9.830956e+001, 6.029299e+002
9.879168e+001, 5.910046e+002
9.927380e+001, 5.801113e+002
9.975591e+001, 5.696838e+002
1.002380e+002, 5.596385e+002
1.007201e+002, 5.500370e+002
1.012023e+002, 5.407521e+002
1.016844e+002, 5.319710e+002
1.021665e+002, 5.240895e+002
1.026486e+002, 5.176307e+002
1.031307e+002, 5.115695e+002
1.036128e+002, 5.046538e+002
1.040950e+002, 4.964908e+002
1.045771e+002, 4.891547e+002
1.050592e+002, 4.843616e+002
1.055413e+002, 4.810826e+002
1.060234e+002, 4.780236e+002
1.065055e+002, 4.744442e+002
1.069877e+002, 4.705734e+002
1.074698e+002, 4.675714e+002
1.079519e+002, 4.669768e+002
1.084340e+002, 4.652098e+002
1.089161e+002, 4.606777e+002
1.093982e+002, 4.538326e+002
1.098804e+002, 4.458913e+002
1.103625e+002, 4.375184e+002
1.108446e+002, 4.283382e+002
1.113267e+002, 4.209109e+002
1.118088e+002, 4.158130e+002
1.122909e+002, 4.117698e+002
1.127731e+002, 4.084729e+002
1.132552e+002, 4.057607e+002
1.137373e+002, 4.033923e+002
1.142194e+002, 4.010405e+002
1.147015e+002, 3.984209e+002
1.151836e+002, 3.963765e+002
1.156658e+002, 3.959323e+002
1.161479e+002, 3.955763e+002
1.166300e+002, 3.935610e+002
1.171121e+002, 3.891866e+002
1.175942e+002, 3.835944e+002
1.180763e+002, 3.796049e+002
1.185584e+002, 3.779375e+002
1.190406e+002, 3.759574e+002
1.195227e+002, 3.724761e+002
1.200048e+002, 3.680314e+002
1.204869e+002, 3.640625e+002
1.209690e+002, 3.612148e+002
1.214511e+002, 3.593314e+002
1.219333e+002, 3.577309e+002
1.224154e+002, 3.563243e+002
1.228975e+002, 3.553374e+002
1.233796e+002, 3.555435e+002
1.238617e+002, 3.572201e+002
1.243438e+002, 3.577202e+002
1.248260e+002, 3.547320e+002
1.253081e+002, 3.502459e+002
1.257902e+002, 3.457686e+002
1.262723e+002, 3.417173e+002
1.267544e+002, 3.381288e+002
1.272365e+002, 3.351270e+002
1.277187e+002, 3.326944e+002
1.282008e+002, 3.309887e+002
1.286829e+002, 3.304572e+002
1.291650e+002, 3.304560e+002
1.296471e+002, 3.301533e+002
1.301292e+002, 3.290155e+002
1.306114e+002, 3.270901e+002
1.310935e+002, 3.250507e+002
1.315756e+002, 3.228166e+002
1.320577e+002, 3.205278e+002
1.325398e+002, 3.183536e+002
1.330219e+002, 3.161730e+002
1.335041e+002, 3.136640e+002
1.339862e+002, 3.104359e+002
1.344683e+002, 3.062170e+002
1.349504e+002, 3.031542e+002
1.354325e+002, 3.016308e+002
1.359146e+002, 3.006902e+002
1.363968e+002, 2.999407e+002
1.368789e+002, 2.992871e+002
1.373610e+002, 2.986710e+002
1.378431e+002, 2.980340e+002
1.383252e+002, 2.973627e+002
1.388073e+002, 2.967279e+002
1.392895e+002, 2.963736e+002
1.397716e+002, 2.959625e+002
1.402537e+002, 2.951261e+002
1.407358e+002, 2.937957e+002
1.412179e+002, 2.919979e+002
1.417000e+002, 2.895696e+002
1.421821e+002, 2.865779e+002
1.426643e+002, 2.836460e+002
1.431464e+002, 2.808826e+002
1.436285e+002, 2.783512e+002
1.441106e+002, 2.762891e+002
1.445927e+002, 2.749156e+002
1.450748e+002, 2.738924e+002
1.455570e+002, 2.729393e+002
1.460391e+002, 2.720491e+002
1.465212e+002, 2.710839e+002
1.470033e+002, 2.698791e+002
1.474854e+002, 2.684015e+002
1.479675e+002, 2.669895e+002
1.484497e+002, 2.658350e+002
1.489318e+002, 2.646698e+002
1.494139e+002, 2.632805e+002
1.498960e+002, 2.616427e+002
1.503781e+002, 2.599691e+002
1.508602e+002, 2.586312e+002
1.513424e+002, 2.578514e+002
1.518245e+002, 2.568990e+002
1.523066e+002, 2.555459e+002
1.527887e+002, 2.541133e+002
1.532708e+002, 2.528391e+002
1.537529e+002, 2.518200e+002
1.542351e+002, 2.509828e+002
1.547172e+002, 2.501482e+002
1.551993e+002, 2.492044e+002
1.556814e+002, 2.484183e+002
1.561635e+002, 2.481282e+002
1.566456e+002, 2.479064e+002
1.571278e+002, 2.471902e+002
1.576099e+002, 2.456769e+002
1.580920e+002, 2.435757e+002
1.585741e+002, 2.417712e+002
1.590562e+002, 2.404368e+002
1.595383e+002, 2.391500e+002
1.600205e+002, 2.377761e+002
1.605026e+002, 2.363748e+002
1.609847e+002, 2.350932e+002
1.614668e+002, 2.340383e+002
1.619489e+002, 2.331687e+002
1.624310e+002, 2.322847e+002
1.629131e+002, 2.314423e+002
1.633953e+002, 2.305408e+002
1.638774e+002, 2.295440e+002
1.643595e+002, 2.284493e+002
1.648416e+002, 2.272184e+002
1.653237e+002, 2.256310e+002
1.658058e+002, 2.239476e+002
1.662880e+002, 2.227523e+002
1.667701e+002, 2.223985e+002
1.672522e+002, 2.223212e+002
1.677343e+002, 2.219332e+002
1.682164e+002, 2.212196e+002
1.686985e+002, 2.202678e+002
1.691807e+002, 2.188113e+002
1.696628e+002, 2.172211e+002
1.701449e+002, 2.159866e+002
1.706270e+002, 2.154306e+002
1.711091e+002, 2.152664e+002
1.715912e+002, 2.148591e+002
1.720734e+002, 2.141969e+002
1.725555e+002, 2.132750e+002
1.730376e+002, 2.119331e+002
1.735197e+002, 2.104050e+002
1.740018e+002, 2.090259e+002
1.744839e+002, 2.080318e+002
1.749661e+002, 2.073482e+002
1.754482e+002, 2.065234e+002
1.759303e+002, 2.053083e+002
1.764124e+002, 2.042358e+002
1.768945e+002, 2.035007e+002
1.773766e+002, 2.030037e+002
1.778588e+002, 2.025800e+002
1.783409e+002, 2.021201e+002
1.788230e+002, 2.016230e+002
1.793051e+002, 2.010438e+002
1.797872e+002, 2.004509e+002
1.802693e+002, 1.997101e+002
1.807515e+002, 1.986821e+002
1.812336e+002, 1.974514e+002
1.817157e+002, 1.962302e+002
1.821978e+002, 1.951978e+002
1.826799e+002, 1.943736e+002
1.831620e+002, 1.935635e+002
1.836441e+002, 1.927601e+002
1.841263e+002, 1.919716e+002
1.846084e+002, 1.912088e+002
1.850905e+002, 1.904693e+002
1.855726e+002, 1.897388e+002
1.860547e+002, 1.890058e+002
1.865368e+002, 1.882688e+002
1.870190e+002, 1.875640e+002
1.875011e+002, 1.869002e+002
1.879832e+002, 1.862670e+002
1.884653e+002, 1.856922e+002
1.889474e+002, 1.851756e+002
1.894296e+002, 1.846262e+002
1.899117e+002, 1.840127e+002
1.903938e+002, 1.833189e+002
1.908759e+002, 1.822922e+002
1.913580e+002, 1.802763e+002
1.918401e+002, 1.782068e+002
1.923223e+002, 1.773690e+002
1.928044e+002, 1.781049e+002
1.932865e+002, 1.790244e+002
1.937686e+002, 1.785502e+002
1.942507e+002, 1.771006e+002
1.947328e+002, 1.758946e+002
1.952150e+002, 1.754275e+002
1.956971e+002, 1.754292e+002
1.961792e+002, 1.754524e+002
1.966613e+002, 1.756035e+002
1.971434e+002, 1.754415e+002
1.976255e+002, 1.744407e+002
1.981077e+002, 1.728685e+002
1.985898e+002, 1.714141e+002
1.990719e+002, 1.703699e+002
1.995540e+002, 1.697124e+002
2.000361e+002, 1.694098e+002
2.005182e+002, 1.697745e+002
2.010004e+002, 1.700565e+002
2.014825e+002, 1.698225e+002
2.019646e+002, 1.691991e+002
2.024467e+002, 1.685101e+002
2.029288e+002, 1.680119e+002
2.034109e+002, 1.676832e+002
2.038930e+002, 1.671600e+002
2.043752e+002, 1.662384e+002
2.048573e+002, 1.653257e+002
2.053394e+002, 1.645089e+002
2.058215e+002, 1.638226e+002
2.063036e+002, 1.633198e+002
2.067857e+002, 1.631083e+002
2.072679e+002, 1.632145e+002
2.077500e+002, 1.631004e+002
2.082321e+002, 1.626265e+002
2.087142e+002, 1.620429e+002
2.091963e+002, 1.613133e+002
2.096784e+002, 1.605195e+002
2.101606e+002, 1.598414e+002
2.106427e+002, 1.594792e+002
2.111248e+002, 1.595047e+002
2.116069e+002, 1.592150e+002
2.120890e+002, 1.582733e+002
2.125711e+002, 1.573616e+002
2.130533e+002, 1.567320e+002
2.135354e+002, 1.563788e+002
2.140175e+002, 1.561808e+002
2.144996e+002, 1.560557e+002
2.149817e+002, 1.560417e+002
2.154638e+002, 1.558008e+002
2.159460e+002, 1.551843e+002
2.164281e+002, 1.545275e+002
2.169102e+002, 1.539885e+002
2.173923e+002, 1.535689e+002
2.178744e+002, 1.531664e+002
2.183565e+002, 1.526679e+002
2.188387e+002, 1.520455e+002
2.193208e+002, 1.516897e+002
2.198029e+002, 1.520716e+002
2.202850e+002, 1.523091e+002
2.207671e+002, 1.516361e+002
2.212492e+002, 1.501377e+002
2.217314e+002, 1.487205e+002
2.222135e+002, 1.482045e+002
2.226956e+002, 1.486721e+002
2.231777e+002, 1.489166e+002
2.236598e+002, 1.488419e+002
2.241419e+002, 1.486203e+002
2.246240e+002, 1.483674e+002
2.251062e+002, 1.480911e+002
2.255883e+002, 1.477579e+002
2.260704e+002, 1.473079e+002
2.265525e+002, 1.467630e+002
2.270346e+002, 1.462926e+002
2.275167e+002, 1.459175e+002
2.279989e+002, 1.456157e+002
2.284810e+002, 1.453778e+002
2.289631e+002, 1.452041e+002
2.294452e+002, 1.450897e+002
2.299273e+002, 1.451411e+002
2.304094e+002, 1.452471e+002
2.308916e+002, 1.450970e+002
2.313737e+002, 1.444046e+002
2.318558e+002, 1.435630e+002
2.323379e+002, 1.429412e+002
2.328200e+002, 1.425243e+002
2.333021e+002, 1.424411e+002
2.337843e+002, 1.433032e+002
2.342664e+002, 1.444624e+002
2.347485e+002, 1.448510e+002
2.352306e+002, 1.438246e+002
2.357127e+002, 1.422304e+002
2.361948e+002, 1.411892e+002
2.366770e+002, 1.407749e+002
2.371591e+002, 1.405918e+002
2.376412e+002, 1.405406e+002
2.381233e+002, 1.405740e+002
2.386054e+002, 1.406892e+002
2.390875e+002, 1.409766e+002
2.395697e+002, 1.412121e+002
2.400518e+002, 1.409406e+002
2.405339e+002, 1.399531e+002
2.410160e+002, 1.391279e+002
2.414981e+002, 1.389734e+002
2.419802e+002, 1.390684e+002
2.424624e+002, 1.390283e+002
2.429445e+002, 1.387125e+002
2.434266e+002, 1.382429e+002
2.439087e+002, 1.378258e+002
2.443908e+002, 1.374877e+002
2.448729e+002, 1.371289e+002
2.453550e+002, 1.366335e+002
2.458372e+002, 1.361511e+002
2.463193e+002, 1.358398e+002
2.468014e+002, 1.357596e+002
2.472835e+002, 1.357778e+002
2.477656e+002, 1.356750e+002
2.482477e+002, 1.354424e+002
2.487299e+002, 1.350955e+002
2.492120e+002, 1.345446e+002
2.496941e+002, 1.339525e+002
2.501762e+002, 1.334679e+002
2.506583e+002, 1.331311e+002
2.511404e+002, 1.328325e+002
2.516226e+002, 1.323778e+002
2.521047e+002, 1.317040e+002
2.525868e+002, 1.310158e+002
2.530689e+002, 1.302651e+002
2.535510e+002, 1.295525e+002
2.540331e+002, 1.289096e+002
2.545153e+002, 1.283599e+002
2.549974e+002, 1.279585e+002
2.554795e+002, 1.278289e+002
2.559616e+002, 1.281892e+002
2.564437e+002, 1.283495e+002
2.569258e+002, 1.282156e+002
2.574080e+002, 1.279790e+002
2.578901e+002, 1.277651e+002
2.583722e+002, 1.275960e+002
2.588543e+002, 1.274076e+002
2.593364e+002, 1.271139e+002
2.598185e+002, 1.266945e+002
2.603007e+002, 1.262081e+002
2.607828e+002, 1.254975e+002
2.612649e+002, 1.248473e+002
2.617470e+002, 1.244970e+002
2.622291e+002, 1.244319e+002
2.627112e+002, 1.244207e+002
2.631934e+002, 1.241995e+002
2.636755e+002, 1.237238e+002
2.641576e+002, 1.231745e+002
2.646397e+002, 1.223863e+002
2.651218e+002, 1.216756e+002
2.656039e+002, 1.212960e+002
2.660861e+002, 1.212040e+002
2.665682e+002, 1.211245e+002
2.670503e+002, 1.207730e+002
2.675324e+002, 1.200830e+002
2.680145e+002, 1.195547e+002
2.684966e+002, 1.193006e+002
2.689788e+002, 1.190702e+002
2.694609e+002, 1.187626e+002
2.699430e+002, 1.183716e+002
2.704251e+002, 1.179177e+002
2.709072e+002, 1.174012e+002
2.713893e+002, 1.168193e+002
2.718715e+002, 1.163662e+002
2.723536e+002, 1.162448e+002
2.728357e+002, 1.160273e+002
2.733178e+002, 1.153915e+002
2.737999e+002, 1.144875e+002
2.742820e+002, 1.137541e+002
2.747642e+002, 1.135138e+002
2.752463e+002, 1.137149e+002
2.757284e+002, 1.137271e+002
2.762105e+002, 1.134100e+002
2.766926e+002, 1.131043e+002
2.771747e+002, 1.129294e+002
2.776568e+002, 1.128515e+002
2.781389e+002, 1.127952e+002
2.786211e+002, 1.127257e+002
2.791032e+002, 1.126377e+002
2.795853e+002, 1.125017e+002
2.800674e+002, 1.121932e+002
2.805495e+002, 1.119892e+002
2.810316e+002, 1.121288e+002
2.815138e+002, 1.124004e+002
2.819959e+002, 1.123983e+002
2.824780e+002, 1.119251e+002
2.829601e+002, 1.111574e+002
2.834422e+002, 1.105430e+002
2.839243e+002, 1.100734e+002
2.844065e+002, 1.097302e+002
2.848886e+002, 1.095681e+002
2.853707e+002, 1.095161e+002
2.858528e+002, 1.094943e+002
2.863349e+002, 1.094854e+002
2.868170e+002, 1.094441e+002
2.872992e+002, 1.092691e+002
2.877813e+002, 1.089055e+002
2.882634e+002, 1.086089e+002
2.887455e+002, 1.084876e+002
2.892276e+002, 1.084277e+002
2.897097e+002, 1.082259e+002
2.901919e+002, 1.078258e+002
2.906740e+002, 1.075112e+002
2.911561e+002, 1.077635e+002
2.916382e+002, 1.087156e+002
2.921203e+002, 1.091294e+002
2.926024e+002, 1.084501e+002
2.930846e+002, 1.074224e+002
2.935667e+002, 1.067281e+002
2.940488e+002, 1.064554e+002
2.945309e+002, 1.064231e+002
2.950130e+002, 1.065394e+002
2.954951e+002, 1.068004e+002
2.959773e+002, 1.068964e+002
2.964594e+002, 1.067113e+002
2.969415e+002, 1.064331e+002
2.974236e+002, 1.062108e+002
2.979057e+002, 1.060451e+002
2.983878e+002, 1.058342e+002
2.988700e+002, 1.054664e+002
2.993521e+002, 1.049900e+002
2.998342e+002, 1.046923e+002
3.003163e+002, 1.047150e+002
3.007984e+002, 1.047844e+002
3.012805e+002, 1.047505e+002
3.017627e+002, 1.046269e+002
3.022448e+002, 1.044888e+002
3.027269e+002, 1.043874e+002
3.032090e+002, 1.042857e+002
3.036911e+002, 1.040763e+002
3.041732e+002, 1.037000e+002
3.046554e+002, 1.033244e+002
3.051375e+002, 1.030483e+002
3.056196e+002, 1.028321e+002
3.061017e+002, 1.025620e+002
3.065838e+002, 1.021802e+002
3.070659e+002, 1.017553e+002
3.075481e+002, 1.014090e+002
3.080302e+002, 1.011184e+002
3.085123e+002, 1.009423e+002
3.089944e+002, 1.010274e+002
3.094765e+002, 1.012146e+002
3.099586e+002, 1.011831e+002
3.104408e+002, 1.008124e+002
3.109229e+002, 1.003817e+002
3.114050e+002, 1.003193e+002
3.118871e+002, 1.006367e+002
3.123692e+002, 1.008394e+002
3.128513e+002, 1.008307e+002
3.133335e+002, 1.006562e+002
3.138156e+002, 1.002944e+002
3.142977e+002, 9.973217e+001
3.147798e+002, 9.922029e+001
3.152619e+002, 9.900529e+001
3.157440e+002, 9.907812e+001
3.162262e+002, 9.917999e+001
3.167083e+002, 9.937370e+001
3.171904e+002, 9.953004e+001
3.176725e+002, 9.948436e+001
3.181546e+002, 9.925168e+001
3.186367e+002, 9.908348e+001
3.191188e+002, 9.919676e+001
3.196010e+002, 9.950732e+001
3.200831e+002, 9.960506e+001
3.205652e+002, 9.942003e+001
3.210473e+002, 9.910233e+001
3.215294e+002, 9.857311e+001
3.220115e+002, 9.793932e+001
3.224937e+002, 9.763313e+001
3.229758e+002, 9.797464e+001
3.234579e+002, 9.862804e+001
3.239400e+002, 9.870499e+001
3.244221e+002, 9.798512e+001
3.249042e+002, 9.728934e+001
3.253864e+002, 9.692377e+001
3.258685e+002, 9.677618e+001
3.263506e+002, 9.663426e+001
3.268327e+002, 9.643118e+001
3.273148e+002, 9.621962e+001
3.277969e+002, 9.610368e+001
3.282791e+002, 9.611201e+001
3.287612e+002, 9.604054e+001
3.292433e+002, 9.578580e+001
3.297254e+002, 9.546284e+001
3.302075e+002, 9.519003e+001
3.306896e+002, 9.498775e+001
3.311718e+002, 9.485136e+001
3.316539e+002, 9.477927e+001
3.321360e+002, 9.477856e+001
3.326181e+002, 9.482879e+001
3.331002e+002, 9.507694e+001
3.335823e+002, 9.526384e+001
3.340645e+002, 9.510685e+001
3.345466e+002, 9.465063e+001
3.350287e+002, 9.428483e+001
3.355108e+002, 9.434162e+001
3.359929e+002, 9.472237e+001
3.364750e+002, 9.471192e+001
3.369572e+002, 9.390470e+001
3.374393e+002, 9.317760e+001
3.379214e+002, 9.300565e+001
3.384035e+002, 9.319796e+001
3.388856e+002, 9.327051e+001
3.393677e+002, 9.297294e+001
3.398499e+002, 9.248070e+001
3.403320e+002, 9.228689e+001
3.408141e+002, 9.254238e+001
3.412962e+002, 9.277019e+001
3.417783e+002, 9.289134e+001
3.422604e+002, 9.293188e+001
3.427426e+002, 9.293114e+001
3.432247e+002, 9.290073e+001
3.437068e+002, 9.280537e+001
3.441889e+002, 9.258231e+001
3.446710e+002, 9.215978e+001
3.451531e+002, 9.181683e+001
3.456353e+002, 9.154055e+001
3.461174e+002, 9.135754e+001
3.465995e+002, 9.131680e+001
3.470816e+002, 9.140761e+001
3.475637e+002, 9.155564e+001
3.480458e+002, 9.171066e+001
3.485280e+002, 9.187656e+001
3.490101e+002, 9.192159e+001
3.494922e+002, 9.185381e+001
3.499743e+002, 9.168251e+001
3.504564e+002, 9.133452e+001
3.509385e+002, 9.088511e+001
3.514207e+002, 9.050989e+001
3.519028e+002, 9.032517e+001
3.523849e+002, 9.026660e+001
3.528670e+002, 9.005110e+001
3.533491e+002, 8.949199e+001
3.538312e+002, 8.900947e+001
3.543134e+002, 8.863622e+001
3.547955e+002, 8.837318e+001
3.552776e+002, 8.823261e+001
3.557597e+002, 8.821739e+001
3.562418e+002, 8.829003e+001
3.567239e+002, 8.839613e+001
3.572061e+002, 8.860196e+001
3.576882e+002, 8.869614e+001
3.581703e+002, 8.857652e+001
3.586524e+002, 8.843201e+001
3.591345e+002, 8.840650e+001
3.596166e+002, 8.849997e+001
3.600987e+002, 8.861243e+001
3.605808e+002, 8.865562e+001
3.610630e+002, 8.863279e+001
3.615451e+002, 8.849747e+001
3.620272e+002, 8.799413e+001
3.625093e+002, 8.764887e+001
3.629914e+002, 8.783704e+001
3.634735e+002, 8.829864e+001
3.639557e+002, 8.850216e+001
3.644378e+002, 8.810079e+001
3.649199e+002, 8.727090e+001
3.654020e+002, 8.677121e+001
3.658841e+002, 8.690517e+001
3.663662e+002, 8.697179e+001
3.668484e+002, 8.684986e+001
3.673305e+002, 8.664572e+001
3.678126e+002, 8.644340e+001
3.682947e+002, 8.627668e+001
3.687768e+002, 8.616401e+001
3.692589e+002, 8.615907e+001
3.697411e+002, 8.634448e+001
3.702232e+002, 8.640881e+001
3.707053e+002, 8.630026e+001
3.711874e+002, 8.611226e+001
3.716695e+002, 8.583498e+001
3.721516e+002, 8.550636e+001
3.726338e+002, 8.522448e+001
3.731159e+002, 8.508411e+001
3.735980e+002, 8.508143e+001
3.740801e+002, 8.509511e+001
3.745622e+002, 8.516927e+001
3.750443e+002, 8.520187e+001
3.755265e+002, 8.519727e+001
3.760086e+002, 8.512487e+001
3.764907e+002, 8.492391e+001
3.769728e+002, 8.454250e+001
3.774549e+002, 8.406676e+001
3.779370e+002, 8.366608e+001
3.784192e+002, 8.331706e+001
3.789013e+002, 8.311539e+001
3.793834e+002, 8.312197e+001
3.798655e+002, 8.326226e+001
3.803476e+002, 8.356811e+001
3.808297e+002, 8.403969e+001
3.813119e+002, 8.442124e+001
3.817940e+002, 8.438978e+001
3.822761e+002, 8.395515e+001
3.827582e+002, 8.359634e+001
3.832403e+002, 8.340572e+001
3.837224e+002, 8.327097e+001
3.842046e+002, 8.310369e+001
3.846867e+002, 8.291927e+001
3.851688e+002, 8.277131e+001
3.856509e+002, 8.274114e+001
3.861330e+002, 8.275969e+001
3.866151e+002, 8.265006e+001
3.870973e+002, 8.237662e+001
3.875794e+002, 8.210326e+001
3.880615e+002, 8.194778e+001
3.885436e+002, 8.184257e+001
3.890257e+002, 8.168081e+001
3.895078e+002, 8.139543e+001
3.899900e+002, 8.113464e+001
3.904721e+002, 8.103068e+001
3.909542e+002, 8.107202e+001
3.914363e+002, 8.119335e+001
3.919184e+002, 8.143961e+001
3.924005e+002, 8.167265e+001
3.928827e+002, 8.166776e+001
3.933648e+002, 8.140598e+001
3.938469e+002, 8.120194e+001
3.943290e+002, 8.133828e+001
3.948111e+002, 8.155823e+001
3.952932e+002, 8.135342e+001
3.957754e+002, 8.060821e+001
3.962575e+002, 7.989842e+001
3.967396e+002, 7.978886e+001
3.972217e+002, 8.023044e+001
3.977038e+002, 8.048164e+001
3.981859e+002, 8.042524e+001
3.986681e+002, 8.024775e+001
3.991501e+002, 7.999184e+001
3.996323e+002, 7.970129e+001
4.001144e+002, 7.953538e+001
4.005965e+002, 7.960364e+001
4.010786e+002, 7.979953e+001
4.015607e+002, 7.980638e+001
4.020428e+002, 7.954353e+001
4.025250e+002, 7.926714e+001
4.030071e+002, 7.895051e+001
4.034892e+002, 7.867451e+001
4.039713e+002, 7.856328e+001
4.044534e+002, 7.863692e+001
4.049355e+002, 7.877068e+001
4.054177e+002, 7.881756e+001
4.058998e+002, 7.875178e+001
4.063819e+002, 7.872475e+001
4.068640e+002, 7.886754e+001
4.073461e+002, 7.892165e+001
4.078282e+002, 7.859179e+001
4.083104e+002, 7.806006e+001
4.087925e+002, 7.783128e+001
4.092746e+002, 7.826324e+001
4.097567e+002, 7.913994e+001
4.102388e+002, 7.946278e+001
4.107209e+002, 7.860647e+001
4.112031e+002, 7.798215e+001
4.116852e+002, 7.793846e+001
4.121673e+002, 7.804716e+001
4.126494e+002, 7.783745e+001
4.131315e+002, 7.721365e+001
4.136136e+002, 7.650983e+001
4.140958e+002, 7.617930e+001
4.145779e+002, 7.630651e+001
4.150600e+002, 7.646622e+001
4.155421e+002, 7.672324e+001
4.160242e+002, 7.695225e+001
4.165063e+002, 7.711095e+001
4.169885e+002, 7.720204e+001
4.174706e+002, 7.723266e+001
4.179527e+002, 7.719016e+001
4.184348e+002, 7.710771e+001
4.189169e+002, 7.711668e+001
4.193990e+002, 7.729259e+001
4.198812e+002, 7.739040e+001
4.203633e+002, 7.728704e+001
4.208454e+002, 7.710240e+001
4.213275e+002, 7.691948e+001
4.218096e+002, 7.675545e+001
4.222917e+002, 7.665655e+001
4.227739e+002, 7.673267e+001
4.232560e+002, 7.696886e+001
4.237381e+002, 7.704307e+001
4.242202e+002, 7.679176e+001
4.247023e+002, 7.652682e+001
4.251844e+002, 7.651024e+001
4.256666e+002, 7.668422e+001
4.261487e+002, 7.684124e+001
4.266308e+002, 7.685231e+001
4.271129e+002, 7.681566e+001
4.275950e+002, 7.692387e+001
4.280771e+002, 7.719284e+001
4.285593e+002, 7.734837e+001
4.290414e+002, 7.720174e+001
4.295235e+002, 7.686237e+001
4.300056e+002, 7.658741e+001
4.304877e+002, 7.636848e+001
4.309698e+002, 7.623556e+001
4.314520e+002, 7.628711e+001
4.319341e+002, 7.642369e+001
4.324162e+002, 7.642715e+001
4.328983e+002, 7.623267e+001
4.333804e+002, 7.597646e+001
4.338625e+002, 7.579354e+001
4.343447e+002, 7.568697e+001
4.348268e+002, 7.569853e+001
4.353089e+002, 7.603195e+001
4.357910e+002, 7.631163e+001
4.362731e+002, 7.620670e+001
4.367552e+002, 7.581174e+001
4.372374e+002, 7.550761e+001
4.377195e+002, 7.554321e+001
4.382016e+002, 7.578031e+001
4.386837e+002, 7.568925e+001
4.391658e+002, 7.482655e+001
4.396479e+002, 7.420094e+001
4.401301e+002, 7.388602e+001
4.406122e+002, 7.383445e+001
4.410943e+002, 7.410624e+001
4.415764e+002, 7.466045e+001
4.420585e+002, 7.525716e+001
4.425406e+002, 7.563612e+001
4.430227e+002, 7.579689e+001
4.435049e+002, 7.575053e+001
4.439870e+002, 7.520493e+001
4.444691e+002, 7.475431e+001
4.449512e+002, 7.462434e+001
4.454333e+002, 7.470654e+001
4.459154e+002, 7.482412e+001
4.463976e+002, 7.489564e+001
4.468797e+002, 7.490842e+001
4.473618e+002, 7.480882e+001
4.478439e+002, 7.453113e+001
4.483260e+002, 7.433718e+001
4.488081e+002, 7.432615e+001
4.492903e+002, 7.437653e+001
4.497724e+002, 7.446865e+001
4.502545e+002, 7.457546e+001
4.507366e+002, 7.458279e+001
4.512187e+002, 7.424821e+001
4.517008e+002, 7.371052e+001
4.521830e+002, 7.367200e+001
4.526651e+002, 7.439721e+001
4.531472e+002, 7.498898e+001
4.536293e+002, 7.466252e+001
4.541114e+002, 7.392762e+001
4.545935e+002, 7.351162e+001
4.550757e+002, 7.366042e+001
4.555578e+002, 7.397668e+001
4.560399e+002, 7.415217e+001
4.565220e+002, 7.421806e+001
4.570041e+002, 7.433558e+001
4.574862e+002, 7.458918e+001
4.579684e+002, 7.482565e+001
4.584505e+002, 7.477981e+001
4.589326e+002, 7.445212e+001
4.594147e+002, 7.425525e+001
4.598968e+002, 7.443800e+001
4.603789e+002, 7.465579e+001
4.608611e+002, 7.453787e+001
4.613432e+002, 7.413424e+001
4.618253e+002, 7.380546e+001
4.623074e+002, 7.376968e+001
4.627895e+002, 7.397961e+001
4.632716e+002, 7.424448e+001
4.637538e+002, 7.486396e+001
4.642359e+002, 7.514629e+001
4.647180e+002, 7.472966e+001
4.652001e+002, 7.409377e+001
4.656822e+002, 7.371995e+001
4.661643e+002, 7.370194e+001
4.666465e+002, 7.385031e+001
4.671286e+002, 7.397399e+001
4.676107e+002, 7.407833e+001
4.680928e+002, 7.410898e+001
4.685749e+002, 7.402077e+001
4.690570e+002, 7.390389e+001
4.695392e+002, 7.370151e+001
4.700213e+002, 7.350697e+001
4.705034e+002, 7.349948e+001
4.709855e+002, 7.376792e+001
4.714676e+002, 7.409773e+001
4.719497e+002, 7.403960e+001
4.724319e+002, 7.344893e+001
4.729140e+002, 7.311208e+001
4.733961e+002, 7.343132e+001
4.738782e+002, 7.379220e+001
4.743603e+002, 7.381723e+001
4.748424e+002, 7.355788e+001
4.753246e+002, 7.330668e+001
4.758067e+002, 7.325264e+001
4.762888e+002, 7.331847e+001
4.767709e+002, 7.333903e+001
4.772530e+002, 7.330966e+001
4.777351e+002, 7.326580e+001
4.782173e+002, 7.322968e+001
4.786994e+002, 7.318363e+001
4.791815e+002, 7.308714e+001
4.796636e+002, 7.291109e+001
4.801457e+002, 7.278610e+001
4.806278e+002, 7.283685e+001
4.811100e+002, 7.296779e+001
4.815920e+002, 7.299443e+001
4.820742e+002, 7.288132e+001
4.825563e+002, 7.272869e+001
4.830384e+002, 7.260040e+001
4.835205e+002, 7.250420e+001
4.840026e+002, 7.252964e+001
4.844847e+002, 7.287978e+001
4.849669e+002, 7.312395e+001
4.854490e+002, 7.294775e+001
4.859311e+002, 7.257585e+001
4.864132e+002, 7.245457e+001
4.868953e+002, 7.274699e+001
4.873774e+002, 7.316019e+001
4.878596e+002, 7.318587e+001
4.883417e+002, 7.258207e+001
4.888238e+002, 7.225598e+001
4.893059e+002, 7.247038e+001
4.897880e+002, 7.266451e+001
4.902701e+002, 7.246617e+001
4.907523e+002, 7.202963e+001
4.912344e+002, 7.175185e+001
4.917165e+002, 7.188779e+001
4.921986e+002, 7.229514e+001
4.926807e+002, 7.260434e+001
4.931628e+002, 7.282656e+001
4.936450e+002, 7.291789e+001
4.941271e+002, 7.275833e+001
4.946092e+002, 7.254253e+001
4.950913e+002, 7.241047e+001
4.955734e+002, 7.236205e+001
4.960555e+002, 7.228136e+001
4.965377e+002, 7.197731e+001
4.970198e+002, 7.158981e+001
4.975019e+002, 7.160950e+001
4.979840e+002, 7.217085e+001
4.984661e+002, 7.253587e+001
4.989482e+002, 7.214735e+001
4.994304e+002, 7.135285e+001
4.999125e+002, 7.080246e+001
5.003946e+002, 7.050587e+001
5.008767e+002, 7.050527e+001
5.013588e+002, 7.110369e+001
5.018409e+002, 7.193755e+001
5.023231e+002, 7.235449e+001
5.028052e+002, 7.221861e+001
5.032873e+002, 7.178262e+001
5.037694e+002, 7.119228e+001
5.042515e+002, 7.043540e+001
5.047336e+002, 7.016373e+001
5.052158e+002, 7.092744e+001
5.056979e+002, 7.150536e+001
5.061800e+002, 7.131670e+001
5.066621e+002, 7.070730e+001
5.071442e+002, 7.019303e+001
5.076263e+002, 6.996409e+001
5.081085e+002, 6.990726e+001
5.085906e+002, 6.982333e+001
5.090727e+002, 6.961000e+001
5.095548e+002, 6.974052e+001
5.100369e+002, 7.072955e+001
5.105190e+002, 7.154668e+001
5.110012e+002, 7.169187e+001
5.114833e+002, 7.139162e+001
5.119654e+002, 7.112186e+001
5.124475e+002, 7.113120e+001
5.129296e+002, 7.124268e+001
5.134117e+002, 7.107473e+001
5.138939e+002, 7.056221e+001
5.143760e+002, 7.028697e+001
5.148581e+002, 7.059444e+001
5.153402e+002, 7.095832e+001
5.158223e+002, 7.085427e+001
5.163044e+002, 7.036292e+001
5.167866e+002, 7.004203e+001
5.172687e+002, 7.034451e+001
5.177508e+002, 7.081796e+001
5.182329e+002, 7.087144e+001
5.187150e+002, 7.051823e+001
5.191971e+002, 7.002190e+001
5.196793e+002, 6.940279e+001
5.201614e+002, 6.883693e+001
5.206435e+002, 6.883869e+001
5.211256e+002, 6.969046e+001
5.216077e+002, 7.016874e+001
5.220898e+002, 6.970081e+001
5.225720e+002, 6.903333e+001
5.230541e+002, 6.891499e+001
5.235362e+002, 6.929589e+001
5.240183e+002, 6.955192e+001
5.245004e+002, 6.920162e+001
5.249825e+002, 6.839951e+001
5.254647e+002, 6.793782e+001
5.259468e+002, 6.798649e+001
5.264289e+002, 6.816789e+001
5.269110e+002, 6.868059e+001
5.273931e+002, 6.914597e+001
5.278752e+002, 6.913638e+001
5.283574e+002, 6.868531e+001
5.288395e+002, 6.830183e+001
5.293216e+002, 6.855806e+001
5.298037e+002, 6.929131e+001
5.302858e+002, 6.943700e+001
5.307679e+002, 6.872228e+001
5.312501e+002, 6.805153e+001
5.317322e+002, 6.776166e+001
5.322143e+002, 6.774167e+001
5.326964e+002, 6.798611e+001
5.331785e+002, 6.855070e+001
5.336606e+002, 6.898289e+001
5.341428e+002, 6.889014e+001
5.346249e+002, 6.847395e+001
5.351070e+002, 6.812615e+001
5.355891e+002, 6.789003e+001
5.360712e+002, 6.781907e+001
5.365533e+002, 6.802868e+001
5.370355e+002, 6.844655e+001
5.375176e+002, 6.862041e+001
5.379997e+002, 6.833083e+001
5.384818e+002, 6.808972e+001
5.389639e+002, 6.809486e+001
5.394460e+002, 6.820303e+001
5.399282e+002, 6.824775e+001
5.404103e+002, 6.819012e+001
5.408924e+002, 6.806829e+001
5.413745e+002, 6.791319e+001
5.418566e+002, 6.772270e+001
5.423387e+002, 6.757145e+001
5.428209e+002, 6.740269e+001
5.433029e+002, 6.735061e+001
5.437850e+002, 6.761539e+001
5.442672e+002, 6.792693e+001
5.447493e+002, 6.790804e+001
5.452314e+002, 6.747802e+001
5.457135e+002, 6.703660e+001
5.461956e+002, 6.706753e+001
5.466777e+002, 6.752856e+001
5.471599e+002, 6.793697e+001
5.476420e+002, 6.830586e+001
5.481241e+002, 6.853923e+001
5.486062e+002, 6.846743e+001
5.490883e+002, 6.824199e+001
5.495704e+002, 6.810050e+001
5.500526e+002, 6.810049e+001
5.505347e+002, 6.815031e+001
5.510168e+002, 6.824139e+001
5.514989e+002, 6.833240e+001
5.519810e+002, 6.833862e+001
5.524631e+002, 6.824225e+001
5.529453e+002, 6.806453e+001
5.534274e+002, 6.781041e+001
5.539095e+002, 6.747839e+001
5.543916e+002, 6.718787e+001
5.548737e+002, 6.672389e+001
5.553558e+002, 6.654762e+001
5.558380e+002, 6.709521e+001
5.563201e+002, 6.785931e+001
5.568022e+002, 6.818321e+001
5.572843e+002, 6.791853e+001
5.577664e+002, 6.743075e+001
5.582485e+002, 6.711204e+001
5.587307e+002, 6.696638e+001
5.592128e+002, 6.692377e+001
5.596949e+002, 6.710080e+001
5.601770e+002, 6.721264e+001
5.606591e+002, 6.709982e+001
5.611412e+002, 6.690565e+001
5.616234e+002, 6.679014e+001
5.621055e+002, 6.679213e+001
5.625876e+002, 6.689368e+001
5.630697e+002, 6.720034e+001
5.635518e+002, 6.760196e+001
5.640339e+002, 6.766196e+001
5.645161e+002, 6.726195e+001
5.649982e+002, 6.687289e+001
5.654803e+002, 6.684740e+001
5.659624e+002, 6.711667e+001
5.664445e+002, 6.732177e+001
5.669266e+002, 6.743218e+001
5.674088e+002, 6.752258e+001
5.678909e+002, 6.769542e+001
5.683730e+002, 6.782567e+001
5.688551e+002, 6.766634e+001
5.693372e+002, 6.722266e+001
5.698193e+002, 6.684415e+001
5.703015e+002, 6.688586e+001
5.707836e+002, 6.731806e+001
5.712657e+002, 6.756406e+001
5.717478e+002, 6.753176e+001
5.722299e+002, 6.742368e+001
5.727120e+002, 6.718456e+001
5.731942e+002, 6.694075e+001
5.736763e+002, 6.682375e+001
5.741584e+002, 6.684415e+001
5.746405e+002, 6.689030e+001
5.751226e+002, 6.684879e+001
5.756047e+002, 6.674986e+001
5.760869e+002, 6.673295e+001
5.765690e+002, 6.682052e+001
5.770511e+002, 6.689141e+001
5.775332e+002, 6.684305e+001
5.780153e+002, 6.677217e+001
5.784974e+002, 6.685898e+001
5.789796e+002, 6.716004e+001
5.794617e+002, 6.737498e+001
5.799438e+002, 6.732324e+001
5.804259e+002, 6.716653e+001
5.809080e+002, 6.709319e+001
5.813901e+002, 6.710789e+001
5.818723e+002, 6.711504e+001
5.823544e+002, 6.705654e+001
5.828365e+002, 6.694191e+001
5.833186e+002, 6.680147e+001
5.838007e+002, 6.659997e+001
5.842828e+002, 6.642667e+001
5.847650e+002, 6.621231e+001
5.852471e+002, 6.608341e+001
5.857292e+002, 6.625947e+001
5.862113e+002, 6.661040e+001
5.866934e+002, 6.670501e+001
5.871755e+002, 6.617813e+001
5.876577e+002, 6.540777e+001
5.881398e+002, 6.538423e+001
5.886219e+002, 6.625996e+001
5.891040e+002, 6.682309e+001
5.895861e+002, 6.663340e+001
5.900682e+002, 6.619455e+001
5.905504e+002, 6.593187e+001
5.910325e+002, 6.583360e+001
5.915146e+002, 6.584059e+001
5.919967e+002, 6.606548e+001
5.924788e+002, 6.627863e+001
5.929609e+002, 6.624071e+001
5.934431e+002, 6.602492e+001
5.939252e+002, 6.585160e+001
5.944073e+002, 6.580074e+001
5.948894e+002, 6.581811e+001
5.953715e+002, 6.582992e+001
5.958536e+002, 6.583127e+001
5.963358e+002, 6.585058e+001
5.968179e+002, 6.590316e+001
5.973000e+002, 6.595408e+001
5.977821e+002, 6.603031e+001
5.982642e+002, 6.608308e+001
5.987463e+002, 6.598013e+001
5.992285e+002, 6.568844e+001
5.997106e+002, 6.547346e+001
6.001927e+002, 6.578838e+001
6.006748e+002, 6.660294e+001
6.011569e+002, 6.700621e+001
6.016390e+002, 6.681798e+001
6.021212e+002, 6.651670e+001
6.026033e+002, 6.629000e+001
6.030854e+002, 6.614880e+001
6.035675e+002, 6.616428e+001
6.040496e+002, 6.644090e+001
6.045317e+002, 6.658650e+001
6.050139e+002, 6.621730e+001
6.054960e+002, 6.567747e+001
6.059781e+002, 6.551312e+001
6.064602e+002, 6.576149e+001
6.069423e+002, 6.608238e+001
6.074244e+002, 6.625260e+001
6.079066e+002, 6.627689e+001
6.083887e+002, 6.616809e+001
6.088708e+002, 6.565433e+001
6.093529e+002, 6.540567e+001
6.098350e+002, 6.563034e+001
6.103171e+002, 6.596986e+001
6.107993e+002, 6.628051e+001
6.112814e+002, 6.648315e+001
6.117635e+002, 6.641100e+001
6.122456e+002, 6.584108e+001
6.127277e+002, 6.512711e+001
6.132098e+002, 6.512959e+001
6.136920e+002, 6.593044e+001
6.141741e+002, 6.647206e+001
6.146562e+002, 6.642950e+001
6.151383e+002, 6.613388e+001
6.156204e+002, 6.581878e+001
6.161025e+002, 6.550590e+001
6.165847e+002, 6.537576e+001
6.170668e+002, 6.565541e+001
6.175489e+002, 6.593954e+001
6.180310e+002, 6.593465e+001
6.185131e+002, 6.575204e+001
6.189952e+002, 6.560164e+001
6.194774e+002, 6.554966e+001
6.199595e+002, 6.559981e+001
6.204416e+002, 6.579022e+001
6.209237e+002, 6.614716e+001
6.214058e+002, 6.625082e+001
6.218879e+002, 6.579938e+001
6.223701e+002, 6.546125e+001
6.228522e+002, 6.542093e+001
6.233343e+002, 6.553273e+001
6.238164e+002, 6.565706e+001
6.242985e+002, 6.576315e+001
6.247806e+002, 6.588474e+001
6.252628e+002, 6.615527e+001
6.257448e+002, 6.644717e+001
6.262269e+002, 6.628789e+001
6.267090e+002, 6.561102e+001
6.271912e+002, 6.521252e+001
6.276733e+002, 6.559563e+001
6.281554e+002, 6.633133e+001
6.286375e+002, 6.659042e+001
6.291196e+002, 6.630785e+001
6.296017e+002, 6.599260e+001
6.300839e+002, 6.572540e+001
6.305660e+002, 6.544202e+001
6.310481e+002, 6.493767e+001
6.315302e+002, 6.439164e+001
6.320123e+002, 6.428661e+001
6.324944e+002, 6.484543e+001
6.329766e+002, 6.564067e+001
6.334587e+002, 6.589680e+001
6.339408e+002, 6.546627e+001
6.344229e+002, 6.526711e+001
6.349050e+002, 6.548591e+001
6.353871e+002, 6.571335e+001
6.358693e+002, 6.569237e+001
6.363514e+002, 6.559025e+001
6.368335e+002, 6.571512e+001
6.373156e+002, 6.621018e+001
6.377977e+002, 6.660799e+001
6.382798e+002, 6.641608e+001
6.387620e+002, 6.594556e+001
6.392441e+002, 6.584292e+001
6.397262e+002, 6.616786e+001
6.402083e+002, 6.644725e+001
6.406904e+002, 6.635331e+001
6.411725e+002, 6.601040e+001
6.416547e+002, 6.583500e+001
6.421368e+002, 6.603295e+001
6.426189e+002, 6.609728e+001
6.431010e+002, 6.582574e+001
6.435831e+002, 6.560027e+001
6.440652e+002, 6.572972e+001
6.445474e+002, 6.610806e+001
6.450295e+002, 6.644254e+001
6.455116e+002, 6.658897e+001
6.459937e+002, 6.657355e+001
6.464758e+002, 6.633913e+001
6.469579e+002, 6.588961e+001
6.474401e+002, 6.575495e+001
6.479222e+002, 6.617003e+001
6.484043e+002, 6.657741e+001
6.488864e+002, 6.643456e+001
6.493685e+002, 6.594205e+001
6.498506e+002, 6.574297e+001
6.503328e+002, 6.612113e+001
6.508149e+002, 6.643336e+001
6.512970e+002, 6.636697e+001
6.517791e+002, 6.613247e+001
6.522612e+002, 6.592821e+001
6.527433e+002, 6.580701e+001
6.532255e+002, 6.582787e+001
6.537076e+002, 6.605898e+001
6.541897e+002, 6.641235e+001
6.546718e+002, 6.653999e+001
6.551539e+002, 6.631452e+001
6.556360e+002, 6.617030e+001
6.561182e+002, 6.621510e+001
6.566003e+002, 6.631544e+001
6.570824e+002, 6.641317e+001
6.575645e+002, 6.650746e+001
6.580466e+002, 6.661327e+001
6.585287e+002, 6.676080e+001
6.590109e+002, 6.688235e+001
6.594930e+002, 6.694565e+001
6.599751e+002, 6.693067e+001
6.604572e+002, 6.671317e+001
6.609393e+002, 6.625806e+001
6.614214e+002, 6.587924e+001
6.619036e+002, 6.585873e+001
6.623857e+002, 6.616941e+001
6.628678e+002, 6.651202e+001
6.633499e+002, 6.707815e+001
6.638320e+002, 6.741891e+001
6.643141e+002, 6.736275e+001
6.647963e+002, 6.717136e+001
6.652784e+002, 6.703486e+001
6.657605e+002, 6.696265e+001
6.662426e+002, 6.686041e+001
6.667247e+002, 6.662401e+001
6.672068e+002, 6.640182e+001
6.676890e+002, 6.655576e+001
6.681711e+002, 6.706934e+001
6.686532e+002, 6.733497e+001
6.691353e+002, 6.715364e+001
6.696174e+002, 6.684776e+001
6.700995e+002, 6.673994e+001
6.705817e+002, 6.679556e+001
6.710638e+002, 6.667815e+001
6.715459e+002, 6.609367e+001
6.720280e+002, 6.569069e+001
6.725101e+002, 6.581772e+001
6.729922e+002, 6.614684e+001
6.734744e+002, 6.637222e+001
6.739565e+002, 6.642699e+001
6.744386e+002, 6.631049e+001
6.749207e+002, 6.596768e+001
6.754028e+002, 6.554414e+001
6.758849e+002, 6.556764e+001
6.763671e+002, 6.615797e+001
6.768492e+002, 6.667349e+001
6.773313e+002, 6.705895e+001
6.778134e+002, 6.725138e+001
6.782955e+002, 6.709372e+001
6.787776e+002, 6.669810e+001
6.792598e+002, 6.646900e+001
6.797419e+002, 6.652801e+001
6.802240e+002, 6.673695e+001
6.807061e+002, 6.722941e+001
6.811882e+002, 6.773724e+001
6.816703e+002, 6.775004e+001
6.821525e+002, 6.723190e+001
6.826346e+002, 6.665520e+001
6.831167e+002, 6.640586e+001
6.835988e+002, 6.641971e+001
6.840809e+002, 6.637770e+001
6.845630e+002, 6.624884e+001
6.850452e+002, 6.613240e+001
6.855273e+002, 6.588479e+001
6.860094e+002, 6.579423e+001
6.864915e+002, 6.622272e+001
6.869736e+002, 6.695975e+001
6.874557e+002, 6.737304e+001
6.879379e+002, 6.711721e+001
6.884200e+002, 6.665321e+001
6.889021e+002, 6.627535e+001
6.893842e+002, 6.601924e+001
6.898663e+002, 6.604482e+001
6.903484e+002, 6.637138e+001
6.908306e+002, 6.666788e+001
6.913127e+002, 6.666457e+001
6.917948e+002, 6.642483e+001
6.922769e+002, 6.626583e+001
6.927590e+002, 6.620175e+001
6.932411e+002, 6.620249e+001
6.937233e+002, 6.642045e+001
6.942054e+002, 6.655949e+001
6.946875e+002, 6.633661e+001
6.951696e+002, 6.589191e+001
6.956517e+002, 6.559969e+001
6.961339e+002, 6.564236e+001
6.966160e+002, 6.583437e+001
6.970981e+002, 6.599139e+001
6.975802e+002, 6.612660e+001
6.980623e+002, 6.629748e+001
6.985444e+002, 6.651434e+001
6.990266e+002, 6.672258e+001
6.995087e+002, 6.688235e+001
6.999908e+002, 6.700439e+001
7.004729e+002, 6.713078e+001
7.009550e+002, 6.740475e+001
7.014371e+002, 6.745327e+001
7.019193e+002, 6.704758e+001
7.024014e+002, 6.662208e+001
7.028835e+002, 6.647600e+001
7.033656e+002, 6.651533e+001
7.038477e+002, 6.645311e+001
7.043298e+002, 6.614658e+001
7.048120e+002, 6.589443e+001
7.052941e+002, 6.621644e+001
7.057762e+002, 6.695097e+001
7.062583e+002, 6.724088e+001
7.067404e+002, 6.694442e+001
7.072225e+002, 6.664240e+001
7.077046e+002, 6.668571e+001
7.081867e+002, 6.693960e+001
7.086688e+002, 6.707060e+001
7.091509e+002, 6.707681e+001
7.096331e+002, 6.697342e+001
7.101152e+002, 6.654214e+001
7.105973e+002, 6.621352e+001
7.110794e+002, 6.632906e+001
7.115615e+002, 6.670583e+001
7.120436e+002, 6.699964e+001
7.125258e+002, 6.708690e+001
7.130079e+002, 6.710114e+001
7.134900e+002, 6.718658e+001
7.139721e+002, 6.733341e+001
7.144542e+002, 6.752470e+001
7.149363e+002, 6.778748e+001
7.154185e+002, 6.789539e+001
7.159006e+002, 6.765024e+001
7.163827e+002, 6.729024e+001
7.168648e+002, 6.727549e+001
7.173469e+002, 6.769891e+001
7.178290e+002, 6.787632e+001
7.183112e+002, 6.743791e+001
7.187933e+002, 6.707546e+001
7.192754e+002, 6.723500e+001
7.197575e+002, 6.764489e+001
7.202396e+002, 6.792878e+001
7.207217e+002, 6.797601e+001
7.212039e+002, 6.785583e+001
7.216860e+002, 6.755334e+001
7.221681e+002, 6.715565e+001
7.226502e+002, 6.704747e+001
7.231323e+002, 6.726608e+001
7.236144e+002, 6.746084e+001
7.240966e+002, 6.752380e+001
7.245787e+002, 6.751446e+001
7.250608e+002, 6.747063e+001
7.255429e+002, 6.739462e+001
7.260250e+002, 6.740665e+001
7.265071e+002, 6.764308e+001
7.269893e+002, 6.781369e+001
7.274714e+002, 6.771249e+001
7.279535e+002, 6.755103e+001
7.284356e+002, 6.764363e+001
7.289177e+002, 6.796494e+001
7.293998e+002, 6.814783e+001
7.298820e+002, 6.786982e+001
7.303641e+002, 6.737700e+001
7.308462e+002, 6.724931e+001
7.313283e+002, 6.749843e+001
7.318104e+002, 6.781376e+001
7.322925e+002, 6.819608e+001
7.327747e+002, 6.848999e+001
7.332568e+002, 6.852361e+001
7.337389e+002, 6.834920e+001
7.342210e+002, 6.826558e+001
7.347031e+002, 6.833289e+001
7.351852e+002, 6.839644e+001
7.356674e+002, 6.842775e+001
7.361495e+002, 6.844074e+001
7.366316e+002, 6.848917e+001
7.371137e+002, 6.852865e+001
7.375958e+002, 6.842278e+001
7.380779e+002, 6.809212e+001
7.385601e+002, 6.769488e+001
7.390422e+002, 6.739574e+001
7.395243e+002, 6.721251e+001
7.400064e+002, 6.739252e+001
7.404885e+002, 6.804972e+001
7.409706e+002, 6.864253e+001
7.414528e+002, 6.889463e+001
7.419349e+002, 6.887209e+001
7.424170e+002, 6.865352e+001
7.428991e+002, 6.809801e+001
7.433812e+002, 6.784354e+001
7.438633e+002, 6.822174e+001
7.443455e+002, 6.862171e+001
7.448276e+002, 6.870816e+001
7.453097e+002, 6.860948e+001
7.457918e+002, 6.853025e+001
7.462739e+002, 6.853585e+001
7.467560e+002, 6.860477e+001
7.472382e+002, 6.876089e+001
7.477203e+002, 6.895693e+001
7.482024e+002, 6.901540e+001
7.486845e+002, 6.893181e+001
7.491666e+002, 6.892432e+001
7.496487e+002, 6.909791e+001
7.501309e+002, 6.929337e+001
7.506130e+002, 6.930484e+001
7.510951e+002, 6.911637e+001
7.515772e+002, 6.904090e+001
7.520593e+002, 6.933303e+001
7.525414e+002, 6.939759e+001
7.530236e+002, 6.881499e+001
7.535057e+002, 6.815671e+001
7.539878e+002, 6.793092e+001
7.544699e+002, 6.814419e+001
7.549520e+002, 6.855431e+001
7.554341e+002, 6.912355e+001
7.559163e+002, 6.961672e+001
7.563984e+002, 6.960046e+001
7.568805e+002, 6.920097e+001
7.573626e+002, 6.899045e+001
7.578447e+002, 6.907047e+001
7.583268e+002, 6.919109e+001
7.588090e+002, 6.918127e+001
7.592911e+002, 6.907493e+001
7.597732e+002, 6.898013e+001
7.602553e+002, 6.883916e+001
7.607374e+002, 6.882194e+001
7.612195e+002, 6.899256e+001
7.617017e+002, 6.921230e+001
7.621838e+002, 6.953371e+001
7.626659e+002, 6.981970e+001
7.631480e+002, 6.979819e+001
7.636301e+002, 6.937924e+001
7.641122e+002, 6.903024e+001
7.645944e+002, 6.921272e+001
7.650765e+002, 6.962316e+001
7.655586e+002, 6.976351e+001
7.660407e+002, 6.966283e+001
7.665228e+002, 6.960556e+001
7.670049e+002, 6.970419e+001
7.674871e+002, 6.984023e+001
7.679692e+002, 6.985490e+001
7.684513e+002, 6.974203e+001
7.689334e+002, 6.964014e+001
7.694155e+002, 6.947304e+001
7.698976e+002, 6.944236e+001
7.703798e+002, 6.968076e+001
7.708619e+002, 6.999479e+001
7.713440e+002, 7.028171e+001
7.718261e+002, 7.051630e+001
7.723082e+002, 7.063551e+001
7.727903e+002, 7.059361e+001
7.732725e+002, 7.046217e+001
7.737546e+002, 7.013332e+001
7.742367e+002, 6.981627e+001
7.747188e+002, 6.994256e+001
7.752009e+002, 7.048507e+001
7.756830e+002, 7.096836e+001
7.761652e+002, 7.108498e+001
7.766473e+002, 7.092249e+001
7.771294e+002, 7.062641e+001
7.776115e+002, 7.014071e+001
7.780936e+002, 6.990739e+001
7.785757e+002, 7.004538e+001
7.790579e+002, 7.027044e+001
7.795400e+002, 7.042495e+001
7.800221e+002, 7.057486e+001
7.805042e+002, 7.087215e+001
7.809863e+002, 7.139424e+001
7.814684e+002, 7.170773e+001
7.819506e+002, 7.161198e+001
7.824327e+002, 7.137253e+001
7.829148e+002, 7.105608e+001
7.833969e+002, 7.075070e+001
7.838790e+002, 7.057158e+001
7.843611e+002, 7.055035e+001
7.848433e+002, 7.065894e+001
7.853254e+002, 7.091297e+001
7.858075e+002, 7.125144e+001
7.862896e+002, 7.154422e+001
7.867717e+002, 7.179347e+001
7.872538e+002, 7.169157e+001
7.877360e+002, 7.101936e+001
7.882181e+002, 7.041687e+001
7.887002e+002, 7.054214e+001
7.891823e+002, 7.129101e+001
7.896644e+002, 7.177297e+001
7.901465e+002, 7.199825e+001
7.906286e+002, 7.195808e+001
7.911107e+002, 7.121703e+001
7.915928e+002, 7.061214e+001
7.920750e+002, 7.087997e+001
7.925571e+002, 7.166936e+001
7.930392e+002, 7.216383e+001
7.935213e+002, 7.204871e+001
7.940034e+002, 7.178642e+001
7.944855e+002, 7.177502e+001
7.949677e+002, 7.189542e+001
7.954498e+002, 7.194689e+001
7.959319e+002, 7.191655e+001
7.964140e+002, 7.180306e+001
7.968961e+002, 7.159966e+001
7.973782e+002, 7.136950e+001
7.978604e+002, 7.118258e+001
7.983425e+002, 7.103284e+001
7.988246e+002, 7.107048e+001
7.993067e+002, 7.142306e+001
7.997888e+002, 7.173142e+001
8.002709e+002, 7.192207e+001
8.007531e+002, 7.202277e+001
8.012352e+002, 7.198425e+001
8.017173e+002, 7.185232e+001
8.021994e+002, 7.183710e+001
8.026815e+002, 7.207191e+001
8.031636e+002, 7.231950e+001
8.036458e+002, 7.246061e+001
8.041279e+002, 7.254404e+001
8.046100e+002, 7.261063e+001
8.050921e+002, 7.267501e+001
8.055742e+002, 7.277429e+001
8.060563e+002, 7.293331e+001
8.065385e+002, 7.306425e+001
8.070206e+002, 7.295958e+001
8.075027e+002, 7.264989e+001
8.079848e+002, 7.260999e+001
8.084669e+002, 7.292538e+001
8.089490e+002, 7.315871e+001
8.094312e+002, 7.307191e+001
8.099133e+002, 7.286516e+001
8.103954e+002, 7.285036e+001
8.108775e+002, 7.307269e+001
8.113596e+002, 7.319093e+001
8.118417e+002, 7.315321e+001
8.123239e+002, 7.307948e+001
8.128060e+002, 7.302697e+001
8.132881e+002, 7.293531e+001
8.137702e+002, 7.264095e+001
8.142523e+002, 7.223085e+001
8.147344e+002, 7.209004e+001
8.152166e+002, 7.253962e+001
8.156987e+002, 7.305471e+001
8.161808e+002, 7.293552e+001
8.166629e+002, 7.250523e+001
8.171450e+002, 7.261208e+001
8.176271e+002, 7.327290e+001
8.181093e+002, 7.367564e+001
8.185914e+002, 7.332949e+001
8.190735e+002, 7.262087e+001
8.195556e+002, 7.229797e+001
8.200377e+002, 7.241898e+001
8.205198e+002, 7.257239e+001
8.210020e+002, 7.283811e+001
8.214841e+002, 7.298240e+001
8.219662e+002, 7.279268e+001
8.224483e+002, 7.252538e+001
8.229304e+002, 7.246960e+001
8.234125e+002, 7.262217e+001
8.238947e+002, 7.278788e+001
8.243768e+002, 7.293640e+001
8.248589e+002, 7.308179e+001
8.253410e+002, 7.328790e+001
8.258231e+002, 7.345850e+001
8.263052e+002, 7.346798e+001
8.267874e+002, 7.333170e+001
8.272695e+002, 7.314076e+001
8.277516e+002, 7.292538e+001
8.282337e+002, 7.277422e+001
8.287158e+002, 7.286058e+001
8.291979e+002, 7.312389e+001
8.296801e+002, 7.331001e+001
8.301622e+002, 7.339544e+001
8.306443e+002, 7.346164e+001
8.311264e+002, 7.355135e+001
8.316085e+002, 7.363206e+001
8.320906e+002, 7.364787e+001
8.325728e+002, 7.358940e+001
8.330549e+002, 7.353322e+001
8.335370e+002, 7.354459e+001
8.340191e+002, 7.346038e+001
8.345012e+002, 7.297997e+001
8.349833e+002, 7.260499e+001
8.354655e+002, 7.294331e+001
8.359476e+002, 7.382015e+001
8.364297e+002, 7.429163e+001
8.369118e+002, 7.378460e+001
8.373939e+002, 7.328017e+001
8.378760e+002, 7.342049e+001
8.383582e+002, 7.377876e+001
8.388403e+002, 7.389913e+001
8.393224e+002, 7.376226e+001
8.398045e+002, 7.344749e+001
8.402866e+002, 7.298997e+001
8.407687e+002, 7.263611e+001
8.412509e+002, 7.286991e+001
8.417330e+002, 7.354563e+001
8.422151e+002, 7.375446e+001
8.426972e+002, 7.345030e+001
8.431793e+002, 7.317818e+001
8.436614e+002, 7.310838e+001
8.441436e+002, 7.322153e+001
8.446257e+002, 7.354504e+001
8.451078e+002, 7.406991e+001
8.455899e+002, 7.439565e+001
8.460720e+002, 7.435622e+001
8.465541e+002, 7.435397e+001
8.470363e+002, 7.451650e+001
8.475184e+002, 7.463724e+001
8.480005e+002, 7.451698e+001
8.484826e+002, 7.426709e+001
8.489647e+002, 7.418760e+001
8.494468e+002, 7.442651e+001
8.499290e+002, 7.451402e+001
8.504111e+002, 7.402957e+001
8.508932e+002, 7.340416e+001
8.513753e+002, 7.296629e+001
8.518574e+002, 7.277006e+001
8.523395e+002, 7.300679e+001
8.528217e+002, 7.366426e+001
8.533038e+002, 7.415489e+001
8.537859e+002, 7.377773e+001
8.542680e+002, 7.289484e+001
8.547501e+002, 7.277278e+001
8.552322e+002, 7.341042e+001
8.557144e+002, 7.360776e+001
8.561965e+002, 7.303352e+001
8.566786e+002, 7.240331e+001
8.571607e+002, 7.227502e+001
8.576428e+002, 7.247910e+001
8.581249e+002, 7.246437e+001
8.586071e+002, 7.209560e+001
8.590892e+002, 7.179951e+001
8.595713e+002, 7.145607e+001
8.600534e+002, 7.132140e+001
8.605355e+002, 7.169011e+001
8.610176e+002, 7.220039e+001
8.614998e+002, 7.238705e+001
8.619819e+002, 7.221276e+001
8.624640e+002, 7.206407e+001
8.629461e+002, 7.220356e+001
8.634282e+002, 7.230342e+001
8.639103e+002, 7.212596e+001
8.643925e+002, 7.177701e+001
8.648746e+002, 7.125683e+001
8.653567e+002, 7.069002e+001
8.658388e+002, 7.054641e+001
8.663209e+002, 7.114273e+001
8.668030e+002, 7.193906e+001
8.672852e+002, 7.207967e+001
8.677673e+002, 7.167311e+001
8.682494e+002, 7.123170e+001
8.687315e+002, 7.077968e+001
8.692136e+002, 7.053171e+001
8.696957e+002, 7.061479e+001
8.701779e+002, 7.079977e+001
8.706600e+002, 7.075263e+001
8.711421e+002, 7.046898e+001
8.716242e+002, 7.048503e+001
8.721063e+002, 7.117391e+001
8.725884e+002, 7.150469e+001
8.730705e+002, 7.091509e+001
8.735526e+002, 7.028343e+001
8.740347e+002, 7.023040e+001
8.745168e+002, 7.052829e+001
8.749990e+002, 7.056608e+001
8.754811e+002, 7.013181e+001
8.759632e+002, 6.978977e+001
8.764453e+002, 6.995479e+001
8.769274e+002, 7.007349e+001
8.774095e+002, 6.958497e+001
8.778917e+002, 6.881702e+001
8.783738e+002, 6.830873e+001
8.788559e+002, 6.820309e+001
8.793380e+002, 6.840171e+001
8.798201e+002, 6.903275e+001
8.803022e+002, 6.968276e+001
8.807844e+002, 6.951206e+001
8.812665e+002, 6.876488e+001
8.817486e+002, 6.837904e+001
8.822307e+002, 6.848692e+001
8.827128e+002, 6.862532e+001
8.831949e+002, 6.851389e+001
8.836771e+002, 6.820212e+001
8.841592e+002, 6.772648e+001
8.846413e+002, 6.701278e+001
8.851234e+002, 6.672710e+001
8.856055e+002, 6.707222e+001
8.860876e+002, 6.734190e+001
8.865698e+002, 6.725238e+001
8.870519e+002, 6.702265e+001
8.875340e+002, 6.690306e+001
8.880161e+002, 6.688170e+001
8.884982e+002, 6.676824e+001
8.889803e+002, 6.649078e+001
8.894625e+002, 6.621542e+001
8.899446e+002, 6.576422e+001
8.904267e+002, 6.551699e+001
8.909088e+002, 6.601015e+001
8.913909e+002, 6.682938e+001
8.918730e+002, 6.710213e+001
8.923552e+002, 6.657198e+001
8.928373e+002, 6.598158e+001
8.933194e+002, 6.587183e+001
8.938015e+002, 6.588166e+001
8.942836e+002, 6.565371e+001
8.947657e+002, 6.523868e+001
8.952479e+002, 6.467993e+001
8.957300e+002, 6.404533e+001
8.962121e+002, 6.360495e+001
8.966942e+002, 6.357952e+001
8.971763e+002, 6.380983e+001
8.976584e+002, 6.401123e+001
8.981406e+002, 6.418240e+001
8.986227e+002, 6.433878e+001
8.991048e+002, 6.448903e+001
8.995869e+002, 6.451389e+001
9.000690e+002, 6.433978e+001
9.005511e+002, 6.405810e+001
9.010333e+002, 6.380068e+001
9.015154e+002, 6.356944e+001
9.019975e+002, 6.331661e+001
9.024796e+002, 6.302026e+001
9.029617e+002, 6.273886e+001
9.034438e+002, 6.236823e+001
9.039260e+002, 6.213180e+001
9.044081e+002, 6.230727e+001
9.048902e+002, 6.271763e+001
9.053723e+002, 6.289075e+001
9.058544e+002, 6.268267e+001
9.063365e+002, 6.250744e+001
9.068187e+002, 6.251173e+001
9.073008e+002, 6.252776e+001
9.077829e+002, 6.247237e+001
9.082650e+002, 6.235772e+001
9.087471e+002, 6.220683e+001
9.092292e+002, 6.202476e+001
9.097114e+002, 6.180291e+001
9.101935e+002, 6.151807e+001
9.106756e+002, 6.122181e+001
9.111577e+002, 6.094683e+001
9.116398e+002, 6.070447e+001
9.121219e+002, 6.053333e+001
9.126041e+002, 6.042246e+001
9.130862e+002, 6.028137e+001
9.135683e+002, 6.006730e+001
9.140504e+002, 5.992027e+001
9.145325e+002, 6.009641e+001
9.150146e+002, 6.051099e+001
9.154968e+002, 6.065845e+001
9.159789e+002, 6.053149e+001
9.164610e+002, 6.035397e+001
9.169431e+002, 6.016887e+001
9.174252e+002, 5.999812e+001
9.179073e+002, 5.984962e+001
9.183895e+002, 5.973651e+001
9.188716e+002, 5.971165e+001
9.193537e+002, 5.981872e+001
9.198358e+002, 5.990172e+001
9.203179e+002, 5.995367e+001
9.208000e+002, 5.998935e+001
9.212822e+002, 6.002036e+001
9.217643e+002, 6.003278e+001
9.222464e+002, 6.000216e+001
9.227285e+002, 5.993016e+001
9.232106e+002, 5.986782e+001
9.236927e+002, 5.977168e+001
9.241749e+002, 5.975350e+001
9.246570e+002, 6.001859e+001
9.251391e+002, 6.021829e+001
9.256212e+002, 5.997196e+001
9.261033e+002, 5.947195e+001
9.265854e+002, 5.914912e+001
9.270676e+002, 5.913231e+001
9.275497e+002, 5.919471e+001
9.280318e+002, 5.916943e+001
9.285139e+002, 5.916817e+001
9.289960e+002, 5.940796e+001
9.294781e+002, 5.972129e+001
9.299603e+002, 5.971486e+001
9.304424e+002, 5.939154e+001
9.309245e+002, 5.918270e+001
9.314066e+002, 5.939232e+001
9.318887e+002, 5.968528e+001
9.323708e+002, 5.941589e+001
9.328530e+002, 5.876714e+001
9.333351e+002, 5.857035e+001
9.338172e+002, 5.883923e+001
9.342993e+002, 5.899070e+001
9.347814e+002, 5.879706e+001
9.352635e+002, 5.853644e+001
9.357457e+002, 5.851256e+001
9.362278e+002, 5.868657e+001
9.367099e+002, 5.883669e+001
9.371920e+002, 5.896140e+001
9.376741e+002, 5.908472e+001
9.381563e+002, 5.927649e+001
9.386384e+002, 5.930725e+001
9.391205e+002, 5.895371e+001
9.396026e+002, 5.843994e+001
9.400847e+002, 5.817868e+001
9.405668e+002, 5.822713e+001
9.410490e+002, 5.819283e+001
9.415311e+002, 5.787270e+001
9.420132e+002, 5.775071e+001
9.424953e+002, 5.809389e+001
9.429774e+002, 5.850713e+001
9.434595e+002, 5.875699e+001
9.439417e+002, 5.883658e+001
9.444238e+002, 5.873480e+001
9.449059e+002, 5.837135e+001
9.453880e+002, 5.812922e+001
9.458701e+002, 5.827516e+001
9.463522e+002, 5.844617e+001
9.468344e+002, 5.831616e+001
9.473165e+002, 5.811056e+001
9.477986e+002, 5.824744e+001
9.482807e+002, 5.868147e+001
9.487628e+002, 5.888208e+001
9.492449e+002, 5.848899e+001
9.497271e+002, 5.796549e+001
9.502092e+002, 5.770565e+001
9.506913e+002, 5.762791e+001
9.511734e+002, 5.766779e+001
9.516555e+002, 5.776894e+001
9.521376e+002, 5.781596e+001
9.526198e+002, 5.776403e+001
9.531019e+002, 5.757233e+001
9.535840e+002, 5.708123e+001
9.540661e+002, 5.657275e+001
9.545482e+002, 5.695375e+001
9.550303e+002, 5.803169e+001
9.555124e+002, 5.843590e+001
9.559945e+002, 5.797691e+001
9.564766e+002, 5.750320e+001
9.569587e+002, 5.746461e+001
9.574409e+002, 5.768968e+001
9.579230e+002, 5.794569e+001
9.584051e+002, 5.822991e+001
9.588872e+002, 5.828137e+001
9.593693e+002, 5.804983e+001
9.598514e+002, 5.779656e+001
9.603336e+002, 5.757066e+001
9.608157e+002, 5.734357e+001
9.612978e+002, 5.705022e+001
9.617799e+002, 5.677024e+001
9.622620e+002, 5.674823e+001
9.627441e+002, 5.711381e+001
9.632263e+002, 5.733780e+001
9.637084e+002, 5.741414e+001
9.641905e+002, 5.735335e+001
9.646726e+002, 5.694423e+001
9.651547e+002, 5.657768e+001
9.656368e+002, 5.669109e+001
9.661190e+002, 5.716433e+001
9.666011e+002, 5.741541e+001
9.670832e+002, 5.726617e+001
9.675653e+002, 5.711140e+001
9.680474e+002, 5.696645e+001
9.685295e+002, 5.691172e+001
9.690117e+002, 5.711571e+001
9.694938e+002, 5.736890e+001
9.699759e+002, 5.731115e+001
9.704580e+002, 5.696444e+001
9.709401e+002, 5.683140e+001
9.714222e+002, 5.731823e+001
9.719044e+002, 5.777251e+001
9.723865e+002, 5.774917e+001
9.728686e+002, 5.751234e+001
9.733507e+002, 5.730527e+001
9.738328e+002, 5.713195e+001
9.743149e+002, 5.687349e+001
9.747971e+002, 5.652143e+001
9.752792e+002, 5.635647e+001
9.757613e+002, 5.677915e+001
9.762434e+002, 5.731384e+001
9.767255e+002, 5.724077e+001
9.772076e+002, 5.682055e+001
9.776898e+002, 5.662294e+001
9.781719e+002, 5.667483e+001
9.786540e+002, 5.667752e+001
9.791361e+002, 5.648918e+001
9.796182e+002, 5.629401e+001
9.801003e+002, 5.637701e+001
9.805825e+002, 5.661763e+001
9.810646e+002, 5.655914e+001
9.815467e+002, 5.624780e+001
9.820288e+002, 5.609893e+001
9.825109e+002, 5.619436e+001
9.829930e+002, 5.618904e+001
9.834752e+002, 5.583262e+001
9.839573e+002, 5.536618e+001
9.844394e+002, 5.526019e+001
9.849215e+002, 5.551684e+001
9.854036e+002, 5.583403e+001
9.858857e+002, 5.625819e+001
9.863679e+002, 5.642071e+001
9.868500e+002, 5.613906e+001
9.873321e+002, 5.585412e+001
9.878142e+002, 5.594506e+001
9.882963e+002, 5.628761e+001
9.887784e+002, 5.650941e+001
9.892606e+002, 5.664225e+001
9.897427e+002, 5.651266e+001
9.902248e+002, 5.591618e+001
9.907069e+002, 5.544892e+001
9.911890e+002, 5.529260e+001
9.916711e+002, 5.534303e+001
9.921533e+002, 5.556435e+001
9.926354e+002, 5.591969e+001
9.931175e+002, 5.618824e+001
9.935996e+002, 5.635511e+001
9.940817e+002, 5.646195e+001
9.945638e+002, 5.650232e+001
9.950460e+002, 5.649209e+001
9.955281e+002, 5.637353e+001
9.960102e+002, 5.625167e+001
9.964923e+002, 5.626373e+001
9.969744e+002, 5.639206e+001
9.974565e+002, 5.646335e+001
9.979387e+002, 5.634576e+001
9.984208e+002, 5.633485e+001
9.989029e+002, 5.663594e+001
9.993850e+002, 5.692826e+001
9.998671e+002, 5.701851e+001
1.000349e+003, 5.696637e+001
1.000831e+003, 5.685810e+001
1.001313e+003, 5.671193e+001
1.001796e+003, 5.653172e+001
1.002278e+003, 5.623431e+001
1.002760e+003, 5.603328e+001
1.003242e+003, 5.619559e+001
1.003724e+003, 5.637654e+001
1.004206e+003, 5.611434e+001
1.004688e+003, 5.566375e+001
1.005170e+003, 5.562129e+001
1.005653e+003, 5.609053e+001
1.006135e+003, 5.651842e+001
1.006617e+003, 5.650220e+001
1.007099e+003, 5.637462e+001
1.007581e+003, 5.651357e+001
1.008063e+003, 5.669636e+001
1.008545e+003, 5.647430e+001
1.009027e+003, 5.601291e+001
1.009509e+003, 5.597643e+001
1.009992e+003, 5.654913e+001
1.010474e+003, 5.697440e+001
1.010956e+003, 5.637239e+001
1.011438e+003, 5.547551e+001
1.011920e+003, 5.551448e+001
1.012402e+003, 5.608784e+001
1.012884e+003, 5.622403e+001
1.013366e+003, 5.589954e+001
1.013849e+003, 5.564326e+001
1.014331e+003, 5.568590e+001
1.014813e+003, 5.583407e+001
1.015295e+003, 5.588395e+001
1.015777e+003, 5.586795e+001
1.016259e+003, 5.583065e+001
1.016741e+003, 5.579588e+001
1.017223e+003, 5.588907e+001
1.017705e+003, 5.612123e+001
1.018188e+003, 5.643148e+001
1.018670e+003, 5.679665e+001
1.019152e+003, 5.707817e+001
1.019634e+003, 5.705620e+001
1.020116e+003, 5.679370e+001
1.020598e+003, 5.658873e+001
1.021080e+003, 5.644027e+001
1.021562e+003, 5.628754e+001
1.022044e+003, 5.611552e+001
1.022527e+003, 5.604383e+001
1.023009e+003, 5.615920e+001
1.023491e+003, 5.632597e+001
1.023973e+003, 5.632847e+001
1.024455e+003, 5.617290e+001
1.024937e+003, 5.591233e+001
1.025419e+003, 5.550529e+001
1.025901e+003, 5.539239e+001
1.026384e+003, 5.571746e+001
1.026866e+003, 5.607148e+001
1.027348e+003, 5.621766e+001
1.027830e+003, 5.619482e+001
1.028312e+003, 5.603804e+001
1.028794e+003, 5.573196e+001
1.029276e+003, 5.568627e+001
1.029758e+003, 5.599641e+001
1.030240e+003, 5.623090e+001
1.030723e+003, 5.629728e+001
1.031205e+003, 5.631097e+001
1.031687e+003, 5.638210e+001
1.032169e+003, 5.640424e+001
1.032651e+003, 5.610115e+001
1.033133e+003, 5.537942e+001
1.033615e+003, 5.515064e+001
1.034097e+003, 5.572984e+001
1.034579e+003, 5.610447e+001
1.035062e+003, 5.596798e+001
1.035544e+003, 5.575840e+001
1.036026e+003, 5.572513e+001
1.036508e+003, 5.583851e+001
1.036990e+003, 5.607243e+001
1.037472e+003, 5.648441e+001
1.037954e+003, 5.668917e+001
1.038436e+003, 5.658189e+001
1.038919e+003, 5.643221e+001
1.039401e+003, 5.627568e+001
1.039883e+003, 5.610131e+001
1.040365e+003, 5.580351e+001
1.040847e+003, 5.551390e+001
1.041329e+003, 5.555218e+001
1.041811e+003, 5.600782e+001
1.042293e+003, 5.631742e+001
1.042776e+003, 5.655769e+001
1.043258e+003, 5.653132e+001
1.043740e+003, 5.585468e+001
1.044222e+003, 5.524768e+001
1.044704e+003, 5.529440e+001
1.045186e+003, 5.570030e+001
1.045668e+003, 5.586328e+001
1.046150e+003, 5.569798e+001
1.046632e+003, 5.563049e+001
1.047115e+003, 5.588708e+001
1.047597e+003, 5.599576e+001
1.048079e+003, 5.564223e+001
1.048561e+003, 5.529791e+001
1.049043e+003, 5.538020e+001
1.049525e+003, 5.566970e+001
1.050007e+003, 5.569795e+001
1.050489e+003, 5.538097e+001
1.050971e+003, 5.520133e+001
1.051454e+003, 5.552620e+001
1.051936e+003, 5.562624e+001
1.052418e+003, 5.490057e+001
1.052900e+003, 5.424714e+001
1.053382e+003, 5.448900e+001
1.053864e+003, 5.520509e+001
1.054346e+003, 5.554377e+001
1.054828e+003, 5.537524e+001
1.055311e+003, 5.532436e+001
1.055793e+003, 5.576882e+001
1.056275e+003, 5.606838e+001
1.056757e+003, 5.590645e+001
1.057239e+003, 5.561572e+001
1.057721e+003, 5.539468e+001
1.058203e+003, 5.524657e+001
1.058685e+003, 5.514700e+001
1.059167e+003, 5.509087e+001
1.059650e+003, 5.504845e+001
1.060132e+003, 5.509301e+001
1.060614e+003, 5.503767e+001
1.061096e+003, 5.471113e+001
1.061578e+003, 5.435576e+001
1.062060e+003, 5.410110e+001
1.062542e+003, 5.397080e+001
1.063024e+003, 5.397625e+001
1.063506e+003, 5.411876e+001
1.063989e+003, 5.439368e+001
1.064471e+003, 5.499769e+001
1.064953e+003, 5.545315e+001
1.065435e+003, 5.544369e+001
1.065917e+003, 5.533021e+001
1.066399e+003, 5.549393e+001
1.066881e+003, 5.568779e+001
1.067363e+003, 5.540454e+001
1.067846e+003, 5.464738e+001
1.068328e+003, 5.407857e+001
1.068810e+003, 5.398782e+001
1.069292e+003, 5.405355e+001
1.069774e+003, 5.429786e+001
1.070256e+003, 5.447725e+001
1.070738e+003, 5.431747e+001
1.071220e+003, 5.402831e+001
1.071703e+003, 5.394239e+001
1.072185e+003, 5.406636e+001
1.072667e+003, 5.411613e+001
1.073149e+003, 5.393142e+001
1.073631e+003, 5.378840e+001
1.074113e+003, 5.388905e+001
1.074595e+003, 5.400050e+001
1.075077e+003, 5.392430e+001
1.075559e+003, 5.377409e+001
1.076042e+003, 5.366894e+001
1.076524e+003, 5.364705e+001
1.077006e+003, 5.380370e+001
1.077488e+003, 5.431225e+001
1.077970e+003, 5.454628e+001
1.078452e+003, 5.390261e+001
1.078934e+003, 5.322868e+001
1.079416e+003, 5.312271e+001
1.079898e+003, 5.329463e+001
1.080380e+003, 5.340925e+001
1.080863e+003, 5.343605e+001
1.081345e+003, 5.345957e+001
1.081827e+003, 5.350987e+001
1.082309e+003, 5.353572e+001
1.082791e+003, 5.343705e+001
1.083273e+003, 5.339606e+001
1.083755e+003, 5.365628e+001
1.084237e+003, 5.392950e+001
1.084720e+003, 5.384015e+001
1.085202e+003, 5.350068e+001
1.085684e+003, 5.329802e+001
1.086166e+003, 5.334890e+001
1.086648e+003, 5.337386e+001
1.087130e+003, 5.324786e+001
1.087612e+003, 5.307478e+001
1.088094e+003, 5.274770e+001
1.088577e+003, 5.253601e+001
1.089059e+003, 5.291367e+001
1.089541e+003, 5.353407e+001
1.090023e+003, 5.357241e+001
1.090505e+003, 5.285793e+001
1.090987e+003, 5.229889e+001
1.091469e+003, 5.233190e+001
1.091951e+003, 5.245842e+001
1.092433e+003, 5.250401e+001
1.092916e+003, 5.252364e+001
1.093398e+003, 5.255772e+001
1.093880e+003, 5.260011e+001
1.094362e+003, 5.260846e+001
1.094844e+003, 5.258786e+001
1.095326e+003, 5.267128e+001
1.095808e+003, 5.303363e+001
1.096290e+003, 5.330903e+001
1.096772e+003, 5.340815e+001
1.097255e+003, 5.335075e+001
1.097737e+003, 5.302044e+001
1.098219e+003, 5.262069e+001
1.098701e+003, 5.239262e+001
1.099183e+003, 5.235649e+001
1.099665e+003, 5.244721e+001
1.100147e+003, 5.277234e+001
1.100629e+003, 5.296530e+001
1.101112e+003, 5.281623e+001
1.101594e+003, 5.264933e+001
1.102076e+003, 5.263778e+001
1.102558e+003, 5.267776e+001
1.103040e+003, 5.260345e+001
1.103522e+003, 5.247358e+001
1.104004e+003, 5.256690e+001
1.104486e+003, 5.306731e+001
1.104969e+003, 5.332964e+001
1.105451e+003, 5.309444e+001
1.105933e+003, 5.279241e+001
1.106415e+003, 5.239803e+001
1.106897e+003, 5.215459e+001
1.107379e+003, 5.237297e+001
1.107861e+003, 5.286429e+001
1.108343e+003, 5.319587e+001
1.108825e+003, 5.335392e+001
1.109307e+003, 5.325081e+001
1.109790e+003, 5.251716e+001
1.110272e+003, 5.203697e+001
1.110754e+003, 5.219046e+001
1.111236e+003, 5.243199e+001
1.111718e+003, 5.241278e+001
1.112200e+003, 5.228091e+001
1.112682e+003, 5.231626e+001
1.113164e+003, 5.253688e+001
1.113647e+003, 5.259785e+001
1.114129e+003, 5.234758e+001
1.114611e+003, 5.219099e+001
1.115093e+003, 5.221025e+001
1.115575e+003, 5.225502e+001
1.116057e+003, 5.232566e+001
1.116539e+003, 5.232990e+001
1.117021e+003, 5.211497e+001
1.117504e+003, 5.172353e+001
1.117986e+003, 5.146947e+001
1.118468e+003, 5.135641e+001
1.118950e+003, 5.138435e+001
1.119432e+003, 5.164505e+001
1.119914e+003, 5.185554e+001
1.120396e+003, 5.187486e+001
1.120878e+003, 5.191154e+001
1.121360e+003, 5.220591e+001
1.121843e+003, 5.261003e+001
1.122325e+003, 5.264571e+001
1.122807e+003, 5.220039e+001
1.123289e+003, 5.210461e+001
1.123771e+003, 5.249113e+001
1.124253e+003, 5.278318e+001
1.124735e+003, 5.287268e+001
1.125217e+003, 5.279481e+001
1.125699e+003, 5.254425e+001
1.126182e+003, 5.219170e+001
1.126664e+003, 5.182201e+001
1.127146e+003, 5.145206e+001
1.127628e+003, 5.145482e+001
1.128110e+003, 5.189170e+001
1.128592e+003, 5.211438e+001
1.129074e+003, 5.200395e+001
1.129556e+003, 5.196765e+001
1.130039e+003, 5.221752e+001
1.130521e+003, 5.243411e+001
1.131003e+003, 5.220887e+001
1.131485e+003, 5.172393e+001
1.131967e+003, 5.167003e+001
1.132449e+003, 5.201653e+001
1.132931e+003, 5.223572e+001
1.133413e+003, 5.229686e+001
1.133896e+003, 5.217451e+001
1.134378e+003, 5.186199e+001
1.134860e+003, 5.167994e+001
1.135342e+003, 5.188830e+001
1.135824e+003, 5.231623e+001
1.136306e+003, 5.278534e+001
1.136788e+003, 5.319393e+001
1.137270e+003, 5.305206e+001
1.137752e+003, 5.246576e+001
1.138234e+003, 5.190373e+001
1.138717e+003, 5.148095e+001
1.139199e+003, 5.129628e+001
1.139681e+003, 5.139993e+001
1.140163e+003, 5.162328e+001
1.140645e+003, 5.183892e+001
1.141127e+003, 5.199186e+001
1.141609e+003, 5.193879e+001
1.142091e+003, 5.176390e+001
1.142574e+003, 5.161848e+001
1.143056e+003, 5.153385e+001
1.143538e+003, 5.159525e+001
1.144020e+003, 5.179189e+001
1.144502e+003, 5.180113e+001
1.144984e+003, 5.125788e+001
1.145466e+003, 5.076358e+001
1.145948e+003, 5.116896e+001
1.146431e+003, 5.180775e+001
1.146913e+003, 5.168860e+001
1.147395e+003, 5.122557e+001
1.147877e+003, 5.126641e+001
1.148359e+003, 5.187561e+001
1.148841e+003, 5.266850e+001
1.149323e+003, 5.357915e+001
1.149805e+003, 5.406301e+001
1.150287e+003, 5.345586e+001
1.150770e+003, 5.266317e+001
1.151252e+003, 5.225248e+001
1.151734e+003, 5.207313e+001
1.152216e+003, 5.190643e+001
1.152698e+003, 5.182481e+001
1.153180e+003, 5.214633e+001
1.153662e+003, 5.293249e+001
1.154144e+003, 5.339693e+001
1.154626e+003, 5.310512e+001
1.155109e+003, 5.269673e+001
1.155591e+003, 5.218118e+001
1.156073e+003, 5.183485e+001
1.156555e+003, 5.198862e+001
1.157037e+003, 5.230682e+001
1.157519e+003, 5.230401e+001
1.158001e+003, 5.201894e+001
1.158483e+003, 5.193252e+001
1.158966e+003, 5.225840e+001
1.159448e+003, 5.242031e+001
1.159930e+003, 5.227783e+001
1.160412e+003, 5.210865e+001
1.160894e+003, 5.188369e+001
1.161376e+003, 5.177717e+001
1.161858e+003, 5.204848e+001
1.162340e+003, 5.245440e+001
1.162822e+003, 5.243172e+001
1.163305e+003, 5.192635e+001
1.163787e+003, 5.156345e+001
1.164269e+003, 5.132621e+001
1.164751e+003, 5.131068e+001
1.165233e+003, 5.161599e+001
1.165715e+003, 5.188829e+001
1.166197e+003, 5.195179e+001
1.166679e+003, 5.194133e+001
1.167161e+003, 5.203846e+001
1.167644e+003, 5.217287e+001
1.168126e+003, 5.197346e+001
1.168608e+003, 5.141706e+001
1.169090e+003, 5.126152e+001
1.169572e+003, 5.154491e+001
1.170054e+003, 5.211415e+001
1.170536e+003, 5.294025e+001
1.171018e+003, 5.339675e+001
1.171500e+003, 5.301988e+001
1.171983e+003, 5.225441e+001
1.172465e+003, 5.171825e+001
1.172947e+003, 5.141286e+001
1.173429e+003, 5.142614e+001
1.173911e+003, 5.167000e+001
1.174393e+003, 5.184566e+001
1.174875e+003, 5.190248e+001
1.175357e+003, 5.182248e+001
1.175840e+003, 5.160544e+001
1.176322e+003, 5.131580e+001
1.176804e+003, 5.092028e+001
1.177286e+003, 5.067231e+001
1.177768e+003, 5.105017e+001
1.178250e+003, 5.165613e+001
1.178732e+003, 5.194068e+001
1.179214e+003, 5.198077e+001
1.179697e+003, 5.196224e+001
1.180179e+003, 5.194555e+001
1.180661e+003, 5.195105e+001
1.181143e+003, 5.196865e+001
1.181625e+003, 5.215723e+001
1.182107e+003, 5.305210e+001
1.182589e+003, 5.361935e+001
1.183071e+003, 5.276091e+001
1.183553e+003, 5.162723e+001
1.184036e+003, 5.129427e+001
1.184518e+003, 5.154322e+001
1.185000e+003, 5.185469e+001
1.185482e+003, 5.214131e+001
1.185964e+003, 5.237367e+001
1.186446e+003, 5.261549e+001
1.186928e+003, 5.269138e+001
1.187410e+003, 5.227719e+001
1.187892e+003, 5.206004e+001
1.188375e+003, 5.265345e+001
1.188857e+003, 5.328594e+001
1.189339e+003, 5.315421e+001
1.189821e+003, 5.252642e+001
1.190303e+003, 5.216069e+001
1.190785e+003, 5.207431e+001
1.191267e+003, 5.218578e+001
1.191749e+003, 5.267958e+001
1.192232e+003, 5.280544e+001
1.192714e+003, 5.228334e+001
1.193196e+003, 5.187452e+001
1.193678e+003, 5.200174e+001
1.194160e+003, 5.229390e+001
1.194642e+003, 5.228967e+001
1.195124e+003, 5.208176e+001
1.195606e+003, 5.204620e+001
1.196089e+003, 5.217508e+001
1.196571e+003, 5.228981e+001
1.197053e+003, 5.237709e+001
1.197535e+003, 5.232867e+001
1.198017e+003, 5.212778e+001
1.198499e+003, 5.198443e+001
1.198981e+003, 5.203301e+001
1.199463e+003, 5.214251e+001
1.199945e+003, 5.211760e+001
1.200427e+003, 5.204816e+001
1.200910e+003, 5.215947e+001
1.201392e+003, 5.234903e+001
1.201874e+003, 5.241616e+001
1.202356e+003, 5.234280e+001
1.202838e+003, 5.207699e+001
1.203320e+003, 5.166178e+001
1.203802e+003, 5.146539e+001
1.204284e+003, 5.177758e+001
1.204767e+003, 5.213899e+001
1.205249e+003, 5.223040e+001
1.205731e+003, 5.219590e+001
1.206213e+003, 5.206443e+001
1.206695e+003, 5.194397e+001
1.207177e+003, 5.200494e+001
1.207659e+003, 5.217004e+001
1.208141e+003, 5.218804e+001
1.208624e+003, 5.199656e+001
1.209106e+003, 5.190131e+001
1.209588e+003, 5.207195e+001
1.210070e+003, 5.220089e+001
1.210552e+003, 5.228498e+001
1.211034e+003, 5.224055e+001
1.211516e+003, 5.177025e+001
1.211998e+003, 5.137935e+001
1.212480e+003, 5.173971e+001
1.212963e+003, 5.256853e+001
1.213445e+003, 5.272437e+001
1.213927e+003, 5.196217e+001
1.214409e+003, 5.183527e+001
1.214891e+003, 5.260111e+001
1.215373e+003, 5.292892e+001
1.215855e+003, 5.248180e+001
1.216337e+003, 5.199733e+001
1.216819e+003, 5.185644e+001
1.217302e+003, 5.191639e+001
1.217784e+003, 5.202435e+001
1.218266e+003, 5.216141e+001
1.218748e+003, 5.230506e+001
1.219230e+003, 5.242611e+001
1.219712e+003, 5.230320e+001
1.220194e+003, 5.199588e+001
1.220676e+003, 5.187857e+001
1.221159e+003, 5.200964e+001
1.221641e+003, 5.213976e+001
1.222123e+003, 5.213276e+001
1.222605e+003, 5.213680e+001
1.223087e+003, 5.237537e+001
1.223569e+003, 5.262795e+001
1.224051e+003, 5.267754e+001
1.224533e+003, 5.255877e+001
1.225016e+003, 5.215982e+001
1.225498e+003, 5.169671e+001
1.225980e+003, 5.163599e+001
1.226462e+003, 5.197334e+001
1.226944e+003, 5.216277e+001
1.227426e+003, 5.193888e+001
1.227908e+003, 5.177886e+001
1.228390e+003, 5.185566e+001
1.228872e+003, 5.201543e+001
1.229354e+003, 5.227704e+001
1.229837e+003, 5.251522e+001
1.230319e+003, 5.268987e+001
1.230801e+003, 5.274522e+001
1.231283e+003, 5.254305e+001
1.231765e+003, 5.209529e+001
1.232247e+003, 5.181755e+001
1.232729e+003, 5.169889e+001
1.233211e+003, 5.183619e+001
1.233694e+003, 5.237988e+001
1.234176e+003, 5.263076e+001
1.234658e+003, 5.232415e+001
1.235140e+003, 5.190778e+001
1.235622e+003, 5.168345e+001
1.236104e+003, 5.163448e+001
1.236586e+003, 5.181239e+001
1.237068e+003, 5.210032e+001
1.237551e+003, 5.192772e+001
1.238033e+003, 5.141733e+001
1.238515e+003, 5.102411e+001
1.238997e+003, 5.084057e+001
1.239479e+003, 5.110619e+001
1.239961e+003, 5.180976e+001
1.240443e+003, 5.240711e+001
1.240925e+003, 5.256605e+001
1.241407e+003, 5.243793e+001
1.241890e+003, 5.193334e+001
1.242372e+003, 5.145941e+001
1.242854e+003, 5.148558e+001
1.243336e+003, 5.172122e+001
1.243818e+003, 5.185220e+001
1.244300e+003, 5.186801e+001
1.244782e+003, 5.180854e+001
1.245264e+003, 5.169284e+001
1.245746e+003, 5.163969e+001
1.246229e+003, 5.174729e+001
1.246711e+003, 5.179463e+001
1.247193e+003, 5.167157e+001
1.247675e+003, 5.157985e+001
1.248157e+003, 5.151624e+001
1.248639e+003, 5.160290e+001
1.249121e+003, 5.205517e+001
1.249603e+003, 5.258588e+001
1.250085e+003, 5.265113e+001
1.250568e+003, 5.228004e+001
1.251050e+003, 5.194987e+001
1.251532e+003, 5.163793e+001
1.252014e+003, 5.165972e+001
1.252496e+003, 5.205083e+001
1.252978e+003, 5.247837e+001
1.253460e+003, 5.284112e+001
1.253942e+003, 5.298443e+001
1.254425e+003, 5.278825e+001
1.254907e+003, 5.246208e+001
1.255389e+003, 5.222237e+001
1.255871e+003, 5.211150e+001
1.256353e+003, 5.228040e+001
1.256835e+003, 5.260004e+001
1.257317e+003, 5.292959e+001
1.257799e+003, 5.316257e+001
1.258281e+003, 5.302793e+001
1.258764e+003, 5.255943e+001
1.259246e+003, 5.227368e+001
1.259728e+003, 5.248049e+001
1.260210e+003, 5.254537e+001
1.260692e+003, 5.177569e+001
1.261174e+003, 5.131890e+001
1.261656e+003, 5.212634e+001
1.262138e+003, 5.303981e+001
1.262620e+003, 5.317621e+001
1.263103e+003, 5.281983e+001
1.263585e+003, 5.233296e+001
1.264067e+003, 5.178661e+001
1.264549e+003, 5.180485e+001
1.265031e+003, 5.270295e+001
1.265513e+003, 5.304354e+001
1.265995e+003, 5.266659e+001
1.266477e+003, 5.242354e+001
1.266960e+003, 5.252229e+001
1.267442e+003, 5.262249e+001
1.267924e+003, 5.252285e+001
1.268406e+003, 5.245564e+001
1.268888e+003, 5.274432e+001
1.269370e+003, 5.317823e+001
1.269852e+003, 5.328508e+001
1.270334e+003, 5.314386e+001
1.270817e+003, 5.287266e+001
1.271299e+003, 5.255146e+001
1.271781e+003, 5.232104e+001
1.272263e+003, 5.222262e+001
1.272745e+003, 5.229635e+001
1.273227e+003, 5.255854e+001
1.273709e+003, 5.288161e+001
1.274191e+003, 5.340975e+001
1.274673e+003, 5.367558e+001
1.275156e+003, 5.312639e+001
1.275638e+003, 5.260124e+001
1.276120e+003, 5.275307e+001
1.276602e+003, 5.315676e+001
1.277084e+003, 5.334550e+001
1.277566e+003, 5.334589e+001
1.278048e+003, 5.330394e+001
1.278530e+003, 5.320164e+001
1.279012e+003, 5.323871e+001
1.279495e+003, 5.344777e+001
1.279977e+003, 5.369981e+001
1.280459e+003, 5.402964e+001
1.280941e+003, 5.410946e+001
1.281423e+003, 5.378591e+001
1.281905e+003, 5.350091e+001
1.282387e+003, 5.361219e+001
1.282869e+003, 5.391772e+001
1.283352e+003, 5.410445e+001
1.283834e+003, 5.420427e+001
1.284316e+003, 5.428041e+001
1.284798e+003, 5.433557e+001
##END=



