##NAMES=Eulytine
##RRUFFID=R130114
##IDEAL CHEMISTRY=Bi_4_(SiO_4_)_3_
##LOCALITY=Flying Saucer Group, Maricopa County, Arizona
##OWNER=RRUFF
##SOURCE=Mark Ascher
##DESCRIPTION=White or colorless octahedra, associated with R130113 kettnerite, green mottramite
##STATUS=The identification of this mineral has been confirmed by single-crystal X-ray diffraction.
##URL=rruff.info/R130114
8.975323e+001, 0.000000e+000
9.023535e+001, 4.215839e+004
9.071747e+001, 3.734783e+004
9.119958e+001, 3.546989e+004
9.168170e+001, 3.935791e+004
9.216382e+001, 4.459507e+004
9.264594e+001, 5.051344e+004
9.312805e+001, 5.659931e+004
9.361017e+001, 6.154943e+004
9.409229e+001, 6.304856e+004
9.457440e+001, 6.013916e+004
9.505651e+001, 5.550057e+004
9.553863e+001, 4.808382e+004
9.602074e+001, 3.991624e+004
9.650286e+001, 3.263359e+004
9.698498e+001, 2.686796e+004
9.746709e+001, 2.243110e+004
9.794921e+001, 1.925203e+004
9.843133e+001, 1.761557e+004
9.891344e+001, 1.644451e+004
9.939556e+001, 1.560898e+004
9.987768e+001, 1.503498e+004
1.003598e+002, 1.454062e+004
1.008419e+002, 1.397378e+004
1.013240e+002, 1.343122e+004
1.018061e+002, 1.318837e+004
1.022883e+002, 1.315693e+004
1.027704e+002, 1.346232e+004
1.032525e+002, 1.434855e+004
1.037346e+002, 1.592010e+004
1.042167e+002, 1.753528e+004
1.046988e+002, 1.921474e+004
1.051810e+002, 2.063139e+004
1.056631e+002, 2.110938e+004
1.061452e+002, 2.007927e+004
1.066273e+002, 1.783876e+004
1.071094e+002, 1.555120e+004
1.075915e+002, 1.292896e+004
1.080737e+002, 1.064613e+004
1.085558e+002, 8.951686e+003
1.090379e+002, 7.780170e+003
1.095200e+002, 6.975504e+003
1.100021e+002, 6.439228e+003
1.104842e+002, 6.214398e+003
1.109664e+002, 6.052464e+003
1.114485e+002, 5.967854e+003
1.119306e+002, 5.926363e+003
1.124127e+002, 5.930019e+003
1.128948e+002, 5.970680e+003
1.133769e+002, 6.023241e+003
1.138591e+002, 6.050366e+003
1.143412e+002, 6.024997e+003
1.148233e+002, 6.023037e+003
1.153054e+002, 6.038992e+003
1.157875e+002, 6.078793e+003
1.162696e+002, 6.151818e+003
1.167517e+002, 6.262388e+003
1.172339e+002, 6.399636e+003
1.177160e+002, 6.540243e+003
1.181981e+002, 6.683661e+003
1.186802e+002, 6.830195e+003
1.191623e+002, 6.979120e+003
1.196444e+002, 7.130709e+003
1.201266e+002, 7.285861e+003
1.206087e+002, 7.439803e+003
1.210908e+002, 7.602562e+003
1.215729e+002, 7.786139e+003
1.220550e+002, 7.988373e+003
1.225371e+002, 8.214404e+003
1.230193e+002, 8.467225e+003
1.235014e+002, 8.747872e+003
1.239835e+002, 9.050696e+003
1.244656e+002, 9.357700e+003
1.249477e+002, 9.690308e+003
1.254298e+002, 1.007603e+004
1.259120e+002, 1.052160e+004
1.263941e+002, 1.102433e+004
1.268762e+002, 1.157190e+004
1.273583e+002, 1.216353e+004
1.278404e+002, 1.281550e+004
1.283225e+002, 1.356131e+004
1.288047e+002, 1.435573e+004
1.292868e+002, 1.515967e+004
1.297689e+002, 1.597784e+004
1.302510e+002, 1.679135e+004
1.307331e+002, 1.731150e+004
1.312152e+002, 1.751999e+004
1.316974e+002, 1.742983e+004
1.321795e+002, 1.694245e+004
1.326616e+002, 1.613359e+004
1.331437e+002, 1.515377e+004
1.336258e+002, 1.410965e+004
1.341079e+002, 1.296615e+004
1.345901e+002, 1.199266e+004
1.350722e+002, 1.115883e+004
1.355543e+002, 1.047506e+004
1.360364e+002, 9.977842e+003
1.365185e+002, 9.658770e+003
1.370006e+002, 9.451245e+003
1.374828e+002, 9.297446e+003
1.379649e+002, 9.207549e+003
1.384470e+002, 9.130811e+003
1.389291e+002, 9.048493e+003
1.394112e+002, 8.983933e+003
1.398933e+002, 8.962430e+003
1.403755e+002, 8.988945e+003
1.408576e+002, 9.062142e+003
1.413397e+002, 9.192615e+003
1.418218e+002, 9.373324e+003
1.423039e+002, 9.572529e+003
1.427860e+002, 9.767397e+003
1.432681e+002, 9.967911e+003
1.437503e+002, 1.020821e+004
1.442324e+002, 1.048400e+004
1.447145e+002, 1.082483e+004
1.451966e+002, 1.125648e+004
1.456787e+002, 1.177758e+004
1.461608e+002, 1.232835e+004
1.466430e+002, 1.289427e+004
1.471251e+002, 1.348950e+004
1.476072e+002, 1.396654e+004
1.480893e+002, 1.434678e+004
1.485714e+002, 1.456072e+004
1.490535e+002, 1.453943e+004
1.495357e+002, 1.427186e+004
1.500178e+002, 1.381750e+004
1.504999e+002, 1.323733e+004
1.509820e+002, 1.242712e+004
1.514641e+002, 1.170894e+004
1.519462e+002, 1.110250e+004
1.524284e+002, 1.058212e+004
1.529105e+002, 1.011801e+004
1.533926e+002, 9.702622e+003
1.538747e+002, 9.353445e+003
1.543568e+002, 9.118561e+003
1.548389e+002, 9.111280e+003
1.553211e+002, 9.097106e+003
1.558032e+002, 9.054118e+003
1.562853e+002, 9.000953e+003
1.567674e+002, 8.961356e+003
1.572495e+002, 8.947332e+003
1.577316e+002, 8.954072e+003
1.582138e+002, 8.962315e+003
1.586959e+002, 8.981981e+003
1.591780e+002, 8.992157e+003
1.596601e+002, 8.975588e+003
1.601422e+002, 8.944561e+003
1.606243e+002, 8.929852e+003
1.611065e+002, 8.953961e+003
1.615886e+002, 9.005319e+003
1.620707e+002, 9.030556e+003
1.625528e+002, 9.028824e+003
1.630349e+002, 9.005417e+003
1.635170e+002, 8.947957e+003
1.639991e+002, 8.860820e+003
1.644813e+002, 8.790240e+003
1.649634e+002, 8.779564e+003
1.654455e+002, 8.802526e+003
1.659276e+002, 8.795582e+003
1.664097e+002, 8.725840e+003
1.668918e+002, 8.644270e+003
1.673740e+002, 8.620109e+003
1.678561e+002, 8.668589e+003
1.683382e+002, 8.702084e+003
1.688203e+002, 8.662133e+003
1.693024e+002, 8.578688e+003
1.697845e+002, 8.480526e+003
1.702667e+002, 8.371259e+003
1.707488e+002, 8.258285e+003
1.712309e+002, 8.158964e+003
1.717130e+002, 8.076975e+003
1.721951e+002, 8.003415e+003
1.726772e+002, 7.941295e+003
1.731594e+002, 7.882151e+003
1.736415e+002, 7.811145e+003
1.741236e+002, 7.714279e+003
1.746057e+002, 7.599328e+003
1.750878e+002, 7.515004e+003
1.755699e+002, 7.476153e+003
1.760521e+002, 7.455936e+003
1.765342e+002, 7.453582e+003
1.770163e+002, 7.463677e+003
1.774984e+002, 7.478261e+003
1.779805e+002, 7.491204e+003
1.784626e+002, 7.502471e+003
1.789448e+002, 7.522920e+003
1.794269e+002, 7.539949e+003
1.799090e+002, 7.578117e+003
1.803911e+002, 7.658410e+003
1.808732e+002, 7.768849e+003
1.813553e+002, 7.880389e+003
1.818375e+002, 7.969323e+003
1.823196e+002, 8.034338e+003
1.828017e+002, 8.084658e+003
1.832838e+002, 8.113677e+003
1.837659e+002, 8.137484e+003
1.842480e+002, 8.159301e+003
1.847301e+002, 8.181492e+003
1.852123e+002, 8.209079e+003
1.856944e+002, 8.245507e+003
1.861765e+002, 8.291684e+003
1.866586e+002, 8.353127e+003
1.871407e+002, 8.433815e+003
1.876228e+002, 8.525417e+003
1.881050e+002, 8.622653e+003
1.885871e+002, 8.724451e+003
1.890692e+002, 8.832020e+003
1.895513e+002, 8.945994e+003
1.900334e+002, 9.066575e+003
1.905155e+002, 9.197852e+003
1.909977e+002, 9.333373e+003
1.914798e+002, 9.482412e+003
1.919619e+002, 9.658404e+003
1.924440e+002, 9.865243e+003
1.929261e+002, 1.008863e+004
1.934082e+002, 1.032082e+004
1.938904e+002, 1.056009e+004
1.943725e+002, 1.080229e+004
1.948546e+002, 1.102454e+004
1.953367e+002, 1.125305e+004
1.958188e+002, 1.154405e+004
1.963009e+002, 1.191411e+004
1.967831e+002, 1.232328e+004
1.972652e+002, 1.276381e+004
1.977473e+002, 1.322254e+004
1.982294e+002, 1.365407e+004
1.987115e+002, 1.404559e+004
1.991936e+002, 1.439560e+004
1.996758e+002, 1.470334e+004
2.001579e+002, 1.501702e+004
2.006400e+002, 1.520509e+004
2.011221e+002, 1.523233e+004
2.016042e+002, 1.510266e+004
2.020863e+002, 1.482473e+004
2.025685e+002, 1.437432e+004
2.030506e+002, 1.375933e+004
2.035327e+002, 1.312094e+004
2.040148e+002, 1.240237e+004
2.044969e+002, 1.172507e+004
2.049790e+002, 1.114445e+004
2.054612e+002, 1.064566e+004
2.059433e+002, 1.018135e+004
2.064254e+002, 9.710195e+003
2.069075e+002, 9.228317e+003
2.073896e+002, 8.816445e+003
2.078717e+002, 8.514562e+003
2.083539e+002, 8.250974e+003
2.088360e+002, 8.015903e+003
2.093181e+002, 7.803798e+003
2.098002e+002, 7.608624e+003
2.102823e+002, 7.423563e+003
2.107644e+002, 7.247598e+003
2.112466e+002, 7.102225e+003
2.117287e+002, 7.006116e+003
2.122108e+002, 6.920111e+003
2.126929e+002, 6.825174e+003
2.131750e+002, 6.725154e+003
2.136571e+002, 6.636588e+003
2.141393e+002, 6.576229e+003
2.146214e+002, 6.548981e+003
2.151035e+002, 6.516579e+003
2.155856e+002, 6.480243e+003
2.160677e+002, 6.439073e+003
2.165498e+002, 6.386049e+003
2.170320e+002, 6.325215e+003
2.175141e+002, 6.271407e+003
2.179962e+002, 6.240044e+003
2.184783e+002, 6.234839e+003
2.189604e+002, 6.220206e+003
2.194425e+002, 6.177510e+003
2.199247e+002, 6.141312e+003
2.204068e+002, 6.138235e+003
2.208889e+002, 6.166313e+003
2.213710e+002, 6.198497e+003
2.218531e+002, 6.209972e+003
2.223352e+002, 6.199339e+003
2.228174e+002, 6.204504e+003
2.232995e+002, 6.243384e+003
2.237816e+002, 6.284792e+003
2.242637e+002, 6.305325e+003
2.247458e+002, 6.304012e+003
2.252279e+002, 6.293869e+003
2.257100e+002, 6.286604e+003
2.261922e+002, 6.279536e+003
2.266743e+002, 6.257403e+003
2.271564e+002, 6.207104e+003
2.276385e+002, 6.148917e+003
2.281206e+002, 6.094188e+003
2.286027e+002, 6.042895e+003
2.290849e+002, 6.014431e+003
2.295670e+002, 6.041586e+003
2.300491e+002, 6.103399e+003
2.305312e+002, 6.141080e+003
2.310133e+002, 6.123818e+003
2.314954e+002, 6.089905e+003
2.319776e+002, 6.087559e+003
2.324597e+002, 6.122077e+003
2.329418e+002, 6.150747e+003
2.334239e+002, 6.130263e+003
2.339060e+002, 6.089116e+003
2.343881e+002, 6.070920e+003
2.348703e+002, 6.088901e+003
2.353524e+002, 6.132596e+003
2.358345e+002, 6.195808e+003
2.363166e+002, 6.286235e+003
2.367987e+002, 6.365404e+003
2.372808e+002, 6.408399e+003
2.377630e+002, 6.430826e+003
2.382451e+002, 6.446914e+003
2.387272e+002, 6.459328e+003
2.392093e+002, 6.469683e+003
2.396914e+002, 6.476749e+003
2.401735e+002, 6.474751e+003
2.406557e+002, 6.488833e+003
2.411378e+002, 6.529469e+003
2.416199e+002, 6.589643e+003
2.421020e+002, 6.669482e+003
2.425841e+002, 6.773064e+003
2.430662e+002, 6.883030e+003
2.435484e+002, 6.968527e+003
2.440305e+002, 7.022246e+003
2.445126e+002, 7.070439e+003
2.449947e+002, 7.121835e+003
2.454768e+002, 7.170582e+003
2.459589e+002, 7.205870e+003
2.464410e+002, 7.222847e+003
2.469232e+002, 7.240583e+003
2.474053e+002, 7.297914e+003
2.478874e+002, 7.417898e+003
2.483695e+002, 7.522154e+003
2.488516e+002, 7.595601e+003
2.493337e+002, 7.650885e+003
2.498159e+002, 7.690361e+003
2.502980e+002, 7.715895e+003
2.507801e+002, 7.741027e+003
2.512622e+002, 7.791163e+003
2.517443e+002, 7.880238e+003
2.522264e+002, 7.962697e+003
2.527086e+002, 8.037213e+003
2.531907e+002, 8.103098e+003
2.536728e+002, 8.145646e+003
2.541549e+002, 8.166512e+003
2.546370e+002, 8.200111e+003
2.551191e+002, 8.314484e+003
2.556013e+002, 8.593267e+003
2.560834e+002, 8.766445e+003
2.565655e+002, 8.745892e+003
2.570476e+002, 8.698839e+003
2.575297e+002, 8.738789e+003
2.580118e+002, 8.883652e+003
2.584940e+002, 9.070717e+003
2.589761e+002, 9.214595e+003
2.594582e+002, 9.289969e+003
2.599403e+002, 9.385513e+003
2.604224e+002, 9.522161e+003
2.609045e+002, 9.659481e+003
2.613867e+002, 9.764994e+003
2.618688e+002, 9.840146e+003
2.623509e+002, 9.913944e+003
2.628330e+002, 1.002054e+004
2.633151e+002, 1.016794e+004
2.637972e+002, 1.032233e+004
2.642794e+002, 1.049242e+004
2.647615e+002, 1.066038e+004
2.652436e+002, 1.080646e+004
2.657257e+002, 1.093583e+004
2.662078e+002, 1.107583e+004
2.666899e+002, 1.125558e+004
2.671721e+002, 1.148303e+004
2.676542e+002, 1.169762e+004
2.681363e+002, 1.191953e+004
2.686184e+002, 1.211409e+004
2.691005e+002, 1.224379e+004
2.695826e+002, 1.232398e+004
2.700648e+002, 1.240866e+004
2.705469e+002, 1.254357e+004
2.710290e+002, 1.273000e+004
2.715111e+002, 1.290590e+004
2.719932e+002, 1.306039e+004
2.724753e+002, 1.321698e+004
2.729575e+002, 1.341250e+004
2.734396e+002, 1.362219e+004
2.739217e+002, 1.377532e+004
2.744038e+002, 1.381692e+004
2.748859e+002, 1.375809e+004
2.753680e+002, 1.373421e+004
2.758501e+002, 1.378194e+004
2.763322e+002, 1.381635e+004
2.768144e+002, 1.379579e+004
2.772965e+002, 1.374000e+004
2.777786e+002, 1.369470e+004
2.782607e+002, 1.368559e+004
2.787428e+002, 1.370443e+004
2.792249e+002, 1.371672e+004
2.797071e+002, 1.370775e+004
2.801892e+002, 1.371056e+004
2.806713e+002, 1.375164e+004
2.811534e+002, 1.380802e+004
2.816355e+002, 1.383585e+004
2.821176e+002, 1.381381e+004
2.825998e+002, 1.376074e+004
2.830819e+002, 1.372343e+004
2.835640e+002, 1.369764e+004
2.840461e+002, 1.369094e+004
2.845282e+002, 1.371243e+004
2.850103e+002, 1.375216e+004
2.854925e+002, 1.380213e+004
2.859746e+002, 1.386244e+004
2.864567e+002, 1.391590e+004
2.869388e+002, 1.392607e+004
2.874209e+002, 1.387412e+004
2.879030e+002, 1.384660e+004
2.883852e+002, 1.387327e+004
2.888673e+002, 1.392499e+004
2.893494e+002, 1.396826e+004
2.898315e+002, 1.399555e+004
2.903136e+002, 1.401443e+004
2.907957e+002, 1.403651e+004
2.912779e+002, 1.406422e+004
2.917600e+002, 1.407180e+004
2.922421e+002, 1.404193e+004
2.927242e+002, 1.399899e+004
2.932063e+002, 1.396339e+004
2.936884e+002, 1.393786e+004
2.941706e+002, 1.392298e+004
2.946527e+002, 1.392261e+004
2.951348e+002, 1.393698e+004
2.956169e+002, 1.394457e+004
2.960990e+002, 1.394805e+004
2.965811e+002, 1.394206e+004
2.970633e+002, 1.391083e+004
2.975454e+002, 1.385803e+004
2.980275e+002, 1.382287e+004
2.985096e+002, 1.384192e+004
2.989917e+002, 1.390405e+004
2.994738e+002, 1.393196e+004
2.999560e+002, 1.388341e+004
3.004381e+002, 1.383951e+004
3.009202e+002, 1.385362e+004
3.014023e+002, 1.391614e+004
3.018844e+002, 1.398206e+004
3.023665e+002, 1.402980e+004
3.028487e+002, 1.406365e+004
3.033308e+002, 1.409561e+004
3.038129e+002, 1.410620e+004
3.042950e+002, 1.414483e+004
3.047771e+002, 1.426083e+004
3.052592e+002, 1.442366e+004
3.057414e+002, 1.454439e+004
3.062235e+002, 1.457412e+004
3.067056e+002, 1.457503e+004
3.071877e+002, 1.467622e+004
3.076698e+002, 1.489507e+004
3.081519e+002, 1.511407e+004
3.086341e+002, 1.529189e+004
3.091162e+002, 1.544592e+004
3.095983e+002, 1.560492e+004
3.100804e+002, 1.577679e+004
3.105625e+002, 1.594970e+004
3.110446e+002, 1.611027e+004
3.115268e+002, 1.626110e+004
3.120089e+002, 1.638666e+004
3.124910e+002, 1.646703e+004
3.129731e+002, 1.652805e+004
3.134552e+002, 1.659789e+004
3.139373e+002, 1.668019e+004
3.144195e+002, 1.677404e+004
3.149016e+002, 1.688706e+004
3.153837e+002, 1.701663e+004
3.158658e+002, 1.712334e+004
3.163479e+002, 1.717173e+004
3.168300e+002, 1.721891e+004
3.173121e+002, 1.731633e+004
3.177943e+002, 1.746339e+004
3.182764e+002, 1.761866e+004
3.187585e+002, 1.774785e+004
3.192406e+002, 1.786522e+004
3.197227e+002, 1.803208e+004
3.202048e+002, 1.830156e+004
3.206870e+002, 1.856709e+004
3.211691e+002, 1.874713e+004
3.216512e+002, 1.886825e+004
3.221333e+002, 1.903418e+004
3.226154e+002, 1.930461e+004
3.230975e+002, 1.963430e+004
3.235797e+002, 1.989730e+004
3.240618e+002, 2.006290e+004
3.245439e+002, 2.024312e+004
3.250260e+002, 2.049799e+004
3.255081e+002, 2.079193e+004
3.259902e+002, 2.105728e+004
3.264724e+002, 2.127009e+004
3.269545e+002, 2.146001e+004
3.274366e+002, 2.167446e+004
3.279187e+002, 2.191746e+004
3.284008e+002, 2.215457e+004
3.288829e+002, 2.238328e+004
3.293651e+002, 2.260017e+004
3.298472e+002, 2.280605e+004
3.303293e+002, 2.300102e+004
3.308114e+002, 2.316936e+004
3.312935e+002, 2.328916e+004
3.317756e+002, 2.335527e+004
3.322578e+002, 2.343105e+004
3.327399e+002, 2.353713e+004
3.332220e+002, 2.363860e+004
3.337041e+002, 2.371494e+004
3.341862e+002, 2.376381e+004
3.346683e+002, 2.378391e+004
3.351505e+002, 2.376729e+004
3.356326e+002, 2.372019e+004
3.361147e+002, 2.369209e+004
3.365968e+002, 2.370652e+004
3.370789e+002, 2.371293e+004
3.375610e+002, 2.368153e+004
3.380432e+002, 2.362566e+004
3.385253e+002, 2.358047e+004
3.390074e+002, 2.356515e+004
3.394895e+002, 2.356369e+004
3.399716e+002, 2.352997e+004
3.404537e+002, 2.344297e+004
3.409359e+002, 2.336751e+004
3.414180e+002, 2.331965e+004
3.419001e+002, 2.328862e+004
3.423822e+002, 2.326829e+004
3.428643e+002, 2.325709e+004
3.433464e+002, 2.323674e+004
3.438286e+002, 2.318004e+004
3.443107e+002, 2.307120e+004
3.447928e+002, 2.296689e+004
3.452749e+002, 2.286582e+004
3.457570e+002, 2.277116e+004
3.462391e+002, 2.268274e+004
3.467213e+002, 2.260235e+004
3.472034e+002, 2.253722e+004
3.476855e+002, 2.249943e+004
3.481676e+002, 2.249127e+004
3.486497e+002, 2.245074e+004
3.491318e+002, 2.238265e+004
3.496140e+002, 2.228428e+004
3.500961e+002, 2.212943e+004
3.505782e+002, 2.194340e+004
3.510603e+002, 2.178383e+004
3.515424e+002, 2.168818e+004
3.520245e+002, 2.163825e+004
3.525067e+002, 2.155422e+004
3.529888e+002, 2.138986e+004
3.534709e+002, 2.124904e+004
3.539530e+002, 2.114798e+004
3.544351e+002, 2.107554e+004
3.549172e+002, 2.102386e+004
3.553994e+002, 2.098941e+004
3.558815e+002, 2.096115e+004
3.563636e+002, 2.092136e+004
3.568457e+002, 2.087516e+004
3.573278e+002, 2.080256e+004
3.578099e+002, 2.067596e+004
3.582920e+002, 2.054577e+004
3.587741e+002, 2.044439e+004
3.592563e+002, 2.037510e+004
3.597384e+002, 2.032724e+004
3.602205e+002, 2.029342e+004
3.607026e+002, 2.027718e+004
3.611847e+002, 2.023989e+004
3.616668e+002, 2.018324e+004
3.621490e+002, 2.010586e+004
3.626311e+002, 1.997510e+004
3.631132e+002, 1.982519e+004
3.635953e+002, 1.972254e+004
3.640774e+002, 1.970986e+004
3.645595e+002, 1.976656e+004
3.650417e+002, 1.980517e+004
3.655238e+002, 1.980897e+004
3.660059e+002, 1.981657e+004
3.664880e+002, 1.982680e+004
3.669701e+002, 1.984543e+004
3.674522e+002, 1.987887e+004
3.679344e+002, 1.992869e+004
3.684165e+002, 1.999004e+004
3.688986e+002, 2.005638e+004
3.693807e+002, 2.012846e+004
3.698628e+002, 2.020367e+004
3.703449e+002, 2.027037e+004
3.708271e+002, 2.034964e+004
3.713092e+002, 2.046098e+004
3.717913e+002, 2.059896e+004
3.722734e+002, 2.073997e+004
3.727555e+002, 2.085729e+004
3.732376e+002, 2.095238e+004
3.737198e+002, 2.108270e+004
3.742019e+002, 2.128487e+004
3.746840e+002, 2.147895e+004
3.751661e+002, 2.161788e+004
3.756482e+002, 2.173671e+004
3.761303e+002, 2.189326e+004
3.766125e+002, 2.212379e+004
3.770946e+002, 2.239079e+004
3.775767e+002, 2.260384e+004
3.780588e+002, 2.273428e+004
3.785409e+002, 2.289216e+004
3.790230e+002, 2.313291e+004
3.795052e+002, 2.339724e+004
3.799873e+002, 2.364068e+004
3.804694e+002, 2.385437e+004
3.809515e+002, 2.405959e+004
3.814336e+002, 2.426881e+004
3.819157e+002, 2.448270e+004
3.823979e+002, 2.472352e+004
3.828800e+002, 2.501247e+004
3.833621e+002, 2.530816e+004
3.838442e+002, 2.557981e+004
3.843263e+002, 2.583254e+004
3.848084e+002, 2.609352e+004
3.852906e+002, 2.636067e+004
3.857727e+002, 2.664624e+004
3.862548e+002, 2.699607e+004
3.867369e+002, 2.743152e+004
3.872190e+002, 2.785006e+004
3.877011e+002, 2.817979e+004
3.881833e+002, 2.846037e+004
3.886654e+002, 2.874794e+004
3.891475e+002, 2.906563e+004
3.896296e+002, 2.936932e+004
3.901117e+002, 2.963025e+004
3.905938e+002, 2.984794e+004
3.910760e+002, 3.001337e+004
3.915581e+002, 3.013591e+004
3.920402e+002, 3.018496e+004
3.925223e+002, 3.012735e+004
3.930044e+002, 2.996696e+004
3.934865e+002, 2.972475e+004
3.939687e+002, 2.939379e+004
3.944508e+002, 2.899111e+004
3.949329e+002, 2.853851e+004
3.954150e+002, 2.803251e+004
3.958971e+002, 2.750151e+004
3.963792e+002, 2.694724e+004
3.968614e+002, 2.637858e+004
3.973435e+002, 2.587101e+004
3.978256e+002, 2.546023e+004
3.983077e+002, 2.507741e+004
3.987898e+002, 2.465039e+004
3.992719e+002, 2.420520e+004
3.997540e+002, 2.384586e+004
4.002361e+002, 2.363672e+004
4.007183e+002, 2.352724e+004
4.012004e+002, 2.337394e+004
4.016825e+002, 2.313057e+004
4.021646e+002, 2.293040e+004
4.026467e+002, 2.279808e+004
4.031288e+002, 2.272003e+004
4.036110e+002, 2.269492e+004
4.040931e+002, 2.271899e+004
4.045752e+002, 2.275849e+004
4.050573e+002, 2.276940e+004
4.055394e+002, 2.273559e+004
4.060215e+002, 2.276097e+004
4.065037e+002, 2.288302e+004
4.069858e+002, 2.302024e+004
4.074679e+002, 2.313147e+004
4.079500e+002, 2.322468e+004
4.084321e+002, 2.332544e+004
4.089142e+002, 2.344941e+004
4.093964e+002, 2.359760e+004
4.098785e+002, 2.377705e+004
4.103606e+002, 2.402651e+004
4.108427e+002, 2.425733e+004
4.113248e+002, 2.443653e+004
4.118069e+002, 2.460801e+004
4.122891e+002, 2.481513e+004
4.127712e+002, 2.506842e+004
4.132533e+002, 2.534670e+004
4.137354e+002, 2.562537e+004
4.142175e+002, 2.590908e+004
4.146996e+002, 2.617906e+004
4.151818e+002, 2.640021e+004
4.156639e+002, 2.663920e+004
4.161460e+002, 2.692751e+004
4.166281e+002, 2.725650e+004
4.171102e+002, 2.759870e+004
4.175923e+002, 2.794501e+004
4.180745e+002, 2.828699e+004
4.185566e+002, 2.859807e+004
4.190387e+002, 2.886302e+004
4.195208e+002, 2.912721e+004
4.200029e+002, 2.939154e+004
4.204850e+002, 2.966669e+004
4.209672e+002, 2.996655e+004
4.214493e+002, 3.029465e+004
4.219314e+002, 3.062849e+004
4.224135e+002, 3.095953e+004
4.228956e+002, 3.128489e+004
4.233777e+002, 3.155034e+004
4.238599e+002, 3.170346e+004
4.243420e+002, 3.185575e+004
4.248241e+002, 3.211269e+004
4.253062e+002, 3.244518e+004
4.257883e+002, 3.274899e+004
4.262704e+002, 3.297267e+004
4.267526e+002, 3.314688e+004
4.272347e+002, 3.329953e+004
4.277168e+002, 3.342902e+004
4.281989e+002, 3.359281e+004
4.286810e+002, 3.385629e+004
4.291631e+002, 3.415474e+004
4.296453e+002, 3.434311e+004
4.301274e+002, 3.437426e+004
4.306095e+002, 3.440177e+004
4.310916e+002, 3.450825e+004
4.315737e+002, 3.466303e+004
4.320558e+002, 3.480895e+004
4.325380e+002, 3.493193e+004
4.330201e+002, 3.503858e+004
4.335022e+002, 3.513820e+004
4.339843e+002, 3.523127e+004
4.344664e+002, 3.529573e+004
4.349485e+002, 3.532654e+004
4.354307e+002, 3.533181e+004
4.359128e+002, 3.530327e+004
4.363949e+002, 3.525110e+004
4.368770e+002, 3.520930e+004
4.373591e+002, 3.520160e+004
4.378412e+002, 3.521145e+004
4.383234e+002, 3.517529e+004
4.388055e+002, 3.503145e+004
4.392876e+002, 3.492052e+004
4.397697e+002, 3.484215e+004
4.402518e+002, 3.480675e+004
4.407339e+002, 3.485459e+004
4.412160e+002, 3.497823e+004
4.416982e+002, 3.509191e+004
4.421803e+002, 3.508514e+004
4.426624e+002, 3.493054e+004
4.431445e+002, 3.485691e+004
4.436266e+002, 3.494091e+004
4.441087e+002, 3.502797e+004
4.445909e+002, 3.507798e+004
4.450730e+002, 3.509778e+004
4.455551e+002, 3.510274e+004
4.460372e+002, 3.509912e+004
4.465193e+002, 3.509186e+004
4.470014e+002, 3.508973e+004
4.474836e+002, 3.508887e+004
4.479657e+002, 3.510493e+004
4.484478e+002, 3.513246e+004
4.489299e+002, 3.518457e+004
4.494120e+002, 3.529203e+004
4.498941e+002, 3.544604e+004
4.503763e+002, 3.557975e+004
4.508584e+002, 3.562164e+004
4.513405e+002, 3.559676e+004
4.518226e+002, 3.561198e+004
4.523047e+002, 3.567724e+004
4.527868e+002, 3.576194e+004
4.532690e+002, 3.585595e+004
4.537511e+002, 3.595604e+004
4.542332e+002, 3.606071e+004
4.547153e+002, 3.617560e+004
4.551974e+002, 3.628215e+004
4.556795e+002, 3.636641e+004
4.561617e+002, 3.642953e+004
4.566438e+002, 3.646840e+004
4.571259e+002, 3.646547e+004
4.576080e+002, 3.647433e+004
4.580901e+002, 3.660151e+004
4.585722e+002, 3.684907e+004
4.590544e+002, 3.700391e+004
4.595365e+002, 3.694419e+004
4.600186e+002, 3.683664e+004
4.605007e+002, 3.682763e+004
4.609828e+002, 3.691258e+004
4.614649e+002, 3.701413e+004
4.619471e+002, 3.709114e+004
4.624292e+002, 3.714293e+004
4.629113e+002, 3.716640e+004
4.633934e+002, 3.711824e+004
4.638755e+002, 3.710038e+004
4.643576e+002, 3.715963e+004
4.648398e+002, 3.723532e+004
4.653219e+002, 3.726012e+004
4.658040e+002, 3.722395e+004
4.662861e+002, 3.716735e+004
4.667682e+002, 3.713059e+004
4.672503e+002, 3.711171e+004
4.677325e+002, 3.712855e+004
4.682146e+002, 3.728191e+004
4.686967e+002, 3.736170e+004
4.691788e+002, 3.725994e+004
4.696609e+002, 3.706176e+004
4.701430e+002, 3.689202e+004
4.706252e+002, 3.680548e+004
4.711073e+002, 3.676859e+004
4.715894e+002, 3.673371e+004
4.720715e+002, 3.671135e+004
4.725536e+002, 3.664525e+004
4.730357e+002, 3.648415e+004
4.735179e+002, 3.631326e+004
4.740000e+002, 3.618576e+004
4.744821e+002, 3.609475e+004
4.749642e+002, 3.599732e+004
4.754463e+002, 3.587795e+004
4.759284e+002, 3.573253e+004
4.764106e+002, 3.554057e+004
4.768927e+002, 3.529487e+004
4.773748e+002, 3.505275e+004
4.778569e+002, 3.484171e+004
4.783390e+002, 3.464979e+004
4.788211e+002, 3.446482e+004
4.793033e+002, 3.429605e+004
4.797854e+002, 3.409925e+004
4.802675e+002, 3.383718e+004
4.807496e+002, 3.353566e+004
4.812317e+002, 3.323147e+004
4.817138e+002, 3.292966e+004
4.821959e+002, 3.265380e+004
4.826780e+002, 3.243425e+004
4.831602e+002, 3.226974e+004
4.836423e+002, 3.206392e+004
4.841244e+002, 3.179361e+004
4.846065e+002, 3.151071e+004
4.850886e+002, 3.121519e+004
4.855707e+002, 3.092449e+004
4.860529e+002, 3.067337e+004
4.865350e+002, 3.047359e+004
4.870171e+002, 3.029746e+004
4.874992e+002, 3.010060e+004
4.879813e+002, 2.986936e+004
4.884634e+002, 2.965090e+004
4.889456e+002, 2.943976e+004
4.894277e+002, 2.924470e+004
4.899098e+002, 2.908004e+004
4.903919e+002, 2.893537e+004
4.908740e+002, 2.878602e+004
4.913561e+002, 2.861506e+004
4.918383e+002, 2.843769e+004
4.923204e+002, 2.829846e+004
4.928025e+002, 2.821059e+004
4.932846e+002, 2.812534e+004
4.937667e+002, 2.801612e+004
4.942488e+002, 2.791910e+004
4.947310e+002, 2.785979e+004
4.952131e+002, 2.783897e+004
4.956952e+002, 2.784005e+004
4.961773e+002, 2.785355e+004
4.966594e+002, 2.788020e+004
4.971415e+002, 2.792408e+004
4.976237e+002, 2.798732e+004
4.981058e+002, 2.805857e+004
4.985879e+002, 2.813877e+004
4.990700e+002, 2.822104e+004
4.995521e+002, 2.828390e+004
5.000342e+002, 2.829989e+004
5.005164e+002, 2.836159e+004
5.009985e+002, 2.854102e+004
5.014806e+002, 2.879061e+004
5.019627e+002, 2.904148e+004
5.024448e+002, 2.927964e+004
5.029269e+002, 2.948181e+004
5.034091e+002, 2.961505e+004
5.038912e+002, 2.967713e+004
5.043733e+002, 2.978252e+004
5.048554e+002, 2.997341e+004
5.053375e+002, 3.015531e+004
5.058196e+002, 3.028507e+004
5.063018e+002, 3.038733e+004
5.067839e+002, 3.049070e+004
5.072660e+002, 3.060744e+004
5.077481e+002, 3.075289e+004
5.082302e+002, 3.096000e+004
5.087123e+002, 3.126244e+004
5.091945e+002, 3.150519e+004
5.096766e+002, 3.160770e+004
5.101587e+002, 3.173038e+004
5.106408e+002, 3.195963e+004
5.111229e+002, 3.225112e+004
5.116050e+002, 3.251326e+004
5.120872e+002, 3.269736e+004
5.125693e+002, 3.284221e+004
5.130514e+002, 3.302832e+004
5.135335e+002, 3.326809e+004
5.140156e+002, 3.345584e+004
5.144977e+002, 3.352877e+004
5.149799e+002, 3.358257e+004
5.154620e+002, 3.371182e+004
5.159441e+002, 3.390259e+004
5.164262e+002, 3.405806e+004
5.169083e+002, 3.412491e+004
5.173904e+002, 3.414221e+004
5.178726e+002, 3.414745e+004
5.183547e+002, 3.414349e+004
5.188368e+002, 3.416013e+004
5.193189e+002, 3.422511e+004
5.198010e+002, 3.430295e+004
5.202831e+002, 3.430868e+004
5.207653e+002, 3.423357e+004
5.212474e+002, 3.413206e+004
5.217295e+002, 3.399853e+004
5.222116e+002, 3.385264e+004
5.226937e+002, 3.372222e+004
5.231758e+002, 3.360150e+004
5.236580e+002, 3.345092e+004
5.241401e+002, 3.323941e+004
5.246222e+002, 3.298039e+004
5.251043e+002, 3.273790e+004
5.255864e+002, 3.254092e+004
5.260685e+002, 3.232118e+004
5.265507e+002, 3.206253e+004
5.270328e+002, 3.178648e+004
5.275149e+002, 3.150399e+004
5.279970e+002, 3.122085e+004
5.284791e+002, 3.094966e+004
5.289612e+002, 3.071727e+004
5.294434e+002, 3.050961e+004
5.299255e+002, 3.022805e+004
5.304076e+002, 2.984336e+004
5.308897e+002, 2.945461e+004
5.313718e+002, 2.912877e+004
5.318539e+002, 2.880940e+004
5.323361e+002, 2.841786e+004
5.328182e+002, 2.793032e+004
5.333003e+002, 2.746125e+004
5.337824e+002, 2.711055e+004
5.342645e+002, 2.682554e+004
5.347466e+002, 2.647854e+004
5.352288e+002, 2.604856e+004
5.357109e+002, 2.562323e+004
5.361930e+002, 2.527582e+004
5.366751e+002, 2.499137e+004
5.371572e+002, 2.467871e+004
5.376393e+002, 2.430037e+004
5.381215e+002, 2.394096e+004
5.386036e+002, 2.363254e+004
5.390857e+002, 2.335076e+004
5.395678e+002, 2.306655e+004
5.400499e+002, 2.277362e+004
5.405320e+002, 2.247821e+004
5.410142e+002, 2.218841e+004
5.414963e+002, 2.190428e+004
5.419784e+002, 2.162021e+004
5.424604e+002, 2.131394e+004
5.429426e+002, 2.103784e+004
5.434247e+002, 2.083816e+004
5.439068e+002, 2.065743e+004
5.443889e+002, 2.042407e+004
5.448710e+002, 2.012109e+004
5.453531e+002, 1.980621e+004
5.458353e+002, 1.954941e+004
5.463174e+002, 1.934458e+004
5.467995e+002, 1.913194e+004
5.472816e+002, 1.891013e+004
5.477637e+002, 1.867763e+004
5.482458e+002, 1.842323e+004
5.487280e+002, 1.815995e+004
5.492101e+002, 1.790218e+004
5.496922e+002, 1.764026e+004
5.501743e+002, 1.741232e+004
5.506564e+002, 1.727203e+004
5.511385e+002, 1.717699e+004
5.516207e+002, 1.703378e+004
5.521028e+002, 1.682227e+004
5.525849e+002, 1.659011e+004
5.530670e+002, 1.637976e+004
5.535491e+002, 1.619077e+004
5.540313e+002, 1.600509e+004
5.545134e+002, 1.581966e+004
5.549955e+002, 1.564083e+004
5.554776e+002, 1.546082e+004
5.559597e+002, 1.529152e+004
5.564418e+002, 1.515850e+004
5.569240e+002, 1.506324e+004
5.574061e+002, 1.497167e+004
5.578882e+002, 1.483901e+004
5.583703e+002, 1.466364e+004
5.588524e+002, 1.451349e+004
5.593345e+002, 1.441259e+004
5.598167e+002, 1.430400e+004
5.602988e+002, 1.415104e+004
5.607809e+002, 1.398802e+004
5.612630e+002, 1.385892e+004
5.617451e+002, 1.377718e+004
5.622272e+002, 1.370669e+004
5.627094e+002, 1.362143e+004
5.631915e+002, 1.352233e+004
5.636736e+002, 1.340529e+004
5.641557e+002, 1.326288e+004
5.646378e+002, 1.313705e+004
5.651199e+002, 1.306714e+004
5.656021e+002, 1.303936e+004
5.660842e+002, 1.298713e+004
5.665663e+002, 1.289475e+004
5.670484e+002, 1.280093e+004
5.675305e+002, 1.272241e+004
5.680126e+002, 1.264825e+004
5.684948e+002, 1.255743e+004
5.689769e+002, 1.245035e+004
5.694590e+002, 1.235445e+004
5.699411e+002, 1.230035e+004
5.704232e+002, 1.228433e+004
5.709053e+002, 1.223891e+004
5.713875e+002, 1.214326e+004
5.718696e+002, 1.204432e+004
5.723517e+002, 1.193783e+004
5.728338e+002, 1.183818e+004
5.733159e+002, 1.176019e+004
5.737980e+002, 1.170474e+004
5.742802e+002, 1.165924e+004
5.747623e+002, 1.161909e+004
5.752444e+002, 1.158050e+004
5.757265e+002, 1.152254e+004
5.762086e+002, 1.143801e+004
5.766907e+002, 1.136624e+004
5.771729e+002, 1.134643e+004
5.776550e+002, 1.133856e+004
5.781371e+002, 1.126841e+004
5.786192e+002, 1.111333e+004
5.791013e+002, 1.099336e+004
5.795834e+002, 1.098870e+004
5.800656e+002, 1.102215e+004
5.805477e+002, 1.100649e+004
5.810298e+002, 1.093807e+004
5.815119e+002, 1.085060e+004
5.819940e+002, 1.076112e+004
5.824761e+002, 1.067629e+004
5.829583e+002, 1.061966e+004
5.834404e+002, 1.063280e+004
5.839225e+002, 1.060992e+004
5.844046e+002, 1.051730e+004
5.848867e+002, 1.041690e+004
5.853688e+002, 1.034985e+004
5.858510e+002, 1.031249e+004
5.863331e+002, 1.027960e+004
5.868152e+002, 1.023647e+004
5.872973e+002, 1.018593e+004
5.877794e+002, 1.013450e+004
5.882615e+002, 1.008214e+004
5.887437e+002, 1.002814e+004
5.892258e+002, 9.970837e+003
5.897079e+002, 9.913105e+003
5.901900e+002, 9.855771e+003
5.906721e+002, 9.799688e+003
5.911542e+002, 9.751378e+003
5.916364e+002, 9.721062e+003
5.921185e+002, 9.692616e+003
5.926006e+002, 9.650368e+003
5.930827e+002, 9.598961e+003
5.935648e+002, 9.554793e+003
5.940469e+002, 9.524868e+003
5.945291e+002, 9.494560e+003
5.950112e+002, 9.441494e+003
5.954933e+002, 9.357922e+003
5.959754e+002, 9.286749e+003
5.964575e+002, 9.216289e+003
5.969396e+002, 9.169131e+003
5.974218e+002, 9.174395e+003
5.979039e+002, 9.200092e+003
5.983860e+002, 9.201091e+003
5.988681e+002, 9.162167e+003
5.993502e+002, 9.103933e+003
5.998323e+002, 9.044327e+003
6.003145e+002, 8.983765e+003
6.007966e+002, 8.945373e+003
6.012787e+002, 8.944053e+003
6.017608e+002, 8.935345e+003
6.022429e+002, 8.882895e+003
6.027250e+002, 8.809991e+003
6.032072e+002, 8.752323e+003
6.036893e+002, 8.716431e+003
6.041714e+002, 8.687874e+003
6.046535e+002, 8.654949e+003
6.051356e+002, 8.626528e+003
6.056177e+002, 8.624033e+003
6.060999e+002, 8.646113e+003
6.065820e+002, 8.658144e+003
6.070641e+002, 8.633275e+003
6.075462e+002, 8.580566e+003
6.080283e+002, 8.540593e+003
6.085104e+002, 8.520845e+003
6.089926e+002, 8.504309e+003
6.094747e+002, 8.510396e+003
6.099568e+002, 8.503269e+003
6.104389e+002, 8.439454e+003
6.109210e+002, 8.336291e+003
6.114031e+002, 8.256939e+003
6.118853e+002, 8.246671e+003
6.123674e+002, 8.275572e+003
6.128495e+002, 8.280153e+003
6.133316e+002, 8.257968e+003
6.138137e+002, 8.241806e+003
6.142958e+002, 8.245605e+003
6.147780e+002, 8.249995e+003
6.152601e+002, 8.235895e+003
6.157422e+002, 8.205364e+003
6.162243e+002, 8.167444e+003
6.167064e+002, 8.102005e+003
6.171885e+002, 8.051387e+003
6.176707e+002, 8.061050e+003
6.181528e+002, 8.101946e+003
6.186349e+002, 8.113045e+003
6.191170e+002, 8.076635e+003
6.195991e+002, 8.020772e+003
6.200812e+002, 7.975446e+003
6.205634e+002, 7.939691e+003
6.210455e+002, 7.927315e+003
6.215276e+002, 7.979559e+003
6.220097e+002, 8.003989e+003
6.224918e+002, 7.956489e+003
6.229739e+002, 7.886615e+003
6.234561e+002, 7.851716e+003
6.239382e+002, 7.860228e+003
6.244203e+002, 7.864407e+003
6.249023e+002, 7.801181e+003
6.253845e+002, 7.707570e+003
6.258666e+002, 7.700024e+003
6.263487e+002, 7.789496e+003
6.268308e+002, 7.858750e+003
6.273129e+002, 7.847108e+003
6.277950e+002, 7.791573e+003
6.282772e+002, 7.761869e+003
6.287593e+002, 7.763323e+003
6.292414e+002, 7.759225e+003
6.297235e+002, 7.752492e+003
6.302056e+002, 7.731142e+003
6.306877e+002, 7.665730e+003
6.311699e+002, 7.580458e+003
6.316520e+002, 7.534115e+003
6.321341e+002, 7.553903e+003
6.326162e+002, 7.605389e+003
6.330983e+002, 7.633253e+003
6.335804e+002, 7.635817e+003
6.340626e+002, 7.621739e+003
6.345447e+002, 7.566857e+003
6.350268e+002, 7.527911e+003
6.355089e+002, 7.550731e+003
6.359910e+002, 7.596658e+003
6.364731e+002, 7.600786e+003
6.369553e+002, 7.538531e+003
6.374374e+002, 7.476518e+003
6.379195e+002, 7.468674e+003
6.384016e+002, 7.491917e+003
6.388837e+002, 7.502082e+003
6.393658e+002, 7.494441e+003
6.398480e+002, 7.487393e+003
6.403301e+002, 7.491949e+003
6.408122e+002, 7.506916e+003
6.412943e+002, 7.528904e+003
6.417764e+002, 7.579538e+003
6.422585e+002, 7.603927e+003
6.427407e+002, 7.582780e+003
6.432228e+002, 7.552634e+003
6.437049e+002, 7.531674e+003
6.441870e+002, 7.521590e+003
6.446691e+002, 7.522518e+003
6.451512e+002, 7.537228e+003
6.456334e+002, 7.550293e+003
6.461155e+002, 7.527744e+003
6.465976e+002, 7.470090e+003
6.470797e+002, 7.442183e+003
6.475618e+002, 7.469633e+003
6.480439e+002, 7.494102e+003
6.485261e+002, 7.457653e+003
6.490082e+002, 7.382347e+003
6.494903e+002, 7.338681e+003
6.499724e+002, 7.346964e+003
6.504545e+002, 7.364147e+003
6.509366e+002, 7.384493e+003
6.514188e+002, 7.398627e+003
6.519009e+002, 7.390490e+003
6.523830e+002, 7.361737e+003
6.528651e+002, 7.333607e+003
6.533472e+002, 7.323962e+003
6.538293e+002, 7.322480e+003
6.543115e+002, 7.282637e+003
6.547936e+002, 7.168083e+003
6.552757e+002, 7.103771e+003
6.557578e+002, 7.167288e+003
6.562399e+002, 7.233811e+003
6.567220e+002, 7.224708e+003
6.572042e+002, 7.160521e+003
6.576863e+002, 7.113880e+003
6.581684e+002, 7.121599e+003
6.586505e+002, 7.141350e+003
6.591326e+002, 7.133657e+003
6.596147e+002, 7.106080e+003
6.600969e+002, 7.075409e+003
6.605790e+002, 7.044859e+003
6.610611e+002, 7.027926e+003
6.615432e+002, 7.042421e+003
6.620253e+002, 7.082687e+003
6.625074e+002, 7.087354e+003
6.629896e+002, 7.008482e+003
6.634717e+002, 6.957452e+003
6.639538e+002, 6.961220e+003
6.644359e+002, 6.982783e+003
6.649180e+002, 6.999192e+003
6.654001e+002, 7.005841e+003
6.658823e+002, 7.002095e+003
6.663644e+002, 6.984438e+003
6.668465e+002, 6.961435e+003
6.673286e+002, 6.951451e+003
6.678107e+002, 6.953873e+003
6.682928e+002, 6.945587e+003
6.687750e+002, 6.918285e+003
6.692571e+002, 6.886911e+003
6.697392e+002, 6.866612e+003
6.702213e+002, 6.855821e+003
6.707034e+002, 6.838912e+003
6.711855e+002, 6.818360e+003
6.716677e+002, 6.788270e+003
6.721498e+002, 6.720941e+003
6.726319e+002, 6.658611e+003
6.731140e+002, 6.661103e+003
6.735961e+002, 6.723866e+003
6.740782e+002, 6.784864e+003
6.745604e+002, 6.798810e+003
6.750425e+002, 6.772930e+003
6.755246e+002, 6.720803e+003
6.760067e+002, 6.628037e+003
6.764888e+002, 6.574188e+003
6.769709e+002, 6.589956e+003
6.774531e+002, 6.632979e+003
6.779352e+002, 6.681710e+003
6.784173e+002, 6.730224e+003
6.788994e+002, 6.755364e+003
6.793815e+002, 6.737065e+003
6.798636e+002, 6.713291e+003
6.803458e+002, 6.702246e+003
6.808279e+002, 6.701740e+003
6.813100e+002, 6.713646e+003
6.817921e+002, 6.735517e+003
6.822742e+002, 6.751054e+003
6.827563e+002, 6.746450e+003
6.832385e+002, 6.724896e+003
6.837206e+002, 6.698789e+003
6.842027e+002, 6.651270e+003
6.846848e+002, 6.636129e+003
6.851669e+002, 6.711994e+003
6.856490e+002, 6.776712e+003
6.861312e+002, 6.744590e+003
6.866133e+002, 6.650438e+003
6.870954e+002, 6.605892e+003
6.875775e+002, 6.674326e+003
6.880596e+002, 6.767147e+003
6.885417e+002, 6.810661e+003
6.890239e+002, 6.817753e+003
6.895060e+002, 6.813928e+003
6.899881e+002, 6.804284e+003
6.904702e+002, 6.794289e+003
6.909523e+002, 6.787476e+003
6.914344e+002, 6.784396e+003
6.919166e+002, 6.788566e+003
6.923987e+002, 6.818089e+003
6.928808e+002, 6.825198e+003
6.933629e+002, 6.791995e+003
6.938450e+002, 6.751719e+003
6.943271e+002, 6.718900e+003
6.948093e+002, 6.695938e+003
6.952914e+002, 6.681844e+003
6.957735e+002, 6.673500e+003
6.962556e+002, 6.682036e+003
6.967377e+002, 6.729857e+003
6.972198e+002, 6.805577e+003
6.977020e+002, 6.873064e+003
6.981841e+002, 6.927161e+003
6.986662e+002, 6.962630e+003
6.991483e+002, 6.971917e+003
6.996304e+002, 6.962026e+003
7.001125e+002, 6.959514e+003
7.005947e+002, 6.976385e+003
7.010768e+002, 6.982190e+003
7.015589e+002, 6.952432e+003
7.020410e+002, 6.933970e+003
7.025231e+002, 6.966642e+003
7.030052e+002, 7.031519e+003
7.034874e+002, 7.081949e+003
7.039695e+002, 7.095735e+003
7.044516e+002, 7.107640e+003
7.049337e+002, 7.172122e+003
7.054158e+002, 7.274489e+003
7.058979e+002, 7.341819e+003
7.063801e+002, 7.364753e+003
7.068622e+002, 7.366756e+003
7.073442e+002, 7.349504e+003
7.078264e+002, 7.329260e+003
7.083085e+002, 7.352569e+003
7.087906e+002, 7.447771e+003
7.092727e+002, 7.511538e+003
7.097548e+002, 7.515208e+003
7.102369e+002, 7.507189e+003
7.107191e+002, 7.499045e+003
7.112012e+002, 7.504322e+003
7.116833e+002, 7.549949e+003
7.121654e+002, 7.644741e+003
7.126475e+002, 7.745549e+003
7.131296e+002, 7.796147e+003
7.136118e+002, 7.807292e+003
7.140939e+002, 7.841617e+003
7.145760e+002, 7.903751e+003
7.150581e+002, 7.970333e+003
7.155402e+002, 8.033432e+003
7.160223e+002, 8.091804e+003
7.165045e+002, 8.142152e+003
7.169866e+002, 8.182878e+003
7.174687e+002, 8.225657e+003
7.179508e+002, 8.264071e+003
7.184329e+002, 8.312461e+003
7.189150e+002, 8.389096e+003
7.193972e+002, 8.475429e+003
7.198793e+002, 8.544418e+003
7.203614e+002, 8.589617e+003
7.208435e+002, 8.626118e+003
7.213256e+002, 8.665218e+003
7.218077e+002, 8.708342e+003
7.222899e+002, 8.761229e+003
7.227720e+002, 8.824759e+003
7.232541e+002, 8.894168e+003
7.237362e+002, 8.971484e+003
7.242183e+002, 9.048337e+003
7.247004e+002, 9.109786e+003
7.251826e+002, 9.156941e+003
7.256647e+002, 9.220253e+003
7.261468e+002, 9.323968e+003
7.266289e+002, 9.417487e+003
7.271110e+002, 9.470988e+003
7.275931e+002, 9.511806e+003
7.280753e+002, 9.571044e+003
7.285574e+002, 9.651190e+003
7.290395e+002, 9.736496e+003
7.295216e+002, 9.820180e+003
7.300037e+002, 9.892814e+003
7.304858e+002, 9.918810e+003
7.309680e+002, 9.895167e+003
7.314501e+002, 9.920155e+003
7.319322e+002, 1.003581e+004
7.324143e+002, 1.014896e+004
7.328964e+002, 1.017252e+004
7.333785e+002, 1.012619e+004
7.338607e+002, 1.012024e+004
7.343428e+002, 1.019044e+004
7.348249e+002, 1.024524e+004
7.353070e+002, 1.024949e+004
7.357891e+002, 1.024483e+004
7.362712e+002, 1.027255e+004
7.367534e+002, 1.032213e+004
7.372355e+002, 1.035696e+004
7.377176e+002, 1.035923e+004
7.381997e+002, 1.033821e+004
7.386818e+002, 1.029753e+004
7.391639e+002, 1.024122e+004
7.396461e+002, 1.021061e+004
7.401282e+002, 1.021339e+004
7.406103e+002, 1.022494e+004
7.410924e+002, 1.024603e+004
7.415745e+002, 1.025707e+004
7.420566e+002, 1.020354e+004
7.425388e+002, 1.005583e+004
7.430209e+002, 9.951256e+003
7.435030e+002, 9.925798e+003
7.439851e+002, 9.920063e+003
7.444672e+002, 9.916801e+003
7.449493e+002, 9.907226e+003
7.454315e+002, 9.880036e+003
7.459136e+002, 9.833150e+003
7.463957e+002, 9.778717e+003
7.468778e+002, 9.732011e+003
7.473599e+002, 9.686536e+003
7.478420e+002, 9.615582e+003
7.483242e+002, 9.518046e+003
7.488063e+002, 9.434936e+003
7.492884e+002, 9.378751e+003
7.497705e+002, 9.346186e+003
7.502526e+002, 9.344392e+003
7.507347e+002, 9.377358e+003
7.512169e+002, 9.355783e+003
7.516990e+002, 9.250072e+003
7.521811e+002, 9.133366e+003
7.526632e+002, 8.990528e+003
7.531453e+002, 8.865518e+003
7.536274e+002, 8.808398e+003
7.541096e+002, 8.809803e+003
7.545917e+002, 8.816510e+003
7.550738e+002, 8.802913e+003
7.555559e+002, 8.770887e+003
7.560380e+002, 8.712537e+003
7.565201e+002, 8.636136e+003
7.570023e+002, 8.588375e+003
7.574844e+002, 8.579684e+003
7.579665e+002, 8.548852e+003
7.584486e+002, 8.443933e+003
7.589307e+002, 8.292400e+003
7.594128e+002, 8.186126e+003
7.598950e+002, 8.145025e+003
7.603771e+002, 8.113954e+003
7.608592e+002, 8.112092e+003
7.613413e+002, 8.099478e+003
7.618234e+002, 8.037606e+003
7.623055e+002, 7.959519e+003
7.627877e+002, 7.921699e+003
7.632698e+002, 7.941030e+003
7.637519e+002, 7.969587e+003
7.642340e+002, 7.980170e+003
7.647161e+002, 7.973261e+003
7.651982e+002, 7.938099e+003
7.656804e+002, 7.882185e+003
7.661625e+002, 7.850418e+003
7.666446e+002, 7.861664e+003
7.671267e+002, 7.880024e+003
7.676088e+002, 7.854486e+003
7.680909e+002, 7.781884e+003
7.685731e+002, 7.744143e+003
7.690552e+002, 7.765837e+003
7.695373e+002, 7.782204e+003
7.700194e+002, 7.780021e+003
7.705015e+002, 7.766779e+003
7.709836e+002, 7.747059e+003
7.714658e+002, 7.721217e+003
7.719479e+002, 7.688034e+003
7.724300e+002, 7.633234e+003
7.729121e+002, 7.589617e+003
7.733942e+002, 7.596286e+003
7.738763e+002, 7.622032e+003
7.743585e+002, 7.610570e+003
7.748406e+002, 7.561435e+003
7.753227e+002, 7.521750e+003
7.758048e+002, 7.523034e+003
7.762869e+002, 7.550849e+003
7.767690e+002, 7.571070e+003
7.772512e+002, 7.581811e+003
7.777333e+002, 7.602352e+003
7.782154e+002, 7.655165e+003
7.786975e+002, 7.677767e+003
7.791796e+002, 7.600289e+003
7.796617e+002, 7.486532e+003
7.801439e+002, 7.451715e+003
7.806260e+002, 7.518722e+003
7.811081e+002, 7.564469e+003
7.815902e+002, 7.527486e+003
7.820723e+002, 7.491792e+003
7.825544e+002, 7.528023e+003
7.830366e+002, 7.596960e+003
7.835187e+002, 7.626472e+003
7.840008e+002, 7.600352e+003
7.844829e+002, 7.561207e+003
7.849650e+002, 7.545623e+003
7.854471e+002, 7.548556e+003
7.859293e+002, 7.558111e+003
7.864114e+002, 7.574399e+003
7.868935e+002, 7.587663e+003
7.873756e+002, 7.596520e+003
7.878577e+002, 7.597462e+003
7.883398e+002, 7.579961e+003
7.888220e+002, 7.549497e+003
7.893040e+002, 7.553294e+003
7.897861e+002, 7.643997e+003
7.902682e+002, 7.691766e+003
7.907504e+002, 7.637267e+003
7.912325e+002, 7.583199e+003
7.917146e+002, 7.620314e+003
7.921967e+002, 7.705308e+003
7.926788e+002, 7.732348e+003
7.931609e+002, 7.657962e+003
7.936431e+002, 7.569212e+003
7.941252e+002, 7.539860e+003
7.946073e+002, 7.549056e+003
7.950894e+002, 7.571687e+003
7.955715e+002, 7.600097e+003
7.960536e+002, 7.592792e+003
7.965358e+002, 7.529399e+003
7.970179e+002, 7.458861e+003
7.975000e+002, 7.456748e+003
7.979821e+002, 7.528430e+003
7.984642e+002, 7.529209e+003
7.989464e+002, 7.404601e+003
7.994285e+002, 7.307792e+003
7.999106e+002, 7.305227e+003
8.003927e+002, 7.321597e+003
8.008748e+002, 7.304415e+003
8.013569e+002, 7.256892e+003
8.018391e+002, 7.204435e+003
8.023212e+002, 7.141699e+003
8.028033e+002, 7.092999e+003
8.032854e+002, 7.082677e+003
8.037675e+002, 7.086531e+003
8.042496e+002, 7.067261e+003
8.047318e+002, 7.032744e+003
8.052139e+002, 7.032207e+003
8.056960e+002, 7.095239e+003
8.061781e+002, 7.164230e+003
8.066602e+002, 7.125410e+003
8.071423e+002, 6.990654e+003
8.076245e+002, 6.939476e+003
8.081066e+002, 6.998493e+003
8.085887e+002, 7.037807e+003
8.090708e+002, 6.988842e+003
8.095529e+002, 6.905792e+003
8.100350e+002, 6.868445e+003
8.105172e+002, 6.883638e+003
8.109993e+002, 6.904076e+003
8.114814e+002, 6.953718e+003
8.119635e+002, 6.978113e+003
8.124456e+002, 6.941775e+003
8.129277e+002, 6.888392e+003
8.134099e+002, 6.856985e+003
8.138920e+002, 6.849314e+003
8.143741e+002, 6.847546e+003
8.148562e+002, 6.841515e+003
8.153383e+002, 6.840746e+003
8.158204e+002, 6.862687e+003
8.163026e+002, 6.895500e+003
8.167847e+002, 6.912709e+003
8.172668e+002, 6.911867e+003
8.177489e+002, 6.899972e+003
8.182310e+002, 6.878608e+003
8.187131e+002, 6.862755e+003
8.191953e+002, 6.886362e+003
8.196774e+002, 6.958913e+003
8.201595e+002, 7.012164e+003
8.206416e+002, 7.048380e+003
8.211237e+002, 7.060830e+003
8.216058e+002, 7.018916e+003
8.220880e+002, 6.971586e+003
8.225701e+002, 6.983317e+003
8.230522e+002, 7.051831e+003
8.235343e+002, 7.094579e+003
8.240164e+002, 7.068654e+003
8.244985e+002, 7.045628e+003
8.249807e+002, 7.060213e+003
8.254628e+002, 7.091735e+003
8.259449e+002, 7.122292e+003
8.264270e+002, 7.146601e+003
8.269091e+002, 7.158067e+003
8.273912e+002, 7.149854e+003
8.278734e+002, 7.142594e+003
8.283555e+002, 7.179002e+003
8.288376e+002, 7.243011e+003
8.293197e+002, 7.260432e+003
8.298018e+002, 7.224522e+003
8.302839e+002, 7.189448e+003
8.307661e+002, 7.183374e+003
8.312482e+002, 7.187665e+003
8.317303e+002, 7.168046e+003
8.322124e+002, 7.116671e+003
8.326945e+002, 7.099963e+003
8.331766e+002, 7.150210e+003
8.336588e+002, 7.188841e+003
8.341409e+002, 7.204704e+003
8.346230e+002, 7.197802e+003
8.351051e+002, 7.157270e+003
8.355872e+002, 7.091208e+003
8.360693e+002, 7.034873e+003
8.365515e+002, 6.990184e+003
8.370336e+002, 6.971096e+003
8.375157e+002, 7.017157e+003
8.379978e+002, 7.071615e+003
8.384799e+002, 7.057020e+003
8.389620e+002, 6.987064e+003
8.394442e+002, 6.930872e+003
8.399263e+002, 6.921223e+003
8.404084e+002, 6.923820e+003
8.408905e+002, 6.883883e+003
8.413726e+002, 6.812688e+003
8.418547e+002, 6.788937e+003
8.423369e+002, 6.819096e+003
8.428190e+002, 6.802658e+003
8.433011e+002, 6.686381e+003
8.437832e+002, 6.560891e+003
8.442653e+002, 6.540237e+003
8.447474e+002, 6.620830e+003
8.452296e+002, 6.650581e+003
8.457117e+002, 6.602126e+003
8.461938e+002, 6.541212e+003
8.466759e+002, 6.448655e+003
8.471580e+002, 6.369099e+003
8.476401e+002, 6.336931e+003
8.481223e+002, 6.337841e+003
8.486044e+002, 6.339373e+003
8.490865e+002, 6.335772e+003
8.495686e+002, 6.321378e+003
8.500507e+002, 6.288547e+003
8.505328e+002, 6.247036e+003
8.510150e+002, 6.198661e+003
8.514971e+002, 6.151152e+003
8.519792e+002, 6.120031e+003
8.524613e+002, 6.109874e+003
8.529434e+002, 6.114322e+003
8.534255e+002, 6.133232e+003
8.539077e+002, 6.156898e+003
8.543898e+002, 6.146922e+003
8.548719e+002, 6.103318e+003
8.553540e+002, 6.087052e+003
8.558361e+002, 6.119710e+003
8.563182e+002, 6.137187e+003
8.568004e+002, 6.081855e+003
8.572825e+002, 5.982119e+003
8.577646e+002, 5.929130e+003
8.582467e+002, 5.937688e+003
8.587288e+002, 5.961944e+003
8.592109e+002, 6.018575e+003
8.596931e+002, 6.070915e+003
8.601752e+002, 6.104804e+003
8.606573e+002, 6.128316e+003
8.611394e+002, 6.152307e+003
8.616215e+002, 6.177756e+003
8.621036e+002, 6.196300e+003
8.625858e+002, 6.214104e+003
8.630679e+002, 6.214006e+003
8.635500e+002, 6.154225e+003
8.640321e+002, 6.085291e+003
8.645142e+002, 6.095540e+003
8.649963e+002, 6.175644e+003
8.654785e+002, 6.235045e+003
8.659606e+002, 6.219627e+003
8.664427e+002, 6.170440e+003
8.669248e+002, 6.153175e+003
8.674069e+002, 6.158980e+003
8.678890e+002, 6.140716e+003
8.683712e+002, 6.095434e+003
8.688533e+002, 6.033156e+003
8.693354e+002, 5.956755e+003
8.698175e+002, 5.867843e+003
8.702996e+002, 5.766641e+003
8.707817e+002, 5.652726e+003
8.712639e+002, 5.555034e+003
8.717459e+002, 5.495630e+003
8.722280e+002, 5.413536e+003
8.727101e+002, 5.255552e+003
8.731923e+002, 5.113324e+003
8.736744e+002, 5.055318e+003
8.741565e+002, 5.054264e+003
8.746386e+002, 5.038754e+003
8.751207e+002, 4.990063e+003
8.756028e+002, 4.950245e+003
8.760850e+002, 4.946004e+003
8.765671e+002, 4.944458e+003
8.770492e+002, 4.918550e+003
8.775313e+002, 4.879108e+003
8.780134e+002, 4.847586e+003
8.784955e+002, 4.828250e+003
8.789777e+002, 4.807255e+003
8.794598e+002, 4.766486e+003
8.799419e+002, 4.726654e+003
8.804240e+002, 4.731800e+003
8.809061e+002, 4.767773e+003
8.813882e+002, 4.777478e+003
8.818704e+002, 4.753571e+003
8.823525e+002, 4.736208e+003
8.828346e+002, 4.751275e+003
8.833167e+002, 4.786274e+003
8.837988e+002, 4.817275e+003
8.842809e+002, 4.845269e+003
8.847631e+002, 4.864190e+003
8.852452e+002, 4.880641e+003
8.857273e+002, 4.868699e+003
8.862094e+002, 4.791923e+003
8.866915e+002, 4.711374e+003
8.871736e+002, 4.712461e+003
8.876558e+002, 4.787034e+003
8.881379e+002, 4.806758e+003
8.886200e+002, 4.726793e+003
8.891021e+002, 4.650163e+003
8.895842e+002, 4.588932e+003
8.900663e+002, 4.541479e+003
8.905485e+002, 4.508860e+003
8.910306e+002, 4.488585e+003
8.915127e+002, 4.478399e+003
8.919948e+002, 4.477938e+003
8.924769e+002, 4.478748e+003
8.929590e+002, 4.482452e+003
8.934412e+002, 4.478854e+003
8.939233e+002, 4.447131e+003
8.944054e+002, 4.402370e+003
8.948875e+002, 4.381612e+003
8.953696e+002, 4.388608e+003
8.958517e+002, 4.390068e+003
8.963339e+002, 4.359869e+003
8.968160e+002, 4.314209e+003
8.972981e+002, 4.281629e+003
8.977802e+002, 4.262538e+003
8.982623e+002, 4.263483e+003
8.987444e+002, 4.286639e+003
8.992266e+002, 4.309726e+003
8.997087e+002, 4.321124e+003
9.001908e+002, 4.331214e+003
9.006729e+002, 4.358790e+003
9.011550e+002, 4.405829e+003
9.016371e+002, 4.424174e+003
9.021193e+002, 4.399795e+003
9.026014e+002, 4.372465e+003
9.030835e+002, 4.335792e+003
9.035656e+002, 4.311998e+003
9.040477e+002, 4.330908e+003
9.045298e+002, 4.372469e+003
9.050120e+002, 4.381233e+003
9.054941e+002, 4.333717e+003
9.059762e+002, 4.304199e+003
9.064583e+002, 4.324780e+003
9.069404e+002, 4.353515e+003
9.074225e+002, 4.366000e+003
9.079047e+002, 4.370729e+003
9.083868e+002, 4.386691e+003
9.088689e+002, 4.412883e+003
9.093510e+002, 4.421808e+003
9.098331e+002, 4.383350e+003
9.103152e+002, 4.343038e+003
9.107974e+002, 4.346347e+003
9.112795e+002, 4.381290e+003
9.117616e+002, 4.444830e+003
9.122437e+002, 4.521558e+003
9.127258e+002, 4.551512e+003
9.132079e+002, 4.506116e+003
9.136901e+002, 4.435806e+003
9.141722e+002, 4.396943e+003
9.146543e+002, 4.392337e+003
9.151364e+002, 4.457159e+003
9.156185e+002, 4.595580e+003
9.161006e+002, 4.679009e+003
9.165828e+002, 4.669585e+003
9.170649e+002, 4.624310e+003
9.175470e+002, 4.583863e+003
9.180291e+002, 4.550455e+003
9.185112e+002, 4.531030e+003
9.189933e+002, 4.521744e+003
9.194755e+002, 4.538041e+003
9.199576e+002, 4.610488e+003
9.204397e+002, 4.664530e+003
9.209218e+002, 4.661348e+003
9.214039e+002, 4.631190e+003
9.218860e+002, 4.600113e+003
9.223682e+002, 4.569400e+003
9.228503e+002, 4.550398e+003
9.233324e+002, 4.567345e+003
9.238145e+002, 4.565521e+003
9.242966e+002, 4.490122e+003
9.247787e+002, 4.425540e+003
9.252609e+002, 4.457791e+003
9.257430e+002, 4.548347e+003
9.262251e+002, 4.613003e+003
9.267072e+002, 4.627193e+003
9.271893e+002, 4.612524e+003
9.276714e+002, 4.568470e+003
9.281536e+002, 4.515492e+003
9.286357e+002, 4.461761e+003
9.291178e+002, 4.418830e+003
9.295999e+002, 4.418770e+003
9.300820e+002, 4.456745e+003
9.305641e+002, 4.480859e+003
9.310463e+002, 4.456505e+003
9.315284e+002, 4.410839e+003
9.320105e+002, 4.390159e+003
9.324926e+002, 4.385405e+003
9.329747e+002, 4.353713e+003
9.334568e+002, 4.294898e+003
9.339390e+002, 4.244961e+003
9.344211e+002, 4.217857e+003
9.349032e+002, 4.200837e+003
9.353853e+002, 4.180636e+003
9.358674e+002, 4.158125e+003
9.363495e+002, 4.137404e+003
9.368317e+002, 4.116916e+003
9.373138e+002, 4.107450e+003
9.377959e+002, 4.120103e+003
9.382780e+002, 4.120922e+003
9.387601e+002, 4.083033e+003
9.392422e+002, 4.028359e+003
9.397244e+002, 3.996953e+003
9.402065e+002, 3.993875e+003
9.406886e+002, 3.984297e+003
9.411707e+002, 3.951175e+003
9.416528e+002, 3.934917e+003
9.421349e+002, 3.972759e+003
9.426171e+002, 4.003289e+003
9.430992e+002, 3.972846e+003
9.435813e+002, 3.899905e+003
9.440634e+002, 3.834950e+003
9.445455e+002, 3.786152e+003
9.450276e+002, 3.751415e+003
9.455098e+002, 3.742790e+003
9.459919e+002, 3.734189e+003
9.464740e+002, 3.704127e+003
9.469561e+002, 3.666011e+003
9.474382e+002, 3.641906e+003
9.479203e+002, 3.631421e+003
9.484025e+002, 3.612316e+003
9.488846e+002, 3.566966e+003
9.493667e+002, 3.523974e+003
9.498488e+002, 3.513222e+003
9.503309e+002, 3.520782e+003
9.508130e+002, 3.530626e+003
9.512952e+002, 3.538382e+003
9.517773e+002, 3.538994e+003
9.522594e+002, 3.530184e+003
9.527415e+002, 3.505765e+003
9.532236e+002, 3.447836e+003
9.537057e+002, 3.384931e+003
9.541878e+002, 3.407876e+003
9.546699e+002, 3.497783e+003
9.551520e+002, 3.518968e+003
9.556342e+002, 3.452670e+003
9.561163e+002, 3.389285e+003
9.565984e+002, 3.376850e+003
9.570805e+002, 3.395821e+003
9.575626e+002, 3.419716e+003
9.580447e+002, 3.448218e+003
9.585269e+002, 3.449842e+003
9.590090e+002, 3.415371e+003
9.594911e+002, 3.395543e+003
9.599732e+002, 3.408500e+003
9.604553e+002, 3.421094e+003
9.609374e+002, 3.403974e+003
9.614196e+002, 3.371032e+003
9.619017e+002, 3.363309e+003
9.623838e+002, 3.395056e+003
9.628659e+002, 3.407929e+003
9.633480e+002, 3.394089e+003
9.638301e+002, 3.371560e+003
9.643123e+002, 3.321861e+003
9.647944e+002, 3.284496e+003
9.652765e+002, 3.312897e+003
9.657586e+002, 3.387472e+003
9.662407e+002, 3.414649e+003
9.667228e+002, 3.349717e+003
9.672050e+002, 3.304880e+003
9.676871e+002, 3.328440e+003
9.681692e+002, 3.351896e+003
9.686513e+002, 3.324516e+003
9.691334e+002, 3.279865e+003
9.696155e+002, 3.274276e+003
9.700977e+002, 3.306810e+003
9.705798e+002, 3.312379e+003
9.710619e+002, 3.239662e+003
9.715440e+002, 3.169990e+003
9.720261e+002, 3.150986e+003
9.725082e+002, 3.163729e+003
9.729904e+002, 3.203707e+003
9.734725e+002, 3.254860e+003
9.739546e+002, 3.288311e+003
9.744367e+002, 3.295825e+003
9.749188e+002, 3.291944e+003
9.754009e+002, 3.287548e+003
9.758831e+002, 3.278514e+003
9.763652e+002, 3.250882e+003
9.768473e+002, 3.217157e+003
9.773294e+002, 3.205229e+003
9.778115e+002, 3.215839e+003
9.782936e+002, 3.236960e+003
9.787758e+002, 3.262833e+003
9.792579e+002, 3.280387e+003
9.797400e+002, 3.266573e+003
9.802221e+002, 3.233849e+003
9.807042e+002, 3.227352e+003
9.811863e+002, 3.243544e+003
9.816685e+002, 3.250723e+003
9.821506e+002, 3.242692e+003
9.826327e+002, 3.244510e+003
9.831148e+002, 3.274529e+003
9.835969e+002, 3.314505e+003
9.840790e+002, 3.332407e+003
9.845612e+002, 3.328298e+003
9.850433e+002, 3.294755e+003
9.855254e+002, 3.224965e+003
9.860075e+002, 3.164271e+003
9.864896e+002, 3.121125e+003
9.869717e+002, 3.101497e+003
9.874539e+002, 3.116414e+003
9.879360e+002, 3.152863e+003
9.884181e+002, 3.168387e+003
9.889002e+002, 3.152904e+003
9.893823e+002, 3.154589e+003
9.898644e+002, 3.196559e+003
9.903466e+002, 3.208749e+003
9.908287e+002, 3.138744e+003
9.913108e+002, 3.064389e+003
9.917929e+002, 3.073045e+003
9.922750e+002, 3.146678e+003
9.927571e+002, 3.176593e+003
9.932393e+002, 3.116108e+003
9.937214e+002, 3.096093e+003
9.942035e+002, 3.166920e+003
9.946856e+002, 3.220348e+003
9.951677e+002, 3.198115e+003
9.956498e+002, 3.149322e+003
9.961320e+002, 3.126739e+003
9.966141e+002, 3.129527e+003
9.970962e+002, 3.128311e+003
9.975783e+002, 3.110766e+003
9.980604e+002, 3.100302e+003
9.985425e+002, 3.108117e+003
9.990247e+002, 3.119186e+003
9.995068e+002, 3.132353e+003
9.999889e+002, 3.138371e+003
1.000471e+003, 3.118819e+003
1.000953e+003, 3.075386e+003
1.001435e+003, 3.042430e+003
1.001917e+003, 3.040097e+003
1.002399e+003, 3.042457e+003
1.002882e+003, 3.031752e+003
1.003364e+003, 3.022495e+003
1.003846e+003, 3.032013e+003
1.004328e+003, 3.052414e+003
1.004810e+003, 3.071135e+003
1.005292e+003, 3.083056e+003
1.005774e+003, 3.076684e+003
1.006256e+003, 3.028119e+003
1.006739e+003, 2.980653e+003
1.007221e+003, 2.984545e+003
1.007703e+003, 3.009058e+003
1.008185e+003, 3.009577e+003
1.008667e+003, 2.990200e+003
1.009149e+003, 2.973052e+003
1.009631e+003, 2.967206e+003
1.010113e+003, 2.979213e+003
1.010595e+003, 3.031383e+003
1.011078e+003, 3.086408e+003
1.011560e+003, 3.081008e+003
1.012042e+003, 3.036199e+003
1.012524e+003, 2.992668e+003
1.013006e+003, 2.959400e+003
1.013488e+003, 2.948764e+003
1.013970e+003, 2.965507e+003
1.014452e+003, 2.986193e+003
1.014935e+003, 2.980189e+003
1.015417e+003, 2.962050e+003
1.015899e+003, 2.973394e+003
1.016381e+003, 3.006675e+003
1.016863e+003, 3.026238e+003
1.017345e+003, 3.027314e+003
1.017827e+003, 3.021598e+003
1.018309e+003, 3.014817e+003
1.018791e+003, 3.009022e+003
1.019274e+003, 3.009208e+003
1.019756e+003, 3.012217e+003
1.020238e+003, 2.995006e+003
1.020720e+003, 2.959335e+003
1.021202e+003, 2.958489e+003
1.021684e+003, 3.004054e+003
1.022166e+003, 3.038066e+003
1.022648e+003, 3.025372e+003
1.023130e+003, 2.990923e+003
1.023613e+003, 2.970418e+003
1.024095e+003, 2.964788e+003
1.024577e+003, 3.001445e+003
1.025059e+003, 3.090767e+003
1.025541e+003, 3.127606e+003
1.026023e+003, 3.082724e+003
1.026505e+003, 3.025517e+003
1.026987e+003, 2.993993e+003
1.027469e+003, 2.988560e+003
1.027952e+003, 3.016404e+003
1.028434e+003, 3.080569e+003
1.028916e+003, 3.101659e+003
1.029398e+003, 3.063812e+003
1.029880e+003, 3.038413e+003
1.030362e+003, 3.038531e+003
1.030844e+003, 3.055311e+003
1.031326e+003, 3.089927e+003
1.031809e+003, 3.129868e+003
1.032291e+003, 3.147982e+003
1.032773e+003, 3.140344e+003
1.033255e+003, 3.146140e+003
1.033737e+003, 3.182220e+003
1.034219e+003, 3.192825e+003
1.034701e+003, 3.146343e+003
1.035183e+003, 3.105031e+003
1.035666e+003, 3.120516e+003
1.036148e+003, 3.162608e+003
1.036630e+003, 3.162387e+003
1.037112e+003, 3.104686e+003
1.037594e+003, 3.090970e+003
1.038076e+003, 3.168318e+003
1.038558e+003, 3.213671e+003
1.039040e+003, 3.179412e+003
1.039522e+003, 3.136058e+003
1.040005e+003, 3.125123e+003
1.040487e+003, 3.137931e+003
1.040969e+003, 3.159553e+003
1.041451e+003, 3.194128e+003
1.041933e+003, 3.215861e+003
1.042415e+003, 3.206683e+003
1.042897e+003, 3.209485e+003
1.043379e+003, 3.265652e+003
1.043861e+003, 3.302847e+003
1.044344e+003, 3.241534e+003
1.044826e+003, 3.139085e+003
1.045308e+003, 3.116847e+003
1.045790e+003, 3.197557e+003
1.046272e+003, 3.249531e+003
1.046754e+003, 3.228793e+003
1.047236e+003, 3.219421e+003
1.047718e+003, 3.258684e+003
1.048201e+003, 3.299414e+003
1.048683e+003, 3.307183e+003
1.049165e+003, 3.293748e+003
1.049647e+003, 3.284426e+003
1.050129e+003, 3.282984e+003
1.050611e+003, 3.273379e+003
1.051093e+003, 3.215097e+003
1.051575e+003, 3.199294e+003
1.052057e+003, 3.310052e+003
1.052540e+003, 3.417540e+003
1.053022e+003, 3.410265e+003
1.053504e+003, 3.338625e+003
1.053986e+003, 3.300244e+003
1.054468e+003, 3.309328e+003
1.054950e+003, 3.329200e+003
1.055432e+003, 3.353538e+003
1.055914e+003, 3.382615e+003
1.056396e+003, 3.429342e+003
1.056879e+003, 3.468453e+003
1.057361e+003, 3.475076e+003
1.057843e+003, 3.462995e+003
1.058325e+003, 3.454438e+003
1.058807e+003, 3.453340e+003
1.059289e+003, 3.463290e+003
1.059771e+003, 3.507506e+003
1.060253e+003, 3.533225e+003
1.060736e+003, 3.504207e+003
1.061218e+003, 3.465231e+003
1.061700e+003, 3.445108e+003
1.062182e+003, 3.441373e+003
1.062664e+003, 3.438607e+003
1.063146e+003, 3.437332e+003
1.063628e+003, 3.473835e+003
1.064110e+003, 3.612209e+003
1.064593e+003, 3.718586e+003
1.065075e+003, 3.728902e+003
1.065557e+003, 3.695535e+003
1.066039e+003, 3.626090e+003
1.066521e+003, 3.556487e+003
1.067003e+003, 3.546257e+003
1.067485e+003, 3.595718e+003
1.067967e+003, 3.629757e+003
1.068449e+003, 3.608172e+003
1.068932e+003, 3.587737e+003
1.069414e+003, 3.589537e+003
1.069896e+003, 3.606372e+003
1.070378e+003, 3.652633e+003
1.070860e+003, 3.699165e+003
1.071342e+003, 3.694381e+003
1.071824e+003, 3.643480e+003
1.072306e+003, 3.618986e+003
1.072788e+003, 3.663069e+003
1.073271e+003, 3.701106e+003
1.073753e+003, 3.688342e+003
1.074235e+003, 3.667488e+003
1.074717e+003, 3.662714e+003
1.075199e+003, 3.673043e+003
1.075681e+003, 3.701935e+003
1.076163e+003, 3.743107e+003
1.076645e+003, 3.768977e+003
1.077127e+003, 3.758050e+003
1.077610e+003, 3.770386e+003
1.078092e+003, 3.879426e+003
1.078574e+003, 3.971405e+003
1.079056e+003, 3.939714e+003
1.079538e+003, 3.868198e+003
1.080020e+003, 3.865630e+003
1.080502e+003, 3.922438e+003
1.080984e+003, 3.960885e+003
1.081467e+003, 3.955102e+003
1.081949e+003, 3.939998e+003
1.082431e+003, 3.916314e+003
1.082913e+003, 3.905368e+003
1.083395e+003, 3.933748e+003
1.083877e+003, 3.971218e+003
1.084359e+003, 3.979149e+003
1.084841e+003, 3.968374e+003
1.085323e+003, 3.978046e+003
1.085806e+003, 4.020408e+003
1.086288e+003, 4.061902e+003
1.086770e+003, 4.102353e+003
1.087252e+003, 4.120940e+003
1.087734e+003, 4.076801e+003
1.088216e+003, 4.032063e+003
1.088698e+003, 4.056989e+003
1.089180e+003, 4.123767e+003
1.089662e+003, 4.161771e+003
1.090145e+003, 4.156566e+003
1.090627e+003, 4.162207e+003
1.091109e+003, 4.213221e+003
1.091591e+003, 4.260374e+003
1.092073e+003, 4.281869e+003
1.092555e+003, 4.292135e+003
1.093037e+003, 4.293712e+003
1.093519e+003, 4.296105e+003
1.094002e+003, 4.320999e+003
1.094484e+003, 4.367776e+003
1.094966e+003, 4.389812e+003
1.095448e+003, 4.347981e+003
1.095930e+003, 4.315373e+003
1.096412e+003, 4.324815e+003
1.096894e+003, 4.341248e+003
1.097376e+003, 4.337144e+003
1.097859e+003, 4.329573e+003
1.098341e+003, 4.341314e+003
1.098823e+003, 4.373851e+003
1.099305e+003, 4.420105e+003
1.099787e+003, 4.495749e+003
1.100269e+003, 4.548666e+003
1.100751e+003, 4.558739e+003
1.101233e+003, 4.550771e+003
1.101715e+003, 4.501411e+003
1.102198e+003, 4.467333e+003
1.102680e+003, 4.535028e+003
1.103162e+003, 4.671707e+003
1.103644e+003, 4.741639e+003
1.104126e+003, 4.704591e+003
1.104608e+003, 4.667646e+003
1.105090e+003, 4.633077e+003
1.105572e+003, 4.623000e+003
1.106054e+003, 4.663084e+003
1.106537e+003, 4.714012e+003
1.107019e+003, 4.749543e+003
1.107501e+003, 4.770125e+003
1.107983e+003, 4.777413e+003
1.108465e+003, 4.767511e+003
1.108947e+003, 4.768089e+003
1.109429e+003, 4.788799e+003
1.109911e+003, 4.809829e+003
1.110394e+003, 4.826100e+003
1.110876e+003, 4.842678e+003
1.111358e+003, 4.850185e+003
1.111840e+003, 4.865833e+003
1.112322e+003, 4.936125e+003
1.112804e+003, 5.067412e+003
1.113286e+003, 5.119381e+003
1.113768e+003, 5.016091e+003
1.114250e+003, 4.959228e+003
1.114733e+003, 4.973181e+003
1.115215e+003, 5.021985e+003
1.115697e+003, 5.126677e+003
1.116179e+003, 5.225404e+003
1.116661e+003, 5.239549e+003
1.117143e+003, 5.180508e+003
1.117625e+003, 5.129526e+003
1.118107e+003, 5.065600e+003
1.118589e+003, 5.064875e+003
1.119072e+003, 5.170927e+003
1.119554e+003, 5.252004e+003
1.120036e+003, 5.249821e+003
1.120518e+003, 5.238050e+003
1.121000e+003, 5.282938e+003
1.121482e+003, 5.364842e+003
1.121964e+003, 5.428147e+003
1.122446e+003, 5.474642e+003
1.122929e+003, 5.485989e+003
1.123411e+003, 5.445046e+003
1.123893e+003, 5.430399e+003
1.124375e+003, 5.467959e+003
1.124857e+003, 5.504368e+003
1.125339e+003, 5.500111e+003
1.125821e+003, 5.486632e+003
1.126303e+003, 5.518435e+003
1.126786e+003, 5.593576e+003
1.127268e+003, 5.683273e+003
1.127750e+003, 5.792020e+003
1.128232e+003, 5.871096e+003
1.128714e+003, 5.913247e+003
1.129196e+003, 5.925144e+003
1.129678e+003, 5.905758e+003
1.130160e+003, 5.880039e+003
1.130642e+003, 5.876619e+003
1.131125e+003, 5.889504e+003
1.131607e+003, 5.893460e+003
1.132089e+003, 5.890354e+003
1.132571e+003, 5.919992e+003
1.133053e+003, 5.983577e+003
1.133535e+003, 6.032021e+003
1.134017e+003, 6.050390e+003
1.134499e+003, 6.056178e+003
1.134981e+003, 6.060252e+003
1.135464e+003, 6.073991e+003
1.135946e+003, 6.126544e+003
1.136428e+003, 6.205443e+003
1.136910e+003, 6.267353e+003
1.137392e+003, 6.310828e+003
1.137874e+003, 6.327250e+003
1.138356e+003, 6.319099e+003
1.138838e+003, 6.310709e+003
1.139321e+003, 6.314486e+003
1.139803e+003, 6.332415e+003
1.140285e+003, 6.370700e+003
1.140767e+003, 6.421135e+003
1.141249e+003, 6.474264e+003
1.141731e+003, 6.525736e+003
1.142213e+003, 6.558099e+003
1.142695e+003, 6.579423e+003
1.143177e+003, 6.629959e+003
1.143660e+003, 6.716083e+003
1.144142e+003, 6.778436e+003
1.144624e+003, 6.765101e+003
1.145106e+003, 6.735455e+003
1.145588e+003, 6.754047e+003
1.146070e+003, 6.790425e+003
1.146552e+003, 6.810337e+003
1.147034e+003, 6.816615e+003
1.147516e+003, 6.807697e+003
1.147999e+003, 6.794294e+003
1.148481e+003, 6.817576e+003
1.148963e+003, 6.901738e+003
1.149445e+003, 6.981399e+003
1.149927e+003, 7.004417e+003
1.150409e+003, 7.020591e+003
1.150891e+003, 7.071249e+003
1.151373e+003, 7.129767e+003
1.151856e+003, 7.156609e+003
1.152338e+003, 7.168874e+003
1.152820e+003, 7.221548e+003
1.153302e+003, 7.325655e+003
1.153784e+003, 7.395498e+003
1.154266e+003, 7.362914e+003
1.154748e+003, 7.348049e+003
1.155230e+003, 7.421016e+003
1.155713e+003, 7.490172e+003
1.156195e+003, 7.484713e+003
1.156677e+003, 7.450923e+003
1.157159e+003, 7.444930e+003
1.157641e+003, 7.470064e+003
1.158123e+003, 7.519354e+003
1.158605e+003, 7.618265e+003
1.159087e+003, 7.685917e+003
1.159569e+003, 7.694336e+003
1.160052e+003, 7.702470e+003
1.160534e+003, 7.710756e+003
1.161016e+003, 7.742004e+003
1.161498e+003, 7.831433e+003
1.161980e+003, 7.944954e+003
1.162462e+003, 8.002073e+003
1.162944e+003, 7.993902e+003
1.163426e+003, 8.031607e+003
1.163908e+003, 8.146315e+003
1.164391e+003, 8.209484e+003
1.164873e+003, 8.181731e+003
1.165355e+003, 8.168310e+003
1.165837e+003, 8.223343e+003
1.166319e+003, 8.303149e+003
1.166801e+003, 8.356879e+003
1.167283e+003, 8.391452e+003
1.167765e+003, 8.437097e+003
1.168247e+003, 8.494344e+003
1.168730e+003, 8.545812e+003
1.169212e+003, 8.590490e+003
1.169694e+003, 8.631771e+003
1.170176e+003, 8.670112e+003
1.170658e+003, 8.719600e+003
1.171140e+003, 8.791645e+003
1.171622e+003, 8.868369e+003
1.172104e+003, 8.920106e+003
1.172587e+003, 8.953569e+003
1.173069e+003, 8.989067e+003
1.173551e+003, 9.026742e+003
1.174033e+003, 9.065687e+003
1.174515e+003, 9.107205e+003
1.174997e+003, 9.154572e+003
1.175479e+003, 9.210383e+003
1.175961e+003, 9.288668e+003
1.176443e+003, 9.415929e+003
1.176926e+003, 9.538231e+003
1.177408e+003, 9.569810e+003
1.177890e+003, 9.567475e+003
1.178372e+003, 9.612346e+003
1.178854e+003, 9.689722e+003
1.179336e+003, 9.760267e+003
1.179818e+003, 9.820330e+003
1.180300e+003, 9.891951e+003
1.180782e+003, 9.988010e+003
1.181265e+003, 1.006548e+004
1.181747e+003, 1.007299e+004
1.182229e+003, 1.008336e+004
1.182711e+003, 1.015123e+004
1.183193e+003, 1.023815e+004
1.183675e+003, 1.030769e+004
1.184157e+003, 1.036692e+004
1.184639e+003, 1.044278e+004
1.185122e+003, 1.053640e+004
1.185604e+003, 1.059942e+004
1.186086e+003, 1.056453e+004
1.186568e+003, 1.058994e+004
1.187050e+003, 1.077767e+004
1.187532e+003, 1.093642e+004
1.188014e+003, 1.094021e+004
1.188496e+003, 1.091913e+004
1.188979e+003, 1.100571e+004
1.189461e+003, 1.115921e+004
1.189943e+003, 1.125856e+004
1.190425e+003, 1.129249e+004
1.190907e+003, 1.133577e+004
1.191389e+003, 1.138116e+004
1.191871e+003, 1.146371e+004
1.192353e+003, 1.161453e+004
1.192835e+003, 1.171973e+004
1.193318e+003, 1.170526e+004
1.193800e+003, 1.167023e+004
1.194282e+003, 1.174233e+004
1.194764e+003, 1.188663e+004
1.195246e+003, 1.195492e+004
1.195728e+003, 1.195156e+004
1.196210e+003, 1.199871e+004
1.196692e+003, 1.209952e+004
1.197174e+003, 1.220439e+004
1.197657e+003, 1.230059e+004
1.198139e+003, 1.240655e+004
1.198621e+003, 1.253498e+004
1.199103e+003, 1.265794e+004
1.199585e+003, 1.272574e+004
1.200067e+003, 1.277077e+004
1.200549e+003, 1.288272e+004
1.201031e+003, 1.301356e+004
1.201514e+003, 1.302386e+004
1.201996e+003, 1.295699e+004
1.202478e+003, 1.299181e+004
1.202960e+003, 1.316210e+004
1.203442e+003, 1.332036e+004
1.203924e+003, 1.337575e+004
1.204406e+003, 1.341010e+004
1.204888e+003, 1.348285e+004
1.205370e+003, 1.356246e+004
1.205853e+003, 1.360638e+004
1.206335e+003, 1.365383e+004
1.206817e+003, 1.377030e+004
1.207299e+003, 1.392905e+004
1.207781e+003, 1.404624e+004
1.208263e+003, 1.410235e+004
1.208745e+003, 1.416830e+004
1.209227e+003, 1.427266e+004
1.209709e+003, 1.437016e+004
1.210192e+003, 1.443683e+004
1.210674e+003, 1.451274e+004
1.211156e+003, 1.462719e+004
1.211638e+003, 1.475244e+004
1.212120e+003, 1.486147e+004
1.212602e+003, 1.495814e+004
1.213084e+003, 1.505715e+004
1.213566e+003, 1.516249e+004
1.214049e+003, 1.524768e+004
1.214531e+003, 1.530685e+004
1.215013e+003, 1.536806e+004
1.215495e+003, 1.543559e+004
1.215977e+003, 1.551161e+004
1.216459e+003, 1.559854e+004
1.216941e+003, 1.568449e+004
1.217423e+003, 1.574955e+004
1.217906e+003, 1.581091e+004
1.218388e+003, 1.593886e+004
1.218870e+003, 1.611197e+004
1.219352e+003, 1.619929e+004
1.219834e+003, 1.622088e+004
1.220316e+003, 1.633370e+004
1.220798e+003, 1.655466e+004
1.221280e+003, 1.673368e+004
1.221762e+003, 1.678858e+004
1.222245e+003, 1.682441e+004
1.222727e+003, 1.695463e+004
1.223209e+003, 1.711399e+004
1.223691e+003, 1.723748e+004
1.224173e+003, 1.733744e+004
1.224655e+003, 1.740894e+004
1.225137e+003, 1.747777e+004
1.225619e+003, 1.760716e+004
1.226101e+003, 1.778927e+004
1.226584e+003, 1.791780e+004
1.227066e+003, 1.792976e+004
1.227548e+003, 1.796168e+004
1.228030e+003, 1.806491e+004
1.228512e+003, 1.819094e+004
1.228994e+003, 1.833577e+004
1.229476e+003, 1.847993e+004
1.229958e+003, 1.859335e+004
1.230441e+003, 1.870471e+004
1.230923e+003, 1.887750e+004
1.231405e+003, 1.910881e+004
1.231887e+003, 1.927301e+004
1.232369e+003, 1.933634e+004
1.232851e+003, 1.943782e+004
1.233333e+003, 1.959549e+004
1.233815e+003, 1.975007e+004
1.234297e+003, 1.988536e+004
1.234780e+003, 2.000255e+004
1.235262e+003, 2.009746e+004
1.235744e+003, 2.019837e+004
1.236226e+003, 2.036200e+004
1.236708e+003, 2.056898e+004
1.237190e+003, 2.073867e+004
1.237672e+003, 2.087911e+004
1.238154e+003, 2.102638e+004
1.238636e+003, 2.118523e+004
1.239119e+003, 2.136935e+004
1.239601e+003, 2.157476e+004
1.240083e+003, 2.174727e+004
1.240565e+003, 2.184705e+004
1.241047e+003, 2.193243e+004
1.241529e+003, 2.204636e+004
1.242011e+003, 2.218705e+004
1.242493e+003, 2.235636e+004
1.242975e+003, 2.255046e+004
1.243458e+003, 2.277906e+004
1.243940e+003, 2.302428e+004
1.244422e+003, 2.326163e+004
1.244904e+003, 2.348416e+004
1.245386e+003, 2.365049e+004
1.245868e+003, 2.369376e+004
1.246350e+003, 2.378355e+004
1.246832e+003, 2.398456e+004
1.247315e+003, 2.418813e+004
1.247797e+003, 2.435716e+004
1.248279e+003, 2.451621e+004
1.248761e+003, 2.467471e+004
1.249243e+003, 2.484109e+004
1.249725e+003, 2.503094e+004
1.250207e+003, 2.524369e+004
1.250689e+003, 2.549096e+004
1.251172e+003, 2.578154e+004
1.251654e+003, 2.599273e+004
1.252136e+003, 2.611221e+004
1.252618e+003, 2.625623e+004
1.253100e+003, 2.645968e+004
1.253582e+003, 2.667948e+004
1.254064e+003, 2.688455e+004
1.254546e+003, 2.709398e+004
1.255028e+003, 2.735515e+004
1.255510e+003, 2.761941e+004
1.255993e+003, 2.775446e+004
1.256475e+003, 2.784519e+004
1.256957e+003, 2.806262e+004
1.257439e+003, 2.836993e+004
1.257921e+003, 2.864735e+004
1.258403e+003, 2.886870e+004
1.258885e+003, 2.907207e+004
1.259367e+003, 2.926789e+004
1.259850e+003, 2.946670e+004
1.260332e+003, 2.966701e+004
1.260814e+003, 2.987971e+004
1.261296e+003, 3.012586e+004
1.261778e+003, 3.037155e+004
1.262260e+003, 3.056428e+004
1.262742e+003, 3.075618e+004
1.263224e+003, 3.104716e+004
1.263707e+003, 3.142147e+004
1.264189e+003, 3.172443e+004
1.264671e+003, 3.192759e+004
1.265153e+003, 3.215996e+004
1.265635e+003, 3.242887e+004
1.266117e+003, 3.268826e+004
1.266599e+003, 3.292352e+004
1.267081e+003, 3.319251e+004
1.267563e+003, 3.353527e+004
1.268046e+003, 3.385110e+004
1.268528e+003, 3.400055e+004
1.269010e+003, 3.407977e+004
1.269492e+003, 3.431647e+004
1.269974e+003, 3.466014e+004
1.270456e+003, 3.501188e+004
1.270938e+003, 3.535201e+004
1.271420e+003, 3.563613e+004
1.271902e+003, 3.587640e+004
1.272385e+003, 3.615099e+004
1.272867e+003, 3.648960e+004
1.273349e+003, 3.680904e+004
1.273831e+003, 3.703777e+004
1.274313e+003, 3.726726e+004
1.274795e+003, 3.752479e+004
1.275277e+003, 3.782305e+004
1.275759e+003, 3.821784e+004
1.276242e+003, 3.862319e+004
1.276724e+003, 3.893302e+004
1.277206e+003, 3.917420e+004
1.277688e+003, 3.943532e+004
1.278170e+003, 3.971611e+004
1.278652e+003, 4.001688e+004
1.279134e+003, 4.031939e+004
1.279616e+003, 4.072633e+004
1.280099e+003, 4.127940e+004
1.280581e+003, 4.176452e+004
1.281063e+003, 4.210241e+004
1.281545e+003, 4.236016e+004
1.282027e+003, 4.258259e+004
1.282509e+003, 4.282123e+004
1.282991e+003, 4.317044e+004
1.283473e+003, 4.359574e+004
1.283955e+003, 4.403189e+004
##END=



