##NAMES=Eulytine
##RRUFFID=R130114
##IDEAL CHEMISTRY=Bi_4_(SiO_4_)_3_
##LOCALITY=Flying Saucer Group, Maricopa County, Arizona
##OWNER=RRUFF
##SOURCE=Mark Ascher
##DESCRIPTION=White or colorless octahedra, associated with R130113 kettnerite, green mottramite
##STATUS=The identification of this mineral has been confirmed by single-crystal X-ray diffraction.
##URL=rruff.info/R130114
8.936163e+001, 0.000000e+000
8.984375e+001, 2.256536e+002
9.032587e+001, 2.276975e+002
9.080798e+001, 2.280939e+002
9.129010e+001, 2.262036e+002
9.177222e+001, 2.234073e+002
9.225433e+001, 2.214214e+002
9.273645e+001, 2.201664e+002
9.321857e+001, 2.188726e+002
9.370068e+001, 2.168672e+002
9.418280e+001, 2.142990e+002
9.466492e+001, 2.116392e+002
9.514703e+001, 2.087189e+002
9.562915e+001, 2.058766e+002
9.611127e+001, 2.043048e+002
9.659338e+001, 2.042371e+002
9.707550e+001, 2.043153e+002
9.755762e+001, 2.025465e+002
9.803973e+001, 1.988799e+002
9.852185e+001, 1.956390e+002
9.900397e+001, 1.940496e+002
9.948608e+001, 1.941552e+002
9.996820e+001, 1.936608e+002
1.004503e+002, 1.925262e+002
1.009324e+002, 1.908152e+002
1.014146e+002, 1.884901e+002
1.018967e+002, 1.852610e+002
1.023788e+002, 1.821874e+002
1.028609e+002, 1.798322e+002
1.033430e+002, 1.784174e+002
1.038251e+002, 1.770784e+002
1.043073e+002, 1.757722e+002
1.047894e+002, 1.745060e+002
1.052715e+002, 1.733507e+002
1.057536e+002, 1.724731e+002
1.062357e+002, 1.715126e+002
1.067178e+002, 1.701744e+002
1.072000e+002, 1.680820e+002
1.076821e+002, 1.661714e+002
1.081642e+002, 1.645288e+002
1.086463e+002, 1.631488e+002
1.091284e+002, 1.621245e+002
1.096105e+002, 1.625788e+002
1.100927e+002, 1.628972e+002
1.105748e+002, 1.615765e+002
1.110569e+002, 1.558765e+002
1.115390e+002, 1.510920e+002
1.120211e+002, 1.488118e+002
1.125032e+002, 1.499409e+002
1.129854e+002, 1.504266e+002
1.134675e+002, 1.496187e+002
1.139496e+002, 1.478760e+002
1.144317e+002, 1.456983e+002
1.149138e+002, 1.420986e+002
1.153959e+002, 1.389174e+002
1.158781e+002, 1.371572e+002
1.163602e+002, 1.376647e+002
1.168423e+002, 1.380866e+002
1.173244e+002, 1.377015e+002
1.178065e+002, 1.366207e+002
1.182886e+002, 1.351281e+002
1.187708e+002, 1.326956e+002
1.192529e+002, 1.302219e+002
1.197350e+002, 1.284391e+002
1.202171e+002, 1.276875e+002
1.206992e+002, 1.274817e+002
1.211813e+002, 1.278523e+002
1.216635e+002, 1.286695e+002
1.221456e+002, 1.292056e+002
1.226277e+002, 1.292385e+002
1.231098e+002, 1.286667e+002
1.235919e+002, 1.273358e+002
1.240740e+002, 1.243679e+002
1.245562e+002, 1.211049e+002
1.250383e+002, 1.190534e+002
1.255204e+002, 1.181958e+002
1.260025e+002, 1.177594e+002
1.264846e+002, 1.172512e+002
1.269667e+002, 1.166671e+002
1.274489e+002, 1.159970e+002
1.279310e+002, 1.151721e+002
1.284131e+002, 1.142685e+002
1.288952e+002, 1.135652e+002
1.293773e+002, 1.131540e+002
1.298594e+002, 1.125134e+002
1.303416e+002, 1.105393e+002
1.308237e+002, 1.074721e+002
1.313058e+002, 1.049316e+002
1.317879e+002, 1.041527e+002
1.322700e+002, 1.047644e+002
1.327521e+002, 1.049281e+002
1.332343e+002, 1.044190e+002
1.337164e+002, 1.035641e+002
1.341985e+002, 1.028286e+002
1.346806e+002, 1.021977e+002
1.351627e+002, 1.018829e+002
1.356448e+002, 1.024986e+002
1.361270e+002, 1.040824e+002
1.366091e+002, 1.041898e+002
1.370912e+002, 1.020293e+002
1.375733e+002, 9.843166e+001
1.380554e+002, 9.605491e+001
1.385375e+002, 9.507397e+001
1.390197e+002, 9.479893e+001
1.395018e+002, 9.486445e+001
1.399839e+002, 9.542613e+001
1.404660e+002, 9.564028e+001
1.409481e+002, 9.532073e+001
1.414302e+002, 9.449761e+001
1.419124e+002, 9.350237e+001
1.423945e+002, 9.215620e+001
1.428766e+002, 9.088847e+001
1.433587e+002, 9.023430e+001
1.438408e+002, 9.070129e+001
1.443229e+002, 9.073868e+001
1.448051e+002, 8.986189e+001
1.452872e+002, 8.787109e+001
1.457693e+002, 8.638661e+001
1.462514e+002, 8.547474e+001
1.467335e+002, 8.500380e+001
1.472156e+002, 8.482299e+001
1.476978e+002, 8.523882e+001
1.481799e+002, 8.557040e+001
1.486620e+002, 8.566886e+001
1.491441e+002, 8.553989e+001
1.496262e+002, 8.515054e+001
1.501083e+002, 8.417555e+001
1.505905e+002, 8.299797e+001
1.510726e+002, 8.228957e+001
1.515547e+002, 8.258724e+001
1.520368e+002, 8.289547e+001
1.525189e+002, 8.296476e+001
1.530010e+002, 8.298426e+001
1.534832e+002, 8.240967e+001
1.539653e+002, 8.048462e+001
1.544474e+002, 7.789898e+001
1.549295e+002, 7.630898e+001
1.554116e+002, 7.712968e+001
1.558937e+002, 7.811358e+001
1.563759e+002, 7.820194e+001
1.568580e+002, 7.630222e+001
1.573401e+002, 7.477756e+001
1.578222e+002, 7.420227e+001
1.583043e+002, 7.439236e+001
1.587864e+002, 7.466914e+001
1.592686e+002, 7.496879e+001
1.597507e+002, 7.522787e+001
1.602328e+002, 7.540954e+001
1.607149e+002, 7.580767e+001
1.611970e+002, 7.582250e+001
1.616791e+002, 7.490386e+001
1.621613e+002, 7.324320e+001
1.626434e+002, 7.202052e+001
1.631255e+002, 7.205232e+001
1.636076e+002, 7.260256e+001
1.640897e+002, 7.301559e+001
1.645718e+002, 7.325312e+001
1.650540e+002, 7.316182e+001
1.655361e+002, 7.241806e+001
1.660182e+002, 7.105636e+001
1.665003e+002, 6.996937e+001
1.669824e+002, 6.992384e+001
1.674645e+002, 7.034372e+001
1.679467e+002, 7.051782e+001
1.684288e+002, 6.990739e+001
1.689109e+002, 6.914030e+001
1.693930e+002, 6.861684e+001
1.698751e+002, 6.835139e+001
1.703572e+002, 6.829150e+001
1.708394e+002, 6.848544e+001
1.713215e+002, 6.885172e+001
1.718036e+002, 6.924831e+001
1.722857e+002, 6.979039e+001
1.727678e+002, 7.024509e+001
1.732499e+002, 7.020622e+001
1.737321e+002, 6.955701e+001
1.742142e+002, 6.912225e+001
1.746963e+002, 6.981004e+001
1.751784e+002, 7.126442e+001
1.756605e+002, 7.264785e+001
1.761426e+002, 7.315064e+001
1.766248e+002, 7.344728e+001
1.771069e+002, 7.444662e+001
1.775890e+002, 7.626914e+001
1.780711e+002, 7.865971e+001
1.785532e+002, 8.110256e+001
1.790353e+002, 8.381731e+001
1.795175e+002, 8.748893e+001
1.799996e+002, 9.285417e+001
1.804817e+002, 9.940057e+001
1.809638e+002, 1.062742e+002
1.814459e+002, 1.134128e+002
1.819280e+002, 1.208098e+002
1.824102e+002, 1.286387e+002
1.828923e+002, 1.367594e+002
1.833744e+002, 1.452295e+002
1.838565e+002, 1.544374e+002
1.843386e+002, 1.640235e+002
1.848207e+002, 1.725474e+002
1.853029e+002, 1.796847e+002
1.857850e+002, 1.860897e+002
1.862671e+002, 1.929266e+002
1.867492e+002, 2.001537e+002
1.872313e+002, 2.074908e+002
1.877134e+002, 2.143563e+002
1.881956e+002, 2.210680e+002
1.886777e+002, 2.288585e+002
1.891598e+002, 2.381794e+002
1.896419e+002, 2.485123e+002
1.901240e+002, 2.586438e+002
1.906061e+002, 2.686700e+002
1.910883e+002, 2.793297e+002
1.915704e+002, 2.912821e+002
1.920525e+002, 3.045821e+002
1.925346e+002, 3.185170e+002
1.930167e+002, 3.324081e+002
1.934988e+002, 3.470125e+002
1.939810e+002, 3.635915e+002
1.944631e+002, 3.817406e+002
1.949452e+002, 4.020667e+002
1.954273e+002, 4.233364e+002
1.959094e+002, 4.455313e+002
1.963915e+002, 4.705288e+002
1.968737e+002, 4.985716e+002
1.973558e+002, 5.294195e+002
1.978379e+002, 5.634886e+002
1.983200e+002, 6.008376e+002
1.988021e+002, 6.402670e+002
1.992842e+002, 6.816131e+002
1.997664e+002, 7.253984e+002
2.002485e+002, 7.661028e+002
2.007306e+002, 8.050555e+002
2.012127e+002, 8.405911e+002
2.016948e+002, 8.642503e+002
2.021769e+002, 8.767455e+002
2.026591e+002, 8.766821e+002
2.031412e+002, 8.615261e+002
2.036233e+002, 8.305198e+002
2.041054e+002, 7.916016e+002
2.045875e+002, 7.443827e+002
2.050696e+002, 6.900385e+002
2.055518e+002, 6.388292e+002
2.060339e+002, 5.903499e+002
2.065160e+002, 5.455130e+002
2.069981e+002, 5.050063e+002
2.074802e+002, 4.690625e+002
2.079623e+002, 4.375572e+002
2.084445e+002, 4.108561e+002
2.089266e+002, 3.887089e+002
2.094087e+002, 3.688442e+002
2.098908e+002, 3.512554e+002
2.103729e+002, 3.355667e+002
2.108550e+002, 3.213495e+002
2.113372e+002, 3.087002e+002
2.118193e+002, 2.975486e+002
2.123014e+002, 2.879492e+002
2.127835e+002, 2.799665e+002
2.132656e+002, 2.728750e+002
2.137477e+002, 2.666716e+002
2.142299e+002, 2.613062e+002
2.147120e+002, 2.569911e+002
2.151941e+002, 2.541417e+002
2.156762e+002, 2.510360e+002
2.161583e+002, 2.470539e+002
2.166404e+002, 2.421548e+002
2.171226e+002, 2.377913e+002
2.176047e+002, 2.340276e+002
2.180868e+002, 2.307072e+002
2.185689e+002, 2.275883e+002
2.190510e+002, 2.246104e+002
2.195331e+002, 2.219358e+002
2.200153e+002, 2.195328e+002
2.204974e+002, 2.173745e+002
2.209795e+002, 2.158076e+002
2.214616e+002, 2.152781e+002
2.219437e+002, 2.148670e+002
2.224258e+002, 2.132623e+002
2.229080e+002, 2.097685e+002
2.233901e+002, 2.066069e+002
2.238722e+002, 2.044808e+002
2.243543e+002, 2.034829e+002
2.248364e+002, 2.024468e+002
2.253185e+002, 2.013212e+002
2.258007e+002, 2.002104e+002
2.262828e+002, 1.992411e+002
2.267649e+002, 1.984768e+002
2.272470e+002, 1.977270e+002
2.277291e+002, 1.969681e+002
2.282112e+002, 1.961939e+002
2.286934e+002, 1.953381e+002
2.291755e+002, 1.943292e+002
2.296576e+002, 1.932973e+002
2.301397e+002, 1.924128e+002
2.306218e+002, 1.916266e+002
2.311039e+002, 1.910672e+002
2.315861e+002, 1.908291e+002
2.320682e+002, 1.909729e+002
2.325503e+002, 1.909897e+002
2.330324e+002, 1.907365e+002
2.335145e+002, 1.904850e+002
2.339966e+002, 1.905908e+002
2.344788e+002, 1.911983e+002
2.349609e+002, 1.919184e+002
2.354430e+002, 1.927044e+002
2.359251e+002, 1.935952e+002
2.364072e+002, 1.942734e+002
2.368893e+002, 1.946216e+002
2.373715e+002, 1.948523e+002
2.378536e+002, 1.952231e+002
2.383357e+002, 1.957725e+002
2.388178e+002, 1.963899e+002
2.392999e+002, 1.970141e+002
2.397820e+002, 1.976021e+002
2.402642e+002, 1.984729e+002
2.407463e+002, 1.997753e+002
2.412284e+002, 2.012271e+002
2.417105e+002, 2.024519e+002
2.421926e+002, 2.032040e+002
2.426747e+002, 2.041725e+002
2.431569e+002, 2.056298e+002
2.436390e+002, 2.076918e+002
2.441211e+002, 2.092794e+002
2.446032e+002, 2.101576e+002
2.450853e+002, 2.107843e+002
2.455674e+002, 2.116755e+002
2.460496e+002, 2.128749e+002
2.465317e+002, 2.142826e+002
2.470138e+002, 2.160312e+002
2.474959e+002, 2.182108e+002
2.479780e+002, 2.197503e+002
2.484601e+002, 2.203630e+002
2.489423e+002, 2.206460e+002
2.494244e+002, 2.213187e+002
2.499065e+002, 2.228040e+002
2.503886e+002, 2.238565e+002
2.508707e+002, 2.241688e+002
2.513528e+002, 2.237195e+002
2.518350e+002, 2.230086e+002
2.523171e+002, 2.218248e+002
2.527992e+002, 2.206169e+002
2.532813e+002, 2.198402e+002
2.537634e+002, 2.195779e+002
2.542455e+002, 2.195654e+002
2.547277e+002, 2.197208e+002
2.552098e+002, 2.200401e+002
2.556919e+002, 2.207956e+002
2.561740e+002, 2.221879e+002
2.566561e+002, 2.237544e+002
2.571382e+002, 2.250114e+002
2.576204e+002, 2.258007e+002
2.581025e+002, 2.266785e+002
2.585846e+002, 2.277313e+002
2.590667e+002, 2.289588e+002
2.595488e+002, 2.302857e+002
2.600309e+002, 2.316405e+002
2.605131e+002, 2.331619e+002
2.609952e+002, 2.350195e+002
2.614773e+002, 2.374387e+002
2.619594e+002, 2.395710e+002
2.624415e+002, 2.410448e+002
2.629236e+002, 2.420056e+002
2.634058e+002, 2.438778e+002
2.638879e+002, 2.470610e+002
2.643700e+002, 2.505166e+002
2.648521e+002, 2.533533e+002
2.653342e+002, 2.551296e+002
2.658163e+002, 2.577186e+002
2.662985e+002, 2.615079e+002
2.667806e+002, 2.663096e+002
2.672627e+002, 2.712259e+002
2.677448e+002, 2.762221e+002
2.682269e+002, 2.813387e+002
2.687090e+002, 2.865425e+002
2.691912e+002, 2.918236e+002
2.696733e+002, 2.974452e+002
2.701554e+002, 3.034525e+002
2.706375e+002, 3.098360e+002
2.711196e+002, 3.164099e+002
2.716017e+002, 3.232523e+002
2.720839e+002, 3.300382e+002
2.725660e+002, 3.366466e+002
2.730481e+002, 3.432895e+002
2.735302e+002, 3.486635e+002
2.740123e+002, 3.528482e+002
2.744944e+002, 3.556153e+002
2.749766e+002, 3.563241e+002
2.754587e+002, 3.549038e+002
2.759408e+002, 3.517574e+002
2.764229e+002, 3.469396e+002
2.769050e+002, 3.403529e+002
2.773871e+002, 3.331377e+002
2.778693e+002, 3.252935e+002
2.783514e+002, 3.169617e+002
2.788335e+002, 3.082718e+002
2.793156e+002, 2.990128e+002
2.797977e+002, 2.901676e+002
2.802798e+002, 2.821781e+002
2.807620e+002, 2.751089e+002
2.812441e+002, 2.687432e+002
2.817262e+002, 2.631115e+002
2.822083e+002, 2.580985e+002
2.826904e+002, 2.535802e+002
2.831725e+002, 2.495701e+002
2.836547e+002, 2.458251e+002
2.841368e+002, 2.423338e+002
2.846189e+002, 2.390905e+002
2.851010e+002, 2.356768e+002
2.855831e+002, 2.320895e+002
2.860652e+002, 2.283163e+002
2.865474e+002, 2.241545e+002
2.870295e+002, 2.196186e+002
2.875116e+002, 2.154064e+002
2.879937e+002, 2.118390e+002
2.884758e+002, 2.088389e+002
2.889579e+002, 2.061157e+002
2.894401e+002, 2.036099e+002
2.899222e+002, 2.015165e+002
2.904043e+002, 2.001801e+002
2.908864e+002, 1.995406e+002
2.913685e+002, 1.991113e+002
2.918506e+002, 1.986957e+002
2.923328e+002, 1.983574e+002
2.928149e+002, 1.982898e+002
2.932970e+002, 1.984922e+002
2.937791e+002, 1.989412e+002
2.942612e+002, 1.996870e+002
2.947433e+002, 2.006790e+002
2.952255e+002, 2.017068e+002
2.957076e+002, 2.026440e+002
2.961897e+002, 2.035999e+002
2.966718e+002, 2.047851e+002
2.971539e+002, 2.061902e+002
2.976360e+002, 2.077003e+002
2.981182e+002, 2.092046e+002
2.986003e+002, 2.107274e+002
2.990824e+002, 2.123907e+002
2.995645e+002, 2.143344e+002
3.000466e+002, 2.163209e+002
3.005287e+002, 2.178402e+002
3.010109e+002, 2.189785e+002
3.014930e+002, 2.204169e+002
3.019751e+002, 2.228003e+002
3.024572e+002, 2.257807e+002
3.029393e+002, 2.286857e+002
3.034214e+002, 2.312974e+002
3.039036e+002, 2.339988e+002
3.043857e+002, 2.370664e+002
3.048678e+002, 2.405263e+002
3.053499e+002, 2.445594e+002
3.058320e+002, 2.493970e+002
3.063141e+002, 2.548006e+002
3.067963e+002, 2.603252e+002
3.072784e+002, 2.658297e+002
3.077605e+002, 2.718385e+002
3.082426e+002, 2.789137e+002
3.087247e+002, 2.868516e+002
3.092068e+002, 2.951648e+002
3.096890e+002, 3.043505e+002
3.101711e+002, 3.133811e+002
3.106532e+002, 3.214027e+002
3.111353e+002, 3.283479e+002
3.116174e+002, 3.339926e+002
3.120995e+002, 3.382751e+002
3.125817e+002, 3.410568e+002
3.130638e+002, 3.421993e+002
3.135459e+002, 3.407567e+002
3.140280e+002, 3.383298e+002
3.145101e+002, 3.357328e+002
3.149922e+002, 3.330249e+002
3.154744e+002, 3.303532e+002
3.159565e+002, 3.276301e+002
3.164386e+002, 3.250580e+002
3.169207e+002, 3.228991e+002
3.174028e+002, 3.211341e+002
3.178849e+002, 3.198725e+002
3.183671e+002, 3.190494e+002
3.188492e+002, 3.186801e+002
3.193313e+002, 3.191583e+002
3.198134e+002, 3.206059e+002
3.202955e+002, 3.229655e+002
3.207776e+002, 3.261657e+002
3.212598e+002, 3.306708e+002
3.217419e+002, 3.355168e+002
3.222240e+002, 3.402847e+002
3.227061e+002, 3.451169e+002
3.231882e+002, 3.507778e+002
3.236703e+002, 3.577126e+002
3.241525e+002, 3.653321e+002
3.246346e+002, 3.732264e+002
3.251167e+002, 3.810422e+002
3.255988e+002, 3.896302e+002
3.260809e+002, 3.995027e+002
3.265630e+002, 4.102441e+002
3.270452e+002, 4.207554e+002
3.275273e+002, 4.310072e+002
3.280094e+002, 4.408710e+002
3.284915e+002, 4.503498e+002
3.289736e+002, 4.593820e+002
3.294557e+002, 4.679773e+002
3.299379e+002, 4.768014e+002
3.304200e+002, 4.850046e+002
3.309021e+002, 4.911455e+002
3.313842e+002, 4.951239e+002
3.318663e+002, 4.972509e+002
3.323484e+002, 4.977074e+002
3.328306e+002, 4.966249e+002
3.333127e+002, 4.929998e+002
3.337948e+002, 4.865273e+002
3.342769e+002, 4.777398e+002
3.347590e+002, 4.671976e+002
3.352411e+002, 4.544206e+002
3.357233e+002, 4.407396e+002
3.362054e+002, 4.262525e+002
3.366875e+002, 4.109297e+002
3.371696e+002, 3.962464e+002
3.376517e+002, 3.822761e+002
3.381339e+002, 3.688653e+002
3.386160e+002, 3.561126e+002
3.390981e+002, 3.439792e+002
3.395802e+002, 3.322775e+002
3.400623e+002, 3.209817e+002
3.405444e+002, 3.101079e+002
3.410266e+002, 3.003252e+002
3.415087e+002, 2.915079e+002
3.419908e+002, 2.836906e+002
3.424729e+002, 2.769493e+002
3.429550e+002, 2.713320e+002
3.434371e+002, 2.660215e+002
3.439193e+002, 2.610007e+002
3.444014e+002, 2.562619e+002
3.448835e+002, 2.517847e+002
3.453656e+002, 2.475724e+002
3.458477e+002, 2.439935e+002
3.463298e+002, 2.414581e+002
3.468120e+002, 2.397501e+002
3.472941e+002, 2.380060e+002
3.477762e+002, 2.361565e+002
3.482583e+002, 2.344688e+002
3.487404e+002, 2.333057e+002
3.492225e+002, 2.325925e+002
3.497047e+002, 2.320049e+002
3.501868e+002, 2.313910e+002
3.506689e+002, 2.308392e+002
3.511510e+002, 2.305256e+002
3.516331e+002, 2.304481e+002
3.521152e+002, 2.304633e+002
3.525974e+002, 2.304382e+002
3.530795e+002, 2.304208e+002
3.535616e+002, 2.304809e+002
3.540437e+002, 2.305331e+002
3.545258e+002, 2.308006e+002
3.550079e+002, 2.317373e+002
3.554901e+002, 2.331821e+002
3.559722e+002, 2.344285e+002
3.564543e+002, 2.349836e+002
3.569364e+002, 2.351480e+002
3.574185e+002, 2.351094e+002
3.579006e+002, 2.346677e+002
3.583828e+002, 2.346751e+002
3.588649e+002, 2.360409e+002
3.593470e+002, 2.382360e+002
3.598291e+002, 2.401968e+002
3.603112e+002, 2.410856e+002
3.607933e+002, 2.418792e+002
3.612755e+002, 2.431457e+002
3.617576e+002, 2.449632e+002
3.622397e+002, 2.470552e+002
3.627218e+002, 2.493939e+002
3.632039e+002, 2.519214e+002
3.636860e+002, 2.545735e+002
3.641682e+002, 2.571306e+002
3.646503e+002, 2.600305e+002
3.651324e+002, 2.634587e+002
3.656145e+002, 2.674208e+002
3.660966e+002, 2.713909e+002
3.665787e+002, 2.749229e+002
3.670609e+002, 2.786620e+002
3.675430e+002, 2.830220e+002
3.680251e+002, 2.882676e+002
3.685072e+002, 2.939108e+002
3.689893e+002, 2.997316e+002
3.694714e+002, 3.058631e+002
3.699536e+002, 3.126026e+002
3.704357e+002, 3.196861e+002
3.709178e+002, 3.276984e+002
3.713999e+002, 3.368735e+002
3.718820e+002, 3.476764e+002
3.723641e+002, 3.585591e+002
3.728463e+002, 3.690128e+002
3.733284e+002, 3.797564e+002
3.738105e+002, 3.920349e+002
3.742926e+002, 4.061161e+002
3.747747e+002, 4.212108e+002
3.752568e+002, 4.372163e+002
3.757390e+002, 4.542033e+002
3.762211e+002, 4.720427e+002
3.767032e+002, 4.910450e+002
3.771853e+002, 5.106333e+002
3.776674e+002, 5.308729e+002
3.781495e+002, 5.519223e+002
3.786317e+002, 5.727922e+002
3.791138e+002, 5.933157e+002
3.795959e+002, 6.136635e+002
3.800780e+002, 6.351122e+002
3.805601e+002, 6.576152e+002
3.810422e+002, 6.807039e+002
3.815244e+002, 7.035765e+002
3.820065e+002, 7.267135e+002
3.824886e+002, 7.513577e+002
3.829707e+002, 7.777631e+002
3.834528e+002, 8.060235e+002
3.839349e+002, 8.367520e+002
3.844171e+002, 8.699843e+002
3.848992e+002, 9.052932e+002
3.853813e+002, 9.433845e+002
3.858634e+002, 9.835966e+002
3.863455e+002, 1.025576e+003
3.868276e+002, 1.069122e+003
3.873098e+002, 1.114563e+003
3.877919e+002, 1.163709e+003
3.882740e+002, 1.215331e+003
3.887561e+002, 1.266952e+003
3.892382e+002, 1.319780e+003
3.897203e+002, 1.370880e+003
3.902025e+002, 1.418380e+003
3.906846e+002, 1.461725e+003
3.911667e+002, 1.499517e+003
3.916488e+002, 1.533883e+003
3.921309e+002, 1.560226e+003
3.926130e+002, 1.574996e+003
3.930952e+002, 1.577705e+003
3.935773e+002, 1.567975e+003
3.940594e+002, 1.544916e+003
3.945415e+002, 1.509309e+003
3.950236e+002, 1.462588e+003
3.955057e+002, 1.400182e+003
3.959879e+002, 1.331194e+003
3.964700e+002, 1.257735e+003
3.969521e+002, 1.179140e+003
3.974342e+002, 1.101839e+003
3.979163e+002, 1.024578e+003
3.983984e+002, 9.501161e+002
3.988806e+002, 8.809713e+002
3.993627e+002, 8.178732e+002
3.998448e+002, 7.595185e+002
4.003269e+002, 7.059337e+002
4.008090e+002, 6.568597e+002
4.012911e+002, 6.122744e+002
4.017733e+002, 5.723836e+002
4.022554e+002, 5.362733e+002
4.027375e+002, 5.035729e+002
4.032196e+002, 4.745836e+002
4.037017e+002, 4.481878e+002
4.041838e+002, 4.247562e+002
4.046660e+002, 4.037975e+002
4.051481e+002, 3.850909e+002
4.056302e+002, 3.687630e+002
4.061123e+002, 3.538188e+002
4.065944e+002, 3.399543e+002
4.070765e+002, 3.271199e+002
4.075587e+002, 3.155027e+002
4.080408e+002, 3.050870e+002
4.085229e+002, 2.956747e+002
4.090050e+002, 2.870996e+002
4.094871e+002, 2.793880e+002
4.099692e+002, 2.723936e+002
4.104514e+002, 2.660088e+002
4.109335e+002, 2.603203e+002
4.114156e+002, 2.556700e+002
4.118977e+002, 2.520403e+002
4.123798e+002, 2.487505e+002
4.128619e+002, 2.454770e+002
4.133441e+002, 2.422537e+002
4.138262e+002, 2.390368e+002
4.143083e+002, 2.357588e+002
4.147904e+002, 2.327719e+002
4.152725e+002, 2.303897e+002
4.157546e+002, 2.285322e+002
4.162368e+002, 2.269730e+002
4.167189e+002, 2.255435e+002
4.172010e+002, 2.244482e+002
4.176831e+002, 2.238366e+002
4.181652e+002, 2.237126e+002
4.186473e+002, 2.239924e+002
4.191295e+002, 2.247617e+002
4.196116e+002, 2.258500e+002
4.200937e+002, 2.270838e+002
4.205758e+002, 2.283107e+002
4.210579e+002, 2.298559e+002
4.215400e+002, 2.320671e+002
4.220222e+002, 2.346904e+002
4.225043e+002, 2.371628e+002
4.229864e+002, 2.390960e+002
4.234685e+002, 2.410549e+002
4.239506e+002, 2.432610e+002
4.244327e+002, 2.457331e+002
4.249149e+002, 2.484087e+002
4.253970e+002, 2.512767e+002
4.258791e+002, 2.543381e+002
4.263612e+002, 2.576708e+002
4.268433e+002, 2.616288e+002
4.273254e+002, 2.652237e+002
4.278076e+002, 2.680378e+002
4.282897e+002, 2.702867e+002
4.287718e+002, 2.733774e+002
4.292539e+002, 2.774433e+002
4.297360e+002, 2.819789e+002
4.302181e+002, 2.866886e+002
4.307003e+002, 2.915852e+002
4.311824e+002, 2.965175e+002
4.316645e+002, 3.013967e+002
4.321466e+002, 3.064312e+002
4.326287e+002, 3.122507e+002
4.331108e+002, 3.188403e+002
4.335930e+002, 3.246027e+002
4.340751e+002, 3.287666e+002
4.345572e+002, 3.316583e+002
4.350393e+002, 3.345314e+002
4.355214e+002, 3.374069e+002
4.360035e+002, 3.393828e+002
4.364857e+002, 3.397169e+002
4.369678e+002, 3.385089e+002
4.374499e+002, 3.360194e+002
4.379320e+002, 3.323447e+002
4.384141e+002, 3.273239e+002
4.388962e+002, 3.204319e+002
4.393784e+002, 3.119819e+002
4.398605e+002, 3.028983e+002
4.403426e+002, 2.934154e+002
4.408247e+002, 2.836845e+002
4.413068e+002, 2.734261e+002
4.417889e+002, 2.626234e+002
4.422711e+002, 2.524316e+002
4.427532e+002, 2.436021e+002
4.432353e+002, 2.356342e+002
4.437174e+002, 2.280083e+002
4.441995e+002, 2.204220e+002
4.446816e+002, 2.133243e+002
4.451638e+002, 2.066833e+002
4.456459e+002, 2.005917e+002
4.461280e+002, 1.951751e+002
4.466101e+002, 1.908997e+002
4.470922e+002, 1.869417e+002
4.475743e+002, 1.828638e+002
4.480565e+002, 1.783396e+002
4.485386e+002, 1.746050e+002
4.490207e+002, 1.720329e+002
4.495028e+002, 1.700378e+002
4.499849e+002, 1.679135e+002
4.504670e+002, 1.655269e+002
4.509492e+002, 1.632707e+002
4.514313e+002, 1.612317e+002
4.519134e+002, 1.594026e+002
4.523955e+002, 1.578142e+002
4.528776e+002, 1.565369e+002
4.533597e+002, 1.553646e+002
4.538419e+002, 1.541406e+002
4.543240e+002, 1.528798e+002
4.548061e+002, 1.517371e+002
4.552882e+002, 1.507158e+002
4.557703e+002, 1.498681e+002
4.562524e+002, 1.493573e+002
4.567346e+002, 1.491387e+002
4.572167e+002, 1.489674e+002
4.576988e+002, 1.488598e+002
4.581809e+002, 1.486744e+002
4.586630e+002, 1.479819e+002
4.591451e+002, 1.468288e+002
4.596273e+002, 1.458886e+002
4.601094e+002, 1.458754e+002
4.605915e+002, 1.463183e+002
4.610736e+002, 1.466092e+002
4.615557e+002, 1.465773e+002
4.620378e+002, 1.464609e+002
4.625200e+002, 1.463260e+002
4.630021e+002, 1.462243e+002
4.634842e+002, 1.462593e+002
4.639663e+002, 1.465412e+002
4.644484e+002, 1.469117e+002
4.649305e+002, 1.472691e+002
4.654127e+002, 1.476003e+002
4.658948e+002, 1.480813e+002
4.663769e+002, 1.489488e+002
4.668590e+002, 1.498570e+002
4.673411e+002, 1.505527e+002
4.678232e+002, 1.508513e+002
4.683054e+002, 1.511675e+002
4.687875e+002, 1.514220e+002
4.692696e+002, 1.517134e+002
4.697517e+002, 1.523321e+002
4.702338e+002, 1.534789e+002
4.707159e+002, 1.545682e+002
4.711981e+002, 1.553595e+002
4.716802e+002, 1.558362e+002
4.721623e+002, 1.564847e+002
4.726444e+002, 1.573871e+002
4.731265e+002, 1.582164e+002
4.736086e+002, 1.585904e+002
4.740908e+002, 1.585152e+002
4.745729e+002, 1.583781e+002
4.750550e+002, 1.582033e+002
4.755371e+002, 1.580692e+002
4.760192e+002, 1.581628e+002
4.765013e+002, 1.584592e+002
4.769835e+002, 1.587666e+002
4.774656e+002, 1.589122e+002
4.779477e+002, 1.590243e+002
4.784298e+002, 1.593732e+002
4.789119e+002, 1.599767e+002
4.793940e+002, 1.605260e+002
4.798762e+002, 1.605293e+002
4.803583e+002, 1.604113e+002
4.808404e+002, 1.607592e+002
4.813225e+002, 1.620882e+002
4.818046e+002, 1.634520e+002
4.822867e+002, 1.641689e+002
4.827689e+002, 1.645332e+002
4.832510e+002, 1.653002e+002
4.837331e+002, 1.670462e+002
4.842152e+002, 1.689776e+002
4.846973e+002, 1.706590e+002
4.851794e+002, 1.719303e+002
4.856616e+002, 1.736797e+002
4.861437e+002, 1.761175e+002
4.866258e+002, 1.789838e+002
4.871079e+002, 1.821548e+002
4.875900e+002, 1.860063e+002
4.880721e+002, 1.895084e+002
4.885543e+002, 1.924530e+002
4.890364e+002, 1.950215e+002
4.895185e+002, 1.977709e+002
4.900006e+002, 2.008230e+002
4.904827e+002, 2.035848e+002
4.909648e+002, 2.057525e+002
4.914470e+002, 2.073503e+002
4.919291e+002, 2.086284e+002
4.924112e+002, 2.095442e+002
4.928933e+002, 2.103110e+002
4.933754e+002, 2.111291e+002
4.938575e+002, 2.119856e+002
4.943397e+002, 2.127366e+002
4.948218e+002, 2.131914e+002
4.953039e+002, 2.138284e+002
4.957860e+002, 2.152379e+002
4.962681e+002, 2.173686e+002
4.967502e+002, 2.200307e+002
4.972324e+002, 2.231334e+002
4.977145e+002, 2.267463e+002
4.981966e+002, 2.309787e+002
4.986787e+002, 2.358701e+002
4.991608e+002, 2.411239e+002
4.996429e+002, 2.471016e+002
5.001251e+002, 2.531240e+002
5.006072e+002, 2.587553e+002
5.010893e+002, 2.638567e+002
5.015714e+002, 2.684996e+002
5.020535e+002, 2.734567e+002
5.025356e+002, 2.779603e+002
5.030178e+002, 2.803106e+002
5.034999e+002, 2.803103e+002
5.039820e+002, 2.782282e+002
5.044641e+002, 2.739926e+002
5.049462e+002, 2.675926e+002
5.054283e+002, 2.597940e+002
5.059105e+002, 2.500884e+002
5.063926e+002, 2.398606e+002
5.068747e+002, 2.299692e+002
5.073568e+002, 2.203780e+002
5.078389e+002, 2.115386e+002
5.083210e+002, 2.035990e+002
5.088032e+002, 1.965244e+002
5.092853e+002, 1.904507e+002
5.097674e+002, 1.853460e+002
5.102495e+002, 1.807283e+002
5.107316e+002, 1.762798e+002
5.112137e+002, 1.721899e+002
5.116959e+002, 1.689110e+002
5.121780e+002, 1.664332e+002
5.126601e+002, 1.642844e+002
5.131422e+002, 1.620975e+002
5.136243e+002, 1.600527e+002
5.141064e+002, 1.584173e+002
5.145886e+002, 1.573024e+002
5.150707e+002, 1.563625e+002
5.155528e+002, 1.552664e+002
5.160349e+002, 1.542453e+002
5.165170e+002, 1.536138e+002
5.169991e+002, 1.537292e+002
5.174813e+002, 1.539945e+002
5.179634e+002, 1.542107e+002
5.184455e+002, 1.543965e+002
5.189276e+002, 1.547321e+002
5.194097e+002, 1.554184e+002
5.198918e+002, 1.560999e+002
5.203740e+002, 1.566012e+002
5.208561e+002, 1.568127e+002
5.213382e+002, 1.572116e+002
5.218203e+002, 1.578393e+002
5.223024e+002, 1.586019e+002
5.227845e+002, 1.593784e+002
5.232667e+002, 1.601353e+002
5.237488e+002, 1.610600e+002
5.242309e+002, 1.621225e+002
5.247130e+002, 1.634193e+002
5.251951e+002, 1.652823e+002
5.256772e+002, 1.677134e+002
5.261594e+002, 1.703480e+002
5.266415e+002, 1.729893e+002
5.271236e+002, 1.757188e+002
5.276057e+002, 1.788137e+002
5.280878e+002, 1.822786e+002
5.285699e+002, 1.855905e+002
5.290521e+002, 1.882532e+002
5.295342e+002, 1.904857e+002
5.300163e+002, 1.925706e+002
5.304984e+002, 1.946018e+002
5.309805e+002, 1.964260e+002
5.314626e+002, 1.982854e+002
5.319448e+002, 1.998310e+002
5.324269e+002, 2.003841e+002
5.329090e+002, 1.998141e+002
5.333911e+002, 1.981655e+002
5.338732e+002, 1.951460e+002
5.343553e+002, 1.907283e+002
5.348375e+002, 1.863306e+002
5.353196e+002, 1.819980e+002
5.358017e+002, 1.777202e+002
5.362838e+002, 1.734634e+002
5.367659e+002, 1.690267e+002
5.372480e+002, 1.650360e+002
5.377302e+002, 1.614745e+002
5.382123e+002, 1.583915e+002
5.386944e+002, 1.559350e+002
5.391765e+002, 1.540938e+002
5.396586e+002, 1.527907e+002
5.401407e+002, 1.521228e+002
5.406229e+002, 1.518899e+002
5.411050e+002, 1.517227e+002
5.415871e+002, 1.516150e+002
5.420692e+002, 1.514827e+002
5.425513e+002, 1.510524e+002
5.430334e+002, 1.506512e+002
5.435156e+002, 1.509055e+002
5.439977e+002, 1.518817e+002
5.444798e+002, 1.528369e+002
5.449619e+002, 1.531085e+002
5.454440e+002, 1.531289e+002
5.459261e+002, 1.534034e+002
5.464083e+002, 1.545330e+002
5.468904e+002, 1.552563e+002
5.473725e+002, 1.549714e+002
5.478546e+002, 1.539840e+002
5.483367e+002, 1.529485e+002
5.488188e+002, 1.518892e+002
5.493010e+002, 1.508623e+002
5.497831e+002, 1.499589e+002
5.502652e+002, 1.491721e+002
5.507473e+002, 1.480408e+002
5.512294e+002, 1.464267e+002
5.517115e+002, 1.446981e+002
5.521937e+002, 1.430792e+002
5.526758e+002, 1.415933e+002
5.531579e+002, 1.399841e+002
5.536400e+002, 1.381959e+002
5.541221e+002, 1.364168e+002
5.546042e+002, 1.349398e+002
5.550864e+002, 1.337211e+002
5.555685e+002, 1.324744e+002
5.560506e+002, 1.311055e+002
5.565327e+002, 1.296986e+002
5.570148e+002, 1.283013e+002
5.574969e+002, 1.269525e+002
5.579791e+002, 1.257976e+002
5.584612e+002, 1.249006e+002
5.589433e+002, 1.242524e+002
5.594254e+002, 1.239095e+002
5.599075e+002, 1.238738e+002
5.603896e+002, 1.239157e+002
5.608718e+002, 1.241198e+002
5.613539e+002, 1.242562e+002
5.618360e+002, 1.241403e+002
5.623181e+002, 1.234218e+002
5.628002e+002, 1.229469e+002
5.632823e+002, 1.228520e+002
5.637645e+002, 1.229840e+002
5.642466e+002, 1.231101e+002
5.647287e+002, 1.231827e+002
5.652108e+002, 1.233798e+002
5.656929e+002, 1.238462e+002
5.661750e+002, 1.244554e+002
5.666572e+002, 1.245276e+002
5.671393e+002, 1.239697e+002
5.676214e+002, 1.235405e+002
5.681035e+002, 1.237741e+002
5.685856e+002, 1.245147e+002
5.690677e+002, 1.252439e+002
5.695499e+002, 1.259469e+002
5.700320e+002, 1.264834e+002
5.705141e+002, 1.265436e+002
5.709962e+002, 1.263837e+002
5.714783e+002, 1.264419e+002
5.719604e+002, 1.269272e+002
5.724426e+002, 1.274404e+002
5.729247e+002, 1.276747e+002
5.734068e+002, 1.277690e+002
5.738889e+002, 1.279774e+002
5.743710e+002, 1.284778e+002
5.748531e+002, 1.290105e+002
5.753353e+002, 1.295602e+002
5.758174e+002, 1.301058e+002
5.762995e+002, 1.304462e+002
5.767816e+002, 1.306568e+002
5.772637e+002, 1.305675e+002
5.777458e+002, 1.299952e+002
5.782280e+002, 1.287718e+002
5.787101e+002, 1.280437e+002
5.791922e+002, 1.279894e+002
5.796743e+002, 1.280370e+002
5.801564e+002, 1.275191e+002
5.806385e+002, 1.264729e+002
5.811207e+002, 1.255159e+002
5.816028e+002, 1.247491e+002
5.820849e+002, 1.241447e+002
5.825670e+002, 1.238505e+002
5.830491e+002, 1.237231e+002
5.835313e+002, 1.232785e+002
5.840134e+002, 1.218882e+002
5.844955e+002, 1.203684e+002
5.849776e+002, 1.194701e+002
5.854597e+002, 1.191262e+002
5.859418e+002, 1.189320e+002
5.864240e+002, 1.190104e+002
5.869061e+002, 1.189425e+002
5.873882e+002, 1.183510e+002
5.878703e+002, 1.169467e+002
5.883524e+002, 1.160194e+002
5.888345e+002, 1.161683e+002
5.893167e+002, 1.165609e+002
5.897988e+002, 1.165399e+002
5.902809e+002, 1.158672e+002
5.907630e+002, 1.153130e+002
5.912451e+002, 1.149094e+002
5.917272e+002, 1.146693e+002
5.922094e+002, 1.146387e+002
5.926915e+002, 1.148250e+002
5.931736e+002, 1.151289e+002
5.936557e+002, 1.156201e+002
5.941378e+002, 1.161389e+002
5.946199e+002, 1.162905e+002
5.951021e+002, 1.160963e+002
5.955842e+002, 1.157383e+002
5.960663e+002, 1.151833e+002
5.965484e+002, 1.146093e+002
5.970305e+002, 1.142131e+002
5.975126e+002, 1.140122e+002
5.979948e+002, 1.139288e+002
5.984769e+002, 1.141032e+002
5.989590e+002, 1.142740e+002
5.994411e+002, 1.141919e+002
5.999232e+002, 1.134913e+002
6.004053e+002, 1.130609e+002
6.008875e+002, 1.131595e+002
6.013696e+002, 1.135604e+002
6.018517e+002, 1.139927e+002
6.023338e+002, 1.146110e+002
6.028159e+002, 1.149127e+002
6.032980e+002, 1.146218e+002
6.037802e+002, 1.140064e+002
6.042623e+002, 1.141678e+002
6.047444e+002, 1.152064e+002
6.052265e+002, 1.161469e+002
6.057086e+002, 1.163236e+002
6.061907e+002, 1.159975e+002
6.066729e+002, 1.161106e+002
6.071550e+002, 1.166536e+002
6.076371e+002, 1.172884e+002
6.081192e+002, 1.178235e+002
6.086013e+002, 1.182515e+002
6.090834e+002, 1.185447e+002
6.095656e+002, 1.186901e+002
6.100477e+002, 1.187540e+002
6.105298e+002, 1.186468e+002
6.110119e+002, 1.185324e+002
6.114940e+002, 1.185946e+002
6.119761e+002, 1.191765e+002
6.124583e+002, 1.195820e+002
6.129404e+002, 1.195044e+002
6.134225e+002, 1.192174e+002
6.139046e+002, 1.193639e+002
6.143867e+002, 1.201861e+002
6.148688e+002, 1.209250e+002
6.153510e+002, 1.213190e+002
6.158331e+002, 1.214418e+002
6.163152e+002, 1.217577e+002
6.167973e+002, 1.222661e+002
6.172794e+002, 1.229312e+002
6.177615e+002, 1.239274e+002
6.182437e+002, 1.250386e+002
6.187258e+002, 1.256652e+002
6.192079e+002, 1.257717e+002
6.196900e+002, 1.255955e+002
6.201721e+002, 1.250672e+002
6.206542e+002, 1.244821e+002
6.211364e+002, 1.242535e+002
6.216185e+002, 1.246501e+002
6.221006e+002, 1.250105e+002
6.225827e+002, 1.250970e+002
6.230648e+002, 1.249613e+002
6.235469e+002, 1.246757e+002
6.240291e+002, 1.240779e+002
6.245112e+002, 1.235467e+002
6.249933e+002, 1.231552e+002
6.254754e+002, 1.228696e+002
6.259575e+002, 1.225815e+002
6.264396e+002, 1.222904e+002
6.269218e+002, 1.220031e+002
6.274039e+002, 1.217463e+002
6.278860e+002, 1.214997e+002
6.283681e+002, 1.211102e+002
6.288502e+002, 1.205725e+002
6.293323e+002, 1.200247e+002
6.298145e+002, 1.195449e+002
6.302966e+002, 1.191341e+002
6.307787e+002, 1.187819e+002
6.312608e+002, 1.184858e+002
6.317429e+002, 1.182583e+002
6.322250e+002, 1.182063e+002
6.327072e+002, 1.181819e+002
6.331893e+002, 1.180190e+002
6.336714e+002, 1.176119e+002
6.341535e+002, 1.171749e+002
6.346356e+002, 1.167380e+002
6.351177e+002, 1.163124e+002
6.355999e+002, 1.159063e+002
6.360820e+002, 1.155016e+002
6.365641e+002, 1.151467e+002
6.370462e+002, 1.148570e+002
6.375283e+002, 1.146206e+002
6.380104e+002, 1.144492e+002
6.384926e+002, 1.143841e+002
6.389747e+002, 1.141033e+002
6.394568e+002, 1.132474e+002
6.399389e+002, 1.120956e+002
6.404210e+002, 1.117189e+002
6.409031e+002, 1.120746e+002
6.413853e+002, 1.124620e+002
6.418674e+002, 1.123603e+002
6.423495e+002, 1.120098e+002
6.428316e+002, 1.116286e+002
6.433137e+002, 1.112173e+002
6.437958e+002, 1.110074e+002
6.442780e+002, 1.113837e+002
6.447601e+002, 1.118601e+002
6.452422e+002, 1.120056e+002
6.457243e+002, 1.115602e+002
6.462064e+002, 1.110539e+002
6.466885e+002, 1.103815e+002
6.471707e+002, 1.097452e+002
6.476528e+002, 1.094578e+002
6.481349e+002, 1.096360e+002
6.486170e+002, 1.097815e+002
6.490991e+002, 1.098177e+002
6.495812e+002, 1.097534e+002
6.500634e+002, 1.095308e+002
6.505455e+002, 1.091690e+002
6.510276e+002, 1.089770e+002
6.515097e+002, 1.092822e+002
6.519918e+002, 1.097308e+002
6.524739e+002, 1.097365e+002
6.529561e+002, 1.093636e+002
6.534382e+002, 1.089453e+002
6.539203e+002, 1.086743e+002
6.544024e+002, 1.084308e+002
6.548845e+002, 1.080410e+002
6.553666e+002, 1.074525e+002
6.558488e+002, 1.072105e+002
6.563309e+002, 1.079988e+002
6.568130e+002, 1.087382e+002
6.572951e+002, 1.087213e+002
6.577772e+002, 1.074991e+002
6.582593e+002, 1.067365e+002
6.587415e+002, 1.065180e+002
6.592236e+002, 1.066226e+002
6.597057e+002, 1.068975e+002
6.601878e+002, 1.073349e+002
6.606699e+002, 1.075964e+002
6.611520e+002, 1.076139e+002
6.616342e+002, 1.074399e+002
6.621163e+002, 1.069721e+002
6.625984e+002, 1.063617e+002
6.630805e+002, 1.060167e+002
6.635626e+002, 1.063593e+002
6.640447e+002, 1.067576e+002
6.645269e+002, 1.067672e+002
6.650090e+002, 1.064743e+002
6.654911e+002, 1.061338e+002
6.659732e+002, 1.055727e+002
6.664553e+002, 1.052256e+002
6.669374e+002, 1.054161e+002
6.674196e+002, 1.060883e+002
6.679017e+002, 1.063781e+002
6.683838e+002, 1.061303e+002
6.688659e+002, 1.057988e+002
6.693480e+002, 1.056068e+002
6.698301e+002, 1.055530e+002
6.703123e+002, 1.054665e+002
6.707944e+002, 1.053418e+002
6.712765e+002, 1.052263e+002
6.717586e+002, 1.051682e+002
6.722407e+002, 1.051472e+002
6.727228e+002, 1.051236e+002
6.732050e+002, 1.050934e+002
6.736871e+002, 1.050415e+002
6.741692e+002, 1.048324e+002
6.746513e+002, 1.046442e+002
6.751334e+002, 1.047158e+002
6.756155e+002, 1.055623e+002
6.760977e+002, 1.059809e+002
6.765798e+002, 1.052368e+002
6.770619e+002, 1.040556e+002
6.775440e+002, 1.035348e+002
6.780261e+002, 1.039812e+002
6.785082e+002, 1.044753e+002
6.789904e+002, 1.049525e+002
6.794725e+002, 1.053204e+002
6.799546e+002, 1.052329e+002
6.804367e+002, 1.046872e+002
6.809188e+002, 1.042867e+002
6.814009e+002, 1.044545e+002
6.818831e+002, 1.048223e+002
6.823652e+002, 1.045887e+002
6.828473e+002, 1.038799e+002
6.833294e+002, 1.033328e+002
6.838115e+002, 1.036267e+002
6.842936e+002, 1.039818e+002
6.847758e+002, 1.036730e+002
6.852579e+002, 1.026674e+002
6.857400e+002, 1.020307e+002
6.862221e+002, 1.023263e+002
6.867042e+002, 1.028321e+002
6.871863e+002, 1.031970e+002
6.876685e+002, 1.034075e+002
6.881506e+002, 1.035121e+002
6.886327e+002, 1.034831e+002
6.891148e+002, 1.034052e+002
6.895969e+002, 1.033559e+002
6.900790e+002, 1.033300e+002
6.905612e+002, 1.032553e+002
6.910433e+002, 1.031107e+002
6.915254e+002, 1.029792e+002
6.920075e+002, 1.029985e+002
6.924896e+002, 1.030932e+002
6.929717e+002, 1.031143e+002
6.934539e+002, 1.029662e+002
6.939360e+002, 1.028446e+002
6.944181e+002, 1.029052e+002
6.949002e+002, 1.030555e+002
6.953823e+002, 1.031528e+002
6.958644e+002, 1.032076e+002
6.963466e+002, 1.031518e+002
6.968287e+002, 1.029240e+002
6.973108e+002, 1.025992e+002
6.977929e+002, 1.023834e+002
6.982750e+002, 1.023071e+002
6.987571e+002, 1.022343e+002
6.992393e+002, 1.021148e+002
6.997214e+002, 1.019739e+002
7.002035e+002, 1.018690e+002
7.006856e+002, 1.018039e+002
7.011677e+002, 1.018165e+002
7.016498e+002, 1.019592e+002
7.021320e+002, 1.021719e+002
7.026141e+002, 1.024378e+002
7.030962e+002, 1.027370e+002
7.035783e+002, 1.029195e+002
7.040604e+002, 1.028851e+002
7.045425e+002, 1.027378e+002
7.050247e+002, 1.024981e+002
7.055068e+002, 1.021300e+002
7.059889e+002, 1.018718e+002
7.064710e+002, 1.016737e+002
7.069531e+002, 1.016503e+002
7.074352e+002, 1.019744e+002
7.079174e+002, 1.027052e+002
7.083995e+002, 1.030549e+002
7.088816e+002, 1.029631e+002
7.093637e+002, 1.027225e+002
7.098458e+002, 1.026398e+002
7.103279e+002, 1.026472e+002
7.108101e+002, 1.025445e+002
7.112922e+002, 1.022640e+002
7.117743e+002, 1.020287e+002
7.122564e+002, 1.020473e+002
7.127385e+002, 1.021925e+002
7.132206e+002, 1.023140e+002
7.137028e+002, 1.023857e+002
7.141849e+002, 1.024132e+002
7.146670e+002, 1.023829e+002
7.151491e+002, 1.023143e+002
7.156312e+002, 1.022086e+002
7.161133e+002, 1.019971e+002
7.165955e+002, 1.019706e+002
7.170776e+002, 1.022656e+002
7.175597e+002, 1.026668e+002
7.180418e+002, 1.026342e+002
7.185239e+002, 1.022157e+002
7.190060e+002, 1.018987e+002
7.194882e+002, 1.019394e+002
7.199703e+002, 1.021026e+002
7.204524e+002, 1.020724e+002
7.209345e+002, 1.019173e+002
7.214166e+002, 1.018411e+002
7.218987e+002, 1.020772e+002
7.223809e+002, 1.022820e+002
7.228630e+002, 1.022397e+002
7.233451e+002, 1.019835e+002
7.238272e+002, 1.018390e+002
7.243093e+002, 1.018746e+002
7.247914e+002, 1.019473e+002
7.252736e+002, 1.020380e+002
7.257557e+002, 1.021363e+002
7.262378e+002, 1.020643e+002
7.267199e+002, 1.017994e+002
7.272020e+002, 1.015615e+002
7.276841e+002, 1.015935e+002
7.281663e+002, 1.017343e+002
7.286484e+002, 1.015274e+002
7.291305e+002, 1.009784e+002
7.296126e+002, 1.005837e+002
7.300947e+002, 1.007458e+002
7.305768e+002, 1.011566e+002
7.310590e+002, 1.016762e+002
7.315411e+002, 1.023872e+002
7.320232e+002, 1.026519e+002
7.325053e+002, 1.018624e+002
7.329874e+002, 1.009893e+002
7.334695e+002, 1.006292e+002
7.339517e+002, 1.009474e+002
7.344338e+002, 1.012320e+002
7.349159e+002, 1.015116e+002
7.353980e+002, 1.016784e+002
7.358801e+002, 1.015381e+002
7.363622e+002, 1.011706e+002
7.368444e+002, 1.008935e+002
7.373265e+002, 1.007493e+002
7.378086e+002, 1.007435e+002
7.382907e+002, 1.010442e+002
7.387728e+002, 1.014278e+002
7.392549e+002, 1.015568e+002
7.397371e+002, 1.009430e+002
7.402192e+002, 1.007608e+002
7.407013e+002, 1.019312e+002
7.411834e+002, 1.034629e+002
7.416655e+002, 1.040132e+002
7.421476e+002, 1.030938e+002
7.426298e+002, 1.023437e+002
7.431119e+002, 1.019784e+002
7.435940e+002, 1.018336e+002
7.440761e+002, 1.015885e+002
7.445582e+002, 1.012660e+002
7.450403e+002, 1.010910e+002
7.455225e+002, 1.011311e+002
7.460046e+002, 1.013459e+002
7.464867e+002, 1.018372e+002
7.469688e+002, 1.024540e+002
7.474509e+002, 1.028675e+002
7.479330e+002, 1.028301e+002
7.484152e+002, 1.026807e+002
7.488973e+002, 1.025429e+002
7.493794e+002, 1.023950e+002
7.498615e+002, 1.021549e+002
7.503436e+002, 1.016776e+002
7.508257e+002, 1.013755e+002
7.513079e+002, 1.014062e+002
7.517900e+002, 1.016683e+002
7.522721e+002, 1.017825e+002
7.527542e+002, 1.017509e+002
7.532363e+002, 1.017448e+002
7.537184e+002, 1.019428e+002
7.542006e+002, 1.021556e+002
7.546827e+002, 1.020014e+002
7.551648e+002, 1.015686e+002
7.556469e+002, 1.012318e+002
7.561290e+002, 1.012103e+002
7.566111e+002, 1.013084e+002
7.570933e+002, 1.014537e+002
7.575754e+002, 1.016349e+002
7.580575e+002, 1.017909e+002
7.585396e+002, 1.018819e+002
7.590217e+002, 1.020023e+002
7.595038e+002, 1.022361e+002
7.599860e+002, 1.025541e+002
7.604681e+002, 1.025732e+002
7.609502e+002, 1.022623e+002
7.614323e+002, 1.020177e+002
7.619144e+002, 1.022215e+002
7.623965e+002, 1.026260e+002
7.628787e+002, 1.027536e+002
7.633608e+002, 1.026101e+002
7.638429e+002, 1.024522e+002
7.643250e+002, 1.023621e+002
7.648071e+002, 1.023661e+002
7.652892e+002, 1.025315e+002
7.657714e+002, 1.029009e+002
7.662535e+002, 1.031230e+002
7.667356e+002, 1.031557e+002
7.672177e+002, 1.030724e+002
7.676998e+002, 1.028317e+002
7.681819e+002, 1.024012e+002
7.686641e+002, 1.024444e+002
7.691462e+002, 1.030213e+002
7.696283e+002, 1.036128e+002
7.701104e+002, 1.037648e+002
7.705925e+002, 1.036267e+002
7.710746e+002, 1.034389e+002
7.715568e+002, 1.032206e+002
7.720389e+002, 1.030784e+002
7.725210e+002, 1.031171e+002
7.730031e+002, 1.032323e+002
7.734852e+002, 1.033308e+002
7.739673e+002, 1.033582e+002
7.744495e+002, 1.035183e+002
7.749316e+002, 1.039111e+002
7.754137e+002, 1.043190e+002
7.758958e+002, 1.045849e+002
7.763779e+002, 1.047032e+002
7.768600e+002, 1.047271e+002
7.773422e+002, 1.046411e+002
7.778243e+002, 1.045750e+002
7.783064e+002, 1.047153e+002
7.787885e+002, 1.049558e+002
7.792706e+002, 1.050829e+002
7.797527e+002, 1.050462e+002
7.802349e+002, 1.050014e+002
7.807170e+002, 1.050214e+002
7.811991e+002, 1.050876e+002
7.816812e+002, 1.051844e+002
7.821633e+002, 1.053120e+002
7.826454e+002, 1.054802e+002
7.831276e+002, 1.057556e+002
7.836097e+002, 1.059930e+002
7.840918e+002, 1.060080e+002
7.845739e+002, 1.057954e+002
7.850560e+002, 1.056466e+002
7.855381e+002, 1.055788e+002
7.860203e+002, 1.056371e+002
7.865024e+002, 1.060416e+002
7.869845e+002, 1.065607e+002
7.874666e+002, 1.067592e+002
7.879487e+002, 1.064362e+002
7.884308e+002, 1.061300e+002
7.889130e+002, 1.060659e+002
7.893951e+002, 1.061675e+002
7.898772e+002, 1.063659e+002
7.903593e+002, 1.067418e+002
7.908414e+002, 1.070555e+002
7.913235e+002, 1.073316e+002
7.918057e+002, 1.075018e+002
7.922878e+002, 1.074095e+002
7.927699e+002, 1.070772e+002
7.932520e+002, 1.069022e+002
7.937341e+002, 1.069584e+002
7.942162e+002, 1.070941e+002
7.946984e+002, 1.071665e+002
7.951805e+002, 1.072019e+002
7.956626e+002, 1.072412e+002
7.961447e+002, 1.072956e+002
7.966268e+002, 1.073555e+002
7.971089e+002, 1.074718e+002
7.975911e+002, 1.075643e+002
7.980732e+002, 1.075374e+002
7.985553e+002, 1.073045e+002
7.990374e+002, 1.071538e+002
7.995195e+002, 1.070956e+002
8.000016e+002, 1.071342e+002
8.004838e+002, 1.073497e+002
8.009659e+002, 1.076938e+002
8.014480e+002, 1.078903e+002
8.019301e+002, 1.078840e+002
8.024122e+002, 1.077429e+002
8.028943e+002, 1.072990e+002
8.033765e+002, 1.068521e+002
8.038586e+002, 1.068354e+002
8.043407e+002, 1.077853e+002
8.048228e+002, 1.083862e+002
8.053049e+002, 1.080375e+002
8.057870e+002, 1.074057e+002
8.062692e+002, 1.071203e+002
8.067513e+002, 1.072210e+002
8.072334e+002, 1.075732e+002
8.077155e+002, 1.082588e+002
8.081976e+002, 1.089153e+002
8.086797e+002, 1.090324e+002
8.091619e+002, 1.087333e+002
8.096440e+002, 1.083065e+002
8.101261e+002, 1.077206e+002
8.106082e+002, 1.073776e+002
8.110903e+002, 1.078001e+002
8.115724e+002, 1.085219e+002
8.120546e+002, 1.090394e+002
8.125367e+002, 1.092542e+002
8.130188e+002, 1.092399e+002
8.135009e+002, 1.089009e+002
8.139830e+002, 1.084493e+002
8.144651e+002, 1.080414e+002
8.149473e+002, 1.076561e+002
8.154294e+002, 1.077013e+002
8.159115e+002, 1.082737e+002
8.163936e+002, 1.090190e+002
8.168757e+002, 1.096487e+002
8.173578e+002, 1.101315e+002
8.178400e+002, 1.103846e+002
8.183221e+002, 1.103155e+002
8.188042e+002, 1.102772e+002
8.192863e+002, 1.104554e+002
8.197684e+002, 1.107313e+002
8.202505e+002, 1.109950e+002
8.207327e+002, 1.112252e+002
8.212148e+002, 1.114773e+002
8.216969e+002, 1.117977e+002
8.221790e+002, 1.120494e+002
8.226611e+002, 1.120035e+002
8.231432e+002, 1.117224e+002
8.236254e+002, 1.116199e+002
8.241075e+002, 1.117467e+002
8.245896e+002, 1.119816e+002
8.250717e+002, 1.123476e+002
8.255538e+002, 1.126917e+002
8.260359e+002, 1.127939e+002
8.265181e+002, 1.125159e+002
8.270002e+002, 1.123627e+002
8.274823e+002, 1.125929e+002
8.279644e+002, 1.128759e+002
8.284465e+002, 1.129733e+002
8.289286e+002, 1.128079e+002
8.294108e+002, 1.128743e+002
8.298929e+002, 1.132153e+002
8.303750e+002, 1.136145e+002
8.308571e+002, 1.139084e+002
8.313392e+002, 1.141037e+002
8.318214e+002, 1.141830e+002
8.323035e+002, 1.141395e+002
8.327856e+002, 1.141217e+002
8.332677e+002, 1.142404e+002
8.337498e+002, 1.144055e+002
8.342319e+002, 1.145363e+002
8.347141e+002, 1.145924e+002
8.351962e+002, 1.147481e+002
8.356783e+002, 1.150060e+002
8.361604e+002, 1.153518e+002
8.366425e+002, 1.158076e+002
8.371246e+002, 1.163612e+002
8.376068e+002, 1.168197e+002
8.380889e+002, 1.171811e+002
8.385710e+002, 1.175659e+002
8.390531e+002, 1.180498e+002
8.395352e+002, 1.186173e+002
8.400173e+002, 1.193241e+002
8.404995e+002, 1.201703e+002
8.409816e+002, 1.208309e+002
8.414637e+002, 1.208627e+002
8.419458e+002, 1.210183e+002
8.424279e+002, 1.216595e+002
8.429100e+002, 1.227769e+002
8.433922e+002, 1.238798e+002
8.438743e+002, 1.249701e+002
8.443564e+002, 1.260280e+002
8.448385e+002, 1.270281e+002
8.453206e+002, 1.279929e+002
8.458027e+002, 1.289048e+002
8.462849e+002, 1.297949e+002
8.467670e+002, 1.308217e+002
8.472491e+002, 1.322878e+002
8.477312e+002, 1.337208e+002
8.482133e+002, 1.346867e+002
8.486954e+002, 1.352821e+002
8.491776e+002, 1.364057e+002
8.496597e+002, 1.382361e+002
8.501418e+002, 1.403157e+002
8.506239e+002, 1.425927e+002
8.511060e+002, 1.449433e+002
8.515881e+002, 1.466608e+002
8.520703e+002, 1.478733e+002
8.525524e+002, 1.496622e+002
8.530345e+002, 1.527445e+002
8.535166e+002, 1.564456e+002
8.539987e+002, 1.603100e+002
8.544808e+002, 1.643240e+002
8.549630e+002, 1.684700e+002
8.554451e+002, 1.727753e+002
8.559272e+002, 1.771018e+002
8.564093e+002, 1.813803e+002
8.568914e+002, 1.856476e+002
8.573735e+002, 1.902309e+002
8.578557e+002, 1.951774e+002
8.583378e+002, 2.000094e+002
8.588199e+002, 2.045259e+002
8.593020e+002, 2.091242e+002
8.597841e+002, 2.142007e+002
8.602662e+002, 2.198017e+002
8.607484e+002, 2.259173e+002
8.612305e+002, 2.324813e+002
8.617126e+002, 2.396531e+002
8.621947e+002, 2.473705e+002
8.626768e+002, 2.557817e+002
8.631589e+002, 2.649525e+002
8.636411e+002, 2.753343e+002
8.641232e+002, 2.854486e+002
8.646053e+002, 2.951844e+002
8.650874e+002, 3.045431e+002
8.655695e+002, 3.140038e+002
8.660516e+002, 3.231739e+002
8.665338e+002, 3.312100e+002
8.670159e+002, 3.382885e+002
8.674980e+002, 3.428556e+002
8.679801e+002, 3.442559e+002
8.684622e+002, 3.424100e+002
8.689443e+002, 3.372784e+002
8.694265e+002, 3.284051e+002
8.699086e+002, 3.165873e+002
8.703907e+002, 3.009230e+002
8.708728e+002, 2.838289e+002
8.713549e+002, 2.669597e+002
8.718370e+002, 2.503319e+002
8.723192e+002, 2.348701e+002
8.728013e+002, 2.203964e+002
8.732834e+002, 2.076184e+002
8.737655e+002, 1.975328e+002
8.742476e+002, 1.890983e+002
8.747297e+002, 1.812782e+002
8.752119e+002, 1.738916e+002
8.756940e+002, 1.676960e+002
8.761761e+002, 1.633519e+002
8.766582e+002, 1.598626e+002
8.771403e+002, 1.569994e+002
8.776224e+002, 1.547269e+002
8.781046e+002, 1.524875e+002
8.785867e+002, 1.502686e+002
8.790688e+002, 1.485032e+002
8.795509e+002, 1.474858e+002
8.800330e+002, 1.471001e+002
8.805151e+002, 1.473360e+002
8.809973e+002, 1.481010e+002
8.814794e+002, 1.490425e+002
8.819615e+002, 1.496533e+002
8.824436e+002, 1.508119e+002
8.829257e+002, 1.530174e+002
8.834078e+002, 1.559802e+002
8.838900e+002, 1.590870e+002
8.843721e+002, 1.623307e+002
8.848542e+002, 1.657579e+002
8.853363e+002, 1.693795e+002
8.858184e+002, 1.731938e+002
8.863005e+002, 1.776586e+002
8.867827e+002, 1.823200e+002
8.872648e+002, 1.860146e+002
8.877469e+002, 1.887846e+002
8.882290e+002, 1.897976e+002
8.887111e+002, 1.883621e+002
8.891932e+002, 1.850070e+002
8.896754e+002, 1.804792e+002
8.901575e+002, 1.744464e+002
8.906396e+002, 1.682314e+002
8.911217e+002, 1.617467e+002
8.916038e+002, 1.556707e+002
8.920859e+002, 1.506732e+002
8.925681e+002, 1.467324e+002
8.930502e+002, 1.438498e+002
8.935323e+002, 1.421026e+002
8.940144e+002, 1.410319e+002
8.944965e+002, 1.409346e+002
8.949786e+002, 1.409968e+002
8.954608e+002, 1.404963e+002
8.959429e+002, 1.392077e+002
8.964250e+002, 1.379567e+002
8.969071e+002, 1.370125e+002
8.973892e+002, 1.355818e+002
8.978713e+002, 1.329131e+002
8.983535e+002, 1.292214e+002
8.988356e+002, 1.257586e+002
8.993177e+002, 1.225501e+002
8.997998e+002, 1.198299e+002
9.002819e+002, 1.177501e+002
9.007640e+002, 1.161954e+002
9.012462e+002, 1.152879e+002
9.017283e+002, 1.149392e+002
9.022104e+002, 1.142239e+002
9.026925e+002, 1.126188e+002
9.031746e+002, 1.114031e+002
9.036567e+002, 1.110457e+002
9.041389e+002, 1.112857e+002
9.046210e+002, 1.113153e+002
9.051031e+002, 1.111508e+002
9.055852e+002, 1.109297e+002
9.060673e+002, 1.106116e+002
9.065494e+002, 1.103940e+002
9.070316e+002, 1.105084e+002
9.075137e+002, 1.108371e+002
9.079958e+002, 1.111756e+002
9.084779e+002, 1.117734e+002
9.089600e+002, 1.119053e+002
9.094421e+002, 1.112213e+002
9.099243e+002, 1.103659e+002
9.104064e+002, 1.103483e+002
9.108885e+002, 1.111049e+002
9.113706e+002, 1.114230e+002
9.118527e+002, 1.110772e+002
9.123348e+002, 1.105806e+002
9.128170e+002, 1.103316e+002
9.132991e+002, 1.102583e+002
9.137812e+002, 1.103108e+002
9.142633e+002, 1.105269e+002
9.147454e+002, 1.106687e+002
9.152275e+002, 1.106642e+002
9.157097e+002, 1.106216e+002
9.161918e+002, 1.105632e+002
9.166739e+002, 1.104923e+002
9.171560e+002, 1.106493e+002
9.176381e+002, 1.110341e+002
9.181202e+002, 1.114752e+002
9.186024e+002, 1.119429e+002
9.190845e+002, 1.123412e+002
9.195666e+002, 1.124659e+002
9.200487e+002, 1.123845e+002
9.205308e+002, 1.124953e+002
9.210129e+002, 1.132526e+002
9.214951e+002, 1.137858e+002
9.219772e+002, 1.137230e+002
9.224593e+002, 1.133514e+002
9.229414e+002, 1.136289e+002
9.234235e+002, 1.145379e+002
9.239056e+002, 1.153213e+002
9.243878e+002, 1.156899e+002
9.248699e+002, 1.159131e+002
9.253520e+002, 1.164006e+002
9.258341e+002, 1.169281e+002
9.263162e+002, 1.171404e+002
9.267983e+002, 1.166339e+002
9.272805e+002, 1.162655e+002
9.277626e+002, 1.161538e+002
9.282447e+002, 1.161900e+002
9.287268e+002, 1.162923e+002
9.292089e+002, 1.164628e+002
9.296910e+002, 1.166406e+002
9.301732e+002, 1.168327e+002
9.306553e+002, 1.169116e+002
9.311374e+002, 1.166891e+002
9.316195e+002, 1.163329e+002
9.321016e+002, 1.160219e+002
9.325837e+002, 1.157836e+002
9.330659e+002, 1.155328e+002
9.335480e+002, 1.153529e+002
9.340301e+002, 1.150239e+002
9.345122e+002, 1.143914e+002
9.349943e+002, 1.135187e+002
9.354764e+002, 1.129277e+002
9.359586e+002, 1.126014e+002
9.364407e+002, 1.122462e+002
9.369228e+002, 1.116184e+002
9.374049e+002, 1.109637e+002
9.378870e+002, 1.105140e+002
9.383691e+002, 1.102339e+002
9.388513e+002, 1.100540e+002
9.393334e+002, 1.102068e+002
9.398155e+002, 1.100968e+002
9.402976e+002, 1.095276e+002
9.407797e+002, 1.087980e+002
9.412618e+002, 1.084002e+002
9.417440e+002, 1.083127e+002
9.422261e+002, 1.082494e+002
9.427082e+002, 1.081810e+002
9.431903e+002, 1.080240e+002
9.436724e+002, 1.075599e+002
9.441545e+002, 1.070478e+002
9.446367e+002, 1.067768e+002
9.451188e+002, 1.068642e+002
9.456009e+002, 1.069119e+002
9.460830e+002, 1.069303e+002
9.465651e+002, 1.068254e+002
9.470472e+002, 1.064340e+002
9.475294e+002, 1.058259e+002
9.480115e+002, 1.057571e+002
9.484936e+002, 1.061738e+002
9.489757e+002, 1.064749e+002
9.494578e+002, 1.061178e+002
9.499399e+002, 1.056432e+002
9.504221e+002, 1.055076e+002
9.509042e+002, 1.056220e+002
9.513863e+002, 1.055894e+002
9.518684e+002, 1.052089e+002
9.523505e+002, 1.050149e+002
9.528326e+002, 1.051887e+002
9.533148e+002, 1.054893e+002
9.537969e+002, 1.054017e+002
9.542790e+002, 1.050258e+002
9.547611e+002, 1.048014e+002
9.552432e+002, 1.048765e+002
9.557253e+002, 1.049847e+002
9.562075e+002, 1.049086e+002
9.566896e+002, 1.047849e+002
9.571717e+002, 1.047546e+002
9.576538e+002, 1.048605e+002
9.581359e+002, 1.049539e+002
9.586180e+002, 1.050385e+002
9.591002e+002, 1.050921e+002
9.595823e+002, 1.050043e+002
9.600644e+002, 1.048816e+002
9.605465e+002, 1.051700e+002
9.610286e+002, 1.058097e+002
9.615107e+002, 1.062869e+002
9.619929e+002, 1.061897e+002
9.624750e+002, 1.059785e+002
9.629571e+002, 1.058316e+002
9.634392e+002, 1.057715e+002
9.639213e+002, 1.058624e+002
9.644034e+002, 1.061573e+002
9.648856e+002, 1.063757e+002
9.653677e+002, 1.064126e+002
9.658498e+002, 1.064219e+002
9.663319e+002, 1.067293e+002
9.668140e+002, 1.071823e+002
9.672961e+002, 1.074427e+002
9.677783e+002, 1.073584e+002
9.682604e+002, 1.072518e+002
9.687425e+002, 1.072729e+002
9.692246e+002, 1.072979e+002
9.697067e+002, 1.072129e+002
9.701888e+002, 1.069910e+002
9.706710e+002, 1.068712e+002
9.711531e+002, 1.068616e+002
9.716352e+002, 1.068808e+002
9.721173e+002, 1.068995e+002
9.725994e+002, 1.068896e+002
9.730815e+002, 1.067483e+002
9.735637e+002, 1.065172e+002
9.740458e+002, 1.064381e+002
9.745279e+002, 1.068148e+002
9.750100e+002, 1.070758e+002
9.754921e+002, 1.070460e+002
9.759742e+002, 1.068349e+002
9.764564e+002, 1.066767e+002
9.769385e+002, 1.065745e+002
9.774206e+002, 1.066324e+002
9.779027e+002, 1.069627e+002
9.783848e+002, 1.071984e+002
9.788669e+002, 1.067732e+002
9.793491e+002, 1.061578e+002
9.798312e+002, 1.059459e+002
9.803133e+002, 1.064791e+002
9.807954e+002, 1.068250e+002
9.812775e+002, 1.069286e+002
9.817596e+002, 1.068889e+002
9.822418e+002, 1.066693e+002
9.827239e+002, 1.063468e+002
9.832060e+002, 1.064022e+002
9.836881e+002, 1.067968e+002
9.841702e+002, 1.071841e+002
9.846523e+002, 1.074908e+002
9.851345e+002, 1.075861e+002
9.856166e+002, 1.072224e+002
9.860987e+002, 1.065689e+002
9.865808e+002, 1.062501e+002
9.870629e+002, 1.063670e+002
9.875450e+002, 1.065027e+002
9.880272e+002, 1.065707e+002
9.885093e+002, 1.066422e+002
9.889914e+002, 1.069916e+002
9.894735e+002, 1.073886e+002
9.899556e+002, 1.072990e+002
9.904377e+002, 1.065001e+002
9.909199e+002, 1.056837e+002
9.914020e+002, 1.049679e+002
9.918841e+002, 1.044911e+002
9.923662e+002, 1.043788e+002
9.928483e+002, 1.046448e+002
9.933304e+002, 1.048922e+002
9.938126e+002, 1.051318e+002
9.942947e+002, 1.051625e+002
9.947768e+002, 1.046951e+002
9.952589e+002, 1.040663e+002
9.957410e+002, 1.036015e+002
9.962231e+002, 1.033064e+002
9.967053e+002, 1.031744e+002
9.971874e+002, 1.035126e+002
9.976695e+002, 1.035819e+002
9.981516e+002, 1.031955e+002
9.986337e+002, 1.026010e+002
9.991158e+002, 1.020983e+002
9.995980e+002, 1.017008e+002
1.000080e+003, 1.015847e+002
1.000562e+003, 1.018054e+002
1.001044e+003, 1.020004e+002
1.001526e+003, 1.018756e+002
1.002009e+003, 1.016195e+002
1.002491e+003, 1.013702e+002
1.002973e+003, 1.011376e+002
1.003455e+003, 1.009425e+002
1.003937e+003, 1.007770e+002
1.004419e+003, 1.006842e+002
1.004901e+003, 1.007264e+002
1.005383e+003, 1.008167e+002
1.005865e+003, 1.006858e+002
1.006348e+003, 1.004393e+002
1.006830e+003, 1.003753e+002
1.007312e+003, 1.008261e+002
1.007794e+003, 1.012274e+002
1.008276e+003, 1.013776e+002
1.008758e+003, 1.014097e+002
1.009240e+003, 1.014635e+002
1.009722e+003, 1.015471e+002
1.010205e+003, 1.015467e+002
1.010687e+003, 1.014484e+002
1.011169e+003, 1.013253e+002
1.011651e+003, 1.011798e+002
1.012133e+003, 1.010856e+002
1.012615e+003, 1.011627e+002
1.013097e+003, 1.014062e+002
1.013579e+003, 1.015759e+002
1.014061e+003, 1.015661e+002
1.014544e+003, 1.015976e+002
1.015026e+003, 1.017599e+002
1.015508e+003, 1.019782e+002
1.015990e+003, 1.020793e+002
1.016472e+003, 1.020764e+002
1.016954e+003, 1.020121e+002
1.017436e+003, 1.018663e+002
1.017918e+003, 1.017453e+002
1.018401e+003, 1.016886e+002
1.018883e+003, 1.017086e+002
1.019365e+003, 1.018400e+002
1.019847e+003, 1.021322e+002
1.020329e+003, 1.022632e+002
1.020811e+003, 1.022046e+002
1.021293e+003, 1.021452e+002
1.021775e+003, 1.021994e+002
1.022257e+003, 1.023511e+002
1.022740e+003, 1.026270e+002
1.023222e+003, 1.029875e+002
1.023704e+003, 1.032866e+002
1.024186e+003, 1.033611e+002
1.024668e+003, 1.035231e+002
1.025150e+003, 1.039236e+002
1.025632e+003, 1.043588e+002
1.026114e+003, 1.044113e+002
1.026596e+003, 1.041362e+002
1.027079e+003, 1.040730e+002
1.027561e+003, 1.043277e+002
1.028043e+003, 1.046214e+002
1.028525e+003, 1.046701e+002
1.029007e+003, 1.047010e+002
1.029489e+003, 1.049753e+002
1.029971e+003, 1.055334e+002
1.030453e+003, 1.057915e+002
1.030936e+003, 1.056709e+002
1.031418e+003, 1.055144e+002
1.031900e+003, 1.054690e+002
1.032382e+003, 1.054758e+002
1.032864e+003, 1.053343e+002
1.033346e+003, 1.051576e+002
1.033828e+003, 1.052239e+002
1.034310e+003, 1.058070e+002
1.034792e+003, 1.063757e+002
1.035275e+003, 1.069044e+002
1.035757e+003, 1.072763e+002
1.036239e+003, 1.073670e+002
1.036721e+003, 1.071769e+002
1.037203e+003, 1.068411e+002
1.037685e+003, 1.063714e+002
1.038167e+003, 1.059849e+002
1.038649e+003, 1.058332e+002
1.039132e+003, 1.058415e+002
1.039614e+003, 1.060388e+002
1.040096e+003, 1.063635e+002
1.040578e+003, 1.065307e+002
1.041060e+003, 1.065016e+002
1.041542e+003, 1.063614e+002
1.042024e+003, 1.060601e+002
1.042506e+003, 1.057985e+002
1.042989e+003, 1.059745e+002
1.043471e+003, 1.063915e+002
1.043953e+003, 1.066358e+002
1.044435e+003, 1.066110e+002
1.044917e+003, 1.065240e+002
1.045399e+003, 1.064048e+002
1.045881e+003, 1.062912e+002
1.046363e+003, 1.061934e+002
1.046845e+003, 1.061173e+002
1.047328e+003, 1.061500e+002
1.047810e+003, 1.062810e+002
1.048292e+003, 1.063056e+002
1.048774e+003, 1.060498e+002
1.049256e+003, 1.057662e+002
1.049738e+003, 1.057740e+002
1.050220e+003, 1.058488e+002
1.050702e+003, 1.055828e+002
1.051184e+003, 1.045949e+002
1.051667e+003, 1.041608e+002
1.052149e+003, 1.044095e+002
1.052631e+003, 1.048699e+002
1.053113e+003, 1.053469e+002
1.053595e+003, 1.056579e+002
1.054077e+003, 1.052551e+002
1.054559e+003, 1.042505e+002
1.055041e+003, 1.034987e+002
1.055523e+003, 1.035221e+002
1.056006e+003, 1.036553e+002
1.056488e+003, 1.037693e+002
1.056970e+003, 1.038266e+002
1.057452e+003, 1.037303e+002
1.057934e+003, 1.034946e+002
1.058416e+003, 1.032163e+002
1.058898e+003, 1.028945e+002
1.059380e+003, 1.026649e+002
1.059863e+003, 1.028011e+002
1.060345e+003, 1.029602e+002
1.060827e+003, 1.027754e+002
1.061309e+003, 1.022162e+002
1.061791e+003, 1.019768e+002
1.062273e+003, 1.021179e+002
1.062755e+003, 1.022967e+002
1.063237e+003, 1.024079e+002
1.063719e+003, 1.024109e+002
1.064202e+003, 1.021691e+002
1.064684e+003, 1.017878e+002
1.065166e+003, 1.014676e+002
1.065648e+003, 1.013028e+002
1.066130e+003, 1.011485e+002
1.066612e+003, 1.009705e+002
1.067094e+003, 1.008228e+002
1.067576e+003, 1.007473e+002
1.068059e+003, 1.007399e+002
1.068541e+003, 1.008066e+002
1.069023e+003, 1.009357e+002
1.069505e+003, 1.010365e+002
1.069987e+003, 1.010574e+002
1.070469e+003, 1.010328e+002
1.070951e+003, 1.009181e+002
1.071433e+003, 1.007909e+002
1.071916e+003, 1.008572e+002
1.072398e+003, 1.011722e+002
1.072880e+003, 1.011463e+002
1.073362e+003, 1.006685e+002
1.073844e+003, 1.000584e+002
1.074326e+003, 9.948673e+001
1.074808e+003, 9.906059e+001
1.075290e+003, 9.896267e+001
1.075772e+003, 9.920874e+001
1.076255e+003, 9.934316e+001
1.076737e+003, 9.927602e+001
1.077219e+003, 9.924532e+001
1.077701e+003, 9.936436e+001
1.078183e+003, 9.950893e+001
1.078665e+003, 9.938920e+001
1.079147e+003, 9.910808e+001
1.079629e+003, 9.892578e+001
1.080111e+003, 9.898077e+001
1.080594e+003, 9.892039e+001
1.081076e+003, 9.835336e+001
1.081558e+003, 9.790160e+001
1.082040e+003, 9.804855e+001
1.082522e+003, 9.869497e+001
1.083004e+003, 9.869636e+001
1.083486e+003, 9.812611e+001
1.083968e+003, 9.769202e+001
1.084450e+003, 9.802894e+001
1.084933e+003, 9.835312e+001
1.085415e+003, 9.798394e+001
1.085897e+003, 9.735966e+001
1.086379e+003, 9.721336e+001
1.086861e+003, 9.773982e+001
1.087343e+003, 9.799873e+001
1.087825e+003, 9.792557e+001
1.088307e+003, 9.774622e+001
1.088790e+003, 9.776362e+001
1.089272e+003, 9.771692e+001
1.089754e+003, 9.704347e+001
1.090236e+003, 9.592384e+001
1.090718e+003, 9.545383e+001
1.091200e+003, 9.634636e+001
1.091682e+003, 9.693513e+001
1.092164e+003, 9.686478e+001
1.092646e+003, 9.651213e+001
1.093129e+003, 9.641596e+001
1.093611e+003, 9.650102e+001
1.094093e+003, 9.665334e+001
1.094575e+003, 9.687519e+001
1.095057e+003, 9.682167e+001
1.095539e+003, 9.586441e+001
1.096021e+003, 9.513600e+001
1.096503e+003, 9.526625e+001
1.096986e+003, 9.594965e+001
1.097468e+003, 9.597456e+001
1.097950e+003, 9.541283e+001
1.098432e+003, 9.485947e+001
1.098914e+003, 9.445152e+001
1.099396e+003, 9.423734e+001
1.099878e+003, 9.440359e+001
1.100360e+003, 9.468285e+001
1.100843e+003, 9.482582e+001
1.101325e+003, 9.482846e+001
1.101807e+003, 9.464864e+001
1.102289e+003, 9.425900e+001
1.102771e+003, 9.397587e+001
1.103253e+003, 9.412596e+001
1.103735e+003, 9.433354e+001
1.104217e+003, 9.399338e+001
1.104699e+003, 9.342248e+001
1.105182e+003, 9.324040e+001
1.105664e+003, 9.408099e+001
1.106146e+003, 9.428817e+001
1.106628e+003, 9.362630e+001
1.107110e+003, 9.285310e+001
1.107592e+003, 9.265125e+001
1.108074e+003, 9.282088e+001
1.108556e+003, 9.303591e+001
1.109038e+003, 9.324629e+001
1.109521e+003, 9.328820e+001
1.110003e+003, 9.289669e+001
1.110485e+003, 9.260081e+001
1.110967e+003, 9.255097e+001
1.111449e+003, 9.259406e+001
1.111931e+003, 9.246992e+001
1.112413e+003, 9.222912e+001
1.112895e+003, 9.213615e+001
1.113377e+003, 9.222445e+001
1.113860e+003, 9.225670e+001
1.114342e+003, 9.204169e+001
1.114824e+003, 9.177520e+001
1.115306e+003, 9.152893e+001
1.115788e+003, 9.132716e+001
1.116270e+003, 9.128440e+001
1.116752e+003, 9.139706e+001
1.117234e+003, 9.144949e+001
1.117717e+003, 9.135936e+001
1.118199e+003, 9.131196e+001
1.118681e+003, 9.160030e+001
1.119163e+003, 9.191962e+001
1.119645e+003, 9.195459e+001
1.120127e+003, 9.168057e+001
1.120609e+003, 9.140445e+001
1.121091e+003, 9.111804e+001
1.121573e+003, 9.087509e+001
1.122056e+003, 9.069776e+001
1.122538e+003, 9.057496e+001
1.123020e+003, 9.047250e+001
1.123502e+003, 9.041769e+001
1.123984e+003, 9.047158e+001
1.124466e+003, 9.078725e+001
1.124948e+003, 9.083244e+001
1.125430e+003, 9.047582e+001
1.125913e+003, 9.018015e+001
1.126395e+003, 9.038412e+001
1.126877e+003, 9.080599e+001
1.127359e+003, 9.076796e+001
1.127841e+003, 9.040709e+001
1.128323e+003, 9.010114e+001
1.128805e+003, 8.983504e+001
1.129287e+003, 8.991280e+001
1.129770e+003, 9.063581e+001
1.130252e+003, 9.128974e+001
1.130734e+003, 9.098136e+001
1.131216e+003, 9.000658e+001
1.131698e+003, 8.960884e+001
1.132180e+003, 8.976592e+001
1.132662e+003, 8.993900e+001
1.133144e+003, 8.981520e+001
1.133626e+003, 8.967976e+001
1.134109e+003, 8.956771e+001
1.134591e+003, 8.955100e+001
1.135073e+003, 8.985742e+001
1.135555e+003, 9.043386e+001
1.136037e+003, 9.058724e+001
1.136519e+003, 9.022903e+001
1.137001e+003, 8.990257e+001
1.137483e+003, 9.006768e+001
1.137965e+003, 9.032769e+001
1.138448e+003, 9.053560e+001
1.138930e+003, 9.062623e+001
1.139412e+003, 9.030006e+001
1.139894e+003, 8.952341e+001
1.140376e+003, 8.900309e+001
1.140858e+003, 8.890456e+001
1.141340e+003, 8.899879e+001
1.141822e+003, 8.928266e+001
1.142304e+003, 8.950455e+001
1.142787e+003, 8.930309e+001
1.143269e+003, 8.867683e+001
1.143751e+003, 8.860072e+001
1.144233e+003, 8.921422e+001
1.144715e+003, 8.957779e+001
1.145197e+003, 8.928774e+001
1.145679e+003, 8.879451e+001
1.146161e+003, 8.857594e+001
1.146644e+003, 8.856010e+001
1.147126e+003, 8.868031e+001
1.147608e+003, 8.898080e+001
1.148090e+003, 8.918140e+001
1.148572e+003, 8.924889e+001
1.149054e+003, 8.931010e+001
1.149536e+003, 8.945640e+001
1.150018e+003, 8.960079e+001
1.150500e+003, 8.956494e+001
1.150983e+003, 8.941843e+001
1.151465e+003, 8.930258e+001
1.151947e+003, 8.930541e+001
1.152429e+003, 8.923961e+001
1.152911e+003, 8.910159e+001
1.153393e+003, 8.888003e+001
1.153875e+003, 8.840189e+001
1.154357e+003, 8.789605e+001
1.154840e+003, 8.811411e+001
1.155322e+003, 8.886031e+001
1.155804e+003, 8.949911e+001
1.156286e+003, 8.985741e+001
1.156768e+003, 8.995220e+001
1.157250e+003, 8.969645e+001
1.157732e+003, 8.935800e+001
1.158214e+003, 8.917901e+001
1.158697e+003, 8.912883e+001
1.159179e+003, 8.908041e+001
1.159661e+003, 8.903528e+001
1.160143e+003, 8.902775e+001
1.160625e+003, 8.923013e+001
1.161107e+003, 8.926308e+001
1.161589e+003, 8.891106e+001
1.162071e+003, 8.844329e+001
1.162553e+003, 8.814006e+001
1.163036e+003, 8.801434e+001
1.163518e+003, 8.823965e+001
1.164000e+003, 8.880290e+001
1.164482e+003, 8.927579e+001
1.164964e+003, 8.941466e+001
1.165446e+003, 8.937695e+001
1.165928e+003, 8.913647e+001
1.166410e+003, 8.883123e+001
1.166892e+003, 8.873874e+001
1.167375e+003, 8.884116e+001
1.167857e+003, 8.887587e+001
1.168339e+003, 8.880674e+001
1.168821e+003, 8.871748e+001
1.169303e+003, 8.861501e+001
1.169785e+003, 8.856283e+001
1.170267e+003, 8.863860e+001
1.170749e+003, 8.878947e+001
1.171231e+003, 8.886199e+001
1.171714e+003, 8.885643e+001
1.172196e+003, 8.887826e+001
1.172678e+003, 8.893906e+001
1.173160e+003, 8.909022e+001
1.173642e+003, 8.965233e+001
1.174124e+003, 9.009483e+001
1.174606e+003, 8.979687e+001
1.175088e+003, 8.892882e+001
1.175571e+003, 8.849090e+001
1.176053e+003, 8.849342e+001
1.176535e+003, 8.872696e+001
1.177017e+003, 8.922951e+001
1.177499e+003, 8.960804e+001
1.177981e+003, 8.930790e+001
1.178463e+003, 8.882312e+001
1.178945e+003, 8.865535e+001
1.179427e+003, 8.882857e+001
1.179910e+003, 8.890336e+001
1.180392e+003, 8.885449e+001
1.180874e+003, 8.900223e+001
1.181356e+003, 8.959702e+001
1.181838e+003, 9.012993e+001
1.182320e+003, 8.991055e+001
1.182802e+003, 8.940720e+001
1.183284e+003, 8.919458e+001
1.183767e+003, 8.937636e+001
1.184249e+003, 8.941622e+001
1.184731e+003, 8.929651e+001
1.185213e+003, 8.916965e+001
1.185695e+003, 8.917504e+001
1.186177e+003, 8.910772e+001
1.186659e+003, 8.846638e+001
1.187141e+003, 8.771353e+001
1.187624e+003, 8.762923e+001
1.188106e+003, 8.863811e+001
1.188588e+003, 8.890039e+001
1.189070e+003, 8.826840e+001
1.189552e+003, 8.774046e+001
1.190034e+003, 8.805900e+001
1.190516e+003, 8.860914e+001
1.190998e+003, 8.862736e+001
1.191480e+003, 8.832729e+001
1.191963e+003, 8.805807e+001
1.192445e+003, 8.782201e+001
1.192927e+003, 8.780064e+001
1.193409e+003, 8.804420e+001
1.193891e+003, 8.826609e+001
1.194373e+003, 8.810680e+001
1.194855e+003, 8.793351e+001
1.195337e+003, 8.846027e+001
1.195819e+003, 8.930791e+001
1.196302e+003, 8.959463e+001
1.196784e+003, 8.875771e+001
1.197266e+003, 8.843516e+001
1.197748e+003, 8.878753e+001
1.198230e+003, 8.909344e+001
1.198712e+003, 8.857759e+001
1.199194e+003, 8.781380e+001
1.199676e+003, 8.757659e+001
1.200158e+003, 8.774065e+001
1.200641e+003, 8.795634e+001
1.201123e+003, 8.827562e+001
1.201605e+003, 8.833774e+001
1.202087e+003, 8.805230e+001
1.202569e+003, 8.780395e+001
1.203051e+003, 8.803690e+001
1.203533e+003, 8.844944e+001
1.204015e+003, 8.870481e+001
1.204498e+003, 8.879044e+001
1.204980e+003, 8.869401e+001
1.205462e+003, 8.825825e+001
1.205944e+003, 8.805634e+001
1.206426e+003, 8.818163e+001
1.206908e+003, 8.836020e+001
1.207390e+003, 8.836682e+001
1.207872e+003, 8.823487e+001
1.208354e+003, 8.785813e+001
1.208837e+003, 8.734875e+001
1.209319e+003, 8.725504e+001
1.209801e+003, 8.785857e+001
1.210283e+003, 8.824870e+001
1.210765e+003, 8.830019e+001
1.211247e+003, 8.819675e+001
1.211729e+003, 8.802762e+001
1.212211e+003, 8.788912e+001
1.212694e+003, 8.803825e+001
1.213176e+003, 8.838226e+001
1.213658e+003, 8.826152e+001
1.214140e+003, 8.733863e+001
1.214622e+003, 8.689161e+001
1.215104e+003, 8.718491e+001
1.215586e+003, 8.764938e+001
1.216068e+003, 8.765172e+001
1.216551e+003, 8.748863e+001
1.217033e+003, 8.756775e+001
1.217515e+003, 8.785986e+001
1.217997e+003, 8.791619e+001
1.218479e+003, 8.761045e+001
1.218961e+003, 8.745589e+001
1.219443e+003, 8.757513e+001
1.219925e+003, 8.770583e+001
1.220407e+003, 8.742068e+001
1.220890e+003, 8.707405e+001
1.221372e+003, 8.714622e+001
1.221854e+003, 8.760767e+001
1.222336e+003, 8.782923e+001
1.222818e+003, 8.772645e+001
1.223300e+003, 8.763113e+001
1.223782e+003, 8.760823e+001
1.224264e+003, 8.760144e+001
1.224746e+003, 8.753897e+001
1.225229e+003, 8.746774e+001
1.225711e+003, 8.745570e+001
1.226193e+003, 8.749526e+001
1.226675e+003, 8.744417e+001
1.227157e+003, 8.726951e+001
1.227639e+003, 8.719344e+001
1.228121e+003, 8.727930e+001
1.228603e+003, 8.739797e+001
1.229085e+003, 8.748100e+001
1.229568e+003, 8.747763e+001
1.230050e+003, 8.723103e+001
1.230532e+003, 8.680002e+001
1.231014e+003, 8.676437e+001
1.231496e+003, 8.717857e+001
1.231978e+003, 8.751065e+001
1.232460e+003, 8.764663e+001
1.232942e+003, 8.763436e+001
1.233425e+003, 8.745609e+001
1.233907e+003, 8.720443e+001
1.234389e+003, 8.693540e+001
1.234871e+003, 8.666261e+001
1.235353e+003, 8.640934e+001
1.235835e+003, 8.617110e+001
1.236317e+003, 8.615755e+001
1.236799e+003, 8.647531e+001
1.237281e+003, 8.672155e+001
1.237764e+003, 8.633314e+001
1.238246e+003, 8.592667e+001
1.238728e+003, 8.609187e+001
1.239210e+003, 8.667558e+001
1.239692e+003, 8.712928e+001
1.240174e+003, 8.743762e+001
1.240656e+003, 8.725211e+001
1.241138e+003, 8.638042e+001
1.241621e+003, 8.567162e+001
1.242103e+003, 8.594781e+001
1.242585e+003, 8.643525e+001
1.243067e+003, 8.663335e+001
1.243549e+003, 8.660755e+001
1.244031e+003, 8.661591e+001
1.244513e+003, 8.664760e+001
1.244995e+003, 8.659992e+001
1.245478e+003, 8.642696e+001
1.245960e+003, 8.630799e+001
1.246442e+003, 8.637352e+001
1.246924e+003, 8.650917e+001
1.247406e+003, 8.667548e+001
1.247888e+003, 8.684033e+001
1.248370e+003, 8.689871e+001
1.248852e+003, 8.686165e+001
1.249334e+003, 8.674976e+001
1.249817e+003, 8.654836e+001
1.250299e+003, 8.641626e+001
1.250781e+003, 8.647616e+001
1.251263e+003, 8.657542e+001
1.251745e+003, 8.666161e+001
1.252227e+003, 8.673772e+001
1.252709e+003, 8.687370e+001
1.253191e+003, 8.700058e+001
1.253673e+003, 8.685336e+001
1.254156e+003, 8.632091e+001
1.254638e+003, 8.599245e+001
1.255120e+003, 8.620218e+001
1.255602e+003, 8.642286e+001
1.256084e+003, 8.649169e+001
1.256566e+003, 8.645950e+001
1.257048e+003, 8.636390e+001
1.257530e+003, 8.626344e+001
1.258012e+003, 8.635473e+001
1.258495e+003, 8.671823e+001
1.258977e+003, 8.669094e+001
1.259459e+003, 8.590831e+001
1.259941e+003, 8.538457e+001
1.260423e+003, 8.548547e+001
1.260905e+003, 8.590800e+001
1.261387e+003, 8.632344e+001
1.261869e+003, 8.666696e+001
1.262352e+003, 8.684062e+001
1.262834e+003, 8.682042e+001
1.263316e+003, 8.669855e+001
1.263798e+003, 8.642883e+001
1.264280e+003, 8.628582e+001
1.264762e+003, 8.640071e+001
1.265244e+003, 8.651933e+001
1.265726e+003, 8.612340e+001
1.266208e+003, 8.569907e+001
1.266691e+003, 8.594984e+001
1.267173e+003, 8.690318e+001
1.267655e+003, 8.721027e+001
1.268137e+003, 8.677522e+001
1.268619e+003, 8.652367e+001
1.269101e+003, 8.673888e+001
1.269583e+003, 8.702218e+001
1.270065e+003, 8.699973e+001
1.270548e+003, 8.687269e+001
1.271030e+003, 8.687831e+001
1.271512e+003, 8.694659e+001
1.271994e+003, 8.660001e+001
1.272476e+003, 8.585780e+001
1.272958e+003, 8.560326e+001
1.273440e+003, 8.610452e+001
1.273922e+003, 8.656705e+001
1.274405e+003, 8.630679e+001
1.274887e+003, 8.594014e+001
1.275369e+003, 8.577196e+001
1.275851e+003, 8.580981e+001
1.276333e+003, 8.624450e+001
1.276815e+003, 8.693574e+001
1.277297e+003, 8.705521e+001
1.277779e+003, 8.640325e+001
1.278261e+003, 8.590664e+001
1.278744e+003, 8.620290e+001
1.279226e+003, 8.658083e+001
1.279708e+003, 8.687098e+001
1.280190e+003, 8.697231e+001
1.280672e+003, 8.646188e+001
1.281154e+003, 8.565842e+001
1.281636e+003, 8.546486e+001
1.282118e+003, 8.600230e+001
1.282600e+003, 8.643842e+001
1.283083e+003, 8.650130e+001
1.283565e+003, 8.646974e+001
1.284047e+003, 8.636728e+001
1.284529e+003, 8.628483e+001
1.285011e+003, 8.637872e+001
1.285493e+003, 8.656523e+001
1.285975e+003, 8.675247e+001
1.286457e+003, 8.692097e+001
1.286939e+003, 8.695084e+001
1.287422e+003, 8.682479e+001
1.287904e+003, 8.659963e+001
1.288386e+003, 8.625187e+001
1.288868e+003, 8.597691e+001
1.289350e+003, 8.596160e+001
1.289832e+003, 8.614478e+001
1.290314e+003, 8.663032e+001
1.290796e+003, 8.727237e+001
1.291279e+003, 8.742832e+001
1.291761e+003, 8.704153e+001
1.292243e+003, 8.673016e+001
1.292725e+003, 8.657935e+001
1.293207e+003, 8.649796e+001
1.293689e+003, 8.637391e+001
1.294171e+003, 8.633147e+001
1.294653e+003, 8.652485e+001
1.295135e+003, 8.682310e+001
1.295618e+003, 8.701906e+001
1.296100e+003, 8.711967e+001
1.296582e+003, 8.716628e+001
1.297064e+003, 8.717791e+001
1.297546e+003, 8.726692e+001
1.298028e+003, 8.772511e+001
1.298510e+003, 8.790550e+001
1.298992e+003, 8.750505e+001
1.299475e+003, 8.694348e+001
1.299957e+003, 8.676331e+001
1.300439e+003, 8.686940e+001
1.300921e+003, 8.697392e+001
1.301403e+003, 8.708036e+001
1.301885e+003, 8.730156e+001
##END=



