##NAMES=Famatinite
##RRUFFID=R110021
##IDEAL CHEMISTRY=Cu^1+^Cu^2+^_2_Sb^3+^S^2-^_4_
##LOCALITY=Mohawk mine, Goldfield, Esmeralda County, Nevada, USA
##OWNER=RRUFF
##SOURCE=William Pinch
##DESCRIPTION=Pinkish grey, metallic massive associated with dark grey metallic massive to granular goldfieldite, R110023
##STATUS=The identification of this mineral is confirmed by single-crystal X-ray diffraction and chemical analysis.
##URL=rruff.info/R110021
##MEASURED CHEMISTRY=Cu_3.02_(Sb_0.53_As_0.48_)_Î£=1.01_S_4_
176.8520, 12.36759
177.3341, 11.27968
177.8163, 10.33671
178.2984, 9.932445
178.7805, 9.824495
179.2626, 9.682481
179.7447, 9.503134
180.2268, 9.295327
180.7090, 8.852838
181.1911, 8.337296
181.6732, 8.270965
182.1553, 9.557460
182.6374, 11.36992
183.1195, 11.67582
183.6017, 10.24031
184.0838, 8.434586
184.5659, 7.806346
185.0480, 8.196496
185.5301, 8.789763
186.0123, 9.298110
186.4944, 9.715436
186.9765, 9.995092
187.4586, 10.13144
187.9407, 10.16129
188.4228, 10.03601
188.9050, 9.782271
189.3871, 9.694031
189.8692, 10.22181
190.3513, 11.14608
190.8334, 11.18193
191.3155, 10.05398
191.7977, 8.592656
192.2798, 8.184267
192.7619, 8.823612
193.2440, 9.587068
193.7261, 10.03768
194.2082, 10.19371
194.6904, 10.27516
195.1725, 10.28346
195.6546, 10.24171
196.1367, 10.24179
196.6188, 10.30099
197.1009, 10.19611
197.5831, 9.679476
198.0652, 8.749352
198.5473, 8.155775
199.0294, 8.013381
199.5115, 8.118953
199.9937, 7.956430
200.4758, 7.438176
200.9579, 7.204230
201.4400, 7.868982
201.9221, 9.547826
202.4042, 10.40474
202.8864, 10.06814
203.3685, 9.127701
203.8506, 9.092114
204.3327, 10.19381
204.8148, 11.25394
205.2969, 11.56432
205.7791, 11.01036
206.2612, 10.55109
206.7433, 10.25968
207.2254, 10.07955
207.7075, 9.837621
208.1896, 9.473314
208.6718, 9.221066
209.1539, 9.326233
209.6360, 9.951718
210.1181, 10.01279
210.6002, 9.130422
211.0823, 7.824443
211.5645, 7.652493
212.0466, 8.954340
212.5287, 10.58683
213.0108, 12.15119
213.4929, 13.93991
213.9750, 14.44064
214.4572, 12.99996
214.9393, 10.45265
215.4214, 9.336864
215.9035, 10.18779
216.3856, 11.37729
216.8678, 11.97898
217.3499, 11.74426
217.8320, 11.82394
218.3141, 12.54142
218.7962, 13.52892
219.2783, 13.49485
219.7605, 11.90916
220.2426, 10.26719
220.7247, 9.357827
221.2068, 9.333667
221.6889, 9.644640
222.1710, 10.45567
222.6532, 11.54344
223.1353, 12.19530
223.6174, 12.37259
224.0995, 12.19192
224.5816, 11.61881
225.0637, 10.31479
225.5459, 9.481237
226.0280, 9.278250
226.5101, 9.538758
226.9922, 9.766287
227.4743, 9.930949
227.9564, 10.11262
228.4386, 10.36425
228.9207, 10.73573
229.4028, 11.04653
229.8849, 11.29702
230.3670, 11.48538
230.8492, 11.59789
231.3313, 11.55949
231.8134, 11.55684
232.2955, 11.70107
232.7776, 12.12721
233.2597, 12.38686
233.7419, 12.48739
234.2240, 12.41847
234.7061, 12.08194
235.1882, 11.12375
235.6703, 10.43619
236.1524, 10.51354
236.6346, 12.03024
237.1167, 12.72091
237.5988, 12.22122
238.0809, 11.03562
238.5630, 10.34752
239.0451, 10.43744
239.5273, 10.61114
240.0094, 10.57858
240.4915, 10.22123
240.9736, 9.953020
241.4557, 9.720778
241.9378, 9.597692
242.4200, 9.780686
242.9021, 10.54201
243.3842, 11.18747
243.8663, 11.41613
244.3484, 11.03287
244.8306, 10.81620
245.3127, 10.80409
245.7948, 10.93929
246.2769, 11.13280
246.7590, 11.43216
247.2411, 11.71045
247.7233, 11.99157
248.2054, 12.41457
248.6875, 12.22569
249.1696, 10.86972
249.6517, 9.274582
250.1338, 9.083915
250.6160, 11.14843
251.0981, 13.09205
251.5802, 14.13144
252.0623, 14.10267
252.5444, 14.04198
253.0265, 13.90975
253.5087, 13.77866
253.9908, 13.76687
254.4729, 13.94348
254.9550, 14.09634
255.4371, 14.13901
255.9192, 14.04111
256.4014, 14.12703
256.8835, 14.63681
257.3656, 15.09179
257.8477, 14.74651
258.3298, 12.92953
258.8120, 11.84684
259.2941, 12.28834
259.7762, 14.38741
260.2583, 15.77890
260.7404, 16.33873
261.2225, 16.36139
261.7047, 16.14298
262.1868, 15.64592
262.6689, 14.95006
263.1510, 13.76132
263.6331, 12.13606
264.1152, 12.12028
264.5974, 14.48422
265.0795, 17.27048
265.5616, 18.46064
266.0437, 17.59007
266.5258, 16.70192
267.0079, 16.06772
267.4901, 15.70001
267.9722, 15.82875
268.4543, 16.62902
268.9364, 17.57917
269.4185, 18.28463
269.9006, 18.73083
270.3828, 18.97720
270.8649, 18.95379
271.3470, 18.74517
271.8291, 18.78476
272.3112, 19.15714
272.7933, 19.55676
273.2755, 19.78974
273.7576, 19.86187
274.2397, 19.67533
274.7218, 19.02209
275.2039, 18.21528
275.6860, 18.40255
276.1682, 19.87092
276.6503, 21.25990
277.1324, 21.51315
277.6145, 20.50422
278.0966, 20.07228
278.5787, 20.47562
279.0609, 21.38907
279.5430, 22.18150
280.0251, 22.85913
280.5072, 23.35527
280.9893, 23.68374
281.4715, 23.84214
281.9536, 23.55344
282.4357, 22.69221
282.9178, 21.60130
283.3999, 20.94232
283.8820, 20.74612
284.3642, 20.41460
284.8463, 19.53441
285.3284, 18.16888
285.8105, 17.13787
286.2926, 16.48502
286.7747, 16.01948
287.2569, 15.44440
287.7390, 14.76999
288.2211, 14.28166
288.7032, 14.37480
289.1853, 14.79222
289.6674, 14.10110
290.1496, 12.11752
290.6317, 10.20687
291.1138, 10.25252
291.5959, 11.96093
292.0780, 13.27365
292.5602, 13.37531
293.0423, 12.68599
293.5244, 12.18110
294.0065, 11.86315
294.4886, 11.74437
294.9707, 11.96907
295.4529, 12.43294
295.9350, 12.72578
296.4171, 12.60701
296.8992, 12.39103
297.3813, 12.84853
297.8634, 13.90143
298.3456, 14.67855
298.8277, 14.14925
299.3098, 12.86686
299.7919, 12.10344
300.2740, 12.30508
300.7561, 12.80831
301.2383, 12.62889
301.7204, 11.92792
302.2025, 11.45219
302.6846, 12.00324
303.1667, 12.97988
303.6488, 13.40796
304.1310, 12.99542
304.6131, 12.46288
305.0952, 12.57997
305.5773, 13.16092
306.0594, 13.70160
306.5415, 13.82829
307.0237, 13.83562
307.5058, 14.09505
307.9879, 14.68291
308.4700, 15.21864
308.9521, 15.19183
309.4343, 14.93684
309.9164, 15.03920
310.3985, 16.15870
310.8806, 17.45672
311.3627, 18.29072
311.8448, 18.63560
312.3270, 18.82327
312.8091, 18.83965
313.2912, 18.87947
313.7733, 19.17277
314.2554, 19.80198
314.7375, 20.70387
315.2197, 21.99948
315.7018, 23.63946
316.1839, 25.12893
316.6660, 26.25343
317.1481, 27.13536
317.6302, 27.83174
318.1124, 27.83002
318.5945, 28.30564
319.0766, 29.95533
319.5587, 32.47359
320.0408, 34.81923
320.5229, 36.69709
321.0051, 38.29115
321.4872, 39.65779
321.9693, 40.53832
322.4514, 41.66817
322.9335, 43.18238
323.4156, 45.04434
323.8978, 47.18378
324.3799, 50.16707
324.8620, 52.92323
325.3441, 55.08681
325.8262, 56.54283
326.3083, 57.61885
326.7905, 58.16986
327.2726, 58.41059
327.7547, 58.59939
328.2368, 58.97821
328.7189, 59.07048
329.2010, 59.00119
329.6832, 58.87051
330.1653, 57.49784
330.6474, 54.29250
331.1295, 50.27328
331.6116, 46.18393
332.0938, 41.80384
332.5759, 37.66925
333.0580, 33.72737
333.5401, 30.02691
334.0222, 27.28776
334.5043, 26.03429
334.9865, 24.98534
335.4686, 23.31217
335.9507, 20.66793
336.4328, 18.27617
336.9149, 16.01304
337.3970, 14.10424
337.8792, 13.42531
338.3613, 14.47291
338.8434, 15.31732
339.3255, 14.85752
339.8076, 12.80708
340.2898, 11.75858
340.7719, 11.99093
341.2540, 12.72787
341.7361, 12.75926
342.2182, 12.00095
342.7003, 11.32949
343.1825, 11.00714
343.6646, 11.02259
344.1467, 11.41273
344.6288, 12.24686
345.1109, 13.12213
345.5930, 13.64844
346.0752, 13.84017
346.5573, 13.94823
347.0394, 14.13295
347.5215, 14.18569
348.0036, 13.33638
348.4857, 11.61814
348.9679, 10.22664
349.4500, 10.20250
349.9321, 11.21074
350.4142, 12.32817
350.8963, 13.48379
351.3784, 14.52964
351.8606, 15.25015
352.3427, 15.67603
352.8248, 15.93170
353.3069, 15.93673
353.7890, 15.86572
354.2711, 16.02423
354.7533, 16.46944
355.2354, 16.82938
355.7175, 16.53719
356.1996, 15.96456
356.6817, 15.75979
357.1638, 16.61165
357.6460, 17.63160
358.1281, 18.06544
358.6102, 17.95342
359.0923, 17.93112
359.5744, 18.65590
360.0565, 19.51174
360.5387, 19.89270
361.0208, 19.42354
361.5029, 18.70814
361.9850, 17.64544
362.4671, 16.47831
362.9492, 15.97721
363.4314, 17.24227
363.9135, 18.63978
364.3956, 19.20208
364.8777, 18.39776
365.3598, 17.71646
365.8419, 17.55063
366.3241, 17.67832
366.8062, 17.76950
367.2883, 17.75600
367.7704, 17.72301
368.2526, 17.73487
368.7347, 17.83524
369.2168, 17.71723
369.6989, 17.00188
370.1810, 16.29836
370.6631, 16.13312
371.1453, 17.13515
371.6274, 17.73710
372.1095, 17.67217
372.5916, 17.02664
373.0737, 16.36243
373.5558, 15.59419
374.0380, 14.92514
374.5201, 14.48522
375.0022, 14.36133
375.4843, 14.17331
375.9664, 13.83937
376.4485, 13.49691
376.9307, 13.48762
377.4128, 13.92235
377.8949, 14.22117
378.3770, 14.14382
378.8591, 13.70417
379.3412, 13.05284
379.8234, 12.11378
380.3055, 11.25019
380.7876, 10.94539
381.2697, 11.16907
381.7518, 11.44627
382.2339, 11.71275
382.7161, 11.90656
383.1982, 11.87136
383.6803, 11.61092
384.1624, 11.21756
384.6445, 10.60898
385.1266, 9.925241
385.6088, 9.571573
386.0909, 9.690294
386.5730, 9.893129
387.0551, 9.567657
387.5372, 8.929732
388.0193, 8.595563
388.5015, 9.141806
388.9836, 10.02387
389.4657, 10.67093
389.9478, 11.04772
390.4299, 11.35398
390.9120, 11.94119
391.3942, 12.47176
391.8763, 12.51427
392.3584, 11.40709
392.8405, 10.26846
393.3226, 9.674379
393.8047, 9.542642
394.2869, 9.497304
394.7690, 9.502675
395.2511, 9.473623
395.7332, 9.340374
396.2154, 9.005350
396.6975, 8.749006
397.1796, 8.588759
397.6617, 8.548944
398.1438, 8.669031
398.6259, 9.268091
399.1081, 9.722121
399.5902, 9.812943
400.0723, 9.481262
400.5544, 9.188174
401.0365, 8.816854
401.5186, 8.570870
402.0008, 8.673403
402.4829, 9.546324
402.9650, 9.941679
403.4471, 9.503718
403.9292, 8.485190
404.4113, 8.000272
404.8935, 8.241381
405.3756, 8.564027
405.8577, 8.594808
406.3398, 8.267875
406.8219, 8.175329
407.3040, 8.400587
407.7862, 8.713284
408.2683, 8.780654
408.7504, 8.597890
409.2325, 8.320953
409.7146, 7.845183
410.1967, 7.352314
410.6789, 7.596152
411.1610, 8.605891
411.6431, 9.594690
412.1252, 9.655831
412.6073, 9.135348
413.0894, 9.104831
413.5716, 9.964291
414.0537, 10.95263
414.5358, 11.05211
415.0179, 10.47141
415.5000, 9.895056
415.9821, 9.730127
416.4643, 9.744534
416.9464, 9.661695
417.4285, 9.447542
417.9106, 9.371665
418.3927, 9.845728
418.8748, 10.47815
419.3570, 10.79616
419.8391, 10.52861
420.3212, 10.02954
420.8033, 9.283500
421.2854, 8.373920
421.7675, 7.672231
422.2497, 7.291915
422.7318, 7.147861
423.2139, 7.229676
423.6960, 7.657534
424.1781, 8.041335
424.6602, 8.361758
425.1424, 8.607601
425.6245, 8.747479
426.1066, 8.510613
426.5887, 8.518443
427.0709, 9.042404
427.5530, 10.08188
428.0351, 10.68737
428.5172, 10.75884
428.9993, 10.54041
429.4814, 10.17727
429.9636, 9.638012
430.4457, 9.056596
430.9278, 8.396599
431.4099, 7.746956
431.8920, 7.328393
432.3741, 7.161095
432.8563, 7.039372
433.3384, 6.835416
433.8205, 6.581410
434.3026, 6.469851
434.7847, 6.490033
435.2668, 6.722527
435.7490, 7.424271
436.2311, 8.446193
436.7132, 9.237741
437.1953, 9.650859
437.6774, 9.774730
438.1595, 9.643088
438.6417, 9.302373
439.1238, 8.944628
439.6059, 8.587642
440.0880, 8.322606
440.5701, 8.323260
441.0522, 8.659465
441.5344, 8.892439
442.0165, 8.481013
442.4986, 7.892533
442.9807, 7.702607
443.4628, 8.505397
443.9449, 9.346119
444.4271, 9.999897
444.9092, 10.42886
445.3913, 10.45553
445.8734, 9.559432
446.3555, 8.613709
446.8376, 8.034499
447.3198, 7.870249
447.8019, 8.062713
448.2840, 9.113903
448.7661, 10.30273
449.2482, 10.55382
449.7303, 9.130576
450.2125, 8.027693
450.6946, 7.776088
451.1767, 8.301590
451.6588, 8.426516
452.1409, 7.908267
452.6230, 7.553390
453.1052, 8.202817
453.5873, 10.00220
454.0694, 10.81141
454.5515, 10.24314
455.0337, 9.086425
455.5158, 8.652864
455.9979, 8.897511
456.4800, 9.216655
456.9621, 9.432698
457.4442, 9.522477
457.9264, 9.324710
458.4085, 8.854465
458.8906, 8.500569
459.3727, 8.749773
459.8548, 9.285087
460.3369, 9.589255
460.8191, 9.512548
461.3012, 9.282596
461.7833, 8.879552
462.2654, 8.464182
462.7475, 8.370748
463.2296, 9.340513
463.7118, 10.18141
464.1939, 10.04622
464.6760, 8.870803
465.1581, 7.929987
465.6402, 7.636636
466.1223, 7.718239
466.6045, 7.991678
467.0866, 8.847132
467.5687, 9.376465
468.0508, 9.310636
468.5329, 8.911011
469.0150, 8.774703
469.4972, 9.158955
469.9793, 9.414735
470.4614, 9.280931
470.9435, 8.728171
471.4256, 8.378189
471.9077, 8.253350
472.3899, 8.286578
472.8720, 8.519651
473.3541, 8.997288
473.8362, 9.100128
474.3183, 8.613798
474.8004, 7.918513
475.2826, 7.818656
475.7647, 8.276185
476.2468, 8.752336
476.7289, 9.002486
477.2110, 9.071974
477.6931, 9.023409
478.1753, 8.858517
478.6574, 8.677988
479.1395, 8.491312
479.6216, 8.362346
480.1037, 8.434978
480.5858, 8.941766
481.0680, 9.289064
481.5501, 8.956481
482.0322, 8.171869
482.5143, 7.410490
482.9964, 6.515786
483.4786, 5.981914
483.9607, 6.296420
484.4428, 7.568227
484.9249, 8.332164
485.4070, 7.691094
485.8892, 6.824202
486.3713, 6.578468
486.8534, 7.544834
487.3355, 8.281856
487.8176, 8.714498
488.2997, 8.911207
488.7819, 8.995955
489.2640, 8.886724
489.7461, 8.862963
490.2282, 9.096536
490.7103, 9.555056
491.1924, 9.604987
491.6746, 9.181731
492.1567, 8.619051
492.6388, 8.126651
493.1209, 7.715985
493.6030, 7.538470
494.0851, 7.617517
494.5673, 7.912354
495.0494, 8.557333
495.5315, 9.419113
496.0136, 9.993408
496.4957, 9.895364
496.9778, 9.481537
497.4600, 9.095898
497.9421, 8.743406
498.4242, 8.425279
498.9063, 8.111348
499.3884, 7.847016
499.8705, 7.704201
500.3527, 7.810794
500.8348, 7.756445
501.3169, 6.972365
501.7990, 6.054818
502.2811, 5.845541
502.7632, 7.303874
503.2454, 8.619779
503.7275, 9.508418
504.2096, 9.963273
504.6917, 9.869206
505.1738, 8.786362
505.6559, 7.754429
506.1381, 7.341027
506.6202, 7.677411
507.1023, 8.197768
507.5844, 9.095368
508.0665, 9.831236
508.5486, 9.360211
509.0308, 7.638894
509.5129, 6.609196
509.9950, 7.021288
510.4771, 8.173864
510.9592, 8.501441
511.4413, 8.082747
511.9235, 7.695752
512.4056, 7.891447
512.8877, 8.406292
513.3698, 8.929264
513.8519, 9.450659
514.3340, 9.758371
514.8162, 9.477429
515.2983, 8.974157
515.7804, 8.694850
516.2625, 8.962282
516.7446, 9.234417
517.2267, 9.269409
517.7089, 9.147017
518.1910, 9.061695
518.6731, 9.120524
519.1552, 9.161573
519.6373, 9.162213
520.1194, 9.138999
520.6016, 8.902212
521.0837, 8.240465
521.5658, 7.603742
522.0479, 7.305760
522.5300, 7.379413
523.0121, 7.736998
523.4943, 8.518419
523.9764, 9.385369
524.4585, 9.698724
524.9406, 9.444561
525.4227, 9.054083
525.9048, 8.561769
526.3870, 8.098335
526.8691, 8.102641
527.3513, 8.540188
527.8334, 8.889727
528.3155, 8.638182
528.7976, 8.116684
529.2797, 7.776257
529.7618, 7.665053
530.2440, 7.769700
530.7261, 8.370131
531.2082, 9.090724
531.6903, 9.440250
532.1724, 8.766515
532.6545, 8.224070
533.1367, 8.299895
533.6188, 8.826066
534.1009, 9.198624
534.5830, 9.475022
535.0651, 9.427113
535.5472, 8.786909
536.0294, 7.353958
536.5115, 6.808637
536.9936, 7.560302
537.4757, 8.627028
537.9578, 9.251358
538.4399, 9.421625
538.9221, 9.173544
539.4042, 8.348027
539.8863, 7.383761
540.3684, 7.158546
540.8505, 7.609192
541.3326, 7.974223
541.8148, 7.831205
542.2969, 7.479177
542.7790, 7.472220
543.2611, 7.776174
543.7432, 8.113985
544.2253, 8.251342
544.7075, 8.352124
545.1896, 8.676238
545.6717, 9.346943
546.1538, 9.734336
546.6359, 9.311814
547.1180, 8.537028
547.6002, 7.900865
548.0823, 7.353531
548.5644, 7.141401
549.0465, 7.535037
549.5286, 8.306562
550.0107, 8.805902
550.4929, 9.000831
550.9750, 8.954559
551.4571, 8.532864
551.9392, 7.730661
552.4213, 7.688711
552.9034, 8.649169
553.3856, 9.610395
553.8677, 9.580534
554.3498, 8.669461
554.8319, 8.321198
555.3140, 8.810369
555.7961, 9.395226
556.2783, 8.755763
556.7604, 7.390004
557.2425, 6.767388
557.7246, 8.116996
558.2067, 9.725030
558.6888, 9.778011
559.1710, 8.644586
559.6531, 7.562663
560.1352, 7.017180
560.6173, 6.804228
561.0994, 6.888411
561.5815, 7.300078
562.0637, 7.673108
562.5458, 7.875023
563.0279, 8.052747
563.5100, 8.341573
563.9921, 9.102985
564.4742, 9.280192
564.9564, 8.496347
565.4385, 7.396081
565.9206, 7.178029
566.4027, 8.048581
566.8848, 8.780481
567.3669, 9.028363
567.8491, 8.884014
568.3312, 8.498721
568.8133, 7.888463
569.2954, 7.446182
569.7775, 7.627584
570.2596, 8.095468
570.7418, 8.130261
571.2239, 7.673409
571.7060, 7.352374
572.1881, 7.815115
572.6702, 8.595395
573.1523, 9.188315
573.6345, 9.433116
574.1166, 9.529310
574.5987, 9.429812
575.0808, 9.251101
575.5629, 9.185575
576.0450, 9.406318
576.5272, 9.591027
577.0093, 9.779192
577.4914, 9.917739
577.9735, 9.532844
578.4556, 8.218890
578.9377, 7.230752
579.4199, 7.425769
579.9020, 8.835938
580.3841, 9.283858
580.8662, 8.610149
581.3483, 7.827075
581.8304, 8.199164
582.3126, 9.342829
582.7947, 9.844244
583.2768, 9.293803
583.7589, 8.492632
584.2410, 8.343205
584.7231, 8.565665
585.2053, 8.606206
585.6874, 8.166667
586.1696, 7.542154
586.6517, 6.587169
587.1338, 5.486578
587.6159, 5.040695
588.0980, 6.011248
588.5801, 7.187545
589.0623, 8.073385
589.5444, 8.622306
590.0265, 9.176177
590.5086, 9.934880
590.9907, 10.44347
591.4728, 10.22006
591.9550, 9.102589
592.4371, 8.310812
592.9192, 7.957284
593.4013, 7.909793
593.8834, 8.135670
594.3655, 8.566936
594.8477, 8.750715
595.3298, 8.419937
595.8119, 7.923864
596.2940, 7.583227
596.7761, 7.448481
597.2582, 7.677674
597.7404, 9.061532
598.2225, 10.29508
598.7046, 10.15148
599.1867, 8.590296
599.6688, 7.558770
600.1509, 8.231533
600.6331, 9.178390
601.1152, 9.481898
601.5973, 8.763099
602.0794, 8.210917
602.5615, 7.754937
603.0436, 7.538226
603.5258, 7.858419
604.0079, 8.886849
604.4900, 9.500501
604.9721, 9.442469
605.4542, 8.988366
605.9363, 8.531736
606.4185, 8.108090
606.9006, 8.010526
607.3827, 8.592802
607.8648, 9.443213
608.3469, 10.01880
608.8290, 10.33417
609.3112, 10.43920
609.7933, 10.28858
610.2754, 9.995885
610.7575, 9.577066
611.2396, 9.005869
611.7217, 8.609111
612.2039, 8.547979
612.6860, 8.657120
613.1681, 8.821854
613.6502, 9.155532
614.1323, 9.340763
614.6144, 9.380857
615.0966, 9.264233
615.5787, 8.922754
616.0608, 8.312561
616.5429, 7.719324
617.0250, 7.078704
617.5071, 6.642501
617.9893, 7.357957
618.4714, 9.042132
618.9535, 10.24226
619.4356, 9.703251
619.9177, 8.543350
620.3998, 8.310629
620.8820, 8.912210
621.3641, 9.340429
621.8462, 8.769455
622.3283, 7.993062
622.8104, 7.617865
623.2925, 7.822260
623.7747, 7.997418
624.2568, 8.022041
624.7389, 7.980765
625.2210, 7.912115
625.7031, 7.647455
626.1852, 7.763812
626.6674, 8.434574
627.1495, 9.331770
627.6316, 10.00519
628.1137, 10.46314
628.5958, 10.42984
629.0779, 9.579006
629.5601, 8.475118
630.0422, 8.470375
630.5243, 9.313204
631.0064, 9.813222
631.4885, 8.719459
631.9706, 7.377086
632.4528, 7.182418
632.9349, 8.081760
633.4170, 8.941653
633.8991, 9.250809
634.3812, 9.379318
634.8633, 9.568345
635.3455, 9.914204
635.8276, 10.06332
636.3097, 9.849591
636.7918, 9.583871
637.2739, 9.548527
637.7560, 9.822301
638.2382, 10.02055
638.7203, 10.12519
639.2024, 10.11812
639.6845, 9.907187
640.1666, 9.522153
640.6487, 9.198886
641.1309, 8.946824
641.6130, 8.874102
642.0951, 9.317315
642.5772, 10.08822
643.0594, 10.63738
643.5415, 10.52034
644.0236, 10.26045
644.5057, 10.15994
644.9879, 10.21147
645.4700, 10.24224
645.9521, 10.06183
646.4342, 9.997892
646.9163, 10.31173
647.3984, 11.15957
647.8806, 11.24870
648.3627, 10.20861
648.8448, 9.106871
649.3269, 8.864161
649.8090, 9.482249
650.2911, 10.09367
650.7733, 10.69743
651.2554, 11.03613
651.7375, 10.49413
652.2196, 9.461369
652.7017, 8.937709
653.1838, 9.424305
653.6660, 10.05664
654.1481, 10.12220
654.6302, 9.876193
655.1123, 9.770412
655.5944, 10.06120
656.0765, 10.40117
656.5587, 10.78098
657.0408, 11.14374
657.5229, 11.25982
658.0050, 11.11059
658.4871, 10.72350
658.9692, 9.977044
659.4514, 8.939877
659.9335, 8.408469
660.4156, 8.416946
660.8977, 8.653777
661.3798, 9.064137
661.8619, 9.516630
662.3441, 9.568623
662.8262, 9.182887
663.3083, 8.866981
663.7904, 9.232566
664.2725, 9.786285
664.7546, 9.889215
665.2368, 9.098392
665.7189, 8.722823
666.2010, 9.906727
666.6831, 11.41868
667.1652, 11.79933
667.6473, 10.15939
668.1295, 8.781267
668.6116, 7.774864
669.0937, 7.136017
669.5758, 7.005004
670.0579, 7.458183
670.5400, 7.636741
671.0222, 7.136825
671.5043, 6.373032
671.9864, 6.234102
672.4685, 6.628270
672.9506, 7.102421
673.4327, 7.311709
673.9149, 7.550897
674.3970, 8.359433
674.8791, 9.594025
675.3612, 10.19525
675.8433, 9.100774
676.3254, 7.812914
676.8076, 7.087669
677.2897, 7.029446
677.7718, 7.193106
678.2539, 7.696494
678.7360, 8.254462
679.2181, 8.739014
679.7003, 9.170885
680.1824, 9.174500
680.6645, 8.637194
681.1466, 8.099285
681.6287, 8.368783
682.1108, 9.112447
682.5930, 9.334122
683.0751, 8.713709
683.5572, 7.974624
684.0393, 7.628410
684.5214, 7.578066
685.0035, 7.680521
685.4857, 7.943762
685.9678, 8.292614
686.4499, 8.925361
686.9320, 9.596709
687.4141, 9.778615
687.8962, 9.271148
688.3784, 8.623699
688.8605, 7.863542
689.3426, 7.086136
689.8247, 6.597730
690.3068, 6.394819
690.7889, 6.480143
691.2711, 6.986471
691.7532, 7.720614
692.2353, 8.334159
692.7174, 8.822902
693.1995, 9.194135
693.6816, 9.670990
694.1638, 9.869538
694.6459, 9.223263
695.1280, 7.645178
695.6101, 6.683707
696.0922, 7.276398
696.5743, 8.132673
697.0565, 8.593041
697.5386, 8.628575
698.0207, 8.371432
698.5028, 7.748770
698.9849, 6.988021
699.4670, 6.010209
699.9492, 4.923112
700.4313, 5.124843
700.9135, 6.980782
701.3956, 8.968307
701.8777, 9.447339
702.3598, 8.917039
702.8419, 8.134003
703.3240, 6.969363
703.8062, 6.279092
704.2883, 6.905304
704.7704, 8.171316
705.2525, 9.077806
705.7346, 9.304210
706.2167, 9.353062
706.6989, 9.216030
707.1810, 8.954804
707.6631, 8.641924
708.1452, 8.228652
708.6273, 8.120731
709.1094, 8.593653
709.5916, 9.298174
710.0737, 9.427296
710.5558, 9.046819
711.0379, 8.502537
711.5200, 7.705253
712.0021, 7.034122
712.4843, 6.978473
712.9664, 7.406102
713.4485, 7.609658
713.9306, 6.854189
714.4127, 6.242523
714.8948, 6.410722
715.3770, 7.372221
715.8591, 8.086161
716.3412, 8.519323
716.8233, 8.769810
717.3054, 8.892563
717.7875, 8.886109
718.2697, 8.605029
718.7518, 8.021311
719.2339, 7.512459
719.7160, 7.542128
720.1981, 7.808464
720.6802, 7.729876
721.1624, 7.188829
721.6445, 6.877375
722.1266, 7.613649
722.6087, 8.520963
723.0908, 8.792771
723.5729, 7.796111
724.0551, 7.203497
724.5372, 7.266447
725.0193, 7.592776
725.5014, 7.816766
725.9835, 7.935452
726.4656, 7.930056
726.9478, 7.738765
727.4299, 7.584402
727.9120, 8.017818
728.3941, 8.777175
728.8762, 8.920069
729.3583, 7.874237
729.8405, 6.815054
730.3226, 6.834010
730.8047, 7.480340
731.2868, 8.008218
731.7689, 8.209269
732.2510, 8.249935
732.7332, 8.030283
733.2153, 7.702964
733.6974, 7.627373
734.1795, 8.020381
734.6616, 8.008165
735.1437, 7.155723
735.6259, 5.958400
736.1080, 5.867308
736.5901, 6.760848
737.0722, 7.562251
737.5543, 7.683396
738.0364, 7.498984
738.5186, 7.389720
739.0007, 7.340714
739.4828, 7.295056
739.9649, 7.106700
740.4470, 7.032951
740.9291, 7.259552
741.4113, 7.762962
741.8934, 8.142532
742.3755, 8.390277
742.8576, 8.520864
743.3397, 8.472866
743.8218, 8.292974
744.3040, 8.477001
744.7861, 9.036973
745.2682, 9.427000
745.7503, 9.287843
746.2324, 8.729350
746.7145, 7.651862
747.1967, 6.123795
747.6788, 5.159421
748.1609, 5.899590
748.6430, 6.948813
749.1251, 7.412732
749.6072, 7.108424
750.0894, 6.633913
750.5715, 5.584982
751.0536, 4.938116
751.5357, 5.553871
752.0178, 7.607325
752.4999, 8.775869
752.9821, 8.994558
753.4642, 8.787081
753.9463, 8.506928
754.4284, 8.188564
754.9105, 7.902474
755.3926, 7.656557
755.8748, 7.427704
756.3569, 7.110105
756.8390, 6.853598
757.3211, 6.780754
757.8032, 6.898898
758.2853, 7.278410
758.7675, 8.260318
759.2496, 9.153831
759.7318, 9.214610
760.2139, 8.285781
760.6960, 7.767361
761.1781, 7.842889
761.6602, 8.091063
762.1423, 7.986533
762.6245, 7.655654
763.1066, 7.401443
763.5887, 7.296318
764.0708, 7.257952
764.5529, 7.284249
765.0350, 7.323633
765.5172, 7.314650
765.9993, 6.937570
766.4814, 6.963511
766.9635, 7.817528
767.4456, 8.788964
767.9277, 8.855223
768.4099, 7.854985
768.8920, 7.011986
769.3741, 6.521617
769.8562, 6.244263
770.3383, 5.885283
770.8204, 5.563233
771.3026, 5.641774
771.7847, 6.444077
772.2668, 7.278070
772.7489, 7.723929
773.2310, 7.882493
773.7131, 7.908014
774.1953, 7.742139
774.6774, 7.554783
775.1595, 7.284285
775.6416, 7.050513
776.1237, 7.099189
776.6058, 7.461836
777.0880, 7.891330
777.5701, 8.381377
778.0522, 8.806325
778.5343, 8.971541
779.0164, 8.894194
779.4985, 8.611024
779.9807, 7.938444
780.4628, 7.312263
780.9449, 7.058218
781.4270, 7.038777
781.9091, 6.960542
782.3912, 6.698222
782.8734, 6.452489
783.3555, 6.189129
783.8376, 5.988619
784.3197, 6.104024
784.8018, 6.566421
785.2839, 6.993171
785.7661, 7.283284
786.2482, 7.448104
786.7303, 7.484995
787.2124, 7.407809
787.6945, 7.257277
788.1766, 6.784923
788.6588, 6.513359
789.1409, 6.934320
789.6230, 7.765085
790.1051, 8.195883
790.5872, 7.892045
791.0693, 7.583025
791.5515, 7.395645
792.0336, 7.304688
792.5157, 7.260479
792.9978, 7.263328
793.4799, 7.239073
793.9620, 7.070484
794.4442, 6.965045
794.9263, 7.378893
795.4084, 8.119466
795.8905, 8.654565
796.3726, 8.572070
796.8547, 8.415513
797.3369, 8.477797
797.8190, 8.651952
798.3011, 8.547321
798.7832, 7.957232
799.2653, 7.487648
799.7474, 7.289474
800.2296, 7.303339
800.7117, 7.428001
801.1938, 7.646344
801.6759, 7.775187
802.1580, 7.760490
802.6401, 7.594057
803.1223, 6.940856
803.6044, 6.116589
804.0865, 5.949874
804.5686, 7.640033
805.0507, 9.044446
805.5328, 9.241619
806.0150, 8.668959
806.4971, 8.486994
806.9792, 8.884808
807.4613, 9.039992
807.9434, 8.621066
808.4255, 7.938116
808.9077, 7.798225
809.3898, 8.062222
809.8719, 8.089374
810.3540, 7.191752
810.8361, 6.378586
811.3182, 6.651673
811.8004, 7.610302
812.2825, 8.309484
812.7646, 8.623789
813.2467, 8.470461
813.7288, 7.561890
814.2109, 6.295465
814.6931, 5.716588
815.1752, 5.876395
815.6573, 6.228140
816.1394, 6.647008
816.6215, 7.124032
817.1037, 7.701109
817.5858, 8.323653
818.0679, 8.867128
818.5500, 9.669813
819.0322, 9.947233
819.5143, 8.691041
819.9964, 6.724857
820.4785, 5.834803
820.9606, 6.738683
821.4427, 7.548491
821.9249, 8.052197
822.4070, 8.247005
822.8891, 7.881967
823.3712, 7.047864
823.8533, 6.848133
824.3354, 7.901478
824.8176, 9.055827
825.2997, 8.748779
825.7818, 7.677594
826.2639, 7.043186
826.7460, 7.827031
827.2281, 8.380020
827.7103, 8.182415
828.1924, 7.620503
828.6745, 7.151099
829.1566, 6.760228
829.6387, 6.574093
830.1208, 6.688972
830.6030, 6.835298
831.0851, 6.410918
831.5672, 5.682089
832.0493, 5.460809
832.5314, 6.183532
833.0135, 6.872282
833.4957, 6.752324
833.9778, 6.260077
834.4599, 5.904039
834.9420, 5.795074
835.4241, 5.819020
835.9063, 5.947225
836.3884, 6.241743
836.8705, 6.892026
837.3526, 7.880517
837.8347, 8.562952
838.3168, 8.865382
838.7990, 8.863229
839.2811, 8.455400
839.7632, 7.874627
840.2453, 7.410629
840.7274, 7.076156
841.2095, 7.005576
841.6917, 7.518453
842.1738, 8.119483
842.6559, 8.447947
843.1380, 8.494541
843.6201, 8.181946
844.1022, 7.346171
844.5844, 6.716159
845.0665, 7.382646
845.5486, 8.757549
846.0307, 9.091986
846.5128, 8.213683
846.9949, 7.207669
847.4771, 6.725255
847.9592, 6.459075
848.4413, 6.109002
848.9234, 5.547289
849.4055, 5.553057
849.8876, 6.553273
850.3698, 7.450432
850.8519, 7.428153
851.3340, 6.600476
851.8161, 6.591101
852.2982, 7.393118
852.7803, 8.066869
853.2625, 7.699091
853.7446, 6.994632
854.2267, 6.540212
854.7088, 6.398598
855.1909, 6.792372
855.6730, 8.914079
856.1552, 10.36927
856.6373, 9.909336
857.1194, 7.867912
857.6015, 7.060577
858.0836, 7.622815
858.5657, 8.362257
859.0479, 8.816779
859.5300, 9.019088
860.0121, 8.927781
860.4942, 8.617040
860.9763, 8.345584
861.4584, 8.528437
861.9406, 8.492277
862.4227, 7.567555
862.9048, 6.148776
863.3869, 5.659775
863.8690, 6.556128
864.3511, 7.240364
864.8333, 7.308466
865.3154, 7.006403
865.7975, 6.826797
866.2796, 6.739115
866.7617, 6.591681
867.2438, 6.230929
867.7260, 5.962339
868.2081, 6.057140
868.6902, 6.383204
869.1723, 6.732128
869.6544, 7.205528
870.1365, 7.493874
870.6187, 7.534792
871.1008, 7.437936
871.5829, 7.283521
872.0650, 7.083817
872.5471, 7.168332
873.0292, 7.659332
873.5114, 8.059663
873.9935, 7.655550
874.4756, 6.947890
874.9577, 6.584177
875.4399, 6.769666
875.9220, 7.039518
876.4041, 7.470715
876.8862, 7.784295
877.3683, 7.727236
877.8505, 7.200180
878.3326, 7.065282
878.8147, 7.387686
879.2968, 7.629048
879.7789, 6.938194
880.2610, 6.019821
880.7432, 6.238770
881.2253, 7.629429
881.7074, 8.772731
882.1895, 9.053851
882.6716, 8.851880
883.1537, 8.140242
883.6359, 6.985981
884.1180, 6.461771
884.6001, 6.676085
885.0822, 7.060260
885.5643, 7.462297
886.0464, 7.776786
886.5286, 7.645507
887.0107, 7.168577
887.4928, 6.755929
887.9749, 6.633988
888.4570, 6.631258
888.9391, 6.697040
889.4213, 6.817292
889.9034, 6.961146
890.3855, 7.177912
890.8676, 7.274582
891.3497, 7.145291
891.8318, 6.973215
892.3140, 7.212423
892.7961, 7.732673
893.2782, 8.012097
893.7603, 7.846092
894.2424, 7.507850
894.7245, 6.829405
895.2067, 6.258197
895.6888, 6.362416
896.1709, 8.245366
896.6530, 9.097134
897.1351, 8.544206
897.6172, 7.533954
898.0994, 6.900886
898.5815, 6.649945
899.0636, 7.057329
899.5457, 8.193850
900.0278, 9.094980
900.5099, 8.724649
900.9921, 7.917763
901.4742, 7.356946
901.9563, 7.116580
902.4384, 7.305085
902.9205, 8.368571
903.4026, 9.195640
903.8848, 9.173738
904.3669, 8.417501
904.8490, 7.890066
905.3311, 7.585401
905.8132, 7.279470
906.2953, 6.584508
906.7775, 6.013108
907.2596, 6.282065
907.7417, 7.137716
908.2238, 7.683293
908.7059, 7.347605
909.1880, 7.061411
909.6702, 7.004650
910.1523, 7.119733
910.6344, 7.379447
911.1165, 7.774058
911.5986, 7.760366
912.0807, 7.024806
912.5629, 6.240631
913.0450, 6.266655
913.5271, 6.718629
914.0092, 7.013818
914.4913, 6.792030
914.9734, 6.775490
915.4556, 7.286410
915.9377, 7.837963
916.4198, 8.021013
916.9019, 7.829446
917.3840, 7.240046
917.8661, 6.187264
918.3483, 5.330176
918.8304, 5.220839
919.3125, 5.664785
919.7946, 6.732205
920.2767, 8.426386
920.7589, 9.370829
921.2410, 8.286466
921.7231, 7.258562
922.2052, 7.151899
922.6873, 7.851782
923.1694, 8.363597
923.6516, 8.678443
924.1337, 8.986725
924.6158, 9.606766
925.0979, 10.07552
925.5800, 9.472086
926.0621, 8.230906
926.5443, 7.429491
927.0264, 8.081736
927.5085, 8.379827
927.9906, 7.634051
928.4727, 6.569808
928.9548, 6.505168
929.4370, 7.482135
929.9191, 8.224776
930.4012, 8.494467
930.8833, 8.535563
931.3654, 8.646922
931.8475, 8.685537
932.3297, 8.363626
932.8118, 7.428321
933.2939, 6.889949
933.7761, 7.392941
934.2582, 7.948908
934.7403, 7.883199
935.2224, 7.169401
935.7045, 7.155165
936.1866, 7.870739
936.6688, 8.431210
937.1509, 8.123783
937.6330, 7.389024
938.1151, 6.488748
938.5972, 5.542763
939.0793, 5.091430
939.5615, 5.909106
940.0436, 6.475334
940.5257, 6.241572
941.0078, 5.602755
941.4899, 5.676747
941.9720, 6.437316
942.4542, 7.235933
942.9363, 8.002653
943.4184, 8.473025
943.9005, 7.993619
944.3826, 7.182194
944.8647, 6.946626
945.3469, 8.203741
945.8290, 8.648977
946.3111, 7.672682
946.7932, 6.422396
947.2753, 5.929587
947.7574, 6.146366
948.2396, 6.111977
948.7217, 5.790524
949.2038, 5.573781
949.6859, 5.826060
950.1680, 6.276483
950.6501, 6.777945
951.1323, 7.299797
951.6144, 7.555789
952.0965, 7.293074
952.5786, 7.177849
953.0607, 7.570436
953.5428, 8.142682
954.0250, 7.685483
954.5071, 6.400827
954.9892, 5.495549
955.4713, 5.608225
955.9534, 5.967589
956.4355, 6.114266
956.9177, 6.102809
957.3998, 5.995228
957.8819, 5.528881
958.3640, 5.533207
958.8461, 6.193145
959.3282, 6.989183
959.8104, 7.310725
960.2925, 7.303339
960.7746, 7.472124
961.2567, 7.858225
961.7388, 8.222878
962.2209, 8.573100
962.7031, 8.717271
963.1852, 8.359553
963.6673, 7.545732
964.1494, 7.242764
964.6315, 7.679220
965.1136, 7.798255
965.5958, 6.951901
966.0779, 5.820991
966.5600, 6.033364
967.0421, 7.132138
967.5242, 7.865507
968.0063, 7.527661
968.4885, 7.044953
968.9706, 6.563170
969.4527, 6.237978
969.9348, 6.275566
970.4169, 6.756732
970.8990, 7.226413
971.3812, 7.667179
971.8633, 8.039859
972.3454, 8.380955
972.8275, 8.586064
973.3096, 8.376665
973.7917, 7.741153
974.2739, 7.336790
974.7560, 7.880095
975.2381, 8.147050
975.7202, 7.487689
976.2023, 6.179060
976.6844, 5.566085
977.1666, 5.641167
977.6487, 6.229175
978.1308, 7.645860
978.6129, 8.917025
979.0950, 8.764588
979.5771, 7.833814
980.0593, 7.186090
980.5414, 7.106087
981.0235, 7.369544
981.5056, 8.230432
981.9877, 9.043103
982.4698, 9.041288
982.9520, 8.372262
983.4341, 7.997565
983.9162, 7.975340
984.3983, 7.924362
984.8804, 7.250873
985.3625, 6.712103
985.8447, 7.135956
986.3268, 8.453959
986.8089, 8.826143
987.2910, 7.835736
987.7731, 7.069705
988.2552, 7.109207
988.7374, 7.574892
989.2195, 7.768515
989.7016, 7.748713
990.1837, 7.650187
990.6658, 7.452868
991.1479, 7.313523
991.6301, 7.322085
992.1122, 7.406399
992.5944, 7.523545
993.0765, 7.713807
993.5586, 7.620343
994.0407, 7.185425
994.5228, 6.903632
995.0049, 7.544123
995.4871, 8.359815
995.9692, 8.183349
996.4513, 7.137065
996.9334, 6.386042
997.4155, 6.425912
997.8976, 6.684421
998.3798, 7.165127
998.8619, 7.677549
999.3440, 7.662778
999.8261, 7.189142
1000.308, 6.964151
1000.790, 7.280986
1001.272, 7.521501
1001.755, 6.933422
1002.237, 6.124106
1002.719, 5.767181
1003.201, 6.093183
1003.683, 6.375382
1004.165, 6.502418
1004.647, 6.875364
1005.129, 8.166242
1005.612, 9.829080
1006.094, 10.20994
1006.576, 9.483180
1007.058, 8.488740
1007.540, 7.152940
1008.022, 6.200096
1008.504, 6.078248
1008.986, 6.467676
1009.468, 6.950113
1009.951, 7.578504
1010.433, 7.770389
1010.915, 7.358503
1011.397, 6.872325
1011.879, 6.953375
1012.361, 7.288725
1012.843, 7.567328
1013.325, 7.773196
1013.807, 7.590628
1014.290, 6.558278
1014.772, 5.761425
1015.254, 5.809492
1015.736, 6.431451
1016.218, 6.413150
1016.700, 5.878145
1017.182, 5.540407
1017.664, 5.788729
1018.147, 6.244042
1018.629, 6.837185
1019.111, 7.414259
1019.593, 7.764612
1020.075, 7.909085
1020.557, 7.700449
1021.039, 7.042862
1021.521, 6.388352
1022.003, 6.108571
1022.486, 6.152487
1022.968, 6.584206
1023.450, 7.347637
1023.932, 7.866015
1024.414, 7.856078
1024.896, 7.602958
1025.378, 7.121033
1025.860, 6.517351
1026.343, 5.983363
1026.825, 5.553911
1027.307, 5.664528
1027.789, 6.553528
1028.271, 7.630045
1028.753, 8.831329
1029.235, 9.676098
1029.717, 9.453540
1030.199, 7.553350
1030.682, 6.514617
1031.164, 6.556077
1031.646, 6.826136
1032.128, 6.760907
1032.610, 6.546902
1033.092, 6.731018
1033.574, 7.208301
1034.056, 7.587195
1034.539, 7.534149
1035.021, 7.546965
1035.503, 7.889161
1035.985, 8.309428
1036.467, 8.461263
1036.949, 8.336854
1037.431, 8.268825
1037.913, 8.319630
1038.396, 8.154026
1038.878, 7.024084
1039.360, 5.855624
1039.842, 5.608797
1040.324, 6.369073
1040.806, 7.065268
1041.288, 7.844122
1041.770, 8.022471
1042.252, 7.157562
1042.734, 5.880235
1043.217, 5.499541
1043.699, 5.764178
1044.181, 5.997388
1044.663, 5.923765
1045.145, 5.968402
1045.627, 6.648005
1046.109, 7.208757
1046.591, 6.939353
1047.074, 5.780679
1047.556, 5.444335
1048.038, 5.930185
1048.520, 6.485880
1049.002, 6.537412
1049.484, 6.501069
1049.966, 6.859962
1050.448, 7.421784
1050.931, 7.619813
1051.413, 7.310770
1051.895, 6.807446
1052.377, 6.019648
1052.859, 5.350307
1053.341, 5.288163
1053.823, 5.707463
1054.305, 6.514853
1054.787, 7.699987
1055.270, 8.438050
1055.752, 8.019238
1056.234, 7.425183
1056.716, 7.099455
1057.198, 6.938369
1057.680, 6.366727
1058.162, 5.444679
1058.644, 5.219746
1059.126, 6.345655
1059.609, 7.462019
1060.091, 7.151090
1060.573, 6.267995
1061.055, 5.765535
1061.537, 5.809995
1062.019, 5.955134
1062.501, 6.235773
1062.983, 6.489480
1063.466, 6.541374
1063.948, 6.528631
1064.430, 7.035885
1064.912, 7.720524
1065.394, 7.553022
1065.876, 4.531504
1066.358, 2.897404
1066.840, 3.964403
1067.323, 5.905969
1067.805, 6.380645
1068.287, 5.628373
1068.769, 5.278373
1069.251, 5.464352
1069.733, 5.967327
1070.215, 7.234284
1070.697, 8.221248
1071.179, 7.887160
1071.661, 6.614493
1072.144, 6.086982
1072.626, 6.431790
1073.108, 6.648091
1073.590, 6.403557
1074.072, 6.168060
1074.554, 6.656775
1075.036, 7.455743
1075.518, 8.069837
1076.001, 8.447590
1076.483, 8.421203
1076.965, 7.954275
1077.447, 7.152761
1077.929, 5.756880
1078.411, 4.256951
1078.893, 4.364698
1079.375, 5.633440
1079.858, 6.600575
1080.340, 6.268877
1080.822, 6.118454
1081.304, 7.145012
1081.786, 8.210069
1082.268, 8.079198
1082.750, 6.718065
1083.232, 6.336737
1083.714, 6.971614
1084.197, 7.466699
1084.679, 6.530595
1085.161, 5.563589
1085.643, 5.836398
1086.125, 6.960114
1086.607, 7.528465
1087.089, 7.334485
1087.571, 7.204393
1088.054, 7.265872
1088.536, 7.391837
1089.018, 7.637671
1089.500, 7.749152
1089.982, 7.095362
1090.464, 5.595510
1090.946, 4.931241
1091.428, 6.182625
1091.911, 7.032985
1092.393, 6.568849
1092.875, 5.466102
1093.357, 5.419473
1093.839, 6.112654
1094.321, 6.514259
1094.803, 6.209508
1095.285, 6.007484
1095.767, 6.427863
1096.250, 6.963126
1096.732, 7.304949
1097.214, 7.453685
1097.696, 7.500864
1098.178, 7.436934
1098.660, 7.076886
1099.142, 6.019693
1099.624, 4.991392
1100.106, 4.225829
1100.589, 3.990019
1101.071, 4.864102
1101.553, 7.621920
1102.035, 8.743831
1102.517, 7.959414
1102.999, 6.714695
1103.481, 5.885017
1103.963, 5.535892
1104.446, 6.135318
1104.928, 7.375844
1105.410, 8.003439
1105.892, 7.480858
1106.374, 6.645818
1106.856, 5.294717
1107.338, 4.263181
1107.820, 5.229182
1108.302, 7.268546
1108.785, 8.004869
1109.267, 7.165553
1109.749, 6.506303
1110.231, 7.193956
1110.713, 7.701255
1111.195, 7.350232
1111.677, 6.511456
1112.159, 6.292469
1112.641, 6.573186
1113.124, 6.522429
1113.606, 5.794947
1114.088, 5.297748
1114.570, 5.937422
1115.052, 6.818480
1115.534, 7.279267
1116.016, 7.318002
1116.498, 6.982794
1116.981, 6.252924
1117.463, 5.701845
1117.945, 5.584600
1118.427, 5.745556
1118.909, 6.251126
1119.391, 6.841924
1119.873, 7.113128
1120.355, 6.856757
1120.838, 6.949954
1121.320, 7.609503
1121.802, 7.682862
1122.284, 5.232466
1122.766, 2.428066
1123.248, 3.431473
1123.730, 6.785694
1124.212, 8.529099
1124.694, 5.318649
1125.177, 3.754102
1125.659, 4.729327
1126.141, 6.570603
1126.623, 7.737112
1127.105, 8.332530
1127.587, 8.591543
1128.069, 8.547932
1128.551, 8.306807
1129.033, 7.544388
1129.516, 7.078758
1129.998, 7.229860
1130.480, 7.672463
1130.962, 7.966955
1131.444, 8.081280
1131.926, 7.708566
1132.408, 6.773933
1132.890, 6.125879
1133.373, 6.666619
1133.855, 7.279236
1134.337, 7.283157
1134.819, 6.861773
1135.301, 6.677482
1135.783, 6.719716
1136.265, 6.566368
1136.747, 5.994792
1137.229, 5.671416
1137.712, 6.554065
1138.194, 7.656097
1138.676, 8.086890
1139.158, 7.835059
1139.640, 7.223268
1140.122, 6.176622
1140.604, 5.468779
1141.086, 5.506899
1141.569, 5.838778
1142.051, 6.145566
1142.533, 6.335028
1143.015, 6.238631
1143.497, 5.677725
1143.979, 5.374397
1144.461, 5.342873
1144.943, 5.523300
1145.426, 5.873885
1145.908, 6.416206
1146.390, 7.612773
1146.872, 8.947436
1147.354, 9.349645
1147.836, 7.425226
1148.318, 6.254738
1148.800, 6.145163
1149.282, 6.247393
1149.765, 5.613646
1150.247, 4.752774
1150.729, 5.075098
1151.211, 6.285703
1151.693, 7.064307
1152.175, 6.512514
1152.657, 6.017428
1153.139, 5.836604
1153.621, 5.752779
1154.104, 5.362055
1154.586, 5.551089
1155.068, 5.071156
1155.550, 5.965584
1156.032, 6.746125
1156.514, 7.285215
1156.996, 7.260399
1157.478, 6.307940
1157.961, 5.067183
1158.443, 4.629930
1158.925, 4.930399
1159.407, 5.842043
1159.889, 7.373309
1160.371, 8.389483
1160.853, 7.868681
1161.335, 6.961537
1161.818, 6.019804
1162.300, 5.249603
1162.782, 5.447188
1163.264, 6.512700
1163.746, 7.249887
1164.228, 7.401346
1164.710, 7.195016
1165.192, 6.564751
1165.674, 5.832629
1166.156, 5.139007
1166.639, 4.537155
1167.121, 4.535376
1167.603, 5.128436
1168.085, 5.387822
1168.567, 4.836233
1169.049, 4.412202
1169.531, 5.329148
1170.013, 6.495248
1170.496, 6.643386
1170.978, 5.731997
1171.460, 5.564678
1171.942, 6.177520
1172.424, 6.899195
1172.906, 7.670395
1173.388, 7.999568
1173.870, 6.692297
1174.353, 4.989429
1174.835, 4.765826
1175.317, 6.521722
1175.799, 7.116102
1176.281, 6.398200
1176.763, 5.769698
1177.245, 6.208827
1177.727, 6.938077
1178.209, 7.190361
1178.692, 7.074777
1179.174, 6.726918
1179.656, 5.946868
1180.138, 5.610430
1180.620, 5.788461
1181.102, 6.032538
1181.584, 6.083265
1182.066, 5.966706
1182.548, 5.554880
1183.031, 5.025627
1183.513, 4.802763
1183.995, 5.068388
1184.477, 5.358983
1184.959, 5.650845
1185.441, 5.998001
1185.923, 6.621695
1186.405, 7.210783
1186.888, 7.232992
1187.370, 6.826926
1187.852, 6.509811
1188.334, 6.381173
1188.816, 6.339235
1189.298, 6.382571
1189.780, 6.488582
1190.262, 6.701696
1190.745, 6.923716
1191.227, 7.016649
1191.709, 6.978573
1192.191, 6.832892
1192.673, 6.448083
1193.155, 6.216553
1193.637, 6.174788
1194.119, 6.343822
1194.601, 7.021938
1195.084, 7.789164
1195.566, 7.938920
1196.048, 7.456309
1196.530, 6.777587
1197.012, 5.587539
1197.494, 5.081681
1197.976, 5.674197
1198.458, 6.582778
1198.941, 6.675612
1199.423, 6.333345
1199.905, 6.073743
1200.387, 5.966393
1200.869, 6.400660
1201.351, 8.007256
1201.833, 9.001994
1202.315, 8.900644
1202.797, 8.087348
1203.280, 6.700454
1203.762, 5.240773
1204.244, 4.653738
1204.726, 5.118992
1205.208, 5.688170
1205.690, 6.435616
1206.172, 6.730366
1206.654, 6.197699
1207.136, 5.458485
1207.619, 5.700435
1208.101, 6.475564
1208.583, 6.981620
1209.065, 7.031236
1209.547, 7.257869
1210.029, 8.146908
1210.511, 8.316518
1210.993, 6.928524
1211.476, 5.101501
1211.958, 4.935384
1212.440, 5.780560
1212.922, 6.499052
1213.404, 6.836129
1213.886, 7.265637
1214.368, 8.021870
1214.850, 8.439384
1215.333, 8.128366
1215.815, 7.493022
1216.297, 7.289958
1216.779, 7.294751
1217.261, 7.098429
1217.743, 6.571309
1218.225, 5.939249
1218.707, 5.066900
1219.189, 4.533051
1219.672, 4.689051
1220.154, 5.234766
1220.636, 5.755137
1221.118, 6.215628
1221.600, 6.549576
1222.082, 6.704077
1222.564, 6.798551
1223.046, 6.773258
1223.528, 6.904191
1224.011, 7.517303
1224.493, 8.152125
1224.975, 7.810894
1225.457, 6.992182
1225.939, 6.567658
1226.421, 6.881227
1226.903, 7.272486
1227.385, 7.817750
1227.868, 8.146301
1228.350, 8.033069
1228.832, 7.603801
1229.314, 6.753323
1229.796, 5.829033
1230.278, 5.480004
1230.760, 6.138856
1231.242, 6.487529
1231.724, 6.495930
1232.207, 6.332147
1232.689, 5.808551
1233.171, 5.474902
1233.653, 6.559916
1234.135, 8.143844
1234.617, 8.551696
1235.099, 6.985054
1235.581, 6.397948
1236.063, 6.921554
1236.546, 7.545331
1237.028, 7.659922
1237.510, 7.542040
1237.992, 7.614688
1238.474, 7.602899
1238.956, 6.939009
1239.438, 5.303457
1239.920, 4.353730
1240.403, 4.126047
1240.885, 4.272305
1241.367, 4.523665
1241.849, 5.111649
1242.331, 6.792795
1242.813, 8.661422
1243.295, 9.315715
1243.777, 8.522163
1244.260, 7.673284
1244.742, 6.758881
1245.224, 6.077431
1245.706, 5.910617
1246.188, 5.924998
1246.670, 6.147573
1247.152, 6.252730
1247.634, 5.739456
1248.116, 4.520041
1248.599, 3.736668
1249.081, 3.415710
1249.563, 3.818214
1250.045, 5.985350
1250.527, 7.889892
1251.009, 8.355349
1251.491, 8.058583
1251.973, 7.523890
1252.455, 6.778533
1252.938, 6.576998
1253.420, 6.853471
1253.902, 7.027101
1254.384, 6.603941
1254.866, 6.248793
1255.348, 6.288996
1255.830, 6.410762
1256.313, 6.248650
1256.795, 5.903503
1257.277, 6.092050
1257.759, 6.726325
1258.241, 7.322332
1258.723, 8.099920
1259.205, 8.089345
1259.687, 6.588386
1260.169, 5.137965
1260.651, 5.340128
1261.134, 6.628113
1261.616, 7.384429
1262.098, 7.608245
1262.580, 7.399938
1263.062, 5.859326
1263.544, 5.510803
1264.026, 7.127123
1264.508, 8.605197
1264.991, 7.826910
1265.473, 5.894486
1265.955, 4.553835
1266.437, 3.866177
1266.919, 3.958241
1267.401, 5.824145
1267.883, 6.607206
1268.365, 6.048291
1268.848, 5.264916
1269.330, 4.919469
1269.812, 4.998590
1270.294, 5.820167
1270.776, 6.983180
1271.258, 7.553780
1271.740, 7.256638
1272.222, 7.105515
1272.704, 7.135705
1273.187, 7.107965
1273.669, 6.825760
1274.151, 6.445090
1274.633, 6.051277
1275.115, 5.674960
1275.597, 5.291373
1276.079, 4.821324
1276.561, 5.048849
1277.043, 5.950729
1277.526, 6.750820
1278.008, 7.013535
1278.490, 6.982852
1278.972, 6.520976
1279.454, 6.038128
1279.936, 5.969701
1280.418, 6.302593
1280.900, 6.837189
1281.383, 7.461023
1281.865, 7.465092
1282.347, 5.576819
1282.829, 4.331180
1283.311, 4.946680
1283.793, 6.046227
1284.275, 6.793182
1284.757, 7.157626
1285.240, 6.768644
1285.722, 5.872521
1286.204, 5.289384
1286.686, 5.633339
1287.168, 5.746277
1287.650, 5.395926
1288.132, 5.036789
1288.614, 4.807562
1289.096, 4.911216
1289.578, 6.220551
1290.061, 8.080425
1290.543, 9.152500
1291.025, 8.949378
1291.507, 8.016150
1291.989, 6.081892
1292.471, 4.711748
1292.953, 5.173321
1293.435, 6.186188
1293.918, 6.104030
1294.400, 6.713456
1294.882, 7.197774
1295.364, 7.224776
1295.846, 7.834301
1296.328, 7.764959
1296.810, 7.488605
1297.292, 7.014835
1297.775, 6.793019
1298.257, 7.512840
1298.739, 8.370975
1299.221, 8.595290
1299.703, 8.253445
1300.185, 8.017633
1300.667, 7.857375
1301.149, 7.570569
1301.631, 7.014105
1302.114, 6.514847
1302.596, 6.185020
##END=



