##NAMES=Famatinite
##RRUFFID=R110021
##IDEAL CHEMISTRY=Cu^1+^Cu^2+^_2_Sb^3+^S^2-^_4_
##LOCALITY=Mohawk mine, Goldfield, Esmeralda County, Nevada, USA
##OWNER=RRUFF
##SOURCE=William Pinch
##DESCRIPTION=Pinkish grey, metallic massive associated with dark grey metallic massive to granular goldfieldite, R110023
##STATUS=The identification of this mineral is confirmed by single-crystal X-ray diffraction and chemical analysis.
##URL=rruff.info/R110021
##MEASURED CHEMISTRY=Cu_3.02_(Sb_0.53_As_0.48_)_Î£=1.01_S_4_
178.3506, 16.00229
178.8328, 16.36147
179.3149, 16.53745
179.7970, 16.00217
180.2791, 15.28477
180.7612, 14.83701
181.2433, 14.82882
181.7255, 15.12957
182.2076, 15.52968
182.6897, 16.30973
183.1718, 16.62803
183.6539, 15.99237
184.1360, 15.02364
184.6181, 14.35617
185.1003, 14.30188
185.5824, 14.71245
186.0645, 15.06610
186.5466, 15.34171
187.0287, 15.57820
187.5108, 15.85714
187.9930, 16.08147
188.4751, 16.06191
188.9572, 15.67147
189.4393, 15.03549
189.9214, 14.87379
190.4035, 16.00834
190.8857, 16.70503
191.3678, 16.30849
191.8499, 15.27717
192.3320, 14.42241
192.8141, 14.24731
193.2962, 14.64989
193.7784, 14.84499
194.2605, 14.58018
194.7426, 14.42529
195.2247, 14.70436
195.7068, 15.27553
196.1889, 15.73024
196.6711, 15.81795
197.1532, 15.57640
197.6353, 15.29705
198.1174, 14.99602
198.5995, 14.64704
199.0816, 14.13696
199.5638, 13.50841
200.0459, 13.03759
200.5280, 12.83848
201.0101, 12.96839
201.4922, 13.46714
201.9743, 14.78015
202.4565, 16.01917
202.9386, 16.24013
203.4207, 15.41181
203.9028, 14.72454
204.3849, 15.05223
204.8670, 15.84367
205.3492, 16.30865
205.8313, 16.22611
206.3134, 15.87230
206.7955, 15.54706
207.2776, 15.24601
207.7597, 14.99504
208.2419, 14.76779
208.7240, 14.61095
209.2061, 14.63587
209.6882, 14.95516
210.1703, 15.31273
210.6524, 15.14161
211.1346, 14.07733
211.6167, 13.44724
212.0988, 13.83556
212.5809, 14.73437
213.0630, 15.81583
213.5451, 17.01316
214.0273, 18.05040
214.5094, 18.18203
214.9915, 16.67814
215.4736, 15.57701
215.9557, 15.34420
216.4378, 15.60285
216.9200, 16.00615
217.4021, 16.40186
217.8842, 16.82726
218.3663, 17.44315
218.8484, 18.94807
219.3305, 19.55315
219.8127, 18.35982
220.2948, 16.52527
220.7769, 15.24759
221.2590, 15.07216
221.7411, 15.70064
222.2232, 16.25805
222.7054, 16.72208
223.1875, 17.12854
223.6696, 17.65119
224.1517, 18.06084
224.6338, 17.99361
225.1159, 17.28321
225.5980, 16.21598
226.0802, 15.62569
226.5623, 15.91394
227.0444, 16.22383
227.5265, 16.57962
228.0086, 16.90095
228.4907, 17.02423
228.9729, 16.86686
229.4550, 16.60054
229.9371, 16.68989
230.4192, 17.36857
230.9013, 18.01057
231.3834, 18.55173
231.8656, 18.99198
232.3477, 19.32458
232.8298, 19.54333
233.3119, 19.66854
233.7940, 19.76368
234.2761, 19.95664
234.7583, 19.85011
235.2404, 18.90436
235.7225, 17.65890
236.2046, 17.16892
236.6867, 17.92881
237.1688, 19.19226
237.6510, 19.58097
238.1331, 18.98303
238.6152, 18.49595
239.0973, 18.65254
239.5794, 19.16894
240.0615, 19.40174
240.5437, 19.10143
241.0258, 18.63419
241.5079, 18.46388
241.9900, 18.56989
242.4721, 18.81267
242.9542, 19.27749
243.4364, 19.83929
243.9185, 20.13950
244.4006, 20.01049
244.8827, 19.78488
245.3648, 19.81996
245.8469, 20.08057
246.3290, 20.32688
246.8112, 20.38523
247.2933, 20.33325
247.7754, 20.47516
248.2575, 21.06124
248.7396, 21.46661
249.2217, 20.87756
249.7039, 19.62951
250.1860, 18.90514
250.6681, 19.79699
251.1502, 21.79959
251.6323, 23.00045
252.1144, 22.98366
252.5966, 22.66385
253.0787, 22.57303
253.5608, 22.63155
254.0429, 22.65268
254.5250, 22.42575
255.0071, 22.07355
255.4893, 22.10812
255.9714, 22.74271
256.4535, 23.44260
256.9356, 24.07819
257.4177, 24.59326
257.8998, 24.86213
258.3820, 24.69684
258.8641, 24.28857
259.3462, 24.33114
259.8283, 25.02938
260.3104, 25.87822
260.7925, 26.94080
261.2747, 27.97044
261.7568, 28.64750
262.2389, 28.81382
262.7210, 28.53968
263.2031, 27.90336
263.6852, 26.21427
264.1674, 25.41592
264.6495, 26.57597
265.1316, 28.45561
265.6137, 29.74101
266.0958, 29.85720
266.5779, 29.19628
267.0601, 28.62292
267.5422, 28.00754
268.0243, 27.75982
268.5064, 28.08520
268.9885, 28.65613
269.4706, 29.25743
269.9528, 29.80229
270.4349, 30.20770
270.9170, 30.29069
271.3991, 29.87901
271.8812, 29.46435
272.3633, 28.97765
272.8455, 28.56671
273.3276, 28.49128
273.8097, 28.75380
274.2918, 28.96430
274.7739, 28.40619
275.2560, 26.27072
275.7382, 25.12935
276.2202, 25.75885
276.7024, 26.58350
277.1845, 26.51506
277.6666, 25.46669
278.1487, 24.17424
278.6308, 23.56097
279.1129, 23.92393
279.5951, 23.94418
280.0772, 23.33808
280.5593, 22.69790
281.0414, 22.36628
281.5235, 22.32081
282.0056, 22.30333
282.4878, 22.05224
282.9699, 21.51189
283.4520, 21.13498
283.9341, 21.07075
284.4162, 20.99868
284.8983, 20.72015
285.3805, 20.31306
285.8626, 20.02589
286.3447, 20.08079
286.8268, 20.46744
287.3089, 20.53833
287.7910, 19.76670
288.2732, 19.26682
288.7553, 19.72152
289.2374, 20.66358
289.7195, 21.06485
290.2016, 20.22213
290.6837, 18.51293
291.1659, 18.07520
291.6480, 20.42135
292.1301, 22.26407
292.6122, 22.82416
293.0943, 22.62308
293.5764, 22.33372
294.0586, 22.25293
294.5407, 22.39837
295.0228, 22.82097
295.5049, 23.79993
295.9870, 24.73135
296.4691, 25.51218
296.9513, 26.27108
297.4334, 27.22054
297.9155, 28.41299
298.3976, 29.60483
298.8797, 30.35650
299.3618, 30.18548
299.8440, 30.49287
300.3261, 31.81067
300.8082, 33.26124
301.2903, 33.84138
301.7724, 33.48574
302.2545, 33.33553
302.7367, 34.85151
303.2188, 38.69849
303.7009, 41.66733
304.1830, 43.01257
304.6651, 44.18502
305.1472, 45.92078
305.6294, 48.32393
306.1115, 51.34395
306.5936, 55.03694
307.0757, 59.47618
307.5578, 63.33881
308.0399, 66.33202
308.5221, 69.16003
309.0042, 71.96565
309.4863, 74.84054
309.9684, 78.01965
310.4505, 81.75132
310.9326, 85.83204
311.4148, 88.65768
311.8969, 89.34447
312.3790, 90.02683
312.8611, 91.29875
313.3432, 92.87803
313.8253, 94.28022
314.3075, 95.27269
314.7896, 96.01488
315.2717, 96.93196
315.7538, 98.61720
316.2359, 99.61495
316.7180, 99.32993
317.2001, 98.51152
317.6823, 97.96246
318.1644, 97.91483
318.6465, 98.11343
319.1286, 98.21339
319.6107, 98.32607
320.0928, 97.97530
320.5750, 97.20583
321.0571, 95.96034
321.5392, 93.99023
322.0213, 91.37483
322.5034, 88.65321
322.9855, 86.42947
323.4677, 84.81718
323.9498, 82.67513
324.4319, 79.71897
324.9140, 76.58212
325.3961, 73.74017
325.8782, 71.02463
326.3604, 67.76962
326.8425, 63.41277
327.3246, 58.10563
327.8067, 53.48743
328.2888, 49.52020
328.7709, 46.16082
329.2531, 43.77866
329.7352, 41.94788
330.2173, 40.01334
330.6994, 37.66462
331.1815, 35.03713
331.6636, 32.47331
332.1458, 29.72794
332.6279, 27.37864
333.1100, 25.40879
333.5921, 23.87068
334.0742, 22.96753
334.5563, 22.71812
335.0385, 22.69384
335.5206, 22.27388
336.0027, 21.27178
336.4848, 20.31511
336.9669, 19.20202
337.4490, 18.27371
337.9312, 17.89782
338.4133, 17.99170
338.8954, 18.05463
339.3775, 17.56454
339.8596, 16.42672
340.3417, 15.93087
340.8239, 16.66152
341.3060, 17.33517
341.7881, 17.39486
342.2702, 17.05388
342.7523, 16.79465
343.2344, 16.91396
343.7166, 17.35310
344.1987, 17.82768
344.6808, 18.50495
345.1629, 19.01945
345.6450, 19.31084
346.1271, 19.42983
346.6093, 19.45466
347.0914, 19.41035
347.5735, 19.22459
348.0556, 18.70643
348.5377, 17.34204
349.0198, 16.60300
349.5020, 16.74439
349.9841, 17.22291
350.4662, 17.78394
350.9483, 18.33435
351.4304, 18.81918
351.9125, 19.19883
352.3947, 19.50177
352.8768, 19.49933
353.3589, 18.83757
353.8410, 18.22527
354.3231, 17.93808
354.8052, 17.89545
355.2874, 17.87007
355.7695, 17.69353
356.2516, 17.42451
356.7337, 17.41389
357.2158, 17.98799
357.6979, 18.37765
358.1800, 18.30576
358.6621, 18.05033
359.1443, 17.95381
359.6264, 18.14602
360.1085, 18.41534
360.5906, 18.37660
361.0727, 17.94693
361.5548, 17.41227
362.0370, 16.46085
362.5191, 15.67587
363.0012, 15.60267
363.4833, 16.18625
363.9654, 16.77306
364.4475, 16.60384
364.9297, 15.61312
365.4118, 14.96093
365.8939, 14.70455
366.3760, 14.77033
366.8581, 15.41981
367.3402, 16.34406
367.8224, 16.92411
368.3045, 16.71386
368.7866, 15.97867
369.2687, 15.48241
369.7508, 15.26456
370.2329, 15.21629
370.7151, 15.40273
371.1972, 15.67613
371.6793, 15.95419
372.1614, 16.23460
372.6435, 16.33851
373.1256, 15.95273
373.6078, 15.03765
374.0899, 14.21514
374.5720, 13.58967
375.0541, 13.13280
375.5362, 12.83154
376.0183, 12.67679
376.5005, 12.61789
376.9826, 12.74836
377.4647, 12.96576
377.9468, 12.83535
378.4289, 12.17095
378.9110, 11.51404
379.3932, 11.27994
379.8753, 11.30627
380.3574, 11.29183
380.8395, 11.04809
381.3216, 10.81039
381.8037, 10.93613
382.2859, 11.43425
382.7680, 11.86993
383.2501, 12.08504
383.7322, 12.09355
384.2143, 11.91990
384.6964, 11.49940
385.1786, 11.13103
385.6607, 11.08684
386.1428, 11.23021
386.6249, 11.12746
387.1070, 10.58292
387.5891, 10.04538
388.0713, 10.10464
388.5534, 10.70057
389.0355, 11.34577
389.5176, 12.12117
389.9997, 12.79051
390.4818, 13.08078
390.9640, 12.99225
391.4461, 12.76000
391.9282, 12.54059
392.4103, 12.30240
392.8924, 11.90746
393.3745, 11.06199
393.8567, 10.39241
394.3388, 10.25646
394.8209, 10.45768
395.3030, 10.62447
395.7851, 10.61954
396.2672, 10.52432
396.7494, 10.47855
397.2315, 10.49239
397.7136, 10.53768
398.1957, 10.57108
398.6778, 10.66417
399.1599, 11.00083
399.6420, 11.52706
400.1241, 11.84662
400.6063, 11.53680
401.0884, 10.56156
401.5705, 10.18074
402.0526, 11.14681
402.5347, 11.78967
403.0168, 11.27418
403.4990, 10.16285
403.9811, 9.417081
404.4632, 9.503713
404.9453, 10.09414
405.4274, 10.38689
405.9095, 10.10178
406.3917, 9.984284
406.8738, 10.26762
407.3559, 10.55727
407.8380, 10.57997
408.3201, 10.30263
408.8022, 9.839383
409.2844, 9.211431
409.7665, 8.382035
410.2486, 8.047573
410.7307, 8.645551
411.2128, 9.295449
411.6949, 9.723879
412.1771, 10.03459
412.6592, 10.46611
413.1413, 11.17859
413.6234, 11.92946
414.1055, 12.14385
414.5876, 11.63876
415.0698, 11.15437
415.5519, 10.81777
416.0340, 10.59624
416.5161, 10.46394
416.9982, 10.42121
417.4803, 10.51600
417.9625, 10.94842
418.4446, 11.62486
418.9267, 11.89070
419.4088, 11.60593
419.8909, 11.06649
420.3730, 10.27205
420.8552, 9.389601
421.3373, 8.783227
421.8194, 8.616041
422.3015, 8.732368
422.7836, 9.050956
423.2657, 9.567003
423.7479, 9.955840
424.2300, 10.07918
424.7121, 10.00436
425.1942, 9.762557
425.6763, 9.249342
426.1584, 9.088762
426.6406, 9.915561
427.1227, 11.16549
427.6048, 11.84113
428.0869, 11.75927
428.5690, 11.41897
429.0511, 11.30026
429.5333, 11.38357
430.0154, 11.10566
430.4975, 9.895770
430.9796, 8.859176
431.4617, 8.871655
431.9438, 9.568965
432.4260, 9.949057
432.9081, 9.511378
433.3902, 8.596464
433.8723, 7.993690
434.3544, 7.708945
434.8365, 7.768263
435.3187, 8.464719
435.8008, 9.312226
436.2829, 9.990233
436.7650, 10.41810
437.2471, 10.56761
437.7292, 10.37471
438.2114, 9.826160
438.6935, 9.434113
439.1756, 9.339100
439.6577, 9.246404
440.1398, 9.065384
440.6219, 8.855994
441.1040, 8.659037
441.5862, 8.493414
442.0683, 8.467036
442.5504, 8.837462
443.0325, 9.790377
443.5146, 10.57300
443.9967, 11.28829
444.4789, 11.67357
444.9610, 11.40896
445.4431, 10.63140
445.9252, 9.814919
446.4073, 9.181441
446.8894, 8.798450
447.3716, 9.086980
447.8537, 10.47090
448.3358, 11.46248
448.8179, 10.96403
449.3000, 9.922130
449.7821, 9.373153
450.2643, 9.607824
450.7464, 9.966114
451.2285, 9.699407
451.7106, 8.999234
452.1927, 8.968101
452.6748, 10.12822
453.1570, 11.37181
453.6391, 11.39096
454.1212, 10.45019
454.6033, 9.670683
455.0854, 9.276715
455.5675, 9.178544
456.0497, 9.495825
456.5318, 10.12315
457.0139, 10.42137
457.4960, 9.938052
457.9781, 9.073898
458.4602, 9.004412
458.9424, 10.27282
459.4245, 11.06610
459.9066, 10.69790
460.3887, 9.909476
460.8708, 9.407610
461.3529, 9.314240
461.8351, 9.455981
462.3172, 9.730412
462.7993, 10.15384
463.2814, 10.12453
463.7635, 9.069596
464.2456, 8.251456
464.7278, 7.969240
465.2099, 8.116314
465.6920, 8.665128
466.1741, 9.583998
466.6562, 10.49034
467.1383, 10.60818
467.6205, 9.472918
468.1026, 9.005328
468.5847, 10.01078
469.0668, 11.03192
469.5489, 11.50897
470.0310, 11.45307
470.5132, 10.99957
470.9953, 10.04050
471.4774, 8.922152
471.9595, 8.679832
472.4416, 9.615191
472.9237, 10.30106
473.4059, 9.950299
473.8880, 9.286116
474.3701, 8.916739
474.8522, 8.911043
475.3343, 9.107756
475.8164, 9.529909
476.2986, 10.06646
476.7807, 10.45049
477.2628, 10.64558
477.7449, 10.71233
478.2270, 10.62815
478.7091, 10.44375
479.1913, 10.37718
479.6734, 10.67956
480.1555, 10.83479
480.6376, 10.50499
481.1197, 9.842263
481.6018, 9.044567
482.0839, 8.146592
482.5660, 7.507989
483.0482, 7.742527
483.5303, 9.309308
484.0124, 10.02371
484.4945, 9.064314
484.9766, 8.077910
485.4587, 8.018775
485.9409, 8.656980
486.4230, 9.313799
486.9051, 9.619951
487.3872, 9.630337
487.8693, 9.462646
488.3514, 8.836354
488.8336, 8.572116
489.3157, 8.967150
489.7978, 9.495406
490.2799, 9.923838
490.7620, 10.17054
491.2441, 10.11541
491.7263, 9.485682
492.2084, 8.483885
492.6905, 8.130920
493.1726, 8.616803
493.6547, 9.297004
494.1368, 10.23128
494.6190, 11.06618
495.1011, 11.36264
495.5832, 10.99860
496.0653, 10.46681
496.5474, 10.09783
497.0295, 9.855469
497.5117, 9.648451
497.9938, 9.476010
498.4759, 9.287882
498.9580, 9.068832
499.4401, 8.798514
499.9222, 8.395989
500.4044, 7.273537
500.8865, 6.615302
501.3686, 7.423465
501.8507, 9.085017
502.3328, 10.43697
502.8149, 11.09041
503.2971, 11.11178
503.7792, 10.48826
504.2613, 8.831477
504.7434, 7.956470
505.2255, 8.282218
505.7076, 8.883319
506.1898, 9.683181
506.6719, 10.37906
507.1540, 10.32295
507.6361, 9.132367
508.1182, 7.466988
508.6003, 6.947740
509.0825, 8.100355
509.5646, 8.988479
510.0467, 9.311543
510.5288, 9.421200
511.0109, 9.381175
511.4930, 9.272518
511.9752, 9.305025
512.4573, 9.753352
512.9394, 10.33896
513.4215, 10.30388
513.9036, 9.518110
514.3857, 8.937560
514.8679, 9.003409
515.3500, 9.413684
515.8321, 9.811580
516.3142, 10.20472
516.7963, 10.44914
517.2784, 10.43928
517.7606, 10.26551
518.2427, 10.03218
518.7248, 9.752818
519.2069, 9.429368
519.6890, 9.009638
520.1711, 8.565011
520.6533, 8.480374
521.1354, 9.055072
521.6175, 9.529666
522.0996, 9.797788
522.5817, 9.897710
523.0638, 9.807989
523.5460, 9.558728
524.0281, 9.279449
524.5102, 9.080032
524.9923, 8.962113
525.4744, 9.003275
525.9565, 9.465448
526.4387, 9.738194
526.9208, 9.542888
527.4029, 9.189618
527.8850, 8.979222
528.3671, 8.992316
528.8492, 9.160976
529.3314, 9.526275
529.8135, 10.04453
530.2956, 10.21225
530.7777, 9.762079
531.2598, 9.458779
531.7419, 10.12018
532.2241, 11.17029
532.7062, 11.66454
533.1883, 11.31029
533.6704, 10.62088
534.1525, 9.632195
534.6346, 8.598788
535.1168, 8.210135
535.5989, 8.661307
536.0810, 9.359326
536.5631, 9.761721
537.0452, 9.853530
537.5273, 9.714632
538.0095, 9.058631
538.4916, 8.512424
538.9737, 8.373244
539.4558, 8.466113
539.9379, 8.488151
540.4200, 8.350726
540.9022, 8.261565
541.3843, 8.584201
541.8664, 9.474540
542.3485, 9.887591
542.8306, 9.220046
543.3127, 8.716455
543.7948, 8.977230
544.2769, 9.589762
544.7590, 9.882577
545.2411, 9.583864
545.7233, 9.104066
546.2054, 8.932889
546.6875, 9.054349
547.1696, 9.252839
547.6517, 9.525272
548.1339, 9.812214
548.6160, 10.21639
549.0981, 10.61591
549.5802, 10.58990
550.0623, 9.492493
550.5444, 8.552909
551.0266, 8.821917
551.5087, 9.823733
551.9908, 10.40077
552.4729, 10.18923
552.9550, 9.803752
553.4371, 10.09256
553.9193, 11.30816
554.4014, 11.61922
554.8835, 9.900149
555.3656, 8.654795
555.8477, 9.347459
556.3298, 10.90484
556.8120, 11.64702
557.2941, 10.97795
557.7762, 9.699494
558.2583, 8.851474
558.7404, 8.446778
559.2225, 8.425159
559.7047, 9.127240
560.1868, 9.770327
560.6689, 9.907979
561.1510, 9.768620
561.6331, 9.769670
562.1152, 10.10379
562.5974, 10.41205
563.0795, 10.22049
563.5616, 9.706438
564.0437, 9.560410
564.5258, 9.970218
565.0079, 10.53473
565.4901, 10.98156
565.9722, 11.27779
566.4543, 11.21533
566.9364, 10.41123
567.4185, 9.689631
567.9006, 9.358570
568.3828, 9.303097
568.8649, 9.383593
569.3470, 9.549893
569.8291, 9.766140
570.3112, 9.985234
570.7933, 10.20430
571.2755, 10.50101
571.7576, 11.07395
572.2397, 11.46861
572.7218, 11.48019
573.2039, 11.31334
573.6860, 11.18982
574.1682, 11.16528
574.6503, 11.16997
575.1324, 11.22198
575.6145, 11.26369
576.0966, 10.92605
576.5787, 10.03279
577.0609, 9.388194
577.5430, 9.739982
578.0251, 10.60736
578.5072, 10.76648
578.9893, 9.753158
579.4714, 9.025606
579.9536, 9.447399
580.4357, 10.29872
580.9178, 10.66051
581.3999, 10.45857
581.8820, 10.24564
582.3641, 10.49377
582.8463, 11.04347
583.3284, 10.95674
583.8105, 9.692110
584.2926, 8.549242
584.7747, 7.230489
585.2568, 6.353161
585.7390, 6.622233
586.2211, 7.873113
586.7032, 9.193401
587.1853, 9.927837
587.6674, 10.27120
588.1495, 10.84092
588.6317, 11.75086
589.1138, 12.14930
589.5959, 11.49848
590.0780, 10.45367
590.5601, 9.716748
591.0422, 9.281233
591.5244, 9.141227
592.0065, 9.639212
592.4886, 10.16429
592.9707, 10.02799
593.4528, 9.411068
593.9349, 8.952129
594.4171, 8.923589
594.8992, 9.275309
595.3813, 10.01551
595.8634, 11.60460
596.3455, 12.17848
596.8276, 10.80307
597.3098, 9.541364
597.7919, 9.431894
598.2740, 9.984039
598.7561, 10.27912
599.2382, 9.937568
599.7203, 9.345942
600.2025, 8.893450
600.6846, 8.587014
601.1667, 8.850062
601.6488, 10.05960
602.1309, 11.16783
602.6130, 11.38091
603.0952, 10.98602
603.5773, 10.45350
604.0594, 9.587340
604.5415, 9.073657
605.0236, 9.529573
605.5057, 10.45552
605.9879, 11.12993
606.4700, 11.42434
606.9521, 11.48406
607.4342, 11.40607
607.9163, 11.20549
608.3984, 10.99051
608.8806, 10.63572
609.3627, 10.44921
609.8448, 10.57721
610.3269, 10.78700
610.8090, 10.94909
611.2911, 11.02380
611.7733, 10.97280
612.2554, 10.74367
612.7375, 10.39407
613.2196, 10.01603
613.7017, 9.592249
614.1838, 9.275239
614.6660, 8.967894
615.1481, 8.961655
615.6302, 9.934465
616.1123, 11.79667
616.5944, 12.86191
617.0765, 12.07762
617.5587, 11.06317
618.0408, 11.03873
618.5229, 11.60459
619.0050, 11.75638
619.4871, 11.14985
619.9692, 10.30911
620.4514, 9.941528
620.9335, 10.10697
621.4156, 10.28161
621.8977, 10.51365
622.3798, 10.69563
622.8619, 10.68984
623.3441, 10.67396
623.8262, 10.86633
624.3083, 11.31477
624.7904, 11.85826
625.2725, 12.57561
625.7546, 13.26014
626.2367, 13.11501
626.7188, 12.00269
627.2009, 11.28250
627.6830, 11.92028
628.1652, 13.18746
628.6473, 13.25497
629.1294, 11.60186
629.6115, 10.64403
630.0936, 11.05128
630.5757, 11.99361
631.0579, 13.17711
631.5400, 14.37129
632.0221, 15.17212
632.5042, 15.36527
632.9863, 15.19533
633.4684, 15.08762
633.9506, 15.04363
634.4327, 15.04997
634.9148, 15.07436
635.3969, 15.19547
635.8790, 15.65704
636.3611, 16.18036
636.8433, 16.23376
637.3254, 15.56761
637.8075, 14.79628
638.2896, 14.10656
638.7717, 13.69473
639.2538, 14.23152
639.7360, 15.75642
640.2181, 16.96198
640.7002, 16.86003
641.1823, 15.77360
641.6644, 15.01257
642.1465, 14.65643
642.6287, 14.55232
643.1108, 14.86341
643.5929, 15.28258
644.0750, 15.81089
644.5571, 16.26961
645.0392, 16.21282
645.5214, 15.29255
646.0035, 14.07462
646.4856, 13.49126
646.9677, 13.54098
647.4498, 13.95868
647.9319, 15.00032
648.4141, 15.77020
648.8962, 15.16533
649.3783, 13.62571
649.8604, 12.85533
650.3425, 13.67530
650.8246, 14.34223
651.3068, 13.96749
651.7889, 13.17045
652.2710, 12.59542
652.7531, 12.39061
653.2352, 12.61698
653.7173, 13.40882
654.1995, 14.52504
654.6816, 14.94392
655.1637, 14.48788
655.6458, 13.75379
656.1279, 12.33831
656.6100, 11.08510
657.0922, 10.50893
657.5743, 10.52274
658.0564, 10.77850
658.5385, 11.33044
659.0206, 11.80695
659.5027, 11.72842
659.9849, 11.29072
660.4670, 11.09815
660.9491, 11.29740
661.4312, 11.47152
661.9133, 11.14613
662.3954, 10.40283
662.8776, 10.40680
663.3597, 12.36061
663.8418, 13.48078
664.3239, 13.04786
664.8060, 12.02583
665.2881, 10.98632
665.7703, 10.09511
666.2524, 9.499629
666.7345, 9.383076
667.2166, 9.472501
667.6987, 9.182071
668.1808, 8.528199
668.6630, 8.135328
669.1451, 8.176060
669.6272, 8.454967
670.1093, 8.821920
670.5914, 9.278689
671.0735, 9.778087
671.5557, 10.79687
672.0378, 11.27368
672.5199, 10.28692
673.0020, 8.918161
673.4841, 8.401734
673.9662, 8.831237
674.4484, 9.495757
674.9305, 9.885470
675.4126, 10.03964
675.8947, 10.05649
676.3768, 9.888870
676.8589, 9.787983
677.3411, 9.770661
677.8232, 9.877492
678.3053, 10.28825
678.7874, 10.86834
679.2695, 11.10474
679.7516, 10.65248
680.2338, 10.11799
680.7159, 9.767077
681.1980, 9.599577
681.6801, 9.656498
682.1622, 9.922207
682.6443, 10.28196
683.1265, 10.67711
683.6086, 11.04417
684.0907, 11.06258
684.5728, 10.60299
685.0549, 10.07747
685.5370, 9.342453
686.0192, 8.734980
686.5013, 8.397135
686.9834, 8.349442
687.4655, 8.653823
687.9476, 9.533311
688.4297, 10.40872
688.9119, 10.69053
689.3940, 10.58816
689.8761, 10.69305
690.3582, 11.09416
690.8403, 11.10183
691.3224, 10.03168
691.8046, 8.255805
692.2867, 7.555548
692.7688, 8.879408
693.2509, 9.773477
693.7330, 10.07559
694.2151, 10.00662
694.6973, 9.577106
695.1794, 8.895091
695.6615, 8.060900
696.1436, 6.960858
696.6257, 6.269716
697.1078, 7.182952
697.5900, 9.151102
698.0721, 10.22877
698.5542, 10.11080
699.0363, 9.452837
699.5184, 8.474360
700.0005, 7.446180
700.4827, 7.355669
700.9648, 9.142360
701.4469, 10.34105
701.9290, 10.66302
702.4111, 10.63257
702.8932, 10.40687
703.3754, 10.10053
703.8575, 9.831266
704.3396, 9.641891
704.8217, 9.600193
705.3038, 9.958072
705.7859, 10.57268
706.2681, 10.71696
706.7502, 10.29059
707.2323, 9.665585
707.7144, 8.932126
708.1965, 8.224333
708.6786, 7.881955
709.1607, 8.043657
709.6428, 8.140824
710.1249, 8.033450
710.6071, 7.954940
711.0892, 8.002508
711.5713, 8.181594
712.0534, 8.523602
712.5355, 9.031116
713.0176, 9.548542
713.4998, 9.990851
713.9819, 10.31325
714.4640, 10.17863
714.9461, 9.491216
715.4282, 8.971225
715.9103, 9.039702
716.3925, 9.303953
716.8746, 9.045034
717.3567, 8.149621
717.8388, 7.770655
718.3209, 8.546443
718.8030, 9.267406
719.2852, 9.248095
719.7673, 8.878266
720.2494, 8.729292
720.7315, 8.920557
721.2136, 9.168550
721.6957, 9.247158
722.1779, 9.160879
722.6600, 8.789536
723.1421, 8.041049
723.6242, 7.890399
724.1063, 9.009001
724.5884, 10.19819
725.0706, 9.946157
725.5527, 8.392988
726.0348, 7.485836
726.5169, 7.722101
726.9990, 8.127812
727.4811, 8.460149
727.9633, 8.745878
728.4454, 9.055432
728.9275, 9.362859
729.4096, 9.562099
729.8917, 9.608449
730.3738, 9.430742
730.8560, 8.638049
731.3381, 7.194008
731.8202, 6.611430
732.3023, 7.418553
732.7844, 8.429790
733.2665, 8.822968
733.7487, 8.714405
734.2308, 8.603001
734.7129, 8.517146
735.1950, 8.376702
735.6771, 7.989430
736.1592, 7.689151
736.6414, 7.767621
737.1235, 8.152303
737.6056, 8.642971
738.0877, 9.156745
738.5698, 9.627304
739.0519, 9.931371
739.5341, 10.09183
740.0162, 10.39713
740.4983, 10.95584
740.9804, 11.20947
741.4625, 10.88882
741.9446, 10.09598
742.4268, 8.773890
742.9089, 6.598465
743.3910, 5.553075
743.8731, 6.778738
744.3552, 8.107549
744.8373, 8.589970
745.3195, 8.482168
745.8016, 8.023052
746.2837, 7.377812
746.7658, 7.040268
747.2479, 7.621936
747.7300, 8.748456
748.2122, 9.400528
748.6943, 9.573622
749.1764, 9.605350
749.6585, 9.594054
750.1406, 9.455937
750.6227, 9.046647
751.1049, 8.379970
751.5870, 7.897088
752.0691, 7.518983
752.5512, 7.413210
753.0333, 7.722669
753.5154, 8.226996
753.9976, 8.950772
754.4797, 9.707412
754.9618, 10.01364
755.4439, 9.540818
755.9260, 8.811365
756.4081, 8.508688
756.8903, 8.541760
757.3724, 8.558570
757.8545, 8.518108
758.3366, 8.404394
758.8187, 8.155578
759.3008, 7.899859
759.7830, 7.991767
760.2651, 8.788411
760.7472, 9.078675
761.2293, 8.221800
761.7114, 7.607711
762.1935, 8.139528
762.6757, 9.094073
763.1578, 9.447313
763.6399, 8.978626
764.1220, 8.340769
764.6041, 7.965750
765.0862, 7.724514
765.5684, 7.318072
766.0505, 6.835021
766.5326, 6.791502
767.0147, 7.369792
767.4968, 8.129239
767.9789, 8.611571
768.4611, 8.820413
768.9432, 8.747369
769.4253, 8.044568
769.9074, 7.658649
770.3895, 7.974408
770.8716, 8.426451
771.3538, 8.605828
771.8359, 8.599665
772.3180, 8.775592
772.8001, 9.393783
773.2822, 9.924166
773.7643, 10.02785
774.2465, 9.806728
774.7286, 9.208014
775.2107, 8.374906
775.6928, 7.961415
776.1749, 8.365811
776.6570, 9.065555
777.1392, 8.979321
777.6213, 7.960497
778.1034, 7.192292
778.5855, 6.614011
779.0676, 6.434294
779.5497, 7.081420
780.0319, 7.983960
780.5140, 8.359823
780.9961, 8.157625
781.4782, 8.030928
781.9603, 8.256155
782.4424, 8.472754
782.9246, 8.356894
783.4067, 8.151392
783.8888, 8.327881
784.3709, 8.892944
784.8530, 9.293555
785.3351, 9.019914
785.8173, 8.387275
786.2994, 8.228921
786.7815, 8.546548
787.2636, 8.729121
787.7457, 8.657583
788.2278, 8.449160
788.7100, 8.091257
789.1921, 7.688569
789.6742, 7.681863
790.1563, 8.387304
790.6384, 8.888434
791.1205, 8.820005
791.6026, 8.855170
792.0847, 9.711866
792.5668, 10.81478
793.0490, 11.11936
793.5311, 10.32920
794.0132, 9.299397
794.4953, 8.551304
794.9774, 8.111522
795.4595, 8.200976
795.9417, 8.709215
796.4238, 9.014500
796.9059, 8.913936
797.3880, 8.518929
797.8701, 7.837652
798.3522, 6.935679
798.8344, 6.995236
799.3165, 8.807352
799.7986, 10.05770
800.2807, 9.952985
800.7628, 9.560259
801.2449, 9.544056
801.7271, 9.733242
802.2092, 9.565008
802.6913, 8.704875
803.1734, 7.990779
803.6555, 8.058743
804.1376, 8.346298
804.6198, 8.082250
805.1019, 7.485898
805.5840, 7.431854
806.0661, 8.286527
806.5482, 9.318131
807.0303, 9.505624
807.5125, 8.944233
807.9946, 8.513808
808.4767, 8.224367
808.9588, 7.987637
809.4409, 7.728387
809.9230, 7.585307
810.4052, 7.724811
810.8873, 8.152274
811.3694, 8.687097
811.8515, 9.599792
812.3336, 10.24906
812.8157, 10.63674
813.2979, 10.60618
813.7800, 9.590250
814.2621, 8.070741
814.7442, 7.340025
815.2263, 8.045523
815.7084, 9.116904
816.1906, 9.646881
816.6727, 9.743890
817.1548, 9.419466
817.6369, 8.789261
818.1190, 8.684343
818.6011, 9.529739
819.0833, 10.47266
819.5654, 10.16245
820.0475, 8.526311
820.5296, 7.778129
821.0117, 8.458563
821.4938, 8.906245
821.9760, 8.491707
822.4581, 7.857715
822.9402, 7.457347
823.4223, 7.287867
823.9044, 7.322695
824.3865, 7.880644
824.8687, 8.153173
825.3508, 7.417717
825.8329, 6.565229
826.3150, 6.584185
826.7971, 7.264147
827.2792, 7.822805
827.7614, 7.916790
828.2435, 7.741175
828.7256, 7.333840
829.2077, 6.855415
829.6898, 7.022905
830.1719, 7.850491
830.6541, 8.697087
831.1362, 9.369214
831.6183, 9.807217
832.1004, 9.928594
832.5825, 9.736255
833.0646, 9.407745
833.5468, 8.670898
834.0289, 8.231649
834.5110, 8.353458
834.9931, 8.611520
835.4752, 8.795606
835.9573, 8.896334
836.4395, 8.932547
836.9216, 8.901346
837.4037, 8.832177
837.8858, 8.542722
838.3679, 8.375044
838.8500, 8.993218
839.3322, 10.00270
839.8143, 10.31153
840.2964, 9.578806
840.7785, 8.537374
841.2606, 7.940214
841.7427, 7.715217
842.2249, 7.598924
842.7070, 7.591556
843.1891, 7.721672
843.6712, 8.044252
844.1533, 8.341975
844.6354, 8.394778
845.1176, 8.627537
845.5997, 8.805402
846.0818, 8.787058
846.5639, 9.017621
847.0460, 8.909829
847.5281, 8.681101
848.0103, 8.144824
848.4924, 7.677905
848.9745, 8.041546
849.4566, 9.382075
849.9387, 10.25602
850.4208, 9.338928
850.9030, 8.155917
851.3851, 8.171768
851.8672, 8.929901
852.3493, 9.589601
852.8314, 9.942225
853.3135, 10.09149
853.7957, 10.10720
854.2778, 9.983183
854.7599, 9.694358
855.2420, 9.241876
855.7241, 8.614023
856.2062, 7.713563
856.6884, 7.158269
857.1705, 7.433025
857.6526, 8.054051
858.1347, 8.077105
858.6168, 7.270257
859.0989, 6.917235
859.5811, 7.553792
860.0632, 7.939468
860.5453, 7.438772
861.0274, 6.839357
861.5095, 6.904501
861.9916, 7.553258
862.4738, 8.177717
862.9559, 8.664422
863.4380, 8.896237
863.9201, 8.616757
864.4022, 8.159872
864.8843, 7.840304
865.3665, 7.725101
865.8486, 7.971124
866.3307, 8.627420
866.8128, 9.242407
867.2949, 9.189466
867.7770, 8.622758
868.2592, 8.150809
868.7413, 7.772545
869.2234, 7.748088
869.7055, 8.247380
870.1876, 8.688391
870.6697, 8.468560
871.1519, 7.739583
871.6340, 7.375910
872.1161, 7.722816
872.5981, 7.771414
873.0803, 6.708961
873.5624, 6.182653
874.0445, 7.460219
874.5266, 9.428129
875.0087, 10.53587
875.4908, 10.56300
875.9730, 10.13070
876.4551, 8.957507
876.9372, 7.923891
877.4193, 7.642901
877.9014, 7.794269
878.3835, 8.033350
878.8657, 8.247440
879.3478, 8.337195
879.8299, 8.222650
880.3120, 8.040305
880.7941, 7.983077
881.2762, 8.013284
881.7584, 7.991931
882.2405, 7.917003
882.7226, 7.910245
883.2047, 8.028289
883.6868, 8.216033
884.1689, 8.394643
884.6511, 8.566807
885.1332, 8.855750
885.6153, 9.428366
886.0974, 9.651926
886.5795, 9.335016
887.0616, 8.718170
887.5438, 7.586757
888.0259, 6.317122
888.5080, 6.123115
888.9901, 7.692122
889.4722, 8.748714
889.9543, 8.722448
890.4365, 8.382000
890.9186, 7.770059
891.4007, 7.279819
891.8828, 7.597928
892.3649, 8.688961
892.8470, 9.486266
893.3292, 9.213420
893.8113, 8.613714
894.2934, 8.193439
894.7755, 8.031145
895.2576, 8.497437
895.7397, 9.434333
896.2219, 9.992355
896.7040, 9.716181
897.1861, 9.098232
897.6682, 8.965420
898.1503, 9.201433
898.6324, 8.627890
899.1146, 7.143690
899.5967, 6.493592
900.0788, 7.393293
900.5609, 8.630400
901.0430, 9.045260
901.5251, 8.755233
902.0073, 8.467161
902.4894, 8.011584
902.9715, 7.913365
903.4536, 8.707535
903.9357, 9.265748
904.4178, 8.863325
904.9000, 8.049264
905.3821, 7.546747
905.8642, 7.421938
906.3463, 7.450729
906.8284, 7.633092
907.3105, 7.894412
907.7927, 8.380611
908.2748, 8.797436
908.7569, 8.877260
909.2390, 8.600811
909.7211, 7.950615
910.2032, 6.830826
910.6854, 5.885550
911.1675, 5.635121
911.6496, 5.979432
912.1317, 7.182574
912.6138, 8.845245
913.0959, 9.548642
913.5781, 8.922881
914.0602, 8.076200
914.5423, 8.039603
915.0244, 8.567773
915.5065, 8.887824
915.9886, 8.996989
916.4708, 9.494237
916.9529, 10.60952
917.4350, 11.21771
917.9171, 10.53918
918.3992, 9.304938
918.8813, 8.853909
919.3635, 9.353963
919.8456, 9.290548
920.3277, 8.049517
920.8098, 7.254937
921.2919, 7.594123
921.7740, 8.184032
922.2562, 8.401089
922.7383, 8.375160
923.2204, 8.576298
923.7025, 9.328014
924.1846, 9.607993
924.6667, 8.539344
925.1489, 7.586959
925.6310, 7.912819
926.1131, 8.757142
926.5952, 8.960572
927.0773, 8.429450
927.5594, 8.044340
928.0416, 8.466823
928.5237, 8.933013
929.0058, 8.742672
929.4879, 8.140860
929.9700, 7.286664
930.4521, 6.383723
930.9343, 6.078887
931.4164, 6.622268
931.8985, 7.275433
932.3806, 7.030819
932.8627, 6.264718
933.3448, 6.269116
933.8270, 6.977591
934.3091, 7.767152
934.7912, 8.529490
935.2733, 8.782560
935.7554, 8.048268
936.2375, 6.919263
936.7197, 7.010597
937.2018, 8.744970
937.6839, 9.148281
938.1660, 7.565123
938.6481, 6.312588
939.1302, 6.245603
939.6124, 6.687016
940.0945, 7.016353
940.5766, 7.242729
941.0587, 7.456086
941.5408, 7.711222
942.0229, 7.871115
942.5051, 7.895988
942.9872, 7.860899
943.4693, 7.595353
943.9514, 7.400093
944.4335, 7.941219
944.9156, 9.231949
945.3978, 9.765040
945.8799, 8.267107
946.3620, 6.817385
946.8441, 6.600493
947.3262, 6.868011
947.8083, 6.934300
948.2905, 6.781241
948.7726, 6.575716
949.2547, 6.376542
949.7368, 6.335065
950.2189, 6.633031
950.7010, 7.119533
951.1832, 7.703020
951.6653, 8.286478
952.1474, 8.602800
952.6295, 8.643698
953.1116, 8.706882
953.5938, 8.998303
954.0759, 9.314672
954.5580, 9.266819
955.0400, 8.932750
955.5222, 8.829454
956.0043, 8.957869
956.4864, 8.499642
956.9685, 7.085573
957.4506, 6.039320
957.9327, 6.812457
958.4149, 8.824979
958.8970, 9.523749
959.3791, 8.631346
959.8612, 7.760967
960.3433, 6.837938
960.8254, 6.476733
961.3076, 7.265678
961.7897, 8.384053
962.2718, 8.630522
962.7539, 7.978652
963.2360, 7.859254
963.7181, 8.995675
964.2003, 9.543142
964.6824, 8.558288
965.1645, 7.780581
965.6466, 8.736775
966.1287, 10.27284
966.6108, 10.15730
967.0930, 7.974547
967.5751, 6.527304
968.0572, 6.655690
968.5393, 7.307062
969.0214, 8.732372
969.5035, 9.956380
969.9857, 9.838035
970.4678, 8.796048
970.9499, 8.002558
971.4320, 7.796830
971.9141, 8.075008
972.3962, 9.368740
972.8784, 10.54792
973.3605, 10.43070
973.8426, 9.607182
974.3247, 8.950665
974.8068, 8.624115
975.2889, 8.470119
975.7711, 8.418756
976.2532, 8.429370
976.7353, 8.555108
977.2174, 8.661012
977.6995, 8.307072
978.1816, 7.700728
978.6638, 7.732098
979.1459, 8.568453
979.6280, 9.333740
980.1101, 9.304441
980.5922, 8.815866
981.0743, 8.472073
981.5565, 8.279390
982.0386, 8.326723
982.5207, 8.612165
983.0028, 8.903891
983.4849, 9.127645
983.9670, 9.130429
984.4492, 8.653281
984.9313, 7.900645
985.4134, 8.021442
985.8955, 9.237351
986.3776, 9.535375
986.8597, 8.458940
987.3419, 7.414880
987.8240, 7.040891
988.3061, 7.139237
988.7882, 7.534671
989.2703, 8.221791
989.7524, 8.357644
990.2346, 7.519918
990.7167, 7.094131
991.1988, 7.648726
991.6809, 8.068014
992.1630, 7.450150
992.6451, 6.439807
993.1273, 6.256135
993.6094, 7.040468
994.0915, 7.607274
994.5736, 7.596903
995.0557, 7.850495
995.5378, 9.069114
996.0200, 10.06972
996.5021, 9.891732
996.9842, 8.972095
997.4663, 8.164213
997.9484, 7.561348
998.4305, 7.227655
998.9127, 7.299871
999.3948, 7.496968
999.8769, 7.843490
1000.359, 8.144220
1000.841, 8.160592
1001.323, 7.986958
1001.805, 7.935640
1002.287, 8.131629
1002.770, 8.171666
1003.252, 7.785743
1003.734, 7.238759
1004.216, 6.424098
1004.698, 5.747945
1005.180, 5.931298
1005.662, 6.770254
1006.144, 7.299588
1006.627, 7.071449
1007.109, 6.714687
1007.591, 6.675864
1008.073, 6.848500
1008.555, 7.204670
1009.037, 7.640871
1009.519, 8.089367
1010.001, 8.444230
1010.483, 8.310918
1010.966, 7.396645
1011.448, 6.393236
1011.930, 6.030689
1012.412, 6.207036
1012.894, 7.073423
1013.376, 8.282149
1013.858, 8.646874
1014.340, 7.977321
1014.823, 7.104498
1015.305, 6.575196
1015.787, 6.350869
1016.269, 6.405558
1016.751, 6.708785
1017.233, 7.200936
1017.715, 7.849702
1018.197, 8.569630
1018.679, 9.321595
1019.162, 9.588399
1019.644, 8.874881
1020.126, 7.657165
1020.608, 7.005785
1021.090, 6.883692
1021.572, 6.703677
1022.054, 6.433161
1022.536, 6.528729
1023.018, 7.171470
1023.501, 7.921387
1023.983, 8.403658
1024.465, 8.659204
1024.947, 8.801181
1025.429, 8.824904
1025.911, 8.768217
1026.393, 8.611650
1026.875, 8.528718
1027.358, 8.664592
1027.840, 8.572927
1028.322, 7.680731
1028.804, 6.320604
1029.286, 5.955467
1029.768, 6.872814
1030.250, 7.639934
1030.732, 8.357031
1031.214, 8.510530
1031.697, 7.677490
1032.179, 6.629025
1032.661, 6.132546
1033.143, 6.089973
1033.625, 5.976070
1034.107, 5.571091
1034.589, 5.703479
1035.071, 6.918207
1035.553, 7.664886
1036.036, 7.025134
1036.518, 6.115106
1037.000, 6.116223
1037.482, 6.853759
1037.964, 7.306407
1038.446, 7.301627
1038.928, 7.348002
1039.410, 7.609889
1039.893, 7.700025
1040.375, 7.483811
1040.857, 7.041976
1041.339, 6.216410
1041.821, 5.170098
1042.303, 4.823962
1042.785, 5.524252
1043.267, 6.276503
1043.750, 7.519851
1044.232, 8.213029
1044.714, 7.492755
1045.196, 6.437597
1045.678, 6.214594
1046.160, 6.621803
1046.642, 6.485281
1047.124, 5.041428
1047.606, 4.538641
1048.089, 6.326333
1048.571, 7.811673
1049.053, 7.750275
1049.535, 7.062799
1050.017, 6.496900
1050.499, 6.137828
1050.981, 6.056324
1051.463, 6.405020
1051.945, 6.649321
1052.428, 6.481250
1052.910, 6.423122
1053.392, 7.336635
1053.874, 7.985153
1054.356, 6.414399
1054.838, 3.473220
1055.320, 2.468505
1055.802, 4.813449
1056.285, 6.485926
1056.767, 5.662522
1057.249, 4.731147
1057.731, 4.703572
1058.213, 5.247284
1058.695, 6.414161
1059.177, 7.772331
1059.659, 8.111082
1060.141, 6.871376
1060.624, 5.958594
1061.106, 6.371982
1061.588, 6.862955
1062.070, 6.663762
1062.552, 6.337658
1063.034, 6.477691
1063.516, 6.994214
1063.998, 7.582705
1064.480, 8.231454
1064.963, 8.466016
1065.445, 7.964731
1065.927, 7.166288
1066.409, 5.790602
1066.891, 4.648874
1067.373, 4.824760
1067.855, 5.813254
1068.337, 6.207834
1068.820, 5.626043
1069.302, 5.424758
1069.784, 6.792650
1070.266, 7.924474
1070.748, 7.604071
1071.230, 6.854517
1071.712, 6.674784
1072.194, 6.821935
1072.677, 6.461245
1073.159, 5.433095
1073.641, 4.870760
1074.123, 5.628741
1074.605, 6.512236
1075.087, 6.979563
1075.569, 7.248280
1076.051, 7.531952
1076.533, 7.758148
1077.016, 7.814486
1077.498, 7.662662
1077.980, 7.157256
1078.462, 5.636649
1078.944, 4.619279
1079.426, 5.503465
1079.908, 6.532989
1080.390, 5.924834
1080.872, 4.659742
1081.354, 4.580588
1081.837, 5.779918
1082.319, 6.566232
1082.801, 6.012346
1083.283, 5.505525
1083.765, 5.744425
1084.247, 6.210206
1084.729, 6.660601
1085.211, 7.016591
1085.694, 7.302294
1086.176, 7.446215
1086.658, 7.114542
1087.140, 5.955340
1087.622, 5.000207
1088.104, 4.308073
1088.586, 4.369040
1089.068, 6.497425
1089.551, 8.834479
1090.033, 9.002227
1090.515, 7.372466
1090.997, 5.872537
1091.479, 4.875112
1091.961, 4.653906
1092.443, 6.180189
1092.925, 7.450151
1093.407, 7.302492
1093.890, 6.489900
1094.372, 5.220465
1094.854, 4.052799
1095.336, 4.367773
1095.818, 6.674386
1096.300, 8.156410
1096.782, 7.178503
1097.264, 6.197253
1097.746, 6.373577
1098.229, 6.738397
1098.711, 6.374925
1099.193, 5.676115
1099.675, 5.531127
1100.157, 6.063379
1100.639, 6.352242
1101.121, 5.833728
1101.603, 5.524915
1102.086, 5.840909
1102.568, 6.296399
1103.050, 6.841622
1103.532, 7.191739
1104.014, 6.821433
1104.496, 5.792137
1104.978, 5.062128
1105.460, 4.600129
1105.943, 4.769940
1106.425, 6.450880
1106.907, 7.781363
1107.389, 7.697415
1107.871, 7.029157
1108.353, 6.822197
1108.835, 6.872612
1109.317, 5.891017
1109.799, 2.476944
1110.281, 1.276834
1110.764, 5.356927
1111.246, 8.057446
1111.728, 5.884702
1112.210, 3.103016
1112.692, 3.238764
1113.174, 5.304565
1113.656, 6.763456
1114.138, 7.537354
1114.621, 8.034576
1115.103, 8.221885
1115.585, 8.172964
1116.067, 7.676610
1116.549, 7.243807
1117.031, 7.231531
1117.513, 7.418305
1117.995, 7.493270
1118.478, 7.458918
1118.960, 7.093570
1119.442, 5.998551
1119.924, 5.573390
1120.406, 6.328001
1120.888, 6.942435
1121.370, 6.760483
1121.852, 6.328816
1122.334, 6.303641
1122.817, 6.572024
1123.299, 6.436754
1123.781, 6.574539
1124.263, 6.948573
1124.745, 6.694839
1125.227, 7.490233
1125.709, 7.570541
1126.191, 7.239397
1126.673, 6.663647
1127.156, 6.003126
1127.638, 5.657946
1128.120, 5.638749
1128.602, 5.684147
1129.084, 5.813965
1129.566, 5.761879
1130.048, 5.448050
1130.530, 5.179122
1131.013, 5.117570
1131.495, 5.281222
1131.977, 5.725811
1132.459, 6.401271
1132.941, 7.227384
1133.423, 8.148710
1133.905, 8.168777
1134.387, 7.221814
1134.870, 6.317953
1135.352, 5.855453
1135.834, 5.493555
1136.316, 4.837111
1136.798, 4.252579
1137.280, 4.843207
1137.762, 4.597541
1138.244, 4.649079
1138.726, 5.229007
1139.208, 4.861761
1139.691, 5.380445
1140.173, 5.699677
1140.655, 5.098506
1141.137, 4.395629
1141.619, 4.745768
1142.101, 5.619407
1142.583, 6.278261
1143.065, 6.633760
1143.548, 6.377452
1144.030, 5.656672
1144.512, 4.980296
1144.994, 4.567367
1145.476, 4.686723
1145.958, 6.002480
1146.440, 7.367846
1146.922, 7.723900
1147.405, 7.371835
1147.887, 6.124952
1148.369, 4.691721
1148.851, 4.608694
1149.333, 5.927289
1149.815, 6.962849
1150.297, 6.915164
1150.779, 6.463379
1151.261, 5.816978
1151.744, 5.122340
1152.226, 4.205089
1152.708, 3.506526
1153.190, 3.801631
1153.672, 4.749905
1154.154, 5.112662
1154.636, 4.475423
1155.118, 4.257066
1155.600, 5.586360
1156.083, 6.425881
1156.565, 5.423166
1157.047, 4.355414
1157.529, 4.569179
1158.011, 5.498179
1158.493, 6.375568
1158.975, 7.140295
1159.457, 7.086717
1159.940, 4.876962
1160.422, 3.992435
1160.904, 5.781565
1161.386, 7.079720
1161.868, 6.410508
1162.350, 5.298848
1162.832, 5.102630
1163.314, 5.560951
1163.796, 5.903902
1164.279, 6.174608
1164.761, 6.003367
1165.243, 5.139807
1165.725, 4.780332
1166.207, 5.324300
1166.689, 5.801223
1167.171, 5.629103
1167.653, 5.155522
1168.135, 4.829238
1168.618, 4.671797
1169.100, 4.882337
1169.582, 5.452857
1170.064, 5.805306
1170.546, 5.895639
1171.028, 6.082710
1171.510, 6.485909
1171.992, 6.824027
1172.474, 6.865615
1172.957, 6.738669
1173.439, 6.659478
1173.921, 6.593622
1174.403, 6.339507
1174.885, 6.017985
1175.367, 6.141661
1175.849, 6.671474
1176.331, 7.026728
1176.814, 6.953977
1177.296, 6.610682
1177.778, 5.903825
1178.260, 5.311721
1178.742, 5.463403
1179.224, 6.019179
1179.706, 6.757362
1180.188, 7.428746
1180.671, 7.672328
1181.153, 7.414045
1181.635, 6.604066
1182.117, 4.891612
1182.599, 3.817542
1183.081, 4.806794
1183.563, 5.989756
1184.045, 6.199877
1184.527, 6.034019
1185.010, 5.840968
1185.492, 5.871406
1185.974, 6.794202
1186.456, 8.794677
1186.938, 9.791348
1187.420, 9.007243
1187.902, 7.867158
1188.384, 5.806070
1188.866, 4.413150
1189.349, 4.763808
1189.831, 5.727282
1190.313, 6.302392
1190.795, 6.480780
1191.277, 6.118249
1191.759, 6.522749
1192.241, 6.775539
1192.723, 6.461335
1193.206, 7.399115
1193.688, 6.876203
1194.170, 6.582924
1194.652, 7.688173
1195.134, 8.792678
1195.616, 7.705770
1196.098, 5.151706
1196.580, 4.291131
1197.063, 4.970834
1197.545, 5.638865
1198.027, 6.177760
1198.509, 6.833169
1198.991, 7.641977
1199.473, 8.141490
1199.955, 7.989799
1200.437, 7.562109
1200.919, 7.378486
1201.401, 7.226162
1201.884, 6.597468
1202.366, 5.782042
1202.848, 5.321389
1203.330, 5.226914
1203.812, 5.353152
1204.294, 5.627944
1204.776, 5.854517
1205.258, 5.837736
1205.741, 5.899390
1206.223, 6.449979
1206.705, 6.937276
1207.187, 6.685331
1207.669, 6.306120
1208.151, 6.851757
1208.633, 7.936909
1209.115, 7.972533
1209.598, 6.379825
1210.080, 5.590456
1210.562, 6.622355
1211.044, 7.514451
1211.526, 8.003020
1212.008, 8.113798
1212.490, 7.713371
1212.972, 7.075915
1213.454, 6.410060
1213.937, 5.811625
1214.419, 5.844896
1214.901, 6.761668
1215.383, 6.972810
1215.865, 6.347672
1216.347, 5.682653
1216.829, 5.089691
1217.311, 5.208303
1217.793, 6.523085
1218.276, 7.851160
1218.758, 7.448224
1219.240, 6.057071
1219.722, 5.795621
1220.204, 6.370375
1220.686, 6.825908
1221.168, 7.090041
1221.650, 7.312913
1222.133, 7.483609
1222.615, 7.291226
1223.097, 6.538801
1223.579, 5.590947
1224.061, 4.428079
1224.543, 3.598799
1225.025, 3.623630
1225.507, 4.312348
1225.990, 5.974293
1226.472, 7.882213
1226.954, 8.720317
1227.436, 8.327847
1227.918, 7.609365
1228.400, 6.539604
1228.882, 5.773571
1229.364, 5.542125
1229.846, 5.537801
1230.328, 5.992584
1230.811, 6.268723
1231.293, 5.710761
1231.775, 4.765675
1232.257, 4.162368
1232.739, 3.904457
1233.221, 4.633359
1233.703, 6.752623
1234.185, 8.073248
1234.668, 8.377185
1235.150, 8.073375
1235.632, 7.212148
1236.114, 6.512888
1236.596, 6.569295
1237.078, 6.946745
1237.560, 6.921739
1238.042, 6.584649
1238.525, 6.060971
1239.007, 5.514997
1239.489, 5.570924
1239.971, 6.127133
1240.453, 6.556710
1240.935, 6.686732
1241.417, 6.867106
1241.899, 7.442122
1242.381, 7.682128
1242.864, 6.468624
1243.346, 5.270811
1243.828, 5.357642
1244.310, 6.102799
1244.792, 7.210598
1245.274, 8.196064
1245.756, 7.868036
1246.238, 8.522067
1246.720, 8.960611
1247.203, 8.023255
1247.685, 9.135830
1248.167, 7.539874
1248.649, 5.854117
1249.131, 4.512347
1249.613, 3.963991
1250.095, 4.874339
1250.577, 6.330186
1251.059, 6.445987
1251.542, 5.378407
1252.024, 4.994795
1252.506, 5.291793
1252.988, 6.094409
1253.470, 7.329720
1253.952, 8.036843
1254.434, 7.935734
1254.916, 7.597982
1255.399, 7.415694
1255.881, 7.219990
1256.363, 6.749482
1256.845, 6.181285
1257.327, 5.730050
1257.809, 5.392089
1258.291, 5.080928
1258.773, 4.897968
1259.255, 5.129198
1259.738, 5.765851
1260.220, 6.396623
1260.702, 6.995755
1261.184, 7.242084
1261.666, 6.715737
1262.148, 6.244125
1262.630, 6.041253
1263.112, 6.139627
1263.594, 7.099893
1264.077, 7.921242
1264.559, 6.757555
1265.041, 4.014045
1265.523, 3.356006
1266.005, 5.282258
1266.487, 6.370120
1266.969, 6.472163
1267.451, 6.071795
1267.934, 5.258178
1268.416, 4.891795
1268.898, 5.483890
1269.380, 6.167536
1269.862, 5.827678
1270.344, 5.071358
1270.826, 4.777802
1271.308, 5.015495
1271.791, 6.352839
1272.273, 8.133551
1272.755, 9.129755
1273.237, 9.146954
1273.719, 8.269884
1274.201, 6.439721
1274.683, 5.216392
1275.165, 5.845391
1275.647, 6.412303
1276.130, 5.873649
1276.612, 5.448697
1277.094, 6.077357
1277.576, 6.993103
1278.058, 7.419496
1278.540, 7.443317
1279.022, 7.224870
1279.504, 6.705208
1279.986, 6.896707
1280.469, 7.974369
1280.951, 8.509162
1281.433, 8.312095
1281.915, 7.862936
1282.397, 7.330324
1282.879, 6.895555
1283.361, 6.711676
1283.843, 6.638021
1284.326, 6.508713
1284.808, 6.322740
##END=



