##NAMES=Feklichevite
##RRUFFID=R120046
##IDEAL CHEMISTRY=Na_11_Ca_9_(Fe^3+^,Fe^2+^)_2_Zr^4+^_3_Nb^5+^(Si_25_O_73_)(OH,H_2_O,Cl,O)_5_
##LOCALITY=Kovdor Massif, Kola Peninsula, Murmanskaja Oblast', Northern Region, Russia
##OWNER=RRUFF
##SOURCE=Donald Doell
##DESCRIPTION=Massive reddish-brown crystals, associated with orthoclase
##STATUS=The identification of this mineral has been confirmed only by single crystal X-ray diffraction.
##URL=rruff.info/R120046
9.001007e+001, 0.000000e+000
9.049219e+001, 4.041671e+001
9.097430e+001, 4.046547e+001
9.145642e+001, 4.045779e+001
9.193854e+001, 4.039754e+001
9.242065e+001, 4.031704e+001
9.290277e+001, 4.032820e+001
9.338489e+001, 4.034553e+001
9.386700e+001, 4.015977e+001
9.434912e+001, 3.958069e+001
9.483124e+001, 3.878922e+001
9.531335e+001, 3.810471e+001
9.579547e+001, 3.751207e+001
9.627759e+001, 3.712675e+001
9.675970e+001, 3.731939e+001
9.724182e+001, 3.802519e+001
9.772394e+001, 3.837139e+001
9.820605e+001, 3.775261e+001
9.868817e+001, 3.626646e+001
9.917029e+001, 3.515356e+001
9.965240e+001, 3.443621e+001
1.001345e+002, 3.406772e+001
1.006166e+002, 3.411678e+001
1.010988e+002, 3.472139e+001
1.015809e+002, 3.514050e+001
1.020630e+002, 3.483563e+001
1.025451e+002, 3.357824e+001
1.030272e+002, 3.276031e+001
1.035093e+002, 3.262246e+001
1.039915e+002, 3.297083e+001
1.044736e+002, 3.297495e+001
1.049557e+002, 3.252136e+001
1.054378e+002, 3.188534e+001
1.059199e+002, 3.120014e+001
1.064020e+002, 3.021015e+001
1.068842e+002, 2.965000e+001
1.073663e+002, 2.979719e+001
1.078484e+002, 3.066463e+001
1.083305e+002, 3.112484e+001
1.088126e+002, 3.102643e+001
1.092947e+002, 3.060141e+001
1.097769e+002, 3.005790e+001
1.102590e+002, 2.894165e+001
1.107411e+002, 2.816914e+001
1.112232e+002, 2.809065e+001
1.117053e+002, 2.898729e+001
1.121874e+002, 2.935290e+001
1.126696e+002, 2.855138e+001
1.131517e+002, 2.729902e+001
1.136338e+002, 2.652402e+001
1.141159e+002, 2.677237e+001
1.145980e+002, 2.718610e+001
1.150801e+002, 2.748066e+001
1.155623e+002, 2.760830e+001
1.160444e+002, 2.764303e+001
1.165265e+002, 2.756843e+001
1.170086e+002, 2.741305e+001
1.174907e+002, 2.723925e+001
1.179728e+002, 2.716542e+001
1.184550e+002, 2.702042e+001
1.189371e+002, 2.666320e+001
1.194192e+002, 2.587263e+001
1.199013e+002, 2.516299e+001
1.203834e+002, 2.485886e+001
1.208655e+002, 2.488358e+001
1.213477e+002, 2.493744e+001
1.218298e+002, 2.493223e+001
1.223119e+002, 2.484304e+001
1.227940e+002, 2.464006e+001
1.232761e+002, 2.427455e+001
1.237582e+002, 2.382756e+001
1.242404e+002, 2.333398e+001
1.247225e+002, 2.279925e+001
1.252046e+002, 2.228843e+001
1.256867e+002, 2.164675e+001
1.261688e+002, 2.107636e+001
1.266509e+002, 2.095371e+001
1.271331e+002, 2.199207e+001
1.276152e+002, 2.336733e+001
1.280973e+002, 2.371853e+001
1.285794e+002, 2.298193e+001
1.290615e+002, 2.199406e+001
1.295436e+002, 2.157513e+001
1.300258e+002, 2.164363e+001
1.305079e+002, 2.184586e+001
1.309900e+002, 2.216602e+001
1.314721e+002, 2.250668e+001
1.319542e+002, 2.250050e+001
1.324363e+002, 2.205637e+001
1.329185e+002, 2.151458e+001
1.334006e+002, 2.148625e+001
1.338827e+002, 2.196983e+001
1.343648e+002, 2.233281e+001
1.348469e+002, 2.206765e+001
1.353290e+002, 2.123999e+001
1.358112e+002, 2.082864e+001
1.362933e+002, 2.096707e+001
1.367754e+002, 2.148261e+001
1.372575e+002, 2.210123e+001
1.377396e+002, 2.290011e+001
1.382217e+002, 2.346045e+001
1.387039e+002, 2.342554e+001
1.391860e+002, 2.269108e+001
1.396681e+002, 2.210442e+001
1.401502e+002, 2.180680e+001
1.406323e+002, 2.171698e+001
1.411144e+002, 2.144600e+001
1.415966e+002, 2.091218e+001
1.420787e+002, 2.035011e+001
1.425608e+002, 1.993305e+001
1.430429e+002, 1.968693e+001
1.435250e+002, 1.951671e+001
1.440071e+002, 1.941895e+001
1.444893e+002, 1.939269e+001
1.449714e+002, 1.940344e+001
1.454535e+002, 1.949314e+001
1.459356e+002, 1.957872e+001
1.464177e+002, 1.959281e+001
1.468998e+002, 1.959338e+001
1.473820e+002, 1.942219e+001
1.478641e+002, 1.889888e+001
1.483462e+002, 1.789301e+001
1.488283e+002, 1.749470e+001
1.493104e+002, 1.821284e+001
1.497925e+002, 1.929729e+001
1.502747e+002, 1.988523e+001
1.507568e+002, 1.944422e+001
1.512389e+002, 1.904307e+001
1.517210e+002, 1.893355e+001
1.522031e+002, 1.923147e+001
1.526852e+002, 1.945218e+001
1.531674e+002, 1.961468e+001
1.536495e+002, 1.969218e+001
1.541316e+002, 1.964813e+001
1.546137e+002, 1.927287e+001
1.550958e+002, 1.895334e+001
1.555779e+002, 1.880164e+001
1.560601e+002, 1.883046e+001
1.565422e+002, 1.901685e+001
1.570243e+002, 1.967089e+001
1.575064e+002, 2.046839e+001
1.579885e+002, 2.078158e+001
1.584706e+002, 1.962729e+001
1.589528e+002, 1.857926e+001
1.594349e+002, 1.841329e+001
1.599170e+002, 1.966942e+001
1.603991e+002, 2.106384e+001
1.608812e+002, 2.224330e+001
1.613633e+002, 2.329563e+001
1.618455e+002, 2.445135e+001
1.623276e+002, 2.594450e+001
1.628097e+002, 2.746514e+001
1.632918e+002, 2.883187e+001
1.637739e+002, 2.982809e+001
1.642560e+002, 3.088621e+001
1.647382e+002, 3.201126e+001
1.652203e+002, 3.329301e+001
1.657024e+002, 3.507491e+001
1.661845e+002, 3.789730e+001
1.666666e+002, 4.113754e+001
1.671487e+002, 4.419171e+001
1.676309e+002, 4.660920e+001
1.681130e+002, 4.914064e+001
1.685951e+002, 5.231419e+001
1.690772e+002, 5.605391e+001
1.695593e+002, 5.982631e+001
1.700414e+002, 6.330712e+001
1.705236e+002, 6.665939e+001
1.710057e+002, 7.002495e+001
1.714878e+002, 7.332137e+001
1.719699e+002, 7.680108e+001
1.724520e+002, 8.084026e+001
1.729341e+002, 8.539841e+001
1.734163e+002, 8.974022e+001
1.738984e+002, 9.322560e+001
1.743805e+002, 9.617760e+001
1.748626e+002, 9.903160e+001
1.753447e+002, 1.018637e+002
1.758268e+002, 1.047830e+002
1.763090e+002, 1.079629e+002
1.767911e+002, 1.113780e+002
1.772732e+002, 1.148680e+002
1.777553e+002, 1.178176e+002
1.782374e+002, 1.201783e+002
1.787195e+002, 1.223957e+002
1.792017e+002, 1.245561e+002
1.796838e+002, 1.267616e+002
1.801659e+002, 1.291488e+002
1.806480e+002, 1.317502e+002
1.811301e+002, 1.344034e+002
1.816122e+002, 1.370450e+002
1.820944e+002, 1.396682e+002
1.825765e+002, 1.421768e+002
1.830586e+002, 1.441701e+002
1.835407e+002, 1.460751e+002
1.840228e+002, 1.490740e+002
1.845049e+002, 1.532688e+002
1.849871e+002, 1.578677e+002
1.854692e+002, 1.617987e+002
1.859513e+002, 1.652265e+002
1.864334e+002, 1.688206e+002
1.869155e+002, 1.730946e+002
1.873976e+002, 1.778230e+002
1.878798e+002, 1.823574e+002
1.883619e+002, 1.866716e+002
1.888440e+002, 1.907620e+002
1.893261e+002, 1.945313e+002
1.898082e+002, 1.980185e+002
1.902903e+002, 2.012603e+002
1.907725e+002, 2.040890e+002
1.912546e+002, 2.066495e+002
1.917367e+002, 2.096088e+002
1.922188e+002, 2.130992e+002
1.927009e+002, 2.167565e+002
1.931830e+002, 2.199078e+002
1.936652e+002, 2.225427e+002
1.941473e+002, 2.250423e+002
1.946294e+002, 2.275133e+002
1.951115e+002, 2.299663e+002
1.955936e+002, 2.326195e+002
1.960757e+002, 2.355863e+002
1.965579e+002, 2.385833e+002
1.970400e+002, 2.410121e+002
1.975221e+002, 2.428347e+002
1.980042e+002, 2.445202e+002
1.984863e+002, 2.463464e+002
1.989684e+002, 2.483087e+002
1.994506e+002, 2.502318e+002
1.999327e+002, 2.520989e+002
2.004148e+002, 2.539046e+002
2.008969e+002, 2.556815e+002
2.013790e+002, 2.575013e+002
2.018611e+002, 2.590219e+002
2.023433e+002, 2.598317e+002
2.028254e+002, 2.598237e+002
2.033075e+002, 2.604755e+002
2.037896e+002, 2.620954e+002
2.042717e+002, 2.642471e+002
2.047538e+002, 2.657164e+002
2.052360e+002, 2.663126e+002
2.057181e+002, 2.669187e+002
2.062002e+002, 2.680946e+002
2.066823e+002, 2.699245e+002
2.071644e+002, 2.717830e+002
2.076465e+002, 2.737555e+002
2.081287e+002, 2.756438e+002
2.086108e+002, 2.768677e+002
2.090929e+002, 2.773065e+002
2.095750e+002, 2.774164e+002
2.100571e+002, 2.774621e+002
2.105392e+002, 2.774662e+002
2.110214e+002, 2.772798e+002
2.115035e+002, 2.767817e+002
2.119856e+002, 2.761258e+002
2.124677e+002, 2.758851e+002
2.129498e+002, 2.762409e+002
2.134319e+002, 2.766227e+002
2.139140e+002, 2.767123e+002
2.143962e+002, 2.764995e+002
2.148783e+002, 2.760548e+002
2.153604e+002, 2.753824e+002
2.158425e+002, 2.744869e+002
2.163246e+002, 2.733595e+002
2.168067e+002, 2.718456e+002
2.172889e+002, 2.703734e+002
2.177710e+002, 2.692285e+002
2.182531e+002, 2.685525e+002
2.187352e+002, 2.677424e+002
2.192173e+002, 2.666483e+002
2.196994e+002, 2.653600e+002
2.201816e+002, 2.644275e+002
2.206637e+002, 2.640708e+002
2.211458e+002, 2.636507e+002
2.216279e+002, 2.627026e+002
2.221100e+002, 2.609029e+002
2.225921e+002, 2.594203e+002
2.230743e+002, 2.584434e+002
2.235564e+002, 2.578596e+002
2.240385e+002, 2.570782e+002
2.245206e+002, 2.560243e+002
2.250027e+002, 2.549320e+002
2.254848e+002, 2.539570e+002
2.259670e+002, 2.531811e+002
2.264491e+002, 2.523637e+002
2.269312e+002, 2.515065e+002
2.274133e+002, 2.506021e+002
2.278954e+002, 2.495533e+002
2.283775e+002, 2.483679e+002
2.288597e+002, 2.470618e+002
2.293418e+002, 2.455598e+002
2.298239e+002, 2.434793e+002
2.303060e+002, 2.421391e+002
2.307881e+002, 2.420039e+002
2.312702e+002, 2.427243e+002
2.317524e+002, 2.425879e+002
2.322345e+002, 2.410740e+002
2.327166e+002, 2.394359e+002
2.331987e+002, 2.384776e+002
2.336808e+002, 2.386874e+002
2.341629e+002, 2.384766e+002
2.346451e+002, 2.376304e+002
2.351272e+002, 2.362755e+002
2.356093e+002, 2.349208e+002
2.360914e+002, 2.334093e+002
2.365735e+002, 2.321124e+002
2.370556e+002, 2.312884e+002
2.375378e+002, 2.312433e+002
2.380199e+002, 2.310156e+002
2.385020e+002, 2.305518e+002
2.389841e+002, 2.298744e+002
2.394662e+002, 2.290482e+002
2.399483e+002, 2.279032e+002
2.404305e+002, 2.268540e+002
2.409126e+002, 2.261421e+002
2.413947e+002, 2.259782e+002
2.418768e+002, 2.256850e+002
2.423589e+002, 2.251241e+002
2.428410e+002, 2.244232e+002
2.433232e+002, 2.240665e+002
2.438053e+002, 2.243394e+002
2.442874e+002, 2.245621e+002
2.447695e+002, 2.243713e+002
2.452516e+002, 2.235692e+002
2.457337e+002, 2.227557e+002
2.462159e+002, 2.217884e+002
2.466980e+002, 2.208318e+002
2.471801e+002, 2.204804e+002
2.476622e+002, 2.210371e+002
2.481443e+002, 2.217262e+002
2.486264e+002, 2.221982e+002
2.491086e+002, 2.224425e+002
2.495907e+002, 2.224835e+002
2.500728e+002, 2.222076e+002
2.505549e+002, 2.217632e+002
2.510370e+002, 2.215484e+002
2.515191e+002, 2.216380e+002
2.520013e+002, 2.218465e+002
2.524834e+002, 2.221416e+002
2.529655e+002, 2.226688e+002
2.534476e+002, 2.228683e+002
2.539297e+002, 2.225020e+002
2.544118e+002, 2.219179e+002
2.548940e+002, 2.219554e+002
2.553761e+002, 2.229936e+002
2.558582e+002, 2.239824e+002
2.563403e+002, 2.244183e+002
2.568224e+002, 2.240354e+002
2.573046e+002, 2.239813e+002
2.577867e+002, 2.243747e+002
2.582688e+002, 2.250130e+002
2.587509e+002, 2.255351e+002
2.592330e+002, 2.259711e+002
2.597151e+002, 2.262100e+002
2.601973e+002, 2.261785e+002
2.606794e+002, 2.258230e+002
2.611615e+002, 2.254059e+002
2.616436e+002, 2.248200e+002
2.621257e+002, 2.242715e+002
2.626078e+002, 2.241269e+002
2.630900e+002, 2.244742e+002
2.635721e+002, 2.250371e+002
2.640542e+002, 2.258002e+002
2.645363e+002, 2.268503e+002
2.650184e+002, 2.275787e+002
2.655005e+002, 2.278786e+002
2.659827e+002, 2.280086e+002
2.664648e+002, 2.283482e+002
2.669469e+002, 2.289504e+002
2.674290e+002, 2.296181e+002
2.679111e+002, 2.304001e+002
2.683932e+002, 2.313277e+002
2.688754e+002, 2.316221e+002
2.693575e+002, 2.309578e+002
2.698396e+002, 2.301514e+002
2.703217e+002, 2.303695e+002
2.708038e+002, 2.319053e+002
2.712859e+002, 2.332990e+002
2.717681e+002, 2.341232e+002
2.722502e+002, 2.343903e+002
2.727323e+002, 2.345944e+002
2.732144e+002, 2.347104e+002
2.736965e+002, 2.348032e+002
2.741786e+002, 2.348681e+002
2.746608e+002, 2.348419e+002
2.751429e+002, 2.351675e+002
2.756250e+002, 2.360947e+002
2.761071e+002, 2.375035e+002
2.765892e+002, 2.385150e+002
2.770714e+002, 2.390725e+002
2.775535e+002, 2.393498e+002
2.780356e+002, 2.393537e+002
2.785177e+002, 2.390205e+002
2.789998e+002, 2.391138e+002
2.794819e+002, 2.399981e+002
2.799641e+002, 2.413861e+002
2.804462e+002, 2.419181e+002
2.809283e+002, 2.414596e+002
2.814104e+002, 2.407219e+002
2.818925e+002, 2.401766e+002
2.823746e+002, 2.398226e+002
2.828568e+002, 2.397759e+002
2.833389e+002, 2.401031e+002
2.838210e+002, 2.407192e+002
2.843031e+002, 2.414808e+002
2.847852e+002, 2.424314e+002
2.852673e+002, 2.432373e+002
2.857495e+002, 2.435975e+002
2.862316e+002, 2.435518e+002
2.867137e+002, 2.435725e+002
2.871958e+002, 2.437365e+002
2.876779e+002, 2.439764e+002
2.881600e+002, 2.441055e+002
2.886422e+002, 2.441193e+002
2.891243e+002, 2.442470e+002
2.896064e+002, 2.445491e+002
2.900885e+002, 2.450524e+002
2.905706e+002, 2.459968e+002
2.910527e+002, 2.475085e+002
2.915349e+002, 2.491915e+002
2.920170e+002, 2.504797e+002
2.924991e+002, 2.513689e+002
2.929812e+002, 2.519816e+002
2.934633e+002, 2.522923e+002
2.939454e+002, 2.523635e+002
2.944276e+002, 2.522331e+002
2.949097e+002, 2.517928e+002
2.953918e+002, 2.516515e+002
2.958739e+002, 2.530779e+002
2.963560e+002, 2.556850e+002
2.968381e+002, 2.577017e+002
2.973203e+002, 2.576524e+002
2.978024e+002, 2.565362e+002
2.982845e+002, 2.565295e+002
2.987666e+002, 2.577589e+002
2.992487e+002, 2.592494e+002
2.997308e+002, 2.600057e+002
3.002130e+002, 2.602371e+002
3.006951e+002, 2.605352e+002
3.011772e+002, 2.612715e+002
3.016593e+002, 2.621420e+002
3.021414e+002, 2.626396e+002
3.026235e+002, 2.627690e+002
3.031057e+002, 2.629453e+002
3.035878e+002, 2.637635e+002
3.040699e+002, 2.648476e+002
3.045520e+002, 2.654599e+002
3.050341e+002, 2.650161e+002
3.055162e+002, 2.643203e+002
3.059984e+002, 2.643255e+002
3.064805e+002, 2.649271e+002
3.069626e+002, 2.654081e+002
3.074447e+002, 2.650350e+002
3.079268e+002, 2.643223e+002
3.084089e+002, 2.639440e+002
3.088911e+002, 2.641483e+002
3.093732e+002, 2.646165e+002
3.098553e+002, 2.654068e+002
3.103374e+002, 2.663310e+002
3.108195e+002, 2.667588e+002
3.113016e+002, 2.659879e+002
3.117838e+002, 2.647322e+002
3.122659e+002, 2.636004e+002
3.127480e+002, 2.627253e+002
3.132301e+002, 2.619564e+002
3.137122e+002, 2.612738e+002
3.141943e+002, 2.606214e+002
3.146765e+002, 2.598969e+002
3.151586e+002, 2.589266e+002
3.156407e+002, 2.579624e+002
3.161228e+002, 2.571776e+002
3.166049e+002, 2.566426e+002
3.170870e+002, 2.561021e+002
3.175692e+002, 2.553551e+002
3.180513e+002, 2.545597e+002
3.185334e+002, 2.539414e+002
3.190155e+002, 2.539339e+002
3.194976e+002, 2.538103e+002
3.199797e+002, 2.531600e+002
3.204619e+002, 2.519059e+002
3.209440e+002, 2.507646e+002
3.214261e+002, 2.501870e+002
3.219082e+002, 2.497249e+002
3.223903e+002, 2.489561e+002
3.228724e+002, 2.472050e+002
3.233546e+002, 2.457232e+002
3.238367e+002, 2.449709e+002
3.243188e+002, 2.449234e+002
3.248009e+002, 2.447439e+002
3.252830e+002, 2.440616e+002
3.257651e+002, 2.433581e+002
3.262473e+002, 2.429481e+002
3.267294e+002, 2.433545e+002
3.272115e+002, 2.434957e+002
3.276936e+002, 2.430132e+002
3.281757e+002, 2.420989e+002
3.286578e+002, 2.416759e+002
3.291400e+002, 2.421779e+002
3.296221e+002, 2.428262e+002
3.301042e+002, 2.432783e+002
3.305863e+002, 2.431635e+002
3.310684e+002, 2.434870e+002
3.315505e+002, 2.445569e+002
3.320327e+002, 2.460015e+002
3.325148e+002, 2.469673e+002
3.329969e+002, 2.470823e+002
3.334790e+002, 2.472027e+002
3.339611e+002, 2.476784e+002
3.344432e+002, 2.486891e+002
3.349254e+002, 2.492265e+002
3.354075e+002, 2.488526e+002
3.358896e+002, 2.483547e+002
3.363717e+002, 2.489708e+002
3.368538e+002, 2.512905e+002
3.373359e+002, 2.532713e+002
3.378180e+002, 2.542777e+002
3.383001e+002, 2.543253e+002
3.387823e+002, 2.544635e+002
3.392644e+002, 2.547173e+002
3.397465e+002, 2.550212e+002
3.402286e+002, 2.553610e+002
3.407107e+002, 2.557765e+002
3.411928e+002, 2.560105e+002
3.416750e+002, 2.560140e+002
3.421571e+002, 2.558054e+002
3.426392e+002, 2.553621e+002
3.431213e+002, 2.546226e+002
3.436034e+002, 2.539677e+002
3.440855e+002, 2.537738e+002
3.445677e+002, 2.540169e+002
3.450498e+002, 2.540431e+002
3.455319e+002, 2.537748e+002
3.460140e+002, 2.532568e+002
3.464961e+002, 2.525114e+002
3.469782e+002, 2.515494e+002
3.474604e+002, 2.505452e+002
3.479425e+002, 2.495486e+002
3.484246e+002, 2.485836e+002
3.489067e+002, 2.478313e+002
3.493888e+002, 2.473443e+002
3.498709e+002, 2.468550e+002
3.503531e+002, 2.459279e+002
3.508352e+002, 2.446889e+002
3.513173e+002, 2.436116e+002
3.517994e+002, 2.431127e+002
3.522815e+002, 2.428199e+002
3.527636e+002, 2.420769e+002
3.532458e+002, 2.408811e+002
3.537279e+002, 2.395419e+002
3.542100e+002, 2.382626e+002
3.546921e+002, 2.370234e+002
3.551742e+002, 2.357948e+002
3.556563e+002, 2.345292e+002
3.561385e+002, 2.332894e+002
3.566206e+002, 2.321264e+002
3.571027e+002, 2.310311e+002
3.575848e+002, 2.299948e+002
3.580669e+002, 2.289743e+002
3.585490e+002, 2.280172e+002
3.590312e+002, 2.272085e+002
3.595133e+002, 2.266604e+002
3.599954e+002, 2.260279e+002
3.604775e+002, 2.250370e+002
3.609596e+002, 2.238150e+002
3.614417e+002, 2.226469e+002
3.619239e+002, 2.216227e+002
3.624060e+002, 2.206956e+002
3.628881e+002, 2.198229e+002
3.633702e+002, 2.189824e+002
3.638523e+002, 2.182986e+002
3.643344e+002, 2.180287e+002
3.648166e+002, 2.178620e+002
3.652987e+002, 2.174409e+002
3.657808e+002, 2.162604e+002
3.662629e+002, 2.152508e+002
3.667450e+002, 2.146706e+002
3.672271e+002, 2.145241e+002
3.677093e+002, 2.145425e+002
3.681914e+002, 2.148837e+002
3.686735e+002, 2.152581e+002
3.691556e+002, 2.154788e+002
3.696377e+002, 2.154999e+002
3.701198e+002, 2.153988e+002
3.706020e+002, 2.150272e+002
3.710841e+002, 2.145105e+002
3.715662e+002, 2.143445e+002
3.720483e+002, 2.149803e+002
3.725304e+002, 2.154151e+002
3.730125e+002, 2.151595e+002
3.734947e+002, 2.138503e+002
3.739768e+002, 2.128779e+002
3.744589e+002, 2.122309e+002
3.749410e+002, 2.119180e+002
3.754231e+002, 2.120387e+002
3.759052e+002, 2.127884e+002
3.763874e+002, 2.134375e+002
3.768695e+002, 2.137609e+002
3.773516e+002, 2.137710e+002
3.778337e+002, 2.137348e+002
3.783158e+002, 2.136706e+002
3.787979e+002, 2.135264e+002
3.792801e+002, 2.131726e+002
3.797622e+002, 2.125890e+002
3.802443e+002, 2.122300e+002
3.807264e+002, 2.122256e+002
3.812085e+002, 2.124630e+002
3.816906e+002, 2.125890e+002
3.821728e+002, 2.125945e+002
3.826549e+002, 2.127730e+002
3.831370e+002, 2.134551e+002
3.836191e+002, 2.145011e+002
3.841012e+002, 2.153363e+002
3.845833e+002, 2.158875e+002
3.850655e+002, 2.162816e+002
3.855476e+002, 2.167131e+002
3.860297e+002, 2.171405e+002
3.865118e+002, 2.173958e+002
3.869939e+002, 2.169988e+002
3.874760e+002, 2.165468e+002
3.879582e+002, 2.171039e+002
3.884403e+002, 2.187050e+002
3.889224e+002, 2.203129e+002
3.894045e+002, 2.211184e+002
3.898866e+002, 2.213895e+002
3.903687e+002, 2.214790e+002
3.908509e+002, 2.212270e+002
3.913330e+002, 2.211320e+002
3.918151e+002, 2.216495e+002
3.922972e+002, 2.226634e+002
3.927793e+002, 2.236990e+002
3.932614e+002, 2.246545e+002
3.937436e+002, 2.254549e+002
3.942257e+002, 2.260695e+002
3.947078e+002, 2.264909e+002
3.951899e+002, 2.267080e+002
3.956720e+002, 2.266848e+002
3.961541e+002, 2.264571e+002
3.966363e+002, 2.260833e+002
3.971184e+002, 2.251204e+002
3.976005e+002, 2.244362e+002
3.980826e+002, 2.245096e+002
3.985647e+002, 2.254968e+002
3.990468e+002, 2.260565e+002
3.995290e+002, 2.256909e+002
4.000111e+002, 2.250541e+002
4.004932e+002, 2.246775e+002
4.009753e+002, 2.249483e+002
4.014574e+002, 2.249611e+002
4.019395e+002, 2.245663e+002
4.024217e+002, 2.238401e+002
4.029038e+002, 2.231416e+002
4.033859e+002, 2.225025e+002
4.038680e+002, 2.218466e+002
4.043501e+002, 2.211194e+002
4.048322e+002, 2.202852e+002
4.053144e+002, 2.195386e+002
4.057965e+002, 2.189244e+002
4.062786e+002, 2.183542e+002
4.067607e+002, 2.176013e+002
4.072428e+002, 2.165703e+002
4.077249e+002, 2.159086e+002
4.082071e+002, 2.160916e+002
4.086892e+002, 2.168855e+002
4.091713e+002, 2.165946e+002
4.096534e+002, 2.150455e+002
4.101355e+002, 2.134004e+002
4.106176e+002, 2.128358e+002
4.110998e+002, 2.131682e+002
4.115819e+002, 2.133688e+002
4.120640e+002, 2.132503e+002
4.125461e+002, 2.128891e+002
4.130282e+002, 2.123672e+002
4.135103e+002, 2.116953e+002
4.139925e+002, 2.109304e+002
4.144746e+002, 2.097604e+002
4.149567e+002, 2.086221e+002
4.154388e+002, 2.083922e+002
4.159209e+002, 2.092329e+002
4.164030e+002, 2.100889e+002
4.168852e+002, 2.100723e+002
4.173673e+002, 2.094846e+002
4.178494e+002, 2.088227e+002
4.183315e+002, 2.081463e+002
4.188136e+002, 2.075672e+002
4.192957e+002, 2.071881e+002
4.197779e+002, 2.069905e+002
4.202600e+002, 2.068145e+002
4.207421e+002, 2.066292e+002
4.212242e+002, 2.064187e+002
4.217063e+002, 2.061600e+002
4.221884e+002, 2.057510e+002
4.226706e+002, 2.054766e+002
4.231527e+002, 2.056754e+002
4.236348e+002, 2.060242e+002
4.241169e+002, 2.059186e+002
4.245990e+002, 2.047305e+002
4.250811e+002, 2.035881e+002
4.255633e+002, 2.028222e+002
4.260454e+002, 2.024678e+002
4.265275e+002, 2.022334e+002
4.270096e+002, 2.021340e+002
4.274917e+002, 2.021336e+002
4.279738e+002, 2.022117e+002
4.284560e+002, 2.024129e+002
4.289381e+002, 2.025972e+002
4.294202e+002, 2.027835e+002
4.299023e+002, 2.029307e+002
4.303844e+002, 2.028867e+002
4.308665e+002, 2.026046e+002
4.313487e+002, 2.022637e+002
4.318308e+002, 2.019028e+002
4.323129e+002, 2.015128e+002
4.327950e+002, 2.013833e+002
4.332771e+002, 2.016059e+002
4.337592e+002, 2.018579e+002
4.342414e+002, 2.016030e+002
4.347235e+002, 2.008984e+002
4.352056e+002, 2.004305e+002
4.356877e+002, 2.004963e+002
4.361698e+002, 2.008809e+002
4.366519e+002, 2.011229e+002
4.371341e+002, 2.012341e+002
4.376162e+002, 2.013963e+002
4.380983e+002, 2.018692e+002
4.385804e+002, 2.024586e+002
4.390625e+002, 2.027912e+002
4.395446e+002, 2.027441e+002
4.400268e+002, 2.026471e+002
4.405089e+002, 2.026340e+002
4.409910e+002, 2.027931e+002
4.414731e+002, 2.033007e+002
4.419552e+002, 2.047995e+002
4.424373e+002, 2.062285e+002
4.429195e+002, 2.067639e+002
4.434016e+002, 2.064059e+002
4.438837e+002, 2.061641e+002
4.443658e+002, 2.065356e+002
4.448479e+002, 2.071422e+002
4.453300e+002, 2.076924e+002
4.458122e+002, 2.083133e+002
4.462943e+002, 2.086335e+002
4.467764e+002, 2.081822e+002
4.472585e+002, 2.073694e+002
4.477406e+002, 2.072478e+002
4.482227e+002, 2.085586e+002
4.487049e+002, 2.099105e+002
4.491870e+002, 2.110315e+002
4.496691e+002, 2.119838e+002
4.501512e+002, 2.122095e+002
4.506333e+002, 2.111758e+002
4.511154e+002, 2.099985e+002
4.515976e+002, 2.098512e+002
4.520797e+002, 2.111414e+002
4.525618e+002, 2.121169e+002
4.530439e+002, 2.124933e+002
4.535260e+002, 2.123946e+002
4.540081e+002, 2.121411e+002
4.544903e+002, 2.116985e+002
4.549724e+002, 2.113282e+002
4.554545e+002, 2.111499e+002
4.559366e+002, 2.111611e+002
4.564187e+002, 2.114130e+002
4.569008e+002, 2.119502e+002
4.573830e+002, 2.124688e+002
4.578651e+002, 2.125418e+002
4.583472e+002, 2.122817e+002
4.588293e+002, 2.120700e+002
4.593114e+002, 2.121693e+002
4.597935e+002, 2.122263e+002
4.602757e+002, 2.116899e+002
4.607578e+002, 2.106589e+002
4.612399e+002, 2.096358e+002
4.617220e+002, 2.090056e+002
4.622041e+002, 2.084879e+002
4.626862e+002, 2.078236e+002
4.631684e+002, 2.069603e+002
4.636505e+002, 2.060387e+002
4.641326e+002, 2.051393e+002
4.646147e+002, 2.042373e+002
4.650968e+002, 2.032833e+002
4.655789e+002, 2.024194e+002
4.660611e+002, 2.013772e+002
4.665432e+002, 1.999156e+002
4.670253e+002, 1.980997e+002
4.675074e+002, 1.965683e+002
4.679895e+002, 1.955371e+002
4.684716e+002, 1.946957e+002
4.689538e+002, 1.939187e+002
4.694359e+002, 1.932636e+002
4.699180e+002, 1.925792e+002
4.704001e+002, 1.919521e+002
4.708822e+002, 1.912243e+002
4.713643e+002, 1.901137e+002
4.718465e+002, 1.884843e+002
4.723286e+002, 1.868477e+002
4.728107e+002, 1.852818e+002
4.732928e+002, 1.838226e+002
4.737749e+002, 1.825815e+002
4.742570e+002, 1.815808e+002
4.747392e+002, 1.807119e+002
4.752213e+002, 1.799051e+002
4.757034e+002, 1.791624e+002
4.761855e+002, 1.785197e+002
4.766676e+002, 1.780058e+002
4.771497e+002, 1.775093e+002
4.776319e+002, 1.769023e+002
4.781140e+002, 1.761969e+002
4.785961e+002, 1.754339e+002
4.790782e+002, 1.744701e+002
4.795603e+002, 1.735585e+002
4.800424e+002, 1.729743e+002
4.805246e+002, 1.727072e+002
4.810067e+002, 1.726850e+002
4.814888e+002, 1.730198e+002
4.819709e+002, 1.734876e+002
4.824530e+002, 1.739359e+002
4.829352e+002, 1.744431e+002
4.834173e+002, 1.746527e+002
4.838994e+002, 1.741505e+002
4.843815e+002, 1.733179e+002
4.848636e+002, 1.727423e+002
4.853457e+002, 1.727575e+002
4.858279e+002, 1.728348e+002
4.863100e+002, 1.727981e+002
4.867921e+002, 1.726479e+002
4.872742e+002, 1.727121e+002
4.877563e+002, 1.732603e+002
4.882384e+002, 1.737557e+002
4.887206e+002, 1.738523e+002
4.892027e+002, 1.732943e+002
4.896848e+002, 1.730064e+002
4.901669e+002, 1.729356e+002
4.906490e+002, 1.732116e+002
4.911311e+002, 1.742314e+002
4.916133e+002, 1.761376e+002
4.920954e+002, 1.777343e+002
4.925775e+002, 1.785880e+002
4.930596e+002, 1.788659e+002
4.935417e+002, 1.791762e+002
4.940238e+002, 1.795163e+002
4.945060e+002, 1.798468e+002
4.949881e+002, 1.799568e+002
4.954702e+002, 1.800387e+002
4.959523e+002, 1.806958e+002
4.964344e+002, 1.821132e+002
4.969165e+002, 1.835846e+002
4.973987e+002, 1.842863e+002
4.978808e+002, 1.845509e+002
4.983629e+002, 1.849920e+002
4.988450e+002, 1.860400e+002
4.993271e+002, 1.872026e+002
4.998092e+002, 1.882722e+002
5.002914e+002, 1.892270e+002
5.007735e+002, 1.898728e+002
5.012556e+002, 1.896108e+002
5.017377e+002, 1.894279e+002
5.022198e+002, 1.899950e+002
5.027019e+002, 1.918070e+002
5.031841e+002, 1.932939e+002
5.036662e+002, 1.940042e+002
5.041483e+002, 1.944024e+002
5.046304e+002, 1.950227e+002
5.051125e+002, 1.960482e+002
5.055946e+002, 1.969926e+002
5.060768e+002, 1.978315e+002
5.065589e+002, 1.985376e+002
5.070410e+002, 1.989651e+002
5.075231e+002, 1.990425e+002
5.080052e+002, 1.990367e+002
5.084873e+002, 1.990500e+002
5.089695e+002, 1.990805e+002
5.094516e+002, 1.992055e+002
5.099337e+002, 1.994166e+002
5.104158e+002, 1.997506e+002
5.108979e+002, 2.004827e+002
5.113800e+002, 2.014497e+002
5.118622e+002, 2.018195e+002
5.123443e+002, 2.010959e+002
5.128264e+002, 2.000820e+002
5.133085e+002, 1.999551e+002
5.137906e+002, 2.004902e+002
5.142728e+002, 2.008779e+002
5.147549e+002, 2.003961e+002
5.152370e+002, 1.997463e+002
5.157191e+002, 1.995703e+002
5.162012e+002, 1.999392e+002
5.166833e+002, 2.003447e+002
5.171655e+002, 2.007460e+002
5.176476e+002, 2.009818e+002
5.181297e+002, 2.009091e+002
5.186118e+002, 2.001333e+002
5.190939e+002, 1.995055e+002
5.195760e+002, 1.992068e+002
5.200582e+002, 1.991459e+002
5.205403e+002, 1.990670e+002
5.210224e+002, 1.986994e+002
5.215045e+002, 1.987090e+002
5.219866e+002, 1.994741e+002
5.224688e+002, 2.009937e+002
5.229509e+002, 2.017374e+002
5.234330e+002, 2.014564e+002
5.239151e+002, 2.009848e+002
5.243972e+002, 2.008958e+002
5.248793e+002, 2.011919e+002
5.253615e+002, 2.018159e+002
5.258436e+002, 2.028149e+002
5.263257e+002, 2.039996e+002
5.268078e+002, 2.052065e+002
5.272899e+002, 2.063871e+002
5.277720e+002, 2.072760e+002
5.282542e+002, 2.075727e+002
5.287363e+002, 2.076623e+002
5.292184e+002, 2.079753e+002
5.297005e+002, 2.085159e+002
5.301826e+002, 2.093220e+002
5.306647e+002, 2.105402e+002
5.311469e+002, 2.119593e+002
5.316290e+002, 2.133854e+002
5.321111e+002, 2.147418e+002
5.325932e+002, 2.163313e+002
5.330753e+002, 2.183366e+002
5.335574e+002, 2.206154e+002
5.340396e+002, 2.229856e+002
5.345217e+002, 2.255791e+002
5.350038e+002, 2.281002e+002
5.354859e+002, 2.304335e+002
5.359680e+002, 2.326748e+002
5.364501e+002, 2.351843e+002
5.369323e+002, 2.381397e+002
5.374144e+002, 2.410428e+002
5.378965e+002, 2.435372e+002
5.383786e+002, 2.455820e+002
5.388607e+002, 2.486018e+002
5.393428e+002, 2.528335e+002
5.398250e+002, 2.572238e+002
5.403071e+002, 2.606885e+002
5.407892e+002, 2.632830e+002
5.412713e+002, 2.659213e+002
5.417534e+002, 2.686491e+002
5.422355e+002, 2.716470e+002
5.427177e+002, 2.754667e+002
5.431998e+002, 2.798418e+002
5.436819e+002, 2.838229e+002
5.441640e+002, 2.867653e+002
5.446461e+002, 2.892129e+002
5.451282e+002, 2.913788e+002
5.456104e+002, 2.933745e+002
5.460925e+002, 2.959176e+002
5.465746e+002, 2.998705e+002
5.470567e+002, 3.041413e+002
5.475388e+002, 3.080860e+002
5.480209e+002, 3.115993e+002
5.485031e+002, 3.147802e+002
5.489852e+002, 3.171768e+002
5.494673e+002, 3.194981e+002
5.499494e+002, 3.225233e+002
5.504315e+002, 3.269701e+002
5.509136e+002, 3.309881e+002
5.513958e+002, 3.342045e+002
5.518779e+002, 3.369247e+002
5.523600e+002, 3.400915e+002
5.528421e+002, 3.439381e+002
5.533242e+002, 3.474667e+002
5.538063e+002, 3.502147e+002
5.542885e+002, 3.522575e+002
5.547706e+002, 3.540598e+002
5.552527e+002, 3.555834e+002
5.557348e+002, 3.572760e+002
5.562169e+002, 3.601662e+002
5.566990e+002, 3.635015e+002
5.571812e+002, 3.651962e+002
5.576633e+002, 3.646377e+002
5.581454e+002, 3.635237e+002
5.586275e+002, 3.634283e+002
5.591096e+002, 3.639356e+002
5.595917e+002, 3.643089e+002
5.600739e+002, 3.645076e+002
5.605560e+002, 3.642589e+002
5.610381e+002, 3.630440e+002
5.615202e+002, 3.611484e+002
5.620023e+002, 3.597733e+002
5.624844e+002, 3.597823e+002
5.629666e+002, 3.598888e+002
5.634487e+002, 3.594918e+002
5.639308e+002, 3.584606e+002
5.644129e+002, 3.575550e+002
5.648950e+002, 3.569520e+002
5.653771e+002, 3.562739e+002
5.658593e+002, 3.552155e+002
5.663414e+002, 3.537512e+002
5.668235e+002, 3.519941e+002
5.673056e+002, 3.499640e+002
5.677877e+002, 3.475984e+002
5.682698e+002, 3.448665e+002
5.687520e+002, 3.417325e+002
5.692341e+002, 3.379637e+002
5.697162e+002, 3.333480e+002
5.701983e+002, 3.281059e+002
5.706804e+002, 3.223130e+002
5.711625e+002, 3.160735e+002
5.716447e+002, 3.099254e+002
5.721268e+002, 3.043138e+002
5.726089e+002, 2.989028e+002
5.730910e+002, 2.934448e+002
5.735731e+002, 2.878417e+002
5.740552e+002, 2.823540e+002
5.745374e+002, 2.768948e+002
5.750195e+002, 2.716414e+002
5.755016e+002, 2.667360e+002
5.759837e+002, 2.623550e+002
5.764658e+002, 2.581523e+002
5.769479e+002, 2.541542e+002
5.774301e+002, 2.502589e+002
5.779122e+002, 2.462058e+002
5.783943e+002, 2.416890e+002
5.788764e+002, 2.375336e+002
5.793585e+002, 2.340154e+002
5.798406e+002, 2.310544e+002
5.803228e+002, 2.280767e+002
5.808049e+002, 2.250500e+002
5.812870e+002, 2.222280e+002
5.817691e+002, 2.198319e+002
5.822512e+002, 2.177825e+002
5.827333e+002, 2.156782e+002
5.832155e+002, 2.134749e+002
5.836975e+002, 2.114073e+002
5.841796e+002, 2.097180e+002
5.846617e+002, 2.082701e+002
5.851439e+002, 2.068391e+002
5.856260e+002, 2.054305e+002
5.861081e+002, 2.039102e+002
5.865902e+002, 2.020723e+002
5.870723e+002, 2.000708e+002
5.875544e+002, 1.982385e+002
5.880366e+002, 1.966735e+002
5.885187e+002, 1.952389e+002
5.890008e+002, 1.938646e+002
5.894829e+002, 1.925564e+002
5.899650e+002, 1.914468e+002
5.904471e+002, 1.905450e+002
5.909293e+002, 1.898209e+002
5.914114e+002, 1.893614e+002
5.918935e+002, 1.892604e+002
5.923756e+002, 1.886720e+002
5.928577e+002, 1.874878e+002
5.933398e+002, 1.860993e+002
5.938220e+002, 1.847743e+002
5.943041e+002, 1.835460e+002
5.947862e+002, 1.826952e+002
5.952683e+002, 1.823169e+002
5.957504e+002, 1.822188e+002
5.962325e+002, 1.823552e+002
5.967147e+002, 1.825815e+002
5.971968e+002, 1.825187e+002
5.976789e+002, 1.817377e+002
5.981610e+002, 1.808316e+002
5.986431e+002, 1.801919e+002
5.991252e+002, 1.797928e+002
5.996074e+002, 1.794824e+002
6.000895e+002, 1.792083e+002
6.005716e+002, 1.790032e+002
6.010537e+002, 1.788707e+002
6.015358e+002, 1.788020e+002
6.020179e+002, 1.788868e+002
6.025001e+002, 1.793334e+002
6.029822e+002, 1.797269e+002
6.034643e+002, 1.797171e+002
6.039464e+002, 1.791631e+002
6.044285e+002, 1.787229e+002
6.049106e+002, 1.783661e+002
6.053928e+002, 1.782538e+002
6.058749e+002, 1.788615e+002
6.063570e+002, 1.801113e+002
6.068391e+002, 1.809043e+002
6.073212e+002, 1.806657e+002
6.078033e+002, 1.801038e+002
6.082855e+002, 1.803067e+002
6.087676e+002, 1.811297e+002
6.092497e+002, 1.820514e+002
6.097318e+002, 1.830233e+002
6.102139e+002, 1.837938e+002
6.106960e+002, 1.840164e+002
6.111782e+002, 1.837017e+002
6.116603e+002, 1.835354e+002
6.121424e+002, 1.838606e+002
6.126245e+002, 1.843346e+002
6.131066e+002, 1.847512e+002
6.135887e+002, 1.850797e+002
6.140709e+002, 1.854076e+002
6.145530e+002, 1.858173e+002
6.150351e+002, 1.861611e+002
6.155172e+002, 1.862837e+002
6.159993e+002, 1.861596e+002
6.164814e+002, 1.858827e+002
6.169636e+002, 1.853354e+002
6.174457e+002, 1.848386e+002
6.179278e+002, 1.851499e+002
6.184099e+002, 1.861931e+002
6.188920e+002, 1.871742e+002
6.193741e+002, 1.878095e+002
6.198563e+002, 1.881676e+002
6.203384e+002, 1.881470e+002
6.208205e+002, 1.878504e+002
6.213026e+002, 1.877997e+002
6.217847e+002, 1.887113e+002
6.222668e+002, 1.896851e+002
6.227490e+002, 1.898742e+002
6.232311e+002, 1.891109e+002
6.237132e+002, 1.887429e+002
6.241953e+002, 1.895385e+002
6.246774e+002, 1.905784e+002
6.251595e+002, 1.912272e+002
6.256417e+002, 1.913369e+002
6.261238e+002, 1.913204e+002
6.266059e+002, 1.911019e+002
6.270880e+002, 1.908484e+002
6.275701e+002, 1.907810e+002
6.280522e+002, 1.909118e+002
6.285344e+002, 1.911642e+002
6.290165e+002, 1.916165e+002
6.294986e+002, 1.920410e+002
6.299807e+002, 1.917928e+002
6.304628e+002, 1.910227e+002
6.309449e+002, 1.905540e+002
6.314271e+002, 1.910076e+002
6.319092e+002, 1.918217e+002
6.323913e+002, 1.924334e+002
6.328734e+002, 1.928598e+002
6.333555e+002, 1.932356e+002
6.338376e+002, 1.935667e+002
6.343198e+002, 1.939160e+002
6.348019e+002, 1.944184e+002
6.352840e+002, 1.951994e+002
6.357661e+002, 1.955126e+002
6.362482e+002, 1.948498e+002
6.367303e+002, 1.940638e+002
6.372125e+002, 1.937442e+002
6.376946e+002, 1.940581e+002
6.381767e+002, 1.943845e+002
6.386588e+002, 1.947395e+002
6.391409e+002, 1.950389e+002
6.396230e+002, 1.950685e+002
6.401052e+002, 1.948582e+002
6.405873e+002, 1.948464e+002
6.410694e+002, 1.951477e+002
6.415515e+002, 1.956972e+002
6.420336e+002, 1.965722e+002
6.425157e+002, 1.976312e+002
6.429979e+002, 1.984755e+002
6.434800e+002, 1.986501e+002
6.439621e+002, 1.987432e+002
6.444442e+002, 1.992438e+002
6.449263e+002, 2.000698e+002
6.454084e+002, 2.006963e+002
6.458906e+002, 2.006108e+002
6.463727e+002, 2.005837e+002
6.468548e+002, 2.010813e+002
6.473369e+002, 2.022191e+002
6.478190e+002, 2.029378e+002
6.483011e+002, 2.029489e+002
6.487833e+002, 2.029662e+002
6.492654e+002, 2.036356e+002
6.497475e+002, 2.050530e+002
6.502296e+002, 2.059546e+002
6.507117e+002, 2.061822e+002
6.511938e+002, 2.062447e+002
6.516760e+002, 2.067190e+002
6.521581e+002, 2.075394e+002
6.526402e+002, 2.085211e+002
6.531223e+002, 2.097012e+002
6.536044e+002, 2.108441e+002
6.540865e+002, 2.117729e+002
6.545687e+002, 2.125259e+002
6.550508e+002, 2.131838e+002
6.555329e+002, 2.137619e+002
6.560150e+002, 2.142745e+002
6.564971e+002, 2.146694e+002
6.569792e+002, 2.149843e+002
6.574614e+002, 2.154055e+002
6.579435e+002, 2.158869e+002
6.584256e+002, 2.165528e+002
6.589077e+002, 2.175403e+002
6.593898e+002, 2.188228e+002
6.598719e+002, 2.197343e+002
6.603541e+002, 2.202331e+002
6.608362e+002, 2.205519e+002
6.613183e+002, 2.207766e+002
6.618004e+002, 2.209479e+002
6.622825e+002, 2.212388e+002
6.627646e+002, 2.216605e+002
6.632468e+002, 2.221731e+002
6.637289e+002, 2.230512e+002
6.642110e+002, 2.238799e+002
6.646931e+002, 2.239857e+002
6.651752e+002, 2.228233e+002
6.656573e+002, 2.220023e+002
6.661395e+002, 2.224003e+002
6.666216e+002, 2.234638e+002
6.671037e+002, 2.245110e+002
6.675858e+002, 2.260691e+002
6.680679e+002, 2.267442e+002
6.685500e+002, 2.259722e+002
6.690322e+002, 2.244546e+002
6.695143e+002, 2.238025e+002
6.699964e+002, 2.241985e+002
6.704785e+002, 2.245218e+002
6.709606e+002, 2.243459e+002
6.714427e+002, 2.239232e+002
6.719249e+002, 2.240031e+002
6.724070e+002, 2.245322e+002
6.728891e+002, 2.250907e+002
6.733712e+002, 2.254577e+002
6.738533e+002, 2.257006e+002
6.743354e+002, 2.258973e+002
6.748176e+002, 2.260464e+002
6.752997e+002, 2.260938e+002
6.757818e+002, 2.258069e+002
6.762639e+002, 2.255668e+002
6.767460e+002, 2.256811e+002
6.772281e+002, 2.263466e+002
6.777103e+002, 2.266863e+002
6.781924e+002, 2.263832e+002
6.786745e+002, 2.260392e+002
6.791566e+002, 2.261794e+002
6.796387e+002, 2.269980e+002
6.801208e+002, 2.273122e+002
6.806030e+002, 2.269530e+002
6.810851e+002, 2.263718e+002
6.815672e+002, 2.259885e+002
6.820493e+002, 2.258386e+002
6.825314e+002, 2.261228e+002
6.830135e+002, 2.270188e+002
6.834957e+002, 2.280466e+002
6.839778e+002, 2.286711e+002
6.844599e+002, 2.290642e+002
6.849420e+002, 2.295261e+002
6.854241e+002, 2.304668e+002
6.859063e+002, 2.311972e+002
6.863884e+002, 2.312233e+002
6.868705e+002, 2.308042e+002
6.873526e+002, 2.308580e+002
6.878347e+002, 2.317541e+002
6.883168e+002, 2.326576e+002
6.887990e+002, 2.333199e+002
6.892811e+002, 2.338003e+002
6.897632e+002, 2.344561e+002
6.902453e+002, 2.353175e+002
6.907274e+002, 2.361413e+002
6.912095e+002, 2.365930e+002
6.916917e+002, 2.369016e+002
6.921738e+002, 2.378809e+002
6.926559e+002, 2.395007e+002
6.931380e+002, 2.411613e+002
6.936201e+002, 2.426009e+002
6.941022e+002, 2.437495e+002
6.945844e+002, 2.443656e+002
6.950665e+002, 2.442702e+002
6.955486e+002, 2.446452e+002
6.960307e+002, 2.464217e+002
6.965128e+002, 2.484850e+002
6.969949e+002, 2.499665e+002
6.974771e+002, 2.506028e+002
6.979592e+002, 2.511599e+002
6.984413e+002, 2.515965e+002
6.989234e+002, 2.520078e+002
6.994055e+002, 2.525531e+002
6.998876e+002, 2.532415e+002
7.003698e+002, 2.537276e+002
7.008519e+002, 2.538634e+002
7.013340e+002, 2.540204e+002
7.018161e+002, 2.548934e+002
7.022982e+002, 2.562060e+002
7.027803e+002, 2.572516e+002
7.032625e+002, 2.575980e+002
7.037446e+002, 2.578069e+002
7.042267e+002, 2.583326e+002
7.047088e+002, 2.589902e+002
7.051909e+002, 2.593680e+002
7.056730e+002, 2.591526e+002
7.061552e+002, 2.588597e+002
7.066373e+002, 2.586616e+002
7.071194e+002, 2.584913e+002
7.076015e+002, 2.580458e+002
7.080836e+002, 2.572983e+002
7.085657e+002, 2.563380e+002
7.090479e+002, 2.551351e+002
7.095300e+002, 2.537458e+002
7.100121e+002, 2.525225e+002
7.104942e+002, 2.514384e+002
7.109763e+002, 2.500483e+002
7.114584e+002, 2.477568e+002
7.119406e+002, 2.451250e+002
7.124227e+002, 2.429538e+002
7.129048e+002, 2.412572e+002
7.133869e+002, 2.393132e+002
7.138690e+002, 2.366425e+002
7.143511e+002, 2.337077e+002
7.148333e+002, 2.306988e+002
7.153154e+002, 2.275033e+002
7.157975e+002, 2.248415e+002
7.162796e+002, 2.231102e+002
7.167617e+002, 2.214162e+002
7.172438e+002, 2.189575e+002
7.177260e+002, 2.156738e+002
7.182081e+002, 2.124597e+002
7.186902e+002, 2.093414e+002
7.191723e+002, 2.065179e+002
7.196544e+002, 2.043656e+002
7.201365e+002, 2.027201e+002
7.206187e+002, 2.011915e+002
7.211008e+002, 1.996967e+002
7.215829e+002, 1.982397e+002
7.220650e+002, 1.967051e+002
7.225471e+002, 1.952331e+002
7.230292e+002, 1.939793e+002
7.235114e+002, 1.932161e+002
7.239935e+002, 1.924310e+002
7.244756e+002, 1.915590e+002
7.249577e+002, 1.906072e+002
7.254398e+002, 1.895138e+002
7.259219e+002, 1.881487e+002
7.264041e+002, 1.870704e+002
7.268862e+002, 1.864566e+002
7.273683e+002, 1.861355e+002
7.278504e+002, 1.856683e+002
7.283325e+002, 1.851035e+002
7.288146e+002, 1.847898e+002
7.292968e+002, 1.851084e+002
7.297789e+002, 1.855703e+002
7.302610e+002, 1.856677e+002
7.307431e+002, 1.854465e+002
7.312252e+002, 1.850596e+002
7.317073e+002, 1.840968e+002
7.321895e+002, 1.834428e+002
7.326716e+002, 1.837089e+002
7.331537e+002, 1.848202e+002
7.336358e+002, 1.854355e+002
7.341179e+002, 1.853275e+002
7.346000e+002, 1.851272e+002
7.350822e+002, 1.851479e+002
7.355643e+002, 1.853391e+002
7.360464e+002, 1.850420e+002
7.365285e+002, 1.842245e+002
7.370106e+002, 1.835813e+002
7.374927e+002, 1.835970e+002
7.379749e+002, 1.841198e+002
7.384570e+002, 1.851701e+002
7.389391e+002, 1.867014e+002
7.394212e+002, 1.877243e+002
7.399033e+002, 1.871250e+002
7.403854e+002, 1.861724e+002
7.408676e+002, 1.857904e+002
7.413497e+002, 1.862362e+002
7.418318e+002, 1.866565e+002
7.423139e+002, 1.870213e+002
7.427960e+002, 1.873128e+002
7.432781e+002, 1.874702e+002
7.437603e+002, 1.874408e+002
7.442424e+002, 1.877310e+002
7.447245e+002, 1.884426e+002
7.452066e+002, 1.891149e+002
7.456887e+002, 1.889979e+002
7.461708e+002, 1.884875e+002
7.466530e+002, 1.887318e+002
7.471351e+002, 1.900614e+002
7.476172e+002, 1.914225e+002
7.480993e+002, 1.922506e+002
7.485814e+002, 1.925897e+002
7.490635e+002, 1.924363e+002
7.495457e+002, 1.910854e+002
7.500278e+002, 1.903861e+002
7.505099e+002, 1.911024e+002
7.509920e+002, 1.922300e+002
7.514741e+002, 1.925288e+002
7.519562e+002, 1.917016e+002
7.524384e+002, 1.913550e+002
7.529205e+002, 1.918785e+002
7.534026e+002, 1.925819e+002
7.538847e+002, 1.921815e+002
7.543668e+002, 1.909589e+002
7.548489e+002, 1.900583e+002
7.553311e+002, 1.899343e+002
7.558132e+002, 1.900472e+002
7.562953e+002, 1.900187e+002
7.567774e+002, 1.898822e+002
7.572595e+002, 1.896972e+002
7.577416e+002, 1.896216e+002
7.582238e+002, 1.893371e+002
7.587059e+002, 1.886476e+002
7.591880e+002, 1.877337e+002
7.596701e+002, 1.869545e+002
7.601522e+002, 1.863352e+002
7.606343e+002, 1.857580e+002
7.611165e+002, 1.851769e+002
7.615986e+002, 1.846317e+002
7.620807e+002, 1.842535e+002
7.625628e+002, 1.840126e+002
7.630449e+002, 1.837337e+002
7.635270e+002, 1.833989e+002
7.640092e+002, 1.829344e+002
7.644913e+002, 1.820598e+002
7.649734e+002, 1.809662e+002
7.654555e+002, 1.802350e+002
7.659376e+002, 1.804149e+002
7.664197e+002, 1.806430e+002
7.669019e+002, 1.806461e+002
7.673840e+002, 1.804525e+002
7.678661e+002, 1.802015e+002
7.683482e+002, 1.799136e+002
7.688303e+002, 1.794958e+002
7.693124e+002, 1.788305e+002
7.697946e+002, 1.780384e+002
7.702767e+002, 1.774581e+002
7.707588e+002, 1.771004e+002
7.712409e+002, 1.770648e+002
7.717230e+002, 1.778660e+002
7.722051e+002, 1.787015e+002
7.726873e+002, 1.786303e+002
7.731694e+002, 1.777601e+002
7.736515e+002, 1.770383e+002
7.741336e+002, 1.768488e+002
7.746157e+002, 1.768322e+002
7.750978e+002, 1.769023e+002
7.755800e+002, 1.770490e+002
7.760621e+002, 1.769843e+002
7.765442e+002, 1.766009e+002
7.770263e+002, 1.763134e+002
7.775084e+002, 1.763954e+002
7.779905e+002, 1.767671e+002
7.784727e+002, 1.771172e+002
7.789548e+002, 1.774373e+002
7.794369e+002, 1.775964e+002
7.799190e+002, 1.773153e+002
7.804011e+002, 1.769457e+002
7.808832e+002, 1.767969e+002
7.813654e+002, 1.768936e+002
7.818475e+002, 1.771862e+002
7.823296e+002, 1.778900e+002
7.828117e+002, 1.785781e+002
7.832938e+002, 1.790503e+002
7.837759e+002, 1.792942e+002
7.842581e+002, 1.794417e+002
7.847402e+002, 1.794477e+002
7.852223e+002, 1.795045e+002
7.857044e+002, 1.798421e+002
7.861865e+002, 1.803525e+002
7.866686e+002, 1.805551e+002
7.871508e+002, 1.804431e+002
7.876329e+002, 1.803535e+002
7.881150e+002, 1.807176e+002
7.885971e+002, 1.811136e+002
7.890792e+002, 1.810016e+002
7.895613e+002, 1.802312e+002
7.900435e+002, 1.798559e+002
7.905256e+002, 1.805053e+002
7.910077e+002, 1.812811e+002
7.914898e+002, 1.817378e+002
7.919719e+002, 1.818410e+002
7.924540e+002, 1.817578e+002
7.929362e+002, 1.814248e+002
7.934183e+002, 1.811581e+002
7.939004e+002, 1.813834e+002
7.943825e+002, 1.818716e+002
7.948646e+002, 1.819539e+002
7.953467e+002, 1.815807e+002
7.958289e+002, 1.810473e+002
7.963110e+002, 1.804611e+002
7.967931e+002, 1.798891e+002
7.972752e+002, 1.793821e+002
7.977573e+002, 1.789265e+002
7.982394e+002, 1.786354e+002
7.987216e+002, 1.787236e+002
7.992037e+002, 1.787604e+002
7.996858e+002, 1.784256e+002
8.001679e+002, 1.776434e+002
8.006500e+002, 1.770976e+002
8.011321e+002, 1.768018e+002
8.016143e+002, 1.766134e+002
8.020964e+002, 1.764914e+002
8.025785e+002, 1.763583e+002
8.030606e+002, 1.760282e+002
8.035427e+002, 1.754676e+002
8.040248e+002, 1.749007e+002
8.045070e+002, 1.743210e+002
8.049891e+002, 1.738750e+002
8.054712e+002, 1.737343e+002
8.059533e+002, 1.741035e+002
8.064354e+002, 1.741403e+002
8.069175e+002, 1.736933e+002
8.073997e+002, 1.731258e+002
8.078818e+002, 1.727752e+002
8.083639e+002, 1.726315e+002
8.088460e+002, 1.719424e+002
8.093281e+002, 1.706237e+002
8.098102e+002, 1.694930e+002
8.102924e+002, 1.694906e+002
8.107745e+002, 1.700375e+002
8.112566e+002, 1.704192e+002
8.117387e+002, 1.705493e+002
8.122208e+002, 1.704008e+002
8.127029e+002, 1.696472e+002
8.131851e+002, 1.688497e+002
8.136672e+002, 1.684375e+002
8.141493e+002, 1.685498e+002
8.146314e+002, 1.684336e+002
8.151135e+002, 1.680071e+002
8.155956e+002, 1.675580e+002
8.160778e+002, 1.673768e+002
8.165599e+002, 1.673839e+002
8.170420e+002, 1.671389e+002
8.175241e+002, 1.666090e+002
8.180062e+002, 1.662180e+002
8.184883e+002, 1.664207e+002
8.189705e+002, 1.668402e+002
8.194526e+002, 1.671299e+002
8.199347e+002, 1.672372e+002
8.204168e+002, 1.672632e+002
8.208989e+002, 1.673645e+002
8.213810e+002, 1.672495e+002
8.218632e+002, 1.666218e+002
8.223453e+002, 1.653592e+002
8.228274e+002, 1.649032e+002
8.233095e+002, 1.653638e+002
8.237916e+002, 1.660198e+002
8.242737e+002, 1.663961e+002
8.247559e+002, 1.665319e+002
8.252380e+002, 1.664648e+002
8.257201e+002, 1.662036e+002
8.262022e+002, 1.658542e+002
8.266843e+002, 1.652530e+002
8.271664e+002, 1.647665e+002
8.276486e+002, 1.647183e+002
8.281307e+002, 1.652252e+002
8.286128e+002, 1.654685e+002
8.290949e+002, 1.651909e+002
8.295770e+002, 1.650933e+002
8.300591e+002, 1.657271e+002
8.305413e+002, 1.669826e+002
8.310234e+002, 1.676607e+002
8.315055e+002, 1.677636e+002
8.319876e+002, 1.675507e+002
8.324697e+002, 1.668820e+002
8.329518e+002, 1.662024e+002
8.334340e+002, 1.660724e+002
8.339161e+002, 1.664863e+002
8.343982e+002, 1.668619e+002
8.348803e+002, 1.669844e+002
8.353624e+002, 1.670347e+002
8.358445e+002, 1.670739e+002
8.363267e+002, 1.671050e+002
8.368088e+002, 1.672078e+002
8.372909e+002, 1.674014e+002
8.377730e+002, 1.675812e+002
8.382551e+002, 1.676521e+002
8.387372e+002, 1.676801e+002
8.392194e+002, 1.678446e+002
8.397015e+002, 1.681285e+002
8.401836e+002, 1.684299e+002
8.406657e+002, 1.687153e+002
8.411478e+002, 1.689769e+002
8.416299e+002, 1.691832e+002
8.421121e+002, 1.693456e+002
8.425942e+002, 1.695707e+002
8.430763e+002, 1.699702e+002
8.435584e+002, 1.702391e+002
8.440405e+002, 1.702281e+002
8.445226e+002, 1.700286e+002
8.450048e+002, 1.699057e+002
8.454869e+002, 1.698755e+002
8.459690e+002, 1.702159e+002
8.464511e+002, 1.715114e+002
8.469332e+002, 1.728668e+002
8.474153e+002, 1.730681e+002
8.478975e+002, 1.725122e+002
8.483796e+002, 1.723204e+002
8.488617e+002, 1.732367e+002
8.493438e+002, 1.741752e+002
8.498259e+002, 1.748281e+002
8.503080e+002, 1.752879e+002
8.507902e+002, 1.757464e+002
8.512723e+002, 1.761734e+002
8.517544e+002, 1.768001e+002
8.522365e+002, 1.778037e+002
8.527186e+002, 1.788673e+002
8.532007e+002, 1.793001e+002
8.536829e+002, 1.793232e+002
8.541650e+002, 1.795492e+002
8.546471e+002, 1.803942e+002
8.551292e+002, 1.812702e+002
8.556113e+002, 1.817666e+002
8.560934e+002, 1.821324e+002
8.565756e+002, 1.828671e+002
8.570577e+002, 1.842895e+002
8.575398e+002, 1.854421e+002
8.580219e+002, 1.861709e+002
8.585040e+002, 1.866934e+002
8.589861e+002, 1.874171e+002
8.594683e+002, 1.882681e+002
8.599504e+002, 1.887663e+002
8.604325e+002, 1.886756e+002
8.609146e+002, 1.886004e+002
8.613967e+002, 1.891623e+002
8.618788e+002, 1.900285e+002
8.623610e+002, 1.907995e+002
8.628431e+002, 1.913574e+002
8.633252e+002, 1.918487e+002
8.638073e+002, 1.922971e+002
8.642894e+002, 1.926815e+002
8.647715e+002, 1.929469e+002
8.652537e+002, 1.930856e+002
8.657358e+002, 1.933016e+002
8.662179e+002, 1.936108e+002
8.667000e+002, 1.940288e+002
8.671821e+002, 1.947086e+002
8.676642e+002, 1.954561e+002
8.681464e+002, 1.959519e+002
8.686285e+002, 1.961247e+002
8.691106e+002, 1.962730e+002
8.695927e+002, 1.963170e+002
8.700748e+002, 1.965489e+002
8.705569e+002, 1.972486e+002
8.710391e+002, 1.985583e+002
8.715212e+002, 1.992341e+002
8.720033e+002, 1.991369e+002
8.724854e+002, 1.989132e+002
8.729675e+002, 1.990358e+002
8.734496e+002, 1.993905e+002
8.739318e+002, 1.997339e+002
8.744139e+002, 2.000528e+002
8.748960e+002, 2.003492e+002
8.753781e+002, 2.008004e+002
8.758602e+002, 2.010755e+002
8.763423e+002, 2.007394e+002
8.768245e+002, 1.998124e+002
8.773066e+002, 1.997086e+002
8.777887e+002, 2.008830e+002
8.782708e+002, 2.018448e+002
8.787529e+002, 2.018168e+002
8.792350e+002, 2.012130e+002
8.797172e+002, 2.016033e+002
8.801993e+002, 2.028206e+002
8.806814e+002, 2.037784e+002
8.811635e+002, 2.036627e+002
8.816456e+002, 2.032718e+002
8.821277e+002, 2.029751e+002
8.826099e+002, 2.028680e+002
8.830920e+002, 2.032260e+002
8.835741e+002, 2.044647e+002
8.840562e+002, 2.056823e+002
8.845383e+002, 2.068348e+002
8.850204e+002, 2.078100e+002
8.855026e+002, 2.081399e+002
8.859847e+002, 2.078935e+002
8.864668e+002, 2.082278e+002
8.869489e+002, 2.096568e+002
8.874310e+002, 2.113645e+002
8.879131e+002, 2.125101e+002
8.883953e+002, 2.133061e+002
8.888774e+002, 2.140853e+002
8.893595e+002, 2.150132e+002
8.898416e+002, 2.158159e+002
8.903237e+002, 2.163298e+002
8.908058e+002, 2.168200e+002
8.912880e+002, 2.175947e+002
8.917701e+002, 2.186762e+002
8.922522e+002, 2.197595e+002
8.927343e+002, 2.208358e+002
8.932164e+002, 2.218421e+002
8.936985e+002, 2.227857e+002
8.941807e+002, 2.235824e+002
8.946628e+002, 2.240339e+002
8.951449e+002, 2.240339e+002
8.956270e+002, 2.242341e+002
8.961091e+002, 2.252021e+002
8.965912e+002, 2.261527e+002
8.970734e+002, 2.265871e+002
8.975555e+002, 2.264492e+002
8.980376e+002, 2.264526e+002
8.985197e+002, 2.265973e+002
8.990018e+002, 2.269049e+002
8.994839e+002, 2.274334e+002
8.999661e+002, 2.281202e+002
9.004482e+002, 2.290333e+002
9.009303e+002, 2.300818e+002
9.014124e+002, 2.306694e+002
9.018945e+002, 2.297940e+002
9.023766e+002, 2.290928e+002
9.028588e+002, 2.296560e+002
9.033409e+002, 2.311252e+002
9.038230e+002, 2.318314e+002
9.043051e+002, 2.316203e+002
9.047872e+002, 2.312302e+002
9.052693e+002, 2.308212e+002
9.057515e+002, 2.304681e+002
9.062336e+002, 2.303210e+002
9.067157e+002, 2.303544e+002
9.071978e+002, 2.304992e+002
9.076799e+002, 2.307444e+002
9.081620e+002, 2.310704e+002
9.086442e+002, 2.316063e+002
9.091263e+002, 2.321747e+002
9.096084e+002, 2.324623e+002
9.100905e+002, 2.322831e+002
9.105726e+002, 2.323641e+002
9.110547e+002, 2.328640e+002
9.115369e+002, 2.334278e+002
9.120190e+002, 2.335705e+002
9.125011e+002, 2.334000e+002
9.129832e+002, 2.331842e+002
9.134653e+002, 2.329502e+002
9.139474e+002, 2.328066e+002
9.144296e+002, 2.327447e+002
9.149117e+002, 2.328528e+002
9.153938e+002, 2.332659e+002
9.158759e+002, 2.340991e+002
9.163580e+002, 2.347347e+002
9.168401e+002, 2.351732e+002
9.173223e+002, 2.354021e+002
9.178044e+002, 2.352605e+002
9.182865e+002, 2.349013e+002
9.187686e+002, 2.349402e+002
9.192507e+002, 2.353476e+002
9.197328e+002, 2.357919e+002
9.202150e+002, 2.361003e+002
9.206971e+002, 2.363544e+002
9.211792e+002, 2.363845e+002
9.216613e+002, 2.363318e+002
9.221434e+002, 2.371221e+002
9.226255e+002, 2.392363e+002
9.231077e+002, 2.411504e+002
9.235898e+002, 2.425708e+002
9.240719e+002, 2.433688e+002
9.245540e+002, 2.428695e+002
9.250361e+002, 2.414108e+002
9.255182e+002, 2.404045e+002
9.260004e+002, 2.405776e+002
9.264825e+002, 2.409911e+002
9.269646e+002, 2.410135e+002
9.274467e+002, 2.409095e+002
9.279288e+002, 2.411055e+002
9.284109e+002, 2.418945e+002
9.288931e+002, 2.424274e+002
9.293752e+002, 2.426551e+002
9.298573e+002, 2.426318e+002
9.303394e+002, 2.423723e+002
9.308215e+002, 2.419147e+002
9.313036e+002, 2.412362e+002
9.317858e+002, 2.402960e+002
9.322679e+002, 2.398008e+002
9.327500e+002, 2.407843e+002
9.332321e+002, 2.420048e+002
9.337142e+002, 2.425075e+002
9.341964e+002, 2.421167e+002
9.346785e+002, 2.416967e+002
9.351606e+002, 2.412736e+002
9.356427e+002, 2.407607e+002
9.361248e+002, 2.399496e+002
9.366069e+002, 2.390617e+002
9.370891e+002, 2.390696e+002
9.375712e+002, 2.397961e+002
9.380533e+002, 2.403587e+002
9.385354e+002, 2.402251e+002
9.390175e+002, 2.398337e+002
9.394996e+002, 2.393156e+002
9.399818e+002, 2.387258e+002
9.404639e+002, 2.382178e+002
9.409460e+002, 2.378007e+002
9.414281e+002, 2.374552e+002
9.419102e+002, 2.371952e+002
9.423923e+002, 2.369710e+002
9.428745e+002, 2.367336e+002
9.433566e+002, 2.364654e+002
9.438387e+002, 2.360761e+002
9.443208e+002, 2.354693e+002
9.448029e+002, 2.350390e+002
9.452850e+002, 2.353852e+002
9.457672e+002, 2.357750e+002
9.462493e+002, 2.354533e+002
9.467314e+002, 2.341967e+002
9.472135e+002, 2.330895e+002
9.476956e+002, 2.320886e+002
9.481777e+002, 2.313960e+002
9.486599e+002, 2.314232e+002
9.491420e+002, 2.318270e+002
9.496241e+002, 2.317072e+002
9.501062e+002, 2.311081e+002
9.505883e+002, 2.305790e+002
9.510704e+002, 2.307010e+002
9.515526e+002, 2.306826e+002
9.520347e+002, 2.299323e+002
9.525168e+002, 2.286858e+002
9.529989e+002, 2.277930e+002
9.534810e+002, 2.272431e+002
9.539631e+002, 2.271860e+002
9.544453e+002, 2.279167e+002
9.549274e+002, 2.287028e+002
9.554095e+002, 2.280444e+002
9.558916e+002, 2.265531e+002
9.563737e+002, 2.255770e+002
9.568558e+002, 2.259776e+002
9.573380e+002, 2.261229e+002
9.578201e+002, 2.250919e+002
9.583022e+002, 2.237982e+002
9.587843e+002, 2.231035e+002
9.592664e+002, 2.231193e+002
9.597485e+002, 2.231770e+002
9.602307e+002, 2.232892e+002
9.607128e+002, 2.232090e+002
9.611949e+002, 2.224437e+002
9.616770e+002, 2.214865e+002
9.621591e+002, 2.211506e+002
9.626412e+002, 2.214427e+002
9.631234e+002, 2.215737e+002
9.636055e+002, 2.210009e+002
9.640876e+002, 2.205184e+002
9.645697e+002, 2.204827e+002
9.650518e+002, 2.207468e+002
9.655339e+002, 2.206721e+002
9.660161e+002, 2.202549e+002
9.664982e+002, 2.195790e+002
9.669803e+002, 2.183030e+002
9.674624e+002, 2.173908e+002
9.679445e+002, 2.186331e+002
9.684266e+002, 2.208179e+002
9.689088e+002, 2.219195e+002
9.693909e+002, 2.202621e+002
9.698730e+002, 2.191169e+002
9.703551e+002, 2.188969e+002
9.708372e+002, 2.189929e+002
9.713193e+002, 2.188002e+002
9.718015e+002, 2.183449e+002
9.722836e+002, 2.176841e+002
9.727657e+002, 2.168104e+002
9.732478e+002, 2.163606e+002
9.737299e+002, 2.174949e+002
9.742120e+002, 2.187632e+002
9.746942e+002, 2.186888e+002
9.751763e+002, 2.171625e+002
9.756584e+002, 2.165437e+002
9.761405e+002, 2.173155e+002
9.766226e+002, 2.181474e+002
9.771047e+002, 2.185464e+002
9.775869e+002, 2.186780e+002
9.780690e+002, 2.189707e+002
9.785511e+002, 2.193852e+002
9.790332e+002, 2.197977e+002
9.795153e+002, 2.202755e+002
9.799974e+002, 2.205682e+002
9.804796e+002, 2.203838e+002
9.809617e+002, 2.200000e+002
9.814438e+002, 2.197963e+002
9.819259e+002, 2.197707e+002
9.824080e+002, 2.199979e+002
9.828901e+002, 2.205421e+002
9.833723e+002, 2.211180e+002
9.838544e+002, 2.215063e+002
9.843365e+002, 2.217018e+002
9.848186e+002, 2.216295e+002
9.853007e+002, 2.212940e+002
9.857828e+002, 2.209836e+002
9.862650e+002, 2.208835e+002
9.867471e+002, 2.207719e+002
9.872292e+002, 2.205336e+002
9.877113e+002, 2.201988e+002
9.881934e+002, 2.199224e+002
9.886755e+002, 2.197023e+002
9.891577e+002, 2.195354e+002
9.896398e+002, 2.194033e+002
9.901219e+002, 2.193481e+002
9.906040e+002, 2.195124e+002
9.910861e+002, 2.197637e+002
9.915682e+002, 2.198808e+002
9.920504e+002, 2.197507e+002
9.925325e+002, 2.195333e+002
9.930146e+002, 2.191227e+002
9.934967e+002, 2.187913e+002
9.939788e+002, 2.188692e+002
9.944609e+002, 2.192969e+002
9.949431e+002, 2.196317e+002
9.954252e+002, 2.198494e+002
9.959073e+002, 2.196850e+002
9.963894e+002, 2.185792e+002
9.968715e+002, 2.173267e+002
9.973536e+002, 2.163965e+002
9.978358e+002, 2.158599e+002
9.983179e+002, 2.158455e+002
9.988000e+002, 2.166837e+002
9.992821e+002, 2.171394e+002
9.997642e+002, 2.167355e+002
1.000246e+003, 2.159215e+002
1.000728e+003, 2.155712e+002
1.001211e+003, 2.155589e+002
1.001693e+003, 2.155861e+002
1.002175e+003, 2.155763e+002
1.002657e+003, 2.155584e+002
1.003139e+003, 2.154255e+002
1.003621e+003, 2.153813e+002
1.004103e+003, 2.156415e+002
1.004585e+003, 2.162906e+002
1.005068e+003, 2.168020e+002
1.005550e+003, 2.171950e+002
1.006032e+003, 2.172785e+002
1.006514e+003, 2.165142e+002
1.006996e+003, 2.156102e+002
1.007478e+003, 2.155936e+002
1.007960e+003, 2.163206e+002
1.008442e+003, 2.168011e+002
1.008924e+003, 2.164266e+002
1.009407e+003, 2.162044e+002
1.009889e+003, 2.163387e+002
1.010371e+003, 2.167300e+002
1.010853e+003, 2.172514e+002
1.011335e+003, 2.178751e+002
1.011817e+003, 2.183833e+002
1.012299e+003, 2.187485e+002
1.012781e+003, 2.189309e+002
1.013263e+003, 2.188625e+002
1.013746e+003, 2.186322e+002
1.014228e+003, 2.182280e+002
1.014710e+003, 2.175259e+002
1.015192e+003, 2.174583e+002
1.015674e+003, 2.181663e+002
1.016156e+003, 2.190725e+002
1.016638e+003, 2.199819e+002
1.017120e+003, 2.207769e+002
1.017603e+003, 2.209916e+002
1.018085e+003, 2.208278e+002
1.018567e+003, 2.209977e+002
1.019049e+003, 2.220938e+002
1.019531e+003, 2.232337e+002
1.020013e+003, 2.242594e+002
1.020495e+003, 2.251082e+002
1.020977e+003, 2.256992e+002
1.021459e+003, 2.260287e+002
1.021942e+003, 2.259658e+002
1.022424e+003, 2.254354e+002
1.022906e+003, 2.249608e+002
1.023388e+003, 2.250403e+002
1.023870e+003, 2.254119e+002
1.024352e+003, 2.258826e+002
1.024834e+003, 2.264465e+002
1.025316e+003, 2.268519e+002
1.025799e+003, 2.270593e+002
1.026281e+003, 2.271803e+002
1.026763e+003, 2.272275e+002
1.027245e+003, 2.272515e+002
1.027727e+003, 2.273813e+002
1.028209e+003, 2.276019e+002
1.028691e+003, 2.278601e+002
1.029173e+003, 2.281614e+002
1.029656e+003, 2.284544e+002
1.030138e+003, 2.288715e+002
1.030620e+003, 2.291524e+002
1.031102e+003, 2.289731e+002
1.031584e+003, 2.281955e+002
1.032066e+003, 2.276894e+002
1.032548e+003, 2.274683e+002
1.033030e+003, 2.274990e+002
1.033512e+003, 2.278263e+002
1.033995e+003, 2.283405e+002
1.034477e+003, 2.291110e+002
1.034959e+003, 2.300202e+002
1.035441e+003, 2.303893e+002
1.035923e+003, 2.296223e+002
1.036405e+003, 2.289496e+002
1.036887e+003, 2.285803e+002
1.037369e+003, 2.284698e+002
1.037851e+003, 2.286756e+002
1.038334e+003, 2.290775e+002
1.038816e+003, 2.291930e+002
1.039298e+003, 2.288647e+002
1.039780e+003, 2.284758e+002
1.040262e+003, 2.279775e+002
1.040744e+003, 2.277469e+002
1.041226e+003, 2.282768e+002
1.041708e+003, 2.296550e+002
1.042191e+003, 2.299516e+002
1.042673e+003, 2.290184e+002
1.043155e+003, 2.283362e+002
1.043637e+003, 2.290694e+002
1.044119e+003, 2.301916e+002
1.044601e+003, 2.301203e+002
1.045083e+003, 2.293344e+002
1.045565e+003, 2.289328e+002
1.046047e+003, 2.297005e+002
1.046530e+003, 2.301775e+002
1.047012e+003, 2.300665e+002
1.047494e+003, 2.298836e+002
1.047976e+003, 2.303330e+002
1.048458e+003, 2.312433e+002
1.048940e+003, 2.316740e+002
1.049422e+003, 2.315706e+002
1.049904e+003, 2.315580e+002
1.050386e+003, 2.320741e+002
1.050869e+003, 2.327603e+002
1.051351e+003, 2.334987e+002
1.051833e+003, 2.342304e+002
1.052315e+003, 2.346511e+002
1.052797e+003, 2.346786e+002
1.053279e+003, 2.350648e+002
1.053761e+003, 2.361191e+002
1.054243e+003, 2.373403e+002
1.054726e+003, 2.378073e+002
1.055208e+003, 2.381633e+002
1.055690e+003, 2.394630e+002
1.056172e+003, 2.424721e+002
1.056654e+003, 2.445600e+002
1.057136e+003, 2.450592e+002
1.057618e+003, 2.454980e+002
1.058100e+003, 2.468061e+002
1.058583e+003, 2.487866e+002
1.059065e+003, 2.507389e+002
1.059547e+003, 2.526680e+002
1.060029e+003, 2.546113e+002
1.060511e+003, 2.568210e+002
1.060993e+003, 2.587229e+002
1.061475e+003, 2.593557e+002
1.061957e+003, 2.599140e+002
1.062439e+003, 2.622535e+002
1.062922e+003, 2.666629e+002
1.063404e+003, 2.703365e+002
1.063886e+003, 2.730359e+002
1.064368e+003, 2.750126e+002
1.064850e+003, 2.762528e+002
1.065332e+003, 2.770811e+002
1.065814e+003, 2.777440e+002
1.066296e+003, 2.782694e+002
1.066778e+003, 2.788192e+002
1.067261e+003, 2.794454e+002
1.067743e+003, 2.800050e+002
1.068225e+003, 2.804384e+002
1.068707e+003, 2.808199e+002
1.069189e+003, 2.812653e+002
1.069671e+003, 2.817611e+002
1.070153e+003, 2.823360e+002
1.070635e+003, 2.830996e+002
1.071118e+003, 2.835242e+002
1.071600e+003, 2.830347e+002
1.072082e+003, 2.824683e+002
1.072564e+003, 2.822648e+002
1.073046e+003, 2.824162e+002
1.073528e+003, 2.828846e+002
1.074010e+003, 2.836421e+002
1.074492e+003, 2.842891e+002
1.074974e+003, 2.845822e+002
1.075457e+003, 2.847209e+002
1.075939e+003, 2.847162e+002
1.076421e+003, 2.847036e+002
1.076903e+003, 2.849986e+002
1.077385e+003, 2.860131e+002
1.077867e+003, 2.859957e+002
1.078349e+003, 2.846860e+002
1.078831e+003, 2.831143e+002
1.079313e+003, 2.822490e+002
1.079796e+003, 2.817149e+002
1.080278e+003, 2.810182e+002
1.080760e+003, 2.801215e+002
1.081242e+003, 2.790494e+002
1.081724e+003, 2.777321e+002
1.082206e+003, 2.763312e+002
1.082688e+003, 2.749449e+002
1.083170e+003, 2.734475e+002
1.083652e+003, 2.714097e+002
1.084135e+003, 2.690421e+002
1.084617e+003, 2.673788e+002
1.085099e+003, 2.667519e+002
1.085581e+003, 2.657619e+002
1.086063e+003, 2.628987e+002
1.086545e+003, 2.600663e+002
1.087027e+003, 2.585659e+002
1.087509e+003, 2.582362e+002
1.087992e+003, 2.572980e+002
1.088474e+003, 2.557468e+002
1.088956e+003, 2.539959e+002
1.089438e+003, 2.520230e+002
1.089920e+003, 2.502468e+002
1.090402e+003, 2.492148e+002
1.090884e+003, 2.485510e+002
1.091366e+003, 2.477694e+002
1.091849e+003, 2.469083e+002
1.092331e+003, 2.455736e+002
1.092813e+003, 2.436207e+002
1.093295e+003, 2.416826e+002
1.093777e+003, 2.402648e+002
1.094259e+003, 2.391586e+002
1.094741e+003, 2.380770e+002
1.095223e+003, 2.369504e+002
1.095705e+003, 2.355573e+002
1.096188e+003, 2.334500e+002
1.096670e+003, 2.315962e+002
1.097152e+003, 2.302263e+002
1.097634e+003, 2.290579e+002
1.098116e+003, 2.276340e+002
1.098598e+003, 2.260542e+002
1.099080e+003, 2.249943e+002
1.099562e+003, 2.244968e+002
1.100044e+003, 2.236277e+002
1.100527e+003, 2.214724e+002
1.101009e+003, 2.191232e+002
1.101491e+003, 2.171183e+002
1.101973e+003, 2.153979e+002
1.102455e+003, 2.138562e+002
1.102937e+003, 2.124910e+002
1.103419e+003, 2.111353e+002
1.103901e+003, 2.097407e+002
1.104384e+003, 2.084322e+002
1.104866e+003, 2.075091e+002
1.105348e+003, 2.066426e+002
1.105830e+003, 2.054265e+002
1.106312e+003, 2.037648e+002
1.106794e+003, 2.023770e+002
1.107276e+003, 2.012916e+002
1.107758e+003, 2.003378e+002
1.108240e+003, 1.993539e+002
1.108723e+003, 1.985401e+002
1.109205e+003, 1.984382e+002
1.109687e+003, 1.986642e+002
1.110169e+003, 1.984638e+002
1.110651e+003, 1.972478e+002
1.111133e+003, 1.962880e+002
1.111615e+003, 1.957242e+002
1.112097e+003, 1.953173e+002
1.112579e+003, 1.950181e+002
1.113062e+003, 1.947101e+002
1.113544e+003, 1.937963e+002
1.114026e+003, 1.924269e+002
1.114508e+003, 1.913810e+002
1.114990e+003, 1.914053e+002
1.115472e+003, 1.913515e+002
1.115954e+003, 1.907655e+002
1.116436e+003, 1.900049e+002
1.116919e+003, 1.895602e+002
1.117401e+003, 1.894004e+002
1.117883e+003, 1.891370e+002
1.118365e+003, 1.887378e+002
1.118847e+003, 1.882056e+002
1.119329e+003, 1.873850e+002
1.119811e+003, 1.865816e+002
1.120293e+003, 1.859743e+002
1.120776e+003, 1.855559e+002
1.121258e+003, 1.853421e+002
1.121740e+003, 1.853667e+002
1.122222e+003, 1.852462e+002
1.122704e+003, 1.848921e+002
1.123186e+003, 1.843921e+002
1.123668e+003, 1.836626e+002
1.124150e+003, 1.829323e+002
1.124632e+003, 1.824638e+002
1.125115e+003, 1.823148e+002
1.125597e+003, 1.821344e+002
1.126079e+003, 1.818841e+002
1.126561e+003, 1.817317e+002
1.127043e+003, 1.818086e+002
1.127525e+003, 1.819131e+002
1.128007e+003, 1.816702e+002
1.128489e+003, 1.812346e+002
1.128971e+003, 1.808839e+002
1.129454e+003, 1.807715e+002
1.129936e+003, 1.805145e+002
1.130418e+003, 1.800491e+002
1.130900e+003, 1.795011e+002
1.131382e+003, 1.787929e+002
1.131864e+003, 1.781185e+002
1.132346e+003, 1.782814e+002
1.132828e+003, 1.790046e+002
1.133311e+003, 1.793746e+002
1.133793e+003, 1.785616e+002
1.134275e+003, 1.779202e+002
1.134757e+003, 1.778150e+002
1.135239e+003, 1.779141e+002
1.135721e+003, 1.779915e+002
1.136203e+003, 1.780203e+002
1.136685e+003, 1.777074e+002
1.137167e+003, 1.770801e+002
1.137650e+003, 1.765522e+002
1.138132e+003, 1.764644e+002
1.138614e+003, 1.764352e+002
1.139096e+003, 1.762455e+002
1.139578e+003, 1.760115e+002
1.140060e+003, 1.759085e+002
1.140542e+003, 1.759382e+002
1.141024e+003, 1.762122e+002
1.141506e+003, 1.767713e+002
1.141989e+003, 1.770777e+002
1.142471e+003, 1.763997e+002
1.142953e+003, 1.755776e+002
1.143435e+003, 1.753604e+002
1.143917e+003, 1.755963e+002
1.144399e+003, 1.753298e+002
1.144881e+003, 1.744457e+002
1.145363e+003, 1.738628e+002
1.145846e+003, 1.738100e+002
1.146328e+003, 1.740195e+002
1.146810e+003, 1.744412e+002
1.147292e+003, 1.748123e+002
1.147774e+003, 1.747459e+002
1.148256e+003, 1.741487e+002
1.148738e+003, 1.740589e+002
1.149220e+003, 1.747478e+002
1.149703e+003, 1.749548e+002
1.150185e+003, 1.740423e+002
1.150667e+003, 1.728251e+002
1.151149e+003, 1.724866e+002
1.151631e+003, 1.726744e+002
1.152113e+003, 1.728361e+002
1.152595e+003, 1.728405e+002
1.153077e+003, 1.728990e+002
1.153559e+003, 1.731022e+002
1.154042e+003, 1.731870e+002
1.154524e+003, 1.730024e+002
1.155006e+003, 1.726203e+002
1.155488e+003, 1.720481e+002
1.155970e+003, 1.714197e+002
1.156452e+003, 1.710886e+002
1.156934e+003, 1.713573e+002
1.157416e+003, 1.715911e+002
1.157898e+003, 1.717134e+002
1.158381e+003, 1.717794e+002
1.158863e+003, 1.718661e+002
1.159345e+003, 1.719299e+002
1.159827e+003, 1.716597e+002
1.160309e+003, 1.711749e+002
1.160791e+003, 1.709671e+002
1.161273e+003, 1.714293e+002
1.161755e+003, 1.719951e+002
1.162238e+003, 1.727033e+002
1.162720e+003, 1.732484e+002
1.163202e+003, 1.732485e+002
1.163684e+003, 1.727686e+002
1.164166e+003, 1.721106e+002
1.164648e+003, 1.713337e+002
1.165130e+003, 1.708597e+002
1.165612e+003, 1.713390e+002
1.166094e+003, 1.716966e+002
1.166577e+003, 1.713588e+002
1.167059e+003, 1.707104e+002
1.167541e+003, 1.703749e+002
1.168023e+003, 1.703156e+002
1.168505e+003, 1.699960e+002
1.168987e+003, 1.693582e+002
1.169469e+003, 1.689099e+002
1.169951e+003, 1.691221e+002
1.170433e+003, 1.695185e+002
1.170916e+003, 1.698727e+002
1.171398e+003, 1.701787e+002
1.171880e+003, 1.705149e+002
1.172362e+003, 1.708774e+002
1.172844e+003, 1.707503e+002
1.173326e+003, 1.699790e+002
1.173808e+003, 1.691621e+002
1.174290e+003, 1.687153e+002
1.174773e+003, 1.684948e+002
1.175255e+003, 1.684648e+002
1.175737e+003, 1.685712e+002
1.176219e+003, 1.686212e+002
1.176701e+003, 1.686171e+002
1.177183e+003, 1.684712e+002
1.177665e+003, 1.680821e+002
1.178147e+003, 1.678261e+002
1.178630e+003, 1.681594e+002
1.179112e+003, 1.687348e+002
1.179594e+003, 1.693121e+002
1.180076e+003, 1.698697e+002
1.180558e+003, 1.700059e+002
1.181040e+003, 1.696916e+002
1.181522e+003, 1.692406e+002
1.182004e+003, 1.687261e+002
1.182486e+003, 1.682267e+002
1.182969e+003, 1.675937e+002
1.183451e+003, 1.671530e+002
1.183933e+003, 1.674672e+002
1.184415e+003, 1.687959e+002
1.184897e+003, 1.693273e+002
1.185379e+003, 1.689460e+002
1.185861e+003, 1.685177e+002
1.186343e+003, 1.685831e+002
1.186825e+003, 1.686938e+002
1.187308e+003, 1.681524e+002
1.187790e+003, 1.673576e+002
1.188272e+003, 1.669678e+002
1.188754e+003, 1.672296e+002
1.189236e+003, 1.673820e+002
1.189718e+003, 1.673775e+002
1.190200e+003, 1.675113e+002
1.190682e+003, 1.682713e+002
1.191165e+003, 1.690339e+002
1.191647e+003, 1.687864e+002
1.192129e+003, 1.679770e+002
1.192611e+003, 1.675244e+002
1.193093e+003, 1.678723e+002
1.193575e+003, 1.679362e+002
1.194057e+003, 1.676557e+002
1.194539e+003, 1.672796e+002
1.195021e+003, 1.669291e+002
1.195504e+003, 1.666469e+002
1.195986e+003, 1.665525e+002
1.196468e+003, 1.665726e+002
1.196950e+003, 1.664803e+002
1.197432e+003, 1.660192e+002
1.197914e+003, 1.659534e+002
1.198396e+003, 1.663963e+002
1.198878e+003, 1.669897e+002
1.199360e+003, 1.674946e+002
1.199843e+003, 1.678718e+002
1.200325e+003, 1.680986e+002
1.200807e+003, 1.681496e+002
1.201289e+003, 1.678878e+002
1.201771e+003, 1.670951e+002
1.202253e+003, 1.664189e+002
1.202735e+003, 1.658709e+002
1.203217e+003, 1.656614e+002
1.203700e+003, 1.663620e+002
1.204182e+003, 1.673508e+002
1.204664e+003, 1.676204e+002
1.205146e+003, 1.672401e+002
1.205628e+003, 1.671627e+002
1.206110e+003, 1.678150e+002
1.206592e+003, 1.680727e+002
1.207074e+003, 1.676328e+002
1.207557e+003, 1.671062e+002
1.208039e+003, 1.673250e+002
1.208521e+003, 1.679063e+002
1.209003e+003, 1.683717e+002
1.209485e+003, 1.686671e+002
1.209967e+003, 1.687139e+002
1.210449e+003, 1.683825e+002
1.210931e+003, 1.681288e+002
1.211413e+003, 1.680452e+002
1.211896e+003, 1.680795e+002
1.212378e+003, 1.681676e+002
1.212860e+003, 1.683240e+002
1.213342e+003, 1.686756e+002
1.213824e+003, 1.692357e+002
1.214306e+003, 1.693398e+002
1.214788e+003, 1.687779e+002
1.215270e+003, 1.682196e+002
1.215752e+003, 1.678322e+002
1.216235e+003, 1.675519e+002
1.216717e+003, 1.671934e+002
1.217199e+003, 1.669266e+002
1.217681e+003, 1.671140e+002
1.218163e+003, 1.678563e+002
1.218645e+003, 1.681754e+002
1.219127e+003, 1.679399e+002
1.219609e+003, 1.674589e+002
1.220092e+003, 1.666643e+002
1.220574e+003, 1.660377e+002
1.221056e+003, 1.665024e+002
1.221538e+003, 1.674920e+002
1.222020e+003, 1.682401e+002
1.222502e+003, 1.685970e+002
1.222984e+003, 1.687004e+002
1.223466e+003, 1.684376e+002
1.223948e+003, 1.683594e+002
1.224431e+003, 1.687776e+002
1.224913e+003, 1.692441e+002
1.225395e+003, 1.690325e+002
1.225877e+003, 1.684874e+002
1.226359e+003, 1.681097e+002
1.226841e+003, 1.680547e+002
1.227323e+003, 1.677081e+002
1.227805e+003, 1.669718e+002
1.228287e+003, 1.663171e+002
1.228770e+003, 1.658866e+002
1.229252e+003, 1.657341e+002
1.229734e+003, 1.662122e+002
1.230216e+003, 1.668782e+002
1.230698e+003, 1.670820e+002
1.231180e+003, 1.666067e+002
1.231662e+003, 1.663068e+002
1.232144e+003, 1.661873e+002
1.232627e+003, 1.662198e+002
1.233109e+003, 1.664504e+002
1.233591e+003, 1.667318e+002
1.234073e+003, 1.670325e+002
1.234555e+003, 1.672069e+002
1.235037e+003, 1.669558e+002
1.235519e+003, 1.661191e+002
1.236001e+003, 1.658363e+002
1.236484e+003, 1.661621e+002
1.236966e+003, 1.666153e+002
1.237448e+003, 1.671136e+002
1.237930e+003, 1.673869e+002
1.238412e+003, 1.669503e+002
1.238894e+003, 1.662269e+002
1.239376e+003, 1.657189e+002
1.239858e+003, 1.653665e+002
1.240340e+003, 1.658786e+002
1.240823e+003, 1.672853e+002
1.241305e+003, 1.686472e+002
1.241787e+003, 1.696648e+002
1.242269e+003, 1.701243e+002
1.242751e+003, 1.694545e+002
1.243233e+003, 1.683159e+002
1.243715e+003, 1.675045e+002
1.244197e+003, 1.670371e+002
1.244679e+003, 1.669870e+002
1.245162e+003, 1.673456e+002
1.245644e+003, 1.676920e+002
1.246126e+003, 1.677789e+002
1.246608e+003, 1.678151e+002
1.247090e+003, 1.679866e+002
1.247572e+003, 1.681587e+002
1.248054e+003, 1.682232e+002
1.248536e+003, 1.681920e+002
1.249019e+003, 1.676761e+002
1.249501e+003, 1.667516e+002
1.249983e+003, 1.662086e+002
1.250465e+003, 1.668806e+002
1.250947e+003, 1.675551e+002
1.251429e+003, 1.674796e+002
1.251911e+003, 1.672096e+002
1.252393e+003, 1.672245e+002
1.252875e+003, 1.675132e+002
1.253358e+003, 1.681367e+002
1.253840e+003, 1.689827e+002
1.254322e+003, 1.693462e+002
1.254804e+003, 1.682246e+002
1.255286e+003, 1.673793e+002
1.255768e+003, 1.676628e+002
1.256250e+003, 1.681968e+002
1.256732e+003, 1.682277e+002
1.257214e+003, 1.678618e+002
1.257697e+003, 1.677512e+002
1.258179e+003, 1.678550e+002
1.258661e+003, 1.679634e+002
1.259143e+003, 1.679729e+002
1.259625e+003, 1.679922e+002
1.260107e+003, 1.679912e+002
1.260589e+003, 1.680871e+002
1.261071e+003, 1.685316e+002
1.261554e+003, 1.691213e+002
1.262036e+003, 1.691047e+002
1.262518e+003, 1.686420e+002
1.263000e+003, 1.682968e+002
1.263482e+003, 1.682254e+002
1.263964e+003, 1.684069e+002
1.264446e+003, 1.689307e+002
1.264928e+003, 1.694581e+002
1.265411e+003, 1.696876e+002
1.265893e+003, 1.697302e+002
1.266375e+003, 1.695376e+002
1.266857e+003, 1.693566e+002
1.267339e+003, 1.698737e+002
1.267821e+003, 1.725073e+002
1.268303e+003, 1.733828e+002
1.268785e+003, 1.720494e+002
1.269267e+003, 1.703828e+002
1.269750e+003, 1.697897e+002
1.270232e+003, 1.697951e+002
1.270714e+003, 1.701374e+002
1.271196e+003, 1.705229e+002
1.271678e+003, 1.701679e+002
1.272160e+003, 1.684964e+002
1.272642e+003, 1.678905e+002
1.273124e+003, 1.685063e+002
1.273606e+003, 1.693293e+002
1.274089e+003, 1.696236e+002
1.274571e+003, 1.697964e+002
1.275053e+003, 1.702570e+002
1.275535e+003, 1.708246e+002
1.276017e+003, 1.712325e+002
1.276499e+003, 1.715134e+002
1.276981e+003, 1.712102e+002
1.277463e+003, 1.703279e+002
1.277946e+003, 1.696771e+002
1.278428e+003, 1.701979e+002
1.278910e+003, 1.706703e+002
1.279392e+003, 1.700245e+002
1.279874e+003, 1.691316e+002
1.280356e+003, 1.691536e+002
1.280838e+003, 1.700568e+002
1.281320e+003, 1.700458e+002
1.281802e+003, 1.692205e+002
1.282285e+003, 1.686595e+002
1.282767e+003, 1.691723e+002
1.283249e+003, 1.697670e+002
1.283731e+003, 1.700865e+002
1.284213e+003, 1.703389e+002
1.284695e+003, 1.708342e+002
1.285177e+003, 1.714221e+002
1.285659e+003, 1.711628e+002
1.286141e+003, 1.702865e+002
1.286624e+003, 1.697651e+002
1.287106e+003, 1.704312e+002
1.287588e+003, 1.708673e+002
1.288070e+003, 1.708723e+002
1.288552e+003, 1.706586e+002
1.289034e+003, 1.701401e+002
1.289516e+003, 1.696480e+002
1.289998e+003, 1.701217e+002
1.290481e+003, 1.712329e+002
1.290963e+003, 1.721379e+002
1.291445e+003, 1.727630e+002
1.291927e+003, 1.726934e+002
1.292409e+003, 1.716963e+002
1.292891e+003, 1.709189e+002
1.293373e+003, 1.715158e+002
1.293855e+003, 1.725304e+002
1.294338e+003, 1.727932e+002
1.294820e+003, 1.725652e+002
1.295302e+003, 1.723044e+002
1.295784e+003, 1.720107e+002
1.296266e+003, 1.718341e+002
1.296748e+003, 1.717666e+002
1.297230e+003, 1.719659e+002
1.297712e+003, 1.728273e+002
1.298194e+003, 1.736418e+002
1.298677e+003, 1.738443e+002
1.299159e+003, 1.736496e+002
1.299641e+003, 1.732941e+002
1.300123e+003, 1.727654e+002
1.300605e+003, 1.724842e+002
1.301087e+003, 1.724324e+002
1.301569e+003, 1.724692e+002
1.302051e+003, 1.726875e+002
1.302533e+003, 1.726792e+002
1.303016e+003, 1.722872e+002
##END=



