##NAMES=Ferberite
##RRUFFID=R040044
##IDEAL CHEMISTRY=Fe^2+^W^6+^O_4_
##LOCALITY=Chocote, Bolivia
##OWNER=RRUFF
##SOURCE=University of Arizona Mineral Museum
##DESCRIPTION=Black tabular single crystal
##STATUS=The identification of this mineral has been confirmed by X-ray diffraction and chemical analysis
##URL=rruff.info/R040044
##MEASURED CHEMISTRY=(Fe_0.82_Mn_0.08_Mg_0.07_Pb_0.03_)_Î£=1_W_1.00_O_4_
122.0042, 395.6428
122.4864, 424.8713
122.9685, 450.8144
123.4506, 471.3394
123.9327, 482.8017
124.4148, 477.4757
124.8969, 469.1646
125.3791, 473.1095
125.8612, 488.9402
126.3433, 509.8610
126.8254, 531.1240
127.3075, 553.1647
127.7896, 577.0972
128.2718, 606.4547
128.7539, 637.6810
129.2360, 663.0134
129.7181, 681.8915
130.2002, 696.4702
130.6823, 709.5887
131.1645, 721.0826
131.6466, 729.4380
132.1287, 732.8658
132.6108, 731.9557
133.0929, 731.4619
133.5750, 733.3304
134.0572, 733.6226
134.5393, 722.3625
135.0214, 698.6217
135.5035, 671.3842
135.9856, 645.3107
136.4677, 620.0282
136.9498, 600.5175
137.4320, 588.3926
137.9141, 582.7074
138.3962, 579.2598
138.8783, 580.1794
139.3604, 578.6922
139.8425, 566.0693
140.3247, 538.1588
140.8068, 512.3315
141.2889, 492.4686
141.7710, 478.6779
142.2531, 469.5251
142.7352, 465.7367
143.2174, 465.8135
143.6995, 467.5548
144.1816, 471.8181
144.6637, 476.2910
145.1458, 479.9592
145.6279, 481.8341
146.1101, 485.3658
146.5922, 493.8145
147.0743, 503.9944
147.5564, 505.3206
148.0385, 490.5102
148.5206, 473.3552
149.0028, 460.8124
149.4849, 456.1347
149.9670, 452.0330
150.4491, 448.2598
150.9312, 444.8510
151.4133, 442.0516
151.8955, 436.5320
152.3776, 433.5172
152.8597, 436.5892
153.3418, 453.3379
153.8239, 468.8387
154.3060, 483.2198
154.7882, 497.4233
155.2703, 500.2689
155.7524, 478.3553
156.2345, 447.8618
156.7166, 427.5262
157.1987, 430.0287
157.6808, 435.9179
158.1630, 437.4140
158.6451, 431.0770
159.1272, 428.3926
159.6093, 435.6344
160.0914, 448.5454
160.5735, 459.0202
161.0557, 461.0113
161.5378, 461.8955
162.0199, 466.9170
162.5020, 482.7133
162.9841, 493.2077
163.4662, 487.1805
163.9484, 469.2000
164.4305, 454.7265
164.9126, 454.5231
165.3947, 459.2259
165.8768, 460.8248
166.3589, 453.9604
166.8411, 446.2921
167.3232, 440.9809
167.8053, 438.1561
168.2874, 439.0673
168.7695, 448.6126
169.2516, 461.3745
169.7338, 470.3501
170.2159, 470.8497
170.6980, 467.6805
171.1801, 464.6552
171.6622, 461.8784
172.1443, 458.5097
172.6265, 452.6424
173.1086, 445.6624
173.5907, 440.4619
174.0728, 439.2019
174.5549, 440.0648
175.0370, 440.8544
175.5192, 441.2899
176.0013, 442.0882
176.4834, 442.9264
176.9655, 444.4238
177.4476, 448.6039
177.9297, 461.6057
178.4118, 477.4026
178.8940, 484.0872
179.3761, 478.4340
179.8582, 466.9598
180.3403, 456.0826
180.8224, 446.0116
181.3046, 438.9464
181.7867, 437.5728
182.2688, 440.4509
182.7509, 443.2453
183.2330, 443.9220
183.7151, 445.2365
184.1973, 455.0175
184.6794, 473.0974
185.1615, 488.6612
185.6436, 488.6345
186.1257, 476.4016
186.6078, 468.1572
187.0900, 469.8772
187.5721, 478.1495
188.0542, 484.3462
188.5363, 488.4957
189.0184, 490.7964
189.5005, 489.4247
189.9827, 484.9714
190.4648, 484.4963
190.9469, 493.5952
191.4290, 509.4701
191.9111, 517.0264
192.3932, 514.5778
192.8754, 509.9813
193.3575, 514.6130
193.8396, 528.6918
194.3217, 542.9355
194.8038, 552.8389
195.2859, 558.7177
195.7681, 566.3643
196.2502, 576.3236
196.7323, 587.1854
197.2144, 595.4619
197.6965, 600.5227
198.1786, 608.1948
198.6607, 623.6495
199.1429, 647.4836
199.6250, 665.1994
200.1071, 674.2184
200.5892, 678.7447
201.0713, 688.9074
201.5534, 705.5023
202.0356, 723.9784
202.5177, 741.5013
202.9998, 757.9095
203.4819, 774.6368
203.9640, 792.0805
204.4461, 809.6813
204.9283, 825.7772
205.4104, 841.0476
205.8925, 852.8563
206.3746, 857.6294
206.8567, 853.2035
207.3388, 852.3083
207.8210, 857.8440
208.3031, 868.6783
208.7852, 878.5238
209.2673, 889.0676
209.7494, 895.3685
210.2315, 891.5443
210.7137, 874.3323
211.1958, 858.5990
211.6779, 849.0005
212.1600, 844.8836
212.6421, 833.7853
213.1242, 812.9572
213.6064, 789.0383
214.0885, 770.1531
214.5706, 758.8890
215.0527, 744.9890
215.5348, 724.7568
216.0169, 698.0445
216.4991, 673.6470
216.9812, 651.0233
217.4633, 631.2664
217.9454, 616.4498
218.4275, 609.6957
218.9096, 600.7734
219.3917, 585.2512
219.8739, 561.1911
220.3560, 543.1754
220.8381, 532.8245
221.3202, 527.0785
221.8023, 520.9915
222.2844, 513.8224
222.7666, 507.7606
223.2487, 503.7985
223.7308, 502.8052
224.2129, 500.9321
224.6950, 498.4940
225.1771, 495.0020
225.6593, 489.1098
226.1414, 478.5372
226.6235, 469.2698
227.1056, 463.5613
227.5877, 462.2605
228.0698, 462.8099
228.5520, 467.3789
229.0341, 473.0699
229.5162, 471.7538
229.9983, 457.1349
230.4804, 444.9538
230.9625, 443.0089
231.4447, 457.8244
231.9268, 468.6089
232.4089, 474.2798
232.8910, 475.8967
233.3731, 477.0865
233.8552, 478.5963
234.3374, 478.6553
234.8195, 475.9058
235.3016, 467.8166
235.7837, 462.2436
236.2658, 459.6326
236.7479, 459.8073
237.2301, 462.4501
237.7122, 469.9094
238.1943, 476.7853
238.6764, 479.6560
239.1585, 475.4269
239.6406, 473.5009
240.1227, 476.0928
240.6049, 481.9288
241.0870, 483.4781
241.5691, 478.0586
242.0512, 471.6151
242.5333, 467.9834
243.0154, 468.2065
243.4976, 469.1998
243.9797, 471.1110
244.4618, 473.7037
244.9439, 475.0377
245.4260, 473.8287
245.9081, 472.8538
246.3903, 474.4650
246.8724, 480.9343
247.3545, 485.2716
247.8366, 485.7337
248.3187, 482.7926
248.8008, 482.1043
249.2830, 485.5050
249.7651, 489.0365
250.2472, 489.2526
250.7293, 483.8822
251.2114, 480.1765
251.6935, 480.0614
252.1757, 483.2525
252.6578, 483.4045
253.1399, 477.6750
253.6220, 472.3835
254.1041, 473.5021
254.5862, 484.6286
255.0684, 494.5190
255.5505, 501.6190
256.0326, 505.9665
256.5147, 507.4131
256.9968, 502.6419
257.4789, 499.1737
257.9611, 505.3524
258.4432, 527.1037
258.9253, 544.3533
259.4074, 552.4785
259.8895, 551.7148
260.3716, 550.1578
260.8538, 545.1872
261.3359, 542.9468
261.8180, 551.1371
262.3001, 575.5653
262.7822, 594.9515
263.2643, 603.3720
263.7465, 601.1659
264.2286, 604.1573
264.7107, 614.3170
265.1928, 626.6069
265.6749, 635.5165
266.1570, 639.7344
266.6392, 644.9854
267.1213, 653.1361
267.6034, 664.0015
268.0855, 672.5669
268.5676, 677.7874
269.0497, 682.5276
269.5318, 691.1873
270.0139, 706.1860
270.4961, 715.4743
270.9782, 714.8211
271.4603, 704.9252
271.9424, 698.1334
272.4245, 695.6869
272.9066, 693.8187
273.3888, 688.5685
273.8709, 679.5697
274.3530, 669.1606
274.8351, 657.3849
275.3172, 644.4793
275.7993, 632.9289
276.2815, 622.7388
276.7636, 613.8606
277.2457, 607.6293
277.7278, 604.8488
278.2099, 597.8241
278.6920, 583.0967
279.1742, 562.0586
279.6563, 544.2723
280.1384, 529.6663
280.6205, 517.8992
281.1026, 508.4265
281.5847, 501.2498
282.0669, 496.6531
282.5490, 496.1575
283.0311, 498.3386
283.5132, 495.3176
283.9953, 486.1864
284.4774, 476.0536
284.9596, 470.8358
285.4417, 470.3171
285.9238, 468.3996
286.4059, 462.4424
286.8880, 454.1357
287.3701, 449.4165
287.8523, 448.4397
288.3344, 450.1374
288.8165, 455.7023
289.2986, 464.2914
289.7807, 468.6086
290.2628, 465.0744
290.7450, 456.8093
291.2271, 451.8606
291.7092, 450.2417
292.1913, 450.7823
292.6734, 452.9902
293.1555, 456.6466
293.6377, 460.8981
294.1198, 466.2731
294.6019, 471.6189
295.0840, 474.3105
295.5661, 474.4179
296.0482, 473.5028
296.5304, 472.2699
297.0125, 471.0115
297.4946, 470.2315
297.9767, 469.0464
298.4588, 469.4655
298.9409, 476.4291
299.4231, 489.2798
299.9052, 501.4832
300.3873, 506.2522
300.8694, 506.7293
301.3515, 509.0402
301.8336, 515.4502
302.3158, 523.2029
302.7979, 528.4006
303.2800, 531.5395
303.7621, 535.3748
304.2442, 543.9533
304.7263, 553.8474
305.2085, 559.7122
305.6906, 557.8557
306.1727, 555.6647
306.6548, 559.9410
307.1369, 569.7791
307.6190, 581.8398
308.1012, 597.4355
308.5833, 612.6234
309.0654, 622.6653
309.5475, 623.5692
310.0296, 624.9360
310.5117, 633.7550
310.9938, 648.6067
311.4760, 665.2979
311.9581, 682.2679
312.4402, 700.0807
312.9223, 719.3021
313.4044, 740.6654
313.8865, 762.0186
314.3687, 782.0424
314.8508, 801.0588
315.3329, 819.7614
315.8150, 833.5346
316.2971, 850.5513
316.7792, 876.7249
317.2614, 915.9633
317.7435, 955.4102
318.2256, 987.9481
318.7077, 1017.814
319.1898, 1052.134
319.6719, 1095.175
320.1541, 1142.133
320.6362, 1191.847
321.1183, 1246.291
321.6004, 1296.540
322.0825, 1337.167
322.5646, 1373.161
323.0468, 1411.418
323.5289, 1455.654
324.0110, 1500.112
324.4931, 1543.106
324.9752, 1583.771
325.4573, 1624.513
325.9395, 1668.963
326.4216, 1712.170
326.9037, 1749.330
327.3858, 1779.987
327.8679, 1804.703
328.3500, 1822.195
328.8322, 1831.479
329.3143, 1841.477
329.7964, 1858.192
330.2785, 1871.762
330.7606, 1873.522
331.2427, 1860.346
331.7249, 1839.722
332.2070, 1812.383
332.6891, 1778.139
333.1712, 1738.877
333.6533, 1691.889
334.1354, 1642.594
334.6176, 1594.510
335.0997, 1547.925
335.5818, 1501.593
336.0639, 1455.044
336.5460, 1407.944
337.0281, 1360.991
337.5103, 1312.452
337.9924, 1266.124
338.4745, 1216.219
338.9566, 1146.560
339.4387, 1115.120
339.9208, 1083.808
340.4030, 1052.802
340.8851, 1012.477
341.3672, 992.2875
341.8493, 968.9734
342.3314, 948.9191
342.8135, 941.6598
343.2957, 903.1687
343.7778, 877.1512
344.2599, 856.7436
344.7420, 838.7990
345.2241, 823.6254
345.7062, 809.2858
346.1884, 794.9245
346.6705, 780.5874
347.1526, 767.3123
347.6347, 755.3034
348.1168, 743.7213
348.5989, 730.7552
349.0811, 717.1281
349.5632, 705.5742
350.0453, 698.8928
350.5274, 694.9569
351.0095, 690.0516
351.4916, 684.1966
351.9737, 676.5082
352.4558, 664.4057
352.9380, 649.8186
353.4201, 637.0204
353.9022, 628.8906
354.3843, 622.6579
354.8664, 614.5114
355.3485, 604.7681
355.8307, 597.1810
356.3128, 597.9417
356.7949, 601.4891
357.2770, 600.5339
357.7591, 589.5248
358.2412, 576.9218
358.7234, 566.4942
359.2055, 558.5912
359.6876, 554.8735
360.1697, 562.1091
360.6518, 570.5162
361.1339, 571.9668
361.6161, 559.1146
362.0982, 547.7065
362.5803, 546.8086
363.0624, 552.1768
363.5445, 552.9589
364.0266, 540.0305
364.5088, 526.1898
364.9909, 518.3070
365.4730, 520.1807
365.9551, 520.7604
366.4372, 517.7589
366.9193, 512.5204
367.4015, 507.2330
367.8836, 500.8902
368.3657, 495.7388
368.8478, 492.6964
369.3299, 492.2527
369.8120, 491.7579
370.2942, 491.1155
370.7763, 490.4756
371.2584, 489.9791
371.7405, 489.4603
372.2226, 489.2867
372.7047, 489.2376
373.1869, 489.3265
373.6690, 491.7561
374.1511, 499.1346
374.6332, 505.0525
375.1153, 502.7788
375.5974, 488.8954
376.0796, 479.6759
376.5617, 479.4203
377.0438, 484.9880
377.5259, 483.1855
378.0080, 472.1242
378.4901, 461.5712
378.9723, 458.2237
379.4544, 462.0191
379.9365, 468.4671
380.4186, 478.7555
380.9007, 488.6545
381.3828, 487.9363
381.8650, 477.0488
382.3471, 467.2914
382.8292, 465.5893
383.3113, 469.8364
383.7934, 473.0414
384.2755, 474.6011
384.7577, 476.9260
385.2398, 486.2538
385.7219, 499.2595
386.2040, 505.8427
386.6861, 494.6384
387.1682, 477.8917
387.6504, 472.6964
388.1325, 478.8304
388.6146, 486.8510
389.0967, 489.2393
389.5788, 489.3691
390.0609, 491.9600
390.5431, 501.5912
391.0252, 510.7968
391.5073, 512.6360
391.9894, 509.0274
392.4715, 508.6963
392.9536, 518.7217
393.4357, 531.8157
393.9178, 543.1130
394.4000, 551.6561
394.8821, 558.1799
395.3642, 561.6365
395.8463, 563.2744
396.3284, 565.7150
396.8105, 571.8997
397.2927, 576.9179
397.7748, 577.5960
398.2569, 570.5000
398.7390, 569.5778
399.2211, 582.2339
399.7032, 599.0919
400.1854, 609.2581
400.6675, 609.0757
401.1496, 606.8620
401.6317, 603.6094
402.1138, 599.3533
402.5959, 595.1223
403.0781, 590.6536
403.5602, 586.5602
404.0423, 584.6799
404.5244, 588.1662
405.0065, 582.6570
405.4886, 562.8875
405.9708, 534.4913
406.4529, 517.0183
406.9350, 512.8642
407.4171, 509.5311
407.8992, 497.6758
408.3813, 477.6609
408.8635, 465.0977
409.3456, 461.8672
409.8277, 463.5771
410.3098, 465.7999
410.7919, 468.1511
411.2740, 467.0214
411.7562, 456.8778
412.2383, 442.5409
412.7204, 437.0666
413.2025, 440.6513
413.6846, 445.7182
414.1667, 445.2661
414.6489, 441.2916
415.1310, 437.7825
415.6131, 438.3325
416.0952, 437.5567
416.5773, 426.0215
417.0594, 406.7278
417.5416, 394.7426
418.0237, 406.9449
418.5058, 425.5673
418.9879, 434.4159
419.4700, 426.4493
419.9521, 417.4067
420.4343, 413.2314
420.9164, 412.7667
421.3985, 413.5755
421.8806, 417.4556
422.3627, 420.3118
422.8448, 420.3457
423.3270, 416.9523
423.8091, 413.1351
424.2912, 407.1431
424.7733, 401.9316
425.2554, 400.3846
425.7375, 407.6387
426.2197, 411.7137
426.7018, 409.0640
427.1839, 400.7519
427.6660, 397.7361
428.1481, 402.5014
428.6302, 408.9785
429.1124, 413.8680
429.5945, 417.2397
430.0766, 418.4476
430.5587, 416.7047
431.0408, 413.5051
431.5229, 411.7118
432.0051, 411.3346
432.4872, 412.3225
432.9693, 415.7432
433.4514, 420.9900
433.9335, 423.4400
434.4156, 422.9228
434.8977, 420.6281
435.3799, 416.0995
435.8620, 410.4332
436.3441, 408.3047
436.8262, 413.8465
437.3083, 421.2375
437.7904, 421.4480
438.2726, 415.3397
438.7547, 408.5975
439.2368, 402.7093
439.7189, 399.2765
440.2010, 401.1809
440.6831, 411.1168
441.1653, 420.5748
441.6474, 423.9211
442.1295, 422.9888
442.6116, 421.2967
443.0937, 418.8526
443.5758, 417.1330
444.0580, 417.5698
444.5401, 420.6501
445.0222, 422.0289
445.5043, 419.3272
445.9864, 415.2308
446.4685, 412.0460
446.9507, 411.9431
447.4328, 410.4535
447.9149, 404.3355
448.3970, 395.6728
448.8791, 395.0212
449.3612, 407.7993
449.8434, 421.3915
450.3255, 429.7593
450.8076, 431.1366
451.2897, 432.9558
451.7718, 435.6699
452.2539, 438.2875
452.7361, 439.1218
453.2182, 437.9778
453.7003, 436.3594
454.1824, 434.2752
454.6645, 432.1055
455.1466, 432.3882
455.6288, 435.4703
456.1109, 437.6930
456.5930, 433.9849
457.0751, 426.4929
457.5572, 422.7484
458.0393, 425.7485
458.5215, 430.2994
459.0036, 429.2324
459.4857, 423.8768
459.9678, 418.9150
460.4499, 417.9100
460.9320, 418.0749
461.4142, 415.8325
461.8963, 410.3442
462.3784, 407.4828
462.8605, 414.0771
463.3426, 423.9558
463.8247, 429.8405
464.3069, 424.4752
464.7890, 419.8464
465.2711, 420.7477
465.7532, 426.3120
466.2353, 430.3893
466.7174, 433.0325
467.1996, 433.0574
467.6817, 429.2858
468.1638, 416.1771
468.6459, 409.8221
469.1280, 413.5792
469.6101, 422.2307
470.0923, 427.5532
470.5744, 428.5859
471.0565, 428.2408
471.5386, 426.7870
472.0207, 424.3738
472.5028, 423.6668
472.9850, 425.1051
473.4671, 426.6511
473.9492, 425.3605
474.4313, 421.6369
474.9134, 422.6701
475.3955, 431.6977
475.8776, 442.0115
476.3597, 439.5520
476.8419, 426.7404
477.3240, 416.6320
477.8061, 419.5887
478.2882, 428.3043
478.7703, 432.0015
479.2524, 429.9763
479.7346, 426.8304
480.2167, 425.6985
480.6988, 425.5613
481.1809, 425.1170
481.6630, 422.1554
482.1451, 420.7067
482.6273, 424.3705
483.1094, 431.4768
483.5915, 436.0769
484.0736, 434.5426
484.5557, 431.5925
485.0378, 428.7818
485.5200, 424.8246
486.0021, 424.9977
486.4842, 434.9691
486.9663, 446.1949
487.4484, 447.9503
487.9305, 431.5348
488.4127, 422.3718
488.8948, 428.7544
489.3769, 446.7315
489.8590, 450.3890
490.3411, 435.2500
490.8232, 419.4209
491.3054, 415.5857
491.7875, 423.4970
492.2696, 427.8656
492.7517, 426.9821
493.2338, 424.7344
493.7159, 426.9270
494.1981, 432.7248
494.6802, 438.1693
495.1623, 442.2714
495.6444, 444.6539
496.1265, 443.3716
496.6086, 438.9379
497.0908, 436.0112
497.5729, 440.0018
498.0550, 446.0231
498.5371, 448.6987
499.0192, 445.5810
499.5013, 442.1998
499.9835, 440.8926
500.4656, 441.2047
500.9477, 442.4068
501.4298, 444.5410
501.9119, 447.3008
502.3940, 451.3036
502.8762, 456.7140
503.3583, 459.9393
503.8404, 459.8799
504.3225, 458.5110
504.8046, 456.7619
505.2867, 453.6175
505.7689, 452.6642
506.2510, 454.9030
506.7331, 458.7714
507.2152, 460.9005
507.6973, 460.9126
508.1794, 461.4082
508.6616, 463.9599
509.1437, 467.9106
509.6258, 469.5114
510.1079, 468.6219
510.5900, 467.3523
511.0721, 466.8670
511.5543, 467.4663
512.0364, 470.3526
512.5185, 476.7455
513.0006, 483.2187
513.4827, 486.0930
513.9648, 486.2769
514.4470, 485.9674
514.9291, 484.5616
515.4112, 484.2906
515.8933, 487.7114
516.3754, 494.9521
516.8575, 500.2784
517.3397, 500.6274
517.8218, 498.9244
518.3039, 497.3352
518.7860, 493.8049
519.2681, 493.4173
519.7502, 497.7450
520.2324, 505.0243
520.7145, 511.6702
521.1966, 517.7056
521.6787, 523.2037
522.1608, 529.1133
522.6429, 535.3746
523.1251, 535.1382
523.6072, 526.6319
524.0893, 517.2367
524.5714, 513.0527
525.0535, 513.8135
525.5356, 516.6381
526.0178, 521.6002
526.4999, 527.3208
526.9820, 532.6980
527.4641, 537.2505
527.9462, 539.5411
528.4283, 536.4241
528.9105, 532.0932
529.3926, 532.0043
529.8747, 535.9272
530.3568, 538.4180
530.8389, 534.4979
531.3210, 528.7711
531.8032, 524.9896
532.2853, 523.9619
532.7674, 524.9686
533.2495, 530.3235
533.7316, 537.2396
534.2137, 540.6189
534.6959, 537.5952
535.1780, 533.7341
535.6601, 529.0334
536.1422, 523.6485
536.6243, 523.0529
537.1064, 530.0336
537.5885, 536.6550
538.0706, 537.4626
538.5527, 532.0316
539.0349, 523.8084
539.5170, 511.1974
539.9991, 500.2639
540.4812, 504.1661
540.9633, 520.1718
541.4454, 529.4764
541.9276, 519.5262
542.4097, 502.5884
542.8918, 498.3302
543.3739, 505.1332
543.8560, 512.5027
544.3381, 512.6119
544.8203, 510.7351
545.3024, 512.9172
545.7845, 522.0188
546.2666, 527.3260
546.7487, 521.9845
547.2308, 511.2649
547.7130, 501.3015
548.1951, 493.3090
548.6772, 486.2136
549.1593, 478.0200
549.6414, 470.0213
550.1235, 469.6487
550.6057, 483.8754
551.0878, 494.6713
551.5699, 491.7864
552.0520, 472.7772
552.5341, 465.4367
553.0162, 472.9686
553.4984, 483.3356
553.9805, 481.4733
554.4626, 468.8668
554.9447, 459.7990
555.4268, 458.4174
555.9089, 460.5231
556.3911, 460.2188
556.8732, 458.0146
557.3553, 455.8950
557.8374, 455.2848
558.3195, 455.0043
558.8016, 453.7534
559.2838, 451.4832
559.7659, 449.6388
560.2480, 449.7889
560.7301, 450.1554
561.2122, 449.2346
561.6943, 444.6815
562.1765, 441.9218
562.6586, 442.7962
563.1407, 445.5770
563.6228, 447.7162
564.1049, 450.1120
564.5870, 450.0755
565.0692, 445.7596
565.5513, 438.0066
566.0334, 434.5293
566.5155, 436.3854
566.9976, 438.3835
567.4797, 436.9415
567.9619, 432.4888
568.4440, 426.6449
568.9261, 418.8595
569.4082, 413.4998
569.8903, 418.6354
570.3724, 429.8882
570.8546, 437.3826
571.3367, 434.3407
571.8188, 430.1807
572.3009, 434.2209
572.7830, 443.6053
573.2651, 449.4030
573.7473, 444.5444
574.2294, 437.9902
574.7115, 434.4552
575.1936, 434.8070
575.6757, 434.4709
576.1578, 432.4565
576.6400, 430.0512
577.1221, 428.5936
577.6042, 430.2459
578.0863, 426.6747
578.5684, 413.8817
579.0505, 399.2368
579.5327, 398.6964
580.0148, 413.6066
580.4969, 426.3173
580.9790, 429.4422
581.4611, 426.2950
581.9432, 425.7250
582.4254, 427.5445
582.9075, 429.1367
583.3896, 427.1155
583.8717, 424.3895
584.3538, 425.5388
584.8359, 431.8339
585.3181, 437.6203
585.8002, 439.3900
586.2823, 438.7913
586.7644, 437.7336
587.2465, 436.4466
587.7286, 435.0470
588.2108, 434.1965
588.6929, 433.2941
589.1750, 430.1382
589.6571, 420.3742
590.1392, 415.0070
590.6213, 419.3264
591.1035, 433.2032
591.5856, 440.2970
592.0677, 439.1965
592.5498, 436.2177
593.0319, 437.4972
593.5140, 442.0386
593.9962, 441.7158
594.4783, 434.5194
594.9604, 426.8884
595.4425, 427.6865
595.9246, 433.8996
596.4067, 438.6826
596.8889, 438.1145
597.3710, 436.4739
597.8531, 436.0320
598.3352, 436.9019
598.8173, 439.4887
599.2994, 448.9353
599.7816, 455.8489
600.2637, 454.5450
600.7458, 442.5575
601.2279, 433.7325
601.7100, 428.2256
602.1921, 426.1703
602.6743, 428.7249
603.1564, 437.9161
603.6385, 443.1837
604.1206, 442.0815
604.6027, 439.5605
605.0848, 445.9605
605.5670, 460.4716
606.0491, 470.4619
606.5312, 470.7799
607.0133, 464.9503
607.4954, 456.5964
607.9775, 446.5794
608.4597, 438.8403
608.9418, 434.2467
609.4239, 434.1033
609.9060, 442.7575
610.3881, 461.8646
610.8702, 473.7509
611.3524, 463.9469
611.8345, 449.1398
612.3166, 442.3778
612.7987, 455.0530
613.2808, 462.0120
613.7629, 461.3239
614.2451, 456.0636
614.7272, 450.2001
615.2093, 442.4410
615.6914, 439.4323
616.1735, 444.3002
616.6556, 454.4834
617.1378, 462.7319
617.6199, 469.0165
618.1020, 472.4317
618.5840, 470.0083
619.0662, 465.1812
619.5483, 463.5088
620.0304, 465.3334
620.5125, 469.1405
620.9946, 478.2819
621.4767, 486.5742
621.9589, 487.3286
622.4410, 474.2468
622.9231, 462.8923
623.4052, 456.2680
623.8873, 454.1276
624.3694, 456.4011
624.8516, 468.2625
625.3337, 476.0784
625.8158, 476.2829
626.2979, 471.0437
626.7800, 469.5739
627.2621, 472.8509
627.7443, 474.8479
628.2264, 470.1790
628.7085, 461.3177
629.1906, 461.4014
629.6727, 470.4797
630.1548, 479.1814
630.6370, 478.2163
631.1191, 472.5447
631.6012, 469.8353
632.0833, 472.5804
632.5654, 473.9713
633.0475, 466.7758
633.5297, 457.2078
634.0118, 452.8795
634.4939, 462.3856
634.9760, 469.3101
635.4581, 470.1059
635.9402, 466.5410
636.4224, 463.1708
636.9045, 460.5785
637.3866, 456.8255
637.8687, 449.8702
638.3508, 440.8536
638.8329, 439.1120
639.3151, 445.2879
639.7972, 451.8996
640.2793, 451.9905
640.7614, 448.6363
641.2435, 450.2398
641.7256, 458.0835
642.2078, 464.8206
642.6899, 461.6823
643.1720, 455.0513
643.6541, 453.0901
644.1362, 462.9748
644.6183, 469.8016
645.1005, 465.7435
645.5826, 456.2318
646.0647, 451.6401
646.5468, 457.0083
647.0289, 460.4893
647.5110, 458.9365
647.9932, 453.6128
648.4753, 450.7825
648.9574, 450.4249
649.4395, 452.4636
649.9216, 459.0382
650.4037, 468.3674
650.8859, 471.1238
651.3680, 467.2699
651.8501, 462.9074
652.3322, 462.7980
652.8143, 465.4346
653.2964, 469.4630
653.7786, 475.3080
654.2607, 479.8781
654.7428, 481.4406
655.2249, 480.9606
655.7070, 479.4791
656.1891, 471.7887
656.6713, 470.2806
657.1534, 480.3786
657.6355, 495.8965
658.1176, 502.0110
658.5997, 495.1787
659.0818, 490.0656
659.5640, 491.3348
660.0461, 497.5757
660.5282, 503.9148
661.0103, 510.3525
661.4924, 516.7551
661.9745, 524.9227
662.4567, 532.1977
662.9388, 532.1807
663.4209, 524.5847
663.9030, 520.2823
664.3851, 530.3895
664.8672, 544.0411
665.3494, 551.4911
665.8315, 546.7988
666.3136, 545.4443
666.7957, 552.7916
667.2778, 563.1560
667.7599, 570.4082
668.2421, 572.1078
668.7242, 577.2949
669.2063, 587.9536
669.6884, 601.7469
670.1705, 614.4872
670.6526, 626.0361
671.1348, 635.3285
671.6169, 639.6697
672.0990, 643.2420
672.5811, 654.7645
673.0632, 672.4865
673.5453, 688.5043
674.0275, 697.1876
674.5096, 703.3916
674.9917, 709.9601
675.4738, 717.0459
675.9559, 725.8206
676.4380, 736.9567
676.9202, 749.5256
677.4023, 763.0769
677.8844, 777.7573
678.3665, 792.9641
678.8486, 809.5110
679.3307, 824.8915
679.8129, 833.3948
680.2950, 835.6455
680.7771, 846.8844
681.2592, 872.4188
681.7413, 900.3808
682.2234, 913.1487
682.7056, 915.4661
683.1877, 918.3638
683.6698, 923.9537
684.1519, 933.9246
684.6340, 954.4279
685.1161, 980.8970
685.5983, 999.0815
686.0804, 997.6532
686.5625, 995.7982
687.0446, 999.7973
687.5267, 1009.285
688.0089, 1017.828
688.4910, 1026.486
688.9731, 1031.764
689.4552, 1030.107
689.9373, 1022.324
690.4194, 1017.954
690.9016, 1017.534
691.3837, 1015.176
691.8658, 1002.458
692.3479, 985.1985
692.8300, 972.9503
693.3121, 968.1962
693.7943, 965.3037
694.2764, 963.0955
694.7585, 960.1273
695.2406, 954.7356
695.7227, 948.4288
696.2048, 936.9868
696.6870, 917.1128
697.1691, 893.5954
697.6512, 875.8537
698.1333, 865.8662
698.6154, 853.0781
699.0975, 833.6897
699.5797, 811.0579
700.0618, 793.4585
700.5438, 780.5673
701.0259, 769.8953
701.5081, 764.9824
701.9902, 758.4736
702.4723, 737.7321
702.9544, 705.1670
703.4365, 679.4199
703.9186, 672.7524
704.4008, 671.8928
704.8829, 671.1317
705.3650, 670.9126
705.8471, 664.5522
706.3292, 648.4044
706.8113, 630.7787
707.2935, 617.1105
707.7756, 607.4839
708.2577, 601.6083
708.7398, 600.7802
709.2219, 598.5255
709.7040, 582.9474
710.1862, 560.1697
710.6683, 547.0399
711.1504, 549.5580
711.6325, 555.9609
712.1146, 559.1625
712.5967, 559.5341
713.0789, 557.6185
713.5610, 552.1558
714.0431, 546.0302
714.5252, 539.6313
715.0073, 533.0019
715.4894, 526.1887
715.9716, 518.4316
716.4537, 512.3469
716.9358, 509.2893
717.4179, 508.1649
717.9000, 504.6271
718.3821, 498.8248
718.8643, 494.2928
719.3464, 494.5251
719.8285, 496.3936
720.3106, 495.6314
720.7927, 492.3299
721.2748, 487.8615
721.7570, 479.2636
722.2391, 472.7696
722.7212, 474.0802
723.2033, 486.0814
723.6854, 491.1196
724.1675, 483.8969
724.6497, 474.7599
725.1318, 470.9052
725.6139, 473.7927
726.0960, 470.9861
726.5781, 460.6752
727.0602, 450.6916
727.5424, 451.6349
728.0245, 459.7165
728.5066, 464.5208
728.9887, 463.6927
729.4708, 460.3007
729.9529, 455.6101
730.4351, 450.2964
730.9172, 445.1687
731.3993, 436.3641
731.8814, 432.7436
732.3635, 442.1636
732.8456, 455.8181
733.3278, 458.2687
733.8099, 444.5176
734.2920, 434.4101
734.7741, 432.5212
735.2562, 436.3452
735.7383, 441.1113
736.2205, 446.4791
736.7026, 449.3217
737.1847, 446.6806
737.6668, 441.8130
738.1489, 437.0336
738.6310, 432.9506
739.1132, 431.9626
739.5953, 440.2548
740.0774, 447.2252
740.5595, 445.5114
741.0416, 434.8797
741.5237, 432.5862
742.0059, 444.7087
742.4880, 455.0299
742.9701, 454.1920
743.4522, 442.5239
743.9343, 435.8889
744.4164, 434.4997
744.8986, 434.8957
745.3807, 434.2408
745.8628, 433.4039
746.3449, 424.0562
746.8270, 437.8275
747.3091, 445.4760
747.7913, 447.3306
748.2734, 426.0379
748.7555, 434.6352
749.2376, 431.2538
749.7197, 427.3814
750.2018, 440.1855
750.6840, 422.2595
751.1661, 434.7991
751.6482, 435.1775
752.1303, 441.1217
752.6124, 435.0135
753.0945, 432.6279
753.5767, 442.2986
754.0588, 445.2936
754.5409, 437.7980
755.0230, 444.0960
755.5051, 425.7491
755.9872, 429.0285
756.4694, 441.6386
756.9515, 434.7489
757.4336, 441.2674
757.9157, 442.6792
758.3978, 420.8840
758.8799, 425.9117
759.3621, 426.3418
759.8442, 431.6226
760.3263, 435.5523
760.8084, 436.2355
761.2905, 434.7897
761.7726, 432.6053
762.2548, 430.1554
762.7369, 429.6053
763.2190, 434.5733
763.7011, 439.8257
764.1832, 440.1902
764.6653, 436.8503
765.1475, 435.1960
765.6296, 439.7519
766.1117, 442.8558
766.5938, 440.3542
767.0759, 433.1871
767.5580, 433.5684
768.0402, 443.7567
768.5223, 452.4690
769.0044, 451.8014
769.4865, 444.5883
769.9686, 441.4189
770.4507, 442.0656
770.9329, 443.2234
771.4150, 440.9404
771.8971, 439.2282
772.3792, 443.7096
772.8613, 455.3760
773.3434, 461.3720
773.8256, 451.3645
774.3077, 440.7856
774.7898, 438.3164
775.2719, 445.8438
775.7540, 450.2437
776.2361, 450.7540
776.7183, 450.7769
777.2004, 454.0781
777.6825, 459.3947
778.1646, 461.3232
778.6467, 459.1089
779.1288, 457.1643
779.6110, 460.4078
780.0931, 465.0019
780.5752, 466.7653
781.0573, 463.8914
781.5394, 461.1326
782.0215, 459.9832
782.5037, 458.9710
782.9857, 456.6123
783.4678, 452.0990
783.9500, 449.4918
784.4321, 448.9661
784.9142, 439.0874
785.3963, 453.3161
785.8784, 461.4219
786.3605, 463.7338
786.8427, 442.8985
787.3248, 451.9530
787.8069, 449.0290
788.2890, 445.6138
788.7711, 458.8752
789.2532, 441.4065
789.7354, 454.4035
790.2175, 455.2391
790.6996, 461.6407
791.1817, 455.9897
791.6638, 454.0614
792.1459, 464.1894
792.6281, 467.6418
793.1102, 460.6035
793.5923, 467.3588
794.0744, 456.9055
794.5565, 462.8381
795.0386, 476.4639
795.5208, 487.4833
796.0029, 487.6670
796.4850, 480.8592
796.9671, 473.9161
797.4492, 465.7228
797.9313, 460.8654
798.4135, 460.8223
798.8956, 463.8864
799.3777, 466.8040
799.8598, 469.6190
800.3419, 471.8023
800.8240, 473.2500
801.3062, 473.9489
801.7883, 473.0731
802.2704, 471.3951
802.7525, 470.9844
803.2346, 474.0524
803.7167, 477.3435
804.1989, 478.4661
804.6810, 478.5223
805.1631, 481.0045
805.6452, 490.1652
806.1273, 494.7715
806.6094, 490.4999
807.0916, 481.2299
807.5737, 480.4699
808.0558, 487.9691
808.5379, 490.4079
809.0200, 476.2796
809.5021, 460.3122
809.9843, 464.8667
810.4664, 484.2702
810.9485, 502.2429
811.4306, 514.3449
811.9127, 520.9719
812.3948, 518.8264
812.8770, 510.6029
813.3591, 507.9567
813.8412, 513.3780
814.3233, 517.9651
814.8054, 518.4637
815.2875, 516.4948
815.7697, 517.3448
816.2518, 520.6275
816.7339, 523.2979
817.2160, 523.2186
817.6981, 522.2673
818.1802, 519.9545
818.6624, 517.8054
819.1445, 521.1666
819.6266, 542.9038
820.1087, 557.7079
820.5908, 555.2120
821.0729, 539.6531
821.5551, 531.7538
822.0372, 532.8032
822.5193, 534.0635
823.0014, 530.7437
823.4835, 526.0677
823.9656, 527.6856
824.4478, 534.5811
824.9299, 542.2165
825.4120, 551.2595
825.8941, 557.5053
826.3762, 555.3940
826.8583, 547.0984
827.3405, 545.6426
827.8226, 556.4720
828.3047, 567.3157
828.7868, 574.8888
829.2689, 579.6722
829.7510, 584.0269
830.2332, 587.9113
830.7153, 589.3461
831.1974, 583.9967
831.6795, 577.9812
832.1616, 581.6658
832.6437, 592.1372
833.1259, 599.3528
833.6080, 596.8572
834.0901, 592.5387
834.5722, 586.7900
835.0543, 581.3040
835.5364, 584.7084
836.0186, 601.3574
836.5007, 612.8904
836.9828, 610.2573
837.4649, 600.1435
837.9470, 600.5336
838.4291, 609.6907
838.9113, 618.9811
839.3934, 623.8245
839.8755, 627.1293
840.3576, 630.4078
840.8397, 633.7608
841.3218, 637.4190
841.8040, 638.2449
842.2861, 643.7521
842.7682, 657.3238
843.2503, 676.2074
843.7324, 692.4290
844.2145, 705.9107
844.6967, 712.6498
845.1788, 706.3461
845.6609, 697.3299
846.1430, 701.8369
846.6251, 715.8027
847.1072, 728.1412
847.5894, 729.5985
848.0715, 733.5303
848.5536, 746.9362
849.0357, 766.4020
849.5178, 783.0452
849.9999, 796.5353
850.4821, 807.4338
850.9642, 814.5283
851.4463, 820.8680
851.9284, 834.5513
852.4105, 853.6196
852.8926, 869.5708
853.3748, 872.4083
853.8569, 879.1456
854.3390, 906.3721
854.8211, 945.3216
855.3032, 977.5195
855.7853, 993.6270
856.2675, 1011.980
856.7496, 1034.190
857.2317, 1059.968
857.7138, 1089.576
858.1959, 1122.635
858.6780, 1154.936
859.1602, 1183.019
859.6423, 1214.457
860.1244, 1261.730
860.6065, 1317.908
861.0886, 1372.161
861.5707, 1420.365
862.0529, 1466.132
862.5350, 1502.642
863.0171, 1540.473
863.4992, 1595.431
863.9813, 1672.025
864.4634, 1741.719
864.9456, 1799.211
865.4276, 1854.857
865.9097, 1925.148
866.3918, 2005.241
866.8740, 2084.731
867.3561, 2161.405
867.8382, 2236.001
868.3203, 2300.516
868.8024, 2368.201
869.2845, 2455.354
869.7667, 2578.732
870.2488, 2690.058
870.7309, 2785.710
871.2130, 2873.552
871.6951, 2959.500
872.1772, 3043.400
872.6594, 3123.980
873.1415, 3201.644
873.6236, 3277.354
874.1057, 3353.811
874.5878, 3426.865
875.0699, 3491.437
875.5521, 3545.607
876.0342, 3597.615
876.5163, 3658.363
876.9984, 3705.472
877.4805, 3720.612
877.9626, 3702.997
878.4448, 3684.280
878.9269, 3665.022
879.4090, 3640.560
879.8911, 3616.403
880.3732, 3579.638
880.8553, 3507.890
881.3375, 3399.080
881.8196, 3293.590
882.3017, 3207.658
882.7838, 3124.681
883.2659, 3037.146
883.7480, 2945.104
884.2302, 2853.959
884.7123, 2763.881
885.1944, 2673.465
885.6765, 2580.212
886.1586, 2486.962
886.6407, 2397.757
887.1229, 2312.540
887.6050, 2226.904
888.0871, 2135.974
888.5692, 2046.995
889.0513, 1961.180
889.5334, 1880.657
890.0156, 1808.823
890.4977, 1746.602
890.9798, 1690.215
891.4619, 1640.601
891.9440, 1594.493
892.4261, 1544.856
892.9083, 1493.040
893.3904, 1440.822
893.8725, 1386.123
894.3546, 1334.465
894.8367, 1287.763
895.3188, 1246.182
895.8010, 1209.383
896.2831, 1180.116
896.7652, 1149.031
897.2473, 1113.825
897.7294, 1077.986
898.2115, 1046.885
898.6937, 1020.203
899.1758, 994.8214
899.6579, 969.8041
900.1400, 947.0883
900.6221, 930.2323
901.1042, 916.2053
901.5864, 901.9351
902.0685, 891.2153
902.5506, 871.4317
903.0327, 835.7201
903.5148, 800.5529
903.9969, 786.4099
904.4791, 790.8654
904.9612, 787.9641
905.4433, 775.2521
905.9254, 759.1472
906.4075, 741.0449
906.8896, 724.6757
907.3718, 714.8841
907.8539, 713.6010
908.3360, 710.1606
908.8181, 701.7010
909.3002, 692.4838
909.7823, 684.0801
910.2645, 676.6248
910.7466, 672.9549
911.2287, 673.1213
911.7108, 673.0341
912.1929, 671.3014
912.6750, 666.9180
913.1572, 656.8967
913.6393, 642.4185
914.1214, 630.6245
914.6035, 624.0203
915.0856, 620.1684
915.5677, 618.9400
916.0499, 619.8448
916.5320, 622.5901
917.0141, 627.2936
917.4962, 626.1033
917.9783, 612.2438
918.4604, 596.4196
918.9426, 594.2211
919.4247, 599.9243
919.9068, 601.8422
920.3889, 592.7350
920.8710, 583.4910
921.3531, 573.7899
921.8353, 566.5106
922.3174, 567.3479
922.7995, 577.1011
923.2816, 583.1853
923.7637, 583.3934
924.2458, 580.9190
924.7280, 578.1105
925.2101, 575.4693
925.6922, 574.3346
926.1743, 576.3378
926.6564, 574.9469
927.1385, 563.4543
927.6207, 552.0009
928.1028, 547.2139
928.5849, 549.8340
929.0670, 552.3297
929.5491, 554.6300
930.0313, 557.7087
930.5134, 565.4819
930.9955, 572.7498
931.4776, 571.2612
931.9597, 561.4899
932.4418, 552.2452
932.9240, 546.5256
933.4061, 542.2334
933.8882, 538.7023
934.3703, 535.8349
934.8524, 532.4544
935.3345, 528.3928
935.8167, 526.9664
936.2988, 530.2961
936.7809, 536.0804
937.2630, 545.2038
937.7451, 554.0286
938.2272, 554.5568
938.7094, 531.2574
939.1915, 515.7390
939.6736, 519.1464
940.1557, 530.0173
940.6378, 531.8688
941.1199, 523.9606
941.6021, 518.3705
942.0842, 516.9979
942.5663, 517.5190
943.0484, 518.4254
943.5305, 519.1581
944.0126, 518.4225
944.4948, 515.0504
944.9769, 514.1834
945.4590, 520.1790
945.9411, 526.1511
946.4232, 527.8848
946.9053, 525.2936
947.3875, 525.0587
947.8695, 527.3235
948.3516, 528.0779
948.8337, 522.3981
949.3159, 515.0076
949.7980, 511.7758
950.2801, 512.1551
950.7622, 511.8190
951.2443, 507.5587
951.7264, 504.9942
952.2086, 506.6684
952.6907, 510.4607
953.1728, 508.1606
953.6549, 500.3562
954.1370, 498.3151
954.6191, 509.6078
955.1013, 520.8552
955.5834, 514.7766
956.0655, 500.6412
956.5476, 492.5208
957.0297, 499.6483
957.5118, 504.9618
957.9940, 507.7928
958.4761, 508.5933
958.9582, 507.8804
959.4403, 505.6000
959.9224, 499.8639
960.4045, 490.1342
960.8867, 483.1712
961.3688, 486.4253
961.8509, 493.1077
962.3330, 497.4370
962.8151, 498.5645
963.2972, 500.9570
963.7794, 506.7359
964.2615, 510.1042
964.7436, 507.7730
965.2257, 501.4627
965.7078, 496.7662
966.1899, 493.6208
966.6721, 491.9047
967.1542, 492.8827
967.6363, 493.8848
968.1184, 492.2291
968.6005, 489.6554
969.0826, 490.6656
969.5648, 499.5928
970.0469, 500.5343
970.5290, 489.1179
971.0111, 474.9003
971.4932, 471.9305
971.9753, 476.9091
972.4575, 481.8378
972.9396, 485.4718
973.4217, 487.9651
973.9038, 490.2085
974.3859, 490.6559
974.8680, 487.2801
975.3502, 479.4405
975.8323, 474.7568
976.3144, 473.0815
976.7965, 475.3362
977.2786, 486.2076
977.7607, 499.4715
978.2429, 503.0056
978.7250, 498.6616
979.2071, 493.9643
979.6892, 493.6068
980.1713, 491.5949
980.6534, 484.3079
981.1356, 475.0968
981.6177, 471.1505
982.0998, 472.6351
982.5819, 476.3531
983.0640, 482.8299
983.5461, 487.2652
984.0283, 480.4574
984.5104, 469.9941
984.9925, 466.8136
985.4746, 477.3084
985.9567, 482.8409
986.4388, 479.4733
986.9210, 473.2968
987.4031, 467.5700
987.8852, 462.3995
988.3673, 459.1611
988.8494, 457.9136
989.3315, 459.7569
989.8137, 468.1221
990.2958, 477.5645
990.7779, 485.1667
991.2600, 490.3831
991.7421, 490.7632
992.2242, 483.0161
992.7064, 478.4305
993.1885, 480.4446
993.6706, 485.2299
994.1527, 485.5616
994.6348, 482.7660
995.1169, 480.7722
995.5991, 480.8663
996.0812, 481.1740
996.5633, 481.8668
997.0454, 481.4566
997.5275, 477.8788
998.0096, 469.5558
998.4918, 467.7797
998.9739, 473.9099
999.4560, 478.4745
999.9381, 470.5273
1000.420, 458.4877
1000.902, 456.8437
1001.384, 464.2370
1001.867, 470.6061
1002.349, 473.0095
1002.831, 472.8470
1003.313, 469.5649
1003.795, 464.7139
1004.277, 462.0842
1004.759, 461.6002
1005.241, 462.0718
1005.724, 463.3318
1006.206, 465.0222
1006.688, 465.8401
1007.170, 467.3976
1007.652, 472.0264
1008.134, 482.8262
1008.616, 489.1418
1009.098, 489.1403
1009.580, 488.1884
1010.063, 490.9039
1010.545, 495.7226
1011.027, 497.3586
1011.509, 495.7854
1011.991, 491.3177
1012.473, 481.6325
1012.955, 457.7144
1013.437, 475.4655
1013.919, 485.5628
1014.402, 488.4184
1014.884, 462.3393
1015.366, 473.6226
1015.848, 469.9328
1016.330, 465.6289
1016.812, 482.1708
1017.294, 460.3001
1017.776, 476.5114
1018.259, 477.5217
1018.741, 485.4888
1019.223, 478.3903
1019.705, 475.9450
1020.187, 488.5702
1020.669, 492.8508
1021.151, 484.0179
1021.633, 492.4273
1022.115, 470.0303
1022.598, 474.6669
1023.080, 490.9664
1023.562, 482.8911
1024.044, 491.5758
1024.526, 493.8775
1025.008, 467.1703
1025.490, 490.9123
1025.972, 492.8367
1026.454, 472.3591
1026.937, 494.3731
1027.419, 476.9839
1027.901, 473.6590
1028.383, 480.9185
1028.865, 477.1441
1029.347, 490.7659
1029.829, 487.6287
1030.311, 482.9943
1030.794, 484.8947
1031.276, 468.2781
1031.758, 486.0135
1032.240, 480.2835
1032.722, 487.4928
1033.204, 493.9937
1033.686, 491.8256
1034.168, 485.6682
1034.651, 484.3095
1035.133, 495.3539
1035.615, 500.8266
1036.097, 498.2290
1036.579, 493.5625
1037.061, 494.7005
1037.543, 498.8606
1038.025, 495.7252
1038.507, 484.8220
1038.990, 477.8801
1039.472, 486.0874
1039.954, 495.2222
1040.436, 496.5986
1040.918, 492.7287
1041.400, 496.2997
1041.882, 508.1993
1042.364, 514.3723
1042.846, 508.5479
1043.329, 499.2346
1043.811, 495.3484
1044.293, 494.7953
1044.775, 494.7870
1045.257, 495.4681
1045.739, 494.7414
1046.221, 491.3573
1046.703, 488.6890
1047.186, 490.3443
1047.668, 494.8026
1048.150, 494.2736
1048.632, 489.7940
1049.114, 488.8868
1049.596, 502.3057
1050.078, 513.3160
1050.560, 512.1042
1051.042, 503.1831
1051.525, 493.6837
1052.007, 483.0243
1052.489, 477.9280
1052.971, 480.0451
1053.453, 485.4764
1053.935, 492.3471
1054.417, 498.8148
1054.899, 502.9432
1055.381, 504.4682
1055.864, 502.6294
1056.346, 495.2081
1056.828, 489.1495
1057.310, 488.6003
1057.792, 491.0883
1058.274, 487.2970
1058.756, 479.8284
1059.238, 477.7105
1059.721, 490.8865
1060.203, 501.7605
1060.685, 501.8641
1061.167, 496.9955
1061.649, 492.9481
1062.131, 489.6281
1062.613, 487.6796
1063.095, 487.0882
1063.578, 488.2144
1064.060, 492.5157
1064.542, 497.8386
1065.024, 503.6511
1065.506, 509.1261
1065.988, 508.0487
1066.470, 495.7585
1066.952, 487.5161
1067.434, 487.4620
1067.917, 491.7039
1068.399, 495.4783
1068.881, 497.8983
1069.363, 496.0279
1069.845, 487.8427
1070.327, 481.7401
1070.809, 482.9838
1071.291, 485.5780
1071.773, 486.2296
1072.255, 485.1024
1072.738, 483.2996
1073.220, 481.0665
1073.702, 482.3018
1074.184, 493.3650
1074.666, 503.8922
1075.148, 506.0557
1075.630, 502.5060
1076.112, 497.5735
1076.595, 489.7864
1077.077, 486.9108
1077.559, 490.4169
1078.041, 494.6095
1078.523, 493.2533
1079.005, 489.4383
1079.487, 487.8005
1079.969, 488.5385
1080.452, 490.2611
1080.934, 495.2516
1081.416, 497.5762
1081.898, 495.5853
1082.380, 490.4024
1082.862, 481.9497
1083.344, 472.0641
1083.826, 469.9389
1084.308, 479.8643
1084.791, 487.8371
1085.273, 481.5792
1085.755, 473.3906
1086.237, 473.1628
1086.719, 480.9304
1087.201, 485.1852
1087.683, 485.8194
1088.165, 484.8896
1088.647, 482.2189
1089.130, 479.9052
1089.612, 480.7212
1090.094, 483.2986
1090.576, 485.1385
1091.058, 485.3070
1091.540, 485.7972
1092.022, 486.7173
1092.504, 487.7772
1092.987, 490.6530
1093.469, 492.7447
1093.951, 485.6879
1094.433, 470.9321
1094.915, 462.0067
1095.397, 469.7356
1095.879, 476.9656
1096.361, 479.3571
1096.844, 478.5740
1097.326, 476.8986
1097.808, 474.7344
1098.290, 474.6935
1098.772, 477.5069
1099.254, 480.4597
1099.736, 482.3302
1100.218, 483.1103
1100.700, 482.7276
1101.182, 481.2518
1101.665, 478.0281
1102.147, 472.8063
1102.629, 470.9403
1103.111, 476.7924
1103.593, 483.1689
1104.075, 480.9069
1104.557, 474.5729
1105.039, 470.5176
1105.522, 469.5898
1106.004, 472.6886
1106.486, 481.6299
1106.968, 488.8748
1107.450, 487.7966
1107.932, 481.5003
1108.414, 474.5963
1108.896, 467.7162
1109.379, 463.2252
1109.861, 462.5352
1110.343, 463.7760
1110.825, 467.7366
1111.307, 471.8698
1111.789, 472.2484
1112.271, 469.7919
1112.753, 468.5350
1113.235, 468.8816
1113.718, 469.8862
1114.200, 472.8806
1114.682, 474.2991
1115.164, 470.1058
1115.646, 463.3657
1116.128, 466.3585
1116.610, 478.8272
1117.092, 484.9058
1117.574, 479.4257
1118.057, 471.0183
1118.539, 463.9871
1119.021, 460.0786
1119.503, 462.7108
1119.985, 473.0475
1120.467, 476.7028
1120.949, 472.2757
1121.431, 469.9447
1121.914, 477.1497
1122.396, 485.7755
1122.878, 484.2609
1123.360, 476.1475
1123.842, 467.4591
1124.324, 455.9360
1124.806, 451.5421
1125.288, 456.3269
1125.771, 463.5401
1126.253, 469.1979
1126.735, 472.7967
1127.217, 471.2868
1127.699, 466.1322
1128.181, 463.6926
1128.663, 474.0193
1129.145, 476.5791
1129.627, 463.1862
1130.109, 445.5722
1130.592, 440.5032
1131.074, 445.7260
1131.556, 451.2130
1132.038, 455.9713
1132.520, 459.5065
1133.002, 460.4821
1133.484, 461.1953
1133.966, 462.4793
1134.449, 464.4917
1134.931, 469.1110
1135.413, 476.0028
1135.895, 476.4115
1136.377, 466.7455
1136.859, 457.9475
1137.341, 461.7065
1137.823, 468.4345
1138.306, 469.1917
1138.788, 463.8532
1139.270, 458.7539
1139.752, 453.6814
1140.234, 450.4316
1140.716, 450.0914
1141.198, 451.1786
1141.680, 452.6834
1142.162, 454.2226
1142.645, 455.4631
1143.127, 457.2935
1143.609, 454.6887
1144.091, 445.4270
1144.573, 440.1801
1145.055, 452.3124
1145.537, 469.1222
1146.019, 464.9697
1146.501, 448.2657
1146.984, 440.4946
1147.466, 458.4797
1147.948, 469.6867
1148.430, 470.5212
1148.912, 467.6405
1149.394, 467.4351
1149.876, 468.6672
1150.358, 468.2824
1150.841, 466.3246
1151.323, 464.2723
1151.805, 461.3925
1152.287, 460.5034
1152.769, 463.3373
1153.251, 467.0034
1153.733, 466.4019
1154.215, 462.6090
1154.697, 459.7704
1155.180, 458.4344
1155.662, 456.7182
1156.144, 452.6699
1156.626, 449.0195
1157.108, 446.5293
1157.590, 445.5028
1158.072, 447.8487
1158.554, 452.9565
1159.036, 455.9174
1159.519, 455.0052
1160.001, 454.4038
1160.483, 458.8152
1160.965, 462.8568
1161.447, 462.0089
1161.929, 457.0199
1162.411, 454.5144
1162.893, 454.4419
1163.375, 455.4081
1163.858, 457.4428
1164.340, 459.1662
1164.822, 459.6039
1165.304, 459.0776
1165.786, 457.6814
1166.268, 455.2081
1166.750, 454.7201
1167.232, 456.4385
1167.715, 456.8036
1168.197, 451.1660
1168.679, 445.9909
1169.161, 448.7964
1169.643, 455.9152
1170.125, 460.9991
1170.607, 462.8621
1171.089, 465.2806
1171.572, 468.6537
1172.054, 470.4845
1172.536, 468.3955
1173.018, 464.1334
1173.500, 457.2332
1173.982, 449.8516
1174.464, 449.1459
1174.946, 458.3716
1175.428, 467.8992
1175.911, 478.0881
1176.393, 484.3353
1176.875, 479.2940
1177.357, 469.2179
1177.839, 461.1087
1178.321, 455.7715
1178.803, 455.2670
1179.285, 464.0103
1179.767, 467.3903
1180.250, 461.1613
1180.732, 453.2410
1181.214, 455.5325
1181.696, 462.8830
1182.178, 466.3319
1182.660, 464.8355
1183.142, 465.0660
1183.624, 471.1578
1184.107, 473.3257
1184.589, 467.8936
1185.071, 459.0811
1185.553, 453.6780
1186.035, 450.7510
1186.517, 447.9979
1186.999, 444.4868
1187.481, 445.2165
1187.964, 455.3736
1188.446, 463.0711
1188.928, 463.8757
1189.410, 459.1962
1189.892, 447.4810
1190.374, 433.7151
1190.856, 430.8271
1191.338, 445.7831
1191.820, 460.3715
1192.302, 473.8684
1192.785, 480.6940
1193.267, 474.8667
1193.749, 461.6551
1194.231, 458.9555
1194.713, 463.6386
1195.195, 466.3775
1195.677, 461.1287
1196.159, 459.2851
1196.642, 466.8705
1197.124, 473.9413
1197.606, 471.9825
1198.088, 464.0035
1198.570, 462.8989
1199.052, 467.3187
1199.534, 472.0843
1200.016, 478.3310
1200.499, 479.5372
1200.981, 471.5100
1201.463, 461.8431
1201.945, 456.9735
1202.427, 456.2392
1202.909, 456.5130
1203.391, 457.7162
1203.873, 459.7588
1204.355, 464.6920
1204.838, 467.6478
1205.320, 467.2413
1205.802, 464.6428
1206.284, 459.2168
1206.766, 452.4889
1207.248, 453.1868
1207.730, 460.8375
1208.212, 466.9335
1208.694, 465.3394
1209.177, 463.7383
1209.659, 464.8657
1210.141, 466.6935
1210.623, 466.0909
1211.105, 463.5767
1211.587, 460.4104
1212.069, 456.9555
1212.551, 457.3317
1213.034, 469.9756
1213.516, 478.7576
1213.998, 477.1881
1214.480, 470.4358
1214.962, 468.3755
1215.444, 469.3894
1215.926, 466.0085
1216.408, 457.2440
1216.891, 449.9238
1217.373, 445.6112
1217.855, 446.2795
1218.337, 454.5831
1218.819, 465.9591
1219.301, 469.6511
1219.783, 467.7505
1220.265, 467.5773
1220.747, 470.5690
1221.229, 473.2659
1221.712, 475.2427
1222.194, 474.7744
1222.676, 469.5377
1223.158, 462.9995
1223.640, 465.5425
1224.122, 474.0549
1224.604, 478.6793
1225.086, 477.1675
1225.569, 472.3725
1226.051, 461.2594
1226.533, 451.9856
1227.015, 447.7681
1227.497, 447.4212
1227.979, 447.4944
1228.461, 448.7201
1228.943, 454.2505
1229.426, 466.8994
1229.908, 475.2796
1230.390, 472.8268
1230.872, 469.6125
1231.354, 470.0969
1231.836, 472.7518
1232.318, 475.0083
1232.800, 475.7526
1233.282, 470.9748
1233.765, 455.9631
1234.247, 447.1486
1234.729, 451.0513
1235.211, 455.8810
1235.693, 455.1465
1236.175, 451.6556
1236.657, 452.1110
1237.139, 455.8352
1237.621, 461.4773
1238.104, 469.9531
1238.586, 477.4374
1239.068, 485.0401
1239.550, 488.6059
1240.032, 483.7477
1240.514, 474.8332
1240.996, 472.9270
1241.478, 474.7956
1241.960, 473.1550
1242.443, 461.7668
1242.925, 456.2488
1243.407, 459.2263
1243.889, 462.7439
1244.371, 459.9821
1244.853, 455.7713
1245.335, 460.8780
1245.817, 470.8932
1246.300, 476.5220
1246.782, 472.6136
1247.264, 469.5567
1247.746, 467.4616
1248.228, 465.7276
1248.710, 463.5754
1249.192, 461.8460
1249.674, 460.8384
1250.156, 461.4264
1250.639, 466.1484
1251.121, 481.5671
1251.603, 483.8248
1252.085, 470.7601
1252.567, 456.9363
1253.049, 452.2215
1253.531, 452.3915
1254.013, 455.1223
1254.495, 458.6296
1254.978, 458.9962
1255.460, 454.5914
1255.942, 453.7677
1256.424, 457.0302
1256.906, 459.6367
1257.388, 456.3560
1257.870, 452.7928
1258.352, 454.2008
1258.835, 458.4169
1259.317, 462.2553
1259.799, 466.5698
1260.281, 461.0833
1260.763, 445.5681
1261.245, 433.5699
1261.727, 437.3643
1262.209, 444.3430
1262.692, 448.5486
1263.174, 449.7143
1263.656, 445.9437
1264.138, 437.3299
1264.620, 438.0028
1265.102, 447.6799
1265.584, 454.6854
1266.066, 446.4615
1266.548, 440.3158
1267.031, 447.1783
1267.513, 457.4951
1267.995, 460.6877
1268.477, 457.5969
1268.959, 453.0568
1269.441, 447.7798
1269.923, 445.4641
1270.405, 452.3658
1270.887, 456.2517
1271.370, 452.3260
1271.852, 447.0321
1272.334, 447.9875
1272.816, 453.3068
1273.298, 457.9609
1273.780, 461.4062
1274.262, 462.2761
1274.744, 457.1550
##END=



