##NAMES=Fergusonite-(Ce)
##RRUFFID=R110050
##IDEAL CHEMISTRY=Ce^3+^Nb^5+^O_4_&#183;0.3H_2_O
##LOCALITY=Mount Malosa, Zomba District, Malawi
##OWNER=RRUFF
##SOURCE=Donald M Doell
##DESCRIPTION=Brown prismatic crystals on microcline, associated with zircon
##STATUS=The identification of this mineral has been confirmed only by single crystal X-ray diffraction.
##URL=rruff.info/R110050
8.936163e+001, 0.000000e+000
8.984375e+001, 2.416324e+002
9.032587e+001, 2.425921e+002
9.080798e+001, 2.427890e+002
9.129010e+001, 2.419447e+002
9.177222e+001, 2.406600e+002
9.225433e+001, 2.398933e+002
9.273645e+001, 2.395583e+002
9.321857e+001, 2.387236e+002
9.370068e+001, 2.361587e+002
9.418280e+001, 2.323589e+002
9.466492e+001, 2.289534e+002
9.514703e+001, 2.264945e+002
9.562915e+001, 2.248013e+002
9.611127e+001, 2.234523e+002
9.659338e+001, 2.225325e+002
9.707550e+001, 2.215689e+002
9.755762e+001, 2.199007e+002
9.803973e+001, 2.175069e+002
9.852185e+001, 2.150500e+002
9.900397e+001, 2.125164e+002
9.948608e+001, 2.098770e+002
9.996820e+001, 2.084332e+002
1.004503e+002, 2.086211e+002
1.009324e+002, 2.094881e+002
1.014146e+002, 2.088990e+002
1.018967e+002, 2.063749e+002
1.023788e+002, 2.037473e+002
1.028609e+002, 2.019581e+002
1.033430e+002, 2.012316e+002
1.038251e+002, 2.007210e+002
1.043073e+002, 2.005900e+002
1.047894e+002, 2.006686e+002
1.052715e+002, 2.000348e+002
1.057536e+002, 1.983409e+002
1.062357e+002, 1.963129e+002
1.067178e+002, 1.943806e+002
1.072000e+002, 1.922616e+002
1.076821e+002, 1.906901e+002
1.081642e+002, 1.901200e+002
1.086463e+002, 1.906882e+002
1.091284e+002, 1.903581e+002
1.096105e+002, 1.888382e+002
1.100927e+002, 1.865393e+002
1.105748e+002, 1.838625e+002
1.110569e+002, 1.791299e+002
1.115390e+002, 1.756031e+002
1.120211e+002, 1.744677e+002
1.125032e+002, 1.765874e+002
1.129854e+002, 1.780237e+002
1.134675e+002, 1.782387e+002
1.139496e+002, 1.774668e+002
1.144317e+002, 1.760413e+002
1.149138e+002, 1.726703e+002
1.153959e+002, 1.696793e+002
1.158781e+002, 1.683571e+002
1.163602e+002, 1.698745e+002
1.168423e+002, 1.709750e+002
1.173244e+002, 1.702300e+002
1.178065e+002, 1.681707e+002
1.182886e+002, 1.661490e+002
1.187708e+002, 1.646651e+002
1.192529e+002, 1.634770e+002
1.197350e+002, 1.624054e+002
1.202171e+002, 1.613013e+002
1.206992e+002, 1.604212e+002
1.211813e+002, 1.600536e+002
1.216635e+002, 1.601217e+002
1.221456e+002, 1.602167e+002
1.226277e+002, 1.602594e+002
1.231098e+002, 1.601369e+002
1.235919e+002, 1.596885e+002
1.240740e+002, 1.584043e+002
1.245562e+002, 1.570399e+002
1.250383e+002, 1.565852e+002
1.255204e+002, 1.570313e+002
1.260025e+002, 1.574688e+002
1.264846e+002, 1.570562e+002
1.269667e+002, 1.560161e+002
1.274489e+002, 1.549049e+002
1.279310e+002, 1.538700e+002
1.284131e+002, 1.529411e+002
1.288952e+002, 1.523379e+002
1.293773e+002, 1.521686e+002
1.298594e+002, 1.518119e+002
1.303416e+002, 1.499520e+002
1.308237e+002, 1.468738e+002
1.313058e+002, 1.445302e+002
1.317879e+002, 1.445794e+002
1.322700e+002, 1.464625e+002
1.327521e+002, 1.473949e+002
1.332343e+002, 1.470129e+002
1.337164e+002, 1.458758e+002
1.341985e+002, 1.449685e+002
1.346806e+002, 1.443115e+002
1.351627e+002, 1.436105e+002
1.356448e+002, 1.424327e+002
1.361270e+002, 1.407529e+002
1.366091e+002, 1.399949e+002
1.370912e+002, 1.406983e+002
1.375733e+002, 1.422664e+002
1.380554e+002, 1.425616e+002
1.385375e+002, 1.412245e+002
1.390197e+002, 1.396589e+002
1.395018e+002, 1.390573e+002
1.399839e+002, 1.397204e+002
1.404660e+002, 1.400337e+002
1.409481e+002, 1.395934e+002
1.414302e+002, 1.384801e+002
1.419124e+002, 1.377755e+002
1.423945e+002, 1.376541e+002
1.428766e+002, 1.377017e+002
1.433587e+002, 1.374847e+002
1.438408e+002, 1.368155e+002
1.443229e+002, 1.362663e+002
1.448051e+002, 1.359518e+002
1.452872e+002, 1.358785e+002
1.457693e+002, 1.359902e+002
1.462514e+002, 1.363946e+002
1.467335e+002, 1.369170e+002
1.472156e+002, 1.373320e+002
1.476978e+002, 1.374601e+002
1.481799e+002, 1.377010e+002
1.486620e+002, 1.382729e+002
1.491441e+002, 1.395516e+002
1.496262e+002, 1.401197e+002
1.501083e+002, 1.395505e+002
1.505905e+002, 1.383352e+002
1.510726e+002, 1.373238e+002
1.515547e+002, 1.363827e+002
1.520368e+002, 1.357675e+002
1.525189e+002, 1.356239e+002
1.530010e+002, 1.364948e+002
1.534832e+002, 1.368924e+002
1.539653e+002, 1.363665e+002
1.544474e+002, 1.352827e+002
1.549295e+002, 1.345188e+002
1.554116e+002, 1.341469e+002
1.558937e+002, 1.341431e+002
1.563759e+002, 1.345203e+002
1.568580e+002, 1.355349e+002
1.573401e+002, 1.365863e+002
1.578222e+002, 1.377942e+002
1.583043e+002, 1.390170e+002
1.587864e+002, 1.397332e+002
1.592686e+002, 1.390157e+002
1.597507e+002, 1.382050e+002
1.602328e+002, 1.381558e+002
1.607149e+002, 1.393071e+002
1.611970e+002, 1.410069e+002
1.616791e+002, 1.430000e+002
1.621613e+002, 1.453065e+002
1.626434e+002, 1.482645e+002
1.631255e+002, 1.518695e+002
1.636076e+002, 1.562257e+002
1.640897e+002, 1.614261e+002
1.645718e+002, 1.671387e+002
1.650540e+002, 1.740015e+002
1.655361e+002, 1.822812e+002
1.660182e+002, 1.920244e+002
1.665003e+002, 2.031364e+002
1.669824e+002, 2.156497e+002
1.674645e+002, 2.296257e+002
1.679467e+002, 2.449475e+002
1.684288e+002, 2.610232e+002
1.689109e+002, 2.789406e+002
1.693930e+002, 2.992007e+002
1.698751e+002, 3.219010e+002
1.703572e+002, 3.474808e+002
1.708394e+002, 3.754515e+002
1.713215e+002, 4.069121e+002
1.718036e+002, 4.431997e+002
1.722857e+002, 4.859032e+002
1.727678e+002, 5.335019e+002
1.732499e+002, 5.843908e+002
1.737321e+002, 6.388511e+002
1.742142e+002, 6.969633e+002
1.746963e+002, 7.595799e+002
1.751784e+002, 8.269000e+002
1.756605e+002, 8.997148e+002
1.761426e+002, 9.809925e+002
1.766248e+002, 1.066473e+003
1.771069e+002, 1.150189e+003
1.775890e+002, 1.231935e+003
1.780711e+002, 1.312021e+003
1.785532e+002, 1.392484e+003
1.790353e+002, 1.472784e+003
1.795175e+002, 1.547846e+003
1.799996e+002, 1.614267e+003
1.804817e+002, 1.674007e+003
1.809638e+002, 1.732945e+003
1.814459e+002, 1.792972e+003
1.819280e+002, 1.849317e+003
1.824102e+002, 1.894646e+003
1.828923e+002, 1.929629e+003
1.833744e+002, 1.963945e+003
1.838565e+002, 2.002255e+003
1.843386e+002, 2.044327e+003
1.848207e+002, 2.088144e+003
1.853029e+002, 2.133708e+003
1.857850e+002, 2.181188e+003
1.862671e+002, 2.230913e+003
1.867492e+002, 2.282827e+003
1.872313e+002, 2.339683e+003
1.877134e+002, 2.403273e+003
1.881956e+002, 2.473772e+003
1.886777e+002, 2.548947e+003
1.891598e+002, 2.629491e+003
1.896419e+002, 2.714550e+003
1.901240e+002, 2.803606e+003
1.906061e+002, 2.897965e+003
1.910883e+002, 2.993230e+003
1.915704e+002, 3.086591e+003
1.920525e+002, 3.179148e+003
1.925346e+002, 3.274016e+003
1.930167e+002, 3.372987e+003
1.934988e+002, 3.471371e+003
1.939810e+002, 3.548216e+003
1.944631e+002, 3.599269e+003
1.949452e+002, 3.645972e+003
1.954273e+002, 3.692255e+003
1.959094e+002, 3.738078e+003
1.963915e+002, 3.778725e+003
1.968737e+002, 3.813339e+003
1.973558e+002, 3.842356e+003
1.978379e+002, 3.867073e+003
1.983200e+002, 3.887204e+003
1.988021e+002, 3.904711e+003
1.992842e+002, 3.921391e+003
1.997664e+002, 3.937566e+003
2.002485e+002, 3.950811e+003
2.007306e+002, 3.960008e+003
2.012127e+002, 3.966115e+003
2.016948e+002, 3.974867e+003
2.021769e+002, 3.987285e+003
2.026591e+002, 3.999536e+003
2.031412e+002, 4.007101e+003
2.036233e+002, 4.009291e+003
2.041054e+002, 4.012808e+003
2.045875e+002, 4.019133e+003
2.050696e+002, 4.028049e+003
2.055518e+002, 4.037643e+003
2.060339e+002, 4.047326e+003
2.065160e+002, 4.058766e+003
2.069981e+002, 4.074396e+003
2.074802e+002, 4.094954e+003
2.079623e+002, 4.115161e+003
2.084445e+002, 4.133563e+003
2.089266e+002, 4.150303e+003
2.094087e+002, 4.167306e+003
2.098908e+002, 4.184197e+003
2.103729e+002, 4.202060e+003
2.108550e+002, 4.223045e+003
2.113372e+002, 4.248569e+003
2.118193e+002, 4.271348e+003
2.123014e+002, 4.288562e+003
2.127835e+002, 4.300055e+003
2.132656e+002, 4.315173e+003
2.137477e+002, 4.335247e+003
2.142299e+002, 4.357072e+003
2.147120e+002, 4.377130e+003
2.151941e+002, 4.396171e+003
2.156762e+002, 4.411705e+003
2.161583e+002, 4.422464e+003
2.166404e+002, 4.428043e+003
2.171226e+002, 4.434716e+003
2.176047e+002, 4.443638e+003
2.180868e+002, 4.452242e+003
2.185689e+002, 4.457168e+003
2.190510e+002, 4.456794e+003
2.195331e+002, 4.456714e+003
2.200153e+002, 4.458753e+003
2.204974e+002, 4.463325e+003
2.209795e+002, 4.465887e+003
2.214616e+002, 4.465662e+003
2.219437e+002, 4.464447e+003
2.224258e+002, 4.464764e+003
2.229080e+002, 4.468050e+003
2.233901e+002, 4.469817e+003
2.238722e+002, 4.467890e+003
2.243543e+002, 4.461311e+003
2.248364e+002, 4.459255e+003
2.253185e+002, 4.463341e+003
2.258007e+002, 4.470277e+003
2.262828e+002, 4.476061e+003
2.267649e+002, 4.480067e+003
2.272470e+002, 4.483749e+003
2.277291e+002, 4.487354e+003
2.282112e+002, 4.490909e+003
2.286934e+002, 4.493996e+003
2.291755e+002, 4.496661e+003
2.296576e+002, 4.498757e+003
2.301397e+002, 4.500073e+003
2.306218e+002, 4.500584e+003
2.311039e+002, 4.500443e+003
2.315861e+002, 4.499383e+003
2.320682e+002, 4.497101e+003
2.325503e+002, 4.496634e+003
2.330324e+002, 4.498729e+003
2.335145e+002, 4.502208e+003
2.339966e+002, 4.505583e+003
2.344788e+002, 4.508453e+003
2.349609e+002, 4.512164e+003
2.354430e+002, 4.517712e+003
2.359251e+002, 4.525788e+003
2.364072e+002, 4.530822e+003
2.368893e+002, 4.531304e+003
2.373715e+002, 4.529937e+003
2.378536e+002, 4.530106e+003
2.383357e+002, 4.532669e+003
2.388178e+002, 4.535042e+003
2.392999e+002, 4.536201e+003
2.397820e+002, 4.535695e+003
2.402642e+002, 4.536968e+003
2.407463e+002, 4.541491e+003
2.412284e+002, 4.546369e+003
2.417105e+002, 4.548017e+003
2.421926e+002, 4.545267e+003
2.426747e+002, 4.541182e+003
2.431569e+002, 4.536049e+003
2.436390e+002, 4.529551e+003
2.441211e+002, 4.524212e+003
2.446032e+002, 4.520275e+003
2.450853e+002, 4.517205e+003
2.455674e+002, 4.514600e+003
2.460496e+002, 4.513380e+003
2.465317e+002, 4.511024e+003
2.470138e+002, 4.506806e+003
2.474959e+002, 4.500599e+003
2.479780e+002, 4.494354e+003
2.484601e+002, 4.487353e+003
2.489423e+002, 4.481137e+003
2.494244e+002, 4.477620e+003
2.499065e+002, 4.478189e+003
2.503886e+002, 4.478970e+003
2.508707e+002, 4.479221e+003
2.513528e+002, 4.478952e+003
2.518350e+002, 4.478712e+003
2.523171e+002, 4.478595e+003
2.527992e+002, 4.478396e+003
2.532813e+002, 4.477868e+003
2.537634e+002, 4.476876e+003
2.542455e+002, 4.475680e+003
2.547277e+002, 4.474104e+003
2.552098e+002, 4.472067e+003
2.556919e+002, 4.470633e+003
2.561740e+002, 4.469859e+003
2.566561e+002, 4.469438e+003
2.571382e+002, 4.468985e+003
2.576204e+002, 4.468067e+003
2.581025e+002, 4.468101e+003
2.585846e+002, 4.469821e+003
2.590667e+002, 4.473087e+003
2.595488e+002, 4.474770e+003
2.600309e+002, 4.474555e+003
2.605131e+002, 4.473248e+003
2.609952e+002, 4.471515e+003
2.614773e+002, 4.469371e+003
2.619594e+002, 4.466854e+003
2.624415e+002, 4.463675e+003
2.629236e+002, 4.460037e+003
2.634058e+002, 4.458076e+003
2.638879e+002, 4.458417e+003
2.643700e+002, 4.459456e+003
2.648521e+002, 4.459767e+003
2.653342e+002, 4.458842e+003
2.658163e+002, 4.458987e+003
2.662985e+002, 4.460735e+003
2.667806e+002, 4.463819e+003
2.672627e+002, 4.467139e+003
2.677448e+002, 4.471254e+003
2.682269e+002, 4.474298e+003
2.687090e+002, 4.474240e+003
2.691912e+002, 4.469896e+003
2.696733e+002, 4.467331e+003
2.701554e+002, 4.467456e+003
2.706375e+002, 4.469768e+003
2.711196e+002, 4.472641e+003
2.716017e+002, 4.476339e+003
2.720839e+002, 4.479733e+003
2.725660e+002, 4.481706e+003
2.730481e+002, 4.481931e+003
2.735302e+002, 4.482990e+003
2.740123e+002, 4.485271e+003
2.744944e+002, 4.488513e+003
2.749766e+002, 4.492112e+003
2.754587e+002, 4.496211e+003
2.759408e+002, 4.500266e+003
2.764229e+002, 4.503848e+003
2.769050e+002, 4.506969e+003
2.773871e+002, 4.510200e+003
2.778693e+002, 4.513799e+003
2.783514e+002, 4.517356e+003
2.788335e+002, 4.519643e+003
2.793156e+002, 4.520439e+003
2.797977e+002, 4.521457e+003
2.802798e+002, 4.523782e+003
2.807620e+002, 4.527390e+003
2.812441e+002, 4.530704e+003
2.817262e+002, 4.533428e+003
2.822083e+002, 4.536123e+003
2.826904e+002, 4.540100e+003
2.831725e+002, 4.545438e+003
2.836547e+002, 4.550386e+003
2.841368e+002, 4.553709e+003
2.846189e+002, 4.555557e+003
2.851010e+002, 4.557975e+003
2.855831e+002, 4.560800e+003
2.860652e+002, 4.564739e+003
2.865474e+002, 4.571923e+003
2.870295e+002, 4.582258e+003
2.875116e+002, 4.591075e+003
2.879937e+002, 4.594967e+003
2.884758e+002, 4.595142e+003
2.889579e+002, 4.599049e+003
2.894401e+002, 4.607375e+003
2.899222e+002, 4.616166e+003
2.904043e+002, 4.619355e+003
2.908864e+002, 4.617802e+003
2.913685e+002, 4.618408e+003
2.918506e+002, 4.624806e+003
2.923328e+002, 4.635197e+003
2.928149e+002, 4.644667e+003
2.932970e+002, 4.653317e+003
2.937791e+002, 4.660381e+003
2.942612e+002, 4.663633e+003
2.947433e+002, 4.664162e+003
2.952255e+002, 4.666292e+003
2.957076e+002, 4.671837e+003
2.961897e+002, 4.679635e+003
2.966718e+002, 4.687778e+003
2.971539e+002, 4.696212e+003
2.976360e+002, 4.704269e+003
2.981182e+002, 4.711397e+003
2.986003e+002, 4.717644e+003
2.990824e+002, 4.723216e+003
2.995645e+002, 4.727692e+003
3.000466e+002, 4.732053e+003
3.005287e+002, 4.737598e+003
3.010109e+002, 4.744267e+003
3.014930e+002, 4.751878e+003
3.019751e+002, 4.760416e+003
3.024572e+002, 4.769772e+003
3.029393e+002, 4.779779e+003
3.034214e+002, 4.791090e+003
3.039036e+002, 4.802079e+003
3.043857e+002, 4.811221e+003
3.048678e+002, 4.818643e+003
3.053499e+002, 4.824902e+003
3.058320e+002, 4.828096e+003
3.063141e+002, 4.831161e+003
3.067963e+002, 4.837871e+003
3.072784e+002, 4.849640e+003
3.077605e+002, 4.862968e+003
3.082426e+002, 4.875313e+003
3.087247e+002, 4.886971e+003
3.092068e+002, 4.898681e+003
3.096890e+002, 4.909731e+003
3.101711e+002, 4.921500e+003
3.106532e+002, 4.935624e+003
3.111353e+002, 4.952712e+003
3.116174e+002, 4.969107e+003
3.120995e+002, 4.980892e+003
3.125817e+002, 4.990375e+003
3.130638e+002, 5.001482e+003
3.135459e+002, 5.017361e+003
3.140280e+002, 5.034315e+003
3.145101e+002, 5.050782e+003
3.149922e+002, 5.066720e+003
3.154744e+002, 5.080792e+003
3.159565e+002, 5.090440e+003
3.164386e+002, 5.098574e+003
3.169207e+002, 5.108367e+003
3.174028e+002, 5.122931e+003
3.178849e+002, 5.137714e+003
3.183671e+002, 5.150661e+003
3.188492e+002, 5.161983e+003
3.193313e+002, 5.173728e+003
3.198134e+002, 5.185982e+003
3.202955e+002, 5.199315e+003
3.207776e+002, 5.214015e+003
3.212598e+002, 5.231102e+003
3.217419e+002, 5.248553e+003
3.222240e+002, 5.265514e+003
3.227061e+002, 5.282198e+003
3.231882e+002, 5.299961e+003
3.236703e+002, 5.319711e+003
3.241525e+002, 5.340138e+003
3.246346e+002, 5.360288e+003
3.251167e+002, 5.379428e+003
3.255988e+002, 5.399360e+003
3.260809e+002, 5.422318e+003
3.265630e+002, 5.446423e+003
3.270452e+002, 5.466555e+003
3.275273e+002, 5.476305e+003
3.280094e+002, 5.487177e+003
3.284915e+002, 5.503577e+003
3.289736e+002, 5.528357e+003
3.294557e+002, 5.552024e+003
3.299379e+002, 5.574409e+003
3.304200e+002, 5.595815e+003
3.309021e+002, 5.616196e+003
3.313842e+002, 5.633239e+003
3.318663e+002, 5.652412e+003
3.323484e+002, 5.675972e+003
3.328306e+002, 5.704341e+003
3.333127e+002, 5.731193e+003
3.337948e+002, 5.756453e+003
3.342769e+002, 5.780276e+003
3.347590e+002, 5.802144e+003
3.352411e+002, 5.820630e+003
3.357233e+002, 5.840924e+003
3.362054e+002, 5.864555e+003
3.366875e+002, 5.891486e+003
3.371696e+002, 5.916521e+003
3.376517e+002, 5.938505e+003
3.381339e+002, 5.960948e+003
3.386160e+002, 5.986921e+003
3.390981e+002, 6.017546e+003
3.395802e+002, 6.047029e+003
3.400623e+002, 6.074080e+003
3.405444e+002, 6.099564e+003
3.410266e+002, 6.124180e+003
3.415087e+002, 6.147633e+003
3.419908e+002, 6.172721e+003
3.424729e+002, 6.203450e+003
3.429550e+002, 6.239419e+003
3.434371e+002, 6.269188e+003
3.439193e+002, 6.289776e+003
3.444014e+002, 6.306986e+003
3.448835e+002, 6.330826e+003
3.453656e+002, 6.361261e+003
3.458477e+002, 6.393763e+003
3.463298e+002, 6.428297e+003
3.468120e+002, 6.463787e+003
3.472941e+002, 6.492748e+003
3.477762e+002, 6.514514e+003
3.482583e+002, 6.534462e+003
3.487404e+002, 6.558702e+003
3.492225e+002, 6.586719e+003
3.497047e+002, 6.616205e+003
3.501868e+002, 6.647729e+003
3.506689e+002, 6.679415e+003
3.511510e+002, 6.707314e+003
3.516331e+002, 6.731369e+003
3.521152e+002, 6.756157e+003
3.525974e+002, 6.786125e+003
3.530795e+002, 6.819382e+003
3.535616e+002, 6.852645e+003
3.540437e+002, 6.885730e+003
3.545258e+002, 6.917347e+003
3.550079e+002, 6.946354e+003
3.554901e+002, 6.972912e+003
3.559722e+002, 6.998282e+003
3.564543e+002, 7.021569e+003
3.569364e+002, 7.044876e+003
3.574185e+002, 7.070644e+003
3.579006e+002, 7.099487e+003
3.583828e+002, 7.130344e+003
3.588649e+002, 7.164456e+003
3.593470e+002, 7.200278e+003
3.598291e+002, 7.234950e+003
3.603112e+002, 7.267144e+003
3.607933e+002, 7.297818e+003
3.612755e+002, 7.326667e+003
3.617576e+002, 7.352956e+003
3.622397e+002, 7.382378e+003
3.627218e+002, 7.421862e+003
3.632039e+002, 7.463841e+003
3.636860e+002, 7.499884e+003
3.641682e+002, 7.520654e+003
3.646503e+002, 7.542294e+003
3.651324e+002, 7.570271e+003
3.656145e+002, 7.604606e+003
3.660966e+002, 7.637555e+003
3.665787e+002, 7.666893e+003
3.670609e+002, 7.695087e+003
3.675430e+002, 7.723724e+003
3.680251e+002, 7.755820e+003
3.685072e+002, 7.785224e+003
3.689893e+002, 7.808724e+003
3.694714e+002, 7.828689e+003
3.699536e+002, 7.852360e+003
3.704357e+002, 7.883555e+003
3.709178e+002, 7.914602e+003
3.713999e+002, 7.942107e+003
3.718820e+002, 7.964906e+003
3.723641e+002, 7.987795e+003
3.728463e+002, 8.011350e+003
3.733284e+002, 8.034325e+003
3.738105e+002, 8.054525e+003
3.742926e+002, 8.070065e+003
3.747747e+002, 8.087134e+003
3.752568e+002, 8.108257e+003
3.757390e+002, 8.133534e+003
3.762211e+002, 8.156703e+003
3.767032e+002, 8.178250e+003
3.771853e+002, 8.196946e+003
3.776674e+002, 8.211649e+003
3.781495e+002, 8.222054e+003
3.786317e+002, 8.231246e+003
3.791138e+002, 8.239976e+003
3.795959e+002, 8.247890e+003
3.800780e+002, 8.253557e+003
3.805601e+002, 8.256771e+003
3.810422e+002, 8.260331e+003
3.815244e+002, 8.267342e+003
3.820065e+002, 8.276971e+003
3.824886e+002, 8.283566e+003
3.829707e+002, 8.286255e+003
3.834528e+002, 8.287267e+003
3.839349e+002, 8.289421e+003
3.844171e+002, 8.292697e+003
3.848992e+002, 8.296606e+003
3.853813e+002, 8.300735e+003
3.858634e+002, 8.305449e+003
3.863455e+002, 8.311483e+003
3.868276e+002, 8.318808e+003
3.873098e+002, 8.327017e+003
3.877919e+002, 8.336484e+003
3.882740e+002, 8.346474e+003
3.887561e+002, 8.355615e+003
3.892382e+002, 8.362607e+003
3.897203e+002, 8.369278e+003
3.902025e+002, 8.375841e+003
3.906846e+002, 8.382716e+003
3.911667e+002, 8.392447e+003
3.916488e+002, 8.409440e+003
3.921309e+002, 8.428103e+003
3.926130e+002, 8.443966e+003
3.930952e+002, 8.455916e+003
3.935773e+002, 8.465124e+003
3.940594e+002, 8.469075e+003
3.945415e+002, 8.470857e+003
3.950236e+002, 8.476159e+003
3.955057e+002, 8.489707e+003
3.959879e+002, 8.504654e+003
3.964700e+002, 8.518296e+003
3.969521e+002, 8.530207e+003
3.974342e+002, 8.542813e+003
3.979163e+002, 8.556433e+003
3.983984e+002, 8.571024e+003
3.988806e+002, 8.586538e+003
3.993627e+002, 8.608291e+003
3.998448e+002, 8.624726e+003
4.003269e+002, 8.630372e+003
4.008090e+002, 8.627567e+003
4.012911e+002, 8.634225e+003
4.017733e+002, 8.656585e+003
4.022554e+002, 8.680990e+003
4.027375e+002, 8.699790e+003
4.032196e+002, 8.708646e+003
4.037017e+002, 8.723324e+003
4.041838e+002, 8.746281e+003
4.046660e+002, 8.773348e+003
4.051481e+002, 8.795736e+003
4.056302e+002, 8.812294e+003
4.061123e+002, 8.829050e+003
4.065944e+002, 8.848862e+003
4.070765e+002, 8.871527e+003
4.075587e+002, 8.889704e+003
4.080408e+002, 8.902149e+003
4.085229e+002, 8.914981e+003
4.090050e+002, 8.934694e+003
4.094871e+002, 8.960860e+003
4.099692e+002, 8.989475e+003
4.104514e+002, 9.020986e+003
4.109335e+002, 9.053003e+003
4.114156e+002, 9.079483e+003
4.118977e+002, 9.100688e+003
4.123798e+002, 9.122974e+003
4.128619e+002, 9.152705e+003
4.133441e+002, 9.185796e+003
4.138262e+002, 9.213791e+003
4.143083e+002, 9.234987e+003
4.147904e+002, 9.255631e+003
4.152725e+002, 9.282179e+003
4.157546e+002, 9.312893e+003
4.162368e+002, 9.344795e+003
4.167189e+002, 9.376672e+003
4.172010e+002, 9.408746e+003
4.176831e+002, 9.442356e+003
4.181652e+002, 9.477056e+003
4.186473e+002, 9.510247e+003
4.191295e+002, 9.537661e+003
4.196116e+002, 9.564040e+003
4.200937e+002, 9.593389e+003
4.205758e+002, 9.630424e+003
4.210579e+002, 9.665528e+003
4.215400e+002, 9.695516e+003
4.220222e+002, 9.721575e+003
4.225043e+002, 9.747494e+003
4.229864e+002, 9.777213e+003
4.234685e+002, 9.804072e+003
4.239506e+002, 9.825778e+003
4.244327e+002, 9.841453e+003
4.249149e+002, 9.854177e+003
4.253970e+002, 9.861238e+003
4.258791e+002, 9.867042e+003
4.263612e+002, 9.876402e+003
4.268433e+002, 9.894463e+003
4.273254e+002, 9.907713e+003
4.278076e+002, 9.914598e+003
4.282897e+002, 9.915033e+003
4.287718e+002, 9.908089e+003
4.292539e+002, 9.892327e+003
4.297360e+002, 9.871948e+003
4.302181e+002, 9.849646e+003
4.307003e+002, 9.825670e+003
4.311824e+002, 9.796622e+003
4.316645e+002, 9.760692e+003
4.321466e+002, 9.722594e+003
4.326287e+002, 9.692483e+003
4.331108e+002, 9.670910e+003
4.335930e+002, 9.646483e+003
4.340751e+002, 9.614037e+003
4.345572e+002, 9.575782e+003
4.350393e+002, 9.538038e+003
4.355214e+002, 9.501034e+003
4.360035e+002, 9.465358e+003
4.364857e+002, 9.433212e+003
4.369678e+002, 9.403303e+003
4.374499e+002, 9.371434e+003
4.379320e+002, 9.336051e+003
4.384141e+002, 9.299644e+003
4.388962e+002, 9.263105e+003
4.393784e+002, 9.227369e+003
4.398605e+002, 9.195304e+003
4.403426e+002, 9.170810e+003
4.408247e+002, 9.149037e+003
4.413068e+002, 9.125293e+003
4.417889e+002, 9.099137e+003
4.422711e+002, 9.073723e+003
4.427532e+002, 9.051270e+003
4.432353e+002, 9.030103e+003
4.437174e+002, 9.008476e+003
4.441995e+002, 8.983943e+003
4.446816e+002, 8.960899e+003
4.451638e+002, 8.939561e+003
4.456459e+002, 8.920424e+003
4.461280e+002, 8.904720e+003
4.466101e+002, 8.894266e+003
4.470922e+002, 8.885971e+003
4.475743e+002, 8.878688e+003
4.480565e+002, 8.872862e+003
4.485386e+002, 8.867110e+003
4.490207e+002, 8.863016e+003
4.495028e+002, 8.858049e+003
4.499849e+002, 8.848292e+003
4.504670e+002, 8.830030e+003
4.509492e+002, 8.815498e+003
4.514313e+002, 8.808757e+003
4.519134e+002, 8.808520e+003
4.523955e+002, 8.805126e+003
4.528776e+002, 8.798215e+003
4.533597e+002, 8.790106e+003
4.538419e+002, 8.781703e+003
4.543240e+002, 8.773160e+003
4.548061e+002, 8.766904e+003
4.552882e+002, 8.763568e+003
4.557703e+002, 8.761583e+003
4.562524e+002, 8.758455e+003
4.567346e+002, 8.754380e+003
4.572167e+002, 8.751090e+003
4.576988e+002, 8.749156e+003
4.581809e+002, 8.748344e+003
4.586630e+002, 8.749292e+003
4.591451e+002, 8.751704e+003
4.596273e+002, 8.752187e+003
4.601094e+002, 8.745551e+003
4.605915e+002, 8.736270e+003
4.610736e+002, 8.730584e+003
4.615557e+002, 8.731380e+003
4.620378e+002, 8.732530e+003
4.625200e+002, 8.730263e+003
4.630021e+002, 8.725590e+003
4.634842e+002, 8.720468e+003
4.639663e+002, 8.715763e+003
4.644484e+002, 8.710851e+003
4.649305e+002, 8.705458e+003
4.654127e+002, 8.699586e+003
4.658948e+002, 8.694011e+003
4.663769e+002, 8.687996e+003
4.668590e+002, 8.683014e+003
4.673411e+002, 8.680182e+003
4.678232e+002, 8.683165e+003
4.683054e+002, 8.683534e+003
4.687875e+002, 8.680624e+003
4.692696e+002, 8.674975e+003
4.697517e+002, 8.667273e+003
4.702338e+002, 8.654968e+003
4.707159e+002, 8.645435e+003
4.711981e+002, 8.643103e+003
4.716802e+002, 8.648505e+003
4.721623e+002, 8.644745e+003
4.726444e+002, 8.629137e+003
4.731265e+002, 8.611739e+003
4.736086e+002, 8.604977e+003
4.740908e+002, 8.608550e+003
4.745729e+002, 8.605069e+003
4.750550e+002, 8.589570e+003
4.755371e+002, 8.568200e+003
4.760192e+002, 8.552512e+003
4.765013e+002, 8.541723e+003
4.769835e+002, 8.530802e+003
4.774656e+002, 8.516087e+003
4.779477e+002, 8.499553e+003
4.784298e+002, 8.484959e+003
4.789119e+002, 8.472514e+003
4.793940e+002, 8.459056e+003
4.798762e+002, 8.441345e+003
4.803583e+002, 8.421342e+003
4.808404e+002, 8.401650e+003
4.813225e+002, 8.383229e+003
4.818046e+002, 8.364983e+003
4.822867e+002, 8.347336e+003
4.827689e+002, 8.329688e+003
4.832510e+002, 8.310315e+003
4.837331e+002, 8.287078e+003
4.842152e+002, 8.263581e+003
4.846973e+002, 8.242212e+003
4.851794e+002, 8.224097e+003
4.856616e+002, 8.202994e+003
4.861437e+002, 8.173508e+003
4.866258e+002, 8.143839e+003
4.871079e+002, 8.120416e+003
4.875900e+002, 8.108763e+003
4.880721e+002, 8.092981e+003
4.885543e+002, 8.069552e+003
4.890364e+002, 8.041591e+003
4.895185e+002, 8.019250e+003
4.900006e+002, 8.004893e+003
4.904827e+002, 7.988640e+003
4.909648e+002, 7.965003e+003
4.914470e+002, 7.934366e+003
4.919291e+002, 7.908122e+003
4.924112e+002, 7.887024e+003
4.928933e+002, 7.867382e+003
4.933754e+002, 7.845560e+003
4.938575e+002, 7.822041e+003
4.943397e+002, 7.799059e+003
4.948218e+002, 7.777562e+003
4.953039e+002, 7.756648e+003
4.957860e+002, 7.735681e+003
4.962681e+002, 7.714658e+003
4.967502e+002, 7.693490e+003
4.972324e+002, 7.670813e+003
4.977145e+002, 7.648573e+003
4.981966e+002, 7.628642e+003
4.986787e+002, 7.610912e+003
4.991608e+002, 7.594216e+003
4.996429e+002, 7.580252e+003
5.001251e+002, 7.565539e+003
5.006072e+002, 7.546248e+003
5.010893e+002, 7.515167e+003
5.015714e+002, 7.488349e+003
5.020535e+002, 7.473003e+003
5.025356e+002, 7.463982e+003
5.030178e+002, 7.449505e+003
5.034999e+002, 7.424381e+003
5.039820e+002, 7.398097e+003
5.044641e+002, 7.373023e+003
5.049462e+002, 7.349258e+003
5.054283e+002, 7.325804e+003
5.059105e+002, 7.302862e+003
5.063926e+002, 7.280463e+003
5.068747e+002, 7.258750e+003
5.073568e+002, 7.237967e+003
5.078389e+002, 7.216925e+003
5.083210e+002, 7.195333e+003
5.088032e+002, 7.174494e+003
5.092853e+002, 7.157451e+003
5.097674e+002, 7.143944e+003
5.102495e+002, 7.130528e+003
5.107316e+002, 7.116086e+003
5.112137e+002, 7.100358e+003
5.116959e+002, 7.082144e+003
5.121780e+002, 7.061651e+003
5.126601e+002, 7.040663e+003
5.131422e+002, 7.018088e+003
5.136243e+002, 6.996718e+003
5.141064e+002, 6.982240e+003
5.145886e+002, 6.978817e+003
5.150707e+002, 6.970704e+003
5.155528e+002, 6.942646e+003
5.160349e+002, 6.905308e+003
5.165170e+002, 6.873652e+003
5.169991e+002, 6.857350e+003
5.174813e+002, 6.842725e+003
5.179634e+002, 6.825746e+003
5.184455e+002, 6.806663e+003
5.189276e+002, 6.787760e+003
5.194097e+002, 6.768882e+003
5.198918e+002, 6.750832e+003
5.203740e+002, 6.734208e+003
5.208561e+002, 6.719179e+003
5.213382e+002, 6.704702e+003
5.218203e+002, 6.691363e+003
5.223024e+002, 6.677649e+003
5.227845e+002, 6.661150e+003
5.232667e+002, 6.641127e+003
5.237488e+002, 6.621800e+003
5.242309e+002, 6.604283e+003
5.247130e+002, 6.587827e+003
5.251951e+002, 6.569782e+003
5.256772e+002, 6.550148e+003
5.261594e+002, 6.532129e+003
5.266415e+002, 6.519492e+003
5.271236e+002, 6.509271e+003
5.276057e+002, 6.494458e+003
5.280878e+002, 6.474930e+003
5.285699e+002, 6.454447e+003
5.290521e+002, 6.435515e+003
5.295342e+002, 6.418044e+003
5.300163e+002, 6.402291e+003
5.304984e+002, 6.390083e+003
5.309805e+002, 6.376706e+003
5.314626e+002, 6.356932e+003
5.319448e+002, 6.334476e+003
5.324269e+002, 6.316600e+003
5.329090e+002, 6.310179e+003
5.333911e+002, 6.303704e+003
5.338732e+002, 6.292757e+003
5.343553e+002, 6.277034e+003
5.348375e+002, 6.261793e+003
5.353196e+002, 6.247658e+003
5.358017e+002, 6.233456e+003
5.362838e+002, 6.218530e+003
5.367659e+002, 6.202393e+003
5.372480e+002, 6.186210e+003
5.377302e+002, 6.170144e+003
5.382123e+002, 6.153752e+003
5.386944e+002, 6.136930e+003
5.391765e+002, 6.119612e+003
5.396586e+002, 6.100758e+003
5.401407e+002, 6.079076e+003
5.406229e+002, 6.056927e+003
5.411050e+002, 6.042536e+003
5.415871e+002, 6.035118e+003
5.420692e+002, 6.025976e+003
5.425513e+002, 6.007417e+003
5.430334e+002, 5.984539e+003
5.435156e+002, 5.965396e+003
5.439977e+002, 5.950694e+003
5.444798e+002, 5.936648e+003
5.449619e+002, 5.920221e+003
5.454440e+002, 5.903354e+003
5.459261e+002, 5.888066e+003
5.464083e+002, 5.874347e+003
5.468904e+002, 5.862867e+003
5.473725e+002, 5.855638e+003
5.478546e+002, 5.850646e+003
5.483367e+002, 5.843532e+003
5.488188e+002, 5.832237e+003
5.493010e+002, 5.819961e+003
5.497831e+002, 5.807058e+003
5.502652e+002, 5.793510e+003
5.507473e+002, 5.780742e+003
5.512294e+002, 5.769128e+003
5.517115e+002, 5.757655e+003
5.521937e+002, 5.745618e+003
5.526758e+002, 5.733040e+003
5.531579e+002, 5.720509e+003
5.536400e+002, 5.708193e+003
5.541221e+002, 5.695916e+003
5.546042e+002, 5.683299e+003
5.550864e+002, 5.670467e+003
5.555685e+002, 5.657774e+003
5.560506e+002, 5.644864e+003
5.565327e+002, 5.632924e+003
5.570148e+002, 5.624639e+003
5.574969e+002, 5.619065e+003
5.579791e+002, 5.612772e+003
5.584612e+002, 5.603570e+003
5.589433e+002, 5.592925e+003
5.594254e+002, 5.581910e+003
5.599075e+002, 5.570516e+003
5.603896e+002, 5.559086e+003
5.608718e+002, 5.547540e+003
5.613539e+002, 5.536267e+003
5.618360e+002, 5.525635e+003
5.623181e+002, 5.516402e+003
5.628002e+002, 5.506853e+003
5.632823e+002, 5.497131e+003
5.637645e+002, 5.487123e+003
5.642466e+002, 5.476294e+003
5.647287e+002, 5.463398e+003
5.652108e+002, 5.453145e+003
5.656929e+002, 5.447517e+003
5.661750e+002, 5.445310e+003
5.666572e+002, 5.439936e+003
5.671393e+002, 5.430714e+003
5.676214e+002, 5.423247e+003
5.681035e+002, 5.423683e+003
5.685856e+002, 5.428863e+003
5.690677e+002, 5.425215e+003
5.695499e+002, 5.411787e+003
5.700320e+002, 5.397135e+003
5.705141e+002, 5.390574e+003
5.709962e+002, 5.387899e+003
5.714783e+002, 5.381686e+003
5.719604e+002, 5.367438e+003
5.724426e+002, 5.354737e+003
5.729247e+002, 5.352407e+003
5.734068e+002, 5.355469e+003
5.738889e+002, 5.354949e+003
5.743710e+002, 5.344564e+003
5.748531e+002, 5.333639e+003
5.753353e+002, 5.324807e+003
5.758174e+002, 5.318226e+003
5.762995e+002, 5.313466e+003
5.767816e+002, 5.312962e+003
5.772637e+002, 5.311474e+003
5.777458e+002, 5.306022e+003
5.782280e+002, 5.295303e+003
5.787101e+002, 5.287641e+003
5.791922e+002, 5.283276e+003
5.796743e+002, 5.281395e+003
5.801564e+002, 5.282464e+003
5.806385e+002, 5.286186e+003
5.811207e+002, 5.286849e+003
5.816028e+002, 5.282651e+003
5.820849e+002, 5.276742e+003
5.825670e+002, 5.274414e+003
5.830491e+002, 5.274503e+003
5.835313e+002, 5.273144e+003
5.840134e+002, 5.267122e+003
5.844955e+002, 5.259829e+003
5.849776e+002, 5.253099e+003
5.854597e+002, 5.247368e+003
5.859418e+002, 5.244928e+003
5.864240e+002, 5.252229e+003
5.869061e+002, 5.258981e+003
5.873882e+002, 5.257896e+003
5.878703e+002, 5.245132e+003
5.883524e+002, 5.236510e+003
5.888345e+002, 5.236893e+003
5.893167e+002, 5.240162e+003
5.897988e+002, 5.241718e+003
5.902809e+002, 5.240878e+003
5.907630e+002, 5.239814e+003
5.912451e+002, 5.238509e+003
5.917272e+002, 5.237234e+003
5.922094e+002, 5.236729e+003
5.926915e+002, 5.237097e+003
5.931736e+002, 5.236786e+003
5.936557e+002, 5.234540e+003
5.941378e+002, 5.231789e+003
5.946199e+002, 5.233179e+003
5.951021e+002, 5.238078e+003
5.955842e+002, 5.241294e+003
5.960663e+002, 5.236650e+003
5.965484e+002, 5.229948e+003
5.970305e+002, 5.228021e+003
5.975126e+002, 5.231509e+003
5.979948e+002, 5.236740e+003
5.984769e+002, 5.244680e+003
5.989590e+002, 5.251714e+003
5.994411e+002, 5.254563e+003
5.999232e+002, 5.249479e+003
6.004053e+002, 5.245361e+003
6.008875e+002, 5.243862e+003
6.013696e+002, 5.243976e+003
6.018517e+002, 5.244352e+003
6.023338e+002, 5.244748e+003
6.028159e+002, 5.246017e+003
6.032980e+002, 5.248729e+003
6.037802e+002, 5.252304e+003
6.042623e+002, 5.254287e+003
6.047444e+002, 5.254343e+003
6.052265e+002, 5.255324e+003
6.057086e+002, 5.259445e+003
6.061907e+002, 5.265607e+003
6.066729e+002, 5.270128e+003
6.071550e+002, 5.272965e+003
6.076371e+002, 5.275102e+003
6.081192e+002, 5.276865e+003
6.086013e+002, 5.278506e+003
6.090834e+002, 5.280094e+003
6.095656e+002, 5.281373e+003
6.100477e+002, 5.283904e+003
6.105298e+002, 5.289107e+003
6.110119e+002, 5.295865e+003
6.114940e+002, 5.303010e+003
6.119761e+002, 5.313165e+003
6.124583e+002, 5.320368e+003
6.129404e+002, 5.321479e+003
6.134225e+002, 5.319598e+003
6.139046e+002, 5.321691e+003
6.143867e+002, 5.329578e+003
6.148688e+002, 5.337642e+003
6.153510e+002, 5.343837e+003
6.158331e+002, 5.348790e+003
6.163152e+002, 5.357228e+003
6.167973e+002, 5.369345e+003
6.172794e+002, 5.381717e+003
6.177615e+002, 5.391675e+003
6.182437e+002, 5.399800e+003
6.187258e+002, 5.407674e+003
6.192079e+002, 5.415281e+003
6.196900e+002, 5.423924e+003
6.201721e+002, 5.437292e+003
6.206542e+002, 5.451265e+003
6.211364e+002, 5.460025e+003
6.216185e+002, 5.459632e+003
6.221006e+002, 5.460134e+003
6.225827e+002, 5.468077e+003
6.230648e+002, 5.479086e+003
6.235469e+002, 5.487037e+003
6.240291e+002, 5.487202e+003
6.245112e+002, 5.489034e+003
6.249933e+002, 5.494672e+003
6.254754e+002, 5.503085e+003
6.259575e+002, 5.509935e+003
6.264396e+002, 5.513915e+003
6.269218e+002, 5.520682e+003
6.274039e+002, 5.533708e+003
6.278860e+002, 5.551591e+003
6.283681e+002, 5.565321e+003
6.288502e+002, 5.574751e+003
6.293323e+002, 5.583537e+003
6.298145e+002, 5.594987e+003
6.302966e+002, 5.607483e+003
6.307787e+002, 5.617322e+003
6.312608e+002, 5.623807e+003
6.317429e+002, 5.631667e+003
6.322250e+002, 5.646252e+003
6.327072e+002, 5.663132e+003
6.331893e+002, 5.677447e+003
6.336714e+002, 5.684640e+003
6.341535e+002, 5.694499e+003
6.346356e+002, 5.713562e+003
6.351177e+002, 5.735614e+003
6.355999e+002, 5.750828e+003
6.360820e+002, 5.753406e+003
6.365641e+002, 5.758344e+003
6.370462e+002, 5.768771e+003
6.375283e+002, 5.783048e+003
6.380104e+002, 5.796125e+003
6.384926e+002, 5.808175e+003
6.389747e+002, 5.818724e+003
6.394568e+002, 5.826039e+003
6.399389e+002, 5.832154e+003
6.404210e+002, 5.843991e+003
6.409031e+002, 5.861506e+003
6.413853e+002, 5.881290e+003
6.418674e+002, 5.903438e+003
6.423495e+002, 5.925323e+003
6.428316e+002, 5.942728e+003
6.433137e+002, 5.954967e+003
6.437958e+002, 5.967048e+003
6.442780e+002, 5.980842e+003
6.447601e+002, 5.996111e+003
6.452422e+002, 6.012518e+003
6.457243e+002, 6.029644e+003
6.462064e+002, 6.048509e+003
6.466885e+002, 6.070853e+003
6.471707e+002, 6.093763e+003
6.476528e+002, 6.112595e+003
6.481349e+002, 6.125936e+003
6.486170e+002, 6.140034e+003
6.490991e+002, 6.156415e+003
6.495812e+002, 6.173958e+003
6.500634e+002, 6.190066e+003
6.505455e+002, 6.205048e+003
6.510276e+002, 6.221349e+003
6.515097e+002, 6.241069e+003
6.519918e+002, 6.262476e+003
6.524739e+002, 6.283417e+003
6.529561e+002, 6.303654e+003
6.534382e+002, 6.323423e+003
6.539203e+002, 6.342743e+003
6.544024e+002, 6.361338e+003
6.548845e+002, 6.378846e+003
6.553666e+002, 6.394989e+003
6.558488e+002, 6.411947e+003
6.563309e+002, 6.431437e+003
6.568130e+002, 6.450978e+003
6.572951e+002, 6.468797e+003
6.577772e+002, 6.483299e+003
6.582593e+002, 6.500839e+003
6.587415e+002, 6.522912e+003
6.592236e+002, 6.545640e+003
6.597057e+002, 6.564708e+003
6.601878e+002, 6.580095e+003
6.606699e+002, 6.592914e+003
6.611520e+002, 6.601825e+003
6.616342e+002, 6.611590e+003
6.621163e+002, 6.631354e+003
6.625984e+002, 6.657476e+003
6.630805e+002, 6.680271e+003
6.635626e+002, 6.692354e+003
6.640447e+002, 6.703264e+003
6.645269e+002, 6.720963e+003
6.650090e+002, 6.742916e+003
6.654911e+002, 6.762230e+003
6.659732e+002, 6.773109e+003
6.664553e+002, 6.784624e+003
6.669374e+002, 6.800175e+003
6.674196e+002, 6.819687e+003
6.679017e+002, 6.840457e+003
6.683838e+002, 6.863639e+003
6.688659e+002, 6.886518e+003
6.693480e+002, 6.908727e+003
6.698301e+002, 6.930264e+003
6.703123e+002, 6.946120e+003
6.707944e+002, 6.955564e+003
6.712765e+002, 6.965464e+003
6.717586e+002, 6.982657e+003
6.722407e+002, 7.004871e+003
6.727228e+002, 7.027046e+003
6.732050e+002, 7.048722e+003
6.736871e+002, 7.069575e+003
6.741692e+002, 7.089522e+003
6.746513e+002, 7.108596e+003
6.751334e+002, 7.126505e+003
6.756155e+002, 7.141837e+003
6.760977e+002, 7.158181e+003
6.765798e+002, 7.176876e+003
6.770619e+002, 7.196568e+003
6.775440e+002, 7.215087e+003
6.780261e+002, 7.231850e+003
6.785082e+002, 7.248440e+003
6.789904e+002, 7.265245e+003
6.794725e+002, 7.282101e+003
6.799546e+002, 7.298421e+003
6.804367e+002, 7.313990e+003
6.809188e+002, 7.332057e+003
6.814009e+002, 7.356253e+003
6.818831e+002, 7.382265e+003
6.823652e+002, 7.399883e+003
6.828473e+002, 7.410994e+003
6.833294e+002, 7.423896e+003
6.838115e+002, 7.445068e+003
6.842936e+002, 7.468787e+003
6.847758e+002, 7.492187e+003
6.852579e+002, 7.514806e+003
6.857400e+002, 7.535554e+003
6.862221e+002, 7.549321e+003
6.867042e+002, 7.564922e+003
6.871863e+002, 7.587491e+003
6.876685e+002, 7.618956e+003
6.881506e+002, 7.648692e+003
6.886327e+002, 7.676820e+003
6.891148e+002, 7.703740e+003
6.895969e+002, 7.730045e+003
6.900790e+002, 7.755756e+003
6.905612e+002, 7.778322e+003
6.910433e+002, 7.796610e+003
6.915254e+002, 7.815273e+003
6.920075e+002, 7.840451e+003
6.924896e+002, 7.869169e+003
6.929717e+002, 7.895736e+003
6.934539e+002, 7.917606e+003
6.939360e+002, 7.938757e+003
6.944181e+002, 7.961020e+003
6.949002e+002, 7.983973e+003
6.953823e+002, 8.007069e+003
6.958644e+002, 8.031825e+003
6.963466e+002, 8.054407e+003
6.968287e+002, 8.071597e+003
6.973108e+002, 8.087287e+003
6.977929e+002, 8.111993e+003
6.982750e+002, 8.148487e+003
6.987571e+002, 8.184733e+003
6.992393e+002, 8.217936e+003
6.997214e+002, 8.247899e+003
7.002035e+002, 8.270615e+003
7.006856e+002, 8.287267e+003
7.011677e+002, 8.307218e+003
7.016498e+002, 8.339408e+003
7.021320e+002, 8.375598e+003
7.026141e+002, 8.404879e+003
7.030962e+002, 8.428140e+003
7.035783e+002, 8.454748e+003
7.040604e+002, 8.492919e+003
7.045425e+002, 8.532645e+003
7.050247e+002, 8.567472e+003
7.055068e+002, 8.595819e+003
7.059889e+002, 8.625223e+003
7.064710e+002, 8.655241e+003
7.069531e+002, 8.686801e+003
7.074352e+002, 8.721438e+003
7.079174e+002, 8.759704e+003
7.083995e+002, 8.792368e+003
7.088816e+002, 8.818364e+003
7.093637e+002, 8.843466e+003
7.098458e+002, 8.873795e+003
7.103279e+002, 8.907890e+003
7.108101e+002, 8.943484e+003
7.112922e+002, 8.980682e+003
7.117743e+002, 9.016564e+003
7.122564e+002, 9.048540e+003
7.127385e+002, 9.078589e+003
7.132206e+002, 9.109158e+003
7.137028e+002, 9.140911e+003
7.141849e+002, 9.173044e+003
7.146670e+002, 9.204635e+003
7.151491e+002, 9.236585e+003
7.156312e+002, 9.270588e+003
7.161133e+002, 9.306759e+003
7.165955e+002, 9.343973e+003
7.170776e+002, 9.382114e+003
7.175597e+002, 9.420517e+003
7.180418e+002, 9.456456e+003
7.185239e+002, 9.490369e+003
7.190060e+002, 9.524457e+003
7.194882e+002, 9.560150e+003
7.199703e+002, 9.595467e+003
7.204524e+002, 9.626780e+003
7.209345e+002, 9.655517e+003
7.214166e+002, 9.687152e+003
7.218987e+002, 9.728150e+003
7.223809e+002, 9.768527e+003
7.228630e+002, 9.802218e+003
7.233451e+002, 9.829782e+003
7.238272e+002, 9.858021e+003
7.243093e+002, 9.888813e+003
7.247914e+002, 9.917824e+003
7.252736e+002, 9.943143e+003
7.257557e+002, 9.965098e+003
7.262378e+002, 9.985770e+003
7.267199e+002, 1.000517e+004
7.272020e+002, 1.002662e+004
7.276841e+002, 1.005418e+004
7.281663e+002, 1.008546e+004
7.286484e+002, 1.011504e+004
7.291305e+002, 1.014275e+004
7.296126e+002, 1.016816e+004
7.300947e+002, 1.019066e+004
7.305768e+002, 1.021089e+004
7.310590e+002, 1.022818e+004
7.315411e+002, 1.024121e+004
7.320232e+002, 1.025767e+004
7.325053e+002, 1.028054e+004
7.329874e+002, 1.030569e+004
7.334695e+002, 1.033167e+004
7.339517e+002, 1.035995e+004
7.344338e+002, 1.038258e+004
7.349159e+002, 1.039879e+004
7.353980e+002, 1.041163e+004
7.358801e+002, 1.042231e+004
7.363622e+002, 1.043207e+004
7.368444e+002, 1.044686e+004
7.373265e+002, 1.046847e+004
7.378086e+002, 1.049138e+004
7.382907e+002, 1.051247e+004
7.387728e+002, 1.053100e+004
7.392549e+002, 1.054571e+004
7.397371e+002, 1.055533e+004
7.402192e+002, 1.056313e+004
7.407013e+002, 1.056524e+004
7.411834e+002, 1.056820e+004
7.416655e+002, 1.058136e+004
7.421476e+002, 1.061086e+004
7.426298e+002, 1.063467e+004
7.431119e+002, 1.064764e+004
7.435940e+002, 1.065678e+004
7.440761e+002, 1.067695e+004
7.445582e+002, 1.070647e+004
7.450403e+002, 1.073110e+004
7.455225e+002, 1.074524e+004
7.460046e+002, 1.075456e+004
7.464867e+002, 1.076545e+004
7.469688e+002, 1.077691e+004
7.474509e+002, 1.078689e+004
7.479330e+002, 1.079494e+004
7.484152e+002, 1.080087e+004
7.488973e+002, 1.080284e+004
7.493794e+002, 1.080267e+004
7.498615e+002, 1.080601e+004
7.503436e+002, 1.081468e+004
7.508257e+002, 1.082470e+004
7.513079e+002, 1.083673e+004
7.517900e+002, 1.084907e+004
7.522721e+002, 1.085353e+004
7.527542e+002, 1.085028e+004
7.532363e+002, 1.084739e+004
7.537184e+002, 1.084824e+004
7.542006e+002, 1.085232e+004
7.546827e+002, 1.085958e+004
7.551648e+002, 1.086962e+004
7.556469e+002, 1.088033e+004
7.561290e+002, 1.089227e+004
7.566111e+002, 1.090322e+004
7.570933e+002, 1.091083e+004
7.575754e+002, 1.091525e+004
7.580575e+002, 1.092322e+004
7.585396e+002, 1.093536e+004
7.590217e+002, 1.095026e+004
7.595038e+002, 1.096887e+004
7.599860e+002, 1.099031e+004
7.604681e+002, 1.100508e+004
7.609502e+002, 1.101235e+004
7.614323e+002, 1.102138e+004
7.619144e+002, 1.104228e+004
7.623965e+002, 1.106761e+004
7.628787e+002, 1.108190e+004
7.633608e+002, 1.108563e+004
7.638429e+002, 1.109059e+004
7.643250e+002, 1.110499e+004
7.648071e+002, 1.112216e+004
7.652892e+002, 1.113731e+004
7.657714e+002, 1.114983e+004
7.662535e+002, 1.116400e+004
7.667356e+002, 1.118214e+004
7.672177e+002, 1.119939e+004
7.676998e+002, 1.121284e+004
7.681819e+002, 1.122242e+004
7.686641e+002, 1.123196e+004
7.691462e+002, 1.124145e+004
7.696283e+002, 1.125076e+004
7.701104e+002, 1.125870e+004
7.705925e+002, 1.126668e+004
7.710746e+002, 1.127784e+004
7.715568e+002, 1.129255e+004
7.720389e+002, 1.130780e+004
7.725210e+002, 1.132507e+004
7.730031e+002, 1.133974e+004
7.734852e+002, 1.134745e+004
7.739673e+002, 1.134454e+004
7.744495e+002, 1.134408e+004
7.749316e+002, 1.134807e+004
7.754137e+002, 1.135254e+004
7.758958e+002, 1.135402e+004
7.763779e+002, 1.135207e+004
7.768600e+002, 1.135303e+004
7.773422e+002, 1.135743e+004
7.778243e+002, 1.136306e+004
7.783064e+002, 1.137052e+004
7.787885e+002, 1.137703e+004
7.792706e+002, 1.137670e+004
7.797527e+002, 1.136808e+004
7.802349e+002, 1.135665e+004
7.807170e+002, 1.134299e+004
7.811991e+002, 1.132986e+004
7.816812e+002, 1.132006e+004
7.821633e+002, 1.131817e+004
7.826454e+002, 1.131155e+004
7.831276e+002, 1.129703e+004
7.836097e+002, 1.128167e+004
7.840918e+002, 1.127357e+004
7.845739e+002, 1.127292e+004
7.850560e+002, 1.126937e+004
7.855381e+002, 1.126205e+004
7.860203e+002, 1.125114e+004
7.865024e+002, 1.123414e+004
7.869845e+002, 1.121448e+004
7.874666e+002, 1.119758e+004
7.879487e+002, 1.118446e+004
7.884308e+002, 1.117449e+004
7.889130e+002, 1.116903e+004
7.893951e+002, 1.116534e+004
7.898772e+002, 1.116079e+004
7.903593e+002, 1.115975e+004
7.908414e+002, 1.114791e+004
7.913235e+002, 1.111894e+004
7.918057e+002, 1.108761e+004
7.922878e+002, 1.107580e+004
7.927699e+002, 1.108157e+004
7.932520e+002, 1.107682e+004
7.937341e+002, 1.105598e+004
7.942162e+002, 1.103050e+004
7.946984e+002, 1.101211e+004
7.951805e+002, 1.099723e+004
7.956626e+002, 1.098055e+004
7.961447e+002, 1.096031e+004
7.966268e+002, 1.093877e+004
7.971089e+002, 1.091555e+004
7.975911e+002, 1.089200e+004
7.980732e+002, 1.086984e+004
7.985553e+002, 1.085103e+004
7.990374e+002, 1.082838e+004
7.995195e+002, 1.079989e+004
8.000016e+002, 1.077091e+004
8.004838e+002, 1.074857e+004
8.009659e+002, 1.073180e+004
8.014480e+002, 1.071383e+004
8.019301e+002, 1.069375e+004
8.024122e+002, 1.067140e+004
8.028943e+002, 1.064379e+004
8.033765e+002, 1.061529e+004
8.038586e+002, 1.059155e+004
8.043407e+002, 1.057739e+004
8.048228e+002, 1.056181e+004
8.053049e+002, 1.053811e+004
8.057870e+002, 1.051426e+004
8.062692e+002, 1.049944e+004
8.067513e+002, 1.049750e+004
8.072334e+002, 1.048813e+004
8.077155e+002, 1.046832e+004
8.081976e+002, 1.044408e+004
8.086797e+002, 1.042386e+004
8.091619e+002, 1.040553e+004
8.096440e+002, 1.038168e+004
8.101261e+002, 1.034861e+004
8.106082e+002, 1.031792e+004
8.110903e+002, 1.030279e+004
8.115724e+002, 1.029288e+004
8.120546e+002, 1.027697e+004
8.125367e+002, 1.024973e+004
8.130188e+002, 1.022144e+004
8.135009e+002, 1.019046e+004
8.139830e+002, 1.016112e+004
8.144651e+002, 1.014038e+004
8.149473e+002, 1.012903e+004
8.154294e+002, 1.011110e+004
8.159115e+002, 1.008395e+004
8.163936e+002, 1.005483e+004
8.168757e+002, 1.003189e+004
8.173578e+002, 1.001292e+004
8.178400e+002, 9.993721e+003
8.183221e+002, 9.973313e+003
8.188042e+002, 9.952363e+003
8.192863e+002, 9.929609e+003
8.197684e+002, 9.907079e+003
8.202505e+002, 9.886999e+003
8.207327e+002, 9.872046e+003
8.212148e+002, 9.853343e+003
8.216969e+002, 9.830054e+003
8.221790e+002, 9.803757e+003
8.226611e+002, 9.777162e+003
8.231432e+002, 9.749425e+003
8.236254e+002, 9.716631e+003
8.241075e+002, 9.677486e+003
8.245896e+002, 9.639073e+003
8.250717e+002, 9.610082e+003
8.255538e+002, 9.584688e+003
8.260359e+002, 9.556849e+003
8.265181e+002, 9.525243e+003
8.270002e+002, 9.492696e+003
8.274823e+002, 9.460033e+003
8.279644e+002, 9.426698e+003
8.284465e+002, 9.391573e+003
8.289286e+002, 9.354362e+003
8.294108e+002, 9.319731e+003
8.298929e+002, 9.288395e+003
8.303750e+002, 9.258275e+003
8.308571e+002, 9.228177e+003
8.313392e+002, 9.197909e+003
8.318214e+002, 9.165875e+003
8.323035e+002, 9.132115e+003
8.327856e+002, 9.099135e+003
8.332677e+002, 9.066943e+003
8.337498e+002, 9.037448e+003
8.342319e+002, 9.013817e+003
8.347141e+002, 8.999649e+003
8.351962e+002, 8.974972e+003
8.356783e+002, 8.933949e+003
8.361604e+002, 8.891906e+003
8.366425e+002, 8.860408e+003
8.371246e+002, 8.838454e+003
8.376068e+002, 8.811145e+003
8.380889e+002, 8.778350e+003
8.385710e+002, 8.745403e+003
8.390531e+002, 8.717498e+003
8.395352e+002, 8.691003e+003
8.400173e+002, 8.661896e+003
8.404995e+002, 8.629743e+003
8.409816e+002, 8.597797e+003
8.414637e+002, 8.568998e+003
8.419458e+002, 8.538715e+003
8.424279e+002, 8.503661e+003
8.429100e+002, 8.463968e+003
8.433922e+002, 8.428785e+003
8.438743e+002, 8.398644e+003
8.443564e+002, 8.369672e+003
8.448385e+002, 8.341870e+003
8.453206e+002, 8.312700e+003
8.458027e+002, 8.273465e+003
8.462849e+002, 8.226292e+003
8.467670e+002, 8.184170e+003
8.472491e+002, 8.161265e+003
8.477312e+002, 8.139257e+003
8.482133e+002, 8.106898e+003
8.486954e+002, 8.064898e+003
8.491776e+002, 8.025608e+003
8.496597e+002, 7.990292e+003
8.501418e+002, 7.955638e+003
8.506239e+002, 7.920518e+003
8.511060e+002, 7.885806e+003
8.515881e+002, 7.856095e+003
8.520703e+002, 7.830698e+003
8.525524e+002, 7.803324e+003
8.530345e+002, 7.769336e+003
8.535166e+002, 7.733724e+003
8.539987e+002, 7.699917e+003
8.544808e+002, 7.667750e+003
8.549630e+002, 7.636814e+003
8.554451e+002, 7.608396e+003
8.559272e+002, 7.579655e+003
8.564093e+002, 7.549673e+003
8.568914e+002, 7.519150e+003
8.573735e+002, 7.488181e+003
8.578557e+002, 7.456481e+003
8.583378e+002, 7.425932e+003
8.588199e+002, 7.397243e+003
8.593020e+002, 7.368867e+003
8.597841e+002, 7.339093e+003
8.602662e+002, 7.308063e+003
8.607484e+002, 7.276632e+003
8.612305e+002, 7.245079e+003
8.617126e+002, 7.213367e+003
8.621947e+002, 7.181890e+003
8.626768e+002, 7.150404e+003
8.631589e+002, 7.119039e+003
8.636411e+002, 7.087455e+003
8.641232e+002, 7.056031e+003
8.646053e+002, 7.024342e+003
8.650874e+002, 6.993981e+003
8.655695e+002, 6.968924e+003
8.660516e+002, 6.946734e+003
8.665338e+002, 6.918507e+003
8.670159e+002, 6.881037e+003
8.674980e+002, 6.844131e+003
8.679801e+002, 6.813721e+003
8.684622e+002, 6.787438e+003
8.689443e+002, 6.763081e+003
8.694265e+002, 6.742497e+003
8.699086e+002, 6.717790e+003
8.703907e+002, 6.687671e+003
8.708728e+002, 6.655612e+003
8.713549e+002, 6.623217e+003
8.718370e+002, 6.590851e+003
8.723192e+002, 6.566023e+003
8.728013e+002, 6.548846e+003
8.732834e+002, 6.531101e+003
8.737655e+002, 6.504790e+003
8.742476e+002, 6.475209e+003
8.747297e+002, 6.446935e+003
8.752119e+002, 6.420124e+003
8.756940e+002, 6.395843e+003
8.761761e+002, 6.378077e+003
8.766582e+002, 6.359108e+003
8.771403e+002, 6.335514e+003
8.776224e+002, 6.307666e+003
8.781046e+002, 6.280894e+003
8.785867e+002, 6.255406e+003
8.790688e+002, 6.229264e+003
8.795509e+002, 6.200956e+003
8.800330e+002, 6.172244e+003
8.805151e+002, 6.145946e+003
8.809973e+002, 6.121712e+003
8.814794e+002, 6.097959e+003
8.819615e+002, 6.074653e+003
8.824436e+002, 6.051185e+003
8.829257e+002, 6.026750e+003
8.834078e+002, 6.002242e+003
8.838900e+002, 5.978990e+003
8.843721e+002, 5.957210e+003
8.848542e+002, 5.935331e+003
8.853363e+002, 5.912502e+003
8.858184e+002, 5.889882e+003
8.863005e+002, 5.869757e+003
8.867827e+002, 5.851360e+003
8.872648e+002, 5.833126e+003
8.877469e+002, 5.814763e+003
8.882290e+002, 5.795958e+003
8.887111e+002, 5.776250e+003
8.891932e+002, 5.756140e+003
8.896754e+002, 5.736175e+003
8.901575e+002, 5.716187e+003
8.906396e+002, 5.697779e+003
8.911217e+002, 5.682250e+003
8.916038e+002, 5.665921e+003
8.920859e+002, 5.641237e+003
8.925681e+002, 5.611853e+003
8.930502e+002, 5.589819e+003
8.935323e+002, 5.578115e+003
8.940144e+002, 5.567438e+003
8.944965e+002, 5.553094e+003
8.949786e+002, 5.536065e+003
8.954608e+002, 5.516330e+003
8.959429e+002, 5.492651e+003
8.964250e+002, 5.471672e+003
8.969071e+002, 5.454201e+003
8.973892e+002, 5.438052e+003
8.978713e+002, 5.421752e+003
8.983535e+002, 5.405481e+003
8.988356e+002, 5.392380e+003
8.993177e+002, 5.382126e+003
8.997998e+002, 5.369834e+003
9.002819e+002, 5.349896e+003
9.007640e+002, 5.328462e+003
9.012462e+002, 5.310399e+003
9.017283e+002, 5.295625e+003
9.022104e+002, 5.279003e+003
9.026925e+002, 5.258808e+003
9.031746e+002, 5.239443e+003
9.036567e+002, 5.222222e+003
9.041389e+002, 5.206685e+003
9.046210e+002, 5.190936e+003
9.051031e+002, 5.175032e+003
9.055852e+002, 5.158792e+003
9.060673e+002, 5.141164e+003
9.065494e+002, 5.124491e+003
9.070316e+002, 5.111938e+003
9.075137e+002, 5.101625e+003
9.079958e+002, 5.090069e+003
9.084779e+002, 5.076889e+003
9.089600e+002, 5.061553e+003
9.094421e+002, 5.043015e+003
9.099243e+002, 5.023502e+003
9.104064e+002, 5.005146e+003
9.108885e+002, 4.988056e+003
9.113706e+002, 4.973149e+003
9.118527e+002, 4.960896e+003
9.123348e+002, 4.948835e+003
9.128170e+002, 4.934791e+003
9.132991e+002, 4.919553e+003
9.137812e+002, 4.903703e+003
9.142633e+002, 4.886904e+003
9.147454e+002, 4.871571e+003
9.152275e+002, 4.858871e+003
9.157097e+002, 4.846737e+003
9.161918e+002, 4.833755e+003
9.166739e+002, 4.819968e+003
9.171560e+002, 4.808392e+003
9.176381e+002, 4.799134e+003
9.181202e+002, 4.789340e+003
9.186024e+002, 4.776458e+003
9.190845e+002, 4.762409e+003
9.195666e+002, 4.749472e+003
9.200487e+002, 4.737438e+003
9.205308e+002, 4.724197e+003
9.210129e+002, 4.707576e+003
9.214951e+002, 4.691419e+003
9.219772e+002, 4.676379e+003
9.224593e+002, 4.662425e+003
9.229414e+002, 4.649442e+003
9.234235e+002, 4.637497e+003
9.239056e+002, 4.627085e+003
9.243878e+002, 4.619818e+003
9.248699e+002, 4.611165e+003
9.253520e+002, 4.593305e+003
9.258341e+002, 4.571234e+003
9.263162e+002, 4.552625e+003
9.267983e+002, 4.541437e+003
9.272805e+002, 4.531470e+003
9.277626e+002, 4.523688e+003
9.282447e+002, 4.515033e+003
9.287268e+002, 4.501663e+003
9.292089e+002, 4.483665e+003
9.296910e+002, 4.467828e+003
9.301732e+002, 4.454920e+003
9.306553e+002, 4.443114e+003
9.311374e+002, 4.430159e+003
9.316195e+002, 4.417869e+003
9.321016e+002, 4.409313e+003
9.325837e+002, 4.405229e+003
9.330659e+002, 4.397356e+003
9.335480e+002, 4.379679e+003
9.340301e+002, 4.362682e+003
9.345122e+002, 4.351040e+003
9.349943e+002, 4.343570e+003
9.354764e+002, 4.333167e+003
9.359586e+002, 4.319692e+003
9.364407e+002, 4.306161e+003
9.369228e+002, 4.293618e+003
9.374049e+002, 4.281723e+003
9.378870e+002, 4.270833e+003
9.383691e+002, 4.260202e+003
9.388513e+002, 4.248399e+003
9.393334e+002, 4.233866e+003
9.398155e+002, 4.219536e+003
9.402976e+002, 4.205950e+003
9.407797e+002, 4.192986e+003
9.412618e+002, 4.181306e+003
9.417440e+002, 4.170783e+003
9.422261e+002, 4.158329e+003
9.427082e+002, 4.142872e+003
9.431903e+002, 4.128131e+003
9.436724e+002, 4.118590e+003
9.441545e+002, 4.111220e+003
9.446367e+002, 4.102813e+003
9.451188e+002, 4.092594e+003
9.456009e+002, 4.082323e+003
9.460830e+002, 4.073038e+003
9.465651e+002, 4.062044e+003
9.470472e+002, 4.046218e+003
9.475294e+002, 4.026479e+003
9.480115e+002, 4.014500e+003
9.484936e+002, 4.009418e+003
9.489757e+002, 4.002261e+003
9.494578e+002, 3.984158e+003
9.499399e+002, 3.964671e+003
9.504221e+002, 3.952028e+003
9.509042e+002, 3.944550e+003
9.513863e+002, 3.935222e+003
9.518684e+002, 3.923114e+003
9.523505e+002, 3.909777e+003
9.528326e+002, 3.895287e+003
9.533148e+002, 3.880304e+003
9.537969e+002, 3.865723e+003
9.542790e+002, 3.851676e+003
9.547611e+002, 3.838549e+003
9.552432e+002, 3.826716e+003
9.557253e+002, 3.815294e+003
9.562075e+002, 3.803394e+003
9.566896e+002, 3.791713e+003
9.571717e+002, 3.780751e+003
9.576538e+002, 3.770326e+003
9.581359e+002, 3.760945e+003
9.586180e+002, 3.752558e+003
9.591002e+002, 3.744947e+003
9.595823e+002, 3.739037e+003
9.600644e+002, 3.733543e+003
9.605465e+002, 3.723370e+003
9.610286e+002, 3.709148e+003
9.615107e+002, 3.696868e+003
9.619929e+002, 3.692729e+003
9.624750e+002, 3.688497e+003
9.629571e+002, 3.678438e+003
9.634392e+002, 3.664581e+003
9.639213e+002, 3.654965e+003
9.644034e+002, 3.651519e+003
9.648856e+002, 3.644742e+003
9.653677e+002, 3.631524e+003
9.658498e+002, 3.615575e+003
9.663319e+002, 3.601185e+003
9.668140e+002, 3.588748e+003
9.672961e+002, 3.580026e+003
9.677783e+002, 3.577371e+003
9.682604e+002, 3.573033e+003
9.687425e+002, 3.563489e+003
9.692246e+002, 3.551400e+003
9.697067e+002, 3.538396e+003
9.701888e+002, 3.524435e+003
9.706710e+002, 3.510908e+003
9.711531e+002, 3.497728e+003
9.716352e+002, 3.486627e+003
9.721173e+002, 3.481054e+003
9.725994e+002, 3.477198e+003
9.730815e+002, 3.469570e+003
9.735637e+002, 3.458656e+003
9.740458e+002, 3.448323e+003
9.745279e+002, 3.440787e+003
9.750100e+002, 3.432845e+003
9.754921e+002, 3.423529e+003
9.759742e+002, 3.413369e+003
9.764564e+002, 3.403321e+003
9.769385e+002, 3.393390e+003
9.774206e+002, 3.384862e+003
9.779027e+002, 3.378868e+003
9.783848e+002, 3.372388e+003
9.788669e+002, 3.361848e+003
9.793491e+002, 3.349501e+003
9.798312e+002, 3.338080e+003
9.803133e+002, 3.328897e+003
9.807954e+002, 3.318385e+003
9.812775e+002, 3.304766e+003
9.817596e+002, 3.292486e+003
9.822418e+002, 3.285977e+003
9.827239e+002, 3.283618e+003
9.832060e+002, 3.275788e+003
9.836881e+002, 3.263109e+003
9.841702e+002, 3.251907e+003
9.846523e+002, 3.248420e+003
9.851345e+002, 3.245196e+003
9.856166e+002, 3.237119e+003
9.860987e+002, 3.225406e+003
9.865808e+002, 3.215305e+003
9.870629e+002, 3.207363e+003
9.875450e+002, 3.199325e+003
9.880272e+002, 3.190672e+003
9.885093e+002, 3.182001e+003
9.889914e+002, 3.175146e+003
9.894735e+002, 3.168884e+003
9.899556e+002, 3.160328e+003
9.904377e+002, 3.148154e+003
9.909199e+002, 3.136885e+003
9.914020e+002, 3.129011e+003
9.918841e+002, 3.122278e+003
9.923662e+002, 3.115363e+003
9.928483e+002, 3.108412e+003
9.933304e+002, 3.100399e+003
9.938126e+002, 3.091304e+003
9.942947e+002, 3.081383e+003
9.947768e+002, 3.069219e+003
9.952589e+002, 3.057427e+003
9.957410e+002, 3.049662e+003
9.962231e+002, 3.044791e+003
9.967053e+002, 3.039307e+003
9.971874e+002, 3.032048e+003
9.976695e+002, 3.024204e+003
9.981516e+002, 3.015311e+003
9.986337e+002, 3.006591e+003
9.991158e+002, 3.000301e+003
9.995980e+002, 2.995951e+003
1.000080e+003, 2.990508e+003
1.000562e+003, 2.983378e+003
1.001044e+003, 2.975802e+003
1.001526e+003, 2.969032e+003
1.002009e+003, 2.961927e+003
1.002491e+003, 2.953394e+003
1.002973e+003, 2.943114e+003
1.003455e+003, 2.933365e+003
1.003937e+003, 2.923938e+003
1.004419e+003, 2.915913e+003
1.004901e+003, 2.910188e+003
1.005383e+003, 2.905776e+003
1.005865e+003, 2.900871e+003
1.006348e+003, 2.895378e+003
1.006830e+003, 2.888866e+003
1.007312e+003, 2.880793e+003
1.007794e+003, 2.872159e+003
1.008276e+003, 2.861054e+003
1.008758e+003, 2.850782e+003
1.009240e+003, 2.845708e+003
1.009722e+003, 2.846635e+003
1.010205e+003, 2.844110e+003
1.010687e+003, 2.837223e+003
1.011169e+003, 2.829469e+003
1.011651e+003, 2.823976e+003
1.012133e+003, 2.819187e+003
1.012615e+003, 2.813230e+003
1.013097e+003, 2.806086e+003
1.013579e+003, 2.799520e+003
1.014061e+003, 2.794875e+003
1.014544e+003, 2.789065e+003
1.015026e+003, 2.780856e+003
1.015508e+003, 2.771336e+003
1.015990e+003, 2.762610e+003
1.016472e+003, 2.754714e+003
1.016954e+003, 2.748022e+003
1.017436e+003, 2.743251e+003
1.017918e+003, 2.737971e+003
1.018401e+003, 2.729681e+003
1.018883e+003, 2.720751e+003
1.019365e+003, 2.713508e+003
1.019847e+003, 2.708329e+003
1.020329e+003, 2.703333e+003
1.020811e+003, 2.698593e+003
1.021293e+003, 2.693741e+003
1.021775e+003, 2.688180e+003
1.022257e+003, 2.682544e+003
1.022740e+003, 2.678270e+003
1.023222e+003, 2.674825e+003
1.023704e+003, 2.670143e+003
1.024186e+003, 2.662050e+003
1.024668e+003, 2.654463e+003
1.025150e+003, 2.648419e+003
1.025632e+003, 2.643036e+003
1.026114e+003, 2.636610e+003
1.026596e+003, 2.629395e+003
1.027079e+003, 2.622968e+003
1.027561e+003, 2.617634e+003
1.028043e+003, 2.612629e+003
1.028525e+003, 2.607531e+003
1.029007e+003, 2.602340e+003
1.029489e+003, 2.597131e+003
1.029971e+003, 2.591947e+003
1.030453e+003, 2.586546e+003
1.030936e+003, 2.580864e+003
1.031418e+003, 2.575207e+003
1.031900e+003, 2.569662e+003
1.032382e+003, 2.564181e+003
1.032864e+003, 2.558554e+003
1.033346e+003, 2.552958e+003
1.033828e+003, 2.547985e+003
1.034310e+003, 2.544876e+003
1.034792e+003, 2.540815e+003
1.035275e+003, 2.534177e+003
1.035757e+003, 2.527165e+003
1.036239e+003, 2.522022e+003
1.036721e+003, 2.518802e+003
1.037203e+003, 2.513183e+003
1.037685e+003, 2.505160e+003
1.038167e+003, 2.497435e+003
1.038649e+003, 2.492220e+003
1.039132e+003, 2.488007e+003
1.039614e+003, 2.483486e+003
1.040096e+003, 2.478829e+003
1.040578e+003, 2.475198e+003
1.041060e+003, 2.473638e+003
1.041542e+003, 2.469994e+003
1.042024e+003, 2.462628e+003
1.042506e+003, 2.454534e+003
1.042989e+003, 2.450603e+003
1.043471e+003, 2.449123e+003
1.043953e+003, 2.446312e+003
1.044435e+003, 2.441041e+003
1.044917e+003, 2.436494e+003
1.045399e+003, 2.435228e+003
1.045881e+003, 2.433550e+003
1.046363e+003, 2.429516e+003
1.046845e+003, 2.423436e+003
1.047328e+003, 2.417380e+003
1.047810e+003, 2.411356e+003
1.048292e+003, 2.406401e+003
1.048774e+003, 2.404157e+003
1.049256e+003, 2.401542e+003
1.049738e+003, 2.394979e+003
1.050220e+003, 2.386766e+003
1.050702e+003, 2.380716e+003
1.051184e+003, 2.378604e+003
1.051667e+003, 2.374871e+003
1.052149e+003, 2.368937e+003
1.052631e+003, 2.362843e+003
1.053113e+003, 2.358310e+003
1.053595e+003, 2.354760e+003
1.054077e+003, 2.351203e+003
1.054559e+003, 2.347553e+003
1.055041e+003, 2.343686e+003
1.055523e+003, 2.339265e+003
1.056006e+003, 2.335046e+003
1.056488e+003, 2.331688e+003
1.056970e+003, 2.328303e+003
1.057452e+003, 2.322315e+003
1.057934e+003, 2.314198e+003
1.058416e+003, 2.308456e+003
1.058898e+003, 2.306245e+003
1.059380e+003, 2.304647e+003
1.059863e+003, 2.301818e+003
1.060345e+003, 2.298294e+003
1.060827e+003, 2.294059e+003
1.061309e+003, 2.289074e+003
1.061791e+003, 2.286303e+003
1.062273e+003, 2.286330e+003
1.062755e+003, 2.285642e+003
1.063237e+003, 2.282418e+003
1.063719e+003, 2.277984e+003
1.064202e+003, 2.273705e+003
1.064684e+003, 2.269861e+003
1.065166e+003, 2.267093e+003
1.065648e+003, 2.267339e+003
1.066130e+003, 2.265499e+003
1.066612e+003, 2.260298e+003
1.067094e+003, 2.254186e+003
1.067576e+003, 2.248666e+003
1.068059e+003, 2.243866e+003
1.068541e+003, 2.241482e+003
1.069023e+003, 2.241166e+003
1.069505e+003, 2.240077e+003
1.069987e+003, 2.236068e+003
1.070469e+003, 2.231344e+003
1.070951e+003, 2.227048e+003
1.071433e+003, 2.222874e+003
1.071916e+003, 2.218088e+003
1.072398e+003, 2.212560e+003
1.072880e+003, 2.207857e+003
1.073362e+003, 2.204228e+003
1.073844e+003, 2.201488e+003
1.074326e+003, 2.200723e+003
1.074808e+003, 2.199992e+003
1.075290e+003, 2.196508e+003
1.075772e+003, 2.190083e+003
1.076255e+003, 2.186270e+003
1.076737e+003, 2.186948e+003
1.077219e+003, 2.186550e+003
1.077701e+003, 2.182744e+003
1.078183e+003, 2.177667e+003
1.078665e+003, 2.175927e+003
1.079147e+003, 2.176166e+003
1.079629e+003, 2.175249e+003
1.080111e+003, 2.172152e+003
1.080594e+003, 2.168315e+003
1.081076e+003, 2.163085e+003
1.081558e+003, 2.158295e+003
1.082040e+003, 2.155109e+003
1.082522e+003, 2.153391e+003
1.083004e+003, 2.152824e+003
1.083486e+003, 2.153123e+003
1.083968e+003, 2.151699e+003
1.084450e+003, 2.145182e+003
1.084933e+003, 2.138625e+003
1.085415e+003, 2.135599e+003
1.085897e+003, 2.134501e+003
1.086379e+003, 2.132534e+003
1.086861e+003, 2.129298e+003
1.087343e+003, 2.126898e+003
1.087825e+003, 2.125633e+003
1.088307e+003, 2.123974e+003
1.088790e+003, 2.119813e+003
1.089272e+003, 2.115054e+003
1.089754e+003, 2.112475e+003
1.090236e+003, 2.111627e+003
1.090718e+003, 2.109297e+003
1.091200e+003, 2.103514e+003
1.091682e+003, 2.098848e+003
1.092164e+003, 2.096379e+003
1.092646e+003, 2.094759e+003
1.093129e+003, 2.091748e+003
1.093611e+003, 2.087982e+003
1.094093e+003, 2.084877e+003
1.094575e+003, 2.082633e+003
1.095057e+003, 2.081141e+003
1.095539e+003, 2.081907e+003
1.096021e+003, 2.081648e+003
1.096503e+003, 2.078757e+003
1.096986e+003, 2.073863e+003
1.097468e+003, 2.068777e+003
1.097950e+003, 2.063630e+003
1.098432e+003, 2.059736e+003
1.098914e+003, 2.057667e+003
1.099396e+003, 2.056462e+003
1.099878e+003, 2.056580e+003
1.100360e+003, 2.056445e+003
1.100843e+003, 2.054361e+003
1.101325e+003, 2.050129e+003
1.101807e+003, 2.045594e+003
1.102289e+003, 2.040568e+003
1.102771e+003, 2.037033e+003
1.103253e+003, 2.037479e+003
1.103735e+003, 2.038697e+003
1.104217e+003, 2.036158e+003
1.104699e+003, 2.031797e+003
1.105182e+003, 2.029377e+003
1.105664e+003, 2.033024e+003
1.106146e+003, 2.031717e+003
1.106628e+003, 2.023536e+003
1.107110e+003, 2.014794e+003
1.107592e+003, 2.011137e+003
1.108074e+003, 2.010935e+003
1.108556e+003, 2.011158e+003
1.109038e+003, 2.011590e+003
1.109521e+003, 2.011876e+003
1.110003e+003, 2.013079e+003
1.110485e+003, 2.012260e+003
1.110967e+003, 2.007837e+003
1.111449e+003, 2.002386e+003
1.111931e+003, 2.000441e+003
1.112413e+003, 2.000998e+003
1.112895e+003, 1.999076e+003
1.113377e+003, 1.994033e+003
1.113860e+003, 1.989426e+003
1.114342e+003, 1.987446e+003
1.114824e+003, 1.986527e+003
1.115306e+003, 1.986180e+003
1.115788e+003, 1.986148e+003
1.116270e+003, 1.986214e+003
1.116752e+003, 1.986336e+003
1.117234e+003, 1.983180e+003
1.117717e+003, 1.974788e+003
1.118199e+003, 1.967555e+003
1.118681e+003, 1.969156e+003
1.119163e+003, 1.973210e+003
1.119645e+003, 1.973396e+003
1.120127e+003, 1.969184e+003
1.120609e+003, 1.965802e+003
1.121091e+003, 1.963122e+003
1.121573e+003, 1.962245e+003
1.122056e+003, 1.965043e+003
1.122538e+003, 1.967568e+003
1.123020e+003, 1.963151e+003
1.123502e+003, 1.955593e+003
1.123984e+003, 1.950984e+003
1.124466e+003, 1.952744e+003
1.124948e+003, 1.952433e+003
1.125430e+003, 1.949285e+003
1.125913e+003, 1.945856e+003
1.126395e+003, 1.943920e+003
1.126877e+003, 1.942911e+003
1.127359e+003, 1.941802e+003
1.127841e+003, 1.940511e+003
1.128323e+003, 1.938781e+003
1.128805e+003, 1.935384e+003
1.129287e+003, 1.933365e+003
1.129770e+003, 1.934114e+003
1.130252e+003, 1.934749e+003
1.130734e+003, 1.931676e+003
1.131216e+003, 1.926041e+003
1.131698e+003, 1.922563e+003
1.132180e+003, 1.921173e+003
1.132662e+003, 1.920060e+003
1.133144e+003, 1.918379e+003
1.133626e+003, 1.916556e+003
1.134109e+003, 1.914239e+003
1.134591e+003, 1.912168e+003
1.135073e+003, 1.911784e+003
1.135555e+003, 1.912923e+003
1.136037e+003, 1.913826e+003
1.136519e+003, 1.914318e+003
1.137001e+003, 1.913912e+003
1.137483e+003, 1.912133e+003
1.137965e+003, 1.909529e+003
1.138448e+003, 1.906363e+003
1.138930e+003, 1.902677e+003
1.139412e+003, 1.897925e+003
1.139894e+003, 1.891931e+003
1.140376e+003, 1.888567e+003
1.140858e+003, 1.888966e+003
1.141340e+003, 1.890514e+003
1.141822e+003, 1.892059e+003
1.142304e+003, 1.892680e+003
1.142787e+003, 1.891063e+003
1.143269e+003, 1.887177e+003
1.143751e+003, 1.884009e+003
1.144233e+003, 1.881564e+003
1.144715e+003, 1.879866e+003
1.145197e+003, 1.879204e+003
1.145679e+003, 1.878628e+003
1.146161e+003, 1.876115e+003
1.146644e+003, 1.873331e+003
1.147126e+003, 1.872747e+003
1.147608e+003, 1.875712e+003
1.148090e+003, 1.877230e+003
1.148572e+003, 1.877287e+003
1.149054e+003, 1.875561e+003
1.149536e+003, 1.871048e+003
1.150018e+003, 1.865670e+003
1.150500e+003, 1.862686e+003
1.150983e+003, 1.861396e+003
1.151465e+003, 1.860333e+003
1.151947e+003, 1.858808e+003
1.152429e+003, 1.858539e+003
1.152911e+003, 1.860929e+003
1.153393e+003, 1.861866e+003
1.153875e+003, 1.857073e+003
1.154357e+003, 1.849239e+003
1.154840e+003, 1.846180e+003
1.155322e+003, 1.846482e+003
1.155804e+003, 1.845786e+003
1.156286e+003, 1.840783e+003
1.156768e+003, 1.836870e+003
1.157250e+003, 1.834875e+003
1.157732e+003, 1.833990e+003
1.158214e+003, 1.834083e+003
1.158697e+003, 1.834662e+003
1.159179e+003, 1.833053e+003
1.159661e+003, 1.829662e+003
1.160143e+003, 1.827236e+003
1.160625e+003, 1.827820e+003
1.161107e+003, 1.828751e+003
1.161589e+003, 1.829402e+003
1.162071e+003, 1.829780e+003
1.162553e+003, 1.830216e+003
1.163036e+003, 1.830490e+003
1.163518e+003, 1.828453e+003
1.164000e+003, 1.824135e+003
1.164482e+003, 1.820786e+003
1.164964e+003, 1.821849e+003
1.165446e+003, 1.822737e+003
1.165928e+003, 1.820847e+003
1.166410e+003, 1.817643e+003
1.166892e+003, 1.815934e+003
1.167375e+003, 1.815592e+003
1.167857e+003, 1.814684e+003
1.168339e+003, 1.812930e+003
1.168821e+003, 1.811227e+003
1.169303e+003, 1.809857e+003
1.169785e+003, 1.809081e+003
1.170267e+003, 1.809017e+003
1.170749e+003, 1.809652e+003
1.171231e+003, 1.811872e+003
1.171714e+003, 1.815640e+003
1.172196e+003, 1.815965e+003
1.172678e+003, 1.811308e+003
1.173160e+003, 1.806339e+003
1.173642e+003, 1.804884e+003
1.174124e+003, 1.804887e+003
1.174606e+003, 1.805153e+003
1.175088e+003, 1.805462e+003
1.175571e+003, 1.804881e+003
1.176053e+003, 1.803386e+003
1.176535e+003, 1.801483e+003
1.177017e+003, 1.799120e+003
1.177499e+003, 1.797032e+003
1.177981e+003, 1.796413e+003
1.178463e+003, 1.796070e+003
1.178945e+003, 1.794572e+003
1.179427e+003, 1.791866e+003
1.179910e+003, 1.790190e+003
1.180392e+003, 1.789583e+003
1.180874e+003, 1.789514e+003
1.181356e+003, 1.790197e+003
1.181838e+003, 1.790358e+003
1.182320e+003, 1.788261e+003
1.182802e+003, 1.785098e+003
1.183284e+003, 1.781938e+003
1.183767e+003, 1.778692e+003
1.184249e+003, 1.777948e+003
1.184731e+003, 1.780335e+003
1.185213e+003, 1.780781e+003
1.185695e+003, 1.775738e+003
1.186177e+003, 1.769440e+003
1.186659e+003, 1.766867e+003
1.187141e+003, 1.766232e+003
1.187624e+003, 1.765043e+003
1.188106e+003, 1.762813e+003
1.188588e+003, 1.760689e+003
1.189070e+003, 1.758665e+003
1.189552e+003, 1.756966e+003
1.190034e+003, 1.755401e+003
1.190516e+003, 1.754606e+003
1.190998e+003, 1.756875e+003
1.191480e+003, 1.759995e+003
1.191963e+003, 1.759825e+003
1.192445e+003, 1.753301e+003
1.192927e+003, 1.749927e+003
1.193409e+003, 1.750037e+003
1.193891e+003, 1.751643e+003
1.194373e+003, 1.754927e+003
1.194855e+003, 1.757684e+003
1.195337e+003, 1.755802e+003
1.195819e+003, 1.751316e+003
1.196302e+003, 1.748932e+003
1.196784e+003, 1.751339e+003
1.197266e+003, 1.750828e+003
1.197748e+003, 1.746576e+003
1.198230e+003, 1.742290e+003
1.198712e+003, 1.741063e+003
1.199194e+003, 1.741508e+003
1.199676e+003, 1.742230e+003
1.200158e+003, 1.743077e+003
1.200641e+003, 1.743772e+003
1.201123e+003, 1.744834e+003
1.201605e+003, 1.744233e+003
1.202087e+003, 1.741432e+003
1.202569e+003, 1.738811e+003
1.203051e+003, 1.739337e+003
1.203533e+003, 1.740799e+003
1.204015e+003, 1.739817e+003
1.204498e+003, 1.737135e+003
1.204980e+003, 1.735722e+003
1.205462e+003, 1.736374e+003
1.205944e+003, 1.737520e+003
1.206426e+003, 1.739337e+003
1.206908e+003, 1.740395e+003
1.207390e+003, 1.737811e+003
1.207872e+003, 1.734625e+003
1.208354e+003, 1.736087e+003
1.208837e+003, 1.740869e+003
1.209319e+003, 1.741797e+003
1.209801e+003, 1.736359e+003
1.210283e+003, 1.731576e+003
1.210765e+003, 1.727991e+003
1.211247e+003, 1.726105e+003
1.211729e+003, 1.727482e+003
1.212211e+003, 1.730076e+003
1.212694e+003, 1.732015e+003
1.213176e+003, 1.732909e+003
1.213658e+003, 1.730901e+003
1.214140e+003, 1.724262e+003
1.214622e+003, 1.720330e+003
1.215104e+003, 1.720717e+003
1.215586e+003, 1.721764e+003
1.216068e+003, 1.718762e+003
1.216551e+003, 1.714687e+003
1.217033e+003, 1.713220e+003
1.217515e+003, 1.714319e+003
1.217997e+003, 1.715778e+003
1.218479e+003, 1.718226e+003
1.218961e+003, 1.717677e+003
1.219443e+003, 1.712598e+003
1.219925e+003, 1.708000e+003
1.220407e+003, 1.711524e+003
1.220890e+003, 1.717199e+003
1.221372e+003, 1.717647e+003
1.221854e+003, 1.712958e+003
1.222336e+003, 1.710281e+003
1.222818e+003, 1.710315e+003
1.223300e+003, 1.710648e+003
1.223782e+003, 1.710939e+003
1.224264e+003, 1.710819e+003
1.224746e+003, 1.709309e+003
1.225229e+003, 1.707602e+003
1.225711e+003, 1.707112e+003
1.226193e+003, 1.707829e+003
1.226675e+003, 1.708174e+003
1.227157e+003, 1.708248e+003
1.227639e+003, 1.707220e+003
1.228121e+003, 1.704686e+003
1.228603e+003, 1.702156e+003
1.229085e+003, 1.701244e+003
1.229568e+003, 1.701120e+003
1.230050e+003, 1.701136e+003
1.230532e+003, 1.701213e+003
1.231014e+003, 1.701085e+003
1.231496e+003, 1.700629e+003
1.231978e+003, 1.701258e+003
1.232460e+003, 1.703633e+003
1.232942e+003, 1.705432e+003
1.233425e+003, 1.704090e+003
1.233907e+003, 1.701458e+003
1.234389e+003, 1.698580e+003
1.234871e+003, 1.695808e+003
1.235353e+003, 1.694886e+003
1.235835e+003, 1.695906e+003
1.236317e+003, 1.696921e+003
1.236799e+003, 1.697369e+003
1.237281e+003, 1.698292e+003
1.237764e+003, 1.702795e+003
1.238246e+003, 1.706234e+003
1.238728e+003, 1.703051e+003
1.239210e+003, 1.695484e+003
1.239692e+003, 1.693459e+003
1.240174e+003, 1.696750e+003
1.240656e+003, 1.698372e+003
1.241138e+003, 1.696317e+003
1.241621e+003, 1.694431e+003
1.242103e+003, 1.696342e+003
1.242585e+003, 1.698639e+003
1.243067e+003, 1.698754e+003
1.243549e+003, 1.697438e+003
1.244031e+003, 1.697479e+003
1.244513e+003, 1.698763e+003
1.244995e+003, 1.700563e+003
1.245478e+003, 1.702787e+003
1.245960e+003, 1.705013e+003
1.246442e+003, 1.708685e+003
1.246924e+003, 1.710302e+003
1.247406e+003, 1.707839e+003
1.247888e+003, 1.702378e+003
1.248370e+003, 1.696188e+003
1.248852e+003, 1.689921e+003
1.249334e+003, 1.686557e+003
1.249817e+003, 1.687150e+003
1.250299e+003, 1.688285e+003
1.250781e+003, 1.688750e+003
1.251263e+003, 1.688978e+003
1.251745e+003, 1.689293e+003
1.252227e+003, 1.689393e+003
1.252709e+003, 1.688465e+003
1.253191e+003, 1.686684e+003
1.253673e+003, 1.684205e+003
1.254156e+003, 1.680813e+003
1.254638e+003, 1.678765e+003
1.255120e+003, 1.679185e+003
1.255602e+003, 1.680544e+003
1.256084e+003, 1.682844e+003
1.256566e+003, 1.685084e+003
1.257048e+003, 1.684728e+003
1.257530e+003, 1.682929e+003
1.258012e+003, 1.682094e+003
1.258495e+003, 1.682709e+003
1.258977e+003, 1.683342e+003
1.259459e+003, 1.683950e+003
1.259941e+003, 1.683958e+003
1.260423e+003, 1.682839e+003
1.260905e+003, 1.681738e+003
1.261387e+003, 1.683181e+003
1.261869e+003, 1.685500e+003
1.262352e+003, 1.686025e+003
1.262834e+003, 1.684242e+003
1.263316e+003, 1.683361e+003
1.263798e+003, 1.684125e+003
1.264280e+003, 1.683600e+003
1.264762e+003, 1.680573e+003
1.265244e+003, 1.677104e+003
1.265726e+003, 1.675341e+003
1.266208e+003, 1.674742e+003
1.266691e+003, 1.674993e+003
1.267173e+003, 1.676024e+003
1.267655e+003, 1.676594e+003
1.268137e+003, 1.676707e+003
1.268619e+003, 1.676197e+003
1.269101e+003, 1.674802e+003
1.269583e+003, 1.673732e+003
1.270065e+003, 1.674981e+003
1.270548e+003, 1.676365e+003
1.271030e+003, 1.675525e+003
1.271512e+003, 1.673032e+003
1.271994e+003, 1.671492e+003
1.272476e+003, 1.670894e+003
1.272958e+003, 1.670029e+003
1.273440e+003, 1.668546e+003
1.273922e+003, 1.667520e+003
1.274405e+003, 1.668773e+003
1.274887e+003, 1.669627e+003
1.275369e+003, 1.668001e+003
1.275851e+003, 1.665110e+003
1.276333e+003, 1.664588e+003
1.276815e+003, 1.665951e+003
1.277297e+003, 1.666603e+003
1.277779e+003, 1.665999e+003
1.278261e+003, 1.665582e+003
1.278744e+003, 1.666347e+003
1.279226e+003, 1.667056e+003
1.279708e+003, 1.667062e+003
1.280190e+003, 1.666933e+003
1.280672e+003, 1.668101e+003
1.281154e+003, 1.669964e+003
1.281636e+003, 1.671220e+003
1.282118e+003, 1.671679e+003
1.282600e+003, 1.670830e+003
1.283083e+003, 1.667516e+003
1.283565e+003, 1.664648e+003
1.284047e+003, 1.663011e+003
1.284529e+003, 1.661787e+003
1.285011e+003, 1.659130e+003
1.285493e+003, 1.656486e+003
1.285975e+003, 1.656937e+003
1.286457e+003, 1.660409e+003
1.286939e+003, 1.661317e+003
1.287422e+003, 1.658358e+003
1.287904e+003, 1.656132e+003
1.288386e+003, 1.655549e+003
1.288868e+003, 1.655811e+003
1.289350e+003, 1.656226e+003
1.289832e+003, 1.656906e+003
1.290314e+003, 1.658620e+003
1.290796e+003, 1.660723e+003
1.291279e+003, 1.660144e+003
1.291761e+003, 1.656428e+003
1.292243e+003, 1.654577e+003
1.292725e+003, 1.655353e+003
1.293207e+003, 1.656563e+003
1.293689e+003, 1.656253e+003
1.294171e+003, 1.655921e+003
1.294653e+003, 1.657366e+003
1.295135e+003, 1.659047e+003
1.295618e+003, 1.657730e+003
1.296100e+003, 1.653832e+003
1.296582e+003, 1.651285e+003
1.297064e+003, 1.650625e+003
1.297546e+003, 1.651538e+003
1.298028e+003, 1.655509e+003
1.298510e+003, 1.658056e+003
1.298992e+003, 1.657587e+003
1.299475e+003, 1.655893e+003
1.299957e+003, 1.655279e+003
1.300439e+003, 1.655375e+003
1.300921e+003, 1.654242e+003
1.301403e+003, 1.652365e+003
1.301885e+003, 1.652489e+003
##END=



