##NAMES=Fergusonite-(Ce)
##RRUFFID=R110050
##IDEAL CHEMISTRY=Ce^3+^Nb^5+^O_4_&#183;0.3H_2_O
##LOCALITY=Mount Malosa, Zomba District, Malawi
##OWNER=RRUFF
##SOURCE=Donald M Doell
##DESCRIPTION=Brown prismatic crystals on microcline, associated with zircon
##STATUS=The identification of this mineral has been confirmed only by single crystal X-ray diffraction.
##URL=rruff.info/R110050
8.975323e+001, 0.000000e+000
9.023535e+001, 6.551869e+003
9.071747e+001, 6.433009e+003
9.119958e+001, 6.365573e+003
9.168170e+001, 6.511476e+003
9.216382e+001, 6.652047e+003
9.264594e+001, 6.737625e+003
9.312805e+001, 6.781513e+003
9.361017e+001, 6.809263e+003
9.409229e+001, 6.822148e+003
9.457440e+001, 6.813380e+003
9.505651e+001, 6.800227e+003
9.553863e+001, 6.785651e+003
9.602074e+001, 6.772579e+003
9.650286e+001, 6.764659e+003
9.698498e+001, 6.759181e+003
9.746709e+001, 6.741426e+003
9.794921e+001, 6.720483e+003
9.843133e+001, 6.689611e+003
9.891344e+001, 6.666024e+003
9.939556e+001, 6.653639e+003
9.987768e+001, 6.649901e+003
1.003598e+002, 6.649964e+003
1.008419e+002, 6.650311e+003
1.013240e+002, 6.652530e+003
1.018061e+002, 6.660308e+003
1.022883e+002, 6.677150e+003
1.027704e+002, 6.696271e+003
1.032525e+002, 6.709776e+003
1.037346e+002, 6.715824e+003
1.042167e+002, 6.724335e+003
1.046988e+002, 6.742153e+003
1.051810e+002, 6.764867e+003
1.056631e+002, 6.786653e+003
1.061452e+002, 6.803298e+003
1.066273e+002, 6.816553e+003
1.071094e+002, 6.834431e+003
1.075915e+002, 6.859561e+003
1.080737e+002, 6.886081e+003
1.085558e+002, 6.912776e+003
1.090379e+002, 6.938914e+003
1.095200e+002, 6.962884e+003
1.100021e+002, 6.982643e+003
1.104842e+002, 6.996865e+003
1.109664e+002, 7.013340e+003
1.114485e+002, 7.029886e+003
1.119306e+002, 7.050129e+003
1.124127e+002, 7.077834e+003
1.128948e+002, 7.112420e+003
1.133769e+002, 7.149375e+003
1.138591e+002, 7.181763e+003
1.143412e+002, 7.205975e+003
1.148233e+002, 7.232213e+003
1.153054e+002, 7.262573e+003
1.157875e+002, 7.293913e+003
1.162696e+002, 7.322473e+003
1.167517e+002, 7.346781e+003
1.172339e+002, 7.369451e+003
1.177160e+002, 7.396716e+003
1.181981e+002, 7.428843e+003
1.186802e+002, 7.463107e+003
1.191623e+002, 7.499620e+003
1.196444e+002, 7.537657e+003
1.201266e+002, 7.575647e+003
1.206087e+002, 7.612563e+003
1.210908e+002, 7.648904e+003
1.215729e+002, 7.686088e+003
1.220550e+002, 7.724885e+003
1.225371e+002, 7.763065e+003
1.230193e+002, 7.797537e+003
1.235014e+002, 7.827859e+003
1.239835e+002, 7.858768e+003
1.244656e+002, 7.891275e+003
1.249477e+002, 7.925848e+003
1.254298e+002, 7.963778e+003
1.259120e+002, 8.005657e+003
1.263941e+002, 8.050563e+003
1.268762e+002, 8.096507e+003
1.273583e+002, 8.146348e+003
1.278404e+002, 8.192473e+003
1.283225e+002, 8.231635e+003
1.288047e+002, 8.266859e+003
1.292868e+002, 8.301843e+003
1.297689e+002, 8.338922e+003
1.302510e+002, 8.377975e+003
1.307331e+002, 8.416896e+003
1.312152e+002, 8.456956e+003
1.316974e+002, 8.495935e+003
1.321795e+002, 8.530579e+003
1.326616e+002, 8.563250e+003
1.331437e+002, 8.599216e+003
1.336258e+002, 8.643738e+003
1.341079e+002, 8.698962e+003
1.345901e+002, 8.750003e+003
1.350722e+002, 8.795978e+003
1.355543e+002, 8.839541e+003
1.360364e+002, 8.881350e+003
1.365185e+002, 8.921748e+003
1.370006e+002, 8.961774e+003
1.374828e+002, 9.002448e+003
1.379649e+002, 9.044535e+003
1.384470e+002, 9.083436e+003
1.389291e+002, 9.115872e+003
1.394112e+002, 9.146323e+003
1.398933e+002, 9.180749e+003
1.403755e+002, 9.220980e+003
1.408576e+002, 9.262600e+003
1.413397e+002, 9.299214e+003
1.418218e+002, 9.331237e+003
1.423039e+002, 9.363252e+003
1.427860e+002, 9.397551e+003
1.432681e+002, 9.433382e+003
1.437503e+002, 9.468542e+003
1.442324e+002, 9.503478e+003
1.447145e+002, 9.536045e+003
1.451966e+002, 9.563568e+003
1.456787e+002, 9.586035e+003
1.461608e+002, 9.609206e+003
1.466430e+002, 9.639702e+003
1.471251e+002, 9.678730e+003
1.476072e+002, 9.713480e+003
1.480893e+002, 9.737662e+003
1.485714e+002, 9.759377e+003
1.490535e+002, 9.783677e+003
1.495357e+002, 9.811333e+003
1.500178e+002, 9.838616e+003
1.504999e+002, 9.858729e+003
1.509820e+002, 9.866504e+003
1.514641e+002, 9.878813e+003
1.519462e+002, 9.897881e+003
1.524284e+002, 9.920798e+003
1.529105e+002, 9.947804e+003
1.533926e+002, 9.978467e+003
1.538747e+002, 1.000881e+004
1.543568e+002, 1.002854e+004
1.548389e+002, 1.002321e+004
1.553211e+002, 1.002373e+004
1.558032e+002, 1.003368e+004
1.562853e+002, 1.004954e+004
1.567674e+002, 1.006785e+004
1.572495e+002, 1.008712e+004
1.577316e+002, 1.010651e+004
1.582138e+002, 1.012236e+004
1.586959e+002, 1.013275e+004
1.591780e+002, 1.014233e+004
1.596601e+002, 1.015029e+004
1.601422e+002, 1.015804e+004
1.606243e+002, 1.016898e+004
1.611065e+002, 1.018550e+004
1.615886e+002, 1.020659e+004
1.620707e+002, 1.022657e+004
1.625528e+002, 1.024887e+004
1.630349e+002, 1.026713e+004
1.635170e+002, 1.027455e+004
1.639991e+002, 1.027230e+004
1.644813e+002, 1.027185e+004
1.649634e+002, 1.028139e+004
1.654455e+002, 1.029766e+004
1.659276e+002, 1.031241e+004
1.664097e+002, 1.032295e+004
1.668918e+002, 1.033314e+004
1.673740e+002, 1.034841e+004
1.678561e+002, 1.037007e+004
1.683382e+002, 1.039033e+004
1.688203e+002, 1.040225e+004
1.693024e+002, 1.041047e+004
1.697845e+002, 1.042086e+004
1.702667e+002, 1.043683e+004
1.707488e+002, 1.045551e+004
1.712309e+002, 1.046971e+004
1.717130e+002, 1.047649e+004
1.721951e+002, 1.048414e+004
1.726772e+002, 1.049563e+004
1.731594e+002, 1.051001e+004
1.736415e+002, 1.052612e+004
1.741236e+002, 1.054333e+004
1.746057e+002, 1.056171e+004
1.750878e+002, 1.058143e+004
1.755699e+002, 1.060616e+004
1.760521e+002, 1.062807e+004
1.765342e+002, 1.064285e+004
1.770163e+002, 1.065354e+004
1.774984e+002, 1.066539e+004
1.779805e+002, 1.068257e+004
1.784626e+002, 1.070518e+004
1.789448e+002, 1.072578e+004
1.794269e+002, 1.074304e+004
1.799090e+002, 1.075964e+004
1.803911e+002, 1.077545e+004
1.808732e+002, 1.079108e+004
1.813553e+002, 1.080737e+004
1.818375e+002, 1.082491e+004
1.823196e+002, 1.084361e+004
1.828017e+002, 1.086459e+004
1.832838e+002, 1.088964e+004
1.837659e+002, 1.091468e+004
1.842480e+002, 1.093827e+004
1.847301e+002, 1.096004e+004
1.852123e+002, 1.097947e+004
1.856944e+002, 1.099538e+004
1.861765e+002, 1.100705e+004
1.866586e+002, 1.102196e+004
1.871407e+002, 1.104304e+004
1.876228e+002, 1.106503e+004
1.881050e+002, 1.108402e+004
1.885871e+002, 1.109954e+004
1.890692e+002, 1.111383e+004
1.895513e+002, 1.112840e+004
1.900334e+002, 1.114334e+004
1.905155e+002, 1.115996e+004
1.909977e+002, 1.118101e+004
1.914798e+002, 1.120258e+004
1.919619e+002, 1.121928e+004
1.924440e+002, 1.122970e+004
1.929261e+002, 1.123988e+004
1.934082e+002, 1.125669e+004
1.938904e+002, 1.127831e+004
1.943725e+002, 1.129972e+004
1.948546e+002, 1.132138e+004
1.953367e+002, 1.134158e+004
1.958188e+002, 1.135586e+004
1.963009e+002, 1.136123e+004
1.967831e+002, 1.136646e+004
1.972652e+002, 1.137902e+004
1.977473e+002, 1.139670e+004
1.982294e+002, 1.141382e+004
1.987115e+002, 1.142614e+004
1.991936e+002, 1.143523e+004
1.996758e+002, 1.144798e+004
2.001579e+002, 1.146661e+004
2.006400e+002, 1.148628e+004
2.011221e+002, 1.150554e+004
2.016042e+002, 1.152372e+004
2.020863e+002, 1.153910e+004
2.025685e+002, 1.154966e+004
2.030506e+002, 1.155571e+004
2.035327e+002, 1.156208e+004
2.040148e+002, 1.156662e+004
2.044969e+002, 1.157392e+004
2.049790e+002, 1.158815e+004
2.054612e+002, 1.160671e+004
2.059433e+002, 1.162350e+004
2.064254e+002, 1.163270e+004
2.069075e+002, 1.163376e+004
2.073896e+002, 1.163772e+004
2.078717e+002, 1.164959e+004
2.083539e+002, 1.165993e+004
2.088360e+002, 1.166505e+004
2.093181e+002, 1.166586e+004
2.098002e+002, 1.166551e+004
2.102823e+002, 1.166694e+004
2.107644e+002, 1.167056e+004
2.112466e+002, 1.167228e+004
2.117287e+002, 1.166858e+004
2.122108e+002, 1.166650e+004
2.126929e+002, 1.166973e+004
2.131750e+002, 1.167743e+004
2.136571e+002, 1.168642e+004
2.141393e+002, 1.169405e+004
2.146214e+002, 1.170052e+004
2.151035e+002, 1.170388e+004
2.155856e+002, 1.170399e+004
2.160677e+002, 1.170200e+004
2.165498e+002, 1.169653e+004
2.170320e+002, 1.168876e+004
2.175141e+002, 1.168289e+004
2.179962e+002, 1.168328e+004
2.184783e+002, 1.169099e+004
2.189604e+002, 1.169522e+004
2.194425e+002, 1.169342e+004
2.199247e+002, 1.169063e+004
2.204068e+002, 1.168975e+004
2.208889e+002, 1.169086e+004
2.213710e+002, 1.169259e+004
2.218531e+002, 1.169397e+004
2.223352e+002, 1.169490e+004
2.228174e+002, 1.169472e+004
2.232995e+002, 1.169405e+004
2.237816e+002, 1.169184e+004
2.242637e+002, 1.168600e+004
2.247458e+002, 1.167671e+004
2.252279e+002, 1.166833e+004
2.257100e+002, 1.166496e+004
2.261922e+002, 1.166608e+004
2.266743e+002, 1.166593e+004
2.271564e+002, 1.166387e+004
2.276385e+002, 1.166058e+004
2.281206e+002, 1.165603e+004
2.286027e+002, 1.165015e+004
2.290849e+002, 1.164528e+004
2.295670e+002, 1.164470e+004
2.300491e+002, 1.164647e+004
2.305312e+002, 1.164512e+004
2.310133e+002, 1.163709e+004
2.314954e+002, 1.162704e+004
2.319776e+002, 1.162091e+004
2.324597e+002, 1.161939e+004
2.329418e+002, 1.161703e+004
2.334239e+002, 1.160944e+004
2.339060e+002, 1.159884e+004
2.343881e+002, 1.158811e+004
2.348703e+002, 1.157634e+004
2.353524e+002, 1.156611e+004
2.358345e+002, 1.156220e+004
2.363166e+002, 1.156634e+004
2.367987e+002, 1.156940e+004
2.372808e+002, 1.156587e+004
2.377630e+002, 1.155882e+004
2.382451e+002, 1.155126e+004
2.387272e+002, 1.154422e+004
2.392093e+002, 1.153685e+004
2.396914e+002, 1.152723e+004
2.401735e+002, 1.151420e+004
2.406557e+002, 1.150266e+004
2.411378e+002, 1.149626e+004
2.416199e+002, 1.149151e+004
2.421020e+002, 1.148474e+004
2.425841e+002, 1.147431e+004
2.430662e+002, 1.146283e+004
2.435484e+002, 1.145517e+004
2.440305e+002, 1.145315e+004
2.445126e+002, 1.145017e+004
2.449947e+002, 1.144459e+004
2.454768e+002, 1.143733e+004
2.459589e+002, 1.142860e+004
2.464410e+002, 1.141834e+004
2.469232e+002, 1.140788e+004
2.474053e+002, 1.140005e+004
2.478874e+002, 1.139741e+004
2.483695e+002, 1.139103e+004
2.488516e+002, 1.137483e+004
2.493337e+002, 1.135739e+004
2.498159e+002, 1.134607e+004
2.502980e+002, 1.134296e+004
2.507801e+002, 1.134338e+004
2.512622e+002, 1.133943e+004
2.517443e+002, 1.132912e+004
2.522264e+002, 1.131870e+004
2.527086e+002, 1.130789e+004
2.531907e+002, 1.129770e+004
2.536728e+002, 1.128906e+004
2.541549e+002, 1.128215e+004
2.546370e+002, 1.127602e+004
2.551191e+002, 1.126923e+004
2.556013e+002, 1.126145e+004
2.560834e+002, 1.125379e+004
2.565655e+002, 1.124674e+004
2.570476e+002, 1.123955e+004
2.575297e+002, 1.123106e+004
2.580118e+002, 1.122142e+004
2.584940e+002, 1.121229e+004
2.589761e+002, 1.120629e+004
2.594582e+002, 1.120563e+004
2.599403e+002, 1.120248e+004
2.604224e+002, 1.119598e+004
2.609045e+002, 1.118823e+004
2.613867e+002, 1.117946e+004
2.618688e+002, 1.117029e+004
2.623509e+002, 1.116278e+004
2.628330e+002, 1.116004e+004
2.633151e+002, 1.116534e+004
2.637972e+002, 1.116297e+004
2.642794e+002, 1.114704e+004
2.647615e+002, 1.113000e+004
2.652436e+002, 1.111840e+004
2.657257e+002, 1.111255e+004
2.662078e+002, 1.110927e+004
2.666899e+002, 1.110559e+004
2.671721e+002, 1.110135e+004
2.676542e+002, 1.109782e+004
2.681363e+002, 1.109571e+004
2.686184e+002, 1.109351e+004
2.691005e+002, 1.109200e+004
2.695826e+002, 1.109013e+004
2.700648e+002, 1.108451e+004
2.705469e+002, 1.107140e+004
2.710290e+002, 1.105036e+004
2.715111e+002, 1.103688e+004
2.719932e+002, 1.103661e+004
2.724753e+002, 1.103658e+004
2.729575e+002, 1.103006e+004
2.734396e+002, 1.101900e+004
2.739217e+002, 1.101024e+004
2.744038e+002, 1.100929e+004
2.748859e+002, 1.101490e+004
2.753680e+002, 1.101138e+004
2.758501e+002, 1.098873e+004
2.763322e+002, 1.097002e+004
2.768144e+002, 1.096500e+004
2.772965e+002, 1.096978e+004
2.777786e+002, 1.097636e+004
2.782607e+002, 1.098124e+004
2.787428e+002, 1.098340e+004
2.792249e+002, 1.097752e+004
2.797071e+002, 1.095529e+004
2.801892e+002, 1.093645e+004
2.806713e+002, 1.092944e+004
2.811534e+002, 1.092876e+004
2.816355e+002, 1.092402e+004
2.821176e+002, 1.091030e+004
2.825998e+002, 1.089165e+004
2.830819e+002, 1.087893e+004
2.835640e+002, 1.087450e+004
2.840461e+002, 1.087039e+004
2.845282e+002, 1.086440e+004
2.850103e+002, 1.085799e+004
2.854925e+002, 1.085381e+004
2.859746e+002, 1.085297e+004
2.864567e+002, 1.085304e+004
2.869388e+002, 1.084930e+004
2.874209e+002, 1.084002e+004
2.879030e+002, 1.083323e+004
2.883852e+002, 1.083197e+004
2.888673e+002, 1.083317e+004
2.893494e+002, 1.083360e+004
2.898315e+002, 1.083258e+004
2.903136e+002, 1.082974e+004
2.907957e+002, 1.082379e+004
2.912779e+002, 1.081406e+004
2.917600e+002, 1.080623e+004
2.922421e+002, 1.080236e+004
2.927242e+002, 1.079971e+004
2.932063e+002, 1.079556e+004
2.936884e+002, 1.078952e+004
2.941706e+002, 1.078313e+004
2.946527e+002, 1.077748e+004
2.951348e+002, 1.077269e+004
2.956169e+002, 1.076937e+004
2.960990e+002, 1.076771e+004
2.965811e+002, 1.076743e+004
2.970633e+002, 1.077027e+004
2.975454e+002, 1.077564e+004
2.980275e+002, 1.077743e+004
2.985096e+002, 1.076970e+004
2.989917e+002, 1.075439e+004
2.994738e+002, 1.074491e+004
2.999560e+002, 1.074443e+004
3.004381e+002, 1.074678e+004
3.009202e+002, 1.074888e+004
3.014023e+002, 1.075085e+004
3.018844e+002, 1.075363e+004
3.023665e+002, 1.075825e+004
3.028487e+002, 1.076356e+004
3.033308e+002, 1.076620e+004
3.038129e+002, 1.076490e+004
3.042950e+002, 1.076328e+004
3.047771e+002, 1.076310e+004
3.052592e+002, 1.076383e+004
3.057414e+002, 1.076392e+004
3.062235e+002, 1.076244e+004
3.067056e+002, 1.076075e+004
3.071877e+002, 1.076220e+004
3.076698e+002, 1.076787e+004
3.081519e+002, 1.077189e+004
3.086341e+002, 1.077116e+004
3.091162e+002, 1.076784e+004
3.095983e+002, 1.076558e+004
3.100804e+002, 1.076538e+004
3.105625e+002, 1.076615e+004
3.110446e+002, 1.076614e+004
3.115268e+002, 1.076517e+004
3.120089e+002, 1.076617e+004
3.124910e+002, 1.077020e+004
3.129731e+002, 1.077623e+004
3.134552e+002, 1.078389e+004
3.139373e+002, 1.079319e+004
3.144195e+002, 1.080171e+004
3.149016e+002, 1.080710e+004
3.153837e+002, 1.080941e+004
3.158658e+002, 1.081099e+004
3.163479e+002, 1.081257e+004
3.168300e+002, 1.081308e+004
3.173121e+002, 1.081023e+004
3.177943e+002, 1.080439e+004
3.182764e+002, 1.080054e+004
3.187585e+002, 1.080244e+004
3.192406e+002, 1.080926e+004
3.197227e+002, 1.081547e+004
3.202048e+002, 1.082329e+004
3.206870e+002, 1.082849e+004
3.211691e+002, 1.082721e+004
3.216512e+002, 1.082103e+004
3.221333e+002, 1.081554e+004
3.226154e+002, 1.081355e+004
3.230975e+002, 1.081366e+004
3.235797e+002, 1.081202e+004
3.240618e+002, 1.080652e+004
3.245439e+002, 1.080392e+004
3.250260e+002, 1.080903e+004
3.255081e+002, 1.081832e+004
3.259902e+002, 1.082512e+004
3.264724e+002, 1.082721e+004
3.269545e+002, 1.082673e+004
3.274366e+002, 1.082644e+004
3.279187e+002, 1.082600e+004
3.284008e+002, 1.082717e+004
3.288829e+002, 1.083384e+004
3.293651e+002, 1.084061e+004
3.298472e+002, 1.084006e+004
3.303293e+002, 1.083088e+004
3.308114e+002, 1.081952e+004
3.312935e+002, 1.081180e+004
3.317756e+002, 1.080807e+004
3.322578e+002, 1.080653e+004
3.327399e+002, 1.080870e+004
3.332220e+002, 1.081177e+004
3.337041e+002, 1.081203e+004
3.341862e+002, 1.081026e+004
3.346683e+002, 1.081320e+004
3.351505e+002, 1.082759e+004
3.356326e+002, 1.085077e+004
3.361147e+002, 1.086307e+004
3.365968e+002, 1.085974e+004
3.370789e+002, 1.085222e+004
3.375610e+002, 1.084469e+004
3.380432e+002, 1.083665e+004
3.385253e+002, 1.082599e+004
3.390074e+002, 1.081105e+004
3.394895e+002, 1.079463e+004
3.399716e+002, 1.078492e+004
3.404537e+002, 1.078517e+004
3.409359e+002, 1.078517e+004
3.414180e+002, 1.078357e+004
3.419001e+002, 1.078050e+004
3.423822e+002, 1.077603e+004
3.428643e+002, 1.077021e+004
3.433464e+002, 1.076317e+004
3.438286e+002, 1.075492e+004
3.443107e+002, 1.074483e+004
3.447928e+002, 1.073529e+004
3.452749e+002, 1.072504e+004
3.457570e+002, 1.071626e+004
3.462391e+002, 1.071131e+004
3.467213e+002, 1.071003e+004
3.472034e+002, 1.070989e+004
3.476855e+002, 1.070898e+004
3.481676e+002, 1.070731e+004
3.486497e+002, 1.070383e+004
3.491318e+002, 1.069823e+004
3.496140e+002, 1.069159e+004
3.500961e+002, 1.068465e+004
3.505782e+002, 1.067714e+004
3.510603e+002, 1.066748e+004
3.515424e+002, 1.065428e+004
3.520245e+002, 1.063945e+004
3.525067e+002, 1.063129e+004
3.529888e+002, 1.063628e+004
3.534709e+002, 1.063989e+004
3.539530e+002, 1.064026e+004
3.544351e+002, 1.063836e+004
3.549172e+002, 1.063550e+004
3.553994e+002, 1.063209e+004
3.558815e+002, 1.062725e+004
3.563636e+002, 1.061927e+004
3.568457e+002, 1.060607e+004
3.573278e+002, 1.059369e+004
3.578099e+002, 1.057945e+004
3.582920e+002, 1.056777e+004
3.587741e+002, 1.056459e+004
3.592563e+002, 1.056849e+004
3.597384e+002, 1.057084e+004
3.602205e+002, 1.056264e+004
3.607026e+002, 1.054247e+004
3.611847e+002, 1.052537e+004
3.616668e+002, 1.051243e+004
3.621490e+002, 1.050123e+004
3.626311e+002, 1.049233e+004
3.631132e+002, 1.048447e+004
3.635953e+002, 1.047567e+004
3.640774e+002, 1.046462e+004
3.645595e+002, 1.045190e+004
3.650417e+002, 1.044002e+004
3.655238e+002, 1.043148e+004
3.660059e+002, 1.042019e+004
3.664880e+002, 1.040030e+004
3.669701e+002, 1.038006e+004
3.674522e+002, 1.036956e+004
3.679344e+002, 1.037145e+004
3.684165e+002, 1.037684e+004
3.688986e+002, 1.037107e+004
3.693807e+002, 1.034879e+004
3.698628e+002, 1.032988e+004
3.703449e+002, 1.031930e+004
3.708271e+002, 1.030844e+004
3.713092e+002, 1.029179e+004
3.717913e+002, 1.027008e+004
3.722734e+002, 1.024801e+004
3.727555e+002, 1.023020e+004
3.732376e+002, 1.021651e+004
3.737198e+002, 1.020061e+004
3.742019e+002, 1.017852e+004
3.746840e+002, 1.015934e+004
3.751661e+002, 1.014933e+004
3.756482e+002, 1.014328e+004
3.761303e+002, 1.013298e+004
3.766125e+002, 1.011378e+004
3.770946e+002, 1.008940e+004
3.775767e+002, 1.006723e+004
3.780588e+002, 1.004652e+004
3.785409e+002, 1.003018e+004
3.790230e+002, 1.002417e+004
3.795052e+002, 1.001954e+004
3.799873e+002, 1.000865e+004
3.804694e+002, 9.990029e+003
3.809515e+002, 9.969493e+003
3.814336e+002, 9.952940e+003
3.819157e+002, 9.940232e+003
3.823979e+002, 9.927444e+003
3.828800e+002, 9.914640e+003
3.833621e+002, 9.900787e+003
3.838442e+002, 9.884783e+003
3.843263e+002, 9.867168e+003
3.848084e+002, 9.849500e+003
3.852906e+002, 9.833199e+003
3.857727e+002, 9.817475e+003
3.862548e+002, 9.799817e+003
3.867369e+002, 9.779353e+003
3.872190e+002, 9.760310e+003
3.877011e+002, 9.747424e+003
3.881833e+002, 9.736818e+003
3.886654e+002, 9.722434e+003
3.891475e+002, 9.701036e+003
3.896296e+002, 9.679558e+003
3.901117e+002, 9.665990e+003
3.905938e+002, 9.659021e+003
3.910760e+002, 9.648263e+003
3.915581e+002, 9.629229e+003
3.920402e+002, 9.606331e+003
3.925223e+002, 9.586067e+003
3.930044e+002, 9.568812e+003
3.934865e+002, 9.550079e+003
3.939687e+002, 9.525501e+003
3.944508e+002, 9.499274e+003
3.949329e+002, 9.479329e+003
3.954150e+002, 9.467105e+003
3.958971e+002, 9.455854e+003
3.963792e+002, 9.438731e+003
3.968614e+002, 9.416458e+003
3.973435e+002, 9.398132e+003
3.978256e+002, 9.388103e+003
3.983077e+002, 9.378355e+003
3.987898e+002, 9.363797e+003
3.992719e+002, 9.344968e+003
3.997540e+002, 9.323856e+003
4.002361e+002, 9.300791e+003
4.007183e+002, 9.277093e+003
4.012004e+002, 9.257291e+003
4.016825e+002, 9.243288e+003
4.021646e+002, 9.229044e+003
4.026467e+002, 9.212553e+003
4.031288e+002, 9.195729e+003
4.036110e+002, 9.181655e+003
4.040931e+002, 9.170885e+003
4.045752e+002, 9.160218e+003
4.050573e+002, 9.146109e+003
4.055394e+002, 9.128488e+003
4.060215e+002, 9.107564e+003
4.065037e+002, 9.078907e+003
4.069858e+002, 9.051726e+003
4.074679e+002, 9.029949e+003
4.079500e+002, 9.013337e+003
4.084321e+002, 9.000973e+003
4.089142e+002, 8.992671e+003
4.093964e+002, 8.986815e+003
4.098785e+002, 8.975814e+003
4.103606e+002, 8.955192e+003
4.108427e+002, 8.934793e+003
4.113248e+002, 8.913376e+003
4.118069e+002, 8.893562e+003
4.122891e+002, 8.878777e+003
4.127712e+002, 8.869449e+003
4.132533e+002, 8.861724e+003
4.137354e+002, 8.850558e+003
4.142175e+002, 8.835185e+003
4.146996e+002, 8.819097e+003
4.151818e+002, 8.802040e+003
4.156639e+002, 8.784576e+003
4.161460e+002, 8.766732e+003
4.166281e+002, 8.748608e+003
4.171102e+002, 8.730343e+003
4.175923e+002, 8.711190e+003
4.180745e+002, 8.692574e+003
4.185566e+002, 8.679760e+003
4.190387e+002, 8.675780e+003
4.195208e+002, 8.671105e+003
4.200029e+002, 8.664001e+003
4.204850e+002, 8.654379e+003
4.209672e+002, 8.641435e+003
4.214493e+002, 8.624926e+003
4.219314e+002, 8.607325e+003
4.224135e+002, 8.590648e+003
4.228956e+002, 8.574954e+003
4.233777e+002, 8.561065e+003
4.238599e+002, 8.551022e+003
4.243420e+002, 8.540186e+003
4.248241e+002, 8.523861e+003
4.253062e+002, 8.503596e+003
4.257883e+002, 8.484832e+003
4.262704e+002, 8.470345e+003
4.267526e+002, 8.458460e+003
4.272347e+002, 8.447233e+003
4.277168e+002, 8.436661e+003
4.281989e+002, 8.425793e+003
4.286810e+002, 8.413902e+003
4.291631e+002, 8.401577e+003
4.296453e+002, 8.390243e+003
4.301274e+002, 8.380396e+003
4.306095e+002, 8.370361e+003
4.310916e+002, 8.359784e+003
4.315737e+002, 8.348379e+003
4.320558e+002, 8.334623e+003
4.325380e+002, 8.317767e+003
4.330201e+002, 8.301438e+003
4.335022e+002, 8.290314e+003
4.339843e+002, 8.285224e+003
4.344664e+002, 8.278880e+003
4.349485e+002, 8.270530e+003
4.354307e+002, 8.261208e+003
4.359128e+002, 8.251557e+003
4.363949e+002, 8.241541e+003
4.368770e+002, 8.230687e+003
4.373591e+002, 8.218575e+003
4.378412e+002, 8.205737e+003
4.383234e+002, 8.194409e+003
4.388055e+002, 8.187352e+003
4.392876e+002, 8.178295e+003
4.397697e+002, 8.162948e+003
4.402518e+002, 8.147718e+003
4.407339e+002, 8.140875e+003
4.412160e+002, 8.142971e+003
4.416982e+002, 8.145389e+003
4.421803e+002, 8.137602e+003
4.426624e+002, 8.117599e+003
4.431445e+002, 8.102185e+003
4.436266e+002, 8.094399e+003
4.441087e+002, 8.088236e+003
4.445909e+002, 8.082945e+003
4.450730e+002, 8.077921e+003
4.455551e+002, 8.072878e+003
4.460372e+002, 8.067945e+003
4.465193e+002, 8.061732e+003
4.470014e+002, 8.049837e+003
4.474836e+002, 8.028651e+003
4.479657e+002, 8.012613e+003
4.484478e+002, 8.009451e+003
4.489299e+002, 8.008523e+003
4.494120e+002, 8.002990e+003
4.498941e+002, 7.992649e+003
4.503763e+002, 7.982007e+003
4.508584e+002, 7.974951e+003
4.513405e+002, 7.970515e+003
4.518226e+002, 7.964506e+003
4.523047e+002, 7.955968e+003
4.527868e+002, 7.948054e+003
4.532690e+002, 7.944302e+003
4.537511e+002, 7.941904e+003
4.542332e+002, 7.936669e+003
4.547153e+002, 7.927075e+003
4.551974e+002, 7.915724e+003
4.556795e+002, 7.902889e+003
4.561617e+002, 7.889607e+003
4.566438e+002, 7.880879e+003
4.571259e+002, 7.879391e+003
4.576080e+002, 7.880238e+003
4.580901e+002, 7.877219e+003
4.585722e+002, 7.870538e+003
4.590544e+002, 7.862648e+003
4.595365e+002, 7.851718e+003
4.600186e+002, 7.841482e+003
4.605007e+002, 7.836386e+003
4.609828e+002, 7.835680e+003
4.614649e+002, 7.834349e+003
4.619471e+002, 7.829322e+003
4.624292e+002, 7.821319e+003
4.629113e+002, 7.813049e+003
4.633934e+002, 7.804851e+003
4.638755e+002, 7.795975e+003
4.643576e+002, 7.784587e+003
4.648398e+002, 7.773295e+003
4.653219e+002, 7.764542e+003
4.658040e+002, 7.758842e+003
4.662861e+002, 7.755874e+003
4.667682e+002, 7.755983e+003
4.672503e+002, 7.759960e+003
4.677325e+002, 7.758891e+003
4.682146e+002, 7.749805e+003
4.686967e+002, 7.738603e+003
4.691788e+002, 7.724396e+003
4.696609e+002, 7.709680e+003
4.701430e+002, 7.697744e+003
4.706252e+002, 7.690013e+003
4.711073e+002, 7.685823e+003
4.715894e+002, 7.685626e+003
4.720715e+002, 7.691678e+003
4.725536e+002, 7.691875e+003
4.730357e+002, 7.678751e+003
4.735179e+002, 7.664119e+003
4.740000e+002, 7.653734e+003
4.744821e+002, 7.647757e+003
4.749642e+002, 7.644597e+003
4.754463e+002, 7.645166e+003
4.759284e+002, 7.647344e+003
4.764106e+002, 7.646409e+003
4.768927e+002, 7.642085e+003
4.773748e+002, 7.636293e+003
4.778569e+002, 7.628568e+003
4.783390e+002, 7.620599e+003
4.788211e+002, 7.615617e+003
4.793033e+002, 7.615015e+003
4.797854e+002, 7.612671e+003
4.802675e+002, 7.602968e+003
4.807496e+002, 7.590056e+003
4.812317e+002, 7.581856e+003
4.817138e+002, 7.579851e+003
4.821959e+002, 7.579891e+003
4.826780e+002, 7.578898e+003
4.831602e+002, 7.576716e+003
4.836423e+002, 7.572383e+003
4.841244e+002, 7.563569e+003
4.846065e+002, 7.555276e+003
4.850886e+002, 7.550089e+003
4.855707e+002, 7.546650e+003
4.860529e+002, 7.542313e+003
4.865350e+002, 7.536089e+003
4.870171e+002, 7.529458e+003
4.874992e+002, 7.525033e+003
4.879813e+002, 7.524029e+003
4.884634e+002, 7.521845e+003
4.889456e+002, 7.518466e+003
4.894277e+002, 7.514177e+003
4.899098e+002, 7.508681e+003
4.903919e+002, 7.502436e+003
4.908740e+002, 7.496438e+003
4.913561e+002, 7.491410e+003
4.918383e+002, 7.486772e+003
4.923204e+002, 7.480438e+003
4.928025e+002, 7.470925e+003
4.932846e+002, 7.463921e+003
4.937667e+002, 7.463319e+003
4.942488e+002, 7.463751e+003
4.947310e+002, 7.462218e+003
4.952131e+002, 7.458358e+003
4.956952e+002, 7.452566e+003
4.961773e+002, 7.442722e+003
4.966594e+002, 7.431366e+003
4.971415e+002, 7.426757e+003
4.976237e+002, 7.430620e+003
4.981058e+002, 7.433662e+003
4.985879e+002, 7.429750e+003
4.990700e+002, 7.422072e+003
4.995521e+002, 7.416840e+003
5.000342e+002, 7.414849e+003
5.005164e+002, 7.414052e+003
5.009985e+002, 7.414301e+003
5.014806e+002, 7.414821e+003
5.019627e+002, 7.414264e+003
5.024448e+002, 7.412359e+003
5.029269e+002, 7.409457e+003
5.034091e+002, 7.405749e+003
5.038912e+002, 7.401179e+003
5.043733e+002, 7.396810e+003
5.048554e+002, 7.392044e+003
5.053375e+002, 7.388132e+003
5.058196e+002, 7.387498e+003
5.063018e+002, 7.387419e+003
5.067839e+002, 7.382281e+003
5.072660e+002, 7.370406e+003
5.077481e+002, 7.358042e+003
5.082302e+002, 7.355700e+003
5.087123e+002, 7.367370e+003
5.091945e+002, 7.374590e+003
5.096766e+002, 7.374531e+003
5.101587e+002, 7.372789e+003
5.106408e+002, 7.370459e+003
5.111229e+002, 7.368124e+003
5.116050e+002, 7.366479e+003
5.120872e+002, 7.365933e+003
5.125693e+002, 7.366071e+003
5.130514e+002, 7.366381e+003
5.135335e+002, 7.366989e+003
5.140156e+002, 7.366788e+003
5.144977e+002, 7.365083e+003
5.149799e+002, 7.362913e+003
5.154620e+002, 7.361474e+003
5.159441e+002, 7.360544e+003
5.164262e+002, 7.358641e+003
5.169083e+002, 7.354170e+003
5.173904e+002, 7.348909e+003
5.178726e+002, 7.345123e+003
5.183547e+002, 7.342759e+003
5.188368e+002, 7.340798e+003
5.193189e+002, 7.338813e+003
5.198010e+002, 7.336851e+003
5.202831e+002, 7.334945e+003
5.207653e+002, 7.332604e+003
5.212474e+002, 7.331556e+003
5.217295e+002, 7.334747e+003
5.222116e+002, 7.337485e+003
5.226937e+002, 7.334139e+003
5.231758e+002, 7.325639e+003
5.236580e+002, 7.318142e+003
5.241401e+002, 7.316158e+003
5.246222e+002, 7.318804e+003
5.251043e+002, 7.321704e+003
5.255864e+002, 7.328071e+003
5.260685e+002, 7.329785e+003
5.265507e+002, 7.320593e+003
5.270328e+002, 7.310609e+003
5.275149e+002, 7.309552e+003
5.279970e+002, 7.317458e+003
5.284791e+002, 7.325903e+003
5.289612e+002, 7.327965e+003
5.294434e+002, 7.324237e+003
5.299255e+002, 7.317682e+003
5.304076e+002, 7.307003e+003
5.308897e+002, 7.296622e+003
5.313718e+002, 7.286632e+003
5.318539e+002, 7.278858e+003
5.323361e+002, 7.276102e+003
5.328182e+002, 7.279402e+003
5.333003e+002, 7.283552e+003
5.337824e+002, 7.286040e+003
5.342645e+002, 7.286804e+003
5.347466e+002, 7.284849e+003
5.352288e+002, 7.279787e+003
5.357109e+002, 7.275724e+003
5.361930e+002, 7.276555e+003
5.366751e+002, 7.281124e+003
5.371572e+002, 7.282165e+003
5.376393e+002, 7.275803e+003
5.381215e+002, 7.270947e+003
5.386036e+002, 7.271176e+003
5.390857e+002, 7.273774e+003
5.395678e+002, 7.275158e+003
5.400499e+002, 7.274679e+003
5.405320e+002, 7.274470e+003
5.410142e+002, 7.277042e+003
5.414963e+002, 7.282521e+003
5.419784e+002, 7.285798e+003
5.424604e+002, 7.286219e+003
5.429426e+002, 7.284919e+003
5.434247e+002, 7.279917e+003
5.439068e+002, 7.274348e+003
5.443889e+002, 7.272379e+003
5.448710e+002, 7.274929e+003
5.453531e+002, 7.277959e+003
5.458353e+002, 7.276448e+003
5.463174e+002, 7.270868e+003
5.467995e+002, 7.267018e+003
5.472816e+002, 7.265525e+003
5.477637e+002, 7.265080e+003
5.482458e+002, 7.265118e+003
5.487280e+002, 7.265627e+003
5.492101e+002, 7.266765e+003
5.496922e+002, 7.268927e+003
5.501743e+002, 7.270970e+003
5.506564e+002, 7.272170e+003
5.511385e+002, 7.272775e+003
5.516207e+002, 7.273658e+003
5.521028e+002, 7.275062e+003
5.525849e+002, 7.275299e+003
5.530670e+002, 7.272621e+003
5.535491e+002, 7.267016e+003
5.540313e+002, 7.261607e+003
5.545134e+002, 7.255060e+003
5.549955e+002, 7.250328e+003
5.554776e+002, 7.249238e+003
5.559597e+002, 7.249945e+003
5.564418e+002, 7.250063e+003
5.569240e+002, 7.249042e+003
5.574061e+002, 7.248327e+003
5.578882e+002, 7.250083e+003
5.583703e+002, 7.254470e+003
5.588524e+002, 7.255926e+003
5.593345e+002, 7.253017e+003
5.598167e+002, 7.248916e+003
5.602988e+002, 7.244220e+003
5.607809e+002, 7.239213e+003
5.612630e+002, 7.234089e+003
5.617451e+002, 7.228847e+003
5.622272e+002, 7.223836e+003
5.627094e+002, 7.218898e+003
5.631915e+002, 7.214384e+003
5.636736e+002, 7.211660e+003
5.641557e+002, 7.211017e+003
5.646378e+002, 7.211530e+003
5.651199e+002, 7.213662e+003
5.656021e+002, 7.216367e+003
5.660842e+002, 7.215458e+003
5.665663e+002, 7.208132e+003
5.670484e+002, 7.201339e+003
5.675305e+002, 7.198269e+003
5.680126e+002, 7.196726e+003
5.684948e+002, 7.194201e+003
5.689769e+002, 7.190183e+003
5.694590e+002, 7.184911e+003
5.699411e+002, 7.178423e+003
5.704232e+002, 7.170850e+003
5.709053e+002, 7.164784e+003
5.713875e+002, 7.161362e+003
5.718696e+002, 7.157993e+003
5.723517e+002, 7.154298e+003
5.728338e+002, 7.150443e+003
5.733159e+002, 7.146591e+003
5.737980e+002, 7.142748e+003
5.742802e+002, 7.138850e+003
5.747623e+002, 7.134909e+003
5.752444e+002, 7.130863e+003
5.757265e+002, 7.126249e+003
5.762086e+002, 7.120787e+003
5.766907e+002, 7.115984e+003
5.771729e+002, 7.113380e+003
5.776550e+002, 7.111417e+003
5.781371e+002, 7.107207e+003
5.786192e+002, 7.099896e+003
5.791013e+002, 7.093999e+003
5.795834e+002, 7.093422e+003
5.800656e+002, 7.093848e+003
5.805477e+002, 7.089641e+003
5.810298e+002, 7.081004e+003
5.815119e+002, 7.072040e+003
5.819940e+002, 7.065068e+003
5.824761e+002, 7.060167e+003
5.829583e+002, 7.057594e+003
5.834404e+002, 7.057616e+003
5.839225e+002, 7.059708e+003
5.844046e+002, 7.068987e+003
5.848867e+002, 7.075859e+003
5.853688e+002, 7.072686e+003
5.858510e+002, 7.061148e+003
5.863331e+002, 7.048080e+003
5.868152e+002, 7.037529e+003
5.872973e+002, 7.028522e+003
5.877794e+002, 7.018817e+003
5.882615e+002, 7.008132e+003
5.887437e+002, 6.998507e+003
5.892258e+002, 6.990656e+003
5.897079e+002, 6.983765e+003
5.901900e+002, 6.978466e+003
5.906721e+002, 6.974112e+003
5.911542e+002, 6.966180e+003
5.916364e+002, 6.949545e+003
5.921185e+002, 6.932066e+003
5.926006e+002, 6.921884e+003
5.930827e+002, 6.916678e+003
5.935648e+002, 6.908741e+003
5.940469e+002, 6.895175e+003
5.945291e+002, 6.879860e+003
5.950112e+002, 6.868045e+003
5.954933e+002, 6.860242e+003
5.959754e+002, 6.853954e+003
5.964575e+002, 6.853364e+003
5.969396e+002, 6.849548e+003
5.974218e+002, 6.835892e+003
5.979039e+002, 6.818310e+003
5.983860e+002, 6.805619e+003
5.988681e+002, 6.800708e+003
5.993502e+002, 6.798559e+003
5.998323e+002, 6.793214e+003
6.003145e+002, 6.784735e+003
6.007966e+002, 6.776023e+003
6.012787e+002, 6.766745e+003
6.017608e+002, 6.758128e+003
6.022429e+002, 6.753119e+003
6.027250e+002, 6.748456e+003
6.032072e+002, 6.738269e+003
6.036893e+002, 6.719327e+003
6.041714e+002, 6.702179e+003
6.046535e+002, 6.693764e+003
6.051356e+002, 6.689585e+003
6.056177e+002, 6.683725e+003
6.060999e+002, 6.675338e+003
6.065820e+002, 6.664971e+003
6.070641e+002, 6.652729e+003
6.075462e+002, 6.639239e+003
6.080283e+002, 6.627137e+003
6.085104e+002, 6.616308e+003
6.089926e+002, 6.607353e+003
6.094747e+002, 6.603622e+003
6.099568e+002, 6.599075e+003
6.104389e+002, 6.588211e+003
6.109210e+002, 6.572396e+003
6.114031e+002, 6.557417e+003
6.118853e+002, 6.547000e+003
6.123674e+002, 6.539558e+003
6.128495e+002, 6.531969e+003
6.133316e+002, 6.524214e+003
6.138137e+002, 6.516467e+003
6.142958e+002, 6.510454e+003
6.147780e+002, 6.502163e+003
6.152601e+002, 6.484492e+003
6.157422e+002, 6.459503e+003
6.162243e+002, 6.440534e+003
6.167064e+002, 6.435898e+003
6.171885e+002, 6.432509e+003
6.176707e+002, 6.421148e+003
6.181528e+002, 6.405096e+003
6.186349e+002, 6.391349e+003
6.191170e+002, 6.381943e+003
6.195991e+002, 6.373825e+003
6.200812e+002, 6.363307e+003
6.205634e+002, 6.350087e+003
6.210455e+002, 6.338308e+003
6.215276e+002, 6.331008e+003
6.220097e+002, 6.321321e+003
6.224918e+002, 6.305922e+003
6.229739e+002, 6.288621e+003
6.234561e+002, 6.273173e+003
6.239382e+002, 6.260420e+003
6.244203e+002, 6.249142e+003
6.249023e+002, 6.239146e+003
6.253845e+002, 6.229841e+003
6.258666e+002, 6.219614e+003
6.263487e+002, 6.208368e+003
6.268308e+002, 6.196944e+003
6.273129e+002, 6.185818e+003
6.277950e+002, 6.174602e+003
6.282772e+002, 6.162240e+003
6.287593e+002, 6.148537e+003
6.292414e+002, 6.135037e+003
6.297235e+002, 6.122627e+003
6.302056e+002, 6.109826e+003
6.306877e+002, 6.094048e+003
6.311699e+002, 6.077094e+003
6.316520e+002, 6.063660e+003
6.321341e+002, 6.055974e+003
6.326162e+002, 6.050463e+003
6.330983e+002, 6.041073e+003
6.335804e+002, 6.027054e+003
6.340626e+002, 6.012812e+003
6.345447e+002, 5.998571e+003
6.350268e+002, 5.984014e+003
6.355089e+002, 5.969151e+003
6.359910e+002, 5.953912e+003
6.364731e+002, 5.938142e+003
6.369553e+002, 5.921853e+003
6.374374e+002, 5.905124e+003
6.379195e+002, 5.886408e+003
6.384016e+002, 5.867908e+003
6.388837e+002, 5.854483e+003
6.393658e+002, 5.846554e+003
6.398480e+002, 5.839148e+003
6.403301e+002, 5.829358e+003
6.408122e+002, 5.817334e+003
6.412943e+002, 5.803473e+003
6.417764e+002, 5.786133e+003
6.422585e+002, 5.769280e+003
6.427407e+002, 5.752065e+003
6.432228e+002, 5.736080e+003
6.437049e+002, 5.722896e+003
6.441870e+002, 5.711733e+003
6.446691e+002, 5.700703e+003
6.451512e+002, 5.689055e+003
6.456334e+002, 5.676327e+003
6.461155e+002, 5.661422e+003
6.465976e+002, 5.644383e+003
6.470797e+002, 5.627291e+003
6.475618e+002, 5.609950e+003
6.480439e+002, 5.593934e+003
6.485261e+002, 5.582172e+003
6.490082e+002, 5.572762e+003
6.494903e+002, 5.559912e+003
6.499724e+002, 5.540904e+003
6.504545e+002, 5.521974e+003
6.509366e+002, 5.506286e+003
6.514188e+002, 5.491631e+003
6.519009e+002, 5.474946e+003
6.523830e+002, 5.456280e+003
6.528651e+002, 5.438295e+003
6.533472e+002, 5.422912e+003
6.538293e+002, 5.409823e+003
6.543115e+002, 5.398204e+003
6.547936e+002, 5.389553e+003
6.552757e+002, 5.378720e+003
6.557578e+002, 5.362997e+003
6.562399e+002, 5.346522e+003
6.567220e+002, 5.332547e+003
6.572042e+002, 5.319727e+003
6.576863e+002, 5.303579e+003
6.581684e+002, 5.280155e+003
6.586505e+002, 5.256318e+003
6.591326e+002, 5.239438e+003
6.596147e+002, 5.227342e+003
6.600969e+002, 5.213725e+003
6.605790e+002, 5.197269e+003
6.610611e+002, 5.179907e+003
6.615432e+002, 5.163091e+003
6.620253e+002, 5.146822e+003
6.625074e+002, 5.131318e+003
6.629896e+002, 5.118283e+003
6.634717e+002, 5.103798e+003
6.639538e+002, 5.084969e+003
6.644359e+002, 5.066494e+003
6.649180e+002, 5.053395e+003
6.654001e+002, 5.044483e+003
6.658823e+002, 5.033915e+003
6.663644e+002, 5.017562e+003
6.668465e+002, 4.998247e+003
6.673286e+002, 4.980667e+003
6.678107e+002, 4.964788e+003
6.682928e+002, 4.949205e+003
6.687750e+002, 4.933469e+003
6.692571e+002, 4.918514e+003
6.697392e+002, 4.906456e+003
6.702213e+002, 4.896596e+003
6.707034e+002, 4.883096e+003
6.711855e+002, 4.862462e+003
6.716677e+002, 4.842326e+003
6.721498e+002, 4.825206e+003
6.726319e+002, 4.809855e+003
6.731140e+002, 4.795120e+003
6.735961e+002, 4.780674e+003
6.740782e+002, 4.766419e+003
6.745604e+002, 4.752358e+003
6.750425e+002, 4.738131e+003
6.755246e+002, 4.722264e+003
6.760067e+002, 4.704320e+003
6.764888e+002, 4.686783e+003
6.769709e+002, 4.670240e+003
6.774531e+002, 4.654047e+003
6.779352e+002, 4.637687e+003
6.784173e+002, 4.621271e+003
6.788994e+002, 4.605278e+003
6.793815e+002, 4.590849e+003
6.798636e+002, 4.575601e+003
6.803458e+002, 4.556126e+003
6.808279e+002, 4.535729e+003
6.813100e+002, 4.519990e+003
6.817921e+002, 4.509591e+003
6.822742e+002, 4.500856e+003
6.827563e+002, 4.491168e+003
6.832385e+002, 4.480180e+003
6.837206e+002, 4.465924e+003
6.842027e+002, 4.447100e+003
6.846848e+002, 4.427851e+003
6.851669e+002, 4.406939e+003
6.856490e+002, 4.387406e+003
6.861312e+002, 4.371716e+003
6.866133e+002, 4.358952e+003
6.870954e+002, 4.346133e+003
6.875775e+002, 4.332204e+003
6.880596e+002, 4.317869e+003
6.885417e+002, 4.303616e+003
6.890239e+002, 4.289523e+003
6.895060e+002, 4.276238e+003
6.899881e+002, 4.263755e+003
6.904702e+002, 4.250473e+003
6.909523e+002, 4.234924e+003
6.914344e+002, 4.217587e+003
6.919166e+002, 4.200455e+003
6.923987e+002, 4.182570e+003
6.928808e+002, 4.166504e+003
6.933629e+002, 4.154121e+003
6.938450e+002, 4.141952e+003
6.943271e+002, 4.127502e+003
6.948093e+002, 4.111458e+003
6.952914e+002, 4.096103e+003
6.957735e+002, 4.082582e+003
6.962556e+002, 4.069546e+003
6.967377e+002, 4.055398e+003
6.972198e+002, 4.040441e+003
6.977020e+002, 4.025706e+003
6.981841e+002, 4.011493e+003
6.986662e+002, 3.996434e+003
6.991483e+002, 3.979139e+003
6.996304e+002, 3.960539e+003
7.001125e+002, 3.944450e+003
7.005947e+002, 3.932864e+003
7.010768e+002, 3.920954e+003
7.015589e+002, 3.908818e+003
7.020410e+002, 3.896258e+003
7.025231e+002, 3.883228e+003
7.030052e+002, 3.869721e+003
7.034874e+002, 3.855367e+003
7.039695e+002, 3.840011e+003
7.044516e+002, 3.824727e+003
7.049337e+002, 3.811406e+003
7.054158e+002, 3.799596e+003
7.058979e+002, 3.786748e+003
7.063801e+002, 3.772492e+003
7.068622e+002, 3.758401e+003
7.073442e+002, 3.745665e+003
7.078264e+002, 3.733372e+003
7.083085e+002, 3.718761e+003
7.087906e+002, 3.699527e+003
7.092727e+002, 3.683849e+003
7.097548e+002, 3.675628e+003
7.102369e+002, 3.667667e+003
7.107191e+002, 3.656065e+003
7.112012e+002, 3.641584e+003
7.116833e+002, 3.625682e+003
7.121654e+002, 3.608867e+003
7.126475e+002, 3.592648e+003
7.131296e+002, 3.579293e+003
7.136118e+002, 3.568172e+003
7.140939e+002, 3.555142e+003
7.145760e+002, 3.539851e+003
7.150581e+002, 3.524563e+003
7.155402e+002, 3.509551e+003
7.160223e+002, 3.496131e+003
7.165045e+002, 3.487592e+003
7.169866e+002, 3.485295e+003
7.174687e+002, 3.479430e+003
7.179508e+002, 3.467087e+003
7.184329e+002, 3.453258e+003
7.189150e+002, 3.439597e+003
7.193972e+002, 3.426365e+003
7.198793e+002, 3.413543e+003
7.203614e+002, 3.401179e+003
7.208435e+002, 3.389472e+003
7.213256e+002, 3.379413e+003
7.218077e+002, 3.369961e+003
7.222899e+002, 3.356336e+003
7.227720e+002, 3.337719e+003
7.232541e+002, 3.321008e+003
7.237362e+002, 3.308901e+003
7.242183e+002, 3.298869e+003
7.247004e+002, 3.288117e+003
7.251826e+002, 3.276606e+003
7.256647e+002, 3.266289e+003
7.261468e+002, 3.259784e+003
7.266289e+002, 3.251442e+003
7.271110e+002, 3.236242e+003
7.275931e+002, 3.219898e+003
7.280753e+002, 3.209790e+003
7.285574e+002, 3.206042e+003
7.290395e+002, 3.203239e+003
7.295216e+002, 3.197973e+003
7.300037e+002, 3.190094e+003
7.304858e+002, 3.178219e+003
7.309680e+002, 3.162181e+003
7.314501e+002, 3.147512e+003
7.319322e+002, 3.135217e+003
7.324143e+002, 3.124642e+003
7.328964e+002, 3.116000e+003
7.333785e+002, 3.108750e+003
7.338607e+002, 3.100032e+003
7.343428e+002, 3.089035e+003
7.348249e+002, 3.077907e+003
7.353070e+002, 3.066421e+003
7.357891e+002, 3.055435e+003
7.362712e+002, 3.045651e+003
7.367534e+002, 3.036934e+003
7.372355e+002, 3.028822e+003
7.377176e+002, 3.021049e+003
7.381997e+002, 3.013348e+003
7.386818e+002, 3.005249e+003
7.391639e+002, 2.996808e+003
7.396461e+002, 2.988415e+003
7.401282e+002, 2.980178e+003
7.406103e+002, 2.971841e+003
7.410924e+002, 2.963490e+003
7.415745e+002, 2.954846e+003
7.420566e+002, 2.945109e+003
7.425388e+002, 2.933816e+003
7.430209e+002, 2.923130e+003
7.435030e+002, 2.913711e+003
7.439851e+002, 2.904445e+003
7.444672e+002, 2.894022e+003
7.449493e+002, 2.883645e+003
7.454315e+002, 2.875365e+003
7.459136e+002, 2.869684e+003
7.463957e+002, 2.864914e+003
7.468778e+002, 2.859990e+003
7.473599e+002, 2.854647e+003
7.478420e+002, 2.847598e+003
7.483242e+002, 2.838763e+003
7.488063e+002, 2.831145e+003
7.492884e+002, 2.826197e+003
7.497705e+002, 2.821704e+003
7.502526e+002, 2.814787e+003
7.507347e+002, 2.805273e+003
7.512169e+002, 2.797026e+003
7.516990e+002, 2.792044e+003
7.521811e+002, 2.785649e+003
7.526632e+002, 2.774845e+003
7.531453e+002, 2.763590e+003
7.536274e+002, 2.755829e+003
7.541096e+002, 2.751267e+003
7.545917e+002, 2.746796e+003
7.550738e+002, 2.740771e+003
7.555559e+002, 2.733722e+003
7.560380e+002, 2.725931e+003
7.565201e+002, 2.717679e+003
7.570023e+002, 2.710381e+003
7.574844e+002, 2.704267e+003
7.579665e+002, 2.698898e+003
7.584486e+002, 2.694276e+003
7.589307e+002, 2.689843e+003
7.594128e+002, 2.683512e+003
7.598950e+002, 2.671388e+003
7.603771e+002, 2.664525e+003
7.608592e+002, 2.668617e+003
7.613413e+002, 2.671611e+003
7.618234e+002, 2.667179e+003
7.623055e+002, 2.658100e+003
7.627877e+002, 2.648648e+003
7.632698e+002, 2.639940e+003
7.637519e+002, 2.632554e+003
7.642340e+002, 2.627530e+003
7.647161e+002, 2.623783e+003
7.651982e+002, 2.619963e+003
7.656804e+002, 2.615872e+003
7.661625e+002, 2.610884e+003
7.666446e+002, 2.604676e+003
7.671267e+002, 2.598344e+003
7.676088e+002, 2.593611e+003
7.680909e+002, 2.590583e+003
7.685731e+002, 2.585223e+003
7.690552e+002, 2.575031e+003
7.695373e+002, 2.566552e+003
7.700194e+002, 2.561485e+003
7.705015e+002, 2.558332e+003
7.709836e+002, 2.557127e+003
7.714658e+002, 2.557145e+003
7.719479e+002, 2.555406e+003
7.724300e+002, 2.549953e+003
7.729121e+002, 2.543683e+003
7.733942e+002, 2.538337e+003
7.738763e+002, 2.533630e+003
7.743585e+002, 2.528845e+003
7.748406e+002, 2.524104e+003
7.753227e+002, 2.520894e+003
7.758048e+002, 2.520448e+003
7.762869e+002, 2.520887e+003
7.767690e+002, 2.517341e+003
7.772512e+002, 2.509067e+003
7.777333e+002, 2.501811e+003
7.782154e+002, 2.495947e+003
7.786975e+002, 2.491140e+003
7.791796e+002, 2.488089e+003
7.796617e+002, 2.485637e+003
7.801439e+002, 2.481658e+003
7.806260e+002, 2.475573e+003
7.811081e+002, 2.470347e+003
7.815902e+002, 2.467177e+003
7.820723e+002, 2.464569e+003
7.825544e+002, 2.461739e+003
7.830366e+002, 2.458702e+003
7.835187e+002, 2.455731e+003
7.840008e+002, 2.452822e+003
7.844829e+002, 2.449447e+003
7.849650e+002, 2.444947e+003
7.854471e+002, 2.439708e+003
7.859293e+002, 2.434987e+003
7.864114e+002, 2.430808e+003
7.868935e+002, 2.426217e+003
7.873756e+002, 2.420465e+003
7.878577e+002, 2.415927e+003
7.883398e+002, 2.415489e+003
7.888220e+002, 2.418475e+003
7.893040e+002, 2.419073e+003
7.897861e+002, 2.415871e+003
7.902682e+002, 2.412466e+003
7.907504e+002, 2.408833e+003
7.912325e+002, 2.405354e+003
7.917146e+002, 2.402417e+003
7.921967e+002, 2.399787e+003
7.926788e+002, 2.396882e+003
7.931609e+002, 2.393474e+003
7.936431e+002, 2.390012e+003
7.941252e+002, 2.387543e+003
7.946073e+002, 2.385006e+003
7.950894e+002, 2.379359e+003
7.955715e+002, 2.371167e+003
7.960536e+002, 2.365843e+003
7.965358e+002, 2.365833e+003
7.970179e+002, 2.366990e+003
7.975000e+002, 2.363287e+003
7.979821e+002, 2.354395e+003
7.984642e+002, 2.348048e+003
7.989464e+002, 2.345587e+003
7.994285e+002, 2.343184e+003
7.999106e+002, 2.340290e+003
8.003927e+002, 2.336821e+003
8.008748e+002, 2.332297e+003
8.013569e+002, 2.327035e+003
8.018391e+002, 2.322577e+003
8.023212e+002, 2.319939e+003
8.028033e+002, 2.317323e+003
8.032854e+002, 2.313959e+003
8.037675e+002, 2.310067e+003
8.042496e+002, 2.305319e+003
8.047318e+002, 2.300251e+003
8.052139e+002, 2.296773e+003
8.056960e+002, 2.296066e+003
8.061781e+002, 2.295796e+003
8.066602e+002, 2.291578e+003
8.071423e+002, 2.283813e+003
8.076245e+002, 2.278649e+003
8.081066e+002, 2.277031e+003
8.085887e+002, 2.274119e+003
8.090708e+002, 2.267046e+003
8.095529e+002, 2.258595e+003
8.100350e+002, 2.253107e+003
8.105172e+002, 2.251197e+003
8.109993e+002, 2.248281e+003
8.114814e+002, 2.244612e+003
8.119635e+002, 2.239667e+003
8.124456e+002, 2.232806e+003
8.129277e+002, 2.224976e+003
8.134099e+002, 2.216270e+003
8.138920e+002, 2.207379e+003
8.143741e+002, 2.200456e+003
8.148562e+002, 2.197237e+003
8.153383e+002, 2.194999e+003
8.158204e+002, 2.191007e+003
8.163026e+002, 2.185880e+003
8.167847e+002, 2.181157e+003
8.172668e+002, 2.176900e+003
8.177489e+002, 2.171739e+003
8.182310e+002, 2.164771e+003
8.187131e+002, 2.157127e+003
8.191953e+002, 2.151089e+003
8.196774e+002, 2.146932e+003
8.201595e+002, 2.142687e+003
8.206416e+002, 2.139086e+003
8.211237e+002, 2.133883e+003
8.216058e+002, 2.125017e+003
8.220880e+002, 2.114975e+003
8.225701e+002, 2.106281e+003
8.230522e+002, 2.098950e+003
8.235343e+002, 2.092739e+003
8.240164e+002, 2.089007e+003
8.244985e+002, 2.084746e+003
8.249807e+002, 2.078199e+003
8.254628e+002, 2.070704e+003
8.259449e+002, 2.063680e+003
8.264270e+002, 2.057251e+003
8.269091e+002, 2.050942e+003
8.273912e+002, 2.044479e+003
8.278734e+002, 2.037915e+003
8.283555e+002, 2.030964e+003
8.288376e+002, 2.023924e+003
8.293197e+002, 2.018539e+003
8.298018e+002, 2.015004e+003
8.302839e+002, 2.010352e+003
8.307661e+002, 2.003019e+003
8.312482e+002, 1.994069e+003
8.317303e+002, 1.984867e+003
8.322124e+002, 1.975095e+003
8.326945e+002, 1.967772e+003
8.331766e+002, 1.965657e+003
8.336588e+002, 1.962064e+003
8.341409e+002, 1.954311e+003
8.346230e+002, 1.945581e+003
8.351051e+002, 1.938589e+003
8.355872e+002, 1.933055e+003
8.360693e+002, 1.926641e+003
8.365515e+002, 1.917461e+003
8.370336e+002, 1.909170e+003
8.375157e+002, 1.904906e+003
8.379978e+002, 1.901804e+003
8.384799e+002, 1.896108e+003
8.389620e+002, 1.888347e+003
8.394442e+002, 1.881665e+003
8.399263e+002, 1.877564e+003
8.404084e+002, 1.873992e+003
8.408905e+002, 1.867888e+003
8.413726e+002, 1.859790e+003
8.418547e+002, 1.852773e+003
8.423369e+002, 1.846943e+003
8.428190e+002, 1.842079e+003
8.433011e+002, 1.838515e+003
8.437832e+002, 1.834882e+003
8.442653e+002, 1.829606e+003
8.447474e+002, 1.822705e+003
8.452296e+002, 1.815507e+003
8.457117e+002, 1.807367e+003
8.461938e+002, 1.799907e+003
8.466759e+002, 1.793771e+003
8.471580e+002, 1.787819e+003
8.476401e+002, 1.781219e+003
8.481223e+002, 1.774238e+003
8.486044e+002, 1.767399e+003
8.490865e+002, 1.760663e+003
8.495686e+002, 1.754872e+003
8.500507e+002, 1.750998e+003
8.505328e+002, 1.747851e+003
8.510150e+002, 1.744758e+003
8.514971e+002, 1.741258e+003
8.519792e+002, 1.736222e+003
8.524613e+002, 1.729498e+003
8.529434e+002, 1.722626e+003
8.534255e+002, 1.717372e+003
8.539077e+002, 1.713016e+003
8.543898e+002, 1.706970e+003
8.548719e+002, 1.699224e+003
8.553540e+002, 1.693066e+003
8.558361e+002, 1.689547e+003
8.563182e+002, 1.685958e+003
8.568004e+002, 1.680091e+003
8.572825e+002, 1.672780e+003
8.577646e+002, 1.666673e+003
8.582467e+002, 1.662251e+003
8.587288e+002, 1.658026e+003
8.592109e+002, 1.654444e+003
8.596931e+002, 1.650532e+003
8.601752e+002, 1.645391e+003
8.606573e+002, 1.640035e+003
8.611394e+002, 1.636082e+003
8.616215e+002, 1.633569e+003
8.621036e+002, 1.630048e+003
8.625858e+002, 1.623580e+003
8.630679e+002, 1.616772e+003
8.635500e+002, 1.611407e+003
8.640321e+002, 1.606833e+003
8.645142e+002, 1.601920e+003
8.649963e+002, 1.596773e+003
8.654785e+002, 1.592934e+003
8.659606e+002, 1.591474e+003
8.664427e+002, 1.590335e+003
8.669248e+002, 1.585780e+003
8.674069e+002, 1.578618e+003
8.678890e+002, 1.573451e+003
8.683712e+002, 1.570620e+003
8.688533e+002, 1.567151e+003
8.693354e+002, 1.561620e+003
8.698175e+002, 1.555535e+003
8.702996e+002, 1.550974e+003
8.707817e+002, 1.547938e+003
8.712639e+002, 1.544784e+003
8.717459e+002, 1.540649e+003
8.722280e+002, 1.537921e+003
8.727101e+002, 1.539866e+003
8.731923e+002, 1.540664e+003
8.736744e+002, 1.535901e+003
8.741565e+002, 1.527418e+003
8.746386e+002, 1.519613e+003
8.751207e+002, 1.513077e+003
8.756028e+002, 1.507730e+003
8.760850e+002, 1.504694e+003
8.765671e+002, 1.501775e+003
8.770492e+002, 1.496984e+003
8.775313e+002, 1.491301e+003
8.780134e+002, 1.486450e+003
8.784955e+002, 1.482851e+003
8.789777e+002, 1.479962e+003
8.794598e+002, 1.478014e+003
8.799419e+002, 1.475757e+003
8.804240e+002, 1.469978e+003
8.809061e+002, 1.462042e+003
8.813882e+002, 1.457650e+003
8.818704e+002, 1.457492e+003
8.823525e+002, 1.456942e+003
8.828346e+002, 1.453005e+003
8.833167e+002, 1.447267e+003
8.837988e+002, 1.443191e+003
8.842809e+002, 1.441128e+003
8.847631e+002, 1.437961e+003
8.852452e+002, 1.433400e+003
8.857273e+002, 1.428355e+003
8.862094e+002, 1.422444e+003
8.866915e+002, 1.416885e+003
8.871736e+002, 1.413427e+003
8.876558e+002, 1.411886e+003
8.881379e+002, 1.409286e+003
8.886200e+002, 1.404303e+003
8.891021e+002, 1.400007e+003
8.895842e+002, 1.397417e+003
8.900663e+002, 1.395192e+003
8.905485e+002, 1.392567e+003
8.910306e+002, 1.389570e+003
8.915127e+002, 1.386562e+003
8.919948e+002, 1.383651e+003
8.924769e+002, 1.380116e+003
8.929590e+002, 1.374731e+003
8.934412e+002, 1.369129e+003
8.939233e+002, 1.365588e+003
8.944054e+002, 1.363058e+003
8.948875e+002, 1.358969e+003
8.953696e+002, 1.353066e+003
8.958517e+002, 1.347439e+003
8.963339e+002, 1.343597e+003
8.968160e+002, 1.341219e+003
8.972981e+002, 1.340400e+003
8.977802e+002, 1.340828e+003
8.982623e+002, 1.339121e+003
8.987444e+002, 1.334860e+003
8.992266e+002, 1.329820e+003
8.997087e+002, 1.324631e+003
9.001908e+002, 1.319592e+003
9.006729e+002, 1.315211e+003
9.011550e+002, 1.311532e+003
9.016371e+002, 1.307411e+003
9.021193e+002, 1.302664e+003
9.026014e+002, 1.297747e+003
9.030835e+002, 1.291525e+003
9.035656e+002, 1.286366e+003
9.040477e+002, 1.285042e+003
9.045298e+002, 1.285880e+003
9.050120e+002, 1.284606e+003
9.054941e+002, 1.280400e+003
9.059762e+002, 1.275189e+003
9.064583e+002, 1.268128e+003
9.069404e+002, 1.261617e+003
9.074225e+002, 1.257716e+003
9.079047e+002, 1.255010e+003
9.083868e+002, 1.251396e+003
9.088689e+002, 1.246653e+003
9.093510e+002, 1.242042e+003
9.098331e+002, 1.238257e+003
9.103152e+002, 1.235040e+003
9.107974e+002, 1.232761e+003
9.112795e+002, 1.230576e+003
9.117616e+002, 1.226477e+003
9.122437e+002, 1.220763e+003
9.127258e+002, 1.215667e+003
9.132079e+002, 1.212248e+003
9.136901e+002, 1.209619e+003
9.141722e+002, 1.206797e+003
9.146543e+002, 1.203714e+003
9.151364e+002, 1.199194e+003
9.156185e+002, 1.193082e+003
9.161006e+002, 1.190623e+003
9.165828e+002, 1.194159e+003
9.170649e+002, 1.196640e+003
9.175470e+002, 1.191717e+003
9.180291e+002, 1.181585e+003
9.185112e+002, 1.174381e+003
9.189933e+002, 1.171805e+003
9.194755e+002, 1.167631e+003
9.199576e+002, 1.160347e+003
9.204397e+002, 1.153642e+003
9.209218e+002, 1.149106e+003
9.214039e+002, 1.145799e+003
9.218860e+002, 1.143232e+003
9.223682e+002, 1.141304e+003
9.228503e+002, 1.138301e+003
9.233324e+002, 1.133682e+003
9.238145e+002, 1.128381e+003
9.242966e+002, 1.121131e+003
9.247787e+002, 1.114668e+003
9.252609e+002, 1.111420e+003
9.257430e+002, 1.110598e+003
9.262251e+002, 1.110907e+003
9.267072e+002, 1.112043e+003
9.271893e+002, 1.111359e+003
9.276714e+002, 1.105650e+003
9.281536e+002, 1.098582e+003
9.286357e+002, 1.093374e+003
9.291178e+002, 1.089742e+003
9.295999e+002, 1.087350e+003
9.300820e+002, 1.085795e+003
9.305641e+002, 1.083917e+003
9.310463e+002, 1.080990e+003
9.315284e+002, 1.077312e+003
9.320105e+002, 1.072910e+003
9.324926e+002, 1.068164e+003
9.329747e+002, 1.064880e+003
9.334568e+002, 1.063073e+003
9.339390e+002, 1.061225e+003
9.344211e+002, 1.058829e+003
9.349032e+002, 1.055889e+003
9.353853e+002, 1.052403e+003
9.358674e+002, 1.048381e+003
9.363495e+002, 1.043685e+003
9.368317e+002, 1.037955e+003
9.373138e+002, 1.033085e+003
9.377959e+002, 1.029232e+003
9.382780e+002, 1.026419e+003
9.387601e+002, 1.025275e+003
9.392422e+002, 1.024626e+003
9.397244e+002, 1.022171e+003
9.402065e+002, 1.017425e+003
9.406886e+002, 1.013723e+003
9.411707e+002, 1.012370e+003
9.416528e+002, 1.010208e+003
9.421349e+002, 1.004997e+003
9.426171e+002, 1.000246e+003
9.430992e+002, 9.997858e+002
9.435813e+002, 1.001698e+003
9.440634e+002, 1.000590e+003
9.445455e+002, 9.945066e+002
9.450276e+002, 9.889305e+002
9.455098e+002, 9.862819e+002
9.459919e+002, 9.842477e+002
9.464740e+002, 9.813923e+002
9.469561e+002, 9.781981e+002
9.474382e+002, 9.754312e+002
9.479203e+002, 9.731701e+002
9.484025e+002, 9.710142e+002
9.488846e+002, 9.688209e+002
9.493667e+002, 9.664793e+002
9.498488e+002, 9.636210e+002
9.503309e+002, 9.606795e+002
9.508130e+002, 9.584482e+002
9.512952e+002, 9.567410e+002
9.517773e+002, 9.547121e+002
9.522594e+002, 9.521046e+002
9.527415e+002, 9.495196e+002
9.532236e+002, 9.475051e+002
9.537057e+002, 9.459352e+002
9.541878e+002, 9.447393e+002
9.546699e+002, 9.437787e+002
9.551520e+002, 9.420905e+002
9.556342e+002, 9.395306e+002
9.561163e+002, 9.364817e+002
9.565984e+002, 9.330184e+002
9.570805e+002, 9.298585e+002
9.575626e+002, 9.283303e+002
9.580447e+002, 9.283867e+002
9.585269e+002, 9.278190e+002
9.590090e+002, 9.267040e+002
9.594911e+002, 9.244436e+002
9.599732e+002, 9.202521e+002
9.604553e+002, 9.164508e+002
9.609374e+002, 9.151151e+002
9.614196e+002, 9.152817e+002
9.619017e+002, 9.142048e+002
9.623838e+002, 9.113638e+002
9.628659e+002, 9.088629e+002
9.633480e+002, 9.067983e+002
9.638301e+002, 9.049393e+002
9.643123e+002, 9.029841e+002
9.647944e+002, 9.013846e+002
9.652765e+002, 9.008929e+002
9.657586e+002, 9.011625e+002
9.662407e+002, 9.006337e+002
9.667228e+002, 8.989607e+002
9.672050e+002, 8.967923e+002
9.676871e+002, 8.939581e+002
9.681692e+002, 8.909983e+002
9.686513e+002, 8.877686e+002
9.691334e+002, 8.848758e+002
9.696155e+002, 8.834128e+002
9.700977e+002, 8.832761e+002
9.705798e+002, 8.827922e+002
9.710619e+002, 8.810909e+002
9.715440e+002, 8.791063e+002
9.720261e+002, 8.776057e+002
9.725082e+002, 8.759862e+002
9.729904e+002, 8.731400e+002
9.734725e+002, 8.697485e+002
9.739546e+002, 8.675167e+002
9.744367e+002, 8.668793e+002
9.749188e+002, 8.665578e+002
9.754009e+002, 8.656007e+002
9.758831e+002, 8.643400e+002
9.763652e+002, 8.631612e+002
9.768473e+002, 8.620321e+002
9.773294e+002, 8.610026e+002
9.778115e+002, 8.599705e+002
9.782936e+002, 8.583219e+002
9.787758e+002, 8.557611e+002
9.792579e+002, 8.535113e+002
9.797400e+002, 8.535052e+002
9.802221e+002, 8.548864e+002
9.807042e+002, 8.547237e+002
9.811863e+002, 8.531847e+002
9.816685e+002, 8.516211e+002
9.821506e+002, 8.503098e+002
9.826327e+002, 8.485795e+002
9.831148e+002, 8.459416e+002
9.835969e+002, 8.429265e+002
9.840790e+002, 8.405140e+002
9.845612e+002, 8.387130e+002
9.850433e+002, 8.371782e+002
9.855254e+002, 8.359471e+002
9.860075e+002, 8.347416e+002
9.864896e+002, 8.334329e+002
9.869717e+002, 8.322151e+002
9.874539e+002, 8.310303e+002
9.879360e+002, 8.302574e+002
9.884181e+002, 8.314457e+002
9.889002e+002, 8.360353e+002
9.893823e+002, 8.373176e+002
9.898644e+002, 8.338889e+002
9.903466e+002, 8.297589e+002
9.908287e+002, 8.252528e+002
9.913108e+002, 8.215481e+002
9.917929e+002, 8.204427e+002
9.922750e+002, 8.213059e+002
9.927571e+002, 8.203437e+002
9.932393e+002, 8.162694e+002
9.937214e+002, 8.127200e+002
9.942035e+002, 8.090392e+002
9.946856e+002, 8.067275e+002
9.951677e+002, 8.079102e+002
9.956498e+002, 8.096902e+002
9.961320e+002, 8.084831e+002
9.966141e+002, 8.046425e+002
9.970962e+002, 8.020158e+002
9.975783e+002, 8.024021e+002
9.980604e+002, 8.022466e+002
9.985425e+002, 8.000598e+002
9.990247e+002, 7.976845e+002
9.995068e+002, 7.964093e+002
9.999889e+002, 7.956136e+002
1.000471e+003, 7.941137e+002
1.000953e+003, 7.918969e+002
1.001435e+003, 7.904530e+002
1.001917e+003, 7.912060e+002
1.002399e+003, 7.916378e+002
1.002882e+003, 7.896998e+002
1.003364e+003, 7.874103e+002
1.003846e+003, 7.870433e+002
1.004328e+003, 7.876749e+002
1.004810e+003, 7.872717e+002
1.005292e+003, 7.853461e+002
1.005774e+003, 7.826955e+002
1.006256e+003, 7.790844e+002
1.006739e+003, 7.759404e+002
1.007221e+003, 7.753212e+002
1.007703e+003, 7.755734e+002
1.008185e+003, 7.735458e+002
1.008667e+003, 7.702801e+002
1.009149e+003, 7.699994e+002
1.009631e+003, 7.739058e+002
1.010113e+003, 7.776542e+002
1.010595e+003, 7.778565e+002
1.011078e+003, 7.752034e+002
1.011560e+003, 7.688523e+002
1.012042e+003, 7.609932e+002
1.012524e+003, 7.571161e+002
1.013006e+003, 7.571815e+002
1.013488e+003, 7.577596e+002
1.013970e+003, 7.573195e+002
1.014452e+003, 7.562589e+002
1.014935e+003, 7.547502e+002
1.015417e+003, 7.531676e+002
1.015899e+003, 7.527286e+002
1.016381e+003, 7.531142e+002
1.016863e+003, 7.528273e+002
1.017345e+003, 7.516759e+002
1.017827e+003, 7.502421e+002
1.018309e+003, 7.488323e+002
1.018791e+003, 7.471448e+002
1.019274e+003, 7.443895e+002
1.019756e+003, 7.411104e+002
1.020238e+003, 7.402961e+002
1.020720e+003, 7.418431e+002
1.021202e+003, 7.429144e+002
1.021684e+003, 7.430381e+002
1.022166e+003, 7.422281e+002
1.022648e+003, 7.403786e+002
1.023130e+003, 7.381642e+002
1.023613e+003, 7.367345e+002
1.024095e+003, 7.360085e+002
1.024577e+003, 7.345579e+002
1.025059e+003, 7.322244e+002
1.025541e+003, 7.304935e+002
1.026023e+003, 7.296465e+002
1.026505e+003, 7.294484e+002
1.026987e+003, 7.299935e+002
1.027469e+003, 7.305411e+002
1.027952e+003, 7.295502e+002
1.028434e+003, 7.269037e+002
1.028916e+003, 7.256126e+002
1.029398e+003, 7.263388e+002
1.029880e+003, 7.259670e+002
1.030362e+003, 7.234423e+002
1.030844e+003, 7.208831e+002
1.031326e+003, 7.198897e+002
1.031809e+003, 7.195150e+002
1.032291e+003, 7.176736e+002
1.032773e+003, 7.140547e+002
1.033255e+003, 7.116909e+002
1.033737e+003, 7.109027e+002
1.034219e+003, 7.107484e+002
1.034701e+003, 7.115670e+002
1.035183e+003, 7.121718e+002
1.035666e+003, 7.112353e+002
1.036148e+003, 7.098959e+002
1.036630e+003, 7.110151e+002
1.037112e+003, 7.156258e+002
1.037594e+003, 7.168011e+002
1.038076e+003, 7.117904e+002
1.038558e+003, 7.077242e+002
1.039040e+003, 7.062098e+002
1.039522e+003, 7.055505e+002
1.040005e+003, 7.049212e+002
1.040487e+003, 7.043002e+002
1.040969e+003, 7.037390e+002
1.041451e+003, 7.033611e+002
1.041933e+003, 7.023627e+002
1.042415e+003, 7.000179e+002
1.042897e+003, 6.980497e+002
1.043379e+003, 6.973190e+002
1.043861e+003, 6.965273e+002
1.044344e+003, 6.941649e+002
1.044826e+003, 6.913859e+002
1.045308e+003, 6.908408e+002
1.045790e+003, 6.932114e+002
1.046272e+003, 6.941475e+002
1.046754e+003, 6.919289e+002
1.047236e+003, 6.899852e+002
1.047718e+003, 6.895212e+002
1.048201e+003, 6.892471e+002
1.048683e+003, 6.882355e+002
1.049165e+003, 6.867761e+002
1.049647e+003, 6.852296e+002
1.050129e+003, 6.835355e+002
1.050611e+003, 6.830623e+002
1.051093e+003, 6.856087e+002
1.051575e+003, 6.873026e+002
1.052057e+003, 6.859596e+002
1.052540e+003, 6.843521e+002
1.053022e+003, 6.848033e+002
1.053504e+003, 6.863239e+002
1.053986e+003, 6.872629e+002
1.054468e+003, 6.874117e+002
1.054950e+003, 6.857899e+002
1.055432e+003, 6.798722e+002
1.055914e+003, 6.752193e+002
1.056396e+003, 6.743287e+002
1.056879e+003, 6.748151e+002
1.057361e+003, 6.754422e+002
1.057843e+003, 6.759363e+002
1.058325e+003, 6.761656e+002
1.058807e+003, 6.761044e+002
1.059289e+003, 6.755898e+002
1.059771e+003, 6.744570e+002
1.060253e+003, 6.730190e+002
1.060736e+003, 6.711708e+002
1.061218e+003, 6.692784e+002
1.061700e+003, 6.674406e+002
1.062182e+003, 6.658225e+002
1.062664e+003, 6.647676e+002
1.063146e+003, 6.642758e+002
1.063628e+003, 6.636729e+002
1.064110e+003, 6.621696e+002
1.064593e+003, 6.612813e+002
1.065075e+003, 6.626468e+002
1.065557e+003, 6.638585e+002
1.066039e+003, 6.627635e+002
1.066521e+003, 6.604241e+002
1.067003e+003, 6.586258e+002
1.067485e+003, 6.575964e+002
1.067967e+003, 6.563916e+002
1.068449e+003, 6.541110e+002
1.068932e+003, 6.525574e+002
1.069414e+003, 6.530489e+002
1.069896e+003, 6.540513e+002
1.070378e+003, 6.547797e+002
1.070860e+003, 6.550646e+002
1.071342e+003, 6.546614e+002
1.071824e+003, 6.536566e+002
1.072306e+003, 6.526604e+002
1.072788e+003, 6.518918e+002
1.073271e+003, 6.511677e+002
1.073753e+003, 6.505818e+002
1.074235e+003, 6.498184e+002
1.074717e+003, 6.483126e+002
1.075199e+003, 6.466992e+002
1.075681e+003, 6.458588e+002
1.076163e+003, 6.457689e+002
1.076645e+003, 6.457171e+002
1.077127e+003, 6.453474e+002
1.077610e+003, 6.453580e+002
1.078092e+003, 6.470751e+002
1.078574e+003, 6.481877e+002
1.079056e+003, 6.465807e+002
1.079538e+003, 6.438746e+002
1.080020e+003, 6.418160e+002
1.080502e+003, 6.405784e+002
1.080984e+003, 6.398263e+002
1.081467e+003, 6.395441e+002
1.081949e+003, 6.393226e+002
1.082431e+003, 6.387848e+002
1.082913e+003, 6.384747e+002
1.083395e+003, 6.391375e+002
1.083877e+003, 6.398824e+002
1.084359e+003, 6.396521e+002
1.084841e+003, 6.386736e+002
1.085323e+003, 6.376100e+002
1.085806e+003, 6.365316e+002
1.086288e+003, 6.364293e+002
1.086770e+003, 6.395011e+002
1.087252e+003, 6.414394e+002
1.087734e+003, 6.386656e+002
1.088216e+003, 6.348957e+002
1.088698e+003, 6.338595e+002
1.089180e+003, 6.345674e+002
1.089662e+003, 6.341639e+002
1.090145e+003, 6.320497e+002
1.090627e+003, 6.305758e+002
1.091109e+003, 6.308326e+002
1.091591e+003, 6.316221e+002
1.092073e+003, 6.331885e+002
1.092555e+003, 6.343603e+002
1.093037e+003, 6.338279e+002
1.093519e+003, 6.324249e+002
1.094002e+003, 6.317357e+002
1.094484e+003, 6.319102e+002
1.094966e+003, 6.315375e+002
1.095448e+003, 6.297185e+002
1.095930e+003, 6.279669e+002
1.096412e+003, 6.268527e+002
1.096894e+003, 6.258786e+002
1.097376e+003, 6.246932e+002
1.097859e+003, 6.234619e+002
1.098341e+003, 6.221437e+002
1.098823e+003, 6.209280e+002
1.099305e+003, 6.208645e+002
1.099787e+003, 6.230047e+002
1.100269e+003, 6.246068e+002
1.100751e+003, 6.254647e+002
1.101233e+003, 6.250278e+002
1.101715e+003, 6.215110e+002
1.102198e+003, 6.177189e+002
1.102680e+003, 6.171567e+002
1.103162e+003, 6.189918e+002
1.103644e+003, 6.192675e+002
1.104126e+003, 6.166158e+002
1.104608e+003, 6.149657e+002
1.105090e+003, 6.158300e+002
1.105572e+003, 6.167366e+002
1.106054e+003, 6.167468e+002
1.106537e+003, 6.165403e+002
1.107019e+003, 6.167761e+002
1.107501e+003, 6.172164e+002
1.107983e+003, 6.171318e+002
1.108465e+003, 6.162885e+002
1.108947e+003, 6.159679e+002
1.109429e+003, 6.170675e+002
1.109911e+003, 6.175714e+002
1.110394e+003, 6.168503e+002
1.110876e+003, 6.156552e+002
1.111358e+003, 6.138321e+002
1.111840e+003, 6.120995e+002
1.112322e+003, 6.119127e+002
1.112804e+003, 6.133973e+002
1.113286e+003, 6.139705e+002
1.113768e+003, 6.126454e+002
1.114250e+003, 6.120549e+002
1.114733e+003, 6.129486e+002
1.115215e+003, 6.138327e+002
1.115697e+003, 6.142864e+002
1.116179e+003, 6.142139e+002
1.116661e+003, 6.131650e+002
1.117143e+003, 6.113992e+002
1.117625e+003, 6.109182e+002
1.118107e+003, 6.128566e+002
1.118589e+003, 6.132803e+002
1.119072e+003, 6.109761e+002
1.119554e+003, 6.096234e+002
1.120036e+003, 6.109792e+002
1.120518e+003, 6.126518e+002
1.121000e+003, 6.124532e+002
1.121482e+003, 6.111088e+002
1.121964e+003, 6.108881e+002
1.122446e+003, 6.121929e+002
1.122929e+003, 6.120222e+002
1.123411e+003, 6.098137e+002
1.123893e+003, 6.079817e+002
1.124375e+003, 6.069641e+002
1.124857e+003, 6.066718e+002
1.125339e+003, 6.071870e+002
1.125821e+003, 6.081070e+002
1.126303e+003, 6.088137e+002
1.126786e+003, 6.092861e+002
1.127268e+003, 6.091083e+002
1.127750e+003, 6.082095e+002
1.128232e+003, 6.072397e+002
1.128714e+003, 6.062451e+002
1.129196e+003, 6.055142e+002
1.129678e+003, 6.051920e+002
1.130160e+003, 6.051312e+002
1.130642e+003, 6.051570e+002
1.131125e+003, 6.053287e+002
1.131607e+003, 6.061026e+002
1.132089e+003, 6.073912e+002
1.132571e+003, 6.072073e+002
1.133053e+003, 6.055069e+002
1.133535e+003, 6.050052e+002
1.134017e+003, 6.065298e+002
1.134499e+003, 6.082098e+002
1.134981e+003, 6.085920e+002
1.135464e+003, 6.082746e+002
1.135946e+003, 6.085128e+002
1.136428e+003, 6.089586e+002
1.136910e+003, 6.077229e+002
1.137392e+003, 6.053514e+002
1.137874e+003, 6.048156e+002
1.138356e+003, 6.064171e+002
1.138838e+003, 6.080243e+002
1.139321e+003, 6.085481e+002
1.139803e+003, 6.086420e+002
1.140285e+003, 6.088423e+002
1.140767e+003, 6.092963e+002
1.141249e+003, 6.108750e+002
1.141731e+003, 6.126804e+002
1.142213e+003, 6.124084e+002
1.142695e+003, 6.104236e+002
1.143177e+003, 6.085677e+002
1.143660e+003, 6.074889e+002
1.144142e+003, 6.070695e+002
1.144624e+003, 6.073611e+002
1.145106e+003, 6.079532e+002
1.145588e+003, 6.087787e+002
1.146070e+003, 6.093680e+002
1.146552e+003, 6.086140e+002
1.147034e+003, 6.074053e+002
1.147516e+003, 6.073843e+002
1.147999e+003, 6.086826e+002
1.148481e+003, 6.106141e+002
1.148963e+003, 6.131194e+002
1.149445e+003, 6.147964e+002
1.149927e+003, 6.138395e+002
1.150409e+003, 6.127763e+002
1.150891e+003, 6.129174e+002
1.151373e+003, 6.143265e+002
1.151856e+003, 6.180880e+002
1.152338e+003, 6.228029e+002
1.152820e+003, 6.253392e+002
1.153302e+003, 6.250482e+002
1.153784e+003, 6.245980e+002
1.154266e+003, 6.252716e+002
1.154748e+003, 6.253753e+002
1.155230e+003, 6.240258e+002
1.155713e+003, 6.223016e+002
1.156195e+003, 6.206307e+002
1.156677e+003, 6.191391e+002
1.157159e+003, 6.173880e+002
1.157641e+003, 6.157188e+002
1.158123e+003, 6.164817e+002
1.158605e+003, 6.218082e+002
1.159087e+003, 6.254742e+002
1.159569e+003, 6.252824e+002
1.160052e+003, 6.259568e+002
1.160534e+003, 6.312336e+002
1.161016e+003, 6.349543e+002
1.161498e+003, 6.311180e+002
1.161980e+003, 6.233437e+002
1.162462e+003, 6.195947e+002
1.162944e+003, 6.202604e+002
1.163426e+003, 6.206666e+002
1.163908e+003, 6.207103e+002
1.164391e+003, 6.206487e+002
1.164873e+003, 6.200876e+002
1.165355e+003, 6.208593e+002
1.165837e+003, 6.243819e+002
1.166319e+003, 6.281362e+002
1.166801e+003, 6.289521e+002
1.167283e+003, 6.277138e+002
1.167765e+003, 6.281584e+002
1.168247e+003, 6.303464e+002
1.168730e+003, 6.325623e+002
1.169212e+003, 6.347565e+002
1.169694e+003, 6.356280e+002
1.170176e+003, 6.347839e+002
1.170658e+003, 6.341915e+002
1.171140e+003, 6.352560e+002
1.171622e+003, 6.369728e+002
1.172104e+003, 6.376912e+002
1.172587e+003, 6.377571e+002
1.173069e+003, 6.383542e+002
1.173551e+003, 6.393362e+002
1.174033e+003, 6.401929e+002
1.174515e+003, 6.408524e+002
1.174997e+003, 6.412983e+002
1.175479e+003, 6.415582e+002
1.175961e+003, 6.419590e+002
1.176443e+003, 6.426455e+002
1.176926e+003, 6.438922e+002
1.177408e+003, 6.470751e+002
1.177890e+003, 6.502727e+002
1.178372e+003, 6.499774e+002
1.178854e+003, 6.477782e+002
1.179336e+003, 6.468834e+002
1.179818e+003, 6.477520e+002
1.180300e+003, 6.495224e+002
1.180782e+003, 6.519811e+002
1.181265e+003, 6.541263e+002
1.181747e+003, 6.551717e+002
1.182229e+003, 6.559131e+002
1.182711e+003, 6.567925e+002
1.183193e+003, 6.576826e+002
1.183675e+003, 6.582360e+002
1.184157e+003, 6.587889e+002
1.184639e+003, 6.599462e+002
1.185122e+003, 6.617923e+002
1.185604e+003, 6.640735e+002
1.186086e+003, 6.682419e+002
1.186568e+003, 6.704114e+002
1.187050e+003, 6.674216e+002
1.187532e+003, 6.654431e+002
1.188014e+003, 6.681748e+002
1.188496e+003, 6.721036e+002
1.188979e+003, 6.738864e+002
1.189461e+003, 6.742971e+002
1.189943e+003, 6.756234e+002
1.190425e+003, 6.781911e+002
1.190907e+003, 6.796625e+002
1.191389e+003, 6.795698e+002
1.191871e+003, 6.796517e+002
1.192353e+003, 6.801310e+002
1.192835e+003, 6.809202e+002
1.193318e+003, 6.819049e+002
1.193800e+003, 6.834248e+002
1.194282e+003, 6.860299e+002
1.194764e+003, 6.893452e+002
1.195246e+003, 6.919969e+002
1.195728e+003, 6.939797e+002
1.196210e+003, 6.946164e+002
1.196692e+003, 6.939933e+002
1.197174e+003, 6.946766e+002
1.197657e+003, 6.972452e+002
1.198139e+003, 7.001491e+002
1.198621e+003, 7.024507e+002
1.199103e+003, 7.042498e+002
1.199585e+003, 7.052020e+002
1.200067e+003, 7.060908e+002
1.200549e+003, 7.090894e+002
1.201031e+003, 7.130299e+002
1.201514e+003, 7.152136e+002
1.201996e+003, 7.159150e+002
1.202478e+003, 7.166274e+002
1.202960e+003, 7.178890e+002
1.203442e+003, 7.200189e+002
1.203924e+003, 7.235732e+002
1.204406e+003, 7.269333e+002
1.204888e+003, 7.289528e+002
1.205370e+003, 7.301813e+002
1.205853e+003, 7.304036e+002
1.206335e+003, 7.305955e+002
1.206817e+003, 7.318770e+002
1.207299e+003, 7.341163e+002
1.207781e+003, 7.371042e+002
1.208263e+003, 7.409473e+002
1.208745e+003, 7.427493e+002
1.209227e+003, 7.386012e+002
1.209709e+003, 7.371555e+002
1.210192e+003, 7.419717e+002
1.210674e+003, 7.478019e+002
1.211156e+003, 7.532070e+002
1.211638e+003, 7.573204e+002
1.212120e+003, 7.585264e+002
1.212602e+003, 7.578610e+002
1.213084e+003, 7.593903e+002
1.213566e+003, 7.637157e+002
1.214049e+003, 7.672001e+002
1.214531e+003, 7.697369e+002
1.215013e+003, 7.717634e+002
1.215495e+003, 7.732406e+002
1.215977e+003, 7.749206e+002
1.216459e+003, 7.773259e+002
1.216941e+003, 7.792914e+002
1.217423e+003, 7.789612e+002
1.217906e+003, 7.777709e+002
1.218388e+003, 7.807416e+002
1.218870e+003, 7.869274e+002
1.219352e+003, 7.918289e+002
1.219834e+003, 7.952756e+002
1.220316e+003, 7.973671e+002
1.220798e+003, 7.985078e+002
1.221280e+003, 8.010420e+002
1.221762e+003, 8.063124e+002
1.222245e+003, 8.115873e+002
1.222727e+003, 8.136797e+002
1.223209e+003, 8.147737e+002
1.223691e+003, 8.173951e+002
1.224173e+003, 8.205232e+002
1.224655e+003, 8.225898e+002
1.225137e+003, 8.241456e+002
1.225619e+003, 8.266053e+002
1.226101e+003, 8.300324e+002
1.226584e+003, 8.332797e+002
1.227066e+003, 8.360401e+002
1.227548e+003, 8.382798e+002
1.228030e+003, 8.396989e+002
1.228512e+003, 8.409698e+002
1.228994e+003, 8.412288e+002
1.229476e+003, 8.425875e+002
1.229958e+003, 8.479742e+002
1.230441e+003, 8.549407e+002
1.230923e+003, 8.589210e+002
1.231405e+003, 8.600326e+002
1.231887e+003, 8.619618e+002
1.232369e+003, 8.648349e+002
1.232851e+003, 8.680609e+002
1.233333e+003, 8.714547e+002
1.233815e+003, 8.759960e+002
1.234297e+003, 8.823156e+002
1.234780e+003, 8.883347e+002
1.235262e+003, 8.925349e+002
1.235744e+003, 8.957145e+002
1.236226e+003, 8.993928e+002
1.236708e+003, 9.031484e+002
1.237190e+003, 9.047748e+002
1.237672e+003, 9.049041e+002
1.238154e+003, 9.061369e+002
1.238636e+003, 9.088010e+002
1.239119e+003, 9.135477e+002
1.239601e+003, 9.200787e+002
1.240083e+003, 9.250778e+002
1.240565e+003, 9.261276e+002
1.241047e+003, 9.266645e+002
1.241529e+003, 9.299556e+002
1.242011e+003, 9.343793e+002
1.242493e+003, 9.386098e+002
1.242975e+003, 9.428671e+002
1.243458e+003, 9.478685e+002
1.243940e+003, 9.530571e+002
1.244422e+003, 9.569677e+002
1.244904e+003, 9.595195e+002
1.245386e+003, 9.626277e+002
1.245868e+003, 9.675567e+002
1.246350e+003, 9.716381e+002
1.246832e+003, 9.728147e+002
1.247315e+003, 9.753055e+002
1.247797e+003, 9.819338e+002
1.248279e+003, 9.885939e+002
1.248761e+003, 9.920651e+002
1.249243e+003, 9.940172e+002
1.249725e+003, 9.974445e+002
1.250207e+003, 1.002268e+003
1.250689e+003, 1.007507e+003
1.251172e+003, 1.013241e+003
1.251654e+003, 1.018238e+003
1.252136e+003, 1.022381e+003
1.252618e+003, 1.026676e+003
1.253100e+003, 1.031426e+003
1.253582e+003, 1.036483e+003
1.254064e+003, 1.041775e+003
1.254546e+003, 1.046737e+003
1.255028e+003, 1.049952e+003
1.255510e+003, 1.052700e+003
1.255993e+003, 1.057716e+003
1.256475e+003, 1.063849e+003
1.256957e+003, 1.068995e+003
1.257439e+003, 1.073233e+003
1.257921e+003, 1.077376e+003
1.258403e+003, 1.081565e+003
1.258885e+003, 1.085349e+003
1.259367e+003, 1.088210e+003
1.259850e+003, 1.091881e+003
1.260332e+003, 1.097485e+003
1.260814e+003, 1.103667e+003
1.261296e+003, 1.110102e+003
1.261778e+003, 1.116572e+003
1.262260e+003, 1.122765e+003
1.262742e+003, 1.129016e+003
1.263224e+003, 1.136072e+003
1.263707e+003, 1.143771e+003
1.264189e+003, 1.150298e+003
1.264671e+003, 1.155426e+003
1.265153e+003, 1.160030e+003
1.265635e+003, 1.163763e+003
1.266117e+003, 1.168610e+003
1.266599e+003, 1.175178e+003
1.267081e+003, 1.181848e+003
1.267563e+003, 1.187755e+003
1.268046e+003, 1.193003e+003
1.268528e+003, 1.197653e+003
1.269010e+003, 1.201986e+003
1.269492e+003, 1.206112e+003
1.269974e+003, 1.210712e+003
1.270456e+003, 1.218153e+003
1.270938e+003, 1.227485e+003
1.271420e+003, 1.236094e+003
1.271902e+003, 1.243568e+003
1.272385e+003, 1.250734e+003
1.272867e+003, 1.257902e+003
1.273349e+003, 1.263966e+003
1.273831e+003, 1.267148e+003
1.274313e+003, 1.270666e+003
1.274795e+003, 1.275986e+003
1.275277e+003, 1.282409e+003
1.275759e+003, 1.290194e+003
1.276242e+003, 1.298307e+003
1.276724e+003, 1.305619e+003
1.277206e+003, 1.312349e+003
1.277688e+003, 1.319271e+003
1.278170e+003, 1.326523e+003
1.278652e+003, 1.332476e+003
1.279134e+003, 1.336120e+003
1.279616e+003, 1.342592e+003
1.280099e+003, 1.353226e+003
1.280581e+003, 1.361935e+003
1.281063e+003, 1.366220e+003
1.281545e+003, 1.370826e+003
1.282027e+003, 1.379684e+003
1.282509e+003, 1.390392e+003
1.282991e+003, 1.397527e+003
1.283473e+003, 1.404095e+003
1.283955e+003, 1.416815e+003
##END=



