##NAMES=Ferriallanite-(La)
##RRUFFID=R141069
##IDEAL CHEMISTRY=CaLa^3+^(Fe^3+^AlFe^2+^)(SiO_4_)(Si_2_O_7_)O(OH)
##LOCALITY=In den Dellen quarries, Niedermendig, Mendig, Laach lake volcanic complex, Eifel, Rhineland-Palatinate, Germany
##OWNER=RRUFF
##SOURCE=Ch. and H. Sch√§fer
##DESCRIPTION=Black tabular crystals embedded in matrix, associated with sanidine, magnetite and cancrinite.
##STATUS=The identification of this mineral has been confirmed only by single crystal X-ray diffraction.
##URL=rruff.info/R141069
8.930109e+001, 0.000000e+000
8.978320e+001, 1.858711e+002
9.026532e+001, 1.864675e+002
9.074744e+001, 1.865615e+002
9.122955e+001, 1.855686e+002
9.171167e+001, 1.852160e+002
9.219379e+001, 1.881973e+002
9.267590e+001, 1.940992e+002
9.315802e+001, 1.994733e+002
9.364014e+001, 2.024633e+002
9.412225e+001, 2.030903e+002
9.460437e+001, 2.007856e+002
9.508649e+001, 1.939373e+002
9.556860e+001, 1.849756e+002
9.605072e+001, 1.803023e+002
9.653284e+001, 1.804167e+002
9.701495e+001, 1.810610e+002
9.749707e+001, 1.774032e+002
9.797919e+001, 1.695803e+002
9.846130e+001, 1.624973e+002
9.894342e+001, 1.574134e+002
9.942554e+001, 1.542100e+002
9.990765e+001, 1.524894e+002
1.003898e+002, 1.525058e+002
1.008719e+002, 1.533212e+002
1.013540e+002, 1.539088e+002
1.018361e+002, 1.546110e+002
1.023182e+002, 1.540422e+002
1.028004e+002, 1.512419e+002
1.032825e+002, 1.453506e+002
1.037646e+002, 1.411840e+002
1.042467e+002, 1.390662e+002
1.047288e+002, 1.384278e+002
1.052109e+002, 1.379085e+002
1.056931e+002, 1.368979e+002
1.061752e+002, 1.368105e+002
1.066573e+002, 1.382210e+002
1.071394e+002, 1.410234e+002
1.076215e+002, 1.453781e+002
1.081036e+002, 1.528773e+002
1.085858e+002, 1.625004e+002
1.090679e+002, 1.685468e+002
1.095500e+002, 1.705519e+002
1.100321e+002, 1.696119e+002
1.105142e+002, 1.663393e+002
1.109963e+002, 1.574588e+002
1.114785e+002, 1.499869e+002
1.119606e+002, 1.448305e+002
1.124427e+002, 1.419137e+002
1.129248e+002, 1.399073e+002
1.134069e+002, 1.388308e+002
1.138890e+002, 1.384462e+002
1.143712e+002, 1.385532e+002
1.148533e+002, 1.389447e+002
1.153354e+002, 1.399556e+002
1.158175e+002, 1.418140e+002
1.162996e+002, 1.445979e+002
1.167817e+002, 1.475735e+002
1.172639e+002, 1.511581e+002
1.177460e+002, 1.546520e+002
1.182281e+002, 1.571638e+002
1.187102e+002, 1.583370e+002
1.191923e+002, 1.584787e+002
1.196744e+002, 1.575948e+002
1.201566e+002, 1.555523e+002
1.206387e+002, 1.531206e+002
1.211208e+002, 1.501883e+002
1.216029e+002, 1.471949e+002
1.220850e+002, 1.450695e+002
1.225671e+002, 1.441988e+002
1.230493e+002, 1.444554e+002
1.235314e+002, 1.458261e+002
1.240135e+002, 1.484927e+002
1.244956e+002, 1.518104e+002
1.249777e+002, 1.565475e+002
1.254598e+002, 1.619099e+002
1.259420e+002, 1.647801e+002
1.264241e+002, 1.612435e+002
1.269062e+002, 1.540383e+002
1.273883e+002, 1.481423e+002
1.278704e+002, 1.446935e+002
1.283525e+002, 1.428524e+002
1.288347e+002, 1.414088e+002
1.293168e+002, 1.403822e+002
1.297989e+002, 1.401588e+002
1.302810e+002, 1.416772e+002
1.307631e+002, 1.444460e+002
1.312452e+002, 1.464695e+002
1.317274e+002, 1.470190e+002
1.322095e+002, 1.466066e+002
1.326916e+002, 1.468378e+002
1.331737e+002, 1.478662e+002
1.336558e+002, 1.484563e+002
1.341379e+002, 1.469981e+002
1.346201e+002, 1.435285e+002
1.351022e+002, 1.403750e+002
1.355843e+002, 1.382363e+002
1.360664e+002, 1.370169e+002
1.365485e+002, 1.361203e+002
1.370306e+002, 1.355560e+002
1.375128e+002, 1.352891e+002
1.379949e+002, 1.351967e+002
1.384770e+002, 1.352155e+002
1.389591e+002, 1.357269e+002
1.394412e+002, 1.368068e+002
1.399233e+002, 1.384279e+002
1.404055e+002, 1.411809e+002
1.408876e+002, 1.460718e+002
1.413697e+002, 1.510580e+002
1.418518e+002, 1.525542e+002
1.423339e+002, 1.493723e+002
1.428160e+002, 1.453790e+002
1.432982e+002, 1.417887e+002
1.437803e+002, 1.385695e+002
1.442624e+002, 1.359663e+002
1.447445e+002, 1.340666e+002
1.452266e+002, 1.327637e+002
1.457087e+002, 1.319127e+002
1.461909e+002, 1.317318e+002
1.466730e+002, 1.317069e+002
1.471551e+002, 1.315969e+002
1.476372e+002, 1.309605e+002
1.481193e+002, 1.310229e+002
1.486014e+002, 1.325251e+002
1.490836e+002, 1.348312e+002
1.495657e+002, 1.357651e+002
1.500478e+002, 1.341106e+002
1.505299e+002, 1.320482e+002
1.510120e+002, 1.305110e+002
1.514941e+002, 1.296385e+002
1.519763e+002, 1.291350e+002
1.524584e+002, 1.290956e+002
1.529405e+002, 1.294589e+002
1.534226e+002, 1.299082e+002
1.539047e+002, 1.307191e+002
1.543868e+002, 1.314146e+002
1.548690e+002, 1.317351e+002
1.553511e+002, 1.305586e+002
1.558332e+002, 1.301677e+002
1.563153e+002, 1.318226e+002
1.567974e+002, 1.351234e+002
1.572795e+002, 1.368299e+002
1.577617e+002, 1.348955e+002
1.582438e+002, 1.318323e+002
1.587259e+002, 1.294550e+002
1.592080e+002, 1.287105e+002
1.596901e+002, 1.281926e+002
1.601722e+002, 1.274429e+002
1.606544e+002, 1.264772e+002
1.611365e+002, 1.257512e+002
1.616186e+002, 1.254534e+002
1.621007e+002, 1.254594e+002
1.625828e+002, 1.256479e+002
1.630649e+002, 1.259945e+002
1.635471e+002, 1.265043e+002
1.640292e+002, 1.274047e+002
1.645113e+002, 1.287005e+002
1.649934e+002, 1.295360e+002
1.654755e+002, 1.291897e+002
1.659576e+002, 1.282098e+002
1.664398e+002, 1.272821e+002
1.669219e+002, 1.266623e+002
1.674040e+002, 1.261736e+002
1.678861e+002, 1.257066e+002
1.683682e+002, 1.252507e+002
1.688503e+002, 1.248629e+002
1.693325e+002, 1.246176e+002
1.698146e+002, 1.244606e+002
1.702967e+002, 1.243073e+002
1.707788e+002, 1.236590e+002
1.712609e+002, 1.232554e+002
1.717430e+002, 1.241076e+002
1.722252e+002, 1.264411e+002
1.727073e+002, 1.285622e+002
1.731894e+002, 1.289991e+002
1.736715e+002, 1.281929e+002
1.741536e+002, 1.271391e+002
1.746357e+002, 1.260164e+002
1.751179e+002, 1.250249e+002
1.756000e+002, 1.244942e+002
1.760821e+002, 1.245220e+002
1.765642e+002, 1.246407e+002
1.770463e+002, 1.243263e+002
1.775284e+002, 1.237103e+002
1.780106e+002, 1.232021e+002
1.784927e+002, 1.230990e+002
1.789748e+002, 1.232265e+002
1.794569e+002, 1.232955e+002
1.799390e+002, 1.232722e+002
1.804211e+002, 1.232205e+002
1.809033e+002, 1.233003e+002
1.813854e+002, 1.234565e+002
1.818675e+002, 1.234280e+002
1.823496e+002, 1.227808e+002
1.828317e+002, 1.218519e+002
1.833138e+002, 1.215146e+002
1.837960e+002, 1.220000e+002
1.842781e+002, 1.227047e+002
1.847602e+002, 1.226321e+002
1.852423e+002, 1.218785e+002
1.857244e+002, 1.212620e+002
1.862065e+002, 1.214136e+002
1.866887e+002, 1.221351e+002
1.871708e+002, 1.226929e+002
1.876529e+002, 1.230029e+002
1.881350e+002, 1.231286e+002
1.886171e+002, 1.231521e+002
1.890992e+002, 1.230737e+002
1.895814e+002, 1.229124e+002
1.900635e+002, 1.226566e+002
1.905456e+002, 1.223146e+002
1.910277e+002, 1.219524e+002
1.915098e+002, 1.215494e+002
1.919919e+002, 1.211702e+002
1.924741e+002, 1.210521e+002
1.929562e+002, 1.212147e+002
1.934383e+002, 1.212383e+002
1.939204e+002, 1.206330e+002
1.944025e+002, 1.194588e+002
1.948846e+002, 1.188078e+002
1.953668e+002, 1.189242e+002
1.958489e+002, 1.195006e+002
1.963310e+002, 1.198584e+002
1.968131e+002, 1.199932e+002
1.972952e+002, 1.199400e+002
1.977773e+002, 1.195956e+002
1.982595e+002, 1.189463e+002
1.987416e+002, 1.186027e+002
1.992237e+002, 1.187196e+002
1.997058e+002, 1.191229e+002
2.001879e+002, 1.193435e+002
2.006700e+002, 1.193655e+002
2.011522e+002, 1.192888e+002
2.016343e+002, 1.191532e+002
2.021164e+002, 1.189495e+002
2.025985e+002, 1.187932e+002
2.030806e+002, 1.187155e+002
2.035627e+002, 1.186864e+002
2.040449e+002, 1.186031e+002
2.045270e+002, 1.184481e+002
2.050091e+002, 1.182937e+002
2.054912e+002, 1.182335e+002
2.059733e+002, 1.183123e+002
2.064554e+002, 1.181610e+002
2.069376e+002, 1.175696e+002
2.074197e+002, 1.167664e+002
2.079018e+002, 1.167275e+002
2.083839e+002, 1.177351e+002
2.088660e+002, 1.187921e+002
2.093481e+002, 1.191829e+002
2.098303e+002, 1.187865e+002
2.103124e+002, 1.182567e+002
2.107945e+002, 1.175454e+002
2.112766e+002, 1.167759e+002
2.117587e+002, 1.164809e+002
2.122408e+002, 1.168248e+002
2.127230e+002, 1.172997e+002
2.132051e+002, 1.175932e+002
2.136872e+002, 1.176867e+002
2.141693e+002, 1.176359e+002
2.146514e+002, 1.173608e+002
2.151335e+002, 1.169432e+002
2.156157e+002, 1.168079e+002
2.160978e+002, 1.170634e+002
2.165799e+002, 1.173924e+002
2.170620e+002, 1.175926e+002
2.175441e+002, 1.176295e+002
2.180262e+002, 1.176217e+002
2.185084e+002, 1.175336e+002
2.189905e+002, 1.174063e+002
2.194726e+002, 1.174730e+002
2.199547e+002, 1.178526e+002
2.204368e+002, 1.182281e+002
2.209189e+002, 1.184000e+002
2.214011e+002, 1.183409e+002
2.218832e+002, 1.181443e+002
2.223653e+002, 1.177309e+002
2.228474e+002, 1.171856e+002
2.233295e+002, 1.168830e+002
2.238116e+002, 1.169130e+002
2.242938e+002, 1.170540e+002
2.247759e+002, 1.171794e+002
2.252580e+002, 1.172714e+002
2.257401e+002, 1.173894e+002
2.262222e+002, 1.175595e+002
2.267043e+002, 1.177576e+002
2.271865e+002, 1.178937e+002
2.276686e+002, 1.179637e+002
2.281507e+002, 1.179721e+002
2.286328e+002, 1.179045e+002
2.291149e+002, 1.176966e+002
2.295970e+002, 1.175681e+002
2.300792e+002, 1.175689e+002
2.305613e+002, 1.176598e+002
2.310434e+002, 1.176882e+002
2.315255e+002, 1.176455e+002
2.320076e+002, 1.175575e+002
2.324897e+002, 1.174300e+002
2.329719e+002, 1.172288e+002
2.334540e+002, 1.170681e+002
2.339361e+002, 1.169366e+002
2.344182e+002, 1.168510e+002
2.349003e+002, 1.168871e+002
2.353824e+002, 1.171716e+002
2.358646e+002, 1.173968e+002
2.363467e+002, 1.173674e+002
2.368288e+002, 1.168327e+002
2.373109e+002, 1.166147e+002
2.377930e+002, 1.168690e+002
2.382751e+002, 1.174298e+002
2.387573e+002, 1.177834e+002
2.392394e+002, 1.178322e+002
2.397215e+002, 1.178091e+002
2.402036e+002, 1.178170e+002
2.406857e+002, 1.178815e+002
2.411678e+002, 1.179071e+002
2.416500e+002, 1.178448e+002
2.421321e+002, 1.177554e+002
2.426142e+002, 1.178233e+002
2.430963e+002, 1.182208e+002
2.435784e+002, 1.185192e+002
2.440605e+002, 1.185089e+002
2.445427e+002, 1.180286e+002
2.450248e+002, 1.176554e+002
2.455069e+002, 1.174062e+002
2.459890e+002, 1.172584e+002
2.464711e+002, 1.171727e+002
2.469532e+002, 1.171836e+002
2.474354e+002, 1.172014e+002
2.479175e+002, 1.171765e+002
2.483996e+002, 1.170571e+002
2.488817e+002, 1.170802e+002
2.493638e+002, 1.173295e+002
2.498459e+002, 1.176768e+002
2.503281e+002, 1.178868e+002
2.508102e+002, 1.179306e+002
2.512923e+002, 1.178906e+002
2.517744e+002, 1.177920e+002
2.522565e+002, 1.176366e+002
2.527386e+002, 1.174037e+002
2.532208e+002, 1.169916e+002
2.537029e+002, 1.165773e+002
2.541850e+002, 1.164578e+002
2.546671e+002, 1.167769e+002
2.551492e+002, 1.171095e+002
2.556313e+002, 1.173350e+002
2.561135e+002, 1.174464e+002
2.565956e+002, 1.174751e+002
2.570777e+002, 1.173857e+002
2.575598e+002, 1.172429e+002
2.580419e+002, 1.170742e+002
2.585240e+002, 1.167105e+002
2.590062e+002, 1.167273e+002
2.594883e+002, 1.175007e+002
2.599704e+002, 1.191174e+002
2.604525e+002, 1.198725e+002
2.609346e+002, 1.193997e+002
2.614167e+002, 1.185112e+002
2.618989e+002, 1.181900e+002
2.623810e+002, 1.187194e+002
2.628631e+002, 1.190663e+002
2.633452e+002, 1.189428e+002
2.638273e+002, 1.183510e+002
2.643094e+002, 1.178603e+002
2.647916e+002, 1.174629e+002
2.652737e+002, 1.171709e+002
2.657558e+002, 1.170058e+002
2.662379e+002, 1.169986e+002
2.667200e+002, 1.170233e+002
2.672021e+002, 1.170486e+002
2.676843e+002, 1.170811e+002
2.681664e+002, 1.171876e+002
2.686485e+002, 1.173725e+002
2.691306e+002, 1.176190e+002
2.696127e+002, 1.179560e+002
2.700948e+002, 1.184385e+002
2.705770e+002, 1.187425e+002
2.710591e+002, 1.187702e+002
2.715412e+002, 1.185764e+002
2.720233e+002, 1.184229e+002
2.725054e+002, 1.183187e+002
2.729875e+002, 1.182318e+002
2.734697e+002, 1.181073e+002
2.739518e+002, 1.179143e+002
2.744339e+002, 1.178952e+002
2.749160e+002, 1.181291e+002
2.753981e+002, 1.185248e+002
2.758802e+002, 1.187902e+002
2.763624e+002, 1.188821e+002
2.768445e+002, 1.190017e+002
2.773266e+002, 1.193594e+002
2.778087e+002, 1.199908e+002
2.782908e+002, 1.203068e+002
2.787729e+002, 1.201829e+002
2.792551e+002, 1.198113e+002
2.797372e+002, 1.196514e+002
2.802193e+002, 1.197402e+002
2.807014e+002, 1.197998e+002
2.811835e+002, 1.196286e+002
2.816656e+002, 1.192318e+002
2.821478e+002, 1.189718e+002
2.826299e+002, 1.188663e+002
2.831120e+002, 1.188953e+002
2.835941e+002, 1.191141e+002
2.840762e+002, 1.195397e+002
2.845583e+002, 1.198153e+002
2.850405e+002, 1.196411e+002
2.855226e+002, 1.190916e+002
2.860047e+002, 1.188990e+002
2.864868e+002, 1.191250e+002
2.869689e+002, 1.195154e+002
2.874510e+002, 1.197486e+002
2.879332e+002, 1.198297e+002
2.884153e+002, 1.198619e+002
2.888974e+002, 1.197891e+002
2.893795e+002, 1.196921e+002
2.898616e+002, 1.200086e+002
2.903438e+002, 1.208058e+002
2.908259e+002, 1.215459e+002
2.913080e+002, 1.214583e+002
2.917901e+002, 1.206948e+002
2.922722e+002, 1.201779e+002
2.927543e+002, 1.203416e+002
2.932365e+002, 1.208886e+002
2.937186e+002, 1.210772e+002
2.942007e+002, 1.208999e+002
2.946828e+002, 1.207254e+002
2.951649e+002, 1.210380e+002
2.956470e+002, 1.216493e+002
2.961292e+002, 1.219231e+002
2.966113e+002, 1.215789e+002
2.970934e+002, 1.209408e+002
2.975755e+002, 1.204325e+002
2.980576e+002, 1.200590e+002
2.985397e+002, 1.198834e+002
2.990219e+002, 1.200298e+002
2.995040e+002, 1.204016e+002
2.999861e+002, 1.208114e+002
3.004682e+002, 1.212662e+002
3.009503e+002, 1.216619e+002
3.014324e+002, 1.218638e+002
3.019146e+002, 1.218945e+002
3.023967e+002, 1.218534e+002
3.028788e+002, 1.217389e+002
3.033609e+002, 1.216102e+002
3.038430e+002, 1.215701e+002
3.043251e+002, 1.216527e+002
3.048073e+002, 1.217461e+002
3.052894e+002, 1.216974e+002
3.057715e+002, 1.215728e+002
3.062536e+002, 1.215325e+002
3.067357e+002, 1.217589e+002
3.072178e+002, 1.220568e+002
3.077000e+002, 1.221815e+002
3.081821e+002, 1.220897e+002
3.086642e+002, 1.220513e+002
3.091463e+002, 1.224062e+002
3.096284e+002, 1.229197e+002
3.101105e+002, 1.232310e+002
3.105927e+002, 1.229951e+002
3.110748e+002, 1.226357e+002
3.115569e+002, 1.224675e+002
3.120390e+002, 1.224973e+002
3.125211e+002, 1.224999e+002
3.130032e+002, 1.223202e+002
3.134854e+002, 1.220591e+002
3.139675e+002, 1.218257e+002
3.144496e+002, 1.216945e+002
3.149317e+002, 1.215690e+002
3.154138e+002, 1.213512e+002
3.158959e+002, 1.210736e+002
3.163781e+002, 1.209197e+002
3.168602e+002, 1.211187e+002
3.173423e+002, 1.213891e+002
3.178244e+002, 1.215171e+002
3.183065e+002, 1.213284e+002
3.187886e+002, 1.211748e+002
3.192708e+002, 1.211751e+002
3.197529e+002, 1.212990e+002
3.202350e+002, 1.214627e+002
3.207171e+002, 1.218766e+002
3.211992e+002, 1.221437e+002
3.216813e+002, 1.219908e+002
3.221635e+002, 1.210712e+002
3.226456e+002, 1.204441e+002
3.231277e+002, 1.205679e+002
3.236098e+002, 1.210682e+002
3.240919e+002, 1.213206e+002
3.245740e+002, 1.209416e+002
3.250562e+002, 1.205580e+002
3.255383e+002, 1.203995e+002
3.260204e+002, 1.205691e+002
3.265025e+002, 1.205852e+002
3.269846e+002, 1.202594e+002
3.274667e+002, 1.198319e+002
3.279489e+002, 1.195554e+002
3.284310e+002, 1.196486e+002
3.289131e+002, 1.196539e+002
3.293952e+002, 1.194906e+002
3.298773e+002, 1.191563e+002
3.303594e+002, 1.187875e+002
3.308416e+002, 1.183291e+002
3.313237e+002, 1.178878e+002
3.318058e+002, 1.175238e+002
3.322879e+002, 1.171217e+002
3.327700e+002, 1.170113e+002
3.332521e+002, 1.173689e+002
3.337343e+002, 1.180601e+002
3.342164e+002, 1.184301e+002
3.346985e+002, 1.183844e+002
3.351806e+002, 1.181573e+002
3.356627e+002, 1.178263e+002
3.361448e+002, 1.173020e+002
3.366270e+002, 1.169687e+002
3.371091e+002, 1.169028e+002
3.375912e+002, 1.169856e+002
3.380733e+002, 1.169952e+002
3.385554e+002, 1.169460e+002
3.390375e+002, 1.167756e+002
3.395197e+002, 1.163722e+002
3.400018e+002, 1.157107e+002
3.404839e+002, 1.153828e+002
3.409660e+002, 1.154552e+002
3.414481e+002, 1.157284e+002
3.419302e+002, 1.160078e+002
3.424124e+002, 1.163065e+002
3.428945e+002, 1.164592e+002
3.433766e+002, 1.164244e+002
3.438587e+002, 1.162050e+002
3.443408e+002, 1.157630e+002
3.448229e+002, 1.150748e+002
3.453051e+002, 1.143352e+002
3.457872e+002, 1.134952e+002
3.462693e+002, 1.126552e+002
3.467514e+002, 1.126158e+002
3.472335e+002, 1.138891e+002
3.477156e+002, 1.155998e+002
3.481978e+002, 1.158643e+002
3.486799e+002, 1.147830e+002
3.491620e+002, 1.136009e+002
3.496441e+002, 1.132258e+002
3.501262e+002, 1.133654e+002
3.506083e+002, 1.133231e+002
3.510905e+002, 1.129919e+002
3.515726e+002, 1.125562e+002
3.520547e+002, 1.121614e+002
3.525368e+002, 1.118250e+002
3.530189e+002, 1.116005e+002
3.535010e+002, 1.115924e+002
3.539832e+002, 1.116736e+002
3.544653e+002, 1.116620e+002
3.549474e+002, 1.115442e+002
3.554295e+002, 1.114849e+002
3.559116e+002, 1.118270e+002
3.563937e+002, 1.122676e+002
3.568759e+002, 1.123491e+002
3.573580e+002, 1.116109e+002
3.578401e+002, 1.107048e+002
3.583222e+002, 1.099547e+002
3.588043e+002, 1.093748e+002
3.592864e+002, 1.090943e+002
3.597686e+002, 1.093822e+002
3.602507e+002, 1.098937e+002
3.607328e+002, 1.103635e+002
3.612149e+002, 1.108834e+002
3.616970e+002, 1.111047e+002
3.621791e+002, 1.106747e+002
3.626613e+002, 1.098354e+002
3.631434e+002, 1.091445e+002
3.636255e+002, 1.089549e+002
3.641076e+002, 1.088108e+002
3.645897e+002, 1.084574e+002
3.650718e+002, 1.077678e+002
3.655540e+002, 1.072399e+002
3.660361e+002, 1.070576e+002
3.665182e+002, 1.070514e+002
3.670003e+002, 1.070178e+002
3.674824e+002, 1.069281e+002
3.679645e+002, 1.068177e+002
3.684467e+002, 1.067024e+002
3.689288e+002, 1.065871e+002
3.694109e+002, 1.064187e+002
3.698930e+002, 1.060728e+002
3.703751e+002, 1.057725e+002
3.708572e+002, 1.056864e+002
3.713394e+002, 1.060553e+002
3.718215e+002, 1.062274e+002
3.723036e+002, 1.060563e+002
3.727857e+002, 1.056576e+002
3.732678e+002, 1.054670e+002
3.737499e+002, 1.056213e+002
3.742321e+002, 1.057350e+002
3.747142e+002, 1.055812e+002
3.751963e+002, 1.050420e+002
3.756784e+002, 1.047650e+002
3.761605e+002, 1.048653e+002
3.766426e+002, 1.050810e+002
3.771248e+002, 1.049602e+002
3.776069e+002, 1.044335e+002
3.780890e+002, 1.039897e+002
3.785711e+002, 1.038573e+002
3.790532e+002, 1.039676e+002
3.795353e+002, 1.037763e+002
3.800175e+002, 1.032278e+002
3.804996e+002, 1.026498e+002
3.809817e+002, 1.023343e+002
3.814638e+002, 1.022669e+002
3.819459e+002, 1.023658e+002
3.824280e+002, 1.027163e+002
3.829102e+002, 1.030869e+002
3.833923e+002, 1.028894e+002
3.838744e+002, 1.021829e+002
3.843565e+002, 1.015965e+002
3.848386e+002, 1.017380e+002
3.853207e+002, 1.022558e+002
3.858029e+002, 1.023897e+002
3.862850e+002, 1.020187e+002
3.867671e+002, 1.015165e+002
3.872492e+002, 1.012297e+002
3.877313e+002, 1.011031e+002
3.882134e+002, 1.010177e+002
3.886956e+002, 1.009325e+002
3.891777e+002, 1.008577e+002
3.896598e+002, 1.008440e+002
3.901419e+002, 1.008834e+002
3.906240e+002, 1.008336e+002
3.911061e+002, 1.005164e+002
3.915883e+002, 1.001048e+002
3.920704e+002, 9.978944e+001
3.925525e+002, 9.974899e+001
3.930346e+002, 9.964196e+001
3.935167e+002, 9.918544e+001
3.939988e+002, 9.852321e+001
3.944810e+002, 9.805309e+001
3.949631e+002, 9.806777e+001
3.954452e+002, 9.818863e+001
3.959273e+002, 9.821993e+001
3.964094e+002, 9.809607e+001
3.968915e+002, 9.801994e+001
3.973737e+002, 9.807067e+001
3.978558e+002, 9.817361e+001
3.983379e+002, 9.823678e+001
3.988200e+002, 9.821920e+001
3.993021e+002, 9.819169e+001
3.997842e+002, 9.816006e+001
4.002664e+002, 9.812347e+001
4.007485e+002, 9.810203e+001
4.012306e+002, 9.813187e+001
4.017127e+002, 9.813945e+001
4.021948e+002, 9.806349e+001
4.026769e+002, 9.781472e+001
4.031591e+002, 9.769163e+001
4.036412e+002, 9.780879e+001
4.041233e+002, 9.801668e+001
4.046054e+002, 9.791236e+001
4.050875e+002, 9.740172e+001
4.055696e+002, 9.685825e+001
4.060518e+002, 9.639072e+001
4.065339e+002, 9.599609e+001
4.070160e+002, 9.585921e+001
4.074981e+002, 9.604124e+001
4.079802e+002, 9.631628e+001
4.084623e+002, 9.641246e+001
4.089445e+002, 9.633471e+001
4.094266e+002, 9.628890e+001
4.099087e+002, 9.637599e+001
4.103908e+002, 9.649329e+001
4.108729e+002, 9.635415e+001
4.113550e+002, 9.596581e+001
4.118372e+002, 9.556006e+001
4.123193e+002, 9.520164e+001
4.128014e+002, 9.495391e+001
4.132835e+002, 9.502615e+001
4.137656e+002, 9.551495e+001
4.142477e+002, 9.604367e+001
4.147299e+002, 9.617993e+001
4.152120e+002, 9.603452e+001
4.156941e+002, 9.587190e+001
4.161762e+002, 9.586418e+001
4.166583e+002, 9.585832e+001
4.171404e+002, 9.569386e+001
4.176226e+002, 9.537049e+001
4.181047e+002, 9.503928e+001
4.185868e+002, 9.473429e+001
4.190689e+002, 9.448438e+001
4.195510e+002, 9.431832e+001
4.200331e+002, 9.431828e+001
4.205153e+002, 9.430480e+001
4.209974e+002, 9.420653e+001
4.214795e+002, 9.404468e+001
4.219616e+002, 9.387560e+001
4.224437e+002, 9.361205e+001
4.229258e+002, 9.343177e+001
4.234080e+002, 9.347450e+001
4.238901e+002, 9.388266e+001
4.243722e+002, 9.403183e+001
4.248543e+002, 9.366880e+001
4.253364e+002, 9.312653e+001
4.258185e+002, 9.271982e+001
4.263007e+002, 9.238406e+001
4.267828e+002, 9.228631e+001
4.272649e+002, 9.257351e+001
4.277470e+002, 9.315784e+001
4.282291e+002, 9.344315e+001
4.287112e+002, 9.327940e+001
4.291934e+002, 9.307212e+001
4.296755e+002, 9.309083e+001
4.301576e+002, 9.342908e+001
4.306397e+002, 9.346310e+001
4.311218e+002, 9.306668e+001
4.316039e+002, 9.253793e+001
4.320861e+002, 9.238650e+001
4.325682e+002, 9.264040e+001
4.330503e+002, 9.286259e+001
4.335324e+002, 9.289675e+001
4.340145e+002, 9.278619e+001
4.344966e+002, 9.267281e+001
4.349788e+002, 9.255763e+001
4.354609e+002, 9.243506e+001
4.359430e+002, 9.223371e+001
4.364251e+002, 9.201841e+001
4.369072e+002, 9.199902e+001
4.373893e+002, 9.227310e+001
4.378715e+002, 9.259789e+001
4.383536e+002, 9.264910e+001
4.388357e+002, 9.251796e+001
4.393178e+002, 9.245883e+001
4.397999e+002, 9.279534e+001
4.402820e+002, 9.314071e+001
4.407642e+002, 9.302366e+001
4.412463e+002, 9.241579e+001
4.417284e+002, 9.196826e+001
4.422105e+002, 9.224657e+001
4.426926e+002, 9.275578e+001
4.431747e+002, 9.301444e+001
4.436569e+002, 9.263544e+001
4.441390e+002, 9.229695e+001
4.446211e+002, 9.223511e+001
4.451032e+002, 9.237663e+001
4.455853e+002, 9.251228e+001
4.460674e+002, 9.266702e+001
4.465496e+002, 9.275550e+001
4.470317e+002, 9.274781e+001
4.475138e+002, 9.263826e+001
4.479959e+002, 9.244128e+001
4.484780e+002, 9.201157e+001
4.489601e+002, 9.159789e+001
4.494423e+002, 9.147396e+001
4.499244e+002, 9.187431e+001
4.504065e+002, 9.207118e+001
4.508886e+002, 9.188620e+001
4.513707e+002, 9.142165e+001
4.518528e+002, 9.109010e+001
4.523350e+002, 9.089124e+001
4.528171e+002, 9.082234e+001
4.532992e+002, 9.095699e+001
4.537813e+002, 9.129929e+001
4.542634e+002, 9.138240e+001
4.547455e+002, 9.113673e+001
4.552277e+002, 9.081925e+001
4.557098e+002, 9.076341e+001
4.561919e+002, 9.094045e+001
4.566740e+002, 9.117514e+001
4.571561e+002, 9.150395e+001
4.576382e+002, 9.177206e+001
4.581204e+002, 9.157978e+001
4.586025e+002, 9.099307e+001
4.590846e+002, 9.049986e+001
4.595667e+002, 9.055701e+001
4.600488e+002, 9.085059e+001
4.605309e+002, 9.095226e+001
4.610131e+002, 9.076630e+001
4.614952e+002, 9.055782e+001
4.619773e+002, 9.045129e+001
4.624594e+002, 9.045546e+001
4.629415e+002, 9.058292e+001
4.634236e+002, 9.105045e+001
4.639058e+002, 9.144302e+001
4.643879e+002, 9.156023e+001
4.648700e+002, 9.141788e+001
4.653521e+002, 9.122878e+001
4.658342e+002, 9.097475e+001
4.663163e+002, 9.073689e+001
4.667985e+002, 9.055988e+001
4.672806e+002, 9.046799e+001
4.677627e+002, 9.039912e+001
4.682448e+002, 9.033660e+001
4.687269e+002, 9.030311e+001
4.692090e+002, 9.033057e+001
4.696912e+002, 9.043073e+001
4.701733e+002, 9.057598e+001
4.706554e+002, 9.079267e+001
4.711375e+002, 9.106291e+001
4.716196e+002, 9.120625e+001
4.721017e+002, 9.119882e+001
4.725839e+002, 9.113062e+001
4.730660e+002, 9.101653e+001
4.735481e+002, 9.085586e+001
4.740302e+002, 9.087117e+001
4.745123e+002, 9.112219e+001
4.749944e+002, 9.143999e+001
4.754766e+002, 9.162994e+001
4.759587e+002, 9.168580e+001
4.764408e+002, 9.154904e+001
4.769229e+002, 9.104163e+001
4.774050e+002, 9.042501e+001
4.778871e+002, 9.015083e+001
4.783693e+002, 9.019536e+001
4.788514e+002, 9.033738e+001
4.793335e+002, 9.043597e+001
4.798156e+002, 9.053886e+001
4.802977e+002, 9.071721e+001
4.807798e+002, 9.101025e+001
4.812620e+002, 9.128173e+001
4.817441e+002, 9.139645e+001
4.822262e+002, 9.144966e+001
4.827083e+002, 9.158207e+001
4.831904e+002, 9.196133e+001
4.836725e+002, 9.230844e+001
4.841547e+002, 9.252705e+001
4.846368e+002, 9.261601e+001
4.851189e+002, 9.262542e+001
4.856010e+002, 9.256457e+001
4.860831e+002, 9.241897e+001
4.865652e+002, 9.217053e+001
4.870474e+002, 9.171848e+001
4.875295e+002, 9.137585e+001
4.880116e+002, 9.117001e+001
4.884937e+002, 9.105702e+001
4.889758e+002, 9.098273e+001
4.894579e+002, 9.095968e+001
4.899401e+002, 9.094332e+001
4.904222e+002, 9.094934e+001
4.909043e+002, 9.095070e+001
4.913864e+002, 9.073096e+001
4.918685e+002, 9.023217e+001
4.923506e+002, 8.991344e+001
4.928328e+002, 9.032697e+001
4.933149e+002, 9.124756e+001
4.937970e+002, 9.157784e+001
4.942791e+002, 9.116669e+001
4.947612e+002, 9.051966e+001
4.952433e+002, 9.009577e+001
4.957255e+002, 8.988342e+001
4.962076e+002, 8.984234e+001
4.966897e+002, 8.991869e+001
4.971718e+002, 9.019870e+001
4.976539e+002, 9.107607e+001
4.981360e+002, 9.232117e+001
4.986182e+002, 9.305624e+001
4.991003e+002, 9.239901e+001
4.995824e+002, 9.134688e+001
5.000645e+002, 9.057702e+001
5.005466e+002, 9.019234e+001
5.010287e+002, 8.993577e+001
5.015109e+002, 8.976265e+001
5.019930e+002, 8.966521e+001
5.024751e+002, 8.963844e+001
5.029572e+002, 8.972586e+001
5.034393e+002, 8.983079e+001
5.039214e+002, 8.994292e+001
5.044036e+002, 9.006346e+001
5.048857e+002, 9.021532e+001
5.053678e+002, 9.047707e+001
5.058499e+002, 9.063443e+001
5.063320e+002, 9.056424e+001
5.068141e+002, 9.024487e+001
5.072963e+002, 9.001327e+001
5.077784e+002, 8.985594e+001
5.082605e+002, 8.981866e+001
5.087426e+002, 9.002142e+001
5.092247e+002, 9.044164e+001
5.097068e+002, 9.072066e+001
5.101890e+002, 9.075806e+001
5.106711e+002, 9.068824e+001
5.111532e+002, 9.069638e+001
5.116353e+002, 9.078335e+001
5.121174e+002, 9.095202e+001
5.125995e+002, 9.131393e+001
5.130817e+002, 9.169954e+001
5.135638e+002, 9.192166e+001
5.140459e+002, 9.197581e+001
5.145280e+002, 9.188972e+001
5.150101e+002, 9.146617e+001
5.154922e+002, 9.102128e+001
5.159744e+002, 9.085610e+001
5.164565e+002, 9.108415e+001
5.169386e+002, 9.149216e+001
5.174207e+002, 9.233923e+001
5.179028e+002, 9.325959e+001
5.183849e+002, 9.365304e+001
5.188671e+002, 9.282896e+001
5.193492e+002, 9.210506e+001
5.198313e+002, 9.177242e+001
5.203134e+002, 9.181179e+001
5.207955e+002, 9.190947e+001
5.212776e+002, 9.208141e+001
5.217598e+002, 9.228696e+001
5.222419e+002, 9.247582e+001
5.227240e+002, 9.261110e+001
5.232061e+002, 9.299024e+001
5.236882e+002, 9.374252e+001
5.241703e+002, 9.447444e+001
5.246525e+002, 9.456902e+001
5.251346e+002, 9.407121e+001
5.256167e+002, 9.368331e+001
5.260988e+002, 9.364254e+001
5.265809e+002, 9.377003e+001
5.270630e+002, 9.370744e+001
5.275452e+002, 9.349827e+001
5.280273e+002, 9.338527e+001
5.285094e+002, 9.357755e+001
5.289915e+002, 9.390980e+001
5.294736e+002, 9.420669e+001
5.299557e+002, 9.445567e+001
5.304379e+002, 9.468981e+001
5.309200e+002, 9.498026e+001
5.314021e+002, 9.524277e+001
5.318842e+002, 9.538725e+001
5.323663e+002, 9.525623e+001
5.328484e+002, 9.519792e+001
5.333306e+002, 9.527316e+001
5.338127e+002, 9.548019e+001
5.342948e+002, 9.581969e+001
5.347769e+002, 9.658283e+001
5.352590e+002, 9.714564e+001
5.357411e+002, 9.734178e+001
5.362233e+002, 9.718116e+001
5.367054e+002, 9.691502e+001
5.371875e+002, 9.641682e+001
5.376696e+002, 9.606612e+001
5.381517e+002, 9.617365e+001
5.386339e+002, 9.678014e+001
5.391160e+002, 9.730270e+001
5.395981e+002, 9.771165e+001
5.400802e+002, 9.802734e+001
5.405623e+002, 9.831084e+001
5.410444e+002, 9.854333e+001
5.415266e+002, 9.859781e+001
5.420087e+002, 9.828090e+001
5.424908e+002, 9.794386e+001
5.429729e+002, 9.819131e+001
5.434550e+002, 9.889449e+001
5.439371e+002, 9.954652e+001
5.444193e+002, 9.995975e+001
5.449014e+002, 1.001385e+002
5.453835e+002, 9.992712e+001
5.458656e+002, 9.928036e+001
5.463477e+002, 9.896091e+001
5.468298e+002, 9.958940e+001
5.473120e+002, 1.005039e+002
5.477941e+002, 1.011553e+002
5.482762e+002, 1.013042e+002
5.487583e+002, 1.013960e+002
5.492404e+002, 1.013176e+002
5.497225e+002, 1.012444e+002
5.502047e+002, 1.015145e+002
5.506868e+002, 1.023849e+002
5.511689e+002, 1.030915e+002
5.516510e+002, 1.033564e+002
5.521331e+002, 1.032804e+002
5.526152e+002, 1.036060e+002
5.530974e+002, 1.044420e+002
5.535795e+002, 1.051457e+002
5.540616e+002, 1.050999e+002
5.545437e+002, 1.044845e+002
5.550258e+002, 1.044014e+002
5.555079e+002, 1.049612e+002
5.559901e+002, 1.056923e+002
5.564722e+002, 1.061297e+002
5.569543e+002, 1.063750e+002
5.574364e+002, 1.066436e+002
5.579185e+002, 1.070345e+002
5.584006e+002, 1.074071e+002
5.588828e+002, 1.075162e+002
5.593649e+002, 1.075205e+002
5.598470e+002, 1.077909e+002
5.603291e+002, 1.087434e+002
5.608112e+002, 1.097476e+002
5.612933e+002, 1.105637e+002
5.617755e+002, 1.111758e+002
5.622576e+002, 1.116390e+002
5.627397e+002, 1.117771e+002
5.632218e+002, 1.119076e+002
5.637039e+002, 1.122015e+002
5.641860e+002, 1.127745e+002
5.646682e+002, 1.131992e+002
5.651503e+002, 1.134050e+002
5.656324e+002, 1.135598e+002
5.661145e+002, 1.138965e+002
5.665966e+002, 1.144433e+002
5.670787e+002, 1.149486e+002
5.675609e+002, 1.153399e+002
5.680430e+002, 1.156882e+002
5.685251e+002, 1.161573e+002
5.690072e+002, 1.167349e+002
5.694893e+002, 1.172783e+002
5.699714e+002, 1.176633e+002
5.704536e+002, 1.179957e+002
5.709357e+002, 1.184356e+002
5.714178e+002, 1.189787e+002
5.718999e+002, 1.195444e+002
5.723820e+002, 1.201598e+002
5.728641e+002, 1.207223e+002
5.733463e+002, 1.210990e+002
5.738284e+002, 1.211673e+002
5.743105e+002, 1.213300e+002
5.747926e+002, 1.218452e+002
5.752747e+002, 1.224698e+002
5.757568e+002, 1.228923e+002
5.762390e+002, 1.228170e+002
5.767211e+002, 1.229046e+002
5.772032e+002, 1.232545e+002
5.776853e+002, 1.238189e+002
5.781674e+002, 1.244395e+002
5.786495e+002, 1.251409e+002
5.791317e+002, 1.258291e+002
5.796138e+002, 1.264746e+002
5.800959e+002, 1.270763e+002
5.805780e+002, 1.276713e+002
5.810601e+002, 1.282826e+002
5.815422e+002, 1.286970e+002
5.820244e+002, 1.285333e+002
5.825065e+002, 1.280526e+002
5.829886e+002, 1.279015e+002
5.834707e+002, 1.281776e+002
5.839528e+002, 1.287109e+002
5.844349e+002, 1.294892e+002
5.849171e+002, 1.303907e+002
5.853992e+002, 1.312397e+002
5.858813e+002, 1.323102e+002
5.863634e+002, 1.329516e+002
5.868455e+002, 1.324074e+002
5.873276e+002, 1.311838e+002
5.878098e+002, 1.306880e+002
5.882919e+002, 1.320313e+002
5.887740e+002, 1.332805e+002
5.892561e+002, 1.338244e+002
5.897382e+002, 1.336489e+002
5.902203e+002, 1.335553e+002
5.907025e+002, 1.335555e+002
5.911846e+002, 1.336167e+002
5.916667e+002, 1.337473e+002
5.921488e+002, 1.339585e+002
5.926309e+002, 1.340788e+002
5.931130e+002, 1.340963e+002
5.935952e+002, 1.340541e+002
5.940773e+002, 1.339080e+002
5.945594e+002, 1.337273e+002
5.950415e+002, 1.338201e+002
5.955236e+002, 1.343972e+002
5.960057e+002, 1.350256e+002
5.964879e+002, 1.352025e+002
5.969700e+002, 1.350529e+002
5.974521e+002, 1.348642e+002
5.979342e+002, 1.346757e+002
5.984163e+002, 1.345673e+002
5.988984e+002, 1.345733e+002
5.993806e+002, 1.346943e+002
5.998627e+002, 1.349329e+002
6.003448e+002, 1.356604e+002
6.008269e+002, 1.361812e+002
6.013090e+002, 1.360672e+002
6.017911e+002, 1.350177e+002
6.022733e+002, 1.345642e+002
6.027554e+002, 1.349986e+002
6.032375e+002, 1.356175e+002
6.037196e+002, 1.357010e+002
6.042017e+002, 1.351788e+002
6.046838e+002, 1.348786e+002
6.051660e+002, 1.349480e+002
6.056481e+002, 1.351548e+002
6.061302e+002, 1.351284e+002
6.066123e+002, 1.349077e+002
6.070944e+002, 1.346614e+002
6.075765e+002, 1.343600e+002
6.080587e+002, 1.341545e+002
6.085408e+002, 1.343629e+002
6.090229e+002, 1.348502e+002
6.095050e+002, 1.351418e+002
6.099871e+002, 1.347913e+002
6.104692e+002, 1.343257e+002
6.109514e+002, 1.340624e+002
6.114335e+002, 1.340307e+002
6.119156e+002, 1.340034e+002
6.123977e+002, 1.339501e+002
6.128798e+002, 1.338744e+002
6.133619e+002, 1.337665e+002
6.138441e+002, 1.335500e+002
6.143262e+002, 1.335128e+002
6.148083e+002, 1.337662e+002
6.152904e+002, 1.340498e+002
6.157725e+002, 1.339911e+002
6.162546e+002, 1.335679e+002
6.167368e+002, 1.332105e+002
6.172189e+002, 1.330090e+002
6.177010e+002, 1.328959e+002
6.181831e+002, 1.327849e+002
6.186652e+002, 1.326658e+002
6.191473e+002, 1.324943e+002
6.196295e+002, 1.321457e+002
6.201116e+002, 1.318061e+002
6.205937e+002, 1.316669e+002
6.210758e+002, 1.317080e+002
6.215579e+002, 1.318278e+002
6.220400e+002, 1.319991e+002
6.225222e+002, 1.322144e+002
6.230043e+002, 1.325444e+002
6.234864e+002, 1.330715e+002
6.239685e+002, 1.332551e+002
6.244506e+002, 1.328365e+002
6.249327e+002, 1.322334e+002
6.254149e+002, 1.316680e+002
6.258970e+002, 1.310501e+002
6.263791e+002, 1.307821e+002
6.268612e+002, 1.309523e+002
6.273433e+002, 1.313486e+002
6.278254e+002, 1.318222e+002
6.283076e+002, 1.323505e+002
6.287897e+002, 1.323910e+002
6.292718e+002, 1.316337e+002
6.297539e+002, 1.306089e+002
6.302360e+002, 1.302362e+002
6.307181e+002, 1.303285e+002
6.312003e+002, 1.302984e+002
6.316824e+002, 1.296051e+002
6.321645e+002, 1.288683e+002
6.326466e+002, 1.285865e+002
6.331287e+002, 1.287150e+002
6.336108e+002, 1.289153e+002
6.340930e+002, 1.291962e+002
6.345751e+002, 1.294150e+002
6.350572e+002, 1.295008e+002
6.355393e+002, 1.294474e+002
6.360214e+002, 1.292580e+002
6.365035e+002, 1.287604e+002
6.369857e+002, 1.283355e+002
6.374678e+002, 1.283440e+002
6.379499e+002, 1.288743e+002
6.384320e+002, 1.291636e+002
6.389141e+002, 1.291109e+002
6.393962e+002, 1.289570e+002
6.398784e+002, 1.290949e+002
6.403605e+002, 1.294315e+002
6.408426e+002, 1.295498e+002
6.413247e+002, 1.292600e+002
6.418068e+002, 1.288432e+002
6.422889e+002, 1.285763e+002
6.427711e+002, 1.284175e+002
6.432532e+002, 1.282641e+002
6.437353e+002, 1.279118e+002
6.442174e+002, 1.277098e+002
6.446995e+002, 1.279714e+002
6.451816e+002, 1.286046e+002
6.456638e+002, 1.289805e+002
6.461459e+002, 1.286825e+002
6.466280e+002, 1.284417e+002
6.471101e+002, 1.285305e+002
6.475922e+002, 1.289711e+002
6.480743e+002, 1.293336e+002
6.485565e+002, 1.296272e+002
6.490386e+002, 1.298062e+002
6.495207e+002, 1.297501e+002
6.500028e+002, 1.294995e+002
6.504849e+002, 1.294435e+002
6.509670e+002, 1.296252e+002
6.514492e+002, 1.298857e+002
6.519313e+002, 1.300921e+002
6.524134e+002, 1.302493e+002
6.528955e+002, 1.303366e+002
6.533776e+002, 1.302650e+002
6.538597e+002, 1.303193e+002
6.543419e+002, 1.309487e+002
6.548240e+002, 1.317576e+002
6.553061e+002, 1.321287e+002
6.557882e+002, 1.313017e+002
6.562703e+002, 1.307075e+002
6.567524e+002, 1.308245e+002
6.572346e+002, 1.314064e+002
6.577167e+002, 1.317149e+002
6.581988e+002, 1.316180e+002
6.586809e+002, 1.315563e+002
6.591630e+002, 1.317155e+002
6.596451e+002, 1.320367e+002
6.601273e+002, 1.321251e+002
6.606094e+002, 1.319663e+002
6.610915e+002, 1.318550e+002
6.615736e+002, 1.320777e+002
6.620557e+002, 1.324584e+002
6.625378e+002, 1.326391e+002
6.630200e+002, 1.326007e+002
6.635021e+002, 1.325135e+002
6.639842e+002, 1.323745e+002
6.644663e+002, 1.323114e+002
6.649484e+002, 1.325005e+002
6.654305e+002, 1.331286e+002
6.659127e+002, 1.335449e+002
6.663948e+002, 1.334005e+002
6.668769e+002, 1.330721e+002
6.673590e+002, 1.329506e+002
6.678411e+002, 1.331707e+002
6.683232e+002, 1.333266e+002
6.688054e+002, 1.333889e+002
6.692875e+002, 1.333736e+002
6.697696e+002, 1.333389e+002
6.702517e+002, 1.332877e+002
6.707338e+002, 1.330074e+002
6.712159e+002, 1.322938e+002
6.716981e+002, 1.315081e+002
6.721802e+002, 1.313544e+002
6.726623e+002, 1.316977e+002
6.731444e+002, 1.320497e+002
6.736265e+002, 1.322938e+002
6.741086e+002, 1.323374e+002
6.745908e+002, 1.319796e+002
6.750729e+002, 1.312978e+002
6.755550e+002, 1.307677e+002
6.760371e+002, 1.306892e+002
6.765192e+002, 1.306616e+002
6.770013e+002, 1.305211e+002
6.774835e+002, 1.302637e+002
6.779656e+002, 1.299063e+002
6.784477e+002, 1.293736e+002
6.789298e+002, 1.288726e+002
6.794119e+002, 1.285776e+002
6.798940e+002, 1.284866e+002
6.803762e+002, 1.283072e+002
6.808583e+002, 1.280006e+002
6.813404e+002, 1.277672e+002
6.818225e+002, 1.279565e+002
6.823046e+002, 1.283465e+002
6.827867e+002, 1.284571e+002
6.832689e+002, 1.281363e+002
6.837510e+002, 1.277027e+002
6.842331e+002, 1.274032e+002
6.847152e+002, 1.271265e+002
6.851973e+002, 1.267380e+002
6.856794e+002, 1.258819e+002
6.861616e+002, 1.252909e+002
6.866437e+002, 1.253689e+002
6.871258e+002, 1.257221e+002
6.876079e+002, 1.255915e+002
6.880900e+002, 1.246955e+002
6.885721e+002, 1.240801e+002
6.890543e+002, 1.241073e+002
6.895364e+002, 1.245109e+002
6.900185e+002, 1.244869e+002
6.905006e+002, 1.240456e+002
6.909827e+002, 1.235426e+002
6.914648e+002, 1.231166e+002
6.919470e+002, 1.227549e+002
6.924291e+002, 1.224292e+002
6.929112e+002, 1.221408e+002
6.933933e+002, 1.218973e+002
6.938754e+002, 1.217756e+002
6.943575e+002, 1.216410e+002
6.948397e+002, 1.213692e+002
6.953218e+002, 1.209342e+002
6.958039e+002, 1.206127e+002
6.962860e+002, 1.204966e+002
6.967681e+002, 1.204523e+002
6.972502e+002, 1.204429e+002
6.977324e+002, 1.205072e+002
6.982145e+002, 1.204059e+002
6.986966e+002, 1.201115e+002
6.991787e+002, 1.197305e+002
6.996608e+002, 1.192915e+002
7.001429e+002, 1.188382e+002
7.006251e+002, 1.186234e+002
7.011072e+002, 1.187230e+002
7.015893e+002, 1.188110e+002
7.020714e+002, 1.184352e+002
7.025535e+002, 1.178779e+002
7.030356e+002, 1.175683e+002
7.035178e+002, 1.177796e+002
7.039999e+002, 1.179932e+002
7.044820e+002, 1.179641e+002
7.049641e+002, 1.178281e+002
7.054462e+002, 1.178092e+002
7.059283e+002, 1.181413e+002
7.064105e+002, 1.182232e+002
7.068926e+002, 1.178760e+002
7.073747e+002, 1.172971e+002
7.078568e+002, 1.169297e+002
7.083389e+002, 1.167759e+002
7.088210e+002, 1.168026e+002
7.093032e+002, 1.170998e+002
7.097853e+002, 1.174757e+002
7.102674e+002, 1.174886e+002
7.107495e+002, 1.172136e+002
7.112316e+002, 1.169645e+002
7.117137e+002, 1.170541e+002
7.121959e+002, 1.171176e+002
7.126780e+002, 1.167698e+002
7.131601e+002, 1.160839e+002
7.136422e+002, 1.156396e+002
7.141243e+002, 1.158157e+002
7.146064e+002, 1.160546e+002
7.150886e+002, 1.161301e+002
7.155707e+002, 1.160373e+002
7.160528e+002, 1.159402e+002
7.165349e+002, 1.157899e+002
7.170170e+002, 1.157591e+002
7.174991e+002, 1.161471e+002
7.179813e+002, 1.168384e+002
7.184634e+002, 1.167981e+002
7.189455e+002, 1.159727e+002
7.194276e+002, 1.150945e+002
7.199097e+002, 1.147097e+002
7.203918e+002, 1.146886e+002
7.208740e+002, 1.149655e+002
7.213561e+002, 1.156073e+002
7.218382e+002, 1.160578e+002
7.223203e+002, 1.159031e+002
7.228024e+002, 1.155294e+002
7.232845e+002, 1.152796e+002
7.237667e+002, 1.153207e+002
7.242488e+002, 1.152376e+002
7.247309e+002, 1.149551e+002
7.252130e+002, 1.146255e+002
7.256951e+002, 1.144129e+002
7.261772e+002, 1.143195e+002
7.266594e+002, 1.143231e+002
7.271415e+002, 1.144309e+002
7.276236e+002, 1.146070e+002
7.281057e+002, 1.148763e+002
7.285878e+002, 1.151766e+002
7.290699e+002, 1.153420e+002
7.295521e+002, 1.152576e+002
7.300342e+002, 1.151211e+002
7.305163e+002, 1.150874e+002
7.309984e+002, 1.150908e+002
7.314805e+002, 1.150142e+002
7.319626e+002, 1.148015e+002
7.324448e+002, 1.145306e+002
7.329269e+002, 1.141126e+002
7.334090e+002, 1.136690e+002
7.338911e+002, 1.136300e+002
7.343732e+002, 1.141627e+002
7.348553e+002, 1.143901e+002
7.353375e+002, 1.139129e+002
7.358196e+002, 1.130495e+002
7.363017e+002, 1.126306e+002
7.367838e+002, 1.126014e+002
7.372659e+002, 1.126272e+002
7.377480e+002, 1.124639e+002
7.382302e+002, 1.123177e+002
7.387123e+002, 1.124214e+002
7.391944e+002, 1.127297e+002
7.396765e+002, 1.130108e+002
7.401586e+002, 1.131572e+002
7.406407e+002, 1.132803e+002
7.411229e+002, 1.134666e+002
7.416050e+002, 1.137098e+002
7.420871e+002, 1.137574e+002
7.425692e+002, 1.135611e+002
7.430513e+002, 1.132822e+002
7.435334e+002, 1.129170e+002
7.440156e+002, 1.125090e+002
7.444977e+002, 1.125480e+002
7.449798e+002, 1.130337e+002
7.454619e+002, 1.134154e+002
7.459440e+002, 1.130308e+002
7.464261e+002, 1.124153e+002
7.469083e+002, 1.123237e+002
7.473904e+002, 1.128307e+002
7.478725e+002, 1.132248e+002
7.483546e+002, 1.130342e+002
7.488367e+002, 1.127117e+002
7.493188e+002, 1.125410e+002
7.498010e+002, 1.125481e+002
7.502831e+002, 1.127226e+002
7.507652e+002, 1.132169e+002
7.512473e+002, 1.136413e+002
7.517294e+002, 1.135955e+002
7.522115e+002, 1.130889e+002
7.526937e+002, 1.128609e+002
7.531758e+002, 1.129764e+002
7.536579e+002, 1.132222e+002
7.541400e+002, 1.134936e+002
7.546221e+002, 1.137123e+002
7.551042e+002, 1.137263e+002
7.555864e+002, 1.134661e+002
7.560685e+002, 1.131724e+002
7.565506e+002, 1.128972e+002
7.570327e+002, 1.126925e+002
7.575148e+002, 1.126189e+002
7.579969e+002, 1.127718e+002
7.584791e+002, 1.129219e+002
7.589612e+002, 1.130727e+002
7.594433e+002, 1.132158e+002
7.599254e+002, 1.133393e+002
7.604075e+002, 1.134433e+002
7.608896e+002, 1.135113e+002
7.613718e+002, 1.135204e+002
7.618539e+002, 1.135544e+002
7.623360e+002, 1.138336e+002
7.628181e+002, 1.142065e+002
7.633002e+002, 1.143464e+002
7.637823e+002, 1.140794e+002
7.642645e+002, 1.137019e+002
7.647466e+002, 1.131837e+002
7.652287e+002, 1.127184e+002
7.657108e+002, 1.125912e+002
7.661929e+002, 1.132729e+002
7.666750e+002, 1.136939e+002
7.671572e+002, 1.136758e+002
7.676393e+002, 1.134210e+002
7.681214e+002, 1.133169e+002
7.686035e+002, 1.133789e+002
7.690856e+002, 1.133408e+002
7.695677e+002, 1.130643e+002
7.700499e+002, 1.127872e+002
7.705320e+002, 1.129405e+002
7.710141e+002, 1.133924e+002
7.714962e+002, 1.138073e+002
7.719783e+002, 1.139691e+002
7.724604e+002, 1.141323e+002
7.729426e+002, 1.145859e+002
7.734247e+002, 1.151276e+002
7.739068e+002, 1.152666e+002
7.743889e+002, 1.145660e+002
7.748710e+002, 1.140008e+002
7.753531e+002, 1.137231e+002
7.758353e+002, 1.136941e+002
7.763174e+002, 1.138689e+002
7.767995e+002, 1.142602e+002
7.772816e+002, 1.145730e+002
7.777637e+002, 1.147033e+002
7.782458e+002, 1.146909e+002
7.787280e+002, 1.144706e+002
7.792101e+002, 1.141441e+002
7.796922e+002, 1.140371e+002
7.801743e+002, 1.144762e+002
7.806564e+002, 1.150077e+002
7.811385e+002, 1.154751e+002
7.816207e+002, 1.158581e+002
7.821028e+002, 1.160676e+002
7.825849e+002, 1.159622e+002
7.830670e+002, 1.159183e+002
7.835491e+002, 1.160638e+002
7.840313e+002, 1.163357e+002
7.845134e+002, 1.164708e+002
7.849955e+002, 1.164665e+002
7.854776e+002, 1.164816e+002
7.859597e+002, 1.166473e+002
7.864418e+002, 1.168356e+002
7.869240e+002, 1.167681e+002
7.874061e+002, 1.165264e+002
7.878882e+002, 1.164130e+002
7.883703e+002, 1.167996e+002
7.888524e+002, 1.171431e+002
7.893345e+002, 1.170996e+002
7.898167e+002, 1.167255e+002
7.902988e+002, 1.165328e+002
7.907809e+002, 1.165547e+002
7.912630e+002, 1.167307e+002
7.917451e+002, 1.171529e+002
7.922272e+002, 1.176928e+002
7.927094e+002, 1.176986e+002
7.931915e+002, 1.171936e+002
7.936736e+002, 1.167674e+002
7.941557e+002, 1.168816e+002
7.946378e+002, 1.171887e+002
7.951199e+002, 1.172059e+002
7.956021e+002, 1.170028e+002
7.960842e+002, 1.169127e+002
7.965663e+002, 1.170923e+002
7.970484e+002, 1.174042e+002
7.975305e+002, 1.179136e+002
7.980126e+002, 1.185612e+002
7.984948e+002, 1.188010e+002
7.989769e+002, 1.183628e+002
7.994590e+002, 1.182050e+002
7.999411e+002, 1.189206e+002
8.004232e+002, 1.201848e+002
8.009053e+002, 1.206232e+002
8.013875e+002, 1.203051e+002
8.018696e+002, 1.199156e+002
8.023517e+002, 1.198884e+002
8.028338e+002, 1.199707e+002
8.033159e+002, 1.199119e+002
8.037980e+002, 1.197297e+002
8.042802e+002, 1.195708e+002
8.047623e+002, 1.194590e+002
8.052444e+002, 1.194029e+002
8.057265e+002, 1.194146e+002
8.062086e+002, 1.194856e+002
8.066907e+002, 1.195590e+002
8.071729e+002, 1.196406e+002
8.076550e+002, 1.196906e+002
8.081371e+002, 1.196576e+002
8.086192e+002, 1.195921e+002
8.091013e+002, 1.196252e+002
8.095834e+002, 1.197512e+002
8.100656e+002, 1.199364e+002
8.105477e+002, 1.202721e+002
8.110298e+002, 1.205670e+002
8.115119e+002, 1.206479e+002
8.119940e+002, 1.205453e+002
8.124761e+002, 1.205127e+002
8.129583e+002, 1.205861e+002
8.134404e+002, 1.207521e+002
8.139225e+002, 1.210848e+002
8.144046e+002, 1.215169e+002
8.148867e+002, 1.215881e+002
8.153688e+002, 1.212784e+002
8.158510e+002, 1.210040e+002
8.163331e+002, 1.209922e+002
8.168152e+002, 1.211407e+002
8.172973e+002, 1.213352e+002
8.177794e+002, 1.215516e+002
8.182615e+002, 1.216939e+002
8.187437e+002, 1.216022e+002
8.192258e+002, 1.215298e+002
8.197079e+002, 1.216569e+002
8.201900e+002, 1.219370e+002
8.206721e+002, 1.219951e+002
8.211542e+002, 1.216508e+002
8.216364e+002, 1.214919e+002
8.221185e+002, 1.217900e+002
8.226006e+002, 1.223749e+002
8.230827e+002, 1.227487e+002
8.235648e+002, 1.229115e+002
8.240469e+002, 1.228833e+002
8.245291e+002, 1.224091e+002
8.250112e+002, 1.219590e+002
8.254933e+002, 1.220847e+002
8.259754e+002, 1.226231e+002
8.264575e+002, 1.230510e+002
8.269396e+002, 1.232246e+002
8.274218e+002, 1.232320e+002
8.279039e+002, 1.230296e+002
8.283860e+002, 1.226959e+002
8.288681e+002, 1.225054e+002
8.293502e+002, 1.224771e+002
8.298323e+002, 1.224725e+002
8.303145e+002, 1.224499e+002
8.307966e+002, 1.224162e+002
8.312787e+002, 1.223924e+002
8.317608e+002, 1.223689e+002
8.322429e+002, 1.223176e+002
8.327250e+002, 1.221103e+002
8.332072e+002, 1.219873e+002
8.336893e+002, 1.221751e+002
8.341714e+002, 1.225428e+002
8.346535e+002, 1.227384e+002
8.351356e+002, 1.227010e+002
8.356177e+002, 1.225480e+002
8.360999e+002, 1.221901e+002
8.365820e+002, 1.218276e+002
8.370641e+002, 1.220391e+002
8.375462e+002, 1.227606e+002
8.380283e+002, 1.232459e+002
8.385104e+002, 1.231799e+002
8.389926e+002, 1.229204e+002
8.394747e+002, 1.228073e+002
8.399568e+002, 1.227920e+002
8.404389e+002, 1.227891e+002
8.409210e+002, 1.227083e+002
8.414031e+002, 1.227130e+002
8.418853e+002, 1.229357e+002
8.423674e+002, 1.232129e+002
8.428495e+002, 1.233130e+002
8.433316e+002, 1.232122e+002
8.438137e+002, 1.230260e+002
8.442958e+002, 1.227391e+002
8.447780e+002, 1.224575e+002
8.452601e+002, 1.223482e+002
8.457422e+002, 1.223669e+002
8.462243e+002, 1.224011e+002
8.467064e+002, 1.224095e+002
8.471885e+002, 1.224584e+002
8.476707e+002, 1.226051e+002
8.481528e+002, 1.228053e+002
8.486349e+002, 1.230226e+002
8.491170e+002, 1.234915e+002
8.495991e+002, 1.234880e+002
8.500812e+002, 1.227760e+002
8.505634e+002, 1.219500e+002
8.510455e+002, 1.217641e+002
8.515276e+002, 1.221214e+002
8.520097e+002, 1.222367e+002
8.524918e+002, 1.219833e+002
8.529739e+002, 1.216805e+002
8.534561e+002, 1.216509e+002
8.539382e+002, 1.217191e+002
8.544203e+002, 1.216854e+002
8.549024e+002, 1.214831e+002
8.553845e+002, 1.212779e+002
8.558666e+002, 1.210505e+002
8.563488e+002, 1.208709e+002
8.568309e+002, 1.208055e+002
8.573130e+002, 1.208733e+002
8.577951e+002, 1.208873e+002
8.582772e+002, 1.208435e+002
8.587593e+002, 1.207555e+002
8.592415e+002, 1.207235e+002
8.597236e+002, 1.206200e+002
8.602057e+002, 1.200617e+002
8.606878e+002, 1.190281e+002
8.611699e+002, 1.183527e+002
8.616520e+002, 1.188516e+002
8.621342e+002, 1.194872e+002
8.626163e+002, 1.196383e+002
8.630984e+002, 1.192935e+002
8.635805e+002, 1.187142e+002
8.640626e+002, 1.177596e+002
8.645447e+002, 1.170069e+002
8.650269e+002, 1.169503e+002
8.655090e+002, 1.173338e+002
8.659911e+002, 1.172059e+002
8.664732e+002, 1.166383e+002
8.669553e+002, 1.161116e+002
8.674374e+002, 1.160146e+002
8.679196e+002, 1.159873e+002
8.684017e+002, 1.157421e+002
8.688838e+002, 1.153141e+002
8.693659e+002, 1.150450e+002
8.698480e+002, 1.151105e+002
8.703301e+002, 1.150826e+002
8.708123e+002, 1.148201e+002
8.712944e+002, 1.143794e+002
8.717765e+002, 1.139353e+002
8.722586e+002, 1.134924e+002
8.727407e+002, 1.130453e+002
8.732228e+002, 1.125227e+002
8.737050e+002, 1.120802e+002
8.741871e+002, 1.119408e+002
8.746692e+002, 1.120001e+002
8.751513e+002, 1.120291e+002
8.756334e+002, 1.120771e+002
8.761155e+002, 1.119285e+002
8.765977e+002, 1.115078e+002
8.770798e+002, 1.109135e+002
8.775619e+002, 1.102811e+002
8.780440e+002, 1.096002e+002
8.785261e+002, 1.090164e+002
8.790082e+002, 1.085125e+002
8.794904e+002, 1.082331e+002
8.799725e+002, 1.086625e+002
8.804546e+002, 1.093641e+002
8.809367e+002, 1.095210e+002
8.814188e+002, 1.086122e+002
8.819009e+002, 1.077963e+002
8.823831e+002, 1.077482e+002
8.828652e+002, 1.078112e+002
8.833473e+002, 1.072569e+002
8.838294e+002, 1.057689e+002
8.843115e+002, 1.049470e+002
8.847936e+002, 1.049684e+002
8.852758e+002, 1.051974e+002
8.857579e+002, 1.049409e+002
8.862400e+002, 1.044091e+002
8.867221e+002, 1.041731e+002
8.872042e+002, 1.043303e+002
8.876863e+002, 1.042193e+002
8.881685e+002, 1.030405e+002
8.886506e+002, 1.017774e+002
8.891327e+002, 1.012211e+002
8.896148e+002, 1.015278e+002
8.900969e+002, 1.015152e+002
8.905790e+002, 1.011108e+002
8.910612e+002, 1.005621e+002
8.915433e+002, 9.989107e+001
8.920254e+002, 9.919724e+001
8.925075e+002, 9.900089e+001
8.929896e+002, 9.922820e+001
8.934717e+002, 9.930289e+001
8.939539e+002, 9.864051e+001
8.944360e+002, 9.790939e+001
8.949181e+002, 9.764082e+001
8.954002e+002, 9.775072e+001
8.958823e+002, 9.759995e+001
8.963644e+002, 9.701155e+001
8.968466e+002, 9.642990e+001
8.973287e+002, 9.594656e+001
8.978108e+002, 9.556860e+001
8.982929e+002, 9.533101e+001
8.987750e+002, 9.521852e+001
8.992571e+002, 9.512827e+001
8.997393e+002, 9.508289e+001
9.002214e+002, 9.495237e+001
9.007035e+002, 9.465747e+001
9.011856e+002, 9.419468e+001
9.016677e+002, 9.356471e+001
9.021498e+002, 9.234319e+001
9.026320e+002, 9.156088e+001
9.031141e+002, 9.141126e+001
9.035962e+002, 9.155252e+001
9.040783e+002, 9.156145e+001
9.045604e+002, 9.144394e+001
9.050425e+002, 9.128718e+001
9.055247e+002, 9.110519e+001
9.060068e+002, 9.087637e+001
9.064889e+002, 9.056539e+001
9.069710e+002, 9.020522e+001
9.074531e+002, 8.982784e+001
9.079352e+002, 8.942715e+001
9.084174e+002, 8.904077e+001
9.088995e+002, 8.859538e+001
9.093816e+002, 8.825879e+001
9.098637e+002, 8.821899e+001
9.103458e+002, 8.847405e+001
9.108279e+002, 8.835049e+001
9.113101e+002, 8.784204e+001
9.117922e+002, 8.726037e+001
9.122743e+002, 8.670604e+001
9.127564e+002, 8.628191e+001
9.132385e+002, 8.618823e+001
9.137206e+002, 8.637672e+001
9.142028e+002, 8.647352e+001
9.146849e+002, 8.622871e+001
9.151670e+002, 8.604594e+001
9.156491e+002, 8.613242e+001
9.161312e+002, 8.635510e+001
9.166133e+002, 8.611570e+001
9.170955e+002, 8.540467e+001
9.175776e+002, 8.479823e+001
9.180597e+002, 8.450944e+001
9.185418e+002, 8.442040e+001
9.190239e+002, 8.452855e+001
9.195060e+002, 8.470441e+001
9.199882e+002, 8.469660e+001
9.204703e+002, 8.423557e+001
9.209524e+002, 8.382519e+001
9.214345e+002, 8.355486e+001
9.219166e+002, 8.336655e+001
9.223987e+002, 8.320470e+001
9.228809e+002, 8.307006e+001
9.233630e+002, 8.291860e+001
9.238451e+002, 8.274158e+001
9.243272e+002, 8.255850e+001
9.248093e+002, 8.239738e+001
9.252914e+002, 8.224118e+001
9.257736e+002, 8.201487e+001
9.262557e+002, 8.165687e+001
9.267378e+002, 8.156569e+001
9.272199e+002, 8.215125e+001
9.277020e+002, 8.276453e+001
9.281841e+002, 8.312591e+001
9.286663e+002, 8.323353e+001
9.291484e+002, 8.298937e+001
9.296305e+002, 8.237647e+001
9.301126e+002, 8.175317e+001
9.305947e+002, 8.142603e+001
9.310768e+002, 8.115995e+001
9.315590e+002, 8.053122e+001
9.320411e+002, 7.966100e+001
9.325232e+002, 7.909969e+001
9.330053e+002, 7.925291e+001
9.334874e+002, 7.947021e+001
9.339695e+002, 7.963601e+001
9.344517e+002, 7.972459e+001
9.349338e+002, 7.963523e+001
9.354159e+002, 7.936436e+001
9.358980e+002, 7.915264e+001
9.363801e+002, 7.907411e+001
9.368622e+002, 7.906628e+001
9.373444e+002, 7.912305e+001
9.378265e+002, 7.918104e+001
9.383086e+002, 7.912777e+001
9.387907e+002, 7.877905e+001
9.392728e+002, 7.863783e+001
9.397549e+002, 7.898775e+001
9.402371e+002, 7.936511e+001
9.407192e+002, 7.936345e+001
9.412013e+002, 7.896818e+001
9.416834e+002, 7.861935e+001
9.421655e+002, 7.832726e+001
9.426476e+002, 7.816553e+001
9.431298e+002, 7.833168e+001
9.436119e+002, 7.857603e+001
9.440940e+002, 7.862698e+001
9.445761e+002, 7.847141e+001
9.450582e+002, 7.827909e+001
9.455403e+002, 7.799944e+001
9.460225e+002, 7.780617e+001
9.465046e+002, 7.778960e+001
9.469867e+002, 7.789428e+001
9.474688e+002, 7.789514e+001
9.479509e+002, 7.779566e+001
9.484330e+002, 7.764677e+001
9.489152e+002, 7.743236e+001
9.493973e+002, 7.722873e+001
9.498794e+002, 7.712508e+001
9.503615e+002, 7.708096e+001
9.508436e+002, 7.702442e+001
9.513257e+002, 7.693872e+001
9.518079e+002, 7.684350e+001
9.522900e+002, 7.676228e+001
9.527721e+002, 7.664283e+001
9.532542e+002, 7.636124e+001
9.537363e+002, 7.595691e+001
9.542184e+002, 7.576845e+001
9.547006e+002, 7.585128e+001
9.551827e+002, 7.592850e+001
9.556648e+002, 7.569801e+001
9.561469e+002, 7.541523e+001
9.566290e+002, 7.534664e+001
9.571111e+002, 7.555785e+001
9.575933e+002, 7.558260e+001
9.580754e+002, 7.529725e+001
9.585575e+002, 7.504255e+001
9.590396e+002, 7.499437e+001
9.595217e+002, 7.509672e+001
9.600038e+002, 7.518193e+001
9.604860e+002, 7.524577e+001
9.609681e+002, 7.526635e+001
9.614502e+002, 7.526384e+001
9.619323e+002, 7.518091e+001
9.624144e+002, 7.488076e+001
9.628965e+002, 7.449236e+001
9.633787e+002, 7.431814e+001
9.638608e+002, 7.447012e+001
9.643429e+002, 7.455758e+001
9.648250e+002, 7.452454e+001
9.653071e+002, 7.443723e+001
9.657892e+002, 7.429505e+001
9.662714e+002, 7.418241e+001
9.667535e+002, 7.440504e+001
9.672356e+002, 7.508291e+001
9.677177e+002, 7.555233e+001
9.681998e+002, 7.498872e+001
9.686819e+002, 7.445424e+001
9.691641e+002, 7.492673e+001
9.696462e+002, 7.655116e+001
9.701283e+002, 7.695616e+001
9.706104e+002, 7.595558e+001
9.710925e+002, 7.480961e+001
9.715746e+002, 7.421752e+001
9.720568e+002, 7.396927e+001
9.725389e+002, 7.364403e+001
9.730210e+002, 7.331770e+001
9.735031e+002, 7.325188e+001
9.739852e+002, 7.389450e+001
9.744673e+002, 7.440594e+001
9.749495e+002, 7.449847e+001
9.754316e+002, 7.434721e+001
9.759137e+002, 7.422294e+001
9.763958e+002, 7.412807e+001
9.768779e+002, 7.403249e+001
9.773600e+002, 7.392842e+001
9.778422e+002, 7.384068e+001
9.783243e+002, 7.387106e+001
9.788064e+002, 7.389549e+001
9.792885e+002, 7.373479e+001
9.797706e+002, 7.331788e+001
9.802527e+002, 7.291783e+001
9.807349e+002, 7.241981e+001
9.812170e+002, 7.216518e+001
9.816991e+002, 7.248183e+001
9.821812e+002, 7.324524e+001
9.826633e+002, 7.344768e+001
9.831454e+002, 7.312624e+001
9.836276e+002, 7.270872e+001
9.841097e+002, 7.224501e+001
9.845918e+002, 7.196581e+001
9.850739e+002, 7.220293e+001
9.855560e+002, 7.275745e+001
9.860381e+002, 7.308500e+001
9.865203e+002, 7.301452e+001
9.870024e+002, 7.300236e+001
9.874845e+002, 7.312969e+001
9.879666e+002, 7.328956e+001
9.884487e+002, 7.334995e+001
9.889308e+002, 7.331490e+001
9.894130e+002, 7.313931e+001
9.898951e+002, 7.277908e+001
9.903772e+002, 7.257901e+001
9.908593e+002, 7.296132e+001
9.913414e+002, 7.340453e+001
9.918235e+002, 7.350030e+001
9.923057e+002, 7.322766e+001
9.927878e+002, 7.303642e+001
9.932699e+002, 7.293734e+001
9.937520e+002, 7.283475e+001
9.942341e+002, 7.257608e+001
9.947162e+002, 7.235713e+001
9.951984e+002, 7.264885e+001
9.956805e+002, 7.326559e+001
9.961626e+002, 7.369240e+001
9.966447e+002, 7.364602e+001
9.971268e+002, 7.349944e+001
9.976089e+002, 7.332792e+001
9.980911e+002, 7.311144e+001
9.985732e+002, 7.275186e+001
9.990553e+002, 7.225105e+001
9.995374e+002, 7.207861e+001
1.000020e+003, 7.232406e+001
1.000502e+003, 7.263228e+001
1.000984e+003, 7.270570e+001
1.001466e+003, 7.266057e+001
1.001948e+003, 7.255183e+001
1.002430e+003, 7.236923e+001
1.002912e+003, 7.243892e+001
1.003394e+003, 7.298198e+001
1.003876e+003, 7.336726e+001
1.004359e+003, 7.329468e+001
1.004841e+003, 7.290210e+001
1.005323e+003, 7.249812e+001
1.005805e+003, 7.212713e+001
1.006287e+003, 7.198881e+001
1.006769e+003, 7.232292e+001
1.007251e+003, 7.271042e+001
1.007733e+003, 7.298010e+001
1.008216e+003, 7.314915e+001
1.008698e+003, 7.326057e+001
1.009180e+003, 7.335390e+001
1.009662e+003, 7.317701e+001
1.010144e+003, 7.265002e+001
1.010626e+003, 7.218562e+001
1.011108e+003, 7.229945e+001
1.011590e+003, 7.269432e+001
1.012072e+003, 7.296908e+001
1.012555e+003, 7.309195e+001
1.013037e+003, 7.308154e+001
1.013519e+003, 7.273439e+001
1.014001e+003, 7.250887e+001
1.014483e+003, 7.263015e+001
1.014965e+003, 7.294849e+001
1.015447e+003, 7.287749e+001
1.015929e+003, 7.246623e+001
1.016411e+003, 7.226303e+001
1.016894e+003, 7.253600e+001
1.017376e+003, 7.286382e+001
1.017858e+003, 7.284555e+001
1.018340e+003, 7.267958e+001
1.018822e+003, 7.261520e+001
1.019304e+003, 7.273454e+001
1.019786e+003, 7.283286e+001
1.020268e+003, 7.291133e+001
1.020751e+003, 7.296799e+001
1.021233e+003, 7.297226e+001
1.021715e+003, 7.296078e+001
1.022197e+003, 7.308683e+001
1.022679e+003, 7.331356e+001
1.023161e+003, 7.341164e+001
1.023643e+003, 7.296070e+001
1.024125e+003, 7.270464e+001
1.024607e+003, 7.316062e+001
1.025090e+003, 7.392864e+001
1.025572e+003, 7.415844e+001
1.026054e+003, 7.381523e+001
1.026536e+003, 7.338041e+001
1.027018e+003, 7.289642e+001
1.027500e+003, 7.254137e+001
1.027982e+003, 7.262046e+001
1.028464e+003, 7.287177e+001
1.028947e+003, 7.296868e+001
1.029429e+003, 7.280636e+001
1.029911e+003, 7.279483e+001
1.030393e+003, 7.302808e+001
1.030875e+003, 7.328921e+001
1.031357e+003, 7.349043e+001
1.031839e+003, 7.362820e+001
1.032321e+003, 7.362221e+001
1.032803e+003, 7.352053e+001
1.033286e+003, 7.352450e+001
1.033768e+003, 7.395689e+001
1.034250e+003, 7.426192e+001
1.034732e+003, 7.405748e+001
1.035214e+003, 7.364249e+001
1.035696e+003, 7.343415e+001
1.036178e+003, 7.344038e+001
1.036660e+003, 7.364140e+001
1.037143e+003, 7.406897e+001
1.037625e+003, 7.448146e+001
1.038107e+003, 7.473553e+001
1.038589e+003, 7.480457e+001
1.039071e+003, 7.456214e+001
1.039553e+003, 7.402738e+001
1.040035e+003, 7.362936e+001
1.040517e+003, 7.342126e+001
1.041000e+003, 7.343848e+001
1.041482e+003, 7.379872e+001
1.041964e+003, 7.428831e+001
1.042446e+003, 7.437624e+001
1.042928e+003, 7.412914e+001
1.043410e+003, 7.376808e+001
1.043892e+003, 7.325665e+001
1.044374e+003, 7.294747e+001
1.044856e+003, 7.332341e+001
1.045339e+003, 7.381741e+001
1.045821e+003, 7.388625e+001
1.046303e+003, 7.344424e+001
1.046785e+003, 7.318396e+001
1.047267e+003, 7.311717e+001
1.047749e+003, 7.313159e+001
1.048231e+003, 7.326146e+001
1.048713e+003, 7.335569e+001
1.049195e+003, 7.310947e+001
1.049677e+003, 7.265969e+001
1.050160e+003, 7.240715e+001
1.050642e+003, 7.271338e+001
1.051124e+003, 7.287463e+001
1.051606e+003, 7.278505e+001
1.052088e+003, 7.256776e+001
1.052570e+003, 7.239387e+001
1.053052e+003, 7.223560e+001
1.053534e+003, 7.195845e+001
1.054017e+003, 7.154123e+001
1.054499e+003, 7.118997e+001
1.054981e+003, 7.106216e+001
1.055463e+003, 7.101559e+001
1.055945e+003, 7.098459e+001
1.056427e+003, 7.096042e+001
1.056909e+003, 7.094430e+001
1.057391e+003, 7.095370e+001
1.057874e+003, 7.073062e+001
1.058356e+003, 7.003785e+001
1.058838e+003, 6.939455e+001
1.059320e+003, 6.960461e+001
1.059802e+003, 7.020690e+001
1.060284e+003, 7.053862e+001
1.060766e+003, 7.032941e+001
1.061248e+003, 7.011868e+001
1.061730e+003, 6.983936e+001
1.062213e+003, 6.973675e+001
1.062695e+003, 7.026870e+001
1.063177e+003, 7.109669e+001
1.063659e+003, 7.080505e+001
1.064141e+003, 6.961498e+001
1.064623e+003, 6.858652e+001
1.065105e+003, 6.836320e+001
1.065587e+003, 6.827859e+001
1.066070e+003, 6.800737e+001
1.066552e+003, 6.775057e+001
1.067034e+003, 6.792014e+001
1.067516e+003, 6.853951e+001
1.067998e+003, 6.876534e+001
1.068480e+003, 6.847169e+001
1.068962e+003, 6.805243e+001
1.069444e+003, 6.777037e+001
1.069927e+003, 6.759718e+001
1.070409e+003, 6.753835e+001
1.070891e+003, 6.759267e+001
1.071373e+003, 6.758850e+001
1.071855e+003, 6.750462e+001
1.072337e+003, 6.740931e+001
1.072819e+003, 6.731785e+001
1.073301e+003, 6.723615e+001
1.073783e+003, 6.721208e+001
1.074266e+003, 6.719682e+001
1.074748e+003, 6.707594e+001
1.075230e+003, 6.677230e+001
1.075712e+003, 6.649218e+001
1.076194e+003, 6.623093e+001
1.076676e+003, 6.607290e+001
1.077158e+003, 6.613998e+001
1.077640e+003, 6.638789e+001
1.078122e+003, 6.627959e+001
1.078604e+003, 6.586557e+001
1.079087e+003, 6.557616e+001
1.079569e+003, 6.575584e+001
1.080051e+003, 6.602525e+001
1.080533e+003, 6.621786e+001
1.081015e+003, 6.632682e+001
1.081497e+003, 6.637944e+001
1.081979e+003, 6.641139e+001
1.082461e+003, 6.615797e+001
1.082944e+003, 6.555767e+001
1.083426e+003, 6.496365e+001
1.083908e+003, 6.469387e+001
1.084390e+003, 6.464176e+001
1.084872e+003, 6.480323e+001
1.085354e+003, 6.513069e+001
1.085836e+003, 6.513725e+001
1.086318e+003, 6.446400e+001
1.086801e+003, 6.404726e+001
1.087283e+003, 6.418078e+001
1.087765e+003, 6.456695e+001
1.088247e+003, 6.465448e+001
1.088729e+003, 6.455175e+001
1.089211e+003, 6.459271e+001
1.089693e+003, 6.492125e+001
1.090175e+003, 6.500459e+001
1.090657e+003, 6.426693e+001
1.091140e+003, 6.356790e+001
1.091622e+003, 6.341561e+001
1.092104e+003, 6.372789e+001
1.092586e+003, 6.384626e+001
1.093068e+003, 6.378379e+001
1.093550e+003, 6.370310e+001
1.094032e+003, 6.374129e+001
1.094514e+003, 6.369017e+001
1.094997e+003, 6.328446e+001
1.095479e+003, 6.275290e+001
1.095961e+003, 6.238841e+001
1.096443e+003, 6.218938e+001
1.096925e+003, 6.223808e+001
1.097407e+003, 6.257679e+001
1.097889e+003, 6.288944e+001
1.098371e+003, 6.286805e+001
1.098854e+003, 6.271817e+001
1.099336e+003, 6.277440e+001
1.099818e+003, 6.294516e+001
1.100300e+003, 6.284321e+001
1.100782e+003, 6.205968e+001
1.101264e+003, 6.157212e+001
1.101746e+003, 6.156525e+001
1.102228e+003, 6.176745e+001
1.102710e+003, 6.182452e+001
1.103193e+003, 6.180548e+001
1.103675e+003, 6.193004e+001
1.104157e+003, 6.222266e+001
1.104639e+003, 6.237915e+001
1.105121e+003, 6.224108e+001
1.105603e+003, 6.194639e+001
1.106085e+003, 6.144359e+001
1.106567e+003, 6.088396e+001
1.107049e+003, 6.082568e+001
1.107531e+003, 6.119755e+001
1.108014e+003, 6.145414e+001
1.108496e+003, 6.145227e+001
1.108978e+003, 6.129662e+001
1.109460e+003, 6.084156e+001
1.109942e+003, 6.043046e+001
1.110424e+003, 6.041615e+001
1.110906e+003, 6.081568e+001
1.111388e+003, 6.105323e+001
1.111871e+003, 6.111630e+001
1.112353e+003, 6.120488e+001
1.112835e+003, 6.153054e+001
1.113317e+003, 6.179008e+001
1.113799e+003, 6.153578e+001
1.114281e+003, 6.102253e+001
1.114763e+003, 6.066707e+001
1.115245e+003, 6.057228e+001
1.115728e+003, 6.061641e+001
1.116210e+003, 6.086564e+001
1.116692e+003, 6.103607e+001
1.117174e+003, 6.078462e+001
1.117656e+003, 6.034554e+001
1.118138e+003, 6.017600e+001
1.118620e+003, 6.021672e+001
1.119102e+003, 6.018002e+001
1.119584e+003, 5.977946e+001
1.120067e+003, 5.956905e+001
1.120549e+003, 5.968919e+001
1.121031e+003, 5.993711e+001
1.121513e+003, 6.004974e+001
1.121995e+003, 6.006066e+001
1.122477e+003, 6.013285e+001
1.122959e+003, 6.027642e+001
1.123441e+003, 6.023115e+001
1.123924e+003, 5.958473e+001
1.124406e+003, 5.901959e+001
1.124888e+003, 5.874701e+001
1.125370e+003, 5.879244e+001
1.125852e+003, 5.947717e+001
1.126334e+003, 6.070158e+001
1.126816e+003, 6.120380e+001
1.127298e+003, 6.056493e+001
1.127781e+003, 5.981417e+001
1.128263e+003, 5.974078e+001
1.128745e+003, 5.985639e+001
1.129227e+003, 5.979139e+001
1.129709e+003, 5.954062e+001
1.130191e+003, 5.909829e+001
1.130673e+003, 5.843645e+001
1.131155e+003, 5.797618e+001
1.131637e+003, 5.793291e+001
1.132120e+003, 5.807277e+001
1.132602e+003, 5.824762e+001
1.133084e+003, 5.840598e+001
1.133566e+003, 5.846813e+001
1.134048e+003, 5.841248e+001
1.134530e+003, 5.830336e+001
1.135012e+003, 5.813068e+001
1.135494e+003, 5.794057e+001
1.135976e+003, 5.770390e+001
1.136458e+003, 5.750498e+001
1.136941e+003, 5.748763e+001
1.137423e+003, 5.761946e+001
1.137905e+003, 5.782050e+001
1.138387e+003, 5.822004e+001
1.138869e+003, 5.844501e+001
1.139351e+003, 5.843118e+001
1.139833e+003, 5.833746e+001
1.140315e+003, 5.834913e+001
1.140798e+003, 5.839007e+001
1.141280e+003, 5.821643e+001
1.141762e+003, 5.786617e+001
1.142244e+003, 5.763841e+001
1.142726e+003, 5.782246e+001
1.143208e+003, 5.791027e+001
1.143690e+003, 5.773140e+001
1.144172e+003, 5.747589e+001
1.144655e+003, 5.748537e+001
1.145137e+003, 5.767550e+001
1.145619e+003, 5.764143e+001
1.146101e+003, 5.733062e+001
1.146583e+003, 5.716822e+001
1.147065e+003, 5.767730e+001
1.147547e+003, 5.806417e+001
1.148029e+003, 5.788330e+001
1.148511e+003, 5.736427e+001
1.148994e+003, 5.718500e+001
1.149476e+003, 5.730547e+001
1.149958e+003, 5.736295e+001
1.150440e+003, 5.726885e+001
1.150922e+003, 5.712730e+001
1.151404e+003, 5.697428e+001
1.151886e+003, 5.683378e+001
1.152368e+003, 5.667152e+001
1.152851e+003, 5.651287e+001
1.153333e+003, 5.677658e+001
1.153815e+003, 5.746574e+001
1.154297e+003, 5.771211e+001
1.154779e+003, 5.696721e+001
1.155261e+003, 5.616708e+001
1.155743e+003, 5.637506e+001
1.156225e+003, 5.689634e+001
1.156708e+003, 5.683532e+001
1.157190e+003, 5.602240e+001
1.157672e+003, 5.574710e+001
1.158154e+003, 5.607124e+001
1.158636e+003, 5.639636e+001
1.159118e+003, 5.627866e+001
1.159600e+003, 5.611415e+001
1.160082e+003, 5.647681e+001
1.160564e+003, 5.706499e+001
1.161047e+003, 5.734376e+001
1.161529e+003, 5.717915e+001
1.162011e+003, 5.681550e+001
1.162493e+003, 5.617694e+001
1.162975e+003, 5.565326e+001
1.163457e+003, 5.563483e+001
1.163939e+003, 5.584833e+001
1.164421e+003, 5.593254e+001
1.164903e+003, 5.592296e+001
1.165385e+003, 5.594671e+001
1.165868e+003, 5.603255e+001
1.166350e+003, 5.617967e+001
1.166832e+003, 5.644896e+001
1.167314e+003, 5.660322e+001
1.167796e+003, 5.624250e+001
1.168278e+003, 5.566647e+001
1.168760e+003, 5.540868e+001
1.169242e+003, 5.546225e+001
1.169725e+003, 5.557439e+001
1.170207e+003, 5.577887e+001
1.170689e+003, 5.584691e+001
1.171171e+003, 5.565562e+001
1.171653e+003, 5.548473e+001
1.172135e+003, 5.596154e+001
1.172617e+003, 5.670013e+001
1.173099e+003, 5.665060e+001
1.173582e+003, 5.572226e+001
1.174064e+003, 5.521124e+001
1.174546e+003, 5.616750e+001
1.175028e+003, 5.685420e+001
1.175510e+003, 5.676054e+001
1.175992e+003, 5.623612e+001
1.176474e+003, 5.589526e+001
1.176956e+003, 5.571106e+001
1.177438e+003, 5.563452e+001
1.177921e+003, 5.566639e+001
1.178403e+003, 5.571186e+001
1.178885e+003, 5.582069e+001
1.179367e+003, 5.581328e+001
1.179849e+003, 5.552791e+001
1.180331e+003, 5.513828e+001
1.180813e+003, 5.529560e+001
1.181295e+003, 5.583905e+001
1.181778e+003, 5.615874e+001
1.182260e+003, 5.605745e+001
1.182742e+003, 5.582623e+001
1.183224e+003, 5.532694e+001
1.183706e+003, 5.502635e+001
1.184188e+003, 5.528477e+001
1.184670e+003, 5.594866e+001
1.185152e+003, 5.613258e+001
1.185635e+003, 5.591490e+001
1.186117e+003, 5.570772e+001
1.186599e+003, 5.568598e+001
1.187081e+003, 5.566235e+001
1.187563e+003, 5.550678e+001
1.188045e+003, 5.535044e+001
1.188527e+003, 5.532319e+001
1.189009e+003, 5.540434e+001
1.189491e+003, 5.522701e+001
1.189974e+003, 5.484673e+001
1.190456e+003, 5.467205e+001
1.190938e+003, 5.505482e+001
1.191420e+003, 5.548937e+001
1.191902e+003, 5.587394e+001
1.192384e+003, 5.607637e+001
1.192866e+003, 5.591521e+001
1.193348e+003, 5.537881e+001
1.193830e+003, 5.503096e+001
1.194313e+003, 5.486290e+001
1.194795e+003, 5.475881e+001
1.195277e+003, 5.464860e+001
1.195759e+003, 5.458416e+001
1.196241e+003, 5.456924e+001
1.196723e+003, 5.463641e+001
1.197205e+003, 5.488993e+001
1.197687e+003, 5.534204e+001
1.198169e+003, 5.543851e+001
1.198652e+003, 5.516953e+001
1.199134e+003, 5.495693e+001
1.199616e+003, 5.520844e+001
1.200098e+003, 5.547490e+001
1.200580e+003, 5.546912e+001
1.201062e+003, 5.531007e+001
1.201544e+003, 5.516416e+001
1.202026e+003, 5.502789e+001
1.202509e+003, 5.509652e+001
1.202991e+003, 5.538964e+001
1.203473e+003, 5.562020e+001
1.203955e+003, 5.561393e+001
1.204437e+003, 5.544296e+001
1.204919e+003, 5.498510e+001
1.205401e+003, 5.444432e+001
1.205883e+003, 5.429193e+001
1.206365e+003, 5.453441e+001
1.206848e+003, 5.481079e+001
1.207330e+003, 5.508348e+001
1.207812e+003, 5.521215e+001
1.208294e+003, 5.490758e+001
1.208776e+003, 5.459109e+001
1.209258e+003, 5.464046e+001
1.209740e+003, 5.490272e+001
1.210222e+003, 5.493710e+001
1.210705e+003, 5.474152e+001
1.211187e+003, 5.454040e+001
1.211669e+003, 5.436002e+001
1.212151e+003, 5.430381e+001
1.212633e+003, 5.466764e+001
1.213115e+003, 5.499950e+001
1.213597e+003, 5.486654e+001
1.214079e+003, 5.442169e+001
1.214562e+003, 5.425412e+001
1.215044e+003, 5.435382e+001
1.215526e+003, 5.418609e+001
1.216008e+003, 5.353923e+001
1.216490e+003, 5.309490e+001
1.216972e+003, 5.371795e+001
1.217454e+003, 5.446376e+001
1.217936e+003, 5.452447e+001
1.218418e+003, 5.406044e+001
1.218901e+003, 5.389790e+001
1.219383e+003, 5.402533e+001
1.219865e+003, 5.425021e+001
1.220347e+003, 5.455336e+001
1.220829e+003, 5.479477e+001
1.221311e+003, 5.484724e+001
1.221793e+003, 5.481182e+001
1.222275e+003, 5.475407e+001
1.222757e+003, 5.468166e+001
1.223240e+003, 5.464509e+001
1.223722e+003, 5.463940e+001
1.224204e+003, 5.458228e+001
1.224686e+003, 5.441444e+001
1.225168e+003, 5.428668e+001
1.225650e+003, 5.437378e+001
1.226132e+003, 5.447480e+001
1.226614e+003, 5.441825e+001
1.227096e+003, 5.422962e+001
1.227579e+003, 5.414993e+001
1.228061e+003, 5.416557e+001
1.228543e+003, 5.414782e+001
1.229025e+003, 5.400782e+001
1.229507e+003, 5.391807e+001
1.229989e+003, 5.409111e+001
1.230471e+003, 5.424957e+001
1.230953e+003, 5.412315e+001
1.231436e+003, 5.376857e+001
1.231918e+003, 5.381415e+001
1.232400e+003, 5.418953e+001
1.232882e+003, 5.439458e+001
1.233364e+003, 5.404248e+001
1.233846e+003, 5.382312e+001
1.234328e+003, 5.425329e+001
1.234810e+003, 5.478587e+001
1.235292e+003, 5.507494e+001
1.235775e+003, 5.511806e+001
1.236257e+003, 5.477452e+001
1.236739e+003, 5.413618e+001
1.237221e+003, 5.368494e+001
1.237703e+003, 5.369574e+001
1.238185e+003, 5.382090e+001
1.238667e+003, 5.393937e+001
1.239149e+003, 5.412276e+001
1.239632e+003, 5.452352e+001
1.240114e+003, 5.504622e+001
1.240596e+003, 5.510513e+001
1.241078e+003, 5.477942e+001
1.241560e+003, 5.440280e+001
1.242042e+003, 5.396264e+001
1.242524e+003, 5.374945e+001
1.243006e+003, 5.397281e+001
1.243489e+003, 5.424784e+001
1.243971e+003, 5.420664e+001
1.244453e+003, 5.396794e+001
1.244935e+003, 5.416542e+001
1.245417e+003, 5.463618e+001
1.245899e+003, 5.476622e+001
1.246381e+003, 5.378898e+001
1.246863e+003, 5.322352e+001
1.247345e+003, 5.340892e+001
1.247828e+003, 5.379056e+001
1.248310e+003, 5.393163e+001
1.248792e+003, 5.389587e+001
1.249274e+003, 5.382307e+001
1.249756e+003, 5.372412e+001
1.250238e+003, 5.362676e+001
1.250720e+003, 5.343253e+001
1.251202e+003, 5.344915e+001
1.251684e+003, 5.379814e+001
1.252167e+003, 5.411292e+001
1.252649e+003, 5.401693e+001
1.253131e+003, 5.369294e+001
1.253613e+003, 5.339813e+001
1.254095e+003, 5.318523e+001
1.254577e+003, 5.320839e+001
1.255059e+003, 5.374986e+001
1.255541e+003, 5.405328e+001
1.256023e+003, 5.403851e+001
1.256506e+003, 5.392131e+001
1.256988e+003, 5.384107e+001
1.257470e+003, 5.380815e+001
1.257952e+003, 5.392752e+001
1.258434e+003, 5.410527e+001
1.258916e+003, 5.402509e+001
1.259398e+003, 5.348016e+001
1.259880e+003, 5.322722e+001
1.260363e+003, 5.334462e+001
1.260845e+003, 5.354377e+001
1.261327e+003, 5.356080e+001
1.261809e+003, 5.355364e+001
1.262291e+003, 5.372874e+001
1.262773e+003, 5.400528e+001
1.263255e+003, 5.416772e+001
1.263737e+003, 5.420680e+001
1.264219e+003, 5.412032e+001
1.264702e+003, 5.389877e+001
1.265184e+003, 5.368355e+001
1.265666e+003, 5.363761e+001
1.266148e+003, 5.358731e+001
1.266630e+003, 5.328028e+001
1.267112e+003, 5.291729e+001
1.267594e+003, 5.294869e+001
1.268076e+003, 5.341209e+001
1.268559e+003, 5.363918e+001
1.269041e+003, 5.358894e+001
1.269523e+003, 5.359650e+001
1.270005e+003, 5.411661e+001
1.270487e+003, 5.452073e+001
1.270969e+003, 5.427442e+001
1.271451e+003, 5.378207e+001
1.271933e+003, 5.358519e+001
1.272416e+003, 5.366069e+001
1.272898e+003, 5.368456e+001
1.273380e+003, 5.364482e+001
1.273862e+003, 5.366420e+001
1.274344e+003, 5.395530e+001
1.274826e+003, 5.413221e+001
1.275308e+003, 5.402018e+001
1.275790e+003, 5.378867e+001
1.276272e+003, 5.360286e+001
1.276755e+003, 5.347987e+001
1.277237e+003, 5.353807e+001
1.277719e+003, 5.374925e+001
1.278201e+003, 5.388289e+001
1.278683e+003, 5.379818e+001
1.279165e+003, 5.366377e+001
1.279647e+003, 5.347614e+001
1.280129e+003, 5.331998e+001
1.280611e+003, 5.331052e+001
1.281094e+003, 5.338985e+001
1.281576e+003, 5.347517e+001
1.282058e+003, 5.354185e+001
1.282540e+003, 5.348809e+001
1.283022e+003, 5.306100e+001
1.283504e+003, 5.300565e+001
1.283986e+003, 5.350605e+001
1.284468e+003, 5.400172e+001
1.284950e+003, 5.375701e+001
1.285433e+003, 5.329534e+001
1.285915e+003, 5.339291e+001
1.286397e+003, 5.389955e+001
1.286879e+003, 5.411147e+001
1.287361e+003, 5.388701e+001
1.287843e+003, 5.374720e+001
1.288325e+003, 5.374891e+001
1.288807e+003, 5.374475e+001
1.289290e+003, 5.356144e+001
1.289772e+003, 5.336023e+001
1.290254e+003, 5.329093e+001
1.290736e+003, 5.331190e+001
1.291218e+003, 5.330591e+001
1.291700e+003, 5.327032e+001
1.292182e+003, 5.323637e+001
1.292664e+003, 5.320582e+001
1.293146e+003, 5.319150e+001
1.293629e+003, 5.321921e+001
1.294111e+003, 5.324668e+001
1.294593e+003, 5.322392e+001
1.295075e+003, 5.320441e+001
1.295557e+003, 5.327600e+001
1.296039e+003, 5.342201e+001
1.296521e+003, 5.345979e+001
1.297003e+003, 5.340419e+001
1.297486e+003, 5.347260e+001
1.297968e+003, 5.404405e+001
1.298450e+003, 5.439307e+001
1.298932e+003, 5.431847e+001
1.299414e+003, 5.402509e+001
1.299896e+003, 5.360164e+001
1.300378e+003, 5.317489e+001
1.300860e+003, 5.317887e+001
1.301343e+003, 5.353624e+001
1.301825e+003, 5.383081e+001
##END=



