##NAMES=Ferroalluaudite
##RRUFFID=R100070
##IDEAL CHEMISTRY=NaFe^2+^Fe^3+^_2_(PO_4_)_3_
##LOCALITY=Rapid Creek area, Yukon, Canada
##OWNER=RRUFF
##SOURCE=Royal Ontario Museum
##DESCRIPTION=Black radiating fibrous masses associated with marićite
##STATUS=The identification of this mineral is confirmed by single-crystal X-ray diffraction and chemical analysis.
##URL=rruff.info/R100070
##MEASURED CHEMISTRY=(Na_0.90_Ca_0.15_)(Fe^2+^_0.47_Mg_0.34_Mn^2+^_0.17_)_Σ=0.98_Fe^3+^_2.00_P_2.96_O_12_
91.53320, 787.4113
92.01532, 788.8789
92.49744, 787.2866
92.97955, 792.3260
93.46167, 796.0891
93.94379, 794.9791
94.42590, 795.1708
94.90802, 794.4872
95.39014, 787.9431
95.87225, 774.2386
96.35437, 760.8350
96.83649, 750.8522
97.31860, 743.2402
97.80072, 737.1871
98.28284, 731.7910
98.76495, 726.1946
99.24707, 719.7916
99.72919, 711.8323
100.2113, 704.1909
100.6934, 696.9352
101.1755, 690.1566
101.6577, 683.9779
102.1398, 678.1914
102.6219, 672.1588
103.1040, 669.8624
103.5861, 673.4290
104.0682, 677.7662
104.5504, 679.9647
105.0325, 679.6210
105.5146, 678.4774
105.9967, 679.1157
106.4788, 683.3038
106.9609, 684.2357
107.4431, 679.1965
107.9252, 671.2718
108.4073, 664.5885
108.8894, 660.5311
109.3715, 658.0526
109.8536, 655.4227
110.3358, 652.6235
110.8179, 649.7150
111.3000, 646.4984
111.7821, 643.0431
112.2642, 640.0673
112.7463, 638.0215
113.2285, 636.5328
113.7106, 635.1621
114.1927, 633.7755
114.6748, 632.6901
115.1569, 632.8271
115.6390, 635.3666
116.1212, 635.9468
116.6033, 631.1845
117.0854, 624.8815
117.5675, 621.3214
118.0496, 623.0964
118.5317, 628.4420
119.0139, 628.8175
119.4960, 617.4830
119.9781, 607.9603
120.4602, 603.0638
120.9423, 601.6824
121.4244, 601.6188
121.9066, 601.2292
122.3887, 600.4498
122.8708, 600.2789
123.3529, 601.8705
123.8350, 602.9305
124.3171, 602.3367
124.7993, 600.0717
125.2814, 596.8129
125.7635, 593.0086
126.2456, 588.4378
126.7277, 584.7629
127.2098, 581.7375
127.6920, 579.7386
128.1741, 579.7634
128.6562, 582.3926
129.1383, 585.1826
129.6204, 584.5911
130.1025, 581.0409
130.5847, 577.4359
131.0668, 574.7444
131.5489, 572.8754
132.0310, 571.5879
132.5131, 571.1666
132.9952, 570.9728
133.4774, 570.5320
133.9595, 569.8309
134.4416, 568.8373
134.9237, 567.3178
135.4058, 565.1223
135.8879, 563.4423
136.3701, 562.8771
136.8522, 562.6849
137.3343, 562.7444
137.8164, 562.9795
138.2985, 562.9153
138.7806, 561.5065
139.2628, 557.2120
139.7449, 554.4603
140.2270, 555.3954
140.7091, 557.0002
141.1912, 556.0735
141.6733, 551.1885
142.1555, 543.9318
142.6376, 539.8406
143.1197, 542.7698
143.6018, 544.7825
144.0839, 544.0743
144.5660, 542.0158
145.0482, 540.9483
145.5303, 542.3553
146.0124, 545.8145
146.4945, 548.1584
146.9766, 550.1673
147.4587, 550.6337
147.9409, 547.6429
148.4230, 542.0519
148.9051, 537.7778
149.3872, 538.1108
149.8693, 542.2847
150.3514, 544.4780
150.8336, 542.6887
151.3157, 540.0633
151.7978, 539.9055
152.2799, 542.6733
152.7620, 545.0647
153.2441, 544.0416
153.7263, 540.9279
154.2084, 537.6663
154.6905, 534.9586
155.1726, 532.5407
155.6547, 529.3407
156.1368, 523.8184
156.6190, 520.5742
157.1011, 523.5562
157.5832, 530.2587
158.0653, 535.8346
158.5474, 536.6591
159.0295, 533.1382
159.5117, 530.7119
159.9938, 530.5386
160.4759, 530.3847
160.9580, 529.2374
161.4401, 527.3840
161.9222, 525.6882
162.4044, 524.9238
162.8865, 525.1936
163.3686, 525.8243
163.8507, 528.5543
164.3328, 530.1735
164.8149, 528.4058
165.2971, 523.6463
165.7792, 518.3812
166.2613, 515.4680
166.7434, 515.6772
167.2255, 516.4304
167.7076, 518.5336
168.1898, 520.5711
168.6719, 521.5076
169.1540, 521.1557
169.6361, 520.0823
170.1182, 519.0957
170.6003, 518.4818
171.0825, 517.1168
171.5646, 514.0499
172.0467, 510.5587
172.5288, 507.9740
173.0109, 506.6449
173.4930, 506.4295
173.9752, 507.6750
174.4573, 510.6630
174.9394, 512.8913
175.4215, 513.4202
175.9036, 512.6708
176.3857, 511.5341
176.8679, 510.1659
177.3500, 508.5904
177.8321, 506.9838
178.3142, 505.4024
178.7963, 503.3606
179.2784, 499.7095
179.7606, 494.8051
180.2427, 492.0135
180.7248, 494.1916
181.2069, 497.1421
181.6890, 496.6936
182.1711, 492.4170
182.6533, 487.8701
183.1354, 487.3208
183.6175, 491.5692
184.0996, 493.4755
184.5817, 487.8700
185.0638, 481.5388
185.5460, 478.6819
186.0281, 480.1551
186.5102, 483.4544
186.9923, 484.9597
187.4744, 483.6111
187.9565, 483.3023
188.4387, 485.5786
188.9208, 488.2881
189.4029, 490.0511
189.8850, 490.4185
190.3671, 489.6302
190.8492, 487.9012
191.3314, 483.4705
191.8135, 481.1505
192.2956, 483.5365
192.7777, 486.7630
193.2598, 486.8372
193.7419, 482.2829
194.2241, 475.4102
194.7062, 471.7900
195.1883, 474.7903
195.6704, 477.4902
196.1525, 481.1984
196.6346, 484.0597
197.1168, 483.0305
197.5989, 476.6098
198.0810, 467.3819
198.5631, 462.9858
199.0452, 466.6334
199.5273, 470.4462
200.0095, 473.9485
200.4916, 476.7321
200.9737, 477.9330
201.4558, 476.9506
201.9379, 474.5744
202.4200, 473.0749
202.9022, 472.8262
203.3843, 472.5896
203.8664, 472.2593
204.3485, 471.6553
204.8306, 469.9801
205.3127, 466.2039
205.7949, 461.9550
206.2770, 460.9691
206.7591, 464.8526
207.2412, 468.2373
207.7233, 467.0147
208.2054, 462.0170
208.6876, 458.5705
209.1697, 459.7633
209.6518, 462.9793
210.1339, 464.0034
210.6160, 461.9927
211.0981, 459.7752
211.5803, 460.1401
212.0624, 463.0967
212.5445, 465.1055
213.0266, 464.4369
213.5087, 462.4523
213.9908, 459.9800
214.4730, 456.9200
214.9551, 454.6217
215.4372, 455.5695
215.9193, 460.6575
216.4014, 463.4423
216.8836, 460.2526
217.3657, 455.0222
217.8478, 449.3493
218.3299, 443.5836
218.8120, 439.2805
219.2941, 439.3982
219.7763, 445.7672
220.2584, 450.4938
220.7405, 452.3578
221.2226, 452.1176
221.7047, 449.2975
222.1868, 443.9334
222.6690, 438.1185
223.1511, 435.2652
223.6332, 436.4716
224.1153, 438.3139
224.5974, 442.2101
225.0795, 445.4364
225.5617, 445.2524
226.0438, 441.1348
226.5259, 435.6334
227.0080, 433.2611
227.4901, 435.9400
227.9722, 438.4994
228.4544, 441.5410
228.9365, 443.9556
229.4186, 444.8487
229.9007, 443.9836
230.3828, 441.7277
230.8649, 438.5416
231.3471, 432.2664
231.8292, 428.7226
232.3113, 428.8907
232.7934, 430.9322
233.2755, 433.7613
233.7576, 436.9475
234.2398, 440.1714
234.7219, 442.9106
235.2040, 445.5177
235.6861, 446.7553
236.1682, 445.6583
236.6503, 443.7492
237.1325, 442.4790
237.6146, 442.2165
238.0967, 442.1590
238.5788, 440.9507
239.0609, 437.3166
239.5430, 435.6982
240.0252, 438.4435
240.5073, 442.1993
240.9894, 443.0710
241.4715, 440.1516
241.9536, 436.4764
242.4357, 436.4891
242.9179, 441.4503
243.4000, 444.4469
243.8821, 444.1284
244.3642, 441.8575
244.8463, 438.4551
245.3284, 433.9696
245.8106, 430.0179
246.2927, 428.8369
246.7748, 430.5127
247.2569, 432.1777
247.7390, 434.6074
248.2211, 436.3047
248.7033, 434.2189
249.1854, 427.3160
249.6675, 421.2084
250.1496, 423.3447
250.6317, 432.3275
251.1138, 438.5871
251.5960, 438.4170
252.0781, 435.2204
252.5602, 433.4052
253.0423, 433.5666
253.5244, 433.9591
254.0065, 432.6762
254.4887, 430.3691
254.9708, 428.8932
255.4529, 428.5401
255.9350, 429.3495
256.4171, 432.2345
256.8992, 437.9536
257.3813, 442.3741
257.8635, 441.1065
258.3456, 436.5921
258.8277, 432.6010
259.3098, 429.9454
259.7919, 428.5475
260.2740, 429.1559
260.7562, 432.6053
261.2383, 434.4408
261.7204, 429.5688
262.2025, 422.1478
262.6846, 417.2608
263.1667, 416.8555
263.6489, 418.9918
264.1310, 421.7898
264.6131, 425.9188
265.0952, 427.7729
265.5773, 422.6239
266.0594, 415.5890
266.5416, 411.6898
267.0237, 412.7858
267.5058, 416.0260
267.9879, 417.8243
268.4700, 418.0344
268.9521, 417.4569
269.4343, 414.3325
269.9164, 411.5944
270.3985, 412.2143
270.8806, 417.1434
271.3627, 423.0774
271.8448, 426.3246
272.3270, 426.8455
272.8091, 424.9227
273.2912, 417.5325
273.7733, 409.5715
274.2554, 403.7361
274.7375, 400.5082
275.2197, 399.3124
275.7018, 400.0928
276.1839, 403.2840
276.6660, 405.5858
277.1481, 406.2389
277.6302, 406.0291
278.1124, 404.5557
278.5945, 402.1372
279.0766, 400.3889
279.5587, 401.4032
280.0408, 405.6105
280.5229, 408.7168
281.0051, 410.3625
281.4872, 410.9040
281.9693, 409.8303
282.4514, 407.5892
282.9335, 405.4803
283.4156, 404.9367
283.8978, 406.0205
284.3799, 405.6787
284.8620, 402.0481
285.3441, 398.8015
285.8262, 397.5272
286.3083, 397.6337
286.7905, 397.6489
287.2726, 396.3779
287.7547, 394.0389
288.2368, 392.7978
288.7189, 393.4101
289.2010, 394.3295
289.6832, 395.5384
290.1653, 396.6880
290.6474, 397.3137
291.1295, 397.1317
291.6116, 396.2538
292.0938, 395.0470
292.5759, 392.8360
293.0580, 391.3255
293.5401, 390.8830
294.0222, 391.2227
294.5043, 392.4633
294.9865, 394.7315
295.4686, 396.9484
295.9507, 396.1193
296.4328, 389.2742
296.9149, 384.7197
297.3970, 383.8810
297.8792, 385.1442
298.3613, 387.8935
298.8434, 391.7382
299.3255, 395.2599
299.8076, 395.8878
300.2897, 392.1618
300.7719, 388.7281
301.2540, 385.4237
301.7361, 382.6979
302.2182, 380.7532
302.7003, 379.6670
303.1824, 379.4494
303.6646, 380.3209
304.1467, 382.7640
304.6288, 384.5252
305.1109, 385.7810
305.5930, 386.2692
306.0751, 385.1551
306.5573, 382.9402
307.0394, 381.2075
307.5215, 381.5572
308.0036, 384.1849
308.4857, 386.0659
308.9678, 387.5254
309.4500, 387.8608
309.9321, 385.6670
310.4142, 382.1822
310.8963, 379.8815
311.3784, 380.5899
311.8605, 383.8544
312.3427, 386.0911
312.8248, 386.8757
313.3069, 387.0080
313.7890, 385.4879
314.2711, 383.7563
314.7532, 384.2507
315.2354, 388.3362
315.7175, 393.9218
316.1996, 394.5887
316.6817, 385.4492
317.1638, 379.0533
317.6459, 377.9062
318.1281, 379.1640
318.6102, 380.5787
319.0923, 381.3636
319.5744, 381.7520
320.0565, 382.2724
320.5386, 383.6043
321.0208, 383.3909
321.5029, 379.5375
321.9850, 375.8521
322.4671, 374.9327
322.9492, 376.9155
323.4313, 380.0181
323.9135, 382.7215
324.3956, 385.4174
324.8777, 385.5636
325.3598, 379.9325
325.8419, 374.7343
326.3240, 373.0390
326.8062, 373.9381
327.2883, 374.2123
327.7704, 370.8016
328.2525, 364.1315
328.7346, 361.7645
329.2167, 368.5356
329.6989, 374.3703
330.1810, 376.2371
330.6631, 375.7630
331.1452, 375.3941
331.6273, 376.4125
332.1094, 378.5054
332.5916, 380.9120
333.0737, 384.8673
333.5558, 386.8623
334.0379, 385.8183
334.5200, 383.1385
335.0021, 379.7927
335.4843, 376.1382
335.9664, 372.6288
336.4485, 369.9346
336.9306, 367.9836
337.4127, 367.0913
337.8948, 367.6718
338.3770, 368.9619
338.8591, 370.7347
339.3412, 372.8725
339.8233, 375.1270
340.3055, 377.7911
340.7876, 381.1362
341.2697, 381.9344
341.7518, 376.0463
342.2339, 371.6490
342.7160, 373.8551
343.1982, 380.2119
343.6803, 384.3642
344.1624, 380.8165
344.6445, 371.8022
345.1266, 369.1391
345.6087, 377.7442
346.0909, 384.7990
346.5730, 385.6260
347.0551, 382.9001
347.5372, 379.7686
348.0193, 377.3790
348.5014, 375.5190
348.9836, 373.3765
349.4657, 370.2074
349.9478, 369.3282
350.4299, 374.5347
350.9120, 380.5732
351.3941, 383.5633
351.8763, 382.7934
352.3584, 380.3502
352.8405, 377.8090
353.3226, 375.1266
353.8047, 373.5423
354.2868, 373.2570
354.7690, 374.2175
355.2511, 377.3915
355.7332, 382.0572
356.2153, 385.3263
356.6974, 384.0838
357.1795, 379.7350
357.6617, 378.1822
358.1438, 381.0415
358.6259, 383.4630
359.1080, 381.9062
359.5901, 378.2814
360.0722, 375.6092
360.5544, 375.2193
361.0365, 375.9488
361.5186, 376.3922
362.0007, 376.5898
362.4828, 376.0623
362.9649, 373.3560
363.4471, 370.5643
363.9292, 370.3937
364.4113, 373.6383
364.8934, 377.1563
365.3755, 378.4339
365.8576, 377.8246
366.3398, 377.2619
366.8219, 377.1867
367.3040, 377.2818
367.7861, 377.6485
368.2682, 378.2047
368.7503, 377.4857
369.2325, 373.2299
369.7146, 367.8119
370.1967, 365.8457
370.6788, 368.2080
371.1609, 370.9453
371.6430, 370.4169
372.1252, 367.7770
372.6073, 366.9222
373.0894, 370.1643
373.5715, 373.9179
374.0536, 375.1906
374.5357, 374.3215
375.0179, 373.3560
375.5000, 373.3208
375.9821, 373.7540
376.4642, 373.5714
376.9463, 372.7091
377.4284, 371.5081
377.9106, 369.6270
378.3927, 367.5911
378.8748, 366.5029
379.3569, 366.7435
379.8390, 367.2748
380.3211, 366.6720
380.8033, 364.6654
381.2854, 363.0957
381.7675, 362.7650
382.2496, 362.4425
382.7317, 360.5022
383.2138, 357.2188
383.6960, 355.0724
384.1781, 356.2399
384.6602, 360.3912
385.1423, 362.6016
385.6244, 360.7159
386.1065, 359.6682
386.5887, 362.3991
387.0708, 366.8171
387.5529, 369.1133
388.0350, 367.5545
388.5171, 363.8024
388.9992, 361.5148
389.4814, 362.2118
389.9635, 362.1119
390.4456, 360.5053
390.9277, 358.5872
391.4098, 356.8823
391.8919, 355.7097
392.3741, 355.7847
392.8562, 358.1417
393.3383, 363.3248
393.8204, 366.6584
394.3025, 369.0148
394.7846, 368.8022
395.2668, 363.5749
395.7489, 355.5581
396.2310, 348.5006
396.7131, 344.5149
397.1952, 343.2658
397.6773, 343.7625
398.1595, 347.7298
398.6416, 350.5953
399.1237, 351.3794
399.6058, 351.2050
400.0879, 350.8375
400.5700, 350.5270
401.0522, 350.3822
401.5343, 350.2233
402.0164, 349.7521
402.4985, 351.1646
402.9806, 357.8297
403.4627, 363.2486
403.9449, 363.7489
404.4270, 360.6471
404.9091, 357.7171
405.3912, 357.7639
405.8733, 359.4315
406.3554, 358.0113
406.8376, 351.8188
407.3197, 346.7254
407.8018, 346.2698
408.2839, 347.5260
408.7660, 347.5087
409.2481, 345.3457
409.7303, 342.7864
410.2124, 341.1216
410.6945, 340.4036
411.1766, 341.7898
411.6587, 347.6561
412.1408, 352.8915
412.6230, 351.5779
413.1051, 344.6959
413.5872, 339.5256
414.0693, 341.5558
414.5514, 346.2725
415.0335, 345.3092
415.5157, 337.5863
415.9978, 331.1409
416.4799, 332.0378
416.9620, 338.1437
417.4441, 342.2674
417.9262, 343.5685
418.4084, 343.6337
418.8905, 342.8440
419.3726, 341.4913
419.8547, 340.3660
420.3368, 339.7761
420.8189, 339.3678
421.3011, 338.3141
421.7832, 336.0436
422.2653, 335.5760
422.7474, 339.9164
423.2295, 344.3859
423.7116, 344.0916
424.1938, 339.2567
424.6759, 334.2526
425.1580, 332.2719
425.6401, 333.2558
426.1222, 336.1805
426.6043, 343.1996
427.0865, 349.3376
427.5686, 354.1402
428.0507, 357.0915
428.5328, 356.8404
429.0149, 352.9628
429.4970, 347.8211
429.9792, 345.7267
430.4613, 348.8558
430.9434, 350.2933
431.4255, 349.3391
431.9076, 347.6425
432.3897, 345.5536
432.8719, 343.4843
433.3540, 342.2285
433.8361, 342.5512
434.3182, 344.2050
434.8003, 345.3647
435.2824, 345.5203
435.7646, 345.9649
436.2467, 347.2897
436.7288, 348.8997
437.2109, 350.0555
437.6930, 350.5194
438.1751, 350.9298
438.6573, 352.3261
439.1394, 354.8281
439.6215, 356.6186
440.1036, 357.4443
440.5857, 357.4436
441.0678, 356.0259
441.5500, 353.7497
442.0321, 352.6574
442.5142, 355.2617
442.9963, 359.1133
443.4784, 358.9883
443.9605, 354.2507
444.4427, 350.5569
444.9248, 351.6574
445.4069, 355.1150
445.8890, 356.4184
446.3711, 354.5265
446.8532, 352.8989
447.3354, 354.4867
447.8175, 357.5970
448.2996, 358.3849
448.7817, 355.8617
449.2638, 351.7642
449.7459, 347.2071
450.2281, 342.1435
450.7102, 340.0523
451.1923, 343.1938
451.6744, 347.4476
452.1565, 350.8936
452.6386, 353.3421
453.1208, 354.5395
453.6029, 354.2379
454.0850, 353.0174
454.5671, 352.4786
455.0492, 352.4946
455.5313, 353.4778
456.0135, 356.9292
456.4956, 360.3460
456.9777, 361.2422
457.4598, 359.6418
457.9419, 357.8941
458.4240, 358.4315
458.9062, 361.3097
459.3883, 362.4422
459.8704, 359.1588
460.3525, 357.1223
460.8346, 358.6799
461.3167, 361.7589
461.7989, 363.7428
462.2810, 363.6378
462.7631, 362.2820
463.2452, 360.4748
463.7273, 357.8322
464.2094, 357.0880
464.6916, 360.4102
465.1737, 364.0374
465.6558, 365.3117
466.1379, 364.8653
466.6200, 365.3429
467.1021, 369.5182
467.5843, 374.9527
468.0664, 376.1522
468.5485, 372.5050
469.0306, 369.0703
469.5127, 368.1313
469.9948, 368.7658
470.4770, 369.5457
470.9591, 370.5307
471.4412, 371.2672
471.9233, 371.3425
472.4054, 371.0652
472.8875, 371.4918
473.3697, 372.9303
473.8518, 373.0938
474.3339, 369.3873
474.8160, 361.8368
475.2981, 356.0772
475.7802, 353.0077
476.2624, 350.7404
476.7445, 347.3792
477.2266, 344.3625
477.7087, 345.4502
478.1908, 352.2241
478.6729, 360.5753
479.1551, 362.8185
479.6372, 355.0289
480.1193, 350.2125
480.6014, 350.6234
481.0835, 351.5459
481.5656, 350.2743
482.0478, 347.2153
482.5299, 344.2489
483.0120, 342.6838
483.4941, 342.0132
483.9762, 340.1912
484.4583, 336.0585
484.9405, 333.1875
485.4226, 333.1640
485.9047, 333.9506
486.3868, 333.8250
486.8689, 332.6451
487.3510, 331.7941
487.8332, 333.1764
488.3153, 336.0757
488.7974, 336.8797
489.2795, 335.0015
489.7616, 332.1386
490.2437, 328.5698
490.7259, 324.8441
491.2080, 321.8602
491.6901, 320.1143
492.1722, 318.5090
492.6543, 315.1493
493.1364, 311.2491
493.6186, 311.1133
494.1007, 316.5521
494.5828, 322.8363
495.0649, 324.0466
495.5470, 319.5202
496.0291, 317.5761
496.5113, 321.3631
496.9934, 325.1106
497.4755, 325.0832
497.9576, 322.3042
498.4397, 319.5534
498.9218, 318.1684
499.4040, 317.6339
499.8861, 316.8438
500.3682, 315.7313
500.8503, 314.4710
501.3324, 312.7114
501.8145, 311.1128
502.2967, 309.8727
502.7788, 309.1323
503.2609, 309.3385
503.7430, 311.1928
504.2251, 313.7718
504.7072, 312.8427
505.1894, 305.6374
505.6715, 301.3078
506.1536, 305.7237
506.6357, 311.5344
507.1178, 312.4679
507.5999, 307.9348
508.0821, 303.0063
508.5642, 301.5502
509.0463, 302.5824
509.5284, 303.3549
510.0105, 303.7789
510.4926, 303.6426
510.9748, 302.5402
511.4569, 300.8350
511.9390, 299.3086
512.4211, 297.5947
512.9032, 296.8340
513.3853, 298.9554
513.8674, 302.0411
514.3495, 302.0713
514.8317, 298.1622
515.3138, 294.1199
515.7959, 294.0034
516.2780, 298.1687
516.7601, 301.0224
517.2422, 303.0812
517.7244, 303.5019
518.2065, 301.4689
518.6886, 297.8023
519.1707, 292.9512
519.6528, 287.2530
520.1349, 282.3974
520.6171, 281.5111
521.0992, 286.0052
521.5813, 288.7049
522.0634, 287.1947
522.5455, 286.2488
523.0276, 288.0700
523.5098, 291.6367
523.9919, 295.0171
524.4740, 297.5076
524.9561, 299.0763
525.4382, 299.4587
525.9203, 298.6307
526.4025, 297.8073
526.8846, 297.3354
527.3667, 296.8581
527.8488, 296.0120
528.3309, 294.8427
528.8130, 293.5921
529.2952, 291.5419
529.7773, 290.0403
530.2594, 291.1685
530.7415, 294.2282
531.2236, 295.8371
531.7057, 294.2685
532.1879, 291.1392
532.6700, 289.5444
533.1521, 290.1998
533.6342, 290.8656
534.1163, 291.0807
534.5984, 291.6559
535.0806, 293.5737
535.5627, 296.3515
536.0448, 298.7707
536.5269, 300.1446
537.0090, 300.3340
537.4911, 298.5210
537.9733, 292.7537
538.4554, 289.2963
538.9375, 290.6301
539.4196, 292.9259
539.9017, 294.1576
540.3839, 294.2049
540.8660, 293.6899
541.3481, 292.8246
541.8302, 291.7724
542.3123, 290.6536
542.7944, 289.3461
543.2766, 289.1560
543.7587, 291.3689
544.2408, 294.3457
544.7229, 295.8867
545.2050, 295.9895
545.6871, 294.9693
546.1693, 291.2971
546.6514, 287.5639
547.1335, 287.2284
547.6156, 289.9935
548.0977, 292.4411
548.5798, 292.3936
549.0620, 290.6866
549.5441, 290.1455
550.0262, 291.7265
550.5083, 293.2638
550.9904, 294.4082
551.4725, 295.7641
551.9547, 298.4053
552.4368, 301.8377
552.9189, 304.0933
553.4010, 303.3675
553.8831, 300.6985
554.3652, 300.7661
554.8474, 305.5761
555.3295, 308.0511
555.8116, 303.3567
556.2937, 297.7604
556.7758, 295.9750
557.2579, 298.1404
557.7401, 300.8338
558.2222, 302.3485
558.7043, 302.9923
559.1864, 303.1839
559.6685, 302.9319
560.1506, 302.5562
560.6328, 302.0873
561.1149, 301.7058
561.5970, 301.8588
562.0791, 302.6354
562.5612, 303.5085
563.0433, 304.4273
563.5255, 305.3645
564.0076, 306.7830
564.4897, 308.3125
564.9718, 308.4279
565.4539, 305.9501
565.9360, 302.0179
566.4182, 300.5533
566.9003, 302.8444
567.3824, 305.2388
567.8645, 309.0287
568.3466, 311.5521
568.8287, 309.5518
569.3109, 304.4403
569.7930, 301.4723
570.2751, 304.8843
570.7572, 311.4442
571.2393, 313.9472
571.7214, 312.0107
572.2036, 310.7271
572.6857, 312.4182
573.1678, 314.6286
573.6499, 313.8783
574.1320, 310.2625
574.6141, 308.1513
575.0963, 309.7110
575.5784, 312.4837
576.0605, 314.7830
576.5426, 316.4852
577.0247, 317.3805
577.5068, 317.2692
577.9890, 316.9607
578.4711, 318.1583
578.9532, 322.3864
579.4353, 324.1508
579.9174, 320.9152
580.3995, 318.0683
580.8817, 318.5990
581.3638, 321.3835
581.8459, 324.1143
582.3280, 325.7570
582.8101, 326.4773
583.2922, 326.3860
583.7744, 325.4281
584.2565, 324.2832
584.7386, 322.0707
585.2207, 321.0910
585.7029, 323.7875
586.1850, 328.8871
586.6671, 333.1915
587.1492, 335.8304
587.6313, 337.6280
588.1135, 339.2152
588.5956, 340.4179
589.0777, 340.7711
589.5598, 340.1516
590.0419, 338.8494
590.5240, 336.9570
591.0062, 334.4014
591.4883, 333.1597
591.9704, 333.3549
592.4525, 334.5341
592.9346, 338.2446
593.4167, 342.0383
593.8989, 342.8536
594.3810, 340.2065
594.8631, 336.4611
595.3452, 333.7866
595.8273, 332.1651
596.3094, 331.5533
596.7916, 332.7442
597.2737, 333.1325
597.7558, 330.4364
598.2379, 326.9321
598.7200, 325.3274
599.2021, 326.1511
599.6843, 326.4530
600.1664, 323.6739
600.6485, 319.9901
601.1306, 318.8918
601.6127, 320.3569
602.0948, 321.5614
602.5770, 320.7850
603.0591, 318.8153
603.5412, 317.8373
604.0233, 318.8135
604.5054, 319.2263
604.9875, 318.2205
605.4697, 317.4098
605.9518, 318.5138
606.4339, 320.6839
606.9160, 321.3712
607.3981, 318.9157
607.8802, 315.3438
608.3624, 314.9034
608.8445, 318.0157
609.3266, 320.9517
609.8087, 322.8934
610.2908, 324.8568
610.7729, 328.1561
611.2551, 332.1349
611.7372, 334.8288
612.2193, 335.8648
612.7014, 335.3185
613.1835, 332.3666
613.6656, 327.9980
614.1478, 324.1621
614.6299, 321.3620
615.1120, 319.6490
615.5941, 319.1914
616.0762, 319.9940
616.5583, 320.8640
617.0405, 322.3552
617.5226, 323.2165
618.0047, 322.8910
618.4868, 322.0584
618.9689, 321.2670
619.4510, 320.6626
619.9332, 320.2539
620.4153, 320.1248
620.8974, 320.1823
621.3795, 320.2417
621.8616, 320.4478
622.3438, 319.7682
622.8259, 316.7987
623.3080, 313.6734
623.7901, 313.8787
624.2722, 317.6790
624.7543, 319.6003
625.2365, 316.6909
625.7186, 312.5961
626.2007, 310.1846
626.6828, 309.1230
627.1649, 308.0791
627.6470, 306.4833
628.1292, 304.7023
628.6113, 303.3026
629.0934, 302.3151
629.5755, 301.5605
630.0576, 300.9407
630.5397, 300.6781
631.0219, 301.1169
631.5040, 301.8496
631.9861, 302.4951
632.4682, 302.9644
632.9503, 302.7522
633.4324, 300.8442
633.9146, 297.8830
634.3967, 296.2827
634.8788, 296.4469
635.3609, 295.8269
635.8430, 292.2534
636.3251, 287.2310
636.8073, 285.2943
637.2894, 287.3316
637.7715, 289.7170
638.2536, 292.7852
638.7357, 295.2912
639.2178, 295.9495
639.7000, 295.1737
640.1821, 294.3900
640.6642, 294.3977
641.1463, 294.5898
641.6284, 293.5766
642.1105, 291.0544
642.5927, 288.8551
643.0748, 286.1470
643.5569, 285.1380
644.0390, 288.8510
644.5211, 294.6739
645.0032, 296.9410
645.4854, 292.8827
645.9675, 288.6099
646.4496, 288.7094
646.9317, 291.2562
647.4138, 293.1693
647.8959, 293.8904
648.3781, 292.7162
648.8602, 288.6410
649.3423, 282.6993
649.8244, 280.0109
650.3065, 285.0321
650.7886, 286.5891
651.2708, 280.7312
651.7529, 274.5234
652.2350, 273.0396
652.7171, 275.3539
653.1992, 277.3584
653.6813, 276.4736
654.1635, 275.2941
654.6456, 279.0067
655.1277, 287.0190
655.6098, 291.7163
656.0919, 291.2228
656.5740, 288.2919
657.0562, 283.7408
657.5383, 278.4130
658.0204, 277.4069
658.5025, 286.6101
658.9846, 292.7763
659.4667, 289.5318
659.9489, 282.9108
660.4310, 278.7944
660.9131, 278.0006
661.3952, 278.8190
661.8773, 280.2239
662.3594, 281.8223
662.8416, 282.2375
663.3237, 281.1635
663.8058, 279.9807
664.2879, 278.1439
664.7700, 277.1215
665.2521, 279.1880
665.7343, 283.0399
666.2164, 284.0918
666.6985, 278.7578
667.1806, 273.3362
667.6627, 272.8160
668.1448, 275.2192
668.6270, 276.9819
669.1091, 277.3424
669.5912, 276.8008
670.0733, 275.4584
670.5554, 273.7333
671.0375, 274.8433
671.5197, 282.0305
672.0018, 286.6848
672.4839, 287.6161
672.9660, 286.2207
673.4481, 282.3494
673.9302, 276.8982
674.4124, 272.0049
674.8945, 268.3452
675.3766, 266.4616
675.8587, 268.0119
676.3408, 272.1840
676.8229, 275.1884
677.3051, 276.1484
677.7872, 276.2735
678.2693, 276.5146
678.7514, 276.8696
679.2335, 277.3107
679.7156, 278.1588
680.1978, 278.6609
680.6799, 278.1390
681.1620, 277.6624
681.6441, 278.4028
682.1262, 280.1110
682.6083, 281.6341
683.0905, 282.4188
683.5726, 282.2362
684.0547, 280.0504
684.5368, 275.8747
685.0189, 273.1244
685.5010, 272.8251
685.9832, 273.2134
686.4653, 272.6222
686.9474, 271.4375
687.4295, 271.6048
687.9116, 275.4238
688.3937, 277.5039
688.8759, 274.9658
689.3580, 270.8271
689.8401, 267.3472
690.3222, 265.2106
690.8043, 265.2828
691.2864, 268.3971
691.7686, 273.0402
692.2507, 275.2354
692.7328, 274.4072
693.2149, 275.0098
693.6970, 279.0859
694.1791, 282.5825
694.6613, 282.0209
695.1434, 278.8966
695.6255, 276.4010
696.1076, 274.9650
696.5897, 274.2891
697.0718, 274.7564
697.5540, 275.5981
698.0361, 275.8453
698.5182, 275.4953
699.0003, 275.1769
699.4824, 275.3056
699.9645, 275.5463
700.4467, 274.8140
700.9288, 272.4031
701.4109, 271.7545
701.8930, 274.8262
702.3751, 277.5227
702.8572, 278.0785
703.3394, 276.8874
703.8215, 274.0145
704.3036, 268.6347
704.7857, 265.1105
705.2678, 268.1218
705.7499, 273.3326
706.2321, 274.5104
706.7142, 271.8230
707.1963, 268.8858
707.6784, 267.4701
708.1605, 267.5180
708.6426, 269.1177
709.1248, 272.9590
709.6069, 275.8958
710.0890, 277.9492
710.5711, 279.0169
711.0532, 278.6090
711.5353, 277.4349
712.0175, 276.6798
712.4996, 276.6288
712.9817, 275.4481
713.4638, 269.9780
713.9459, 263.8651
714.4280, 262.3802
714.9102, 265.1850
715.3923, 270.1625
715.8744, 276.7143
716.3565, 282.4796
716.8386, 283.7379
717.3207, 279.7758
717.8029, 276.4519
718.2850, 273.6091
718.7671, 271.6961
719.2492, 270.8329
719.7313, 270.9183
720.2134, 272.2161
720.6956, 274.5831
721.1777, 276.7547
721.6598, 278.1725
722.1419, 278.8643
722.6240, 279.0432
723.1061, 278.5526
723.5883, 276.2059
724.0704, 271.5017
724.5525, 267.2555
725.0346, 266.7388
725.5167, 269.8027
725.9988, 270.7820
726.4810, 267.2391
726.9631, 265.1201
727.4452, 265.4100
727.9273, 267.0759
728.4094, 270.7678
728.8915, 275.3142
729.3737, 276.8040
729.8558, 271.8769
730.3379, 265.8550
730.8200, 264.7754
731.3021, 267.1012
731.7842, 268.5818
732.2664, 268.4755
732.7485, 268.2600
733.2306, 269.1058
733.7127, 270.6483
734.1948, 271.4864
734.6769, 271.8842
735.1591, 271.0458
735.6412, 267.5385
736.1233, 264.3049
736.6054, 262.2416
737.0875, 261.6762
737.5696, 263.4927
738.0518, 268.4047
738.5339, 273.0978
739.0160, 274.6178
739.4981, 274.2594
739.9802, 274.6628
740.4623, 275.8063
740.9445, 275.4384
741.4266, 272.1708
741.9087, 268.0158
742.3908, 266.6527
742.8729, 268.6889
743.3550, 270.8997
743.8372, 274.5438
744.3193, 276.7965
744.8014, 276.1656
745.2835, 274.2006
745.7656, 272.2590
746.2477, 270.6222
746.7299, 269.7665
747.2120, 270.2423
747.6941, 271.4119
748.1762, 273.0884
748.6583, 274.8507
749.1404, 275.3187
749.6226, 274.1134
750.1047, 271.9775
750.5868, 269.3276
751.0689, 266.4379
751.5510, 266.5475
752.0331, 272.4057
752.5153, 275.9570
752.9974, 273.9581
753.4795, 270.9820
753.9616, 269.8348
754.4437, 270.1112
754.9258, 270.0734
755.4080, 268.9622
755.8901, 267.8633
756.3722, 267.3999
756.8543, 267.4669
757.3364, 267.9672
757.8185, 268.8531
758.3007, 270.0802
758.7828, 271.6495
759.2649, 273.3596
759.7470, 274.9638
760.2291, 276.7460
760.7112, 276.9981
761.1934, 274.7526
761.6755, 272.4203
762.1576, 270.8717
762.6397, 270.0001
763.1218, 270.0930
763.6039, 271.3907
764.0861, 271.5890
764.5682, 267.3444
765.0503, 264.0528
765.5324, 268.4902
766.0145, 276.4330
766.4966, 278.6944
766.9788, 273.0826
767.4609, 265.7449
767.9430, 262.6671
768.4251, 263.2850
768.9072, 265.2731
769.3893, 269.1649
769.8715, 271.3841
770.3536, 269.7687
770.8357, 268.0724
771.3178, 271.2030
771.7999, 277.7201
772.2820, 280.0512
772.7642, 273.8245
773.2463, 268.7022
773.7284, 267.3745
774.2105, 268.1625
774.6926, 270.7652
775.1747, 274.1198
775.6569, 275.9041
776.1390, 274.8822
776.6211, 272.6389
777.1032, 271.0151
777.5853, 270.0263
778.0674, 269.8304
778.5496, 270.4911
779.0317, 271.6066
779.5138, 273.2124
779.9959, 274.8169
780.4780, 275.4669
780.9601, 274.8032
781.4423, 274.6385
781.9244, 275.3112
782.4065, 276.0462
782.8886, 277.3256
783.3707, 278.0923
783.8528, 277.1374
784.3350, 274.4127
784.8171, 270.7977
785.2992, 265.7190
785.7813, 261.2509
786.2634, 260.6315
786.7455, 262.9054
787.2277, 265.1258
787.7098, 266.6825
788.1919, 267.9985
788.6740, 269.5397
789.1561, 270.8590
789.6382, 269.9648
790.1204, 264.8359
790.6025, 262.4254
791.0846, 265.8180
791.5667, 268.9857
792.0488, 268.9574
792.5309, 267.1531
793.0131, 265.4258
793.4952, 263.8427
793.9773, 264.1925
794.4594, 269.3081
794.9415, 275.0408
795.4236, 277.5197
795.9058, 277.4381
796.3879, 276.6351
796.8700, 275.7748
797.3521, 275.0484
797.8342, 274.6959
798.3163, 274.6255
798.7985, 274.2609
799.2806, 273.4632
799.7627, 273.2371
800.2448, 274.1632
800.7269, 275.1308
801.2090, 275.1317
801.6912, 274.3188
802.1733, 273.6212
802.6554, 272.7616
803.1375, 272.4593
803.6196, 273.6699
804.1017, 274.7418
804.5839, 273.6282
805.0660, 271.6035
805.5481, 272.0679
806.0302, 276.3065
806.5123, 279.9902
806.9944, 277.6402
807.4766, 271.8231
807.9587, 268.6325
808.4408, 268.1281
808.9229, 268.6418
809.4050, 269.7353
809.8871, 270.4916
810.3693, 269.3902
810.8514, 266.4874
811.3335, 267.1430
811.8156, 275.3003
812.2977, 280.4131
812.7798, 278.6504
813.2620, 275.5493
813.7441, 274.9347
814.2262, 275.9603
814.7083, 275.6661
815.1904, 272.8630
815.6725, 269.6492
816.1547, 266.7701
816.6368, 264.3788
817.1189, 262.4543
817.6010, 261.1660
818.0831, 260.7572
818.5652, 261.3544
819.0474, 263.6506
819.5295, 269.6241
820.0116, 278.5497
820.4937, 283.6027
820.9758, 284.4175
821.4579, 283.3625
821.9401, 280.5983
822.4222, 277.2125
822.9043, 273.9611
823.3864, 270.9306
823.8685, 269.4572
824.3506, 270.5143
824.8328, 271.6932
825.3149, 272.9991
825.7970, 273.9888
826.2791, 274.8787
826.7612, 275.1188
827.2433, 272.8409
827.7255, 266.8382
828.2076, 262.4022
828.6897, 266.4657
829.1718, 273.7560
829.6539, 274.4930
830.1360, 269.7885
830.6182, 267.1699
831.1003, 269.4981
831.5824, 273.7680
832.0645, 276.6622
832.5466, 278.1687
833.0287, 277.6156
833.5109, 274.0482
833.9930, 271.3235
834.4751, 270.7246
834.9572, 270.6061
835.4393, 269.3973
835.9214, 267.6106
836.4036, 266.7467
836.8857, 266.9030
837.3678, 268.0172
837.8499, 271.9095
838.3320, 275.0453
838.8141, 273.7091
839.2963, 270.0492
839.7784, 268.2886
840.2605, 269.6995
840.7426, 272.0598
841.2247, 274.0250
841.7068, 275.2888
842.1890, 274.6649
842.6711, 272.5884
843.1532, 271.6118
843.6353, 272.4170
844.1174, 273.9214
844.5995, 275.4609
845.0817, 276.5780
845.5638, 274.6181
846.0459, 267.0457
846.5280, 263.6192
847.0101, 267.8651
847.4922, 272.6920
847.9744, 275.0928
848.4565, 275.5406
848.9386, 274.1943
849.4207, 270.6538
849.9028, 268.3976
850.3849, 269.5492
850.8671, 270.9782
851.3492, 270.8543
851.8313, 269.8638
852.3134, 269.0560
852.7955, 268.5590
853.2776, 267.5618
853.7598, 264.9206
854.2419, 262.8324
854.7240, 266.0289
855.2061, 272.8152
855.6882, 276.4634
856.1703, 276.1297
856.6525, 272.6005
857.1346, 265.5264
857.6167, 258.5323
858.0988, 259.3118
858.5809, 269.6745
859.0630, 275.7432
859.5452, 276.2062
860.0273, 274.6797
860.5094, 270.3001
860.9915, 265.8942
861.4736, 264.0061
861.9557, 264.4022
862.4379, 265.4206
862.9200, 268.1612
863.4021, 269.5305
863.8842, 267.3061
864.3663, 264.2232
864.8484, 261.9041
865.3306, 260.8903
865.8127, 262.1283
866.2948, 265.9512
866.7769, 269.9141
867.2590, 271.7903
867.7411, 271.9853
868.2233, 270.1942
868.7054, 267.1545
869.1875, 267.7599
869.6696, 273.4754
870.1517, 278.2250
870.6339, 275.8239
871.1160, 268.2231
871.5981, 264.3528
872.0802, 265.1953
872.5623, 266.2202
873.0444, 267.0658
873.5266, 267.9314
874.0087, 268.7107
874.4908, 269.6889
874.9729, 271.6355
875.4550, 274.9527
875.9371, 276.9348
876.4193, 276.8957
876.9014, 275.8387
877.3835, 272.9727
877.8656, 270.1088
878.3477, 269.2520
878.8298, 270.3263
879.3120, 271.9584
879.7941, 273.7753
880.2762, 275.0951
880.7583, 274.8918
881.2404, 273.8922
881.7225, 273.0064
882.2047, 272.5250
882.6868, 273.8136
883.1689, 277.4448
883.6510, 280.1108
884.1331, 276.9230
884.6152, 268.9150
885.0974, 264.0712
885.5795, 262.6982
886.0616, 262.6104
886.5437, 263.8489
887.0258, 264.8038
887.5079, 263.4885
887.9901, 260.9996
888.4722, 261.8578
888.9543, 269.4724
889.4364, 273.9342
889.9185, 272.7226
890.4006, 271.3411
890.8828, 272.8592
891.3649, 274.8860
891.8470, 273.9365
892.3291, 269.8765
892.8112, 266.5748
893.2933, 265.2743
893.7755, 265.5402
894.2576, 268.6073
894.7397, 272.1456
895.2218, 272.4167
895.7039, 270.2264
896.1860, 269.8190
896.6682, 273.3062
897.1503, 277.6451
897.6324, 279.0610
898.1145, 278.3903
898.5966, 278.4386
899.0787, 279.0531
899.5609, 277.4937
900.0430, 272.7090
900.5251, 268.2240
901.0072, 267.4412
901.4893, 269.8253
901.9714, 273.1403
902.4536, 278.0981
902.9357, 281.4327
903.4178, 283.0903
903.8999, 282.5741
904.3820, 277.3215
904.8641, 271.0098
905.3463, 270.9621
905.8284, 278.3107
906.3105, 282.2499
906.7926, 278.4558
907.2747, 275.7386
907.7568, 278.4548
908.2390, 282.0150
908.7211, 282.3321
909.2032, 279.8278
909.6853, 276.7347
910.1674, 273.3421
910.6495, 271.5488
911.1317, 273.5319
911.6138, 277.0602
912.0959, 280.0739
912.5780, 282.4145
913.0601, 284.0247
913.5422, 284.9749
914.0244, 285.8767
914.5065, 287.5934
914.9886, 289.0302
915.4707, 286.8810
915.9528, 281.9892
916.4349, 280.4633
916.9171, 283.1880
917.3992, 284.3217
917.8813, 280.2262
918.3634, 274.6468
918.8455, 274.0641
919.3276, 278.8123
919.8098, 282.9755
920.2919, 287.3541
920.7740, 288.8924
921.2561, 284.4137
921.7382, 280.0504
922.2203, 281.5787
922.7025, 287.4248
923.1846, 291.3525
923.6667, 293.1352
924.1488, 293.5523
924.6309, 290.9076
925.1130, 288.9269
925.5952, 290.7430
926.0773, 293.3016
926.5594, 291.9836
927.0415, 286.9901
927.5236, 283.8904
928.0057, 285.8120
928.4879, 289.1109
928.9700, 291.4009
929.4521, 293.7735
929.9342, 298.7901
930.4163, 304.9439
930.8984, 307.6368
931.3806, 305.2594
931.8627, 301.6612
932.3448, 300.4283
932.8269, 300.8126
933.3090, 301.4973
933.7911, 302.4371
934.2733, 303.4960
934.7554, 304.6303
935.2375, 305.7266
935.7196, 306.7867
936.2017, 307.3776
936.6838, 305.7064
937.1660, 301.4436
937.6481, 302.7689
938.1302, 311.8696
938.6123, 316.0953
939.0944, 308.6160
939.5765, 300.5150
940.0587, 304.3226
940.5408, 317.7603
941.0229, 323.9789
941.5050, 318.4236
941.9871, 314.0009
942.4692, 311.4666
942.9514, 309.6768
943.4335, 307.0220
943.9156, 305.5366
944.3977, 308.9652
944.8798, 317.3457
945.3619, 323.2377
945.8441, 323.6541
946.3262, 323.1804
946.8083, 323.0381
947.2904, 323.0122
947.7725, 322.4085
948.2546, 321.8630
948.7368, 322.7877
949.2189, 325.6249
949.7010, 329.3285
950.1831, 334.6582
950.6652, 339.2606
951.1473, 340.1337
951.6295, 338.8339
952.1116, 337.7939
952.5937, 337.5793
953.0758, 338.1939
953.5579, 339.6779
954.0400, 341.6768
954.5222, 344.0015
955.0043, 346.3953
955.4864, 348.0548
955.9685, 349.0124
956.4506, 349.5123
956.9327, 349.6322
957.4149, 350.7691
957.8970, 354.5855
958.3791, 353.7248
958.8612, 359.7356
959.3433, 354.9070
959.8254, 352.9485
960.3076, 354.9572
960.7897, 357.3890
961.2718, 359.0988
961.7539, 359.7413
962.2360, 358.5766
962.7181, 355.7226
963.2003, 353.9134
963.6824, 352.5858
964.1645, 353.6065
964.6466, 360.3429
965.1287, 365.4950
965.6108, 363.7114
966.0930, 358.6046
966.5751, 355.5508
967.0572, 354.9099
967.5393, 353.5699
968.0214, 349.7312
968.5035, 347.1473
968.9857, 347.4881
969.4678, 348.8497
969.9499, 350.1506
970.4320, 351.2044
970.9141, 351.8285
971.3962, 351.8975
971.8784, 352.2520
972.3605, 354.6480
972.8426, 355.9684
973.3247, 352.7350
973.8068, 347.9868
974.2889, 345.7175
974.7711, 345.8911
975.2532, 346.2072
975.7353, 345.7540
976.2174, 344.1636
976.6995, 339.3608
977.1816, 334.4307
977.6638, 335.2060
978.1459, 339.2309
978.6280, 339.7184
979.1101, 335.5410
979.5922, 330.3067
980.0743, 326.2517
980.5565, 323.9284
981.0386, 325.9642
981.5207, 330.4132
982.0028, 328.7722
982.4849, 321.5833
982.9670, 318.3363
983.4492, 322.2693
983.9313, 327.2365
984.4134, 327.3119
984.8955, 324.0739
985.3776, 322.6411
985.8597, 323.0840
986.3419, 322.8427
986.8240, 321.5313
987.3061, 320.9362
987.7882, 322.2194
988.2703, 323.2180
988.7524, 320.7285
989.2346, 322.1089
989.7167, 323.1272
990.1988, 321.5800
990.6809, 325.4500
991.1630, 324.1916
991.6451, 322.6573
992.1273, 323.7942
992.6094, 325.5137
993.0915, 323.8998
993.5736, 318.5424
994.0557, 317.5501
994.5378, 325.5257
995.0200, 331.1086
995.5021, 333.5673
995.9842, 333.0453
996.4663, 326.5404
996.9484, 318.4079
997.4305, 316.5551
997.9127, 322.1668
998.3948, 325.7435
998.8769, 324.3687
999.3590, 322.5987
999.8411, 321.8562
1000.323, 321.2166
1000.805, 319.3403
1001.287, 317.1681
1001.770, 316.7934
1002.252, 318.7255
1002.734, 321.2003
1003.216, 324.8121
1003.698, 327.1979
1004.180, 326.1216
1004.662, 323.7143
1005.144, 321.6217
1005.627, 320.4080
1006.109, 321.0381
1006.591, 323.9513
1007.073, 326.4613
1007.555, 326.5492
1008.037, 325.5161
1008.519, 323.3500
1009.001, 321.5654
1009.483, 323.4549
1009.966, 328.1880
1010.448, 331.4972
1010.930, 331.3265
1011.412, 329.9492
1011.894, 328.6786
1012.376, 328.2904
1012.858, 331.0016
1013.340, 335.3875
1013.823, 337.9902
1014.305, 338.2339
1014.787, 336.4143
1015.269, 332.4699
1015.751, 329.9922
1016.233, 336.3393
1016.715, 347.3192
1017.197, 349.7700
1017.679, 345.4953
1018.162, 344.3616
1018.644, 348.3358
1019.126, 352.9288
1019.608, 355.1541
1020.090, 356.2838
1020.572, 358.5430
1021.054, 361.7314
1021.536, 365.1293
1022.018, 368.6171
1022.501, 368.2027
1022.983, 362.6179
1023.465, 358.8890
1023.947, 362.3827
1024.429, 370.1203
1024.911, 376.4129
1025.393, 381.2888
1025.875, 382.9559
1026.358, 380.9771
1026.840, 379.4634
1027.322, 379.5971
1027.804, 379.9855
1028.286, 379.7975
1028.768, 378.6390
1029.250, 374.8251
1029.732, 367.4153
1030.214, 365.3698
1030.697, 370.7228
1031.179, 374.6255
1031.661, 375.2477
1032.143, 372.5080
1032.625, 365.2428
1033.107, 355.4516
1033.589, 348.7544
1034.071, 345.3221
1034.553, 344.5318
1035.036, 348.4883
1035.518, 350.4745
1036.000, 348.3481
1036.482, 344.3311
1036.964, 339.5345
1037.446, 334.4143
1037.928, 330.5079
1038.410, 328.3930
1038.893, 325.3923
1039.375, 320.2182
1039.857, 316.2243
1040.339, 314.7325
1040.821, 314.1321
1041.303, 313.8756
1041.785, 313.4833
1042.267, 311.1429
1042.750, 305.2115
1043.232, 302.8090
1043.714, 309.3184
1044.196, 312.1687
1044.678, 305.0777
1045.160, 296.5711
1045.642, 292.4858
1046.124, 291.8584
1046.606, 292.5236
1047.089, 295.2233
1047.571, 295.4151
1048.053, 288.5663
1048.535, 284.6288
1049.017, 289.3859
1049.499, 295.1518
1049.981, 296.3665
1050.463, 294.0313
1050.945, 290.6691
1051.428, 286.3655
1051.910, 282.3563
1052.392, 277.2654
1052.874, 274.6747
1053.356, 277.9303
1053.838, 282.0332
1054.320, 283.3750
1054.802, 282.5741
1055.285, 280.9666
1055.767, 278.5983
1056.249, 277.5726
1056.731, 281.0482
1057.213, 282.4943
1057.695, 276.6776
1058.177, 270.6422
1058.659, 270.8721
1059.141, 274.5251
1059.624, 275.7575
1060.106, 273.5614
1060.588, 270.7601
1061.070, 266.5989
1061.552, 264.1977
1062.034, 265.4286
1062.516, 268.2830
1062.998, 273.2440
1063.480, 277.7989
1063.963, 276.8447
1064.445, 270.0067
1064.927, 265.4809
1065.409, 268.3716
1065.891, 271.2796
1066.373, 270.6875
1066.855, 269.4728
1067.337, 270.0378
1067.820, 271.4044
1068.302, 271.6147
1068.784, 270.5526
1069.266, 270.0644
1069.748, 270.9185
1070.230, 272.3340
1070.712, 275.1026
1071.194, 277.1584
1071.677, 275.9753
1072.159, 273.6370
1072.641, 273.4279
1073.123, 275.3882
1073.605, 276.9641
1074.087, 277.3934
1074.569, 276.9166
1075.051, 275.0716
1075.533, 272.9603
1076.016, 271.2443
1076.498, 269.8209
1076.980, 268.1661
1077.462, 266.5612
1077.944, 266.1595
1078.426, 267.2590
1078.908, 269.9188
1079.390, 276.7437
1079.873, 282.2676
1080.355, 281.9323
1080.837, 278.9311
1081.319, 277.0608
1081.801, 276.1161
1082.283, 273.2836
1082.765, 266.9799
1083.247, 263.7821
1083.729, 269.8108
1084.212, 276.0373
1084.694, 277.5052
1085.176, 276.3097
1085.658, 272.5525
1086.140, 268.6421
1086.622, 270.7189
1087.104, 280.6198
1087.586, 286.5794
1088.068, 280.5618
1088.551, 273.3604
1089.033, 269.9075
1089.515, 267.9739
1089.997, 264.9928
1090.479, 262.1947
1090.961, 262.8570
1091.443, 267.3146
1091.925, 270.5638
1092.408, 271.1040
1092.890, 269.5758
1093.372, 263.6732
1093.854, 258.4277
1094.336, 257.5912
1094.818, 259.7224
1095.300, 263.1054
1095.782, 267.1252
1096.265, 269.9912
1096.747, 271.1231
1097.229, 271.1854
1097.711, 269.3616
1098.193, 267.7071
1098.675, 267.5221
1099.157, 268.1025
1099.639, 268.9848
1100.121, 269.8338
1100.604, 269.5251
1101.086, 267.0275
1101.568, 265.8600
1102.050, 268.6364
1102.532, 270.8021
1103.014, 269.4297
1103.496, 267.3824
1103.978, 267.1508
1104.460, 268.4469
1104.943, 270.4511
1105.425, 273.5243
1105.907, 274.4435
1106.389, 270.6190
1106.871, 267.3357
1107.353, 266.4221
1107.835, 266.2423
1108.317, 265.4466
1108.800, 264.6950
1109.282, 265.5981
1109.764, 268.3626
1110.246, 269.7811
1110.728, 267.2308
1111.210, 266.8389
1111.692, 273.0508
1112.174, 277.4059
1112.656, 274.0100
1113.139, 267.7702
1113.621, 264.3866
1114.103, 263.7779
1114.585, 264.0497
1115.067, 265.5550
1115.549, 267.3116
1116.031, 271.4149
1116.513, 272.6369
1116.995, 265.3733
1117.478, 258.8979
1117.960, 263.4576
1118.442, 274.7498
1118.924, 278.8517
1119.406, 273.8553
1119.888, 269.1200
1120.370, 264.4594
1120.852, 260.3791
1121.335, 256.5515
1121.817, 254.1092
1122.299, 253.7992
1122.781, 255.3969
1123.263, 258.9499
1123.745, 264.5327
1124.227, 267.7594
1124.709, 268.1882
1125.192, 267.6700
1125.674, 266.0198
1126.156, 264.6595
1126.638, 264.2617
1127.120, 264.4198
1127.602, 264.7351
1128.084, 265.1316
1128.566, 265.1294
1129.048, 264.6158
1129.531, 264.9762
1130.013, 266.5327
1130.495, 266.8880
1130.977, 265.1441
1131.459, 262.8918
1131.941, 261.2735
1132.423, 260.5219
1132.905, 261.6033
1133.387, 264.3184
1133.870, 265.8383
1134.352, 266.1333
1134.834, 263.0264
1135.316, 256.2021
1135.798, 252.4629
1136.280, 255.6945
1136.762, 260.7904
1137.244, 260.8343
1137.727, 263.1960
1138.209, 263.9302
1138.691, 263.0887
1139.173, 263.1921
1139.655, 259.5648
1140.137, 257.3288
1140.619, 258.1922
1141.101, 259.8991
1141.583, 260.7871
1142.066, 260.8942
1142.548, 259.7093
1143.030, 258.0823
1143.512, 257.5905
1143.994, 258.2159
1144.476, 260.3551
1144.958, 263.4440
1145.440, 264.7636
1145.922, 262.8585
1146.405, 260.2280
1146.887, 258.9594
1147.369, 258.4433
1147.851, 258.4423
1148.333, 258.4428
1148.815, 257.1218
1149.297, 255.2617
1149.779, 255.2417
1150.262, 257.5605
1150.744, 259.8891
1151.226, 261.4100
1151.708, 261.7040
1152.190, 259.4185
1152.672, 256.8679
1153.154, 256.2816
1153.636, 256.5490
1154.119, 255.5642
1154.601, 253.5812
1155.083, 252.8949
1155.565, 254.3804
1156.047, 256.3096
1156.529, 259.1061
1157.011, 260.9570
1157.493, 260.3350
1157.975, 259.1184
1158.458, 259.3735
1158.940, 260.0582
1159.422, 258.0967
1159.904, 258.5821
1160.386, 259.6553
1160.868, 257.3958
1161.350, 260.9491
1161.832, 259.7565
1162.314, 256.6071
1162.797, 250.3087
1163.279, 244.8793
1163.761, 245.2112
1164.243, 250.0588
1164.725, 253.7641
1165.207, 256.8928
1165.689, 256.4363
1166.171, 250.3055
1166.654, 247.0800
1167.136, 249.6059
1167.618, 253.0997
1168.100, 254.6205
1168.582, 254.7380
1169.064, 254.2012
1169.546, 253.1681
1170.028, 253.0998
1170.510, 254.0069
1170.993, 256.1556
1171.475, 259.6328
1171.957, 259.8165
1172.439, 254.8538
1172.921, 249.5262
1173.403, 248.2100
1173.885, 249.1050
1174.367, 248.6200
1174.849, 247.3387
1175.332, 247.0936
1175.814, 247.9062
1176.296, 250.3916
1176.778, 254.0103
1177.260, 255.1710
1177.742, 252.1709
1178.224, 248.8714
1178.706, 249.3999
1179.189, 251.1916
1179.671, 251.0802
1180.153, 249.9766
1180.635, 249.2885
1181.117, 248.7299
1181.599, 246.5954
1182.081, 243.2457
1182.563, 242.6216
1183.046, 247.4846
1183.528, 252.2877
1184.010, 254.5222
1184.492, 254.6998
1184.974, 251.5965
1185.456, 247.9175
1185.938, 245.8713
1186.420, 245.6995
1186.902, 247.6788
1187.385, 251.9663
1187.867, 255.6600
1188.349, 260.6085
1188.831, 261.2845
1189.313, 252.0713
1189.795, 243.8649
1190.277, 243.5705
1190.759, 245.3715
1191.241, 242.5877
1191.724, 237.0836
1192.206, 236.4441
1192.688, 242.1164
1193.170, 246.8339
1193.652, 251.5892
1194.134, 251.6601
1194.616, 244.4981
1195.098, 237.9872
1195.581, 236.6508
1196.063, 237.8937
1196.545, 238.0870
1197.027, 237.8569
1197.509, 240.7688
1197.991, 246.4580
1198.473, 248.3994
1198.955, 246.4690
1199.438, 244.5221
1199.920, 243.6405
1200.402, 242.9683
1200.884, 241.9486
1201.366, 240.8501
1201.848, 239.3402
1202.330, 238.4539
1202.812, 241.2639
1203.294, 245.7007
1203.776, 247.5608
1204.259, 247.0110
1204.741, 245.5796
1205.223, 244.0134
1205.705, 243.8120
1206.187, 246.1479
1206.669, 249.2319
1207.151, 252.7736
1207.633, 255.5437
1208.116, 256.6791
1208.598, 256.4156
1209.080, 254.7105
1209.562, 251.9886
1210.044, 248.6032
1210.526, 244.3752
1211.008, 242.9929
1211.490, 248.4327
1211.973, 251.7897
1212.455, 250.5781
1212.937, 247.9437
1213.419, 243.4301
1213.901, 240.0852
1214.383, 241.8249
1214.865, 246.8750
1215.347, 249.2342
1215.829, 248.6606
1216.312, 246.5473
1216.794, 242.0169
1217.276, 240.8554
1217.758, 244.5838
1218.240, 248.6939
1218.722, 251.2466
1219.204, 251.2505
1219.686, 246.8321
1220.168, 248.8342
1220.651, 241.6304
1221.133, 247.0370
1221.615, 247.4439
1222.097, 243.7395
1222.579, 241.3096
1223.061, 241.0378
1223.543, 240.9333
1224.025, 240.0478
1224.508, 239.1569
1224.990, 239.4851
1225.472, 239.4524
1225.954, 235.0615
1226.436, 231.5191
1226.918, 237.8349
1227.400, 247.7206
1227.882, 248.5508
1228.365, 241.3466
1228.847, 239.7756
1229.329, 249.8223
1229.811, 256.1934
1230.293, 251.2523
1230.775, 246.7573
1231.257, 247.2342
1231.739, 248.5992
1232.221, 248.3272
1232.703, 247.3316
1233.186, 246.6324
1233.668, 246.2770
1234.150, 246.6752
1234.632, 248.1823
1235.114, 248.9852
1235.596, 248.9192
1236.078, 248.6650
1236.560, 248.1837
1237.043, 249.2107
1237.525, 253.0490
1238.007, 256.9348
1238.489, 257.3754
1238.971, 255.0072
1239.453, 250.2805
1239.935, 244.5052
1240.417, 242.8116
1240.900, 244.3122
1241.382, 244.4517
1241.864, 242.7796
1242.346, 242.9610
1242.828, 246.8709
1243.310, 250.4829
1243.792, 250.1282
1244.274, 248.7332
1244.756, 248.1748
1245.239, 248.1561
1245.721, 248.7029
1246.203, 249.3839
1246.685, 249.7519
1247.167, 249.6846
1247.649, 248.8794
1248.131, 246.9067
1248.613, 245.4570
1249.095, 245.2308
1249.578, 244.7512
1250.060, 243.0727
1250.542, 242.3323
1251.024, 244.5015
1251.506, 246.5650
1251.988, 244.2573
1252.470, 246.3461
1252.952, 246.6732
1253.435, 246.1575
1253.917, 248.0916
1254.399, 245.8379
1254.881, 245.7671
1255.363, 248.8014
1255.845, 250.0608
1256.327, 247.3330
1256.809, 243.9758
1257.292, 242.8420
1257.774, 243.5776
1258.256, 247.4180
1258.738, 251.4578
1259.220, 251.2391
1259.702, 248.3499
1260.184, 244.1751
1260.666, 240.5254
1261.148, 242.4885
1261.630, 251.5125
1262.113, 256.3606
1262.595, 248.2928
1263.077, 242.4530
1263.559, 245.7307
1264.041, 248.9781
1264.523, 246.5025
1265.005, 243.2790
1265.487, 244.4307
1265.970, 247.5513
1266.452, 246.5440
1266.934, 248.5110
1267.416, 250.0748
1267.898, 248.7567
1268.380, 248.3262
1268.862, 248.0725
1269.344, 244.1218
1269.827, 241.1666
1270.309, 238.0374
1270.791, 233.6695
1271.273, 230.5150
1271.755, 233.5257
1272.237, 239.0296
1272.719, 239.9074
1273.201, 238.5197
1273.683, 239.2079
1274.166, 241.2599
1274.648, 241.7054
1275.130, 240.4319
1275.612, 240.4767
1276.094, 243.5602
1276.576, 245.3941
1277.058, 241.9954
1277.540, 240.1881
1278.022, 243.7527
1278.505, 248.4873
1278.987, 253.5429
1279.469, 256.6268
1279.951, 254.2104
1280.433, 247.8319
1280.915, 243.7076
1281.397, 241.9551
1281.879, 242.4045
1282.362, 245.3494
1282.844, 246.6887
1283.326, 245.7262
1283.808, 246.8056
1284.290, 251.7018
1284.772, 256.1942
1285.254, 256.7719
1285.736, 253.4481
##END=



