##NAMES=Ferronigerite-2N1S
##RRUFFID=R120083
##IDEAL CHEMISTRY=(Al,Fe^3+^,Zn^2+^)_2_(Al,Sn^4+^)_6_O_11_(OH)
##LOCALITY=Seixoso quarry, Lixa, Portugal
##OWNER=RRUFF
##SOURCE=Robert Jenkins
##DESCRIPTION=Dark reddish-brown hexagonal tablets, frozen in matrix
##STATUS=The identification of this mineral has been confirmed only by single crystal X-ray diffraction.
##URL=rruff.info/R120083
9.001007e+001, 0.000000e+000
9.049219e+001, 4.964691e+001
9.097430e+001, 4.989227e+001
9.145642e+001, 4.988234e+001
9.193854e+001, 4.962638e+001
9.242065e+001, 4.920225e+001
9.290277e+001, 4.860706e+001
9.338489e+001, 4.788752e+001
9.386700e+001, 4.714910e+001
9.434912e+001, 4.636155e+001
9.483124e+001, 4.560363e+001
9.531335e+001, 4.506155e+001
9.579547e+001, 4.474534e+001
9.627759e+001, 4.456446e+001
9.675970e+001, 4.443298e+001
9.724182e+001, 4.435056e+001
9.772394e+001, 4.430126e+001
9.820605e+001, 4.435817e+001
9.868817e+001, 4.449518e+001
9.917029e+001, 4.438303e+001
9.965240e+001, 4.398857e+001
1.001345e+002, 4.339023e+001
1.006166e+002, 4.263906e+001
1.010988e+002, 4.163873e+001
1.015809e+002, 4.087749e+001
1.020630e+002, 4.077539e+001
1.025451e+002, 4.155674e+001
1.030272e+002, 4.182792e+001
1.035093e+002, 4.130916e+001
1.039915e+002, 4.023671e+001
1.044736e+002, 3.961500e+001
1.049557e+002, 3.966451e+001
1.054378e+002, 3.985427e+001
1.059199e+002, 3.982650e+001
1.064020e+002, 3.948851e+001
1.068842e+002, 3.909878e+001
1.073663e+002, 3.863454e+001
1.078484e+002, 3.809662e+001
1.083305e+002, 3.772415e+001
1.088126e+002, 3.781698e+001
1.092947e+002, 3.790713e+001
1.097769e+002, 3.755746e+001
1.102590e+002, 3.561394e+001
1.107411e+002, 3.440342e+001
1.112232e+002, 3.467634e+001
1.117053e+002, 3.696967e+001
1.121874e+002, 3.840188e+001
1.126696e+002, 3.840224e+001
1.131517e+002, 3.753234e+001
1.136338e+002, 3.651998e+001
1.141159e+002, 3.488541e+001
1.145980e+002, 3.361201e+001
1.150801e+002, 3.314394e+001
1.155623e+002, 3.390345e+001
1.160444e+002, 3.458159e+001
1.165265e+002, 3.491423e+001
1.170086e+002, 3.492890e+001
1.174907e+002, 3.467147e+001
1.179728e+002, 3.391597e+001
1.184550e+002, 3.304368e+001
1.189371e+002, 3.231020e+001
1.194192e+002, 3.189249e+001
1.199013e+002, 3.143239e+001
1.203834e+002, 3.043532e+001
1.208655e+002, 2.913063e+001
1.213477e+002, 2.841346e+001
1.218298e+002, 2.928325e+001
1.223119e+002, 3.082364e+001
1.227940e+002, 3.209764e+001
1.232761e+002, 3.310049e+001
1.237582e+002, 3.348253e+001
1.242404e+002, 3.246913e+001
1.247225e+002, 3.018665e+001
1.252046e+002, 2.818959e+001
1.256867e+002, 2.805624e+001
1.261688e+002, 2.903356e+001
1.266509e+002, 2.976002e+001
1.271331e+002, 2.945870e+001
1.276152e+002, 2.868771e+001
1.280973e+002, 2.831700e+001
1.285794e+002, 2.837629e+001
1.290615e+002, 2.847593e+001
1.295436e+002, 2.805248e+001
1.300258e+002, 2.725161e+001
1.305079e+002, 2.671898e+001
1.309900e+002, 2.694418e+001
1.314721e+002, 2.768072e+001
1.319542e+002, 2.818096e+001
1.324363e+002, 2.840329e+001
1.329185e+002, 2.844100e+001
1.334006e+002, 2.844434e+001
1.338827e+002, 2.841134e+001
1.343648e+002, 2.823194e+001
1.348469e+002, 2.779505e+001
1.353290e+002, 2.711786e+001
1.358112e+002, 2.638243e+001
1.362933e+002, 2.549378e+001
1.367754e+002, 2.469379e+001
1.372575e+002, 2.476681e+001
1.377396e+002, 2.594478e+001
1.382217e+002, 2.694825e+001
1.387039e+002, 2.681774e+001
1.391860e+002, 2.534898e+001
1.396681e+002, 2.417881e+001
1.401502e+002, 2.351076e+001
1.406323e+002, 2.326685e+001
1.411144e+002, 2.305042e+001
1.415966e+002, 2.276286e+001
1.420787e+002, 2.269431e+001
1.425608e+002, 2.320758e+001
1.430429e+002, 2.469146e+001
1.435250e+002, 2.562056e+001
1.440071e+002, 2.552718e+001
1.444893e+002, 2.447429e+001
1.449714e+002, 2.414474e+001
1.454535e+002, 2.511805e+001
1.459356e+002, 2.625246e+001
1.464177e+002, 2.641835e+001
1.468998e+002, 2.494042e+001
1.473820e+002, 2.355687e+001
1.478641e+002, 2.250067e+001
1.483462e+002, 2.176177e+001
1.488283e+002, 2.149687e+001
1.493104e+002, 2.219941e+001
1.497925e+002, 2.314338e+001
1.502747e+002, 2.348411e+001
1.507568e+002, 2.242970e+001
1.512389e+002, 2.158180e+001
1.517210e+002, 2.140101e+001
1.522031e+002, 2.223910e+001
1.526852e+002, 2.262758e+001
1.531674e+002, 2.215590e+001
1.536495e+002, 2.130956e+001
1.541316e+002, 2.078951e+001
1.546137e+002, 2.085098e+001
1.550958e+002, 2.107150e+001
1.555779e+002, 2.131759e+001
1.560601e+002, 2.153677e+001
1.565422e+002, 2.187901e+001
1.570243e+002, 2.252546e+001
1.575064e+002, 2.330154e+001
1.579885e+002, 2.386921e+001
1.584706e+002, 2.402958e+001
1.589528e+002, 2.405758e+001
1.594349e+002, 2.405248e+001
1.599170e+002, 2.391463e+001
1.603991e+002, 2.394949e+001
1.608812e+002, 2.433064e+001
1.613633e+002, 2.495978e+001
1.618455e+002, 2.557884e+001
1.623276e+002, 2.583777e+001
1.628097e+002, 2.621296e+001
1.632918e+002, 2.705916e+001
1.637739e+002, 2.888673e+001
1.642560e+002, 3.059650e+001
1.647382e+002, 3.142407e+001
1.652203e+002, 3.164071e+001
1.657024e+002, 3.228455e+001
1.661845e+002, 3.416699e+001
1.666666e+002, 3.656573e+001
1.671487e+002, 3.880890e+001
1.676309e+002, 4.054606e+001
1.681130e+002, 4.228437e+001
1.685951e+002, 4.437462e+001
1.690772e+002, 4.676845e+001
1.695593e+002, 4.912125e+001
1.700414e+002, 5.129927e+001
1.705236e+002, 5.330885e+001
1.710057e+002, 5.512187e+001
1.714878e+002, 5.649914e+001
1.719699e+002, 5.788315e+001
1.724520e+002, 5.971888e+001
1.729341e+002, 6.197694e+001
1.734163e+002, 6.419115e+001
1.738984e+002, 6.600165e+001
1.743805e+002, 6.755929e+001
1.748626e+002, 6.906264e+001
1.753447e+002, 7.073609e+001
1.758268e+002, 7.234628e+001
1.763090e+002, 7.348255e+001
1.767911e+002, 7.412952e+001
1.772732e+002, 7.490696e+001
1.777553e+002, 7.624416e+001
1.782374e+002, 7.777307e+001
1.787195e+002, 7.901018e+001
1.792017e+002, 7.954838e+001
1.796838e+002, 7.978812e+001
1.801659e+002, 8.022073e+001
1.806480e+002, 8.083775e+001
1.811301e+002, 8.181399e+001
1.816122e+002, 8.361691e+001
1.820944e+002, 8.600771e+001
1.825765e+002, 8.815141e+001
1.830586e+002, 8.950754e+001
1.835407e+002, 9.040524e+001
1.840228e+002, 9.155262e+001
1.845049e+002, 9.294057e+001
1.849871e+002, 9.463628e+001
1.854692e+002, 9.696703e+001
1.859513e+002, 9.980103e+001
1.864334e+002, 1.022925e+002
1.869155e+002, 1.039151e+002
1.873976e+002, 1.048872e+002
1.878798e+002, 1.059210e+002
1.883619e+002, 1.070260e+002
1.888440e+002, 1.082339e+002
1.893261e+002, 1.095931e+002
1.898082e+002, 1.111058e+002
1.902903e+002, 1.126575e+002
1.907725e+002, 1.142016e+002
1.912546e+002, 1.157559e+002
1.917367e+002, 1.172999e+002
1.922188e+002, 1.188457e+002
1.927009e+002, 1.203672e+002
1.931830e+002, 1.217557e+002
1.936652e+002, 1.230049e+002
1.941473e+002, 1.242925e+002
1.946294e+002, 1.258603e+002
1.951115e+002, 1.276552e+002
1.955936e+002, 1.288967e+002
1.960757e+002, 1.294184e+002
1.965579e+002, 1.295885e+002
1.970400e+002, 1.300885e+002
1.975221e+002, 1.309352e+002
1.980042e+002, 1.319061e+002
1.984863e+002, 1.329591e+002
1.989684e+002, 1.340934e+002
1.994506e+002, 1.350488e+002
1.999327e+002, 1.357632e+002
2.004148e+002, 1.363379e+002
2.008969e+002, 1.369727e+002
2.013790e+002, 1.376809e+002
2.018611e+002, 1.384166e+002
2.023433e+002, 1.391919e+002
2.028254e+002, 1.400224e+002
2.033075e+002, 1.407331e+002
2.037896e+002, 1.413196e+002
2.042717e+002, 1.417661e+002
2.047538e+002, 1.419628e+002
2.052360e+002, 1.418352e+002
2.057181e+002, 1.417244e+002
2.062002e+002, 1.417982e+002
2.066823e+002, 1.420459e+002
2.071644e+002, 1.425625e+002
2.076465e+002, 1.434807e+002
2.081287e+002, 1.445990e+002
2.086108e+002, 1.453298e+002
2.090929e+002, 1.456024e+002
2.095750e+002, 1.456842e+002
2.100571e+002, 1.457228e+002
2.105392e+002, 1.457218e+002
2.110214e+002, 1.456602e+002
2.115035e+002, 1.455153e+002
2.119856e+002, 1.453188e+002
2.124677e+002, 1.451861e+002
2.129498e+002, 1.451567e+002
2.134319e+002, 1.451118e+002
2.139140e+002, 1.449547e+002
2.143962e+002, 1.446276e+002
2.148783e+002, 1.444045e+002
2.153604e+002, 1.443102e+002
2.158425e+002, 1.443381e+002
2.163246e+002, 1.445268e+002
2.168067e+002, 1.450475e+002
2.172889e+002, 1.454022e+002
2.177710e+002, 1.452142e+002
2.182531e+002, 1.442302e+002
2.187352e+002, 1.434446e+002
2.192173e+002, 1.429538e+002
2.196994e+002, 1.427144e+002
2.201816e+002, 1.425732e+002
2.206637e+002, 1.425986e+002
2.211458e+002, 1.425932e+002
2.216279e+002, 1.423594e+002
2.221100e+002, 1.416346e+002
2.225921e+002, 1.414119e+002
2.230743e+002, 1.420367e+002
2.235564e+002, 1.432377e+002
2.240385e+002, 1.437041e+002
2.245206e+002, 1.430869e+002
2.250027e+002, 1.422830e+002
2.254848e+002, 1.418395e+002
2.259670e+002, 1.419014e+002
2.264491e+002, 1.419802e+002
2.269312e+002, 1.419792e+002
2.274133e+002, 1.419617e+002
2.278954e+002, 1.422795e+002
2.283775e+002, 1.431425e+002
2.288597e+002, 1.440270e+002
2.293418e+002, 1.446001e+002
2.298239e+002, 1.447434e+002
2.303060e+002, 1.448492e+002
2.307881e+002, 1.449647e+002
2.312702e+002, 1.450632e+002
2.317524e+002, 1.449853e+002
2.322345e+002, 1.445501e+002
2.327166e+002, 1.441875e+002
2.331987e+002, 1.441850e+002
2.336808e+002, 1.447668e+002
2.341629e+002, 1.452052e+002
2.346451e+002, 1.454519e+002
2.351272e+002, 1.455198e+002
2.356093e+002, 1.454569e+002
2.360914e+002, 1.451697e+002
2.365735e+002, 1.448803e+002
2.370556e+002, 1.446985e+002
2.375378e+002, 1.445953e+002
2.380199e+002, 1.446838e+002
2.385020e+002, 1.450838e+002
2.389841e+002, 1.456886e+002
2.394662e+002, 1.460459e+002
2.399483e+002, 1.461065e+002
2.404305e+002, 1.459976e+002
2.409126e+002, 1.457537e+002
2.413947e+002, 1.452359e+002
2.418768e+002, 1.449017e+002
2.423589e+002, 1.448228e+002
2.428410e+002, 1.449394e+002
2.433232e+002, 1.450464e+002
2.438053e+002, 1.451631e+002
2.442874e+002, 1.452411e+002
2.447695e+002, 1.452388e+002
2.452516e+002, 1.450732e+002
2.457337e+002, 1.450046e+002
2.462159e+002, 1.450520e+002
2.466980e+002, 1.451956e+002
2.471801e+002, 1.454001e+002
2.476622e+002, 1.457837e+002
2.481443e+002, 1.460473e+002
2.486264e+002, 1.459743e+002
2.491086e+002, 1.452154e+002
2.495907e+002, 1.449634e+002
2.500728e+002, 1.453525e+002
2.505549e+002, 1.462269e+002
2.510370e+002, 1.472214e+002
2.515191e+002, 1.485152e+002
2.520013e+002, 1.496529e+002
2.524834e+002, 1.504016e+002
2.529655e+002, 1.505360e+002
2.534476e+002, 1.508658e+002
2.539297e+002, 1.514600e+002
2.544118e+002, 1.522203e+002
2.548940e+002, 1.529433e+002
2.553761e+002, 1.536146e+002
2.558582e+002, 1.542755e+002
2.563403e+002, 1.548992e+002
2.568224e+002, 1.553861e+002
2.573046e+002, 1.562072e+002
2.577867e+002, 1.576329e+002
2.582688e+002, 1.592081e+002
2.587509e+002, 1.599063e+002
2.592330e+002, 1.591631e+002
2.597151e+002, 1.586755e+002
2.601973e+002, 1.591728e+002
2.606794e+002, 1.608926e+002
2.611615e+002, 1.625029e+002
2.616436e+002, 1.640155e+002
2.621257e+002, 1.653929e+002
2.626078e+002, 1.665580e+002
2.630900e+002, 1.674787e+002
2.635721e+002, 1.682468e+002
2.640542e+002, 1.688298e+002
2.645363e+002, 1.691817e+002
2.650184e+002, 1.697663e+002
2.655005e+002, 1.707231e+002
2.659827e+002, 1.717676e+002
2.664648e+002, 1.724758e+002
2.669469e+002, 1.727295e+002
2.674290e+002, 1.729897e+002
2.679111e+002, 1.735086e+002
2.683932e+002, 1.743328e+002
2.688754e+002, 1.745166e+002
2.693575e+002, 1.738972e+002
2.698396e+002, 1.728830e+002
2.703217e+002, 1.719461e+002
2.708038e+002, 1.710708e+002
2.712859e+002, 1.703400e+002
2.717681e+002, 1.698775e+002
2.722502e+002, 1.696640e+002
2.727323e+002, 1.690536e+002
2.732144e+002, 1.679827e+002
2.736965e+002, 1.666615e+002
2.741786e+002, 1.652378e+002
2.746608e+002, 1.636379e+002
2.751429e+002, 1.622824e+002
2.756250e+002, 1.613403e+002
2.761071e+002, 1.607527e+002
2.765892e+002, 1.600570e+002
2.770714e+002, 1.592717e+002
2.775535e+002, 1.583574e+002
2.780356e+002, 1.571504e+002
2.785177e+002, 1.555869e+002
2.789998e+002, 1.543903e+002
2.794819e+002, 1.537565e+002
2.799641e+002, 1.535868e+002
2.804462e+002, 1.535252e+002
2.809283e+002, 1.535912e+002
2.814104e+002, 1.536782e+002
2.818925e+002, 1.538189e+002
2.823746e+002, 1.540218e+002
2.828568e+002, 1.537347e+002
2.833389e+002, 1.527075e+002
2.838210e+002, 1.512671e+002
2.843031e+002, 1.502710e+002
2.847852e+002, 1.497303e+002
2.852673e+002, 1.495498e+002
2.857495e+002, 1.498899e+002
2.862316e+002, 1.506864e+002
2.867137e+002, 1.510297e+002
2.871958e+002, 1.507341e+002
2.876779e+002, 1.500421e+002
2.881600e+002, 1.493641e+002
2.886422e+002, 1.486977e+002
2.891243e+002, 1.481380e+002
2.896064e+002, 1.477266e+002
2.900885e+002, 1.474657e+002
2.905706e+002, 1.474301e+002
2.910527e+002, 1.476562e+002
2.915349e+002, 1.480253e+002
2.920170e+002, 1.483784e+002
2.924991e+002, 1.487103e+002
2.929812e+002, 1.490262e+002
2.934633e+002, 1.494126e+002
2.939454e+002, 1.497900e+002
2.944276e+002, 1.498687e+002
2.949097e+002, 1.496040e+002
2.953918e+002, 1.491720e+002
2.958739e+002, 1.486687e+002
2.963560e+002, 1.481464e+002
2.968381e+002, 1.478273e+002
2.973203e+002, 1.479047e+002
2.978024e+002, 1.482459e+002
2.982845e+002, 1.486243e+002
2.987666e+002, 1.490469e+002
2.992487e+002, 1.494113e+002
2.997308e+002, 1.496684e+002
3.002130e+002, 1.497964e+002
3.006951e+002, 1.497228e+002
3.011772e+002, 1.491299e+002
3.016593e+002, 1.484612e+002
3.021414e+002, 1.484910e+002
3.026235e+002, 1.492021e+002
3.031057e+002, 1.499078e+002
3.035878e+002, 1.498782e+002
3.040699e+002, 1.494511e+002
3.045520e+002, 1.492616e+002
3.050341e+002, 1.496959e+002
3.055162e+002, 1.502905e+002
3.059984e+002, 1.505213e+002
3.064805e+002, 1.504375e+002
3.069626e+002, 1.503874e+002
3.074447e+002, 1.506734e+002
3.079268e+002, 1.511146e+002
3.084089e+002, 1.515062e+002
3.088911e+002, 1.519246e+002
3.093732e+002, 1.520815e+002
3.098553e+002, 1.514759e+002
3.103374e+002, 1.503444e+002
3.108195e+002, 1.494734e+002
3.113016e+002, 1.494171e+002
3.117838e+002, 1.497747e+002
3.122659e+002, 1.502612e+002
3.127480e+002, 1.509611e+002
3.132301e+002, 1.514391e+002
3.137122e+002, 1.512258e+002
3.141943e+002, 1.506038e+002
3.146765e+002, 1.501729e+002
3.151586e+002, 1.503127e+002
3.156407e+002, 1.506503e+002
3.161228e+002, 1.509751e+002
3.166049e+002, 1.512630e+002
3.170870e+002, 1.515237e+002
3.175692e+002, 1.516665e+002
3.180513e+002, 1.518044e+002
3.185334e+002, 1.520949e+002
3.190155e+002, 1.528431e+002
3.194976e+002, 1.535374e+002
3.199797e+002, 1.539022e+002
3.204619e+002, 1.538902e+002
3.209440e+002, 1.539191e+002
3.214261e+002, 1.541402e+002
3.219082e+002, 1.544448e+002
3.223903e+002, 1.547292e+002
3.228724e+002, 1.548619e+002
3.233546e+002, 1.550788e+002
3.238367e+002, 1.554995e+002
3.243188e+002, 1.561139e+002
3.248009e+002, 1.566328e+002
3.252830e+002, 1.569611e+002
3.257651e+002, 1.572072e+002
3.262473e+002, 1.574409e+002
3.267294e+002, 1.578000e+002
3.272115e+002, 1.580024e+002
3.276936e+002, 1.578983e+002
3.281757e+002, 1.575758e+002
3.286578e+002, 1.574573e+002
3.291400e+002, 1.576288e+002
3.296221e+002, 1.579427e+002
3.301042e+002, 1.583526e+002
3.305863e+002, 1.590024e+002
3.310684e+002, 1.595130e+002
3.315505e+002, 1.598252e+002
3.320327e+002, 1.600038e+002
3.325148e+002, 1.601862e+002
3.329969e+002, 1.603633e+002
3.334790e+002, 1.605509e+002
3.339611e+002, 1.608302e+002
3.344432e+002, 1.613518e+002
3.349254e+002, 1.612764e+002
3.354075e+002, 1.602597e+002
3.358896e+002, 1.589295e+002
3.363717e+002, 1.581637e+002
3.368538e+002, 1.581274e+002
3.373359e+002, 1.582895e+002
3.378180e+002, 1.586440e+002
3.383001e+002, 1.591814e+002
3.387823e+002, 1.591227e+002
3.392644e+002, 1.582581e+002
3.397465e+002, 1.572230e+002
3.402286e+002, 1.566318e+002
3.407107e+002, 1.565450e+002
3.411928e+002, 1.566057e+002
3.416750e+002, 1.568024e+002
3.421571e+002, 1.570852e+002
3.426392e+002, 1.572974e+002
3.431213e+002, 1.574743e+002
3.436034e+002, 1.574159e+002
3.440855e+002, 1.568761e+002
3.445677e+002, 1.558817e+002
3.450498e+002, 1.549182e+002
3.455319e+002, 1.539773e+002
3.460140e+002, 1.532128e+002
3.464961e+002, 1.530498e+002
3.469782e+002, 1.534648e+002
3.474604e+002, 1.538685e+002
3.479425e+002, 1.538898e+002
3.484246e+002, 1.536224e+002
3.489067e+002, 1.533765e+002
3.493888e+002, 1.531556e+002
3.498709e+002, 1.530202e+002
3.503531e+002, 1.530222e+002
3.508352e+002, 1.531655e+002
3.513173e+002, 1.534636e+002
3.517994e+002, 1.542220e+002
3.522815e+002, 1.550392e+002
3.527636e+002, 1.551013e+002
3.532458e+002, 1.544075e+002
3.537279e+002, 1.536926e+002
3.542100e+002, 1.536794e+002
3.546921e+002, 1.540517e+002
3.551742e+002, 1.542599e+002
3.556563e+002, 1.540598e+002
3.561385e+002, 1.537057e+002
3.566206e+002, 1.533926e+002
3.571027e+002, 1.531197e+002
3.575848e+002, 1.528934e+002
3.580669e+002, 1.526553e+002
3.585490e+002, 1.524936e+002
3.590312e+002, 1.525185e+002
3.595133e+002, 1.528326e+002
3.599954e+002, 1.531539e+002
3.604775e+002, 1.532895e+002
3.609596e+002, 1.533171e+002
3.614417e+002, 1.533976e+002
3.619239e+002, 1.535858e+002
3.624060e+002, 1.538564e+002
3.628881e+002, 1.542879e+002
3.633702e+002, 1.549750e+002
3.638523e+002, 1.553549e+002
3.643344e+002, 1.549532e+002
3.648166e+002, 1.542502e+002
3.652987e+002, 1.537902e+002
3.657808e+002, 1.538769e+002
3.662629e+002, 1.540551e+002
3.667450e+002, 1.542746e+002
3.672271e+002, 1.545292e+002
3.677093e+002, 1.546294e+002
3.681914e+002, 1.544499e+002
3.686735e+002, 1.541719e+002
3.691556e+002, 1.539082e+002
3.696377e+002, 1.535030e+002
3.701198e+002, 1.533207e+002
3.706020e+002, 1.534718e+002
3.710841e+002, 1.538673e+002
3.715662e+002, 1.541980e+002
3.720483e+002, 1.544909e+002
3.725304e+002, 1.546790e+002
3.730125e+002, 1.547348e+002
3.734947e+002, 1.546539e+002
3.739768e+002, 1.544331e+002
3.744589e+002, 1.539966e+002
3.749410e+002, 1.534783e+002
3.754231e+002, 1.530874e+002
3.759052e+002, 1.528252e+002
3.763874e+002, 1.526887e+002
3.768695e+002, 1.527050e+002
3.773516e+002, 1.528737e+002
3.778337e+002, 1.530335e+002
3.783158e+002, 1.531763e+002
3.787979e+002, 1.533484e+002
3.792801e+002, 1.537136e+002
3.797622e+002, 1.543038e+002
3.802443e+002, 1.544234e+002
3.807264e+002, 1.537529e+002
3.812085e+002, 1.526812e+002
3.816906e+002, 1.523264e+002
3.821728e+002, 1.527003e+002
3.826549e+002, 1.531221e+002
3.831370e+002, 1.529569e+002
3.836191e+002, 1.524138e+002
3.841012e+002, 1.524093e+002
3.845833e+002, 1.531358e+002
3.850655e+002, 1.540602e+002
3.855476e+002, 1.544268e+002
3.860297e+002, 1.543706e+002
3.865118e+002, 1.543672e+002
3.869939e+002, 1.547296e+002
3.874760e+002, 1.552495e+002
3.879582e+002, 1.556373e+002
3.884403e+002, 1.558904e+002
3.889224e+002, 1.560720e+002
3.894045e+002, 1.561658e+002
3.898866e+002, 1.562388e+002
3.903687e+002, 1.563896e+002
3.908509e+002, 1.566985e+002
3.913330e+002, 1.570461e+002
3.918151e+002, 1.573827e+002
3.922972e+002, 1.576996e+002
3.927793e+002, 1.579634e+002
3.932614e+002, 1.579742e+002
3.937436e+002, 1.580406e+002
3.942257e+002, 1.584147e+002
3.947078e+002, 1.592565e+002
3.951899e+002, 1.601142e+002
3.956720e+002, 1.609146e+002
3.961541e+002, 1.616126e+002
3.966363e+002, 1.621364e+002
3.971184e+002, 1.620937e+002
3.976005e+002, 1.622204e+002
3.980826e+002, 1.629494e+002
3.985647e+002, 1.644296e+002
3.990468e+002, 1.653702e+002
3.995290e+002, 1.650829e+002
4.000111e+002, 1.645235e+002
4.004932e+002, 1.644643e+002
4.009753e+002, 1.653927e+002
4.014574e+002, 1.661722e+002
4.019395e+002, 1.666295e+002
4.024217e+002, 1.668457e+002
4.029038e+002, 1.671700e+002
4.033859e+002, 1.675300e+002
4.038680e+002, 1.681067e+002
4.043501e+002, 1.691371e+002
4.048322e+002, 1.709755e+002
4.053144e+002, 1.719008e+002
4.057965e+002, 1.715625e+002
4.062786e+002, 1.707163e+002
4.067607e+002, 1.704700e+002
4.072428e+002, 1.708225e+002
4.077249e+002, 1.718439e+002
4.082071e+002, 1.739650e+002
4.086892e+002, 1.768606e+002
4.091713e+002, 1.781798e+002
4.096534e+002, 1.777241e+002
4.101355e+002, 1.768527e+002
4.106176e+002, 1.767955e+002
4.110998e+002, 1.774279e+002
4.115819e+002, 1.780454e+002
4.120640e+002, 1.785159e+002
4.125461e+002, 1.789030e+002
4.130282e+002, 1.793086e+002
4.135103e+002, 1.797278e+002
4.139925e+002, 1.801433e+002
4.144746e+002, 1.805898e+002
4.149567e+002, 1.810155e+002
4.154388e+002, 1.812617e+002
4.159209e+002, 1.812853e+002
4.164030e+002, 1.814339e+002
4.168852e+002, 1.821812e+002
4.173673e+002, 1.832215e+002
4.178494e+002, 1.840575e+002
4.183315e+002, 1.844209e+002
4.188136e+002, 1.845929e+002
4.192957e+002, 1.846723e+002
4.197779e+002, 1.846868e+002
4.202600e+002, 1.848018e+002
4.207421e+002, 1.851583e+002
4.212242e+002, 1.856090e+002
4.217063e+002, 1.860349e+002
4.221884e+002, 1.863826e+002
4.226706e+002, 1.867833e+002
4.231527e+002, 1.874046e+002
4.236348e+002, 1.880889e+002
4.241169e+002, 1.885428e+002
4.245990e+002, 1.881689e+002
4.250811e+002, 1.880924e+002
4.255633e+002, 1.888031e+002
4.260454e+002, 1.904625e+002
4.265275e+002, 1.917453e+002
4.270096e+002, 1.925211e+002
4.274917e+002, 1.930287e+002
4.279738e+002, 1.934510e+002
4.284560e+002, 1.937478e+002
4.289381e+002, 1.940280e+002
4.294202e+002, 1.942758e+002
4.299023e+002, 1.945143e+002
4.303844e+002, 1.948469e+002
4.308665e+002, 1.952910e+002
4.313487e+002, 1.957747e+002
4.318308e+002, 1.962157e+002
4.323129e+002, 1.965979e+002
4.327950e+002, 1.972956e+002
4.332771e+002, 1.984095e+002
4.337592e+002, 1.995794e+002
4.342414e+002, 2.003210e+002
4.347235e+002, 2.006670e+002
4.352056e+002, 2.009884e+002
4.356877e+002, 2.013913e+002
4.361698e+002, 2.018526e+002
4.366519e+002, 2.022979e+002
4.371341e+002, 2.027362e+002
4.376162e+002, 2.032854e+002
4.380983e+002, 2.040795e+002
4.385804e+002, 2.050387e+002
4.390625e+002, 2.060672e+002
4.395446e+002, 2.072016e+002
4.400268e+002, 2.082269e+002
4.405089e+002, 2.086905e+002
4.409910e+002, 2.089131e+002
4.414731e+002, 2.095401e+002
4.419552e+002, 2.112792e+002
4.424373e+002, 2.131898e+002
4.429195e+002, 2.146308e+002
4.434016e+002, 2.155925e+002
4.438837e+002, 2.166366e+002
4.443658e+002, 2.181867e+002
4.448479e+002, 2.198054e+002
4.453300e+002, 2.211194e+002
4.458122e+002, 2.215778e+002
4.462943e+002, 2.223641e+002
4.467764e+002, 2.238065e+002
4.472585e+002, 2.257251e+002
4.477406e+002, 2.276622e+002
4.482227e+002, 2.296751e+002
4.487049e+002, 2.316148e+002
4.491870e+002, 2.333973e+002
4.496691e+002, 2.349320e+002
4.501512e+002, 2.367922e+002
4.506333e+002, 2.391177e+002
4.511154e+002, 2.415967e+002
4.515976e+002, 2.439001e+002
4.520797e+002, 2.458886e+002
4.525618e+002, 2.481128e+002
4.530439e+002, 2.507059e+002
4.535260e+002, 2.535583e+002
4.540081e+002, 2.565210e+002
4.544903e+002, 2.596252e+002
4.549724e+002, 2.627167e+002
4.554545e+002, 2.656885e+002
4.559366e+002, 2.685558e+002
4.564187e+002, 2.716530e+002
4.569008e+002, 2.749800e+002
4.573830e+002, 2.784476e+002
4.578651e+002, 2.817984e+002
4.583472e+002, 2.851370e+002
4.588293e+002, 2.886588e+002
4.593114e+002, 2.925553e+002
4.597935e+002, 2.965674e+002
4.602757e+002, 3.003411e+002
4.607578e+002, 3.039403e+002
4.612399e+002, 3.077794e+002
4.617220e+002, 3.125179e+002
4.622041e+002, 3.174020e+002
4.626862e+002, 3.216499e+002
4.631684e+002, 3.250745e+002
4.636505e+002, 3.281718e+002
4.641326e+002, 3.311913e+002
4.646147e+002, 3.339964e+002
4.650968e+002, 3.364565e+002
4.655789e+002, 3.387915e+002
4.660611e+002, 3.404525e+002
4.665432e+002, 3.411911e+002
4.670253e+002, 3.410479e+002
4.675074e+002, 3.405429e+002
4.679895e+002, 3.394444e+002
4.684716e+002, 3.382343e+002
4.689538e+002, 3.372078e+002
4.694359e+002, 3.368277e+002
4.699180e+002, 3.356239e+002
4.704001e+002, 3.333287e+002
4.708822e+002, 3.303729e+002
4.713643e+002, 3.273169e+002
4.718465e+002, 3.240550e+002
4.723286e+002, 3.209822e+002
4.728107e+002, 3.181795e+002
4.732928e+002, 3.156667e+002
4.737749e+002, 3.133485e+002
4.742570e+002, 3.112331e+002
4.747392e+002, 3.093264e+002
4.752213e+002, 3.076304e+002
4.757034e+002, 3.061463e+002
4.761855e+002, 3.048813e+002
4.766676e+002, 3.038376e+002
4.771497e+002, 3.030143e+002
4.776319e+002, 3.025049e+002
4.781140e+002, 3.022410e+002
4.785961e+002, 3.020033e+002
4.790782e+002, 3.014612e+002
4.795603e+002, 3.010426e+002
4.800424e+002, 3.013107e+002
4.805246e+002, 3.022143e+002
4.810067e+002, 3.033169e+002
4.814888e+002, 3.042135e+002
4.819709e+002, 3.052524e+002
4.824530e+002, 3.067602e+002
4.829352e+002, 3.088916e+002
4.834173e+002, 3.112557e+002
4.838994e+002, 3.138822e+002
4.843815e+002, 3.166105e+002
4.848636e+002, 3.191705e+002
4.853457e+002, 3.212524e+002
4.858279e+002, 3.234037e+002
4.863100e+002, 3.258260e+002
4.867921e+002, 3.285323e+002
4.872742e+002, 3.310873e+002
4.877563e+002, 3.334362e+002
4.882384e+002, 3.357292e+002
4.887206e+002, 3.381426e+002
4.892027e+002, 3.411038e+002
4.896848e+002, 3.429975e+002
4.901669e+002, 3.436052e+002
4.906490e+002, 3.433632e+002
4.911311e+002, 3.430532e+002
4.916133e+002, 3.427838e+002
4.920954e+002, 3.417276e+002
4.925775e+002, 3.396025e+002
4.930596e+002, 3.364907e+002
4.935417e+002, 3.326135e+002
4.940238e+002, 3.279834e+002
4.945060e+002, 3.227822e+002
4.949881e+002, 3.169808e+002
4.954702e+002, 3.107437e+002
4.959523e+002, 3.042915e+002
4.964344e+002, 2.976641e+002
4.969165e+002, 2.909254e+002
4.973987e+002, 2.838857e+002
4.978808e+002, 2.767784e+002
4.983629e+002, 2.701842e+002
4.988450e+002, 2.646246e+002
4.993271e+002, 2.594052e+002
4.998092e+002, 2.541026e+002
5.002914e+002, 2.487275e+002
5.007735e+002, 2.437817e+002
5.012556e+002, 2.389734e+002
5.017377e+002, 2.348928e+002
5.022198e+002, 2.320586e+002
5.027019e+002, 2.311189e+002
5.031841e+002, 2.297979e+002
5.036662e+002, 2.276365e+002
5.041483e+002, 2.250177e+002
5.046304e+002, 2.224105e+002
5.051125e+002, 2.199543e+002
5.055946e+002, 2.173110e+002
5.060768e+002, 2.141812e+002
5.065589e+002, 2.107876e+002
5.070410e+002, 2.082459e+002
5.075231e+002, 2.067399e+002
5.080052e+002, 2.055657e+002
5.084873e+002, 2.043605e+002
5.089695e+002, 2.031366e+002
5.094516e+002, 2.020707e+002
5.099337e+002, 2.011830e+002
5.104158e+002, 2.003640e+002
5.108979e+002, 1.995148e+002
5.113800e+002, 1.986275e+002
5.118622e+002, 1.976815e+002
5.123443e+002, 1.965897e+002
5.128264e+002, 1.955542e+002
5.133085e+002, 1.947898e+002
5.137906e+002, 1.942909e+002
5.142728e+002, 1.940354e+002
5.147549e+002, 1.944291e+002
5.152370e+002, 1.947919e+002
5.157191e+002, 1.944008e+002
5.162012e+002, 1.931611e+002
5.166833e+002, 1.920431e+002
5.171655e+002, 1.916142e+002
5.176476e+002, 1.914368e+002
5.181297e+002, 1.911373e+002
5.186118e+002, 1.905418e+002
5.190939e+002, 1.899421e+002
5.195760e+002, 1.891965e+002
5.200582e+002, 1.884923e+002
5.205403e+002, 1.882565e+002
5.210224e+002, 1.888722e+002
5.215045e+002, 1.894177e+002
5.219866e+002, 1.895762e+002
5.224688e+002, 1.893482e+002
5.229509e+002, 1.894690e+002
5.234330e+002, 1.900747e+002
5.239151e+002, 1.907073e+002
5.243972e+002, 1.910122e+002
5.248793e+002, 1.909805e+002
5.253615e+002, 1.908400e+002
5.258436e+002, 1.905703e+002
5.263257e+002, 1.903019e+002
5.268078e+002, 1.902644e+002
5.272899e+002, 1.904140e+002
5.277720e+002, 1.905544e+002
5.282542e+002, 1.906546e+002
5.287363e+002, 1.906649e+002
5.292184e+002, 1.904256e+002
5.297005e+002, 1.899937e+002
5.301826e+002, 1.896670e+002
5.306647e+002, 1.897424e+002
5.311469e+002, 1.899368e+002
5.316290e+002, 1.899528e+002
5.321111e+002, 1.896744e+002
5.325932e+002, 1.896050e+002
5.330753e+002, 1.902530e+002
5.335574e+002, 1.910800e+002
5.340396e+002, 1.915167e+002
5.345217e+002, 1.909988e+002
5.350038e+002, 1.906436e+002
5.354859e+002, 1.907397e+002
5.359680e+002, 1.911198e+002
5.364501e+002, 1.912617e+002
5.369323e+002, 1.911432e+002
5.374144e+002, 1.908102e+002
5.378965e+002, 1.901119e+002
5.383786e+002, 1.890232e+002
5.388607e+002, 1.888071e+002
5.393428e+002, 1.896983e+002
5.398250e+002, 1.907359e+002
5.403071e+002, 1.909502e+002
5.407892e+002, 1.904282e+002
5.412713e+002, 1.900533e+002
5.417534e+002, 1.900070e+002
5.422355e+002, 1.900087e+002
5.427177e+002, 1.895901e+002
5.431998e+002, 1.888748e+002
5.436819e+002, 1.882688e+002
5.441640e+002, 1.880261e+002
5.446461e+002, 1.879375e+002
5.451282e+002, 1.878431e+002
5.456104e+002, 1.877409e+002
5.460925e+002, 1.876187e+002
5.465746e+002, 1.874895e+002
5.470567e+002, 1.873267e+002
5.475388e+002, 1.871043e+002
5.480209e+002, 1.868035e+002
5.485031e+002, 1.864977e+002
5.489852e+002, 1.862556e+002
5.494673e+002, 1.859871e+002
5.499494e+002, 1.855869e+002
5.504315e+002, 1.848574e+002
5.509136e+002, 1.843116e+002
5.513958e+002, 1.841004e+002
5.518779e+002, 1.840786e+002
5.523600e+002, 1.838089e+002
5.528421e+002, 1.832352e+002
5.533242e+002, 1.826051e+002
5.538063e+002, 1.820448e+002
5.542885e+002, 1.815286e+002
5.547706e+002, 1.807687e+002
5.552527e+002, 1.797321e+002
5.557348e+002, 1.788088e+002
5.562169e+002, 1.785230e+002
5.566990e+002, 1.786119e+002
5.571812e+002, 1.783492e+002
5.576633e+002, 1.775614e+002
5.581454e+002, 1.766478e+002
5.586275e+002, 1.758722e+002
5.591096e+002, 1.752616e+002
5.595917e+002, 1.748457e+002
5.600739e+002, 1.747323e+002
5.605560e+002, 1.747346e+002
5.610381e+002, 1.749447e+002
5.615202e+002, 1.752485e+002
5.620023e+002, 1.751643e+002
5.624844e+002, 1.741500e+002
5.629666e+002, 1.730777e+002
5.634487e+002, 1.723551e+002
5.639308e+002, 1.720657e+002
5.644129e+002, 1.717304e+002
5.648950e+002, 1.712886e+002
5.653771e+002, 1.708640e+002
5.658593e+002, 1.705774e+002
5.663414e+002, 1.704785e+002
5.668235e+002, 1.702525e+002
5.673056e+002, 1.697649e+002
5.677877e+002, 1.692925e+002
5.682698e+002, 1.695009e+002
5.687520e+002, 1.703405e+002
5.692341e+002, 1.709353e+002
5.697162e+002, 1.709440e+002
5.701983e+002, 1.705178e+002
5.706804e+002, 1.697015e+002
5.711625e+002, 1.685874e+002
5.716447e+002, 1.677775e+002
5.721268e+002, 1.678202e+002
5.726089e+002, 1.682684e+002
5.730910e+002, 1.687501e+002
5.735731e+002, 1.692447e+002
5.740552e+002, 1.696287e+002
5.745374e+002, 1.697389e+002
5.750195e+002, 1.697696e+002
5.755016e+002, 1.699026e+002
5.759837e+002, 1.702690e+002
5.764658e+002, 1.706117e+002
5.769479e+002, 1.708355e+002
5.774301e+002, 1.710329e+002
5.779122e+002, 1.714104e+002
5.783943e+002, 1.721027e+002
5.788764e+002, 1.726981e+002
5.793585e+002, 1.730539e+002
5.798406e+002, 1.732072e+002
5.803228e+002, 1.734035e+002
5.808049e+002, 1.736299e+002
5.812870e+002, 1.739752e+002
5.817691e+002, 1.746177e+002
5.822512e+002, 1.754521e+002
5.827333e+002, 1.760263e+002
5.832155e+002, 1.763007e+002
5.836975e+002, 1.765002e+002
5.841796e+002, 1.768710e+002
5.846617e+002, 1.773147e+002
5.851439e+002, 1.776624e+002
5.856260e+002, 1.778312e+002
5.861081e+002, 1.779680e+002
5.865902e+002, 1.782423e+002
5.870723e+002, 1.785415e+002
5.875544e+002, 1.786445e+002
5.880366e+002, 1.780340e+002
5.885187e+002, 1.776770e+002
5.890008e+002, 1.782033e+002
5.894829e+002, 1.795224e+002
5.899650e+002, 1.799140e+002
5.904471e+002, 1.787737e+002
5.909293e+002, 1.774760e+002
5.914114e+002, 1.767149e+002
5.918935e+002, 1.765975e+002
5.923756e+002, 1.761637e+002
5.928577e+002, 1.753209e+002
5.933398e+002, 1.744046e+002
5.938220e+002, 1.737177e+002
5.943041e+002, 1.732537e+002
5.947862e+002, 1.730099e+002
5.952683e+002, 1.730664e+002
5.957504e+002, 1.731325e+002
5.962325e+002, 1.727452e+002
5.967147e+002, 1.720580e+002
5.971968e+002, 1.714748e+002
5.976789e+002, 1.712702e+002
5.981610e+002, 1.711508e+002
5.986431e+002, 1.707852e+002
5.991252e+002, 1.702793e+002
5.996074e+002, 1.701128e+002
6.000895e+002, 1.710477e+002
6.005716e+002, 1.718576e+002
6.010537e+002, 1.717930e+002
6.015358e+002, 1.704989e+002
6.020179e+002, 1.698248e+002
6.025001e+002, 1.702141e+002
6.029822e+002, 1.708064e+002
6.034643e+002, 1.708988e+002
6.039464e+002, 1.702552e+002
6.044285e+002, 1.700717e+002
6.049106e+002, 1.704963e+002
6.053928e+002, 1.712577e+002
6.058749e+002, 1.720589e+002
6.063570e+002, 1.728846e+002
6.068391e+002, 1.734796e+002
6.073212e+002, 1.736820e+002
6.078033e+002, 1.737207e+002
6.082855e+002, 1.740079e+002
6.087676e+002, 1.744520e+002
6.092497e+002, 1.747294e+002
6.097318e+002, 1.743790e+002
6.102139e+002, 1.739915e+002
6.106960e+002, 1.741120e+002
6.111782e+002, 1.747443e+002
6.116603e+002, 1.752734e+002
6.121424e+002, 1.753766e+002
6.126245e+002, 1.753919e+002
6.131066e+002, 1.755460e+002
6.135887e+002, 1.759991e+002
6.140709e+002, 1.762496e+002
6.145530e+002, 1.761172e+002
6.150351e+002, 1.759522e+002
6.155172e+002, 1.761490e+002
6.159993e+002, 1.767961e+002
6.164814e+002, 1.774387e+002
6.169636e+002, 1.780504e+002
6.174457e+002, 1.785695e+002
6.179278e+002, 1.788376e+002
6.184099e+002, 1.788741e+002
6.188920e+002, 1.788886e+002
6.193741e+002, 1.788868e+002
6.198563e+002, 1.789683e+002
6.203384e+002, 1.794045e+002
6.208205e+002, 1.801077e+002
6.213026e+002, 1.806449e+002
6.217847e+002, 1.805572e+002
6.222668e+002, 1.803579e+002
6.227490e+002, 1.804391e+002
6.232311e+002, 1.808587e+002
6.237132e+002, 1.812990e+002
6.241953e+002, 1.818610e+002
6.246774e+002, 1.822920e+002
6.251595e+002, 1.823959e+002
6.256417e+002, 1.818842e+002
6.261238e+002, 1.816229e+002
6.266059e+002, 1.816614e+002
6.270880e+002, 1.819051e+002
6.275701e+002, 1.823207e+002
6.280522e+002, 1.829555e+002
6.285344e+002, 1.832729e+002
6.290165e+002, 1.830367e+002
6.294986e+002, 1.826081e+002
6.299807e+002, 1.827189e+002
6.304628e+002, 1.832933e+002
6.309449e+002, 1.839186e+002
6.314271e+002, 1.843412e+002
6.319092e+002, 1.847428e+002
6.323913e+002, 1.853534e+002
6.328734e+002, 1.861422e+002
6.333555e+002, 1.869016e+002
6.338376e+002, 1.875554e+002
6.343198e+002, 1.881291e+002
6.348019e+002, 1.886559e+002
6.352840e+002, 1.891560e+002
6.357661e+002, 1.895110e+002
6.362482e+002, 1.894522e+002
6.367303e+002, 1.894624e+002
6.372125e+002, 1.899320e+002
6.376946e+002, 1.911486e+002
6.381767e+002, 1.919445e+002
6.386588e+002, 1.921166e+002
6.391409e+002, 1.921401e+002
6.396230e+002, 1.928079e+002
6.401052e+002, 1.940663e+002
6.405873e+002, 1.950126e+002
6.410694e+002, 1.953177e+002
6.415515e+002, 1.953674e+002
6.420336e+002, 1.957567e+002
6.425157e+002, 1.963682e+002
6.429979e+002, 1.968664e+002
6.434800e+002, 1.969056e+002
6.439621e+002, 1.969154e+002
6.444442e+002, 1.972079e+002
6.449263e+002, 1.977481e+002
6.454084e+002, 1.983016e+002
6.458906e+002, 1.990286e+002
6.463727e+002, 1.995425e+002
6.468548e+002, 1.995378e+002
6.473369e+002, 1.989049e+002
6.478190e+002, 1.986366e+002
6.483011e+002, 1.987846e+002
6.487833e+002, 1.992248e+002
6.492654e+002, 2.000121e+002
6.497475e+002, 2.012231e+002
6.502296e+002, 2.018577e+002
6.507117e+002, 2.017802e+002
6.511938e+002, 2.014504e+002
6.516760e+002, 2.012620e+002
6.521581e+002, 2.012710e+002
6.526402e+002, 2.017142e+002
6.531223e+002, 2.028271e+002
6.536044e+002, 2.040193e+002
6.540865e+002, 2.047707e+002
6.545687e+002, 2.052319e+002
6.550508e+002, 2.057000e+002
6.555329e+002, 2.063204e+002
6.560150e+002, 2.069383e+002
6.564971e+002, 2.075455e+002
6.569792e+002, 2.081166e+002
6.574614e+002, 2.085231e+002
6.579435e+002, 2.085730e+002
6.584256e+002, 2.087186e+002
6.589077e+002, 2.090882e+002
6.593898e+002, 2.096801e+002
6.598719e+002, 2.105228e+002
6.603541e+002, 2.116748e+002
6.608362e+002, 2.127967e+002
6.613183e+002, 2.137340e+002
6.618004e+002, 2.144539e+002
6.622825e+002, 2.147383e+002
6.627646e+002, 2.145438e+002
6.632468e+002, 2.144837e+002
6.637289e+002, 2.152106e+002
6.642110e+002, 2.163555e+002
6.646931e+002, 2.174432e+002
6.651752e+002, 2.183514e+002
6.656573e+002, 2.192567e+002
6.661395e+002, 2.203938e+002
6.666216e+002, 2.215239e+002
6.671037e+002, 2.223522e+002
6.675858e+002, 2.222637e+002
6.680679e+002, 2.226141e+002
6.685500e+002, 2.235451e+002
6.690322e+002, 2.249553e+002
6.695143e+002, 2.267406e+002
6.699964e+002, 2.290704e+002
6.704785e+002, 2.309765e+002
6.709606e+002, 2.320959e+002
6.714427e+002, 2.326398e+002
6.719249e+002, 2.330109e+002
6.724070e+002, 2.332526e+002
6.728891e+002, 2.337202e+002
6.733712e+002, 2.348091e+002
6.738533e+002, 2.361237e+002
6.743354e+002, 2.371578e+002
6.748176e+002, 2.379339e+002
6.752997e+002, 2.387879e+002
6.757818e+002, 2.400783e+002
6.762639e+002, 2.413455e+002
6.767460e+002, 2.422586e+002
6.772281e+002, 2.426278e+002
6.777103e+002, 2.431930e+002
6.781924e+002, 2.440650e+002
6.786745e+002, 2.450528e+002
6.791566e+002, 2.460967e+002
6.796387e+002, 2.472958e+002
6.801208e+002, 2.480114e+002
6.806030e+002, 2.480939e+002
6.810851e+002, 2.480134e+002
6.815672e+002, 2.483695e+002
6.820493e+002, 2.490826e+002
6.825314e+002, 2.498590e+002
6.830135e+002, 2.506703e+002
6.834957e+002, 2.513978e+002
6.839778e+002, 2.518771e+002
6.844599e+002, 2.521815e+002
6.849420e+002, 2.524326e+002
6.854241e+002, 2.527934e+002
6.859063e+002, 2.529963e+002
6.863884e+002, 2.527572e+002
6.868705e+002, 2.522571e+002
6.873526e+002, 2.521310e+002
6.878347e+002, 2.526694e+002
6.883168e+002, 2.532095e+002
6.887990e+002, 2.535867e+002
6.892811e+002, 2.538226e+002
6.897632e+002, 2.540408e+002
6.902453e+002, 2.542614e+002
6.907274e+002, 2.543367e+002
6.912095e+002, 2.538447e+002
6.916917e+002, 2.531621e+002
6.921738e+002, 2.536701e+002
6.926559e+002, 2.553219e+002
6.931380e+002, 2.568826e+002
6.936201e+002, 2.573930e+002
6.941022e+002, 2.573962e+002
6.945844e+002, 2.573001e+002
6.950665e+002, 2.570955e+002
6.955486e+002, 2.572289e+002
6.960307e+002, 2.582582e+002
6.965128e+002, 2.594203e+002
6.969949e+002, 2.601029e+002
6.974771e+002, 2.599888e+002
6.979592e+002, 2.600460e+002
6.984413e+002, 2.603385e+002
6.989234e+002, 2.607266e+002
6.994055e+002, 2.610795e+002
6.998876e+002, 2.614031e+002
7.003698e+002, 2.615981e+002
7.008519e+002, 2.616523e+002
7.013340e+002, 2.615724e+002
7.018161e+002, 2.612841e+002
7.022982e+002, 2.608694e+002
7.027803e+002, 2.605171e+002
7.032625e+002, 2.601624e+002
7.037446e+002, 2.600628e+002
7.042267e+002, 2.605300e+002
7.047088e+002, 2.613712e+002
7.051909e+002, 2.621628e+002
7.056730e+002, 2.627349e+002
7.061552e+002, 2.632949e+002
7.066373e+002, 2.639248e+002
7.071194e+002, 2.645824e+002
7.076015e+002, 2.651110e+002
7.080836e+002, 2.655395e+002
7.085657e+002, 2.656994e+002
7.090479e+002, 2.653588e+002
7.095300e+002, 2.647079e+002
7.100121e+002, 2.646258e+002
7.104942e+002, 2.650935e+002
7.109763e+002, 2.656703e+002
7.114584e+002, 2.661991e+002
7.119406e+002, 2.665954e+002
7.124227e+002, 2.667430e+002
7.129048e+002, 2.666419e+002
7.133869e+002, 2.664038e+002
7.138690e+002, 2.659324e+002
7.143511e+002, 2.654602e+002
7.148333e+002, 2.651025e+002
7.153154e+002, 2.648255e+002
7.157975e+002, 2.649445e+002
7.162796e+002, 2.659881e+002
7.167617e+002, 2.667966e+002
7.172438e+002, 2.661857e+002
7.177260e+002, 2.639478e+002
7.182081e+002, 2.627439e+002
7.186902e+002, 2.628842e+002
7.191723e+002, 2.634767e+002
7.196544e+002, 2.634890e+002
7.201365e+002, 2.631353e+002
7.206187e+002, 2.629918e+002
7.211008e+002, 2.632734e+002
7.215829e+002, 2.635069e+002
7.220650e+002, 2.632105e+002
7.225471e+002, 2.626881e+002
7.230292e+002, 2.623419e+002
7.235114e+002, 2.625229e+002
7.239935e+002, 2.625961e+002
7.244756e+002, 2.623623e+002
7.249577e+002, 2.619950e+002
7.254398e+002, 2.617862e+002
7.259219e+002, 2.617811e+002
7.264041e+002, 2.618040e+002
7.268862e+002, 2.618524e+002
7.273683e+002, 2.618644e+002
7.278504e+002, 2.617177e+002
7.283325e+002, 2.614114e+002
7.288146e+002, 2.609145e+002
7.292968e+002, 2.599670e+002
7.297789e+002, 2.590378e+002
7.302610e+002, 2.589261e+002
7.307431e+002, 2.593323e+002
7.312252e+002, 2.592618e+002
7.317073e+002, 2.577981e+002
7.321895e+002, 2.562411e+002
7.326716e+002, 2.551547e+002
7.331537e+002, 2.545328e+002
7.336358e+002, 2.538828e+002
7.341179e+002, 2.531713e+002
7.346000e+002, 2.524748e+002
7.350822e+002, 2.517871e+002
7.355643e+002, 2.511296e+002
7.360464e+002, 2.508455e+002
7.365285e+002, 2.509620e+002
7.370106e+002, 2.509426e+002
7.374927e+002, 2.500783e+002
7.379749e+002, 2.489483e+002
7.384570e+002, 2.487240e+002
7.389391e+002, 2.494326e+002
7.394212e+002, 2.499549e+002
7.399033e+002, 2.493320e+002
7.403854e+002, 2.484872e+002
7.408676e+002, 2.481186e+002
7.413497e+002, 2.484624e+002
7.418318e+002, 2.486278e+002
7.423139e+002, 2.482740e+002
7.427960e+002, 2.480385e+002
7.432781e+002, 2.483857e+002
7.437603e+002, 2.493930e+002
7.442424e+002, 2.505102e+002
7.447245e+002, 2.517966e+002
7.452066e+002, 2.529113e+002
7.456887e+002, 2.532603e+002
7.461708e+002, 2.531897e+002
7.466530e+002, 2.536186e+002
7.471351e+002, 2.547481e+002
7.476172e+002, 2.561336e+002
7.480993e+002, 2.576740e+002
7.485814e+002, 2.591957e+002
7.490635e+002, 2.604577e+002
7.495457e+002, 2.609344e+002
7.500278e+002, 2.619417e+002
7.505099e+002, 2.638851e+002
7.509920e+002, 2.662444e+002
7.514741e+002, 2.684956e+002
7.519562e+002, 2.706713e+002
7.524384e+002, 2.724374e+002
7.529205e+002, 2.736133e+002
7.534026e+002, 2.745926e+002
7.538847e+002, 2.758677e+002
7.543668e+002, 2.774554e+002
7.548489e+002, 2.795385e+002
7.553311e+002, 2.825239e+002
7.558132e+002, 2.853456e+002
7.562953e+002, 2.866487e+002
7.567774e+002, 2.871867e+002
7.572595e+002, 2.882531e+002
7.577416e+002, 2.913440e+002
7.582238e+002, 2.937412e+002
7.587059e+002, 2.945357e+002
7.591880e+002, 2.943387e+002
7.596701e+002, 2.943755e+002
7.601522e+002, 2.947314e+002
7.606343e+002, 2.950914e+002
7.611165e+002, 2.954627e+002
7.615986e+002, 2.957130e+002
7.620807e+002, 2.953992e+002
7.625628e+002, 2.946139e+002
7.630449e+002, 2.938964e+002
7.635270e+002, 2.938203e+002
7.640092e+002, 2.936377e+002
7.644913e+002, 2.925831e+002
7.649734e+002, 2.908243e+002
7.654555e+002, 2.888746e+002
7.659376e+002, 2.868133e+002
7.664197e+002, 2.847219e+002
7.669019e+002, 2.826807e+002
7.673840e+002, 2.806528e+002
7.678661e+002, 2.784647e+002
7.683482e+002, 2.761255e+002
7.688303e+002, 2.735923e+002
7.693124e+002, 2.707256e+002
7.697946e+002, 2.677204e+002
7.702767e+002, 2.652502e+002
7.707588e+002, 2.632649e+002
7.712409e+002, 2.612978e+002
7.717230e+002, 2.587973e+002
7.722051e+002, 2.563689e+002
7.726873e+002, 2.546562e+002
7.731694e+002, 2.536062e+002
7.736515e+002, 2.527488e+002
7.741336e+002, 2.527691e+002
7.746157e+002, 2.520929e+002
7.750978e+002, 2.495759e+002
7.755800e+002, 2.453350e+002
7.760621e+002, 2.425743e+002
7.765442e+002, 2.416431e+002
7.770263e+002, 2.412059e+002
7.775084e+002, 2.407570e+002
7.779905e+002, 2.402229e+002
7.784727e+002, 2.391248e+002
7.789548e+002, 2.374944e+002
7.794369e+002, 2.359206e+002
7.799190e+002, 2.347431e+002
7.804011e+002, 2.338774e+002
7.808832e+002, 2.332699e+002
7.813654e+002, 2.329162e+002
7.818475e+002, 2.326571e+002
7.823296e+002, 2.324878e+002
7.828117e+002, 2.323629e+002
7.832938e+002, 2.322581e+002
7.837759e+002, 2.321742e+002
7.842581e+002, 2.321272e+002
7.847402e+002, 2.321428e+002
7.852223e+002, 2.321269e+002
7.857044e+002, 2.319543e+002
7.861865e+002, 2.316956e+002
7.866686e+002, 2.316238e+002
7.871508e+002, 2.317485e+002
7.876329e+002, 2.319657e+002
7.881150e+002, 2.323496e+002
7.885971e+002, 2.326961e+002
7.890792e+002, 2.327666e+002
7.895613e+002, 2.325066e+002
7.900435e+002, 2.322634e+002
7.905256e+002, 2.318951e+002
7.910077e+002, 2.317621e+002
7.914898e+002, 2.320883e+002
7.919719e+002, 2.329305e+002
7.924540e+002, 2.338462e+002
7.929362e+002, 2.348760e+002
7.934183e+002, 2.357309e+002
7.939004e+002, 2.360797e+002
7.943825e+002, 2.360579e+002
7.948646e+002, 2.359252e+002
7.953467e+002, 2.356953e+002
7.958289e+002, 2.357487e+002
7.963110e+002, 2.367245e+002
7.967931e+002, 2.378655e+002
7.972752e+002, 2.385080e+002
7.977573e+002, 2.384762e+002
7.982394e+002, 2.383942e+002
7.987216e+002, 2.382484e+002
7.992037e+002, 2.381779e+002
7.996858e+002, 2.382660e+002
8.001679e+002, 2.385192e+002
8.006500e+002, 2.389753e+002
8.011321e+002, 2.396867e+002
8.016143e+002, 2.403198e+002
8.020964e+002, 2.404626e+002
8.025785e+002, 2.403429e+002
8.030606e+002, 2.404843e+002
8.035427e+002, 2.409718e+002
8.040248e+002, 2.412185e+002
8.045070e+002, 2.402709e+002
8.049891e+002, 2.393606e+002
8.054712e+002, 2.395709e+002
8.059533e+002, 2.416042e+002
8.064354e+002, 2.428542e+002
8.069175e+002, 2.430397e+002
8.073997e+002, 2.428271e+002
8.078818e+002, 2.425974e+002
8.083639e+002, 2.423565e+002
8.088460e+002, 2.424393e+002
8.093281e+002, 2.428911e+002
8.098102e+002, 2.432396e+002
8.102924e+002, 2.429446e+002
8.107745e+002, 2.423387e+002
8.112566e+002, 2.418356e+002
8.117387e+002, 2.414923e+002
8.122208e+002, 2.412969e+002
8.127029e+002, 2.412614e+002
8.131851e+002, 2.413682e+002
8.136672e+002, 2.416301e+002
8.141493e+002, 2.420933e+002
8.146314e+002, 2.425316e+002
8.151135e+002, 2.430071e+002
8.155956e+002, 2.432930e+002
8.160778e+002, 2.431232e+002
8.165599e+002, 2.425874e+002
8.170420e+002, 2.420092e+002
8.175241e+002, 2.413968e+002
8.180062e+002, 2.410452e+002
8.184883e+002, 2.414487e+002
8.189705e+002, 2.420506e+002
8.194526e+002, 2.421992e+002
8.199347e+002, 2.417035e+002
8.204168e+002, 2.416172e+002
8.208989e+002, 2.427896e+002
8.213810e+002, 2.438413e+002
8.218632e+002, 2.440186e+002
8.223453e+002, 2.432198e+002
8.228274e+002, 2.425451e+002
8.233095e+002, 2.420159e+002
8.237916e+002, 2.415731e+002
8.242737e+002, 2.412094e+002
8.247559e+002, 2.409008e+002
8.252380e+002, 2.405033e+002
8.257201e+002, 2.400287e+002
8.262022e+002, 2.398731e+002
8.266843e+002, 2.407467e+002
8.271664e+002, 2.416597e+002
8.276486e+002, 2.418980e+002
8.281307e+002, 2.412903e+002
8.286128e+002, 2.407437e+002
8.290949e+002, 2.402744e+002
8.295770e+002, 2.398313e+002
8.300591e+002, 2.392805e+002
8.305413e+002, 2.386725e+002
8.310234e+002, 2.386497e+002
8.315055e+002, 2.392039e+002
8.319876e+002, 2.398502e+002
8.324697e+002, 2.404744e+002
8.329518e+002, 2.408631e+002
8.334340e+002, 2.407584e+002
8.339161e+002, 2.401613e+002
8.343982e+002, 2.393223e+002
8.348803e+002, 2.376919e+002
8.353624e+002, 2.364902e+002
8.358445e+002, 2.364106e+002
8.363267e+002, 2.373857e+002
8.368088e+002, 2.377721e+002
8.372909e+002, 2.374644e+002
8.377730e+002, 2.370431e+002
8.382551e+002, 2.368332e+002
8.387372e+002, 2.367440e+002
8.392194e+002, 2.365152e+002
8.397015e+002, 2.361774e+002
8.401836e+002, 2.359055e+002
8.406657e+002, 2.357583e+002
8.411478e+002, 2.357447e+002
8.416299e+002, 2.359139e+002
8.421121e+002, 2.362464e+002
8.425942e+002, 2.365622e+002
8.430763e+002, 2.367723e+002
8.435584e+002, 2.370963e+002
8.440405e+002, 2.376213e+002
8.445226e+002, 2.383040e+002
8.450048e+002, 2.389399e+002
8.454869e+002, 2.395404e+002
8.459690e+002, 2.403094e+002
8.464511e+002, 2.412449e+002
8.469332e+002, 2.424760e+002
8.474153e+002, 2.446090e+002
8.478975e+002, 2.471861e+002
8.483796e+002, 2.489096e+002
8.488617e+002, 2.484252e+002
8.493438e+002, 2.480570e+002
8.498259e+002, 2.483250e+002
8.503080e+002, 2.491937e+002
8.507902e+002, 2.507209e+002
8.512723e+002, 2.530178e+002
8.517544e+002, 2.552263e+002
8.522365e+002, 2.570748e+002
8.527186e+002, 2.587502e+002
8.532007e+002, 2.606683e+002
8.536829e+002, 2.626874e+002
8.541650e+002, 2.644321e+002
8.546471e+002, 2.656251e+002
8.551292e+002, 2.666935e+002
8.556113e+002, 2.677162e+002
8.560934e+002, 2.687726e+002
8.565756e+002, 2.700447e+002
8.570577e+002, 2.716701e+002
8.575398e+002, 2.732578e+002
8.580219e+002, 2.748464e+002
8.585040e+002, 2.762929e+002
8.589861e+002, 2.772475e+002
8.594683e+002, 2.778042e+002
8.599504e+002, 2.785488e+002
8.604325e+002, 2.797726e+002
8.609146e+002, 2.806715e+002
8.613967e+002, 2.801754e+002
8.618788e+002, 2.790573e+002
8.623610e+002, 2.783024e+002
8.628431e+002, 2.787408e+002
8.633252e+002, 2.784470e+002
8.638073e+002, 2.769848e+002
8.642894e+002, 2.750700e+002
8.647715e+002, 2.733881e+002
8.652537e+002, 2.719550e+002
8.657358e+002, 2.705963e+002
8.662179e+002, 2.693436e+002
8.667000e+002, 2.678140e+002
8.671821e+002, 2.653155e+002
8.676642e+002, 2.624166e+002
8.681464e+002, 2.600723e+002
8.686285e+002, 2.584997e+002
8.691106e+002, 2.567502e+002
8.695927e+002, 2.543870e+002
8.700748e+002, 2.517427e+002
8.705569e+002, 2.489757e+002
8.710391e+002, 2.460086e+002
8.715212e+002, 2.435779e+002
8.720033e+002, 2.418223e+002
8.724854e+002, 2.400550e+002
8.729675e+002, 2.375525e+002
8.734496e+002, 2.347000e+002
8.739318e+002, 2.326511e+002
8.744139e+002, 2.313636e+002
8.748960e+002, 2.299528e+002
8.753781e+002, 2.276131e+002
8.758602e+002, 2.252305e+002
8.763423e+002, 2.235204e+002
8.768245e+002, 2.225115e+002
8.773066e+002, 2.208763e+002
8.777887e+002, 2.182613e+002
8.782708e+002, 2.158548e+002
8.787529e+002, 2.142129e+002
8.792350e+002, 2.131245e+002
8.797172e+002, 2.119513e+002
8.801993e+002, 2.106867e+002
8.806814e+002, 2.091669e+002
8.811635e+002, 2.068438e+002
8.816456e+002, 2.046496e+002
8.821277e+002, 2.034929e+002
8.826099e+002, 2.030383e+002
8.830920e+002, 2.022764e+002
8.835741e+002, 2.006568e+002
8.840562e+002, 1.992091e+002
8.845383e+002, 1.981333e+002
8.850204e+002, 1.972534e+002
8.855026e+002, 1.962023e+002
8.859847e+002, 1.949835e+002
8.864668e+002, 1.936865e+002
8.869489e+002, 1.922793e+002
8.874310e+002, 1.909267e+002
8.879131e+002, 1.898451e+002
8.883953e+002, 1.889469e+002
8.888774e+002, 1.880921e+002
8.893595e+002, 1.872686e+002
8.898416e+002, 1.864619e+002
8.903237e+002, 1.857632e+002
8.908058e+002, 1.850080e+002
8.912880e+002, 1.839171e+002
8.917701e+002, 1.824428e+002
8.922522e+002, 1.813679e+002
8.927343e+002, 1.807864e+002
8.932164e+002, 1.803902e+002
8.936985e+002, 1.799388e+002
8.941807e+002, 1.794326e+002
8.946628e+002, 1.788467e+002
8.951449e+002, 1.781680e+002
8.956270e+002, 1.775034e+002
8.961091e+002, 1.769998e+002
8.965912e+002, 1.764141e+002
8.970734e+002, 1.755079e+002
8.975555e+002, 1.742239e+002
8.980376e+002, 1.735808e+002
8.985197e+002, 1.737236e+002
8.990018e+002, 1.736763e+002
8.994839e+002, 1.724153e+002
8.999661e+002, 1.706434e+002
9.004482e+002, 1.697377e+002
9.009303e+002, 1.696055e+002
9.014124e+002, 1.695156e+002
9.018945e+002, 1.691311e+002
9.023766e+002, 1.686772e+002
9.028588e+002, 1.682392e+002
9.033409e+002, 1.678174e+002
9.038230e+002, 1.673669e+002
9.043051e+002, 1.668518e+002
9.047872e+002, 1.664377e+002
9.052693e+002, 1.662333e+002
9.057515e+002, 1.660825e+002
9.062336e+002, 1.655132e+002
9.067157e+002, 1.647185e+002
9.071978e+002, 1.642709e+002
9.076799e+002, 1.647547e+002
9.081620e+002, 1.651952e+002
9.086442e+002, 1.652353e+002
9.091263e+002, 1.649180e+002
9.096084e+002, 1.643076e+002
9.100905e+002, 1.632449e+002
9.105726e+002, 1.623761e+002
9.110547e+002, 1.618196e+002
9.115369e+002, 1.612986e+002
9.120190e+002, 1.601917e+002
9.125011e+002, 1.588317e+002
9.129832e+002, 1.582791e+002
9.134653e+002, 1.588259e+002
9.139474e+002, 1.594337e+002
9.144296e+002, 1.594392e+002
9.149117e+002, 1.592222e+002
9.153938e+002, 1.591081e+002
9.158759e+002, 1.591673e+002
9.163580e+002, 1.590926e+002
9.168401e+002, 1.588107e+002
9.173223e+002, 1.585693e+002
9.178044e+002, 1.585688e+002
9.182865e+002, 1.587480e+002
9.187686e+002, 1.589246e+002
9.192507e+002, 1.590866e+002
9.197328e+002, 1.591422e+002
9.202150e+002, 1.589359e+002
9.206971e+002, 1.586974e+002
9.211792e+002, 1.586158e+002
9.216613e+002, 1.586578e+002
9.221434e+002, 1.585282e+002
9.226255e+002, 1.581533e+002
9.231077e+002, 1.577630e+002
9.235898e+002, 1.573898e+002
9.240719e+002, 1.570775e+002
9.245540e+002, 1.569491e+002
9.250361e+002, 1.569698e+002
9.255182e+002, 1.569924e+002
9.260004e+002, 1.568804e+002
9.264825e+002, 1.568821e+002
9.269646e+002, 1.573834e+002
9.274467e+002, 1.580147e+002
9.279288e+002, 1.581886e+002
9.284109e+002, 1.576320e+002
9.288931e+002, 1.571125e+002
9.293752e+002, 1.566442e+002
9.298573e+002, 1.562706e+002
9.303394e+002, 1.560442e+002
9.308215e+002, 1.559545e+002
9.313036e+002, 1.559933e+002
9.317858e+002, 1.561726e+002
9.322679e+002, 1.563048e+002
9.327500e+002, 1.563642e+002
9.332321e+002, 1.562520e+002
9.337142e+002, 1.558039e+002
9.341964e+002, 1.549414e+002
9.346785e+002, 1.543640e+002
9.351606e+002, 1.540583e+002
9.356427e+002, 1.541021e+002
9.361248e+002, 1.547283e+002
9.366069e+002, 1.556854e+002
9.370891e+002, 1.560164e+002
9.375712e+002, 1.558338e+002
9.380533e+002, 1.556801e+002
9.385354e+002, 1.559244e+002
9.390175e+002, 1.562062e+002
9.394996e+002, 1.563567e+002
9.399818e+002, 1.563776e+002
9.404639e+002, 1.562314e+002
9.409460e+002, 1.556274e+002
9.414281e+002, 1.557060e+002
9.419102e+002, 1.569160e+002
9.423923e+002, 1.584089e+002
9.428745e+002, 1.586983e+002
9.433566e+002, 1.581380e+002
9.438387e+002, 1.577546e+002
9.443208e+002, 1.578530e+002
9.448029e+002, 1.579527e+002
9.452850e+002, 1.576845e+002
9.457672e+002, 1.573544e+002
9.462493e+002, 1.572563e+002
9.467314e+002, 1.574369e+002
9.472135e+002, 1.576845e+002
9.476956e+002, 1.580015e+002
9.481777e+002, 1.583817e+002
9.486599e+002, 1.588377e+002
9.491420e+002, 1.593424e+002
9.496241e+002, 1.598225e+002
9.501062e+002, 1.602799e+002
9.505883e+002, 1.607511e+002
9.510704e+002, 1.612595e+002
9.515526e+002, 1.617819e+002
9.520347e+002, 1.623606e+002
9.525168e+002, 1.629454e+002
9.529989e+002, 1.633183e+002
9.534810e+002, 1.634447e+002
9.539631e+002, 1.634987e+002
9.544453e+002, 1.634730e+002
9.549274e+002, 1.635036e+002
9.554095e+002, 1.638746e+002
9.558916e+002, 1.644662e+002
9.563737e+002, 1.650196e+002
9.568558e+002, 1.653770e+002
9.573380e+002, 1.658354e+002
9.578201e+002, 1.666245e+002
9.583022e+002, 1.674831e+002
9.587843e+002, 1.681654e+002
9.592664e+002, 1.686450e+002
9.597485e+002, 1.691313e+002
9.602307e+002, 1.696401e+002
9.607128e+002, 1.700769e+002
9.611949e+002, 1.701922e+002
9.616770e+002, 1.702674e+002
9.621591e+002, 1.708584e+002
9.626412e+002, 1.719528e+002
9.631234e+002, 1.726712e+002
9.636055e+002, 1.720473e+002
9.640876e+002, 1.717622e+002
9.645697e+002, 1.726783e+002
9.650518e+002, 1.743664e+002
9.655339e+002, 1.748223e+002
9.660161e+002, 1.740445e+002
9.664982e+002, 1.732586e+002
9.669803e+002, 1.728223e+002
9.674624e+002, 1.727643e+002
9.679445e+002, 1.734156e+002
9.684266e+002, 1.743957e+002
9.689088e+002, 1.750636e+002
9.693909e+002, 1.752505e+002
9.698730e+002, 1.750426e+002
9.703551e+002, 1.740687e+002
9.708372e+002, 1.732088e+002
9.713193e+002, 1.736849e+002
9.718015e+002, 1.752808e+002
9.722836e+002, 1.758498e+002
9.727657e+002, 1.752056e+002
9.732478e+002, 1.742812e+002
9.737299e+002, 1.736557e+002
9.742120e+002, 1.731692e+002
9.746942e+002, 1.727074e+002
9.751763e+002, 1.722607e+002
9.756584e+002, 1.717992e+002
9.761405e+002, 1.712520e+002
9.766226e+002, 1.708267e+002
9.771047e+002, 1.706082e+002
9.775869e+002, 1.705507e+002
9.780690e+002, 1.706778e+002
9.785511e+002, 1.708859e+002
9.790332e+002, 1.707795e+002
9.795153e+002, 1.699732e+002
9.799974e+002, 1.691378e+002
9.804796e+002, 1.686213e+002
9.809617e+002, 1.682970e+002
9.814438e+002, 1.679905e+002
9.819259e+002, 1.677185e+002
9.824080e+002, 1.673848e+002
9.828901e+002, 1.669788e+002
9.833723e+002, 1.665354e+002
9.838544e+002, 1.661605e+002
9.843365e+002, 1.657505e+002
9.848186e+002, 1.650729e+002
9.853007e+002, 1.641130e+002
9.857828e+002, 1.631219e+002
9.862650e+002, 1.620210e+002
9.867471e+002, 1.611107e+002
9.872292e+002, 1.605456e+002
9.877113e+002, 1.602680e+002
9.881934e+002, 1.600581e+002
9.886755e+002, 1.599280e+002
9.891577e+002, 1.595016e+002
9.896398e+002, 1.584827e+002
9.901219e+002, 1.573601e+002
9.906040e+002, 1.567367e+002
9.910861e+002, 1.564207e+002
9.915682e+002, 1.560893e+002
9.920504e+002, 1.556164e+002
9.925325e+002, 1.551849e+002
9.930146e+002, 1.548598e+002
9.934967e+002, 1.545134e+002
9.939788e+002, 1.540029e+002
9.944609e+002, 1.533462e+002
9.949431e+002, 1.526929e+002
9.954252e+002, 1.520494e+002
9.959073e+002, 1.513849e+002
9.963894e+002, 1.505216e+002
9.968715e+002, 1.497513e+002
9.973536e+002, 1.493462e+002
9.978358e+002, 1.492913e+002
9.983179e+002, 1.491230e+002
9.988000e+002, 1.487579e+002
9.992821e+002, 1.484849e+002
9.997642e+002, 1.484309e+002
1.000246e+003, 1.484506e+002
1.000728e+003, 1.482380e+002
1.001211e+003, 1.478632e+002
1.001693e+003, 1.474938e+002
1.002175e+003, 1.471101e+002
1.002657e+003, 1.468935e+002
1.003139e+003, 1.471384e+002
1.003621e+003, 1.474389e+002
1.004103e+003, 1.473848e+002
1.004585e+003, 1.468649e+002
1.005068e+003, 1.466876e+002
1.005550e+003, 1.468865e+002
1.006032e+003, 1.470738e+002
1.006514e+003, 1.467912e+002
1.006996e+003, 1.464308e+002
1.007478e+003, 1.466425e+002
1.007960e+003, 1.472959e+002
1.008442e+003, 1.475726e+002
1.008924e+003, 1.466366e+002
1.009407e+003, 1.461307e+002
1.009889e+003, 1.466182e+002
1.010371e+003, 1.474925e+002
1.010853e+003, 1.471875e+002
1.011335e+003, 1.459769e+002
1.011817e+003, 1.459287e+002
1.012299e+003, 1.478984e+002
1.012781e+003, 1.494511e+002
1.013263e+003, 1.481474e+002
1.013746e+003, 1.459399e+002
1.014228e+003, 1.447637e+002
1.014710e+003, 1.449924e+002
1.015192e+003, 1.449927e+002
1.015674e+003, 1.446860e+002
1.016156e+003, 1.444157e+002
1.016638e+003, 1.444236e+002
1.017120e+003, 1.445938e+002
1.017603e+003, 1.446947e+002
1.018085e+003, 1.447369e+002
1.018567e+003, 1.447598e+002
1.019049e+003, 1.445880e+002
1.019531e+003, 1.446391e+002
1.020013e+003, 1.453168e+002
1.020495e+003, 1.460885e+002
1.020977e+003, 1.460746e+002
1.021459e+003, 1.452494e+002
1.021942e+003, 1.446251e+002
1.022424e+003, 1.443181e+002
1.022906e+003, 1.442950e+002
1.023388e+003, 1.449059e+002
1.023870e+003, 1.455306e+002
1.024352e+003, 1.453460e+002
1.024834e+003, 1.441840e+002
1.025316e+003, 1.438102e+002
1.025799e+003, 1.448226e+002
1.026281e+003, 1.455888e+002
1.026763e+003, 1.453322e+002
1.027245e+003, 1.445092e+002
1.027727e+003, 1.443401e+002
1.028209e+003, 1.446389e+002
1.028691e+003, 1.447719e+002
1.029173e+003, 1.443383e+002
1.029656e+003, 1.439334e+002
1.030138e+003, 1.437815e+002
1.030620e+003, 1.438354e+002
1.031102e+003, 1.440672e+002
1.031584e+003, 1.445315e+002
1.032066e+003, 1.448762e+002
1.032548e+003, 1.450981e+002
1.033030e+003, 1.451599e+002
1.033512e+003, 1.448202e+002
1.033995e+003, 1.444395e+002
1.034477e+003, 1.444952e+002
1.034959e+003, 1.449430e+002
1.035441e+003, 1.453837e+002
1.035923e+003, 1.458938e+002
1.036405e+003, 1.461202e+002
1.036887e+003, 1.459071e+002
1.037369e+003, 1.454787e+002
1.037851e+003, 1.452714e+002
1.038334e+003, 1.452331e+002
1.038816e+003, 1.451529e+002
1.039298e+003, 1.449869e+002
1.039780e+003, 1.447632e+002
1.040262e+003, 1.443177e+002
1.040744e+003, 1.439657e+002
1.041226e+003, 1.440386e+002
1.041708e+003, 1.445766e+002
1.042191e+003, 1.447423e+002
1.042673e+003, 1.445042e+002
1.043155e+003, 1.441921e+002
1.043637e+003, 1.439223e+002
1.044119e+003, 1.437327e+002
1.044601e+003, 1.436720e+002
1.045083e+003, 1.437310e+002
1.045565e+003, 1.438896e+002
1.046047e+003, 1.444289e+002
1.046530e+003, 1.446143e+002
1.047012e+003, 1.442172e+002
1.047494e+003, 1.437034e+002
1.047976e+003, 1.435744e+002
1.048458e+003, 1.437829e+002
1.048940e+003, 1.441717e+002
1.049422e+003, 1.447209e+002
1.049904e+003, 1.451886e+002
1.050386e+003, 1.455547e+002
1.050869e+003, 1.456745e+002
1.051351e+003, 1.451743e+002
1.051833e+003, 1.443210e+002
1.052315e+003, 1.443353e+002
1.052797e+003, 1.453859e+002
1.053279e+003, 1.459740e+002
1.053761e+003, 1.455876e+002
1.054243e+003, 1.448931e+002
1.054726e+003, 1.447031e+002
1.055208e+003, 1.447579e+002
1.055690e+003, 1.446460e+002
1.056172e+003, 1.441091e+002
1.056654e+003, 1.440272e+002
1.057136e+003, 1.446648e+002
1.057618e+003, 1.453840e+002
1.058100e+003, 1.458899e+002
1.058583e+003, 1.461566e+002
1.059065e+003, 1.459504e+002
1.059547e+003, 1.453704e+002
1.060029e+003, 1.448710e+002
1.060511e+003, 1.447505e+002
1.060993e+003, 1.446984e+002
1.061475e+003, 1.446072e+002
1.061957e+003, 1.445017e+002
1.062439e+003, 1.444275e+002
1.062922e+003, 1.443961e+002
1.063404e+003, 1.442822e+002
1.063886e+003, 1.440681e+002
1.064368e+003, 1.438605e+002
1.064850e+003, 1.437150e+002
1.065332e+003, 1.436494e+002
1.065814e+003, 1.435847e+002
1.066296e+003, 1.435544e+002
1.066778e+003, 1.440666e+002
1.067261e+003, 1.456079e+002
1.067743e+003, 1.466385e+002
1.068225e+003, 1.466660e+002
1.068707e+003, 1.461469e+002
1.069189e+003, 1.458947e+002
1.069671e+003, 1.457633e+002
1.070153e+003, 1.453580e+002
1.070635e+003, 1.444694e+002
1.071118e+003, 1.437471e+002
1.071600e+003, 1.434821e+002
1.072082e+003, 1.434714e+002
1.072564e+003, 1.437033e+002
1.073046e+003, 1.441344e+002
1.073528e+003, 1.441597e+002
1.074010e+003, 1.438078e+002
1.074492e+003, 1.434613e+002
1.074974e+003, 1.433284e+002
1.075457e+003, 1.432753e+002
1.075939e+003, 1.431419e+002
1.076421e+003, 1.430441e+002
1.076903e+003, 1.432294e+002
1.077385e+003, 1.439486e+002
1.077867e+003, 1.441161e+002
1.078349e+003, 1.435616e+002
1.078831e+003, 1.429725e+002
1.079313e+003, 1.430133e+002
1.079796e+003, 1.434067e+002
1.080278e+003, 1.438336e+002
1.080760e+003, 1.442477e+002
1.081242e+003, 1.444814e+002
1.081724e+003, 1.442430e+002
1.082206e+003, 1.441539e+002
1.082688e+003, 1.444435e+002
1.083170e+003, 1.448140e+002
1.083652e+003, 1.446378e+002
1.084135e+003, 1.440591e+002
1.084617e+003, 1.436306e+002
1.085099e+003, 1.434701e+002
1.085581e+003, 1.433630e+002
1.086063e+003, 1.431786e+002
1.086545e+003, 1.430126e+002
1.087027e+003, 1.428483e+002
1.087509e+003, 1.427219e+002
1.087992e+003, 1.431621e+002
1.088474e+003, 1.441794e+002
1.088956e+003, 1.448759e+002
1.089438e+003, 1.448170e+002
1.089920e+003, 1.444105e+002
1.090402e+003, 1.437545e+002
1.090884e+003, 1.431332e+002
1.091366e+003, 1.429782e+002
1.091849e+003, 1.435716e+002
1.092331e+003, 1.440325e+002
1.092813e+003, 1.443837e+002
1.093295e+003, 1.445240e+002
1.093777e+003, 1.442055e+002
1.094259e+003, 1.437083e+002
1.094741e+003, 1.435560e+002
1.095223e+003, 1.436881e+002
1.095705e+003, 1.438743e+002
1.096188e+003, 1.441538e+002
1.096670e+003, 1.442945e+002
1.097152e+003, 1.442205e+002
1.097634e+003, 1.440491e+002
1.098116e+003, 1.439106e+002
1.098598e+003, 1.438039e+002
1.099080e+003, 1.437384e+002
1.099562e+003, 1.437138e+002
1.100044e+003, 1.436914e+002
1.100527e+003, 1.437584e+002
1.101009e+003, 1.437051e+002
1.101491e+003, 1.432696e+002
1.101973e+003, 1.426549e+002
1.102455e+003, 1.425737e+002
1.102937e+003, 1.430327e+002
1.103419e+003, 1.434051e+002
1.103901e+003, 1.435294e+002
1.104384e+003, 1.435522e+002
1.104866e+003, 1.435814e+002
1.105348e+003, 1.436006e+002
1.105830e+003, 1.435447e+002
1.106312e+003, 1.433746e+002
1.106794e+003, 1.435556e+002
1.107276e+003, 1.442253e+002
1.107758e+003, 1.446745e+002
1.108240e+003, 1.444236e+002
1.108723e+003, 1.439638e+002
1.109205e+003, 1.442036e+002
1.109687e+003, 1.447913e+002
1.110169e+003, 1.450456e+002
1.110651e+003, 1.445948e+002
1.111133e+003, 1.440886e+002
1.111615e+003, 1.434079e+002
1.112097e+003, 1.429779e+002
1.112579e+003, 1.433469e+002
1.113062e+003, 1.442098e+002
1.113544e+003, 1.444242e+002
1.114026e+003, 1.441041e+002
1.114508e+003, 1.438368e+002
1.114990e+003, 1.439363e+002
1.115472e+003, 1.441064e+002
1.115954e+003, 1.443409e+002
1.116436e+003, 1.445237e+002
1.116919e+003, 1.444256e+002
1.117401e+003, 1.440817e+002
1.117883e+003, 1.440238e+002
1.118365e+003, 1.443002e+002
1.118847e+003, 1.445908e+002
1.119329e+003, 1.447620e+002
1.119811e+003, 1.447833e+002
1.120293e+003, 1.445218e+002
1.120776e+003, 1.440929e+002
1.121258e+003, 1.438831e+002
1.121740e+003, 1.439094e+002
1.122222e+003, 1.439958e+002
1.122704e+003, 1.441304e+002
1.123186e+003, 1.441957e+002
1.123668e+003, 1.439681e+002
1.124150e+003, 1.436715e+002
1.124632e+003, 1.435056e+002
1.125115e+003, 1.434996e+002
1.125597e+003, 1.438167e+002
1.126079e+003, 1.446723e+002
1.126561e+003, 1.450897e+002
1.127043e+003, 1.445191e+002
1.127525e+003, 1.436088e+002
1.128007e+003, 1.432875e+002
1.128489e+003, 1.434361e+002
1.128971e+003, 1.439278e+002
1.129454e+003, 1.450337e+002
1.129936e+003, 1.456403e+002
1.130418e+003, 1.455544e+002
1.130900e+003, 1.451806e+002
1.131382e+003, 1.446407e+002
1.131864e+003, 1.440497e+002
1.132346e+003, 1.438090e+002
1.132828e+003, 1.438183e+002
1.133311e+003, 1.437483e+002
1.133793e+003, 1.432410e+002
1.134275e+003, 1.429230e+002
1.134757e+003, 1.429443e+002
1.135239e+003, 1.431754e+002
1.135721e+003, 1.436260e+002
1.136203e+003, 1.442273e+002
1.136685e+003, 1.443092e+002
1.137167e+003, 1.439118e+002
1.137650e+003, 1.436762e+002
1.138132e+003, 1.443387e+002
1.138614e+003, 1.448724e+002
1.139096e+003, 1.444375e+002
1.139578e+003, 1.437124e+002
1.140060e+003, 1.438990e+002
1.140542e+003, 1.450272e+002
1.141024e+003, 1.457788e+002
1.141506e+003, 1.460184e+002
1.141989e+003, 1.458980e+002
1.142471e+003, 1.451226e+002
1.142953e+003, 1.444049e+002
1.143435e+003, 1.443898e+002
1.143917e+003, 1.449458e+002
1.144399e+003, 1.453353e+002
1.144881e+003, 1.455645e+002
1.145363e+003, 1.455230e+002
1.145846e+003, 1.451309e+002
1.146328e+003, 1.446981e+002
1.146810e+003, 1.445774e+002
1.147292e+003, 1.445919e+002
1.147774e+003, 1.445202e+002
1.148256e+003, 1.443243e+002
1.148738e+003, 1.443778e+002
1.149220e+003, 1.447591e+002
1.149703e+003, 1.451318e+002
1.150185e+003, 1.454213e+002
1.150667e+003, 1.455586e+002
1.151149e+003, 1.452171e+002
1.151631e+003, 1.447404e+002
1.152113e+003, 1.447853e+002
1.152595e+003, 1.458401e+002
1.153077e+003, 1.460327e+002
1.153559e+003, 1.448543e+002
1.154042e+003, 1.437862e+002
1.154524e+003, 1.436834e+002
1.155006e+003, 1.441467e+002
1.155488e+003, 1.443786e+002
1.155970e+003, 1.444435e+002
1.156452e+003, 1.444842e+002
1.156934e+003, 1.445061e+002
1.157416e+003, 1.445988e+002
1.157898e+003, 1.448336e+002
1.158381e+003, 1.450386e+002
1.158863e+003, 1.450418e+002
1.159345e+003, 1.449101e+002
1.159827e+003, 1.448600e+002
1.160309e+003, 1.449081e+002
1.160791e+003, 1.451251e+002
1.161273e+003, 1.456331e+002
1.161755e+003, 1.462124e+002
1.162238e+003, 1.469969e+002
1.162720e+003, 1.476185e+002
1.163202e+003, 1.474982e+002
1.163684e+003, 1.468018e+002
1.164166e+003, 1.467243e+002
1.164648e+003, 1.472421e+002
1.165130e+003, 1.476243e+002
1.165612e+003, 1.474722e+002
1.166094e+003, 1.470584e+002
1.166577e+003, 1.462595e+002
1.167059e+003, 1.454398e+002
1.167541e+003, 1.452814e+002
1.168023e+003, 1.457191e+002
1.168505e+003, 1.458884e+002
1.168987e+003, 1.457007e+002
1.169469e+003, 1.455180e+002
1.169951e+003, 1.456062e+002
1.170433e+003, 1.457645e+002
1.170916e+003, 1.459527e+002
1.171398e+003, 1.460989e+002
1.171880e+003, 1.459008e+002
1.172362e+003, 1.453662e+002
1.172844e+003, 1.453562e+002
1.173326e+003, 1.461071e+002
1.173808e+003, 1.467963e+002
1.174290e+003, 1.465929e+002
1.174773e+003, 1.461687e+002
1.175255e+003, 1.460304e+002
1.175737e+003, 1.461455e+002
1.176219e+003, 1.463639e+002
1.176701e+003, 1.467045e+002
1.177183e+003, 1.467274e+002
1.177665e+003, 1.462076e+002
1.178147e+003, 1.457220e+002
1.178630e+003, 1.458401e+002
1.179112e+003, 1.462506e+002
1.179594e+003, 1.467457e+002
1.180076e+003, 1.473034e+002
1.180558e+003, 1.475902e+002
1.181040e+003, 1.476144e+002
1.181522e+003, 1.472413e+002
1.182004e+003, 1.461604e+002
1.182486e+003, 1.452249e+002
1.182969e+003, 1.455885e+002
1.183451e+003, 1.464988e+002
1.183933e+003, 1.470469e+002
1.184415e+003, 1.470814e+002
1.184897e+003, 1.471455e+002
1.185379e+003, 1.472600e+002
1.185861e+003, 1.472341e+002
1.186343e+003, 1.467242e+002
1.186825e+003, 1.463551e+002
1.187308e+003, 1.473850e+002
1.187790e+003, 1.488662e+002
1.188272e+003, 1.491841e+002
1.188754e+003, 1.475123e+002
1.189236e+003, 1.465672e+002
1.189718e+003, 1.464258e+002
1.190200e+003, 1.466608e+002
1.190682e+003, 1.472921e+002
1.191165e+003, 1.479057e+002
1.191647e+003, 1.478471e+002
1.192129e+003, 1.473927e+002
1.192611e+003, 1.470970e+002
1.193093e+003, 1.471091e+002
1.193575e+003, 1.471919e+002
1.194057e+003, 1.473659e+002
1.194539e+003, 1.475181e+002
1.195021e+003, 1.474617e+002
1.195504e+003, 1.473994e+002
1.195986e+003, 1.477951e+002
1.196468e+003, 1.484147e+002
1.196950e+003, 1.485200e+002
1.197432e+003, 1.474982e+002
1.197914e+003, 1.471192e+002
1.198396e+003, 1.476124e+002
1.198878e+003, 1.483040e+002
1.199360e+003, 1.487006e+002
1.199843e+003, 1.488029e+002
1.200325e+003, 1.484206e+002
1.200807e+003, 1.477101e+002
1.201289e+003, 1.473155e+002
1.201771e+003, 1.475130e+002
1.202253e+003, 1.476328e+002
1.202735e+003, 1.475586e+002
1.203217e+003, 1.475441e+002
1.203700e+003, 1.480341e+002
1.204182e+003, 1.486632e+002
1.204664e+003, 1.488994e+002
1.205146e+003, 1.487482e+002
1.205628e+003, 1.484832e+002
1.206110e+003, 1.479158e+002
1.206592e+003, 1.477905e+002
1.207074e+003, 1.483105e+002
1.207557e+003, 1.490416e+002
1.208039e+003, 1.497235e+002
1.208521e+003, 1.501092e+002
1.209003e+003, 1.495076e+002
1.209485e+003, 1.479767e+002
1.209967e+003, 1.474160e+002
1.210449e+003, 1.485222e+002
1.210931e+003, 1.494274e+002
1.211413e+003, 1.497767e+002
1.211896e+003, 1.497144e+002
1.212378e+003, 1.491568e+002
1.212860e+003, 1.484744e+002
1.213342e+003, 1.482738e+002
1.213824e+003, 1.486220e+002
1.214306e+003, 1.488721e+002
1.214788e+003, 1.488877e+002
1.215270e+003, 1.489948e+002
1.215752e+003, 1.493021e+002
1.216235e+003, 1.496828e+002
1.216717e+003, 1.500246e+002
1.217199e+003, 1.502926e+002
1.217681e+003, 1.504345e+002
1.218163e+003, 1.504399e+002
1.218645e+003, 1.503579e+002
1.219127e+003, 1.502007e+002
1.219609e+003, 1.499330e+002
1.220092e+003, 1.494736e+002
1.220574e+003, 1.490509e+002
1.221056e+003, 1.489540e+002
1.221538e+003, 1.491346e+002
1.222020e+003, 1.496629e+002
1.222502e+003, 1.506417e+002
1.222984e+003, 1.509246e+002
1.223466e+003, 1.502141e+002
1.223948e+003, 1.496787e+002
1.224431e+003, 1.497813e+002
1.224913e+003, 1.501831e+002
1.225395e+003, 1.505295e+002
1.225877e+003, 1.507911e+002
1.226359e+003, 1.508905e+002
1.226841e+003, 1.507472e+002
1.227323e+003, 1.508759e+002
1.227805e+003, 1.513923e+002
1.228287e+003, 1.517033e+002
1.228770e+003, 1.514930e+002
1.229252e+003, 1.510820e+002
1.229734e+003, 1.509290e+002
1.230216e+003, 1.508450e+002
1.230698e+003, 1.504868e+002
1.231180e+003, 1.496484e+002
1.231662e+003, 1.495556e+002
1.232144e+003, 1.503710e+002
1.232627e+003, 1.509620e+002
1.233109e+003, 1.506038e+002
1.233591e+003, 1.501317e+002
1.234073e+003, 1.509599e+002
1.234555e+003, 1.520895e+002
1.235037e+003, 1.519583e+002
1.235519e+003, 1.500900e+002
1.236001e+003, 1.493081e+002
1.236484e+003, 1.497235e+002
1.236966e+003, 1.503184e+002
1.237448e+003, 1.506930e+002
1.237930e+003, 1.508551e+002
1.238412e+003, 1.506377e+002
1.238894e+003, 1.503019e+002
1.239376e+003, 1.502045e+002
1.239858e+003, 1.503636e+002
1.240340e+003, 1.507498e+002
1.240823e+003, 1.513780e+002
1.241305e+003, 1.516789e+002
1.241787e+003, 1.510912e+002
1.242269e+003, 1.504101e+002
1.242751e+003, 1.503086e+002
1.243233e+003, 1.505149e+002
1.243715e+003, 1.507041e+002
1.244197e+003, 1.508683e+002
1.244679e+003, 1.509203e+002
1.245162e+003, 1.508651e+002
1.245644e+003, 1.509170e+002
1.246126e+003, 1.512332e+002
1.246608e+003, 1.516450e+002
1.247090e+003, 1.523223e+002
1.247572e+003, 1.528358e+002
1.248054e+003, 1.526759e+002
1.248536e+003, 1.518143e+002
1.249019e+003, 1.510946e+002
1.249501e+003, 1.505322e+002
1.249983e+003, 1.502523e+002
1.250465e+003, 1.504298e+002
1.250947e+003, 1.507843e+002
1.251429e+003, 1.512597e+002
1.251911e+003, 1.517802e+002
1.252393e+003, 1.523533e+002
1.252875e+003, 1.529521e+002
1.253358e+003, 1.530360e+002
1.253840e+003, 1.526646e+002
1.254322e+003, 1.522623e+002
1.254804e+003, 1.519365e+002
1.255286e+003, 1.517587e+002
1.255768e+003, 1.517056e+002
1.256250e+003, 1.518541e+002
1.256732e+003, 1.524229e+002
1.257214e+003, 1.532904e+002
1.257697e+003, 1.536017e+002
1.258179e+003, 1.534859e+002
1.258661e+003, 1.535351e+002
1.259143e+003, 1.543483e+002
1.259625e+003, 1.548794e+002
1.260107e+003, 1.549097e+002
1.260589e+003, 1.546866e+002
1.261071e+003, 1.542573e+002
1.261554e+003, 1.537737e+002
1.262036e+003, 1.538362e+002
1.262518e+003, 1.542867e+002
1.263000e+003, 1.545807e+002
1.263482e+003, 1.543653e+002
1.263964e+003, 1.541966e+002
1.264446e+003, 1.541250e+002
1.264928e+003, 1.540965e+002
1.265411e+003, 1.540514e+002
1.265893e+003, 1.540252e+002
1.266375e+003, 1.541354e+002
1.266857e+003, 1.543214e+002
1.267339e+003, 1.544167e+002
1.267821e+003, 1.542956e+002
1.268303e+003, 1.542421e+002
1.268785e+003, 1.542748e+002
1.269267e+003, 1.543423e+002
1.269750e+003, 1.544019e+002
1.270232e+003, 1.544764e+002
1.270714e+003, 1.545314e+002
1.271196e+003, 1.546367e+002
1.271678e+003, 1.550008e+002
1.272160e+003, 1.558525e+002
1.272642e+003, 1.562081e+002
1.273124e+003, 1.559950e+002
1.273606e+003, 1.556761e+002
1.274089e+003, 1.556910e+002
1.274571e+003, 1.556440e+002
1.275053e+003, 1.548918e+002
1.275535e+003, 1.539535e+002
1.276017e+003, 1.537676e+002
1.276499e+003, 1.544888e+002
1.276981e+003, 1.549941e+002
1.277463e+003, 1.552634e+002
1.277946e+003, 1.555309e+002
1.278428e+003, 1.561306e+002
1.278910e+003, 1.565738e+002
1.279392e+003, 1.564359e+002
1.279874e+003, 1.560449e+002
1.280356e+003, 1.557549e+002
1.280838e+003, 1.555710e+002
1.281320e+003, 1.554702e+002
1.281802e+003, 1.554558e+002
1.282285e+003, 1.555438e+002
1.282767e+003, 1.559453e+002
1.283249e+003, 1.561829e+002
1.283731e+003, 1.559623e+002
1.284213e+003, 1.556392e+002
1.284695e+003, 1.554674e+002
1.285177e+003, 1.554539e+002
1.285659e+003, 1.557806e+002
1.286141e+003, 1.563288e+002
1.286624e+003, 1.566137e+002
1.287106e+003, 1.560205e+002
1.287588e+003, 1.557795e+002
1.288070e+003, 1.561492e+002
1.288552e+003, 1.566587e+002
1.289034e+003, 1.569171e+002
1.289516e+003, 1.570335e+002
1.289998e+003, 1.572752e+002
1.290481e+003, 1.575800e+002
1.290963e+003, 1.577835e+002
1.291445e+003, 1.576765e+002
1.291927e+003, 1.578066e+002
1.292409e+003, 1.582651e+002
1.292891e+003, 1.586106e+002
1.293373e+003, 1.583593e+002
1.293855e+003, 1.579533e+002
1.294338e+003, 1.580540e+002
1.294820e+003, 1.583811e+002
1.295302e+003, 1.583617e+002
1.295784e+003, 1.578252e+002
1.296266e+003, 1.574804e+002
1.296748e+003, 1.573224e+002
1.297230e+003, 1.574483e+002
1.297712e+003, 1.582701e+002
1.298194e+003, 1.589837e+002
1.298677e+003, 1.587942e+002
1.299159e+003, 1.582132e+002
1.299641e+003, 1.578635e+002
1.300123e+003, 1.577458e+002
1.300605e+003, 1.576479e+002
1.301087e+003, 1.575925e+002
1.301569e+003, 1.578149e+002
1.302051e+003, 1.587549e+002
1.302533e+003, 1.594386e+002
1.303016e+003, 1.595253e+002
##END=



