##NAMES=Ferrobobfergusonite
##RRUFFID=R140993
##IDEAL CHEMISTRY=Na_2_Fe^2+^_5_Fe^3+^Al(PO_4_)_6_
##LOCALITY=Victory mine, Custer, Custer District, Custer County, South Dakota, USA
##OWNER=RRUFF
##SOURCE=Rock Currier
##DESCRIPTION=Dark green aggregates of blocky crystals, associated with quartz and muscovite. Four different dark green minerals are found: schorl, fillowite, ferrobobfergusonite, and ferrowyllieite. Light green crystals are arrojadite. This is the type sample
##STATUS=The identification of this mineral is confirmed by single-crystal X-ray diffraction and chemical analysis.
##URL=rruff.info/R140993
##MEASURED CHEMISTRY=(Na_1.73_Ca_0.13_)(Fe^2+^_3.51_Mn_0.89_Mg_0.43_)(Fe^3+^_0.77_Al_0.23_)Al(P_1.01_O_4_)_6_
8.806445e+001, 6.897833e+002
8.854657e+001, 6.810739e+002
8.902869e+001, 6.780810e+002
8.951080e+001, 6.839584e+002
8.999292e+001, 6.941331e+002
9.047504e+001, 7.041750e+002
9.095715e+001, 7.130198e+002
9.143927e+001, 7.214357e+002
9.192139e+001, 7.305858e+002
9.240350e+001, 7.403926e+002
9.288562e+001, 7.503348e+002
9.336774e+001, 7.554315e+002
9.384985e+001, 7.508547e+002
9.433197e+001, 7.365566e+002
9.481409e+001, 7.224119e+002
9.529620e+001, 7.070859e+002
9.577832e+001, 6.936454e+002
9.626044e+001, 6.825489e+002
9.674255e+001, 6.731324e+002
9.722467e+001, 6.645052e+002
9.770679e+001, 6.564432e+002
9.818890e+001, 6.492408e+002
9.867102e+001, 6.432032e+002
9.915314e+001, 6.375534e+002
9.963525e+001, 6.315198e+002
1.001174e+002, 6.247037e+002
1.005995e+002, 6.174057e+002
1.010816e+002, 6.107485e+002
1.015637e+002, 6.042468e+002
1.020458e+002, 5.988330e+002
1.025280e+002, 5.949048e+002
1.030101e+002, 5.919429e+002
1.034922e+002, 5.890781e+002
1.039743e+002, 5.856388e+002
1.044564e+002, 5.816017e+002
1.049385e+002, 5.790566e+002
1.054207e+002, 5.791981e+002
1.059028e+002, 5.793515e+002
1.063849e+002, 5.782034e+002
1.068670e+002, 5.756748e+002
1.073491e+002, 5.722613e+002
1.078312e+002, 5.680135e+002
1.083134e+002, 5.630110e+002
1.087955e+002, 5.588603e+002
1.092776e+002, 5.559285e+002
1.097597e+002, 5.538981e+002
1.102418e+002, 5.525227e+002
1.107239e+002, 5.520779e+002
1.112061e+002, 5.515459e+002
1.116882e+002, 5.498176e+002
1.121703e+002, 5.471375e+002
1.126524e+002, 5.445783e+002
1.131345e+002, 5.429012e+002
1.136166e+002, 5.420408e+002
1.140988e+002, 5.409581e+002
1.145809e+002, 5.393678e+002
1.150630e+002, 5.376267e+002
1.155451e+002, 5.358625e+002
1.160272e+002, 5.341004e+002
1.165093e+002, 5.324166e+002
1.169915e+002, 5.309471e+002
1.174736e+002, 5.298499e+002
1.179557e+002, 5.285290e+002
1.184378e+002, 5.267422e+002
1.189199e+002, 5.248757e+002
1.194020e+002, 5.231101e+002
1.198842e+002, 5.215238e+002
1.203663e+002, 5.201831e+002
1.208484e+002, 5.192384e+002
1.213305e+002, 5.191159e+002
1.218126e+002, 5.189468e+002
1.222947e+002, 5.191044e+002
1.227769e+002, 5.191087e+002
1.232590e+002, 5.182385e+002
1.237411e+002, 5.160372e+002
1.242232e+002, 5.128505e+002
1.247053e+002, 5.102287e+002
1.251874e+002, 5.082006e+002
1.256696e+002, 5.065373e+002
1.261517e+002, 5.052124e+002
1.266338e+002, 5.042046e+002
1.271159e+002, 5.034171e+002
1.275980e+002, 5.029402e+002
1.280801e+002, 5.026129e+002
1.285623e+002, 5.019258e+002
1.290444e+002, 5.006103e+002
1.295265e+002, 4.991072e+002
1.300086e+002, 4.979123e+002
1.304907e+002, 4.971205e+002
1.309728e+002, 4.961759e+002
1.314550e+002, 4.944626e+002
1.319371e+002, 4.924054e+002
1.324192e+002, 4.905957e+002
1.329013e+002, 4.893855e+002
1.333834e+002, 4.885709e+002
1.338655e+002, 4.875426e+002
1.343477e+002, 4.861874e+002
1.348298e+002, 4.847629e+002
1.353119e+002, 4.833955e+002
1.357940e+002, 4.820565e+002
1.362761e+002, 4.806799e+002
1.367582e+002, 4.791563e+002
1.372404e+002, 4.774822e+002
1.377225e+002, 4.761459e+002
1.382046e+002, 4.757301e+002
1.386867e+002, 4.751647e+002
1.391688e+002, 4.741626e+002
1.396509e+002, 4.727013e+002
1.401331e+002, 4.708658e+002
1.406152e+002, 4.686673e+002
1.410973e+002, 4.659350e+002
1.415794e+002, 4.635238e+002
1.420615e+002, 4.614398e+002
1.425436e+002, 4.595907e+002
1.430258e+002, 4.579579e+002
1.435079e+002, 4.565240e+002
1.439900e+002, 4.552006e+002
1.444721e+002, 4.538641e+002
1.449542e+002, 4.524576e+002
1.454363e+002, 4.512058e+002
1.459185e+002, 4.502209e+002
1.464006e+002, 4.493456e+002
1.468827e+002, 4.484310e+002
1.473648e+002, 4.474476e+002
1.478469e+002, 4.463438e+002
1.483290e+002, 4.449651e+002
1.488112e+002, 4.432988e+002
1.492933e+002, 4.416289e+002
1.497754e+002, 4.399833e+002
1.502575e+002, 4.384026e+002
1.507396e+002, 4.370518e+002
1.512217e+002, 4.362235e+002
1.517039e+002, 4.353492e+002
1.521860e+002, 4.336185e+002
1.526681e+002, 4.308943e+002
1.531502e+002, 4.283529e+002
1.536323e+002, 4.271961e+002
1.541144e+002, 4.274936e+002
1.545966e+002, 4.272549e+002
1.550787e+002, 4.253933e+002
1.555608e+002, 4.230827e+002
1.560429e+002, 4.210699e+002
1.565250e+002, 4.194984e+002
1.570071e+002, 4.181708e+002
1.574893e+002, 4.167997e+002
1.579714e+002, 4.153116e+002
1.584535e+002, 4.139896e+002
1.589356e+002, 4.130464e+002
1.594177e+002, 4.121727e+002
1.598998e+002, 4.111435e+002
1.603820e+002, 4.098771e+002
1.608641e+002, 4.084255e+002
1.613462e+002, 4.068958e+002
1.618283e+002, 4.050584e+002
1.623104e+002, 4.034858e+002
1.627925e+002, 4.024968e+002
1.632747e+002, 4.016870e+002
1.637568e+002, 4.005747e+002
1.642389e+002, 3.989209e+002
1.647210e+002, 3.968836e+002
1.652031e+002, 3.951329e+002
1.656852e+002, 3.937267e+002
1.661674e+002, 3.925399e+002
1.666495e+002, 3.918311e+002
1.671316e+002, 3.913124e+002
1.676137e+002, 3.904525e+002
1.680958e+002, 3.888794e+002
1.685779e+002, 3.867613e+002
1.690601e+002, 3.851547e+002
1.695422e+002, 3.843513e+002
1.700243e+002, 3.836405e+002
1.705064e+002, 3.827953e+002
1.709885e+002, 3.818164e+002
1.714706e+002, 3.806873e+002
1.719528e+002, 3.792667e+002
1.724349e+002, 3.777287e+002
1.729170e+002, 3.767101e+002
1.733991e+002, 3.767521e+002
1.738812e+002, 3.768736e+002
1.743633e+002, 3.762713e+002
1.748455e+002, 3.749287e+002
1.753276e+002, 3.734458e+002
1.758097e+002, 3.721152e+002
1.762918e+002, 3.709042e+002
1.767739e+002, 3.697734e+002
1.772560e+002, 3.688377e+002
1.777382e+002, 3.678974e+002
1.782203e+002, 3.665741e+002
1.787024e+002, 3.646953e+002
1.791845e+002, 3.630298e+002
1.796666e+002, 3.621475e+002
1.801487e+002, 3.616813e+002
1.806309e+002, 3.612076e+002
1.811130e+002, 3.605703e+002
1.815951e+002, 3.597948e+002
1.820772e+002, 3.589354e+002
1.825593e+002, 3.579750e+002
1.830414e+002, 3.569496e+002
1.835236e+002, 3.557499e+002
1.840057e+002, 3.545259e+002
1.844878e+002, 3.535149e+002
1.849699e+002, 3.529078e+002
1.854520e+002, 3.526153e+002
1.859341e+002, 3.520618e+002
1.864163e+002, 3.509829e+002
1.868984e+002, 3.499139e+002
1.873805e+002, 3.489710e+002
1.878626e+002, 3.481200e+002
1.883447e+002, 3.472942e+002
1.888268e+002, 3.464433e+002
1.893090e+002, 3.455720e+002
1.897911e+002, 3.447007e+002
1.902732e+002, 3.440031e+002
1.907553e+002, 3.431340e+002
1.912374e+002, 3.417164e+002
1.917195e+002, 3.400248e+002
1.922017e+002, 3.386639e+002
1.926838e+002, 3.381356e+002
1.931659e+002, 3.384800e+002
1.936480e+002, 3.386037e+002
1.941301e+002, 3.385320e+002
1.946122e+002, 3.382804e+002
1.950944e+002, 3.377918e+002
1.955765e+002, 3.371102e+002
1.960586e+002, 3.363658e+002
1.965407e+002, 3.356700e+002
1.970228e+002, 3.350203e+002
1.975049e+002, 3.342682e+002
1.979871e+002, 3.331599e+002
1.984692e+002, 3.321568e+002
1.989513e+002, 3.316178e+002
1.994334e+002, 3.315234e+002
1.999155e+002, 3.315129e+002
2.003976e+002, 3.313056e+002
2.008798e+002, 3.309086e+002
2.013619e+002, 3.305596e+002
2.018440e+002, 3.302110e+002
2.023261e+002, 3.299496e+002
2.028082e+002, 3.300135e+002
2.032903e+002, 3.304381e+002
2.037725e+002, 3.306093e+002
2.042546e+002, 3.297853e+002
2.047367e+002, 3.283042e+002
2.052188e+002, 3.271347e+002
2.057009e+002, 3.267508e+002
2.061830e+002, 3.266465e+002
2.066652e+002, 3.260776e+002
2.071473e+002, 3.249055e+002
2.076294e+002, 3.237867e+002
2.081115e+002, 3.231359e+002
2.085936e+002, 3.228352e+002
2.090757e+002, 3.227931e+002
2.095579e+002, 3.232836e+002
2.100400e+002, 3.238934e+002
2.105221e+002, 3.236543e+002
2.110042e+002, 3.221334e+002
2.114863e+002, 3.207401e+002
2.119685e+002, 3.202609e+002
2.124506e+002, 3.203213e+002
2.129327e+002, 3.204210e+002
2.134148e+002, 3.203495e+002
2.138969e+002, 3.201381e+002
2.143790e+002, 3.198981e+002
2.148612e+002, 3.197032e+002
2.153433e+002, 3.193352e+002
2.158254e+002, 3.186301e+002
2.163075e+002, 3.177597e+002
2.167896e+002, 3.169362e+002
2.172717e+002, 3.162603e+002
2.177539e+002, 3.157388e+002
2.182360e+002, 3.154403e+002
2.187181e+002, 3.156499e+002
2.192002e+002, 3.157086e+002
2.196823e+002, 3.155132e+002
2.201644e+002, 3.150716e+002
2.206466e+002, 3.143354e+002
2.211287e+002, 3.132289e+002
2.216108e+002, 3.118770e+002
2.220929e+002, 3.110154e+002
2.225750e+002, 3.112736e+002
2.230571e+002, 3.113603e+002
2.235393e+002, 3.110045e+002
2.240214e+002, 3.103578e+002
2.245035e+002, 3.096139e+002
2.249856e+002, 3.088754e+002
2.254677e+002, 3.081745e+002
2.259498e+002, 3.077324e+002
2.264320e+002, 3.077764e+002
2.269141e+002, 3.078431e+002
2.273962e+002, 3.079993e+002
2.278783e+002, 3.081094e+002
2.283604e+002, 3.079458e+002
2.288425e+002, 3.073562e+002
2.293247e+002, 3.064330e+002
2.298068e+002, 3.057044e+002
2.302889e+002, 3.053930e+002
2.307710e+002, 3.050075e+002
2.312531e+002, 3.043149e+002
2.317352e+002, 3.034913e+002
2.322174e+002, 3.028546e+002
2.326995e+002, 3.025847e+002
2.331816e+002, 3.026068e+002
2.336637e+002, 3.026048e+002
2.341458e+002, 3.026836e+002
2.346279e+002, 3.026258e+002
2.351101e+002, 3.023054e+002
2.355922e+002, 3.018112e+002
2.360743e+002, 3.013234e+002
2.365564e+002, 3.009400e+002
2.370385e+002, 3.006055e+002
2.375206e+002, 3.001426e+002
2.380028e+002, 2.994785e+002
2.384849e+002, 2.988307e+002
2.389670e+002, 2.982203e+002
2.394491e+002, 2.976823e+002
2.399312e+002, 2.973368e+002
2.404133e+002, 2.973156e+002
2.408955e+002, 2.974013e+002
2.413776e+002, 2.970781e+002
2.418597e+002, 2.962137e+002
2.423418e+002, 2.953625e+002
2.428239e+002, 2.948208e+002
2.433060e+002, 2.944817e+002
2.437882e+002, 2.940390e+002
2.442703e+002, 2.933697e+002
2.447524e+002, 2.925728e+002
2.452345e+002, 2.917539e+002
2.457166e+002, 2.908528e+002
2.461987e+002, 2.901943e+002
2.466809e+002, 2.901689e+002
2.471630e+002, 2.905583e+002
2.476451e+002, 2.906003e+002
2.481272e+002, 2.899662e+002
2.486093e+002, 2.890678e+002
2.490914e+002, 2.884951e+002
2.495736e+002, 2.882690e+002
2.500557e+002, 2.878166e+002
2.505378e+002, 2.865409e+002
2.510199e+002, 2.847014e+002
2.515020e+002, 2.834075e+002
2.519841e+002, 2.831069e+002
2.524663e+002, 2.830877e+002
2.529484e+002, 2.826689e+002
2.534305e+002, 2.818939e+002
2.539126e+002, 2.811188e+002
2.543947e+002, 2.805378e+002
2.548768e+002, 2.801274e+002
2.553590e+002, 2.798131e+002
2.558411e+002, 2.796855e+002
2.563232e+002, 2.795099e+002
2.568053e+002, 2.791324e+002
2.572874e+002, 2.785819e+002
2.577695e+002, 2.779601e+002
2.582516e+002, 2.772884e+002
2.587338e+002, 2.765811e+002
2.592159e+002, 2.759452e+002
2.596980e+002, 2.754241e+002
2.601801e+002, 2.749168e+002
2.606622e+002, 2.743952e+002
2.611443e+002, 2.738466e+002
2.616265e+002, 2.732358e+002
2.621086e+002, 2.724857e+002
2.625907e+002, 2.716507e+002
2.630728e+002, 2.710392e+002
2.635549e+002, 2.709108e+002
2.640370e+002, 2.705919e+002
2.645192e+002, 2.696025e+002
2.650013e+002, 2.682980e+002
2.654834e+002, 2.672701e+002
2.659655e+002, 2.668961e+002
2.664476e+002, 2.669893e+002
2.669297e+002, 2.668949e+002
2.674119e+002, 2.665954e+002
2.678940e+002, 2.661085e+002
2.683761e+002, 2.653258e+002
2.688582e+002, 2.644325e+002
2.693403e+002, 2.636659e+002
2.698224e+002, 2.631617e+002
2.703046e+002, 2.628119e+002
2.707867e+002, 2.623138e+002
2.712688e+002, 2.615866e+002
2.717509e+002, 2.608497e+002
2.722330e+002, 2.601473e+002
2.727151e+002, 2.594611e+002
2.731973e+002, 2.586946e+002
2.736794e+002, 2.577992e+002
2.741615e+002, 2.569850e+002
2.746436e+002, 2.567508e+002
2.751257e+002, 2.575118e+002
2.756078e+002, 2.580469e+002
2.760900e+002, 2.582031e+002
2.765721e+002, 2.581115e+002
2.770542e+002, 2.578326e+002
2.775363e+002, 2.573961e+002
2.780184e+002, 2.568695e+002
2.785005e+002, 2.563401e+002
2.789827e+002, 2.557143e+002
2.794648e+002, 2.553122e+002
2.799469e+002, 2.554624e+002
2.804290e+002, 2.555845e+002
2.809111e+002, 2.551753e+002
2.813932e+002, 2.542066e+002
2.818754e+002, 2.531416e+002
2.823575e+002, 2.526262e+002
2.828396e+002, 2.529337e+002
2.833217e+002, 2.530105e+002
2.838038e+002, 2.528325e+002
2.842859e+002, 2.524826e+002
2.847681e+002, 2.519146e+002
2.852502e+002, 2.511836e+002
2.857323e+002, 2.504603e+002
2.862144e+002, 2.499304e+002
2.866965e+002, 2.496360e+002
2.871786e+002, 2.492913e+002
2.876608e+002, 2.487731e+002
2.881429e+002, 2.483214e+002
2.886250e+002, 2.481054e+002
2.891071e+002, 2.480549e+002
2.895892e+002, 2.479448e+002
2.900714e+002, 2.475612e+002
2.905535e+002, 2.468976e+002
2.910356e+002, 2.465293e+002
2.915177e+002, 2.469513e+002
2.919998e+002, 2.471518e+002
2.924819e+002, 2.467054e+002
2.929641e+002, 2.458413e+002
2.934462e+002, 2.449989e+002
2.939283e+002, 2.444485e+002
2.944104e+002, 2.441655e+002
2.948925e+002, 2.439574e+002
2.953746e+002, 2.440247e+002
2.958568e+002, 2.439411e+002
2.963389e+002, 2.434585e+002
2.968210e+002, 2.428362e+002
2.973031e+002, 2.424740e+002
2.977852e+002, 2.425691e+002
2.982673e+002, 2.429229e+002
2.987495e+002, 2.429439e+002
2.992316e+002, 2.422296e+002
2.997137e+002, 2.416606e+002
3.001958e+002, 2.412988e+002
3.006779e+002, 2.410801e+002
3.011600e+002, 2.409809e+002
3.016422e+002, 2.409820e+002
3.021243e+002, 2.410009e+002
3.026064e+002, 2.408924e+002
3.030885e+002, 2.406382e+002
3.035706e+002, 2.402633e+002
3.040527e+002, 2.395950e+002
3.045349e+002, 2.389324e+002
3.050170e+002, 2.385455e+002
3.054991e+002, 2.384581e+002
3.059812e+002, 2.384620e+002
3.064633e+002, 2.383082e+002
3.069454e+002, 2.379703e+002
3.074276e+002, 2.375500e+002
3.079097e+002, 2.369073e+002
3.083918e+002, 2.363204e+002
3.088739e+002, 2.359808e+002
3.093560e+002, 2.358592e+002
3.098381e+002, 2.357802e+002
3.103203e+002, 2.355830e+002
3.108024e+002, 2.352563e+002
3.112845e+002, 2.350223e+002
3.117666e+002, 2.350914e+002
3.122487e+002, 2.350274e+002
3.127308e+002, 2.345509e+002
3.132130e+002, 2.338187e+002
3.136951e+002, 2.331981e+002
3.141772e+002, 2.329417e+002
3.146593e+002, 2.329729e+002
3.151414e+002, 2.327701e+002
3.156235e+002, 2.318129e+002
3.161057e+002, 2.312195e+002
3.165878e+002, 2.314213e+002
3.170699e+002, 2.320230e+002
3.175520e+002, 2.325391e+002
3.180341e+002, 2.327520e+002
3.185162e+002, 2.326817e+002
3.189984e+002, 2.323719e+002
3.194805e+002, 2.315676e+002
3.199626e+002, 2.308412e+002
3.204447e+002, 2.301738e+002
3.209268e+002, 2.296013e+002
3.214089e+002, 2.291650e+002
3.218911e+002, 2.288726e+002
3.223732e+002, 2.286934e+002
3.228553e+002, 2.285886e+002
3.233374e+002, 2.286050e+002
3.238195e+002, 2.285872e+002
3.243016e+002, 2.284814e+002
3.247838e+002, 2.283886e+002
3.252659e+002, 2.284674e+002
3.257480e+002, 2.286651e+002
3.262301e+002, 2.287107e+002
3.267122e+002, 2.283000e+002
3.271943e+002, 2.273497e+002
3.276765e+002, 2.266468e+002
3.281586e+002, 2.261828e+002
3.286407e+002, 2.259341e+002
3.291228e+002, 2.260897e+002
3.296049e+002, 2.264578e+002
3.300870e+002, 2.266210e+002
3.305692e+002, 2.262705e+002
3.310513e+002, 2.254959e+002
3.315334e+002, 2.250001e+002
3.320155e+002, 2.250938e+002
3.324976e+002, 2.251282e+002
3.329797e+002, 2.249466e+002
3.334619e+002, 2.246764e+002
3.339440e+002, 2.245099e+002
3.344261e+002, 2.245339e+002
3.349082e+002, 2.246430e+002
3.353904e+002, 2.245770e+002
3.358725e+002, 2.241905e+002
3.363546e+002, 2.238528e+002
3.368367e+002, 2.235641e+002
3.373188e+002, 2.233346e+002
3.378009e+002, 2.232346e+002
3.382831e+002, 2.232504e+002
3.387652e+002, 2.232250e+002
3.392473e+002, 2.229172e+002
3.397294e+002, 2.221686e+002
3.402115e+002, 2.216319e+002
3.406936e+002, 2.213802e+002
3.411758e+002, 2.212409e+002
3.416579e+002, 2.211660e+002
3.421400e+002, 2.211318e+002
3.426221e+002, 2.211208e+002
3.431042e+002, 2.211336e+002
3.435863e+002, 2.211693e+002
3.440685e+002, 2.210709e+002
3.445506e+002, 2.206116e+002
3.450327e+002, 2.202427e+002
3.455148e+002, 2.200862e+002
3.459969e+002, 2.200820e+002
3.464790e+002, 2.201407e+002
3.469612e+002, 2.202201e+002
3.474433e+002, 2.203028e+002
3.479254e+002, 2.203448e+002
3.484075e+002, 2.204149e+002
3.488896e+002, 2.203121e+002
3.493717e+002, 2.198609e+002
3.498539e+002, 2.193324e+002
3.503360e+002, 2.189663e+002
3.508181e+002, 2.188353e+002
3.513002e+002, 2.188270e+002
3.517823e+002, 2.187597e+002
3.522644e+002, 2.185703e+002
3.527466e+002, 2.185341e+002
3.532287e+002, 2.189857e+002
3.537108e+002, 2.193310e+002
3.541929e+002, 2.191680e+002
3.546750e+002, 2.185581e+002
3.551571e+002, 2.178983e+002
3.556393e+002, 2.175356e+002
3.561214e+002, 2.174671e+002
3.566035e+002, 2.174226e+002
3.570856e+002, 2.174729e+002
3.575677e+002, 2.174597e+002
3.580498e+002, 2.173093e+002
3.585320e+002, 2.170643e+002
3.590141e+002, 2.167859e+002
3.594962e+002, 2.164873e+002
3.599783e+002, 2.162066e+002
3.604604e+002, 2.160732e+002
3.609425e+002, 2.161751e+002
3.614247e+002, 2.162153e+002
3.619068e+002, 2.160843e+002
3.623889e+002, 2.158684e+002
3.628710e+002, 2.156320e+002
3.633531e+002, 2.153912e+002
3.638352e+002, 2.151494e+002
3.643174e+002, 2.148733e+002
3.647995e+002, 2.145444e+002
3.652816e+002, 2.143699e+002
3.657637e+002, 2.145202e+002
3.662458e+002, 2.147215e+002
3.667279e+002, 2.148480e+002
3.672101e+002, 2.148801e+002
3.676922e+002, 2.147760e+002
3.681743e+002, 2.144208e+002
3.686564e+002, 2.138828e+002
3.691385e+002, 2.134907e+002
3.696206e+002, 2.133101e+002
3.701028e+002, 2.131675e+002
3.705849e+002, 2.129422e+002
3.710670e+002, 2.126818e+002
3.715491e+002, 2.124763e+002
3.720312e+002, 2.123744e+002
3.725133e+002, 2.123232e+002
3.729955e+002, 2.122807e+002
3.734776e+002, 2.122592e+002
3.739597e+002, 2.121165e+002
3.744418e+002, 2.116589e+002
3.749239e+002, 2.111234e+002
3.754060e+002, 2.108419e+002
3.758882e+002, 2.109015e+002
3.763703e+002, 2.109560e+002
3.768524e+002, 2.107232e+002
3.773345e+002, 2.102724e+002
3.778166e+002, 2.099178e+002
3.782987e+002, 2.098034e+002
3.787809e+002, 2.096656e+002
3.792630e+002, 2.090442e+002
3.797451e+002, 2.080159e+002
3.802272e+002, 2.073622e+002
3.807093e+002, 2.076580e+002
3.811914e+002, 2.083235e+002
3.816736e+002, 2.085863e+002
3.821557e+002, 2.083766e+002
3.826378e+002, 2.080376e+002
3.831199e+002, 2.077812e+002
3.836020e+002, 2.075945e+002
3.840841e+002, 2.073985e+002
3.845663e+002, 2.072033e+002
3.850484e+002, 2.069858e+002
3.855305e+002, 2.066739e+002
3.860126e+002, 2.063183e+002
3.864947e+002, 2.060997e+002
3.869768e+002, 2.061218e+002
3.874590e+002, 2.062605e+002
3.879411e+002, 2.062575e+002
3.884232e+002, 2.061090e+002
3.889053e+002, 2.058755e+002
3.893874e+002, 2.054541e+002
3.898695e+002, 2.050083e+002
3.903517e+002, 2.047503e+002
3.908338e+002, 2.047128e+002
3.913159e+002, 2.047373e+002
3.917980e+002, 2.046514e+002
3.922801e+002, 2.044314e+002
3.927622e+002, 2.043375e+002
3.932444e+002, 2.045197e+002
3.937265e+002, 2.046746e+002
3.942086e+002, 2.046965e+002
3.946907e+002, 2.045667e+002
3.951728e+002, 2.042357e+002
3.956549e+002, 2.036544e+002
3.961371e+002, 2.029082e+002
3.966192e+002, 2.023600e+002
3.971013e+002, 2.020677e+002
3.975834e+002, 2.019134e+002
3.980655e+002, 2.020722e+002
3.985476e+002, 2.022744e+002
3.990298e+002, 2.021885e+002
3.995119e+002, 2.017528e+002
3.999940e+002, 2.012448e+002
4.004761e+002, 2.010406e+002
4.009582e+002, 2.012181e+002
4.014403e+002, 2.014387e+002
4.019225e+002, 2.020002e+002
4.024046e+002, 2.023227e+002
4.028867e+002, 2.019396e+002
4.033688e+002, 2.010792e+002
4.038509e+002, 2.003279e+002
4.043330e+002, 2.000990e+002
4.048152e+002, 2.003013e+002
4.052973e+002, 2.004178e+002
4.057794e+002, 2.004266e+002
4.062615e+002, 2.003715e+002
4.067436e+002, 2.002072e+002
4.072257e+002, 2.000169e+002
4.077079e+002, 1.999411e+002
4.081900e+002, 2.000135e+002
4.086721e+002, 2.000212e+002
4.091542e+002, 1.995815e+002
4.096363e+002, 1.985622e+002
4.101184e+002, 1.978245e+002
4.106006e+002, 1.976265e+002
4.110827e+002, 1.975909e+002
4.115648e+002, 1.975470e+002
4.120469e+002, 1.975018e+002
4.125290e+002, 1.975300e+002
4.130111e+002, 1.977405e+002
4.134933e+002, 1.980518e+002
4.139754e+002, 1.981032e+002
4.144575e+002, 1.976648e+002
4.149396e+002, 1.975845e+002
4.154217e+002, 1.988695e+002
4.159038e+002, 2.005172e+002
4.163860e+002, 2.012746e+002
4.168681e+002, 2.006846e+002
4.173502e+002, 1.997566e+002
4.178323e+002, 1.995199e+002
4.183144e+002, 1.998723e+002
4.187965e+002, 1.999201e+002
4.192787e+002, 1.993145e+002
4.197608e+002, 1.985119e+002
4.202429e+002, 1.980084e+002
4.207250e+002, 1.977795e+002
4.212071e+002, 1.975900e+002
4.216892e+002, 1.972664e+002
4.221714e+002, 1.969771e+002
4.226535e+002, 1.970292e+002
4.231356e+002, 1.974456e+002
4.236177e+002, 1.978013e+002
4.240998e+002, 1.977360e+002
4.245819e+002, 1.973938e+002
4.250641e+002, 1.974150e+002
4.255462e+002, 1.982978e+002
4.260283e+002, 1.989168e+002
4.265104e+002, 1.985849e+002
4.269925e+002, 1.976795e+002
4.274746e+002, 1.969211e+002
4.279568e+002, 1.965498e+002
4.284389e+002, 1.963797e+002
4.289210e+002, 1.961347e+002
4.294031e+002, 1.957789e+002
4.298852e+002, 1.954435e+002
4.303673e+002, 1.951643e+002
4.308495e+002, 1.948755e+002
4.313316e+002, 1.944531e+002
4.318137e+002, 1.939550e+002
4.322958e+002, 1.936214e+002
4.327779e+002, 1.936536e+002
4.332600e+002, 1.939852e+002
4.337422e+002, 1.940775e+002
4.342243e+002, 1.936515e+002
4.347064e+002, 1.933090e+002
4.351885e+002, 1.931068e+002
4.356706e+002, 1.930304e+002
4.361527e+002, 1.931171e+002
4.366349e+002, 1.933572e+002
4.371170e+002, 1.936028e+002
4.375991e+002, 1.936177e+002
4.380812e+002, 1.933080e+002
4.385633e+002, 1.931113e+002
4.390454e+002, 1.931109e+002
4.395276e+002, 1.931487e+002
4.400097e+002, 1.932498e+002
4.404918e+002, 1.933397e+002
4.409739e+002, 1.932558e+002
4.414560e+002, 1.928487e+002
4.419381e+002, 1.922627e+002
4.424203e+002, 1.919217e+002
4.429024e+002, 1.918976e+002
4.433845e+002, 1.919355e+002
4.438666e+002, 1.918076e+002
4.443487e+002, 1.918016e+002
4.448308e+002, 1.923446e+002
4.453130e+002, 1.935030e+002
4.457951e+002, 1.944559e+002
4.462772e+002, 1.942696e+002
4.467593e+002, 1.932027e+002
4.472414e+002, 1.926663e+002
4.477235e+002, 1.930356e+002
4.482057e+002, 1.934905e+002
4.486878e+002, 1.933622e+002
4.491699e+002, 1.928395e+002
4.496520e+002, 1.923269e+002
4.501341e+002, 1.917958e+002
4.506162e+002, 1.914314e+002
4.510984e+002, 1.915395e+002
4.515805e+002, 1.920350e+002
4.520626e+002, 1.923745e+002
4.525447e+002, 1.923093e+002
4.530268e+002, 1.920154e+002
4.535089e+002, 1.918177e+002
4.539911e+002, 1.917329e+002
4.544732e+002, 1.916304e+002
4.549553e+002, 1.913856e+002
4.554374e+002, 1.911634e+002
4.559195e+002, 1.912116e+002
4.564016e+002, 1.915200e+002
4.568838e+002, 1.917659e+002
4.573659e+002, 1.916616e+002
4.578480e+002, 1.912359e+002
4.583301e+002, 1.910345e+002
4.588122e+002, 1.913126e+002
4.592943e+002, 1.914740e+002
4.597765e+002, 1.912385e+002
4.602586e+002, 1.908520e+002
4.607407e+002, 1.906563e+002
4.612228e+002, 1.907613e+002
4.617049e+002, 1.910034e+002
4.621870e+002, 1.911508e+002
4.626692e+002, 1.911966e+002
4.631513e+002, 1.911657e+002
4.636334e+002, 1.909591e+002
4.641155e+002, 1.907799e+002
4.645976e+002, 1.907439e+002
4.650797e+002, 1.908048e+002
4.655619e+002, 1.908394e+002
4.660440e+002, 1.907655e+002
4.665261e+002, 1.906363e+002
4.670082e+002, 1.906072e+002
4.674903e+002, 1.907171e+002
4.679724e+002, 1.908208e+002
4.684546e+002, 1.909658e+002
4.689367e+002, 1.910337e+002
4.694188e+002, 1.908462e+002
4.699009e+002, 1.904118e+002
4.703830e+002, 1.900711e+002
4.708651e+002, 1.901908e+002
4.713473e+002, 1.906239e+002
4.718294e+002, 1.908313e+002
4.723115e+002, 1.907476e+002
4.727936e+002, 1.905430e+002
4.732757e+002, 1.902348e+002
4.737578e+002, 1.898968e+002
4.742400e+002, 1.896891e+002
4.747221e+002, 1.897349e+002
4.752042e+002, 1.897513e+002
4.756863e+002, 1.894534e+002
4.761684e+002, 1.889662e+002
4.766505e+002, 1.886812e+002
4.771327e+002, 1.887365e+002
4.776148e+002, 1.889093e+002
4.780969e+002, 1.889333e+002
4.785790e+002, 1.887924e+002
4.790611e+002, 1.885930e+002
4.795432e+002, 1.883155e+002
4.800254e+002, 1.880055e+002
4.805075e+002, 1.876987e+002
4.809896e+002, 1.873849e+002
4.814717e+002, 1.870027e+002
4.819538e+002, 1.865032e+002
4.824359e+002, 1.859773e+002
4.829181e+002, 1.856943e+002
4.834002e+002, 1.859886e+002
4.838823e+002, 1.860347e+002
4.843644e+002, 1.855861e+002
4.848465e+002, 1.850771e+002
4.853286e+002, 1.848427e+002
4.858108e+002, 1.848802e+002
4.862929e+002, 1.849682e+002
4.867750e+002, 1.849324e+002
4.872571e+002, 1.847771e+002
4.877392e+002, 1.845147e+002
4.882213e+002, 1.839485e+002
4.887035e+002, 1.836079e+002
4.891856e+002, 1.838688e+002
4.896677e+002, 1.842693e+002
4.901498e+002, 1.842919e+002
4.906319e+002, 1.838109e+002
4.911140e+002, 1.832205e+002
4.915962e+002, 1.829224e+002
4.920783e+002, 1.828791e+002
4.925604e+002, 1.828168e+002
4.930425e+002, 1.827593e+002
4.935246e+002, 1.825767e+002
4.940067e+002, 1.820255e+002
4.944889e+002, 1.812799e+002
4.949710e+002, 1.807403e+002
4.954531e+002, 1.806102e+002
4.959352e+002, 1.805836e+002
4.964173e+002, 1.804194e+002
4.968994e+002, 1.801529e+002
4.973816e+002, 1.799330e+002
4.978637e+002, 1.798343e+002
4.983458e+002, 1.797185e+002
4.988279e+002, 1.793256e+002
4.993100e+002, 1.785395e+002
4.997921e+002, 1.780849e+002
5.002743e+002, 1.783237e+002
5.007564e+002, 1.786340e+002
5.012385e+002, 1.785622e+002
5.017206e+002, 1.781981e+002
5.022027e+002, 1.779117e+002
5.026848e+002, 1.779254e+002
5.031670e+002, 1.780936e+002
5.036491e+002, 1.779739e+002
5.041312e+002, 1.772632e+002
5.046133e+002, 1.767533e+002
5.050954e+002, 1.766154e+002
5.055775e+002, 1.765485e+002
5.060597e+002, 1.763387e+002
5.065418e+002, 1.759931e+002
5.070239e+002, 1.756588e+002
5.075060e+002, 1.754599e+002
5.079881e+002, 1.753628e+002
5.084702e+002, 1.752108e+002
5.089524e+002, 1.750043e+002
5.094345e+002, 1.747410e+002
5.099166e+002, 1.743355e+002
5.103987e+002, 1.739243e+002
5.108808e+002, 1.736402e+002
5.113629e+002, 1.735040e+002
5.118451e+002, 1.734240e+002
5.123271e+002, 1.733911e+002
5.128093e+002, 1.733618e+002
5.132914e+002, 1.731787e+002
5.137735e+002, 1.727958e+002
5.142556e+002, 1.724319e+002
5.147377e+002, 1.722634e+002
5.152198e+002, 1.722332e+002
5.157020e+002, 1.721304e+002
5.161841e+002, 1.719290e+002
5.166662e+002, 1.716841e+002
5.171483e+002, 1.714158e+002
5.176304e+002, 1.711198e+002
5.181125e+002, 1.707503e+002
5.185947e+002, 1.702999e+002
5.190768e+002, 1.699017e+002
5.195589e+002, 1.697033e+002
5.200410e+002, 1.697218e+002
5.205231e+002, 1.697734e+002
5.210052e+002, 1.699785e+002
5.214874e+002, 1.700772e+002
5.219695e+002, 1.699092e+002
5.224516e+002, 1.696110e+002
5.229337e+002, 1.694006e+002
5.234158e+002, 1.693529e+002
5.238979e+002, 1.693306e+002
5.243801e+002, 1.690926e+002
5.248622e+002, 1.685721e+002
5.253443e+002, 1.681897e+002
5.258264e+002, 1.678814e+002
5.263085e+002, 1.678163e+002
5.267906e+002, 1.684121e+002
5.272728e+002, 1.692421e+002
5.277549e+002, 1.694448e+002
5.282370e+002, 1.684966e+002
5.287191e+002, 1.671771e+002
5.292012e+002, 1.665030e+002
5.296833e+002, 1.664305e+002
5.301655e+002, 1.662959e+002
5.306476e+002, 1.658761e+002
5.311297e+002, 1.654394e+002
5.316118e+002, 1.653631e+002
5.320939e+002, 1.655879e+002
5.325760e+002, 1.656681e+002
5.330582e+002, 1.653467e+002
5.335403e+002, 1.649944e+002
5.340224e+002, 1.649274e+002
5.345045e+002, 1.650731e+002
5.349866e+002, 1.651790e+002
5.354688e+002, 1.651309e+002
5.359509e+002, 1.650199e+002
5.364330e+002, 1.650220e+002
5.369151e+002, 1.652272e+002
5.373972e+002, 1.653317e+002
5.378793e+002, 1.653127e+002
5.383615e+002, 1.652251e+002
5.388436e+002, 1.650669e+002
5.393257e+002, 1.648662e+002
5.398078e+002, 1.646564e+002
5.402899e+002, 1.644479e+002
5.407720e+002, 1.642836e+002
5.412542e+002, 1.642859e+002
5.417363e+002, 1.645158e+002
5.422184e+002, 1.647016e+002
5.427005e+002, 1.647537e+002
5.431826e+002, 1.647891e+002
5.436647e+002, 1.648850e+002
5.441469e+002, 1.650264e+002
5.446290e+002, 1.651449e+002
5.451111e+002, 1.651986e+002
5.455932e+002, 1.652153e+002
5.460753e+002, 1.652653e+002
5.465574e+002, 1.653439e+002
5.470396e+002, 1.652808e+002
5.475217e+002, 1.649145e+002
5.480038e+002, 1.645089e+002
5.484859e+002, 1.645838e+002
5.489680e+002, 1.652030e+002
5.494501e+002, 1.655548e+002
5.499323e+002, 1.652391e+002
5.504144e+002, 1.648097e+002
5.508965e+002, 1.647516e+002
5.513786e+002, 1.649819e+002
5.518607e+002, 1.650846e+002
5.523428e+002, 1.648172e+002
5.528250e+002, 1.643913e+002
5.533071e+002, 1.643576e+002
5.537892e+002, 1.651298e+002
5.542713e+002, 1.655417e+002
5.547534e+002, 1.654292e+002
5.552355e+002, 1.651578e+002
5.557177e+002, 1.648049e+002
5.561998e+002, 1.644693e+002
5.566819e+002, 1.643508e+002
5.571640e+002, 1.646229e+002
5.576461e+002, 1.650670e+002
5.581282e+002, 1.651566e+002
5.586104e+002, 1.648180e+002
5.590925e+002, 1.646080e+002
5.595746e+002, 1.647136e+002
5.600567e+002, 1.649462e+002
5.605388e+002, 1.651992e+002
5.610209e+002, 1.654490e+002
5.615031e+002, 1.655364e+002
5.619852e+002, 1.652380e+002
5.624673e+002, 1.648659e+002
5.629494e+002, 1.648139e+002
5.634315e+002, 1.650056e+002
5.639136e+002, 1.650354e+002
5.643958e+002, 1.647140e+002
5.648779e+002, 1.642188e+002
5.653600e+002, 1.638459e+002
5.658421e+002, 1.636409e+002
5.663242e+002, 1.634452e+002
5.668063e+002, 1.631835e+002
5.672885e+002, 1.630000e+002
5.677706e+002, 1.630491e+002
5.682527e+002, 1.632314e+002
5.687348e+002, 1.633148e+002
5.692169e+002, 1.631822e+002
5.696990e+002, 1.629765e+002
5.701812e+002, 1.630056e+002
5.706633e+002, 1.633569e+002
5.711454e+002, 1.635895e+002
5.716275e+002, 1.636184e+002
5.721096e+002, 1.635705e+002
5.725917e+002, 1.634230e+002
5.730739e+002, 1.632546e+002
5.735560e+002, 1.632584e+002
5.740381e+002, 1.636038e+002
5.745202e+002, 1.639780e+002
5.750023e+002, 1.640040e+002
5.754844e+002, 1.637326e+002
5.759666e+002, 1.634286e+002
5.764487e+002, 1.631332e+002
5.769308e+002, 1.628941e+002
5.774129e+002, 1.627683e+002
5.778950e+002, 1.627612e+002
5.783771e+002, 1.627836e+002
5.788593e+002, 1.629091e+002
5.793414e+002, 1.629818e+002
5.798235e+002, 1.628639e+002
5.803056e+002, 1.626667e+002
5.807877e+002, 1.625617e+002
5.812698e+002, 1.626028e+002
5.817520e+002, 1.627493e+002
5.822341e+002, 1.629759e+002
5.827162e+002, 1.633087e+002
5.831984e+002, 1.634812e+002
5.836805e+002, 1.633612e+002
5.841626e+002, 1.632391e+002
5.846447e+002, 1.632395e+002
5.851268e+002, 1.632632e+002
5.856089e+002, 1.631298e+002
5.860911e+002, 1.627876e+002
5.865732e+002, 1.625425e+002
5.870553e+002, 1.627876e+002
5.875374e+002, 1.633781e+002
5.880195e+002, 1.637599e+002
5.885016e+002, 1.638804e+002
5.889838e+002, 1.638294e+002
5.894659e+002, 1.635739e+002
5.899480e+002, 1.632112e+002
5.904301e+002, 1.630310e+002
5.909122e+002, 1.630962e+002
5.913943e+002, 1.632133e+002
5.918765e+002, 1.633242e+002
5.923586e+002, 1.634577e+002
5.928407e+002, 1.636646e+002
5.933228e+002, 1.639365e+002
5.938049e+002, 1.642230e+002
5.942870e+002, 1.645085e+002
5.947692e+002, 1.647479e+002
5.952513e+002, 1.647131e+002
5.957334e+002, 1.641824e+002
5.962155e+002, 1.637680e+002
5.966976e+002, 1.635019e+002
5.971797e+002, 1.633819e+002
5.976619e+002, 1.634699e+002
5.981440e+002, 1.637175e+002
5.986261e+002, 1.639613e+002
5.991082e+002, 1.641471e+002
5.995903e+002, 1.642267e+002
6.000724e+002, 1.640240e+002
6.005546e+002, 1.635362e+002
6.010367e+002, 1.632429e+002
6.015188e+002, 1.633847e+002
6.020009e+002, 1.636439e+002
6.024830e+002, 1.635670e+002
6.029651e+002, 1.631641e+002
6.034473e+002, 1.629069e+002
6.039294e+002, 1.628927e+002
6.044115e+002, 1.630119e+002
6.048936e+002, 1.633898e+002
6.053757e+002, 1.638191e+002
6.058578e+002, 1.638154e+002
6.063400e+002, 1.632140e+002
6.068221e+002, 1.624588e+002
6.073042e+002, 1.621930e+002
6.077863e+002, 1.624993e+002
6.082684e+002, 1.627695e+002
6.087505e+002, 1.632005e+002
6.092327e+002, 1.633484e+002
6.097148e+002, 1.629015e+002
6.101969e+002, 1.621897e+002
6.106790e+002, 1.615722e+002
6.111611e+002, 1.611433e+002
6.116432e+002, 1.609391e+002
6.121254e+002, 1.611081e+002
6.126075e+002, 1.615245e+002
6.130896e+002, 1.618047e+002
6.135717e+002, 1.619194e+002
6.140538e+002, 1.618990e+002
6.145359e+002, 1.617263e+002
6.150181e+002, 1.614450e+002
6.155002e+002, 1.611599e+002
6.159823e+002, 1.607343e+002
6.164644e+002, 1.605935e+002
6.169465e+002, 1.612243e+002
6.174286e+002, 1.618750e+002
6.179108e+002, 1.618012e+002
6.183929e+002, 1.611135e+002
6.188750e+002, 1.604118e+002
6.193571e+002, 1.600696e+002
6.198392e+002, 1.599710e+002
6.203214e+002, 1.598113e+002
6.208035e+002, 1.595575e+002
6.212856e+002, 1.593467e+002
6.217677e+002, 1.592457e+002
6.222498e+002, 1.591430e+002
6.227319e+002, 1.589698e+002
6.232141e+002, 1.587497e+002
6.236962e+002, 1.585487e+002
6.241783e+002, 1.584021e+002
6.246604e+002, 1.582645e+002
6.251425e+002, 1.580755e+002
6.256246e+002, 1.578560e+002
6.261068e+002, 1.576867e+002
6.265889e+002, 1.575890e+002
6.270710e+002, 1.575021e+002
6.275531e+002, 1.573755e+002
6.280352e+002, 1.572099e+002
6.285173e+002, 1.570077e+002
6.289995e+002, 1.567399e+002
6.294816e+002, 1.564788e+002
6.299637e+002, 1.561650e+002
6.304458e+002, 1.559107e+002
6.309279e+002, 1.559122e+002
6.314100e+002, 1.561280e+002
6.318922e+002, 1.562374e+002
6.323743e+002, 1.559359e+002
6.328564e+002, 1.553528e+002
6.333385e+002, 1.549795e+002
6.338206e+002, 1.548610e+002
6.343027e+002, 1.547671e+002
6.347849e+002, 1.546658e+002
6.352670e+002, 1.545327e+002
6.357491e+002, 1.543518e+002
6.362312e+002, 1.541221e+002
6.367133e+002, 1.538461e+002
6.371954e+002, 1.533138e+002
6.376776e+002, 1.529219e+002
6.381597e+002, 1.532188e+002
6.386418e+002, 1.538941e+002
6.391239e+002, 1.541223e+002
6.396060e+002, 1.536334e+002
6.400881e+002, 1.528974e+002
6.405703e+002, 1.525127e+002
6.410524e+002, 1.525244e+002
6.415345e+002, 1.523768e+002
6.420166e+002, 1.518400e+002
6.424987e+002, 1.514189e+002
6.429808e+002, 1.513230e+002
6.434630e+002, 1.513290e+002
6.439451e+002, 1.511808e+002
6.444272e+002, 1.508457e+002
6.449093e+002, 1.505259e+002
6.453914e+002, 1.504052e+002
6.458735e+002, 1.504105e+002
6.463557e+002, 1.503876e+002
6.468378e+002, 1.503361e+002
6.473199e+002, 1.501807e+002
6.478020e+002, 1.498362e+002
6.482841e+002, 1.494453e+002
6.487662e+002, 1.492442e+002
6.492484e+002, 1.492597e+002
6.497305e+002, 1.492970e+002
6.502126e+002, 1.494492e+002
6.506947e+002, 1.495112e+002
6.511768e+002, 1.492934e+002
6.516589e+002, 1.489255e+002
6.521411e+002, 1.486279e+002
6.526232e+002, 1.484806e+002
6.531053e+002, 1.484346e+002
6.535874e+002, 1.484590e+002
6.540695e+002, 1.485558e+002
6.545516e+002, 1.485389e+002
6.550338e+002, 1.483412e+002
6.555159e+002, 1.481643e+002
6.559980e+002, 1.481612e+002
6.564801e+002, 1.481916e+002
6.569622e+002, 1.480710e+002
6.574443e+002, 1.477630e+002
6.579265e+002, 1.475190e+002
6.584086e+002, 1.474982e+002
6.588907e+002, 1.475657e+002
6.593728e+002, 1.476194e+002
6.598549e+002, 1.476327e+002
6.603370e+002, 1.475361e+002
6.608192e+002, 1.472943e+002
6.613013e+002, 1.469587e+002
6.617834e+002, 1.466074e+002
6.622655e+002, 1.462035e+002
6.627476e+002, 1.459175e+002
6.632297e+002, 1.457631e+002
6.637119e+002, 1.457152e+002
6.641940e+002, 1.458571e+002
6.646761e+002, 1.460645e+002
6.651582e+002, 1.462058e+002
6.656403e+002, 1.462464e+002
6.661224e+002, 1.461391e+002
6.666046e+002, 1.456846e+002
6.670867e+002, 1.450883e+002
6.675688e+002, 1.449406e+002
6.680509e+002, 1.452783e+002
6.685330e+002, 1.454248e+002
6.690151e+002, 1.449703e+002
6.694973e+002, 1.442404e+002
6.699794e+002, 1.439045e+002
6.704615e+002, 1.441940e+002
6.709436e+002, 1.442529e+002
6.714257e+002, 1.437757e+002
6.719078e+002, 1.433628e+002
6.723900e+002, 1.433988e+002
6.728721e+002, 1.436921e+002
6.733542e+002, 1.439055e+002
6.738363e+002, 1.439162e+002
6.743184e+002, 1.438117e+002
6.748005e+002, 1.436106e+002
6.752827e+002, 1.433452e+002
6.757648e+002, 1.434139e+002
6.762469e+002, 1.439605e+002
6.767290e+002, 1.443483e+002
6.772111e+002, 1.441838e+002
6.776932e+002, 1.437310e+002
6.781754e+002, 1.434423e+002
6.786575e+002, 1.433266e+002
6.791396e+002, 1.433150e+002
6.796217e+002, 1.435946e+002
6.801038e+002, 1.437943e+002
6.805859e+002, 1.435381e+002
6.810681e+002, 1.429881e+002
6.815502e+002, 1.425220e+002
6.820323e+002, 1.422930e+002
6.825144e+002, 1.422233e+002
6.829965e+002, 1.422299e+002
6.834786e+002, 1.423196e+002
6.839608e+002, 1.423701e+002
6.844429e+002, 1.423456e+002
6.849250e+002, 1.423455e+002
6.854071e+002, 1.425206e+002
6.858892e+002, 1.426790e+002
6.863713e+002, 1.425553e+002
6.868535e+002, 1.421083e+002
6.873356e+002, 1.417402e+002
6.878177e+002, 1.417321e+002
6.882998e+002, 1.418062e+002
6.887819e+002, 1.416543e+002
6.892640e+002, 1.413314e+002
6.897462e+002, 1.410343e+002
6.902283e+002, 1.408360e+002
6.907104e+002, 1.407715e+002
6.911925e+002, 1.409284e+002
6.916746e+002, 1.413573e+002
6.921567e+002, 1.415502e+002
6.926389e+002, 1.413308e+002
6.931210e+002, 1.411123e+002
6.936031e+002, 1.410554e+002
6.940852e+002, 1.410190e+002
6.945673e+002, 1.407875e+002
6.950494e+002, 1.403597e+002
6.955316e+002, 1.400954e+002
6.960137e+002, 1.403772e+002
6.964958e+002, 1.408324e+002
6.969779e+002, 1.409833e+002
6.974600e+002, 1.408617e+002
6.979421e+002, 1.406198e+002
6.984243e+002, 1.402975e+002
6.989064e+002, 1.399910e+002
6.993885e+002, 1.398303e+002
6.998706e+002, 1.398303e+002
7.003527e+002, 1.397842e+002
7.008348e+002, 1.397043e+002
7.013170e+002, 1.395602e+002
7.017991e+002, 1.392842e+002
7.022812e+002, 1.389837e+002
7.027633e+002, 1.387293e+002
7.032454e+002, 1.385436e+002
7.037275e+002, 1.384600e+002
7.042097e+002, 1.385019e+002
7.046918e+002, 1.386553e+002
7.051739e+002, 1.389834e+002
7.056560e+002, 1.394396e+002
7.061381e+002, 1.396886e+002
7.066202e+002, 1.396177e+002
7.071024e+002, 1.394292e+002
7.075845e+002, 1.393228e+002
7.080666e+002, 1.392953e+002
7.085487e+002, 1.392305e+002
7.090308e+002, 1.389953e+002
7.095129e+002, 1.389000e+002
7.099951e+002, 1.391136e+002
7.104772e+002, 1.393902e+002
7.109593e+002, 1.395757e+002
7.114414e+002, 1.396308e+002
7.119235e+002, 1.395120e+002
7.124056e+002, 1.391248e+002
7.128878e+002, 1.386846e+002
7.133699e+002, 1.385515e+002
7.138520e+002, 1.386859e+002
7.143341e+002, 1.388221e+002
7.148162e+002, 1.389196e+002
7.152983e+002, 1.389673e+002
7.157805e+002, 1.389469e+002
7.162626e+002, 1.388701e+002
7.167447e+002, 1.388023e+002
7.172268e+002, 1.388474e+002
7.177089e+002, 1.387559e+002
7.181910e+002, 1.382771e+002
7.186732e+002, 1.378544e+002
7.191553e+002, 1.379497e+002
7.196374e+002, 1.383590e+002
7.201195e+002, 1.384886e+002
7.206016e+002, 1.380175e+002
7.210837e+002, 1.374076e+002
7.215659e+002, 1.373143e+002
7.220480e+002, 1.376422e+002
7.225301e+002, 1.378866e+002
7.230122e+002, 1.380044e+002
7.234943e+002, 1.379743e+002
7.239764e+002, 1.377173e+002
7.244586e+002, 1.373537e+002
7.249407e+002, 1.371967e+002
7.254228e+002, 1.373215e+002
7.259049e+002, 1.374603e+002
7.263870e+002, 1.376318e+002
7.268691e+002, 1.377808e+002
7.273513e+002, 1.379766e+002
7.278334e+002, 1.380967e+002
7.283155e+002, 1.378483e+002
7.287976e+002, 1.371577e+002
7.292797e+002, 1.365064e+002
7.297618e+002, 1.364745e+002
7.302440e+002, 1.368999e+002
7.307261e+002, 1.372089e+002
7.312082e+002, 1.373853e+002
7.316903e+002, 1.375082e+002
7.321724e+002, 1.376261e+002
7.326545e+002, 1.376760e+002
7.331367e+002, 1.375461e+002
7.336188e+002, 1.371943e+002
7.341009e+002, 1.368889e+002
7.345830e+002, 1.365071e+002
7.350651e+002, 1.363144e+002
7.355472e+002, 1.365898e+002
7.360294e+002, 1.369953e+002
7.365115e+002, 1.371155e+002
7.369936e+002, 1.369164e+002
7.374757e+002, 1.366978e+002
7.379578e+002, 1.367046e+002
7.384399e+002, 1.368154e+002
7.389221e+002, 1.367523e+002
7.394042e+002, 1.365315e+002
7.398863e+002, 1.363962e+002
7.403684e+002, 1.364033e+002
7.408505e+002, 1.365316e+002
7.413326e+002, 1.368311e+002
7.418148e+002, 1.372635e+002
7.422969e+002, 1.373781e+002
7.427790e+002, 1.366676e+002
7.432611e+002, 1.363680e+002
7.437432e+002, 1.371074e+002
7.442253e+002, 1.378991e+002
7.447075e+002, 1.379666e+002
7.451896e+002, 1.374434e+002
7.456717e+002, 1.368623e+002
7.461538e+002, 1.364499e+002
7.466359e+002, 1.361756e+002
7.471180e+002, 1.360009e+002
7.476002e+002, 1.359315e+002
7.480823e+002, 1.360525e+002
7.485644e+002, 1.363865e+002
7.490465e+002, 1.365860e+002
7.495286e+002, 1.364193e+002
7.500107e+002, 1.360258e+002
7.504929e+002, 1.357286e+002
7.509750e+002, 1.355417e+002
7.514571e+002, 1.354205e+002
7.519392e+002, 1.353060e+002
7.524213e+002, 1.353167e+002
7.529034e+002, 1.356769e+002
7.533856e+002, 1.361096e+002
7.538677e+002, 1.361978e+002
7.543498e+002, 1.358609e+002
7.548319e+002, 1.354875e+002
7.553140e+002, 1.354073e+002
7.557961e+002, 1.354515e+002
7.562783e+002, 1.353134e+002
7.567604e+002, 1.350274e+002
7.572425e+002, 1.347891e+002
7.577246e+002, 1.346551e+002
7.582067e+002, 1.346978e+002
7.586888e+002, 1.350657e+002
7.591710e+002, 1.357543e+002
7.596531e+002, 1.360119e+002
7.601352e+002, 1.354358e+002
7.606173e+002, 1.350379e+002
7.610994e+002, 1.350933e+002
7.615815e+002, 1.352570e+002
7.620637e+002, 1.353125e+002
7.625458e+002, 1.352518e+002
7.630279e+002, 1.351131e+002
7.635100e+002, 1.348344e+002
7.639921e+002, 1.346262e+002
7.644742e+002, 1.347555e+002
7.649564e+002, 1.350434e+002
7.654385e+002, 1.351507e+002
7.659206e+002, 1.350504e+002
7.664027e+002, 1.349109e+002
7.668848e+002, 1.348370e+002
7.673669e+002, 1.348050e+002
7.678491e+002, 1.347521e+002
7.683312e+002, 1.346561e+002
7.688133e+002, 1.346369e+002
7.692954e+002, 1.348427e+002
7.697775e+002, 1.349173e+002
7.702596e+002, 1.345635e+002
7.707418e+002, 1.340599e+002
7.712239e+002, 1.337718e+002
7.717060e+002, 1.337493e+002
7.721881e+002, 1.337933e+002
7.726702e+002, 1.338943e+002
7.731523e+002, 1.339718e+002
7.736345e+002, 1.339301e+002
7.741166e+002, 1.338212e+002
7.745987e+002, 1.337650e+002
7.750808e+002, 1.337889e+002
7.755629e+002, 1.338017e+002
7.760450e+002, 1.336951e+002
7.765272e+002, 1.335104e+002
7.770093e+002, 1.334491e+002
7.774914e+002, 1.335292e+002
7.779735e+002, 1.336562e+002
7.784556e+002, 1.338911e+002
7.789377e+002, 1.340414e+002
7.794199e+002, 1.338325e+002
7.799020e+002, 1.333685e+002
7.803841e+002, 1.331670e+002
7.808662e+002, 1.334683e+002
7.813483e+002, 1.337023e+002
7.818304e+002, 1.337309e+002
7.823126e+002, 1.336425e+002
7.827947e+002, 1.334347e+002
7.832768e+002, 1.331797e+002
7.837589e+002, 1.330335e+002
7.842410e+002, 1.330687e+002
7.847231e+002, 1.331663e+002
7.852053e+002, 1.331752e+002
7.856874e+002, 1.331233e+002
7.861695e+002, 1.331406e+002
7.866516e+002, 1.332388e+002
7.871337e+002, 1.332778e+002
7.876158e+002, 1.331796e+002
7.880980e+002, 1.330314e+002
7.885801e+002, 1.329655e+002
7.890622e+002, 1.329981e+002
7.895443e+002, 1.330166e+002
7.900264e+002, 1.330054e+002
7.905085e+002, 1.330019e+002
7.909907e+002, 1.330219e+002
7.914728e+002, 1.330482e+002
7.919549e+002, 1.331442e+002
7.924370e+002, 1.332514e+002
7.929191e+002, 1.331027e+002
7.934012e+002, 1.323479e+002
7.938834e+002, 1.316264e+002
7.943655e+002, 1.316889e+002
7.948476e+002, 1.322184e+002
7.953297e+002, 1.325561e+002
7.958118e+002, 1.326113e+002
7.962939e+002, 1.325908e+002
7.967761e+002, 1.326294e+002
7.972582e+002, 1.326770e+002
7.977403e+002, 1.326015e+002
7.982224e+002, 1.323626e+002
7.987045e+002, 1.321610e+002
7.991866e+002, 1.319490e+002
7.996688e+002, 1.318560e+002
8.001509e+002, 1.320963e+002
8.006330e+002, 1.324111e+002
8.011151e+002, 1.324637e+002
8.015972e+002, 1.322168e+002
8.020793e+002, 1.319787e+002
8.025615e+002, 1.317138e+002
8.030436e+002, 1.316131e+002
8.035257e+002, 1.319640e+002
8.040078e+002, 1.324819e+002
8.044899e+002, 1.327698e+002
8.049720e+002, 1.327476e+002
8.054542e+002, 1.325213e+002
8.059363e+002, 1.321196e+002
8.064184e+002, 1.316641e+002
8.069005e+002, 1.314231e+002
8.073826e+002, 1.313913e+002
8.078647e+002, 1.315061e+002
8.083469e+002, 1.318057e+002
8.088290e+002, 1.320148e+002
8.093111e+002, 1.318967e+002
8.097932e+002, 1.315753e+002
8.102753e+002, 1.314372e+002
8.107574e+002, 1.316059e+002
8.112396e+002, 1.317068e+002
8.117217e+002, 1.317142e+002
8.122038e+002, 1.316855e+002
8.126859e+002, 1.315781e+002
8.131680e+002, 1.314828e+002
8.136501e+002, 1.315747e+002
8.141323e+002, 1.318694e+002
8.146144e+002, 1.320582e+002
8.150965e+002, 1.318546e+002
8.155786e+002, 1.315216e+002
8.160607e+002, 1.313914e+002
8.165428e+002, 1.313783e+002
8.170250e+002, 1.312235e+002
8.175071e+002, 1.308781e+002
8.179892e+002, 1.305246e+002
8.184713e+002, 1.303062e+002
8.189534e+002, 1.302139e+002
8.194355e+002, 1.302267e+002
8.199177e+002, 1.303622e+002
8.203998e+002, 1.305264e+002
8.208819e+002, 1.307608e+002
8.213640e+002, 1.309354e+002
8.218461e+002, 1.309144e+002
8.223282e+002, 1.307993e+002
8.228104e+002, 1.308001e+002
8.232925e+002, 1.309608e+002
8.237746e+002, 1.310881e+002
8.242567e+002, 1.311777e+002
8.247388e+002, 1.311925e+002
8.252209e+002, 1.310788e+002
8.257031e+002, 1.308938e+002
8.261852e+002, 1.306888e+002
8.266673e+002, 1.304923e+002
8.271494e+002, 1.303701e+002
8.276315e+002, 1.304068e+002
8.281136e+002, 1.305107e+002
8.285958e+002, 1.305668e+002
8.290779e+002, 1.305585e+002
8.295600e+002, 1.303211e+002
8.300421e+002, 1.298120e+002
8.305242e+002, 1.294888e+002
8.310063e+002, 1.297307e+002
8.314885e+002, 1.303303e+002
8.319706e+002, 1.306434e+002
8.324527e+002, 1.305636e+002
8.329348e+002, 1.304749e+002
8.334169e+002, 1.303227e+002
8.338990e+002, 1.302355e+002
8.343812e+002, 1.303466e+002
8.348633e+002, 1.305014e+002
8.353454e+002, 1.304743e+002
8.358275e+002, 1.302392e+002
8.363096e+002, 1.300822e+002
8.367917e+002, 1.301464e+002
8.372739e+002, 1.302637e+002
8.377560e+002, 1.303871e+002
8.382381e+002, 1.304687e+002
8.387202e+002, 1.304080e+002
8.392023e+002, 1.302254e+002
8.396844e+002, 1.300757e+002
8.401666e+002, 1.300649e+002
8.406487e+002, 1.301379e+002
8.411308e+002, 1.302422e+002
8.416129e+002, 1.303587e+002
8.420950e+002, 1.303129e+002
8.425771e+002, 1.300690e+002
8.430593e+002, 1.298905e+002
8.435414e+002, 1.299250e+002
8.440235e+002, 1.301026e+002
8.445056e+002, 1.303316e+002
8.449877e+002, 1.306861e+002
8.454698e+002, 1.307115e+002
8.459520e+002, 1.300636e+002
8.464341e+002, 1.295394e+002
8.469162e+002, 1.293432e+002
8.473983e+002, 1.293238e+002
8.478804e+002, 1.293955e+002
8.483625e+002, 1.295300e+002
8.488447e+002, 1.296470e+002
8.493268e+002, 1.297572e+002
8.498089e+002, 1.297884e+002
8.502910e+002, 1.295965e+002
8.507731e+002, 1.293724e+002
8.512552e+002, 1.293609e+002
8.517374e+002, 1.295307e+002
8.522195e+002, 1.297087e+002
8.527016e+002, 1.298147e+002
8.531837e+002, 1.298894e+002
8.536658e+002, 1.300246e+002
8.541479e+002, 1.301788e+002
8.546301e+002, 1.301262e+002
8.551122e+002, 1.298600e+002
8.555943e+002, 1.295885e+002
8.560764e+002, 1.293658e+002
8.565585e+002, 1.292330e+002
8.570406e+002, 1.292750e+002
8.575228e+002, 1.294617e+002
8.580049e+002, 1.294124e+002
8.584870e+002, 1.288395e+002
8.589691e+002, 1.285247e+002
8.594512e+002, 1.287054e+002
8.599333e+002, 1.289779e+002
8.604155e+002, 1.292075e+002
8.608976e+002, 1.293590e+002
8.613797e+002, 1.293727e+002
8.618618e+002, 1.292197e+002
8.623439e+002, 1.290425e+002
8.628260e+002, 1.288586e+002
8.633082e+002, 1.287129e+002
8.637903e+002, 1.286458e+002
8.642724e+002, 1.286405e+002
8.647545e+002, 1.286896e+002
8.652366e+002, 1.287755e+002
8.657188e+002, 1.288305e+002
8.662009e+002, 1.288061e+002
8.666830e+002, 1.287097e+002
8.671651e+002, 1.283585e+002
8.676472e+002, 1.278810e+002
8.681293e+002, 1.283230e+002
8.686115e+002, 1.298895e+002
8.690936e+002, 1.311492e+002
8.695757e+002, 1.312240e+002
8.700578e+002, 1.305123e+002
8.705399e+002, 1.297644e+002
8.710220e+002, 1.289036e+002
8.715042e+002, 1.284158e+002
8.719863e+002, 1.284835e+002
8.724684e+002, 1.286346e+002
8.729505e+002, 1.288318e+002
8.734326e+002, 1.289763e+002
8.739147e+002, 1.289640e+002
8.743969e+002, 1.288120e+002
8.748790e+002, 1.286354e+002
8.753611e+002, 1.283779e+002
8.758432e+002, 1.282125e+002
8.763253e+002, 1.282794e+002
8.768074e+002, 1.283977e+002
8.772896e+002, 1.284128e+002
8.777717e+002, 1.283451e+002
8.782538e+002, 1.282481e+002
8.787359e+002, 1.281432e+002
8.792180e+002, 1.281360e+002
8.797001e+002, 1.284300e+002
8.801823e+002, 1.288336e+002
8.806644e+002, 1.290037e+002
8.811465e+002, 1.289594e+002
8.816286e+002, 1.287722e+002
8.821107e+002, 1.284668e+002
8.825928e+002, 1.281799e+002
8.830750e+002, 1.280384e+002
8.835571e+002, 1.279984e+002
8.840392e+002, 1.278908e+002
8.845213e+002, 1.276771e+002
8.850034e+002, 1.276309e+002
8.854855e+002, 1.278276e+002
8.859677e+002, 1.280854e+002
8.864498e+002, 1.284113e+002
8.869319e+002, 1.286696e+002
8.874140e+002, 1.285323e+002
8.878961e+002, 1.278791e+002
8.883782e+002, 1.276456e+002
8.888604e+002, 1.282567e+002
8.893425e+002, 1.287754e+002
8.898246e+002, 1.288645e+002
8.903067e+002, 1.288240e+002
8.907888e+002, 1.290102e+002
8.912709e+002, 1.293130e+002
8.917531e+002, 1.292766e+002
8.922352e+002, 1.286352e+002
8.927173e+002, 1.279756e+002
8.931994e+002, 1.276030e+002
8.936815e+002, 1.274985e+002
8.941636e+002, 1.277606e+002
8.946458e+002, 1.282589e+002
8.951279e+002, 1.287214e+002
8.956100e+002, 1.290453e+002
8.960921e+002, 1.291753e+002
8.965742e+002, 1.290092e+002
8.970563e+002, 1.286622e+002
8.975385e+002, 1.283636e+002
8.980206e+002, 1.281319e+002
8.985027e+002, 1.283146e+002
8.989848e+002, 1.290225e+002
8.994669e+002, 1.295786e+002
8.999490e+002, 1.295099e+002
9.004312e+002, 1.290727e+002
9.009133e+002, 1.288480e+002
9.013954e+002, 1.288680e+002
9.018775e+002, 1.289685e+002
9.023596e+002, 1.293046e+002
9.028417e+002, 1.294540e+002
9.033239e+002, 1.290803e+002
9.038060e+002, 1.286324e+002
9.042881e+002, 1.285491e+002
9.047702e+002, 1.287829e+002
9.052523e+002, 1.290140e+002
9.057344e+002, 1.292828e+002
9.062166e+002, 1.294297e+002
9.066987e+002, 1.292644e+002
9.071808e+002, 1.291102e+002
9.076629e+002, 1.293017e+002
9.081450e+002, 1.296424e+002
9.086271e+002, 1.296951e+002
9.091093e+002, 1.293609e+002
9.095914e+002, 1.291034e+002
9.100735e+002, 1.293599e+002
9.105556e+002, 1.297538e+002
9.110377e+002, 1.298347e+002
9.115198e+002, 1.297445e+002
9.120020e+002, 1.297896e+002
9.124841e+002, 1.300052e+002
9.129662e+002, 1.302520e+002
9.134483e+002, 1.304529e+002
9.139304e+002, 1.305612e+002
9.144125e+002, 1.304214e+002
9.148947e+002, 1.300859e+002
9.153768e+002, 1.300155e+002
9.158589e+002, 1.302431e+002
9.163410e+002, 1.304386e+002
9.168231e+002, 1.304958e+002
9.173052e+002, 1.304080e+002
9.177874e+002, 1.301125e+002
9.182695e+002, 1.296606e+002
9.187516e+002, 1.295897e+002
9.192337e+002, 1.301445e+002
9.197158e+002, 1.304850e+002
9.201979e+002, 1.303429e+002
9.206801e+002, 1.302189e+002
9.211622e+002, 1.304872e+002
9.216443e+002, 1.309081e+002
9.221264e+002, 1.310956e+002
9.226085e+002, 1.310123e+002
9.230906e+002, 1.308857e+002
9.235728e+002, 1.305711e+002
9.240549e+002, 1.304357e+002
9.245370e+002, 1.307760e+002
9.250191e+002, 1.312338e+002
9.255012e+002, 1.315196e+002
9.259833e+002, 1.316075e+002
9.264655e+002, 1.315315e+002
9.269476e+002, 1.312522e+002
9.274297e+002, 1.310235e+002
9.279118e+002, 1.310255e+002
9.283939e+002, 1.311656e+002
9.288760e+002, 1.314402e+002
9.293582e+002, 1.317450e+002
9.298403e+002, 1.318697e+002
9.303224e+002, 1.317654e+002
9.308045e+002, 1.315008e+002
9.312866e+002, 1.310485e+002
9.317687e+002, 1.306436e+002
9.322509e+002, 1.308320e+002
9.327330e+002, 1.314770e+002
9.332151e+002, 1.319870e+002
9.336972e+002, 1.322933e+002
9.341793e+002, 1.324259e+002
9.346614e+002, 1.323805e+002
9.351436e+002, 1.323024e+002
9.356257e+002, 1.324146e+002
9.361078e+002, 1.327050e+002
9.365899e+002, 1.329525e+002
9.370720e+002, 1.332017e+002
9.375541e+002, 1.331842e+002
9.380363e+002, 1.327031e+002
9.385184e+002, 1.322330e+002
9.390005e+002, 1.321168e+002
9.394826e+002, 1.322676e+002
9.399647e+002, 1.324590e+002
9.404468e+002, 1.327551e+002
9.409290e+002, 1.329096e+002
9.414111e+002, 1.327642e+002
9.418932e+002, 1.326820e+002
9.423753e+002, 1.328607e+002
9.428574e+002, 1.330746e+002
9.433395e+002, 1.330354e+002
9.438217e+002, 1.328174e+002
9.443038e+002, 1.328364e+002
9.447859e+002, 1.333490e+002
9.452680e+002, 1.337902e+002
9.457501e+002, 1.339115e+002
9.462322e+002, 1.339328e+002
9.467144e+002, 1.340400e+002
9.471965e+002, 1.341578e+002
9.476786e+002, 1.341142e+002
9.481607e+002, 1.338912e+002
9.486428e+002, 1.336749e+002
9.491249e+002, 1.335426e+002
9.496071e+002, 1.335230e+002
9.500892e+002, 1.337106e+002
9.505713e+002, 1.340004e+002
9.510534e+002, 1.342322e+002
9.515355e+002, 1.343880e+002
9.520176e+002, 1.344831e+002
9.524998e+002, 1.345259e+002
9.529819e+002, 1.345788e+002
9.534640e+002, 1.347286e+002
9.539461e+002, 1.349421e+002
9.544282e+002, 1.351181e+002
9.549103e+002, 1.352616e+002
9.553925e+002, 1.354198e+002
9.558746e+002, 1.356035e+002
9.563567e+002, 1.357260e+002
9.568388e+002, 1.357040e+002
9.573209e+002, 1.356646e+002
9.578030e+002, 1.359541e+002
9.582852e+002, 1.366310e+002
9.587673e+002, 1.368939e+002
9.592494e+002, 1.366003e+002
9.597315e+002, 1.364630e+002
9.602136e+002, 1.367417e+002
9.606957e+002, 1.371673e+002
9.611779e+002, 1.375074e+002
9.616600e+002, 1.377717e+002
9.621421e+002, 1.380022e+002
9.626242e+002, 1.381768e+002
9.631063e+002, 1.383653e+002
9.635884e+002, 1.386738e+002
9.640706e+002, 1.388616e+002
9.645527e+002, 1.387388e+002
9.650348e+002, 1.385200e+002
9.655169e+002, 1.384118e+002
9.659990e+002, 1.384224e+002
9.664811e+002, 1.385562e+002
9.669633e+002, 1.388725e+002
9.674454e+002, 1.392265e+002
9.679275e+002, 1.397130e+002
9.684096e+002, 1.401021e+002
9.688917e+002, 1.401742e+002
9.693738e+002, 1.400703e+002
9.698560e+002, 1.400013e+002
9.703381e+002, 1.400145e+002
9.708202e+002, 1.401515e+002
9.713023e+002, 1.404820e+002
9.717844e+002, 1.408860e+002
9.722665e+002, 1.413532e+002
9.727487e+002, 1.418013e+002
9.732308e+002, 1.421575e+002
9.737129e+002, 1.424002e+002
9.741950e+002, 1.424841e+002
9.746771e+002, 1.423926e+002
9.751592e+002, 1.422744e+002
9.756414e+002, 1.421516e+002
9.761235e+002, 1.421616e+002
9.766056e+002, 1.426435e+002
9.770877e+002, 1.433808e+002
9.775698e+002, 1.438341e+002
9.780519e+002, 1.439492e+002
9.785341e+002, 1.440365e+002
9.790162e+002, 1.442793e+002
9.794983e+002, 1.445765e+002
9.799804e+002, 1.448658e+002
9.804625e+002, 1.450815e+002
9.809446e+002, 1.448512e+002
9.814268e+002, 1.442312e+002
9.819089e+002, 1.438226e+002
9.823910e+002, 1.437844e+002
9.828731e+002, 1.440171e+002
9.833552e+002, 1.444942e+002
9.838373e+002, 1.450250e+002
9.843195e+002, 1.450625e+002
9.848016e+002, 1.445758e+002
9.852837e+002, 1.442720e+002
9.857658e+002, 1.441627e+002
9.862479e+002, 1.443617e+002
9.867300e+002, 1.450513e+002
9.872122e+002, 1.456391e+002
9.876943e+002, 1.454694e+002
9.881764e+002, 1.447033e+002
9.886585e+002, 1.442261e+002
9.891406e+002, 1.441181e+002
9.896227e+002, 1.440706e+002
9.901049e+002, 1.441198e+002
9.905870e+002, 1.441425e+002
9.910691e+002, 1.441022e+002
9.915512e+002, 1.439962e+002
9.920333e+002, 1.437608e+002
9.925154e+002, 1.434077e+002
9.929976e+002, 1.432827e+002
9.934797e+002, 1.437449e+002
9.939618e+002, 1.438874e+002
9.944439e+002, 1.434811e+002
9.949260e+002, 1.429528e+002
9.954081e+002, 1.423413e+002
9.958903e+002, 1.418182e+002
9.963724e+002, 1.416397e+002
9.968545e+002, 1.418157e+002
9.973366e+002, 1.420254e+002
9.978187e+002, 1.423617e+002
9.983008e+002, 1.425117e+002
9.987830e+002, 1.423442e+002
9.992651e+002, 1.420022e+002
9.997472e+002, 1.414733e+002
1.000229e+003, 1.408904e+002
1.000711e+003, 1.404388e+002
1.001194e+003, 1.401573e+002
1.001676e+003, 1.400071e+002
1.002158e+003, 1.400664e+002
1.002640e+003, 1.401395e+002
1.003122e+003, 1.401912e+002
1.003604e+003, 1.401397e+002
1.004086e+003, 1.398012e+002
1.004568e+003, 1.393079e+002
1.005050e+003, 1.389928e+002
1.005533e+003, 1.389573e+002
1.006015e+003, 1.389390e+002
1.006497e+003, 1.387773e+002
1.006979e+003, 1.385281e+002
1.007461e+003, 1.381783e+002
1.007943e+003, 1.378134e+002
1.008425e+003, 1.375513e+002
1.008907e+003, 1.374041e+002
1.009390e+003, 1.373673e+002
1.009872e+003, 1.374370e+002
1.010354e+003, 1.375342e+002
1.010836e+003, 1.375903e+002
1.011318e+003, 1.376189e+002
1.011800e+003, 1.377162e+002
1.012282e+003, 1.377867e+002
1.012764e+003, 1.375092e+002
1.013246e+003, 1.369119e+002
1.013729e+003, 1.364047e+002
1.014211e+003, 1.362027e+002
1.014693e+003, 1.361563e+002
1.015175e+003, 1.361086e+002
1.015657e+003, 1.360508e+002
1.016139e+003, 1.359388e+002
1.016621e+003, 1.357888e+002
1.017103e+003, 1.357063e+002
1.017586e+003, 1.357028e+002
1.018068e+003, 1.356302e+002
1.018550e+003, 1.353921e+002
1.019032e+003, 1.350941e+002
1.019514e+003, 1.348891e+002
1.019996e+003, 1.347808e+002
1.020478e+003, 1.348179e+002
1.020960e+003, 1.349972e+002
1.021442e+003, 1.352429e+002
1.021925e+003, 1.355500e+002
1.022407e+003, 1.356842e+002
1.022889e+003, 1.354574e+002
1.023371e+003, 1.350502e+002
1.023853e+003, 1.348115e+002
1.024335e+003, 1.347423e+002
1.024817e+003, 1.347788e+002
1.025299e+003, 1.349466e+002
1.025781e+003, 1.350022e+002
1.026264e+003, 1.348615e+002
1.026746e+003, 1.347066e+002
1.027228e+003, 1.346884e+002
1.027710e+003, 1.347215e+002
1.028192e+003, 1.345850e+002
1.028674e+003, 1.342447e+002
1.029156e+003, 1.339984e+002
1.029638e+003, 1.338326e+002
1.030120e+003, 1.338253e+002
1.030603e+003, 1.340617e+002
1.031085e+003, 1.343194e+002
1.031567e+003, 1.344349e+002
1.032049e+003, 1.344375e+002
1.032531e+003, 1.344004e+002
1.033013e+003, 1.343169e+002
1.033495e+003, 1.342224e+002
1.033977e+003, 1.340878e+002
1.034460e+003, 1.340150e+002
1.034942e+003, 1.341083e+002
1.035424e+003, 1.341558e+002
1.035906e+003, 1.339450e+002
1.036388e+003, 1.335786e+002
1.036870e+003, 1.333459e+002
1.037352e+003, 1.332621e+002
1.037834e+003, 1.332672e+002
1.038317e+003, 1.334970e+002
1.038799e+003, 1.336046e+002
1.039281e+003, 1.333708e+002
1.039763e+003, 1.331295e+002
1.040245e+003, 1.331951e+002
1.040727e+003, 1.334421e+002
1.041209e+003, 1.335179e+002
1.041691e+003, 1.333965e+002
1.042173e+003, 1.331846e+002
1.042656e+003, 1.326368e+002
1.043138e+003, 1.323278e+002
1.043620e+003, 1.326196e+002
1.044102e+003, 1.329934e+002
1.044584e+003, 1.329834e+002
1.045066e+003, 1.327629e+002
1.045548e+003, 1.328455e+002
1.046030e+003, 1.334179e+002
1.046512e+003, 1.336768e+002
1.046995e+003, 1.333405e+002
1.047477e+003, 1.329389e+002
1.047959e+003, 1.323759e+002
1.048441e+003, 1.320337e+002
1.048923e+003, 1.324725e+002
1.049405e+003, 1.333084e+002
1.049887e+003, 1.335403e+002
1.050369e+003, 1.328747e+002
1.050852e+003, 1.325463e+002
1.051334e+003, 1.331182e+002
1.051816e+003, 1.336320e+002
1.052298e+003, 1.338526e+002
1.052780e+003, 1.338011e+002
1.053262e+003, 1.332690e+002
1.053744e+003, 1.325470e+002
1.054226e+003, 1.322974e+002
1.054708e+003, 1.326873e+002
1.055191e+003, 1.330107e+002
1.055673e+003, 1.329750e+002
1.056155e+003, 1.329743e+002
1.056637e+003, 1.332859e+002
1.057119e+003, 1.335813e+002
1.057601e+003, 1.335371e+002
1.058083e+003, 1.332784e+002
1.058565e+003, 1.330974e+002
1.059047e+003, 1.330528e+002
1.059530e+003, 1.330113e+002
1.060012e+003, 1.328670e+002
1.060494e+003, 1.327992e+002
1.060976e+003, 1.329567e+002
1.061458e+003, 1.331548e+002
1.061940e+003, 1.332254e+002
1.062422e+003, 1.332261e+002
1.062904e+003, 1.332930e+002
1.063387e+003, 1.334520e+002
1.063869e+003, 1.336213e+002
1.064351e+003, 1.338516e+002
1.064833e+003, 1.339813e+002
1.065315e+003, 1.338237e+002
1.065797e+003, 1.336437e+002
1.066279e+003, 1.337249e+002
1.066761e+003, 1.339213e+002
1.067244e+003, 1.338789e+002
1.067726e+003, 1.335644e+002
1.068208e+003, 1.334767e+002
1.068690e+003, 1.341072e+002
1.069172e+003, 1.346172e+002
1.069654e+003, 1.344848e+002
1.070136e+003, 1.342138e+002
1.070618e+003, 1.342135e+002
1.071100e+003, 1.343591e+002
1.071583e+003, 1.343857e+002
1.072065e+003, 1.342665e+002
1.072547e+003, 1.342008e+002
1.073029e+003, 1.342941e+002
1.073511e+003, 1.344095e+002
1.073993e+003, 1.344991e+002
1.074475e+003, 1.345687e+002
1.074957e+003, 1.346741e+002
1.075439e+003, 1.347343e+002
1.075922e+003, 1.345451e+002
1.076404e+003, 1.341562e+002
1.076886e+003, 1.339795e+002
1.077368e+003, 1.342197e+002
1.077850e+003, 1.345763e+002
1.078332e+003, 1.351081e+002
1.078814e+003, 1.354981e+002
1.079297e+003, 1.354131e+002
1.079779e+003, 1.351091e+002
1.080261e+003, 1.348719e+002
1.080743e+003, 1.347568e+002
1.081225e+003, 1.347941e+002
1.081707e+003, 1.350616e+002
1.082189e+003, 1.352503e+002
1.082671e+003, 1.351952e+002
1.083153e+003, 1.350424e+002
1.083635e+003, 1.347241e+002
1.084118e+003, 1.344770e+002
1.084600e+003, 1.346852e+002
1.085082e+003, 1.352049e+002
1.085564e+003, 1.354986e+002
1.086046e+003, 1.353908e+002
1.086528e+003, 1.351854e+002
1.087010e+003, 1.348716e+002
1.087492e+003, 1.346631e+002
1.087975e+003, 1.348160e+002
1.088457e+003, 1.350214e+002
1.088939e+003, 1.348507e+002
1.089421e+003, 1.344915e+002
1.089903e+003, 1.345342e+002
1.090385e+003, 1.351590e+002
1.090867e+003, 1.355578e+002
1.091349e+003, 1.352961e+002
1.091832e+003, 1.349036e+002
1.092314e+003, 1.344760e+002
1.092796e+003, 1.341556e+002
1.093278e+003, 1.341570e+002
1.093760e+003, 1.343166e+002
1.094242e+003, 1.342887e+002
1.094724e+003, 1.340198e+002
1.095206e+003, 1.338605e+002
1.095688e+003, 1.341161e+002
1.096171e+003, 1.342312e+002
1.096653e+003, 1.338488e+002
1.097135e+003, 1.334294e+002
1.097617e+003, 1.332565e+002
1.098099e+003, 1.332711e+002
1.098581e+003, 1.333961e+002
1.099063e+003, 1.336041e+002
1.099545e+003, 1.337635e+002
1.100027e+003, 1.338211e+002
1.100510e+003, 1.338660e+002
1.100992e+003, 1.339967e+002
1.101474e+003, 1.340338e+002
1.101956e+003, 1.337855e+002
1.102438e+003, 1.334578e+002
1.102920e+003, 1.333052e+002
1.103402e+003, 1.333044e+002
1.103884e+003, 1.332445e+002
1.104367e+003, 1.330692e+002
1.104849e+003, 1.328927e+002
1.105331e+003, 1.326068e+002
1.105813e+003, 1.324857e+002
1.106295e+003, 1.328539e+002
1.106777e+003, 1.332448e+002
1.107259e+003, 1.332078e+002
1.107741e+003, 1.328518e+002
1.108224e+003, 1.325159e+002
1.108706e+003, 1.322057e+002
1.109188e+003, 1.320077e+002
1.109670e+003, 1.319392e+002
1.110152e+003, 1.319721e+002
1.110634e+003, 1.322521e+002
1.111116e+003, 1.324781e+002
1.111598e+003, 1.324251e+002
1.112080e+003, 1.321930e+002
1.112563e+003, 1.319375e+002
1.113045e+003, 1.316421e+002
1.113527e+003, 1.315075e+002
1.114009e+003, 1.318359e+002
1.114491e+003, 1.318232e+002
1.114973e+003, 1.310029e+002
1.115455e+003, 1.303545e+002
1.115937e+003, 1.304629e+002
1.116419e+003, 1.308889e+002
1.116902e+003, 1.311166e+002
1.117384e+003, 1.311503e+002
1.117866e+003, 1.310193e+002
1.118348e+003, 1.305163e+002
1.118830e+003, 1.303544e+002
1.119312e+003, 1.307749e+002
1.119794e+003, 1.311033e+002
1.120276e+003, 1.310999e+002
1.120759e+003, 1.309068e+002
1.121241e+003, 1.305762e+002
1.121723e+003, 1.302048e+002
1.122205e+003, 1.301752e+002
1.122687e+003, 1.306341e+002
1.123169e+003, 1.307063e+002
1.123651e+003, 1.302174e+002
1.124133e+003, 1.299322e+002
1.124615e+003, 1.300849e+002
1.125098e+003, 1.303530e+002
1.125580e+003, 1.305592e+002
1.126062e+003, 1.306479e+002
1.126544e+003, 1.304841e+002
1.127026e+003, 1.300754e+002
1.127508e+003, 1.297087e+002
1.127990e+003, 1.293655e+002
1.128472e+003, 1.292630e+002
1.128954e+003, 1.294684e+002
1.129437e+003, 1.296708e+002
1.129919e+003, 1.297223e+002
1.130401e+003, 1.296832e+002
1.130883e+003, 1.296372e+002
1.131365e+003, 1.295522e+002
1.131847e+003, 1.292368e+002
1.132329e+003, 1.287117e+002
1.132811e+003, 1.284416e+002
1.133294e+003, 1.284535e+002
1.133776e+003, 1.284586e+002
1.134258e+003, 1.283605e+002
1.134740e+003, 1.282459e+002
1.135222e+003, 1.281856e+002
1.135704e+003, 1.281648e+002
1.136186e+003, 1.281859e+002
1.136668e+003, 1.282204e+002
1.137151e+003, 1.281304e+002
1.137633e+003, 1.279409e+002
1.138115e+003, 1.277822e+002
1.138597e+003, 1.276819e+002
1.139079e+003, 1.275963e+002
1.139561e+003, 1.275011e+002
1.140043e+003, 1.274449e+002
1.140525e+003, 1.275813e+002
1.141007e+003, 1.277276e+002
1.141490e+003, 1.273801e+002
1.141972e+003, 1.268240e+002
1.142454e+003, 1.267580e+002
1.142936e+003, 1.271262e+002
1.143418e+003, 1.273759e+002
1.143900e+003, 1.273471e+002
1.144382e+003, 1.275225e+002
1.144864e+003, 1.285168e+002
1.145346e+003, 1.293713e+002
1.145829e+003, 1.287762e+002
1.146311e+003, 1.276598e+002
1.146793e+003, 1.271676e+002
1.147275e+003, 1.271059e+002
1.147757e+003, 1.268619e+002
1.148239e+003, 1.264233e+002
1.148721e+003, 1.263961e+002
1.149203e+003, 1.272029e+002
1.149686e+003, 1.277461e+002
1.150168e+003, 1.270333e+002
1.150650e+003, 1.261242e+002
1.151132e+003, 1.257051e+002
1.151614e+003, 1.255916e+002
1.152096e+003, 1.256471e+002
1.152578e+003, 1.257716e+002
1.153060e+003, 1.258273e+002
1.153542e+003, 1.257840e+002
1.154025e+003, 1.256315e+002
1.154507e+003, 1.252139e+002
1.154989e+003, 1.248977e+002
1.155471e+003, 1.248578e+002
1.155953e+003, 1.249075e+002
1.156435e+003, 1.249422e+002
1.156917e+003, 1.249779e+002
1.157399e+003, 1.250645e+002
1.157881e+003, 1.251924e+002
1.158364e+003, 1.252582e+002
1.158846e+003, 1.251565e+002
1.159328e+003, 1.251741e+002
1.159810e+003, 1.255730e+002
1.160292e+003, 1.257607e+002
1.160774e+003, 1.254558e+002
1.161256e+003, 1.250030e+002
1.161738e+003, 1.246003e+002
1.162221e+003, 1.242812e+002
1.162703e+003, 1.241301e+002
1.163185e+003, 1.241598e+002
1.163667e+003, 1.242737e+002
1.164149e+003, 1.245470e+002
1.164631e+003, 1.246759e+002
1.165113e+003, 1.245782e+002
1.165595e+003, 1.244391e+002
1.166078e+003, 1.243426e+002
1.166560e+003, 1.242639e+002
1.167042e+003, 1.241586e+002
1.167524e+003, 1.240544e+002
1.168006e+003, 1.241296e+002
1.168488e+003, 1.243982e+002
1.168970e+003, 1.244014e+002
1.169452e+003, 1.241057e+002
1.169934e+003, 1.238945e+002
1.170417e+003, 1.238807e+002
1.170899e+003, 1.238607e+002
1.171381e+003, 1.236783e+002
1.171863e+003, 1.234587e+002
1.172345e+003, 1.234322e+002
1.172827e+003, 1.235399e+002
1.173309e+003, 1.235829e+002
1.173791e+003, 1.235713e+002
1.174273e+003, 1.235330e+002
1.174756e+003, 1.234803e+002
1.175238e+003, 1.234516e+002
1.175720e+003, 1.234592e+002
1.176202e+003, 1.234621e+002
1.176684e+003, 1.234370e+002
1.177166e+003, 1.233644e+002
1.177648e+003, 1.232081e+002
1.178130e+003, 1.229959e+002
1.178613e+003, 1.226875e+002
1.179095e+003, 1.223886e+002
1.179577e+003, 1.223590e+002
1.180059e+003, 1.225638e+002
1.180541e+003, 1.226476e+002
1.181023e+003, 1.224316e+002
1.181505e+003, 1.222435e+002
1.181987e+003, 1.224313e+002
1.182469e+003, 1.225354e+002
1.182952e+003, 1.220149e+002
1.183434e+003, 1.214684e+002
1.183916e+003, 1.216543e+002
1.184398e+003, 1.222084e+002
1.184880e+003, 1.222671e+002
1.185362e+003, 1.217262e+002
1.185844e+003, 1.214248e+002
1.186326e+003, 1.218436e+002
1.186808e+003, 1.220702e+002
1.187291e+003, 1.217301e+002
1.187773e+003, 1.214360e+002
1.188255e+003, 1.215097e+002
1.188737e+003, 1.217052e+002
1.189219e+003, 1.218496e+002
1.189701e+003, 1.219094e+002
1.190183e+003, 1.217435e+002
1.190665e+003, 1.212481e+002
1.191148e+003, 1.210918e+002
1.191630e+003, 1.214378e+002
1.192112e+003, 1.216558e+002
1.192594e+003, 1.215948e+002
1.193076e+003, 1.215556e+002
1.193558e+003, 1.217439e+002
1.194040e+003, 1.218660e+002
1.194522e+003, 1.214841e+002
1.195005e+003, 1.207898e+002
1.195487e+003, 1.206428e+002
1.195969e+003, 1.210177e+002
1.196451e+003, 1.212450e+002
1.196933e+003, 1.212871e+002
1.197415e+003, 1.210575e+002
1.197897e+003, 1.205583e+002
1.198379e+003, 1.203296e+002
1.198861e+003, 1.207402e+002
1.199344e+003, 1.212567e+002
1.199826e+003, 1.211258e+002
1.200308e+003, 1.206098e+002
1.200790e+003, 1.200363e+002
1.201272e+003, 1.195928e+002
1.201754e+003, 1.198698e+002
1.202236e+003, 1.206522e+002
1.202718e+003, 1.211746e+002
1.203200e+003, 1.212280e+002
1.203683e+003, 1.210920e+002
1.204165e+003, 1.208863e+002
1.204647e+003, 1.206736e+002
1.205129e+003, 1.204079e+002
1.205611e+003, 1.202536e+002
1.206093e+003, 1.204434e+002
1.206575e+003, 1.207608e+002
1.207057e+003, 1.210278e+002
1.207540e+003, 1.211660e+002
1.208022e+003, 1.209871e+002
1.208504e+003, 1.204088e+002
1.208986e+003, 1.201117e+002
1.209468e+003, 1.205161e+002
1.209950e+003, 1.208269e+002
1.210432e+003, 1.207765e+002
1.210914e+003, 1.207027e+002
1.211396e+003, 1.209127e+002
1.211879e+003, 1.210568e+002
1.212361e+003, 1.205470e+002
1.212843e+003, 1.197006e+002
1.213325e+003, 1.199204e+002
1.213807e+003, 1.216459e+002
1.214289e+003, 1.222239e+002
1.214771e+003, 1.213151e+002
1.215253e+003, 1.206286e+002
1.215735e+003, 1.205310e+002
1.216218e+003, 1.205517e+002
1.216700e+003, 1.204495e+002
1.217182e+003, 1.202876e+002
1.217664e+003, 1.201316e+002
1.218146e+003, 1.199962e+002
1.218628e+003, 1.199239e+002
1.219110e+003, 1.199117e+002
1.219592e+003, 1.199588e+002
1.220075e+003, 1.200522e+002
1.220557e+003, 1.201316e+002
1.221039e+003, 1.201852e+002
1.221521e+003, 1.202583e+002
1.222003e+003, 1.203792e+002
1.222485e+003, 1.204480e+002
1.222967e+003, 1.203131e+002
1.223449e+003, 1.201236e+002
1.223932e+003, 1.200767e+002
1.224414e+003, 1.200600e+002
1.224896e+003, 1.198757e+002
1.225378e+003, 1.196223e+002
1.225860e+003, 1.195255e+002
1.226342e+003, 1.196061e+002
1.226824e+003, 1.197185e+002
1.227306e+003, 1.198470e+002
1.227788e+003, 1.199047e+002
1.228271e+003, 1.198047e+002
1.228753e+003, 1.197034e+002
1.229235e+003, 1.196147e+002
1.229717e+003, 1.196015e+002
1.230199e+003, 1.197626e+002
1.230681e+003, 1.200089e+002
1.231163e+003, 1.201999e+002
1.231645e+003, 1.203336e+002
1.232127e+003, 1.203492e+002
1.232610e+003, 1.202118e+002
1.233092e+003, 1.200535e+002
1.233574e+003, 1.198596e+002
1.234056e+003, 1.197167e+002
1.234538e+003, 1.196528e+002
1.235020e+003, 1.196342e+002
1.235502e+003, 1.196332e+002
1.235984e+003, 1.196818e+002
1.236467e+003, 1.198669e+002
1.236949e+003, 1.201335e+002
1.237431e+003, 1.202062e+002
1.237913e+003, 1.201415e+002
1.238395e+003, 1.202405e+002
1.238877e+003, 1.204701e+002
1.239359e+003, 1.204755e+002
1.239841e+003, 1.201933e+002
1.240323e+003, 1.200207e+002
1.240806e+003, 1.202470e+002
1.241288e+003, 1.204834e+002
1.241770e+003, 1.202657e+002
1.242252e+003, 1.199734e+002
1.242734e+003, 1.200016e+002
1.243216e+003, 1.201595e+002
1.243698e+003, 1.202609e+002
1.244180e+003, 1.202620e+002
1.244662e+003, 1.200843e+002
1.245145e+003, 1.197381e+002
1.245627e+003, 1.195146e+002
1.246109e+003, 1.196033e+002
1.246591e+003, 1.196114e+002
1.247073e+003, 1.191912e+002
1.247555e+003, 1.190757e+002
1.248037e+003, 1.199111e+002
1.248519e+003, 1.206322e+002
1.249002e+003, 1.203634e+002
1.249484e+003, 1.196188e+002
1.249966e+003, 1.193373e+002
1.250448e+003, 1.194900e+002
1.250930e+003, 1.195500e+002
1.251412e+003, 1.194978e+002
1.251894e+003, 1.195774e+002
1.252376e+003, 1.198113e+002
1.252859e+003, 1.200736e+002
1.253341e+003, 1.203243e+002
1.253823e+003, 1.204996e+002
1.254305e+003, 1.205520e+002
1.254787e+003, 1.205406e+002
1.255269e+003, 1.205040e+002
1.255751e+003, 1.204924e+002
1.256233e+003, 1.207020e+002
1.256715e+003, 1.209486e+002
1.257198e+003, 1.208338e+002
1.257680e+003, 1.204671e+002
1.258162e+003, 1.201447e+002
1.258644e+003, 1.199587e+002
1.259126e+003, 1.199784e+002
1.259608e+003, 1.203063e+002
1.260090e+003, 1.205570e+002
1.260572e+003, 1.205320e+002
1.261054e+003, 1.204144e+002
1.261537e+003, 1.203022e+002
1.262019e+003, 1.201205e+002
1.262501e+003, 1.196194e+002
1.262983e+003, 1.191240e+002
1.263465e+003, 1.192153e+002
1.263947e+003, 1.198077e+002
1.264429e+003, 1.202290e+002
1.264911e+003, 1.204626e+002
1.265394e+003, 1.205587e+002
1.265876e+003, 1.204823e+002
1.266358e+003, 1.204324e+002
1.266840e+003, 1.204627e+002
1.267322e+003, 1.204328e+002
1.267804e+003, 1.202536e+002
1.268286e+003, 1.200797e+002
1.268768e+003, 1.200970e+002
1.269250e+003, 1.202550e+002
1.269733e+003, 1.205188e+002
1.270215e+003, 1.207975e+002
1.270697e+003, 1.208618e+002
1.271179e+003, 1.207432e+002
1.271661e+003, 1.204680e+002
1.272143e+003, 1.201315e+002
1.272625e+003, 1.200324e+002
1.273107e+003, 1.202824e+002
1.273589e+003, 1.205856e+002
1.274072e+003, 1.208120e+002
1.274554e+003, 1.209818e+002
1.275036e+003, 1.212198e+002
1.275518e+003, 1.212734e+002
1.276000e+003, 1.206958e+002
1.276482e+003, 1.200620e+002
1.276964e+003, 1.201691e+002
1.277446e+003, 1.207583e+002
1.277929e+003, 1.208546e+002
1.278411e+003, 1.203877e+002
1.278893e+003, 1.201668e+002
1.279375e+003, 1.202906e+002
1.279857e+003, 1.202875e+002
1.280339e+003, 1.200773e+002
1.280821e+003, 1.199230e+002
1.281303e+003, 1.199221e+002
1.281786e+003, 1.200631e+002
1.282268e+003, 1.203250e+002
##END=



