##NAMES=Ferro-actinolite
##RRUFFID=R060189
##IDEAL CHEMISTRY=[box]Ca_2_Mg_2.5-0_Fe^2+^_2.5-5_Si_8_O_22_(OH)_2_
##LOCALITY=Merry Widow mine, Vancouver Island, British Columbia, Canada
##OWNER=RRUFF
##SOURCE=Lloyd Twaites
##DESCRIPTION=Parallel aggregate of green fibers
##STATUS=The identification of this mineral has been confirmed by X-ray diffraction and chemical analysis
##URL=rruff.info/R060189
##MEASURED CHEMISTRY=[box](Ca_1.94_Na_0.06_)_Σ=2_(Fe^2+^_2.55_Mg_2.15_Fe^3+^_0.20_Al_0.05_Mn_0.05_)_Σ=5_(Si_0.98_Al_0.02_)_8_O_22_(OH)_2_
91.45538, 0.0000000E+00
91.93750, 62.09462
92.41962, 63.26699
92.90173, 62.35341
93.38385, 59.92616
93.86597, 57.96646
94.34808, 58.36248
94.83020, 60.05248
95.31232, 59.76884
95.79443, 56.49591
96.27655, 52.72731
96.75867, 53.49876
97.24078, 58.83022
97.72290, 63.92792
98.20502, 65.13627
98.68713, 62.62008
99.16925, 60.28376
99.65137, 58.79733
100.1335, 57.84186
100.6156, 56.03171
101.0977, 53.00549
101.5798, 50.16238
102.0620, 48.80244
102.5441, 49.29826
103.0262, 49.84858
103.5083, 50.06379
103.9904, 49.94305
104.4725, 50.13612
104.9546, 50.61609
105.4368, 51.43697
105.9189, 52.94916
106.4010, 57.04137
106.8831, 58.82840
107.3652, 56.14589
107.8473, 46.52297
108.3295, 41.23388
108.8116, 42.92519
109.2937, 48.32026
109.7758, 51.87733
110.2579, 52.82814
110.7400, 52.52846
111.2222, 51.11174
111.7043, 46.95144
112.1864, 44.52502
112.6685, 44.70001
113.1506, 46.84389
113.6327, 49.33826
114.1149, 52.66167
114.5970, 55.81487
115.0791, 58.31462
115.5612, 60.87762
116.0433, 61.83539
116.5254, 59.12203
117.0076, 53.75907
117.4897, 50.49366
117.9718, 52.86714
118.4539, 57.24055
118.9360, 60.54925
119.4181, 59.93237
119.9003, 59.66585
120.3824, 62.43121
120.8645, 67.98556
121.3466, 73.47884
121.8287, 77.01579
122.3108, 79.46952
122.7930, 82.02869
123.2751, 84.99015
123.7572, 88.34232
124.2393, 91.31510
124.7214, 93.73289
125.2035, 98.33724
125.6857, 109.6645
126.1678, 125.2183
126.6499, 139.1210
127.1320, 146.6151
127.6141, 151.0196
128.0962, 157.8731
128.5784, 167.9246
129.0605, 178.7360
129.5426, 186.3272
130.0247, 191.3979
130.5068, 198.3579
130.9889, 211.8042
131.4711, 229.5028
131.9532, 243.6643
132.4353, 252.6560
132.9174, 259.3997
133.3995, 269.4388
133.8816, 282.8893
134.3638, 296.3355
134.8459, 306.0128
135.3280, 312.2549
135.8101, 323.1040
136.2922, 341.1225
136.7743, 363.6675
137.2565, 381.2686
137.7386, 392.7625
138.2207, 404.3296
138.7028, 422.0956
139.1849, 447.4651
139.6670, 469.9069
140.1492, 487.1818
140.6313, 499.8444
141.1134, 513.4584
141.5955, 527.6897
142.0776, 543.1684
142.5597, 559.9103
143.0419, 576.1884
143.5240, 597.9749
144.0061, 627.4445
144.4882, 665.5212
144.9703, 700.9426
145.4524, 733.3755
145.9346, 763.6937
146.4167, 793.9258
146.8988, 827.7761
147.3809, 855.9348
147.8630, 876.7565
148.3451, 891.6279
148.8273, 894.5207
149.3094, 882.1019
149.7915, 858.8788
150.2736, 831.4708
150.7557, 794.2014
151.2378, 757.5959
151.7200, 724.0181
152.2021, 691.0175
152.6842, 665.3220
153.1663, 650.1904
153.6484, 641.9730
154.1305, 633.9183
154.6127, 621.2702
155.0948, 609.9232
155.5769, 600.4678
156.0590, 593.6833
156.5411, 587.5114
157.0232, 581.0811
157.5054, 575.0080
157.9875, 570.7631
158.4696, 568.7299
158.9517, 568.4431
159.4338, 569.8809
159.9159, 574.3730
160.3981, 578.2947
160.8802, 578.8720
161.3623, 577.7916
161.8444, 579.8753
162.3265, 588.7981
162.8086, 600.1625
163.2908, 611.0717
163.7729, 620.6064
164.2550, 629.9396
164.7371, 639.0148
165.2192, 648.1513
165.7013, 658.6638
166.1834, 671.3486
166.6656, 685.5676
167.1477, 700.6703
167.6298, 715.1763
168.1119, 731.8532
168.5940, 753.6432
169.0761, 779.8369
169.5583, 806.2040
170.0404, 830.5081
170.5225, 853.5030
171.0046, 876.3432
171.4867, 903.1988
171.9688, 926.6974
172.4510, 941.7405
172.9331, 948.4633
173.4152, 947.5571
173.8973, 939.8588
174.3794, 924.9274
174.8615, 901.8474
175.3437, 866.8783
175.8258, 825.2385
176.3079, 781.8417
176.7900, 736.3961
177.2721, 693.6047
177.7542, 657.1454
178.2364, 626.4404
178.7185, 599.3996
179.2006, 575.2716
179.6827, 554.2701
180.1648, 537.1694
180.6469, 523.8981
181.1291, 512.6298
181.6112, 501.3517
182.0933, 490.4792
182.5754, 480.9690
183.0575, 473.9075
183.5396, 468.4746
184.0218, 462.2995
184.5039, 455.0748
184.9860, 449.4556
185.4681, 449.5995
185.9502, 454.5724
186.4323, 459.3995
186.9145, 461.6047
187.3966, 461.9616
187.8787, 463.3277
188.3608, 465.9660
188.8429, 468.6172
189.3250, 468.8713
189.8072, 467.0433
190.2893, 466.8112
190.7714, 470.3846
191.2535, 477.1554
191.7356, 484.2312
192.2177, 491.6895
192.6999, 498.9727
193.1820, 505.3266
193.6641, 510.7104
194.1462, 516.1207
194.6283, 522.5233
195.1104, 529.7216
195.5926, 534.5096
196.0747, 535.5367
196.5568, 536.9515
197.0389, 547.3448
197.5210, 567.5402
198.0031, 586.5219
198.4853, 597.6907
198.9674, 601.0443
199.4495, 608.4709
199.9316, 621.1785
200.4137, 636.4703
200.8958, 649.2664
201.3780, 659.3547
201.8601, 668.8671
202.3422, 678.2933
202.8243, 687.4998
203.3064, 698.6969
203.7885, 712.5251
204.2707, 727.8156
204.7528, 742.4011
205.2349, 755.9873
205.7170, 769.4935
206.1991, 783.2381
206.6812, 797.1907
207.1634, 811.6117
207.6455, 826.4612
208.1276, 841.6125
208.6097, 856.8937
209.0918, 872.3568
209.5739, 887.2773
210.0561, 901.2113
210.5382, 913.9919
211.0203, 926.4607
211.5024, 938.3906
211.9845, 950.2421
212.4666, 963.1559
212.9488, 977.7398
213.4309, 991.6945
213.9130, 1004.018
214.3951, 1014.654
214.8772, 1023.998
215.3593, 1032.069
215.8414, 1038.931
216.3236, 1044.824
216.8057, 1049.956
217.2878, 1053.580
217.7699, 1055.549
218.2520, 1056.148
218.7341, 1054.073
219.2163, 1048.894
219.6984, 1041.288
220.1805, 1032.831
220.6626, 1024.262
221.1447, 1013.380
221.6268, 998.6764
222.1090, 978.9929
222.5911, 959.4587
223.0732, 940.1893
223.5553, 921.0699
224.0374, 901.2398
224.5195, 880.5475
225.0017, 859.6243
225.4838, 839.1534
225.9659, 818.8582
226.4480, 798.8714
226.9301, 778.5825
227.4122, 758.7228
227.8944, 740.8911
228.3765, 725.8920
228.8586, 711.2589
229.3407, 695.9962
229.8228, 679.8655
230.3049, 663.7941
230.7871, 647.0158
231.2692, 630.8110
231.7513, 617.8167
232.2334, 609.9368
232.7155, 602.3634
233.1976, 593.1407
233.6798, 581.2286
234.1619, 570.9639
234.6440, 563.0178
235.1261, 556.3382
235.6082, 549.0003
236.0903, 539.9975
236.5725, 531.9662
237.0546, 525.9427
237.5367, 522.7587
238.0188, 518.9487
238.5009, 514.1633
238.9830, 508.9450
239.4652, 504.3195
239.9473, 500.8857
240.4294, 496.9831
240.9115, 491.8264
241.3936, 484.9248
241.8757, 479.1667
242.3579, 475.2577
242.8400, 472.0474
243.3221, 467.6200
243.8042, 460.8226
244.2863, 454.8365
244.7684, 450.9933
245.2506, 450.0372
245.7327, 447.1571
246.2148, 440.7400
246.6969, 433.6505
247.1790, 430.0921
247.6611, 432.6271
248.1433, 434.0792
248.6254, 432.1063
249.1075, 425.9295
249.5896, 421.5568
250.0717, 419.7053
250.5538, 418.9517
251.0360, 417.5160
251.5181, 414.8532
252.0002, 412.5267
252.4823, 411.1088
252.9644, 410.7262
253.4465, 409.2856
253.9287, 405.7324
254.4108, 402.2356
254.8929, 401.4941
255.3750, 405.5319
255.8571, 407.9099
256.3392, 406.7226
256.8214, 401.9305
257.3035, 398.9684
257.7856, 398.5949
258.2677, 399.1167
258.7498, 399.1717
259.2319, 399.1201
259.7141, 397.6027
260.1962, 393.4933
260.6783, 387.1238
261.1604, 384.0812
261.6425, 385.5997
262.1246, 388.5102
262.6068, 390.1796
263.0889, 390.0760
263.5710, 390.2500
264.0531, 391.1328
264.5352, 392.5479
265.0173, 393.6300
265.4995, 394.7444
265.9816, 394.8200
266.4637, 392.5171
266.9458, 386.5595
267.4279, 382.8482
267.9100, 382.6655
268.3922, 385.0836
268.8743, 386.1988
269.3564, 385.5595
269.8385, 384.7401
270.3206, 384.6850
270.8027, 385.5138
271.2849, 386.7543
271.7670, 388.8820
272.2491, 391.1096
272.7312, 390.7625
273.2133, 386.9590
273.6954, 383.3947
274.1776, 382.5931
274.6597, 385.1346
275.1418, 385.6757
275.6239, 383.2117
276.1060, 379.4533
276.5881, 378.0773
277.0703, 379.4017
277.5524, 381.5693
278.0345, 383.7684
278.5166, 386.0009
278.9987, 388.6608
279.4808, 392.1836
279.9630, 395.3731
280.4451, 395.6931
280.9272, 392.7719
281.4093, 390.3790
281.8914, 390.3493
282.3735, 392.5391
282.8557, 394.5894
283.3378, 396.6398
283.8199, 398.1516
284.3020, 397.9622
284.7841, 396.0154
285.2662, 394.6656
285.7484, 395.0480
286.2305, 396.7797
286.7126, 397.8085
287.1947, 398.0887
287.6768, 397.9237
288.1589, 397.4322
288.6411, 396.6634
289.1232, 396.2133
289.6053, 396.2949
290.0874, 396.8031
290.5695, 397.6400
291.0516, 398.8554
291.5338, 399.7382
292.0159, 399.4290
292.4980, 398.1394
292.9801, 397.0079
293.4622, 396.3461
293.9443, 395.9130
294.4265, 395.3058
294.9086, 394.5145
295.3907, 393.4161
295.8728, 391.5244
296.3549, 389.2148
296.8370, 387.6811
297.3192, 387.2817
297.8013, 387.4780
298.2834, 387.6464
298.7655, 387.7770
299.2476, 387.7887
299.7297, 387.9439
300.2119, 387.9096
300.6940, 386.7954
301.1761, 384.2447
301.6582, 381.5436
302.1403, 379.8578
302.6224, 379.1466
303.1046, 379.2284
303.5867, 380.8433
304.0688, 382.8846
304.5509, 383.7378
305.0330, 383.2228
305.5151, 382.1762
305.9973, 381.0064
306.4794, 379.8557
306.9615, 379.0164
307.4436, 378.8078
307.9257, 378.8392
308.4078, 378.4776
308.8900, 377.7221
309.3721, 377.6425
309.8542, 379.3677
310.3363, 382.1278
310.8184, 384.9083
311.3005, 388.2138
311.7827, 390.7377
312.2648, 391.0615
312.7469, 389.5098
313.2290, 388.1401
313.7111, 388.0919
314.1932, 388.7797
314.6754, 389.6961
315.1575, 390.7330
315.6396, 391.9322
316.1217, 393.2965
316.6038, 394.8247
317.0859, 396.5522
317.5681, 398.2248
318.0502, 400.2506
318.5323, 402.9815
319.0144, 406.7679
319.4965, 410.5966
319.9786, 414.7165
320.4608, 418.5856
320.9429, 421.2768
321.4250, 420.6774
321.9071, 420.3364
322.3892, 421.8822
322.8713, 425.8361
323.3535, 430.1937
323.8356, 435.3986
324.3177, 440.5251
324.7998, 444.4764
325.2819, 444.9498
325.7640, 446.3500
326.2462, 450.5925
326.7283, 458.0898
327.2104, 463.5825
327.6925, 464.9482
328.1746, 465.1381
328.6567, 466.4338
329.1389, 470.1227
329.6210, 473.4698
330.1031, 476.1479
330.5852, 478.2032
331.0673, 480.1629
331.5494, 482.5307
332.0316, 484.3206
332.5137, 484.9060
332.9958, 483.2578
333.4779, 482.2416
333.9600, 481.9321
334.4421, 482.3179
334.9243, 483.5311
335.4064, 486.3772
335.8885, 488.7264
336.3706, 489.6367
336.8527, 488.8498
337.3348, 487.4931
337.8170, 484.7653
338.2991, 482.3196
338.7812, 483.2342
339.2633, 488.7314
339.7454, 493.2298
340.2275, 494.3128
340.7096, 492.1796
341.1917, 492.9305
341.6739, 497.5500
342.1560, 502.4936
342.6381, 503.3255
343.1202, 499.6821
343.6023, 498.5864
344.0844, 502.4823
344.5666, 509.5869
345.0487, 513.7009
345.5308, 514.6245
346.0129, 515.0550
346.4950, 517.0057
346.9771, 520.2928
347.4593, 523.8373
347.9414, 527.7105
348.4235, 531.4179
348.9056, 533.9652
349.3877, 535.4705
349.8698, 537.0677
350.3520, 539.7316
350.8341, 542.9210
351.3162, 545.5089
351.7983, 547.4431
352.2804, 548.6183
352.7625, 548.0533
353.2447, 546.5247
353.7268, 546.0526
354.2089, 548.7689
354.6910, 552.3485
355.1731, 554.1031
355.6552, 554.0635
356.1374, 553.1199
356.6195, 551.5464
357.1016, 549.5568
357.5837, 547.3630
358.0658, 544.5689
358.5479, 542.1951
359.0301, 541.1406
359.5122, 541.1607
359.9943, 541.3854
360.4764, 542.9157
360.9585, 543.5492
361.4406, 541.2450
361.9228, 534.5142
362.4049, 527.8861
362.8870, 523.7045
363.3691, 520.7509
363.8512, 516.9914
364.3333, 510.3544
364.8155, 504.0746
365.2976, 499.5518
365.7797, 497.0633
366.2618, 494.9841
366.7439, 493.3066
367.2260, 491.7295
367.7082, 489.9747
368.1903, 487.0322
368.6724, 484.9686
369.1545, 484.7756
369.6366, 486.2226
370.1187, 486.2337
370.6009, 482.7491
371.0830, 479.6026
371.5651, 478.7301
372.0472, 480.9510
372.5293, 484.1368
373.0114, 488.9409
373.4936, 494.4617
373.9757, 498.4873
374.4578, 500.3185
374.9399, 501.9034
375.4220, 503.9579
375.9041, 506.5760
376.3863, 509.0339
376.8684, 511.2953
377.3505, 513.4958
377.8326, 515.9339
378.3147, 518.6945
378.7968, 521.1410
379.2790, 523.2523
379.7611, 524.9188
380.2432, 525.5740
380.7253, 525.1110
381.2074, 524.3209
381.6895, 523.8502
382.1717, 523.6412
382.6538, 523.4050
383.1359, 523.3632
383.6180, 522.7320
384.1001, 519.7125
384.5822, 514.6223
385.0644, 509.5366
385.5465, 506.0526
386.0286, 503.3507
386.5107, 499.3973
386.9928, 494.0034
387.4749, 488.7670
387.9571, 485.7375
388.4392, 484.0122
388.9213, 481.7784
389.4034, 478.1823
389.8855, 473.9270
390.3676, 469.1631
390.8498, 464.0246
391.3319, 459.6258
391.8140, 457.7294
392.2961, 456.3285
392.7782, 453.4298
393.2603, 447.9413
393.7425, 442.1910
394.2246, 437.2826
394.7067, 432.9577
395.1888, 428.6811
395.6709, 423.3895
396.1530, 418.8929
396.6352, 416.7640
397.1173, 417.8467
397.5994, 416.7784
398.0815, 410.2217
398.5636, 402.0938
399.0457, 396.1192
399.5279, 394.7728
400.0100, 393.2172
400.4921, 390.5161
400.9742, 386.8881
401.4563, 384.1289
401.9384, 383.1922
402.4206, 382.1235
402.9027, 379.8553
403.3848, 375.6073
403.8669, 371.9933
404.3490, 369.3768
404.8311, 367.1556
405.3133, 364.0933
405.7954, 359.8094
406.2775, 355.8022
406.7596, 352.5745
407.2417, 350.1152
407.7238, 347.7827
408.2060, 345.7003
408.6881, 343.3391
409.1702, 339.8266
409.6523, 335.2381
410.1344, 331.3275
410.6165, 328.3712
411.0987, 326.3030
411.5808, 325.5421
412.0629, 325.9474
412.5450, 325.8437
413.0271, 323.8604
413.5092, 320.6345
413.9914, 317.2677
414.4735, 313.6645
414.9556, 310.9810
415.4377, 311.4028
415.9198, 313.5221
416.4019, 314.4487
416.8841, 311.8325
417.3662, 308.3066
417.8483, 306.1960
418.3304, 305.3320
418.8125, 304.4751
419.2946, 303.0530
419.7768, 301.2760
420.2589, 299.0788
420.7410, 295.2708
421.2231, 293.3003
421.7052, 296.0896
422.1873, 301.4430
422.6695, 305.3308
423.1516, 305.2055
423.6337, 304.7738
424.1158, 305.3940
424.5979, 307.3232
425.0800, 309.0578
425.5622, 309.9188
426.0443, 310.8543
426.5264, 312.6547
427.0085, 316.4478
427.4906, 319.3322
427.9727, 320.5062
428.4549, 320.5693
428.9370, 321.7900
429.4191, 324.6145
429.9012, 327.8242
430.3833, 331.3502
430.8654, 335.5668
431.3476, 337.1962
431.8297, 335.6467
432.3118, 332.6085
432.7939, 330.2565
433.2760, 328.6396
433.7581, 326.6662
434.2403, 324.1222
434.7224, 320.9935
435.2045, 317.0780
435.6866, 312.3761
436.1687, 307.5634
436.6508, 303.1209
437.1329, 298.9299
437.6151, 294.7611
438.0972, 290.5465
438.5793, 286.3965
439.0614, 282.3371
439.5435, 278.4311
440.0256, 274.8224
440.5078, 271.6552
440.9899, 268.7514
441.4720, 266.1053
441.9541, 263.6788
442.4362, 261.1656
442.9183, 257.9312
443.4005, 254.7903
443.8826, 252.4522
444.3647, 251.3217
444.8468, 250.5996
445.3289, 250.1264
445.8110, 249.8854
446.2932, 249.8382
446.7753, 250.3344
447.2574, 250.6884
447.7395, 250.6587
448.2216, 250.1934
448.7037, 249.6160
449.1859, 248.8910
449.6680, 248.0774
450.1501, 247.1607
450.6322, 245.8182
451.1143, 245.1304
451.5964, 245.6210
452.0786, 246.6756
452.5607, 246.0966
453.0428, 243.1040
453.5249, 241.1663
454.0070, 242.6701
454.4891, 247.4566
454.9713, 249.9213
455.4534, 249.7415
455.9355, 248.5190
456.4176, 247.8904
456.8997, 247.7612
457.3818, 247.5646
457.8640, 247.0957
458.3461, 246.5775
458.8282, 246.4364
459.3103, 246.6065
459.7924, 246.7553
460.2745, 246.4184
460.7567, 246.0601
461.2388, 246.3979
461.7209, 247.5678
462.2030, 248.6878
462.6851, 249.4715
463.1672, 249.7610
463.6494, 249.3680
464.1315, 246.2822
464.6136, 244.4127
465.0957, 246.4412
465.5778, 251.3492
466.0599, 254.8911
466.5421, 255.3394
467.0242, 254.7147
467.5063, 253.8284
467.9884, 252.5874
468.4705, 251.4848
468.9526, 250.1850
469.4348, 249.2200
469.9169, 249.2513
470.3990, 251.0361
470.8811, 252.3386
471.3632, 252.6202
471.8453, 252.1172
472.3275, 251.9672
472.8096, 252.0499
473.2917, 252.8552
473.7738, 255.3662
474.2559, 259.5603
474.7380, 261.1902
475.2202, 259.7179
475.7023, 257.1632
476.1844, 255.9063
476.6665, 255.8186
477.1486, 256.2516
477.6307, 257.3716
478.1129, 258.5193
478.5950, 258.2379
479.0771, 256.8153
479.5592, 255.9486
480.0413, 257.5446
480.5234, 259.8578
481.0056, 260.6985
481.4877, 259.5390
481.9698, 258.6477
482.4519, 259.5036
482.9340, 261.3498
483.4161, 263.2591
483.8983, 265.5501
484.3804, 267.2152
484.8625, 267.7000
485.3446, 267.1899
485.8267, 266.6777
486.3088, 266.3937
486.7910, 266.0565
487.2731, 265.3419
487.7552, 263.6099
488.2373, 263.5895
488.7194, 266.3244
489.2015, 269.8209
489.6837, 271.8579
490.1658, 272.0045
490.6479, 271.9530
491.1300, 271.7306
491.6121, 271.6432
492.0942, 272.7916
492.5764, 275.2379
493.0585, 278.2701
493.5406, 282.3734
494.0227, 286.8903
494.5048, 288.1982
494.9869, 285.8295
495.4691, 283.3560
495.9512, 284.8432
496.4333, 289.0577
496.9154, 293.1116
497.3975, 296.3448
497.8796, 298.9696
498.3618, 300.9984
498.8439, 302.5702
499.3260, 304.1479
499.8081, 306.0077
500.2902, 307.8894
500.7723, 309.6617
501.2545, 311.3102
501.7366, 312.7783
502.2187, 313.7589
502.7008, 314.6897
503.1829, 315.9327
503.6650, 318.7585
504.1472, 320.3125
504.6293, 319.5317
505.1114, 317.5410
505.5935, 316.9875
506.0756, 318.3331
506.5577, 320.2809
507.0399, 322.6573
507.5220, 325.4455
508.0041, 327.2313
508.4862, 327.7185
508.9683, 328.1471
509.4504, 329.7840
509.9326, 332.5150
510.4147, 334.6830
510.8968, 335.9088
511.3789, 336.9715
511.8610, 339.1358
512.3431, 342.1707
512.8253, 345.0976
513.3074, 347.6041
513.7895, 349.7628
514.2716, 351.7850
514.7537, 353.6182
515.2358, 354.8731
515.7180, 354.1689
516.2001, 353.4585
516.6822, 354.6459
517.1643, 358.7281
517.6464, 362.5461
518.1285, 365.2227
518.6107, 366.9356
519.0928, 367.8805
519.5749, 366.2876
520.0570, 365.9971
520.5391, 368.2625
521.0212, 372.4947
521.5034, 375.7640
521.9855, 378.0529
522.4676, 379.3548
522.9497, 379.4000
523.4318, 377.9742
523.9139, 377.4403
524.3961, 378.3271
524.8782, 378.7572
525.3603, 376.2718
525.8424, 371.0555
526.3245, 366.0597
526.8066, 361.7766
527.2888, 358.0906
527.7709, 355.3579
528.2530, 353.2693
528.7351, 350.4850
529.2172, 345.5323
529.6993, 340.0034
530.1815, 335.8099
530.6636, 332.9681
531.1457, 330.0220
531.6278, 325.1667
532.1099, 320.4071
532.5920, 317.7734
533.0742, 319.2671
533.5563, 319.6205
534.0384, 316.3974
534.5205, 311.4799
535.0026, 307.7658
535.4847, 306.5537
535.9669, 305.2203
536.4490, 303.0147
536.9311, 300.1858
537.4132, 298.8803
537.8953, 299.7945
538.3774, 300.7398
538.8596, 300.4203
539.3417, 298.7054
539.8238, 297.6563
540.3059, 297.4261
540.7880, 297.3046
541.2701, 296.3330
541.7523, 294.7052
542.2344, 293.4239
542.7165, 292.7752
543.1986, 292.4802
543.6807, 292.3974
544.1628, 292.4015
544.6450, 292.1027
545.1271, 291.3299
545.6092, 290.1519
546.0913, 288.4219
546.5734, 286.1771
547.0555, 284.1689
547.5377, 282.3907
548.0198, 281.1796
548.5019, 280.9000
548.9840, 282.8180
549.4661, 283.3289
549.9482, 280.8346
550.4304, 277.3784
550.9125, 275.5908
551.3946, 276.6024
551.8767, 276.9892
552.3588, 275.9362
552.8409, 273.8575
553.3231, 272.2085
553.8052, 270.9332
554.2873, 270.4029
554.7694, 271.3206
555.2515, 273.3066
555.7336, 273.9880
556.2158, 273.2554
556.6979, 272.5735
557.1800, 274.2085
557.6621, 276.6878
558.1442, 277.0118
558.6263, 273.8892
559.1085, 270.1752
559.5906, 267.4667
560.0727, 265.8422
560.5548, 265.4695
561.0369, 267.9314
561.5190, 270.1778
562.0012, 270.9470
562.4833, 270.3449
562.9654, 269.5080
563.4475, 268.5699
563.9296, 267.4332
564.4117, 265.8607
564.8939, 263.5163
565.3760, 262.3956
565.8581, 263.0087
566.3402, 264.0963
566.8223, 264.5958
567.3044, 264.5230
567.7866, 263.4364
568.2687, 260.9109
568.7508, 258.0132
569.2329, 256.6996
569.7150, 256.7630
570.1971, 256.9229
570.6793, 256.9718
571.1614, 256.5777
571.6435, 254.7034
572.1256, 251.6699
572.6077, 249.4582
573.0898, 250.5013
573.5720, 251.9880
574.0541, 251.4762
574.5362, 248.2132
575.0183, 245.2138
575.5004, 243.1956
575.9825, 242.0148
576.4647, 241.6131
576.9468, 242.9901
577.4289, 243.7152
577.9110, 243.5025
578.3931, 242.6410
578.8752, 241.6433
579.3574, 240.4185
579.8395, 239.3934
580.3216, 238.7112
580.8037, 238.3290
581.2858, 238.1374
581.7679, 238.1423
582.2501, 238.1456
582.7322, 238.4047
583.2143, 238.4971
583.6964, 236.8967
584.1785, 233.3164
584.6606, 230.5362
585.1427, 231.9736
585.6248, 235.1475
586.1069, 236.7874
586.5891, 235.1162
587.0712, 233.2821
587.5533, 232.4420
588.0354, 232.3459
588.5175, 232.5372
588.9996, 233.6109
589.4818, 234.2064
589.9639, 233.7859
590.4460, 232.5273
590.9281, 231.8132
591.4102, 231.6922
591.8923, 232.0293
592.3745, 233.0172
592.8566, 234.6858
593.3387, 235.1925
593.8208, 234.2787
594.3029, 233.4775
594.7850, 234.7789
595.2672, 237.5045
595.7493, 239.3759
596.2314, 239.8672
596.7135, 239.7192
597.1956, 239.4522
597.6777, 239.1143
598.1599, 238.7905
598.6420, 238.1905
599.1241, 237.9409
599.6062, 238.6245
600.0883, 239.9820
600.5704, 241.0244
601.0526, 240.8496
601.5347, 240.9599
602.0168, 242.2288
602.4989, 244.8483
602.9810, 245.9943
603.4631, 244.8026
603.9453, 243.5288
604.4274, 243.8418
604.9095, 245.8964
605.3916, 247.9133
605.8737, 249.8389
606.3558, 251.6177
606.8380, 253.2335
607.3201, 254.6561
607.8022, 255.7914
608.2843, 256.5987
608.7664, 257.1364
609.2485, 257.4864
609.7307, 257.6294
610.2128, 257.5230
610.6949, 255.7621
611.1770, 254.9972
611.6591, 257.5063
612.1412, 262.9293
612.6234, 266.9634
613.1055, 267.9796
613.5876, 267.9977
614.0697, 267.6942
614.5518, 266.7657
615.0339, 266.9332
615.5161, 268.3093
615.9982, 270.5984
616.4803, 274.0624
616.9624, 278.8109
617.4445, 282.0092
617.9266, 283.0786
618.4088, 283.1701
618.8909, 283.0246
619.3730, 283.1496
619.8551, 285.4747
620.3372, 292.4477
620.8193, 299.9420
621.3015, 303.2417
621.7836, 303.5898
622.2657, 304.6653
622.7478, 308.8931
623.2299, 313.5215
623.7120, 317.1556
624.1942, 319.6818
624.6763, 322.6501
625.1584, 326.4417
625.6405, 330.5331
626.1226, 334.6256
626.6047, 338.6626
627.0869, 343.0761
627.5690, 347.9905
628.0511, 353.0167
628.5332, 357.7101
629.0153, 362.0936
629.4974, 366.6088
629.9796, 371.4297
630.4617, 376.1303
630.9438, 379.5254
631.4259, 382.3839
631.9080, 386.6835
632.3901, 394.1705
632.8723, 402.3698
633.3544, 410.0724
633.8365, 417.0959
634.3186, 423.1040
634.8007, 426.7571
635.2828, 430.5278
635.7650, 435.4857
636.2471, 441.7052
636.7292, 448.0295
637.2113, 454.3359
637.6934, 460.8588
638.1755, 467.7553
638.6577, 475.1762
639.1398, 482.0252
639.6219, 488.1875
640.1040, 494.4037
640.5861, 501.5369
641.0682, 509.3888
641.5504, 516.8381
642.0325, 523.4709
642.5146, 530.3689
642.9967, 537.7770
643.4788, 546.2712
643.9609, 556.8275
644.4431, 571.7919
644.9252, 586.8058
645.4073, 599.1395
645.8894, 610.0070
646.3715, 622.1550
646.8536, 635.9803
647.3358, 651.2899
647.8179, 668.0436
648.3000, 686.1741
648.7821, 706.7177
649.2642, 729.8969
649.7463, 754.6093
650.2285, 780.1365
650.7106, 806.6051
651.1927, 837.5956
651.6748, 873.1630
652.1569, 910.3170
652.6390, 946.7527
653.1212, 983.2200
653.6033, 1021.817
654.0854, 1062.791
654.5675, 1105.625
655.0496, 1150.019
655.5317, 1195.485
656.0139, 1242.061
656.4960, 1287.049
656.9781, 1336.176
657.4602, 1391.041
657.9423, 1449.659
658.4244, 1509.863
658.9066, 1572.164
659.3887, 1633.973
659.8708, 1694.818
660.3529, 1754.690
660.8350, 1813.664
661.3171, 1871.258
661.7993, 1928.367
662.2814, 1987.713
662.7635, 2045.600
663.2456, 2097.325
663.7277, 2142.484
664.2098, 2180.065
664.6920, 2210.794
665.1741, 2232.292
665.6562, 2243.121
666.1383, 2243.323
666.6204, 2231.011
667.1025, 2205.937
667.5847, 2167.624
668.0668, 2116.121
668.5489, 2048.306
669.0310, 1974.019
669.5131, 1892.318
669.9952, 1804.881
670.4774, 1711.439
670.9595, 1612.823
671.4416, 1516.437
671.9237, 1423.171
672.4058, 1333.583
672.8879, 1248.197
673.3701, 1168.203
673.8522, 1095.572
674.3343, 1032.915
674.8164, 975.9197
675.2985, 922.6064
675.7806, 872.9789
676.2628, 827.3270
676.7449, 788.1281
677.2270, 751.7868
677.7091, 716.4332
678.1912, 682.7095
678.6733, 654.7119
679.1555, 634.1842
679.6376, 615.6813
680.1197, 595.9453
680.6018, 575.6182
681.0839, 559.1985
681.5660, 546.8509
682.0482, 535.5532
682.5303, 522.5364
683.0124, 508.8201
683.4945, 495.9744
683.9766, 484.4343
684.4587, 473.3289
684.9409, 462.6381
685.4230, 452.0208
685.9051, 440.8535
686.3872, 427.8441
686.8693, 416.7090
687.3514, 408.9359
687.8336, 403.0036
688.3157, 397.6755
688.7978, 393.6718
689.2799, 388.0745
689.7620, 379.8600
690.2441, 370.6752
690.7263, 363.4782
691.2084, 358.1341
691.6905, 353.8888
692.1726, 351.1945
692.6547, 348.6074
693.1368, 343.6743
693.6190, 337.1381
694.1011, 331.1812
694.5832, 327.3266
695.0653, 323.9202
695.5474, 319.9236
696.0295, 315.4818
696.5117, 311.5983
696.9938, 308.6245
697.4759, 306.0257
697.9580, 303.7065
698.4401, 301.6718
698.9222, 299.5605
699.4044, 297.2594
699.8865, 295.2409
700.3686, 294.6020
700.8507, 294.6300
701.3328, 291.3726
701.8149, 284.5512
702.2971, 278.4548
702.7792, 277.6792
703.2613, 279.2638
703.7434, 279.6654
704.2255, 278.0878
704.7076, 276.1521
705.1898, 273.7555
705.6719, 271.6766
706.1540, 270.7093
706.6361, 271.5996
707.1182, 272.4030
707.6003, 273.2883
708.0825, 273.8420
708.5646, 273.3652
709.0467, 271.8053
709.5288, 270.2194
710.0109, 268.8177
710.4930, 267.4677
710.9752, 265.6355
711.4573, 263.6474
711.9394, 262.4867
712.4215, 263.2252
712.9036, 264.1531
713.3857, 263.8241
713.8679, 262.7918
714.3500, 262.4398
714.8321, 263.9539
715.3142, 265.3180
715.7963, 266.2261
716.2784, 266.6087
716.7606, 265.8099
717.2427, 263.1355
717.7248, 261.5448
718.2069, 262.8446
718.6890, 266.1892
719.1711, 268.1514
719.6533, 268.7411
720.1354, 268.1368
720.6175, 264.6324
721.0996, 261.0213
721.5817, 261.4213
722.0638, 265.8281
722.5460, 269.5816
723.0281, 270.0247
723.5102, 269.5693
723.9923, 269.6581
724.4744, 270.5914
724.9565, 271.2201
725.4387, 271.4720
725.9208, 271.5218
726.4029, 271.0502
726.8850, 269.9653
727.3671, 271.3200
727.8492, 275.5881
728.3314, 280.4056
728.8135, 283.5775
729.2956, 285.4366
729.7777, 286.4109
730.2598, 286.3592
730.7419, 286.3355
731.2241, 286.7647
731.7062, 287.7004
732.1883, 289.2123
732.6704, 292.1660
733.1525, 294.4954
733.6346, 296.0250
734.1168, 296.9127
734.5989, 297.2740
735.0810, 297.0064
735.5631, 296.7315
736.0452, 296.5339
736.5273, 296.4082
737.0095, 296.4717
737.4916, 296.6316
737.9737, 296.5085
738.4558, 295.9770
738.9379, 295.1107
739.4200, 293.6860
739.9022, 291.9897
740.3843, 290.6627
740.8664, 289.5337
741.3485, 289.2112
741.8306, 290.8737
742.3127, 293.4570
742.7949, 293.5645
743.2770, 290.0098
743.7591, 287.3003
744.2412, 287.4156
744.7233, 289.1247
745.2054, 288.0035
745.6876, 284.2958
746.1697, 280.9039
746.6518, 280.4097
747.1339, 280.4416
747.6160, 277.8404
748.0981, 273.1160
748.5803, 269.2362
749.0624, 268.0676
749.5445, 267.4576
750.0266, 266.4619
750.5087, 265.0447
750.9908, 263.5665
751.4730, 261.8887
751.9551, 260.4679
752.4372, 259.7451
752.9193, 259.5996
753.4014, 258.5915
753.8835, 256.7271
754.3657, 254.6017
754.8478, 252.0672
755.3299, 249.8413
755.8120, 249.3698
756.2941, 250.7201
756.7762, 251.7229
757.2584, 250.7773
757.7405, 249.4889
758.2226, 248.9762
758.7047, 249.6561
759.1868, 249.7936
759.6689, 249.1344
760.1511, 248.3072
760.6332, 247.8044
761.1153, 247.6361
761.5974, 247.1320
762.0795, 246.2318
762.5616, 245.3123
763.0438, 244.6408
763.5259, 244.2142
764.0080, 244.2266
764.4901, 244.8721
764.9722, 244.8856
765.4543, 242.3989
765.9365, 239.6712
766.4186, 238.7750
766.9007, 241.4907
767.3828, 243.0503
767.8649, 243.0426
768.3470, 242.3825
768.8292, 242.0449
769.3113, 242.0405
769.7934, 241.5929
770.2755, 240.6087
770.7576, 239.2393
771.2397, 236.9237
771.7219, 234.5132
772.2040, 233.7709
772.6861, 235.7080
773.1682, 237.7699
773.6503, 238.8063
774.1324, 239.1911
774.6146, 239.3419
775.0967, 239.2572
775.5788, 239.0358
776.0609, 238.7054
776.5430, 238.2097
777.0251, 237.2869
777.5073, 235.9298
777.9894, 235.1109
778.4715, 235.0264
778.9536, 235.4645
779.4357, 236.8423
779.9178, 238.4155
780.4000, 238.7101
780.8821, 236.6342
781.3642, 234.2593
781.8463, 231.9821
782.3284, 230.1679
782.8105, 229.4897
783.2926, 230.9240
783.7747, 231.7568
784.2568, 231.6045
784.7390, 230.8704
785.2211, 230.0512
785.7032, 229.1791
786.1853, 228.8972
786.6674, 229.6532
787.1495, 230.4261
787.6317, 229.2169
788.1138, 227.1729
788.5959, 226.5546
789.0780, 229.8679
789.5601, 232.6830
790.0422, 233.3147
790.5244, 232.4469
791.0065, 231.4035
791.4886, 229.9933
791.9707, 228.8637
792.4528, 228.0985
792.9349, 227.6448
793.4171, 227.3671
793.8992, 227.2795
794.3813, 227.5178
794.8634, 228.2122
795.3455, 229.0908
795.8276, 230.1245
796.3098, 231.0948
796.7919, 231.6077
797.2740, 231.6957
797.7561, 231.0867
798.2382, 228.7328
798.7203, 225.8614
799.2025, 224.8646
799.6846, 226.1863
800.1667, 228.1636
800.6488, 230.9837
801.1309, 233.5367
801.6130, 232.8853
802.0952, 229.7712
802.5773, 227.7440
803.0594, 228.7101
803.5415, 230.3417
804.0236, 230.6934
804.5057, 230.3287
804.9879, 230.3212
805.4700, 231.8191
805.9521, 232.6252
806.4342, 231.8844
806.9163, 230.4893
807.3984, 230.3339
807.8806, 231.7212
808.3627, 232.4760
808.8448, 231.9626
809.3269, 230.8091
809.8090, 229.5701
810.2911, 228.5421
810.7733, 228.6612
811.2554, 231.2089
811.7375, 233.7106
812.2196, 235.1165
812.7017, 235.4048
813.1838, 234.4624
813.6660, 230.6153
814.1481, 228.0650
814.6302, 227.5287
815.1123, 228.3013
815.5944, 229.1955
816.0765, 230.2118
816.5587, 231.4604
817.0408, 233.1852
817.5229, 234.6377
818.0050, 234.3550
818.4871, 233.1643
818.9692, 232.6230
819.4514, 233.8715
819.9335, 235.0872
820.4156, 235.8934
820.8977, 236.2094
821.3798, 235.9081
821.8619, 234.6286
822.3441, 233.5755
822.8262, 232.7427
823.3083, 232.4739
823.7904, 234.1942
824.2725, 237.1949
824.7546, 238.0394
825.2368, 235.0927
825.7189, 231.7091
826.2010, 230.3071
826.6831, 230.4434
827.1652, 231.5710
827.6473, 234.8430
828.1295, 237.2747
828.6116, 238.3541
829.0937, 238.6725
829.5758, 238.9134
830.0579, 239.1078
830.5400, 238.7534
831.0222, 237.5931
831.5043, 236.6135
831.9864, 237.3712
832.4685, 239.1633
832.9506, 240.7019
833.4327, 241.8174
833.9149, 242.1694
834.3970, 240.2668
834.8791, 238.2085
835.3612, 238.3142
835.8433, 242.5550
836.3254, 244.9480
836.8076, 245.0420
837.2897, 244.1162
837.7718, 243.2778
838.2539, 242.5575
838.7360, 242.2099
839.2181, 242.2909
839.7003, 242.4386
840.1824, 242.2164
840.6645, 241.9494
841.1466, 242.0636
841.6287, 242.7916
842.1108, 243.2633
842.5930, 243.1195
843.0751, 242.8485
843.5572, 242.8300
844.0393, 243.1888
844.5214, 242.7019
845.0035, 241.1818
845.4857, 240.0222
845.9678, 240.9321
846.4499, 242.8788
846.9320, 243.9101
847.4141, 243.8672
847.8962, 243.8571
848.3784, 244.5351
848.8605, 245.3947
849.3426, 246.2134
849.8247, 247.0142
850.3068, 247.2102
850.7889, 246.4167
851.2711, 245.9409
851.7532, 246.9846
852.2353, 249.0550
852.7174, 249.4621
853.1995, 248.3194
853.6816, 246.9101
854.1638, 245.3371
854.6459, 244.4191
855.1280, 245.4582
855.6101, 248.1912
856.0922, 249.7168
856.5743, 248.1432
857.0565, 246.9411
857.5386, 247.4284
858.0207, 249.1404
858.5028, 249.4320
858.9849, 248.2708
859.4670, 247.2919
859.9492, 247.2665
860.4313, 247.8955
860.9134, 248.8586
861.3955, 250.1472
861.8776, 251.7680
862.3597, 255.2415
862.8419, 257.3697
863.3240, 255.9375
863.8061, 252.5317
864.2882, 250.4652
864.7703, 249.7355
865.2524, 250.5242
865.7346, 253.4678
866.2167, 256.9095
866.6988, 257.7379
867.1809, 256.6543
867.6630, 255.6662
868.1451, 255.3946
868.6273, 255.5165
869.1094, 255.8997
869.5915, 256.5502
870.0736, 257.5334
870.5557, 259.3997
871.0378, 260.4444
871.5200, 260.2876
872.0021, 259.7345
872.4842, 259.9503
872.9663, 260.7531
873.4484, 261.0603
873.9305, 260.6187
874.4127, 260.1769
874.8948, 260.6235
875.3769, 261.2894
875.8590, 261.2566
876.3411, 259.5987
876.8232, 259.6488
877.3054, 262.5639
877.7875, 266.0773
878.2696, 268.7920
878.7517, 270.7203
879.2338, 271.3013
879.7159, 270.4674
880.1981, 269.5771
880.6802, 269.9442
881.1623, 270.7658
881.6444, 270.9795
882.1265, 270.5219
882.6086, 270.3141
883.0908, 270.6396
883.5729, 271.3056
884.0550, 272.1168
884.5371, 273.1177
885.0192, 275.2753
885.5013, 278.8200
885.9835, 281.5910
886.4656, 281.8955
886.9477, 281.0738
887.4298, 281.3905
887.9119, 282.6432
888.3940, 284.1520
888.8762, 286.4221
889.3583, 288.0328
889.8404, 287.2969
890.3225, 285.5897
890.8046, 286.6568
891.2867, 291.4642
891.7689, 295.6431
892.2510, 298.3935
892.7331, 299.7369
893.2152, 298.7159
893.6973, 296.3063
894.1794, 295.2469
894.6616, 296.8401
895.1437, 299.0426
895.6258, 301.1807
896.1079, 303.1200
896.5900, 304.7384
897.0721, 306.2177
897.5543, 306.9124
898.0364, 306.5826
898.5185, 305.9579
899.0006, 305.5859
899.4827, 305.5739
899.9648, 306.4863
900.4470, 308.4344
900.9291, 310.4076
901.4112, 311.3945
901.8933, 312.2570
902.3754, 313.8906
902.8575, 316.6981
903.3397, 318.0997
903.8218, 316.9456
904.3039, 316.5706
904.7860, 319.7224
905.2681, 325.3412
905.7502, 327.1848
906.2324, 325.6023
906.7145, 323.8864
907.1966, 324.1285
907.6787, 324.9731
908.1608, 324.9800
908.6429, 324.5450
909.1251, 325.7932
909.6072, 330.2858
910.0893, 334.2538
910.5714, 336.5132
911.0535, 338.0382
911.5356, 341.6771
912.0178, 347.0957
912.4999, 351.4965
912.9820, 353.2527
913.4641, 355.0490
913.9462, 359.8442
914.4283, 366.0384
914.9105, 371.3574
915.3926, 373.9330
915.8747, 377.5907
916.3568, 383.0664
916.8389, 388.8696
917.3210, 393.1481
917.8032, 396.0894
918.2853, 400.4877
918.7674, 406.6982
919.2495, 412.9027
919.7316, 417.3400
920.2137, 421.0692
920.6959, 425.2844
921.1780, 430.2162
921.6601, 434.6671
922.1422, 438.1333
922.6243, 441.6234
923.1064, 445.7928
923.5886, 450.4379
924.0707, 453.8529
924.5528, 456.0321
925.0349, 457.3345
925.5170, 457.9401
925.9991, 457.7565
926.4813, 456.3759
926.9634, 454.0849
927.4455, 451.8024
927.9276, 449.9398
928.4097, 447.9546
928.8918, 446.3402
929.3740, 444.0918
929.8561, 438.3006
930.3382, 429.3812
930.8203, 422.4441
931.3024, 419.0868
931.7845, 416.6071
932.2667, 412.1361
932.7488, 406.9838
933.2309, 402.7352
933.7130, 400.2294
934.1951, 397.5278
934.6772, 394.1037
935.1594, 390.9191
935.6415, 389.0773
936.1236, 388.4385
936.6057, 385.9261
937.0878, 381.4669
937.5699, 377.7194
938.0521, 377.5696
938.5342, 378.3316
939.0163, 377.1014
939.4984, 374.0184
939.9805, 372.5860
940.4626, 375.0940
940.9448, 376.4674
941.4269, 374.8889
941.9090, 371.3773
942.3911, 369.2237
942.8732, 368.2364
943.3553, 366.9840
943.8375, 364.8487
944.3196, 362.3500
944.8017, 359.6157
945.2838, 356.9184
945.7659, 354.6381
946.2480, 353.2862
946.7302, 351.7398
947.2123, 349.9691
947.6944, 347.9927
948.1765, 345.6124
948.6586, 342.9977
949.1407, 340.9738
949.6229, 339.6340
950.1050, 338.7447
950.5871, 338.4059
951.0692, 338.2424
951.5513, 337.9227
952.0334, 337.3980
952.5156, 337.1684
952.9977, 337.4667
953.4798, 337.5468
953.9619, 337.0442
954.4440, 336.1158
954.9261, 335.2958
955.4083, 334.4879
955.8904, 333.2657
956.3725, 330.4395
956.8546, 328.2069
957.3367, 328.5521
957.8188, 330.0746
958.3010, 329.9056
958.7831, 326.7508
959.2652, 325.4394
959.7473, 326.8374
960.2294, 329.1620
960.7115, 330.5689
961.1937, 331.1163
961.6758, 330.7955
962.1579, 329.5562
962.6400, 328.1214
963.1221, 326.7391
963.6042, 325.4005
964.0864, 323.8979
964.5685, 322.2008
965.0506, 321.7730
965.5327, 322.8286
966.0148, 323.9352
966.4969, 324.4084
966.9791, 324.3990
967.4612, 323.7702
967.9433, 322.8466
968.4254, 322.6241
968.9075, 324.8025
969.3896, 326.1303
969.8718, 324.7921
970.3539, 322.6455
970.8360, 323.0587
971.3181, 326.3380
971.8002, 327.2010
972.2823, 324.5309
972.7645, 320.9842
973.2466, 319.3661
973.7287, 318.5590
974.2108, 316.8936
974.6929, 313.7589
975.1750, 312.2199
975.6572, 314.0630
976.1393, 316.1081
976.6214, 316.6161
977.1035, 315.9501
977.5856, 317.1335
978.0677, 319.9945
978.5499, 322.2171
979.0320, 322.5412
979.5141, 321.6499
979.9962, 319.1359
980.4783, 315.9048
980.9604, 314.1566
981.4425, 314.3462
981.9246, 315.8651
982.4067, 319.3624
982.8889, 322.8776
983.3710, 323.0372
983.8531, 320.7741
984.3352, 319.5370
984.8173, 319.9191
985.2994, 320.5436
985.7816, 320.6454
986.2637, 320.5632
986.7458, 320.2687
987.2279, 319.7115
987.7100, 320.8538
988.1921, 324.1297
988.6743, 327.1573
989.1564, 328.6900
989.6385, 329.2492
990.1206, 329.2457
990.6027, 329.0915
991.0848, 329.9585
991.5670, 333.8457
992.0491, 336.9616
992.5312, 337.9562
993.0133, 337.8110
993.4954, 337.1027
993.9775, 335.6355
994.4597, 337.5202
994.9418, 343.7274
995.4239, 349.5267
995.9060, 349.2142
996.3881, 346.9181
996.8702, 347.2995
997.3524, 351.0060
997.8345, 354.7496
998.3166, 358.2063
998.7987, 361.3459
999.2808, 363.9381
999.7629, 366.3189
1000.245, 369.9279
1000.727, 374.4820
1001.209, 378.3776
1001.691, 380.5470
1002.174, 382.3664
1002.656, 384.2755
1003.138, 386.5392
1003.620, 389.4858
1004.102, 393.0960
1004.584, 397.5993
1005.066, 403.3149
1005.548, 408.9903
1006.030, 413.3761
1006.513, 416.8962
1006.995, 420.4125
1007.477, 423.9804
1007.959, 427.8864
1008.441, 432.5034
1008.923, 437.1651
1009.405, 441.4249
1009.887, 445.5144
1010.370, 450.4606
1010.852, 456.2767
1011.334, 461.8117
1011.816, 466.9265
1012.298, 471.2664
1012.780, 473.6424
1013.262, 475.3682
1013.744, 478.2717
1014.226, 483.4312
1014.709, 488.2728
1015.191, 492.9627
1015.673, 496.8283
1016.155, 498.6031
1016.637, 498.9963
1017.119, 501.6605
1017.601, 506.3472
1018.083, 511.0968
1018.565, 515.2877
1019.048, 518.7112
1019.530, 520.5063
1020.012, 521.5086
1020.494, 523.8469
1020.976, 527.7188
1021.458, 532.3276
1021.940, 537.9113
1022.422, 542.9482
1022.905, 544.8537
1023.387, 545.2830
1023.869, 546.9488
1024.351, 550.6509
1024.833, 553.2722
1025.315, 553.6853
1025.797, 553.2494
1026.279, 552.5665
1026.761, 551.5268
1027.244, 549.0566
1027.726, 545.3898
1028.208, 542.4516
1028.690, 541.4528
1029.172, 541.2424
1029.654, 541.4878
1030.136, 541.8434
1030.618, 541.6396
1031.101, 540.2774
1031.583, 539.8019
1032.065, 540.2247
1032.547, 541.8358
1033.029, 545.1720
1033.511, 549.7858
1033.993, 554.6299
1034.475, 559.6988
1034.958, 566.3887
1035.440, 576.8479
1035.922, 587.2906
1036.404, 596.3588
1036.886, 604.5436
1037.368, 612.6689
1037.850, 620.8793
1038.332, 630.2964
1038.814, 641.5929
1039.297, 653.3986
1039.779, 663.9020
1040.261, 674.5880
1040.743, 687.6719
1041.225, 704.5773
1041.707, 718.5768
1042.189, 729.0934
1042.671, 738.1454
1043.153, 746.3592
1043.636, 754.3455
1044.118, 765.2268
1044.600, 777.6161
1045.082, 786.8128
1045.564, 788.4808
1046.046, 789.7625
1046.528, 792.6285
1047.010, 796.0814
1047.493, 799.3445
1047.975, 802.3428
1048.457, 802.0346
1048.939, 798.0129
1049.421, 792.2177
1049.903, 786.2917
1050.385, 779.2316
1050.867, 769.3418
1051.349, 756.6573
1051.832, 747.1542
1052.314, 742.4152
1052.796, 736.0206
1053.278, 725.4597
1053.760, 712.9760
1054.242, 701.8376
1054.724, 691.9933
1055.206, 682.8666
1055.688, 673.9625
1056.171, 666.9009
1056.653, 662.9417
1057.135, 660.1805
1057.617, 657.4255
1058.099, 654.7334
1058.581, 653.6515
1059.063, 654.0478
1059.545, 654.3282
1060.028, 654.0493
1060.510, 652.8134
1060.992, 650.6814
1061.474, 647.2676
1061.956, 641.7917
1062.438, 634.0237
1062.920, 625.2288
1063.402, 615.5799
1063.885, 605.0488
1064.367, 595.0064
1064.849, 583.3777
1065.331, 565.9673
1065.813, 542.6957
1066.295, 520.4352
1066.777, 500.1748
1067.259, 482.6382
1067.741, 468.6938
1068.224, 456.8696
1068.706, 443.2295
1069.188, 428.2850
1069.670, 415.0790
1070.152, 405.0843
1070.634, 395.1180
1071.116, 381.4419
1071.598, 368.4385
1072.080, 359.9395
1072.563, 356.3440
1073.045, 352.6401
1073.527, 348.9280
1074.009, 344.5093
1074.491, 338.0702
1074.973, 331.5748
1075.455, 328.1387
1075.937, 326.2792
1076.420, 322.8490
1076.902, 315.0893
1077.384, 309.4787
1077.866, 306.8610
1078.348, 305.2224
1078.830, 302.4057
1079.312, 298.9736
1079.794, 296.3608
1080.276, 294.6429
1080.759, 293.5253
1081.241, 294.2522
1081.723, 293.8701
1082.205, 290.9870
1082.687, 286.6410
1083.169, 282.9747
1083.651, 280.0528
1084.133, 279.1714
1084.615, 281.1282
1085.098, 282.3416
1085.580, 278.3721
1086.062, 273.4521
1086.544, 271.6626
1087.026, 273.2747
1087.508, 274.3215
1087.990, 274.9476
1088.472, 274.0106
1088.954, 270.0862
1089.437, 265.6163
1089.919, 264.3299
1090.401, 264.9990
1090.883, 265.4414
1091.365, 264.6935
1091.847, 264.5818
1092.329, 265.9165
1092.811, 266.5499
1093.294, 263.7564
1093.776, 258.9981
1094.258, 258.2758
1094.740, 260.8127
1095.222, 262.0274
1095.704, 258.6482
1096.186, 254.8402
1096.668, 251.4089
1097.151, 248.7593
1097.633, 247.9109
1098.115, 248.7945
1098.597, 248.5830
1099.079, 246.9355
1099.561, 245.3989
1100.043, 245.4463
1100.525, 245.8508
1101.007, 245.7166
1101.490, 245.0595
1101.972, 244.1799
1102.454, 242.7537
1102.936, 243.1466
1103.418, 246.6939
1103.900, 250.1003
1104.382, 248.6801
1104.864, 244.8388
1105.346, 241.4075
1105.829, 238.6022
1106.311, 238.1432
1106.793, 241.6138
1107.275, 243.8393
1107.757, 241.4990
1108.239, 237.0805
1108.721, 236.6935
1109.203, 239.2020
1109.686, 241.6613
1110.168, 243.6864
1110.650, 244.2010
1111.132, 241.8889
1111.614, 239.0978
1112.096, 237.3320
1112.578, 236.5964
1113.060, 237.4688
1113.542, 239.6731
1114.025, 240.7597
1114.507, 238.1513
1114.989, 235.2996
1115.471, 234.2393
1115.953, 234.0318
1116.435, 232.8873
1116.917, 230.5661
1117.399, 229.9624
1117.881, 231.4531
1118.364, 233.0617
1118.846, 233.2139
1119.328, 232.5929
1119.810, 231.4021
1120.292, 229.8748
1120.774, 229.3616
1121.256, 230.2751
1121.738, 230.7957
1122.221, 230.4076
1122.703, 229.9020
1123.185, 230.8190
1123.667, 232.0464
1124.149, 231.8731
1124.631, 229.9230
1125.113, 227.8145
1125.595, 225.3125
1126.078, 223.5736
1126.560, 223.1013
1127.042, 223.5676
1127.524, 224.9288
1128.006, 226.5652
1128.488, 226.7777
1128.970, 224.6019
1129.452, 222.3844
1129.934, 220.7925
1130.417, 219.3925
1130.899, 217.6578
1131.381, 215.8862
1131.863, 216.3106
1132.345, 218.5364
1132.827, 220.4404
1133.309, 221.6526
1133.791, 221.4563
1134.273, 217.8657
1134.756, 213.7997
1135.238, 212.5681
1135.720, 214.4070
1136.202, 215.8413
1136.684, 216.8061
1137.166, 217.0503
1137.648, 215.6598
1138.130, 214.2093
1138.613, 213.9577
1139.095, 214.5324
1139.577, 214.8895
1140.059, 214.9896
1140.541, 215.0471
1141.023, 215.0930
1141.505, 215.0083
1141.987, 214.4860
1142.469, 213.9125
1142.952, 213.7182
1143.434, 213.8926
1143.916, 214.1452
1144.398, 214.6575
1144.880, 214.5727
1145.362, 213.5575
1145.844, 212.3770
1146.326, 211.7969
1146.808, 211.8592
1147.291, 213.1532
1147.773, 215.9067
1148.255, 216.6158
1148.737, 213.8323
1149.219, 211.0599
1149.701, 209.3112
1150.183, 208.3873
1150.665, 208.7355
1151.148, 209.4090
1151.630, 207.8024
1152.112, 201.9884
1152.594, 199.0421
1153.076, 202.6666
1153.558, 206.8657
1154.040, 208.7265
1154.522, 208.8951
1155.005, 210.1040
1155.487, 211.7418
1155.969, 211.5028
1156.451, 207.1081
1156.933, 203.3940
1157.415, 202.7265
1157.897, 202.8135
1158.379, 201.6082
1158.861, 199.4736
1159.344, 201.6487
1159.826, 207.3581
1160.308, 211.2321
1160.790, 208.2820
1161.272, 205.2276
1161.754, 205.8872
1162.236, 207.7589
1162.718, 208.1677
1163.200, 207.0831
1163.683, 205.8318
1164.165, 204.4769
1164.647, 203.6046
1165.129, 203.5002
1165.611, 204.1426
1166.093, 206.7269
1166.575, 209.6050
1167.057, 209.1461
1167.540, 204.7521
1168.022, 203.2780
1168.504, 205.5237
1168.986, 207.7139
1169.468, 205.9100
1169.950, 203.4802
1170.432, 203.3330
1170.914, 205.0120
1171.396, 205.8830
1171.879, 205.8840
1172.361, 205.2941
1172.843, 204.0435
1173.325, 202.9197
1173.807, 203.2659
1174.289, 203.7628
1174.771, 202.6584
1175.253, 200.0479
1175.735, 199.3142
1176.218, 200.9959
1176.700, 202.3684
1177.182, 202.7533
1177.664, 202.5637
1178.146, 201.3062
1178.628, 200.3484
1179.110, 201.9794
1179.592, 206.8615
1180.075, 209.3191
1180.557, 208.7022
1181.039, 207.4493
1181.521, 206.2063
1182.003, 205.2006
1182.485, 204.7851
1182.967, 204.8104
1183.449, 205.1940
1183.932, 206.1803
1184.414, 206.1777
1184.896, 204.8006
1185.378, 203.4380
1185.860, 202.7199
1186.342, 202.3948
1186.824, 202.0064
1187.306, 201.6812
1187.788, 201.6553
1188.271, 202.0595
1188.753, 202.6762
1189.235, 203.6986
1189.717, 204.3817
1190.199, 204.0212
1190.681, 203.2142
1191.163, 203.0416
1191.645, 203.4157
1192.127, 204.1551
1192.610, 205.6442
1193.092, 206.8013
1193.574, 207.8257
1194.056, 207.9631
1194.538, 206.0808
1195.020, 203.1251
1195.502, 201.0382
1195.984, 199.7539
1196.467, 199.0544
1196.949, 198.7358
1197.431, 199.4173
1197.913, 201.7216
1198.395, 203.8233
1198.877, 203.6719
1199.359, 202.2893
1199.841, 202.0394
1200.323, 202.8028
1200.806, 203.7932
1201.288, 205.2977
1201.770, 206.0964
1202.252, 205.8961
1202.734, 205.2871
1203.216, 204.6078
1203.698, 204.1102
1204.180, 204.8315
1204.662, 206.5210
1205.145, 207.3683
1205.627, 206.2422
1206.109, 204.7081
1206.591, 202.6205
1207.073, 200.9397
1207.555, 201.1638
1208.037, 202.7052
1208.519, 204.5880
1209.002, 206.5889
1209.484, 207.5214
1209.966, 206.6047
1210.448, 204.7955
1210.930, 201.6674
1211.412, 198.7405
1211.894, 198.6479
1212.376, 200.3089
1212.859, 201.1637
1213.341, 200.9863
1213.823, 201.4823
1214.305, 204.5001
1214.787, 206.4526
1215.269, 206.6366
1215.751, 205.2696
1216.233, 201.1504
1216.715, 196.2271
1217.198, 195.2441
1217.680, 198.9242
1218.162, 202.1127
1218.644, 203.3761
1219.126, 204.0425
1219.608, 204.3665
1220.090, 204.4179
1220.572, 204.2574
1221.054, 203.9397
1221.537, 203.2792
1222.019, 202.1288
1222.501, 202.5431
1222.983, 206.4812
1223.465, 208.9954
1223.947, 208.1920
1224.429, 205.8114
1224.911, 204.8285
1225.394, 204.6890
1225.876, 204.3621
1226.358, 203.6135
1226.840, 203.0474
1227.322, 202.8702
1227.804, 202.5667
1228.286, 201.7883
1228.768, 201.0623
1229.250, 201.7229
1229.733, 202.9737
1230.215, 203.3300
1230.697, 202.3068
1231.179, 201.5246
1231.661, 201.0789
1232.143, 201.0032
1232.625, 201.4406
1233.107, 202.0410
1233.589, 201.9927
1234.072, 201.7848
1234.554, 202.3149
1235.036, 204.0566
1235.518, 205.1138
1236.000, 205.3195
1236.482, 205.0890
1236.964, 204.1721
1237.446, 203.6135
1237.929, 206.2788
1238.411, 209.7682
1238.893, 210.0244
1239.375, 204.8985
1239.857, 202.8885
1240.339, 204.6435
1240.821, 206.5295
1241.303, 206.7854
1241.786, 206.4050
1242.268, 206.7439
1242.750, 207.2254
1243.232, 206.9727
1243.714, 205.7733
1244.196, 204.3951
1244.678, 202.7350
1245.160, 201.8444
1245.642, 202.6179
1246.125, 203.8403
1246.607, 203.9950
1247.089, 203.9551
1247.571, 205.1666
1248.053, 207.9446
1248.535, 209.1478
1249.017, 208.7248
1249.499, 208.2211
1249.981, 208.4859
1250.464, 208.8412
1250.946, 208.6682
1251.428, 208.3186
1251.910, 208.3792
1252.392, 208.9527
1252.874, 207.6482
1253.356, 204.6252
1253.838, 202.8826
1254.321, 205.1237
1254.803, 207.2978
1255.285, 205.7353
1255.767, 203.7034
1256.249, 204.9461
1256.731, 209.2307
1257.213, 209.6410
1257.695, 206.6595
1258.177, 204.1714
1258.660, 204.1054
1259.142, 204.8347
1259.624, 206.3246
1260.106, 207.6671
1260.588, 208.1107
1261.070, 207.7765
1261.552, 207.5024
1262.034, 207.2674
1262.516, 206.9684
1262.999, 206.4893
1263.481, 206.0333
1263.963, 205.2335
1264.445, 205.0522
1264.927, 206.9016
1265.409, 209.7530
1265.891, 209.4006
1266.373, 206.7582
1266.856, 204.7027
1267.338, 204.5960
1267.820, 204.5886
1268.302, 204.2245
1268.784, 204.4169
1269.266, 206.3371
1269.748, 208.9637
1270.230, 210.1605
1270.713, 210.2449
1271.195, 209.9427
1271.677, 208.7670
1272.159, 208.7164
1272.641, 210.2315
1273.123, 211.3451
1273.605, 210.2141
1274.087, 208.3881
1274.569, 207.9301
1275.052, 208.3943
1275.534, 209.0169
1276.016, 209.8391
1276.498, 210.3335
1276.980, 210.5185
1277.462, 210.1665
1277.944, 208.4065
1278.426, 206.8863
1278.908, 207.6983
1279.391, 209.5001
1279.873, 210.4629
1280.355, 210.5576
1280.837, 209.2878
1281.319, 206.7017
1281.801, 205.0626
1282.283, 206.2720
1282.765, 207.8618
1283.247, 208.7914
1283.730, 208.9162
1284.212, 207.8098
1284.694, 205.5721
1285.176, 204.9781
1285.658, 205.8632
1286.140, 207.3745
1286.622, 210.1842
1287.104, 211.7968
1287.587, 210.3401
1288.069, 208.3965
1288.551, 207.6508
1289.033, 207.8267
1289.515, 207.7588
1289.997, 207.6217
1290.479, 208.0004
1290.961, 209.7489
1291.443, 210.6531
1291.926, 210.2974
1292.408, 209.5241
1292.890, 208.9635
1293.372, 208.2381
1293.854, 205.3900
1294.336, 202.1031
1294.818, 201.9447
1295.300, 208.2809
1295.782, 210.9776
1296.265, 209.2269
1296.747, 207.7034
1297.229, 209.8005
1297.711, 212.1275
1298.193, 209.1073
1298.675, 204.3821
1299.157, 203.8432
1299.639, 208.3510
1300.122, 209.2541
1300.604, 206.4563
1301.086, 205.2830
1301.568, 209.4707
1302.050, 213.2074
1302.532, 211.4122
1303.014, 207.7304
1303.496, 205.2694
1303.979, 204.1013
##END=



