##NAMES=Ferronordite-(Ce)
##RRUFFID=R130528
##IDEAL CHEMISTRY=Na_3_SrCe^3+^Fe^2+^Si_6_O_17_
##LOCALITY=Bolshoi Punkaruaiv Mt, Lovozero Massif, Kola Peninsula, Murmanskaja Oblast', Northern Region, Russia
##OWNER=RRUFF
##SOURCE=Rock Currier
##DESCRIPTION=Colorless to pale brownish tabular or platy crystals in rosette-like aggregates, associated with ussingite.
##STATUS=The identification of this mineral has been confirmed only by single crystal X-ray diffraction.
##URL=rruff.info/R130528
##MEASURED CHEMISTRY=Na_3.06_(Sr_0.90_Ca_0.08_Ba_0.02_)_Σ=1.00_(Ce_0.50_La_0.47_Nd_0.06_Pr_0.04_)_Σ=1.07_(Fe_0.34_Zn_0.30_Mn_0.27_Mg_0.06_)_Σ=0.97_Si_5.95_O_17_
8.758203e+001, 3.242757e+003
8.806415e+001, 3.177639e+003
8.854626e+001, 3.166224e+003
8.902838e+001, 3.235187e+003
8.951050e+001, 3.318279e+003
8.999261e+001, 3.390346e+003
9.047473e+001, 3.450970e+003
9.095685e+001, 3.510872e+003
9.143896e+001, 3.580784e+003
9.192108e+001, 3.661007e+003
9.240320e+001, 3.736014e+003
9.288531e+001, 3.756999e+003
9.336743e+001, 3.704887e+003
9.384955e+001, 3.605229e+003
9.433167e+001, 3.515340e+003
9.481378e+001, 3.421059e+003
9.529590e+001, 3.332614e+003
9.577802e+001, 3.251531e+003
9.626013e+001, 3.185496e+003
9.674225e+001, 3.140508e+003
9.722437e+001, 3.113792e+003
9.770648e+001, 3.089616e+003
9.818860e+001, 3.063573e+003
9.867072e+001, 3.040651e+003
9.915283e+001, 3.022904e+003
9.963495e+001, 3.010211e+003
1.001171e+002, 3.001597e+003
1.005992e+002, 2.997144e+003
1.010813e+002, 3.000555e+003
1.015634e+002, 2.998310e+003
1.020455e+002, 2.987308e+003
1.025277e+002, 2.971584e+003
1.030098e+002, 2.953269e+003
1.034919e+002, 2.933218e+003
1.039740e+002, 2.912231e+003
1.044561e+002, 2.893464e+003
1.049382e+002, 2.879974e+003
1.054204e+002, 2.864616e+003
1.059025e+002, 2.843925e+003
1.063846e+002, 2.820753e+003
1.068667e+002, 2.800208e+003
1.073488e+002, 2.785465e+003
1.078309e+002, 2.776023e+003
1.083131e+002, 2.766849e+003
1.087952e+002, 2.755415e+003
1.092773e+002, 2.746079e+003
1.097594e+002, 2.740966e+003
1.102415e+002, 2.740075e+003
1.107236e+002, 2.743125e+003
1.112058e+002, 2.750907e+003
1.116879e+002, 2.762773e+003
1.121700e+002, 2.776713e+003
1.126521e+002, 2.796446e+003
1.131342e+002, 2.817041e+003
1.136163e+002, 2.829153e+003
1.140985e+002, 2.828927e+003
1.145806e+002, 2.827147e+003
1.150627e+002, 2.831541e+003
1.155448e+002, 2.840157e+003
1.160269e+002, 2.848505e+003
1.165090e+002, 2.854064e+003
1.169912e+002, 2.856853e+003
1.174733e+002, 2.857689e+003
1.179554e+002, 2.856403e+003
1.184375e+002, 2.852911e+003
1.189196e+002, 2.845522e+003
1.194017e+002, 2.835087e+003
1.198839e+002, 2.824837e+003
1.203660e+002, 2.820032e+003
1.208481e+002, 2.827418e+003
1.213302e+002, 2.822378e+003
1.218123e+002, 2.798264e+003
1.222944e+002, 2.769075e+003
1.227766e+002, 2.741121e+003
1.232587e+002, 2.717024e+003
1.237408e+002, 2.698128e+003
1.242229e+002, 2.687214e+003
1.247050e+002, 2.690123e+003
1.251871e+002, 2.694321e+003
1.256693e+002, 2.698150e+003
1.261514e+002, 2.703566e+003
1.266335e+002, 2.713619e+003
1.271156e+002, 2.730117e+003
1.275977e+002, 2.750906e+003
1.280798e+002, 2.769787e+003
1.285620e+002, 2.787295e+003
1.290441e+002, 2.803174e+003
1.295262e+002, 2.817766e+003
1.300083e+002, 2.830915e+003
1.304904e+002, 2.841923e+003
1.309725e+002, 2.851853e+003
1.314547e+002, 2.858033e+003
1.319368e+002, 2.856330e+003
1.324189e+002, 2.843214e+003
1.329010e+002, 2.826202e+003
1.333831e+002, 2.814398e+003
1.338652e+002, 2.809796e+003
1.343474e+002, 2.799794e+003
1.348295e+002, 2.772118e+003
1.353116e+002, 2.737202e+003
1.357937e+002, 2.705752e+003
1.362758e+002, 2.682622e+003
1.367579e+002, 2.664973e+003
1.372401e+002, 2.644932e+003
1.377222e+002, 2.618745e+003
1.382043e+002, 2.596213e+003
1.386864e+002, 2.581341e+003
1.391685e+002, 2.571421e+003
1.396507e+002, 2.562144e+003
1.401328e+002, 2.550093e+003
1.406149e+002, 2.535489e+003
1.410970e+002, 2.527038e+003
1.415791e+002, 2.533375e+003
1.420612e+002, 2.538070e+003
1.425434e+002, 2.537085e+003
1.430255e+002, 2.530682e+003
1.435076e+002, 2.520895e+003
1.439897e+002, 2.509358e+003
1.444718e+002, 2.495790e+003
1.449539e+002, 2.481892e+003
1.454361e+002, 2.466454e+003
1.459182e+002, 2.451640e+003
1.464003e+002, 2.438410e+003
1.468824e+002, 2.426953e+003
1.473645e+002, 2.417159e+003
1.478466e+002, 2.408958e+003
1.483288e+002, 2.402595e+003
1.488109e+002, 2.397634e+003
1.492930e+002, 2.395395e+003
1.497751e+002, 2.393921e+003
1.502572e+002, 2.390851e+003
1.507393e+002, 2.385457e+003
1.512215e+002, 2.379644e+003
1.517036e+002, 2.376438e+003
1.521857e+002, 2.375680e+003
1.526678e+002, 2.374858e+003
1.531499e+002, 2.371837e+003
1.536320e+002, 2.368110e+003
1.541142e+002, 2.367936e+003
1.545963e+002, 2.374146e+003
1.550784e+002, 2.381686e+003
1.555605e+002, 2.385894e+003
1.560426e+002, 2.386847e+003
1.565247e+002, 2.384961e+003
1.570069e+002, 2.379014e+003
1.574890e+002, 2.369124e+003
1.579711e+002, 2.361130e+003
1.584532e+002, 2.357138e+003
1.589353e+002, 2.355030e+003
1.594174e+002, 2.353667e+003
1.598996e+002, 2.352885e+003
1.603817e+002, 2.352752e+003
1.608638e+002, 2.353615e+003
1.613459e+002, 2.355975e+003
1.618280e+002, 2.357588e+003
1.623102e+002, 2.355250e+003
1.627923e+002, 2.353842e+003
1.632744e+002, 2.357261e+003
1.637565e+002, 2.366508e+003
1.642386e+002, 2.378845e+003
1.647207e+002, 2.389280e+003
1.652029e+002, 2.396008e+003
1.656850e+002, 2.403519e+003
1.661671e+002, 2.413643e+003
1.666492e+002, 2.423843e+003
1.671313e+002, 2.432073e+003
1.676134e+002, 2.437372e+003
1.680956e+002, 2.440083e+003
1.685777e+002, 2.441146e+003
1.690598e+002, 2.441337e+003
1.695419e+002, 2.438756e+003
1.700240e+002, 2.433666e+003
1.705061e+002, 2.425629e+003
1.709883e+002, 2.412974e+003
1.714704e+002, 2.394288e+003
1.719525e+002, 2.371839e+003
1.724346e+002, 2.355647e+003
1.729167e+002, 2.349081e+003
1.733988e+002, 2.343302e+003
1.738810e+002, 2.334773e+003
1.743631e+002, 2.324882e+003
1.748452e+002, 2.317463e+003
1.753273e+002, 2.315043e+003
1.758094e+002, 2.316569e+003
1.762915e+002, 2.317471e+003
1.767737e+002, 2.317026e+003
1.772558e+002, 2.316808e+003
1.777379e+002, 2.317928e+003
1.782200e+002, 2.320288e+003
1.787021e+002, 2.322747e+003
1.791842e+002, 2.324012e+003
1.796664e+002, 2.325287e+003
1.801485e+002, 2.328849e+003
1.806306e+002, 2.336007e+003
1.811127e+002, 2.344359e+003
1.815948e+002, 2.351295e+003
1.820769e+002, 2.356624e+003
1.825591e+002, 2.361543e+003
1.830412e+002, 2.365842e+003
1.835233e+002, 2.370299e+003
1.840054e+002, 2.376003e+003
1.844875e+002, 2.383620e+003
1.849696e+002, 2.392211e+003
1.854518e+002, 2.400140e+003
1.859339e+002, 2.407396e+003
1.864160e+002, 2.413894e+003
1.868981e+002, 2.422223e+003
1.873802e+002, 2.429190e+003
1.878623e+002, 2.430083e+003
1.883445e+002, 2.421308e+003
1.888266e+002, 2.406485e+003
1.893087e+002, 2.398189e+003
1.897908e+002, 2.401183e+003
1.902729e+002, 2.404478e+003
1.907550e+002, 2.405172e+003
1.912372e+002, 2.404526e+003
1.917193e+002, 2.404152e+003
1.922014e+002, 2.404911e+003
1.926835e+002, 2.406848e+003
1.931656e+002, 2.410260e+003
1.936477e+002, 2.417323e+003
1.941299e+002, 2.423769e+003
1.946120e+002, 2.428280e+003
1.950941e+002, 2.431752e+003
1.955762e+002, 2.435415e+003
1.960583e+002, 2.439943e+003
1.965404e+002, 2.445431e+003
1.970226e+002, 2.453836e+003
1.975047e+002, 2.468936e+003
1.979868e+002, 2.482732e+003
1.984689e+002, 2.490845e+003
1.989510e+002, 2.495664e+003
1.994331e+002, 2.503264e+003
1.999153e+002, 2.518672e+003
2.003974e+002, 2.541478e+003
2.008795e+002, 2.556895e+003
2.013616e+002, 2.557485e+003
2.018437e+002, 2.559495e+003
2.023258e+002, 2.571543e+003
2.028080e+002, 2.591780e+003
2.032901e+002, 2.612067e+003
2.037722e+002, 2.626662e+003
2.042543e+002, 2.635850e+003
2.047364e+002, 2.647105e+003
2.052185e+002, 2.660060e+003
2.057007e+002, 2.675152e+003
2.061828e+002, 2.694880e+003
2.066649e+002, 2.718472e+003
2.071470e+002, 2.738882e+003
2.076291e+002, 2.749661e+003
2.081112e+002, 2.752715e+003
2.085934e+002, 2.759184e+003
2.090755e+002, 2.775257e+003
2.095576e+002, 2.791123e+003
2.100397e+002, 2.795928e+003
2.105218e+002, 2.789145e+003
2.110039e+002, 2.783693e+003
2.114861e+002, 2.791773e+003
2.119682e+002, 2.806706e+003
2.124503e+002, 2.814587e+003
2.129324e+002, 2.807952e+003
2.134145e+002, 2.796520e+003
2.138967e+002, 2.792016e+003
2.143788e+002, 2.795335e+003
2.148609e+002, 2.801343e+003
2.153430e+002, 2.808293e+003
2.158251e+002, 2.815880e+003
2.163072e+002, 2.823852e+003
2.167894e+002, 2.832244e+003
2.172715e+002, 2.840937e+003
2.177536e+002, 2.849706e+003
2.182357e+002, 2.858350e+003
2.187178e+002, 2.867595e+003
2.191999e+002, 2.878212e+003
2.196821e+002, 2.889465e+003
2.201642e+002, 2.900459e+003
2.206463e+002, 2.910742e+003
2.211284e+002, 2.920733e+003
2.216105e+002, 2.931143e+003
2.220926e+002, 2.940942e+003
2.225748e+002, 2.953551e+003
2.230569e+002, 2.971419e+003
2.235390e+002, 2.991635e+003
2.240211e+002, 3.011670e+003
2.245032e+002, 3.030777e+003
2.249853e+002, 3.048004e+003
2.254675e+002, 3.060339e+003
2.259496e+002, 3.062501e+003
2.264317e+002, 3.068190e+003
2.269138e+002, 3.078791e+003
2.273959e+002, 3.094340e+003
2.278780e+002, 3.115863e+003
2.283602e+002, 3.144240e+003
2.288423e+002, 3.176942e+003
2.293244e+002, 3.205863e+003
2.298065e+002, 3.227287e+003
2.302886e+002, 3.249594e+003
2.307707e+002, 3.273134e+003
2.312529e+002, 3.298414e+003
2.317350e+002, 3.326820e+003
2.322171e+002, 3.359082e+003
2.326992e+002, 3.393323e+003
2.331813e+002, 3.423421e+003
2.336634e+002, 3.442555e+003
2.341456e+002, 3.465742e+003
2.346277e+002, 3.495641e+003
2.351098e+002, 3.529592e+003
2.355919e+002, 3.565566e+003
2.360740e+002, 3.602684e+003
2.365561e+002, 3.639455e+003
2.370383e+002, 3.671466e+003
2.375204e+002, 3.694802e+003
2.380025e+002, 3.717452e+003
2.384846e+002, 3.738470e+003
2.389667e+002, 3.759557e+003
2.394488e+002, 3.783120e+003
2.399310e+002, 3.810380e+003
2.404131e+002, 3.839516e+003
2.408952e+002, 3.865962e+003
2.413773e+002, 3.890859e+003
2.418594e+002, 3.911734e+003
2.423415e+002, 3.924889e+003
2.428237e+002, 3.934871e+003
2.433058e+002, 3.948646e+003
2.437879e+002, 3.969231e+003
2.442700e+002, 3.991538e+003
2.447521e+002, 4.004607e+003
2.452342e+002, 4.006809e+003
2.457164e+002, 4.003848e+003
2.461985e+002, 3.992841e+003
2.466806e+002, 3.978151e+003
2.471627e+002, 3.966300e+003
2.476448e+002, 3.959648e+003
2.481269e+002, 3.954561e+003
2.486091e+002, 3.944702e+003
2.490912e+002, 3.930166e+003
2.495733e+002, 3.911997e+003
2.500554e+002, 3.888927e+003
2.505375e+002, 3.862585e+003
2.510196e+002, 3.834775e+003
2.515018e+002, 3.805672e+003
2.519839e+002, 3.776878e+003
2.524660e+002, 3.750492e+003
2.529481e+002, 3.726012e+003
2.534302e+002, 3.705147e+003
2.539123e+002, 3.693531e+003
2.543945e+002, 3.684430e+003
2.548766e+002, 3.665892e+003
2.553587e+002, 3.633758e+003
2.558408e+002, 3.598458e+003
2.563229e+002, 3.572492e+003
2.568051e+002, 3.554497e+003
2.572872e+002, 3.538506e+003
2.577693e+002, 3.522340e+003
2.582514e+002, 3.507194e+003
2.587335e+002, 3.494969e+003
2.592156e+002, 3.486073e+003
2.596978e+002, 3.479589e+003
2.601799e+002, 3.477957e+003
2.606620e+002, 3.479067e+003
2.611441e+002, 3.474598e+003
2.616262e+002, 3.456460e+003
2.621083e+002, 3.432839e+003
2.625905e+002, 3.417462e+003
2.630726e+002, 3.412825e+003
2.635547e+002, 3.410600e+003
2.640368e+002, 3.404007e+003
2.645189e+002, 3.395072e+003
2.650010e+002, 3.388003e+003
2.654832e+002, 3.386846e+003
2.659653e+002, 3.387333e+003
2.664474e+002, 3.381784e+003
2.669295e+002, 3.368579e+003
2.674116e+002, 3.355521e+003
2.678937e+002, 3.347224e+003
2.683759e+002, 3.342228e+003
2.688580e+002, 3.339048e+003
2.693401e+002, 3.337645e+003
2.698222e+002, 3.337552e+003
2.703043e+002, 3.339100e+003
2.707864e+002, 3.343315e+003
2.712686e+002, 3.344764e+003
2.717507e+002, 3.334819e+003
2.722328e+002, 3.322683e+003
2.727149e+002, 3.318865e+003
2.731970e+002, 3.327741e+003
2.736791e+002, 3.342463e+003
2.741613e+002, 3.354471e+003
2.746434e+002, 3.363573e+003
2.751255e+002, 3.371375e+003
2.756076e+002, 3.376728e+003
2.760897e+002, 3.381881e+003
2.765718e+002, 3.388531e+003
2.770540e+002, 3.397040e+003
2.775361e+002, 3.407268e+003
2.780182e+002, 3.418596e+003
2.785003e+002, 3.430632e+003
2.789824e+002, 3.446532e+003
2.794645e+002, 3.473202e+003
2.799467e+002, 3.500213e+003
2.804288e+002, 3.518545e+003
2.809109e+002, 3.527078e+003
2.813930e+002, 3.535584e+003
2.818751e+002, 3.557423e+003
2.823572e+002, 3.594466e+003
2.828394e+002, 3.621322e+003
2.833215e+002, 3.623481e+003
2.838036e+002, 3.622382e+003
2.842857e+002, 3.630807e+003
2.847678e+002, 3.648572e+003
2.852499e+002, 3.667212e+003
2.857321e+002, 3.678923e+003
2.862142e+002, 3.683477e+003
2.866963e+002, 3.687967e+003
2.871784e+002, 3.690958e+003
2.876605e+002, 3.695777e+003
2.881426e+002, 3.706395e+003
2.886248e+002, 3.720673e+003
2.891069e+002, 3.731900e+003
2.895890e+002, 3.732639e+003
2.900711e+002, 3.724160e+003
2.905532e+002, 3.723327e+003
2.910353e+002, 3.735560e+003
2.915175e+002, 3.749300e+003
2.919996e+002, 3.762310e+003
2.924817e+002, 3.773297e+003
2.929638e+002, 3.779878e+003
2.934459e+002, 3.779796e+003
2.939280e+002, 3.774515e+003
2.944102e+002, 3.770541e+003
2.948923e+002, 3.768694e+003
2.953744e+002, 3.767034e+003
2.958565e+002, 3.766977e+003
2.963386e+002, 3.766243e+003
2.968207e+002, 3.761965e+003
2.973029e+002, 3.752797e+003
2.977850e+002, 3.739475e+003
2.982671e+002, 3.723234e+003
2.987492e+002, 3.702123e+003
2.992313e+002, 3.682083e+003
2.997134e+002, 3.665680e+003
3.001956e+002, 3.650263e+003
3.006777e+002, 3.633692e+003
3.011598e+002, 3.615188e+003
3.016419e+002, 3.595105e+003
3.021240e+002, 3.573685e+003
3.026061e+002, 3.549894e+003
3.030883e+002, 3.527701e+003
3.035704e+002, 3.507486e+003
3.040525e+002, 3.488853e+003
3.045346e+002, 3.472240e+003
3.050167e+002, 3.457489e+003
3.054988e+002, 3.443159e+003
3.059810e+002, 3.427716e+003
3.064631e+002, 3.411211e+003
3.069452e+002, 3.393298e+003
3.074273e+002, 3.373278e+003
3.079094e+002, 3.352311e+003
3.083915e+002, 3.330433e+003
3.088737e+002, 3.307903e+003
3.093558e+002, 3.285152e+003
3.098379e+002, 3.263022e+003
3.103200e+002, 3.241499e+003
3.108021e+002, 3.218832e+003
3.112842e+002, 3.190543e+003
3.117664e+002, 3.165768e+003
3.122485e+002, 3.149651e+003
3.127306e+002, 3.139634e+003
3.132127e+002, 3.129691e+003
3.136948e+002, 3.115493e+003
3.141769e+002, 3.098036e+003
3.146591e+002, 3.083591e+003
3.151412e+002, 3.076367e+003
3.156233e+002, 3.066195e+003
3.161054e+002, 3.046807e+003
3.165875e+002, 3.024023e+003
3.170696e+002, 3.006244e+003
3.175518e+002, 2.998176e+003
3.180339e+002, 2.995334e+003
3.185160e+002, 2.985832e+003
3.189981e+002, 2.964920e+003
3.194802e+002, 2.947175e+003
3.199623e+002, 2.939384e+003
3.204445e+002, 2.933692e+003
3.209266e+002, 2.922534e+003
3.214087e+002, 2.903614e+003
3.218908e+002, 2.882039e+003
3.223729e+002, 2.865141e+003
3.228550e+002, 2.853229e+003
3.233372e+002, 2.844868e+003
3.238193e+002, 2.844785e+003
3.243014e+002, 2.844523e+003
3.247835e+002, 2.837758e+003
3.252656e+002, 2.824562e+003
3.257477e+002, 2.811101e+003
3.262299e+002, 2.804812e+003
3.267120e+002, 2.806723e+003
3.271941e+002, 2.804733e+003
3.276762e+002, 2.795189e+003
3.281583e+002, 2.784487e+003
3.286404e+002, 2.774022e+003
3.291226e+002, 2.764499e+003
3.296047e+002, 2.757173e+003
3.300868e+002, 2.753671e+003
3.305689e+002, 2.753295e+003
3.310510e+002, 2.751338e+003
3.315331e+002, 2.747059e+003
3.320153e+002, 2.742208e+003
3.324974e+002, 2.735446e+003
3.329795e+002, 2.729103e+003
3.334616e+002, 2.727171e+003
3.339437e+002, 2.732635e+003
3.344258e+002, 2.741638e+003
3.349080e+002, 2.744902e+003
3.353901e+002, 2.739964e+003
3.358722e+002, 2.735860e+003
3.363543e+002, 2.736179e+003
3.368365e+002, 2.738033e+003
3.373186e+002, 2.738625e+003
3.378007e+002, 2.737104e+003
3.382828e+002, 2.735878e+003
3.387649e+002, 2.738143e+003
3.392470e+002, 2.744267e+003
3.397292e+002, 2.751052e+003
3.402113e+002, 2.759234e+003
3.406934e+002, 2.766758e+003
3.411755e+002, 2.771091e+003
3.416576e+002, 2.772590e+003
3.421397e+002, 2.775478e+003
3.426219e+002, 2.784067e+003
3.431040e+002, 2.797730e+003
3.435861e+002, 2.810135e+003
3.440682e+002, 2.820512e+003
3.445503e+002, 2.829858e+003
3.450324e+002, 2.839153e+003
3.455146e+002, 2.848031e+003
3.459967e+002, 2.855505e+003
3.464788e+002, 2.859354e+003
3.469609e+002, 2.861944e+003
3.474430e+002, 2.869375e+003
3.479251e+002, 2.882900e+003
3.484073e+002, 2.897914e+003
3.488894e+002, 2.914192e+003
3.493715e+002, 2.930039e+003
3.498536e+002, 2.942659e+003
3.503357e+002, 2.949727e+003
3.508178e+002, 2.956687e+003
3.513000e+002, 2.971447e+003
3.517821e+002, 2.994522e+003
3.522642e+002, 3.015423e+003
3.527463e+002, 3.029187e+003
3.532284e+002, 3.040367e+003
3.537105e+002, 3.053890e+003
3.541927e+002, 3.070269e+003
3.546748e+002, 3.086778e+003
3.551569e+002, 3.100438e+003
3.556390e+002, 3.112364e+003
3.561211e+002, 3.128088e+003
3.566032e+002, 3.150175e+003
3.570854e+002, 3.173629e+003
3.575675e+002, 3.192994e+003
3.580496e+002, 3.209377e+003
3.585317e+002, 3.227867e+003
3.590138e+002, 3.251760e+003
3.594959e+002, 3.278538e+003
3.599781e+002, 3.303525e+003
3.604602e+002, 3.325630e+003
3.609423e+002, 3.350651e+003
3.614244e+002, 3.384414e+003
3.619065e+002, 3.423825e+003
3.623886e+002, 3.461357e+003
3.628708e+002, 3.495724e+003
3.633529e+002, 3.528083e+003
3.638350e+002, 3.557575e+003
3.643171e+002, 3.584815e+003
3.647992e+002, 3.614963e+003
3.652813e+002, 3.651448e+003
3.657635e+002, 3.690730e+003
3.662456e+002, 3.725490e+003
3.667277e+002, 3.753284e+003
3.672098e+002, 3.783471e+003
3.676919e+002, 3.821725e+003
3.681740e+002, 3.864593e+003
3.686562e+002, 3.906073e+003
3.691383e+002, 3.944881e+003
3.696204e+002, 3.981027e+003
3.701025e+002, 4.013625e+003
3.705846e+002, 4.042300e+003
3.710667e+002, 4.072134e+003
3.715489e+002, 4.104043e+003
3.720310e+002, 4.137227e+003
3.725131e+002, 4.170544e+003
3.729952e+002, 4.204179e+003
3.734773e+002, 4.239547e+003
3.739594e+002, 4.278491e+003
3.744416e+002, 4.320532e+003
3.749237e+002, 4.357785e+003
3.754058e+002, 4.388931e+003
3.758879e+002, 4.417349e+003
3.763700e+002, 4.442869e+003
3.768521e+002, 4.466783e+003
3.773343e+002, 4.492300e+003
3.778164e+002, 4.521361e+003
3.782985e+002, 4.550542e+003
3.787806e+002, 4.571325e+003
3.792627e+002, 4.575155e+003
3.797448e+002, 4.584975e+003
3.802270e+002, 4.608517e+003
3.807091e+002, 4.635151e+003
3.811912e+002, 4.654853e+003
3.816733e+002, 4.665799e+003
3.821554e+002, 4.672748e+003
3.826375e+002, 4.681602e+003
3.831197e+002, 4.694202e+003
3.836018e+002, 4.698310e+003
3.840839e+002, 4.685451e+003
3.845660e+002, 4.673878e+003
3.850481e+002, 4.675177e+003
3.855302e+002, 4.684817e+003
3.860124e+002, 4.690810e+003
3.864945e+002, 4.685343e+003
3.869766e+002, 4.669890e+003
3.874587e+002, 4.652048e+003
3.879408e+002, 4.627685e+003
3.884229e+002, 4.605889e+003
3.889051e+002, 4.591040e+003
3.893872e+002, 4.577595e+003
3.898693e+002, 4.559610e+003
3.903514e+002, 4.535251e+003
3.908335e+002, 4.507050e+003
3.913156e+002, 4.479438e+003
3.917978e+002, 4.453935e+003
3.922799e+002, 4.424620e+003
3.927620e+002, 4.384094e+003
3.932441e+002, 4.346125e+003
3.937262e+002, 4.321357e+003
3.942083e+002, 4.306513e+003
3.946905e+002, 4.288558e+003
3.951726e+002, 4.255479e+003
3.956547e+002, 4.209176e+003
3.961368e+002, 4.169252e+003
3.966189e+002, 4.138085e+003
3.971010e+002, 4.110772e+003
3.975832e+002, 4.085656e+003
3.980653e+002, 4.062833e+003
3.985474e+002, 4.042925e+003
3.990295e+002, 4.026282e+003
3.995116e+002, 4.011569e+003
3.999937e+002, 3.996227e+003
4.004759e+002, 3.979721e+003
4.009580e+002, 3.965574e+003
4.014401e+002, 3.958506e+003
4.019222e+002, 3.951315e+003
4.024043e+002, 3.937879e+003
4.028864e+002, 3.918234e+003
4.033686e+002, 3.898940e+003
4.038507e+002, 3.886728e+003
4.043328e+002, 3.879341e+003
4.048149e+002, 3.866078e+003
4.052970e+002, 3.843804e+003
4.057791e+002, 3.820857e+003
4.062613e+002, 3.803610e+003
4.067434e+002, 3.789773e+003
4.072255e+002, 3.774427e+003
4.077076e+002, 3.754725e+003
4.081897e+002, 3.734252e+003
4.086718e+002, 3.716924e+003
4.091540e+002, 3.702647e+003
4.096361e+002, 3.690272e+003
4.101182e+002, 3.679698e+003
4.106003e+002, 3.670623e+003
4.110824e+002, 3.662592e+003
4.115645e+002, 3.655977e+003
4.120467e+002, 3.648760e+003
4.125288e+002, 3.640334e+003
4.130109e+002, 3.630658e+003
4.134930e+002, 3.619649e+003
4.139751e+002, 3.607311e+003
4.144572e+002, 3.593467e+003
4.149394e+002, 3.576450e+003
4.154215e+002, 3.556180e+003
4.159036e+002, 3.542797e+003
4.163857e+002, 3.543016e+003
4.168678e+002, 3.544865e+003
4.173499e+002, 3.541072e+003
4.178321e+002, 3.532226e+003
4.183142e+002, 3.521490e+003
4.187963e+002, 3.510457e+003
4.192784e+002, 3.499215e+003
4.197605e+002, 3.488124e+003
4.202426e+002, 3.477923e+003
4.207248e+002, 3.466879e+003
4.212069e+002, 3.453742e+003
4.216890e+002, 3.440256e+003
4.221711e+002, 3.429156e+003
4.226532e+002, 3.420699e+003
4.231353e+002, 3.411500e+003
4.236175e+002, 3.397365e+003
4.240996e+002, 3.377374e+003
4.245817e+002, 3.357206e+003
4.250638e+002, 3.333763e+003
4.255459e+002, 3.313298e+003
4.260280e+002, 3.300299e+003
4.265102e+002, 3.292028e+003
4.269923e+002, 3.283449e+003
4.274744e+002, 3.271875e+003
4.279565e+002, 3.256998e+003
4.284386e+002, 3.237290e+003
4.289207e+002, 3.206562e+003
4.294029e+002, 3.182281e+003
4.298850e+002, 3.170739e+003
4.303671e+002, 3.162857e+003
4.308492e+002, 3.151708e+003
4.313313e+002, 3.136061e+003
4.318134e+002, 3.119344e+003
4.322956e+002, 3.106014e+003
4.327777e+002, 3.096217e+003
4.332598e+002, 3.082023e+003
4.337419e+002, 3.058363e+003
4.342241e+002, 3.036864e+003
4.347062e+002, 3.024707e+003
4.351883e+002, 3.018077e+003
4.356704e+002, 3.009462e+003
4.361525e+002, 2.994435e+003
4.366346e+002, 2.977444e+003
4.371168e+002, 2.966146e+003
4.375989e+002, 2.961171e+003
4.380810e+002, 2.955429e+003
4.385631e+002, 2.945672e+003
4.390452e+002, 2.934668e+003
4.395273e+002, 2.925917e+003
4.400095e+002, 2.919773e+003
4.404916e+002, 2.912873e+003
4.409737e+002, 2.901968e+003
4.414558e+002, 2.889306e+003
4.419379e+002, 2.880032e+003
4.424200e+002, 2.875145e+003
4.429022e+002, 2.871127e+003
4.433843e+002, 2.864828e+003
4.438664e+002, 2.856786e+003
4.443485e+002, 2.850287e+003
4.448306e+002, 2.847158e+003
4.453127e+002, 2.843989e+003
4.457949e+002, 2.838074e+003
4.462770e+002, 2.830522e+003
4.467591e+002, 2.824495e+003
4.472412e+002, 2.821438e+003
4.477233e+002, 2.819756e+003
4.482054e+002, 2.816208e+003
4.486876e+002, 2.808613e+003
4.491697e+002, 2.804285e+003
4.496518e+002, 2.806400e+003
4.501339e+002, 2.809823e+003
4.506160e+002, 2.809493e+003
4.510981e+002, 2.806086e+003
4.515803e+002, 2.804960e+003
4.520624e+002, 2.810941e+003
4.525445e+002, 2.823277e+003
4.530266e+002, 2.831848e+003
4.535087e+002, 2.834258e+003
4.539908e+002, 2.835287e+003
4.544730e+002, 2.834280e+003
4.549551e+002, 2.832734e+003
4.554372e+002, 2.831936e+003
4.559193e+002, 2.832358e+003
4.564014e+002, 2.834178e+003
4.568835e+002, 2.838139e+003
4.573657e+002, 2.844968e+003
4.578478e+002, 2.850538e+003
4.583299e+002, 2.857089e+003
4.588120e+002, 2.859776e+003
4.592941e+002, 2.852968e+003
4.597762e+002, 2.840624e+003
4.602584e+002, 2.832393e+003
4.607405e+002, 2.835493e+003
4.612226e+002, 2.843703e+003
4.617047e+002, 2.842322e+003
4.621868e+002, 2.828597e+003
4.626689e+002, 2.818709e+003
4.631511e+002, 2.822289e+003
4.636332e+002, 2.829714e+003
4.641153e+002, 2.831615e+003
4.645974e+002, 2.827115e+003
4.650795e+002, 2.820839e+003
4.655616e+002, 2.814138e+003
4.660438e+002, 2.807882e+003
4.665259e+002, 2.804541e+003
4.670080e+002, 2.804869e+003
4.674901e+002, 2.805370e+003
4.679722e+002, 2.803074e+003
4.684543e+002, 2.798595e+003
4.689365e+002, 2.795205e+003
4.694186e+002, 2.794493e+003
4.699007e+002, 2.793415e+003
4.703828e+002, 2.791848e+003
4.708649e+002, 2.788656e+003
4.713470e+002, 2.780047e+003
4.718292e+002, 2.764222e+003
4.723113e+002, 2.746658e+003
4.727934e+002, 2.735719e+003
4.732755e+002, 2.734087e+003
4.737576e+002, 2.732231e+003
4.742397e+002, 2.732175e+003
4.747219e+002, 2.730112e+003
4.752040e+002, 2.720959e+003
4.756861e+002, 2.707541e+003
4.761682e+002, 2.697889e+003
4.766503e+002, 2.697449e+003
4.771324e+002, 2.703828e+003
4.776146e+002, 2.707903e+003
4.780967e+002, 2.709692e+003
4.785788e+002, 2.708884e+003
4.790609e+002, 2.704235e+003
4.795430e+002, 2.698191e+003
4.800251e+002, 2.692305e+003
4.805073e+002, 2.686980e+003
4.809894e+002, 2.682067e+003
4.814715e+002, 2.677117e+003
4.819536e+002, 2.672281e+003
4.824357e+002, 2.669618e+003
4.829178e+002, 2.670114e+003
4.834000e+002, 2.671158e+003
4.838821e+002, 2.671011e+003
4.843642e+002, 2.670871e+003
4.848463e+002, 2.672509e+003
4.853284e+002, 2.676697e+003
4.858105e+002, 2.681711e+003
4.862927e+002, 2.686640e+003
4.867748e+002, 2.691219e+003
4.872569e+002, 2.693069e+003
4.877390e+002, 2.690035e+003
4.882211e+002, 2.687535e+003
4.887032e+002, 2.692989e+003
4.891854e+002, 2.704894e+003
4.896675e+002, 2.714929e+003
4.901496e+002, 2.719941e+003
4.906317e+002, 2.723803e+003
4.911138e+002, 2.729509e+003
4.915959e+002, 2.736727e+003
4.920781e+002, 2.744178e+003
4.925602e+002, 2.751510e+003
4.930423e+002, 2.757942e+003
4.935244e+002, 2.761481e+003
4.940065e+002, 2.758717e+003
4.944886e+002, 2.759708e+003
4.949708e+002, 2.768841e+003
4.954529e+002, 2.778735e+003
4.959350e+002, 2.782088e+003
4.964171e+002, 2.780232e+003
4.968992e+002, 2.781163e+003
4.973813e+002, 2.791494e+003
4.978635e+002, 2.809277e+003
4.983456e+002, 2.822665e+003
4.988277e+002, 2.829532e+003
4.993098e+002, 2.834828e+003
4.997919e+002, 2.838743e+003
5.002740e+002, 2.841928e+003
5.007562e+002, 2.844080e+003
5.012383e+002, 2.845546e+003
5.017204e+002, 2.848685e+003
5.022025e+002, 2.856607e+003
5.026846e+002, 2.868871e+003
5.031667e+002, 2.880946e+003
5.036489e+002, 2.894694e+003
5.041310e+002, 2.904457e+003
5.046131e+002, 2.903257e+003
5.050952e+002, 2.897474e+003
5.055773e+002, 2.896674e+003
5.060594e+002, 2.904397e+003
5.065416e+002, 2.914001e+003
5.070237e+002, 2.919620e+003
5.075058e+002, 2.922559e+003
5.079879e+002, 2.927905e+003
5.084700e+002, 2.937489e+003
5.089521e+002, 2.947171e+003
5.094343e+002, 2.952104e+003
5.099164e+002, 2.952224e+003
5.103985e+002, 2.953691e+003
5.108806e+002, 2.958245e+003
5.113627e+002, 2.962846e+003
5.118448e+002, 2.965185e+003
5.123270e+002, 2.966296e+003
5.128091e+002, 2.969132e+003
5.132912e+002, 2.975049e+003
5.137733e+002, 2.981726e+003
5.142554e+002, 2.984620e+003
5.147375e+002, 2.980724e+003
5.152197e+002, 2.980231e+003
5.157018e+002, 2.983777e+003
5.161839e+002, 2.989609e+003
5.166660e+002, 3.000476e+003
5.171481e+002, 3.012825e+003
5.176302e+002, 3.017946e+003
5.181124e+002, 3.009406e+003
5.185945e+002, 2.994065e+003
5.190766e+002, 2.991375e+003
5.195587e+002, 3.006824e+003
5.200408e+002, 3.016680e+003
5.205229e+002, 3.009228e+003
5.210051e+002, 2.999295e+003
5.214872e+002, 2.996546e+003
5.219693e+002, 3.000750e+003
5.224514e+002, 3.005958e+003
5.229335e+002, 3.010381e+003
5.234156e+002, 3.012966e+003
5.238978e+002, 3.010783e+003
5.243799e+002, 3.003594e+003
5.248620e+002, 2.996423e+003
5.253441e+002, 2.991643e+003
5.258262e+002, 2.988572e+003
5.263083e+002, 2.985985e+003
5.267905e+002, 2.984525e+003
5.272726e+002, 2.981760e+003
5.277547e+002, 2.978051e+003
5.282368e+002, 2.972156e+003
5.287189e+002, 2.960391e+003
5.292010e+002, 2.943709e+003
5.296832e+002, 2.930057e+003
5.301653e+002, 2.925866e+003
5.306474e+002, 2.929529e+003
5.311295e+002, 2.929972e+003
5.316116e+002, 2.924545e+003
5.320938e+002, 2.918903e+003
5.325759e+002, 2.911750e+003
5.330580e+002, 2.905537e+003
5.335401e+002, 2.904887e+003
5.340222e+002, 2.908853e+003
5.345043e+002, 2.909030e+003
5.349865e+002, 2.894997e+003
5.354686e+002, 2.868664e+003
5.359507e+002, 2.853417e+003
5.364328e+002, 2.854844e+003
5.369149e+002, 2.856915e+003
5.373970e+002, 2.854099e+003
5.378792e+002, 2.848775e+003
5.383613e+002, 2.843620e+003
5.388434e+002, 2.839329e+003
5.393255e+002, 2.833462e+003
5.398076e+002, 2.822716e+003
5.402897e+002, 2.809153e+003
5.407719e+002, 2.798361e+003
5.412540e+002, 2.791312e+003
5.417361e+002, 2.785220e+003
5.422182e+002, 2.777845e+003
5.427003e+002, 2.769846e+003
5.431824e+002, 2.764095e+003
5.436646e+002, 2.764823e+003
5.441467e+002, 2.762264e+003
5.446288e+002, 2.748992e+003
5.451109e+002, 2.732186e+003
5.455930e+002, 2.721884e+003
5.460751e+002, 2.719954e+003
5.465573e+002, 2.720742e+003
5.470394e+002, 2.718174e+003
5.475215e+002, 2.712044e+003
5.480036e+002, 2.710274e+003
5.484857e+002, 2.717661e+003
5.489678e+002, 2.724062e+003
5.494500e+002, 2.728855e+003
5.499321e+002, 2.731138e+003
5.504142e+002, 2.729251e+003
5.508963e+002, 2.723017e+003
5.513784e+002, 2.715572e+003
5.518605e+002, 2.710220e+003
5.523427e+002, 2.706834e+003
5.528248e+002, 2.703810e+003
5.533069e+002, 2.701802e+003
5.537890e+002, 2.698710e+003
5.542711e+002, 2.693058e+003
5.547532e+002, 2.685678e+003
5.552354e+002, 2.677179e+003
5.557175e+002, 2.666688e+003
5.561996e+002, 2.657749e+003
5.566817e+002, 2.655022e+003
5.571638e+002, 2.654983e+003
5.576459e+002, 2.649583e+003
5.581281e+002, 2.637304e+003
5.586102e+002, 2.623853e+003
5.590923e+002, 2.613820e+003
5.595744e+002, 2.607136e+003
5.600565e+002, 2.602236e+003
5.605386e+002, 2.600089e+003
5.610208e+002, 2.598237e+003
5.615029e+002, 2.596193e+003
5.619850e+002, 2.594086e+003
5.624671e+002, 2.591819e+003
5.629492e+002, 2.589509e+003
5.634313e+002, 2.587837e+003
5.639135e+002, 2.587628e+003
5.643956e+002, 2.588853e+003
5.648777e+002, 2.589868e+003
5.653598e+002, 2.589377e+003
5.658419e+002, 2.590848e+003
5.663240e+002, 2.598523e+003
5.668062e+002, 2.606823e+003
5.672883e+002, 2.609104e+003
5.677704e+002, 2.603885e+003
5.682525e+002, 2.597217e+003
5.687346e+002, 2.594400e+003
5.692167e+002, 2.593732e+003
5.696989e+002, 2.589569e+003
5.701810e+002, 2.580779e+003
5.706631e+002, 2.573798e+003
5.711452e+002, 2.573454e+003
5.716273e+002, 2.577852e+003
5.721094e+002, 2.580221e+003
5.725916e+002, 2.579628e+003
5.730737e+002, 2.578870e+003
5.735558e+002, 2.578349e+003
5.740379e+002, 2.578234e+003
5.745200e+002, 2.579120e+003
5.750021e+002, 2.580801e+003
5.754843e+002, 2.581671e+003
5.759664e+002, 2.580001e+003
5.764485e+002, 2.576773e+003
5.769306e+002, 2.578771e+003
5.774127e+002, 2.593877e+003
5.778948e+002, 2.601211e+003
5.783770e+002, 2.592620e+003
5.788591e+002, 2.580072e+003
5.793412e+002, 2.571055e+003
5.798233e+002, 2.566961e+003
5.803054e+002, 2.566999e+003
5.807875e+002, 2.571063e+003
5.812697e+002, 2.578706e+003
5.817518e+002, 2.590368e+003
5.822339e+002, 2.606904e+003
5.827161e+002, 2.619704e+003
5.831982e+002, 2.624300e+003
5.836803e+002, 2.624231e+003
5.841624e+002, 2.624458e+003
5.846445e+002, 2.624905e+003
5.851266e+002, 2.626265e+003
5.856088e+002, 2.628185e+003
5.860909e+002, 2.631551e+003
5.865730e+002, 2.638318e+003
5.870551e+002, 2.647439e+003
5.875372e+002, 2.655700e+003
5.880193e+002, 2.661479e+003
5.885015e+002, 2.664795e+003
5.889836e+002, 2.665031e+003
5.894657e+002, 2.657937e+003
5.899478e+002, 2.657277e+003
5.904299e+002, 2.669521e+003
5.909120e+002, 2.681197e+003
5.913942e+002, 2.683441e+003
5.918763e+002, 2.680300e+003
5.923584e+002, 2.680980e+003
5.928405e+002, 2.690123e+003
5.933226e+002, 2.703933e+003
5.938047e+002, 2.718004e+003
5.942869e+002, 2.732311e+003
5.947690e+002, 2.743326e+003
5.952511e+002, 2.749421e+003
5.957332e+002, 2.753883e+003
5.962153e+002, 2.757572e+003
5.966974e+002, 2.761566e+003
5.971796e+002, 2.770435e+003
5.976617e+002, 2.791566e+003
5.981438e+002, 2.810502e+003
5.986259e+002, 2.817455e+003
5.991080e+002, 2.817461e+003
5.995901e+002, 2.818178e+003
6.000723e+002, 2.821779e+003
6.005544e+002, 2.828812e+003
6.010365e+002, 2.840406e+003
6.015186e+002, 2.856752e+003
6.020007e+002, 2.871059e+003
6.024828e+002, 2.883147e+003
6.029650e+002, 2.893361e+003
6.034471e+002, 2.899600e+003
6.039292e+002, 2.905294e+003
6.044113e+002, 2.913912e+003
6.048934e+002, 2.925998e+003
6.053755e+002, 2.939687e+003
6.058577e+002, 2.954089e+003
6.063398e+002, 2.968808e+003
6.068219e+002, 2.982364e+003
6.073040e+002, 2.994594e+003
6.077861e+002, 3.006354e+003
6.082682e+002, 3.017151e+003
6.087504e+002, 3.028397e+003
6.092325e+002, 3.043313e+003
6.097146e+002, 3.063082e+003
6.101967e+002, 3.079804e+003
6.106788e+002, 3.088883e+003
6.111609e+002, 3.096028e+003
6.116431e+002, 3.106481e+003
6.121252e+002, 3.119665e+003
6.126073e+002, 3.131699e+003
6.130894e+002, 3.140355e+003
6.135715e+002, 3.148385e+003
6.140536e+002, 3.162528e+003
6.145358e+002, 3.187162e+003
6.150179e+002, 3.206958e+003
6.155000e+002, 3.216070e+003
6.159821e+002, 3.226226e+003
6.164642e+002, 3.243370e+003
6.169464e+002, 3.265055e+003
6.174285e+002, 3.286360e+003
6.179106e+002, 3.305609e+003
6.183927e+002, 3.323374e+003
6.188748e+002, 3.339302e+003
6.193569e+002, 3.354072e+003
6.198391e+002, 3.372188e+003
6.203212e+002, 3.395263e+003
6.208033e+002, 3.417630e+003
6.212854e+002, 3.432509e+003
6.217675e+002, 3.442327e+003
6.222496e+002, 3.460911e+003
6.227318e+002, 3.495335e+003
6.232139e+002, 3.528958e+003
6.236960e+002, 3.554500e+003
6.241781e+002, 3.578409e+003
6.246602e+002, 3.606273e+003
6.251423e+002, 3.639400e+003
6.256245e+002, 3.677993e+003
6.261066e+002, 3.723070e+003
6.265887e+002, 3.772698e+003
6.270708e+002, 3.818730e+003
6.275529e+002, 3.858915e+003
6.280350e+002, 3.900484e+003
6.285172e+002, 3.940085e+003
6.289993e+002, 3.986036e+003
6.294814e+002, 4.045565e+003
6.299635e+002, 4.117410e+003
6.304456e+002, 4.193525e+003
6.309277e+002, 4.269691e+003
6.314099e+002, 4.349474e+003
6.318920e+002, 4.435265e+003
6.323741e+002, 4.527905e+003
6.328562e+002, 4.630595e+003
6.333383e+002, 4.744287e+003
6.338204e+002, 4.868737e+003
6.343026e+002, 5.003800e+003
6.347847e+002, 5.149890e+003
6.352668e+002, 5.305951e+003
6.357489e+002, 5.485578e+003
6.362310e+002, 5.658175e+003
6.367131e+002, 5.814375e+003
6.371953e+002, 5.957935e+003
6.376774e+002, 6.099409e+003
6.381595e+002, 6.237318e+003
6.386416e+002, 6.349710e+003
6.391237e+002, 6.420561e+003
6.396058e+002, 6.447810e+003
6.400880e+002, 6.420397e+003
6.405701e+002, 6.334949e+003
6.410522e+002, 6.206443e+003
6.415343e+002, 6.023015e+003
6.420164e+002, 5.810444e+003
6.424985e+002, 5.600195e+003
6.429807e+002, 5.391761e+003
6.434628e+002, 5.194715e+003
6.439449e+002, 5.004152e+003
6.444270e+002, 4.831474e+003
6.449091e+002, 4.681879e+003
6.453912e+002, 4.556914e+003
6.458734e+002, 4.461502e+003
6.463555e+002, 4.398154e+003
6.468376e+002, 4.356308e+003
6.473197e+002, 4.320719e+003
6.478018e+002, 4.289587e+003
6.482839e+002, 4.274399e+003
6.487661e+002, 4.283146e+003
6.492482e+002, 4.298834e+003
6.497303e+002, 4.322158e+003
6.502124e+002, 4.346552e+003
6.506945e+002, 4.365689e+003
6.511766e+002, 4.378163e+003
6.516588e+002, 4.381391e+003
6.521409e+002, 4.375486e+003
6.526230e+002, 4.358178e+003
6.531051e+002, 4.326505e+003
6.535872e+002, 4.280194e+003
6.540693e+002, 4.211991e+003
6.545515e+002, 4.114582e+003
6.550336e+002, 3.998921e+003
6.555157e+002, 3.886184e+003
6.559978e+002, 3.775924e+003
6.564799e+002, 3.670557e+003
6.569620e+002, 3.568853e+003
6.574442e+002, 3.474318e+003
6.579263e+002, 3.389674e+003
6.584084e+002, 3.313705e+003
6.588905e+002, 3.243178e+003
6.593726e+002, 3.177423e+003
6.598547e+002, 3.115602e+003
6.603369e+002, 3.055749e+003
6.608190e+002, 2.998412e+003
6.613011e+002, 2.951193e+003
6.617832e+002, 2.916631e+003
6.622653e+002, 2.886126e+003
6.627474e+002, 2.856140e+003
6.632296e+002, 2.826705e+003
6.637117e+002, 2.797696e+003
6.641938e+002, 2.768023e+003
6.646759e+002, 2.742024e+003
6.651580e+002, 2.723200e+003
6.656401e+002, 2.706950e+003
6.661223e+002, 2.688988e+003
6.666044e+002, 2.669739e+003
6.670865e+002, 2.652251e+003
6.675686e+002, 2.638101e+003
6.680507e+002, 2.625784e+003
6.685328e+002, 2.612768e+003
6.690150e+002, 2.599587e+003
6.694971e+002, 2.582956e+003
6.699792e+002, 2.555917e+003
6.704613e+002, 2.534457e+003
6.709434e+002, 2.529100e+003
6.714255e+002, 2.531813e+003
6.719077e+002, 2.530376e+003
6.723898e+002, 2.521734e+003
6.728719e+002, 2.511605e+003
6.733540e+002, 2.503526e+003
6.738361e+002, 2.496306e+003
6.743182e+002, 2.487389e+003
6.748004e+002, 2.477005e+003
6.752825e+002, 2.468849e+003
6.757646e+002, 2.465431e+003
6.762467e+002, 2.464318e+003
6.767288e+002, 2.459526e+003
6.772109e+002, 2.447352e+003
6.776931e+002, 2.440182e+003
6.781752e+002, 2.442584e+003
6.786573e+002, 2.444715e+003
6.791394e+002, 2.442044e+003
6.796215e+002, 2.436344e+003
6.801036e+002, 2.430473e+003
6.805858e+002, 2.425296e+003
6.810679e+002, 2.421299e+003
6.815500e+002, 2.419139e+003
6.820321e+002, 2.418510e+003
6.825142e+002, 2.419150e+003
6.829963e+002, 2.421130e+003
6.834785e+002, 2.421744e+003
6.839606e+002, 2.419059e+003
6.844427e+002, 2.414558e+003
6.849248e+002, 2.411797e+003
6.854069e+002, 2.412251e+003
6.858890e+002, 2.410983e+003
6.863712e+002, 2.404434e+003
6.868533e+002, 2.399619e+003
6.873354e+002, 2.402529e+003
6.878175e+002, 2.409344e+003
6.882996e+002, 2.412391e+003
6.887817e+002, 2.408861e+003
6.892639e+002, 2.404310e+003
6.897460e+002, 2.406540e+003
6.902281e+002, 2.414257e+003
6.907102e+002, 2.418061e+003
6.911923e+002, 2.416910e+003
6.916744e+002, 2.414859e+003
6.921566e+002, 2.413472e+003
6.926387e+002, 2.412731e+003
6.931208e+002, 2.413097e+003
6.936029e+002, 2.415378e+003
6.940850e+002, 2.415142e+003
6.945671e+002, 2.405440e+003
6.950493e+002, 2.398898e+003
6.955314e+002, 2.407181e+003
6.960135e+002, 2.423974e+003
6.964956e+002, 2.436458e+003
6.969777e+002, 2.439985e+003
6.974598e+002, 2.439644e+003
6.979420e+002, 2.442400e+003
6.984241e+002, 2.447958e+003
6.989062e+002, 2.447994e+003
6.993883e+002, 2.439788e+003
6.998704e+002, 2.433659e+003
7.003525e+002, 2.434290e+003
7.008347e+002, 2.439205e+003
7.013168e+002, 2.445694e+003
7.017989e+002, 2.453979e+003
7.022810e+002, 2.460344e+003
7.027631e+002, 2.462858e+003
7.032452e+002, 2.463948e+003
7.037274e+002, 2.464369e+003
7.042095e+002, 2.464872e+003
7.046916e+002, 2.466799e+003
7.051737e+002, 2.470524e+003
7.056558e+002, 2.475207e+003
7.061379e+002, 2.479917e+003
7.066201e+002, 2.484652e+003
7.071022e+002, 2.489858e+003
7.075843e+002, 2.496703e+003
7.080664e+002, 2.501242e+003
7.085485e+002, 2.500908e+003
7.090306e+002, 2.498610e+003
7.095128e+002, 2.495798e+003
7.099949e+002, 2.492816e+003
7.104770e+002, 2.493203e+003
7.109591e+002, 2.502545e+003
7.114412e+002, 2.511355e+003
7.119233e+002, 2.512377e+003
7.124055e+002, 2.507982e+003
7.128876e+002, 2.501417e+003
7.133697e+002, 2.494080e+003
7.138518e+002, 2.489322e+003
7.143339e+002, 2.491218e+003
7.148160e+002, 2.498368e+003
7.152982e+002, 2.499759e+003
7.157803e+002, 2.492040e+003
7.162624e+002, 2.486482e+003
7.167445e+002, 2.488836e+003
7.172266e+002, 2.491053e+003
7.177087e+002, 2.486122e+003
7.181909e+002, 2.475823e+003
7.186730e+002, 2.468190e+003
7.191551e+002, 2.467579e+003
7.196372e+002, 2.467755e+003
7.201193e+002, 2.464520e+003
7.206014e+002, 2.459150e+003
7.210836e+002, 2.453642e+003
7.215657e+002, 2.448378e+003
7.220478e+002, 2.443008e+003
7.225299e+002, 2.437320e+003
7.230120e+002, 2.431220e+003
7.234941e+002, 2.424600e+003
7.239763e+002, 2.417577e+003
7.244584e+002, 2.409586e+003
7.249405e+002, 2.398544e+003
7.254226e+002, 2.388730e+003
7.259047e+002, 2.385357e+003
7.263868e+002, 2.384400e+003
7.268690e+002, 2.376286e+003
7.273511e+002, 2.355829e+003
7.278332e+002, 2.336748e+003
7.283153e+002, 2.328583e+003
7.287974e+002, 2.325955e+003
7.292795e+002, 2.322424e+003
7.297617e+002, 2.317260e+003
7.302438e+002, 2.310977e+003
7.307259e+002, 2.303709e+003
7.312080e+002, 2.296345e+003
7.316901e+002, 2.291010e+003
7.321722e+002, 2.288697e+003
7.326544e+002, 2.284468e+003
7.331365e+002, 2.279938e+003
7.336186e+002, 2.270998e+003
7.341007e+002, 2.251908e+003
7.345828e+002, 2.229814e+003
7.350649e+002, 2.213147e+003
7.355471e+002, 2.203038e+003
7.360292e+002, 2.198281e+003
7.365113e+002, 2.205219e+003
7.369934e+002, 2.211895e+003
7.374755e+002, 2.203096e+003
7.379576e+002, 2.183926e+003
7.384398e+002, 2.170082e+003
7.389219e+002, 2.167052e+003
7.394040e+002, 2.169020e+003
7.398861e+002, 2.169663e+003
7.403682e+002, 2.168916e+003
7.408503e+002, 2.162523e+003
7.413325e+002, 2.146010e+003
7.418146e+002, 2.133215e+003
7.422967e+002, 2.129873e+003
7.427788e+002, 2.130496e+003
7.432609e+002, 2.132677e+003
7.437430e+002, 2.135554e+003
7.442252e+002, 2.134079e+003
7.447073e+002, 2.123046e+003
7.451894e+002, 2.111077e+003
7.456715e+002, 2.102804e+003
7.461536e+002, 2.097659e+003
7.466357e+002, 2.095174e+003
7.471179e+002, 2.095029e+003
7.476000e+002, 2.096451e+003
7.480821e+002, 2.099001e+003
7.485642e+002, 2.102378e+003
7.490463e+002, 2.105674e+003
7.495284e+002, 2.109030e+003
7.500106e+002, 2.111960e+003
7.504927e+002, 2.115154e+003
7.509748e+002, 2.116917e+003
7.514569e+002, 2.114375e+003
7.519390e+002, 2.109819e+003
7.524211e+002, 2.108379e+003
7.529033e+002, 2.111733e+003
7.533854e+002, 2.115475e+003
7.538675e+002, 2.118936e+003
7.543496e+002, 2.121309e+003
7.548317e+002, 2.120128e+003
7.553138e+002, 2.117201e+003
7.557960e+002, 2.118030e+003
7.562781e+002, 2.125134e+003
7.567602e+002, 2.133966e+003
7.572423e+002, 2.137254e+003
7.577244e+002, 2.135213e+003
7.582065e+002, 2.136099e+003
7.586887e+002, 2.140413e+003
7.591708e+002, 2.146398e+003
7.596529e+002, 2.154231e+003
7.601350e+002, 2.162559e+003
7.606171e+002, 2.168828e+003
7.610992e+002, 2.172753e+003
7.615814e+002, 2.179006e+003
7.620635e+002, 2.189343e+003
7.625456e+002, 2.200800e+003
7.630277e+002, 2.213359e+003
7.635098e+002, 2.225612e+003
7.639919e+002, 2.235881e+003
7.644741e+002, 2.243937e+003
7.649562e+002, 2.250431e+003
7.654383e+002, 2.254852e+003
7.659204e+002, 2.259310e+003
7.664025e+002, 2.269449e+003
7.668846e+002, 2.285009e+003
7.673668e+002, 2.298879e+003
7.678489e+002, 2.308832e+003
7.683310e+002, 2.319727e+003
7.688131e+002, 2.337174e+003
7.692952e+002, 2.359041e+003
7.697773e+002, 2.373247e+003
7.702595e+002, 2.375865e+003
7.707416e+002, 2.376980e+003
7.712237e+002, 2.379517e+003
7.717058e+002, 2.378457e+003
7.721879e+002, 2.367915e+003
7.726700e+002, 2.351887e+003
7.731522e+002, 2.339666e+003
7.736343e+002, 2.335226e+003
7.741164e+002, 2.328598e+003
7.745985e+002, 2.308700e+003
7.750806e+002, 2.280084e+003
7.755627e+002, 2.251573e+003
7.760449e+002, 2.223974e+003
7.765270e+002, 2.200523e+003
7.770091e+002, 2.183588e+003
7.774912e+002, 2.166745e+003
7.779733e+002, 2.139207e+003
7.784554e+002, 2.098182e+003
7.789376e+002, 2.068295e+003
7.794197e+002, 2.060324e+003
7.799019e+002, 2.048771e+003
7.803840e+002, 2.022820e+003
7.808661e+002, 1.995161e+003
7.813482e+002, 1.978328e+003
7.818303e+002, 1.971388e+003
7.823124e+002, 1.963384e+003
7.827946e+002, 1.948768e+003
7.832767e+002, 1.932520e+003
7.837588e+002, 1.915504e+003
7.842409e+002, 1.900765e+003
7.847230e+002, 1.897519e+003
7.852051e+002, 1.904704e+003
7.856873e+002, 1.906799e+003
7.861694e+002, 1.892545e+003
7.866515e+002, 1.867918e+003
7.871336e+002, 1.847060e+003
7.876157e+002, 1.829652e+003
7.880978e+002, 1.819159e+003
7.885800e+002, 1.820493e+003
7.890621e+002, 1.820847e+003
7.895442e+002, 1.810148e+003
7.900263e+002, 1.795537e+003
7.905084e+002, 1.789764e+003
7.909905e+002, 1.796149e+003
7.914727e+002, 1.796920e+003
7.919548e+002, 1.783275e+003
7.924369e+002, 1.767203e+003
7.929190e+002, 1.753651e+003
7.934011e+002, 1.743804e+003
7.938832e+002, 1.739651e+003
7.943654e+002, 1.741048e+003
7.948475e+002, 1.743955e+003
7.953296e+002, 1.745365e+003
7.958117e+002, 1.745167e+003
7.962938e+002, 1.742727e+003
7.967759e+002, 1.738055e+003
7.972581e+002, 1.732606e+003
7.977402e+002, 1.726142e+003
7.982223e+002, 1.721439e+003
7.987044e+002, 1.722113e+003
7.991865e+002, 1.726622e+003
7.996686e+002, 1.725899e+003
8.001508e+002, 1.714485e+003
8.006329e+002, 1.705601e+003
8.011150e+002, 1.700248e+003
8.015971e+002, 1.696712e+003
8.020792e+002, 1.694718e+003
8.025613e+002, 1.693637e+003
8.030435e+002, 1.692795e+003
8.035256e+002, 1.692105e+003
8.040077e+002, 1.690472e+003
8.044898e+002, 1.686576e+003
8.049719e+002, 1.681611e+003
8.054540e+002, 1.676800e+003
8.059362e+002, 1.672444e+003
8.064183e+002, 1.669516e+003
8.069004e+002, 1.668361e+003
8.073825e+002, 1.667555e+003
8.078646e+002, 1.665257e+003
8.083467e+002, 1.661704e+003
8.088289e+002, 1.660316e+003
8.093110e+002, 1.662746e+003
8.097931e+002, 1.662686e+003
8.102752e+002, 1.656101e+003
8.107573e+002, 1.649564e+003
8.112394e+002, 1.649296e+003
8.117216e+002, 1.653389e+003
8.122037e+002, 1.655611e+003
8.126858e+002, 1.654417e+003
8.131679e+002, 1.652649e+003
8.136500e+002, 1.650896e+003
8.141321e+002, 1.649230e+003
8.146143e+002, 1.648051e+003
8.150964e+002, 1.646964e+003
8.155785e+002, 1.644798e+003
8.160606e+002, 1.641102e+003
8.165427e+002, 1.637509e+003
8.170248e+002, 1.635569e+003
8.175070e+002, 1.635270e+003
8.179891e+002, 1.637330e+003
8.184712e+002, 1.641738e+003
8.189533e+002, 1.644723e+003
8.194354e+002, 1.644834e+003
8.199175e+002, 1.643507e+003
8.203997e+002, 1.642347e+003
8.208818e+002, 1.641343e+003
8.213639e+002, 1.639714e+003
8.218460e+002, 1.636135e+003
8.223281e+002, 1.633948e+003
8.228102e+002, 1.635419e+003
8.232924e+002, 1.636590e+003
8.237745e+002, 1.634335e+003
8.242566e+002, 1.629759e+003
8.247387e+002, 1.625857e+003
8.252208e+002, 1.623372e+003
8.257029e+002, 1.622023e+003
8.261851e+002, 1.621844e+003
8.266672e+002, 1.622573e+003
8.271493e+002, 1.625066e+003
8.276314e+002, 1.628203e+003
8.281135e+002, 1.627897e+003
8.285956e+002, 1.622769e+003
8.290778e+002, 1.617771e+003
8.295599e+002, 1.619524e+003
8.300420e+002, 1.626844e+003
8.305241e+002, 1.632116e+003
8.310062e+002, 1.635351e+003
8.314883e+002, 1.635623e+003
8.319705e+002, 1.630878e+003
8.324526e+002, 1.626708e+003
8.329347e+002, 1.629428e+003
8.334168e+002, 1.638038e+003
8.338989e+002, 1.642853e+003
8.343810e+002, 1.642968e+003
8.348632e+002, 1.640981e+003
8.353453e+002, 1.633270e+003
8.358274e+002, 1.627222e+003
8.363095e+002, 1.628753e+003
8.367916e+002, 1.635004e+003
8.372737e+002, 1.640501e+003
8.377559e+002, 1.643697e+003
8.382380e+002, 1.644982e+003
8.387201e+002, 1.642927e+003
8.392022e+002, 1.640272e+003
8.396843e+002, 1.641510e+003
8.401664e+002, 1.645456e+003
8.406486e+002, 1.647738e+003
8.411307e+002, 1.647111e+003
8.416128e+002, 1.646149e+003
8.420949e+002, 1.647514e+003
8.425770e+002, 1.650560e+003
8.430591e+002, 1.652370e+003
8.435413e+002, 1.652849e+003
8.440234e+002, 1.652277e+003
8.445055e+002, 1.649610e+003
8.449876e+002, 1.648025e+003
8.454697e+002, 1.651240e+003
8.459518e+002, 1.656814e+003
8.464340e+002, 1.657181e+003
8.469161e+002, 1.649040e+003
8.473982e+002, 1.644785e+003
8.478803e+002, 1.649427e+003
8.483624e+002, 1.654233e+003
8.488445e+002, 1.654300e+003
8.493267e+002, 1.652117e+003
8.498088e+002, 1.651242e+003
8.502909e+002, 1.652309e+003
8.507730e+002, 1.653777e+003
8.512551e+002, 1.655003e+003
8.517372e+002, 1.655772e+003
8.522194e+002, 1.655180e+003
8.527015e+002, 1.654047e+003
8.531836e+002, 1.654699e+003
8.536657e+002, 1.657358e+003
8.541478e+002, 1.660145e+003
8.546299e+002, 1.661855e+003
8.551121e+002, 1.662646e+003
8.555942e+002, 1.663350e+003
8.560763e+002, 1.664362e+003
8.565584e+002, 1.661052e+003
8.570405e+002, 1.650817e+003
8.575226e+002, 1.642809e+003
8.580048e+002, 1.642020e+003
8.584869e+002, 1.644555e+003
8.589690e+002, 1.645149e+003
8.594511e+002, 1.643755e+003
8.599332e+002, 1.641470e+003
8.604153e+002, 1.635761e+003
8.608975e+002, 1.632490e+003
8.613796e+002, 1.634100e+003
8.618617e+002, 1.638124e+003
8.623438e+002, 1.645762e+003
8.628259e+002, 1.653804e+003
8.633080e+002, 1.652916e+003
8.637902e+002, 1.636889e+003
8.642723e+002, 1.620913e+003
8.647544e+002, 1.619451e+003
8.652365e+002, 1.625065e+003
8.657186e+002, 1.626733e+003
8.662007e+002, 1.624573e+003
8.666829e+002, 1.622279e+003
8.671650e+002, 1.621300e+003
8.676471e+002, 1.621592e+003
8.681292e+002, 1.623658e+003
8.686113e+002, 1.626822e+003
8.690934e+002, 1.626911e+003
8.695756e+002, 1.623639e+003
8.700577e+002, 1.619085e+003
8.705398e+002, 1.612891e+003
8.710219e+002, 1.607445e+003
8.715040e+002, 1.604928e+003
8.719861e+002, 1.604575e+003
8.724683e+002, 1.603422e+003
8.729504e+002, 1.600072e+003
8.734325e+002, 1.598590e+003
8.739146e+002, 1.602642e+003
8.743967e+002, 1.604462e+003
8.748788e+002, 1.598272e+003
8.753610e+002, 1.589297e+003
8.758431e+002, 1.584523e+003
8.763252e+002, 1.584711e+003
8.768073e+002, 1.585139e+003
8.772894e+002, 1.583849e+003
8.777715e+002, 1.581668e+003
8.782537e+002, 1.578615e+003
8.787358e+002, 1.575393e+003
8.792179e+002, 1.573122e+003
8.797000e+002, 1.571805e+003
8.801821e+002, 1.570799e+003
8.806642e+002, 1.569761e+003
8.811464e+002, 1.568571e+003
8.816285e+002, 1.566519e+003
8.821106e+002, 1.564023e+003
8.825927e+002, 1.563851e+003
8.830748e+002, 1.566192e+003
8.835569e+002, 1.568367e+003
8.840391e+002, 1.569468e+003
8.845212e+002, 1.569632e+003
8.850033e+002, 1.568966e+003
8.854854e+002, 1.567496e+003
8.859675e+002, 1.565574e+003
8.864496e+002, 1.562222e+003
8.869318e+002, 1.560402e+003
8.874139e+002, 1.561666e+003
8.878960e+002, 1.563336e+003
8.883781e+002, 1.563857e+003
8.888602e+002, 1.563750e+003
8.893423e+002, 1.564485e+003
8.898245e+002, 1.566990e+003
8.903066e+002, 1.566933e+003
8.907887e+002, 1.560138e+003
8.912708e+002, 1.553689e+003
8.917529e+002, 1.551483e+003
8.922350e+002, 1.552369e+003
8.927172e+002, 1.555368e+003
8.931993e+002, 1.559722e+003
8.936814e+002, 1.563792e+003
8.941635e+002, 1.567116e+003
8.946456e+002, 1.568594e+003
8.951277e+002, 1.565568e+003
8.956099e+002, 1.560021e+003
8.960920e+002, 1.555996e+003
8.965741e+002, 1.554014e+003
8.970562e+002, 1.554926e+003
8.975383e+002, 1.559293e+003
8.980204e+002, 1.562671e+003
8.985026e+002, 1.557360e+003
8.989847e+002, 1.544400e+003
8.994668e+002, 1.538092e+003
8.999489e+002, 1.539605e+003
9.004310e+002, 1.541113e+003
9.009131e+002, 1.540982e+003
9.013953e+002, 1.539508e+003
9.018774e+002, 1.536502e+003
9.023595e+002, 1.532432e+003
9.028416e+002, 1.529504e+003
9.033237e+002, 1.529119e+003
9.038058e+002, 1.527372e+003
9.042880e+002, 1.523649e+003
9.047701e+002, 1.519387e+003
9.052522e+002, 1.513413e+003
9.057343e+002, 1.508234e+003
9.062164e+002, 1.507365e+003
9.066985e+002, 1.510936e+003
9.071807e+002, 1.515061e+003
9.076628e+002, 1.519745e+003
9.081449e+002, 1.522995e+003
9.086270e+002, 1.523006e+003
9.091091e+002, 1.521480e+003
9.095912e+002, 1.520657e+003
9.100734e+002, 1.520096e+003
9.105555e+002, 1.516998e+003
9.110376e+002, 1.509967e+003
9.115197e+002, 1.503874e+003
9.120018e+002, 1.503706e+003
9.124839e+002, 1.508277e+003
9.129661e+002, 1.518400e+003
9.134482e+002, 1.531668e+003
9.139303e+002, 1.535823e+003
9.144124e+002, 1.527760e+003
9.148945e+002, 1.517290e+003
9.153766e+002, 1.512895e+003
9.158588e+002, 1.513038e+003
9.163409e+002, 1.512669e+003
9.168230e+002, 1.511502e+003
9.173051e+002, 1.512874e+003
9.177872e+002, 1.517688e+003
9.182693e+002, 1.523189e+003
9.187515e+002, 1.528964e+003
9.192336e+002, 1.533389e+003
9.197157e+002, 1.532924e+003
9.201978e+002, 1.526527e+003
9.206799e+002, 1.525587e+003
9.211620e+002, 1.536589e+003
9.216442e+002, 1.544044e+003
9.221263e+002, 1.542421e+003
9.226084e+002, 1.539857e+003
9.230905e+002, 1.541193e+003
9.235726e+002, 1.545943e+003
9.240547e+002, 1.552767e+003
9.245369e+002, 1.562060e+003
9.250190e+002, 1.570635e+003
9.255011e+002, 1.577295e+003
9.259832e+002, 1.582941e+003
9.264653e+002, 1.587252e+003
9.269474e+002, 1.591507e+003
9.274296e+002, 1.597121e+003
9.279117e+002, 1.604454e+003
9.283938e+002, 1.613623e+003
9.288759e+002, 1.625007e+003
9.293580e+002, 1.637508e+003
9.298401e+002, 1.650300e+003
9.303223e+002, 1.663118e+003
9.308044e+002, 1.675650e+003
9.312865e+002, 1.687712e+003
9.317686e+002, 1.698343e+003
9.322507e+002, 1.707207e+003
9.327328e+002, 1.716962e+003
9.332150e+002, 1.730906e+003
9.336971e+002, 1.748040e+003
9.341792e+002, 1.765337e+003
9.346613e+002, 1.782752e+003
9.351434e+002, 1.798184e+003
9.356255e+002, 1.811431e+003
9.361077e+002, 1.820814e+003
9.365898e+002, 1.824806e+003
9.370719e+002, 1.825006e+003
9.375540e+002, 1.824913e+003
9.380361e+002, 1.824555e+003
9.385182e+002, 1.823984e+003
9.390004e+002, 1.824723e+003
9.394825e+002, 1.822253e+003
9.399646e+002, 1.814644e+003
9.404467e+002, 1.803977e+003
9.409288e+002, 1.791310e+003
9.414109e+002, 1.777023e+003
9.418931e+002, 1.762935e+003
9.423752e+002, 1.747897e+003
9.428573e+002, 1.735292e+003
9.433394e+002, 1.727339e+003
9.438215e+002, 1.719898e+003
9.443036e+002, 1.713025e+003
9.447858e+002, 1.704260e+003
9.452679e+002, 1.688092e+003
9.457500e+002, 1.665252e+003
9.462321e+002, 1.647990e+003
9.467142e+002, 1.645451e+003
9.471964e+002, 1.644774e+003
9.476785e+002, 1.639906e+003
9.481606e+002, 1.631525e+003
9.486427e+002, 1.618266e+003
9.491248e+002, 1.602472e+003
9.496069e+002, 1.589388e+003
9.500891e+002, 1.580960e+003
9.505712e+002, 1.574418e+003
9.510533e+002, 1.565931e+003
9.515354e+002, 1.558571e+003
9.520175e+002, 1.559961e+003
9.524996e+002, 1.566419e+003
9.529818e+002, 1.566606e+003
9.534639e+002, 1.559167e+003
9.539460e+002, 1.551261e+003
9.544281e+002, 1.547391e+003
9.549102e+002, 1.545322e+003
9.553923e+002, 1.540693e+003
9.558745e+002, 1.534006e+003
9.563566e+002, 1.530103e+003
9.568387e+002, 1.529069e+003
9.573208e+002, 1.531242e+003
9.578029e+002, 1.537305e+003
9.582850e+002, 1.543529e+003
9.587672e+002, 1.546510e+003
9.592493e+002, 1.546811e+003
9.597314e+002, 1.546898e+003
9.602135e+002, 1.547398e+003
9.606956e+002, 1.544953e+003
9.611777e+002, 1.536990e+003
9.616599e+002, 1.531169e+003
9.621420e+002, 1.531339e+003
9.626241e+002, 1.534576e+003
9.631062e+002, 1.538201e+003
9.635883e+002, 1.542187e+003
9.640704e+002, 1.543008e+003
9.645526e+002, 1.535479e+003
9.650347e+002, 1.532594e+003
9.655168e+002, 1.539733e+003
9.659989e+002, 1.547254e+003
9.664810e+002, 1.550023e+003
9.669631e+002, 1.549793e+003
9.674453e+002, 1.548958e+003
9.679274e+002, 1.547754e+003
9.684095e+002, 1.548574e+003
9.688916e+002, 1.552385e+003
9.693737e+002, 1.558025e+003
9.698558e+002, 1.568445e+003
9.703380e+002, 1.577724e+003
9.708201e+002, 1.578537e+003
9.713022e+002, 1.573646e+003
9.717843e+002, 1.570534e+003
9.722664e+002, 1.571622e+003
9.727485e+002, 1.575273e+003
9.732307e+002, 1.580712e+003
9.737128e+002, 1.587929e+003
9.741949e+002, 1.599060e+003
9.746770e+002, 1.610986e+003
9.751591e+002, 1.617552e+003
9.756412e+002, 1.619053e+003
9.761234e+002, 1.621852e+003
9.766055e+002, 1.629767e+003
9.770876e+002, 1.637708e+003
9.775698e+002, 1.636544e+003
9.780519e+002, 1.632102e+003
9.785340e+002, 1.638732e+003
9.790161e+002, 1.654235e+003
9.794982e+002, 1.668317e+003
9.799803e+002, 1.678006e+003
9.804625e+002, 1.683272e+003
9.809446e+002, 1.683637e+003
9.814267e+002, 1.681160e+003
9.819088e+002, 1.680624e+003
9.823909e+002, 1.681664e+003
9.828730e+002, 1.678904e+003
9.833552e+002, 1.671817e+003
9.838373e+002, 1.672803e+003
9.843194e+002, 1.687571e+003
9.848015e+002, 1.704403e+003
9.852836e+002, 1.710877e+003
9.857657e+002, 1.708956e+003
9.862479e+002, 1.707919e+003
9.867300e+002, 1.707415e+003
9.872121e+002, 1.710044e+003
9.876942e+002, 1.716872e+003
9.881763e+002, 1.724487e+003
9.886584e+002, 1.731508e+003
9.891406e+002, 1.738086e+003
9.896227e+002, 1.743347e+003
9.901048e+002, 1.747416e+003
9.905869e+002, 1.759063e+003
9.910690e+002, 1.784794e+003
9.915511e+002, 1.805242e+003
9.920333e+002, 1.814508e+003
9.925154e+002, 1.823274e+003
9.929975e+002, 1.834735e+003
9.934796e+002, 1.850376e+003
9.939617e+002, 1.873624e+003
9.944438e+002, 1.905342e+003
9.949260e+002, 1.935902e+003
9.954081e+002, 1.963947e+003
9.958902e+002, 1.991826e+003
9.963723e+002, 2.015386e+003
9.968544e+002, 2.043422e+003
9.973365e+002, 2.083719e+003
9.978187e+002, 2.132283e+003
9.983008e+002, 2.181465e+003
9.987829e+002, 2.230368e+003
9.992650e+002, 2.277975e+003
9.997471e+002, 2.323229e+003
1.000229e+003, 2.368058e+003
1.000711e+003, 2.419362e+003
1.001193e+003, 2.466035e+003
1.001676e+003, 2.498054e+003
1.002158e+003, 2.516422e+003
1.002640e+003, 2.526769e+003
1.003122e+003, 2.531030e+003
1.003604e+003, 2.524893e+003
1.004086e+003, 2.503117e+003
1.004568e+003, 2.472830e+003
1.005050e+003, 2.440889e+003
1.005533e+003, 2.403350e+003
1.006015e+003, 2.349810e+003
1.006497e+003, 2.284767e+003
1.006979e+003, 2.225351e+003
1.007461e+003, 2.179094e+003
1.007943e+003, 2.140381e+003
1.008425e+003, 2.106241e+003
1.008907e+003, 2.075501e+003
1.009389e+003, 2.047359e+003
1.009872e+003, 2.021669e+003
1.010354e+003, 1.997999e+003
1.010836e+003, 1.976651e+003
1.011318e+003, 1.959853e+003
1.011800e+003, 1.949224e+003
1.012282e+003, 1.941276e+003
1.012764e+003, 1.930599e+003
1.013246e+003, 1.919834e+003
1.013729e+003, 1.915815e+003
1.014211e+003, 1.916999e+003
1.014693e+003, 1.917743e+003
1.015175e+003, 1.916479e+003
1.015657e+003, 1.912358e+003
1.016139e+003, 1.904292e+003
1.016621e+003, 1.896044e+003
1.017103e+003, 1.895031e+003
1.017585e+003, 1.899531e+003
1.018068e+003, 1.901681e+003
1.018550e+003, 1.901504e+003
1.019032e+003, 1.902496e+003
1.019514e+003, 1.905630e+003
1.019996e+003, 1.907613e+003
1.020478e+003, 1.905574e+003
1.020960e+003, 1.901314e+003
1.021442e+003, 1.898510e+003
1.021924e+003, 1.897208e+003
1.022407e+003, 1.898885e+003
1.022889e+003, 1.903780e+003
1.023371e+003, 1.908172e+003
1.023853e+003, 1.910839e+003
1.024335e+003, 1.913078e+003
1.024817e+003, 1.915832e+003
1.025299e+003, 1.919441e+003
1.025781e+003, 1.925249e+003
1.026264e+003, 1.933592e+003
1.026746e+003, 1.940536e+003
1.027228e+003, 1.944320e+003
1.027710e+003, 1.955068e+003
1.028192e+003, 1.978432e+003
1.028674e+003, 2.003304e+003
1.029156e+003, 2.018106e+003
1.029638e+003, 2.026300e+003
1.030120e+003, 2.042649e+003
1.030603e+003, 2.069656e+003
1.031085e+003, 2.094632e+003
1.031567e+003, 2.114301e+003
1.032049e+003, 2.139587e+003
1.032531e+003, 2.176197e+003
1.033013e+003, 2.216852e+003
1.033495e+003, 2.253889e+003
1.033977e+003, 2.288650e+003
1.034459e+003, 2.328920e+003
1.034942e+003, 2.384096e+003
1.035424e+003, 2.421981e+003
1.035906e+003, 2.435543e+003
1.036388e+003, 2.443655e+003
1.036870e+003, 2.457118e+003
1.037352e+003, 2.463105e+003
1.037834e+003, 2.445636e+003
1.038316e+003, 2.408621e+003
1.038799e+003, 2.375906e+003
1.039281e+003, 2.354574e+003
1.039763e+003, 2.323562e+003
1.040245e+003, 2.273698e+003
1.040727e+003, 2.225591e+003
1.041209e+003, 2.184008e+003
1.041691e+003, 2.148198e+003
1.042173e+003, 2.119395e+003
1.042656e+003, 2.096017e+003
1.043138e+003, 2.070833e+003
1.043620e+003, 2.038130e+003
1.044102e+003, 2.014563e+003
1.044584e+003, 2.007828e+003
1.045066e+003, 2.002028e+003
1.045548e+003, 1.991413e+003
1.046030e+003, 1.979138e+003
1.046512e+003, 1.967126e+003
1.046995e+003, 1.956157e+003
1.047477e+003, 1.949085e+003
1.047959e+003, 1.947964e+003
1.048441e+003, 1.946749e+003
1.048923e+003, 1.943726e+003
1.049405e+003, 1.941516e+003
1.049887e+003, 1.942417e+003
1.050369e+003, 1.943743e+003
1.050851e+003, 1.942282e+003
1.051334e+003, 1.938736e+003
1.051816e+003, 1.936559e+003
1.052298e+003, 1.936751e+003
1.052780e+003, 1.937110e+003
1.053262e+003, 1.938538e+003
1.053744e+003, 1.938306e+003
1.054226e+003, 1.934851e+003
1.054708e+003, 1.929331e+003
1.055191e+003, 1.920921e+003
1.055673e+003, 1.911523e+003
1.056155e+003, 1.907229e+003
1.056637e+003, 1.910677e+003
1.057119e+003, 1.914504e+003
1.057601e+003, 1.915980e+003
1.058083e+003, 1.917927e+003
1.058565e+003, 1.925664e+003
1.059047e+003, 1.931489e+003
1.059530e+003, 1.922660e+003
1.060012e+003, 1.905381e+003
1.060494e+003, 1.901357e+003
1.060976e+003, 1.919616e+003
1.061458e+003, 1.932831e+003
1.061940e+003, 1.926885e+003
1.062422e+003, 1.918941e+003
1.062904e+003, 1.916029e+003
1.063386e+003, 1.917157e+003
1.063869e+003, 1.923279e+003
1.064351e+003, 1.931901e+003
1.064833e+003, 1.936703e+003
1.065315e+003, 1.935526e+003
1.065797e+003, 1.935187e+003
1.066279e+003, 1.940197e+003
1.066761e+003, 1.944640e+003
1.067243e+003, 1.942594e+003
1.067726e+003, 1.940757e+003
1.068208e+003, 1.947161e+003
1.068690e+003, 1.959011e+003
1.069172e+003, 1.968977e+003
1.069654e+003, 1.975234e+003
1.070136e+003, 1.979042e+003
1.070618e+003, 1.977436e+003
1.071100e+003, 1.977814e+003
1.071583e+003, 1.986195e+003
1.072065e+003, 1.996546e+003
1.072547e+003, 2.001700e+003
1.073029e+003, 2.004660e+003
1.073511e+003, 2.013881e+003
1.073993e+003, 2.031124e+003
1.074475e+003, 2.045765e+003
1.074957e+003, 2.052186e+003
1.075439e+003, 2.056033e+003
1.075922e+003, 2.057807e+003
1.076404e+003, 2.060396e+003
1.076886e+003, 2.067974e+003
1.077368e+003, 2.077625e+003
1.077850e+003, 2.082867e+003
1.078332e+003, 2.082982e+003
1.078814e+003, 2.085229e+003
1.079296e+003, 2.093595e+003
1.079779e+003, 2.103569e+003
1.080261e+003, 2.115027e+003
1.080743e+003, 2.125249e+003
1.081225e+003, 2.130153e+003
1.081707e+003, 2.133087e+003
1.082189e+003, 2.140355e+003
1.082671e+003, 2.152097e+003
1.083153e+003, 2.161363e+003
1.083635e+003, 2.163599e+003
1.084118e+003, 2.166429e+003
1.084600e+003, 2.174746e+003
1.085082e+003, 2.183419e+003
1.085564e+003, 2.187286e+003
1.086046e+003, 2.189996e+003
1.086528e+003, 2.197344e+003
1.087010e+003, 2.209091e+003
1.087492e+003, 2.219903e+003
1.087974e+003, 2.227396e+003
1.088457e+003, 2.235697e+003
1.088939e+003, 2.249074e+003
1.089421e+003, 2.261024e+003
1.089903e+003, 2.264810e+003
1.090385e+003, 2.266865e+003
1.090867e+003, 2.275341e+003
1.091349e+003, 2.289267e+003
1.091831e+003, 2.302348e+003
1.092314e+003, 2.312838e+003
1.092796e+003, 2.322500e+003
1.093278e+003, 2.331886e+003
1.093760e+003, 2.340597e+003
1.094242e+003, 2.344787e+003
1.094724e+003, 2.351162e+003
1.095206e+003, 2.371659e+003
1.095688e+003, 2.398731e+003
1.096171e+003, 2.409979e+003
1.096653e+003, 2.397904e+003
1.097135e+003, 2.395157e+003
1.097617e+003, 2.421387e+003
1.098099e+003, 2.445675e+003
1.098581e+003, 2.452415e+003
1.099063e+003, 2.455865e+003
1.099545e+003, 2.467767e+003
1.100027e+003, 2.484843e+003
1.100510e+003, 2.500260e+003
1.100992e+003, 2.513170e+003
1.101474e+003, 2.521934e+003
1.101956e+003, 2.519442e+003
1.102438e+003, 2.522464e+003
1.102920e+003, 2.538653e+003
1.103402e+003, 2.558235e+003
1.103884e+003, 2.577473e+003
1.104366e+003, 2.595005e+003
1.104849e+003, 2.608243e+003
1.105331e+003, 2.617548e+003
1.105813e+003, 2.629933e+003
1.106295e+003, 2.650277e+003
1.106777e+003, 2.667646e+003
1.107259e+003, 2.676764e+003
1.107741e+003, 2.687122e+003
1.108223e+003, 2.703836e+003
1.108706e+003, 2.723247e+003
1.109188e+003, 2.742447e+003
1.109670e+003, 2.761026e+003
1.110152e+003, 2.777167e+003
1.110634e+003, 2.790227e+003
1.111116e+003, 2.802192e+003
1.111598e+003, 2.810418e+003
1.112080e+003, 2.821170e+003
1.112563e+003, 2.840186e+003
1.113045e+003, 2.858669e+003
1.113527e+003, 2.866405e+003
1.114009e+003, 2.869042e+003
1.114491e+003, 2.882243e+003
1.114973e+003, 2.909175e+003
1.115455e+003, 2.933181e+003
1.115937e+003, 2.952362e+003
1.116419e+003, 2.972039e+003
1.116901e+003, 2.994655e+003
1.117384e+003, 3.015577e+003
1.117866e+003, 3.030126e+003
1.118348e+003, 3.042938e+003
1.118830e+003, 3.062108e+003
1.119312e+003, 3.087782e+003
1.119794e+003, 3.113550e+003
1.120276e+003, 3.142144e+003
1.120758e+003, 3.162347e+003
1.121241e+003, 3.167852e+003
1.121723e+003, 3.176660e+003
1.122205e+003, 3.197151e+003
1.122687e+003, 3.224453e+003
1.123169e+003, 3.254190e+003
1.123651e+003, 3.285154e+003
1.124133e+003, 3.308168e+003
1.124615e+003, 3.319466e+003
1.125098e+003, 3.343171e+003
1.125580e+003, 3.384680e+003
1.126062e+003, 3.418907e+003
1.126544e+003, 3.436068e+003
1.127026e+003, 3.450004e+003
1.127508e+003, 3.472606e+003
1.127990e+003, 3.500153e+003
1.128472e+003, 3.522287e+003
1.128954e+003, 3.538746e+003
1.129437e+003, 3.563721e+003
1.129919e+003, 3.597903e+003
1.130401e+003, 3.630825e+003
1.130883e+003, 3.660369e+003
1.131365e+003, 3.690826e+003
1.131847e+003, 3.724879e+003
1.132329e+003, 3.760303e+003
1.132811e+003, 3.793465e+003
1.133293e+003, 3.824944e+003
1.133776e+003, 3.855729e+003
1.134258e+003, 3.886446e+003
1.134740e+003, 3.924355e+003
1.135222e+003, 3.969696e+003
1.135704e+003, 4.015335e+003
1.136186e+003, 4.058242e+003
1.136668e+003, 4.101236e+003
1.137150e+003, 4.146857e+003
1.137633e+003, 4.194165e+003
1.138115e+003, 4.243099e+003
1.138597e+003, 4.291807e+003
1.139079e+003, 4.332190e+003
1.139561e+003, 4.367358e+003
1.140043e+003, 4.413549e+003
1.140525e+003, 4.473142e+003
1.141007e+003, 4.531691e+003
1.141490e+003, 4.579468e+003
1.141972e+003, 4.625234e+003
1.142454e+003, 4.678240e+003
1.142936e+003, 4.737400e+003
1.143418e+003, 4.802880e+003
1.143900e+003, 4.872021e+003
1.144382e+003, 4.937905e+003
1.144864e+003, 5.002099e+003
1.145346e+003, 5.073436e+003
1.145828e+003, 5.154957e+003
1.146311e+003, 5.237878e+003
1.146793e+003, 5.313655e+003
1.147275e+003, 5.389876e+003
1.147757e+003, 5.471001e+003
1.148239e+003, 5.557438e+003
1.148721e+003, 5.652376e+003
1.149203e+003, 5.751500e+003
1.149685e+003, 5.845354e+003
1.150168e+003, 5.933918e+003
1.150650e+003, 6.033511e+003
1.151132e+003, 6.155254e+003
1.151614e+003, 6.280901e+003
1.152096e+003, 6.402354e+003
1.152578e+003, 6.523619e+003
1.153060e+003, 6.645638e+003
1.153542e+003, 6.770923e+003
1.154025e+003, 6.901470e+003
1.154507e+003, 7.038397e+003
1.154989e+003, 7.186378e+003
1.155471e+003, 7.349557e+003
1.155953e+003, 7.507913e+003
1.156435e+003, 7.645522e+003
1.156917e+003, 7.794935e+003
1.157399e+003, 7.967261e+003
1.157881e+003, 8.154264e+003
1.158364e+003, 8.357361e+003
1.158846e+003, 8.568672e+003
1.159328e+003, 8.777591e+003
1.159810e+003, 8.983152e+003
1.160292e+003, 9.182746e+003
1.160774e+003, 9.359630e+003
1.161256e+003, 9.559729e+003
1.161738e+003, 9.789857e+003
1.162220e+003, 1.003679e+004
1.162703e+003, 1.030155e+004
1.163185e+003, 1.057331e+004
1.163667e+003, 1.084448e+004
1.164149e+003, 1.111458e+004
1.164631e+003, 1.138113e+004
1.165113e+003, 1.163950e+004
1.165595e+003, 1.192504e+004
1.166077e+003, 1.224581e+004
1.166560e+003, 1.256361e+004
1.167042e+003, 1.286898e+004
1.167524e+003, 1.318311e+004
1.168006e+003, 1.351765e+004
1.168488e+003, 1.386365e+004
1.168970e+003, 1.420341e+004
1.169452e+003, 1.453901e+004
1.169934e+003, 1.487348e+004
1.170417e+003, 1.520760e+004
1.170899e+003, 1.554983e+004
1.171381e+003, 1.589929e+004
1.171863e+003, 1.623945e+004
1.172345e+003, 1.656450e+004
1.172827e+003, 1.688838e+004
1.173309e+003, 1.722289e+004
1.173791e+003, 1.756123e+004
1.174273e+003, 1.789965e+004
1.174755e+003, 1.823080e+004
1.175238e+003, 1.853627e+004
1.175720e+003, 1.882348e+004
1.176202e+003, 1.911276e+004
1.176684e+003, 1.940490e+004
1.177166e+003, 1.968180e+004
1.177648e+003, 1.993824e+004
1.178130e+003, 2.018390e+004
1.178612e+003, 2.043882e+004
1.179095e+003, 2.067606e+004
1.179577e+003, 2.086340e+004
1.180059e+003, 2.102348e+004
1.180541e+003, 2.118636e+004
1.181023e+003, 2.134301e+004
1.181505e+003, 2.146896e+004
1.181987e+003, 2.156301e+004
1.182469e+003, 2.164925e+004
1.182952e+003, 2.173943e+004
1.183434e+003, 2.181443e+004
1.183916e+003, 2.186960e+004
1.184398e+003, 2.190191e+004
1.184880e+003, 2.190409e+004
1.185362e+003, 2.188718e+004
1.185844e+003, 2.186545e+004
1.186326e+003, 2.183216e+004
1.186808e+003, 2.176926e+004
1.187291e+003, 2.167335e+004
1.187773e+003, 2.155932e+004
1.188255e+003, 2.141787e+004
1.188737e+003, 2.127474e+004
1.189219e+003, 2.114135e+004
1.189701e+003, 2.099408e+004
1.190183e+003, 2.081855e+004
1.190665e+003, 2.063104e+004
1.191147e+003, 2.045203e+004
1.191630e+003, 2.027596e+004
1.192112e+003, 2.007949e+004
1.192594e+003, 1.985603e+004
1.193076e+003, 1.964854e+004
1.193558e+003, 1.946318e+004
1.194040e+003, 1.926148e+004
1.194522e+003, 1.903279e+004
1.195004e+003, 1.880374e+004
1.195487e+003, 1.859165e+004
1.195969e+003, 1.837791e+004
1.196451e+003, 1.812841e+004
1.196933e+003, 1.785794e+004
1.197415e+003, 1.762551e+004
1.197897e+003, 1.742467e+004
1.198379e+003, 1.722944e+004
1.198861e+003, 1.703373e+004
1.199344e+003, 1.682561e+004
1.199826e+003, 1.660206e+004
1.200308e+003, 1.637736e+004
1.200790e+003, 1.615860e+004
1.201272e+003, 1.595154e+004
1.201754e+003, 1.577434e+004
1.202236e+003, 1.560320e+004
1.202718e+003, 1.539652e+004
1.203200e+003, 1.517575e+004
1.203682e+003, 1.498156e+004
1.204165e+003, 1.480977e+004
1.204647e+003, 1.463390e+004
1.205129e+003, 1.444693e+004
1.205611e+003, 1.426037e+004
1.206093e+003, 1.407186e+004
1.206575e+003, 1.390202e+004
1.207057e+003, 1.378252e+004
1.207539e+003, 1.366243e+004
1.208022e+003, 1.349827e+004
1.208504e+003, 1.331823e+004
1.208986e+003, 1.315795e+004
1.209468e+003, 1.301311e+004
1.209950e+003, 1.285862e+004
1.210432e+003, 1.268465e+004
1.210914e+003, 1.252829e+004
1.211396e+003, 1.240022e+004
1.211879e+003, 1.227706e+004
1.212361e+003, 1.215870e+004
1.212843e+003, 1.203996e+004
1.213325e+003, 1.191753e+004
1.213807e+003, 1.179503e+004
1.214289e+003, 1.167540e+004
1.214771e+003, 1.155944e+004
1.215253e+003, 1.145132e+004
1.215735e+003, 1.135330e+004
1.216218e+003, 1.124586e+004
1.216700e+003, 1.112734e+004
1.217182e+003, 1.101325e+004
1.217664e+003, 1.090626e+004
1.218146e+003, 1.080586e+004
1.218628e+003, 1.071123e+004
1.219110e+003, 1.062130e+004
1.219592e+003, 1.053684e+004
1.220074e+003, 1.045324e+004
1.220557e+003, 1.035718e+004
1.221039e+003, 1.025421e+004
1.221521e+003, 1.015829e+004
1.222003e+003, 1.006888e+004
1.222485e+003, 9.981745e+003
1.222967e+003, 9.895358e+003
1.223449e+003, 9.807817e+003
1.223931e+003, 9.717469e+003
1.224414e+003, 9.632844e+003
1.224896e+003, 9.567018e+003
1.225378e+003, 9.503100e+003
1.225860e+003, 9.429548e+003
1.226342e+003, 9.349373e+003
1.226824e+003, 9.260920e+003
1.227306e+003, 9.170987e+003
1.227788e+003, 9.093468e+003
1.228271e+003, 9.029100e+003
1.228753e+003, 8.962946e+003
1.229235e+003, 8.889534e+003
1.229717e+003, 8.818293e+003
1.230199e+003, 8.751694e+003
1.230681e+003, 8.686332e+003
1.231163e+003, 8.616981e+003
1.231645e+003, 8.553502e+003
1.232127e+003, 8.506830e+003
1.232609e+003, 8.467131e+003
1.233092e+003, 8.414763e+003
1.233574e+003, 8.349708e+003
1.234056e+003, 8.287988e+003
1.234538e+003, 8.228747e+003
1.235020e+003, 8.179344e+003
1.235502e+003, 8.141413e+003
1.235984e+003, 8.100169e+003
1.236466e+003, 8.050790e+003
1.236949e+003, 7.996841e+003
1.237431e+003, 7.940957e+003
1.237913e+003, 7.884992e+003
1.238395e+003, 7.830163e+003
1.238877e+003, 7.778761e+003
1.239359e+003, 7.738841e+003
1.239841e+003, 7.705332e+003
1.240323e+003, 7.664845e+003
1.240806e+003, 7.618611e+003
1.241288e+003, 7.575848e+003
1.241770e+003, 7.538907e+003
1.242252e+003, 7.502741e+003
1.242734e+003, 7.465396e+003
1.243216e+003, 7.425352e+003
1.243698e+003, 7.375020e+003
1.244180e+003, 7.329552e+003
1.244662e+003, 7.303139e+003
1.245145e+003, 7.283782e+003
1.245627e+003, 7.262952e+003
1.246109e+003, 7.237699e+003
1.246591e+003, 7.202271e+003
1.247073e+003, 7.155633e+003
1.247555e+003, 7.112096e+003
1.248037e+003, 7.068643e+003
1.248519e+003, 7.036829e+003
1.249001e+003, 7.025977e+003
1.249484e+003, 7.007316e+003
1.249966e+003, 6.966799e+003
1.250448e+003, 6.927082e+003
1.250930e+003, 6.906962e+003
1.251412e+003, 6.896857e+003
1.251894e+003, 6.878396e+003
1.252376e+003, 6.852716e+003
1.252858e+003, 6.828228e+003
1.253341e+003, 6.805018e+003
1.253823e+003, 6.784438e+003
1.254305e+003, 6.765729e+003
1.254787e+003, 6.741638e+003
1.255269e+003, 6.710740e+003
1.255751e+003, 6.682426e+003
1.256233e+003, 6.663186e+003
1.256715e+003, 6.646557e+003
1.257198e+003, 6.627171e+003
1.257680e+003, 6.605199e+003
1.258162e+003, 6.576465e+003
1.258644e+003, 6.548747e+003
1.259126e+003, 6.532789e+003
1.259608e+003, 6.525323e+003
1.260090e+003, 6.517728e+003
1.260572e+003, 6.508677e+003
1.261054e+003, 6.502438e+003
1.261536e+003, 6.505631e+003
1.262019e+003, 6.499132e+003
1.262501e+003, 6.464011e+003
1.262983e+003, 6.439851e+003
1.263465e+003, 6.446683e+003
1.263947e+003, 6.457681e+003
1.264429e+003, 6.459412e+003
1.264911e+003, 6.451294e+003
1.265393e+003, 6.428661e+003
1.265876e+003, 6.396157e+003
1.266358e+003, 6.390147e+003
1.266840e+003, 6.413125e+003
1.267322e+003, 6.412456e+003
1.267804e+003, 6.386216e+003
1.268286e+003, 6.367127e+003
1.268768e+003, 6.363042e+003
1.269250e+003, 6.369583e+003
1.269733e+003, 6.384530e+003
1.270215e+003, 6.397904e+003
1.270697e+003, 6.398523e+003
1.271179e+003, 6.392100e+003
1.271661e+003, 6.382186e+003
1.272143e+003, 6.373948e+003
1.272625e+003, 6.377230e+003
1.273107e+003, 6.386605e+003
1.273589e+003, 6.389110e+003
1.274072e+003, 6.386855e+003
1.274554e+003, 6.397046e+003
1.275036e+003, 6.427007e+003
1.275518e+003, 6.446602e+003
1.276000e+003, 6.429409e+003
1.276482e+003, 6.425267e+003
1.276964e+003, 6.465172e+003
1.277446e+003, 6.499912e+003
1.277929e+003, 6.498238e+003
1.278411e+003, 6.487652e+003
1.278893e+003, 6.493440e+003
1.279375e+003, 6.511346e+003
1.279857e+003, 6.529925e+003
1.280339e+003, 6.549232e+003
1.280821e+003, 6.569948e+003
1.281303e+003, 6.592906e+003
1.281786e+003, 6.619737e+003
1.282268e+003, 6.650563e+003
##END=



