##NAMES=Ferrierite-Mg
##RRUFFID=R060982
##IDEAL CHEMISTRY=[Mg_2_(K,Na)_2_Ca_0.5_](Si_29_Al_7_)O_72_&#183;18H_2_O
##LOCALITY=Monte Lake, British Columbia, Canada
##OWNER=RRUFF
##SOURCE=Bob Jenkins
##DESCRIPTION=Orange lath shaped crystals in radial aggregates associated with white calcite
##STATUS=The identification of this mineral is confirmed by single-crystal X-ray diffraction and chemical analysis.
##URL=rruff.info/R060982
##MEASURED CHEMISTRY=(Mg_1.70_K_0.83_Fe_0.49_Na_0.36_Ca_0.21_)_Σ=3.49_(Si_30.01_Al_5.99_)_Σ=36_O_72_·20.71H_2_O; = dark phase. Light phase is calcite: (Ca_0.96_Mn_0.02_Mg_0.01_Fe_0.01_)CO_3_
130.6823, 3263.336
131.1645, 3286.677
131.6466, 3304.212
132.1287, 3314.336
132.6108, 3314.209
133.0929, 3309.419
133.5750, 3311.859
134.0572, 3321.927
134.5393, 3336.328
135.0214, 3352.607
135.5035, 3370.727
135.9856, 3393.533
136.4677, 3424.576
136.9499, 3461.531
137.4320, 3485.570
137.9141, 3492.773
138.3962, 3495.483
138.8783, 3510.420
139.3604, 3542.228
139.8426, 3567.626
140.3247, 3576.573
140.8068, 3565.588
141.2889, 3563.810
141.7710, 3573.023
142.2531, 3590.142
142.7353, 3609.683
143.2174, 3630.914
143.6995, 3655.302
144.1816, 3685.047
144.6637, 3730.139
145.1458, 3759.107
145.6280, 3764.977
146.1101, 3753.030
146.5922, 3748.047
147.0743, 3760.227
147.5564, 3769.670
148.0385, 3763.976
148.5207, 3727.302
149.0028, 3696.424
149.4849, 3675.540
149.9670, 3664.803
150.4491, 3657.518
150.9312, 3661.002
151.4134, 3664.748
151.8955, 3660.229
152.3776, 3639.545
152.8597, 3618.659
153.3418, 3600.581
153.8239, 3585.723
154.3061, 3573.027
154.7882, 3563.679
155.2703, 3556.240
155.7524, 3548.702
156.2345, 3540.332
156.7166, 3531.969
157.1988, 3523.002
157.6809, 3510.052
158.1630, 3503.012
158.6451, 3508.847
159.1272, 3522.345
159.6093, 3531.826
160.0915, 3524.901
160.5736, 3517.737
161.0557, 3521.070
161.5378, 3551.989
162.0199, 3575.376
162.5020, 3572.574
162.9841, 3548.198
163.4663, 3526.240
163.9484, 3522.884
164.4305, 3524.333
164.9126, 3518.240
165.3947, 3489.283
165.8768, 3460.989
166.3590, 3447.997
166.8411, 3450.433
167.3232, 3454.320
167.8053, 3454.518
168.2874, 3450.902
168.7695, 3443.253
169.2517, 3421.810
169.7338, 3402.158
170.2159, 3401.898
170.6980, 3425.432
171.1801, 3445.406
171.6622, 3438.282
172.1444, 3412.147
172.6265, 3384.638
173.1086, 3358.733
173.5907, 3338.790
174.0728, 3331.912
174.5549, 3342.630
175.0371, 3356.067
175.5192, 3353.489
176.0013, 3339.516
176.4834, 3331.348
176.9655, 3346.147
177.4476, 3373.035
177.9298, 3394.674
178.4119, 3409.821
178.8940, 3415.146
179.3761, 3398.152
179.8582, 3361.756
180.3403, 3331.863
180.8225, 3334.274
181.3046, 3359.367
181.7867, 3382.045
182.2688, 3395.354
182.7509, 3402.003
183.2330, 3405.888
183.7152, 3406.865
184.1973, 3406.602
184.6794, 3406.327
185.1615, 3406.009
185.6436, 3405.553
186.1257, 3403.494
186.6079, 3401.299
187.0900, 3403.795
187.5721, 3411.332
188.0542, 3421.552
188.5363, 3432.578
189.0184, 3444.242
189.5006, 3455.665
189.9827, 3468.400
190.4648, 3481.259
190.9469, 3485.022
191.4290, 3476.346
191.9111, 3466.771
192.3932, 3479.852
192.8754, 3516.332
193.3575, 3545.090
193.8396, 3545.740
194.3217, 3520.160
194.8038, 3496.937
195.2859, 3476.539
195.7681, 3461.568
196.2502, 3458.670
196.7323, 3469.123
197.2144, 3482.909
197.6965, 3495.574
198.1786, 3507.219
198.6608, 3512.682
199.1429, 3508.601
199.6250, 3499.438
200.1071, 3499.582
200.5892, 3510.445
201.0714, 3524.826
201.5535, 3536.930
202.0356, 3546.146
202.5177, 3558.250
202.9998, 3576.733
203.4819, 3599.115
203.9641, 3606.969
204.4462, 3595.296
204.9283, 3581.581
205.4104, 3584.491
205.8925, 3608.696
206.3746, 3626.954
206.8568, 3630.841
207.3389, 3621.578
207.8210, 3622.623
208.3031, 3638.143
208.7852, 3656.802
209.2673, 3665.120
209.7495, 3660.579
210.2316, 3654.856
210.7137, 3650.228
211.1958, 3646.644
211.6779, 3647.221
212.1600, 3651.987
212.6422, 3660.974
213.1243, 3675.511
213.6064, 3698.145
214.0885, 3718.807
214.5706, 3731.257
215.0527, 3731.409
215.5349, 3747.736
216.0170, 3787.000
216.4991, 3836.377
216.9812, 3871.191
217.4633, 3882.903
217.9454, 3897.097
218.4276, 3924.190
218.9097, 3967.377
219.3918, 4012.807
219.8739, 4062.520
220.3560, 4113.084
220.8381, 4155.520
221.3203, 4181.967
221.8024, 4214.084
222.2845, 4263.192
222.7666, 4338.687
223.2487, 4408.185
223.7308, 4470.731
224.2129, 4526.696
224.6951, 4581.299
225.1772, 4654.068
225.6593, 4696.586
226.1414, 4679.887
226.6235, 4582.548
227.1056, 4473.392
227.5878, 4347.511
228.0699, 4212.489
228.5520, 4090.584
229.0341, 3979.904
229.5162, 3886.515
229.9983, 3815.383
230.4805, 3777.822
230.9626, 3739.589
231.4447, 3695.093
231.9268, 3646.477
232.4089, 3610.455
232.8910, 3588.536
233.3732, 3576.543
233.8553, 3572.944
234.3374, 3584.459
234.8195, 3590.854
235.3016, 3586.422
235.7837, 3572.503
236.2659, 3570.047
236.7480, 3588.022
237.2301, 3607.697
237.7122, 3611.498
238.1943, 3581.567
238.6764, 3570.399
239.1586, 3590.828
239.6407, 3642.986
240.1228, 3689.756
240.6049, 3732.996
241.0870, 3769.432
241.5691, 3794.706
242.0513, 3800.909
242.5334, 3810.614
243.0155, 3829.716
243.4976, 3858.727
243.9797, 3880.770
244.4618, 3891.882
244.9440, 3899.223
245.4261, 3913.447
245.9082, 3952.912
246.3903, 3963.843
246.8724, 3925.974
247.3545, 3833.895
247.8367, 3763.393
248.3188, 3726.883
248.8009, 3701.589
249.2830, 3660.186
249.7651, 3590.578
250.2472, 3529.615
250.7294, 3488.249
251.2115, 3469.198
251.6936, 3445.813
252.1757, 3414.135
252.6578, 3381.961
253.1399, 3358.044
253.6220, 3345.219
254.1042, 3335.179
254.5863, 3325.610
255.0684, 3315.905
255.5505, 3311.245
256.0326, 3314.512
256.5147, 3320.195
256.9969, 3320.696
257.4790, 3313.479
257.9611, 3305.961
258.4432, 3300.256
258.9253, 3296.685
259.4074, 3292.294
259.8896, 3287.555
260.3717, 3281.336
260.8538, 3269.474
261.3359, 3244.573
261.8180, 3231.155
262.3001, 3242.101
262.7823, 3283.588
263.2644, 3303.463
263.7465, 3293.981
264.2286, 3270.298
264.7107, 3254.662
265.1928, 3247.228
265.6750, 3246.952
266.1571, 3255.390
266.6392, 3274.038
267.1213, 3290.387
267.6034, 3306.880
268.0855, 3318.243
268.5677, 3312.998
269.0498, 3284.553
269.5319, 3261.010
270.0140, 3253.373
270.4961, 3263.528
270.9782, 3272.367
271.4604, 3280.490
271.9425, 3286.716
272.4246, 3288.183
272.9067, 3283.355
273.3888, 3279.914
273.8709, 3280.404
274.3531, 3284.820
274.8352, 3293.059
275.3173, 3306.597
275.7994, 3321.438
276.2815, 3328.977
276.7636, 3326.722
277.2458, 3331.200
277.7279, 3354.698
278.2100, 3397.563
278.6921, 3418.432
279.1742, 3411.261
279.6563, 3393.934
280.1385, 3393.542
280.6206, 3411.302
281.1027, 3432.291
281.5848, 3452.188
282.0669, 3470.836
282.5490, 3484.349
283.0312, 3491.964
283.5133, 3496.511
283.9954, 3498.657
284.4775, 3498.079
284.9596, 3506.496
285.4417, 3532.155
285.9239, 3572.769
286.4060, 3610.208
286.8881, 3643.625
287.3702, 3675.692
287.8523, 3707.646
288.3344, 3739.901
288.8166, 3777.706
289.2987, 3829.897
289.7808, 3891.015
290.2629, 3935.916
290.7450, 3962.777
291.2271, 3980.313
291.7093, 3995.601
292.1914, 4009.246
292.6735, 4025.770
293.1556, 4053.396
293.6377, 4084.929
294.1198, 4096.835
294.6020, 4087.405
295.0841, 4072.069
295.5662, 4066.695
296.0483, 4069.639
296.5304, 4073.897
297.0125, 4077.193
297.4947, 4079.975
297.9768, 4084.188
298.4589, 4090.128
298.9410, 4093.194
299.4231, 4086.012
299.9052, 4071.777
300.3873, 4059.510
300.8694, 4058.623
301.3516, 4058.823
301.8337, 4041.984
302.3158, 4007.710
302.7979, 3973.223
303.2800, 3954.841
303.7621, 3946.331
304.2443, 3935.195
304.7264, 3912.509
305.2085, 3887.988
305.6906, 3874.784
306.1727, 3872.250
306.6548, 3865.836
307.1370, 3836.824
307.6191, 3799.154
308.1012, 3773.379
308.5833, 3776.220
309.0654, 3785.775
309.5475, 3784.867
310.0297, 3774.645
310.5118, 3764.259
310.9939, 3757.804
311.4760, 3754.827
311.9581, 3755.144
312.4402, 3766.180
312.9224, 3772.972
313.4045, 3764.266
313.8866, 3742.369
314.3687, 3720.274
314.8508, 3699.826
315.3329, 3684.217
315.8151, 3676.498
316.2972, 3683.052
316.7793, 3690.835
317.2614, 3692.296
317.7435, 3689.862
318.2256, 3693.170
318.7078, 3716.149
319.1899, 3739.529
319.6720, 3749.953
320.1541, 3730.825
320.6362, 3718.561
321.1183, 3728.121
321.6005, 3752.805
322.0826, 3772.789
322.5647, 3780.344
323.0468, 3784.260
323.5289, 3788.549
324.0110, 3792.617
324.4932, 3798.850
324.9753, 3808.373
325.4574, 3820.189
325.9395, 3831.933
326.4216, 3842.486
326.9037, 3853.646
327.3859, 3866.472
327.8680, 3883.748
328.3501, 3897.370
328.8322, 3910.390
329.3143, 3919.040
329.7964, 3916.366
330.2786, 3890.050
330.7607, 3866.597
331.2428, 3854.423
331.7249, 3857.051
332.2070, 3858.674
332.6891, 3856.511
333.1713, 3855.107
333.6534, 3862.672
334.1355, 3889.735
334.6176, 3906.379
335.0997, 3899.671
335.5818, 3865.896
336.0640, 3849.999
336.5461, 3858.024
337.0282, 3876.420
337.5103, 3893.313
337.9924, 3912.129
338.4745, 3915.881
338.9567, 3893.920
339.4388, 3849.464
339.9209, 3824.102
340.4030, 3821.558
340.8851, 3829.269
341.3672, 3838.570
341.8494, 3850.440
342.3315, 3853.203
342.8136, 3841.774
343.2957, 3820.642
343.7778, 3806.436
344.2599, 3800.370
344.7421, 3793.937
345.2242, 3776.873
345.7063, 3751.026
346.1884, 3734.138
346.6705, 3730.734
347.1526, 3736.031
347.6348, 3741.270
348.1169, 3746.396
348.5990, 3752.834
349.0811, 3766.947
349.5632, 3782.992
350.0453, 3782.602
350.5275, 3757.292
351.0096, 3728.923
351.4917, 3731.366
351.9738, 3757.536
352.4559, 3777.100
352.9380, 3767.739
353.4202, 3742.740
353.9023, 3718.650
354.3844, 3696.334
354.8665, 3679.677
355.3486, 3675.187
355.8307, 3678.981
356.3129, 3683.007
356.7950, 3685.913
357.2771, 3685.904
357.7592, 3681.625
358.2413, 3672.984
358.7234, 3660.087
359.2056, 3630.050
359.6877, 3599.220
360.1698, 3588.634
360.6519, 3636.489
361.1340, 3679.719
361.6161, 3681.771
362.0982, 3643.203
362.5804, 3610.486
363.0625, 3601.427
363.5446, 3604.458
364.0267, 3610.008
364.5088, 3619.364
364.9909, 3627.449
365.4731, 3632.589
365.9552, 3635.267
366.4373, 3638.470
366.9194, 3642.070
367.4015, 3646.828
367.8836, 3653.261
368.3658, 3671.970
368.8479, 3678.929
369.3300, 3663.577
369.8121, 3635.610
370.2942, 3623.451
370.7763, 3634.793
371.2585, 3653.027
371.7406, 3673.341
372.2227, 3699.161
372.7048, 3716.773
373.1869, 3723.388
373.6690, 3723.230
374.1512, 3722.311
374.6333, 3718.245
375.1154, 3719.161
375.5975, 3730.873
376.0796, 3754.809
376.5617, 3763.755
377.0439, 3752.554
377.5260, 3736.871
378.0081, 3735.153
378.4902, 3748.322
378.9723, 3768.124
379.4544, 3798.153
379.9366, 3832.624
380.4187, 3843.022
380.9008, 3826.448
381.3829, 3807.796
381.8650, 3809.211
382.3471, 3828.178
382.8293, 3850.904
383.3114, 3876.825
383.7935, 3902.321
384.2756, 3920.371
384.7577, 3931.521
385.2398, 3941.823
385.7220, 3952.320
386.2041, 3965.295
386.6862, 3986.652
387.1683, 4019.647
387.6504, 4053.466
388.1325, 4078.891
388.6147, 4096.986
389.0968, 4109.600
389.5789, 4109.266
390.0610, 4109.313
390.5431, 4123.702
391.0252, 4154.971
391.5074, 4187.021
391.9895, 4209.310
392.4716, 4227.645
392.9537, 4249.566
393.4358, 4278.697
393.9179, 4311.311
394.4001, 4347.040
394.8822, 4385.630
395.3643, 4424.818
395.8464, 4463.131
396.3285, 4502.325
396.8106, 4543.213
397.2928, 4584.680
397.7749, 4629.446
398.2570, 4678.921
398.7391, 4732.224
399.2212, 4785.575
399.7033, 4835.900
400.1855, 4888.872
400.6676, 4947.043
401.1497, 5010.555
401.6318, 5078.381
402.1139, 5155.185
402.5960, 5234.209
403.0782, 5300.582
403.5603, 5343.330
404.0424, 5396.371
404.5245, 5474.215
405.0066, 5578.095
405.4887, 5676.623
405.9709, 5770.875
406.4530, 5857.955
406.9351, 5934.484
407.4172, 5999.724
407.8993, 6062.114
408.3814, 6123.036
408.8636, 6182.925
409.3457, 6249.851
409.8278, 6325.513
410.3099, 6386.724
410.7920, 6407.206
411.2741, 6395.809
411.7563, 6385.474
412.2384, 6382.048
412.7205, 6380.859
413.2026, 6376.907
413.6847, 6369.830
414.1668, 6358.470
414.6490, 6340.278
415.1311, 6318.033
415.6132, 6293.891
416.0953, 6267.220
416.5774, 6242.638
417.0595, 6224.243
417.5417, 6209.605
418.0238, 6194.596
418.5059, 6171.675
418.9880, 6152.995
419.4701, 6151.184
419.9522, 6165.209
420.4344, 6170.577
420.9165, 6141.964
421.3986, 6110.047
421.8807, 6097.867
422.3628, 6139.850
422.8449, 6168.303
423.3270, 6159.690
423.8091, 6126.114
424.2913, 6108.743
424.7734, 6125.164
425.2555, 6146.811
425.7376, 6164.254
426.2197, 6177.900
426.7018, 6185.765
427.1840, 6185.126
427.6661, 6180.234
428.1482, 6177.662
428.6303, 6179.579
429.1124, 6178.313
429.5945, 6169.664
430.0767, 6154.362
430.5588, 6149.060
431.0409, 6157.188
431.5230, 6166.404
432.0051, 6163.664
432.4872, 6148.663
432.9694, 6137.948
433.4515, 6134.673
433.9336, 6136.737
434.4157, 6142.452
434.8978, 6151.464
435.3799, 6155.082
435.8621, 6143.098
436.3442, 6121.986
436.8263, 6106.921
437.3084, 6099.016
437.7905, 6097.499
438.2726, 6106.925
438.7548, 6122.129
439.2369, 6131.869
439.7190, 6128.852
440.2011, 6119.690
440.6832, 6108.676
441.1653, 6095.963
441.6475, 6083.474
442.1296, 6072.514
442.6117, 6062.098
443.0938, 6051.472
443.5759, 6042.241
444.0580, 6030.436
444.5402, 6015.012
445.0223, 5996.302
445.5044, 5975.369
445.9865, 5947.095
446.4686, 5921.219
446.9507, 5903.921
447.4329, 5902.854
447.9150, 5889.740
448.3971, 5856.493
448.8792, 5815.733
449.3613, 5782.717
449.8434, 5766.278
450.3256, 5739.697
450.8077, 5692.542
451.2898, 5627.750
451.7719, 5581.782
452.2540, 5561.091
452.7361, 5543.569
453.2183, 5512.403
453.7004, 5467.432
454.1825, 5420.396
454.6646, 5372.928
455.1467, 5324.139
455.6288, 5271.254
456.1110, 5214.738
456.5931, 5162.444
457.0752, 5126.174
457.5573, 5096.438
458.0394, 5052.852
458.5215, 4994.086
459.0037, 4928.982
459.4858, 4855.755
459.9679, 4782.542
460.4500, 4726.582
460.9321, 4699.757
461.4142, 4683.414
461.8964, 4668.772
462.3785, 4654.229
462.8606, 4633.093
463.3427, 4600.011
463.8248, 4560.307
464.3069, 4516.654
464.7891, 4465.286
465.2712, 4418.878
465.7533, 4382.308
466.2354, 4351.839
466.7175, 4322.749
467.1996, 4296.189
467.6818, 4269.096
468.1639, 4237.898
468.6460, 4202.755
469.1281, 4178.566
469.6102, 4173.677
470.0923, 4169.648
470.5745, 4152.883
471.0566, 4119.898
471.5387, 4084.895
472.0208, 4046.879
472.5029, 4009.409
472.9850, 3980.658
473.4672, 3961.410
473.9493, 3944.165
474.4314, 3924.247
474.9135, 3903.073
475.3956, 3890.153
475.8777, 3886.554
476.3599, 3882.463
476.8420, 3862.957
477.3241, 3834.716
477.8062, 3816.746
478.2883, 3822.049
478.7704, 3831.068
479.2526, 3817.992
479.7347, 3788.479
480.2168, 3765.655
480.6989, 3766.190
481.1810, 3776.005
481.6631, 3785.012
482.1453, 3792.301
482.6274, 3795.951
483.1095, 3789.948
483.5916, 3781.224
484.0737, 3778.538
484.5558, 3791.064
485.0379, 3801.972
485.5201, 3806.853
486.0022, 3805.862
486.4843, 3804.494
486.9664, 3805.705
487.4485, 3803.811
487.9306, 3794.189
488.4128, 3769.374
488.8949, 3758.225
489.3770, 3767.283
489.8591, 3784.046
490.3412, 3782.952
490.8233, 3759.610
491.3055, 3746.826
491.7876, 3763.655
492.2697, 3800.352
492.7518, 3809.522
493.2339, 3789.641
493.7160, 3762.576
494.1982, 3742.212
494.6803, 3729.270
495.1624, 3728.143
495.6445, 3742.930
496.1266, 3761.387
496.6087, 3771.732
497.0909, 3775.634
497.5730, 3777.638
498.0551, 3781.817
498.5372, 3783.685
499.0193, 3777.995
499.5014, 3764.330
499.9836, 3753.113
500.4657, 3751.514
500.9478, 3752.689
501.4299, 3751.096
501.9120, 3745.159
502.3941, 3736.969
502.8763, 3720.609
503.3584, 3701.750
503.8405, 3697.225
504.3226, 3718.988
504.8047, 3739.295
505.2868, 3750.882
505.7690, 3754.264
506.2511, 3741.317
506.7332, 3705.236
507.2153, 3665.224
507.6974, 3640.903
508.1795, 3633.200
508.6617, 3629.032
509.1438, 3627.852
509.6259, 3626.873
510.1080, 3619.645
510.5901, 3606.625
511.0722, 3592.141
511.5544, 3575.866
512.0365, 3560.828
512.5186, 3552.322
513.0007, 3550.636
513.4828, 3553.868
513.9650, 3566.240
514.4471, 3580.782
514.9292, 3588.024
515.4113, 3579.873
515.8934, 3569.439
516.3755, 3560.936
516.8576, 3554.719
517.3397, 3551.711
517.8218, 3557.053
518.3040, 3561.453
518.7861, 3559.614
519.2682, 3547.391
519.7503, 3542.707
520.2324, 3551.260
520.7145, 3563.084
521.1967, 3568.226
521.6788, 3563.729
522.1609, 3560.421
522.6430, 3559.813
523.1251, 3561.440
523.6072, 3563.949
524.0894, 3567.392
524.5715, 3571.221
525.0536, 3578.345
525.5357, 3586.393
526.0178, 3580.535
526.4999, 3558.762
526.9821, 3537.430
527.4642, 3534.791
527.9463, 3544.666
528.4284, 3553.470
528.9105, 3554.361
529.3926, 3557.089
529.8748, 3576.528
530.3569, 3605.702
530.8390, 3624.018
531.3211, 3613.315
531.8032, 3596.161
532.2853, 3583.743
532.7675, 3577.150
533.2496, 3575.384
533.7317, 3584.686
534.2138, 3595.235
534.6959, 3598.071
535.1780, 3580.221
535.6602, 3574.841
536.1423, 3590.300
536.6244, 3617.887
537.1065, 3633.937
537.5886, 3635.742
538.0707, 3633.276
538.5529, 3627.088
539.0350, 3618.205
539.5171, 3623.199
539.9992, 3643.367
540.4813, 3668.918
540.9634, 3694.388
541.4456, 3718.114
541.9277, 3732.481
542.4098, 3733.029
542.8919, 3730.115
543.3740, 3736.392
543.8561, 3748.688
544.3383, 3759.119
544.8204, 3758.431
545.3025, 3758.822
545.7846, 3771.843
546.2667, 3797.592
546.7488, 3817.256
547.2310, 3820.815
547.7131, 3818.069
548.1952, 3815.306
548.6773, 3810.318
549.1594, 3809.970
549.6415, 3815.877
550.1237, 3825.883
550.6058, 3837.359
551.0879, 3853.129
551.5700, 3863.302
552.0521, 3863.503
552.5342, 3855.545
553.0164, 3853.036
553.4985, 3857.179
553.9806, 3859.412
554.4627, 3848.386
554.9448, 3828.865
555.4269, 3826.090
555.9091, 3845.587
556.3912, 3865.798
556.8733, 3860.657
557.3554, 3838.639
557.8375, 3816.852
558.3196, 3803.049
558.8018, 3790.739
559.2839, 3771.037
559.7660, 3747.625
560.2481, 3734.722
560.7302, 3750.761
561.2123, 3768.335
561.6945, 3770.755
562.1766, 3748.802
562.6587, 3739.115
563.1408, 3759.795
563.6229, 3782.256
564.1050, 3779.447
564.5872, 3736.782
565.0693, 3703.148
565.5514, 3684.103
566.0335, 3677.114
566.5156, 3677.615
566.9977, 3686.208
567.4799, 3695.931
567.9620, 3706.068
568.4441, 3714.774
568.9262, 3714.232
569.4083, 3704.398
569.8904, 3690.936
570.3726, 3673.823
570.8547, 3657.572
571.3368, 3648.653
571.8189, 3649.309
572.3010, 3655.238
572.7831, 3671.650
573.2653, 3690.033
573.7474, 3696.347
574.2295, 3671.996
574.7116, 3649.464
575.1937, 3637.946
575.6758, 3637.451
576.1580, 3644.918
576.6401, 3676.165
577.1222, 3697.440
577.6043, 3688.875
578.0864, 3638.040
578.5685, 3610.434
579.0507, 3610.368
579.5328, 3624.303
580.0149, 3640.072
580.4970, 3657.418
580.9791, 3669.936
581.4612, 3676.789
581.9434, 3677.065
582.4255, 3662.568
582.9076, 3637.714
583.3897, 3621.473
583.8718, 3630.238
584.3539, 3648.603
584.8361, 3664.416
585.3182, 3676.826
585.8003, 3683.094
586.2824, 3678.307
586.7645, 3668.949
587.2466, 3658.679
587.7288, 3639.413
588.2109, 3634.856
588.6930, 3666.571
589.1751, 3707.282
589.6572, 3717.516
590.1393, 3673.250
590.6215, 3648.125
591.1036, 3663.905
591.5857, 3709.325
592.0678, 3733.191
592.5499, 3733.336
593.0320, 3727.452
593.5142, 3726.222
593.9963, 3727.676
594.4784, 3721.785
594.9605, 3707.513
595.4426, 3696.431
595.9247, 3703.542
596.4069, 3719.321
596.8890, 3727.534
597.3711, 3715.962
597.8532, 3711.292
598.3353, 3736.996
598.8174, 3779.100
599.2996, 3811.569
599.7817, 3824.684
600.2638, 3829.218
600.7459, 3822.576
601.2280, 3806.126
601.7101, 3801.661
602.1923, 3811.426
602.6744, 3829.873
603.1565, 3855.173
603.6386, 3888.525
604.1207, 3924.166
604.6028, 3964.840
605.0850, 4000.253
605.5671, 4014.023
606.0492, 4009.915
606.5313, 4008.314
607.0134, 4014.634
607.4955, 4024.063
607.9777, 4031.171
608.4598, 4036.612
608.9419, 4042.401
609.4240, 4051.266
609.9061, 4059.254
610.3882, 4063.232
610.8704, 4063.437
611.3525, 4063.927
611.8346, 4065.408
612.3167, 4067.942
612.7988, 4072.228
613.2809, 4080.952
613.7631, 4084.643
614.2452, 4083.202
614.7273, 4077.076
615.2094, 4065.462
615.6915, 4047.403
616.1736, 4031.547
616.6558, 4020.050
617.1379, 4010.813
617.6200, 4000.066
618.1021, 3987.854
618.5842, 3974.667
619.0663, 3962.868
619.5485, 3949.005
620.0306, 3923.099
620.5127, 3887.426
620.9948, 3861.761
621.4769, 3867.614
621.9590, 3881.101
622.4412, 3884.787
622.9233, 3873.295
623.4054, 3861.813
623.8875, 3850.399
624.3696, 3841.817
624.8517, 3839.435
625.3339, 3848.901
625.8160, 3852.544
626.2981, 3846.920
626.7802, 3835.868
627.2623, 3829.665
627.7444, 3829.166
628.2266, 3822.280
628.7087, 3798.792
629.1908, 3767.994
629.6729, 3755.860
630.1550, 3760.748
630.6371, 3767.693
631.1193, 3765.157
631.6014, 3759.891
632.0835, 3759.669
632.5656, 3766.112
633.0477, 3772.000
633.5298, 3771.700
634.0120, 3770.583
634.4941, 3773.461
634.9762, 3786.850
635.4583, 3796.845
635.9404, 3804.549
636.4225, 3807.746
636.9047, 3799.736
637.3868, 3773.755
637.8689, 3759.039
638.3510, 3766.445
638.8331, 3789.237
639.3152, 3805.497
639.7973, 3815.191
640.2794, 3822.086
640.7615, 3829.632
641.2437, 3835.482
641.7258, 3831.174
642.2079, 3816.675
642.6900, 3811.335
643.1721, 3840.593
643.6542, 3878.404
644.1364, 3900.017
644.6185, 3891.850
645.1006, 3884.778
645.5827, 3887.214
646.0648, 3893.796
646.5469, 3896.833
647.0291, 3890.233
647.5112, 3891.600
647.9933, 3906.357
648.4754, 3929.009
648.9575, 3941.872
649.4396, 3944.040
649.9218, 3947.934
650.4039, 3960.566
650.8860, 3978.383
651.3681, 3992.935
651.8502, 4004.241
652.3323, 4012.106
652.8145, 4014.330
653.2966, 4014.355
653.7787, 4014.916
654.2608, 4016.030
654.7429, 4020.449
655.2250, 4037.186
655.7072, 4053.496
656.1893, 4043.279
656.6714, 4059.907
657.1535, 4068.402
657.6356, 4069.201
658.1177, 4039.252
658.5999, 4049.007
659.0820, 4042.851
659.5641, 4036.042
660.0462, 4051.386
660.5283, 4025.909
661.0104, 4040.902
661.4926, 4039.739
661.9747, 4032.316
662.4568, 4029.303
662.9389, 4025.344
663.4210, 4015.258
663.9031, 3999.940
664.3853, 3991.730
664.8674, 4004.882
665.3495, 4021.824
665.8316, 4030.580
666.3137, 4026.784
666.7958, 4022.570
667.2780, 4017.905
667.7601, 4013.383
668.2422, 4009.850
668.7243, 4007.813
669.2064, 4004.854
669.6885, 4002.631
670.1707, 3995.890
670.6528, 3969.071
671.1349, 3925.941
671.6170, 3895.241
672.0991, 3894.101
672.5812, 3903.368
673.0634, 3898.787
673.5455, 3884.263
674.0276, 3872.189
674.5097, 3872.707
674.9918, 3874.494
675.4739, 3871.499
675.9561, 3863.472
676.4382, 3854.351
676.9203, 3841.845
677.4024, 3831.019
677.8845, 3824.307
678.3666, 3822.389
678.8488, 3820.326
679.3309, 3817.268
679.8130, 3815.521
680.2951, 3820.536
680.7772, 3830.097
681.2593, 3828.078
681.7415, 3808.039
682.2236, 3789.172
682.7057, 3764.432
683.1878, 3778.050
683.6699, 3783.534
684.1520, 3781.322
684.6342, 3748.361
685.1163, 3755.106
685.5984, 3745.939
686.0805, 3736.120
686.5626, 3748.452
687.0447, 3719.965
687.5269, 3767.232
688.0090, 3806.384
688.4911, 3815.752
688.9732, 3786.999
689.4553, 3759.928
689.9374, 3762.315
690.4196, 3786.725
690.9017, 3794.895
691.3838, 3786.210
691.8659, 3771.922
692.3480, 3753.396
692.8301, 3737.808
693.3123, 3736.901
693.7944, 3756.747
694.2765, 3772.961
694.7586, 3774.346
695.2407, 3766.916
695.7228, 3756.802
696.2050, 3734.778
696.6871, 3725.307
697.1692, 3735.060
697.6513, 3753.670
698.1334, 3763.800
698.6155, 3764.572
699.0977, 3763.958
699.5798, 3764.598
700.0619, 3764.320
700.5440, 3756.959
701.0261, 3743.938
701.5082, 3732.058
701.9904, 3728.976
702.4725, 3725.647
702.9546, 3709.541
703.4367, 3683.579
703.9188, 3667.212
704.4009, 3676.012
704.8831, 3688.813
705.3652, 3694.065
705.8473, 3689.646
706.3294, 3693.275
706.8115, 3710.782
707.2936, 3726.312
707.7758, 3725.190
708.2579, 3707.200
708.7400, 3705.042
709.2221, 3723.527
709.7042, 3739.311
710.1863, 3713.158
710.6685, 3667.847
711.1506, 3654.137
711.6327, 3695.026
712.1148, 3736.743
712.5969, 3742.502
713.0790, 3727.516
713.5612, 3712.599
714.0433, 3699.946
714.5254, 3691.420
715.0075, 3688.308
715.4896, 3688.829
715.9717, 3688.698
716.4539, 3686.820
716.9360, 3688.321
717.4181, 3695.937
717.9002, 3707.251
718.3823, 3716.315
718.8644, 3723.003
719.3466, 3726.310
719.8287, 3724.907
720.3108, 3720.239
720.7929, 3709.973
721.2750, 3695.680
721.7571, 3690.262
722.2393, 3712.613
722.7214, 3735.095
723.2035, 3741.145
723.6856, 3726.563
724.1677, 3711.732
724.6498, 3695.032
725.1320, 3680.543
725.6141, 3668.787
726.0962, 3659.472
726.5783, 3667.673
727.0604, 3697.294
727.5425, 3727.882
728.0247, 3733.596
728.5068, 3724.458
728.9889, 3723.090
729.4710, 3738.938
729.9531, 3750.006
730.4352, 3733.723
730.9174, 3707.084
731.3995, 3691.692
731.8816, 3703.131
732.3637, 3713.252
732.8458, 3717.516
733.3279, 3718.918
733.8101, 3723.329
734.2922, 3731.315
734.7743, 3740.051
735.2564, 3750.048
735.7385, 3759.018
736.2206, 3758.211
736.7028, 3749.770
737.1849, 3746.284
737.6670, 3758.705
738.1491, 3775.833
738.6312, 3790.125
739.1133, 3800.827
739.5955, 3804.262
740.0776, 3790.719
740.5597, 3777.438
741.0418, 3772.380
741.5239, 3775.506
742.0060, 3780.242
742.4882, 3787.386
742.9703, 3794.085
743.4524, 3797.900
743.9345, 3799.066
744.4166, 3800.383
744.8987, 3801.483
745.3809, 3807.508
745.8630, 3832.091
746.3451, 3860.291
746.8272, 3870.508
747.3093, 3857.857
747.7914, 3838.670
748.2736, 3806.287
748.7557, 3751.878
749.2378, 3773.527
749.7199, 3787.042
750.2020, 3792.861
750.6841, 3767.933
751.1663, 3782.709
751.6484, 3781.573
752.1305, 3779.785
752.6126, 3800.149
753.0947, 3779.693
753.5768, 3799.705
754.0590, 3803.564
754.5411, 3814.815
755.0232, 3840.683
755.5053, 3849.401
755.9874, 3854.241
756.4695, 3860.885
756.9517, 3868.067
757.4338, 3873.510
757.9159, 3878.842
758.3980, 3879.399
758.8801, 3871.780
759.3622, 3860.074
759.8444, 3856.867
760.3265, 3863.198
760.8086, 3869.792
761.2907, 3870.283
761.7728, 3871.318
762.2549, 3891.035
762.7370, 3924.976
763.2191, 3952.997
763.7012, 3962.041
764.1833, 3962.906
764.6655, 3956.731
765.1476, 3945.446
765.6297, 3946.911
766.1118, 3987.883
766.5939, 4015.612
767.0760, 4004.578
767.5582, 3955.741
768.0403, 3934.029
768.5224, 3941.760
769.0045, 3963.397
769.4866, 4001.520
769.9688, 4043.591
770.4509, 4049.969
770.9330, 4020.226
771.4151, 3992.654
771.8972, 3995.374
772.3793, 4011.114
772.8615, 4025.702
773.3436, 4035.647
773.8257, 4053.330
774.3078, 4094.130
774.7899, 4130.809
775.2720, 4144.281
775.7542, 4129.719
776.2363, 4114.913
776.7184, 4097.783
777.2005, 4089.840
777.6826, 4112.886
778.1647, 4154.055
778.6469, 4176.774
779.1290, 4171.450
779.6111, 4166.691
780.0932, 4190.917
780.5753, 4223.469
781.0574, 4241.107
781.5396, 4226.702
782.0217, 4217.363
782.5038, 4215.676
782.9859, 4220.608
783.4680, 4233.909
783.9501, 4258.597
784.4323, 4270.629
784.9144, 4263.187
785.3965, 4251.294
785.8786, 4260.626
786.3607, 4283.319
786.8428, 4297.221
787.3250, 4289.400
787.8071, 4281.924
788.2892, 4295.381
788.7713, 4317.192
789.2534, 4327.096
789.7355, 4306.655
790.2177, 4291.713
790.6998, 4287.662
791.1819, 4290.289
791.6640, 4289.269
792.1461, 4283.337
792.6282, 4288.458
793.1104, 4316.440
793.5925, 4346.489
794.0746, 4335.840
794.5567, 4297.708
795.0388, 4269.553
795.5209, 4275.038
796.0031, 4289.156
796.4852, 4301.172
796.9673, 4311.814
797.4494, 4324.339
797.9315, 4348.224
798.4136, 4359.940
798.8958, 4350.323
799.3779, 4326.322
799.8600, 4312.168
800.3421, 4307.984
800.8242, 4305.821
801.3063, 4301.685
801.7885, 4297.835
802.2706, 4298.112
802.7527, 4301.774
803.2348, 4306.471
803.7169, 4305.357
804.1990, 4310.463
804.6812, 4335.842
805.1633, 4377.077
805.6454, 4394.598
806.1275, 4376.976
806.6096, 4357.314
807.0917, 4344.750
807.5739, 4339.822
808.0560, 4344.840
808.5381, 4359.735
809.0202, 4382.975
809.5023, 4421.779
809.9844, 4463.077
810.4666, 4492.558
810.9487, 4511.054
811.4308, 4525.935
811.9129, 4536.093
812.3950, 4547.030
812.8771, 4562.506
813.3593, 4582.087
813.8414, 4597.358
814.3235, 4608.310
814.8056, 4615.117
815.2877, 4614.004
815.7698, 4609.082
816.2520, 4621.471
816.7341, 4648.749
817.2162, 4666.528
817.6983, 4645.778
818.1804, 4618.260
818.6625, 4613.066
819.1447, 4630.822
819.6268, 4641.551
820.1089, 4638.919
820.5910, 4627.317
821.0731, 4604.028
821.5552, 4570.090
822.0374, 4551.850
822.5195, 4551.398
823.0016, 4550.234
823.4837, 4532.194
823.9658, 4506.037
824.4479, 4491.375
824.9301, 4487.331
825.4122, 4480.350
825.8943, 4456.259
826.3764, 4431.895
826.8585, 4418.903
827.3406, 4419.618
827.8228, 4415.390
828.3049, 4407.091
828.7870, 4391.916
829.2691, 4363.755
829.7512, 4325.506
830.2333, 4308.466
830.7155, 4312.328
831.1976, 4318.739
831.6797, 4317.936
832.1618, 4310.569
832.6439, 4292.278
833.1260, 4263.962
833.6082, 4246.385
834.0903, 4263.386
834.5724, 4277.005
835.0545, 4265.730
835.5366, 4228.729
836.0187, 4208.825
836.5009, 4208.978
836.9830, 4213.619
837.4651, 4210.814
837.9472, 4205.249
838.4293, 4214.542
838.9114, 4237.069
839.3936, 4251.573
839.8757, 4237.317
840.3578, 4215.907
840.8399, 4200.512
841.3220, 4192.294
841.8041, 4189.061
842.2863, 4197.350
842.7684, 4199.713
843.2505, 4182.968
843.7326, 4150.722
844.2147, 4145.390
844.6968, 4167.078
845.1790, 4188.537
845.6611, 4186.753
846.1432, 4177.251
846.6253, 4184.707
847.1074, 4206.514
847.5895, 4212.272
848.0717, 4171.557
848.5538, 4130.000
849.0359, 4106.557
849.5180, 4100.625
850.0001, 4104.933
850.4822, 4124.201
850.9644, 4134.251
851.4465, 4114.663
851.9286, 4078.779
852.4107, 4064.299
852.8928, 4068.560
853.3749, 4078.026
853.8571, 4086.963
854.3392, 4096.785
854.8213, 4112.938
855.3034, 4133.407
855.7855, 4136.953
856.2676, 4110.787
856.7498, 4088.733
857.2319, 4082.555
857.7140, 4089.286
858.1961, 4098.164
858.6782, 4108.939
859.1603, 4117.135
859.6425, 4122.540
860.1246, 4122.671
860.6067, 4108.700
861.0888, 4086.070
861.5709, 4073.944
862.0530, 4087.937
862.5352, 4102.739
863.0173, 4111.147
863.4994, 4114.899
863.9815, 4121.804
864.4636, 4133.014
864.9457, 4138.066
865.4279, 4132.317
865.9100, 4119.313
866.3921, 4100.748
866.8742, 4080.154
867.3563, 4066.425
867.8384, 4067.653
868.3206, 4072.591
868.8027, 4081.322
869.2848, 4089.769
869.7669, 4087.145
870.2490, 4065.587
870.7311, 4052.374
871.2133, 4052.804
871.6954, 4064.437
872.1775, 4092.458
872.6596, 4129.735
873.1417, 4144.475
873.6238, 4112.114
874.1060, 4078.448
874.5881, 4079.894
875.0702, 4102.576
875.5523, 4125.026
876.0344, 4153.226
876.5165, 4165.529
876.9987, 4153.862
877.4808, 4133.032
877.9629, 4123.992
878.4450, 4126.396
878.9271, 4132.729
879.4092, 4141.702
879.8914, 4154.131
880.3735, 4181.113
880.8556, 4208.200
881.3377, 4213.530
881.8198, 4176.868
882.3019, 4149.530
882.7841, 4146.745
883.2662, 4152.849
883.7483, 4154.521
884.2304, 4150.485
884.7125, 4152.558
885.1946, 4162.531
885.6768, 4172.708
886.1588, 4172.090
886.6409, 4167.247
887.1230, 4170.947
887.6052, 4186.750
888.0873, 4197.321
888.5694, 4185.606
889.0515, 4173.350
889.5336, 4177.348
890.0157, 4201.321
890.4979, 4217.957
890.9800, 4226.590
891.4621, 4229.497
891.9442, 4225.823
892.4263, 4217.969
892.9084, 4210.050
893.3906, 4202.612
893.8727, 4201.177
894.3548, 4217.575
894.8369, 4233.589
895.3190, 4235.508
895.8011, 4222.481
896.2833, 4216.644
896.7654, 4220.745
897.2475, 4225.664
897.7296, 4227.260
898.2117, 4226.795
898.6938, 4228.724
899.1760, 4232.688
899.6581, 4235.762
900.1402, 4241.115
900.6223, 4240.872
901.1044, 4218.686
901.5865, 4184.321
902.0687, 4178.075
902.5508, 4224.314
903.0329, 4261.380
903.5150, 4277.752
903.9971, 4275.697
904.4792, 4249.623
904.9614, 4204.767
905.4435, 4181.008
905.9256, 4202.346
906.4077, 4232.076
906.8898, 4235.692
907.3719, 4226.344
907.8541, 4225.660
908.3362, 4256.909
908.8183, 4270.635
909.3004, 4254.197
909.7825, 4229.340
910.2646, 4228.005
910.7468, 4248.455
911.2289, 4260.492
911.7110, 4258.431
912.1931, 4252.283
912.6752, 4252.438
913.1573, 4253.896
913.6395, 4250.119
914.1216, 4237.571
914.6037, 4226.964
915.0858, 4219.262
915.5679, 4214.770
916.0500, 4212.228
916.5322, 4211.365
917.0143, 4226.686
917.4964, 4259.458
917.9785, 4289.006
918.4606, 4297.152
918.9427, 4293.779
919.4249, 4285.825
919.9070, 4274.625
920.3891, 4273.596
920.8712, 4304.389
921.3533, 4326.518
921.8354, 4319.287
922.3176, 4288.719
922.7997, 4281.592
923.2818, 4298.719
923.7639, 4315.930
924.2460, 4321.323
924.7281, 4319.908
925.2103, 4310.411
925.6924, 4299.108
926.1745, 4303.771
926.6566, 4367.431
927.1387, 4401.743
927.6208, 4368.512
928.1030, 4304.141
928.5851, 4283.121
929.0672, 4308.674
929.5493, 4325.969
930.0314, 4319.775
930.5135, 4309.425
930.9957, 4328.046
931.4778, 4356.692
931.9599, 4362.874
932.4420, 4321.091
932.9241, 4291.609
933.4063, 4297.328
933.8884, 4313.409
934.3705, 4318.781
934.8526, 4311.235
935.3347, 4316.557
935.8168, 4337.177
936.2990, 4357.684
936.7811, 4361.136
937.2632, 4357.118
937.7453, 4359.191
938.2274, 4368.921
938.7095, 4374.812
939.1917, 4376.233
939.6738, 4368.894
940.1559, 4344.267
940.6380, 4306.047
941.1201, 4303.122
941.6022, 4337.220
942.0844, 4369.066
942.5665, 4372.708
943.0486, 4364.863
943.5307, 4364.230
944.0128, 4369.337
944.4949, 4375.727
944.9771, 4386.417
945.4592, 4392.326
945.9413, 4388.901
946.4234, 4381.436
946.9055, 4381.554
947.3876, 4389.309
947.8698, 4393.661
948.3519, 4391.076
948.8340, 4387.514
949.3161, 4387.183
949.7982, 4391.139
950.2803, 4401.742
950.7625, 4425.027
951.2446, 4442.404
951.7267, 4448.539
952.2088, 4451.430
952.6909, 4459.208
953.1730, 4471.793
953.6552, 4472.439
954.1373, 4460.255
954.6194, 4446.809
955.1015, 4439.821
955.5836, 4437.465
956.0657, 4439.347
956.5479, 4445.286
957.0300, 4450.372
957.5121, 4454.606
957.9942, 4456.385
958.4763, 4452.754
958.9584, 4446.995
959.4406, 4455.421
959.9227, 4475.994
960.4048, 4490.950
960.8869, 4485.675
961.3690, 4478.842
961.8511, 4492.936
962.3333, 4514.806
962.8154, 4518.279
963.2975, 4483.117
963.7796, 4456.011
964.2617, 4439.855
964.7438, 4433.918
965.2260, 4441.518
965.7081, 4459.231
966.1902, 4473.798
966.6723, 4483.597
967.1544, 4485.666
967.6365, 4463.944
968.1187, 4442.875
968.6008, 4447.459
969.0829, 4486.026
969.5650, 4511.905
970.0471, 4522.271
970.5292, 4528.150
971.0114, 4537.603
971.4935, 4547.456
971.9756, 4545.902
972.4577, 4534.973
972.9398, 4525.727
973.4219, 4521.141
973.9041, 4522.497
974.3862, 4531.972
974.8683, 4547.924
975.3504, 4567.289
975.8325, 4593.511
976.3146, 4609.041
976.7968, 4609.333
977.2789, 4599.803
977.7610, 4579.533
978.2431, 4557.052
978.7252, 4551.154
979.2073, 4574.501
979.6895, 4593.039
980.1716, 4588.638
980.6537, 4579.211
981.1358, 4579.254
981.6179, 4591.391
982.1000, 4587.911
982.5822, 4566.653
983.0643, 4554.778
983.5464, 4587.440
984.0285, 4632.709
984.5106, 4653.250
984.9927, 4649.448
985.4749, 4638.825
985.9570, 4618.739
986.4391, 4601.235
986.9212, 4587.901
987.4033, 4579.989
987.8854, 4582.236
988.3676, 4593.843
988.8497, 4608.216
989.3318, 4625.504
989.8139, 4639.930
990.2960, 4648.192
990.7781, 4649.791
991.2603, 4643.279
991.7424, 4618.934
992.2245, 4603.896
992.7066, 4596.499
993.1887, 4601.857
993.6708, 4638.050
994.1530, 4690.968
994.6351, 4705.526
995.1172, 4680.596
995.5993, 4653.870
996.0814, 4646.099
996.5635, 4646.046
997.0457, 4644.875
997.5278, 4644.507
998.0099, 4665.032
998.4920, 4714.450
998.9741, 4746.983
999.4562, 4741.676
999.9384, 4719.815
1000.420, 4719.327
1000.903, 4728.720
1001.385, 4722.541
1001.867, 4667.615
1002.349, 4635.620
1002.831, 4664.509
1003.313, 4705.862
1003.795, 4710.426
1004.277, 4676.051
1004.760, 4669.168
1005.242, 4694.628
1005.724, 4722.209
1006.206, 4727.313
1006.688, 4722.366
1007.170, 4719.142
1007.652, 4718.387
1008.134, 4713.689
1008.616, 4700.133
1009.099, 4689.903
1009.581, 4684.965
1010.063, 4687.316
1010.545, 4707.916
1011.027, 4741.597
1011.509, 4767.076
1011.991, 4777.299
1012.473, 4776.058
1012.955, 4754.238
1013.438, 4727.913
1013.920, 4717.749
1014.402, 4730.991
1014.884, 4735.531
1015.366, 4728.896
1015.848, 4722.147
1016.330, 4725.642
1016.812, 4735.717
1017.294, 4746.465
1017.777, 4757.684
1018.259, 4770.942
1018.741, 4793.770
1019.223, 4810.666
1019.705, 4814.990
1020.187, 4810.486
1020.669, 4808.673
1021.151, 4809.491
1021.634, 4812.202
1022.116, 4816.570
1022.598, 4822.530
1023.080, 4828.707
1023.562, 4836.875
1024.044, 4849.669
1024.526, 4870.625
1025.008, 4890.004
1025.490, 4908.964
1025.973, 4923.894
1026.455, 4936.167
1026.937, 4941.402
1027.419, 4915.279
1027.901, 4862.575
1028.383, 4831.963
1028.865, 4862.853
1029.347, 4905.931
1029.830, 4950.544
1030.312, 4988.569
1030.794, 4993.602
1031.276, 4962.495
1031.758, 4940.664
1032.240, 4941.430
1032.722, 4950.099
1033.204, 4946.376
1033.687, 4941.840
1034.169, 4954.687
1034.651, 5000.261
1035.133, 5025.909
1035.615, 5021.276
1036.097, 5007.994
1036.579, 4997.426
1037.061, 4989.418
1037.543, 4983.611
1038.026, 4980.051
1038.508, 4979.802
1038.990, 4981.212
1039.472, 4988.483
1039.954, 5009.306
1040.436, 5036.429
1040.918, 5054.363
1041.400, 5061.732
1041.882, 5067.660
1042.365, 5073.627
1042.847, 5078.961
1043.329, 5082.515
1043.811, 5085.245
1044.293, 5089.112
1044.775, 5095.052
1045.257, 5096.948
1045.739, 5092.088
1046.222, 5085.139
1046.704, 5075.658
1047.186, 5066.357
1047.668, 5071.710
1048.150, 5088.646
1048.632, 5100.479
1049.114, 5089.962
1049.596, 5084.051
1050.078, 5110.648
1050.561, 5145.166
1051.043, 5148.434
1051.525, 5108.603
1052.007, 5084.341
1052.489, 5079.108
1052.971, 5087.203
1053.453, 5118.198
1053.935, 5150.703
1054.417, 5145.790
1054.900, 5105.187
1055.382, 5084.915
1055.864, 5121.250
1056.346, 5150.015
1056.828, 5151.338
1057.310, 5136.973
1057.792, 5139.013
1058.274, 5152.406
1058.757, 5153.551
1059.239, 5130.460
1059.721, 5108.969
1060.203, 5105.574
1060.685, 5110.842
1061.167, 5117.150
1061.649, 5125.615
1062.131, 5125.356
1062.614, 5115.627
1063.096, 5104.854
1063.578, 5095.792
1064.060, 5090.878
1064.542, 5094.989
1065.024, 5106.053
1065.506, 5117.432
1065.988, 5131.089
1066.470, 5139.349
1066.953, 5140.270
1067.435, 5137.299
1067.917, 5131.583
1068.399, 5126.096
1068.881, 5135.199
1069.363, 5161.930
1069.845, 5180.212
1070.327, 5170.771
1070.809, 5151.707
1071.292, 5126.527
1071.774, 5099.309
1072.256, 5105.487
1072.738, 5146.235
1073.220, 5178.645
1073.702, 5182.973
1074.184, 5177.419
1074.666, 5180.050
1075.148, 5185.585
1075.631, 5186.571
1076.113, 5183.545
1076.595, 5171.132
1077.077, 5146.933
1077.559, 5120.636
1078.041, 5098.582
1078.523, 5081.144
1079.005, 5065.113
1079.488, 5052.853
1079.970, 5056.651
1080.452, 5100.620
1080.934, 5138.512
1081.416, 5157.401
1081.898, 5163.176
1082.380, 5163.582
1082.862, 5159.186
1083.344, 5157.268
1083.827, 5159.000
1084.309, 5162.702
1084.791, 5169.563
1085.273, 5175.818
1085.755, 5177.641
1086.237, 5175.014
1086.719, 5173.786
1087.201, 5174.230
1087.683, 5174.786
1088.166, 5174.135
1088.648, 5174.406
1089.130, 5181.833
1089.612, 5191.629
1090.094, 5194.629
1090.576, 5177.023
1091.058, 5175.803
1091.540, 5203.076
1092.023, 5227.993
1092.505, 5219.426
1092.987, 5187.942
1093.469, 5171.678
1093.951, 5169.911
1094.433, 5171.278
1094.915, 5170.773
1095.397, 5171.199
1095.880, 5172.918
1096.362, 5176.540
1096.844, 5183.193
1097.326, 5192.843
1097.808, 5208.122
1098.290, 5230.899
1098.772, 5247.669
1099.254, 5237.867
1099.736, 5224.305
1100.219, 5230.779
1100.701, 5258.347
1101.183, 5265.827
1101.665, 5247.350
1102.147, 5236.616
1102.629, 5250.732
1103.111, 5270.432
1103.593, 5263.958
1104.075, 5244.311
1104.558, 5233.112
1105.040, 5238.978
1105.522, 5246.901
1106.004, 5257.168
1106.486, 5266.224
1106.968, 5271.700
1107.450, 5274.187
1107.932, 5275.831
1108.415, 5276.603
1108.897, 5276.129
1109.379, 5269.595
1109.861, 5267.883
1110.343, 5277.909
1110.825, 5292.107
1111.307, 5299.153
1111.789, 5299.650
1112.271, 5311.312
1112.754, 5336.412
1113.236, 5356.628
1113.718, 5359.003
1114.200, 5351.080
1114.682, 5330.469
1115.164, 5302.556
1115.646, 5297.294
1116.128, 5319.114
1116.610, 5333.693
1117.093, 5331.279
1117.575, 5321.874
1118.057, 5304.936
1118.539, 5294.845
1119.021, 5316.206
1119.503, 5385.979
1119.985, 5422.352
1120.467, 5412.893
1120.950, 5395.274
1121.432, 5387.963
1121.914, 5384.797
1122.396, 5365.115
1122.878, 5339.360
1123.360, 5333.143
1123.842, 5371.990
1124.324, 5406.248
1124.807, 5431.641
1125.289, 5445.977
1125.771, 5438.606
1126.253, 5416.595
1126.735, 5425.363
1127.217, 5461.384
1127.699, 5489.438
1128.181, 5481.109
1128.663, 5469.221
1129.146, 5463.342
1129.628, 5465.089
1130.110, 5487.242
1130.592, 5528.969
1131.074, 5522.198
1131.556, 5454.593
1132.038, 5395.335
1132.520, 5416.424
1133.002, 5454.610
1133.485, 5456.478
1133.967, 5427.031
1134.449, 5422.818
1134.931, 5448.381
1135.413, 5467.777
1135.895, 5470.143
1136.377, 5464.564
1136.859, 5458.611
1137.342, 5452.464
1137.824, 5445.575
1138.306, 5436.358
1138.788, 5432.978
1139.270, 5435.276
1139.752, 5443.613
1140.234, 5462.028
1140.716, 5482.366
1141.198, 5486.194
1141.681, 5480.531
1142.163, 5480.433
1142.645, 5498.591
1143.127, 5508.913
1143.609, 5509.543
1144.091, 5503.174
1144.573, 5485.878
1145.055, 5464.484
1145.537, 5467.139
1146.020, 5488.830
1146.502, 5501.981
1146.984, 5486.852
1147.466, 5470.856
1147.948, 5459.532
1148.430, 5452.429
1148.912, 5450.212
1149.394, 5451.885
1149.877, 5448.219
1150.359, 5438.668
1150.841, 5440.250
1151.323, 5478.631
1151.805, 5514.861
1152.287, 5527.376
1152.769, 5523.359
1153.251, 5517.501
1153.734, 5510.141
1154.216, 5513.334
1154.698, 5532.083
1155.180, 5546.906
1155.662, 5529.911
1156.144, 5512.177
1156.626, 5529.068
1157.108, 5575.071
1157.590, 5585.530
1158.073, 5557.801
1158.555, 5536.838
1159.037, 5541.909
1159.519, 5552.876
1160.001, 5545.783
1160.483, 5534.063
1160.965, 5537.021
1161.447, 5561.674
1161.929, 5567.717
1162.412, 5551.495
1162.894, 5538.265
1163.376, 5549.275
1163.858, 5564.470
1164.340, 5551.370
1164.822, 5524.371
1165.304, 5511.685
1165.786, 5537.931
1166.269, 5536.280
1166.751, 5495.108
1167.233, 5461.313
1167.715, 5485.689
1168.197, 5536.196
1168.679, 5559.479
1169.161, 5559.496
1169.643, 5556.682
1170.125, 5555.767
1170.608, 5552.548
1171.090, 5545.083
1171.572, 5537.892
1172.054, 5536.412
1172.536, 5539.266
1173.018, 5544.465
1173.500, 5551.588
1173.982, 5558.380
1174.464, 5563.806
1174.947, 5569.262
1175.429, 5575.625
1175.911, 5581.521
1176.393, 5580.798
1176.875, 5578.158
1177.357, 5590.413
1177.839, 5621.632
1178.321, 5642.855
1178.804, 5632.827
1179.286, 5620.235
1179.768, 5614.311
1180.250, 5614.295
1180.732, 5619.148
1181.214, 5628.239
1181.696, 5640.385
1182.178, 5656.474
1182.661, 5670.203
1183.143, 5685.385
1183.625, 5688.796
1184.107, 5667.853
1184.589, 5629.937
1185.071, 5614.137
1185.553, 5616.798
1186.035, 5619.028
1186.517, 5609.569
1187.000, 5606.395
1187.482, 5625.153
1187.964, 5648.110
1188.446, 5662.590
1188.928, 5668.824
1189.410, 5668.995
1189.892, 5663.346
1190.374, 5653.641
1190.856, 5629.281
1191.339, 5614.510
1191.821, 5636.349
1192.303, 5663.996
1192.785, 5657.437
1193.267, 5614.936
1193.749, 5609.177
1194.231, 5639.699
1194.713, 5663.203
1195.195, 5634.398
1195.678, 5608.638
1196.160, 5629.363
1196.642, 5669.473
1197.124, 5682.938
1197.606, 5668.299
1198.088, 5661.663
1198.570, 5665.793
1199.052, 5672.607
1199.535, 5676.948
1200.017, 5681.141
1200.499, 5688.380
1200.981, 5696.318
1201.463, 5697.203
1201.945, 5690.376
1202.427, 5695.468
1202.909, 5716.915
1203.391, 5730.337
1203.874, 5706.408
1204.356, 5674.199
1204.838, 5652.055
1205.320, 5640.833
1205.802, 5641.191
1206.284, 5653.460
1206.766, 5669.220
1207.248, 5687.795
1207.730, 5703.654
1208.213, 5714.030
1208.695, 5718.071
1209.177, 5710.799
1209.659, 5695.225
1210.141, 5693.783
1210.623, 5707.308
1211.105, 5708.094
1211.587, 5681.627
1212.070, 5660.392
1212.552, 5685.442
1213.034, 5722.253
1213.516, 5738.098
1213.998, 5733.166
1214.480, 5719.721
1214.962, 5697.162
1215.444, 5689.097
1215.927, 5713.530
1216.409, 5735.944
1216.891, 5715.522
1217.373, 5684.510
1217.855, 5679.590
1218.337, 5703.306
1218.819, 5719.451
1219.301, 5728.089
1219.783, 5727.556
1220.266, 5709.968
1220.748, 5693.826
1221.230, 5700.676
1221.712, 5713.489
1222.194, 5708.100
1222.676, 5679.081
1223.158, 5679.611
1223.640, 5709.677
1224.122, 5739.824
1224.605, 5758.667
1225.087, 5764.583
1225.569, 5743.428
1226.051, 5715.413
1226.533, 5710.183
1227.015, 5731.595
##END=



