##NAMES=Ferro-katophorite
##RRUFFID=R050633
##IDEAL CHEMISTRY=NaNaCa[Fe^2+^_4_Al](Si_7_Al)O_22_(OH)_2_
##LOCALITY=Taguchi mine, Shidara, Kitashidara-Gun, Aichi Prefecture, Japan
##OWNER=RRUFF
##SOURCE=Marcus Origlieri
##DESCRIPTION=Dark green fragment associated with yoshimuraite, R050266.
##STATUS=The identification of this mineral has been confirmed only by single crystal X-ray diffraction.
##URL=rruff.info/R050633
89.78156, 0.0000000E+00
90.26367, 65.01846
90.74579, 65.14484
91.22791, 65.60487
91.71002, 66.26448
92.19214, 65.88020
92.67426, 61.00446
93.15638, 53.96172
93.63850, 51.19275
94.12061, 57.41580
94.60273, 68.62343
95.08485, 75.07649
95.56696, 76.24033
96.04908, 75.86564
96.53120, 80.26054
97.01331, 88.91528
97.49543, 92.99490
97.97755, 84.90415
98.45966, 65.72682
98.94178, 55.03764
99.42390, 54.30199
99.90602, 60.17284
100.3881, 67.30895
100.8703, 76.44567
101.3524, 84.35332
101.8345, 89.44107
102.3166, 91.28352
102.7987, 92.08411
103.2808, 92.57079
103.7630, 92.09048
104.2451, 86.97266
104.7272, 73.13664
105.2093, 59.99296
105.6914, 53.87059
106.1735, 59.04154
106.6557, 64.05345
107.1378, 67.69200
107.6199, 69.96516
108.1020, 71.47861
108.5841, 70.05730
109.0662, 69.03471
109.5484, 71.37683
110.0305, 79.58501
110.5126, 88.69279
110.9947, 98.95522
111.4768, 111.6269
111.9590, 119.9908
112.4411, 118.6767
112.9232, 113.9135
113.4053, 113.7492
113.8874, 121.8500
114.3695, 132.9317
114.8517, 144.7222
115.3338, 155.9496
115.8159, 170.3847
116.2980, 193.2303
116.7801, 220.4052
117.2622, 242.8511
117.7444, 250.7664
118.2265, 256.8480
118.7086, 269.4957
119.1907, 292.2716
119.6728, 319.4566
120.1549, 348.2644
120.6371, 378.9377
121.1192, 412.6079
121.6013, 453.5471
122.0834, 496.3331
122.5655, 534.2877
123.0476, 559.0712
123.5298, 583.7535
124.0119, 623.1854
124.4940, 676.3356
124.9761, 728.8556
125.4582, 768.9597
125.9404, 799.9677
126.4225, 827.9637
126.9046, 852.5112
127.3867, 876.3445
127.8688, 904.2301
128.3509, 936.4066
128.8331, 970.3120
129.3152, 1002.444
129.7973, 1033.658
130.2794, 1067.347
130.7615, 1102.967
131.2436, 1142.010
131.7258, 1190.183
132.2079, 1248.821
132.6900, 1313.308
133.1721, 1378.616
133.6542, 1444.490
134.1364, 1507.764
134.6185, 1567.275
135.1006, 1623.284
135.5827, 1676.045
136.0648, 1725.842
136.5469, 1772.677
137.0291, 1816.148
137.5112, 1855.508
137.9933, 1893.435
138.4754, 1932.802
138.9575, 1974.096
139.4396, 2011.712
139.9218, 2044.648
140.4039, 2073.258
140.8860, 2097.840
141.3681, 2116.450
141.8502, 2134.202
142.3323, 2154.508
142.8145, 2178.204
143.2966, 2202.954
143.7787, 2228.007
144.2608, 2253.606
144.7429, 2280.820
145.2250, 2309.442
145.7072, 2340.209
146.1893, 2374.268
146.6714, 2414.478
147.1535, 2453.580
147.6356, 2489.065
148.1178, 2519.756
148.5999, 2553.934
149.0820, 2592.312
149.5641, 2633.772
150.0462, 2676.632
150.5283, 2719.777
151.0105, 2764.882
151.4926, 2788.576
151.9747, 2815.655
152.4568, 2835.643
152.9389, 2846.239
153.4210, 2850.347
153.9032, 2852.070
154.3853, 2851.963
154.8674, 2849.471
155.3495, 2843.923
155.8316, 2833.372
156.3137, 2824.183
156.7959, 2817.942
157.2780, 2813.572
157.7601, 2809.112
158.2422, 2803.918
158.7243, 2798.547
159.2065, 2792.672
159.6886, 2783.447
160.1707, 2778.443
160.6528, 2782.327
161.1349, 2792.277
161.6170, 2800.927
162.0992, 2804.738
162.5813, 2806.911
163.0634, 2809.808
163.5455, 2816.569
164.0276, 2820.577
164.5097, 2816.720
164.9919, 2806.925
165.4740, 2798.672
165.9561, 2795.589
166.4382, 2795.703
166.9203, 2797.231
167.4024, 2800.020
167.8846, 2803.740
168.3667, 2810.172
168.8488, 2818.497
169.3309, 2823.233
169.8130, 2818.117
170.2952, 2808.319
170.7773, 2800.322
171.2594, 2797.139
171.7415, 2795.801
172.2236, 2794.370
172.7057, 2792.768
173.1879, 2790.210
173.6700, 2783.255
174.1521, 2775.198
174.6342, 2771.580
175.1163, 2781.356
175.5984, 2793.188
176.0806, 2790.560
176.5627, 2773.333
177.0448, 2756.984
177.5269, 2758.389
178.0090, 2771.416
178.4911, 2781.544
178.9733, 2783.051
179.4554, 2777.761
179.9375, 2765.810
180.4196, 2746.545
180.9017, 2728.738
181.3838, 2722.949
181.8660, 2726.839
182.3481, 2731.875
182.8302, 2735.952
183.3123, 2738.318
183.7944, 2735.800
184.2766, 2727.454
184.7587, 2719.012
185.2408, 2718.630
185.7229, 2725.112
186.2050, 2731.084
186.6871, 2732.329
187.1693, 2730.033
187.6514, 2728.280
188.1335, 2727.097
188.6156, 2726.704
189.0977, 2727.335
189.5798, 2728.958
190.0620, 2731.591
190.5441, 2735.139
191.0262, 2739.630
191.5083, 2745.902
191.9904, 2754.781
192.4725, 2763.793
192.9547, 2769.086
193.4368, 2770.691
193.9189, 2769.500
194.4010, 2763.769
194.8831, 2754.079
195.3652, 2749.914
195.8474, 2752.858
196.3295, 2760.061
196.8116, 2767.037
197.2937, 2774.026
197.7758, 2778.547
198.2579, 2777.291
198.7401, 2770.036
199.2222, 2767.036
199.7043, 2769.704
200.1864, 2776.167
200.6685, 2783.360
201.1507, 2791.896
201.6328, 2797.948
202.1149, 2798.521
202.5970, 2793.092
203.0791, 2786.830
203.5612, 2778.752
204.0434, 2771.200
204.5255, 2772.110
205.0076, 2783.771
205.4897, 2796.066
205.9718, 2802.646
206.4539, 2802.686
206.9361, 2801.886
207.4182, 2799.988
207.9003, 2797.952
208.3824, 2799.243
208.8645, 2804.932
209.3466, 2811.218
209.8288, 2815.624
210.3109, 2817.538
210.7930, 2820.509
211.2751, 2825.743
211.7572, 2832.023
212.2393, 2834.333
212.7215, 2830.757
213.2036, 2827.335
213.6857, 2828.653
214.1678, 2836.972
214.6499, 2842.131
215.1320, 2842.347
215.6142, 2838.810
216.0963, 2836.974
216.5784, 2837.859
217.0605, 2838.491
217.5426, 2837.260
218.0247, 2834.558
218.5069, 2828.512
218.9890, 2816.902
219.4711, 2801.743
219.9532, 2792.700
220.4353, 2791.805
220.9175, 2793.575
221.3996, 2795.048
221.8817, 2796.933
222.3638, 2796.634
222.8459, 2793.577
223.3280, 2788.089
223.8102, 2782.300
224.2923, 2776.927
224.7744, 2769.998
225.2565, 2759.090
225.7386, 2739.525
226.2207, 2727.613
226.7029, 2727.332
227.1850, 2736.208
227.6671, 2741.845
228.1492, 2744.409
228.6313, 2743.512
229.1134, 2737.845
229.5956, 2722.574
230.0777, 2713.810
230.5598, 2716.516
231.0419, 2727.202
231.5240, 2727.719
232.0062, 2711.470
232.4883, 2694.104
232.9704, 2685.176
233.4525, 2688.159
233.9346, 2692.304
234.4167, 2698.787
234.8989, 2706.101
235.3810, 2706.470
235.8631, 2695.221
236.3452, 2683.110
236.8273, 2676.347
237.3094, 2677.529
237.7916, 2678.376
238.2737, 2678.518
238.7558, 2677.947
239.2379, 2676.576
239.7200, 2673.711
240.2021, 2670.929
240.6843, 2669.214
241.1664, 2669.596
241.6485, 2668.711
242.1306, 2665.733
242.6127, 2661.413
243.0948, 2658.750
243.5770, 2658.692
244.0591, 2659.087
244.5412, 2658.993
245.0233, 2658.734
245.5054, 2657.289
245.9876, 2653.706
246.4697, 2649.099
246.9518, 2646.977
247.4339, 2648.440
247.9160, 2650.750
248.3981, 2652.324
248.8803, 2651.744
249.3624, 2654.138
249.8445, 2661.994
250.3266, 2672.202
250.8087, 2675.509
251.2908, 2667.231
251.7730, 2659.444
252.2551, 2658.924
252.7372, 2672.089
253.2193, 2675.152
253.7014, 2663.258
254.1835, 2643.374
254.6657, 2631.420
255.1478, 2629.265
255.6299, 2631.806
256.1120, 2638.171
256.5941, 2651.022
257.0763, 2659.074
257.5584, 2661.668
258.0405, 2660.013
258.5226, 2655.581
259.0047, 2645.671
259.4868, 2638.593
259.9690, 2639.248
260.4511, 2651.010
260.9332, 2654.284
261.4153, 2645.252
261.8974, 2631.113
262.3795, 2624.475
262.8617, 2627.881
263.3438, 2632.567
263.8259, 2636.441
264.3080, 2639.918
264.7901, 2638.482
265.2722, 2629.520
265.7544, 2618.715
266.2365, 2615.095
266.7186, 2621.055
267.2007, 2626.853
267.6828, 2629.559
268.1649, 2629.069
268.6471, 2627.863
269.1292, 2626.164
269.6113, 2623.402
270.0934, 2617.942
270.5755, 2608.297
271.0576, 2601.594
271.5398, 2600.408
272.0219, 2604.567
272.5040, 2608.411
272.9861, 2612.058
273.4682, 2615.053
273.9503, 2616.755
274.4325, 2616.946
274.9146, 2616.921
275.3967, 2616.828
275.8788, 2616.723
276.3610, 2617.201
276.8431, 2618.351
277.3252, 2619.786
277.8073, 2621.837
278.2894, 2624.789
278.7715, 2624.844
279.2537, 2619.590
279.7358, 2611.281
280.2179, 2610.185
280.7000, 2617.574
281.1821, 2626.575
281.6642, 2632.595
282.1464, 2635.647
282.6285, 2634.667
283.1106, 2627.629
283.5927, 2617.969
284.0748, 2616.076
284.5569, 2622.683
285.0391, 2630.196
285.5212, 2632.375
286.0033, 2629.806
286.4854, 2629.818
286.9675, 2633.503
287.4496, 2639.834
287.9318, 2648.216
288.4139, 2658.751
288.8960, 2666.856
289.3781, 2668.595
289.8602, 2665.244
290.3423, 2662.680
290.8245, 2660.907
291.3066, 2661.435
291.7887, 2668.890
292.2708, 2682.433
292.7529, 2693.715
293.2350, 2698.013
293.7172, 2696.497
294.1993, 2691.786
294.6814, 2683.531
295.1635, 2674.351
295.6456, 2665.962
296.1277, 2658.927
296.6099, 2655.935
297.0920, 2661.957
297.5741, 2672.107
298.0562, 2676.219
298.5383, 2673.806
299.0204, 2669.388
299.5026, 2665.138
299.9847, 2662.176
300.4668, 2663.539
300.9489, 2675.799
301.4311, 2690.320
301.9132, 2692.828
302.3953, 2683.807
302.8774, 2674.273
303.3595, 2673.348
303.8416, 2677.955
304.3238, 2682.914
304.8059, 2688.116
305.2880, 2691.387
305.7701, 2688.303
306.2522, 2679.993
306.7343, 2673.544
307.2165, 2674.519
307.6986, 2679.700
308.1807, 2685.472
308.6628, 2692.499
309.1449, 2697.401
309.6270, 2695.605
310.1092, 2689.065
310.5913, 2684.166
311.0734, 2684.256
311.5555, 2687.553
312.0376, 2693.341
312.5197, 2703.056
313.0019, 2710.927
313.4840, 2712.015
313.9661, 2709.045
314.4482, 2707.611
314.9303, 2712.185
315.4124, 2717.589
315.8946, 2720.520
316.3767, 2720.237
316.8588, 2719.494
317.3409, 2718.140
317.8230, 2717.363
318.3051, 2718.713
318.7873, 2726.553
319.2694, 2733.257
319.7515, 2735.159
320.2336, 2731.762
320.7157, 2727.986
321.1978, 2722.934
321.6800, 2719.160
322.1621, 2718.996
322.6442, 2727.189
323.1263, 2734.582
323.6084, 2738.479
324.0905, 2739.090
324.5727, 2740.394
325.0548, 2745.016
325.5369, 2749.193
326.0190, 2750.644
326.5012, 2743.395
326.9833, 2740.247
327.4654, 2744.712
327.9475, 2754.741
328.4296, 2762.013
328.9117, 2766.277
329.3939, 2767.979
329.8760, 2766.889
330.3581, 2759.520
330.8402, 2755.681
331.3223, 2755.903
331.8044, 2759.395
332.2866, 2765.052
332.7687, 2775.727
333.2508, 2784.102
333.7329, 2787.046
334.2150, 2782.781
334.6971, 2781.657
335.1793, 2784.831
335.6614, 2790.025
336.1435, 2794.893
336.6256, 2800.795
337.1077, 2802.753
337.5898, 2797.612
338.0720, 2786.020
338.5541, 2782.073
339.0362, 2787.873
339.5183, 2796.744
340.0004, 2803.061
340.4825, 2806.822
340.9647, 2808.535
341.4468, 2807.649
341.9289, 2805.136
342.4110, 2804.217
342.8931, 2805.046
343.3752, 2806.298
343.8574, 2806.233
344.3395, 2805.063
344.8216, 2807.033
345.3037, 2813.067
345.7858, 2821.231
346.2679, 2828.510
346.7501, 2834.953
347.2322, 2840.852
347.7143, 2847.623
348.1964, 2854.079
348.6785, 2855.329
349.1607, 2850.420
349.6428, 2845.042
350.1249, 2846.450
350.6070, 2852.846
351.0891, 2858.590
351.5713, 2861.212
352.0534, 2861.921
352.5355, 2862.178
353.0176, 2862.019
353.4997, 2861.947
353.9818, 2862.185
354.4640, 2862.823
354.9461, 2864.219
355.4282, 2867.820
355.9103, 2870.494
356.3924, 2866.828
356.8745, 2858.961
357.3567, 2855.377
357.8388, 2867.255
358.3209, 2881.916
358.8030, 2887.062
359.2851, 2876.541
359.7672, 2867.142
360.2494, 2870.414
360.7315, 2880.889
361.2136, 2888.416
361.6957, 2883.992
362.1778, 2879.942
362.6599, 2883.957
363.1421, 2897.968
363.6242, 2909.167
364.1063, 2911.965
364.5884, 2910.755
365.0705, 2910.011
365.5526, 2909.850
366.0348, 2911.007
366.5169, 2914.427
366.9990, 2919.901
367.4811, 2924.200
367.9632, 2928.231
368.4453, 2930.157
368.9275, 2928.802
369.4096, 2920.015
369.8917, 2913.656
370.3738, 2909.355
370.8559, 2907.606
371.3380, 2910.465
371.8202, 2924.131
372.3023, 2934.038
372.7844, 2933.599
373.2665, 2919.723
373.7487, 2907.742
374.2308, 2896.076
374.7129, 2887.922
375.1950, 2889.446
375.6771, 2905.183
376.1592, 2915.966
376.6414, 2915.014
377.1235, 2903.880
377.6056, 2898.571
378.0877, 2900.136
378.5698, 2903.988
379.0519, 2906.732
379.5341, 2908.361
380.0162, 2908.463
380.4983, 2906.458
380.9804, 2903.490
381.4625, 2903.449
381.9446, 2906.221
382.4268, 2906.373
382.9089, 2896.467
383.3910, 2880.927
383.8731, 2875.208
384.3552, 2881.795
384.8373, 2892.082
385.3195, 2896.028
385.8016, 2895.389
386.2837, 2895.431
386.7658, 2900.408
387.2479, 2906.378
387.7300, 2908.478
388.2122, 2906.736
388.6943, 2902.733
389.1764, 2895.178
389.6585, 2886.867
390.1406, 2881.876
390.6227, 2884.166
391.1049, 2885.970
391.5870, 2880.384
392.0691, 2869.833
392.5512, 2861.627
393.0333, 2863.194
393.5154, 2865.346
393.9976, 2861.168
394.4797, 2847.212
394.9618, 2835.673
395.4439, 2832.616
395.9260, 2833.603
396.4081, 2832.739
396.8903, 2826.881
397.3724, 2820.928
397.8545, 2816.246
398.3366, 2812.929
398.8188, 2809.590
399.3009, 2805.405
399.7830, 2801.656
400.2651, 2799.200
400.7472, 2799.245
401.2293, 2798.766
401.7115, 2797.701
402.1936, 2795.986
402.6757, 2792.979
403.1578, 2786.461
403.6399, 2782.518
404.1220, 2785.587
404.6042, 2798.403
405.0863, 2801.135
405.5684, 2790.273
406.0505, 2774.926
406.5326, 2767.106
407.0147, 2767.625
407.4969, 2769.622
407.9790, 2771.898
408.4611, 2774.119
408.9432, 2774.627
409.4253, 2773.310
409.9074, 2771.605
410.3896, 2771.097
410.8717, 2771.303
411.3538, 2769.375
411.8359, 2763.917
412.3180, 2758.740
412.8001, 2760.727
413.2823, 2768.182
413.7644, 2774.449
414.2465, 2775.012
414.7286, 2772.774
415.2107, 2771.932
415.6928, 2772.736
416.1750, 2772.502
416.6571, 2766.990
417.1392, 2759.828
417.6213, 2755.804
418.1034, 2758.396
418.5855, 2762.594
419.0677, 2767.183
419.5498, 2771.466
420.0319, 2772.615
420.5140, 2765.490
420.9961, 2757.750
421.4782, 2754.686
421.9604, 2759.578
422.4425, 2762.257
422.9246, 2756.598
423.4067, 2748.571
423.8889, 2746.308
424.3710, 2759.758
424.8531, 2769.684
425.3352, 2770.169
425.8173, 2761.190
426.2994, 2755.793
426.7816, 2754.908
427.2637, 2756.721
427.7458, 2760.704
428.2279, 2769.410
428.7100, 2773.846
429.1921, 2771.924
429.6743, 2766.386
430.1564, 2764.475
430.6385, 2767.772
431.1206, 2768.517
431.6027, 2761.886
432.0848, 2748.318
432.5670, 2739.833
433.0491, 2736.944
433.5312, 2736.999
434.0133, 2738.615
434.4954, 2741.291
434.9775, 2740.865
435.4597, 2734.083
435.9418, 2726.531
436.4239, 2730.195
436.9060, 2743.436
437.3881, 2755.899
437.8702, 2760.967
438.3524, 2761.194
438.8345, 2759.549
439.3166, 2756.027
439.7987, 2752.676
440.2808, 2751.512
440.7629, 2751.480
441.2451, 2750.965
441.7272, 2748.509
442.2093, 2746.109
442.6914, 2745.847
443.1735, 2747.135
443.6556, 2746.057
444.1378, 2735.079
444.6199, 2725.453
445.1020, 2725.494
445.5841, 2744.899
446.0662, 2757.431
446.5483, 2755.690
447.0305, 2745.867
447.5126, 2738.060
447.9947, 2731.302
448.4768, 2728.196
448.9590, 2730.590
449.4411, 2738.626
449.9232, 2744.257
450.4053, 2747.191
450.8874, 2748.141
451.3695, 2746.678
451.8517, 2741.378
452.3338, 2740.113
452.8159, 2744.654
453.2980, 2752.273
453.7801, 2758.156
454.2622, 2762.281
454.7444, 2764.009
455.2265, 2761.144
455.7086, 2755.399
456.1907, 2755.405
456.6728, 2761.644
457.1549, 2767.659
457.6371, 2766.124
458.1192, 2759.869
458.6013, 2755.469
459.0834, 2754.127
459.5655, 2756.018
460.0476, 2765.547
460.5298, 2779.295
461.0119, 2786.725
461.4940, 2774.766
461.9761, 2759.700
462.4582, 2755.588
462.9403, 2764.311
463.4225, 2772.500
463.9046, 2772.198
464.3867, 2769.322
464.8688, 2769.481
465.3509, 2779.472
465.8330, 2786.451
466.3152, 2785.991
466.7973, 2780.113
467.2794, 2776.101
467.7615, 2774.820
468.2436, 2775.058
468.7257, 2776.982
469.2079, 2781.426
469.6900, 2783.499
470.1721, 2782.257
470.6542, 2779.625
471.1363, 2777.431
471.6184, 2775.602
472.1006, 2774.586
472.5827, 2774.852
473.0648, 2775.743
473.5469, 2775.316
474.0291, 2773.552
474.5112, 2770.822
474.9933, 2765.181
475.4754, 2758.312
475.9575, 2758.530
476.4396, 2766.754
476.9218, 2777.280
477.4039, 2786.102
477.8860, 2792.502
478.3681, 2794.305
478.8502, 2788.321
479.3323, 2780.511
479.8145, 2776.095
480.2966, 2774.650
480.7787, 2774.776
481.2608, 2778.068
481.7429, 2780.944
482.2250, 2780.094
482.7072, 2774.243
483.1893, 2769.986
483.6714, 2770.706
484.1535, 2773.673
484.6356, 2776.123
485.1177, 2777.292
485.5999, 2778.372
486.0820, 2780.249
486.5641, 2782.371
487.0462, 2782.171
487.5283, 2775.592
488.0104, 2772.308
488.4926, 2777.813
488.9747, 2794.576
489.4568, 2803.295
489.9389, 2801.247
490.4210, 2795.938
490.9031, 2796.785
491.3853, 2804.382
491.8674, 2807.103
492.3495, 2800.194
492.8316, 2789.879
493.3137, 2790.818
493.7958, 2802.164
494.2780, 2814.788
494.7601, 2824.373
495.2422, 2831.263
495.7243, 2835.129
496.2064, 2835.890
496.6885, 2836.439
497.1707, 2839.702
497.6528, 2844.046
498.1349, 2847.228
498.6170, 2848.262
499.0992, 2848.539
499.5813, 2847.068
500.0634, 2845.352
500.5455, 2847.038
501.0276, 2860.163
501.5097, 2870.785
501.9919, 2870.603
502.4740, 2856.459
502.9561, 2850.573
503.4382, 2862.887
503.9203, 2878.042
504.4024, 2885.506
504.8846, 2881.288
505.3667, 2877.476
505.8488, 2874.977
506.3309, 2873.158
506.8130, 2869.703
507.2951, 2863.381
507.7773, 2861.158
508.2594, 2867.614
508.7415, 2880.644
509.2236, 2888.537
509.7057, 2891.131
510.1878, 2890.790
510.6700, 2887.292
511.1521, 2882.322
511.6342, 2881.460
512.1163, 2886.446
512.5984, 2892.516
513.0806, 2894.849
513.5627, 2894.523
514.0448, 2893.789
514.5269, 2894.499
515.0090, 2894.393
515.4911, 2890.225
515.9733, 2882.929
516.4554, 2878.928
516.9375, 2881.208
517.4196, 2887.048
517.9017, 2895.605
518.3839, 2909.184
518.8660, 2919.454
519.3481, 2926.376
519.8302, 2929.043
520.3123, 2925.497
520.7944, 2909.329
521.2766, 2898.905
521.7587, 2899.040
522.2408, 2906.747
522.7229, 2910.029
523.2050, 2907.881
523.6871, 2905.233
524.1693, 2904.549
524.6514, 2905.741
525.1335, 2907.257
525.6156, 2909.118
526.0977, 2911.325
526.5798, 2912.465
527.0620, 2913.853
527.5441, 2920.564
528.0262, 2936.951
528.5083, 2952.411
528.9904, 2951.918
529.4725, 2941.199
529.9547, 2934.230
530.4368, 2940.626
530.9189, 2950.795
531.4010, 2958.937
531.8831, 2964.875
532.3652, 2970.678
532.8474, 2978.618
533.3295, 2985.649
533.8116, 2990.027
534.2937, 2991.922
534.7758, 2990.230
535.2579, 2981.934
535.7401, 2971.604
536.2222, 2966.546
536.7043, 2969.935
537.1864, 2970.980
537.6685, 2966.543
538.1506, 2958.160
538.6328, 2953.400
539.1149, 2952.797
539.5970, 2952.417
540.0791, 2949.363
540.5612, 2944.370
541.0433, 2940.908
541.5255, 2939.099
542.0076, 2938.721
542.4897, 2940.811
542.9718, 2943.984
543.4539, 2945.185
543.9360, 2942.062
544.4182, 2939.285
544.9003, 2941.419
545.3824, 2946.640
545.8645, 2950.932
546.3466, 2951.693
546.8287, 2951.990
547.3109, 2953.886
547.7930, 2957.484
548.2751, 2958.566
548.7572, 2956.288
549.2393, 2951.434
549.7214, 2943.626
550.2036, 2927.890
550.6857, 2921.345
551.1678, 2928.627
551.6499, 2940.447
552.1320, 2943.231
552.6141, 2935.586
553.0963, 2928.434
553.5784, 2924.563
554.0605, 2922.626
554.5426, 2918.369
555.0247, 2912.009
555.5068, 2907.362
555.9890, 2908.914
556.4711, 2913.001
556.9532, 2912.361
557.4353, 2906.719
557.9174, 2901.216
558.3995, 2898.622
558.8817, 2898.724
559.3638, 2902.050
559.8459, 2911.643
560.3281, 2918.353
560.8102, 2914.967
561.2923, 2907.109
561.7744, 2903.638
562.2565, 2912.963
562.7386, 2919.333
563.2208, 2918.934
563.7029, 2912.616
564.1850, 2905.564
564.6671, 2896.105
565.1492, 2889.042
565.6313, 2886.989
566.1135, 2890.221
566.5956, 2895.911
567.0777, 2905.071
567.5598, 2912.966
568.0419, 2913.591
568.5240, 2908.203
569.0062, 2903.140
569.4883, 2899.434
569.9704, 2897.095
570.4525, 2896.880
570.9346, 2898.149
571.4167, 2899.256
571.8989, 2899.292
572.3810, 2899.059
572.8631, 2899.333
573.3452, 2899.971
573.8273, 2899.949
574.3094, 2898.645
574.7916, 2896.784
575.2737, 2894.691
575.7558, 2892.303
576.2379, 2889.967
576.7200, 2887.293
577.2021, 2885.005
577.6843, 2883.790
578.1664, 2883.951
578.6485, 2884.079
579.1306, 2883.568
579.6127, 2883.420
580.0948, 2887.808
580.5770, 2896.739
581.0591, 2899.532
581.5412, 2887.491
582.0233, 2869.002
582.5054, 2864.500
582.9875, 2872.303
583.4697, 2879.240
583.9518, 2875.183
584.4339, 2866.229
584.9160, 2857.298
585.3981, 2848.402
585.8802, 2845.111
586.3624, 2859.361
586.8445, 2875.924
587.3266, 2880.667
587.8087, 2855.766
588.2908, 2838.108
588.7729, 2836.219
589.2551, 2842.874
589.7372, 2846.379
590.2193, 2846.063
590.7014, 2843.636
591.1835, 2838.359
591.6656, 2831.283
592.1478, 2828.251
592.6299, 2829.535
593.1120, 2832.782
593.5941, 2838.029
594.0762, 2844.193
594.5583, 2847.054
595.0405, 2846.384
595.5226, 2844.304
596.0047, 2842.364
596.4868, 2840.315
596.9689, 2837.876
597.4510, 2835.261
597.9332, 2831.655
598.4153, 2822.688
598.8974, 2813.539
599.3795, 2811.620
599.8616, 2828.637
600.3438, 2842.445
600.8259, 2845.297
601.3080, 2840.168
601.7901, 2838.940
602.2722, 2845.096
602.7543, 2849.196
603.2365, 2846.555
603.7186, 2837.347
604.2007, 2832.763
604.6828, 2833.301
605.1649, 2835.948
605.6470, 2838.573
606.1292, 2841.206
606.6113, 2844.736
607.0934, 2849.513
607.5755, 2853.124
608.0576, 2853.224
608.5398, 2850.390
609.0219, 2845.247
609.5040, 2834.555
609.9861, 2826.436
610.4683, 2827.564
610.9504, 2834.466
611.4325, 2839.641
611.9146, 2842.283
612.3967, 2841.868
612.8788, 2836.631
613.3610, 2827.286
613.8431, 2820.927
614.3252, 2818.308
614.8073, 2817.570
615.2894, 2817.888
615.7715, 2819.261
616.2537, 2821.114
616.7358, 2823.086
617.2179, 2826.949
617.7000, 2837.502
618.1821, 2851.785
618.6642, 2858.030
619.1464, 2852.504
619.6285, 2845.207
620.1106, 2847.084
620.5927, 2854.058
621.0748, 2859.118
621.5569, 2858.160
622.0391, 2856.202
622.5212, 2854.887
623.0033, 2854.291
623.4854, 2854.580
623.9675, 2858.016
624.4496, 2860.067
624.9318, 2858.913
625.4139, 2854.675
625.8960, 2851.751
626.3781, 2849.890
626.8602, 2850.081
627.3423, 2853.069
627.8245, 2858.829
628.3066, 2867.910
628.7887, 2881.282
629.2708, 2891.635
629.7529, 2887.229
630.2350, 2874.323
630.7172, 2867.759
631.1993, 2872.416
631.6814, 2879.240
632.1635, 2880.967
632.6456, 2879.883
633.1277, 2879.691
633.6099, 2883.672
634.0920, 2886.525
634.5741, 2885.906
635.0562, 2882.719
635.5383, 2880.447
636.0204, 2879.000
636.5026, 2878.773
636.9847, 2879.561
637.4668, 2881.528
637.9489, 2888.048
638.4310, 2900.695
638.9131, 2911.228
639.3953, 2912.847
639.8774, 2907.446
640.3595, 2902.469
640.8416, 2898.021
641.3237, 2897.153
641.8058, 2907.645
642.2880, 2921.800
642.7701, 2927.444
643.2522, 2918.510
643.7343, 2910.381
644.2164, 2912.701
644.6985, 2919.836
645.1807, 2924.265
645.6628, 2919.926
646.1449, 2918.336
646.6270, 2921.974
647.1091, 2929.116
647.5912, 2935.550
648.0734, 2941.582
648.5555, 2946.175
649.0376, 2948.813
649.5197, 2949.832
650.0018, 2949.931
650.4839, 2949.142
650.9661, 2950.205
651.4482, 2955.652
651.9303, 2963.879
652.4124, 2972.809
652.8945, 2982.292
653.3766, 2990.651
653.8588, 2994.712
654.3409, 2998.424
654.8230, 3005.752
655.3051, 3019.251
655.7872, 3030.745
656.2693, 3035.308
656.7515, 3038.818
657.2336, 3047.042
657.7158, 3062.459
658.1979, 3077.138
658.6800, 3090.387
659.1621, 3102.657
659.6442, 3114.608
660.1263, 3126.150
660.6085, 3137.616
661.0906, 3148.836
661.5727, 3160.145
662.0548, 3172.036
662.5369, 3184.645
663.0190, 3198.521
663.5012, 3213.282
663.9833, 3230.008
664.4654, 3250.861
664.9475, 3275.124
665.4296, 3298.208
665.9117, 3319.490
666.3939, 3338.587
666.8760, 3354.028
667.3581, 3364.763
667.8402, 3380.605
668.3223, 3404.129
668.8044, 3429.017
669.2866, 3448.906
669.7687, 3463.393
670.2508, 3486.013
670.7329, 3519.037
671.2150, 3553.442
671.6971, 3579.437
672.1793, 3599.140
672.6614, 3617.952
673.1435, 3638.020
673.6256, 3655.458
674.1077, 3665.460
674.5898, 3671.419
675.0720, 3678.478
675.5541, 3697.290
676.0362, 3707.423
676.5183, 3697.903
677.0004, 3675.645
677.4825, 3660.277
677.9647, 3658.591
678.4468, 3651.131
678.9289, 3632.046
679.4110, 3603.199
679.8931, 3571.469
680.3752, 3536.887
680.8574, 3501.480
681.3395, 3466.391
681.8216, 3431.179
682.3037, 3394.789
682.7858, 3357.183
683.2679, 3322.298
683.7501, 3293.529
684.2322, 3267.693
684.7143, 3240.439
685.1964, 3210.499
685.6785, 3185.550
686.1606, 3172.634
686.6428, 3162.248
687.1249, 3146.990
687.6070, 3122.409
688.0891, 3103.700
688.5712, 3092.371
689.0533, 3084.575
689.5355, 3075.376
690.0176, 3064.904
690.4997, 3058.169
690.9818, 3057.461
691.4639, 3056.932
691.9460, 3045.309
692.4282, 3028.045
692.9103, 3017.542
693.3924, 3025.147
693.8745, 3032.914
694.3566, 3027.385
694.8387, 3014.258
695.3209, 3006.959
695.8030, 3015.310
696.2851, 3022.092
696.7672, 3022.649
697.2493, 3018.280
697.7314, 3016.211
698.2136, 3017.692
698.6957, 3017.110
699.1778, 3009.765
699.6599, 2998.457
700.1420, 2997.321
700.6241, 3005.868
701.1063, 3014.752
701.5884, 3017.103
702.0705, 3016.291
702.5526, 3016.959
703.0347, 3019.428
703.5168, 3019.578
703.9990, 3010.387
704.4811, 3001.672
704.9632, 3001.540
705.4453, 3016.512
705.9274, 3023.335
706.4095, 3017.888
706.8917, 3008.789
707.3738, 3002.995
707.8560, 3000.833
708.3381, 2999.681
708.8202, 2999.190
709.3023, 3000.264
709.7844, 3005.079
710.2665, 3012.401
710.7487, 3019.064
711.2308, 3024.525
711.7129, 3028.380
712.1950, 3029.734
712.6771, 3029.469
713.1592, 3028.912
713.6414, 3028.968
714.1235, 3028.165
714.6056, 3025.419
715.0877, 3021.706
715.5698, 3018.620
716.0519, 3015.088
716.5341, 3015.423
717.0162, 3022.545
717.4983, 3032.826
717.9804, 3033.863
718.4625, 3026.449
718.9446, 3021.798
719.4268, 3028.621
719.9089, 3039.073
720.3910, 3041.956
720.8731, 3039.024
721.3552, 3037.843
721.8373, 3047.357
722.3195, 3055.102
722.8016, 3052.110
723.2837, 3037.967
723.7658, 3029.365
724.2479, 3027.688
724.7300, 3030.844
725.2122, 3040.079
725.6943, 3055.588
726.1764, 3061.905
726.6585, 3057.866
727.1406, 3052.403
727.6227, 3053.863
728.1049, 3058.930
728.5870, 3058.098
729.0691, 3050.402
729.5512, 3045.822
730.0333, 3058.510
730.5154, 3073.608
730.9976, 3075.609
731.4797, 3056.564
731.9618, 3041.515
732.4439, 3034.438
732.9260, 3033.401
733.4081, 3038.477
733.8903, 3053.129
734.3724, 3061.801
734.8545, 3062.562
735.3366, 3059.980
735.8187, 3060.508
736.3008, 3062.962
736.7830, 3060.780
737.2651, 3050.821
737.7472, 3041.828
738.2293, 3043.425
738.7114, 3051.420
739.1935, 3059.728
739.6757, 3069.858
740.1578, 3075.585
740.6399, 3072.643
741.1220, 3064.778
741.6041, 3058.556
742.0862, 3054.392
742.5684, 3050.625
743.0505, 3046.192
743.5326, 3042.741
744.0147, 3046.067
744.4968, 3055.390
744.9789, 3060.776
745.4611, 3057.283
745.9432, 3049.614
746.4253, 3042.004
746.9074, 3035.127
747.3895, 3030.809
747.8716, 3033.956
748.3538, 3035.806
748.8359, 3031.540
749.3180, 3022.391
749.8001, 3014.797
750.2822, 3007.430
750.7643, 3004.674
751.2465, 3009.834
751.7286, 3020.526
752.2107, 3024.291
752.6928, 3021.038
753.1749, 3017.244
753.6570, 3016.340
754.1392, 3017.276
754.6213, 3018.316
755.1034, 3019.552
755.5855, 3021.601
756.0676, 3027.235
756.5498, 3031.633
757.0319, 3031.859
757.5140, 3027.594
757.9962, 3021.376
758.4783, 3009.010
758.9604, 3001.018
759.4425, 3004.567
759.9246, 3019.115
760.4067, 3023.208
760.8889, 3015.965
761.3710, 3005.939
761.8531, 2997.133
762.3352, 2990.716
762.8173, 2990.242
763.2994, 2995.677
763.7816, 3000.899
764.2637, 3001.375
764.7458, 3000.771
765.2279, 3002.545
765.7100, 3008.401
766.1921, 3009.652
766.6743, 3002.783
767.1564, 2995.162
767.6385, 2992.001
768.1206, 2994.065
768.6027, 2992.427
769.0848, 2986.387
769.5670, 2980.421
770.0491, 2978.424
770.5312, 2979.429
771.0133, 2982.495
771.4954, 2987.811
771.9775, 2991.150
772.4597, 2985.743
772.9418, 2979.718
773.4239, 2980.919
773.9060, 2996.075
774.3881, 3003.748
774.8702, 2999.993
775.3524, 2992.370
775.8345, 2986.542
776.3166, 2982.516
776.7987, 2981.020
777.2808, 2982.504
777.7629, 2984.650
778.2451, 2984.390
778.7272, 2983.091
779.2093, 2983.430
779.6914, 2985.986
780.1735, 2989.854
780.6556, 2998.525
781.1378, 3006.042
781.6199, 3006.224
782.1020, 2989.844
782.5841, 2980.121
783.0662, 2979.658
783.5483, 2982.901
784.0305, 2984.170
784.5126, 2983.415
784.9947, 2981.224
785.4768, 2976.915
785.9589, 2974.648
786.4410, 2982.976
786.9232, 2995.937
787.4053, 3002.385
787.8874, 2997.735
788.3695, 2991.522
788.8516, 2987.556
789.3337, 2984.914
789.8159, 2982.482
790.2980, 2979.612
790.7801, 2978.027
791.2622, 2978.279
791.7443, 2979.176
792.2264, 2978.783
792.7086, 2977.244
793.1907, 2977.441
793.6728, 2980.190
794.1549, 2983.390
794.6370, 2984.211
795.1191, 2984.046
795.6013, 2985.780
796.0834, 2993.690
796.5655, 2996.543
797.0476, 2982.718
797.5297, 2965.342
798.0118, 2961.342
798.4940, 2980.802
798.9761, 2988.735
799.4582, 2977.313
799.9403, 2963.348
800.4224, 2974.911
800.9045, 3006.653
801.3867, 3025.661
801.8688, 3023.175
802.3509, 3014.440
802.8330, 3012.221
803.3151, 3013.834
803.7972, 3015.602
804.2794, 3016.258
804.7615, 3017.468
805.2436, 3019.693
805.7258, 3022.596
806.2079, 3026.875
806.6900, 3034.683
807.1721, 3034.183
807.6542, 3022.122
808.1364, 3007.208
808.6185, 3001.349
809.1006, 3002.187
809.5827, 3002.241
810.0648, 2998.788
810.5469, 2997.847
811.0291, 3009.243
811.5112, 3023.236
811.9933, 3028.460
812.4754, 3015.253
812.9575, 3004.322
813.4396, 2996.059
813.9218, 2990.992
814.4039, 2990.998
814.8860, 2996.561
815.3681, 2999.335
815.8502, 2998.168
816.3323, 2995.299
816.8145, 2992.034
817.2966, 2989.298
817.7787, 2989.033
818.2608, 2992.496
818.7429, 2995.752
819.2250, 2996.995
819.7072, 2997.102
820.1893, 2996.755
820.6714, 2994.783
821.1535, 2995.171
821.6356, 2998.683
822.1177, 3003.157
822.5999, 3006.961
823.0820, 3009.841
823.5641, 3009.338
824.0462, 3004.702
824.5283, 3000.515
825.0104, 3000.168
825.4926, 3003.055
825.9747, 3009.775
826.4568, 3023.105
826.9389, 3030.904
827.4210, 3025.202
827.9031, 3017.074
828.3853, 3013.646
828.8674, 3015.736
829.3495, 3019.345
829.8316, 3024.995
830.3137, 3029.671
830.7958, 3028.899
831.2780, 3025.290
831.7601, 3025.263
832.2422, 3029.706
832.7243, 3032.745
833.2064, 3027.916
833.6885, 3022.227
834.1707, 3021.561
834.6528, 3028.391
835.1349, 3032.763
835.6170, 3034.146
836.0991, 3034.013
836.5812, 3032.145
837.0634, 3028.885
837.5455, 3030.564
838.0276, 3037.290
838.5097, 3043.668
838.9918, 3046.399
839.4739, 3046.103
839.9561, 3041.259
840.4382, 3031.989
840.9203, 3027.729
841.4024, 3038.623
841.8845, 3048.276
842.3666, 3048.430
842.8488, 3039.339
843.3309, 3034.053
843.8130, 3032.676
844.2951, 3034.668
844.7772, 3043.312
845.2593, 3054.061
845.7415, 3054.839
846.2236, 3047.265
846.7057, 3039.825
847.1878, 3037.369
847.6699, 3036.303
848.1520, 3034.430
848.6342, 3031.975
849.1163, 3031.101
849.5984, 3031.281
850.0805, 3034.301
850.5626, 3041.664
851.0447, 3051.708
851.5269, 3060.063
852.0090, 3066.448
852.4911, 3068.589
852.9732, 3061.453
853.4553, 3053.291
853.9374, 3050.281
854.4196, 3052.136
854.9017, 3058.189
855.3839, 3076.116
855.8660, 3088.255
856.3481, 3089.850
856.8302, 3084.465
857.3123, 3078.366
857.7944, 3071.050
858.2766, 3070.368
858.7587, 3080.779
859.2408, 3093.285
859.7229, 3093.694
860.2050, 3086.506
860.6871, 3080.638
861.1693, 3078.229
861.6514, 3079.054
862.1335, 3086.467
862.6156, 3095.631
863.0977, 3100.042
863.5798, 3098.531
864.0620, 3094.921
864.5441, 3088.040
865.0262, 3082.553
865.5083, 3085.750
865.9904, 3095.137
866.4725, 3103.672
866.9547, 3110.562
867.4368, 3114.140
867.9189, 3108.407
868.4010, 3101.716
868.8831, 3102.508
869.3652, 3116.765
869.8474, 3125.987
870.3295, 3128.346
870.8116, 3128.500
871.2937, 3128.927
871.7758, 3129.917
872.2579, 3135.652
872.7401, 3146.374
873.2222, 3156.168
873.7043, 3159.365
874.1864, 3160.000
874.6685, 3162.143
875.1506, 3166.172
875.6328, 3169.092
876.1149, 3167.857
876.5970, 3167.924
877.0791, 3172.101
877.5612, 3179.750
878.0433, 3185.204
878.5255, 3188.559
879.0076, 3187.218
879.4897, 3173.687
879.9718, 3158.356
880.4539, 3157.169
880.9360, 3167.173
881.4182, 3178.141
881.9003, 3190.356
882.3824, 3197.853
882.8645, 3195.384
883.3466, 3187.235
883.8287, 3184.469
884.3109, 3188.162
884.7930, 3190.976
885.2751, 3190.807
885.7572, 3189.073
886.2393, 3188.200
886.7214, 3187.626
887.2036, 3185.720
887.6857, 3179.204
888.1678, 3175.784
888.6499, 3182.955
889.1320, 3193.347
889.6141, 3197.076
890.0963, 3191.481
890.5784, 3186.286
891.0605, 3182.589
891.5426, 3178.130
892.0247, 3166.833
892.5068, 3152.643
892.9890, 3149.090
893.4711, 3159.186
893.9532, 3169.114
894.4353, 3166.941
894.9174, 3162.375
895.3995, 3164.266
895.8817, 3176.034
896.3638, 3182.012
896.8459, 3180.875
897.3280, 3176.510
897.8101, 3168.330
898.2922, 3158.343
898.7744, 3160.263
899.2565, 3173.045
899.7386, 3185.678
900.2207, 3191.908
900.7028, 3194.646
901.1849, 3195.172
901.6671, 3193.862
902.1492, 3192.803
902.6313, 3193.046
903.1134, 3192.128
903.5955, 3188.961
904.0776, 3184.560
904.5598, 3181.899
905.0419, 3180.767
905.5240, 3178.962
906.0062, 3174.333
906.4883, 3171.003
906.9704, 3175.152
907.4525, 3182.453
907.9346, 3185.941
908.4167, 3178.582
908.8989, 3174.726
909.3810, 3175.868
909.8631, 3180.100
910.3452, 3186.726
910.8273, 3195.276
911.3094, 3197.795
911.7916, 3192.650
912.2737, 3186.933
912.7558, 3186.196
913.2379, 3188.983
913.7200, 3194.023
914.2021, 3201.344
914.6843, 3209.812
915.1664, 3221.407
915.6485, 3231.485
916.1306, 3238.217
916.6127, 3241.508
917.0948, 3238.000
917.5770, 3227.708
918.0591, 3217.652
918.5412, 3210.839
919.0233, 3207.551
919.5054, 3209.084
919.9875, 3214.645
920.4697, 3220.989
920.9518, 3231.756
921.4339, 3237.126
921.9160, 3232.966
922.3981, 3223.299
922.8802, 3217.527
923.3624, 3215.655
923.8445, 3217.841
924.3266, 3226.132
924.8087, 3233.647
925.2908, 3231.104
925.7729, 3223.521
926.2551, 3218.388
926.7372, 3220.136
927.2193, 3219.919
927.7014, 3215.948
928.1835, 3210.712
928.6656, 3205.904
929.1478, 3201.569
929.6299, 3200.500
930.1120, 3203.071
930.5941, 3205.540
931.0762, 3204.571
931.5583, 3201.901
932.0405, 3198.413
932.5226, 3194.313
933.0047, 3193.034
933.4868, 3197.301
933.9689, 3202.146
934.4510, 3205.908
934.9332, 3208.796
935.4153, 3212.308
935.8974, 3216.319
936.3795, 3218.300
936.8616, 3215.098
937.3438, 3211.576
937.8259, 3214.746
938.3080, 3220.936
938.7901, 3222.768
939.2722, 3211.719
939.7543, 3205.349
940.2365, 3206.852
940.7186, 3212.140
941.2007, 3216.061
941.6828, 3218.708
942.1649, 3220.861
942.6470, 3222.621
943.1292, 3224.285
943.6113, 3225.991
944.0934, 3227.849
944.5755, 3230.604
945.0576, 3234.992
945.5397, 3235.988
946.0219, 3231.723
946.5040, 3226.717
946.9861, 3222.506
947.4682, 3219.455
947.9503, 3220.546
948.4324, 3225.438
948.9146, 3231.269
949.3967, 3238.903
949.8788, 3244.518
950.3609, 3242.666
950.8430, 3236.453
951.3251, 3235.533
951.8073, 3244.909
952.2894, 3251.451
952.7715, 3252.934
953.2536, 3251.323
953.7357, 3247.787
954.2179, 3243.669
954.7000, 3245.276
955.1821, 3255.058
955.6642, 3264.933
956.1464, 3270.181
956.6285, 3272.299
957.1106, 3271.567
957.5927, 3266.295
958.0748, 3267.253
958.5569, 3276.447
959.0391, 3286.426
959.5212, 3292.324
960.0033, 3295.175
960.4854, 3297.871
960.9675, 3300.288
961.4496, 3301.781
961.9318, 3301.635
962.4139, 3300.862
962.8960, 3298.361
963.3781, 3295.828
963.8602, 3298.089
964.3423, 3306.370
964.8245, 3314.842
965.3066, 3323.275
965.7887, 3329.295
966.2708, 3326.700
966.7529, 3319.973
967.2350, 3318.514
967.7172, 3326.554
968.1993, 3332.315
968.6814, 3326.555
969.1635, 3321.095
969.6456, 3325.797
970.1277, 3342.158
970.6099, 3346.794
971.0920, 3338.858
971.5741, 3329.852
972.0562, 3328.270
972.5383, 3329.779
973.0204, 3327.516
973.5026, 3323.063
973.9847, 3323.248
974.4668, 3337.105
974.9489, 3347.071
975.4310, 3348.711
975.9131, 3345.143
976.3953, 3341.588
976.8774, 3338.195
977.3595, 3337.883
977.8416, 3342.098
978.3237, 3346.203
978.8058, 3346.335
979.2880, 3343.896
979.7701, 3340.187
980.2522, 3334.958
980.7343, 3329.852
981.2164, 3324.087
981.6985, 3319.917
982.1807, 3319.531
982.6628, 3321.818
983.1449, 3322.508
983.6270, 3321.469
984.1091, 3317.997
984.5912, 3308.579
985.0734, 3299.727
985.5555, 3295.107
986.0376, 3293.816
986.5197, 3292.956
987.0018, 3292.548
987.4839, 3292.746
987.9661, 3294.059
988.4482, 3294.679
988.9303, 3290.944
989.4124, 3285.127
989.8945, 3281.597
990.3766, 3281.350
990.8588, 3282.164
991.3409, 3285.468
991.8230, 3287.392
992.3051, 3285.178
992.7872, 3279.091
993.2693, 3274.531
993.7515, 3271.466
994.2336, 3270.659
994.7157, 3274.103
995.1978, 3278.540
995.6799, 3279.548
996.1620, 3278.622
996.6442, 3279.292
997.1263, 3284.116
997.6084, 3288.561
998.0905, 3293.508
998.5726, 3296.120
999.0547, 3289.803
999.5369, 3276.843
1000.019, 3273.659
1000.501, 3282.713
1000.983, 3290.764
1001.465, 3287.244
1001.947, 3279.726
1002.430, 3272.973
1002.912, 3267.419
1003.394, 3265.532
1003.876, 3269.328
1004.358, 3269.822
1004.840, 3261.201
1005.322, 3250.074
1005.804, 3251.343
1006.287, 3260.418
1006.769, 3266.020
1007.251, 3262.679
1007.733, 3257.261
1008.215, 3247.533
1008.697, 3239.796
1009.179, 3241.045
1009.661, 3252.363
1010.143, 3260.264
1010.626, 3264.346
1011.108, 3265.205
1011.590, 3261.010
1012.072, 3255.642
1012.554, 3253.865
1013.036, 3255.154
1013.518, 3253.260
1014.000, 3241.391
1014.483, 3237.347
1014.965, 3249.478
1015.447, 3266.668
1015.929, 3261.286
1016.411, 3240.788
1016.893, 3234.407
1017.375, 3253.927
1017.857, 3272.628
1018.339, 3270.962
1018.822, 3263.386
1019.304, 3263.524
1019.786, 3273.366
1020.268, 3274.892
1020.750, 3266.332
1021.232, 3260.550
1021.714, 3269.978
1022.196, 3284.551
1022.679, 3288.607
1023.161, 3284.600
1023.643, 3279.504
1024.125, 3273.079
1024.607, 3269.442
1025.089, 3269.849
1025.571, 3272.524
1026.053, 3276.020
1026.535, 3279.923
1027.018, 3280.248
1027.500, 3276.308
1027.982, 3273.188
1028.464, 3275.862
1028.946, 3280.101
1029.428, 3282.763
1029.910, 3283.636
1030.392, 3284.249
1030.875, 3284.695
1031.357, 3284.419
1031.839, 3283.016
1032.321, 3281.032
1032.803, 3278.466
1033.285, 3276.229
1033.767, 3276.355
1034.249, 3279.771
1034.731, 3285.057
1035.214, 3296.021
1035.696, 3304.693
1036.178, 3303.286
1036.660, 3291.990
1037.142, 3288.068
1037.624, 3291.411
1038.106, 3295.322
1038.588, 3296.202
1039.071, 3295.176
1039.553, 3291.343
1040.035, 3286.291
1040.517, 3285.134
1040.999, 3289.175
1041.481, 3294.235
1041.963, 3300.306
1042.445, 3305.667
1042.927, 3307.304
1043.410, 3306.848
1043.892, 3307.243
1044.374, 3308.887
1044.856, 3311.784
1045.338, 3316.243
1045.820, 3321.744
1046.302, 3328.937
1046.784, 3336.838
1047.266, 3339.927
1047.749, 3338.527
1048.231, 3336.358
1048.713, 3334.882
1049.195, 3333.255
1049.677, 3329.464
1050.159, 3325.742
1050.641, 3325.411
1051.123, 3330.008
1051.606, 3334.563
1052.088, 3339.540
1052.570, 3342.997
1053.052, 3342.893
1053.534, 3340.584
1054.016, 3337.513
1054.498, 3334.301
1054.980, 3333.385
1055.463, 3338.372
1055.945, 3342.400
1056.427, 3343.751
1056.909, 3343.422
1057.391, 3343.081
1057.873, 3342.585
1058.355, 3340.563
1058.837, 3336.635
1059.319, 3333.003
1059.802, 3329.328
1060.284, 3328.361
1060.766, 3334.441
1061.248, 3346.885
1061.730, 3353.406
1062.212, 3353.300
1062.694, 3350.479
1063.176, 3344.402
1063.658, 3339.797
1064.141, 3346.693
1064.623, 3358.910
1065.105, 3365.799
1065.587, 3362.001
1066.069, 3357.919
1066.551, 3353.410
1067.033, 3350.692
1067.515, 3353.099
1067.998, 3358.837
1068.480, 3355.280
1068.962, 3344.820
1069.444, 3341.157
1069.926, 3362.780
1070.408, 3380.839
1070.890, 3376.934
1071.372, 3362.977
1071.854, 3356.996
1072.337, 3360.115
1072.819, 3360.917
1073.301, 3358.169
1073.783, 3354.686
1074.265, 3352.325
1074.747, 3351.180
1075.229, 3351.800
1075.711, 3354.072
1076.193, 3355.997
1076.676, 3358.093
1077.158, 3358.134
1077.640, 3355.116
1078.122, 3350.460
1078.604, 3345.518
1079.086, 3341.057
1079.568, 3339.161
1080.051, 3341.065
1080.533, 3342.015
1081.015, 3338.276
1081.497, 3335.375
1081.979, 3336.304
1082.461, 3340.518
1082.943, 3344.844
1083.425, 3349.262
1083.907, 3353.355
1084.390, 3359.061
1084.872, 3361.428
1085.354, 3353.619
1085.836, 3342.547
1086.318, 3337.178
1086.800, 3338.984
1087.282, 3340.769
1087.764, 3342.231
1088.246, 3344.935
1088.729, 3354.206
1089.211, 3362.373
1089.693, 3356.758
1090.175, 3341.565
1090.657, 3334.261
1091.139, 3342.674
1091.621, 3350.478
1092.103, 3356.460
1092.586, 3359.274
1093.068, 3354.242
1093.550, 3345.338
1094.032, 3342.921
1094.514, 3348.226
1094.996, 3351.283
1095.478, 3344.077
1095.960, 3338.015
1096.443, 3337.536
1096.925, 3341.178
1097.407, 3346.004
1097.889, 3351.486
1098.371, 3353.204
1098.853, 3349.068
1099.335, 3344.340
1099.817, 3343.639
1100.299, 3343.268
1100.781, 3338.439
1101.264, 3328.732
1101.746, 3329.230
1102.228, 3340.903
1102.710, 3349.510
1103.192, 3345.783
1103.674, 3338.332
1104.156, 3336.462
1104.638, 3337.853
1105.121, 3338.850
1105.603, 3340.538
1106.085, 3337.474
1106.567, 3327.687
1107.049, 3318.854
1107.531, 3318.306
1108.013, 3322.465
1108.495, 3324.409
1108.978, 3324.498
1109.460, 3324.791
1109.942, 3324.568
1110.424, 3326.997
1110.906, 3334.302
1111.388, 3341.987
1111.870, 3343.325
1112.352, 3339.785
1112.834, 3338.141
1113.317, 3338.856
1113.799, 3338.334
1114.281, 3332.919
1114.763, 3327.322
1115.245, 3322.865
1115.727, 3320.337
1116.209, 3323.459
1116.691, 3332.012
1117.173, 3336.771
1117.656, 3335.521
1118.138, 3331.912
1118.620, 3327.460
1119.102, 3323.290
1119.584, 3320.701
1120.066, 3319.659
1120.548, 3317.616
1121.030, 3314.265
1121.513, 3312.244
1121.995, 3313.396
1122.477, 3314.480
1122.959, 3309.810
1123.441, 3303.204
1123.923, 3300.042
1124.405, 3302.230
1124.887, 3306.143
1125.370, 3312.984
1125.852, 3317.965
1126.334, 3317.350
1126.816, 3313.672
1127.298, 3311.039
1127.780, 3309.789
1128.262, 3310.760
1128.744, 3319.496
1129.226, 3322.070
1129.709, 3313.552
1130.191, 3304.660
1130.673, 3306.004
1131.155, 3314.658
1131.637, 3319.993
1132.119, 3321.891
1132.601, 3321.366
1133.083, 3315.169
1133.566, 3311.265
1134.048, 3313.295
1134.530, 3318.003
1135.012, 3321.605
1135.494, 3324.100
1135.976, 3326.135
1136.458, 3327.768
1136.940, 3326.744
1137.422, 3317.773
1137.905, 3309.462
1138.387, 3309.294
1138.869, 3313.245
1139.351, 3309.639
1139.833, 3297.893
1140.315, 3294.082
1140.797, 3302.259
1141.279, 3310.248
1141.761, 3302.952
1142.244, 3293.924
1142.726, 3297.420
1143.208, 3312.770
1143.690, 3318.653
1144.172, 3313.252
1144.654, 3308.739
1145.136, 3309.057
1145.618, 3310.807
1146.101, 3310.035
1146.583, 3308.141
1147.065, 3306.483
1147.547, 3305.008
1148.029, 3306.418
1148.511, 3312.542
1148.993, 3315.115
1149.475, 3308.410
1149.958, 3299.177
1150.440, 3298.784
1150.922, 3303.970
1151.404, 3309.417
1151.886, 3316.868
1152.368, 3315.490
1152.850, 3300.093
1153.332, 3286.575
1153.814, 3286.113
1154.297, 3293.973
1154.779, 3301.309
1155.261, 3306.841
1155.743, 3306.640
1156.225, 3289.786
1156.707, 3281.731
1157.189, 3288.772
1157.671, 3299.428
1158.153, 3304.531
1158.636, 3305.012
1159.118, 3304.831
1159.600, 3303.747
1160.082, 3300.326
1160.564, 3287.387
1161.046, 3280.954
1161.528, 3290.352
1162.010, 3302.694
1162.493, 3300.493
1162.975, 3286.901
1163.457, 3285.308
1163.939, 3295.848
1164.421, 3304.099
1164.903, 3298.436
1165.385, 3292.135
1165.867, 3290.738
1166.349, 3292.544
1166.832, 3295.279
1167.314, 3298.896
1167.796, 3303.349
1168.278, 3308.675
1168.760, 3312.062
1169.242, 3311.376
1169.724, 3308.262
1170.206, 3301.714
1170.688, 3294.003
1171.171, 3290.697
1171.653, 3291.745
1172.135, 3294.813
1172.617, 3299.817
1173.099, 3303.844
1173.581, 3304.190
1174.063, 3302.834
1174.545, 3300.572
1175.028, 3297.854
1175.510, 3296.454
1175.992, 3296.368
1176.474, 3297.524
1176.956, 3300.192
1177.438, 3302.868
1177.920, 3304.787
1178.402, 3305.585
1178.885, 3303.870
1179.367, 3299.900
1179.849, 3300.624
1180.331, 3306.752
1180.813, 3309.643
1181.295, 3304.866
1181.777, 3299.592
1182.259, 3303.615
1182.741, 3309.886
1183.224, 3309.563
1183.706, 3301.143
1184.188, 3296.641
1184.670, 3296.435
1185.152, 3297.037
1185.634, 3295.908
1186.116, 3296.543
1186.598, 3306.591
1187.081, 3319.130
1187.563, 3324.038
1188.045, 3318.239
1188.527, 3312.844
1189.009, 3307.617
1189.491, 3304.253
1189.973, 3304.338
1190.455, 3305.990
1190.938, 3307.497
1191.420, 3308.766
1191.902, 3309.501
1192.384, 3308.859
1192.866, 3310.815
1193.348, 3316.334
1193.830, 3319.986
1194.312, 3316.063
1194.794, 3310.147
1195.276, 3308.552
1195.759, 3310.661
1196.241, 3315.723
1196.723, 3328.128
1197.205, 3331.688
1197.687, 3324.351
1198.169, 3316.318
1198.651, 3316.046
1199.133, 3319.325
1199.616, 3321.749
1200.098, 3323.063
1200.580, 3322.279
1201.062, 3314.648
1201.544, 3317.585
1202.026, 3334.556
1202.508, 3350.732
1202.990, 3351.924
1203.473, 3345.501
1203.955, 3338.326
1204.437, 3331.880
1204.919, 3330.243
1205.401, 3336.987
1205.883, 3341.271
1206.365, 3342.673
1206.847, 3340.083
1207.329, 3326.487
1207.812, 3312.487
1208.294, 3315.152
1208.776, 3330.376
1209.258, 3338.098
1209.740, 3333.128
1210.222, 3328.838
1210.704, 3326.564
1211.186, 3325.667
1211.668, 3324.924
1212.151, 3325.509
1212.633, 3330.470
1213.115, 3338.678
1213.597, 3342.829
1214.079, 3340.829
1214.561, 3339.438
1215.043, 3339.439
1215.525, 3340.804
1216.008, 3345.791
1216.490, 3350.550
1216.972, 3348.658
1217.454, 3341.221
1217.936, 3339.036
1218.418, 3344.616
1218.900, 3348.494
1219.382, 3349.070
1219.865, 3347.782
1220.347, 3345.247
1220.829, 3342.448
1221.311, 3339.743
1221.793, 3337.657
1222.275, 3339.579
1222.757, 3347.628
1223.239, 3350.872
1223.721, 3346.527
1224.203, 3340.289
1224.686, 3337.784
1225.168, 3337.083
1225.650, 3335.436
1226.132, 3333.268
1226.614, 3336.194
1227.096, 3345.843
1227.578, 3351.265
1228.061, 3349.323
1228.543, 3346.448
1229.025, 3351.055
1229.507, 3356.788
1229.989, 3356.047
1230.471, 3349.563
1230.953, 3348.619
1231.435, 3353.784
1231.917, 3359.423
1232.400, 3364.520
1232.882, 3368.366
1233.364, 3372.251
1233.846, 3373.070
1234.328, 3364.492
1234.810, 3349.294
1235.292, 3345.604
1235.774, 3354.014
1236.256, 3362.439
1236.739, 3368.805
1237.221, 3370.294
1237.703, 3356.325
1238.185, 3343.561
1238.667, 3349.689
1239.149, 3369.242
1239.631, 3378.742
1240.113, 3378.313
1240.596, 3373.109
1241.078, 3363.071
1241.560, 3356.061
1242.042, 3360.993
1242.524, 3368.221
1243.006, 3371.222
1243.488, 3370.988
1243.970, 3371.471
1244.453, 3372.533
1244.935, 3373.782
1245.417, 3375.632
1245.899, 3374.493
1246.381, 3362.592
1246.863, 3353.138
1247.345, 3353.839
1247.827, 3361.863
1248.309, 3370.182
1248.792, 3377.825
1249.274, 3379.052
1249.756, 3370.974
1250.238, 3366.568
1250.720, 3377.363
1251.202, 3387.078
1251.684, 3388.566
1252.166, 3384.753
1252.648, 3382.231
1253.131, 3380.823
1253.613, 3380.315
1254.095, 3380.917
1254.577, 3380.291
1255.059, 3374.899
1255.541, 3372.509
1256.023, 3376.938
1256.505, 3384.555
1256.988, 3388.134
1257.470, 3389.068
1257.952, 3390.619
1258.434, 3390.824
1258.916, 3393.969
1259.398, 3388.986
1259.880, 3384.364
1260.362, 3381.466
1260.844, 3380.863
1261.327, 3385.932
1261.809, 3392.762
1262.291, 3394.020
1262.773, 3399.075
1263.255, 3389.079
1263.737, 3402.199
1264.219, 3409.656
1264.701, 3403.880
1265.183, 3395.659
1265.666, 3399.411
1266.148, 3407.967
1266.630, 3413.494
1267.112, 3414.933
1267.594, 3413.503
1268.076, 3408.412
1268.558, 3406.764
1269.040, 3411.342
1269.523, 3417.168
1270.005, 3420.731
1270.487, 3422.310
1270.969, 3421.895
1271.451, 3419.733
1271.933, 3415.069
1272.415, 3408.047
1272.897, 3405.001
1273.380, 3407.999
1273.862, 3412.198
1274.344, 3415.565
1274.826, 3417.300
1275.308, 3415.509
1275.790, 3412.404
1276.272, 3417.788
1276.754, 3429.180
1277.236, 3432.227
1277.719, 3423.138
1278.201, 3413.528
1278.683, 3408.277
1279.165, 3405.639
1279.647, 3405.639
1280.129, 3406.742
1280.611, 3404.958
1281.093, 3401.665
1281.576, 3400.968
1282.058, 3403.643
1282.540, 3405.628
1283.022, 3404.516
1283.504, 3404.852
1283.986, 3408.512
1284.468, 3412.579
1284.950, 3411.165
1285.432, 3407.706
1285.915, 3408.841
1286.397, 3415.043
1286.879, 3416.118
1287.361, 3407.305
1287.843, 3408.317
1288.325, 3426.331
1288.807, 3444.133
1289.289, 3437.737
1289.771, 3423.718
1290.254, 3419.964
1290.736, 3426.103
1291.218, 3429.002
1291.700, 3428.433
1292.182, 3425.702
1292.664, 3420.638
1293.146, 3417.424
1293.628, 3421.002
1294.111, 3426.289
1294.593, 3431.475
1295.075, 3435.025
1295.557, 3431.768
1296.039, 3422.722
1296.521, 3420.132
1297.003, 3425.587
1297.485, 3430.633
1297.968, 3429.639
1298.450, 3426.460
1298.932, 3420.809
1299.414, 3416.483
1299.896, 3421.609
1300.378, 3432.520
1300.860, 3437.652
1301.342, 3436.434
1301.824, 3433.544
##END=



