##NAMES=Ferrierite-Mg
##RRUFFID=R070118
##IDEAL CHEMISTRY=[Mg_2_(K,Na)_2_Ca_0.5_](Si_29_Al_7_)O_72_&#183;18H_2_O
##LOCALITY=Monastir, near Cagliari, Sardinia, Italy
##OWNER=RRUFF
##SOURCE=Michael Scott
##DESCRIPTION=Pale tan colored fibrous radiating crystals associated with hematite
##STATUS=The identification of this mineral is confirmed by single-crystal X-ray diffraction and chemical analysis.
##URL=rruff.info/R070118
##MEASURED CHEMISTRY=(Ca_0.15_Na_0.01_)(K_0.93_Na_0.07_)_Σ=1_(Mg_1.80_K_0.20_)_Σ=2_Ca_0.50_(Si_29.89_Al_6.11_)_Σ=36_O_72_·20.71H_2_O ; H_2_O estimated by difference
161.8078, 8267.897
162.2899, 8398.040
162.7720, 8581.193
163.2542, 8699.978
163.7363, 8704.385
164.2184, 8674.726
164.7005, 8676.516
165.1826, 8713.163
165.6647, 8753.933
166.1469, 8778.001
166.6290, 8786.562
167.1111, 8789.498
167.5932, 8788.068
168.0753, 8781.116
168.5574, 8763.379
169.0396, 8733.940
169.5217, 8709.660
170.0038, 8713.872
170.4859, 8732.231
170.9680, 8724.630
171.4501, 8662.384
171.9323, 8583.749
172.4144, 8528.409
172.8965, 8497.849
173.3786, 8478.861
173.8607, 8470.963
174.3428, 8468.192
174.8250, 8459.196
175.3071, 8439.488
175.7892, 8414.034
176.2713, 8385.448
176.7534, 8351.652
177.2355, 8327.026
177.7177, 8323.740
178.1998, 8334.392
178.6819, 8351.967
179.1640, 8385.074
179.6461, 8414.237
180.1282, 8405.371
180.6103, 8349.391
181.0925, 8302.958
181.5746, 8312.518
182.0567, 8342.976
182.5388, 8354.758
183.0209, 8331.769
183.5030, 8294.662
183.9852, 8267.524
184.4673, 8249.413
184.9494, 8245.297
185.4315, 8270.146
185.9136, 8305.576
186.3957, 8335.950
186.8779, 8357.778
187.3600, 8371.684
187.8421, 8375.331
188.3242, 8365.572
188.8063, 8360.223
189.2884, 8379.631
189.7706, 8399.901
190.2527, 8395.718
190.7348, 8356.166
191.2169, 8309.906
191.6990, 8298.073
192.1811, 8328.647
192.6633, 8355.210
193.1454, 8356.883
193.6275, 8352.787
194.1096, 8356.427
194.5917, 8371.143
195.0738, 8391.427
195.5560, 8413.794
196.0381, 8440.644
196.5202, 8456.360
197.0023, 8443.327
197.4844, 8426.015
197.9665, 8420.859
198.4487, 8430.943
198.9308, 8445.027
199.4129, 8450.554
199.8950, 8446.521
200.3771, 8440.482
200.8592, 8424.567
201.3414, 8413.449
201.8235, 8420.821
202.3056, 8446.460
202.7877, 8471.332
203.2698, 8472.353
203.7519, 8445.981
204.2341, 8424.783
204.7162, 8414.978
205.1983, 8409.349
205.6804, 8407.254
206.1625, 8407.355
206.6446, 8404.867
207.1267, 8391.008
207.6089, 8363.878
208.0910, 8351.527
208.5731, 8378.146
209.0552, 8398.950
209.5373, 8389.847
210.0194, 8355.173
210.5016, 8316.125
210.9837, 8290.539
211.4658, 8278.334
211.9479, 8260.878
212.4300, 8224.746
212.9121, 8198.134
213.3943, 8201.050
213.8764, 8223.094
214.3585, 8237.646
214.8406, 8218.944
215.3227, 8172.934
215.8048, 8157.701
216.2870, 8199.933
216.7691, 8240.498
217.2512, 8256.265
217.7333, 8255.515
218.2154, 8254.782
218.6975, 8266.541
219.1797, 8284.771
219.6618, 8280.925
220.1439, 8232.203
220.6260, 8196.509
221.1081, 8200.381
221.5902, 8223.455
222.0724, 8238.288
222.5545, 8229.817
223.0366, 8207.942
223.5187, 8200.589
224.0008, 8219.889
224.4829, 8229.563
224.9651, 8217.735
225.4472, 8194.129
225.9293, 8168.271
226.4114, 8143.721
226.8935, 8117.783
227.3756, 8081.836
227.8578, 8026.568
228.3399, 7987.326
228.8220, 7972.442
229.3041, 7974.805
229.7862, 7997.842
230.2683, 8042.112
230.7505, 8084.924
231.2326, 8090.810
231.7147, 8049.054
232.1968, 8015.856
232.6789, 8011.662
233.1610, 8010.655
233.6432, 7996.438
234.1253, 7967.488
234.6074, 7935.840
235.0895, 7912.636
235.5716, 7898.061
236.0537, 7890.071
236.5358, 7889.507
237.0180, 7895.557
237.5001, 7913.782
237.9822, 7940.710
238.4643, 7961.848
238.9464, 7961.162
239.4285, 7939.723
239.9107, 7927.150
240.3928, 7932.958
240.8749, 7936.698
241.3570, 7926.442
241.8391, 7906.358
242.3212, 7887.053
242.8034, 7874.661
243.2855, 7868.307
243.7676, 7863.974
244.2497, 7860.165
244.7318, 7861.555
245.2139, 7871.353
245.6961, 7886.589
246.1782, 7905.551
246.6603, 7934.771
247.1424, 7959.406
247.6245, 7939.005
248.1066, 7851.761
248.5888, 7783.183
249.0709, 7782.003
249.5530, 7810.560
250.0351, 7834.944
250.5172, 7846.864
250.9993, 7847.167
251.4815, 7831.028
251.9636, 7794.790
252.4457, 7769.444
252.9278, 7773.564
253.4099, 7788.004
253.8920, 7795.146
254.3742, 7791.698
254.8563, 7792.165
255.3384, 7817.446
255.8205, 7865.230
256.3026, 7893.520
256.7847, 7886.145
257.2668, 7862.859
257.7490, 7835.904
258.2311, 7806.486
258.7132, 7789.794
259.1953, 7810.952
259.6774, 7854.847
260.1595, 7861.867
260.6417, 7808.122
261.1238, 7749.081
261.6059, 7731.055
262.0880, 7744.727
262.5701, 7763.551
263.0522, 7788.211
263.5344, 7808.105
264.0165, 7797.257
264.4986, 7747.262
264.9807, 7703.246
265.4628, 7705.434
265.9449, 7735.658
266.4271, 7756.384
266.9092, 7754.948
267.3913, 7746.223
267.8734, 7741.107
268.3555, 7739.774
268.8376, 7749.337
269.3198, 7784.251
269.8019, 7826.354
270.2840, 7836.030
270.7661, 7797.236
271.2482, 7754.792
271.7303, 7728.978
272.2125, 7719.798
272.6946, 7732.934
273.1767, 7780.297
273.6588, 7834.802
274.1409, 7846.973
274.6230, 7811.298
275.1052, 7774.157
275.5873, 7741.837
276.0694, 7719.313
276.5515, 7717.377
277.0336, 7739.606
277.5157, 7771.884
277.9979, 7801.479
278.4800, 7829.411
278.9621, 7841.851
279.4442, 7823.116
279.9263, 7797.838
280.4084, 7788.113
280.8906, 7794.769
281.3727, 7804.107
281.8548, 7804.303
282.3369, 7795.951
282.8190, 7798.013
283.3011, 7823.639
283.7833, 7845.588
284.2654, 7846.111
284.7475, 7832.275
285.2296, 7823.437
285.7117, 7830.708
286.1938, 7849.515
286.6760, 7862.274
287.1581, 7867.864
287.6402, 7869.349
288.1223, 7864.348
288.6044, 7856.493
289.0865, 7850.157
289.5687, 7846.828
290.0508, 7844.972
290.5329, 7841.696
291.0150, 7833.969
291.4971, 7831.191
291.9792, 7836.406
292.4614, 7843.938
292.9435, 7850.031
293.4256, 7854.189
293.9077, 7857.620
294.3898, 7861.139
294.8719, 7864.210
295.3541, 7871.562
295.8362, 7888.385
296.3183, 7904.006
296.8004, 7922.104
297.2825, 7935.924
297.7646, 7929.527
298.2468, 7888.380
298.7289, 7823.787
299.2110, 7795.458
299.6931, 7830.285
300.1752, 7866.995
300.6573, 7907.658
301.1395, 7938.775
301.6216, 7939.870
302.1037, 7902.901
302.5858, 7853.812
303.0679, 7839.469
303.5500, 7871.659
304.0321, 7902.530
304.5143, 7932.961
304.9964, 7955.003
305.4785, 7956.479
305.9606, 7939.490
306.4427, 7925.706
306.9248, 7943.131
307.4070, 7990.252
307.8891, 8011.413
308.3712, 7986.820
308.8533, 7957.705
309.3354, 7948.022
309.8175, 7951.406
310.2997, 7951.865
310.7818, 7939.089
311.2639, 7919.279
311.7460, 7903.923
312.2281, 7891.893
312.7102, 7888.494
313.1924, 7902.660
313.6745, 7925.175
314.1566, 7946.015
314.6387, 7964.823
315.1208, 7978.401
315.6029, 7983.560
316.0851, 7980.717
316.5672, 7972.221
317.0493, 7956.321
317.5314, 7937.980
318.0135, 7922.647
318.4956, 7909.732
318.9778, 7902.299
319.4599, 7901.131
319.9420, 7906.249
320.4241, 7922.098
320.9062, 7950.903
321.3883, 7974.679
321.8705, 7974.057
322.3526, 7948.833
322.8347, 7927.601
323.3168, 7908.929
323.7989, 7896.797
324.2810, 7895.069
324.7632, 7902.795
325.2453, 7917.956
325.7274, 7942.192
326.2095, 7970.313
326.6916, 7978.815
327.1737, 7952.154
327.6559, 7928.155
328.1380, 7910.666
328.6201, 7900.729
329.1022, 7899.910
329.5843, 7908.645
330.0664, 7925.968
330.5486, 7952.411
331.0307, 7999.319
331.5128, 8024.818
331.9949, 8017.224
332.4770, 8000.633
332.9591, 7990.070
333.4413, 7984.420
333.9234, 7971.964
334.4055, 7940.229
334.8876, 7890.836
335.3697, 7863.795
335.8518, 7878.562
336.3340, 7894.711
336.8161, 7896.675
337.2982, 7897.435
337.7803, 7921.706
338.2624, 7982.243
338.7445, 8048.690
339.2267, 8053.959
339.7088, 7968.405
340.1909, 7915.413
340.6730, 7958.725
341.1551, 8010.851
341.6372, 8010.449
342.1194, 7956.012
342.6015, 7900.525
343.0836, 7894.954
343.5657, 7930.601
344.0478, 7946.430
344.5299, 7932.065
345.0121, 7910.117
345.4942, 7887.801
345.9763, 7869.093
346.4584, 7864.872
346.9405, 7897.059
347.4226, 7929.576
347.9048, 7902.112
348.3869, 7815.288
348.8690, 7760.914
349.3511, 7797.642
349.8332, 7876.980
350.3153, 7902.942
350.7975, 7855.297
351.2796, 7816.235
351.7617, 7837.079
352.2438, 7886.470
352.7259, 7910.231
353.2080, 7895.937
353.6902, 7859.934
354.1723, 7815.683
354.6544, 7760.141
355.1365, 7720.270
355.6186, 7703.565
356.1007, 7695.755
356.5829, 7687.478
357.0650, 7680.040
357.5471, 7681.681
358.0292, 7699.269
358.5113, 7726.835
358.9934, 7736.923
359.4755, 7706.430
359.9576, 7686.340
360.4398, 7691.767
360.9219, 7703.855
361.4040, 7698.840
361.8861, 7672.679
362.3682, 7646.940
362.8503, 7656.301
363.3325, 7718.274
363.8146, 7742.395
364.2967, 7692.277
364.7788, 7637.975
365.2609, 7598.915
365.7430, 7577.191
366.2252, 7573.698
366.7073, 7595.203
367.1894, 7628.705
367.6715, 7631.062
368.1536, 7566.947
368.6357, 7597.924
369.1179, 7616.449
369.6000, 7623.191
370.0821, 7582.858
370.5642, 7603.313
371.0463, 7599.407
371.5284, 7594.502
372.0106, 7623.512
372.4927, 7590.027
372.9748, 7618.499
373.4569, 7622.239
373.9390, 7637.298
374.4211, 7627.846
374.9033, 7625.966
375.3854, 7648.604
375.8675, 7657.665
376.3496, 7645.392
376.8317, 7661.171
377.3138, 7668.267
377.7960, 7657.399
378.2781, 7617.714
378.7602, 7607.454
379.2423, 7643.899
379.7244, 7673.609
380.2065, 7685.667
380.6887, 7684.278
381.1708, 7668.424
381.6529, 7639.896
382.1350, 7614.681
382.6171, 7612.777
383.0992, 7640.200
383.5814, 7655.771
384.0635, 7655.856
384.5456, 7649.855
385.0277, 7635.395
385.5098, 7618.230
385.9919, 7609.051
386.4741, 7614.218
386.9562, 7626.917
387.4383, 7627.419
387.9204, 7604.369
388.4025, 7595.132
388.8846, 7616.700
389.3668, 7644.137
389.8489, 7661.156
390.3310, 7666.143
390.8131, 7667.950
391.2952, 7672.774
391.7773, 7680.471
392.2595, 7691.503
392.7416, 7710.081
393.2237, 7723.164
393.7058, 7710.460
394.1879, 7689.721
394.6700, 7692.648
395.1522, 7740.541
395.6343, 7792.104
396.1164, 7806.343
396.5985, 7791.127
397.0806, 7784.745
397.5627, 7802.216
398.0449, 7826.875
398.5270, 7831.820
399.0091, 7814.307
399.4912, 7803.051
399.9733, 7806.367
400.4554, 7814.854
400.9376, 7819.704
401.4197, 7821.433
401.9018, 7826.091
402.3839, 7837.472
402.8660, 7855.553
403.3481, 7879.681
403.8303, 7919.958
404.3124, 7953.769
404.7945, 7978.393
405.2766, 7995.374
405.7587, 8005.573
406.2408, 8009.493
406.7230, 8008.201
407.2051, 7998.586
407.6872, 7976.343
408.1693, 7978.461
408.6514, 8032.133
409.1335, 8081.480
409.6157, 8101.072
410.0978, 8102.848
410.5799, 8109.882
411.0620, 8134.409
411.5441, 8165.096
412.0262, 8180.533
412.5083, 8178.767
412.9904, 8190.175
413.4726, 8235.827
413.9547, 8286.166
414.4368, 8304.146
414.9189, 8289.185
415.4010, 8285.601
415.8831, 8325.541
416.3653, 8380.556
416.8474, 8413.046
417.3295, 8420.211
417.8116, 8413.463
418.2937, 8394.147
418.7758, 8368.264
419.2580, 8367.610
419.7401, 8410.844
420.2222, 8452.021
420.7043, 8479.232
421.1864, 8498.706
421.6685, 8518.285
422.1507, 8539.700
422.6328, 8558.166
423.1149, 8566.938
423.5970, 8563.611
424.0791, 8565.661
424.5612, 8589.977
425.0434, 8601.745
425.5255, 8576.917
426.0076, 8535.313
426.4897, 8508.374
426.9718, 8511.287
427.4539, 8532.491
427.9361, 8553.985
428.4182, 8575.958
428.9003, 8597.154
429.3824, 8623.037
429.8645, 8642.198
430.3466, 8642.398
430.8288, 8626.652
431.3109, 8614.073
431.7930, 8620.092
432.2751, 8631.679
432.7572, 8624.892
433.2393, 8599.563
433.7215, 8581.713
434.2036, 8586.438
434.6857, 8606.292
435.1678, 8623.505
435.6499, 8645.959
436.1320, 8649.867
436.6142, 8605.211
437.0963, 8551.831
437.5784, 8540.071
438.0605, 8573.494
438.5426, 8615.022
439.0247, 8632.567
439.5069, 8626.292
439.9890, 8613.161
440.4711, 8581.518
440.9532, 8556.457
441.4353, 8543.462
441.9174, 8538.991
442.3996, 8542.782
442.8817, 8553.755
443.3638, 8561.109
443.8459, 8548.820
444.3280, 8515.693
444.8102, 8484.376
445.2923, 8453.006
445.7744, 8428.520
446.2565, 8415.769
446.7386, 8411.698
447.2207, 8411.669
447.7029, 8422.704
448.1850, 8425.092
448.6671, 8386.334
449.1492, 8315.877
449.6313, 8268.351
450.1134, 8265.389
450.5956, 8281.137
451.0777, 8283.162
451.5598, 8271.481
452.0419, 8247.744
452.5240, 8203.737
453.0061, 8154.505
453.4883, 8106.107
453.9704, 8061.167
454.4525, 8025.255
454.9346, 8002.080
455.4167, 7986.875
455.8988, 7966.404
456.3810, 7936.479
456.8631, 7908.589
457.3452, 7882.845
457.8273, 7859.163
458.3094, 7839.994
458.7915, 7823.589
459.2737, 7802.756
459.7558, 7767.137
460.2379, 7725.943
460.7200, 7714.913
461.2021, 7745.999
461.6842, 7762.940
462.1664, 7737.423
462.6485, 7690.852
463.1306, 7644.741
463.6127, 7599.859
464.0948, 7560.743
464.5769, 7533.777
465.0591, 7512.156
465.5412, 7486.211
466.0233, 7454.735
466.5054, 7417.527
466.9875, 7370.836
467.4696, 7318.799
467.9517, 7287.144
468.4338, 7295.563
468.9160, 7295.994
469.3981, 7273.906
469.8802, 7243.589
470.3623, 7218.550
470.8444, 7201.680
471.3265, 7189.917
471.8087, 7183.391
472.2908, 7181.607
472.7729, 7156.878
473.2550, 7079.200
473.7371, 7023.588
474.2192, 7037.561
474.7014, 7071.306
475.1835, 7061.060
475.6656, 6987.714
476.1477, 6911.278
476.6298, 6890.891
477.1119, 6912.512
477.5941, 6924.716
478.0762, 6921.165
478.5583, 6907.330
479.0404, 6883.922
479.5225, 6852.720
480.0046, 6825.285
480.4868, 6797.847
480.9689, 6778.556
481.4510, 6776.110
481.9331, 6782.188
482.4152, 6786.871
482.8973, 6786.855
483.3795, 6777.701
483.8616, 6750.333
484.3437, 6699.625
484.8258, 6678.098
485.3079, 6732.913
485.7900, 6765.457
486.2722, 6733.463
486.7543, 6673.144
487.2364, 6634.972
487.7185, 6635.915
488.2006, 6645.652
488.6827, 6622.473
489.1649, 6570.380
489.6470, 6545.115
490.1291, 6564.835
490.6112, 6585.888
491.0933, 6565.782
491.5754, 6522.648
492.0576, 6501.806
492.5397, 6526.149
493.0218, 6553.370
493.5039, 6561.483
493.9860, 6555.031
494.4681, 6539.571
494.9503, 6516.678
495.4324, 6494.044
495.9145, 6479.379
496.3966, 6472.228
496.8787, 6477.530
497.3608, 6515.279
497.8430, 6541.712
498.3251, 6542.339
498.8072, 6525.929
499.2893, 6499.881
499.7714, 6467.480
500.2535, 6439.533
500.7357, 6434.681
501.2178, 6452.085
501.6999, 6453.525
502.1820, 6429.003
502.6641, 6403.054
503.1462, 6387.598
503.6284, 6381.586
504.1105, 6386.289
504.5926, 6410.229
505.0747, 6429.161
505.5568, 6420.687
506.0389, 6398.538
506.5211, 6391.757
507.0032, 6406.242
507.4853, 6421.607
507.9674, 6416.086
508.4495, 6389.425
508.9316, 6379.042
509.4138, 6402.292
509.8959, 6419.749
510.3780, 6424.182
510.8601, 6418.046
511.3422, 6398.849
511.8243, 6368.548
512.3065, 6343.257
512.7886, 6347.324
513.2707, 6376.866
513.7528, 6379.395
514.2349, 6341.454
514.7170, 6308.547
515.1992, 6313.182
515.6813, 6332.623
516.1634, 6335.549
516.6455, 6314.194
517.1276, 6292.505
517.6097, 6281.635
518.0919, 6278.471
518.5740, 6280.240
519.0561, 6286.032
519.5382, 6291.777
520.0203, 6294.308
520.5024, 6294.438
520.9846, 6296.797
521.4667, 6309.302
521.9488, 6313.477
522.4309, 6301.428
522.9130, 6285.641
523.3951, 6278.377
523.8773, 6278.582
524.3594, 6273.994
524.8415, 6252.938
525.3236, 6221.651
525.8057, 6197.101
526.2878, 6177.665
526.7700, 6175.110
527.2521, 6204.025
527.7342, 6243.263
528.2163, 6268.267
528.6984, 6278.799
529.1805, 6278.881
529.6627, 6268.369
530.1448, 6248.940
530.6269, 6209.121
531.1090, 6159.453
531.5911, 6138.000
532.0732, 6165.045
532.5554, 6219.236
533.0375, 6257.714
533.5196, 6276.277
534.0017, 6287.423
534.4838, 6288.998
534.9659, 6285.945
535.4481, 6275.646
535.9302, 6263.050
536.4123, 6258.447
536.8944, 6268.339
537.3765, 6281.619
537.8586, 6281.438
538.3408, 6269.343
538.8229, 6262.537
539.3050, 6264.695
539.7871, 6271.394
540.2692, 6278.173
540.7513, 6285.835
541.2335, 6299.886
541.7156, 6330.712
542.1977, 6356.509
542.6798, 6375.608
543.1619, 6381.441
543.6440, 6356.730
544.1262, 6301.255
544.6083, 6243.500
545.0904, 6212.780
545.5725, 6208.577
546.0546, 6214.540
546.5367, 6235.285
547.0189, 6258.958
547.5010, 6295.515
547.9831, 6325.351
548.4652, 6323.663
548.9473, 6287.122
549.4294, 6249.400
549.9115, 6228.026
550.3936, 6220.469
550.8757, 6226.105
551.3578, 6243.980
551.8400, 6263.578
552.3221, 6282.112
552.8042, 6294.489
553.2863, 6288.009
553.7684, 6246.266
554.2505, 6216.961
554.7327, 6210.129
555.2148, 6206.785
555.6969, 6193.046
556.1790, 6173.673
556.6611, 6161.410
557.1432, 6162.875
557.6254, 6173.548
558.1075, 6190.544
558.5896, 6215.061
559.0717, 6221.572
559.5538, 6198.159
560.0359, 6169.834
560.5181, 6157.352
561.0002, 6155.231
561.4823, 6148.973
561.9644, 6133.065
562.4465, 6116.979
562.9286, 6107.615
563.4108, 6100.363
563.8929, 6086.343
564.3750, 6064.834
564.8571, 6044.894
565.3392, 6034.597
565.8214, 6033.643
566.3035, 6039.715
566.7856, 6061.855
567.2677, 6075.959
567.7498, 6071.315
568.2319, 6062.521
568.7141, 6065.799
569.1962, 6079.528
569.6783, 6081.954
570.1604, 6048.116
570.6425, 6001.568
571.1246, 5978.011
571.6068, 5975.667
572.0889, 5980.292
572.5710, 5988.587
573.0531, 5995.581
573.5352, 5993.616
574.0173, 5980.261
574.4995, 5967.214
574.9816, 5947.324
575.4637, 5935.480
575.9458, 5947.746
576.4279, 5968.436
576.9100, 5971.810
577.3922, 5950.133
577.8743, 5923.337
578.3564, 5912.601
578.8385, 5917.146
579.3206, 5933.834
579.8027, 5969.243
580.2849, 5995.072
580.7670, 5995.763
581.2491, 5976.871
581.7312, 5948.480
582.2133, 5901.772
582.6954, 5873.493
583.1776, 5888.663
583.6597, 5915.617
584.1418, 5927.371
584.6239, 5924.235
585.1060, 5917.797
585.5881, 5914.654
586.0703, 5910.164
586.5524, 5889.702
587.0345, 5843.200
587.5166, 5822.348
587.9987, 5850.500
588.4808, 5882.026
588.9630, 5892.314
589.4451, 5888.850
589.9272, 5887.306
590.4093, 5892.056
590.8914, 5898.521
591.3735, 5908.769
591.8557, 5916.955
592.3378, 5910.164
592.8199, 5887.444
593.3020, 5860.542
593.7841, 5836.754
594.2662, 5817.741
594.7484, 5813.217
595.2305, 5837.234
595.7126, 5852.400
596.1947, 5853.813
596.6768, 5848.713
597.1589, 5841.218
597.6411, 5831.298
598.1232, 5816.156
598.6053, 5790.072
599.0874, 5765.577
599.5695, 5764.754
600.0516, 5781.437
600.5338, 5782.671
601.0159, 5758.395
601.4980, 5735.217
601.9801, 5741.550
602.4622, 5775.494
602.9443, 5786.464
603.4265, 5754.668
603.9086, 5728.207
604.3907, 5714.114
604.8728, 5709.408
605.3549, 5714.354
605.8370, 5726.473
606.3192, 5738.354
606.8013, 5746.061
607.2834, 5748.652
607.7655, 5741.105
608.2476, 5723.263
608.7297, 5710.301
609.2119, 5707.013
609.6940, 5708.721
610.1761, 5712.250
610.6582, 5717.551
611.1403, 5717.640
611.6224, 5710.412
612.1046, 5700.196
612.5867, 5685.291
613.0688, 5648.425
613.5509, 5673.317
614.0330, 5685.757
614.5151, 5686.414
614.9973, 5639.996
615.4794, 5654.365
615.9615, 5644.374
616.4436, 5633.384
616.9257, 5656.309
617.4078, 5616.738
617.8900, 5639.124
618.3721, 5636.779
618.8542, 5645.753
619.3363, 5630.216
619.8184, 5622.250
620.3005, 5638.803
620.7827, 5641.778
621.2648, 5623.420
621.7469, 5633.113
622.2290, 5592.687
622.7111, 5596.241
623.1932, 5618.772
623.6754, 5601.645
624.1575, 5597.828
624.6396, 5645.382
625.1217, 5668.895
625.6038, 5628.015
626.0859, 5571.506
626.5681, 5550.396
627.0502, 5563.285
627.5323, 5575.929
628.0144, 5579.809
628.4965, 5579.999
628.9786, 5577.499
629.4608, 5574.395
629.9429, 5574.519
630.4250, 5578.800
630.9071, 5585.498
631.3892, 5594.804
631.8713, 5605.354
632.3535, 5599.029
632.8356, 5567.054
633.3177, 5538.599
633.7998, 5522.163
634.2819, 5512.891
634.7640, 5506.515
635.2462, 5503.028
635.7283, 5504.230
636.2104, 5521.167
636.6925, 5533.006
637.1746, 5515.108
637.6567, 5482.900
638.1389, 5468.735
638.6210, 5480.750
639.1031, 5501.890
639.5852, 5515.583
640.0673, 5521.995
640.5494, 5521.323
641.0316, 5505.583
641.5137, 5500.951
641.9958, 5531.577
642.4779, 5562.693
642.9600, 5561.043
643.4421, 5529.445
643.9243, 5502.941
644.4064, 5502.243
644.8885, 5501.495
645.3706, 5474.706
645.8527, 5436.389
646.3348, 5411.918
646.8170, 5408.134
647.2991, 5424.063
647.7812, 5464.314
648.2633, 5522.100
648.7454, 5542.164
649.2275, 5508.683
649.7097, 5477.486
650.1918, 5460.590
650.6739, 5451.055
651.1560, 5445.406
651.6381, 5442.861
652.1202, 5439.934
652.6024, 5434.378
653.0845, 5429.504
653.5666, 5432.135
654.0487, 5434.991
654.5308, 5419.015
655.0129, 5384.939
655.4951, 5362.769
655.9772, 5379.300
656.4593, 5425.662
656.9414, 5469.076
657.4235, 5518.044
657.9056, 5534.427
658.3878, 5488.961
658.8699, 5433.621
659.3519, 5406.918
659.8340, 5402.540
660.3162, 5398.969
660.7983, 5391.783
661.2804, 5384.922
661.7625, 5378.364
662.2446, 5374.279
662.7267, 5377.330
663.2089, 5386.466
663.6910, 5395.648
664.1731, 5401.332
664.6552, 5402.210
665.1373, 5391.717
665.6194, 5366.411
666.1016, 5354.777
666.5837, 5370.406
667.0658, 5383.609
667.5479, 5364.958
668.0300, 5329.733
668.5121, 5315.147
668.9943, 5333.771
669.4764, 5352.709
669.9585, 5366.804
670.4406, 5372.780
670.9227, 5361.985
671.4048, 5340.278
671.8870, 5324.229
672.3691, 5322.438
672.8512, 5327.205
673.3333, 5321.715
673.8154, 5306.890
674.2975, 5321.055
674.7797, 5380.114
675.2618, 5422.357
675.7439, 5403.707
676.2260, 5352.114
676.7081, 5330.561
677.1902, 5350.852
677.6724, 5358.653
678.1545, 5340.683
678.6366, 5314.484
679.1187, 5277.039
679.6008, 5242.903
680.0829, 5239.986
680.5651, 5275.841
681.0472, 5316.571
681.5293, 5323.717
682.0114, 5307.027
682.4935, 5302.159
682.9756, 5310.146
683.4578, 5319.038
683.9399, 5326.800
684.4220, 5327.662
684.9041, 5310.887
685.3862, 5272.000
685.8683, 5244.817
686.3505, 5236.180
686.8326, 5230.004
687.3147, 5218.620
687.7968, 5209.501
688.2789, 5213.762
688.7610, 5230.440
689.2432, 5244.628
689.7253, 5246.968
690.2074, 5241.435
690.6895, 5231.745
691.1716, 5218.894
691.6537, 5172.722
692.1359, 5206.005
692.6180, 5223.101
693.1001, 5224.879
693.5822, 5165.461
694.0643, 5185.066
694.5464, 5173.001
695.0286, 5159.638
695.5107, 5190.365
695.9928, 5139.847
696.4749, 5169.875
696.9570, 5167.750
697.4391, 5180.341
697.9213, 5161.066
698.4034, 5151.634
698.8855, 5174.077
699.3676, 5178.870
699.8497, 5155.929
700.3318, 5169.455
700.8140, 5117.823
701.2961, 5123.369
701.7782, 5153.583
702.2603, 5132.243
702.7424, 5146.352
703.2245, 5146.959
703.7067, 5086.211
704.1888, 5132.167
704.6709, 5131.977
705.1530, 5084.406
705.6351, 5126.706
706.1172, 5090.189
706.5994, 5090.430
707.0815, 5116.317
707.5636, 5133.010
708.0457, 5104.187
708.5278, 5054.919
709.0099, 5025.527
709.4921, 5028.137
709.9742, 5053.046
710.4563, 5107.081
710.9384, 5170.784
711.4205, 5169.184
711.9026, 5100.342
712.3848, 5050.581
712.8669, 5048.506
713.3490, 5063.955
713.8311, 5064.895
714.3132, 5051.685
714.7953, 5050.692
715.2775, 5074.158
715.7596, 5092.633
716.2417, 5104.874
716.7238, 5108.505
717.2059, 5096.179
717.6880, 5073.462
718.1702, 5057.852
718.6523, 5060.176
719.1344, 5063.947
719.6165, 5045.573
720.0986, 5019.725
720.5807, 5021.531
721.0629, 5051.712
721.5450, 5082.776
722.0271, 5100.148
722.5092, 5101.329
722.9913, 5073.276
723.4734, 4999.875
723.9556, 4969.447
724.4377, 5015.113
724.9198, 5052.346
725.4019, 5035.004
725.8840, 4992.502
726.3661, 4955.577
726.8483, 4925.387
727.3304, 4909.945
727.8125, 4922.410
728.2946, 4939.569
728.7767, 4949.904
729.2589, 4953.583
729.7410, 4948.776
730.2231, 4937.098
730.7052, 4930.009
731.1873, 4940.313
731.6694, 4959.430
732.1516, 4962.508
732.6337, 4950.193
733.1158, 4948.873
733.5979, 4968.039
734.0800, 4984.588
734.5621, 4977.043
735.0443, 4949.784
735.5264, 4929.846
736.0085, 4919.371
736.4906, 4913.505
736.9727, 4916.511
737.4548, 4919.725
737.9370, 4913.690
738.4191, 4905.281
738.9012, 4911.062
739.3833, 4939.050
739.8654, 4962.432
740.3475, 4963.611
740.8297, 4949.539
741.3118, 4922.436
741.7939, 4887.743
742.2760, 4859.821
742.7581, 4844.195
743.2402, 4842.186
743.7224, 4859.199
744.2045, 4893.221
744.6866, 4913.559
745.1687, 4916.645
745.6508, 4920.122
746.1329, 4933.915
746.6151, 4943.847
747.0972, 4927.755
747.5793, 4888.746
748.0614, 4872.424
748.5435, 4905.998
749.0256, 4928.346
749.5078, 4917.293
749.9899, 4895.535
750.4720, 4878.709
750.9541, 4868.688
751.4362, 4864.198
751.9183, 4865.448
752.4005, 4868.311
752.8826, 4871.631
753.3647, 4872.490
753.8468, 4858.776
754.3289, 4832.712
754.8110, 4819.755
755.2932, 4833.052
755.7753, 4858.472
756.2574, 4874.214
756.7395, 4879.943
757.2216, 4878.294
757.7037, 4863.717
758.1859, 4853.372
758.6680, 4857.444
759.1501, 4864.397
759.6322, 4863.308
760.1143, 4854.342
760.5964, 4840.345
761.0786, 4805.344
761.5607, 4785.850
762.0428, 4811.915
762.5249, 4848.418
763.0070, 4854.762
763.4891, 4836.468
763.9713, 4831.818
764.4534, 4865.721
764.9355, 4898.243
765.4176, 4862.655
765.8997, 4787.012
766.3818, 4763.815
766.8640, 4797.404
767.3461, 4821.800
767.8282, 4800.822
768.3103, 4770.223
768.7924, 4797.189
769.2745, 4895.065
769.7566, 4931.209
770.2387, 4863.685
770.7208, 4810.533
771.2029, 4825.102
771.6851, 4855.806
772.1672, 4853.296
772.6493, 4820.366
773.1314, 4792.388
773.6135, 4772.675
774.0956, 4763.245
774.5778, 4772.968
775.0599, 4787.421
775.5420, 4789.528
776.0241, 4782.705
776.5062, 4785.338
776.9883, 4808.668
777.4705, 4830.117
777.9526, 4816.080
778.4347, 4780.662
778.9168, 4760.242
779.3989, 4757.157
779.8810, 4769.468
780.3632, 4798.028
780.8453, 4828.775
781.3274, 4839.620
781.8095, 4829.683
782.2916, 4832.793
782.7737, 4860.979
783.2559, 4875.021
783.7380, 4858.734
784.2201, 4830.691
784.7022, 4801.803
785.1843, 4774.296
785.6664, 4760.175
786.1486, 4771.500
786.6307, 4780.958
787.1128, 4779.055
787.5949, 4774.563
788.0770, 4774.336
788.5591, 4777.321
789.0413, 4781.211
789.5234, 4785.466
790.0055, 4783.453
790.4876, 4762.578
790.9697, 4734.740
791.4518, 4721.968
791.9340, 4722.152
792.4161, 4722.500
792.8982, 4718.784
793.3803, 4715.570
793.8624, 4718.505
794.3445, 4725.802
794.8267, 4727.420
795.3088, 4724.071
795.7909, 4710.079
796.2730, 4677.456
796.7551, 4646.971
797.2372, 4634.361
797.7194, 4635.996
798.2015, 4640.001
798.6836, 4653.461
799.1657, 4654.292
799.6478, 4632.762
800.1299, 4607.115
800.6121, 4574.300
801.0942, 4548.804
801.5763, 4555.777
802.0584, 4597.751
802.5405, 4636.019
803.0226, 4647.404
803.5048, 4646.719
803.9869, 4645.520
804.4690, 4642.917
804.9511, 4634.507
805.4332, 4621.328
805.9153, 4613.054
806.3975, 4617.061
806.8796, 4626.693
807.3617, 4627.669
807.8438, 4621.111
808.3259, 4623.533
808.8080, 4638.403
809.2902, 4639.793
809.7723, 4608.443
810.2544, 4570.790
810.7365, 4573.509
811.2186, 4624.558
811.7007, 4653.946
812.1829, 4656.402
812.6650, 4644.612
813.1471, 4602.653
813.6292, 4563.071
814.1113, 4557.299
814.5934, 4577.901
815.0756, 4587.892
815.5577, 4578.699
816.0398, 4560.660
816.5219, 4523.608
817.0040, 4491.081
817.4861, 4488.364
817.9683, 4504.789
818.4504, 4515.473
818.9325, 4511.863
819.4146, 4504.430
819.8967, 4500.778
820.3788, 4499.982
820.8610, 4504.892
821.3431, 4511.514
821.8252, 4503.448
822.3073, 4477.536
822.7894, 4449.939
823.2715, 4434.039
823.7537, 4427.895
824.2358, 4428.445
824.7179, 4437.061
825.2000, 4435.676
825.6821, 4420.191
826.1642, 4402.348
826.6464, 4389.380
827.1285, 4377.041
827.6106, 4355.121
828.0927, 4317.284
828.5748, 4297.728
829.0569, 4311.951
829.5391, 4324.624
830.0212, 4323.649
830.5033, 4321.326
830.9854, 4330.442
831.4675, 4348.766
831.9496, 4363.783
832.4318, 4379.524
832.9139, 4378.258
833.3960, 4335.882
833.8781, 4286.238
834.3602, 4256.499
834.8423, 4246.396
835.3245, 4251.550
835.8066, 4269.734
836.2887, 4286.744
836.7708, 4284.571
837.2529, 4275.717
837.7350, 4285.927
838.2172, 4308.605
838.6993, 4321.613
839.1814, 4319.440
839.6635, 4303.095
840.1456, 4270.890
840.6277, 4232.698
841.1099, 4215.987
841.5920, 4222.068
842.0741, 4227.923
842.5562, 4232.646
843.0383, 4234.285
843.5204, 4233.365
844.0026, 4226.155
844.4847, 4203.246
844.9668, 4160.530
845.4489, 4140.928
845.9310, 4175.174
846.4131, 4186.848
846.8953, 4128.577
847.3774, 4075.189
847.8595, 4096.751
848.3416, 4166.035
848.8237, 4194.772
849.3058, 4151.947
849.7880, 4110.202
850.2701, 4085.343
850.7522, 4074.996
851.2343, 4085.271
851.7164, 4105.559
852.1985, 4123.145
852.6807, 4134.133
853.1628, 4135.354
853.6449, 4116.899
854.1270, 4096.375
854.6091, 4093.392
855.0912, 4101.771
855.5734, 4113.943
856.0555, 4126.316
856.5376, 4128.119
857.0197, 4112.638
857.5018, 4095.768
857.9839, 4106.952
858.4661, 4138.507
858.9482, 4148.594
859.4303, 4136.654
859.9124, 4122.018
860.3945, 4110.876
860.8766, 4096.736
861.3588, 4069.573
861.8409, 4036.069
862.3230, 4037.509
862.8051, 4088.432
863.2872, 4122.941
863.7693, 4134.690
864.2515, 4128.853
864.7336, 4099.602
865.2157, 4059.795
865.6978, 4032.803
866.1799, 4020.816
866.6620, 4011.901
867.1442, 4003.236
867.6263, 4001.406
868.1084, 4012.534
868.5905, 4027.404
869.0726, 4040.373
869.5547, 4050.443
870.0369, 4057.061
870.5190, 4061.779
871.0011, 4058.524
871.4832, 4037.612
871.9653, 4014.614
872.4474, 4000.985
872.9296, 3994.026
873.4117, 3988.811
873.8938, 3983.677
874.3759, 3976.088
874.8580, 3954.162
875.3401, 3942.219
875.8223, 3987.157
876.3044, 4054.194
876.7865, 4069.807
877.2686, 4036.393
877.7507, 4010.650
878.2328, 4021.107
878.7149, 4038.065
879.1970, 4015.170
879.6791, 3965.482
880.1613, 3942.949
880.6434, 3946.053
881.1255, 3950.308
881.6076, 3949.492
882.0897, 3945.614
882.5718, 3939.368
883.0540, 3933.286
883.5361, 3937.568
884.0182, 3955.308
884.5003, 3961.853
884.9824, 3952.337
885.4645, 3942.856
885.9467, 3941.184
886.4288, 3941.178
886.9109, 3932.161
887.3930, 3913.771
887.8751, 3913.412
888.3572, 3953.736
888.8394, 3974.872
889.3215, 3951.796
889.8036, 3926.291
890.2857, 3920.011
890.7678, 3927.499
891.2499, 3939.624
891.7321, 3958.062
892.2142, 3969.555
892.6963, 3974.140
893.1784, 3968.368
893.6605, 3942.073
894.1426, 3911.123
894.6248, 3890.486
895.1069, 3880.231
895.5890, 3873.851
896.0711, 3869.448
896.5532, 3867.557
897.0353, 3868.011
897.5175, 3871.595
897.9996, 3883.207
898.4817, 3896.959
898.9638, 3900.510
899.4459, 3892.498
899.9280, 3886.261
900.4102, 3893.562
900.8923, 3903.043
901.3744, 3902.515
901.8565, 3893.833
902.3386, 3877.320
902.8207, 3855.711
903.3029, 3836.988
903.7850, 3824.685
904.2671, 3821.159
904.7492, 3831.465
905.2313, 3851.803
905.7134, 3879.240
906.1956, 3909.122
906.6777, 3900.292
907.1598, 3845.618
907.6419, 3808.013
908.1240, 3833.537
908.6061, 3887.476
909.0883, 3895.820
909.5704, 3857.342
910.0525, 3837.872
910.5346, 3841.480
911.0167, 3835.611
911.4988, 3803.756
911.9810, 3782.353
912.4631, 3813.467
912.9452, 3880.553
913.4273, 3903.344
913.9094, 3863.591
914.3915, 3836.018
914.8737, 3826.956
915.3558, 3824.875
915.8379, 3829.784
916.3200, 3834.250
916.8021, 3825.259
917.2842, 3802.310
917.7664, 3794.412
918.2485, 3818.364
918.7306, 3832.458
919.2127, 3830.146
919.6948, 3820.492
920.1769, 3800.422
920.6591, 3779.353
921.1412, 3773.499
921.6233, 3785.225
922.1054, 3802.460
922.5875, 3837.021
923.0696, 3858.829
923.5518, 3853.280
924.0339, 3834.241
924.5160, 3805.255
924.9981, 3774.306
925.4802, 3758.385
925.9623, 3764.247
926.4445, 3773.713
926.9266, 3788.609
927.4087, 3794.350
927.8908, 3769.059
928.3729, 3736.209
928.8550, 3728.498
929.3372, 3745.035
929.8193, 3760.657
930.3014, 3763.128
930.7835, 3765.334
931.2656, 3782.357
931.7477, 3799.762
932.2299, 3801.670
932.7120, 3791.167
933.1941, 3767.560
933.6762, 3736.729
934.1583, 3733.610
934.6404, 3801.440
935.1226, 3866.102
935.6047, 3808.421
936.0868, 3698.325
936.5689, 3669.030
937.0510, 3712.315
937.5331, 3760.386
938.0153, 3787.356
938.4974, 3798.337
938.9795, 3795.708
939.4616, 3783.421
939.9437, 3761.050
940.4258, 3736.044
940.9080, 3741.388
941.3901, 3776.504
941.8722, 3804.368
942.3543, 3807.102
942.8364, 3798.489
943.3185, 3794.827
943.8007, 3795.330
944.2828, 3801.567
944.7649, 3811.675
945.2470, 3798.123
945.7291, 3755.533
946.2112, 3718.726
946.6934, 3708.775
947.1755, 3717.314
947.6576, 3733.628
948.1397, 3756.788
948.6218, 3766.847
949.1039, 3763.258
949.5861, 3751.740
950.0682, 3731.828
950.5503, 3714.380
951.0324, 3707.748
951.5145, 3708.531
951.9966, 3706.982
952.4788, 3700.981
952.9609, 3712.103
953.4430, 3747.208
953.9251, 3772.962
954.4072, 3779.973
954.8893, 3773.088
955.3715, 3752.581
955.8536, 3724.236
956.3357, 3710.121
956.8178, 3713.996
957.2999, 3721.200
957.7820, 3738.517
958.2642, 3742.760
958.7463, 3717.347
959.2284, 3687.682
959.7105, 3678.031
960.1926, 3687.094
960.6747, 3708.043
961.1569, 3757.406
961.6390, 3782.667
962.1211, 3766.724
962.6032, 3750.978
963.0853, 3757.779
963.5674, 3767.004
964.0496, 3751.556
964.5317, 3713.823
965.0138, 3690.190
965.4959, 3679.059
965.9780, 3684.776
966.4601, 3738.968
966.9423, 3773.334
967.4244, 3735.339
967.9065, 3676.188
968.3886, 3664.833
968.8707, 3701.206
969.3528, 3722.839
969.8350, 3726.159
970.3171, 3714.207
970.7992, 3662.884
971.2813, 3623.041
971.7634, 3628.532
972.2455, 3658.396
972.7277, 3687.729
973.2098, 3714.382
973.6919, 3722.381
974.1740, 3687.459
974.6561, 3664.646
975.1382, 3677.478
975.6204, 3694.059
976.1025, 3693.734
976.5846, 3683.927
977.0667, 3678.361
977.5488, 3678.709
978.0309, 3678.176
978.5131, 3673.663
978.9952, 3670.177
979.4773, 3667.855
979.9594, 3668.450
980.4415, 3675.952
980.9236, 3686.209
981.4058, 3691.825
981.8879, 3691.552
982.3700, 3689.642
982.8521, 3694.187
983.3342, 3688.316
983.8163, 3649.608
984.2985, 3612.552
984.7806, 3608.648
985.2627, 3626.262
985.7448, 3638.849
986.2269, 3640.945
986.7090, 3645.811
987.1912, 3666.979
987.6733, 3680.596
988.1554, 3671.081
988.6375, 3653.585
989.1196, 3633.675
989.6017, 3618.926
990.0838, 3627.920
990.5659, 3666.358
991.0480, 3686.583
991.5302, 3649.963
992.0123, 3614.849
992.4944, 3614.268
992.9765, 3625.346
993.4586, 3622.951
993.9407, 3615.332
994.4229, 3631.479
994.9050, 3679.897
995.3871, 3706.945
995.8692, 3667.650
996.3513, 3627.866
996.8334, 3626.969
997.3156, 3638.906
997.7977, 3634.863
998.2798, 3623.381
998.7619, 3635.020
999.2440, 3678.417
999.7261, 3702.781
1000.208, 3664.559
1000.690, 3625.970
1001.172, 3623.542
1001.655, 3634.815
1002.137, 3640.839
1002.619, 3641.281
1003.101, 3637.723
1003.583, 3630.183
1004.065, 3635.913
1004.547, 3690.692
1005.029, 3726.298
1005.512, 3684.281
1005.994, 3624.066
1006.476, 3599.373
1006.958, 3603.869
1007.440, 3612.874
1007.922, 3620.443
1008.404, 3635.844
1008.886, 3686.073
1009.368, 3716.397
1009.851, 3674.224
1010.333, 3620.440
1010.815, 3608.262
1011.297, 3629.344
1011.779, 3663.553
1012.261, 3706.092
1012.743, 3731.431
1013.225, 3717.757
1013.708, 3699.294
1014.190, 3691.518
1014.672, 3686.253
1015.154, 3668.771
1015.636, 3651.289
1016.118, 3663.308
1016.600, 3709.189
1017.082, 3740.792
1017.564, 3737.711
1018.047, 3720.665
1018.529, 3683.602
1019.011, 3649.467
1019.493, 3638.821
1019.975, 3642.438
1020.457, 3644.247
1020.939, 3641.600
1021.421, 3636.958
1021.904, 3630.060
1022.386, 3622.753
1022.868, 3606.397
1023.350, 3599.319
1023.832, 3623.946
1024.314, 3661.008
1024.796, 3683.206
1025.278, 3687.392
1025.760, 3680.343
1026.243, 3647.051
1026.725, 3626.989
1027.207, 3641.346
1027.689, 3658.499
1028.171, 3662.170
1028.653, 3656.553
1029.135, 3643.423
1029.617, 3625.328
1030.099, 3620.943
1030.582, 3650.769
1031.064, 3665.459
1031.546, 3637.641
1032.028, 3616.134
1032.510, 3629.418
1032.992, 3656.877
1033.474, 3680.704
1033.956, 3698.138
1034.439, 3698.574
1034.921, 3668.067
1035.403, 3645.718
1035.885, 3635.916
1036.367, 3632.558
1036.849, 3638.857
1037.331, 3646.302
1037.813, 3643.320
1038.296, 3634.027
1038.778, 3638.875
1039.260, 3673.465
1039.742, 3683.427
1040.224, 3643.348
1040.706, 3617.097
1041.188, 3632.861
1041.670, 3654.378
1042.152, 3648.962
1042.635, 3628.628
1043.117, 3629.551
1043.599, 3659.270
1044.081, 3678.840
1044.563, 3691.328
1045.045, 3684.990
1045.527, 3643.349
1046.009, 3607.519
1046.491, 3608.853
1046.974, 3631.675
1047.456, 3644.737
1047.938, 3647.674
1048.420, 3644.643
1048.902, 3634.610
1049.384, 3619.501
1049.866, 3592.174
1050.348, 3587.210
1050.830, 3636.033
1051.313, 3690.119
1051.795, 3665.811
1052.277, 3572.689
1052.759, 3545.433
1053.241, 3591.902
1053.723, 3637.586
1054.205, 3675.624
1054.687, 3695.434
1055.170, 3690.111
1055.652, 3674.599
1056.134, 3664.733
1056.616, 3661.598
1057.098, 3673.770
1057.580, 3700.041
1058.062, 3714.988
1058.544, 3716.568
1059.026, 3700.481
1059.509, 3664.793
1059.991, 3637.311
1060.473, 3644.992
1060.955, 3671.219
1061.437, 3678.756
1061.919, 3673.784
1062.401, 3687.921
1062.883, 3716.986
1063.365, 3730.664
1063.848, 3721.614
1064.330, 3697.031
1064.812, 3659.068
1065.294, 3626.409
1065.776, 3632.970
1066.258, 3659.021
1066.740, 3662.605
1067.222, 3651.060
1067.705, 3646.769
1068.187, 3651.568
1068.669, 3651.608
1069.151, 3640.026
1069.633, 3632.371
1070.115, 3655.925
1070.597, 3679.696
1071.079, 3651.766
1071.562, 3607.966
1072.044, 3611.836
1072.526, 3650.382
1073.008, 3669.203
1073.490, 3652.319
1073.972, 3634.440
1074.454, 3640.200
1074.936, 3648.440
1075.418, 3640.738
1075.901, 3631.970
1076.383, 3642.653
1076.865, 3659.916
1077.347, 3654.448
1077.829, 3626.439
1078.311, 3617.068
1078.793, 3657.721
1079.275, 3685.582
1079.757, 3660.187
1080.240, 3635.971
1080.722, 3655.908
1081.204, 3686.033
1081.686, 3685.542
1082.168, 3658.114
1082.650, 3629.621
1083.132, 3595.843
1083.614, 3582.777
1084.097, 3611.083
1084.579, 3636.301
1085.061, 3643.049
1085.543, 3645.454
1086.025, 3659.237
1086.507, 3673.513
1086.989, 3660.636
1087.471, 3614.282
1087.953, 3593.666
1088.436, 3612.112
1088.918, 3623.823
1089.400, 3620.073
1089.882, 3614.333
1090.364, 3613.216
1090.846, 3613.917
1091.328, 3612.340
1091.810, 3609.245
1092.292, 3611.327
1092.775, 3619.745
1093.257, 3620.634
1093.739, 3612.057
1094.221, 3605.933
1094.703, 3606.437
1095.185, 3610.853
1095.667, 3616.957
1096.149, 3624.913
1096.632, 3637.893
1097.114, 3653.422
1097.596, 3656.947
1098.078, 3649.485
1098.560, 3636.841
1099.042, 3621.591
1099.524, 3613.282
1100.006, 3617.479
1100.489, 3625.627
1100.971, 3631.436
1101.453, 3631.647
1101.935, 3607.308
1102.417, 3579.362
1102.899, 3605.019
1103.381, 3665.850
1103.863, 3682.778
1104.345, 3635.196
1104.828, 3594.403
1105.310, 3621.712
1105.792, 3647.540
1106.274, 3595.544
1106.756, 3535.913
1107.238, 3539.494
1107.720, 3581.096
1108.202, 3622.716
1108.684, 3655.250
1109.167, 3673.810
1109.649, 3676.181
1110.131, 3666.672
1110.613, 3634.824
1111.095, 3606.400
1111.577, 3587.747
1112.059, 3582.043
1112.541, 3599.740
1113.024, 3630.222
1113.506, 3647.770
1113.988, 3649.533
1114.470, 3647.847
1114.952, 3636.254
1115.434, 3634.612
1115.916, 3659.532
1116.398, 3666.724
1116.880, 3620.364
1117.363, 3569.420
1117.845, 3578.222
1118.327, 3635.427
1118.809, 3681.161
1119.291, 3717.043
1119.773, 3723.906
1120.255, 3698.238
1120.737, 3668.346
1121.219, 3641.113
1121.702, 3629.362
1122.184, 3644.336
1122.666, 3670.031
1123.148, 3676.044
1123.630, 3668.979
1124.112, 3681.342
1124.594, 3703.325
1125.076, 3686.057
1125.559, 3633.636
1126.041, 3605.247
1126.523, 3623.531
1127.005, 3650.014
1127.487, 3653.148
1127.969, 3645.538
1128.451, 3632.068
1128.933, 3623.982
1129.416, 3640.535
1129.898, 3671.988
1130.380, 3705.067
1130.862, 3732.888
1131.344, 3740.263
1131.826, 3715.759
1132.308, 3689.997
1132.790, 3665.810
1133.272, 3657.495
1133.755, 3697.646
1134.237, 3734.425
1134.719, 3705.039
1135.201, 3641.180
1135.683, 3622.155
1136.165, 3660.012
1136.647, 3676.075
1137.129, 3647.493
1137.611, 3635.991
1138.094, 3663.355
1138.576, 3676.229
1139.058, 3642.570
1139.540, 3602.856
1140.022, 3600.524
1140.504, 3625.200
1140.986, 3642.171
1141.468, 3651.520
1141.951, 3646.582
1142.433, 3626.280
1142.915, 3623.408
1143.397, 3645.113
1143.879, 3671.230
1144.361, 3690.636
1144.843, 3701.011
1145.325, 3694.881
1145.807, 3682.435
1146.290, 3695.272
1146.772, 3716.367
1147.254, 3698.483
1147.736, 3651.523
1148.218, 3615.081
1148.700, 3600.290
1149.182, 3599.259
1149.664, 3608.566
1150.146, 3626.844
1150.629, 3672.213
1151.111, 3705.315
1151.593, 3687.395
1152.075, 3644.763
1152.557, 3595.737
1153.039, 3552.290
1153.521, 3537.432
1154.003, 3557.132
1154.485, 3577.463
1154.968, 3600.522
1155.450, 3611.280
1155.932, 3590.777
1156.414, 3579.442
1156.896, 3606.929
1157.378, 3635.560
1157.860, 3623.305
1158.342, 3580.381
1158.825, 3544.780
1159.307, 3515.893
1159.789, 3496.675
1160.271, 3486.493
1160.753, 3496.060
1161.235, 3528.851
1161.717, 3553.964
1162.199, 3553.724
1162.682, 3542.828
1163.164, 3536.537
1163.646, 3536.505
1164.128, 3556.480
1164.610, 3581.891
1165.092, 3565.203
1165.574, 3522.485
1166.056, 3513.514
1166.538, 3545.026
1167.021, 3568.575
1167.503, 3558.236
1167.985, 3542.270
1168.467, 3545.458
1168.949, 3544.257
1169.431, 3505.663
1169.913, 3468.912
1170.395, 3484.820
1170.877, 3527.412
1171.360, 3538.106
1171.842, 3510.412
1172.324, 3491.672
1172.806, 3496.737
1173.288, 3494.628
1173.770, 3476.882
1174.252, 3465.259
1174.734, 3470.256
1175.217, 3476.814
1175.699, 3473.330
1176.181, 3462.251
1176.663, 3448.340
1177.145, 3431.749
1177.627, 3411.581
1178.109, 3388.566
1178.591, 3380.488
1179.073, 3388.433
1179.556, 3398.821
1180.038, 3406.293
1180.520, 3409.148
1181.002, 3405.657
1181.484, 3398.289
1181.966, 3377.819
1182.448, 3365.596
1182.930, 3415.471
1183.412, 3480.383
1183.895, 3467.032
1184.377, 3397.622
1184.859, 3372.768
1185.341, 3420.591
1185.823, 3458.254
1186.305, 3452.809
1186.787, 3435.615
1187.269, 3401.154
1187.752, 3374.717
1188.234, 3370.672
1188.716, 3380.943
1189.198, 3403.099
1189.680, 3430.821
1190.162, 3442.823
1190.644, 3435.624
1191.126, 3446.950
1191.609, 3483.721
1192.091, 3486.565
1192.573, 3443.158
1193.055, 3412.414
1193.537, 3421.439
1194.019, 3430.379
1194.501, 3397.352
1194.983, 3346.952
1195.465, 3319.104
1195.948, 3310.194
1196.430, 3323.914
1196.912, 3345.908
1197.394, 3344.036
1197.876, 3319.571
1198.358, 3294.872
1198.840, 3277.544
1199.322, 3261.935
1199.804, 3248.463
1200.287, 3231.403
1200.769, 3200.525
1201.251, 3174.284
1201.733, 3166.688
1202.215, 3168.249
1202.697, 3170.780
1203.179, 3172.282
1203.661, 3164.570
1204.144, 3142.408
1204.626, 3152.248
1205.108, 3209.184
1205.590, 3223.870
1206.072, 3175.946
1206.554, 3143.279
1207.036, 3160.014
1207.518, 3190.025
1208.000, 3199.234
1208.483, 3197.396
1208.965, 3208.545
1209.447, 3219.219
1209.929, 3181.832
1210.411, 3126.831
1210.893, 3139.885
1211.375, 3203.359
1211.857, 3218.673
1212.339, 3158.008
1212.822, 3107.633
1213.304, 3118.854
1213.786, 3136.694
1214.268, 3138.658
1214.750, 3141.408
1215.232, 3156.865
1215.714, 3175.252
1216.196, 3190.419
1216.679, 3199.357
1217.161, 3191.789
1217.643, 3166.444
1218.125, 3165.069
1218.607, 3194.046
1219.089, 3202.419
1219.571, 3183.480
1220.053, 3172.469
1220.536, 3181.546
1221.018, 3186.698
1221.500, 3168.799
1221.982, 3143.568
1222.464, 3132.226
1222.946, 3129.196
1223.428, 3129.167
1223.910, 3128.482
1224.392, 3120.698
1224.875, 3107.553
1225.357, 3090.199
1225.839, 3071.486
1226.321, 3069.777
1226.803, 3107.251
1227.285, 3121.575
1227.767, 3063.144
1228.249, 3027.174
1228.731, 3065.600
1229.214, 3107.312
1229.696, 3111.767
1230.178, 3094.642
1230.660, 3076.746
1231.142, 3057.614
1231.624, 3028.770
1232.106, 2991.756
1232.588, 2994.008
1233.071, 3032.998
1233.553, 3075.278
1234.035, 3109.177
1234.517, 3104.707
1234.999, 3048.046
1235.481, 2999.024
1235.963, 3019.907
1236.445, 3055.321
1236.927, 3062.164
1237.410, 3053.300
1237.892, 3032.760
1238.374, 3009.988
1238.856, 2993.143
1239.338, 2984.057
1239.820, 2990.084
##END=



