##NAMES=Ferrowodginite
##RRUFFID=R120166
##IDEAL CHEMISTRY=Fe^2+^Sn^4+^Ta^5+^_2_O_8_
##LOCALITY=Nyanga #2 pegmatite, Ankloe, Uganda
##OWNER=RRUFF
##SOURCE=Rock Currier
##DESCRIPTION=Black massive
##STATUS=The identification of this mineral has been confirmed only by single crystal X-ray diffraction.
##URL=rruff.info/R120166
8.936163e+001, 0.000000e+000
8.984375e+001, 1.683609e+002
9.032587e+001, 1.697473e+002
9.080798e+001, 1.700474e+002
9.129010e+001, 1.689430e+002
9.177222e+001, 1.671174e+002
9.225433e+001, 1.652900e+002
9.273645e+001, 1.634532e+002
9.321857e+001, 1.616022e+002
9.370068e+001, 1.597043e+002
9.418280e+001, 1.577900e+002
9.466492e+001, 1.559977e+002
9.514703e+001, 1.544911e+002
9.562915e+001, 1.531234e+002
9.611127e+001, 1.513795e+002
9.659338e+001, 1.492212e+002
9.707550e+001, 1.469291e+002
9.755762e+001, 1.446360e+002
9.803973e+001, 1.423252e+002
9.852185e+001, 1.405269e+002
9.900397e+001, 1.395872e+002
9.948608e+001, 1.395235e+002
9.996820e+001, 1.395254e+002
1.004503e+002, 1.397571e+002
1.009324e+002, 1.398582e+002
1.014146e+002, 1.390214e+002
1.018967e+002, 1.370461e+002
1.023788e+002, 1.346859e+002
1.028609e+002, 1.321523e+002
1.033430e+002, 1.292135e+002
1.038251e+002, 1.269562e+002
1.043073e+002, 1.256772e+002
1.047894e+002, 1.251818e+002
1.052715e+002, 1.244633e+002
1.057536e+002, 1.234249e+002
1.062357e+002, 1.222642e+002
1.067178e+002, 1.210994e+002
1.072000e+002, 1.199583e+002
1.076821e+002, 1.187882e+002
1.081642e+002, 1.176058e+002
1.086463e+002, 1.164168e+002
1.091284e+002, 1.151322e+002
1.096105e+002, 1.134443e+002
1.100927e+002, 1.117920e+002
1.105748e+002, 1.106010e+002
1.110569e+002, 1.103227e+002
1.115390e+002, 1.100866e+002
1.120211e+002, 1.097835e+002
1.125032e+002, 1.094886e+002
1.129854e+002, 1.088132e+002
1.134675e+002, 1.076479e+002
1.139496e+002, 1.060882e+002
1.144317e+002, 1.042514e+002
1.149138e+002, 1.014394e+002
1.153959e+002, 9.890645e+001
1.158781e+002, 9.731150e+001
1.163602e+002, 9.713513e+001
1.168423e+002, 9.705455e+001
1.173244e+002, 9.663541e+001
1.178065e+002, 9.596148e+001
1.182886e+002, 9.524577e+001
1.187708e+002, 9.463713e+001
1.192529e+002, 9.399143e+001
1.197350e+002, 9.317873e+001
1.202171e+002, 9.194947e+001
1.206992e+002, 9.080138e+001
1.211813e+002, 9.010713e+001
1.216635e+002, 8.980726e+001
1.221456e+002, 8.959676e+001
1.226277e+002, 8.948824e+001
1.231098e+002, 8.930956e+001
1.235919e+002, 8.882891e+001
1.240740e+002, 8.775626e+001
1.245562e+002, 8.646650e+001
1.250383e+002, 8.533418e+001
1.255204e+002, 8.435334e+001
1.260025e+002, 8.347313e+001
1.264846e+002, 8.265767e+001
1.269667e+002, 8.190967e+001
1.274489e+002, 8.123593e+001
1.279310e+002, 8.062586e+001
1.284131e+002, 8.009424e+001
1.288952e+002, 7.975891e+001
1.293773e+002, 7.967909e+001
1.298594e+002, 7.951442e+001
1.303416e+002, 7.868118e+001
1.308237e+002, 7.727982e+001
1.313058e+002, 7.598661e+001
1.317879e+002, 7.527855e+001
1.322700e+002, 7.502579e+001
1.327521e+002, 7.454443e+001
1.332343e+002, 7.368678e+001
1.337164e+002, 7.274979e+001
1.341985e+002, 7.236325e+001
1.346806e+002, 7.257317e+001
1.351627e+002, 7.272453e+001
1.356448e+002, 7.231813e+001
1.361270e+002, 7.134348e+001
1.366091e+002, 7.048415e+001
1.370912e+002, 6.984246e+001
1.375733e+002, 6.936518e+001
1.380554e+002, 6.884935e+001
1.385375e+002, 6.830289e+001
1.390197e+002, 6.768910e+001
1.395018e+002, 6.693282e+001
1.399839e+002, 6.598898e+001
1.404660e+002, 6.512215e+001
1.409481e+002, 6.433714e+001
1.414302e+002, 6.365032e+001
1.419124e+002, 6.324946e+001
1.423945e+002, 6.323468e+001
1.428766e+002, 6.336750e+001
1.433587e+002, 6.342788e+001
1.438408e+002, 6.341555e+001
1.443229e+002, 6.333212e+001
1.448051e+002, 6.319640e+001
1.452872e+002, 6.302053e+001
1.457693e+002, 6.266847e+001
1.462514e+002, 6.204808e+001
1.467335e+002, 6.130582e+001
1.472156e+002, 6.061715e+001
1.476978e+002, 6.004297e+001
1.481799e+002, 5.945501e+001
1.486620e+002, 5.877335e+001
1.491441e+002, 5.786574e+001
1.496262e+002, 5.724146e+001
1.501083e+002, 5.711429e+001
1.505905e+002, 5.724376e+001
1.510726e+002, 5.720858e+001
1.515547e+002, 5.692281e+001
1.520368e+002, 5.654898e+001
1.525189e+002, 5.612568e+001
1.530010e+002, 5.562776e+001
1.534832e+002, 5.513097e+001
1.539653e+002, 5.452836e+001
1.544474e+002, 5.392340e+001
1.549295e+002, 5.356456e+001
1.554116e+002, 5.396495e+001
1.558937e+002, 5.426920e+001
1.563759e+002, 5.404154e+001
1.568580e+002, 5.242279e+001
1.573401e+002, 5.134824e+001
1.578222e+002, 5.161220e+001
1.583043e+002, 5.283421e+001
1.587864e+002, 5.361127e+001
1.592686e+002, 5.306688e+001
1.597507e+002, 5.224785e+001
1.602328e+002, 5.182519e+001
1.607149e+002, 5.243680e+001
1.611970e+002, 5.298224e+001
1.616791e+002, 5.297538e+001
1.621613e+002, 5.251363e+001
1.626434e+002, 5.224138e+001
1.631255e+002, 5.251376e+001
1.636076e+002, 5.305321e+001
1.640897e+002, 5.361254e+001
1.645718e+002, 5.400405e+001
1.650540e+002, 5.448635e+001
1.655361e+002, 5.524398e+001
1.660182e+002, 5.627054e+001
1.665003e+002, 5.729292e+001
1.669824e+002, 5.783901e+001
1.674645e+002, 5.839336e+001
1.679467e+002, 5.954172e+001
1.684288e+002, 6.229255e+001
1.689109e+002, 6.518752e+001
1.693930e+002, 6.700578e+001
1.698751e+002, 6.766844e+001
1.703572e+002, 6.839378e+001
1.708394e+002, 6.992274e+001
1.713215e+002, 7.210580e+001
1.718036e+002, 7.465809e+001
1.722857e+002, 7.784242e+001
1.727678e+002, 8.115707e+001
1.732499e+002, 8.401665e+001
1.737321e+002, 8.634769e+001
1.742142e+002, 8.867003e+001
1.746963e+002, 9.166328e+001
1.751784e+002, 9.505531e+001
1.756605e+002, 9.821445e+001
1.761426e+002, 1.008988e+002
1.766248e+002, 1.031068e+002
1.771069e+002, 1.046900e+002
1.775890e+002, 1.055358e+002
1.780711e+002, 1.062054e+002
1.785532e+002, 1.073656e+002
1.790353e+002, 1.088937e+002
1.795175e+002, 1.103049e+002
1.799996e+002, 1.109911e+002
1.804817e+002, 1.114265e+002
1.809638e+002, 1.126199e+002
1.814459e+002, 1.148212e+002
1.819280e+002, 1.174563e+002
1.824102e+002, 1.198118e+002
1.828923e+002, 1.219063e+002
1.833744e+002, 1.241424e+002
1.838565e+002, 1.267166e+002
1.843386e+002, 1.296158e+002
1.848207e+002, 1.327575e+002
1.853029e+002, 1.362307e+002
1.857850e+002, 1.398120e+002
1.862671e+002, 1.430942e+002
1.867492e+002, 1.460883e+002
1.872313e+002, 1.493039e+002
1.877134e+002, 1.532841e+002
1.881956e+002, 1.578797e+002
1.886777e+002, 1.621587e+002
1.891598e+002, 1.659417e+002
1.896419e+002, 1.694383e+002
1.901240e+002, 1.732251e+002
1.906061e+002, 1.773750e+002
1.910883e+002, 1.812695e+002
1.915704e+002, 1.843172e+002
1.920525e+002, 1.866334e+002
1.925346e+002, 1.891126e+002
1.930167e+002, 1.919731e+002
1.934988e+002, 1.949162e+002
1.939810e+002, 1.968264e+002
1.944631e+002, 1.975214e+002
1.949452e+002, 1.979323e+002
1.954273e+002, 1.979177e+002
1.959094e+002, 1.974904e+002
1.963915e+002, 1.971255e+002
1.968737e+002, 1.969176e+002
1.973558e+002, 1.968354e+002
1.978379e+002, 1.967781e+002
1.983200e+002, 1.967528e+002
1.988021e+002, 1.967400e+002
1.992842e+002, 1.967035e+002
1.997664e+002, 1.966404e+002
2.002485e+002, 1.966834e+002
2.007306e+002, 1.969485e+002
2.012127e+002, 1.973533e+002
2.016948e+002, 1.973142e+002
2.021769e+002, 1.966855e+002
2.026591e+002, 1.960856e+002
2.031412e+002, 1.962803e+002
2.036233e+002, 1.974320e+002
2.041054e+002, 1.981020e+002
2.045875e+002, 1.976995e+002
2.050696e+002, 1.964273e+002
2.055518e+002, 1.962846e+002
2.060339e+002, 1.975643e+002
2.065160e+002, 1.992713e+002
2.069981e+002, 2.003713e+002
2.074802e+002, 2.007346e+002
2.079623e+002, 2.010707e+002
2.084445e+002, 2.015895e+002
2.089266e+002, 2.022736e+002
2.094087e+002, 2.026159e+002
2.098908e+002, 2.024776e+002
2.103729e+002, 2.022527e+002
2.108550e+002, 2.024084e+002
2.113372e+002, 2.030580e+002
2.118193e+002, 2.036704e+002
2.123014e+002, 2.041043e+002
2.127835e+002, 2.043562e+002
2.132656e+002, 2.046297e+002
2.137477e+002, 2.048783e+002
2.142299e+002, 2.052109e+002
2.147120e+002, 2.058377e+002
2.151941e+002, 2.069851e+002
2.156762e+002, 2.077989e+002
2.161583e+002, 2.080127e+002
2.166404e+002, 2.075952e+002
2.171226e+002, 2.071354e+002
2.176047e+002, 2.065517e+002
2.180868e+002, 2.060177e+002
2.185689e+002, 2.057837e+002
2.190510e+002, 2.060218e+002
2.195331e+002, 2.061477e+002
2.200153e+002, 2.059661e+002
2.204974e+002, 2.054331e+002
2.209795e+002, 2.051037e+002
2.214616e+002, 2.050349e+002
2.219437e+002, 2.051108e+002
2.224258e+002, 2.052364e+002
2.229080e+002, 2.055597e+002
2.233901e+002, 2.056060e+002
2.238722e+002, 2.051063e+002
2.243543e+002, 2.039238e+002
2.248364e+002, 2.033529e+002
2.253185e+002, 2.035789e+002
2.258007e+002, 2.042367e+002
2.262828e+002, 2.049263e+002
2.267649e+002, 2.057581e+002
2.272470e+002, 2.063785e+002
2.277291e+002, 2.066542e+002
2.282112e+002, 2.065500e+002
2.286934e+002, 2.063369e+002
2.291755e+002, 2.057859e+002
2.296576e+002, 2.053192e+002
2.301397e+002, 2.055953e+002
2.306218e+002, 2.072291e+002
2.311039e+002, 2.084863e+002
2.315861e+002, 2.088810e+002
2.320682e+002, 2.083240e+002
2.325503e+002, 2.075735e+002
2.330324e+002, 2.063948e+002
2.335145e+002, 2.052312e+002
2.339966e+002, 2.046584e+002
2.344788e+002, 2.049385e+002
2.349609e+002, 2.053624e+002
2.354430e+002, 2.058007e+002
2.359251e+002, 2.062805e+002
2.364072e+002, 2.065945e+002
2.368893e+002, 2.067168e+002
2.373715e+002, 2.066926e+002
2.378536e+002, 2.065633e+002
2.383357e+002, 2.062605e+002
2.388178e+002, 2.059540e+002
2.392999e+002, 2.056249e+002
2.397820e+002, 2.052260e+002
2.402642e+002, 2.051751e+002
2.407463e+002, 2.056335e+002
2.412284e+002, 2.062949e+002
2.417105e+002, 2.068029e+002
2.421926e+002, 2.071516e+002
2.426747e+002, 2.073461e+002
2.431569e+002, 2.073543e+002
2.436390e+002, 2.071503e+002
2.441211e+002, 2.069387e+002
2.446032e+002, 2.066118e+002
2.450853e+002, 2.063687e+002
2.455674e+002, 2.065098e+002
2.460496e+002, 2.074295e+002
2.465317e+002, 2.079999e+002
2.470138e+002, 2.078563e+002
2.474959e+002, 2.069110e+002
2.479780e+002, 2.062990e+002
2.484601e+002, 2.061497e+002
2.489423e+002, 2.062059e+002
2.494244e+002, 2.061555e+002
2.499065e+002, 2.058097e+002
2.503886e+002, 2.057630e+002
2.508707e+002, 2.063452e+002
2.513528e+002, 2.076135e+002
2.518350e+002, 2.080647e+002
2.523171e+002, 2.072182e+002
2.527992e+002, 2.060739e+002
2.532813e+002, 2.057133e+002
2.537634e+002, 2.065767e+002
2.542455e+002, 2.072475e+002
2.547277e+002, 2.072842e+002
2.552098e+002, 2.066647e+002
2.556919e+002, 2.067724e+002
2.561740e+002, 2.080237e+002
2.566561e+002, 2.094723e+002
2.571382e+002, 2.101339e+002
2.576204e+002, 2.096086e+002
2.581025e+002, 2.092684e+002
2.585846e+002, 2.093584e+002
2.590667e+002, 2.098664e+002
2.595488e+002, 2.106541e+002
2.600309e+002, 2.119668e+002
2.605131e+002, 2.131826e+002
2.609952e+002, 2.136351e+002
2.614773e+002, 2.129645e+002
2.619594e+002, 2.125718e+002
2.624415e+002, 2.127733e+002
2.629236e+002, 2.135028e+002
2.634058e+002, 2.139965e+002
2.638879e+002, 2.140767e+002
2.643700e+002, 2.142356e+002
2.648521e+002, 2.149277e+002
2.653342e+002, 2.163228e+002
2.658163e+002, 2.176595e+002
2.662985e+002, 2.188094e+002
2.667806e+002, 2.197993e+002
2.672627e+002, 2.207847e+002
2.677448e+002, 2.216941e+002
2.682269e+002, 2.227328e+002
2.687090e+002, 2.240944e+002
2.691912e+002, 2.258836e+002
2.696733e+002, 2.275906e+002
2.701554e+002, 2.291340e+002
2.706375e+002, 2.305571e+002
2.711196e+002, 2.319576e+002
2.716017e+002, 2.333011e+002
2.720839e+002, 2.347053e+002
2.725660e+002, 2.362047e+002
2.730481e+002, 2.377994e+002
2.735302e+002, 2.395463e+002
2.740123e+002, 2.415316e+002
2.744944e+002, 2.436416e+002
2.749766e+002, 2.455141e+002
2.754587e+002, 2.470633e+002
2.759408e+002, 2.487031e+002
2.764229e+002, 2.507077e+002
2.769050e+002, 2.531239e+002
2.773871e+002, 2.554317e+002
2.778693e+002, 2.575696e+002
2.783514e+002, 2.596133e+002
2.788335e+002, 2.617286e+002
2.793156e+002, 2.639501e+002
2.797977e+002, 2.661606e+002
2.802798e+002, 2.684039e+002
2.807620e+002, 2.706638e+002
2.812441e+002, 2.724572e+002
2.817262e+002, 2.736290e+002
2.822083e+002, 2.745576e+002
2.826904e+002, 2.759569e+002
2.831725e+002, 2.778565e+002
2.836547e+002, 2.797661e+002
2.841368e+002, 2.816284e+002
2.846189e+002, 2.833825e+002
2.851010e+002, 2.844273e+002
2.855831e+002, 2.846658e+002
2.860652e+002, 2.844314e+002
2.865474e+002, 2.842299e+002
2.870295e+002, 2.840550e+002
2.875116e+002, 2.835739e+002
2.879937e+002, 2.824753e+002
2.884758e+002, 2.808767e+002
2.889579e+002, 2.795466e+002
2.894401e+002, 2.784984e+002
2.899222e+002, 2.775766e+002
2.904043e+002, 2.767780e+002
2.908864e+002, 2.760423e+002
2.913685e+002, 2.748569e+002
2.918506e+002, 2.728309e+002
2.923328e+002, 2.702348e+002
2.928149e+002, 2.679120e+002
2.932970e+002, 2.658614e+002
2.937791e+002, 2.639349e+002
2.942612e+002, 2.619562e+002
2.947433e+002, 2.599715e+002
2.952255e+002, 2.582128e+002
2.957076e+002, 2.569273e+002
2.961897e+002, 2.558311e+002
2.966718e+002, 2.543984e+002
2.971539e+002, 2.526413e+002
2.976360e+002, 2.507279e+002
2.981182e+002, 2.485959e+002
2.986003e+002, 2.464207e+002
2.990824e+002, 2.446308e+002
2.995645e+002, 2.435445e+002
3.000466e+002, 2.426722e+002
3.005287e+002, 2.412352e+002
3.010109e+002, 2.393132e+002
3.014930e+002, 2.374134e+002
3.019751e+002, 2.358413e+002
3.024572e+002, 2.345617e+002
3.029393e+002, 2.336174e+002
3.034214e+002, 2.331882e+002
3.039036e+002, 2.327603e+002
3.043857e+002, 2.315951e+002
3.048678e+002, 2.299017e+002
3.053499e+002, 2.284174e+002
3.058320e+002, 2.279326e+002
3.063141e+002, 2.277924e+002
3.067963e+002, 2.271535e+002
3.072784e+002, 2.257200e+002
3.077605e+002, 2.242214e+002
3.082426e+002, 2.234418e+002
3.087247e+002, 2.230773e+002
3.092068e+002, 2.224010e+002
3.096890e+002, 2.205523e+002
3.101711e+002, 2.185024e+002
3.106532e+002, 2.171673e+002
3.111353e+002, 2.167493e+002
3.116174e+002, 2.165027e+002
3.120995e+002, 2.160094e+002
3.125817e+002, 2.153704e+002
3.130638e+002, 2.147444e+002
3.135459e+002, 2.144437e+002
3.140280e+002, 2.139841e+002
3.145101e+002, 2.129120e+002
3.149922e+002, 2.111588e+002
3.154744e+002, 2.095993e+002
3.159565e+002, 2.087705e+002
3.164386e+002, 2.083366e+002
3.169207e+002, 2.079241e+002
3.174028e+002, 2.075546e+002
3.178849e+002, 2.070575e+002
3.183671e+002, 2.062885e+002
3.188492e+002, 2.052597e+002
3.193313e+002, 2.043205e+002
3.198134e+002, 2.036934e+002
3.202955e+002, 2.031436e+002
3.207776e+002, 2.024910e+002
3.212598e+002, 2.014975e+002
3.217419e+002, 2.005959e+002
3.222240e+002, 1.998771e+002
3.227061e+002, 1.993282e+002
3.231882e+002, 1.988883e+002
3.236703e+002, 1.986106e+002
3.241525e+002, 1.983886e+002
3.246346e+002, 1.981678e+002
3.251167e+002, 1.979394e+002
3.255988e+002, 1.977129e+002
3.260809e+002, 1.975723e+002
3.265630e+002, 1.974439e+002
3.270452e+002, 1.971219e+002
3.275273e+002, 1.961694e+002
3.280094e+002, 1.953967e+002
3.284915e+002, 1.951428e+002
3.289736e+002, 1.957844e+002
3.294557e+002, 1.961152e+002
3.299379e+002, 1.960287e+002
3.304200e+002, 1.956633e+002
3.309021e+002, 1.952167e+002
3.313842e+002, 1.944033e+002
3.318663e+002, 1.938834e+002
3.323484e+002, 1.939470e+002
3.328306e+002, 1.947334e+002
3.333127e+002, 1.951523e+002
3.337948e+002, 1.950379e+002
3.342769e+002, 1.947011e+002
3.347590e+002, 1.945158e+002
3.352411e+002, 1.946534e+002
3.357233e+002, 1.945284e+002
3.362054e+002, 1.938329e+002
3.366875e+002, 1.926391e+002
3.371696e+002, 1.922753e+002
3.376517e+002, 1.930029e+002
3.381339e+002, 1.940619e+002
3.386160e+002, 1.948734e+002
3.390981e+002, 1.954350e+002
3.395802e+002, 1.957935e+002
3.400623e+002, 1.959411e+002
3.405444e+002, 1.958919e+002
3.410266e+002, 1.956084e+002
3.415087e+002, 1.950097e+002
3.419908e+002, 1.945302e+002
3.424729e+002, 1.945407e+002
3.429550e+002, 1.950344e+002
3.434371e+002, 1.952949e+002
3.439193e+002, 1.952117e+002
3.444014e+002, 1.949639e+002
3.448835e+002, 1.948968e+002
3.453656e+002, 1.950089e+002
3.458477e+002, 1.950683e+002
3.463298e+002, 1.947704e+002
3.468120e+002, 1.942815e+002
3.472941e+002, 1.944759e+002
3.477762e+002, 1.954851e+002
3.482583e+002, 1.965950e+002
3.487404e+002, 1.967563e+002
3.492225e+002, 1.962148e+002
3.497047e+002, 1.960262e+002
3.501868e+002, 1.970062e+002
3.506689e+002, 1.984055e+002
3.511510e+002, 1.987401e+002
3.516331e+002, 1.980264e+002
3.521152e+002, 1.972627e+002
3.525974e+002, 1.972801e+002
3.530795e+002, 1.978333e+002
3.535616e+002, 1.984802e+002
3.540437e+002, 1.991296e+002
3.545258e+002, 1.997803e+002
3.550079e+002, 2.005041e+002
3.554901e+002, 2.012593e+002
3.559722e+002, 2.018746e+002
3.564543e+002, 2.021312e+002
3.569364e+002, 2.022488e+002
3.574185e+002, 2.024487e+002
3.579006e+002, 2.027728e+002
3.583828e+002, 2.031799e+002
3.588649e+002, 2.037307e+002
3.593470e+002, 2.043469e+002
3.598291e+002, 2.048738e+002
3.603112e+002, 2.052221e+002
3.607933e+002, 2.054762e+002
3.612755e+002, 2.055859e+002
3.617576e+002, 2.054852e+002
3.622397e+002, 2.056975e+002
3.627218e+002, 2.067792e+002
3.632039e+002, 2.081495e+002
3.636860e+002, 2.091606e+002
3.641682e+002, 2.090681e+002
3.646503e+002, 2.091558e+002
3.651324e+002, 2.100254e+002
3.656145e+002, 2.116440e+002
3.660966e+002, 2.128549e+002
3.665787e+002, 2.127625e+002
3.670609e+002, 2.126460e+002
3.675430e+002, 2.133252e+002
3.680251e+002, 2.163589e+002
3.685072e+002, 2.184336e+002
3.689893e+002, 2.187454e+002
3.694714e+002, 2.178446e+002
3.699536e+002, 2.174911e+002
3.704357e+002, 2.178110e+002
3.709178e+002, 2.185528e+002
3.713999e+002, 2.196870e+002
3.718820e+002, 2.215059e+002
3.723641e+002, 2.229594e+002
3.728463e+002, 2.238207e+002
3.733284e+002, 2.244491e+002
3.738105e+002, 2.254653e+002
3.742926e+002, 2.271387e+002
3.747747e+002, 2.285760e+002
3.752568e+002, 2.293621e+002
3.757390e+002, 2.294866e+002
3.762211e+002, 2.304013e+002
3.767032e+002, 2.323847e+002
3.771853e+002, 2.345923e+002
3.776674e+002, 2.362608e+002
3.781495e+002, 2.373509e+002
3.786317e+002, 2.382466e+002
3.791138e+002, 2.389222e+002
3.795959e+002, 2.395202e+002
3.800780e+002, 2.405796e+002
3.805601e+002, 2.421344e+002
3.810422e+002, 2.437424e+002
3.815244e+002, 2.451196e+002
3.820065e+002, 2.463023e+002
3.824886e+002, 2.473692e+002
3.829707e+002, 2.483007e+002
3.834528e+002, 2.492411e+002
3.839349e+002, 2.504976e+002
3.844171e+002, 2.520078e+002
3.848992e+002, 2.534077e+002
3.853813e+002, 2.541742e+002
3.858634e+002, 2.548398e+002
3.863455e+002, 2.566215e+002
3.868276e+002, 2.595970e+002
3.873098e+002, 2.624200e+002
3.877919e+002, 2.637655e+002
3.882740e+002, 2.641932e+002
3.887561e+002, 2.646865e+002
3.892382e+002, 2.654656e+002
3.897203e+002, 2.665440e+002
3.902025e+002, 2.681306e+002
3.906846e+002, 2.700946e+002
3.911667e+002, 2.718703e+002
3.916488e+002, 2.729453e+002
3.921309e+002, 2.737803e+002
3.926130e+002, 2.747695e+002
3.930952e+002, 2.760291e+002
3.935773e+002, 2.773332e+002
3.940594e+002, 2.786886e+002
3.945415e+002, 2.800067e+002
3.950236e+002, 2.811217e+002
3.955057e+002, 2.817902e+002
3.959879e+002, 2.824220e+002
3.964700e+002, 2.832428e+002
3.969521e+002, 2.843352e+002
3.974342e+002, 2.851929e+002
3.979163e+002, 2.854549e+002
3.983984e+002, 2.855863e+002
3.988806e+002, 2.860113e+002
3.993627e+002, 2.870289e+002
3.998448e+002, 2.880345e+002
4.003269e+002, 2.890314e+002
4.008090e+002, 2.899949e+002
4.012911e+002, 2.907128e+002
4.017733e+002, 2.911425e+002
4.022554e+002, 2.913839e+002
4.027375e+002, 2.914300e+002
4.032196e+002, 2.910514e+002
4.037017e+002, 2.911035e+002
4.041838e+002, 2.918247e+002
4.046660e+002, 2.928052e+002
4.051481e+002, 2.932457e+002
4.056302e+002, 2.930668e+002
4.061123e+002, 2.926523e+002
4.065944e+002, 2.920729e+002
4.070765e+002, 2.913373e+002
4.075587e+002, 2.906585e+002
4.080408e+002, 2.900011e+002
4.085229e+002, 2.895099e+002
4.090050e+002, 2.895751e+002
4.094871e+002, 2.901210e+002
4.099692e+002, 2.900275e+002
4.104514e+002, 2.887979e+002
4.109335e+002, 2.870666e+002
4.114156e+002, 2.862648e+002
4.118977e+002, 2.863187e+002
4.123798e+002, 2.862968e+002
4.128619e+002, 2.855037e+002
4.133441e+002, 2.842204e+002
4.138262e+002, 2.829721e+002
4.143083e+002, 2.818214e+002
4.147904e+002, 2.806765e+002
4.152725e+002, 2.793549e+002
4.157546e+002, 2.779692e+002
4.162368e+002, 2.767177e+002
4.167189e+002, 2.759693e+002
4.172010e+002, 2.752130e+002
4.176831e+002, 2.739024e+002
4.181652e+002, 2.720819e+002
4.186473e+002, 2.704027e+002
4.191295e+002, 2.692882e+002
4.196116e+002, 2.684514e+002
4.200937e+002, 2.676949e+002
4.205758e+002, 2.673202e+002
4.210579e+002, 2.664953e+002
4.215400e+002, 2.643842e+002
4.220222e+002, 2.616019e+002
4.225043e+002, 2.596056e+002
4.229864e+002, 2.597252e+002
4.234685e+002, 2.598497e+002
4.239506e+002, 2.590783e+002
4.244327e+002, 2.569993e+002
4.249149e+002, 2.552629e+002
4.253970e+002, 2.541330e+002
4.258791e+002, 2.532614e+002
4.263612e+002, 2.522886e+002
4.268433e+002, 2.511012e+002
4.273254e+002, 2.499895e+002
4.278076e+002, 2.489357e+002
4.282897e+002, 2.479638e+002
4.287718e+002, 2.474025e+002
4.292539e+002, 2.475010e+002
4.297360e+002, 2.475076e+002
4.302181e+002, 2.468989e+002
4.307003e+002, 2.455573e+002
4.311824e+002, 2.443539e+002
4.316645e+002, 2.433205e+002
4.321466e+002, 2.424466e+002
4.326287e+002, 2.417544e+002
4.331108e+002, 2.412534e+002
4.335930e+002, 2.408544e+002
4.340751e+002, 2.406273e+002
4.345572e+002, 2.404692e+002
4.350393e+002, 2.398863e+002
4.355214e+002, 2.388675e+002
4.360035e+002, 2.380232e+002
4.364857e+002, 2.381557e+002
4.369678e+002, 2.388834e+002
4.374499e+002, 2.392962e+002
4.379320e+002, 2.391943e+002
4.384141e+002, 2.387085e+002
4.388962e+002, 2.376260e+002
4.393784e+002, 2.362115e+002
4.398605e+002, 2.352451e+002
4.403426e+002, 2.356667e+002
4.408247e+002, 2.363814e+002
4.413068e+002, 2.363585e+002
4.417889e+002, 2.354431e+002
4.422711e+002, 2.346517e+002
4.427532e+002, 2.346687e+002
4.432353e+002, 2.350023e+002
4.437174e+002, 2.351418e+002
4.441995e+002, 2.348421e+002
4.446816e+002, 2.344356e+002
4.451638e+002, 2.339545e+002
4.456459e+002, 2.334259e+002
4.461280e+002, 2.329484e+002
4.466101e+002, 2.323356e+002
4.470922e+002, 2.319437e+002
4.475743e+002, 2.320090e+002
4.480565e+002, 2.328912e+002
4.485386e+002, 2.333033e+002
4.490207e+002, 2.329507e+002
4.495028e+002, 2.323115e+002
4.499849e+002, 2.320329e+002
4.504670e+002, 2.323246e+002
4.509492e+002, 2.324937e+002
4.514313e+002, 2.323228e+002
4.519134e+002, 2.318863e+002
4.523955e+002, 2.317509e+002
4.528776e+002, 2.319858e+002
4.533597e+002, 2.322986e+002
4.538419e+002, 2.325227e+002
4.543240e+002, 2.326571e+002
4.548061e+002, 2.326881e+002
4.552882e+002, 2.326159e+002
4.557703e+002, 2.324362e+002
4.562524e+002, 2.320815e+002
4.567346e+002, 2.315778e+002
4.572167e+002, 2.311340e+002
4.576988e+002, 2.307444e+002
4.581809e+002, 2.304996e+002
4.586630e+002, 2.306568e+002
4.591451e+002, 2.311876e+002
4.596273e+002, 2.316895e+002
4.601094e+002, 2.317016e+002
4.605915e+002, 2.315509e+002
4.610736e+002, 2.317508e+002
4.615557e+002, 2.327084e+002
4.620378e+002, 2.333853e+002
4.625200e+002, 2.326986e+002
4.630021e+002, 2.312784e+002
4.634842e+002, 2.303643e+002
4.639663e+002, 2.309799e+002
4.644484e+002, 2.317425e+002
4.649305e+002, 2.319547e+002
4.654127e+002, 2.315474e+002
4.658948e+002, 2.312269e+002
4.663769e+002, 2.311966e+002
4.668590e+002, 2.312715e+002
4.673411e+002, 2.313168e+002
4.678232e+002, 2.310744e+002
4.683054e+002, 2.311465e+002
4.687875e+002, 2.317532e+002
4.692696e+002, 2.326467e+002
4.697517e+002, 2.332025e+002
4.702338e+002, 2.332492e+002
4.707159e+002, 2.332663e+002
4.711981e+002, 2.334626e+002
4.716802e+002, 2.338537e+002
4.721623e+002, 2.339705e+002
4.726444e+002, 2.337625e+002
4.731265e+002, 2.334147e+002
4.736086e+002, 2.330130e+002
4.740908e+002, 2.325622e+002
4.745729e+002, 2.324442e+002
4.750550e+002, 2.328317e+002
4.755371e+002, 2.334186e+002
4.760192e+002, 2.335664e+002
4.765013e+002, 2.333326e+002
4.769835e+002, 2.331757e+002
4.774656e+002, 2.333057e+002
4.779477e+002, 2.336860e+002
4.784298e+002, 2.344769e+002
4.789119e+002, 2.357034e+002
4.793940e+002, 2.365342e+002
4.798762e+002, 2.358584e+002
4.803583e+002, 2.345362e+002
4.808404e+002, 2.337432e+002
4.813225e+002, 2.343242e+002
4.818046e+002, 2.348141e+002
4.822867e+002, 2.341573e+002
4.827689e+002, 2.328097e+002
4.832510e+002, 2.319405e+002
4.837331e+002, 2.323307e+002
4.842152e+002, 2.329490e+002
4.846973e+002, 2.334468e+002
4.851794e+002, 2.338673e+002
4.856616e+002, 2.338410e+002
4.861437e+002, 2.327944e+002
4.866258e+002, 2.316183e+002
4.871079e+002, 2.309992e+002
4.875900e+002, 2.312669e+002
4.880721e+002, 2.315134e+002
4.885543e+002, 2.316733e+002
4.890364e+002, 2.317498e+002
4.895185e+002, 2.316923e+002
4.900006e+002, 2.313888e+002
4.904827e+002, 2.312981e+002
4.909648e+002, 2.317431e+002
4.914470e+002, 2.326825e+002
4.919291e+002, 2.332748e+002
4.924112e+002, 2.335000e+002
4.928933e+002, 2.334528e+002
4.933754e+002, 2.331542e+002
4.938575e+002, 2.326487e+002
4.943397e+002, 2.321161e+002
4.948218e+002, 2.315836e+002
4.953039e+002, 2.310821e+002
4.957860e+002, 2.306275e+002
4.962681e+002, 2.302404e+002
4.967502e+002, 2.299862e+002
4.972324e+002, 2.298580e+002
4.977145e+002, 2.299035e+002
4.981966e+002, 2.302839e+002
4.986787e+002, 2.310079e+002
4.991608e+002, 2.315593e+002
4.996429e+002, 2.317874e+002
5.001251e+002, 2.316558e+002
5.006072e+002, 2.310922e+002
5.010893e+002, 2.293204e+002
5.015714e+002, 2.281738e+002
5.020535e+002, 2.284588e+002
5.025356e+002, 2.296225e+002
5.030178e+002, 2.304022e+002
5.034999e+002, 2.306785e+002
5.039820e+002, 2.305878e+002
5.044641e+002, 2.300399e+002
5.049462e+002, 2.290092e+002
5.054283e+002, 2.282858e+002
5.059105e+002, 2.280250e+002
5.063926e+002, 2.278479e+002
5.068747e+002, 2.274122e+002
5.073568e+002, 2.266436e+002
5.078389e+002, 2.261613e+002
5.083210e+002, 2.260653e+002
5.088032e+002, 2.262174e+002
5.092853e+002, 2.264825e+002
5.097674e+002, 2.268428e+002
5.102495e+002, 2.270174e+002
5.107316e+002, 2.268303e+002
5.112137e+002, 2.264026e+002
5.116959e+002, 2.259944e+002
5.121780e+002, 2.255999e+002
5.126601e+002, 2.251314e+002
5.131422e+002, 2.245540e+002
5.136243e+002, 2.238520e+002
5.141064e+002, 2.228679e+002
5.145886e+002, 2.213773e+002
5.150707e+002, 2.203361e+002
5.155528e+002, 2.207751e+002
5.160349e+002, 2.219320e+002
5.165170e+002, 2.227096e+002
5.169991e+002, 2.225664e+002
5.174813e+002, 2.221944e+002
5.179634e+002, 2.218394e+002
5.184455e+002, 2.214792e+002
5.189276e+002, 2.208666e+002
5.194097e+002, 2.194417e+002
5.198918e+002, 2.182379e+002
5.203740e+002, 2.177760e+002
5.208561e+002, 2.184309e+002
5.213382e+002, 2.185599e+002
5.218203e+002, 2.179687e+002
5.223024e+002, 2.170677e+002
5.227845e+002, 2.162685e+002
5.232667e+002, 2.155507e+002
5.237488e+002, 2.150565e+002
5.242309e+002, 2.149050e+002
5.247130e+002, 2.149128e+002
5.251951e+002, 2.145846e+002
5.256772e+002, 2.139250e+002
5.261594e+002, 2.132367e+002
5.266415e+002, 2.127984e+002
5.271236e+002, 2.124301e+002
5.276057e+002, 2.116024e+002
5.280878e+002, 2.102973e+002
5.285699e+002, 2.091304e+002
5.290521e+002, 2.088285e+002
5.295342e+002, 2.089140e+002
5.300163e+002, 2.087237e+002
5.304984e+002, 2.078774e+002
5.309805e+002, 2.071150e+002
5.314626e+002, 2.069154e+002
5.319448e+002, 2.070861e+002
5.324269e+002, 2.072534e+002
5.329090e+002, 2.072816e+002
5.333911e+002, 2.073117e+002
5.338732e+002, 2.074272e+002
5.343553e+002, 2.076326e+002
5.348375e+002, 2.076979e+002
5.353196e+002, 2.076150e+002
5.358017e+002, 2.073871e+002
5.362838e+002, 2.069740e+002
5.367659e+002, 2.062154e+002
5.372480e+002, 2.057072e+002
5.377302e+002, 2.054935e+002
5.382123e+002, 2.054733e+002
5.386944e+002, 2.055974e+002
5.391765e+002, 2.058956e+002
5.396586e+002, 2.058838e+002
5.401407e+002, 2.052200e+002
5.406229e+002, 2.043535e+002
5.411050e+002, 2.046988e+002
5.415871e+002, 2.061095e+002
5.420692e+002, 2.070819e+002
5.425513e+002, 2.060865e+002
5.430334e+002, 2.042891e+002
5.435156e+002, 2.035719e+002
5.439977e+002, 2.040951e+002
5.444798e+002, 2.047580e+002
5.449619e+002, 2.048281e+002
5.454440e+002, 2.046032e+002
5.459261e+002, 2.043870e+002
5.464083e+002, 2.040590e+002
5.468904e+002, 2.040322e+002
5.473725e+002, 2.047251e+002
5.478546e+002, 2.057937e+002
5.483367e+002, 2.065212e+002
5.488188e+002, 2.064519e+002
5.493010e+002, 2.063919e+002
5.497831e+002, 2.065914e+002
5.502652e+002, 2.070420e+002
5.507473e+002, 2.072245e+002
5.512294e+002, 2.070247e+002
5.517115e+002, 2.067507e+002
5.521937e+002, 2.066124e+002
5.526758e+002, 2.066380e+002
5.531579e+002, 2.064867e+002
5.536400e+002, 2.060449e+002
5.541221e+002, 2.057141e+002
5.546042e+002, 2.062405e+002
5.550864e+002, 2.074652e+002
5.555685e+002, 2.083726e+002
5.560506e+002, 2.085559e+002
5.565327e+002, 2.083940e+002
5.570148e+002, 2.082959e+002
5.574969e+002, 2.082796e+002
5.579791e+002, 2.084192e+002
5.584612e+002, 2.089454e+002
5.589433e+002, 2.095104e+002
5.594254e+002, 2.097178e+002
5.599075e+002, 2.095329e+002
5.603896e+002, 2.095941e+002
5.608718e+002, 2.106524e+002
5.613539e+002, 2.117542e+002
5.618360e+002, 2.121693e+002
5.623181e+002, 2.111302e+002
5.628002e+002, 2.104092e+002
5.632823e+002, 2.101620e+002
5.637645e+002, 2.102603e+002
5.642466e+002, 2.105582e+002
5.647287e+002, 2.112056e+002
5.652108e+002, 2.117165e+002
5.656929e+002, 2.119641e+002
5.661750e+002, 2.119925e+002
5.666572e+002, 2.119185e+002
5.671393e+002, 2.116958e+002
5.676214e+002, 2.117044e+002
5.681035e+002, 2.124138e+002
5.685856e+002, 2.135654e+002
5.690677e+002, 2.140817e+002
5.695499e+002, 2.138841e+002
5.700320e+002, 2.136301e+002
5.705141e+002, 2.140935e+002
5.709962e+002, 2.148703e+002
5.714783e+002, 2.152465e+002
5.719604e+002, 2.148152e+002
5.724426e+002, 2.144396e+002
5.729247e+002, 2.149878e+002
5.734068e+002, 2.159317e+002
5.738889e+002, 2.163371e+002
5.743710e+002, 2.151575e+002
5.748531e+002, 2.141352e+002
5.753353e+002, 2.139440e+002
5.758174e+002, 2.145438e+002
5.762995e+002, 2.150632e+002
5.767816e+002, 2.154611e+002
5.772637e+002, 2.157951e+002
5.777458e+002, 2.160996e+002
5.782280e+002, 2.163858e+002
5.787101e+002, 2.165527e+002
5.791922e+002, 2.165563e+002
5.796743e+002, 2.165359e+002
5.801564e+002, 2.166362e+002
5.806385e+002, 2.168517e+002
5.811207e+002, 2.171216e+002
5.816028e+002, 2.174617e+002
5.820849e+002, 2.177858e+002
5.825670e+002, 2.179467e+002
5.830491e+002, 2.179769e+002
5.835313e+002, 2.179907e+002
5.840134e+002, 2.179796e+002
5.844955e+002, 2.180193e+002
5.849776e+002, 2.181836e+002
5.854597e+002, 2.184640e+002
5.859418e+002, 2.188102e+002
5.864240e+002, 2.195954e+002
5.869061e+002, 2.201322e+002
5.873882e+002, 2.198066e+002
5.878703e+002, 2.181290e+002
5.883524e+002, 2.172762e+002
5.888345e+002, 2.183931e+002
5.893167e+002, 2.198529e+002
5.897988e+002, 2.203488e+002
5.902809e+002, 2.193159e+002
5.907630e+002, 2.186296e+002
5.912451e+002, 2.185325e+002
5.917272e+002, 2.187319e+002
5.922094e+002, 2.185919e+002
5.926915e+002, 2.180747e+002
5.931736e+002, 2.178618e+002
5.936557e+002, 2.183034e+002
5.941378e+002, 2.191214e+002
5.946199e+002, 2.197658e+002
5.951021e+002, 2.202176e+002
5.955842e+002, 2.203602e+002
5.960663e+002, 2.198669e+002
5.965484e+002, 2.191526e+002
5.970305e+002, 2.186927e+002
5.975126e+002, 2.185306e+002
5.979948e+002, 2.184527e+002
5.984769e+002, 2.183514e+002
5.989590e+002, 2.182772e+002
5.994411e+002, 2.182762e+002
5.999232e+002, 2.183964e+002
6.004053e+002, 2.185267e+002
6.008875e+002, 2.185945e+002
6.013696e+002, 2.186843e+002
6.018517e+002, 2.189348e+002
6.023338e+002, 2.194886e+002
6.028159e+002, 2.199180e+002
6.032980e+002, 2.201286e+002
6.037802e+002, 2.201659e+002
6.042623e+002, 2.201603e+002
6.047444e+002, 2.200944e+002
6.052265e+002, 2.201253e+002
6.057086e+002, 2.204804e+002
6.061907e+002, 2.209960e+002
6.066729e+002, 2.210231e+002
6.071550e+002, 2.205699e+002
6.076371e+002, 2.201074e+002
6.081192e+002, 2.200418e+002
6.086013e+002, 2.201817e+002
6.090834e+002, 2.202686e+002
6.095656e+002, 2.202323e+002
6.100477e+002, 2.202645e+002
6.105298e+002, 2.206337e+002
6.110119e+002, 2.210644e+002
6.114940e+002, 2.212515e+002
6.119761e+002, 2.208836e+002
6.124583e+002, 2.205616e+002
6.129404e+002, 2.202990e+002
6.134225e+002, 2.201557e+002
6.139046e+002, 2.203215e+002
6.143867e+002, 2.210618e+002
6.148688e+002, 2.215322e+002
6.153510e+002, 2.213382e+002
6.158331e+002, 2.206502e+002
6.163152e+002, 2.206058e+002
6.167973e+002, 2.212490e+002
6.172794e+002, 2.220476e+002
6.177615e+002, 2.227782e+002
6.182437e+002, 2.233656e+002
6.187258e+002, 2.235405e+002
6.192079e+002, 2.232719e+002
6.196900e+002, 2.229553e+002
6.201721e+002, 2.228366e+002
6.206542e+002, 2.228992e+002
6.211364e+002, 2.231814e+002
6.216185e+002, 2.238963e+002
6.221006e+002, 2.243709e+002
6.225827e+002, 2.240786e+002
6.230648e+002, 2.234492e+002
6.235469e+002, 2.230833e+002
6.240291e+002, 2.233119e+002
6.245112e+002, 2.235556e+002
6.249933e+002, 2.238039e+002
6.254754e+002, 2.240146e+002
6.259575e+002, 2.239736e+002
6.264396e+002, 2.235336e+002
6.269218e+002, 2.232907e+002
6.274039e+002, 2.235496e+002
6.278860e+002, 2.242124e+002
6.283681e+002, 2.246908e+002
6.288502e+002, 2.249808e+002
6.293323e+002, 2.251788e+002
6.298145e+002, 2.253366e+002
6.302966e+002, 2.254554e+002
6.307787e+002, 2.255387e+002
6.312608e+002, 2.255845e+002
6.317429e+002, 2.256001e+002
6.322250e+002, 2.256503e+002
6.327072e+002, 2.256423e+002
6.331893e+002, 2.254515e+002
6.336714e+002, 2.248336e+002
6.341535e+002, 2.243935e+002
6.346356e+002, 2.243043e+002
6.351177e+002, 2.244860e+002
6.355999e+002, 2.248348e+002
6.360820e+002, 2.257340e+002
6.365641e+002, 2.261413e+002
6.370462e+002, 2.256861e+002
6.375283e+002, 2.246786e+002
6.380104e+002, 2.241794e+002
6.384926e+002, 2.242546e+002
6.389747e+002, 2.244031e+002
6.394568e+002, 2.244601e+002
6.399389e+002, 2.244111e+002
6.404210e+002, 2.240701e+002
6.409031e+002, 2.234647e+002
6.413853e+002, 2.230871e+002
6.418674e+002, 2.235625e+002
6.423495e+002, 2.243344e+002
6.428316e+002, 2.246628e+002
6.433137e+002, 2.244195e+002
6.437958e+002, 2.242744e+002
6.442780e+002, 2.248635e+002
6.447601e+002, 2.255343e+002
6.452422e+002, 2.256933e+002
6.457243e+002, 2.247155e+002
6.462064e+002, 2.240358e+002
6.466885e+002, 2.238707e+002
6.471707e+002, 2.239451e+002
6.476528e+002, 2.238855e+002
6.481349e+002, 2.236142e+002
6.486170e+002, 2.234706e+002
6.490991e+002, 2.235823e+002
6.495812e+002, 2.237857e+002
6.500634e+002, 2.236576e+002
6.505455e+002, 2.232187e+002
6.510276e+002, 2.227819e+002
6.515097e+002, 2.223722e+002
6.519918e+002, 2.221206e+002
6.524739e+002, 2.223905e+002
6.529561e+002, 2.230706e+002
6.534382e+002, 2.235932e+002
6.539203e+002, 2.234975e+002
6.544024e+002, 2.232189e+002
6.548845e+002, 2.230500e+002
6.553666e+002, 2.230311e+002
6.558488e+002, 2.229797e+002
6.563309e+002, 2.230105e+002
6.568130e+002, 2.228725e+002
6.572951e+002, 2.223682e+002
6.577772e+002, 2.212161e+002
6.582593e+002, 2.204777e+002
6.587415e+002, 2.202557e+002
6.592236e+002, 2.202820e+002
6.597057e+002, 2.202967e+002
6.601878e+002, 2.202987e+002
6.606699e+002, 2.201974e+002
6.611520e+002, 2.199277e+002
6.616342e+002, 2.196789e+002
6.621163e+002, 2.198186e+002
6.625984e+002, 2.202014e+002
6.630805e+002, 2.204386e+002
6.635626e+002, 2.201851e+002
6.640447e+002, 2.199234e+002
6.645269e+002, 2.201552e+002
6.650090e+002, 2.206680e+002
6.654911e+002, 2.208471e+002
6.659732e+002, 2.201538e+002
6.664553e+002, 2.194402e+002
6.669374e+002, 2.189933e+002
6.674196e+002, 2.188034e+002
6.679017e+002, 2.187341e+002
6.683838e+002, 2.187777e+002
6.688659e+002, 2.189671e+002
6.693480e+002, 2.194408e+002
6.698301e+002, 2.201905e+002
6.703123e+002, 2.204554e+002
6.707944e+002, 2.202056e+002
6.712765e+002, 2.196968e+002
6.717586e+002, 2.189671e+002
6.722407e+002, 2.181680e+002
6.727228e+002, 2.176631e+002
6.732050e+002, 2.175141e+002
6.736871e+002, 2.175283e+002
6.741692e+002, 2.175807e+002
6.746513e+002, 2.176992e+002
6.751334e+002, 2.179460e+002
6.756155e+002, 2.187614e+002
6.760977e+002, 2.190589e+002
6.765798e+002, 2.181541e+002
6.770619e+002, 2.167263e+002
6.775440e+002, 2.157969e+002
6.780261e+002, 2.156002e+002
6.785082e+002, 2.154262e+002
6.789904e+002, 2.151340e+002
6.794725e+002, 2.148121e+002
6.799546e+002, 2.147225e+002
6.804367e+002, 2.148714e+002
6.809188e+002, 2.149849e+002
6.814009e+002, 2.148710e+002
6.818831e+002, 2.147040e+002
6.823652e+002, 2.149595e+002
6.828473e+002, 2.155223e+002
6.833294e+002, 2.158000e+002
6.838115e+002, 2.151120e+002
6.842936e+002, 2.142695e+002
6.847758e+002, 2.139303e+002
6.852579e+002, 2.141336e+002
6.857400e+002, 2.141523e+002
6.862221e+002, 2.135470e+002
6.867042e+002, 2.129212e+002
6.871863e+002, 2.126049e+002
6.876685e+002, 2.127011e+002
6.881506e+002, 2.126380e+002
6.886327e+002, 2.123359e+002
6.891148e+002, 2.120280e+002
6.895969e+002, 2.120070e+002
6.900790e+002, 2.122361e+002
6.905612e+002, 2.120902e+002
6.910433e+002, 2.114188e+002
6.915254e+002, 2.107993e+002
6.920075e+002, 2.111909e+002
6.924896e+002, 2.120647e+002
6.929717e+002, 2.124167e+002
6.934539e+002, 2.117837e+002
6.939360e+002, 2.109440e+002
6.944181e+002, 2.100599e+002
6.949002e+002, 2.093332e+002
6.953823e+002, 2.090765e+002
6.958644e+002, 2.099933e+002
6.963466e+002, 2.106155e+002
6.968287e+002, 2.106528e+002
6.973108e+002, 2.102953e+002
6.977929e+002, 2.100341e+002
6.982750e+002, 2.099168e+002
6.987571e+002, 2.097391e+002
6.992393e+002, 2.094282e+002
6.997214e+002, 2.090189e+002
7.002035e+002, 2.085216e+002
7.006856e+002, 2.079676e+002
7.011677e+002, 2.076520e+002
7.016498e+002, 2.080834e+002
7.021320e+002, 2.086362e+002
7.026141e+002, 2.084545e+002
7.030962e+002, 2.076116e+002
7.035783e+002, 2.069433e+002
7.040604e+002, 2.069068e+002
7.045425e+002, 2.070839e+002
7.050247e+002, 2.072229e+002
7.055068e+002, 2.072626e+002
7.059889e+002, 2.075301e+002
7.064710e+002, 2.082205e+002
7.069531e+002, 2.088817e+002
7.074352e+002, 2.092350e+002
7.079174e+002, 2.092716e+002
7.083995e+002, 2.090695e+002
7.088816e+002, 2.085999e+002
7.093637e+002, 2.080461e+002
7.098458e+002, 2.074901e+002
7.103279e+002, 2.070105e+002
7.108101e+002, 2.068179e+002
7.112922e+002, 2.069926e+002
7.117743e+002, 2.072868e+002
7.122564e+002, 2.076161e+002
7.127385e+002, 2.079198e+002
7.132206e+002, 2.081215e+002
7.137028e+002, 2.080920e+002
7.141849e+002, 2.081128e+002
7.146670e+002, 2.083673e+002
7.151491e+002, 2.086468e+002
7.156312e+002, 2.086232e+002
7.161133e+002, 2.081121e+002
7.165955e+002, 2.078183e+002
7.170776e+002, 2.078962e+002
7.175597e+002, 2.082121e+002
7.180418e+002, 2.085215e+002
7.185239e+002, 2.088211e+002
7.190060e+002, 2.090696e+002
7.194882e+002, 2.092312e+002
7.199703e+002, 2.093484e+002
7.204524e+002, 2.094018e+002
7.209345e+002, 2.094443e+002
7.214166e+002, 2.096394e+002
7.218987e+002, 2.101628e+002
7.223809e+002, 2.107598e+002
7.228630e+002, 2.113559e+002
7.233451e+002, 2.119320e+002
7.238272e+002, 2.123740e+002
7.243093e+002, 2.126412e+002
7.247914e+002, 2.128367e+002
7.252736e+002, 2.130297e+002
7.257557e+002, 2.132040e+002
7.262378e+002, 2.130347e+002
7.267199e+002, 2.124668e+002
7.272020e+002, 2.120370e+002
7.276841e+002, 2.121743e+002
7.281663e+002, 2.126881e+002
7.286484e+002, 2.132436e+002
7.291305e+002, 2.138187e+002
7.296126e+002, 2.142116e+002
7.300947e+002, 2.140847e+002
7.305768e+002, 2.138529e+002
7.310590e+002, 2.138882e+002
7.315411e+002, 2.143082e+002
7.320232e+002, 2.146022e+002
7.325053e+002, 2.143806e+002
7.329874e+002, 2.142434e+002
7.334695e+002, 2.146406e+002
7.339517e+002, 2.158729e+002
7.344338e+002, 2.165280e+002
7.349159e+002, 2.165147e+002
7.353980e+002, 2.161908e+002
7.358801e+002, 2.157237e+002
7.363622e+002, 2.152353e+002
7.368444e+002, 2.153827e+002
7.373265e+002, 2.164078e+002
7.378086e+002, 2.173632e+002
7.382907e+002, 2.170511e+002
7.387728e+002, 2.162466e+002
7.392549e+002, 2.159820e+002
7.397371e+002, 2.168472e+002
7.402192e+002, 2.177381e+002
7.407013e+002, 2.184864e+002
7.411834e+002, 2.190318e+002
7.416655e+002, 2.192984e+002
7.421476e+002, 2.191469e+002
7.426298e+002, 2.190166e+002
7.431119e+002, 2.188960e+002
7.435940e+002, 2.188951e+002
7.440761e+002, 2.193299e+002
7.445582e+002, 2.201407e+002
7.450403e+002, 2.207970e+002
7.455225e+002, 2.211589e+002
7.460046e+002, 2.212529e+002
7.464867e+002, 2.209176e+002
7.469688e+002, 2.203527e+002
7.474509e+002, 2.199949e+002
7.479330e+002, 2.200528e+002
7.484152e+002, 2.203227e+002
7.488973e+002, 2.208836e+002
7.493794e+002, 2.216136e+002
7.498615e+002, 2.221053e+002
7.503436e+002, 2.223172e+002
7.508257e+002, 2.223575e+002
7.513079e+002, 2.221544e+002
7.517900e+002, 2.218417e+002
7.522721e+002, 2.220181e+002
7.527542e+002, 2.226860e+002
7.532363e+002, 2.231444e+002
7.537184e+002, 2.227593e+002
7.542006e+002, 2.221499e+002
7.546827e+002, 2.225719e+002
7.551648e+002, 2.237316e+002
7.556469e+002, 2.243838e+002
7.561290e+002, 2.231642e+002
7.566111e+002, 2.219297e+002
7.570933e+002, 2.217891e+002
7.575754e+002, 2.227244e+002
7.580575e+002, 2.234351e+002
7.585396e+002, 2.238127e+002
7.590217e+002, 2.240011e+002
7.595038e+002, 2.240052e+002
7.599860e+002, 2.238452e+002
7.604681e+002, 2.236847e+002
7.609502e+002, 2.234974e+002
7.614323e+002, 2.236317e+002
7.619144e+002, 2.246448e+002
7.623965e+002, 2.260165e+002
7.628787e+002, 2.267276e+002
7.633608e+002, 2.267937e+002
7.638429e+002, 2.268149e+002
7.643250e+002, 2.272314e+002
7.648071e+002, 2.276612e+002
7.652892e+002, 2.278158e+002
7.657714e+002, 2.276353e+002
7.662535e+002, 2.274921e+002
7.667356e+002, 2.273752e+002
7.672177e+002, 2.273453e+002
7.676998e+002, 2.274557e+002
7.681819e+002, 2.277176e+002
7.686641e+002, 2.279746e+002
7.691462e+002, 2.282307e+002
7.696283e+002, 2.284428e+002
7.701104e+002, 2.285144e+002
7.705925e+002, 2.285319e+002
7.710746e+002, 2.286702e+002
7.715568e+002, 2.289482e+002
7.720389e+002, 2.292626e+002
7.725210e+002, 2.295922e+002
7.730031e+002, 2.298998e+002
7.734852e+002, 2.301447e+002
7.739673e+002, 2.302760e+002
7.744495e+002, 2.304856e+002
7.749316e+002, 2.308147e+002
7.754137e+002, 2.311741e+002
7.758958e+002, 2.315539e+002
7.763779e+002, 2.319779e+002
7.768600e+002, 2.320629e+002
7.773422e+002, 2.317646e+002
7.778243e+002, 2.313387e+002
7.783064e+002, 2.310282e+002
7.787885e+002, 2.307804e+002
7.792706e+002, 2.304668e+002
7.797527e+002, 2.300481e+002
7.802349e+002, 2.297204e+002
7.807170e+002, 2.296025e+002
7.811991e+002, 2.296343e+002
7.816812e+002, 2.297811e+002
7.821633e+002, 2.301819e+002
7.826454e+002, 2.304041e+002
7.831276e+002, 2.303366e+002
7.836097e+002, 2.302258e+002
7.840918e+002, 2.303772e+002
7.845739e+002, 2.307982e+002
7.850560e+002, 2.309859e+002
7.855381e+002, 2.308867e+002
7.860203e+002, 2.305670e+002
7.865024e+002, 2.298315e+002
7.869845e+002, 2.289984e+002
7.874666e+002, 2.286320e+002
7.879487e+002, 2.289405e+002
7.884308e+002, 2.294494e+002
7.889130e+002, 2.301443e+002
7.893951e+002, 2.308082e+002
7.898772e+002, 2.312215e+002
7.903593e+002, 2.313233e+002
7.908414e+002, 2.312423e+002
7.913235e+002, 2.309362e+002
7.918057e+002, 2.304995e+002
7.922878e+002, 2.298921e+002
7.927699e+002, 2.291482e+002
7.932520e+002, 2.291335e+002
7.937341e+002, 2.301352e+002
7.942162e+002, 2.311111e+002
7.946984e+002, 2.305883e+002
7.951805e+002, 2.293953e+002
7.956626e+002, 2.289114e+002
7.961447e+002, 2.298619e+002
7.966268e+002, 2.306263e+002
7.971089e+002, 2.303797e+002
7.975911e+002, 2.297837e+002
7.980732e+002, 2.296123e+002
7.985553e+002, 2.301990e+002
7.990374e+002, 2.304086e+002
7.995195e+002, 2.300493e+002
8.000016e+002, 2.295587e+002
8.004838e+002, 2.296352e+002
8.009659e+002, 2.301373e+002
8.014480e+002, 2.301651e+002
8.019301e+002, 2.294526e+002
8.024122e+002, 2.286768e+002
8.028943e+002, 2.283784e+002
8.033765e+002, 2.284673e+002
8.038586e+002, 2.288710e+002
8.043407e+002, 2.299685e+002
8.048228e+002, 2.306490e+002
8.053049e+002, 2.301741e+002
8.057870e+002, 2.294765e+002
8.062692e+002, 2.295840e+002
8.067513e+002, 2.308515e+002
8.072334e+002, 2.314116e+002
8.077155e+002, 2.309255e+002
8.081976e+002, 2.301779e+002
8.086797e+002, 2.303368e+002
8.091619e+002, 2.310621e+002
8.096440e+002, 2.312854e+002
8.101261e+002, 2.306346e+002
8.106082e+002, 2.300166e+002
8.110903e+002, 2.299779e+002
8.115724e+002, 2.303984e+002
8.120546e+002, 2.311762e+002
8.125367e+002, 2.327331e+002
8.130188e+002, 2.339174e+002
8.135009e+002, 2.345574e+002
8.139830e+002, 2.349461e+002
8.144651e+002, 2.354780e+002
8.149473e+002, 2.362000e+002
8.154294e+002, 2.363024e+002
8.159115e+002, 2.356233e+002
8.163936e+002, 2.347164e+002
8.168757e+002, 2.338888e+002
8.173578e+002, 2.333720e+002
8.178400e+002, 2.337036e+002
8.183221e+002, 2.352921e+002
8.188042e+002, 2.366921e+002
8.192863e+002, 2.370564e+002
8.197684e+002, 2.369863e+002
8.202505e+002, 2.370337e+002
8.207327e+002, 2.372128e+002
8.212148e+002, 2.375369e+002
8.216969e+002, 2.380525e+002
8.221790e+002, 2.386195e+002
8.226611e+002, 2.391032e+002
8.231432e+002, 2.395047e+002
8.236254e+002, 2.397797e+002
8.241075e+002, 2.399120e+002
8.245896e+002, 2.400229e+002
8.250717e+002, 2.401614e+002
8.255538e+002, 2.403721e+002
8.260359e+002, 2.407637e+002
8.265181e+002, 2.414805e+002
8.270002e+002, 2.419396e+002
8.274823e+002, 2.416723e+002
8.279644e+002, 2.413874e+002
8.284465e+002, 2.415473e+002
8.289286e+002, 2.422206e+002
8.294108e+002, 2.431452e+002
8.298929e+002, 2.444343e+002
8.303750e+002, 2.454754e+002
8.308571e+002, 2.453799e+002
8.313392e+002, 2.446908e+002
8.318214e+002, 2.446599e+002
8.323035e+002, 2.454356e+002
8.327856e+002, 2.461901e+002
8.332677e+002, 2.460449e+002
8.337498e+002, 2.459223e+002
8.342319e+002, 2.466826e+002
8.347141e+002, 2.488208e+002
8.351962e+002, 2.500067e+002
8.356783e+002, 2.497724e+002
8.361604e+002, 2.493600e+002
8.366425e+002, 2.496735e+002
8.371246e+002, 2.506386e+002
8.376068e+002, 2.510956e+002
8.380889e+002, 2.510352e+002
8.385710e+002, 2.508807e+002
8.390531e+002, 2.506908e+002
8.395352e+002, 2.507467e+002
8.400173e+002, 2.515526e+002
8.404995e+002, 2.531231e+002
8.409816e+002, 2.543929e+002
8.414637e+002, 2.548749e+002
8.419458e+002, 2.550927e+002
8.424279e+002, 2.552049e+002
8.429100e+002, 2.552176e+002
8.433922e+002, 2.555618e+002
8.438743e+002, 2.562994e+002
8.443564e+002, 2.570163e+002
8.448385e+002, 2.574706e+002
8.453206e+002, 2.577231e+002
8.458027e+002, 2.577859e+002
8.462849e+002, 2.577223e+002
8.467670e+002, 2.578964e+002
8.472491e+002, 2.588615e+002
8.477312e+002, 2.598038e+002
8.482133e+002, 2.601310e+002
8.486954e+002, 2.599252e+002
8.491776e+002, 2.601387e+002
8.496597e+002, 2.611402e+002
8.501418e+002, 2.618662e+002
8.506239e+002, 2.618384e+002
8.511060e+002, 2.613460e+002
8.515881e+002, 2.614120e+002
8.520703e+002, 2.619725e+002
8.525524e+002, 2.624717e+002
8.530345e+002, 2.624017e+002
8.535166e+002, 2.623569e+002
8.539987e+002, 2.629844e+002
8.544808e+002, 2.640654e+002
8.549630e+002, 2.650516e+002
8.554451e+002, 2.659453e+002
8.559272e+002, 2.664756e+002
8.564093e+002, 2.664241e+002
8.568914e+002, 2.660606e+002
8.573735e+002, 2.660778e+002
8.578557e+002, 2.665259e+002
8.583378e+002, 2.666534e+002
8.588199e+002, 2.661095e+002
8.593020e+002, 2.654691e+002
8.597841e+002, 2.658620e+002
8.602662e+002, 2.667722e+002
8.607484e+002, 2.671124e+002
8.612305e+002, 2.661932e+002
8.617126e+002, 2.651253e+002
8.621947e+002, 2.642375e+002
8.626768e+002, 2.634789e+002
8.631589e+002, 2.627586e+002
8.636411e+002, 2.619844e+002
8.641232e+002, 2.616222e+002
8.646053e+002, 2.619547e+002
8.650874e+002, 2.621282e+002
8.655695e+002, 2.605729e+002
8.660516e+002, 2.579081e+002
8.665338e+002, 2.562122e+002
8.670159e+002, 2.560437e+002
8.674980e+002, 2.558938e+002
8.679801e+002, 2.546582e+002
8.684622e+002, 2.529254e+002
8.689443e+002, 2.512963e+002
8.694265e+002, 2.501250e+002
8.699086e+002, 2.482849e+002
8.703907e+002, 2.454606e+002
8.708728e+002, 2.424710e+002
8.713549e+002, 2.401132e+002
8.718370e+002, 2.382980e+002
8.723192e+002, 2.359758e+002
8.728013e+002, 2.330648e+002
8.732834e+002, 2.302852e+002
8.737655e+002, 2.286156e+002
8.742476e+002, 2.271077e+002
8.747297e+002, 2.247172e+002
8.752119e+002, 2.213055e+002
8.756940e+002, 2.179585e+002
8.761761e+002, 2.149329e+002
8.766582e+002, 2.120720e+002
8.771403e+002, 2.093612e+002
8.776224e+002, 2.067866e+002
8.781046e+002, 2.042039e+002
8.785867e+002, 2.016328e+002
8.790688e+002, 1.988682e+002
8.795509e+002, 1.956740e+002
8.800330e+002, 1.923473e+002
8.805151e+002, 1.893693e+002
8.809973e+002, 1.866605e+002
8.814794e+002, 1.839042e+002
8.819615e+002, 1.807643e+002
8.824436e+002, 1.777791e+002
8.829257e+002, 1.751657e+002
8.834078e+002, 1.728713e+002
8.838900e+002, 1.706449e+002
8.843721e+002, 1.684938e+002
8.848542e+002, 1.663869e+002
8.853363e+002, 1.643685e+002
8.858184e+002, 1.622983e+002
8.863005e+002, 1.597926e+002
8.867827e+002, 1.570272e+002
8.872648e+002, 1.544949e+002
8.877469e+002, 1.525011e+002
8.882290e+002, 1.505881e+002
8.887111e+002, 1.485353e+002
8.891932e+002, 1.464583e+002
8.896754e+002, 1.445034e+002
8.901575e+002, 1.426713e+002
8.906396e+002, 1.410181e+002
8.911217e+002, 1.395837e+002
8.916038e+002, 1.382783e+002
8.920859e+002, 1.370634e+002
8.925681e+002, 1.358750e+002
8.930502e+002, 1.344304e+002
8.935323e+002, 1.326419e+002
8.940144e+002, 1.310152e+002
8.944965e+002, 1.301665e+002
8.949786e+002, 1.294810e+002
8.954608e+002, 1.283399e+002
8.959429e+002, 1.264284e+002
8.964250e+002, 1.251056e+002
8.969071e+002, 1.246162e+002
8.973892e+002, 1.242431e+002
8.978713e+002, 1.234637e+002
8.983535e+002, 1.223616e+002
8.988356e+002, 1.215072e+002
8.993177e+002, 1.208858e+002
8.997998e+002, 1.202300e+002
9.002819e+002, 1.193051e+002
9.007640e+002, 1.183146e+002
9.012462e+002, 1.173689e+002
9.017283e+002, 1.164872e+002
9.022104e+002, 1.156930e+002
9.026925e+002, 1.149981e+002
9.031746e+002, 1.143999e+002
9.036567e+002, 1.139370e+002
9.041389e+002, 1.135472e+002
9.046210e+002, 1.129967e+002
9.051031e+002, 1.123034e+002
9.055852e+002, 1.116001e+002
9.060673e+002, 1.108669e+002
9.065494e+002, 1.102480e+002
9.070316e+002, 1.099281e+002
9.075137e+002, 1.098029e+002
9.079958e+002, 1.096855e+002
9.084779e+002, 1.098243e+002
9.089600e+002, 1.094996e+002
9.094421e+002, 1.083078e+002
9.099243e+002, 1.070072e+002
9.104064e+002, 1.068037e+002
9.108885e+002, 1.076162e+002
9.113706e+002, 1.079107e+002
9.118527e+002, 1.074204e+002
9.123348e+002, 1.066583e+002
9.128170e+002, 1.060067e+002
9.132991e+002, 1.054186e+002
9.137812e+002, 1.048108e+002
9.142633e+002, 1.041152e+002
9.147454e+002, 1.036539e+002
9.152275e+002, 1.036856e+002
9.157097e+002, 1.037042e+002
9.161918e+002, 1.033561e+002
9.166739e+002, 1.026512e+002
9.171560e+002, 1.022881e+002
9.176381e+002, 1.022726e+002
9.181202e+002, 1.022345e+002
9.186024e+002, 1.017332e+002
9.190845e+002, 1.012040e+002
9.195666e+002, 1.011874e+002
9.200487e+002, 1.016104e+002
9.205308e+002, 1.019733e+002
9.210129e+002, 1.022650e+002
9.214951e+002, 1.023043e+002
9.219772e+002, 1.020108e+002
9.224593e+002, 1.014525e+002
9.229414e+002, 1.007236e+002
9.234235e+002, 9.983730e+001
9.239056e+002, 9.924976e+001
9.243878e+002, 9.917149e+001
9.248699e+002, 9.933158e+001
9.253520e+002, 9.961838e+001
9.258341e+002, 9.987197e+001
9.263162e+002, 9.983732e+001
9.267983e+002, 9.918741e+001
9.272805e+002, 9.862931e+001
9.277626e+002, 9.825828e+001
9.282447e+002, 9.798891e+001
9.287268e+002, 9.780544e+001
9.292089e+002, 9.771319e+001
9.296910e+002, 9.724444e+001
9.301732e+002, 9.632468e+001
9.306553e+002, 9.557063e+001
9.311374e+002, 9.576122e+001
9.316195e+002, 9.630050e+001
9.321016e+002, 9.652943e+001
9.325837e+002, 9.636043e+001
9.330659e+002, 9.612479e+001
9.335480e+002, 9.569658e+001
9.340301e+002, 9.545952e+001
9.345122e+002, 9.565037e+001
9.349943e+002, 9.617638e+001
9.354764e+002, 9.642848e+001
9.359586e+002, 9.640771e+001
9.364407e+002, 9.617606e+001
9.369228e+002, 9.567858e+001
9.374049e+002, 9.506206e+001
9.378870e+002, 9.430892e+001
9.383691e+002, 9.356362e+001
9.388513e+002, 9.317908e+001
9.393334e+002, 9.375146e+001
9.398155e+002, 9.400801e+001
9.402976e+002, 9.367887e+001
9.407797e+002, 9.307424e+001
9.412618e+002, 9.261802e+001
9.417440e+002, 9.231535e+001
9.422261e+002, 9.228075e+001
9.427082e+002, 9.258803e+001
9.431903e+002, 9.286015e+001
9.436724e+002, 9.273483e+001
9.441545e+002, 9.238376e+001
9.446367e+002, 9.192055e+001
9.451188e+002, 9.126814e+001
9.456009e+002, 9.091814e+001
9.460830e+002, 9.093089e+001
9.465651e+002, 9.118877e+001
9.470472e+002, 9.179491e+001
9.475294e+002, 9.264635e+001
9.480115e+002, 9.272923e+001
9.484936e+002, 9.210012e+001
9.489757e+002, 9.140104e+001
9.494578e+002, 9.098243e+001
9.499399e+002, 9.070094e+001
9.504221e+002, 9.051377e+001
9.509042e+002, 9.038148e+001
9.513863e+002, 9.014184e+001
9.518684e+002, 8.950679e+001
9.523505e+002, 8.932960e+001
9.528326e+002, 8.996083e+001
9.533148e+002, 9.086579e+001
9.537969e+002, 9.093400e+001
9.542790e+002, 9.036150e+001
9.547611e+002, 9.001241e+001
9.552432e+002, 9.016713e+001
9.557253e+002, 9.034687e+001
9.562075e+002, 9.022769e+001
9.566896e+002, 8.995061e+001
9.571717e+002, 8.962611e+001
9.576538e+002, 8.919083e+001
9.581359e+002, 8.897136e+001
9.586180e+002, 8.903941e+001
9.591002e+002, 8.913522e+001
9.595823e+002, 8.904366e+001
9.600644e+002, 8.882932e+001
9.605465e+002, 8.870994e+001
9.610286e+002, 8.867192e+001
9.615107e+002, 8.859116e+001
9.619929e+002, 8.822079e+001
9.624750e+002, 8.796250e+001
9.629571e+002, 8.811852e+001
9.634392e+002, 8.857092e+001
9.639213e+002, 8.889635e+001
9.644034e+002, 8.909902e+001
9.648856e+002, 8.912708e+001
9.653677e+002, 8.891615e+001
9.658498e+002, 8.863260e+001
9.663319e+002, 8.858202e+001
9.668140e+002, 8.865194e+001
9.672961e+002, 8.858847e+001
9.677783e+002, 8.824271e+001
9.682604e+002, 8.797990e+001
9.687425e+002, 8.805729e+001
9.692246e+002, 8.818026e+001
9.697067e+002, 8.808763e+001
9.701888e+002, 8.772552e+001
9.706710e+002, 8.756734e+001
9.711531e+002, 8.762984e+001
9.716352e+002, 8.774273e+001
9.721173e+002, 8.782632e+001
9.725994e+002, 8.785075e+001
9.730815e+002, 8.778679e+001
9.735637e+002, 8.762932e+001
9.740458e+002, 8.736407e+001
9.745279e+002, 8.662658e+001
9.750100e+002, 8.625520e+001
9.754921e+002, 8.665134e+001
9.759742e+002, 8.741676e+001
9.764564e+002, 8.751317e+001
9.769385e+002, 8.697814e+001
9.774206e+002, 8.645378e+001
9.779027e+002, 8.606766e+001
9.783848e+002, 8.588716e+001
9.788669e+002, 8.622935e+001
9.793491e+002, 8.669370e+001
9.798312e+002, 8.676774e+001
9.803133e+002, 8.613315e+001
9.807954e+002, 8.568960e+001
9.812775e+002, 8.550162e+001
9.817596e+002, 8.543917e+001
9.822418e+002, 8.543582e+001
9.827239e+002, 8.547906e+001
9.832060e+002, 8.549612e+001
9.836881e+002, 8.549140e+001
9.841702e+002, 8.551727e+001
9.846523e+002, 8.562711e+001
9.851345e+002, 8.575399e+001
9.856166e+002, 8.595903e+001
9.860987e+002, 8.614574e+001
9.865808e+002, 8.596978e+001
9.870629e+002, 8.523697e+001
9.875450e+002, 8.477789e+001
9.880272e+002, 8.480186e+001
9.885093e+002, 8.504918e+001
9.889914e+002, 8.522636e+001
9.894735e+002, 8.530988e+001
9.899556e+002, 8.521753e+001
9.904377e+002, 8.488453e+001
9.909199e+002, 8.458598e+001
9.914020e+002, 8.442319e+001
9.918841e+002, 8.435243e+001
9.923662e+002, 8.438044e+001
9.928483e+002, 8.451534e+001
9.933304e+002, 8.436460e+001
9.938126e+002, 8.389757e+001
9.942947e+002, 8.367566e+001
9.947768e+002, 8.438913e+001
9.952589e+002, 8.529482e+001
9.957410e+002, 8.545985e+001
9.962231e+002, 8.507418e+001
9.967053e+002, 8.470908e+001
9.971874e+002, 8.455799e+001
9.976695e+002, 8.439198e+001
9.981516e+002, 8.412872e+001
9.986337e+002, 8.389534e+001
9.991158e+002, 8.398479e+001
9.995980e+002, 8.432227e+001
1.000080e+003, 8.434949e+001
1.000562e+003, 8.396139e+001
1.001044e+003, 8.348055e+001
1.001526e+003, 8.292307e+001
1.002009e+003, 8.254369e+001
1.002491e+003, 8.263317e+001
1.002973e+003, 8.326766e+001
1.003455e+003, 8.382925e+001
1.003937e+003, 8.440968e+001
1.004419e+003, 8.460287e+001
1.004901e+003, 8.400860e+001
1.005383e+003, 8.309641e+001
1.005865e+003, 8.293758e+001
1.006348e+003, 8.332202e+001
1.006830e+003, 8.364571e+001
1.007312e+003, 8.371087e+001
1.007794e+003, 8.359616e+001
1.008276e+003, 8.305195e+001
1.008758e+003, 8.251244e+001
1.009240e+003, 8.254339e+001
1.009722e+003, 8.323988e+001
1.010205e+003, 8.343948e+001
1.010687e+003, 8.302367e+001
1.011169e+003, 8.256432e+001
1.011651e+003, 8.265072e+001
1.012133e+003, 8.290666e+001
1.012615e+003, 8.287907e+001
1.013097e+003, 8.256010e+001
1.013579e+003, 8.244759e+001
1.014061e+003, 8.287269e+001
1.014544e+003, 8.307726e+001
1.015026e+003, 8.275229e+001
1.015508e+003, 8.215530e+001
1.015990e+003, 8.183757e+001
1.016472e+003, 8.179273e+001
1.016954e+003, 8.205116e+001
1.017436e+003, 8.280270e+001
1.017918e+003, 8.340145e+001
1.018401e+003, 8.335998e+001
1.018883e+003, 8.301566e+001
1.019365e+003, 8.270764e+001
1.019847e+003, 8.247474e+001
1.020329e+003, 8.209881e+001
1.020811e+003, 8.151923e+001
1.021293e+003, 8.113091e+001
1.021775e+003, 8.149379e+001
1.022257e+003, 8.207240e+001
1.022740e+003, 8.187286e+001
1.023222e+003, 8.110599e+001
1.023704e+003, 8.062057e+001
1.024186e+003, 8.095933e+001
1.024668e+003, 8.131514e+001
1.025150e+003, 8.153548e+001
1.025632e+003, 8.166210e+001
1.026114e+003, 8.176334e+001
1.026596e+003, 8.183438e+001
1.027079e+003, 8.178185e+001
1.027561e+003, 8.155049e+001
1.028043e+003, 8.153276e+001
1.028525e+003, 8.260222e+001
1.029007e+003, 8.362322e+001
1.029489e+003, 8.336168e+001
1.029971e+003, 8.163105e+001
1.030453e+003, 8.077094e+001
1.030936e+003, 8.100120e+001
1.031418e+003, 8.138232e+001
1.031900e+003, 8.156102e+001
1.032382e+003, 8.159518e+001
1.032864e+003, 8.153127e+001
1.033346e+003, 8.141860e+001
1.033828e+003, 8.138509e+001
1.034310e+003, 8.169444e+001
1.034792e+003, 8.174274e+001
1.035275e+003, 8.108508e+001
1.035757e+003, 8.037481e+001
1.036239e+003, 8.029456e+001
1.036721e+003, 8.084524e+001
1.037203e+003, 8.075143e+001
1.037685e+003, 7.998162e+001
1.038167e+003, 7.944541e+001
1.038649e+003, 8.016011e+001
1.039132e+003, 8.108726e+001
1.039614e+003, 8.142996e+001
1.040096e+003, 8.122893e+001
1.040578e+003, 8.090329e+001
1.041060e+003, 8.036111e+001
1.041542e+003, 8.000473e+001
1.042024e+003, 7.991368e+001
1.042506e+003, 8.001562e+001
1.042989e+003, 8.031998e+001
1.043471e+003, 8.070499e+001
1.043953e+003, 8.092354e+001
1.044435e+003, 8.092433e+001
1.044917e+003, 8.078671e+001
1.045399e+003, 8.035210e+001
1.045881e+003, 7.997762e+001
1.046363e+003, 7.984461e+001
1.046845e+003, 7.993325e+001
1.047328e+003, 8.017677e+001
1.047810e+003, 8.055638e+001
1.048292e+003, 8.068901e+001
1.048774e+003, 8.021268e+001
1.049256e+003, 7.968562e+001
1.049738e+003, 7.957698e+001
1.050220e+003, 7.970591e+001
1.050702e+003, 7.977930e+001
1.051184e+003, 7.970932e+001
1.051667e+003, 7.975928e+001
1.052149e+003, 7.999831e+001
1.052631e+003, 8.014550e+001
1.053113e+003, 7.983888e+001
1.053595e+003, 7.931221e+001
1.054077e+003, 7.897370e+001
1.054559e+003, 7.884290e+001
1.055041e+003, 7.889989e+001
1.055523e+003, 7.936140e+001
1.056006e+003, 7.972993e+001
1.056488e+003, 7.982284e+001
1.056970e+003, 7.978860e+001
1.057452e+003, 7.999963e+001
1.057934e+003, 8.040724e+001
1.058416e+003, 8.053577e+001
1.058898e+003, 8.027262e+001
1.059380e+003, 7.986543e+001
1.059863e+003, 7.926793e+001
1.060345e+003, 7.880300e+001
1.060827e+003, 7.888583e+001
1.061309e+003, 7.955050e+001
1.061791e+003, 7.972847e+001
1.062273e+003, 7.929742e+001
1.062755e+003, 7.896783e+001
1.063237e+003, 7.914194e+001
1.063719e+003, 7.946729e+001
1.064202e+003, 7.941537e+001
1.064684e+003, 7.910287e+001
1.065166e+003, 7.873120e+001
1.065648e+003, 7.806251e+001
1.066130e+003, 7.793508e+001
1.066612e+003, 7.876807e+001
1.067094e+003, 7.962554e+001
1.067576e+003, 7.963633e+001
1.068059e+003, 7.897411e+001
1.068541e+003, 7.861047e+001
1.069023e+003, 7.854002e+001
1.069505e+003, 7.859663e+001
1.069987e+003, 7.875907e+001
1.070469e+003, 7.894314e+001
1.070951e+003, 7.916940e+001
1.071433e+003, 7.936089e+001
1.071916e+003, 7.933798e+001
1.072398e+003, 7.906728e+001
1.072880e+003, 7.887157e+001
1.073362e+003, 7.879263e+001
1.073844e+003, 7.881218e+001
1.074326e+003, 7.911315e+001
1.074808e+003, 7.937158e+001
1.075290e+003, 7.908445e+001
1.075772e+003, 7.821600e+001
1.076255e+003, 7.791090e+001
1.076737e+003, 7.854061e+001
1.077219e+003, 7.899460e+001
1.077701e+003, 7.882736e+001
1.078183e+003, 7.840878e+001
1.078665e+003, 7.851489e+001
1.079147e+003, 7.893675e+001
1.079629e+003, 7.916585e+001
1.080111e+003, 7.897465e+001
1.080594e+003, 7.886573e+001
1.081076e+003, 7.919590e+001
1.081558e+003, 7.947480e+001
1.082040e+003, 7.932639e+001
1.082522e+003, 7.882567e+001
1.083004e+003, 7.890745e+001
1.083486e+003, 7.949328e+001
1.083968e+003, 7.983041e+001
1.084450e+003, 7.924038e+001
1.084933e+003, 7.856326e+001
1.085415e+003, 7.834957e+001
1.085897e+003, 7.838842e+001
1.086379e+003, 7.832202e+001
1.086861e+003, 7.810961e+001
1.087343e+003, 7.791029e+001
1.087825e+003, 7.771909e+001
1.088307e+003, 7.762563e+001
1.088790e+003, 7.779155e+001
1.089272e+003, 7.804469e+001
1.089754e+003, 7.825059e+001
1.090236e+003, 7.837177e+001
1.090718e+003, 7.823109e+001
1.091200e+003, 7.740001e+001
1.091682e+003, 7.707776e+001
1.092164e+003, 7.762446e+001
1.092646e+003, 7.847244e+001
1.093129e+003, 7.878918e+001
1.093611e+003, 7.871044e+001
1.094093e+003, 7.851629e+001
1.094575e+003, 7.823413e+001
1.095057e+003, 7.808419e+001
1.095539e+003, 7.834736e+001
1.096021e+003, 7.856770e+001
1.096503e+003, 7.855473e+001
1.096986e+003, 7.834697e+001
1.097468e+003, 7.805279e+001
1.097950e+003, 7.768337e+001
1.098432e+003, 7.731884e+001
1.098914e+003, 7.691344e+001
1.099396e+003, 7.670644e+001
1.099878e+003, 7.714404e+001
1.100360e+003, 7.768253e+001
1.100843e+003, 7.772847e+001
1.101325e+003, 7.720300e+001
1.101807e+003, 7.692626e+001
1.102289e+003, 7.690681e+001
1.102771e+003, 7.702796e+001
1.103253e+003, 7.732357e+001
1.103735e+003, 7.762650e+001
1.104217e+003, 7.772014e+001
1.104699e+003, 7.767706e+001
1.105182e+003, 7.763705e+001
1.105664e+003, 7.771658e+001
1.106146e+003, 7.762074e+001
1.106628e+003, 7.730725e+001
1.107110e+003, 7.691055e+001
1.107592e+003, 7.636584e+001
1.108074e+003, 7.589491e+001
1.108556e+003, 7.611488e+001
1.109038e+003, 7.689471e+001
1.109521e+003, 7.744804e+001
1.110003e+003, 7.734965e+001
1.110485e+003, 7.713290e+001
1.110967e+003, 7.683585e+001
1.111449e+003, 7.657551e+001
1.111931e+003, 7.661547e+001
1.112413e+003, 7.686043e+001
1.112895e+003, 7.681775e+001
1.113377e+003, 7.642395e+001
1.113860e+003, 7.610884e+001
1.114342e+003, 7.626079e+001
1.114824e+003, 7.643435e+001
1.115306e+003, 7.634829e+001
1.115788e+003, 7.609956e+001
1.116270e+003, 7.599287e+001
1.116752e+003, 7.602726e+001
1.117234e+003, 7.623862e+001
1.117717e+003, 7.672404e+001
1.118199e+003, 7.702235e+001
1.118681e+003, 7.638093e+001
1.119163e+003, 7.559518e+001
1.119645e+003, 7.554586e+001
1.120127e+003, 7.630965e+001
1.120609e+003, 7.654757e+001
1.121091e+003, 7.615383e+001
1.121573e+003, 7.592191e+001
1.122056e+003, 7.633474e+001
1.122538e+003, 7.683556e+001
1.123020e+003, 7.662167e+001
1.123502e+003, 7.604284e+001
1.123984e+003, 7.564944e+001
1.124466e+003, 7.567345e+001
1.124948e+003, 7.560283e+001
1.125430e+003, 7.535299e+001
1.125913e+003, 7.521418e+001
1.126395e+003, 7.549796e+001
1.126877e+003, 7.597454e+001
1.127359e+003, 7.606882e+001
1.127841e+003, 7.591512e+001
1.128323e+003, 7.588356e+001
1.128805e+003, 7.632429e+001
1.129287e+003, 7.658806e+001
1.129770e+003, 7.656056e+001
1.130252e+003, 7.639098e+001
1.130734e+003, 7.610527e+001
1.131216e+003, 7.579842e+001
1.131698e+003, 7.600867e+001
1.132180e+003, 7.665948e+001
1.132662e+003, 7.704431e+001
1.133144e+003, 7.648990e+001
1.133626e+003, 7.595092e+001
1.134109e+003, 7.580293e+001
1.134591e+003, 7.583699e+001
1.135073e+003, 7.567528e+001
1.135555e+003, 7.535637e+001
1.136037e+003, 7.543583e+001
1.136519e+003, 7.598936e+001
1.137001e+003, 7.642709e+001
1.137483e+003, 7.611829e+001
1.137965e+003, 7.575569e+001
1.138448e+003, 7.589268e+001
1.138930e+003, 7.632867e+001
1.139412e+003, 7.640315e+001
1.139894e+003, 7.609864e+001
1.140376e+003, 7.579816e+001
1.140858e+003, 7.555970e+001
1.141340e+003, 7.546611e+001
1.141822e+003, 7.576887e+001
1.142304e+003, 7.612415e+001
1.142787e+003, 7.617217e+001
1.143269e+003, 7.589333e+001
1.143751e+003, 7.578320e+001
1.144233e+003, 7.590113e+001
1.144715e+003, 7.581979e+001
1.145197e+003, 7.529172e+001
1.145679e+003, 7.474503e+001
1.146161e+003, 7.482112e+001
1.146644e+003, 7.517905e+001
1.147126e+003, 7.536582e+001
1.147608e+003, 7.523630e+001
1.148090e+003, 7.520992e+001
1.148572e+003, 7.536543e+001
1.149054e+003, 7.538346e+001
1.149536e+003, 7.499641e+001
1.150018e+003, 7.450860e+001
1.150500e+003, 7.445491e+001
1.150983e+003, 7.470473e+001
1.151465e+003, 7.501765e+001
1.151947e+003, 7.550616e+001
1.152429e+003, 7.563357e+001
1.152911e+003, 7.522874e+001
1.153393e+003, 7.477364e+001
1.153875e+003, 7.458344e+001
1.154357e+003, 7.459946e+001
1.154840e+003, 7.473935e+001
1.155322e+003, 7.495289e+001
1.155804e+003, 7.507385e+001
1.156286e+003, 7.503333e+001
1.156768e+003, 7.488228e+001
1.157250e+003, 7.455087e+001
1.157732e+003, 7.424180e+001
1.158214e+003, 7.415334e+001
1.158697e+003, 7.424825e+001
1.159179e+003, 7.445742e+001
1.159661e+003, 7.473024e+001
1.160143e+003, 7.479529e+001
1.160625e+003, 7.397937e+001
1.161107e+003, 7.365408e+001
1.161589e+003, 7.460273e+001
1.162071e+003, 7.585045e+001
1.162553e+003, 7.608326e+001
1.163036e+003, 7.544838e+001
1.163518e+003, 7.498149e+001
1.164000e+003, 7.475253e+001
1.164482e+003, 7.462331e+001
1.164964e+003, 7.459240e+001
1.165446e+003, 7.455053e+001
1.165928e+003, 7.441006e+001
1.166410e+003, 7.424706e+001
1.166892e+003, 7.420386e+001
1.167375e+003, 7.427628e+001
1.167857e+003, 7.444150e+001
1.168339e+003, 7.470501e+001
1.168821e+003, 7.487039e+001
1.169303e+003, 7.462465e+001
1.169785e+003, 7.439660e+001
1.170267e+003, 7.450097e+001
1.170749e+003, 7.483747e+001
1.171231e+003, 7.522912e+001
1.171714e+003, 7.567426e+001
1.172196e+003, 7.565393e+001
1.172678e+003, 7.499409e+001
1.173160e+003, 7.429523e+001
1.173642e+003, 7.399025e+001
1.174124e+003, 7.392355e+001
1.174606e+003, 7.406776e+001
1.175088e+003, 7.435938e+001
1.175571e+003, 7.446840e+001
1.176053e+003, 7.438616e+001
1.176535e+003, 7.432646e+001
1.177017e+003, 7.436438e+001
1.177499e+003, 7.439188e+001
1.177981e+003, 7.419777e+001
1.178463e+003, 7.401690e+001
1.178945e+003, 7.417086e+001
1.179427e+003, 7.466588e+001
1.179910e+003, 7.477959e+001
1.180392e+003, 7.447489e+001
1.180874e+003, 7.414779e+001
1.181356e+003, 7.390461e+001
1.181838e+003, 7.379247e+001
1.182320e+003, 7.388586e+001
1.182802e+003, 7.412387e+001
1.183284e+003, 7.452154e+001
1.183767e+003, 7.514721e+001
1.184249e+003, 7.524926e+001
1.184731e+003, 7.475257e+001
1.185213e+003, 7.423973e+001
1.185695e+003, 7.393600e+001
1.186177e+003, 7.383297e+001
1.186659e+003, 7.410194e+001
1.187141e+003, 7.448924e+001
1.187624e+003, 7.463095e+001
1.188106e+003, 7.448109e+001
1.188588e+003, 7.400082e+001
1.189070e+003, 7.309282e+001
1.189552e+003, 7.244168e+001
1.190034e+003, 7.253019e+001
1.190516e+003, 7.299386e+001
1.190998e+003, 7.360552e+001
1.191480e+003, 7.419189e+001
1.191963e+003, 7.441934e+001
1.192445e+003, 7.395826e+001
1.192927e+003, 7.394241e+001
1.193409e+003, 7.450106e+001
1.193891e+003, 7.490538e+001
1.194373e+003, 7.441395e+001
1.194855e+003, 7.366106e+001
1.195337e+003, 7.348763e+001
1.195819e+003, 7.369992e+001
1.196302e+003, 7.388358e+001
1.196784e+003, 7.402071e+001
1.197266e+003, 7.399766e+001
1.197748e+003, 7.379040e+001
1.198230e+003, 7.351390e+001
1.198712e+003, 7.313611e+001
1.199194e+003, 7.283397e+001
1.199676e+003, 7.289561e+001
1.200158e+003, 7.323299e+001
1.200641e+003, 7.361977e+001
1.201123e+003, 7.413676e+001
1.201605e+003, 7.439844e+001
1.202087e+003, 7.434825e+001
1.202569e+003, 7.419289e+001
1.203051e+003, 7.413123e+001
1.203533e+003, 7.406895e+001
1.204015e+003, 7.373708e+001
1.204498e+003, 7.328284e+001
1.204980e+003, 7.327029e+001
1.205462e+003, 7.410940e+001
1.205944e+003, 7.454451e+001
1.206426e+003, 7.441964e+001
1.206908e+003, 7.408812e+001
1.207390e+003, 7.380912e+001
1.207872e+003, 7.359331e+001
1.208354e+003, 7.344751e+001
1.208837e+003, 7.337386e+001
1.209319e+003, 7.339487e+001
1.209801e+003, 7.355092e+001
1.210283e+003, 7.369943e+001
1.210765e+003, 7.384527e+001
1.211247e+003, 7.389786e+001
1.211729e+003, 7.350247e+001
1.212211e+003, 7.313464e+001
1.212694e+003, 7.375101e+001
1.213176e+003, 7.509838e+001
1.213658e+003, 7.532219e+001
1.214140e+003, 7.370970e+001
1.214622e+003, 7.279256e+001
1.215104e+003, 7.301955e+001
1.215586e+003, 7.365296e+001
1.216068e+003, 7.413476e+001
1.216551e+003, 7.440835e+001
1.217033e+003, 7.432834e+001
1.217515e+003, 7.393800e+001
1.217997e+003, 7.362160e+001
1.218479e+003, 7.344157e+001
1.218961e+003, 7.319225e+001
1.219443e+003, 7.281112e+001
1.219925e+003, 7.245970e+001
1.220407e+003, 7.223875e+001
1.220890e+003, 7.220037e+001
1.221372e+003, 7.253076e+001
1.221854e+003, 7.316631e+001
1.222336e+003, 7.344169e+001
1.222818e+003, 7.316947e+001
1.223300e+003, 7.329415e+001
1.223782e+003, 7.411369e+001
1.224264e+003, 7.484228e+001
1.224746e+003, 7.428939e+001
1.225229e+003, 7.342588e+001
1.225711e+003, 7.334596e+001
1.226193e+003, 7.405603e+001
1.226675e+003, 7.450215e+001
1.227157e+003, 7.468816e+001
1.227639e+003, 7.448854e+001
1.228121e+003, 7.380276e+001
1.228603e+003, 7.308696e+001
1.229085e+003, 7.269854e+001
1.229568e+003, 7.261690e+001
1.230050e+003, 7.303542e+001
1.230532e+003, 7.384162e+001
1.231014e+003, 7.399932e+001
1.231496e+003, 7.342013e+001
1.231978e+003, 7.299162e+001
1.232460e+003, 7.293723e+001
1.232942e+003, 7.297278e+001
1.233425e+003, 7.273015e+001
1.233907e+003, 7.252737e+001
1.234389e+003, 7.273229e+001
1.234871e+003, 7.326662e+001
1.235353e+003, 7.361595e+001
1.235835e+003, 7.377630e+001
1.236317e+003, 7.380490e+001
1.236799e+003, 7.372369e+001
1.237281e+003, 7.346423e+001
1.237764e+003, 7.253720e+001
1.238246e+003, 7.177828e+001
1.238728e+003, 7.214338e+001
1.239210e+003, 7.327436e+001
1.239692e+003, 7.364595e+001
1.240174e+003, 7.328249e+001
1.240656e+003, 7.292783e+001
1.241138e+003, 7.273857e+001
1.241621e+003, 7.271290e+001
1.242103e+003, 7.316941e+001
1.242585e+003, 7.346672e+001
1.243067e+003, 7.300497e+001
1.243549e+003, 7.208841e+001
1.244031e+003, 7.192171e+001
1.244513e+003, 7.239841e+001
1.244995e+003, 7.265809e+001
1.245478e+003, 7.246324e+001
1.245960e+003, 7.227836e+001
1.246442e+003, 7.251107e+001
1.246924e+003, 7.268631e+001
1.247406e+003, 7.247192e+001
1.247888e+003, 7.206107e+001
1.248370e+003, 7.210784e+001
1.248852e+003, 7.250509e+001
1.249334e+003, 7.280284e+001
1.249817e+003, 7.289164e+001
1.250299e+003, 7.292669e+001
1.250781e+003, 7.299509e+001
1.251263e+003, 7.300936e+001
1.251745e+003, 7.295158e+001
1.252227e+003, 7.280491e+001
1.252709e+003, 7.244394e+001
1.253191e+003, 7.196355e+001
1.253673e+003, 7.160342e+001
1.254156e+003, 7.139622e+001
1.254638e+003, 7.145389e+001
1.255120e+003, 7.210588e+001
1.255602e+003, 7.256467e+001
1.256084e+003, 7.248588e+001
1.256566e+003, 7.218092e+001
1.257048e+003, 7.237724e+001
1.257530e+003, 7.278979e+001
1.258012e+003, 7.277427e+001
1.258495e+003, 7.216739e+001
1.258977e+003, 7.170316e+001
1.259459e+003, 7.143659e+001
1.259941e+003, 7.146422e+001
1.260423e+003, 7.192419e+001
1.260905e+003, 7.246333e+001
1.261387e+003, 7.250420e+001
1.261869e+003, 7.226260e+001
1.262352e+003, 7.199374e+001
1.262834e+003, 7.172801e+001
1.263316e+003, 7.176504e+001
1.263798e+003, 7.224198e+001
1.264280e+003, 7.255294e+001
1.264762e+003, 7.251465e+001
1.265244e+003, 7.225834e+001
1.265726e+003, 7.162060e+001
1.266208e+003, 7.106767e+001
1.266691e+003, 7.129531e+001
1.267173e+003, 7.233230e+001
1.267655e+003, 7.279985e+001
1.268137e+003, 7.263227e+001
1.268619e+003, 7.246477e+001
1.269101e+003, 7.247393e+001
1.269583e+003, 7.248198e+001
1.270065e+003, 7.229333e+001
1.270548e+003, 7.204783e+001
1.271030e+003, 7.183147e+001
1.271512e+003, 7.166740e+001
1.271994e+003, 7.169107e+001
1.272476e+003, 7.189829e+001
1.272958e+003, 7.208708e+001
1.273440e+003, 7.221819e+001
1.273922e+003, 7.228753e+001
1.274405e+003, 7.212852e+001
1.274887e+003, 7.209119e+001
1.275369e+003, 7.249834e+001
1.275851e+003, 7.311230e+001
1.276333e+003, 7.320910e+001
1.276815e+003, 7.289180e+001
1.277297e+003, 7.266703e+001
1.277779e+003, 7.262812e+001
1.278261e+003, 7.270642e+001
1.278744e+003, 7.318881e+001
1.279226e+003, 7.333448e+001
1.279708e+003, 7.270353e+001
1.280190e+003, 7.181858e+001
1.280672e+003, 7.178047e+001
1.281154e+003, 7.227040e+001
1.281636e+003, 7.243788e+001
1.282118e+003, 7.216619e+001
1.282600e+003, 7.198125e+001
1.283083e+003, 7.217998e+001
1.283565e+003, 7.221464e+001
1.284047e+003, 7.191382e+001
1.284529e+003, 7.151591e+001
1.285011e+003, 7.127999e+001
1.285493e+003, 7.121548e+001
1.285975e+003, 7.146303e+001
1.286457e+003, 7.198851e+001
1.286939e+003, 7.216558e+001
1.287422e+003, 7.190865e+001
1.287904e+003, 7.141665e+001
1.288386e+003, 7.064259e+001
1.288868e+003, 7.004986e+001
1.289350e+003, 7.032890e+001
1.289832e+003, 7.089244e+001
1.290314e+003, 7.113530e+001
1.290796e+003, 7.110634e+001
1.291279e+003, 7.130276e+001
1.291761e+003, 7.177120e+001
1.292243e+003, 7.192026e+001
1.292725e+003, 7.165036e+001
1.293207e+003, 7.131807e+001
1.293689e+003, 7.121207e+001
1.294171e+003, 7.113528e+001
1.294653e+003, 7.082675e+001
1.295135e+003, 7.052406e+001
1.295618e+003, 7.073903e+001
1.296100e+003, 7.140455e+001
1.296582e+003, 7.191190e+001
1.297064e+003, 7.220715e+001
1.297546e+003, 7.228841e+001
1.298028e+003, 7.198868e+001
1.298510e+003, 7.164058e+001
1.298992e+003, 7.131254e+001
1.299475e+003, 7.106512e+001
1.299957e+003, 7.100731e+001
1.300439e+003, 7.109181e+001
1.300921e+003, 7.101604e+001
1.301403e+003, 7.088294e+001
1.301885e+003, 7.131826e+001
##END=



