##NAMES=Ferro-gedrite
##RRUFFID=R060330
##IDEAL CHEMISTRY=[box]Fe^2+^_2_(Fe^2+^_3_Al_2_)(Si_6_Al_2_)O_22_(OH)_2_
##LOCALITY=Kawai mine, Ena City, Gifu Prefecture, Japan
##OWNER=RRUFF
##SOURCE=Michael Scott
##DESCRIPTION=Aggregate of greenish black bladed crystals
##STATUS=The identification of this mineral has been confirmed only by single crystal X-ray diffraction.
##URL=rruff.info/R060330
134.8469, 19.54461
135.3290, 21.30423
135.8112, 23.88316
136.2933, 26.03298
136.7754, 27.72630
137.2575, 29.57355
137.7396, 31.80398
138.2217, 34.37259
138.7039, 37.06612
139.1860, 39.88842
139.6681, 42.83766
140.1502, 46.03145
140.6323, 49.53028
141.1144, 52.96606
141.5966, 56.16122
142.0787, 59.00696
142.5608, 62.05383
143.0429, 65.41750
143.5250, 68.90984
144.0071, 72.10963
144.4893, 75.03201
144.9714, 77.59109
145.4535, 79.56870
145.9356, 80.14238
146.4177, 81.86056
146.8998, 85.19620
147.3820, 89.75810
147.8641, 94.11043
148.3462, 98.37138
148.8283, 102.2578
149.3104, 105.5948
149.7925, 106.7929
150.2747, 109.5116
150.7568, 114.7167
151.2389, 122.1398
151.7210, 128.5226
152.2031, 132.9314
152.6852, 136.8090
153.1674, 141.0998
153.6495, 145.9872
154.1316, 151.0973
154.6137, 156.8416
155.0958, 163.2482
155.5779, 168.3682
156.0601, 170.6163
156.5422, 172.1017
157.0243, 174.6011
157.5064, 180.2053
157.9885, 185.2071
158.4706, 188.2856
158.9528, 189.1523
159.4349, 190.1100
159.9170, 191.8263
160.3991, 193.9221
160.8812, 195.9594
161.3633, 197.3857
161.8455, 199.0685
162.3276, 201.3813
162.8097, 204.3528
163.2918, 207.8316
163.7739, 212.4072
164.2560, 217.1157
164.7382, 219.4499
165.2203, 218.9815
165.7024, 218.3962
166.1845, 219.1309
166.6666, 221.6335
167.1487, 224.5195
167.6309, 227.3775
168.1130, 230.1062
168.5951, 232.4347
169.0772, 233.9565
169.5593, 235.2148
170.0414, 236.7100
170.5236, 238.6626
171.0057, 240.5557
171.4878, 242.0590
171.9699, 243.2283
172.4520, 244.1974
172.9341, 244.8729
173.4163, 245.4648
173.8984, 246.3521
174.3805, 248.0686
174.8626, 249.3566
175.3447, 248.3246
175.8268, 245.5040
176.3090, 243.3770
176.7911, 244.4331
177.2732, 247.1465
177.7553, 248.9656
178.2374, 248.7043
178.7195, 247.8918
179.2017, 248.8760
179.6838, 251.4555
180.1659, 253.6285
180.6480, 253.3102
181.1301, 251.4203
181.6122, 250.0954
182.0944, 250.0041
182.5765, 250.7537
183.0586, 251.9921
183.5407, 253.6911
184.0228, 255.1386
184.5049, 255.5646
184.9871, 255.1648
185.4692, 254.5947
185.9513, 253.8767
186.4334, 253.1897
186.9155, 252.9341
187.3976, 253.1173
187.8798, 253.6477
188.3619, 254.8176
188.8440, 256.4597
189.3261, 257.3730
189.8082, 256.6722
190.2903, 254.9473
190.7725, 254.4059
191.2546, 255.1631
191.7367, 256.4528
192.2188, 257.5955
192.7009, 258.5907
193.1830, 259.1979
193.6652, 259.0500
194.1473, 258.3413
194.6294, 258.4209
195.1115, 259.4342
195.5936, 260.7432
196.0757, 261.5546
196.5579, 261.8613
197.0400, 261.9345
197.5221, 261.7299
198.0042, 261.2868
198.4863, 261.2485
198.9684, 261.6800
199.4506, 262.3783
199.9327, 263.1135
200.4148, 263.9117
200.8969, 264.5493
201.3790, 264.8788
201.8611, 264.8839
202.3433, 264.9709
202.8254, 265.1295
203.3075, 265.3775
203.7896, 265.8924
204.2717, 266.8107
204.7538, 267.3036
205.2360, 266.7060
205.7181, 264.7901
206.2002, 263.9809
206.6823, 264.6253
207.1644, 265.9525
207.6465, 266.4253
208.1287, 265.7500
208.6108, 265.2432
209.0929, 265.6385
209.5750, 267.2059
210.0571, 268.2513
210.5392, 268.7333
211.0214, 268.7501
211.5035, 268.3826
211.9856, 267.4460
212.4677, 266.6618
212.9498, 266.4315
213.4319, 266.9374
213.9140, 267.2128
214.3962, 267.1300
214.8783, 266.8872
215.3604, 267.0268
215.8425, 267.8096
216.3246, 268.3793
216.8067, 268.2419
217.2889, 267.0861
217.7710, 266.3091
218.2531, 266.0793
218.7352, 266.1557
219.2173, 265.9162
219.6994, 265.1516
220.1816, 264.4611
220.6637, 264.1985
221.1458, 264.6981
221.6279, 264.6100
222.1100, 263.6299
222.5921, 262.1709
223.0743, 261.2587
223.5564, 260.9564
224.0385, 261.1154
224.5206, 261.7832
225.0027, 263.3459
225.4848, 264.3899
225.9670, 264.6832
226.4491, 264.5129
226.9312, 264.6858
227.4133, 265.5345
227.8954, 266.1842
228.3775, 266.1870
228.8597, 265.2865
229.3418, 264.3146
229.8239, 263.0912
230.3060, 261.8346
230.7881, 261.1608
231.2702, 261.0048
231.7524, 261.5078
232.2345, 263.0063
232.7166, 266.8237
233.1987, 268.4569
233.6808, 266.8499
234.1629, 263.3275
234.6451, 261.5084
235.1272, 262.5370
235.6093, 263.5973
236.0914, 263.3447
236.5735, 260.8688
237.0556, 259.1895
237.5378, 258.4759
238.0199, 258.5175
238.5020, 258.8639
238.9841, 259.9151
239.4662, 260.6958
239.9483, 260.6821
240.4305, 259.2514
240.9126, 258.5240
241.3947, 258.8284
241.8768, 259.7267
242.3589, 260.1297
242.8410, 259.7869
243.3232, 259.3218
243.8053, 258.9795
244.2874, 258.7734
244.7695, 258.6708
245.2516, 258.8100
245.7337, 258.9979
246.2159, 258.7248
246.6980, 257.5208
247.1801, 256.6015
247.6622, 256.5611
248.1443, 257.9569
248.6264, 258.6217
249.1086, 258.1781
249.5907, 257.1977
250.0728, 256.9150
250.5549, 257.7914
251.0370, 258.5826
251.5191, 258.6931
252.0013, 257.6927
252.4834, 257.5123
252.9655, 258.6351
253.4476, 260.2817
253.9297, 260.9298
254.4118, 260.0391
254.8940, 259.1382
255.3761, 258.7540
255.8582, 258.9743
256.3403, 259.4384
256.8224, 260.4631
257.3046, 261.4938
257.7867, 261.4666
258.2688, 259.8237
258.7509, 258.3030
259.2330, 257.4460
259.7151, 257.2838
260.1973, 257.6982
260.6794, 259.1122
261.1615, 260.6906
261.6436, 260.9660
262.1257, 259.1644
262.6078, 257.9747
263.0900, 258.4698
263.5721, 260.9094
264.0542, 262.4407
264.5363, 262.7569
265.0184, 262.5427
265.5005, 262.7307
265.9827, 263.5232
266.4648, 264.0956
266.9469, 264.0761
267.4290, 263.4390
267.9111, 263.4016
268.3932, 264.2293
268.8754, 265.2430
269.3575, 265.5532
269.8396, 264.8764
270.3217, 264.6021
270.8038, 265.3618
271.2859, 267.0554
271.7681, 267.4081
272.2502, 266.0451
272.7323, 264.1258
273.2144, 262.7740
273.6965, 262.0076
274.1786, 261.6886
274.6608, 261.9298
275.1429, 262.6261
275.6250, 263.0599
276.1071, 263.2515
276.5892, 263.1288
277.0714, 262.4000
277.5535, 260.9330
278.0356, 260.0701
278.5177, 260.1611
278.9998, 261.0194
279.4819, 262.0107
279.9641, 263.2389
280.4462, 264.2181
280.9283, 264.3723
281.4104, 263.6652
281.8925, 263.3601
282.3746, 263.8071
282.8568, 264.6592
283.3389, 264.8240
283.8210, 264.2102
284.3031, 263.6009
284.7852, 263.6172
285.2673, 264.2173
285.7495, 264.6844
286.2316, 264.8784
286.7137, 264.9617
287.1958, 265.3600
287.6779, 266.0840
288.1600, 266.6738
288.6422, 266.5930
289.1243, 265.9972
289.6064, 266.1374
290.0885, 267.3037
290.5706, 268.7628
291.0527, 269.4128
291.5349, 269.2780
292.0170, 268.6756
292.4991, 267.1415
292.9812, 265.1810
293.4633, 264.9565
293.9454, 266.8478
294.4276, 269.3301
294.9097, 270.4759
295.3918, 270.4465
295.8739, 270.0386
296.3560, 269.2950
296.8381, 268.4794
297.3203, 268.3196
297.8024, 268.8737
298.2845, 269.6429
298.7666, 270.2076
299.2487, 270.5725
299.7308, 270.7718
300.2130, 270.7662
300.6951, 270.6215
301.1772, 270.3521
301.6593, 269.9612
302.1414, 269.7326
302.6235, 270.2107
303.1057, 271.0255
303.5878, 271.3862
304.0699, 270.5488
304.5520, 269.5231
305.0341, 269.7513
305.5162, 271.0762
305.9984, 272.1709
306.4805, 271.7692
306.9626, 270.6180
307.4447, 269.7711
307.9268, 269.6207
308.4089, 269.6979
308.8911, 269.6302
309.3732, 269.4428
309.8553, 269.2477
310.3374, 268.9188
310.8195, 268.6989
311.3016, 268.9074
311.7838, 269.8352
312.2659, 270.7171
312.7480, 271.0254
313.2301, 270.8981
313.7122, 270.6850
314.1943, 270.3917
314.6765, 270.1757
315.1586, 270.1932
315.6407, 270.5460
316.1228, 270.8554
316.6049, 270.8799
317.0870, 270.7493
317.5692, 270.6767
318.0513, 270.9235
318.5334, 271.0892
319.0155, 270.8505
319.4976, 270.0799
319.9797, 269.6148
320.4619, 270.0550
320.9440, 270.8255
321.4261, 271.2781
321.9082, 270.7694
322.3903, 270.3908
322.8724, 270.6451
323.3546, 271.5614
323.8367, 272.1199
324.3188, 271.8244
324.8009, 271.2715
325.2830, 270.9220
325.7651, 270.8511
326.2473, 270.9726
326.7294, 271.4484
327.2115, 272.2082
327.6936, 272.6770
328.1757, 272.8712
328.6578, 272.7311
329.1400, 272.2057
329.6221, 270.3852
330.1042, 269.4229
330.5863, 269.6916
331.0684, 270.8363
331.5505, 271.8225
332.0327, 272.6705
332.5148, 273.3341
332.9969, 273.7119
333.4790, 273.4925
333.9611, 273.8699
334.4432, 275.3102
334.9254, 277.0779
335.4075, 277.8470
335.8896, 277.1904
336.3717, 276.4032
336.8538, 275.8141
337.3359, 275.4066
337.8180, 275.3817
338.3001, 275.8261
338.7823, 276.5250
339.2644, 277.2752
339.7465, 278.1196
340.2286, 278.8757
340.7107, 279.5885
341.1928, 280.1953
341.6750, 280.0750
342.1571, 279.0526
342.6392, 277.9427
343.1213, 277.2679
343.6034, 277.0269
344.0855, 277.6283
344.5677, 279.5472
345.0498, 281.9176
345.5319, 282.3419
346.0140, 280.7610
346.4961, 278.9207
346.9782, 277.7600
347.4604, 277.2484
347.9425, 277.4493
348.4246, 278.5545
348.9067, 279.8265
349.3888, 280.1242
349.8709, 279.5938
350.3531, 279.0280
350.8352, 278.8393
351.3173, 278.8882
351.7994, 278.8869
352.2815, 278.8179
352.7636, 278.8120
353.2458, 279.1720
353.7279, 279.6875
354.2100, 279.8959
354.6921, 279.2525
355.1742, 278.4650
355.6563, 278.2625
356.1385, 278.6185
356.6206, 279.2457
357.1027, 280.0624
357.5848, 280.9942
358.0669, 282.0501
358.5490, 283.7174
359.0312, 284.7760
359.5133, 283.7164
359.9954, 281.2670
360.4775, 279.6780
360.9596, 280.9620
361.4417, 282.8646
361.9239, 283.7871
362.4060, 283.1542
362.8881, 282.4985
363.3702, 282.3195
363.8523, 282.4912
364.3344, 282.8203
364.8166, 283.1922
365.2987, 283.7728
365.7808, 284.8537
366.2629, 286.5948
366.7450, 287.6106
367.2271, 286.9173
367.7093, 285.7880
368.1914, 285.3419
368.6735, 286.7941
369.1556, 287.6995
369.6377, 287.3514
370.1198, 285.9474
370.6020, 285.2392
371.0841, 285.8428
371.5662, 286.5706
372.0483, 286.7293
372.5304, 285.6474
373.0125, 285.3134
373.4947, 286.2258
373.9768, 287.7462
374.4589, 288.2835
374.9410, 287.3024
375.4231, 286.4318
375.9052, 286.2556
376.3874, 286.8158
376.8695, 287.8841
377.3516, 289.7539
377.8337, 291.6586
378.3158, 292.7477
378.7979, 293.0042
379.2801, 292.4922
379.7622, 290.8157
380.2443, 288.4285
380.7264, 287.3889
381.2085, 287.8036
381.6906, 288.8629
382.1728, 290.2441
382.6549, 291.8252
383.1370, 292.6246
383.6191, 292.2148
384.1012, 291.4345
384.5833, 291.8949
385.0655, 293.4261
385.5476, 294.7365
386.0297, 294.7564
386.5118, 294.1419
386.9939, 294.1960
387.4760, 295.1108
387.9582, 296.0783
388.4403, 296.2104
388.9224, 295.8412
389.4045, 295.6651
389.8866, 296.4288
390.3687, 297.1915
390.8509, 296.9886
391.3330, 295.8981
391.8151, 294.8282
392.2972, 294.3462
392.7793, 294.1367
393.2614, 293.8784
393.7436, 293.2868
394.2257, 292.9258
394.7078, 293.2236
395.1899, 293.9562
395.6720, 294.5353
396.1541, 294.5473
396.6363, 294.5490
397.1184, 294.8835
397.6005, 295.8058
398.0826, 296.3727
398.5647, 296.2642
399.0468, 295.7884
399.5290, 295.3187
400.0111, 295.1856
400.4932, 294.7247
400.9753, 293.6626
401.4574, 291.9972
401.9395, 290.6299
402.4217, 289.3322
402.9038, 288.5515
403.3859, 288.6891
403.8680, 290.2599
404.3501, 291.4944
404.8322, 292.0987
405.3144, 292.3692
405.7965, 293.2884
406.2786, 295.2722
406.7607, 296.5380
407.2428, 295.8973
407.7249, 293.2595
408.2071, 291.7179
408.6892, 291.4448
409.1713, 291.7217
409.6534, 291.7372
410.1355, 291.4989
410.6176, 291.1549
411.0998, 290.6472
411.5819, 290.1257
412.0640, 290.1310
412.5461, 290.6351
413.0282, 290.9099
413.5103, 289.9371
413.9925, 288.3883
414.4746, 287.8021
414.9567, 288.7010
415.4388, 289.7987
415.9209, 289.3573
416.4030, 288.0334
416.8852, 287.4476
417.3673, 289.7478
417.8494, 292.2559
418.3315, 292.3115
418.8136, 289.7321
419.2957, 287.4353
419.7779, 287.6153
420.2600, 288.6637
420.7421, 288.9659
421.2242, 286.7901
421.7063, 285.1271
422.1884, 285.4781
422.6706, 287.2523
423.1527, 288.2244
423.6348, 286.9878
424.1169, 285.5520
424.5990, 284.8398
425.0811, 285.2448
425.5633, 285.6571
426.0454, 286.1645
426.5275, 286.6056
427.0096, 286.7576
427.4917, 286.3532
427.9738, 286.0731
428.4560, 286.1429
428.9381, 286.5346
429.4202, 286.5741
429.9023, 286.1239
430.3844, 285.5717
430.8665, 285.1763
431.3487, 284.9403
431.8308, 284.8738
432.3129, 285.0648
432.7950, 285.3047
433.2771, 285.0963
433.7592, 284.4214
434.2414, 283.7457
434.7235, 283.1412
435.2056, 282.6902
435.6877, 282.7687
436.1698, 283.3885
436.6519, 284.3388
437.1341, 285.7774
437.6162, 287.3874
438.0983, 288.3344
438.5804, 288.1801
439.0625, 287.5754
439.5446, 287.1163
440.0268, 286.8083
440.5089, 286.6661
440.9910, 287.0037
441.4731, 287.3367
441.9552, 287.1103
442.4373, 286.1333
442.9195, 285.3534
443.4016, 285.4239
443.8837, 285.9092
444.3658, 286.2801
444.8479, 286.7687
445.3300, 286.7288
445.8122, 285.5087
446.2943, 283.3166
446.7764, 281.8921
447.2585, 282.0634
447.7406, 282.6198
448.2227, 282.9702
448.7049, 282.9715
449.1870, 283.0187
449.6691, 283.1528
450.1512, 283.3124
450.6333, 283.3761
451.1154, 283.2384
451.5976, 283.2428
452.0797, 283.5625
452.5618, 284.1580
453.0439, 284.2748
453.5260, 283.6628
454.0081, 283.3377
454.4903, 284.5811
454.9724, 287.3449
455.4545, 288.7463
455.9366, 288.1715
456.4187, 286.6310
456.9008, 285.8773
457.3830, 285.7837
457.8651, 285.4538
458.3472, 283.7233
458.8293, 281.6968
459.3114, 281.8060
459.7935, 284.0408
460.2757, 286.1569
460.7578, 286.0711
461.2399, 284.8181
461.7220, 283.7975
462.2041, 283.2939
462.6862, 283.2237
463.1684, 283.7963
463.6505, 284.7676
464.1326, 285.5617
464.6147, 285.5366
465.0968, 285.6141
465.5789, 286.5777
466.0611, 288.7179
466.5432, 289.8175
467.0253, 288.1631
467.5074, 285.9529
467.9895, 285.0389
468.4716, 287.2971
468.9538, 288.5501
469.4359, 288.0072
469.9180, 286.2928
470.4001, 285.4023
470.8822, 285.6396
471.3643, 286.1963
471.8465, 286.9160
472.3286, 287.8853
472.8107, 287.9287
473.2928, 286.6566
473.7749, 285.4226
474.2570, 286.3578
474.7392, 289.4376
475.2213, 290.7832
475.7034, 288.9039
476.1855, 285.6049
476.6676, 284.7948
477.1497, 286.2490
477.6319, 287.8545
478.1140, 288.4515
478.5961, 288.3471
479.0782, 287.9051
479.5603, 287.1158
480.0424, 286.4385
480.5246, 286.0127
481.0067, 285.9966
481.4888, 286.6443
481.9709, 288.8325
482.4530, 290.7870
482.9352, 291.3763
483.4173, 290.9529
483.8994, 290.6325
484.3815, 290.7951
484.8636, 291.1423
485.3457, 291.6049
485.8279, 292.2841
486.3100, 292.6670
486.7921, 292.3170
487.2742, 291.8690
487.7563, 291.9277
488.2384, 293.1198
488.7206, 293.7045
489.2027, 293.1983
489.6848, 291.9948
490.1669, 291.5404
490.6490, 292.0216
491.1311, 292.7045
491.6133, 293.3043
492.0954, 293.8247
492.5775, 294.1401
493.0596, 294.2133
493.5417, 294.2389
494.0238, 294.4946
494.5060, 294.9110
494.9881, 295.1341
495.4702, 295.0009
495.9523, 294.7497
496.4344, 294.6440
496.9165, 294.6926
497.3987, 294.9285
497.8808, 295.5026
498.3629, 296.1938
498.8450, 296.7968
499.3271, 297.2974
499.8092, 297.7563
500.2914, 298.4147
500.7735, 298.9448
501.2556, 299.0434
501.7377, 298.0529
502.2198, 297.3185
502.7019, 297.2168
503.1841, 297.5837
503.6662, 297.9685
504.1483, 298.5003
504.6304, 298.8717
505.1125, 298.8673
505.5946, 298.4162
506.0768, 298.5787
506.5589, 299.7236
507.0410, 300.9407
507.5231, 301.3246
508.0052, 300.6564
508.4873, 300.7489
508.9695, 302.1075
509.4516, 303.8283
509.9337, 304.0079
510.4158, 302.7280
510.8979, 301.5355
511.3800, 301.0805
511.8622, 301.1737
512.3443, 301.5152
512.8264, 302.0837
513.3085, 302.5680
513.7906, 302.5388
514.2728, 302.3538
514.7549, 302.4976
515.2370, 303.1204
515.7191, 303.9013
516.2012, 305.0143
516.6833, 306.0742
517.1655, 306.5086
517.6476, 305.5211
518.1297, 304.4897
518.6118, 303.7425
519.0939, 303.3115
519.5760, 303.3699
520.0582, 304.6125
520.5403, 305.7740
521.0224, 306.2191
521.5045, 305.4878
521.9866, 305.4371
522.4688, 306.3940
522.9509, 307.6664
523.4330, 308.3562
523.9151, 308.3272
524.3972, 308.4720
524.8793, 309.0325
525.3615, 309.8354
525.8436, 310.5219
526.3257, 311.0903
526.8078, 311.3768
527.2899, 311.3546
527.7720, 310.9751
528.2542, 309.7831
528.7363, 307.7236
529.2184, 306.1876
529.7005, 306.9865
530.1826, 308.8450
530.6647, 309.9896
531.1469, 309.5046
531.6290, 308.9023
532.1111, 309.0627
532.5932, 309.7027
533.0753, 310.2437
533.5574, 310.7055
534.0396, 310.8603
534.5217, 310.3972
535.0038, 309.2538
535.4859, 308.7421
535.9680, 309.3640
536.4501, 310.1545
536.9323, 310.5458
537.4144, 310.3499
537.8965, 310.3005
538.3786, 310.4719
538.8607, 310.7119
539.3428, 310.9283
539.8250, 311.1659
540.3071, 310.7327
540.7892, 309.1219
541.2713, 306.9734
541.7534, 305.8659
542.2355, 305.7547
542.7177, 306.1542
543.1998, 307.1413
543.6819, 308.3080
544.1640, 309.0084
544.6461, 309.1871
545.1282, 309.1340
545.6104, 308.8785
546.0925, 308.5684
546.5746, 308.3747
547.0567, 308.4454
547.5388, 308.4933
548.0209, 308.4706
548.5031, 308.3533
548.9852, 308.0912
549.4673, 306.9120
549.9494, 306.4152
550.4315, 307.3363
550.9136, 309.6661
551.3958, 311.0525
551.8779, 311.2071
552.3600, 310.9062
552.8421, 310.5368
553.3242, 310.0651
553.8063, 309.9653
554.2885, 310.4208
554.7706, 310.7986
555.2527, 309.9234
555.7348, 308.0462
556.2169, 306.7871
556.6990, 306.9169
557.1812, 307.5482
557.6633, 307.3050
558.1454, 306.4331
558.6275, 305.8572
559.1096, 306.8164
559.5917, 307.8051
560.0739, 307.1800
560.5560, 304.7984
561.0381, 303.1874
561.5202, 304.2498
562.0023, 305.9588
562.4844, 306.7907
562.9666, 305.5639
563.4487, 304.9143
563.9308, 305.2052
564.4129, 306.0430
564.8950, 306.9380
565.3771, 308.2056
565.8593, 308.7286
566.3414, 307.9057
566.8235, 306.1861
567.3056, 305.7184
567.7877, 306.6544
568.2698, 307.7513
568.7520, 308.3120
569.2341, 308.4311
569.7162, 308.5042
570.1983, 308.5506
570.6804, 308.4402
571.1625, 307.8861
571.6447, 307.1388
572.1268, 306.6391
572.6089, 306.6338
573.0910, 306.5863
573.5731, 305.7769
574.0552, 304.7496
574.5374, 304.4379
575.0195, 306.3842
575.5016, 307.8527
575.9837, 307.5643
576.4658, 305.6861
576.9479, 304.5478
577.4301, 304.6794
577.9122, 305.0085
578.3943, 305.1372
578.8764, 305.0819
579.3585, 304.6102
579.8406, 303.4806
580.3228, 302.4694
580.8049, 302.6417
581.2870, 303.9048
581.7691, 304.5330
582.2512, 304.0205
582.7333, 303.2426
583.2155, 303.6165
583.6975, 304.8353
584.1796, 305.9639
584.6617, 306.2834
585.1439, 306.5122
585.6260, 307.5880
586.1081, 309.2719
586.5902, 310.3638
587.0723, 309.4672
587.5544, 308.4698
588.0366, 308.7891
588.5187, 311.2012
589.0008, 312.1335
589.4829, 309.4978
589.9650, 306.3539
590.4471, 305.1005
590.9293, 306.9970
591.4114, 307.7804
591.8935, 306.7472
592.3756, 304.9624
592.8577, 304.4984
593.3398, 305.4513
593.8220, 306.1317
594.3041, 305.8286
594.7862, 305.0282
595.2683, 304.8749
595.7504, 305.3047
596.2325, 305.8414
596.7147, 306.0907
597.1968, 306.3364
597.6789, 307.1368
598.1610, 308.5480
598.6431, 309.4394
599.1252, 308.4494
599.6074, 307.0946
600.0895, 306.7102
600.5716, 308.5918
601.0537, 309.6050
601.5358, 308.0584
602.0179, 305.8755
602.5001, 305.6967
602.9822, 308.9772
603.4643, 311.3271
603.9464, 311.8359
604.4285, 310.9870
604.9106, 310.1905
605.3928, 309.4026
605.8749, 309.0888
606.3570, 309.7302
606.8391, 311.0049
607.3212, 311.8390
607.8033, 312.2442
608.2855, 312.6131
608.7676, 313.5572
609.2497, 314.5057
609.7318, 314.5538
610.2139, 313.3641
610.6960, 312.3082
611.1782, 311.8927
611.6603, 312.1088
612.1424, 312.9490
612.6245, 315.3279
613.1066, 317.2197
613.5887, 318.3430
614.0709, 318.8271
614.5530, 318.8536
615.0351, 318.1552
615.5172, 317.5652
615.9993, 317.2758
616.4814, 317.2773
616.9636, 317.5446
617.4457, 318.0932
617.9278, 318.7331
618.4099, 319.3977
618.8920, 320.0532
619.3741, 320.6161
619.8563, 321.0882
620.3384, 321.5004
620.8205, 321.9302
621.3026, 322.2928
621.7847, 322.4268
622.2668, 322.1465
622.7490, 322.0562
623.2311, 322.5250
623.7132, 323.2963
624.1953, 324.0430
624.6774, 324.5718
625.1595, 325.2645
625.6417, 326.4581
626.1238, 327.8014
626.6059, 328.1285
627.0880, 326.9698
627.5701, 326.2442
628.0522, 326.8016
628.5344, 328.3462
629.0165, 329.5270
629.4986, 330.3492
629.9807, 330.6364
630.4628, 329.6064
630.9449, 328.1365
631.4271, 328.0596
631.9092, 329.5548
632.3913, 331.1801
632.8734, 331.9154
633.3555, 332.2259
633.8376, 332.6119
634.3198, 333.2865
634.8019, 333.8199
635.2840, 333.9516
635.7661, 333.9223
636.2482, 334.0686
636.7303, 334.3920
637.2125, 334.9106
637.6946, 335.7367
638.1767, 336.7164
638.6588, 337.4245
639.1409, 337.8507
639.6230, 338.1356
640.1052, 338.3045
640.5873, 338.3966
641.0694, 338.6973
641.5515, 339.1578
642.0336, 339.1386
642.5157, 337.4327
642.9979, 335.4296
643.4800, 334.9400
643.9621, 336.1728
644.4442, 337.4728
644.9263, 337.9521
645.4084, 338.2053
645.8906, 338.7201
646.3727, 339.8387
646.8548, 340.7196
647.3369, 341.3680
647.8190, 341.7189
648.3011, 341.6066
648.7833, 340.8126
649.2654, 340.2271
649.7475, 339.9320
650.2296, 339.9613
650.7117, 340.5348
651.1938, 341.6031
651.6760, 342.5376
652.1581, 343.0965
652.6402, 343.3733
653.1223, 343.3591
653.6044, 343.1464
654.0865, 343.1176
654.5687, 344.0475
655.0508, 344.7962
655.5329, 344.2848
656.0150, 342.3906
656.4971, 341.2866
656.9792, 342.1990
657.4614, 343.4370
657.9435, 344.1021
658.4256, 344.0692
658.9077, 343.8285
659.3898, 343.2190
659.8719, 342.6783
660.3541, 342.9988
660.8362, 344.1228
661.3183, 343.9499
661.8004, 341.8986
662.2825, 339.3665
662.7646, 338.1730
663.2468, 337.9466
663.7289, 337.7769
664.2110, 337.2618
664.6931, 336.7969
665.1752, 336.7532
665.6573, 336.9760
666.1395, 337.0913
666.6216, 337.0153
667.1037, 336.7932
667.5858, 336.2769
668.0679, 335.5526
668.5500, 335.2772
669.0322, 335.6813
669.5143, 336.0800
669.9964, 336.2558
670.4785, 336.1922
670.9606, 335.4021
671.4427, 333.7722
671.9249, 332.4839
672.4070, 332.8942
672.8891, 334.2456
673.3712, 334.9026
673.8533, 334.6682
674.3354, 334.1368
674.8176, 333.5370
675.2997, 332.9630
675.7818, 332.5215
676.2639, 332.2543
676.7460, 332.0811
677.2281, 331.9896
677.7103, 331.9926
678.1924, 332.1551
678.6745, 332.7655
679.1566, 332.8627
679.6387, 332.1262
680.1208, 330.9893
680.6030, 330.3175
681.0851, 330.1185
681.5672, 330.3227
682.0493, 331.1872
682.5314, 332.1665
683.0135, 332.0244
683.4957, 331.0660
683.9778, 330.5069
684.4599, 331.5619
684.9420, 332.7936
685.4241, 333.0586
685.9063, 332.4075
686.3884, 332.1237
686.8705, 333.2841
687.3526, 334.1970
687.8347, 333.8620
688.3168, 331.9212
688.7990, 331.5265
689.2811, 333.3316
689.7632, 335.2228
690.2453, 335.1320
690.7274, 333.2953
691.2095, 333.1268
691.6917, 335.0711
692.1738, 336.9977
692.6559, 336.2936
693.1380, 334.0956
693.6201, 332.2342
694.1022, 331.0221
694.5844, 330.4943
695.0665, 331.3462
695.5486, 332.6630
696.0307, 333.2757
696.5128, 332.0624
696.9949, 331.2336
697.4771, 331.0854
697.9592, 331.4012
698.4413, 331.8144
698.9234, 332.3886
699.4055, 332.8471
699.8876, 333.2264
700.3698, 333.3466
700.8519, 332.5196
701.3340, 330.8889
701.8161, 329.4157
702.2982, 328.5446
702.7803, 328.1313
703.2625, 328.0451
703.7446, 328.2876
704.2267, 328.8552
704.7088, 330.4840
705.1909, 331.7997
705.6730, 331.9889
706.1552, 330.9176
706.6373, 329.7541
707.1194, 327.9891
707.6015, 326.8617
708.0836, 327.3753
708.5657, 329.6530
709.0479, 330.8151
709.5300, 330.7439
710.0121, 330.2346
710.4942, 329.8190
710.9763, 329.5341
711.4584, 329.4290
711.9406, 329.4917
712.4227, 329.8730
712.9048, 331.1712
713.3869, 332.6088
713.8690, 333.3598
714.3511, 332.9679
714.8333, 332.3733
715.3154, 331.2436
715.7975, 330.2810
716.2796, 330.4348
716.7617, 332.4530
717.2438, 333.2966
717.7260, 332.2634
718.2081, 330.4494
718.6902, 329.7803
719.1723, 330.1364
719.6544, 330.6843
720.1365, 331.4160
720.6187, 331.8222
721.1008, 330.5886
721.5829, 328.5649
722.0650, 327.7174
722.5471, 330.2491
723.0292, 332.7760
723.5114, 333.8979
723.9935, 333.7713
724.4756, 333.1591
724.9577, 331.3751
725.4398, 330.3118
725.9219, 330.8821
726.4041, 332.6618
726.8862, 333.0005
727.3683, 331.7764
727.8504, 330.5611
728.3325, 330.4548
728.8146, 330.9098
729.2968, 330.5919
729.7789, 329.6112
730.2610, 328.9911
730.7431, 329.7266
731.2252, 330.8068
731.7073, 331.5507
732.1895, 331.8843
732.6716, 331.9936
733.1537, 331.4603
733.6358, 331.1153
734.1179, 331.4349
734.6000, 332.5671
735.0822, 333.5700
735.5643, 334.5364
736.0464, 335.0692
736.5285, 334.4730
737.0106, 333.1016
737.4927, 332.3459
737.9749, 332.3835
738.4570, 332.6690
738.9391, 332.8965
739.4212, 333.0344
739.9033, 333.0475
740.3854, 332.9394
740.8676, 332.7016
741.3497, 331.9205
741.8318, 331.2541
742.3139, 331.4732
742.7960, 333.3443
743.2781, 334.0213
743.7603, 332.8724
744.2424, 331.2206
744.7245, 330.9950
745.2066, 332.0629
745.6887, 333.5175
746.1708, 335.4712
746.6530, 336.8885
747.1351, 335.8987
747.6172, 333.6607
748.0993, 332.2196
748.5814, 332.8916
749.0635, 333.8260
749.5457, 334.5035
750.0278, 335.0019
750.5099, 335.4982
750.9920, 336.2450
751.4741, 336.5038
751.9562, 335.9179
752.4384, 334.9414
752.9205, 334.8833
753.4026, 335.7145
753.8847, 336.2954
754.3668, 336.0075
754.8489, 335.4334
755.3311, 335.4542
755.8132, 335.8987
756.2953, 336.2644
756.7774, 336.3872
757.2595, 336.3087
757.7416, 335.8953
758.2238, 335.2477
758.7059, 334.8662
759.1880, 334.7289
759.6701, 334.9508
760.1522, 335.7736
760.6343, 336.9815
761.1165, 337.2659
761.5986, 336.5719
762.0807, 336.0768
762.5628, 336.6670
763.0449, 337.7672
763.5270, 338.4158
764.0092, 338.6601
764.4913, 338.7817
764.9734, 339.1252
765.4555, 339.2264
765.9376, 338.6395
766.4197, 337.3478
766.9019, 336.4113
767.3840, 335.8482
767.8661, 335.7060
768.3482, 336.1499
768.8303, 337.1471
769.3124, 337.7544
769.7946, 337.9595
770.2767, 337.8839
770.7588, 337.2682
771.2409, 336.5534
771.7230, 336.7787
772.2051, 337.9167
772.6873, 338.6882
773.1694, 337.4142
773.6515, 336.2189
774.1336, 336.8971
774.6157, 340.1266
775.0978, 341.8701
775.5800, 341.3865
776.0621, 340.2336
776.5442, 339.1230
777.0263, 338.0260
777.5084, 337.6700
777.9905, 338.1138
778.4727, 338.6947
778.9548, 338.7744
779.4369, 338.6303
779.9190, 338.8082
780.4011, 339.3799
780.8832, 339.8558
781.3654, 340.0899
781.8475, 340.0301
782.3296, 339.4885
782.8117, 338.0358
783.2938, 337.5825
783.7759, 338.8463
784.2581, 340.1192
784.7402, 339.8061
785.2223, 337.9081
785.7044, 337.2055
786.1865, 337.9221
786.6686, 338.8145
787.1508, 338.5348
787.6329, 337.7181
788.1150, 337.4099
788.5971, 337.8480
789.0792, 338.1979
789.5613, 337.5936
790.0435, 337.0270
790.5256, 337.4364
791.0077, 339.5502
791.4898, 340.7365
791.9719, 340.7972
792.4540, 340.2347
792.9362, 339.2223
793.4183, 337.8397
793.9004, 337.3304
794.3825, 337.8669
794.8646, 338.5783
795.3467, 338.7306
795.8289, 338.5113
796.3110, 338.1337
796.7931, 337.5878
797.2752, 337.1007
797.7573, 336.7218
798.2394, 336.4607
798.7216, 336.3134
799.2037, 336.2642
799.6858, 336.3950
800.1679, 336.7759
800.6500, 337.1747
801.1321, 337.3555
801.6143, 337.3488
802.0964, 337.3268
802.5785, 337.3115
803.0606, 337.2246
803.5427, 336.7270
804.0248, 336.2571
804.5070, 336.4373
804.9891, 337.8001
805.4712, 338.5078
805.9533, 337.4488
806.4354, 336.1330
806.9175, 335.6737
807.3997, 336.2999
807.8818, 336.7769
808.3639, 337.0111
808.8460, 337.3418
809.3281, 338.3937
809.8102, 339.7917
810.2924, 340.6006
810.7745, 340.6932
811.2566, 340.2280
811.7387, 338.7049
812.2208, 337.0512
812.7029, 336.1168
813.1851, 336.2482
813.6672, 336.5435
814.1493, 337.0682
814.6314, 337.5930
815.1135, 337.9026
815.5956, 337.9854
816.0778, 338.2319
816.5599, 338.7037
817.0420, 338.9620
817.5241, 338.1998
818.0062, 337.0958
818.4883, 336.8744
818.9705, 337.8350
819.4526, 338.4634
819.9347, 337.4983
820.4168, 336.3285
820.8989, 336.0038
821.3810, 336.7099
821.8632, 337.5991
822.3453, 338.8067
822.8274, 339.9087
823.3095, 340.5132
823.7916, 340.6929
824.2737, 340.8887
824.7559, 341.1281
825.2380, 340.9369
825.7201, 339.1645
826.2022, 337.2478
826.6843, 336.8276
827.1664, 338.2737
827.6486, 339.4384
828.1307, 340.0280
828.6128, 340.0048
829.0949, 338.9782
829.5770, 336.7834
830.0591, 336.5809
830.5413, 338.6866
831.0234, 340.8712
831.5055, 341.3045
831.9876, 340.7064
832.4697, 340.4282
832.9518, 340.5167
833.4340, 340.7051
833.9161, 341.0951
834.3982, 341.3158
834.8803, 340.8760
835.3624, 339.6795
835.8445, 339.5810
836.3267, 341.2925
836.8088, 342.7159
837.2909, 342.8029
837.7730, 341.7326
838.2551, 340.1217
838.7372, 338.0564
839.2194, 336.8711
839.7015, 338.2563
840.1836, 340.3392
840.6657, 341.1133
841.1478, 340.7904
841.6299, 340.9317
842.1121, 342.8905
842.5942, 344.4489
843.0763, 344.7954
843.5584, 344.1244
844.0405, 343.3252
844.5226, 342.2679
845.0048, 342.0396
845.4869, 343.6423
845.9690, 345.9296
846.4511, 346.6953
846.9332, 346.2035
847.4153, 345.3084
847.8975, 343.8426
848.3796, 342.6635
848.8617, 342.2289
849.3438, 342.4317
849.8259, 342.8876
850.3080, 343.8665
850.7902, 344.4713
851.2723, 344.4377
851.7544, 344.0034
852.2365, 343.5766
852.7186, 343.1883
853.2007, 343.0070
853.6829, 343.1151
854.1650, 343.4251
854.6471, 343.9502
855.1292, 344.6040
855.6113, 345.2435
856.0934, 346.2506
856.5756, 346.6335
857.0577, 346.0528
857.5398, 345.0055
858.0219, 344.0277
858.5040, 343.0822
858.9861, 342.9063
859.4683, 343.7369
859.9504, 344.9243
860.4325, 345.8146
860.9146, 346.4537
861.3967, 346.9013
861.8788, 347.1671
862.3610, 347.2536
862.8431, 347.1345
863.3252, 346.8413
863.8073, 346.3613
864.2894, 345.4620
864.7715, 345.2282
865.2537, 345.9108
865.7358, 346.5213
866.2179, 345.5795
866.7000, 343.8391
867.1821, 343.6383
867.6642, 345.2801
868.1464, 346.7110
868.6285, 346.1850
869.1106, 345.2070
869.5927, 344.9573
870.0748, 345.7356
870.5569, 346.2975
871.0391, 346.4473
871.5212, 346.7282
872.0033, 347.7120
872.4854, 349.1912
872.9675, 349.4764
873.4496, 348.6261
873.9318, 347.5314
874.4139, 346.5736
874.8960, 345.8048
875.3781, 345.1104
875.8602, 344.5600
876.3423, 344.7293
876.8245, 346.7635
877.3066, 348.3266
877.7887, 348.6561
878.2708, 348.0629
878.7529, 347.7109
879.2350, 347.6030
879.7172, 347.9713
880.1993, 349.4871
880.6814, 350.8772
881.1635, 349.7799
881.6456, 347.2755
882.1277, 345.8810
882.6099, 348.0646
883.0920, 349.6578
883.5741, 348.8146
884.0562, 347.0506
884.5383, 346.9252
885.0204, 348.7729
885.5026, 350.1140
885.9847, 350.4482
886.4668, 350.3102
886.9489, 350.2173
887.4310, 350.2392
887.9131, 350.6253
888.3953, 351.7202
888.8774, 352.3512
889.3595, 351.3127
889.8416, 349.9897
890.3237, 349.7737
890.8058, 351.2570
891.2880, 352.1788
891.7701, 352.5070
892.2522, 352.3424
892.7343, 351.3545
893.2164, 349.9988
893.6985, 349.5099
894.1807, 349.9857
894.6628, 350.9671
895.1449, 353.1886
895.6270, 354.9752
896.1091, 354.7055
896.5912, 352.0841
897.0734, 351.3430
897.5555, 353.3941
898.0376, 355.1437
898.5197, 354.8697
899.0018, 353.2295
899.4839, 352.5463
899.9661, 352.6884
900.4482, 352.8851
900.9303, 352.7262
901.4124, 352.4691
901.8945, 352.4051
902.3766, 352.3965
902.8588, 351.8916
903.3409, 350.0460
903.8230, 349.3089
904.3051, 350.5746
904.7872, 352.6329
905.2693, 352.7504
905.7515, 351.3148
906.2336, 350.8159
906.7157, 352.2625
907.1978, 353.9025
907.6799, 354.1551
908.1620, 353.7554
908.6442, 353.5999
909.1263, 354.0784
909.6084, 354.4340
910.0905, 354.5688
910.5726, 354.6852
911.0547, 355.2180
911.5369, 356.0565
912.0190, 355.6271
912.5011, 353.7972
912.9832, 352.0504
913.4653, 351.4239
913.9474, 351.5900
914.4296, 352.4442
914.9117, 353.9992
915.3938, 355.3379
915.8759, 356.3861
916.3580, 357.1095
916.8401, 357.4678
917.3223, 357.4781
917.8044, 357.1114
918.2865, 356.4014
918.7686, 355.9012
919.2507, 355.9776
919.7328, 356.3380
920.2150, 356.8754
920.6971, 357.4659
921.1792, 357.8150
921.6613, 357.4449
922.1434, 357.3749
922.6255, 357.8327
923.1077, 358.5863
923.5898, 359.3956
924.0719, 360.2247
924.5540, 360.3755
925.0361, 359.5297
925.5182, 358.7187
926.0004, 359.4380
926.4825, 360.5569
926.9646, 360.5535
927.4467, 358.4422
927.9288, 357.2371
928.4109, 357.6349
928.8931, 358.4995
929.3752, 359.0389
929.8573, 359.2633
930.3394, 360.1617
930.8215, 361.7294
931.3036, 362.6269
931.7858, 361.2116
932.2679, 359.1391
932.7500, 357.7418
933.2321, 357.1384
933.7142, 357.3881
934.1964, 359.8461
934.6785, 361.3386
935.1606, 360.7047
935.6427, 358.7628
936.1248, 357.8899
936.6069, 358.0292
937.0891, 358.6567
937.5712, 359.8568
938.0533, 360.9676
938.5354, 361.2656
939.0175, 361.0835
939.4996, 360.9029
939.9818, 360.7031
940.4639, 360.7336
940.9460, 361.1563
941.4281, 361.5861
941.9102, 361.5211
942.3923, 361.0405
942.8745, 360.9149
943.3566, 361.2070
943.8387, 361.6192
944.3208, 362.0254
944.8029, 362.3554
945.2850, 362.3987
945.7672, 362.1252
946.2493, 362.5037
946.7314, 364.2080
947.2135, 365.4176
947.6956, 365.2592
948.1777, 364.1547
948.6599, 363.5585
949.1420, 363.4219
949.6241, 363.4991
950.1062, 363.8359
950.5883, 364.1568
951.0704, 364.3187
951.5526, 364.3214
952.0347, 364.1274
952.5168, 363.4277
952.9989, 363.1574
953.4810, 363.3743
953.9631, 364.0598
954.4453, 365.5304
954.9274, 367.4664
955.4095, 368.7507
955.8916, 369.2091
956.3737, 369.2145
956.8558, 368.6955
957.3380, 368.0552
957.8201, 367.4584
958.3022, 366.8855
958.7843, 367.2137
959.2664, 368.9756
959.7485, 369.8908
960.2307, 368.2383
960.7128, 365.3720
961.1949, 364.4778
961.6770, 365.1932
962.1591, 366.2417
962.6412, 367.6653
963.1234, 368.5925
963.6055, 368.0372
964.0876, 367.0153
964.5697, 367.4854
965.0518, 370.0953
965.5339, 370.9227
966.0161, 369.1286
966.4982, 366.8131
966.9803, 366.4738
967.4624, 367.3291
967.9445, 368.1268
968.4266, 368.6650
968.9088, 369.2367
969.3909, 369.7592
969.8730, 370.5616
970.3551, 372.1460
970.8372, 374.3636
971.3193, 374.6801
971.8015, 373.0249
972.2836, 371.3184
972.7657, 370.3158
973.2478, 370.0929
973.7299, 371.2787
974.2120, 373.2951
974.6942, 374.7185
975.1763, 374.9912
975.6584, 374.7403
976.1405, 373.8009
976.6226, 372.6723
977.1047, 371.9556
977.5869, 371.6604
978.0690, 372.0540
978.5511, 373.2339
979.0332, 374.5183
979.5153, 375.6438
979.9974, 376.4084
980.4796, 376.4905
980.9617, 375.7381
981.4438, 375.3134
981.9259, 375.2357
982.4080, 375.5357
982.8901, 376.3950
983.3723, 377.5586
983.8544, 378.0331
984.3365, 378.0356
984.8186, 378.4710
985.3007, 380.8761
985.7828, 382.6076
986.2650, 381.8301
986.7471, 379.7514
987.2292, 378.4700
987.7113, 378.2334
988.1934, 377.7914
988.6755, 376.8703
989.1577, 376.3748
989.6398, 377.8273
990.1219, 380.1882
990.6040, 381.6861
991.0861, 382.1127
991.5682, 382.2645
992.0504, 382.0517
992.5325, 382.0930
993.0146, 382.9072
993.4967, 384.2197
993.9788, 384.3817
994.4609, 383.4030
994.9431, 382.4452
995.4252, 381.9820
995.9073, 381.7662
996.3894, 381.6009
996.8715, 381.4733
997.3536, 381.3566
997.8358, 380.9760
998.3179, 381.0851
998.8000, 382.0165
999.2821, 382.9316
999.7642, 382.8869
1000.246, 382.0684
1000.728, 381.5177
1001.211, 381.2724
1001.693, 381.1073
1002.175, 380.8808
1002.657, 380.6638
1003.139, 380.4550
1003.621, 380.2821
1004.103, 380.3412
1004.585, 380.7178
1005.068, 380.9734
1005.550, 380.9134
1006.032, 380.8271
1006.514, 381.5118
1006.996, 382.4557
1007.478, 382.4603
1007.960, 380.4527
1008.442, 379.3986
1008.924, 381.5759
1009.407, 383.8366
1009.889, 383.8822
1010.371, 381.6002
1010.853, 380.4720
1011.335, 380.4960
1011.817, 380.7065
1012.299, 380.6017
1012.781, 380.2575
1013.263, 379.4435
1013.746, 378.4167
1014.228, 378.1190
1014.710, 379.7036
1015.192, 379.9597
1015.674, 377.8164
1016.156, 375.1709
1016.638, 375.2146
1017.120, 377.1266
1017.603, 378.3203
1018.085, 378.3042
1018.567, 378.1077
1019.049, 378.1728
1019.531, 378.4147
1020.013, 378.9424
1020.495, 379.7166
1020.977, 379.6635
1021.459, 378.7109
1021.942, 377.5239
1022.424, 376.1509
1022.906, 375.0204
1023.388, 375.0417
1023.870, 375.6747
1024.352, 375.8600
1024.834, 374.0473
1025.316, 373.6808
1025.799, 375.9068
1026.281, 378.4508
1026.763, 378.5957
1027.245, 376.8121
1027.727, 376.4206
1028.209, 377.5480
1028.691, 378.5099
1029.173, 377.7972
1029.656, 376.8484
1030.138, 376.6156
1030.620, 377.0239
1031.102, 377.4135
1031.584, 377.7450
1032.066, 378.2301
1032.548, 378.9874
1033.030, 379.7549
1033.512, 380.2318
1033.995, 380.4105
1034.477, 380.2327
1034.959, 379.6058
1035.441, 378.9160
1035.923, 378.0125
1036.405, 377.3530
1036.887, 377.2729
1037.369, 377.6938
1037.851, 378.0389
1038.334, 378.2687
1038.816, 378.0253
1039.298, 376.4818
1039.780, 375.0334
1040.262, 374.7747
1040.744, 375.2337
1041.226, 375.4436
1041.708, 375.2872
1042.191, 375.0957
1042.673, 374.8681
1043.155, 374.6999
1043.637, 374.6093
1044.119, 374.6767
1044.601, 375.0517
1045.083, 375.7433
1045.565, 376.6141
1046.047, 378.6565
1046.530, 379.4946
1047.012, 377.7612
1047.494, 374.7135
1047.976, 374.1783
1048.458, 375.8029
1048.940, 376.6662
1049.422, 375.6575
1049.904, 374.7027
1050.386, 375.6850
1050.869, 377.1844
1051.351, 377.6036
1051.833, 376.5745
1052.315, 376.4112
1052.797, 377.2876
1053.279, 378.2382
1053.761, 378.9387
1054.243, 379.1999
1054.726, 378.0500
1055.208, 376.2030
1055.690, 375.5527
1056.172, 378.1790
1056.654, 380.1520
1057.136, 381.0904
1057.618, 381.0433
1058.100, 379.5113
1058.583, 376.8653
1059.065, 375.7695
1059.547, 376.3939
1060.029, 377.0275
1060.511, 376.0805
1060.993, 375.1505
1061.475, 375.5854
1061.957, 375.1241
1062.439, 374.8942
1062.922, 375.6782
1063.404, 375.0627
1063.886, 375.9992
1064.368, 377.3544
1064.850, 377.6537
1065.332, 377.5363
1065.814, 378.0981
1066.296, 379.9940
1066.778, 380.2917
1067.261, 377.8034
1067.743, 375.4721
1068.225, 374.8366
1068.707, 375.4627
1069.189, 376.1761
1069.671, 376.9292
1070.153, 377.5486
1070.635, 378.1992
1071.118, 378.3670
1071.600, 377.1377
1072.082, 375.7959
1072.564, 375.7675
1073.046, 377.1917
1073.528, 378.1582
1074.010, 378.5899
1074.492, 378.8607
1074.974, 379.5216
1075.457, 379.9125
1075.939, 378.7298
1076.421, 379.8147
1076.903, 376.7516
1077.385, 380.4272
1077.867, 382.6083
1078.349, 382.2240
1078.831, 380.7109
1079.313, 379.4850
1079.796, 378.6552
1080.278, 378.6213
1080.760, 379.4873
1081.242, 380.0064
1081.724, 379.2049
1082.206, 378.6443
1082.688, 378.9529
1083.170, 379.8542
1083.652, 380.4662
1084.135, 380.8604
1084.617, 381.4393
1085.099, 382.5603
1085.581, 383.3132
1086.063, 383.0230
1086.545, 382.1758
1087.027, 381.0849
1087.509, 379.6652
1087.992, 379.2098
1088.474, 379.7711
1088.956, 380.5556
1089.438, 381.3773
1089.920, 381.9220
1090.402, 381.4825
1090.884, 380.5832
1091.366, 380.3871
1091.849, 381.7690
1092.331, 382.3568
1092.813, 381.8105
1093.295, 381.0368
1093.777, 381.0458
1094.259, 381.4384
1094.741, 381.3172
1095.223, 380.7210
1095.705, 380.2911
1096.188, 380.6074
1096.670, 380.6862
1097.152, 380.0140
1097.634, 379.2582
1098.116, 380.0472
1098.598, 381.9789
1099.080, 382.6149
1099.562, 381.4698
1100.044, 380.1910
1100.527, 379.6833
1101.009, 379.5865
1101.491, 379.8723
1101.973, 380.3871
1102.455, 379.9291
1102.937, 378.4225
1103.419, 378.1098
1103.901, 380.0939
1104.384, 382.6547
1104.866, 384.5918
1105.348, 385.7348
1105.830, 385.7004
1106.312, 384.0249
1106.794, 382.9673
1107.276, 382.6791
1107.758, 382.4409
1108.240, 381.5862
1108.723, 380.7274
1109.205, 381.2253
1109.687, 382.5316
1110.169, 383.3836
1110.651, 382.8431
1111.133, 382.6422
1111.615, 383.0399
1112.097, 383.5982
1112.579, 384.0359
1113.062, 384.3005
1113.544, 384.0337
1114.026, 383.3257
1114.508, 382.8058
1114.990, 383.0851
1115.472, 383.2487
1115.954, 382.5857
1116.436, 381.9037
1116.919, 382.7774
1117.401, 385.0584
1117.883, 386.2736
1118.365, 386.1357
1118.847, 385.2339
1119.329, 382.7259
1119.811, 380.7636
1120.293, 381.6640
1120.776, 384.4900
1121.258, 385.2082
1121.740, 383.5515
1122.222, 382.2214
1122.704, 381.8124
1123.186, 382.0068
1123.668, 382.9521
1124.150, 384.0109
1124.632, 384.4457
1125.115, 384.0861
1125.597, 383.8373
1126.079, 383.8753
1126.561, 383.4309
1127.043, 381.9233
1127.525, 380.2263
1128.007, 379.6334
1128.489, 379.9175
1128.971, 380.8161
1129.454, 382.7066
1129.936, 383.9111
1130.418, 384.0084
1130.900, 383.9754
1131.382, 384.6085
1131.864, 385.4467
1132.346, 384.7377
1132.828, 383.0304
1133.311, 382.0693
1133.793, 383.0526
1134.275, 384.2455
1134.757, 385.7846
1135.239, 386.7979
1135.721, 386.0199
1136.203, 383.8170
1136.685, 383.5189
1137.167, 384.9353
1137.650, 385.9097
1138.132, 384.3122
1138.614, 382.9795
1139.096, 383.6878
1139.578, 385.1918
1140.060, 385.8780
1140.542, 385.7463
1141.024, 384.9419
1141.506, 383.4598
1141.989, 382.4339
1142.471, 383.2572
1142.953, 384.3321
1143.435, 384.4938
1143.917, 383.9616
1144.399, 383.6655
1144.881, 383.6714
1145.363, 383.3141
1145.846, 382.3792
1146.328, 381.7573
1146.810, 382.8249
1147.292, 384.3080
1147.774, 384.8636
1148.256, 384.4165
1148.738, 384.5605
1149.220, 385.6056
1149.703, 386.0576
1150.185, 385.3815
1150.667, 384.3047
1151.149, 383.4821
1151.631, 383.0035
1152.113, 383.0718
1152.595, 383.8054
1153.077, 384.4220
1153.559, 384.7849
1154.042, 385.2863
1154.524, 386.3026
1155.006, 387.2179
1155.488, 386.4009
1155.970, 384.7573
1156.452, 384.1177
1156.934, 385.2329
1157.416, 386.4999
1157.898, 388.1144
1158.381, 389.0662
1158.863, 388.5778
1159.345, 387.1544
1159.827, 385.9913
1160.309, 385.1313
1160.791, 384.7230
1161.273, 385.0968
1161.755, 385.4490
1162.238, 385.5262
1162.720, 385.6748
1163.202, 386.3792
1163.684, 387.4043
1164.166, 387.3009
1164.648, 386.3101
1165.130, 385.4936
1165.612, 385.3793
1166.094, 385.5036
1166.577, 385.8285
1167.059, 386.2088
1167.541, 386.4517
1168.023, 386.5884
1168.505, 387.1158
1168.987, 387.9582
1169.469, 388.3872
1169.951, 387.1459
1170.433, 386.3446
1170.916, 387.5404
1171.398, 389.3348
1171.880, 389.9717
1172.362, 389.5003
1172.844, 388.4808
1173.326, 386.9920
1173.808, 385.9644
1174.290, 386.5041
1174.773, 387.2484
1175.255, 387.2987
1175.737, 387.0493
1176.219, 387.4265
1176.701, 388.4429
1177.183, 388.4791
1177.665, 387.2678
1178.147, 386.2010
1178.630, 386.4272
1179.112, 387.1444
1179.594, 388.1242
1180.076, 389.0999
1180.558, 389.2315
1181.040, 388.4755
1181.522, 387.5365
1182.004, 386.4427
1182.486, 385.9032
1182.969, 387.2062
1183.451, 388.7806
1183.933, 389.0257
1184.415, 388.2092
1184.897, 388.8306
1185.379, 391.1178
1185.861, 392.1345
1186.343, 390.8295
1186.825, 389.2879
1187.308, 389.7652
1187.790, 390.8461
1188.272, 391.2878
1188.754, 391.0047
1189.236, 389.9160
1189.718, 387.8600
1190.200, 386.7217
1190.682, 387.3048
1191.165, 388.4625
1191.647, 389.4748
1192.129, 390.0876
1192.611, 389.6847
1193.093, 388.1073
1193.575, 388.1546
1194.057, 390.1142
1194.539, 391.5273
1195.021, 391.1765
1195.504, 390.3907
1195.986, 390.6484
1196.468, 391.3766
1196.950, 391.8381
1197.432, 391.9029
1197.914, 392.1382
1198.396, 392.6139
1198.878, 392.7224
1199.360, 391.8666
1199.843, 390.9836
1200.325, 391.4548
1200.807, 392.4848
1201.289, 392.8253
1201.771, 391.9948
1202.253, 392.4292
1202.735, 394.4595
1203.217, 395.5850
1203.700, 393.4500
1204.182, 390.8549
1204.664, 391.3669
1205.146, 393.4875
1205.628, 394.8082
1206.110, 394.8867
1206.592, 394.7403
1207.074, 394.3272
1207.557, 393.9090
1208.039, 393.3496
1208.521, 393.1513
1209.003, 394.4516
1209.485, 396.3392
1209.967, 397.0023
1210.449, 395.5464
1210.931, 395.2946
1211.413, 396.4622
1211.896, 397.4681
1212.378, 396.5732
1212.860, 395.5130
1213.342, 397.0197
1213.824, 395.8394
1214.306, 395.1810
1214.788, 395.5930
1215.270, 393.6974
1215.752, 394.1980
1216.235, 394.9977
1216.717, 394.4931
1217.199, 393.5687
1217.681, 392.8539
1218.163, 392.4643
1218.645, 392.7022
1219.127, 393.7986
1219.609, 394.5757
1220.092, 394.9969
1220.574, 395.0390
1221.056, 394.4457
1221.538, 393.6823
1222.020, 392.8660
1222.502, 392.3058
1222.984, 392.7939
1223.466, 394.8154
1223.948, 395.2114
1224.431, 393.6481
1224.913, 392.3884
1225.395, 393.5476
1225.877, 395.4936
1226.359, 397.4689
1226.841, 399.0208
1227.323, 399.1842
1227.805, 397.6734
1228.287, 396.6982
1228.770, 396.4119
1229.252, 396.7662
1229.734, 398.5513
1230.216, 400.1503
1230.698, 400.2494
1231.180, 399.2516
1231.662, 398.0328
1232.144, 396.5034
1232.627, 396.0391
1233.109, 396.7780
1233.591, 397.6030
1234.073, 397.4610
1234.555, 397.3461
1235.037, 398.1678
1235.519, 399.3771
1236.001, 399.8558
1236.484, 399.6038
1236.966, 399.8155
1237.448, 400.5936
1237.930, 400.9874
1238.412, 399.9163
1238.894, 398.7363
1239.376, 398.0797
1239.858, 397.8928
1240.340, 398.3205
1240.823, 399.2720
1241.305, 399.6996
1241.787, 399.5199
1242.269, 399.4196
1242.751, 400.1225
1243.233, 400.6334
1243.715, 400.3340
1244.197, 399.7735
1244.679, 399.9756
1245.162, 400.7177
1245.644, 400.4982
1246.126, 399.2833
1246.608, 398.7882
1247.090, 401.1584
1247.572, 402.7489
1248.054, 402.1932
1248.536, 400.6749
1249.019, 399.6099
1249.501, 399.1185
1249.983, 399.8384
1250.465, 401.7170
1250.947, 403.5468
1251.429, 405.2174
1251.911, 406.1431
1252.393, 406.1063
1252.875, 405.4964
1253.358, 404.5941
1253.840, 403.5987
1254.322, 403.0214
1254.804, 402.8482
1255.286, 402.5844
1255.768, 401.8497
1256.250, 401.4315
1256.732, 401.4467
1257.214, 401.8449
1257.697, 402.9288
1258.179, 404.1628
1258.661, 404.6984
1259.143, 404.5365
1259.625, 403.9325
1260.107, 402.3856
1260.589, 402.0370
1261.071, 403.4195
1261.554, 405.0917
1262.036, 405.7608
1262.518, 405.6698
1263.000, 404.7042
1263.482, 403.1727
1263.964, 402.4236
1264.446, 402.6001
1264.928, 403.0475
1265.411, 403.6583
1265.893, 404.7148
1266.375, 407.4775
1266.857, 409.9040
1267.339, 409.6830
1267.821, 407.6972
1268.303, 406.9181
1268.785, 407.4338
1269.267, 408.0239
1269.750, 408.5692
1270.232, 408.8394
1270.714, 408.4051
1271.196, 407.9127
1271.678, 407.9124
1272.160, 408.0647
1272.642, 407.5720
1273.124, 406.5527
1273.606, 407.0503
1274.089, 409.1031
1274.571, 410.4933
1275.053, 409.1309
1275.535, 407.7876
1276.017, 407.4544
1276.499, 407.7033
1276.981, 408.1094
1277.463, 408.6035
1277.946, 408.8185
1278.428, 408.8024
1278.910, 409.0686
1279.392, 410.7946
1279.874, 411.3014
1280.356, 409.6799
1280.838, 407.6468
1281.320, 407.0529
1281.802, 407.4164
1282.285, 408.0431
1282.767, 408.7365
1283.249, 408.8160
1283.731, 407.4743
1284.213, 406.8446
1284.695, 407.2731
1285.177, 407.7367
1285.659, 406.8133
1286.141, 405.7507
1286.624, 406.2806
1287.106, 407.9937
1287.588, 409.7556
1288.070, 411.8043
1288.552, 412.2497
1289.034, 410.8513
1289.516, 409.5594
1289.998, 410.2042
1290.481, 411.2174
1290.963, 411.3716
1291.445, 411.0099
1291.927, 410.6900
1292.409, 410.3773
1292.891, 410.7825
1293.373, 411.8771
1293.855, 412.9769
1294.338, 413.7050
1294.820, 414.2973
1295.302, 415.0234
1295.784, 415.5076
1296.266, 415.2352
1296.748, 414.3666
1297.230, 413.8508
1297.712, 413.7337
1298.194, 414.0917
1298.677, 415.6897
1299.159, 416.3364
1299.641, 415.1121
1300.123, 414.1084
1300.605, 415.3598
1301.087, 417.7108
1301.569, 418.4203
1302.051, 417.8739
1302.533, 417.0218
1303.016, 415.7019
##END=



