##NAMES=Ferriallanite-(La)
##RRUFFID=R141069
##IDEAL CHEMISTRY=CaLa^3+^(Fe^3+^AlFe^2+^)(SiO_4_)(Si_2_O_7_)O(OH)
##LOCALITY=In den Dellen quarries, Niedermendig, Mendig, Laach lake volcanic complex, Eifel, Rhineland-Palatinate, Germany
##OWNER=RRUFF
##SOURCE=Ch. and H. Sch√§fer
##DESCRIPTION=Black tabular crystals embedded in matrix, associated with sanidine, magnetite and cancrinite.
##STATUS=The identification of this mineral has been confirmed only by single crystal X-ray diffraction.
##URL=rruff.info/R141069
100.2380, 0.0000000E+00
100.7201, 2.597778
101.2023, 5.079712
101.6844, 7.404541
102.1665, 9.072632
102.6486, 6.655701
103.1307, 2.744934
103.6128, 0.4635010
104.0950, 0.1629030
104.5771, 3.5950001E-02
105.0592, 0.6912230
105.5413, 2.752930
106.0234, 6.834900
106.5055, 11.55396
106.9877, 16.25616
107.4698, 20.55237
107.9519, 26.17767
108.4340, 29.58850
108.9161, 29.63129
109.3982, 26.72980
109.8804, 21.89777
110.3625, 15.62146
110.8446, 7.188660
111.3267, 1.757507
111.8088, 0.4169920
112.2909, 0.2484740
112.7731, 0.4050290
113.2552, 0.8663330
113.7373, 1.943726
114.2194, 3.832275
114.7015, 6.267700
115.1836, 8.495911
115.6658, 11.21313
116.1479, 13.66125
116.6300, 14.77606
117.1121, 14.17261
117.5942, 12.71552
118.0763, 12.30829
118.5584, 13.31873
119.0406, 13.92151
119.5227, 13.49670
120.0048, 12.25616
120.4869, 10.62091
120.9690, 8.541748
121.4511, 6.990356
121.9333, 7.004211
122.4154, 8.810852
122.8975, 11.34772
123.3796, 14.22565
123.8617, 17.69574
124.3438, 20.64478
124.8260, 22.66089
125.3081, 23.87036
125.7902, 23.97986
126.2723, 22.25781
126.7544, 19.25287
127.2365, 16.69806
127.7187, 14.10565
128.2008, 12.79803
128.6829, 13.57874
129.1650, 16.69989
129.6471, 20.58417
130.1292, 24.17468
130.6114, 27.92468
131.0935, 29.86969
131.5756, 29.55304
132.0577, 28.60718
132.5398, 27.12634
133.0219, 25.27924
133.5041, 23.24341
133.9862, 21.07239
134.4683, 18.68768
134.9504, 16.94788
135.4325, 15.81854
135.9146, 15.11053
136.3968, 14.95386
136.8789, 15.28870
137.3610, 15.80963
137.8431, 16.21155
138.3252, 16.38177
138.8073, 16.80157
139.2895, 17.52539
139.7716, 18.48053
140.2537, 19.96805
140.7358, 22.33627
141.2179, 24.18814
141.7000, 23.27219
142.1821, 19.89716
142.6643, 16.31003
143.1464, 13.04214
143.6285, 10.20343
144.1106, 8.203644
144.5927, 7.417877
145.0748, 7.258423
145.5570, 7.274658
146.0391, 7.449951
146.5212, 7.422791
147.0033, 6.703857
147.4854, 5.197540
147.9675, 4.104645
148.4497, 4.284760
148.9318, 4.521393
149.4139, 4.078094
149.8960, 2.846375
150.3781, 1.273712
150.8602, 5.7069999E-03
151.3424, 1.020996
151.8245, 1.688019
152.3066, 1.980469
152.7887, 2.049591
153.2708, 1.971558
153.7529, 1.765198
154.2351, 1.467834
154.7172, 1.162323
155.1993, 0.6464540
155.6814, 0.3582150
156.1635, 4.1655999E-02
156.6456, 0.1050110
157.1278, 0.9270630
157.6099, 3.502533
158.0920, 5.116699
158.5741, 5.481506
159.0562, 3.565216
159.5383, 1.785736
160.0205, 1.040558
160.5026, 0.8885190
160.9847, 0.1938170
161.4668, 1.891418
161.9489, 4.944489
162.4310, 7.007935
162.9131, 7.557159
163.3953, 7.738037
163.8774, 8.194458
164.3595, 8.888123
164.8416, 9.459656
165.3237, 9.542847
165.8058, 9.397003
166.2880, 9.593323
166.7701, 10.41937
167.2522, 11.41925
167.7343, 12.04327
168.2164, 12.21826
168.6985, 12.33249
169.1807, 12.47458
169.6628, 12.74771
170.1449, 13.34286
170.6270, 14.54904
171.1091, 16.01324
171.5912, 16.85629
172.0734, 16.72086
172.5555, 16.61377
173.0376, 17.08557
173.5197, 17.79715
174.0018, 18.19254
174.4839, 17.82645
174.9661, 16.88913
175.4482, 16.63937
175.9303, 17.88831
176.4124, 18.98618
176.8945, 19.32962
177.3766, 19.21161
177.8588, 19.19714
178.3409, 19.71307
178.8230, 20.76120
179.3051, 21.68121
179.7872, 22.52292
180.2693, 23.21896
180.7515, 23.75366
181.2336, 24.12704
181.7157, 24.34811
182.1978, 24.41785
182.6799, 24.33029
183.1620, 24.06097
183.6441, 23.25580
184.1263, 22.58389
184.6084, 22.44568
185.0905, 22.79385
185.5726, 23.30350
186.0547, 23.73929
186.5368, 24.12180
187.0190, 24.25833
187.5011, 23.87497
187.9832, 23.47708
188.4653, 23.49500
188.9474, 23.96130
189.4296, 24.46283
189.9117, 24.56583
190.3938, 24.28485
190.8759, 24.13342
191.3580, 24.09085
191.8401, 24.23380
192.3223, 24.77658
192.8044, 25.83463
193.2865, 26.85031
193.7686, 27.17712
194.2507, 27.00186
194.7328, 26.80722
195.2150, 26.70755
195.6971, 26.68814
196.1792, 26.70047
196.6613, 26.70135
197.1434, 26.82639
197.6255, 27.35950
198.1077, 28.12161
198.5898, 28.63190
199.0719, 28.36890
199.5540, 27.54507
200.0361, 27.13943
200.5182, 27.27252
201.0004, 27.73792
201.4825, 28.73096
201.9646, 29.96426
202.4467, 30.73056
202.9288, 30.25174
203.4109, 28.63455
203.8930, 27.76382
204.3752, 28.26981
204.8573, 28.93732
205.3394, 29.41238
205.8215, 29.67773
206.3036, 29.79272
206.7857, 29.74701
207.2679, 29.51120
207.7500, 29.37073
208.2321, 29.68384
208.7142, 29.71198
209.1963, 28.91763
209.6784, 27.60208
210.1606, 26.54089
210.6427, 26.48019
211.1248, 27.57919
211.6069, 28.32022
212.0890, 28.63962
212.5711, 28.72638
213.0533, 28.63333
213.5354, 28.36328
214.0175, 27.90436
214.4996, 27.17346
214.9817, 26.00748
215.4638, 25.11542
215.9460, 24.64453
216.4281, 24.36404
216.9102, 24.41385
217.3923, 24.70084
217.8744, 24.90591
218.3565, 24.72458
218.8387, 24.12292
219.3208, 23.83194
219.8029, 24.01337
220.2850, 24.25073
220.7671, 24.22009
221.2492, 23.93936
221.7314, 23.74347
222.2135, 23.98746
222.6956, 24.69701
223.1777, 25.00813
223.6598, 24.66951
224.1419, 24.12428
224.6240, 23.67078
225.1062, 23.33240
225.5883, 23.05186
226.0704, 22.79254
226.5525, 22.55135
227.0346, 22.29993
227.5167, 21.94220
227.9989, 21.64542
228.4810, 21.63112
228.9631, 21.91949
229.4452, 22.20821
229.9273, 22.24207
230.4094, 22.10880
230.8916, 22.05527
231.3737, 22.13751
231.8558, 22.30873
232.3379, 22.63524
232.8200, 23.17990
233.3021, 23.44058
233.7843, 22.72905
234.2664, 21.58107
234.7485, 20.82730
235.2306, 20.82971
235.7127, 21.18362
236.1948, 21.26120
236.6770, 20.93047
237.1591, 20.88960
237.6412, 21.80432
238.1233, 23.11804
238.6054, 24.29390
239.0875, 25.26076
239.5697, 25.88333
240.0518, 25.76143
240.5339, 24.56590
241.0160, 23.67322
241.4981, 24.02551
241.9802, 24.75299
242.4624, 24.97351
242.9445, 24.29910
243.4266, 23.28601
243.9087, 22.99110
244.3908, 23.80353
244.8729, 24.26076
245.3550, 23.71471
245.8372, 22.79599
246.3193, 22.00000
246.8014, 21.49174
247.2835, 21.17410
247.7656, 20.85454
248.2477, 20.46097
248.7299, 20.24994
249.2120, 20.58194
249.6941, 20.91096
250.1762, 20.72620
250.6583, 19.88821
251.1404, 18.80548
251.6226, 18.21767
252.1047, 18.54309
252.5868, 18.40414
253.0689, 17.21252
253.5510, 15.89378
254.0331, 15.19803
254.5153, 15.27617
254.9974, 15.60487
255.4795, 15.30989
255.9616, 13.84131
256.4437, 12.96292
256.9258, 13.17142
257.4080, 13.52478
257.8901, 13.35991
258.3722, 12.58765
258.8543, 11.61725
259.3364, 10.96431
259.8185, 10.59596
260.3007, 10.69559
260.7828, 11.61751
261.2649, 12.61749
261.7470, 13.32106
262.2291, 13.65564
262.7112, 13.68439
263.1934, 13.45201
263.6755, 12.86917
264.1576, 12.32878
264.6397, 11.99443
265.1218, 11.56024
265.6039, 10.81677
266.0861, 9.793274
266.5682, 8.647186
267.0503, 7.470032
267.5324, 6.165695
268.0145, 5.559830
268.4966, 6.321655
268.9788, 7.038162
269.4609, 6.967773
269.9430, 6.189255
270.4251, 5.220413
270.9072, 4.474228
271.3893, 3.966904
271.8715, 3.355530
272.3536, 2.286926
272.8357, 1.474075
273.3178, 1.425583
273.7999, 1.922470
274.2820, 2.337189
274.7642, 2.228622
275.2463, 1.650238
275.7284, 1.266953
276.2105, 1.253967
276.6926, 1.190125
277.1747, 0.8323210
277.6568, 0.3135220
278.1389, 7.3211998E-02
278.6211, 0.1729580
279.1032, 2.0096000E-02
279.5853, 0.2638090
280.0674, 0.8007510
280.5495, 1.304626
281.0316, 1.802322
281.5138, 2.203949
281.9959, 2.277634
282.4780, 1.874252
282.9601, 1.253128
283.4422, 1.136642
283.9243, 1.861313
284.4065, 2.370987
284.8886, 2.288940
285.3707, 1.906677
285.8528, 1.630630
286.3349, 1.590485
286.8170, 1.722672
287.2992, 1.939728
287.7813, 2.259949
288.2634, 2.583664
288.7455, 3.079498
289.2276, 3.500885
289.7097, 3.421494
290.1919, 2.736252
290.6740, 1.966248
291.1561, 1.774750
291.6382, 2.256989
292.1203, 2.742950
292.6024, 3.227768
293.0846, 3.658646
293.5667, 3.955551
294.0488, 4.110092
294.5309, 4.246155
295.0130, 4.541840
295.4951, 4.993073
295.9773, 5.136398
296.4594, 4.541901
296.9415, 3.864594
297.4236, 3.726700
297.9057, 4.129135
298.3878, 4.545685
298.8700, 4.576294
299.3521, 4.302811
299.8342, 4.341797
300.3163, 5.042786
300.7984, 5.793427
301.2805, 6.274414
301.7627, 6.521469
302.2448, 6.660263
302.7269, 6.766144
303.2090, 6.765915
303.6911, 6.475937
304.1732, 5.717270
304.6554, 4.995392
305.1375, 4.524338
305.6196, 4.269989
306.1017, 4.181259
306.5838, 4.304047
307.0659, 4.476349
307.5481, 4.337891
308.0302, 3.779770
308.5123, 3.484467
308.9944, 3.839462
309.4765, 4.488113
309.9586, 4.892792
310.4408, 4.929810
310.9229, 4.774033
311.4050, 4.550308
311.8871, 4.226212
312.3692, 4.124237
312.8513, 4.515320
313.3335, 5.078094
313.8156, 5.442642
314.2977, 5.557205
314.7798, 5.530350
315.2619, 5.393921
315.7440, 5.161270
316.2262, 5.069122
316.7083, 5.430435
317.1904, 5.720596
317.6725, 5.310608
318.1546, 4.249008
318.6367, 3.429230
319.1188, 3.543869
319.6010, 4.404404
320.0831, 4.920303
320.5652, 4.930954
321.0473, 4.775864
321.5294, 4.638168
322.0115, 4.475967
322.4937, 4.156204
322.9758, 3.549881
323.4579, 2.868118
323.9400, 2.662857
324.4221, 3.091309
324.9042, 3.446716
325.3864, 3.450287
325.8685, 3.259354
326.3506, 3.160721
326.8327, 3.259277
327.3148, 3.442459
327.7969, 3.528244
328.2791, 3.496811
328.7612, 3.356964
329.2433, 2.948669
329.7254, 2.547562
330.2075, 2.540314
330.6896, 2.966370
331.1718, 3.389603
331.6539, 3.350510
332.1360, 2.805740
332.6181, 2.394409
333.1002, 2.216156
333.5823, 2.112274
334.0645, 1.944839
334.5466, 1.732330
335.0287, 1.623947
335.5108, 1.752670
335.9929, 2.079132
336.4750, 2.294983
336.9572, 2.340637
337.4393, 2.346558
337.9214, 2.329453
338.4035, 2.270554
338.8856, 2.203415
339.3677, 2.165253
339.8499, 2.121536
340.3320, 1.953323
340.8141, 1.522598
341.2962, 1.249344
341.7783, 1.339508
342.2604, 1.568604
342.7426, 1.667191
343.2247, 1.566177
343.7068, 1.342178
344.1889, 1.061295
344.6710, 0.6347960
345.1531, 0.4002690
345.6353, 0.6809690
346.1174, 0.9532930
346.5995, 0.6441800
347.0816, 0.1978910
347.5637, 0.9059910
348.0458, 0.8114320
348.5280, 0.1561740
349.0101, 0.6853180
349.4922, 0.4256900
349.9743, 0.1226810
350.4564, 0.1735080
350.9385, 0.4485930
351.4207, 0.5903930
351.9028, 0.3818660
352.3849, 9.7336002E-02
352.8670, 0.5164490
353.3491, 1.167908
353.8312, 1.396149
354.3134, 0.6471410
354.7955, 0.3763120
355.2776, 0.7335970
355.7597, 0.1208340
356.2418, 0.8224790
356.7239, 0.9711610
357.2061, 0.4006650
357.6882, 1.087494
358.1703, 0.6605830
358.6524, 6.5459996E-02
359.1345, 0.6492310
359.6166, 0.9917140
360.0987, 1.102798
360.5808, 0.9756470
361.0630, 0.5856780
361.5451, 0.2054750
362.0272, 0.3898620
362.5093, 0.7459410
362.9914, 0.5300290
363.4735, 2.4719000E-02
363.9557, 0.4439540
364.4378, 0.4220890
364.9199, 0.1047520
365.4020, 0.1377560
365.8841, 1.097260
366.3662, 1.600601
366.8484, 1.132034
367.3305, 0.3299410
367.8126, 0.1521610
368.2947, 0.1143490
368.7768, 0.1243440
369.2589, 4.5196999E-02
369.7411, 0.5206600
370.2232, 0.9430540
370.7053, 1.182693
371.1874, 1.295517
371.6695, 1.308197
372.1516, 1.224747
372.6338, 1.018906
373.1159, 0.6070860
373.5980, 8.1940005E-03
374.0801, 0.3537290
374.5622, 0.3644710
375.0443, 0.2550810
375.5265, 5.7968002E-02
376.0086, 0.1885530
376.4907, 0.4578860
376.9728, 0.7635800
377.4549, 1.020630
377.9370, 0.9843600
378.4192, 0.5018460
378.9013, 0.1676030
379.3834, 0.3558650
379.8655, 0.6279600
380.3476, 0.5704350
380.8297, 0.1061550
381.3119, 0.3445130
381.7940, 0.2461850
382.2761, 0.3857420
382.7582, 0.7424770
383.2403, 0.6150360
383.7224, 0.2964320
384.2046, 0.1199190
384.6867, 0.5657500
385.1688, 0.8251650
385.6509, 0.6480710
386.1330, 0.2223660
386.6151, 2.5116000E-02
387.0973, 0.1525420
387.5794, 0.1586150
388.0615, 0.4434050
388.5436, 1.261765
389.0257, 1.711319
389.5078, 1.552094
389.9900, 1.242538
390.4721, 1.226578
390.9542, 1.453445
391.4363, 1.519348
391.9184, 1.247696
392.4005, 0.8099670
392.8827, 0.4182740
393.3648, 6.4804003E-02
393.8469, 0.1916960
394.3290, 0.4222560
394.8111, 0.5129240
395.2932, 0.1786190
395.7754, 0.6605220
396.2575, 1.537308
396.7396, 2.103699
397.2217, 2.342316
397.7038, 2.322220
398.1859, 1.752701
398.6681, 1.176987
399.1501, 0.9991610
399.6323, 1.133759
400.1144, 1.225677
400.5965, 1.072128
401.0786, 0.7974850
401.5607, 0.7905430
402.0428, 1.239914
402.5250, 1.579773
403.0071, 1.637756
403.4892, 1.572296
403.9713, 1.591644
404.4534, 1.733292
404.9355, 1.821930
405.4177, 1.600281
405.8998, 0.9559330
406.3819, 0.7383270
406.8640, 1.241150
407.3461, 1.802048
407.8282, 2.081863
408.3104, 2.149719
408.7925, 2.264420
409.2746, 2.600204
409.7567, 3.073624
410.2388, 3.298676
410.7209, 2.895828
411.2031, 2.708267
411.6852, 2.984360
412.1673, 3.461502
412.6494, 3.911118
413.1315, 4.231995
413.6136, 4.365234
414.0958, 4.148132
414.5779, 3.453674
415.0600, 3.053360
415.5421, 3.201248
416.0242, 3.355408
416.5063, 3.238770
416.9885, 2.936386
417.4706, 2.732788
417.9527, 2.831131
418.4348, 3.162567
418.9169, 3.494049
419.3990, 3.885635
419.8812, 4.127136
420.3633, 4.034744
420.8454, 3.820343
421.3275, 3.634491
421.8096, 3.500275
422.2917, 3.506424
422.7739, 3.883011
423.2560, 4.583084
423.7381, 4.866852
424.2202, 4.457321
424.7023, 3.924332
425.1844, 3.699799
425.6666, 3.696091
426.1487, 3.643097
426.6308, 3.196152
427.1129, 2.740494
427.5950, 3.031067
428.0771, 4.120300
428.5593, 4.902725
429.0414, 4.513275
429.5235, 3.580460
430.0056, 3.578873
430.4877, 5.015884
430.9698, 6.240204
431.4520, 6.233856
431.9341, 5.448807
432.4162, 4.772079
432.8983, 4.420334
433.3804, 4.278046
433.8625, 4.232712
434.3447, 4.293213
434.8268, 4.401276
435.3089, 4.767883
435.7910, 4.990082
436.2731, 4.600784
436.7552, 3.785004
437.2374, 3.247025
437.7195, 3.412125
438.2016, 4.081711
438.6837, 4.519333
439.1658, 4.574677
439.6479, 4.596252
440.1301, 4.559647
440.6122, 4.550552
441.0943, 4.701340
441.5764, 5.003479
442.0585, 5.275131
442.5406, 5.327972
443.0227, 5.172577
443.5049, 4.837891
443.9870, 4.018112
444.4691, 3.367493
444.9512, 3.051590
445.4333, 3.016068
445.9154, 3.276520
446.3976, 3.864975
446.8797, 4.567139
447.3618, 4.843964
447.8439, 4.465744
448.3260, 4.199066
448.8081, 4.398453
449.2903, 4.608063
449.7724, 4.453430
450.2545, 3.954742
450.7366, 3.535629
451.2187, 3.562134
451.7008, 3.925980
452.1830, 4.281998
452.6651, 4.723785
453.1472, 4.947479
453.6293, 4.555405
454.1114, 3.888351
454.5935, 3.407166
455.0757, 3.194092
455.5578, 3.136520
456.0399, 3.193497
456.5220, 3.335693
457.0041, 3.460617
457.4862, 3.533112
457.9684, 3.598236
458.4505, 3.740540
458.9326, 3.965317
459.4147, 4.120987
459.8968, 4.181564
460.3789, 4.138046
460.8611, 3.968567
461.3432, 3.686905
461.8253, 3.312454
462.3074, 2.794907
462.7895, 2.256332
463.2716, 2.203918
463.7538, 3.061508
464.2359, 3.802170
464.7180, 4.386169
465.2001, 4.771011
465.6822, 4.843170
466.1643, 4.622009
466.6465, 4.304504
467.1286, 4.084381
467.6107, 3.952286
468.0928, 4.009140
468.5749, 4.656128
469.0570, 5.092651
469.5392, 4.860703
470.0213, 4.312927
470.5034, 4.022400
470.9855, 4.250778
471.4676, 4.681595
471.9497, 4.729553
472.4319, 4.295776
472.9140, 3.931915
473.3961, 3.622787
473.8782, 3.521286
474.3603, 3.871063
474.8424, 4.537140
475.3246, 5.019333
475.8067, 4.934082
476.2888, 4.496796
476.7709, 4.112579
477.2530, 3.754807
477.7351, 3.618332
478.2173, 3.996307
478.6994, 4.546967
479.1815, 4.699371
479.6636, 4.335175
480.1457, 4.009476
480.6278, 3.933609
481.1100, 4.022888
481.5920, 4.209015
482.0742, 4.497589
482.5563, 4.579315
483.0384, 4.094254
483.5205, 3.101685
484.0026, 2.528122
484.4847, 2.614471
484.9669, 2.825272
485.4490, 3.019760
485.9311, 3.181793
486.4132, 3.292526
486.8953, 3.343719
487.3774, 3.352768
487.8596, 3.306946
488.3417, 3.092346
488.8238, 3.087158
489.3059, 3.533676
489.7880, 3.953186
490.2701, 4.126511
490.7523, 4.077026
491.2344, 3.865585
491.7165, 3.487534
492.1986, 3.091354
492.6807, 3.194016
493.1628, 4.151398
493.6450, 4.626633
494.1271, 3.836334
494.6092, 2.824326
495.0913, 2.202332
495.5734, 2.033875
496.0555, 2.151443
496.5377, 2.699249
497.0198, 3.422455
497.5019, 3.498398
497.9840, 2.750641
498.4661, 2.114868
498.9482, 2.166672
499.4304, 2.643509
499.9125, 3.086639
500.3946, 3.630081
500.8767, 3.758224
501.3588, 2.771851
501.8409, 1.313156
502.3231, 0.6399690
502.8052, 1.020569
503.2873, 1.567703
503.7694, 1.391663
504.2515, 0.4585570
504.7336, 8.7890001E-03
505.2158, 0.1684270
505.6979, 0.5469670
506.1800, 1.260757
506.6621, 1.989288
507.1442, 2.166367
507.6263, 1.610229
508.1085, 0.7833560
508.5906, 0.3840030
509.0727, 0.4714970
509.5548, 0.7815090
510.0369, 1.900696
510.5190, 2.651245
511.0012, 2.174637
511.4833, 1.053146
511.9654, 0.4752960
512.4475, 1.128647
512.9296, 2.286530
513.4117, 2.556442
513.8939, 1.800400
514.3760, 1.245895
514.8581, 1.343506
515.3402, 1.536484
515.8223, 1.269897
516.3044, 0.6279300
516.7866, 0.1900480
517.2687, 0.3833920
517.7508, 0.8038640
518.2329, 0.9368130
518.7150, 0.7900240
519.1971, 0.5852660
519.6793, 0.4139100
520.1614, 0.2612920
520.6435, 8.3541997E-02
521.1256, 0.1710360
521.6077, 0.2947850
522.0898, 0.2188870
522.5720, 2.6489001E-02
523.0541, 0.2963560
523.5362, 0.6919860
524.0183, 0.9761960
524.5004, 1.013901
524.9825, 0.8312990
525.4647, 0.5461880
525.9468, 4.1397002E-02
526.4289, 0.4340820
526.9110, 0.5131070
527.3931, 0.4469450
527.8752, 0.3282170
528.3574, 0.1935730
528.8395, 8.7646000E-02
529.3216, 3.7323002E-02
529.8037, 4.7485001E-02
530.2858, 0.1741640
530.7679, 0.4966280
531.2501, 0.7538450
531.7322, 0.7917020
532.2143, 0.7226560
532.6964, 0.6688690
533.1785, 0.6606750
533.6606, 0.5871280
534.1428, 0.3643340
534.6249, 2.7373999E-02
535.1070, 0.4654080
535.5891, 1.153458
536.0712, 1.521759
536.5533, 1.020660
537.0355, 0.1573940
537.5176, 0.7703700
537.9997, 0.3143620
538.4818, 3.2150000E-02
538.9639, 0.3628080
539.4460, 0.9115140
539.9282, 0.7169950
540.4103, 0.3232880
540.8924, 1.389191
541.3745, 1.570129
541.8566, 0.8341980
542.3387, 0.3904720
542.8209, 0.6095890
543.3029, 0.6891480
543.7850, 0.3410490
544.2672, 0.1671600
544.7493, 0.5892790
545.2314, 0.8470610
545.7135, 0.8721310
546.1956, 0.4725040
546.6777, 0.3064730
547.1599, 0.9214170
547.6420, 1.398376
548.1241, 1.592056
548.6062, 1.003754
549.0883, 0.1570890
549.5704, 6.6680000E-03
550.0526, 1.101379
550.5347, 2.073410
551.0168, 1.810730
551.4989, 0.8531340
551.9810, 0.3462830
552.4631, 0.5297850
552.9453, 0.9696040
553.4274, 1.302292
553.9095, 1.530624
554.3916, 1.634338
554.8737, 1.572235
555.3558, 1.453522
555.8380, 1.246445
556.3201, 1.022705
556.8022, 0.8630220
557.2843, 0.7916410
557.7664, 0.7988890
558.2485, 0.8955690
558.7307, 1.085312
559.2128, 1.187241
559.6949, 1.115875
560.1770, 1.049133
560.6591, 1.178589
561.1412, 1.325577
561.6234, 1.192230
562.1055, 0.6540680
562.5876, 0.1651760
563.0697, 0.2777100
563.5518, 0.8073580
564.0339, 1.075943
564.5161, 0.9472960
564.9982, 0.7939910
565.4803, 0.8843840
565.9624, 1.163177
566.4445, 1.402084
566.9266, 1.794434
567.4088, 1.921875
567.8909, 1.199829
568.3730, 0.3357540
568.8551, 0.4285130
569.3372, 1.549927
569.8193, 2.688721
570.3015, 2.900681
570.7836, 2.235718
571.2657, 1.760864
571.7478, 1.559540
572.2299, 1.437698
572.7120, 1.333481
573.1942, 1.318527
573.6763, 1.520782
574.1584, 1.920120
574.6405, 2.272034
575.1226, 2.404755
575.6047, 2.342972
576.0869, 2.148804
576.5690, 1.786469
577.0511, 1.400360
577.5332, 0.8681490
578.0153, 0.4792790
578.4974, 0.7717900
578.9796, 1.951218
579.4617, 2.885345
579.9438, 3.003876
580.4259, 2.764069
580.9080, 2.643051
581.3901, 2.673416
581.8723, 2.744537
582.3544, 2.792358
582.8365, 2.816528
583.3186, 2.811050
583.8007, 2.531586
584.2828, 2.570419
584.7650, 3.657974
585.2471, 4.490158
585.7292, 3.838242
586.2113, 2.107788
586.6934, 0.7430570
587.1755, 0.7094120
587.6577, 1.474335
588.1398, 1.863785
588.6219, 1.828110
589.1040, 1.634506
589.5861, 1.143784
590.0682, 0.7787630
590.5504, 1.120834
591.0325, 2.018219
591.5146, 2.483459
591.9967, 1.758453
592.4788, 0.8900450
592.9609, 0.8191070
593.4431, 1.325775
593.9252, 1.730148
594.4073, 1.779785
594.8894, 1.712341
595.3715, 1.885330
595.8536, 2.496368
596.3358, 2.788971
596.8179, 2.370422
597.3000, 2.033112
597.7821, 2.179169
598.2642, 2.629272
598.7463, 3.108688
599.2285, 3.524582
599.7106, 3.730118
600.1927, 3.324722
600.6748, 2.351395
601.1569, 2.195526
601.6390, 3.392517
602.1212, 4.386353
602.6033, 3.918427
603.0854, 2.774216
603.5675, 2.154205
604.0496, 2.342148
604.5317, 2.699982
605.0139, 3.060593
605.4960, 3.313873
605.9781, 3.200241
606.4602, 2.735580
606.9423, 2.306717
607.4244, 2.183807
607.9066, 2.330231
608.3887, 2.587708
608.8708, 3.236877
609.3529, 3.585464
609.8350, 3.426453
610.3171, 3.118118
610.7993, 2.799484
611.2814, 2.554108
611.7635, 2.540817
612.2456, 2.932068
612.7277, 3.497284
613.2098, 3.709717
613.6920, 3.532257
614.1741, 3.471466
614.6562, 3.773239
615.1383, 4.067047
615.6204, 3.880722
616.1025, 3.307846
616.5847, 2.923401
617.0668, 2.910507
617.5489, 3.053131
618.0310, 3.279297
618.5131, 3.549347
618.9952, 3.817169
619.4774, 4.064362
619.9595, 4.215210
620.4416, 4.136978
620.9237, 3.792831
621.4058, 3.785049
621.8879, 4.570724
622.3701, 5.134354
622.8522, 5.297241
623.3343, 5.124161
623.8164, 4.432892
624.2985, 3.285522
624.7806, 2.533356
625.2628, 3.245667
625.7448, 4.828995
626.2269, 5.637329
626.7090, 5.584122
627.1912, 5.374954
627.6733, 5.222794
628.1554, 5.204178
628.6375, 5.554108
629.1196, 6.382477
629.6017, 6.982437
630.0839, 7.151489
630.5660, 7.150085
631.0481, 6.991196
631.5302, 6.824051
632.0123, 6.961670
632.4944, 7.547424
632.9766, 8.384964
633.4587, 9.261551
633.9408, 10.32120
634.4229, 10.63216
634.9050, 9.387283
635.3871, 8.437149
635.8693, 8.792801
636.3514, 9.857452
636.8335, 10.75385
637.3156, 11.27489
637.7977, 11.60625
638.2798, 11.81360
638.7620, 11.93892
639.2441, 12.06984
639.7262, 12.21407
640.2083, 12.28801
640.6904, 12.18944
641.1725, 12.03311
641.6547, 12.20895
642.1368, 13.07928
642.6189, 13.75354
643.1010, 14.09328
643.5831, 14.35945
644.0652, 14.68495
644.5474, 15.07961
645.0295, 15.51505
645.5116, 15.97173
645.9937, 16.47369
646.4758, 17.10764
646.9579, 17.87138
647.4401, 18.47018
647.9222, 18.77890
648.4043, 19.08778
648.8864, 19.68317
649.3685, 20.45760
649.8506, 21.04683
650.3328, 21.24704
650.8149, 21.53473
651.2970, 22.36757
651.7791, 23.23984
652.2612, 23.34886
652.7433, 22.75058
653.2255, 22.33548
653.7076, 22.79849
654.1897, 23.87486
654.6718, 24.59076
655.1539, 24.86343
655.6360, 24.96773
656.1182, 24.57614
656.6003, 24.33789
657.0824, 24.72166
657.5645, 25.57056
658.0466, 26.37038
658.5287, 26.92821
659.0109, 27.36699
659.4930, 27.86884
659.9751, 28.34097
660.4572, 28.46619
660.9393, 28.16699
661.4214, 27.79707
661.9036, 27.67052
662.3857, 27.75916
662.8678, 27.75731
663.3499, 27.44086
663.8320, 27.33711
664.3141, 27.76535
664.7963, 28.21501
665.2784, 28.11823
665.7605, 27.63148
666.2426, 27.53587
666.7247, 28.39084
667.2068, 29.53131
667.6890, 29.68941
668.1711, 28.91705
668.6532, 28.41403
669.1353, 28.51990
669.6174, 28.76353
670.0995, 28.75198
670.5817, 28.49081
671.0638, 28.13350
671.5459, 27.48695
672.0280, 26.97311
672.5101, 26.87082
672.9922, 26.87459
673.4744, 26.66298
673.9565, 26.20860
674.4386, 25.64655
674.9207, 25.04474
675.4028, 24.48233
675.8849, 24.27763
676.3671, 24.58900
676.8492, 24.57870
677.3313, 23.95026
677.8134, 23.19853
678.2955, 22.53030
678.7776, 21.97511
679.2598, 21.76454
679.7419, 22.44096
680.2240, 22.88071
680.7061, 22.17889
681.1882, 20.90097
681.6703, 19.88074
682.1525, 19.32080
682.6346, 19.02840
683.1167, 18.86818
683.5988, 18.77083
684.0809, 18.37839
684.5630, 17.45226
685.0452, 16.81133
685.5273, 17.00284
686.0094, 17.11493
686.4915, 16.33029
686.9736, 15.00500
687.4557, 14.21600
687.9379, 14.69847
688.4200, 15.31453
688.9021, 14.90596
689.3842, 13.85408
689.8663, 13.03749
690.3484, 12.61591
690.8306, 12.44270
691.3127, 12.46489
691.7948, 12.59503
692.2769, 12.32928
692.7590, 11.17564
693.2411, 10.39845
693.7233, 10.22131
694.2054, 10.22363
694.6875, 10.30338
695.1696, 10.35411
695.6517, 10.17372
696.1339, 9.645401
696.6160, 8.965057
697.0981, 8.241470
697.5802, 7.546249
698.0623, 7.185989
698.5444, 7.266579
699.0266, 7.449715
699.5087, 7.571014
699.9908, 7.560478
700.4729, 7.140694
700.9550, 5.644562
701.4371, 4.769875
701.9193, 5.088837
702.4014, 5.523132
702.8835, 5.358467
703.3656, 4.795944
703.8477, 4.409950
704.3298, 4.468872
704.8120, 4.592041
705.2941, 4.179733
705.7762, 3.394318
706.2583, 3.100830
706.7404, 3.448547
707.2225, 3.806572
707.7046, 3.788597
708.1867, 3.551315
708.6688, 3.528641
709.1509, 3.960663
709.6331, 3.983978
710.1152, 3.095383
710.5973, 2.215271
711.0794, 1.938347
711.5615, 2.047005
712.0436, 2.096947
712.5258, 1.925446
713.0079, 1.699638
713.4900, 1.662895
713.9721, 1.755112
714.4542, 1.543098
714.9363, 0.9237520
715.4185, 0.6200640
715.9006, 1.129539
716.3827, 1.967552
716.8648, 2.322739
717.3469, 2.151161
717.8290, 1.840843
718.3112, 1.150871
718.7933, 0.6201480
719.2754, 0.6375500
719.7575, 0.9329070
720.2396, 1.096092
720.7217, 1.029617
721.2039, 0.9595720
721.6860, 1.237862
722.1681, 1.662773
722.6502, 1.255211
723.1323, 0.1396180
723.6144, 1.066536
724.0966, 0.9045870
724.5787, 0.3296810
725.0608, 0.1013570
725.5429, 0.2106250
726.0250, 0.2722320
726.5071, 0.2018200
726.9893, 0.1563490
727.4714, 0.2215190
727.9535, 0.3232420
728.4356, 0.3989790
728.9177, 0.4256970
729.3998, 0.3722840
729.8820, 0.1955180
730.3641, 3.8559001E-02
730.8462, 0.1886600
731.3283, 0.2533490
731.8104, 0.2256320
732.2925, 4.7194999E-02
732.7747, 8.4922999E-02
733.2568, 0.1152040
733.7389, 0.5134660
734.2210, 0.4228210
734.7031, 0.7686390
735.1852, 1.501091
735.6674, 1.105011
736.1495, 0.4182970
736.6316, 9.9030003E-02
737.1137, 0.1106260
737.5958, 8.9332998E-02
738.0779, 0.1604840
738.5601, 0.3679120
739.0422, 4.2479999E-02
739.5243, 0.9628300
740.0064, 1.263611
740.4885, 0.7186580
740.9706, 0.1759190
741.4528, 0.1037220
741.9349, 0.3336410
742.4170, 0.5413740
742.8991, 0.8053360
743.3812, 0.7903520
743.8633, 3.7918001E-02
744.3455, 0.5529250
744.8276, 0.3444520
745.3097, 0.2745590
745.7918, 0.6893840
746.2739, 0.7255860
746.7560, 0.6307220
747.2382, 0.6440430
747.7203, 0.7107160
748.2024, 0.6036220
748.6845, 0.3144760
749.1666, 0.2382510
749.6487, 0.5932920
750.1309, 0.9966740
750.6130, 0.9746090
751.0951, 0.4969710
751.5772, 0.1413270
752.0593, 3.2104000E-02
752.5414, 0.1698070
753.0236, 0.3939360
753.5057, 0.5288470
753.9878, 0.2367480
754.4699, 0.3355940
754.9520, 0.5514300
755.4341, 7.6645002E-02
755.9163, 0.9575350
756.3984, 1.235008
756.8805, 1.034683
757.3626, 0.9006420
757.8447, 0.9235000
758.3268, 0.9629590
758.8090, 0.9078140
759.2911, 0.8084950
759.7732, 0.8346480
760.2553, 1.100914
760.7374, 1.290375
761.2195, 1.407448
761.7017, 1.453415
762.1838, 1.409096
762.6659, 1.303886
763.1480, 1.161278
763.6301, 0.9855960
764.1122, 0.8535080
764.5944, 0.8474430
765.0765, 0.9073870
765.5586, 0.9454500
766.0407, 0.9597240
766.5228, 0.9248280
767.0049, 0.8165590
767.4871, 0.8383940
767.9692, 1.324570
768.4513, 2.313965
768.9334, 2.782593
769.4155, 2.247543
769.8976, 1.978935
770.3798, 2.579971
770.8619, 3.280922
771.3440, 3.439308
771.8261, 3.120247
772.3082, 2.838516
772.7903, 2.777733
773.2725, 2.800987
773.7546, 2.931999
774.2367, 3.035255
774.7188, 2.779160
775.2009, 2.211426
775.6830, 1.822136
776.1652, 1.940704
776.6473, 2.408730
777.1294, 2.871613
777.6115, 3.332458
778.0936, 3.803871
778.5757, 4.420349
779.0579, 4.795990
779.5400, 4.498398
780.0221, 3.920479
780.5042, 3.774231
780.9863, 4.195328
781.4684, 4.362267
781.9506, 3.819786
782.4327, 3.379166
782.9148, 3.688393
783.3969, 4.353447
783.8790, 4.709595
784.3611, 4.603477
784.8433, 4.370514
785.3254, 4.325615
785.8075, 4.375702
786.2896, 4.098213
786.7717, 3.483818
787.2538, 3.603493
787.7360, 5.011559
788.2181, 6.348366
788.7002, 6.177788
789.1823, 4.736862
789.6644, 4.093163
790.1465, 4.961494
790.6286, 5.541168
791.1107, 5.426125
791.5928, 5.265938
792.0750, 5.560616
792.5571, 6.071793
793.0392, 6.403793
793.5213, 6.492371
794.0034, 6.318260
794.4855, 5.452980
794.9677, 4.415657
795.4498, 4.377190
795.9319, 5.265396
796.4140, 6.080711
796.8961, 6.392036
797.3782, 6.448044
797.8604, 6.703056
798.3425, 7.227837
798.8246, 7.479683
799.3067, 7.258972
799.7888, 7.030693
800.2709, 6.845367
800.7531, 6.748344
801.2352, 6.865257
801.7173, 7.186356
802.1994, 7.430168
802.6815, 7.484489
803.1636, 7.449707
803.6458, 7.252785
804.1279, 7.119736
804.6100, 7.453537
805.0921, 8.110191
805.5742, 8.465378
806.0563, 8.170921
806.5385, 7.722656
807.0206, 8.064346
807.5027, 9.071915
807.9848, 9.194595
808.4669, 8.180962
808.9490, 7.469193
809.4312, 7.801498
809.9133, 8.566986
810.3954, 8.847015
810.8775, 8.528839
811.3596, 8.441780
811.8417, 8.814964
812.3239, 9.094498
812.8060, 9.168007
813.2881, 9.137863
813.7702, 8.989883
814.2523, 8.749245
814.7344, 8.476982
815.2166, 8.135147
815.6987, 7.920013
816.1808, 8.131828
816.6629, 8.603882
817.1450, 8.983612
817.6271, 9.228485
818.1093, 9.407120
818.5914, 9.550209
819.0735, 9.697342
819.5556, 9.950645
820.0377, 10.35220
820.5198, 10.57853
821.0020, 10.55392
821.4841, 10.49699
821.9662, 10.53033
822.4483, 10.53942
822.9304, 10.32751
823.4125, 9.908241
823.8947, 9.703918
824.3768, 9.895424
824.8589, 10.20318
825.3410, 10.58353
825.8231, 10.96836
826.3052, 11.33116
826.7874, 11.63225
827.2695, 11.77435
827.7516, 11.69434
828.2337, 11.47446
828.7158, 11.09669
829.1979, 10.66553
829.6801, 10.75252
830.1622, 11.41053
830.6443, 11.81480
831.1264, 11.48882
831.6085, 10.89294
832.0906, 10.80706
832.5728, 11.32848
833.0549, 11.64597
833.5370, 11.58318
834.0191, 11.56438
834.5012, 11.70827
834.9833, 11.91045
835.4655, 12.11060
835.9476, 12.29607
836.4297, 12.44233
836.9118, 12.55847
837.3939, 12.61009
837.8760, 12.54591
838.3582, 12.42956
838.8403, 12.22366
839.3224, 12.03287
839.8045, 12.18333
840.2866, 12.83109
840.7687, 13.63933
841.2509, 14.26104
841.7330, 14.65882
842.2151, 14.44567
842.6972, 13.56287
843.1793, 13.01110
843.6614, 13.23543
844.1436, 13.67970
844.6257, 13.65932
845.1078, 13.19209
845.5899, 13.10923
846.0720, 13.92001
846.5541, 14.36393
847.0363, 13.99294
847.5184, 13.55326
848.0005, 13.45303
848.4826, 13.65609
848.9647, 14.07362
849.4468, 14.77240
849.9290, 15.28268
850.4111, 15.26580
850.8932, 15.00808
851.3753, 14.70760
851.8574, 14.42668
852.3395, 14.25355
852.8217, 14.21449
853.3038, 14.27161
853.7859, 14.43774
854.2680, 14.63087
854.7501, 14.53259
855.2322, 14.14360
855.7144, 13.91838
856.1965, 13.99292
856.6786, 14.03365
857.1607, 13.74916
857.6428, 13.27430
858.1249, 13.04754
858.6071, 13.20443
859.0892, 13.31728
859.5713, 13.44510
860.0534, 13.45959
860.5355, 13.16639
861.0176, 12.82145
861.4998, 12.74675
861.9819, 12.96421
862.4640, 13.19820
862.9461, 13.47348
863.4282, 13.58389
863.9103, 13.17046
864.3925, 12.65958
864.8746, 12.72011
865.3567, 13.29578
865.8388, 13.78660
866.3209, 13.82688
866.8030, 13.59111
867.2852, 13.37037
867.7673, 13.11804
868.2494, 12.37885
868.7315, 11.14328
869.2136, 10.64065
869.6957, 11.48486
870.1779, 12.71710
870.6600, 13.10616
871.1421, 12.64958
871.6242, 12.17941
872.1063, 11.57423
872.5884, 11.19198
873.0705, 11.20261
873.5526, 11.31849
874.0347, 11.43216
874.5168, 11.52782
874.9990, 11.51109
875.4811, 11.30761
875.9632, 11.17653
876.4453, 11.35757
876.9274, 11.50083
877.4095, 11.24774
877.8917, 10.81144
878.3738, 10.60445
878.8559, 10.69558
879.3380, 10.77267
879.8201, 10.58922
880.3022, 10.28380
880.7844, 10.07487
881.2665, 9.928627
881.7486, 9.709328
882.2307, 9.397240
882.7128, 9.192307
883.1949, 9.264313
883.6771, 9.428070
884.1592, 9.263733
884.6413, 8.733681
885.1234, 8.368828
885.6055, 8.258553
886.0876, 8.043526
886.5698, 7.436150
887.0519, 6.844261
887.5340, 6.804482
888.0161, 7.261795
888.4982, 7.516518
888.9803, 7.470894
889.4625, 7.386917
889.9446, 7.345490
890.4267, 7.245132
890.9088, 7.017639
891.3909, 6.679115
891.8730, 6.209511
892.3552, 5.589256
892.8373, 5.187019
893.3194, 5.600777
893.8015, 6.124138
894.2836, 5.913895
894.7657, 5.256874
895.2479, 4.718689
895.7300, 4.437096
896.2121, 4.271133
896.6942, 4.114243
897.1763, 4.012161
897.6584, 4.120903
898.1406, 4.366821
898.6227, 4.248421
899.1048, 3.692978
899.5869, 3.301430
900.0690, 3.396561
900.5511, 3.697701
901.0333, 3.797455
901.5154, 3.655502
901.9975, 3.414772
902.4796, 3.014809
902.9617, 2.748337
903.4438, 2.895119
903.9260, 2.969330
904.4081, 2.475433
904.8902, 1.676750
905.3723, 1.286751
905.8544, 1.535530
906.3365, 1.757736
906.8187, 1.698402
907.3008, 1.673370
907.7829, 2.002350
908.2650, 2.385986
908.7471, 2.385048
909.2292, 1.981766
909.7114, 1.582726
910.1935, 1.468193
910.6756, 1.392105
911.1577, 0.9911580
911.6398, 0.4963380
912.1219, 0.3926850
912.6041, 0.6536100
913.0862, 0.9198840
913.5683, 1.021194
914.0504, 0.9915540
914.5325, 0.8449550
915.0146, 0.6103130
915.4968, 0.4211580
915.9789, 0.2749100
916.4610, 0.2969280
916.9431, 0.5737150
917.4252, 0.7383800
917.9073, 0.4001240
918.3895, 0.2121510
918.8716, 0.2035750
919.3537, 0.9214020
919.8358, 1.350494
920.3179, 0.6479340
920.8000, 0.1264720
921.2822, 0.8382720
921.7643, 1.235634
922.2464, 0.7761310
922.7285, 0.4804530
923.2106, 1.145699
923.6927, 0.5174480
924.1749, 3.1989999E-02
924.6570, 0.1063840
925.1391, 0.2665100
925.6212, 0.3096470
926.1033, 1.219017
926.5854, 1.503868
927.0676, 0.8700560
927.5497, 0.1235200
928.0318, 0.3395080
928.5139, 0.5324400
928.9960, 0.3303830
929.4781, 7.3951997E-02
929.9603, 0.3872450
930.4424, 0.5247420
930.9245, 0.3845290
931.4066, 0.1418990
931.8887, 0.7223890
932.3708, 0.7186810
932.8530, 0.3087460
933.3351, 0.3147050
933.8172, 0.7489170
934.2993, 0.9791260
934.7814, 0.7597120
935.2635, 0.4053960
935.7457, 0.2444990
936.2278, 0.2374950
936.7099, 0.1200710
937.1920, 0.1501770
937.6741, 0.3555680
938.1563, 0.4949340
938.6384, 0.5200270
939.1205, 0.4120180
939.6026, 0.1624600
940.0847, 0.3426210
940.5668, 1.255402
941.0490, 1.519234
941.5311, 0.4509660
942.0132, 0.3045730
942.4953, 0.2163310
942.9774, 8.6845003E-02
943.4595, 0.2079240
943.9417, 0.1612320
944.4238, 1.4435000E-02
944.9059, 0.2996900
945.3880, 0.3986590
945.8701, 5.4595999E-02
946.3522, 0.5480120
946.8344, 0.7713700
947.3165, 0.8061220
947.7986, 0.7844310
948.2807, 0.7203980
948.7628, 0.5106200
949.2449, 1.3641000E-02
949.7271, 0.4064410
950.2092, 1.5167000E-02
950.6913, 0.6934810
951.1734, 0.6329040
951.6555, 1.7975001E-02
952.1376, 0.2956700
952.6198, 3.4423999E-02
953.1019, 0.3570180
953.5840, 0.5005340
954.0661, 0.4110030
954.5482, 4.2785998E-02
955.0303, 0.7525330
955.5124, 0.8901750
955.9945, 0.3429110
956.4766, 0.1161120
956.9587, 6.2706001E-02
957.4409, 0.2580260
957.9230, 0.5152050
958.4051, 0.7045970
958.8872, 0.3699190
959.3693, 0.6901930
959.8514, 1.396118
960.3336, 1.426704
960.8157, 1.256989
961.2978, 1.225723
961.7799, 1.263535
962.2620, 1.168205
962.7441, 0.8836750
963.2263, 0.6399610
963.7084, 0.4254910
964.1905, 0.2705990
964.6726, 8.7379001E-02
965.1547, 4.2624999E-02
965.6368, 0.3936460
966.1190, 1.032547
966.6011, 1.456848
967.0832, 1.497391
967.5653, 1.542763
968.0474, 1.809235
968.5295, 1.957352
969.0117, 1.658424
969.4938, 1.199203
969.9759, 0.9181670
970.4580, 0.8751220
970.9401, 1.055161
971.4222, 1.685364
971.9044, 2.158119
972.3865, 1.941200
972.8686, 1.490631
973.3507, 1.248390
973.8328, 1.196007
974.3149, 1.225128
974.7971, 1.283234
975.2792, 1.232170
975.7613, 0.8305280
976.2434, 0.4036560
976.7255, 0.4552230
977.2076, 0.8050000
977.6898, 0.9900820
978.1719, 1.033203
978.6540, 1.460876
979.1361, 2.490494
979.6182, 3.372826
980.1003, 3.023071
980.5825, 1.898743
981.0646, 1.551193
981.5467, 1.879547
982.0288, 2.023819
982.5109, 1.816452
982.9930, 1.722244
983.4752, 2.076363
983.9573, 2.461105
984.4394, 2.081154
984.9215, 0.9852680
985.4036, 0.6712490
985.8857, 1.245415
986.3679, 1.699219
986.8500, 1.753532
987.3321, 1.673286
987.8142, 1.634186
988.2963, 1.645531
988.7784, 1.748489
989.2606, 2.034599
989.7427, 2.125824
990.2248, 2.007225
990.7069, 1.704704
991.1890, 1.049332
991.6711, 0.4011460
992.1533, 2.1561000E-02
992.6354, 6.7749001E-02
993.1175, 0.2904210
993.5996, 1.555206
994.0817, 2.437645
994.5638, 2.811577
995.0460, 2.921249
995.5281, 2.767181
996.0102, 2.468887
996.4923, 2.000679
996.9744, 1.456955
997.4565, 1.408089
997.9387, 2.457382
998.4208, 3.167328
998.9029, 2.876137
999.3850, 2.451080
999.8671, 2.475067
1000.349, 2.682053
1000.831, 2.600830
1001.313, 2.173294
1001.796, 1.713867
1002.278, 1.145813
1002.760, 0.8664020
1003.242, 1.474609
1003.724, 2.206268
1004.206, 2.115685
1004.688, 1.595375
1005.170, 1.653885
1005.653, 2.462036
1006.135, 3.048729
1006.617, 2.622772
1007.099, 1.946663
1007.581, 1.622643
1008.063, 1.622635
1008.545, 2.015594
1009.027, 2.585724
1009.509, 2.786819
1009.992, 2.448349
1010.474, 1.987755
1010.956, 1.575378
1011.438, 1.404709
1011.920, 2.072517
1012.402, 3.126381
1012.884, 3.480659
1013.366, 3.154350
1013.849, 2.768288
1014.331, 2.572411
1014.813, 2.447495
1015.295, 2.192078
1015.777, 1.986694
1016.259, 2.558601
1016.741, 3.664398
1017.223, 3.859467
1017.705, 2.974220
1018.188, 2.159035
1018.670, 2.008247
1019.152, 2.147667
1019.634, 2.056549
1020.116, 1.810310
1020.598, 1.796921
1021.080, 2.007492
1021.562, 2.223602
1022.044, 2.406403
1022.527, 2.607536
1023.009, 2.875031
1023.491, 3.151978
1023.973, 3.318069
1024.455, 3.369370
1024.937, 3.290207
1025.419, 3.051804
1025.901, 2.929459
1026.384, 2.971230
1026.866, 3.159340
1027.348, 3.528595
1027.830, 3.938667
1028.312, 4.135521
1028.794, 4.119148
1029.276, 3.931725
1029.758, 3.506424
1030.240, 3.087242
1030.723, 2.552811
1031.205, 2.461700
1031.687, 3.419815
1032.169, 4.800117
1032.651, 5.290497
1033.133, 4.762535
1033.615, 4.386452
1034.097, 4.036560
1034.579, 4.165817
1035.062, 5.402893
1035.544, 6.293518
1036.026, 5.552483
1036.508, 4.005058
1036.990, 3.426521
1037.472, 4.034073
1037.954, 4.379951
1038.436, 4.337646
1038.919, 4.241394
1039.401, 3.940155
1039.883, 3.798210
1040.365, 4.304665
1040.847, 5.055466
1041.329, 5.131683
1041.811, 4.363548
1042.293, 3.830559
1042.776, 3.595711
1043.258, 3.530411
1043.740, 3.785538
1044.222, 4.036636
1044.704, 4.009544
1045.186, 3.851021
1045.668, 3.893410
1046.150, 4.213547
1046.632, 4.328705
1047.115, 4.166901
1047.597, 3.823067
1048.079, 2.937332
1048.561, 2.268028
1049.043, 2.490883
1049.525, 3.200790
1050.007, 3.566063
1050.489, 3.457710
1050.971, 3.506546
1051.454, 4.111916
1051.936, 4.482834
1052.418, 4.227692
1052.900, 3.813934
1053.382, 3.476402
1053.864, 3.265724
1054.346, 3.281258
1054.828, 3.544304
1055.311, 3.696281
1055.793, 3.547012
1056.275, 3.401054
1056.757, 3.468864
1057.239, 3.476944
1057.721, 3.018684
1058.203, 2.436264
1058.685, 2.426376
1059.167, 3.078194
1059.650, 3.506248
1060.132, 3.218750
1060.614, 2.933167
1061.096, 3.010063
1061.578, 3.108231
1062.060, 2.873032
1062.542, 2.517456
1063.024, 2.484459
1063.506, 2.807480
1063.989, 2.957848
1064.471, 2.617119
1064.953, 2.254814
1065.435, 2.037025
1065.917, 1.987755
1066.399, 2.133034
1066.881, 2.314903
1067.363, 2.247009
1067.846, 1.960579
1068.328, 1.880699
1068.810, 2.297371
1069.292, 2.717995
1069.774, 2.975151
1070.256, 3.102341
1070.738, 3.146614
1071.220, 3.067429
1071.703, 2.657310
1072.185, 2.009209
1072.667, 1.747810
1073.149, 2.325409
1073.631, 2.809937
1074.113, 2.751770
1074.595, 2.492683
1075.077, 2.180176
1075.559, 1.889694
1076.042, 1.603058
1076.524, 1.358124
1077.006, 1.302048
1077.488, 1.516174
1077.970, 1.829674
1078.452, 2.340126
1078.934, 2.696297
1079.416, 2.585487
1079.898, 2.282883
1080.380, 2.156021
1080.863, 2.159027
1081.345, 1.958366
1081.827, 1.392105
1082.309, 0.9289250
1082.791, 0.8009870
1083.273, 0.8077010
1083.755, 0.8881610
1084.237, 0.9999620
1084.720, 1.126434
1085.202, 1.269844
1085.684, 1.490601
1086.166, 1.897148
1086.648, 2.020218
1087.130, 1.325493
1087.612, 0.7098770
1088.094, 0.6971660
1088.577, 0.9217150
1089.059, 1.082535
1089.541, 1.182091
1090.023, 1.308746
1090.505, 1.482239
1090.987, 1.624519
1091.469, 1.653183
1091.951, 1.721878
1092.433, 2.083893
1092.916, 2.325638
1093.398, 1.988914
1093.880, 1.373184
1094.362, 1.042244
1094.844, 1.052933
1095.326, 0.9181590
1095.808, 0.1577610
1096.290, 0.2900920
1096.772, 0.1008150
1097.255, 0.6683270
1097.737, 1.077400
1098.219, 1.345642
1098.701, 1.535477
1099.183, 1.658058
1099.665, 1.721062
1100.147, 1.727272
1100.629, 1.669502
1101.112, 1.461060
1101.594, 1.284981
1102.076, 1.247055
1102.558, 1.279892
1103.040, 1.321762
1103.522, 1.355019
1104.004, 1.418907
1104.486, 1.635323
1104.969, 1.520279
1105.451, 0.4027480
1105.933, 0.2982030
1106.415, 0.3719180
1106.897, 1.220276
1107.379, 1.177650
1107.861, 0.5861740
1108.343, 0.4005130
1108.825, 0.7980420
1109.307, 0.9856800
1109.790, 0.6212920
1110.272, 0.4251560
1110.754, 0.7780380
1111.236, 1.094193
1111.718, 0.9373020
1112.200, 0.5507810
1112.682, 0.3505710
1113.164, 0.3559570
1113.647, 0.3039630
1114.129, 2.4574000E-02
1114.611, 2.7733000E-02
1115.093, 0.3253020
1115.575, 0.7119980
1116.057, 1.056076
1116.539, 1.282173
1117.021, 1.289795
1117.504, 1.097908
1117.986, 0.8224950
1118.468, 0.3180010
1118.950, 8.6456001E-02
1119.432, 0.2507780
1119.914, 0.4483570
1120.396, 0.5449910
1120.878, 0.7023930
1121.360, 1.224701
1121.843, 1.787621
1122.325, 1.308853
1122.807, 0.5379330
1123.289, 1.384613
1123.771, 0.9631810
1124.253, 0.4311680
1124.735, 1.6945001E-02
1125.217, 0.3754650
1125.699, 0.6353610
1126.182, 0.8148960
1126.664, 0.9419400
1127.146, 1.013245
1127.628, 0.9312520
1128.110, 0.6624220
1128.592, 0.5635450
1129.074, 0.7032470
1129.556, 0.8990330
1130.039, 1.102837
1130.521, 1.070305
1131.003, 0.4156950
1131.485, 0.5440290
1131.967, 0.5435790
1132.449, 0.3427660
1132.931, 0.7728120
1133.413, 0.6834030
1133.896, 0.4841920
1134.378, 0.2850110
1134.860, 9.3399003E-02
1135.342, 0.1086120
1135.824, 0.1999050
1136.306, 0.1838990
1136.788, 0.8519210
1137.270, 0.9725880
1137.752, 0.6610720
1138.234, 0.5515590
1138.717, 0.7335280
1139.199, 0.8732530
1139.681, 0.7993090
1140.163, 0.7791440
1140.645, 1.369728
1141.127, 1.970917
1141.609, 1.074310
1142.091, 0.5018460
1142.574, 0.8334050
1143.056, 7.4882999E-02
1143.538, 0.5516660
1144.020, 0.6529080
1144.502, 0.5608520
1144.984, 0.4526440
1145.466, 0.3920970
1145.948, 0.4413830
1146.431, 0.5807040
1146.913, 0.8511430
1147.395, 1.157852
1147.877, 1.398605
1148.359, 1.508537
1148.841, 1.286728
1149.323, 0.5632020
1149.805, 3.3523999E-02
1150.287, 0.2604980
1150.770, 0.6967930
1151.252, 1.166725
1151.734, 1.459106
1152.216, 1.175453
1152.698, 0.5894470
1153.180, 0.3997800
1153.662, 0.7465590
1154.144, 0.9135890
1154.626, 0.3786700
1155.109, 7.5020000E-02
1155.591, 0.5915150
1156.073, 1.123062
1156.555, 1.159424
1157.037, 0.9244540
1157.519, 0.6575090
1158.001, 0.4074860
1158.483, 0.3470990
1158.966, 0.6834410
1159.448, 0.7976380
1159.930, 0.2695470
1160.412, 4.5814998E-02
1160.894, 0.7109600
1161.376, 1.384514
1161.858, 1.359261
1162.340, 0.9150240
1162.822, 0.6209870
1163.305, 0.4600520
1163.787, 0.6259000
1164.269, 1.366943
1164.751, 1.798782
1165.233, 1.764793
1165.715, 1.493835
1166.197, 0.9998550
1166.679, 0.5778050
1167.161, 0.6199800
1167.644, 0.9701610
1168.126, 0.9117510
1168.608, 0.4190750
1169.090, 0.4658280
1169.572, 1.113632
1170.054, 1.425446
1170.536, 1.140572
1171.018, 0.7516630
1171.500, 0.5879900
1171.983, 0.5800480
1172.465, 0.6495590
1172.947, 0.7880630
1173.429, 1.015518
1173.911, 1.275742
1174.393, 1.305374
1174.875, 1.122208
1175.357, 1.010048
1175.840, 1.093819
1176.322, 1.253532
1176.804, 1.435425
1177.286, 1.549088
1177.768, 1.363686
1178.250, 1.126419
1178.732, 1.258972
1179.214, 1.622406
1179.697, 1.936913
1180.179, 2.069786
1180.661, 1.831421
1181.143, 1.085777
1181.625, 0.4857940
1182.107, 0.2828060
1182.589, 0.4677120
1183.071, 1.414330
1183.553, 2.368546
1184.036, 2.560410
1184.518, 2.236404
1185.000, 1.932373
1185.482, 1.726837
1185.964, 1.489868
1186.446, 0.9319990
1186.928, 0.7603000
1187.410, 1.543289
1187.892, 2.176308
1188.375, 2.050804
1188.857, 1.688629
1189.339, 1.611000
1189.821, 1.670753
1190.303, 1.285431
1190.785, 0.2088240
1191.267, 4.0863000E-02
1191.749, 0.8939590
1192.232, 1.666893
1192.714, 2.132233
1193.196, 2.157730
1193.678, 1.548294
1194.160, 0.8865890
1194.642, 0.8881840
1195.124, 1.353851
1195.606, 1.481560
1196.089, 1.288994
1196.571, 1.253044
1197.053, 1.388084
1197.535, 1.529312
1198.017, 1.614174
1198.499, 1.648628
1198.981, 1.634132
1199.463, 1.511047
1199.945, 1.075638
1200.427, 0.5276790
1200.910, 0.2311170
1201.392, 0.1650390
1201.874, 0.5001140
1202.356, 1.067574
1202.838, 1.336914
1203.320, 1.139618
1203.802, 0.9908680
1204.284, 1.209549
1204.767, 1.449089
1205.249, 1.401436
1205.731, 1.296661
1206.213, 1.330734
1206.695, 1.446480
1207.177, 1.658379
1207.659, 1.856735
1208.141, 1.768059
1208.624, 1.315758
1209.106, 0.9416660
1209.588, 0.7407230
1210.070, 0.6412810
1210.552, 0.6430590
1211.034, 0.7304460
1211.516, 0.9771500
1211.998, 1.226479
1212.480, 1.344963
1212.963, 1.321068
1213.445, 1.077576
1213.927, 0.4808200
1214.409, 0.3803710
1214.891, 0.9638820
1215.373, 1.259041
1215.855, 1.028954
1216.337, 0.7675860
1216.819, 0.7350920
1217.302, 0.8260650
1217.784, 0.9097140
1218.266, 0.9921190
1218.748, 1.075455
1219.230, 1.168671
1219.712, 1.441544
1220.194, 1.803421
1220.676, 1.623856
1221.159, 0.8844530
1221.641, 0.4786910
1222.123, 0.9019090
1222.605, 1.460396
1223.087, 1.442055
1223.569, 1.207901
1224.051, 1.138054
1224.533, 1.128883
1225.016, 0.9784770
1225.498, 0.7955320
1225.980, 0.8311540
1226.462, 1.092117
1226.944, 1.384338
1227.426, 1.749687
1227.908, 1.828499
1228.390, 1.001930
1228.872, 0.4630580
1229.354, 1.107399
1229.837, 1.850060
1230.319, 1.833046
1230.801, 1.318069
1231.283, 0.6743010
1231.765, 8.2282998E-02
1232.247, 0.1325680
1232.729, 0.9232560
1233.211, 1.408188
1233.694, 1.052383
1234.176, 0.8763730
1234.658, 1.264450
1235.140, 1.495010
1235.622, 1.009468
1236.104, 0.2141720
1236.586, 0.2553180
1237.068, 0.3856350
1237.551, 8.2024001E-02
1238.033, 0.9503250
1238.515, 1.348915
1238.997, 1.294823
1239.479, 1.218376
1239.961, 1.240257
1240.443, 1.148285
1240.925, 0.7345730
1241.407, 0.5046230
1241.890, 1.362404
1242.372, 2.201447
1242.854, 1.664513
1243.336, 0.6717530
1243.818, 0.3778460
1244.300, 0.6058580
1244.782, 0.7125700
1245.264, 0.6100460
1245.746, 0.6952510
1246.229, 1.304390
1246.711, 1.675148
1247.193, 1.628952
1247.675, 1.379639
1248.157, 0.7617950
1248.639, 0.2780530
1249.121, 0.3646930
1249.603, 0.7054600
1250.085, 0.7029420
1250.568, 0.4036710
1251.050, 0.5643080
1251.532, 1.265228
1252.014, 1.562233
1252.496, 1.366478
1252.978, 1.326836
1253.460, 1.629768
1253.942, 1.630592
1254.425, 0.8259960
1254.907, 1.7952001E-02
1255.389, 0.6277620
1255.871, 1.777641
1256.353, 1.701912
1256.835, 0.9859090
1257.317, 0.6039050
1257.799, 0.6014100
1258.281, 0.9131700
1258.764, 1.336487
1259.246, 1.305992
1259.728, 0.2079090
1260.210, 0.4008410
1260.692, 0.9067380
1261.174, 1.806900
1261.656, 1.095093
1262.138, 0.1156690
1262.620, 6.6101000E-02
1263.103, 0.2351150
1263.585, 0.5171660
1264.067, 0.7721940
1264.549, 0.8620830
1265.031, 0.6737440
1265.513, 0.8214490
1265.995, 1.462433
1266.477, 1.763863
1266.960, 1.497971
1267.442, 0.9964450
1267.924, 0.3863530
1268.406, 9.2185996E-02
1268.888, 0.7428130
1269.370, 1.812935
1269.852, 2.085983
1270.334, 1.789413
1270.817, 1.600281
1271.299, 1.485741
1271.781, 1.402176
1272.263, 1.339363
1272.745, 1.055084
1273.227, 0.9129640
1273.709, 0.7096940
1274.191, 0.1907880
1274.673, 2.2199999E-03
1275.156, 0.6565170
1275.638, 1.276360
1276.120, 1.170944
1276.602, 0.7557750
1277.084, 0.4552920
1277.566, 0.3625260
1278.048, 0.3852620
1278.530, 0.5310060
1279.012, 0.7179030
1279.495, 0.9950030
1279.977, 1.039192
1280.459, 0.9892430
1280.941, 0.7604520
1281.423, 0.3043900
1281.905, 2.0393001E-02
1282.387, 6.3147999E-02
1282.869, 0.3813400
1283.352, 0.7274320
1283.834, 0.7469640
1284.316, 0.5350650
1284.798, 0.0000000E+00
##END=



