##NAMES=Ferriallanite-(La)
##RRUFFID=R141069
##IDEAL CHEMISTRY=CaLa^3+^(Fe^3+^AlFe^2+^)(SiO_4_)(Si_2_O_7_)O(OH)
##LOCALITY=In den Dellen quarries, Niedermendig, Mendig, Laach lake volcanic complex, Eifel, Rhineland-Palatinate, Germany
##OWNER=RRUFF
##SOURCE=Ch. and H. Sch√§fer
##DESCRIPTION=Black tabular crystals embedded in matrix, associated with sanidine, magnetite and cancrinite.
##STATUS=The identification of this mineral has been confirmed only by single crystal X-ray diffraction.
##URL=rruff.info/R141069
89.78320, 0.0000000E+00
90.26532, 0.9339600
90.74744, 2.343369
91.22955, 3.109406
91.71167, 4.711411
92.19379, 9.889023
92.67590, 18.04897
93.15802, 25.55341
93.64014, 30.93817
94.12225, 34.27463
94.60437, 34.65134
95.08649, 30.27818
95.56860, 23.28693
96.05072, 20.24786
96.53284, 22.26170
97.01495, 26.31013
97.49707, 26.83711
97.97919, 23.57509
98.46130, 18.56807
98.94342, 13.91287
99.42554, 10.91350
99.90765, 9.391953
100.3898, 9.601318
100.8719, 10.75061
101.3540, 12.02698
101.8361, 13.57309
102.3182, 13.71996
102.8004, 11.36888
103.2825, 5.660446
103.7646, 1.593292
104.2467, 0.4192960
104.7288, 0.9487000
105.2109, 1.356415
105.6931, 2.250580
106.1752, 2.191620
106.6573, 0.6498110
107.1394, 2.273514
107.6215, 6.751953
108.1036, 14.37816
108.5858, 24.12921
109.0679, 30.30377
109.5500, 32.47784
110.0321, 31.69513
110.5142, 28.55020
110.9963, 19.79607
111.4785, 12.44994
111.9606, 7.419052
112.4427, 4.627533
112.9248, 2.794113
113.4069, 1.917145
113.8890, 1.733429
114.3712, 2.026642
114.8533, 2.553986
115.3354, 3.680527
115.8175, 5.653915
116.2996, 8.553116
116.7817, 11.64359
117.2639, 15.37756
117.7460, 19.05956
118.2281, 21.76151
118.7102, 23.12440
119.1923, 23.44194
119.6744, 22.68010
120.1566, 20.78543
120.6387, 18.54437
121.1208, 15.81125
121.6029, 13.00214
122.0850, 11.03592
122.5671, 10.31905
123.0493, 10.72627
123.5314, 12.23378
124.0135, 15.03682
124.4956, 18.51605
124.9777, 23.42596
125.4598, 28.97774
125.9420, 32.03799
126.4241, 28.67618
126.9062, 21.61963
127.3883, 15.83620
127.8704, 12.50099
128.3525, 10.79120
128.8347, 9.487167
129.3168, 8.606140
129.7989, 8.529663
130.2810, 10.19662
130.7631, 13.11346
131.2452, 15.23962
131.7274, 15.88286
132.2095, 15.57118
132.6916, 15.92001
133.1737, 17.06427
133.6558, 17.77281
134.1379, 16.43874
134.6201, 13.08839
135.1022, 10.05078
135.5843, 8.023102
136.0664, 6.914200
136.5485, 6.139343
137.0306, 5.686462
137.5128, 5.528687
137.9949, 5.551392
138.4770, 5.671402
138.9591, 6.274704
139.4412, 7.443283
139.9233, 9.153580
140.4055, 11.99928
140.8876, 16.98747
141.3697, 22.07037
141.8518, 23.66238
142.3339, 20.61299
142.8160, 16.73972
143.2982, 13.24594
143.7803, 10.12210
144.2624, 7.634094
144.7445, 5.836960
145.2266, 4.625290
145.7087, 3.864273
146.1909, 3.773956
146.6730, 3.838753
147.1551, 3.817627
147.6372, 3.470673
148.1193, 3.823990
148.6014, 5.609070
149.0836, 8.194931
149.5657, 9.427597
150.0478, 8.106110
150.5299, 6.367027
151.0120, 5.087097
151.4941, 4.442604
151.9763, 4.153915
152.4584, 4.319565
152.9405, 4.879585
153.4226, 5.538429
153.9047, 6.591301
154.3868, 7.535942
154.8690, 8.070015
155.3511, 7.062393
155.8332, 6.805382
156.3153, 8.579926
156.7974, 11.99037
157.2795, 13.80496
157.7617, 11.99139
158.2438, 9.055130
158.7259, 6.794083
159.2080, 6.151268
159.6901, 5.728111
160.1722, 5.068726
160.6544, 4.181778
161.1365, 3.502388
161.6186, 3.199677
162.1007, 3.117233
162.5828, 3.181099
163.0649, 3.379066
163.5471, 3.686432
164.0292, 4.390198
164.5113, 5.588188
164.9934, 6.431107
165.4755, 6.151970
165.9576, 5.284485
166.4398, 4.465973
166.9219, 3.947166
167.4040, 3.552505
167.8861, 3.174591
168.3682, 2.804779
168.8503, 2.502579
169.3325, 2.338303
169.8146, 2.241211
170.2967, 2.128502
170.7788, 1.502357
171.2609, 1.109299
171.7430, 1.969193
172.2252, 4.315567
172.7073, 6.456543
173.1894, 6.926300
173.6715, 6.169739
174.1536, 5.178947
174.6357, 4.132179
175.1179, 3.219444
175.6000, 2.766800
176.0821, 2.872070
176.5642, 3.069832
177.0463, 2.835754
177.5284, 2.298035
178.0106, 1.864784
178.4927, 1.835869
178.9748, 2.036789
179.4569, 2.181160
179.9390, 2.236328
180.4211, 2.251938
180.9033, 2.399300
181.3854, 2.625916
181.8675, 2.667320
182.3496, 2.089401
182.8317, 1.229118
183.3138, 0.9596860
183.7960, 1.512184
184.2781, 2.283302
184.7602, 2.276558
185.2423, 1.588402
185.7244, 1.036919
186.2065, 1.252769
186.6887, 2.032822
187.1708, 2.645210
187.6529, 3.009232
188.1350, 3.195656
188.6171, 3.280922
189.0992, 3.263939
189.5814, 3.163750
190.0635, 2.968712
190.5456, 2.687065
191.0277, 2.384804
191.5098, 2.041306
191.9919, 1.721153
192.4741, 1.661667
192.9562, 1.882439
193.4383, 1.956215
193.9204, 1.396324
194.4025, 0.2641070
194.8846, 0.3469700
195.3668, 0.1915740
195.8489, 0.4236680
196.3310, 0.8206860
196.8131, 0.9973140
197.2952, 0.9906310
197.7773, 0.6998440
198.2595, 0.1042790
198.7416, 0.1859740
199.2237, 1.6159000E-02
199.7058, 0.4396740
200.1879, 0.7122730
200.6700, 0.7858200
201.1522, 0.7603150
201.6343, 0.6755520
202.1164, 0.5175630
202.5985, 0.3992920
203.0806, 0.3545000
203.5627, 0.3550420
204.0449, 0.3009410
204.5270, 0.1753310
205.0091, 5.0170999E-02
205.4912, 1.6563000E-02
205.9733, 0.1222150
206.4554, 4.0440001E-03
206.9376, 0.5446010
207.4197, 1.305344
207.9018, 1.305344
208.3839, 0.2680440
208.8660, 0.8121570
209.3481, 1.222595
209.8303, 0.8438640
210.3124, 0.3317030
210.7945, 0.3602750
211.2766, 1.108597
211.7587, 1.379356
212.2408, 1.008759
212.7230, 0.5060420
213.2051, 0.1896060
213.6872, 7.4584998E-02
214.1693, 9.6802004E-02
214.6514, 0.3437420
215.1335, 0.7336430
215.6157, 0.8418270
216.0978, 0.5598530
216.5799, 0.2114490
217.0620, 5.2720001E-03
217.5441, 5.6869999E-02
218.0262, 6.0966000E-02
218.5084, 1.8921001E-02
218.9905, 0.1406780
219.4726, 6.9191001E-02
219.9547, 0.3160780
220.4368, 0.6990430
220.9189, 0.8809660
221.4011, 0.8353270
221.8832, 0.6572650
222.3653, 0.2687300
222.8474, 0.2477260
223.3295, 0.5226360
223.8116, 0.4688950
224.2938, 0.3078540
224.7759, 0.1647570
225.2580, 5.6807999E-02
225.7401, 7.5522996E-02
226.2222, 0.2584230
226.7043, 0.4680630
227.1865, 0.6150440
227.6686, 0.6956330
228.1507, 0.7143860
228.6328, 0.6548840
229.1149, 0.4529340
229.5970, 0.3353730
230.0792, 0.3573610
230.5613, 0.4748990
231.0434, 0.5299760
231.5255, 0.5138700
232.0076, 0.4515760
232.4897, 0.3454590
232.9719, 0.1618650
233.4540, 1.6930001E-02
233.9361, 9.8320000E-02
234.4182, 0.1668320
234.9003, 0.1146240
235.3824, 0.1837460
235.8646, 0.4210590
236.3467, 0.4037400
236.8288, 0.1179730
237.3109, 0.3223500
237.7930, 5.4221999E-02
238.2751, 0.5205380
238.7573, 0.8888320
239.2394, 0.9533620
239.7215, 0.9462590
240.2036, 0.9678420
240.6857, 1.042526
241.1678, 1.077286
241.6500, 1.026588
242.1321, 0.9521260
242.6142, 1.035057
243.0963, 1.444824
243.5784, 1.753319
244.0605, 1.754150
244.5427, 1.288391
245.0248, 0.9324720
245.5069, 0.7022480
245.9890, 0.5743560
246.4711, 0.5090640
246.9532, 0.5404430
247.4354, 0.5784530
247.9175, 0.5731050
248.3996, 0.4722290
248.8817, 0.5127560
249.3638, 0.7781910
249.8459, 1.140465
250.3281, 1.365356
250.8102, 1.425133
251.2923, 1.401627
251.7744, 1.317406
252.2565, 1.171890
252.7386, 0.9255830
253.2208, 0.5088500
253.7029, 0.1058730
254.1850, 3.8099999E-04
254.6671, 0.3329540
255.1492, 0.6800000
255.6313, 0.9189300
256.1135, 1.040985
256.5956, 1.067360
257.0777, 0.9842530
257.5598, 0.8546600
258.0419, 0.7005230
258.5240, 0.3519210
259.0062, 0.3839340
259.4883, 1.172432
259.9704, 2.803825
260.4525, 3.573410
260.9346, 3.115211
261.4167, 2.241646
261.8989, 1.935493
262.3810, 2.479729
262.8631, 2.839630
263.3452, 2.728127
263.8273, 2.151962
264.3094, 1.673454
264.7916, 1.261696
265.2737, 0.9123760
265.7558, 0.6906510
266.2379, 0.6843570
266.7200, 0.7295530
267.2021, 0.7774580
267.6843, 0.8314060
268.1664, 0.9576190
268.6485, 1.141472
269.1306, 1.347961
269.6127, 1.630112
270.0948, 2.079247
270.5770, 2.377098
271.0591, 2.414665
271.5412, 2.236481
272.0233, 2.098167
272.5054, 1.998337
272.9875, 1.896805
273.4697, 1.752625
273.9518, 1.554947
274.4339, 1.548592
274.9160, 1.804962
275.3981, 2.225372
275.8802, 2.516068
276.3624, 2.631256
276.8445, 2.769836
277.3266, 3.150131
277.8087, 3.809944
278.2908, 4.155502
278.7729, 4.061440
279.2551, 3.720001
279.7372, 3.590637
280.2193, 3.710297
280.7014, 3.789413
281.1835, 3.625786
281.6656, 3.239639
282.1478, 2.998367
282.6299, 2.918228
283.1120, 2.977211
283.5941, 3.228836
284.0762, 3.687546
284.5583, 3.996544
285.0405, 3.856026
285.5226, 3.340508
286.0047, 3.182190
286.4868, 3.442772
286.9689, 3.868080
287.4510, 4.136475
287.9332, 4.253036
288.4153, 4.320923
288.8974, 4.284050
289.3795, 4.223213
289.8616, 4.576118
290.3438, 5.409996
290.8259, 6.187035
291.3080, 6.136581
291.7901, 5.408310
292.2722, 4.925148
292.7543, 5.124527
293.2365, 5.710304
293.7186, 5.937996
294.2007, 5.800087
294.6828, 5.662621
295.1649, 6.006287
295.6470, 6.656776
296.1292, 6.971207
296.6113, 6.667938
297.0934, 6.071091
297.5755, 5.604408
298.0576, 5.272964
298.5397, 5.139832
299.0219, 5.329048
299.5040, 5.743988
299.9861, 6.197227
300.4682, 6.695778
300.9503, 7.135567
301.4324, 7.381866
301.9146, 7.457314
302.3967, 7.461273
302.8788, 7.392128
303.3609, 7.309105
303.8430, 7.314987
304.3251, 7.443878
304.8073, 7.583900
305.2894, 7.582138
305.7715, 7.504807
306.2536, 7.512093
306.7357, 7.786430
307.2178, 8.132629
307.7000, 8.306053
308.1821, 8.263397
308.6642, 8.274574
309.1463, 8.679382
309.6284, 9.243141
310.1105, 9.605057
310.5927, 9.420364
311.0748, 9.112785
311.5569, 8.997032
312.0390, 9.079758
312.5211, 9.135948
313.0032, 9.010223
313.4854, 8.803452
313.9675, 8.624779
314.4496, 8.548744
314.9317, 8.478828
315.4138, 8.316963
315.8959, 8.095657
316.3781, 7.998398
316.8602, 8.254448
317.3423, 8.582329
317.8244, 8.768196
318.3065, 8.637726
318.7886, 8.542709
319.2708, 8.601952
319.7529, 8.785164
320.2350, 9.008522
320.7171, 9.482491
321.1992, 9.810059
321.6813, 9.718040
322.1635, 8.859756
322.6456, 8.294487
323.1277, 8.480782
323.6098, 9.044243
324.0919, 9.360229
324.5740, 9.045151
325.0562, 8.725792
325.5383, 8.631828
326.0204, 8.866302
326.5025, 8.947701
326.9846, 8.687820
327.4667, 8.326889
327.9489, 8.117516
328.4310, 8.278282
328.9131, 8.351532
329.3952, 8.256531
329.8773, 7.990883
330.3594, 7.691139
330.8416, 7.302292
331.3237, 6.931038
331.8058, 6.637512
332.2879, 6.306236
332.7700, 6.267006
333.2521, 6.696068
333.7343, 7.459045
334.2164, 7.901161
334.6985, 7.927925
335.1806, 7.773621
335.6627, 7.515701
336.1448, 7.064781
336.6270, 6.818695
337.1091, 6.857918
337.5912, 7.040817
338.0733, 7.140999
338.5554, 7.177437
339.0375, 7.094498
339.5197, 6.778397
340.0018, 6.198906
340.4839, 5.948021
340.9660, 6.097137
341.4481, 6.447350
341.9302, 6.804031
342.4124, 7.180290
342.8945, 7.410797
343.3766, 7.454071
343.8587, 7.313019
344.3408, 6.949646
344.8229, 6.340347
345.3051, 5.679932
345.7872, 4.919380
346.2693, 4.159081
346.7514, 4.199661
347.2335, 5.553200
347.7156, 7.344421
348.1978, 7.689697
348.6799, 6.699127
349.1620, 5.625122
349.6441, 5.361794
350.1262, 5.598770
350.6083, 5.638672
351.0905, 5.389755
351.5726, 5.036575
352.0547, 4.724533
352.5368, 4.471146
353.0189, 4.329956
353.5010, 4.405388
353.9832, 4.570465
354.4653, 4.645256
354.9474, 4.628548
355.4295, 4.680450
355.9116, 5.125198
356.3937, 5.651588
356.8759, 5.818153
357.3580, 5.165230
357.8401, 4.344597
358.3222, 3.680153
358.8043, 3.186104
359.2864, 2.991653
359.7686, 3.365776
360.2507, 3.963669
360.7328, 4.521172
361.2149, 5.130035
361.6970, 5.442062
362.1791, 5.105461
362.6613, 4.357994
363.1434, 3.758148
363.6255, 3.660355
364.1076, 3.610481
364.5897, 3.354980
365.0718, 2.773216
365.5540, 2.360268
366.0361, 2.286255
366.5182, 2.372330
367.0003, 2.430229
367.4824, 2.434753
367.9645, 2.438614
368.4467, 2.459328
368.9288, 2.497398
369.4109, 2.484833
369.8930, 2.273102
370.3751, 2.073219
370.8572, 2.080528
371.3394, 2.544296
371.8215, 2.815109
372.3036, 2.741081
372.7857, 2.435478
373.2678, 2.337723
373.7499, 2.586861
374.2321, 2.808609
374.7142, 2.766953
375.1963, 2.329033
375.6784, 2.147438
376.1605, 2.342278
376.6426, 2.653259
377.1248, 2.628807
377.6069, 2.199600
378.0890, 1.854828
378.5711, 1.825180
379.0532, 2.043343
379.5353, 1.958961
380.0175, 1.509209
380.4996, 1.025909
380.9817, 0.8047790
381.4638, 0.8322140
381.9459, 1.026077
382.4280, 1.470016
382.9102, 1.932442
383.3923, 1.827080
383.8744, 1.215096
384.3565, 0.7260590
384.8386, 0.9624250
385.3207, 1.572800
385.8029, 1.798058
386.2850, 1.519890
386.7671, 1.111870
387.2492, 0.9194560
387.7313, 0.8866200
388.2134, 0.8943560
388.6956, 0.9015880
389.1777, 0.9187550
389.6598, 0.9969710
390.1419, 1.128616
390.6240, 1.171738
391.1061, 0.9490810
391.5883, 0.6336060
392.0704, 0.4148330
392.5525, 0.4692230
393.0346, 0.4562300
393.5167, 9.4558999E-02
393.9988, 0.4708860
394.4810, 0.8422850
394.9631, 0.7277980
395.4452, 0.5070800
395.9273, 0.3774410
396.4094, 0.4054410
396.8915, 0.3862690
397.3737, 0.2394560
397.8558, 3.8513001E-02
398.3379, 0.1227570
398.8200, 0.2014310
399.3021, 0.2688290
399.7842, 0.3304750
400.2664, 0.3858720
400.7485, 0.4571840
401.2306, 0.5822600
401.7127, 0.6882930
402.1948, 0.7100910
402.6769, 0.5567470
403.1591, 0.5283360
403.6412, 0.7406390
404.1233, 1.044792
404.6054, 1.037369
405.0875, 0.6233980
405.5696, 0.1753770
406.0518, 0.1988910
406.5339, 0.5020680
407.0160, 0.5483550
407.4981, 0.2755510
407.9802, 9.0751998E-02
408.4623, 0.2790070
408.9445, 0.2939760
409.4266, 0.3412780
409.9087, 0.5215530
410.3908, 0.7322310
410.8729, 0.6866380
411.3550, 0.3918080
411.8372, 7.8987002E-02
412.3193, 0.1876530
412.8014, 0.3446040
413.2835, 0.1828540
413.7656, 0.3939900
414.2477, 1.009926
414.7299, 1.233139
415.2120, 1.174652
415.6941, 1.099068
416.1762, 1.178665
416.6583, 1.259651
417.1404, 1.180580
417.6226, 0.9408650
418.1047, 0.6921460
418.5868, 0.4690400
419.0689, 0.3011780
419.5510, 0.2188570
420.0331, 0.3047790
420.5153, 0.3791350
420.9974, 0.3678970
421.4795, 0.2914890
421.9616, 0.2065810
422.4437, 2.6024001E-02
422.9258, 7.2540000E-02
423.4080, 5.0101999E-02
423.8901, 0.5364380
424.3722, 0.7628330
424.8543, 0.4763410
425.3364, 9.5520001E-03
425.8185, 0.3238750
426.3007, 0.5872420
426.7828, 0.6136630
427.2649, 0.2562030
427.7470, 0.3974840
428.2291, 0.7515640
428.7112, 0.6560130
429.1934, 0.5163650
429.6755, 0.6035080
430.1576, 1.011078
430.6397, 1.114761
431.1218, 0.7879790
431.6039, 0.3286510
432.0861, 0.2460940
432.5682, 0.5682980
433.0503, 0.8582460
433.5324, 0.9597470
434.0145, 0.9179150
434.4966, 0.8779070
434.9788, 0.8404540
435.4609, 0.7894210
435.9430, 0.6511690
436.4251, 0.4969710
436.9072, 0.5398940
437.3893, 0.8817210
437.8715, 1.280090
438.3536, 1.409042
438.8357, 1.356758
439.3178, 1.374710
439.7999, 1.782440
440.2820, 2.187737
440.7642, 2.123436
441.2463, 1.567101
441.7284, 1.170868
442.2105, 1.505081
442.6926, 2.078323
443.1747, 2.408684
443.6569, 2.109421
444.1390, 1.858345
444.6211, 1.889900
445.1032, 2.127953
445.5853, 2.357277
446.0674, 2.602043
446.5496, 2.776588
447.0317, 2.850822
447.5138, 2.817917
447.9959, 2.688881
448.4780, 2.322945
448.9601, 1.975937
449.4423, 1.933876
449.9244, 2.432701
450.4065, 2.740891
450.8886, 2.672546
451.3707, 2.314972
451.8528, 2.053703
452.3350, 1.894577
452.8171, 1.871384
453.2992, 2.068848
453.7813, 2.482292
454.2634, 2.633118
454.7455, 2.448624
455.2277, 2.181305
455.7098, 2.169144
456.1919, 2.386246
456.6740, 2.660141
457.1561, 3.030296
457.6382, 3.361153
458.1204, 3.263214
458.6025, 2.784958
459.0846, 2.389832
459.5667, 2.523613
460.0488, 2.851105
460.5309, 2.975563
461.0131, 2.810043
461.4952, 2.627464
461.9773, 2.579903
462.4594, 2.668282
462.9415, 2.881882
463.4236, 3.433815
463.9058, 3.894577
464.3879, 4.054245
464.8700, 3.943352
465.3521, 3.796234
465.8342, 3.580215
466.3163, 3.355362
466.7985, 3.188057
467.2806, 3.104958
467.7627, 3.044937
468.2448, 3.000427
468.7269, 2.992325
469.2090, 3.041969
469.6912, 3.170860
470.1733, 3.348366
470.6554, 3.599396
471.1375, 3.905571
471.6196, 4.085892
472.1017, 4.102577
472.5839, 4.047783
473.0660, 3.939209
473.5481, 3.777161
474.0302, 3.788460
474.5123, 4.034554
474.9944, 4.349884
475.4766, 4.541565
475.9587, 4.598274
476.4408, 4.457260
476.9229, 3.937798
477.4050, 3.304482
477.8871, 3.014427
478.3693, 3.043045
478.8514, 3.167641
479.3335, 3.245613
479.8156, 3.327385
480.2977, 3.488426
480.7798, 3.756577
481.2620, 3.994324
481.7441, 4.086472
482.2262, 4.117126
482.7083, 4.223450
483.1904, 4.555824
483.6725, 4.833511
484.1547, 4.964546
484.6368, 4.962692
485.1189, 4.903244
485.6010, 4.805573
486.0831, 4.629196
486.5652, 4.347733
487.0474, 3.858009
487.5295, 3.478531
488.0116, 3.239006
488.4937, 3.091743
488.9758, 2.981415
489.4579, 2.907234
489.9401, 2.834801
490.4222, 2.794777
490.9043, 2.755112
491.3864, 2.494347
491.8685, 1.952950
492.3506, 1.589645
492.8328, 1.956566
493.3149, 2.828102
493.7970, 3.104759
494.2791, 2.634010
494.7612, 1.927467
495.2433, 1.451340
495.7255, 1.189880
496.2076, 1.099045
496.6897, 1.124237
497.1718, 1.351974
497.6539, 2.177689
498.1360, 3.371826
498.6182, 4.054756
499.1003, 3.342155
499.5824, 2.230911
500.0645, 1.403564
500.5466, 0.9627300
501.0287, 0.6502460
501.5109, 0.4187090
501.9930, 0.2604600
502.4751, 0.1715850
502.9572, 0.1964110
503.4393, 0.2382740
503.9214, 0.2869570
504.4036, 0.3434370
504.8857, 0.4302220
505.3678, 0.6255260
505.8499, 0.7147370
506.3320, 0.5737760
506.8141, 0.1810530
507.2963, 0.1254730
507.7784, 0.3571240
508.2605, 0.4691470
508.7426, 0.3431850
509.2247, 2.9370000E-03
509.7068, 0.1930080
510.1890, 0.1450420
510.6711, 1.1398000E-02
511.1532, 8.9530997E-02
511.6353, 8.7531999E-02
512.1174, 4.4630002E-03
512.5995, 0.2698970
513.0817, 0.5649950
513.5638, 0.6955110
514.0459, 0.6589360
514.5280, 0.4824980
515.0101, 3.0754000E-02
515.4922, 0.5651400
515.9744, 0.8217930
516.4565, 0.6889800
516.9386, 0.3806840
517.4207, 0.3662340
517.9028, 1.187805
518.3849, 1.482269
518.8671, 0.5578230
519.3492, 0.2685010
519.8313, 0.7052990
520.3134, 0.7710800
520.7955, 0.7785420
521.2776, 0.7107850
521.7598, 0.6088410
522.2419, 0.5240100
522.7240, 0.4942090
523.2061, 0.2222140
523.6882, 0.4210590
524.1703, 1.042389
524.6525, 1.025093
525.1346, 0.4144060
525.6167, 8.7479003E-02
526.0988, 0.2433780
526.5809, 0.2319720
527.0630, 0.4110720
527.5452, 0.7366640
528.0273, 0.9662700
528.5094, 0.8906020
528.9915, 0.6747510
529.4736, 0.4944920
529.9557, 0.3629070
530.4379, 0.2471010
530.9200, 7.6057002E-02
531.4021, 6.5865003E-02
531.8842, 8.9332998E-02
532.3663, 0.1621320
532.8484, 0.3400800
533.3306, 0.3842470
533.8127, 0.2969740
534.2948, 7.8322999E-02
534.7769, 0.5613780
535.2590, 0.9975970
535.7411, 1.064377
536.2233, 0.7742690
536.7054, 0.3793640
537.1875, 0.2472530
537.6696, 0.7261350
538.1517, 0.7465670
538.6339, 0.2673190
539.1160, 0.1287380
539.5981, 0.4112630
540.0802, 0.6003420
540.5623, 0.7574010
541.0444, 0.8646470
541.5266, 0.7937320
542.0087, 0.3513410
542.4908, 0.1112370
542.9729, 1.0490000E-02
543.4550, 0.5876690
543.9371, 1.113365
544.4193, 1.399979
544.9014, 1.450424
545.3835, 1.108971
545.8656, 0.3309400
546.3477, 0.1205980
546.8298, 0.3751600
547.3120, 1.156555
547.7941, 1.674500
548.2762, 1.689606
548.7583, 1.647224
549.2404, 1.432373
549.7225, 1.217278
550.2047, 1.340271
550.6868, 2.068924
551.1689, 2.641365
551.6510, 2.773239
552.1331, 2.562141
552.6152, 2.746346
553.0974, 3.434273
553.5795, 3.984932
554.0616, 3.784195
554.5437, 3.014816
555.0258, 2.782822
555.5079, 3.204224
555.9901, 3.803337
556.4722, 4.109192
556.9543, 4.222420
557.4364, 4.353539
557.9185, 4.598076
558.4006, 4.815865
558.8828, 4.761383
559.3649, 4.593666
559.8470, 4.685310
560.3291, 5.455162
560.8112, 6.278831
561.2933, 6.917313
561.7755, 7.355034
562.2576, 7.647263
562.7397, 7.618950
563.2218, 7.591042
563.7039, 7.729988
564.1860, 8.144409
564.6682, 8.394630
565.1503, 8.408630
565.6324, 8.358093
566.1145, 8.483467
566.5966, 8.827904
567.0787, 9.153305
567.5609, 9.376976
568.0430, 9.556313
568.5251, 9.848488
569.0072, 10.24545
569.4893, 10.60955
569.9714, 10.82170
570.4536, 10.99726
570.9357, 11.29147
571.4178, 11.69245
571.8999, 12.11626
572.3820, 12.58698
572.8641, 12.98280
573.3463, 13.16063
573.8284, 13.01534
574.3105, 12.97423
574.7926, 13.30644
575.2747, 13.79019
575.7568, 14.08236
576.2390, 13.87849
576.7211, 13.83149
577.2032, 14.01313
577.6853, 14.38345
578.1674, 14.80748
578.6495, 15.31348
579.1317, 15.81224
579.6138, 16.27638
580.0959, 16.70377
580.5780, 17.12809
581.0601, 17.58753
581.5422, 17.87477
582.0244, 17.58666
582.5065, 16.98195
582.9886, 16.70628
583.4707, 16.84814
583.9528, 17.23931
584.4349, 17.87806
584.9171, 18.63071
585.3992, 19.31236
585.8813, 20.20303
586.3634, 20.67135
586.8455, 19.96959
587.3276, 18.60179
587.8098, 17.97203
588.2919, 19.18882
588.7740, 20.31796
589.2561, 20.74399
589.7382, 20.45111
590.2203, 20.23724
590.7025, 20.11257
591.1846, 20.04824
591.6667, 20.05693
592.1488, 20.15200
592.6309, 20.15792
593.1130, 20.06157
593.5952, 19.90607
594.0773, 19.64725
594.5594, 19.35435
595.0415, 19.33157
595.5236, 19.77913
596.0057, 20.27822
596.4879, 20.34113
596.9700, 20.08215
597.4521, 19.78464
597.9342, 19.48790
598.4163, 19.27187
598.8984, 19.17089
599.3806, 19.18556
599.8627, 19.31843
600.3448, 19.93970
600.8269, 20.35577
601.3090, 20.13783
601.7911, 18.98502
602.2733, 18.42882
602.7554, 18.76114
603.2375, 19.27858
603.7196, 19.26125
604.2017, 18.63777
604.6838, 18.23814
605.1660, 18.20895
605.6481, 18.31803
606.1302, 18.19469
606.6123, 17.87772
607.0944, 17.53581
607.5765, 17.13949
608.0587, 16.83979
608.5408, 16.95473
609.0229, 17.34926
609.5050, 17.54877
609.9871, 17.10693
610.4692, 16.55083
610.9514, 16.19797
611.4335, 16.07765
611.9156, 15.96272
612.3977, 15.82269
612.8798, 15.66114
613.3619, 15.46811
613.8441, 15.16719
614.3262, 15.04625
614.8083, 15.21660
615.2904, 15.41788
615.7725, 15.27760
616.2546, 14.77364
616.7368, 14.33630
617.2189, 14.05575
617.7010, 13.86456
618.1831, 13.67648
618.6652, 13.48148
619.1473, 13.23518
619.6295, 12.81278
620.1116, 12.40028
620.5937, 12.18917
621.0758, 12.15951
621.5579, 12.20979
622.0400, 12.31281
622.5222, 12.46113
623.0043, 12.72556
623.4864, 13.18858
623.9685, 13.30960
624.4506, 12.82978
624.9327, 12.16666
625.4149, 11.54235
625.8970, 10.86662
626.3791, 10.54185
626.8612, 10.65630
627.3433, 10.99785
627.8254, 11.41771
628.3076, 11.89323
628.7897, 11.88201
629.2718, 11.07406
629.7539, 9.999687
630.2360, 9.578392
630.7181, 9.623062
631.2003, 9.546524
631.6824, 8.808174
632.1645, 8.027679
632.6466, 7.703339
633.1287, 7.790154
633.6108, 7.949638
634.0930, 8.190636
634.5751, 8.370506
635.0572, 8.418488
635.5393, 8.328461
636.0214, 8.103508
636.5035, 7.571411
636.9857, 7.113022
637.4678, 7.089066
637.9499, 7.587944
638.4320, 7.846809
638.9141, 7.764534
639.3962, 7.581825
639.8784, 7.691658
640.3605, 8.000961
640.8426, 8.092697
641.3247, 7.777122
641.8068, 7.335426
642.2889, 7.044464
642.7711, 6.862518
643.2532, 6.686928
643.7353, 6.313438
644.2174, 6.091225
644.6995, 6.333511
645.1816, 6.948257
645.6638, 7.306511
646.1459, 6.991638
646.6280, 6.734711
647.1101, 6.808121
647.5922, 7.234055
648.0743, 7.582634
648.5565, 7.863083
649.0386, 8.029701
649.5207, 7.961990
650.0028, 7.700485
650.4849, 7.634308
650.9670, 7.806671
651.4492, 8.058426
651.9313, 8.256798
652.4134, 8.406662
652.8955, 8.487366
653.3776, 8.409973
653.8597, 8.459259
654.3419, 9.084373
654.8240, 9.889687
655.3061, 10.25789
655.7882, 9.433807
656.2703, 8.859818
656.7524, 8.988205
657.2346, 9.572388
657.7167, 9.881584
658.1988, 9.786751
658.6809, 9.729034
659.1630, 9.896423
659.6451, 10.22617
660.1273, 10.31851
660.6094, 10.16431
661.0915, 10.05829
661.5736, 10.28693
662.0557, 10.70189
662.5378, 10.93622
663.0200, 10.95134
663.5021, 10.90136
663.9842, 10.77155
664.4663, 10.71828
664.9484, 10.91785
665.4305, 11.55704
665.9127, 11.98901
666.3948, 11.85754
666.8769, 11.54442
667.3590, 11.45077
667.8411, 11.71470
668.3232, 11.92461
668.8054, 12.04463
669.2875, 12.08544
669.7696, 12.09961
670.2517, 12.08630
670.7338, 11.82868
671.2159, 11.13342
671.6981, 10.36663
672.1802, 10.23241
672.6623, 10.59576
673.1444, 10.96837
673.6265, 11.23364
674.1086, 11.29899
674.5908, 10.96347
675.0729, 10.30976
675.5550, 9.828171
676.0371, 9.820747
676.5192, 9.864815
677.0013, 9.765434
677.4835, 9.537277
677.9656, 9.231430
678.4477, 8.795670
678.9298, 8.413834
679.4119, 8.238022
679.8940, 8.263016
680.3762, 8.207520
680.8583, 8.031685
681.3404, 7.921341
681.8225, 8.213997
682.3046, 8.690521
682.7867, 8.878151
683.2689, 8.626129
683.7510, 8.249596
684.2331, 7.992653
684.7152, 7.755417
685.1973, 7.414154
685.6794, 6.618866
686.1616, 6.106964
686.6437, 6.284637
687.1258, 6.733818
687.6079, 6.671181
688.0900, 5.821037
688.5721, 5.270546
689.0543, 5.394524
689.5364, 5.898270
690.0185, 5.945221
690.5006, 5.551941
690.9827, 5.105591
691.4648, 4.752144
691.9470, 4.470642
692.4291, 4.223122
692.9112, 4.001770
693.3933, 3.800392
693.8754, 3.717491
694.3575, 3.621979
694.8397, 3.393570
695.3218, 3.009712
695.8039, 2.733231
696.2860, 2.657341
696.7681, 2.653442
697.2502, 2.684692
697.7324, 2.789902
698.2145, 2.729736
698.6966, 2.476723
699.1787, 2.138214
699.6608, 1.745354
700.1429, 1.339531
700.6251, 1.167946
701.1072, 1.310089
701.5893, 1.440826
702.0714, 1.107994
702.5535, 0.5938640
703.0356, 0.3276370
703.5178, 0.5825120
703.9999, 0.8398820
704.4820, 0.8547520
704.9641, 0.7629090
705.4462, 0.7883380
705.9283, 1.164963
706.4105, 1.291573
706.8926, 0.9892580
707.3747, 0.4554140
707.8568, 0.1332470
708.3389, 2.4840999E-02
708.8210, 9.7092003E-02
709.3032, 0.4400100
709.7853, 0.8617860
710.2674, 0.9207230
710.7495, 0.6919020
711.2316, 0.4891430
711.7137, 0.6252210
712.1959, 0.7353440
712.6780, 0.4343110
713.1601, 0.2046810
713.6422, 0.6020130
714.1243, 0.3790130
714.6064, 9.3208000E-02
715.0886, 2.9282000E-02
715.5707, 1.6403001E-02
716.0528, 6.6298999E-02
716.5349, 0.1692960
717.0170, 0.1527560
717.4991, 0.2826390
717.9813, 1.021439
718.4634, 1.028755
718.9455, 0.2510760
719.4276, 0.5793150
719.9097, 0.9164430
720.3918, 0.8902130
720.8740, 0.5662920
721.3561, 0.1223530
721.8382, 0.6197810
722.3203, 0.5121000
722.8024, 0.1855160
723.2845, 1.7097000E-02
723.7667, 7.1220003E-02
724.2488, 3.5385001E-02
724.7309, 0.1998140
725.2130, 0.4821780
725.6951, 0.6477510
726.1772, 0.6944200
726.6594, 0.6443940
727.1415, 0.4904710
727.6236, 0.2684780
728.1057, 4.6555001E-02
728.5878, 0.3926090
729.0699, 0.6038130
729.5521, 0.5652690
730.0342, 0.4746930
730.5163, 0.4869610
730.9984, 0.5363920
731.4805, 0.5058820
731.9626, 0.3393100
732.4448, 0.1145860
732.9269, 0.2572560
733.4090, 0.6549070
733.8911, 0.6483230
734.3732, 7.0435002E-02
734.8553, 0.2020490
735.3375, 0.2300870
735.8196, 1.048622
736.3017, 1.423241
736.7838, 1.408936
737.2659, 1.340393
737.7480, 1.461700
738.2302, 1.566689
738.7123, 1.422646
739.1944, 1.074799
739.6765, 0.7547530
740.1586, 0.5698780
740.6407, 0.4086990
741.1229, 0.1846310
741.6050, 9.6123002E-02
742.0871, 0.1811900
742.5692, 2.2307999E-02
743.0513, 0.2192920
743.5334, 0.5474400
744.0156, 0.9187550
744.4977, 0.8436360
744.9798, 0.3223340
745.4619, 9.4687998E-02
745.9440, 0.2546840
746.4261, 0.8352050
746.9083, 0.8923260
747.3904, 0.3514020
747.8725, 7.6324001E-02
748.3546, 8.0727004E-02
748.8367, 0.3698580
749.3188, 0.5074840
749.8010, 0.4676590
750.2831, 0.2607730
750.7652, 0.2656780
751.2473, 0.7221910
751.7294, 0.7085490
752.2115, 0.2341460
752.6937, 3.8322002E-02
753.1758, 0.1859050
753.6579, 0.4637600
754.1400, 0.7672420
754.6221, 1.018074
755.1042, 1.064232
755.5864, 0.8362350
756.0685, 0.5747910
756.5506, 0.3318710
757.0327, 0.1594770
757.5148, 0.1181720
757.9969, 0.3033450
758.4791, 0.4857480
758.9612, 0.6688840
759.4433, 0.8443760
759.9254, 1.000328
760.4075, 1.136826
760.8896, 1.237381
761.3718, 1.279091
761.8539, 1.345757
762.3360, 1.657692
762.8181, 2.063385
763.3002, 2.236145
763.7823, 2.002083
764.2645, 1.657578
764.7466, 1.172455
765.2287, 0.7403030
765.7108, 0.6463320
766.1929, 1.361214
766.6750, 1.815590
767.1572, 1.830956
767.6393, 1.609703
768.1214, 1.539246
768.6035, 1.634972
769.0856, 1.630684
769.5677, 1.388092
770.0499, 1.144997
770.5320, 1.332382
771.0141, 1.813377
771.4962, 2.240852
771.9783, 2.424850
772.4604, 2.620140
772.9426, 3.108200
773.4247, 3.683784
773.9068, 3.855537
774.3889, 3.184280
774.8710, 2.648865
775.3531, 2.406326
775.8353, 2.412605
776.3174, 2.622803
776.7995, 3.049629
777.2816, 3.370415
777.7637, 3.490112
778.2458, 3.468002
778.7280, 3.255081
779.2101, 2.964767
779.6922, 2.894096
780.1743, 3.369659
780.6564, 3.937790
781.1385, 4.438011
781.6207, 4.857346
782.1028, 5.101608
782.5849, 5.019173
783.0670, 4.983040
783.5491, 5.126892
784.0313, 5.394218
784.5134, 5.527100
784.9955, 5.528618
785.4776, 5.561287
785.9597, 5.760529
786.4418, 5.987480
786.9240, 5.958824
787.4061, 5.756165
787.8882, 5.682014
788.3703, 6.108047
788.8524, 6.491188
789.3345, 6.487541
789.8167, 6.153496
790.2988, 5.995811
790.7809, 6.033066
791.2630, 6.202599
791.7451, 6.618515
792.2272, 7.183411
792.7094, 7.226837
793.1915, 6.737900
793.6736, 6.283134
794.1557, 6.347282
794.6378, 6.605042
795.1199, 6.576836
795.6021, 6.321182
796.0842, 6.172356
796.5663, 6.301712
797.0484, 6.583778
797.5305, 7.080894
798.0126, 7.726471
798.4948, 7.973206
798.9769, 7.554337
799.4590, 7.431122
799.9411, 8.185120
800.4232, 9.480652
800.9053, 9.937515
801.3875, 9.620316
801.8696, 9.211830
802.3517, 9.170052
802.8338, 9.266510
803.3159, 9.244667
803.7980, 9.081062
804.2802, 8.909599
804.7623, 8.782539
805.2444, 8.741074
805.7265, 8.791039
806.2086, 8.892365
806.6907, 8.980858
807.1729, 9.070618
807.6550, 9.131477
808.1371, 9.121178
808.6192, 9.104004
809.1013, 9.189438
809.5834, 9.368202
810.0656, 9.602585
810.5477, 9.980431
811.0298, 10.32436
811.5119, 10.45990
811.9940, 10.41254
812.4761, 10.43559
812.9583, 10.56503
813.4404, 10.78748
813.9225, 11.17704
814.4046, 11.66553
814.8867, 11.79012
815.3688, 11.53312
815.8510, 11.31630
816.3331, 11.36342
816.8152, 11.57136
817.2973, 11.82605
817.7794, 12.10351
818.2615, 12.30767
818.7437, 12.27853
819.2258, 12.26934
819.7079, 12.46024
820.1900, 12.80473
820.6721, 12.92786
821.1542, 12.64925
821.6364, 12.55669
822.1185, 12.92179
822.6006, 13.57428
823.0827, 14.01621
823.5648, 14.24769
824.0469, 14.28879
824.5291, 13.88449
825.0112, 13.50480
825.4933, 13.70135
825.9754, 14.31104
826.4575, 14.81068
826.9396, 15.05650
827.4218, 15.13670
827.9039, 15.00764
828.3860, 14.74779
828.8681, 14.63162
829.3502, 14.67820
829.8323, 14.74900
830.3145, 14.80226
830.7966, 14.84489
831.2787, 14.89794
831.7608, 14.95175
832.2429, 14.97826
832.7250, 14.84927
833.2072, 14.80502
833.6893, 15.07204
834.1714, 15.51942
834.6535, 15.79516
835.1356, 15.83852
835.6177, 15.76697
836.0999, 15.49119
836.5820, 15.21143
837.0641, 15.50613
837.5462, 16.31129
838.0283, 16.88074
838.5104, 16.89938
838.9926, 16.72516
839.4747, 16.69794
839.9568, 16.76913
840.4389, 16.85331
840.9210, 16.86029
841.4031, 16.95357
841.8853, 17.26565
842.3674, 17.63293
842.8495, 17.82378
843.3316, 17.81436
843.8137, 17.72018
844.2958, 17.52589
844.7780, 17.33743
845.2601, 17.32177
845.7422, 17.43459
846.2243, 17.56336
846.7064, 17.66680
847.1885, 17.81119
847.6707, 18.05386
848.1528, 18.35060
848.6349, 18.66512
849.1170, 19.23196
849.5991, 19.32708
850.0812, 18.71426
850.5634, 17.98792
851.0455, 17.90228
851.5276, 18.36064
852.0097, 18.57784
852.4918, 18.42715
852.9739, 18.22786
853.4561, 18.30261
853.9382, 18.47601
854.4203, 18.54834
854.9024, 18.45280
855.3845, 18.35499
855.8666, 18.23559
856.3488, 18.16456
856.8309, 18.20825
857.3130, 18.38562
857.7951, 18.50964
858.2772, 18.57638
858.7593, 18.59948
859.2415, 18.67918
859.7236, 18.68804
860.2057, 18.24277
860.6878, 17.32320
861.1699, 16.76195
861.6520, 17.37536
862.1342, 18.12608
862.6163, 18.39298
863.0984, 18.16451
863.5805, 17.70195
864.0626, 16.86580
864.5447, 16.23326
865.0269, 16.29825
865.5090, 16.80405
865.9911, 16.79955
866.4732, 16.35720
866.9553, 15.95845
867.4374, 15.99161
867.9196, 16.09689
868.4017, 15.99122
868.8838, 15.71779
869.3659, 15.60207
869.8480, 15.78985
870.3301, 15.88456
870.8123, 15.74498
871.2944, 15.42750
871.7765, 15.10694
872.2586, 14.78787
872.7407, 14.46492
873.2228, 14.06680
873.7050, 13.74966
874.1871, 13.76273
874.6692, 14.02269
875.1513, 14.28118
875.6334, 14.54268
876.1155, 14.58760
876.5977, 14.34373
877.0798, 13.91443
877.5619, 13.44637
878.0440, 12.94060
878.5261, 12.53901
879.0082, 12.21605
879.4904, 12.11195
879.9725, 12.70694
880.4546, 13.56439
880.9367, 13.87440
881.4188, 13.13452
881.9009, 12.49038
882.3831, 12.58604
882.8652, 12.77972
883.3473, 12.35559
883.8294, 11.00089
884.3115, 10.32195
884.7936, 10.49872
885.2758, 10.88732
885.7579, 10.77409
886.2400, 10.37596
886.7221, 10.27263
887.2042, 10.56325
887.6863, 10.58691
888.1685, 9.545868
888.6506, 8.424576
889.1327, 8.007225
889.6148, 8.449738
890.0969, 8.572113
890.5790, 8.302971
891.0612, 7.890419
891.5433, 7.357330
892.0254, 6.804085
892.5075, 6.748917
892.9896, 7.116325
893.4717, 7.330589
893.9539, 6.807907
894.4360, 6.216789
894.9181, 6.088249
895.4002, 6.338997
895.8823, 6.336067
896.3644, 5.914528
896.8466, 5.506073
897.3287, 5.185280
897.8108, 4.959770
898.2929, 4.883492
898.7750, 4.944687
899.2571, 5.027061
899.7393, 5.135849
900.2214, 5.154030
900.7035, 5.018906
901.1856, 4.726624
901.6677, 4.264961
902.1498, 3.200157
902.6320, 2.566170
903.1141, 2.560074
903.5962, 2.842804
904.0783, 2.992035
904.5604, 3.014900
905.0425, 3.002953
905.5247, 2.979706
906.0068, 2.915527
906.4889, 2.755928
906.9710, 2.540810
907.4531, 2.307220
907.9352, 2.050552
908.4174, 1.810089
908.8995, 1.511780
909.3816, 1.315392
909.8637, 1.409058
910.3458, 1.795235
910.8279, 1.804756
911.3101, 1.432625
911.7922, 0.9835050
912.2743, 0.5597230
912.7564, 0.2660140
913.2385, 0.3026050
913.7206, 0.6224980
914.2028, 0.8533400
914.6849, 0.7439120
915.1670, 0.6987150
915.6491, 0.9263150
916.1312, 1.289856
916.6133, 1.183556
917.0955, 0.6026080
917.5776, 0.1254200
918.0597, 3.3943001E-02
918.5418, 6.5159998E-03
919.0239, 0.2440870
919.5060, 0.5493010
919.9882, 0.6708300
920.4703, 0.3390350
920.9524, 5.7280999E-02
921.4345, 8.4999003E-02
921.9166, 0.1450960
922.3987, 0.1774900
922.8809, 0.1807400
923.3630, 0.1971210
923.8451, 0.2366790
924.3272, 0.2871930
924.8093, 0.3213120
925.2914, 0.3519440
925.7736, 0.4519810
926.2557, 0.6826550
926.7378, 0.6439590
927.2199, 7.2829999E-02
927.7020, 0.8144680
928.1841, 1.300316
928.6663, 1.530525
929.1484, 1.408714
929.6305, 0.9176860
930.1126, 0.4156040
930.5947, 0.2093890
931.0768, 6.3950002E-02
931.5590, 0.4444500
932.0411, 1.194893
932.5232, 1.637375
933.0053, 1.366043
933.4874, 1.032188
933.9695, 0.7507170
934.4517, 0.5472340
934.9338, 0.5223460
935.4159, 0.6796260
935.8980, 0.7785030
936.3801, 0.7449870
936.8622, 0.6415790
937.3444, 0.4743120
937.8265, 0.3064880
938.3086, 0.2505110
938.7907, 0.4905400
939.2728, 0.5237730
939.7549, 6.6597000E-02
940.2371, 0.4175420
940.7192, 0.5223010
941.2013, 0.2330930
941.6834, 1.0056000E-02
942.1655, 0.1969450
942.6476, 0.2540590
943.1298, 1.6083000E-02
943.6119, 0.3639300
944.0940, 0.5179980
944.5761, 0.4651640
945.0582, 0.3751910
945.5403, 0.1974950
946.0225, 0.1057430
946.5046, 0.1902080
946.9867, 0.3954930
947.4688, 0.4965440
947.9509, 0.4968490
948.4330, 0.4473270
948.9152, 0.3318710
949.3973, 0.2267680
949.8794, 0.2211760
950.3615, 0.2746580
950.8436, 0.3152470
951.3257, 0.3262250
951.8079, 0.3272400
952.2900, 0.3418050
952.7721, 0.3176570
953.2542, 0.1309130
953.7363, 0.1790920
954.2184, 0.2739260
954.7006, 9.8220997E-02
955.1827, 7.1204998E-02
955.6648, 6.7642003E-02
956.1469, 0.2594380
956.6290, 0.2378010
957.1111, 6.2889002E-02
957.5933, 0.1765290
958.0754, 2.0485001E-02
958.5575, 0.1874770
959.0396, 0.1486890
959.5217, 3.9902002E-02
960.0038, 0.2107620
960.4860, 0.3596950
960.9681, 0.4648740
961.4502, 0.5464780
961.9323, 0.5471880
962.4144, 0.3302150
962.8965, 2.4475001E-02
963.3787, 6.7734003E-02
963.8608, 0.1655730
964.3429, 0.3337780
964.8250, 0.3809740
965.3071, 0.3733900
965.7892, 0.3104320
966.2714, 0.2764740
966.7535, 0.5772550
967.2356, 1.332787
967.7177, 1.879463
968.1998, 1.392700
968.6819, 0.9346540
969.1641, 1.483124
969.6462, 3.183113
970.1283, 3.663277
970.6104, 2.737457
971.0925, 1.665848
971.5746, 1.147713
972.0568, 0.9729770
972.5389, 0.7208100
973.0210, 0.4670870
973.5031, 0.4733660
973.9852, 1.187599
974.4673, 1.770203
974.9495, 1.933510
975.4316, 1.852615
975.9137, 1.797829
976.3958, 1.772346
976.8779, 1.745918
977.3600, 1.710587
977.8422, 1.691185
978.3243, 1.789490
978.8064, 1.881439
979.2885, 1.786598
979.7706, 1.433968
980.2527, 1.096916
980.7349, 0.6612780
981.2170, 0.4679720
981.6991, 0.8440550
982.1812, 1.664116
982.6633, 1.920929
983.1454, 1.651398
983.6276, 1.278862
984.1097, 0.8450470
984.5918, 0.5968400
985.0739, 0.8959580
985.5560, 1.512062
986.0381, 1.900826
986.5203, 1.891174
987.0024, 1.939484
987.4845, 2.126915
987.9666, 2.346519
988.4487, 2.466286
988.9308, 2.489662
989.4130, 2.345306
989.8951, 1.968056
990.3772, 1.722031
990.8593, 2.074303
991.3414, 2.507370
991.8235, 2.609604
992.3057, 2.355194
992.7878, 2.182747
993.2699, 2.091591
993.7520, 1.989738
994.2341, 1.732971
994.7162, 1.521492
995.1984, 1.830292
995.6805, 2.473778
996.1626, 2.929970
996.6447, 2.897057
997.1268, 2.761009
997.6089, 2.627899
998.0911, 2.462814
998.5732, 2.155014
999.0553, 1.702744
999.5374, 1.569046
1000.020, 1.840721
1000.502, 2.170822
1000.984, 2.282333
1001.466, 2.284752
1001.948, 2.224442
1002.430, 2.089394
1002.912, 2.205261
1003.394, 2.791260
1003.876, 3.215309
1004.359, 3.184212
1004.841, 2.836121
1005.323, 2.477333
1005.805, 2.151100
1006.287, 2.056519
1006.769, 2.432411
1007.251, 2.858910
1007.733, 3.166840
1008.216, 3.375069
1008.698, 3.526024
1009.180, 3.658615
1009.662, 3.520538
1010.144, 3.032227
1010.626, 2.605576
1011.108, 2.750008
1011.590, 3.156265
1012.072, 3.435898
1012.555, 3.574142
1013.037, 3.589012
1013.519, 3.258095
1014.001, 3.036278
1014.483, 3.162117
1014.965, 3.503281
1015.447, 3.460396
1015.929, 3.066002
1016.411, 2.868858
1016.894, 3.150032
1017.376, 3.497520
1017.858, 3.507133
1018.340, 3.373657
1018.822, 3.343628
1019.304, 3.498283
1019.786, 3.631653
1020.268, 3.740524
1020.751, 3.813492
1021.233, 3.828056
1021.715, 3.840019
1022.197, 3.995781
1022.679, 4.253326
1023.161, 4.381783
1023.643, 3.959129
1024.125, 3.729942
1024.607, 4.219437
1025.090, 5.027489
1025.572, 5.299431
1026.054, 4.996155
1026.536, 4.597786
1027.018, 4.153778
1027.500, 3.840446
1027.982, 3.961166
1028.464, 4.253983
1028.947, 4.391014
1029.429, 4.265923
1029.911, 4.290024
1030.393, 4.556458
1030.875, 4.846947
1031.357, 5.077538
1031.839, 5.252167
1032.321, 5.285782
1032.803, 5.224266
1033.286, 5.267921
1033.768, 5.739670
1034.250, 6.083832
1034.732, 5.918312
1035.214, 5.541977
1035.696, 5.372108
1036.178, 5.417114
1036.660, 5.657211
1037.143, 6.123375
1037.625, 6.572937
1038.107, 6.861877
1038.589, 6.961792
1039.071, 6.747589
1039.553, 6.245529
1040.035, 5.885406
1040.517, 5.716393
1041.000, 5.771645
1041.482, 6.168465
1041.964, 6.691620
1042.446, 6.811417
1042.928, 6.598869
1043.410, 6.276016
1043.892, 5.805092
1044.374, 5.536171
1044.856, 5.951996
1045.339, 6.486206
1045.821, 6.595215
1046.303, 6.193329
1046.785, 5.973129
1047.267, 5.946518
1047.749, 6.001411
1048.231, 6.171768
1048.713, 6.307411
1049.195, 6.105080
1049.677, 5.699539
1050.160, 5.489067
1050.642, 5.837509
1051.124, 6.041176
1051.606, 5.994217
1052.088, 5.820374
1052.570, 5.694237
1053.052, 5.582993
1053.534, 5.349304
1054.017, 4.975548
1054.499, 4.667961
1054.981, 4.584000
1055.463, 4.581360
1055.945, 4.594292
1056.427, 4.614044
1056.909, 4.641876
1057.391, 4.695282
1057.874, 4.516319
1058.356, 3.867775
1058.838, 3.268761
1059.320, 3.523170
1059.802, 4.169800
1060.284, 4.545868
1060.766, 4.381157
1061.248, 4.214821
1061.730, 3.979935
1062.213, 3.923088
1062.695, 4.501541
1063.177, 5.375381
1063.659, 5.128410
1064.141, 3.982895
1064.623, 2.999016
1065.105, 2.820328
1065.587, 2.780411
1066.070, 2.553940
1066.552, 2.342499
1067.034, 2.561195
1067.516, 3.240227
1067.998, 3.520966
1068.480, 3.272629
1068.962, 2.898399
1069.444, 2.661537
1069.927, 2.533730
1070.409, 2.520409
1070.891, 2.620331
1071.373, 2.661911
1071.855, 2.623970
1072.337, 2.574768
1072.819, 2.530037
1073.301, 2.499535
1073.783, 2.550858
1074.266, 2.611328
1074.748, 2.554970
1075.230, 2.303802
1075.712, 2.073120
1076.194, 1.860939
1076.676, 1.752113
1077.158, 1.868744
1077.640, 2.166809
1078.122, 2.114342
1078.604, 1.768295
1079.087, 1.556976
1079.569, 1.813393
1080.051, 2.148796
1080.533, 2.393509
1081.015, 2.551792
1081.497, 2.652710
1081.979, 2.732937
1082.461, 2.528069
1082.944, 1.976143
1083.426, 1.430180
1083.908, 1.209042
1084.390, 1.206917
1084.872, 1.419189
1085.354, 1.796539
1085.836, 1.852478
1086.318, 1.229202
1086.801, 0.8633690
1087.283, 1.047634
1087.765, 1.483635
1088.247, 1.621029
1088.729, 1.569374
1089.211, 1.662117
1089.693, 2.040062
1090.175, 2.171646
1090.657, 1.482250
1091.140, 0.8335230
1091.622, 0.7321550
1092.104, 1.094707
1092.586, 1.262985
1093.068, 1.250675
1093.550, 1.220608
1094.032, 1.309925
1094.514, 1.310390
1094.997, 0.9591220
1095.479, 0.4897310
1095.961, 0.1766820
1096.443, 2.6112000E-02
1096.925, 0.1231920
1097.407, 0.5122450
1097.889, 0.8980940
1098.371, 0.9347650
1098.854, 0.8351170
1099.336, 0.9417080
1099.818, 1.186359
1100.300, 1.173500
1100.782, 0.4566190
1101.264, 2.0840000E-02
1101.746, 6.6578001E-02
1102.228, 0.3248290
1102.710, 0.4330980
1103.193, 0.4627270
1103.675, 0.6359370
1104.157, 0.9771960
1104.639, 1.182877
1105.121, 1.096516
1105.603, 0.8718530
1106.085, 0.4383240
1106.567, 6.5936998E-02
1107.049, 7.1704999E-02
1107.531, 0.3524820
1108.014, 0.6609120
1108.496, 0.7102360
1108.978, 0.6050030
1109.460, 0.1990700
1109.942, 0.1637080
1110.424, 0.1283950
1110.906, 0.3239290
1111.388, 0.6248440
1111.871, 0.7464790
1112.353, 0.8879970
1112.835, 1.264359
1113.317, 1.574142
1113.799, 1.370750
1114.281, 0.9097440
1114.763, 0.6035350
1115.245, 0.5562170
1115.728, 0.6477550
1116.210, 0.9467200
1116.692, 1.173996
1117.174, 0.9700580
1117.656, 0.5781360
1118.138, 0.4556880
1118.620, 0.5434300
1119.102, 0.5546910
1119.584, 0.2026860
1120.067, 4.0966000E-02
1120.549, 0.2094760
1121.031, 0.5054020
1121.513, 0.6653940
1121.995, 0.7235340
1122.477, 0.8439560
1122.959, 1.037457
1123.441, 1.041035
1123.924, 0.4410060
1124.406, 7.8045003E-02
1124.888, 0.3046610
1125.370, 0.2134740
1125.852, 0.5188410
1126.334, 1.792011
1126.816, 2.341629
1127.298, 1.748066
1127.781, 1.042530
1128.263, 1.014275
1128.745, 1.174927
1129.227, 1.154877
1129.709, 0.9489560
1130.191, 0.5517880
1130.673, 6.4425997E-02
1131.155, 0.4791870
1131.637, 0.4777070
1132.120, 0.2927550
1132.602, 7.1556002E-02
1133.084, 0.1340790
1133.566, 0.2412680
1134.048, 0.2288060
1134.530, 0.1627460
1135.012, 3.3000998E-02
1135.494, 0.1143040
1135.976, 0.3083500
1136.458, 0.4635730
1136.941, 0.4369700
1137.423, 0.2611770
1137.905, 1.6063999E-02
1138.387, 0.4276620
1138.869, 0.6966590
1139.351, 0.7263260
1139.833, 0.6748430
1140.315, 0.7272150
1140.798, 0.8087270
1141.280, 0.6755450
1141.762, 0.3664210
1142.244, 0.1788520
1142.726, 0.4029460
1143.208, 0.5306590
1143.690, 0.3915560
1144.172, 0.1756740
1144.655, 0.2247200
1145.137, 0.4541850
1145.619, 0.4593160
1146.101, 0.1875650
1146.583, 6.4071998E-02
1147.065, 0.6118930
1147.547, 1.037369
1148.029, 0.8969960
1148.511, 0.4188880
1148.994, 0.2793160
1149.476, 0.4381030
1149.958, 0.5334550
1150.440, 0.4770810
1150.922, 0.3731040
1151.404, 0.2584530
1151.886, 0.1558880
1152.368, 3.0777000E-02
1152.851, 9.0865999E-02
1153.333, 0.2096560
1153.815, 0.9362450
1154.297, 1.220501
1154.779, 0.5135990
1155.261, 0.2502750
1155.743, 6.5230001E-03
1156.225, 0.5502970
1156.708, 0.5256500
1157.190, 0.2504120
1157.672, 0.4896810
1158.154, 0.1293490
1158.636, 0.2499010
1159.118, 0.2126500
1159.600, 8.9115001E-02
1160.082, 0.4857290
1160.564, 1.107384
1161.047, 1.421352
1161.529, 1.292564
1162.011, 0.9638290
1162.493, 0.3590240
1162.975, 0.1321560
1163.457, 0.1184310
1163.939, 0.1268880
1164.421, 0.2404980
1164.903, 0.2599980
1165.385, 0.3149680
1165.868, 0.4318470
1166.350, 0.6098180
1166.832, 0.9097860
1167.314, 1.093960
1167.796, 0.7592700
1168.278, 0.2095830
1168.760, 1.8378999E-02
1169.242, 6.4892001E-02
1169.725, 0.2069510
1170.207, 0.4414370
1170.689, 0.5391880
1171.171, 0.3774640
1171.653, 0.2364850
1172.135, 0.7433430
1172.617, 1.511036
1173.099, 1.489735
1173.582, 0.5899280
1174.064, 0.1087040
1174.546, 1.094288
1175.028, 1.808525
1175.510, 1.742081
1175.992, 1.245232
1176.474, 0.9327960
1176.956, 0.7753110
1177.438, 0.7239990
1177.921, 0.7802120
1178.403, 0.8505250
1178.885, 0.9852290
1179.367, 1.003647
1179.849, 0.7457470
1180.331, 0.3833240
1180.813, 0.5671010
1181.295, 1.136284
1181.778, 1.480316
1182.260, 1.399479
1182.742, 1.178040
1183.224, 0.6931570
1183.706, 0.4164350
1184.188, 0.6989100
1184.670, 1.386940
1185.152, 1.595680
1185.635, 1.401688
1186.117, 1.217896
1186.599, 1.219372
1187.081, 1.218822
1187.563, 1.086147
1188.045, 0.9520300
1188.527, 0.9424710
1189.009, 1.017677
1189.491, 0.8422550
1189.974, 0.4686090
1190.456, 0.3107530
1190.938, 0.7128560
1191.420, 1.166981
1191.902, 1.571102
1192.384, 1.792999
1192.866, 1.650948
1193.348, 1.128654
1193.830, 0.7826390
1194.313, 0.6047940
1194.795, 0.4921300
1195.277, 0.3840290
1195.759, 0.3358570
1196.241, 0.3410950
1196.723, 0.4316370
1197.205, 0.7076490
1197.687, 1.178841
1198.169, 1.294437
1198.652, 1.044762
1199.134, 0.8507420
1199.616, 1.119362
1200.098, 1.401974
1200.580, 1.413116
1201.062, 1.271355
1201.544, 1.141972
1202.026, 1.021599
1202.509, 1.107388
1202.991, 1.417709
1203.473, 1.664444
1203.955, 1.672943
1204.437, 1.515926
1204.919, 1.073906
1205.401, 0.5499880
1205.883, 0.4143070
1206.365, 0.6713180
1206.848, 0.9614870
1207.330, 1.248463
1207.812, 1.391659
1208.294, 1.101212
1208.776, 0.7982370
1209.258, 0.8616450
1209.740, 1.150246
1210.222, 1.205589
1210.705, 1.011944
1211.187, 0.8228420
1211.669, 0.6573680
1212.151, 0.6160430
1212.633, 0.9926720
1213.115, 1.314331
1213.597, 1.186172
1214.079, 0.7538190
1214.562, 0.5984920
1215.044, 0.6867870
1215.526, 0.4923360
1216.008, 0.1589010
1216.490, 0.5928880
1216.972, 3.9531998E-02
1217.454, 0.7910350
1217.936, 0.8621410
1218.418, 0.4108850
1218.901, 0.2609830
1219.383, 0.4008790
1219.865, 0.6375390
1220.347, 0.9497910
1220.829, 1.181774
1221.311, 1.225399
1221.793, 1.194878
1222.275, 1.144707
1222.757, 1.080189
1223.240, 1.051830
1223.722, 1.054523
1224.204, 1.006386
1224.686, 0.8486600
1225.168, 0.7316510
1225.650, 0.8294370
1226.132, 0.9387660
1226.614, 0.8773990
1227.096, 0.6885830
1227.579, 0.6138040
1228.061, 0.6366690
1228.543, 0.6261600
1229.025, 0.4925650
1229.507, 0.4077110
1229.989, 0.5884510
1230.471, 0.7562140
1230.953, 0.6389770
1231.436, 0.2910730
1231.918, 0.3360370
1232.400, 0.7199290
1232.882, 0.9337920
1233.364, 0.5902860
1233.846, 0.3794170
1234.328, 0.8170810
1234.810, 1.356506
1235.292, 1.652199
1235.775, 1.702080
1236.257, 1.365353
1236.739, 0.7341500
1237.221, 0.2901080
1237.703, 0.3069760
1238.185, 0.4360280
1238.667, 0.5591390
1239.149, 0.7494350
1239.632, 1.157215
1240.114, 1.686817
1240.596, 1.752537
1241.078, 1.431541
1241.560, 1.058228
1242.042, 0.6225400
1242.524, 0.4157070
1243.006, 0.6469080
1243.489, 0.9298170
1243.971, 0.8941690
1244.453, 0.6587450
1244.935, 0.8665080
1245.417, 1.345764
1245.899, 1.484547
1246.381, 0.5111390
1246.863, 4.5676999E-02
1247.345, 0.1499900
1247.828, 0.5417520
1248.310, 0.6894950
1248.792, 0.6587300
1249.274, 0.5897980
1249.756, 0.4966010
1250.238, 0.4091380
1250.720, 0.2237170
1251.202, 0.2498860
1251.684, 0.6082760
1252.167, 0.9322010
1252.649, 0.8452870
1253.131, 0.5302310
1253.613, 0.2442210
1254.095, 3.4409001E-02
1254.577, 6.3819997E-02
1255.059, 0.6135750
1255.541, 0.9239690
1256.023, 0.9162860
1256.506, 0.8067210
1256.988, 0.7310750
1257.470, 0.7032590
1257.952, 0.8302500
1258.434, 1.012066
1258.916, 0.9357490
1259.398, 0.3080020
1259.880, 5.0793000E-02
1260.363, 0.1720120
1260.845, 0.3710170
1261.327, 0.3930320
1261.809, 0.3926350
1262.291, 0.5746080
1262.773, 0.8579830
1263.255, 1.027203
1263.737, 1.072346
1264.219, 0.9924390
1264.702, 0.7769130
1265.184, 0.5662730
1265.666, 0.5240400
1266.148, 0.4766460
1266.630, 0.1751560
1267.112, 0.1874810
1267.594, 0.1498410
1268.076, 0.3162310
1268.559, 0.5496520
1269.041, 0.5057110
1269.523, 0.5195390
1270.005, 1.039524
1270.487, 1.446507
1270.969, 1.206291
1271.451, 0.7199940
1271.933, 0.5291790
1272.416, 0.6080740
1272.898, 0.6376500
1273.380, 0.6037830
1273.862, 0.6290360
1274.344, 0.9246670
1274.826, 1.083874
1275.308, 0.9759980
1275.790, 0.7490960
1276.272, 0.5648420
1276.755, 0.4390720
1277.237, 0.5014920
1277.719, 0.7159730
1278.201, 0.8405690
1278.683, 0.7520520
1279.165, 0.6209680
1279.647, 0.4364890
1280.129, 0.2833520
1280.611, 0.2768060
1281.094, 0.3530960
1281.576, 0.4382210
1282.058, 0.5075610
1282.540, 0.4584580
1283.022, 3.5896000E-02
1283.504, 1.5053000E-02
1283.986, 0.4897080
1284.468, 0.9859390
1284.950, 0.6587410
1285.433, 0.1969450
1285.915, 0.2958640
1286.397, 0.8037610
1286.879, 1.016640
1287.361, 0.7927970
1287.843, 0.6532590
1288.325, 0.6548190
1288.807, 0.6509740
1289.290, 0.4676670
1289.772, 0.2664030
1290.254, 0.1969680
1290.736, 0.2180370
1291.218, 0.2103270
1291.700, 0.1725960
1292.182, 0.1379360
1292.664, 9.7438999E-02
1293.146, 6.5330997E-02
1293.629, 9.1591001E-02
1294.111, 0.1179850
1294.593, 9.5764004E-02
1295.075, 7.6674998E-02
1295.557, 0.1486210
1296.039, 0.2948950
1296.521, 0.3316540
1297.003, 0.2740860
1297.486, 0.3337590
1297.968, 0.8942600
1298.450, 1.233658
1298.932, 1.147243
1299.414, 0.8503110
1299.896, 0.4226650
1300.378, 5.8169998E-03
1300.860, 9.9600002E-04
1301.343, 0.2402730
1301.825, 0.0000000E+00
##END=



