##NAMES=Ferrokesterite
##RRUFFID=R060870
##IDEAL CHEMISTRY=Cu^1+^_2_Fe^2+^Sn^4+^S^2-^_4_
##LOCALITY=Cligga mine, Perranzabuloe, Cornwall, England
##OWNER=RRUFF
##SOURCE=Michael Scott
##DESCRIPTION=Dark greenish black semimetallic massive. The X-ray diffraction results indicate a exsolution texture of ferrokesterite and stannite. According to Kissin & Owens (1989), based on our cell edges, this sample is at the stannite/ferrokesterite boundary.
##STATUS=The identification of this mineral is confirmed by single-crystal X-ray diffraction and chemical analysis.
##URL=rruff.info/R060870
##MEASURED CHEMISTRY=Cu_2.00_(Fe_0.63_Zn_0.37_)_Î£=1_Sn_1.00_S_4.00_
139.3613, 281.8321
139.8434, 292.0435
140.3256, 299.5208
140.8077, 301.8815
141.2898, 295.6779
141.7719, 276.4682
142.2540, 261.6714
142.7361, 254.1492
143.2183, 253.6989
143.7004, 256.1021
144.1825, 263.6547
144.6646, 271.7877
145.1467, 275.4651
145.6288, 270.7938
146.1110, 267.7329
146.5931, 268.7926
147.0752, 275.0339
147.5573, 280.6333
148.0394, 289.1559
148.5215, 295.7029
149.0037, 292.9305
149.4858, 266.2496
149.9679, 244.4757
150.4500, 236.5186
150.9321, 252.1829
151.4142, 263.1945
151.8963, 266.9560
152.3785, 265.9062
152.8606, 265.6520
153.3427, 266.4626
153.8248, 268.1894
154.3069, 270.8575
154.7890, 276.9184
155.2712, 280.9246
155.7533, 281.6980
156.2354, 279.6588
156.7175, 276.8016
157.1996, 274.9402
157.6817, 271.5436
158.1639, 264.9608
158.6460, 247.1503
159.1281, 233.4818
159.6102, 230.0842
160.0923, 236.4922
160.5744, 243.0376
161.0566, 246.8887
161.5387, 249.0894
162.0208, 250.6639
162.5029, 250.9873
162.9850, 251.4960
163.4671, 253.5466
163.9493, 257.4555
164.4314, 259.7732
164.9135, 257.8446
165.3956, 253.4646
165.8777, 249.2229
166.3598, 245.5398
166.8419, 242.8097
167.3241, 241.2124
167.8062, 240.6919
168.2883, 241.6472
168.7704, 245.6699
169.2525, 251.4670
169.7346, 256.1748
170.2168, 258.7847
170.6989, 259.3335
171.1810, 257.2577
171.6631, 251.2096
172.1452, 245.2771
172.6273, 242.8789
173.1095, 243.5432
173.5916, 245.4308
174.0737, 249.7219
174.5558, 254.0033
175.0379, 254.1784
175.5201, 246.7835
176.0022, 238.1154
176.4843, 236.8609
176.9664, 242.1233
177.4485, 246.7993
177.9306, 243.0676
178.4128, 234.8164
178.8949, 230.3814
179.3770, 234.5939
179.8591, 242.6038
180.3412, 246.8633
180.8233, 247.3892
181.3055, 246.3512
181.7876, 244.7868
182.2697, 243.1004
182.7518, 242.6371
183.2339, 245.4936
183.7160, 249.6879
184.1981, 249.5771
184.6803, 244.6216
185.1624, 239.2566
185.6445, 239.9035
186.1266, 245.4314
186.6087, 248.8569
187.0908, 244.6921
187.5730, 235.3844
188.0551, 231.6360
188.5372, 234.8883
189.0193, 239.6674
189.5014, 236.2270
189.9835, 224.9877
190.4657, 216.7576
190.9478, 219.0486
191.4299, 230.3436
191.9120, 239.6890
192.3941, 246.8932
192.8762, 251.0646
193.3584, 248.5802
193.8405, 239.0399
194.3226, 230.7724
194.8047, 230.1191
195.2868, 236.7600
195.7689, 241.1218
196.2511, 241.5669
196.7332, 239.9951
197.2153, 241.5676
197.6974, 246.7432
198.1795, 252.2050
198.6616, 255.8752
199.1437, 257.7525
199.6259, 258.3584
200.1080, 257.4026
200.5901, 255.3672
201.0722, 254.0533
201.5543, 253.5935
202.0364, 253.3349
202.5186, 252.9925
203.0007, 252.6800
203.4828, 251.1885
203.9649, 247.5143
204.4470, 242.3453
204.9291, 240.3312
205.4113, 242.0149
205.8934, 245.4464
206.3755, 249.4048
206.8576, 254.3650
207.3397, 257.5126
207.8218, 257.6015
208.3040, 254.9078
208.7861, 254.0224
209.2682, 255.6190
209.7503, 257.8729
210.2324, 258.8642
210.7145, 258.3683
211.1967, 257.3038
211.6788, 255.2672
212.1609, 252.1367
212.6430, 252.8396
213.1251, 260.3093
213.6072, 267.8370
214.0893, 264.9980
214.5715, 245.6107
215.0536, 232.2192
215.5357, 233.5934
216.0178, 252.2805
216.4999, 264.0526
216.9820, 266.7261
217.4642, 264.4308
217.9463, 262.8001
218.4284, 261.7888
218.9105, 261.6061
219.3926, 263.1354
219.8747, 267.6382
220.3569, 267.4328
220.8390, 260.2309
221.3211, 249.9270
221.8032, 242.9107
222.2853, 240.1662
222.7674, 238.9611
223.2496, 238.2006
223.7317, 237.2975
224.2138, 239.1222
224.6959, 245.5267
225.1780, 253.7021
225.6601, 258.1414
226.1423, 257.6179
226.6244, 255.3634
227.1065, 252.0134
227.5886, 245.4920
228.0707, 243.3000
228.5528, 246.9631
229.0349, 254.5099
229.5171, 261.1184
229.9992, 267.3479
230.4813, 271.9562
230.9634, 274.1803
231.4455, 272.7815
231.9276, 271.7977
232.4098, 271.4159
232.8919, 271.4390
233.3740, 271.1234
233.8561, 269.5074
234.3382, 268.9406
234.8203, 271.0928
235.3025, 279.0817
235.7846, 282.8148
236.2667, 279.7420
236.7488, 272.3264
237.2309, 269.9053
237.7130, 276.7791
238.1952, 282.8117
238.6773, 281.5381
239.1594, 265.0701
239.6415, 258.3018
240.1236, 265.6037
240.6057, 283.6856
241.0879, 299.3654
241.5700, 314.3137
242.0521, 324.4392
242.5342, 326.5127
243.0163, 315.1092
243.4984, 306.8989
243.9805, 303.2793
244.4627, 303.6616
244.9448, 305.3183
245.4269, 308.3186
245.9090, 312.4950
246.3911, 318.1437
246.8732, 326.9781
247.3554, 333.5639
247.8375, 336.9599
248.3196, 337.6778
248.8017, 338.8644
249.2838, 343.1376
249.7659, 344.3715
250.2481, 336.9477
250.7302, 311.7733
251.2123, 298.9073
251.6944, 306.4877
252.1765, 329.4763
252.6586, 339.9056
253.1408, 331.8515
253.6229, 319.5345
254.1050, 311.8514
254.5871, 310.8538
255.0692, 309.7583
255.5513, 307.8545
256.0334, 305.3546
256.5156, 303.1830
256.9977, 300.7700
257.4798, 299.5158
257.9619, 300.8727
258.4440, 306.7488
258.9261, 310.2430
259.4083, 310.3127
259.8904, 307.3830
260.3725, 303.5234
260.8546, 297.4113
261.3367, 292.4450
261.8188, 291.3282
262.3010, 295.6143
262.7831, 299.2253
263.2652, 301.6998
263.7473, 303.0151
264.2294, 302.6485
264.7115, 299.1840
265.1937, 296.6780
265.6758, 298.1798
266.1579, 304.5139
266.6400, 312.0807
267.1221, 321.8159
267.6042, 332.3919
268.0864, 336.7658
268.5685, 332.9465
269.0506, 327.3990
269.5327, 324.5635
270.0148, 325.0557
270.4969, 325.2611
270.9791, 323.8614
271.4612, 322.1075
271.9433, 326.4079
272.4254, 339.3595
272.9075, 351.0745
273.3896, 352.8266
273.8718, 342.3535
274.3539, 336.9856
274.8360, 339.9519
275.3181, 348.6895
275.8002, 354.2858
276.2823, 355.8593
276.7645, 357.4785
277.2466, 362.1449
277.7287, 370.1903
278.2108, 378.1964
278.6929, 386.1944
279.1750, 393.6649
279.6572, 398.5597
280.1393, 400.3325
280.6214, 402.4372
281.1035, 407.2560
281.5856, 414.8106
282.0677, 423.4591
282.5498, 434.1673
283.0320, 444.5659
283.5141, 448.6656
283.9962, 446.0673
284.4783, 441.0576
284.9604, 434.5833
285.4425, 426.9613
285.9247, 424.6422
286.4068, 430.0418
286.8889, 437.9708
287.3710, 438.0258
287.8531, 430.1385
288.3352, 420.3459
288.8174, 410.5299
289.2995, 401.2664
289.7816, 396.8621
290.2637, 398.9211
290.7458, 403.4088
291.2279, 403.6685
291.7101, 399.9528
292.1922, 395.8667
292.6743, 393.2075
293.1564, 391.8281
293.6385, 390.8453
294.1206, 389.7114
294.6028, 390.4834
295.0849, 398.6806
295.5670, 412.7619
296.0491, 423.5695
296.5312, 423.9711
297.0133, 417.6302
297.4955, 412.5323
297.9776, 409.3262
298.4597, 407.3932
298.9418, 405.5615
299.4239, 404.3073
299.9060, 405.3315
300.3882, 411.6694
300.8703, 420.2361
301.3524, 425.1364
301.8345, 425.5453
302.3166, 426.0408
302.7987, 430.7774
303.2809, 438.9682
303.7630, 448.8912
304.2451, 459.0723
304.7272, 470.7991
305.2093, 486.7346
305.6914, 507.5216
306.1736, 527.0001
306.6557, 537.1295
307.1378, 543.2022
307.6199, 554.5099
308.1020, 579.0192
308.5841, 607.9083
309.0663, 632.3307
309.5484, 652.4770
310.0305, 675.8854
310.5126, 711.9702
310.9947, 753.3519
311.4768, 790.1798
311.9590, 812.8990
312.4411, 834.7690
312.9232, 864.4417
313.4053, 901.6113
313.8874, 938.9552
314.3695, 972.7842
314.8516, 1005.668
315.3337, 1040.220
315.8159, 1079.832
316.2980, 1118.707
316.7801, 1156.422
317.2622, 1192.282
317.7443, 1223.092
318.2264, 1244.788
318.7086, 1262.276
319.1907, 1279.223
319.6728, 1303.698
320.1549, 1319.212
320.6370, 1318.460
321.1191, 1304.285
321.6013, 1287.591
322.0834, 1272.032
322.5655, 1254.156
323.0476, 1232.046
323.5297, 1203.677
324.0118, 1173.583
324.4940, 1142.583
324.9761, 1110.303
325.4582, 1075.755
325.9403, 1034.059
326.4224, 993.9679
326.9045, 959.1340
327.3867, 934.8217
327.8688, 906.5017
328.3509, 871.3444
328.8330, 832.4954
329.3151, 794.8513
329.7972, 757.4556
330.2794, 722.2826
330.7615, 688.9006
331.2436, 655.3521
331.7257, 630.1484
332.2078, 618.0140
332.6899, 611.3942
333.1721, 599.0467
333.6542, 576.2327
334.1363, 555.9238
334.6184, 541.2850
335.1005, 532.7320
335.5826, 526.9623
336.0648, 525.2316
336.5469, 524.7756
337.0290, 522.3445
337.5111, 516.9897
337.9932, 512.6160
338.4753, 510.9759
338.9575, 511.4749
339.4396, 507.6792
339.9217, 498.3637
340.4038, 487.6864
340.8859, 479.3221
341.3680, 473.6027
341.8502, 467.9397
342.3323, 463.0319
342.8144, 457.3594
343.2965, 444.0468
343.7786, 421.7213
344.2607, 401.3789
344.7428, 392.1036
345.2249, 392.9927
345.7071, 394.0962
346.1892, 394.4987
346.6713, 393.7735
347.1534, 390.0611
347.6355, 383.6006
348.1176, 378.2541
348.5998, 378.0168
349.0819, 380.7853
349.5640, 379.9885
350.0461, 374.3293
350.5282, 367.2292
351.0103, 362.4781
351.4925, 359.7224
351.9746, 357.6650
352.4567, 355.4048
352.9388, 353.5514
353.4209, 353.8213
353.9030, 356.6092
354.3852, 358.2019
354.8673, 353.0341
355.3494, 344.6414
355.8315, 339.4146
356.3136, 346.7107
356.7957, 353.7886
357.2779, 346.5752
357.7600, 325.3941
358.2421, 308.0530
358.7242, 308.1314
359.2063, 316.3569
359.6884, 322.8616
360.1706, 323.2415
360.6527, 322.4297
361.1348, 324.1087
361.6169, 327.2355
362.0990, 326.1544
362.5811, 313.8885
363.0633, 299.7026
363.5454, 289.9312
364.0275, 289.5616
364.5096, 288.1576
364.9917, 281.8034
365.4738, 272.5127
365.9560, 265.5365
366.4381, 263.9981
366.9202, 263.2649
367.4023, 261.3624
367.8844, 257.1581
368.3665, 254.0252
368.8487, 251.9981
369.3308, 251.1506
369.8129, 251.8482
370.2950, 258.2513
370.7771, 261.0240
371.2592, 256.2032
371.7414, 242.0113
372.2235, 233.3628
372.7056, 233.5097
373.1877, 236.2278
373.6698, 234.2108
374.1519, 223.9737
374.6340, 217.8869
375.1161, 219.8321
375.5983, 228.5596
376.0804, 233.5174
376.5625, 234.1215
377.0446, 232.2583
377.5267, 228.1962
378.0089, 221.3432
378.4910, 218.3281
378.9731, 221.3858
379.4552, 227.3472
379.9373, 228.0741
380.4194, 223.3090
380.9016, 217.2781
381.3837, 211.3790
381.8658, 206.0074
382.3479, 203.7940
382.8300, 205.5175
383.3121, 208.3805
383.7943, 207.8251
384.2764, 204.6888
384.7585, 202.9357
385.2406, 204.9783
385.7227, 209.5452
386.2048, 215.5748
386.6870, 223.1927
387.1691, 228.2713
387.6512, 224.0089
388.1333, 215.0031
388.6154, 209.3078
389.0975, 213.3086
389.5797, 218.9085
390.0618, 218.4303
390.5439, 212.8108
391.0260, 207.7255
391.5081, 205.9900
391.9902, 206.4978
392.4724, 208.6519
392.9545, 214.3867
393.4366, 218.3166
393.9187, 216.3925
394.4008, 210.8523
394.8829, 206.9697
395.3651, 208.1504
395.8472, 210.0554
396.3293, 210.5585
396.8114, 208.9138
397.2935, 207.4800
397.7756, 207.4851
398.2578, 207.6483
398.7399, 206.2717
399.2220, 200.3857
399.7041, 195.9459
400.1862, 194.3669
400.6683, 195.8098
401.1505, 197.4202
401.6326, 199.4662
402.1147, 201.4313
402.5968, 202.9997
403.0789, 204.3652
403.5610, 204.9007
404.0432, 204.5185
404.5253, 203.2592
405.0074, 200.4880
405.4895, 194.6789
405.9716, 191.4335
406.4537, 195.9076
406.9358, 209.0396
407.4179, 216.2333
407.9001, 216.0168
408.3822, 211.2047
408.8643, 204.4345
409.3464, 195.7578
409.8285, 190.6214
410.3106, 194.4206
410.7928, 203.6696
411.2749, 205.3281
411.7570, 198.7459
412.2391, 192.1745
412.7212, 195.9003
413.2033, 206.1469
413.6855, 212.4871
414.1676, 210.0920
414.6497, 204.1591
415.1318, 200.0732
415.6139, 197.6871
416.0960, 196.4376
416.5782, 196.5544
417.0603, 197.3217
417.5424, 198.4442
418.0245, 200.7993
418.5066, 200.9823
418.9887, 193.4882
419.4709, 182.7860
419.9530, 177.0400
420.4351, 185.9578
420.9172, 195.0988
421.3993, 196.2601
421.8814, 187.5448
422.3636, 181.8939
422.8457, 185.1825
423.3278, 191.3988
423.8099, 195.1274
424.2920, 190.1827
424.7741, 189.1373
425.2563, 196.8355
425.7384, 211.4606
426.2205, 219.2070
426.7026, 216.7105
427.1847, 211.3015
427.6668, 206.6844
428.1490, 203.6344
428.6311, 199.1119
429.1132, 191.6479
429.5953, 183.7406
430.0774, 180.6035
430.5595, 183.1732
431.0417, 186.4597
431.5238, 188.1038
432.0059, 188.4184
432.4880, 192.8340
432.9701, 202.4243
433.4522, 211.3537
433.9344, 212.4735
434.4165, 206.7900
434.8986, 202.1965
435.3807, 201.2311
435.8628, 201.6382
436.3449, 198.4337
436.8270, 192.2448
437.3091, 187.6883
437.7913, 188.4025
438.2734, 192.5287
438.7555, 198.4484
439.2376, 206.9153
439.7197, 212.8822
440.2018, 209.2898
440.6840, 200.6157
441.1661, 194.8591
441.6482, 198.7959
442.1303, 204.0234
442.6124, 205.4496
443.0945, 202.9459
443.5767, 200.5612
444.0588, 198.9705
444.5409, 198.5449
445.0230, 199.5690
445.5051, 204.3674
445.9872, 207.9987
446.4694, 210.2037
446.9515, 210.8056
447.4336, 209.0399
447.9157, 200.7305
448.3978, 194.4298
448.8799, 193.6800
449.3621, 200.3509
449.8442, 205.6631
450.3263, 210.2292
450.8084, 212.8147
451.2905, 211.3114
451.7726, 204.5705
452.2548, 197.5907
452.7369, 189.8164
453.2190, 182.8349
453.7011, 186.2547
454.1832, 201.8030
454.6653, 217.0379
455.1475, 222.8016
455.6296, 220.1455
456.1117, 214.9055
456.5938, 206.6836
457.0759, 199.2215
457.5580, 198.5306
458.0402, 203.4241
458.5223, 209.3640
459.0044, 216.3034
459.4865, 222.0655
459.9686, 223.0075
460.4507, 219.1485
460.9329, 215.2503
461.4150, 215.6007
461.8971, 217.4117
462.3792, 217.4026
462.8613, 211.8350
463.3434, 208.0755
463.8256, 211.4307
464.3077, 219.4173
464.7898, 225.3170
465.2719, 226.5430
465.7540, 225.6369
466.2361, 223.4038
466.7183, 219.3892
467.2004, 215.7345
467.6825, 211.8495
468.1646, 208.7671
468.6467, 207.6362
469.1288, 210.0391
469.6109, 211.7963
470.0930, 211.9967
470.5752, 210.9775
471.0573, 210.4263
471.5394, 209.7474
472.0215, 210.9862
472.5036, 216.7466
472.9857, 227.5322
473.4679, 234.2439
473.9500, 236.0715
474.4321, 234.5966
474.9142, 231.2765
475.3963, 226.2966
475.8784, 221.1731
476.3606, 214.8569
476.8427, 209.5737
477.3248, 211.5356
477.8069, 220.1929
478.2890, 228.1631
478.7711, 229.9247
479.2533, 227.6090
479.7354, 223.8559
480.2175, 218.7588
480.6996, 213.4134
481.1817, 208.0743
481.6638, 203.0829
482.1460, 199.1268
482.6281, 194.9348
483.1102, 193.2206
483.5923, 197.1271
484.0744, 207.3366
484.5565, 213.5300
485.0387, 210.5146
485.5208, 204.5011
486.0029, 200.0243
486.4850, 196.1952
486.9671, 195.3757
487.4492, 198.5540
487.9314, 204.6381
488.4135, 211.6123
488.8956, 222.0076
489.3777, 227.6307
489.8598, 223.1419
490.3419, 208.1440
490.8241, 201.5604
491.3062, 205.4895
491.7883, 211.4266
492.2704, 209.3054
492.7525, 200.0120
493.2346, 193.2778
493.7168, 191.8047
494.1989, 193.3404
494.6810, 195.0717
495.1631, 196.8085
495.6452, 197.6047
496.1273, 195.6435
496.6095, 192.9381
497.0916, 191.8547
497.5737, 192.5363
498.0558, 195.1148
498.5379, 202.9906
499.0200, 211.6468
499.5021, 215.7029
499.9843, 209.0817
500.4664, 202.1308
500.9485, 198.3283
501.4306, 197.0990
501.9127, 196.5388
502.3948, 196.9268
502.8770, 197.3615
503.3591, 197.0524
503.8412, 194.9016
504.3233, 195.8733
504.8054, 202.2175
505.2875, 209.8003
505.7697, 214.0925
506.2518, 214.1161
506.7339, 214.1143
507.2160, 215.6281
507.6981, 217.3239
508.1802, 212.7365
508.6624, 200.8504
509.1445, 191.7986
509.6266, 195.1756
510.1087, 207.2498
510.5908, 210.8983
511.0729, 204.3887
511.5551, 195.9418
512.0372, 193.9954
512.5193, 196.7203
513.0014, 200.0808
513.4835, 203.0070
513.9656, 205.7689
514.4478, 208.8832
514.9299, 212.1055
515.4120, 214.5351
515.8941, 215.7390
516.3762, 216.0071
516.8583, 215.5199
517.3405, 214.3318
517.8226, 212.2487
518.3047, 207.7691
518.7868, 203.0143
519.2689, 200.2764
519.7510, 201.9553
520.2332, 202.4461
520.7153, 200.5887
521.1974, 197.0848
521.6795, 194.4387
522.1616, 192.0890
522.6437, 191.9344
523.1259, 196.4150
523.6080, 205.8891
524.0901, 208.7237
524.5722, 203.1748
525.0543, 197.0945
525.5364, 201.7953
526.0186, 214.7043
526.5007, 221.4301
526.9828, 215.9405
527.4649, 205.9465
527.9470, 201.9931
528.4291, 203.0179
528.9113, 204.6090
529.3934, 204.6574
529.8755, 203.9158
530.3576, 202.8988
530.8397, 201.6405
531.3218, 200.4319
531.8040, 198.9186
532.2861, 197.7675
532.7682, 197.6216
533.2503, 200.4224
533.7324, 202.0866
534.2145, 200.9482
534.6967, 198.2568
535.1788, 197.4712
535.6609, 200.8608
536.1430, 202.8341
536.6251, 200.4032
537.1072, 193.1715
537.5894, 192.0317
538.0715, 198.5468
538.5536, 207.2192
539.0357, 214.1317
539.5178, 219.2258
539.9999, 219.9144
540.4821, 214.3050
540.9642, 207.5301
541.4463, 209.3964
541.9284, 217.7671
542.4105, 223.2887
542.8926, 218.3265
543.3748, 209.8935
543.8569, 205.8451
544.3390, 206.1165
544.8210, 208.4396
545.3032, 214.8473
545.7853, 220.8209
546.2674, 221.9290
546.7495, 214.3810
547.2316, 208.7365
547.7137, 208.6238
548.1959, 211.9095
548.6780, 215.5461
549.1601, 222.9480
549.6422, 226.0298
550.1243, 221.2306
550.6064, 210.0723
551.0886, 204.6731
551.5707, 207.3943
552.0528, 210.7839
552.5349, 210.0531
553.0170, 204.9534
553.4991, 202.4964
553.9813, 203.0558
554.4634, 205.3459
554.9455, 209.2437
555.4276, 213.9647
555.9097, 215.7854
556.3918, 212.8992
556.8740, 207.7533
557.3561, 201.3376
557.8382, 194.7606
558.3203, 191.7002
558.8024, 197.6631
559.2845, 205.3377
559.7667, 209.2416
560.2488, 208.6524
560.7309, 208.2003
561.2130, 211.0666
561.6951, 213.7108
562.1772, 213.4594
562.6594, 203.3222
563.1415, 199.1343
563.6236, 204.7458
564.1057, 215.1580
564.5878, 221.0048
565.0699, 221.5322
565.5521, 219.0976
566.0342, 213.1564
566.5163, 204.6729
566.9984, 199.2069
567.4805, 196.8507
567.9626, 197.1064
568.4448, 201.0305
568.9269, 207.3382
569.4090, 211.9939
569.8911, 214.4106
570.3732, 215.9779
570.8553, 218.5724
571.3375, 221.1948
571.8196, 221.9247
572.3017, 217.0544
572.7838, 213.3696
573.2659, 217.0077
573.7480, 225.2484
574.2302, 229.4105
574.7123, 223.0747
575.1944, 215.4625
575.6765, 209.7497
576.1586, 205.8786
576.6407, 205.5438
577.1229, 212.5923
577.6050, 219.1034
578.0871, 217.4596
578.5692, 204.0388
579.0513, 197.3999
579.5334, 200.2153
580.0156, 208.8162
580.4977, 218.8413
580.9798, 229.9877
581.4619, 236.7490
581.9440, 236.5140
582.4261, 230.9019
582.9083, 219.0518
583.3904, 202.5610
583.8725, 191.8960
584.3546, 198.7764
584.8367, 211.9202
585.3188, 221.2788
585.8010, 225.2740
586.2831, 226.5046
586.7652, 224.7823
587.2473, 221.4400
587.7294, 217.8086
588.2115, 211.8224
588.6937, 208.4299
589.1758, 208.4644
589.6579, 211.2323
590.1400, 215.9091
590.6221, 225.4076
591.1042, 229.8533
591.5864, 223.2864
592.0685, 207.7823
592.5506, 203.3118
593.0327, 211.2506
593.5148, 219.6518
593.9969, 216.5062
594.4791, 206.1477
594.9612, 202.8501
595.4433, 209.0676
595.9254, 216.6957
596.4075, 217.0342
596.8896, 213.8058
597.3718, 213.0781
597.8539, 218.4923
598.3360, 225.1821
598.8181, 232.3273
599.3002, 239.1111
599.7823, 243.2029
600.2645, 242.6084
600.7466, 240.6922
601.2287, 238.3265
601.7108, 235.4653
602.1929, 232.8103
602.6750, 229.9505
603.1572, 227.9860
603.6393, 228.4556
604.1214, 231.7897
604.6035, 231.7247
605.0856, 226.8093
605.5677, 221.4204
606.0498, 222.8105
606.5319, 229.3104
607.0140, 233.4460
607.4962, 231.6711
607.9783, 227.9663
608.4604, 226.0464
608.9425, 225.8532
609.4246, 227.2635
609.9067, 232.9629
610.3889, 238.0177
610.8710, 238.9749
611.3531, 235.4340
611.8352, 232.1264
612.3173, 229.9498
612.7994, 228.3041
613.2816, 226.7071
613.7637, 224.5539
614.2458, 223.9996
614.7279, 225.7424
615.2100, 228.2537
615.6921, 228.8296
616.1743, 227.1470
616.6564, 228.6022
617.1385, 236.5833
617.6206, 245.6150
618.1027, 242.3411
618.5848, 229.0175
619.0670, 218.1949
619.5491, 216.6295
620.0312, 221.1125
620.5133, 230.6154
620.9954, 244.5621
621.4775, 256.1058
621.9597, 263.0802
622.4418, 265.4097
622.9239, 262.3686
623.4060, 250.9153
623.8881, 241.2881
624.3702, 233.3293
624.8524, 228.4143
625.3345, 228.6136
625.8166, 236.5835
626.2987, 243.0240
626.7808, 246.8824
627.2629, 248.4226
627.7451, 246.5555
628.2272, 241.2132
628.7093, 239.7614
629.1914, 248.8393
629.6735, 262.4467
630.1556, 266.5590
630.6378, 262.3563
631.1199, 257.9146
631.6020, 259.5296
632.0841, 262.8250
632.5662, 264.0150
633.0483, 262.5805
633.5305, 259.3472
634.0126, 251.3359
634.4947, 243.5085
634.9768, 240.3457
635.4589, 246.6105
635.9410, 251.2104
636.4232, 253.2223
636.9053, 253.8692
637.3874, 255.6456
637.8695, 259.1719
638.3516, 260.4317
638.8337, 256.5859
639.3159, 251.0026
639.7980, 255.4523
640.2801, 268.9684
640.7622, 279.1030
641.2443, 274.7862
641.7264, 264.4875
642.2086, 261.1480
642.6907, 264.9839
643.1728, 265.6622
643.6549, 251.1075
644.1370, 234.7805
644.6191, 227.9800
645.1013, 238.1120
645.5834, 245.4431
646.0655, 243.8521
646.5476, 239.9273
647.0297, 240.5291
647.5118, 247.9084
647.9940, 254.4691
648.4761, 259.5628
648.9582, 263.0073
649.4403, 264.8152
649.9224, 264.9473
650.4045, 261.9935
650.8867, 252.3914
651.3688, 241.0385
651.8509, 238.1151
652.3330, 242.6258
652.8151, 248.3103
653.2972, 252.3180
653.7794, 254.9808
654.2615, 256.6721
654.7436, 257.5155
655.2257, 256.4691
655.7078, 250.7278
656.1899, 244.5813
656.6721, 241.3346
657.1542, 243.1443
657.6363, 243.8940
658.1184, 243.1745
658.6005, 241.8455
659.0826, 241.1500
659.5648, 241.1585
660.0469, 240.9426
660.5290, 240.2095
661.0111, 239.2791
661.4932, 238.6680
661.9753, 238.3743
662.4575, 238.4016
662.9396, 239.3773
663.4217, 240.2322
663.9038, 239.9746
664.3859, 238.6852
664.8680, 236.9608
665.3502, 233.9201
665.8323, 231.4300
666.3144, 230.9209
666.7965, 233.3542
667.2786, 233.5433
667.7607, 228.6236
668.2428, 224.7661
668.7249, 227.9146
669.2070, 239.9183
669.6891, 246.1784
670.1713, 245.1953
670.6534, 240.4199
671.1355, 234.7407
671.6176, 228.8112
672.0997, 225.3644
672.5818, 225.4545
673.0640, 227.6859
673.5461, 231.4361
674.0282, 236.2621
674.5103, 241.2819
674.9924, 249.1336
675.4745, 254.1862
675.9567, 250.8702
676.4388, 240.9933
676.9209, 239.3481
677.4030, 256.6207
677.8851, 267.9462
678.3672, 261.1913
678.8494, 236.3789
679.3315, 222.0376
679.8136, 219.4122
680.2957, 222.0613
680.7778, 227.1117
681.2599, 233.4128
681.7421, 236.3883
682.2242, 235.3958
682.7063, 233.6629
683.1884, 235.5015
683.6705, 237.7552
684.1526, 235.6116
684.6348, 223.2109
685.1169, 214.9150
685.5990, 220.3756
686.0811, 231.8005
686.5632, 236.9203
687.0453, 232.1331
687.5275, 225.5599
688.0096, 215.7505
688.4917, 206.0846
688.9738, 208.1825
689.4559, 223.8643
689.9380, 235.4436
690.4202, 233.4323
690.9023, 223.4887
691.3844, 218.7093
691.8665, 218.7915
692.3486, 221.2234
692.8307, 227.7048
693.3129, 233.6656
693.7950, 234.1076
694.2771, 228.4784
694.7592, 223.4303
695.2413, 222.0083
695.7234, 221.2916
696.2056, 219.1262
696.6877, 214.3186
697.1698, 211.2921
697.6519, 210.0464
698.1340, 210.5866
698.6161, 214.3539
699.0983, 221.4350
699.5804, 223.2272
700.0625, 217.0377
700.5446, 209.7928
701.0267, 211.7208
701.5089, 219.8163
701.9910, 226.9837
702.4731, 232.0162
702.9552, 233.6289
703.4373, 228.7347
703.9194, 219.8480
704.4016, 212.7198
704.8837, 205.8072
705.3658, 204.4237
705.8479, 213.3031
706.3300, 229.6452
706.8121, 237.1529
707.2943, 233.0867
707.7764, 227.8212
708.2585, 225.9330
708.7406, 226.8368
709.2227, 228.4947
709.7048, 230.8857
710.1870, 229.8651
710.6691, 217.0456
711.1512, 201.4061
711.6333, 195.4602
712.1154, 201.0659
712.5975, 207.8639
713.0797, 211.3120
713.5618, 213.4351
714.0439, 215.8781
714.5260, 219.9069
715.0081, 222.1762
715.4902, 222.0321
715.9724, 220.6844
716.4545, 218.9241
716.9366, 216.4203
717.4187, 216.6057
717.9008, 220.9305
718.3829, 225.7779
718.8651, 224.3208
719.3472, 218.6235
719.8293, 215.3036
720.3114, 218.4389
720.7935, 222.5960
721.2756, 223.7400
721.7578, 222.5988
722.2399, 220.8261
722.7220, 218.9180
723.2041, 216.4338
723.6862, 211.9735
724.1683, 206.4916
724.6505, 205.0792
725.1326, 208.9914
725.6147, 213.9480
726.0968, 219.9839
726.5789, 225.6978
727.0610, 220.2060
727.5432, 203.7919
728.0253, 190.9030
728.5074, 195.1343
728.9895, 207.1653
729.4716, 215.0395
729.9537, 217.8528
730.4358, 219.4412
730.9179, 222.2504
731.4000, 224.1979
731.8821, 223.7328
732.3643, 219.7585
732.8464, 215.4176
733.3285, 209.2889
733.8106, 204.4835
734.2927, 204.7565
734.7748, 210.6163
735.2570, 213.6396
735.7391, 212.5818
736.2212, 210.5147
736.7033, 211.8589
737.1854, 215.0853
737.6675, 216.5123
738.1497, 214.6846
738.6318, 211.8073
739.1139, 208.1247
739.5960, 204.6624
740.0781, 202.9782
740.5602, 205.3594
741.0424, 207.1950
741.5245, 207.3174
742.0066, 206.6459
742.4887, 207.4005
742.9708, 209.9010
743.4529, 212.4232
743.9351, 214.8422
744.4172, 216.6014
744.8993, 215.4113
745.3814, 211.8926
745.8635, 209.5835
746.3456, 212.3879
746.8278, 215.6498
747.3099, 214.8892
747.7920, 210.6865
748.2741, 206.4375
748.7562, 201.6868
749.2383, 198.6958
749.7205, 198.6491
750.2026, 201.5082
750.6847, 205.9697
751.1668, 214.4479
751.6489, 218.5453
752.1310, 209.1659
752.6132, 189.1899
753.0953, 181.8852
753.5774, 187.4858
754.0595, 197.6428
754.5416, 211.3883
755.0237, 223.0439
755.5059, 223.6561
755.9880, 210.3048
756.4701, 200.4393
756.9522, 204.3899
757.4343, 212.5213
757.9164, 217.5749
758.3986, 219.3436
758.8807, 217.2103
759.3628, 208.2676
759.8449, 200.2111
760.3270, 204.3279
760.8091, 219.2902
761.2913, 226.0131
761.7734, 220.5415
762.2555, 211.9929
762.7376, 208.3614
763.2197, 208.9159
763.7018, 212.9239
764.1840, 223.4887
764.6661, 231.4901
765.1482, 232.2197
765.6303, 228.2538
766.1124, 223.0295
766.5945, 213.3389
767.0767, 208.8838
767.5588, 212.4529
768.0409, 220.1042
768.5230, 224.4935
769.0051, 225.6424
769.4872, 225.5368
769.9694, 224.8485
770.4515, 223.0432
770.9336, 217.1867
771.4157, 209.5839
771.8978, 205.9437
772.3799, 214.7003
772.8621, 221.8782
773.3442, 220.3706
773.8263, 212.1781
774.3084, 205.0550
774.7905, 198.6575
775.2726, 194.3633
775.7548, 191.9741
776.2369, 192.1138
776.7190, 199.0030
777.2011, 212.6729
777.6832, 224.9382
778.1653, 232.4520
778.6475, 235.6283
779.1296, 234.0173
779.6117, 228.2247
780.0938, 221.1473
780.5759, 210.7560
781.0580, 202.7762
781.5402, 201.2168
782.0223, 206.3983
782.5044, 210.2234
782.9865, 212.3094
783.4686, 213.5750
783.9507, 214.7674
784.4329, 215.6560
784.9150, 213.2335
785.3971, 207.4000
785.8792, 202.1637
786.3613, 199.3973
786.8434, 199.4175
787.3256, 204.3917
787.8077, 214.1814
788.2898, 221.4609
788.7719, 220.6183
789.2540, 217.7541
789.7361, 216.8405
790.2183, 218.7455
790.7004, 218.4227
791.1825, 214.4518
791.6646, 210.8947
792.1467, 210.4650
792.6288, 213.0362
793.1109, 219.1318
793.5930, 229.0835
794.0751, 235.9981
794.5573, 228.8888
795.0394, 217.3974
795.5215, 215.6684
796.0036, 227.7743
796.4857, 235.4779
796.9678, 226.5626
797.4500, 214.5826
797.9321, 209.8061
798.4142, 215.4581
798.8963, 218.6581
799.3784, 218.4892
799.8605, 218.0024
800.3427, 221.2374
800.8248, 227.0441
801.3069, 229.4373
801.7890, 227.3217
802.2711, 224.6222
802.7532, 227.0718
803.2354, 229.8140
803.7175, 226.4972
804.1996, 211.7764
804.6817, 200.7110
805.1638, 196.2230
805.6459, 197.1702
806.1281, 204.4579
806.6102, 221.5082
807.0923, 230.3264
807.5744, 228.5036
808.0565, 222.6584
808.5386, 220.9081
809.0208, 221.7105
809.5029, 219.8639
809.9850, 213.0280
810.4671, 208.2396
810.9492, 214.4427
811.4313, 223.8303
811.9135, 227.4960
812.3956, 217.9692
812.8777, 211.1183
813.3598, 208.3792
813.8419, 207.9248
814.3240, 207.3004
814.8062, 206.2980
815.2883, 209.1652
815.7704, 217.7657
816.2525, 225.6660
816.7346, 222.6035
817.2167, 213.3066
817.6989, 206.8715
818.1810, 206.2074
818.6631, 207.9967
819.1452, 212.8122
819.6273, 218.3328
820.1094, 221.3029
820.5916, 219.6653
821.0737, 219.6949
821.5558, 222.9180
822.0379, 226.2679
822.5200, 224.4760
823.0021, 218.2345
823.4843, 212.9529
823.9664, 209.6243
824.4485, 208.0984
824.9306, 208.3490
825.4127, 210.2981
825.8948, 213.9222
826.3770, 220.7761
826.8591, 226.8880
827.3412, 231.9092
827.8233, 235.3541
828.3054, 236.2724
828.7875, 234.0818
829.2697, 231.3666
829.7518, 227.8969
830.2339, 225.2399
830.7160, 226.3596
831.1981, 230.0788
831.6802, 233.2267
832.1624, 235.5791
832.6445, 235.6969
833.1266, 230.2509
833.6087, 222.9325
834.0908, 218.3886
834.5729, 217.7711
835.0551, 220.1419
835.5372, 227.8088
836.0193, 235.9833
836.5014, 237.3895
836.9835, 232.0974
837.4656, 228.3368
837.9478, 227.4164
838.4299, 228.7191
838.9120, 235.0312
839.3941, 242.1206
839.8762, 242.2822
840.3583, 227.9169
840.8405, 217.6350
841.3226, 222.1010
841.8047, 231.5465
842.2868, 234.8452
842.7689, 229.2003
843.2510, 226.2064
843.7332, 227.3927
844.2153, 229.6438
844.6974, 228.3589
845.1795, 224.7124
845.6616, 222.8285
846.1437, 223.7681
846.6259, 225.4295
847.1080, 226.2731
847.5901, 226.9829
848.0722, 228.4648
848.5543, 233.1759
849.0364, 234.1549
849.5186, 229.1437
850.0007, 222.9523
850.4828, 220.6626
850.9649, 222.2574
851.4470, 223.7810
851.9291, 225.0833
852.4113, 224.8088
852.8933, 218.1938
853.3754, 210.5607
853.8575, 210.6149
854.3397, 222.8419
854.8218, 231.6793
855.3039, 228.8073
855.7860, 222.6251
856.2681, 219.7039
856.7502, 220.8527
857.2324, 223.1638
857.7145, 227.6642
858.1966, 229.5936
858.6787, 220.2370
859.1608, 205.2952
859.6429, 200.2198
860.1251, 207.0926
860.6072, 216.0003
861.0893, 224.3978
861.5714, 229.5770
862.0535, 228.4011
862.5356, 217.7324
863.0178, 211.5036
863.4999, 211.2442
863.9820, 212.9417
864.4641, 214.2608
864.9462, 215.2192
865.4283, 215.5131
865.9105, 215.1429
866.3926, 215.3280
866.8747, 217.2712
867.3568, 220.0871
867.8389, 223.3472
868.3210, 227.0087
868.8032, 229.2154
869.2853, 230.3765
869.7674, 228.8347
870.2495, 222.3242
870.7316, 211.2677
871.2137, 206.8545
871.6959, 209.4747
872.1780, 214.0085
872.6601, 218.8459
873.1422, 222.7581
873.6243, 222.4214
874.1064, 218.7386
874.5886, 217.3256
875.0707, 224.9951
875.5528, 231.4234
876.0349, 230.5008
876.5170, 223.7530
876.9991, 219.7436
877.4813, 219.0243
877.9634, 219.1523
878.4455, 219.7271
878.9276, 220.0853
879.4097, 216.7249
879.8918, 211.2412
880.3740, 209.8791
880.8561, 222.0672
881.3382, 233.0732
881.8203, 232.4499
882.3024, 223.9817
882.7845, 220.1983
883.2667, 225.0175
883.7488, 227.7997
884.2309, 225.8824
884.7130, 221.4280
885.1951, 218.8194
885.6772, 217.9123
886.1594, 217.5755
886.6415, 216.6218
887.1236, 217.5946
887.6057, 227.0005
888.0878, 238.6184
888.5699, 242.5208
889.0521, 225.0367
889.5342, 215.8480
890.0163, 220.9169
890.4984, 231.1360
890.9805, 234.7217
891.4626, 231.8199
891.9448, 226.3647
892.4269, 218.1117
892.9090, 211.7461
893.3911, 215.0815
893.8732, 222.1902
894.3553, 224.4892
894.8375, 217.3852
895.3196, 213.1207
895.8017, 217.3499
896.2838, 222.7951
896.7659, 224.1058
897.2480, 220.6376
897.7302, 217.9272
898.2123, 216.0304
898.6944, 215.7162
899.1765, 220.1433
899.6586, 225.5307
900.1407, 224.6864
900.6229, 216.8224
901.1050, 211.9844
901.5871, 218.1874
902.0692, 224.9381
902.5513, 226.5790
903.0334, 223.0016
903.5156, 218.8831
903.9977, 213.4665
904.4798, 211.4211
904.9619, 218.9351
905.4440, 230.4569
905.9261, 234.4149
906.4083, 231.8981
906.8904, 228.2616
907.3725, 224.2405
907.8546, 221.6701
908.3367, 221.4619
908.8188, 223.4705
909.3010, 227.9160
909.7831, 236.5123
910.2652, 240.9971
910.7473, 237.5398
911.2294, 230.2916
911.7115, 226.8319
912.1937, 226.4769
912.6758, 227.1270
913.1579, 229.4380
913.6400, 230.5743
914.1221, 227.8228
914.6042, 223.4415
915.0863, 221.4423
915.5684, 223.2593
916.0505, 223.9921
916.5327, 223.1872
917.0148, 221.0732
917.4969, 216.2655
917.9790, 210.4115
918.4611, 208.5062
918.9432, 211.8403
919.4254, 217.6379
919.9075, 229.8669
920.3896, 240.2491
920.8717, 239.0628
921.3538, 218.9864
921.8359, 210.4424
922.3181, 216.9827
922.8002, 226.3383
923.2823, 229.1066
923.7644, 226.5848
924.2465, 222.6040
924.7286, 217.5007
925.2108, 214.8250
925.6929, 219.0524
926.1750, 224.7505
926.6571, 229.8457
927.1392, 233.8553
927.6213, 230.3688
928.1035, 213.6646
928.5856, 203.3498
929.0677, 209.9324
929.5498, 226.6336
930.0319, 234.4497
930.5140, 234.3353
930.9962, 231.0513
931.4783, 224.1215
931.9604, 217.6148
932.4425, 213.5851
932.9246, 211.7352
933.4067, 211.1530
933.8889, 210.8386
934.3710, 214.0410
934.8531, 222.5688
935.3352, 232.5048
935.8173, 238.2108
936.2994, 239.7750
936.7816, 235.8902
937.2637, 224.2264
937.7458, 214.7542
938.2279, 216.2121
938.7100, 222.2501
939.1921, 226.4113
939.6743, 226.7483
940.1564, 229.4856
940.6385, 236.6377
941.1206, 241.4474
941.6027, 234.8626
942.0848, 221.3385
942.5670, 219.2210
943.0491, 228.5848
943.5312, 235.9362
944.0133, 228.2634
944.4954, 219.3588
944.9775, 219.4987
945.4597, 228.6782
945.9418, 232.7251
946.4239, 229.7331
946.9060, 226.7276
947.3881, 226.3736
947.8702, 227.6949
948.3524, 229.7219
948.8345, 231.5868
949.3166, 230.2222
949.7987, 218.2613
950.2808, 209.1210
950.7629, 211.2970
951.2451, 220.2776
951.7272, 227.8197
952.2093, 234.1299
952.6914, 237.1211
953.1735, 235.0031
953.6556, 233.5943
954.1378, 245.7618
954.6199, 263.6636
955.1020, 268.1638
955.5841, 253.7227
956.0662, 237.8483
956.5483, 225.3976
957.0305, 218.2083
957.5126, 218.5004
957.9947, 227.2492
958.4768, 236.0016
958.9589, 245.9404
959.4410, 250.1250
959.9232, 237.1001
960.4053, 217.9592
960.8874, 215.0967
961.3695, 226.0917
961.8516, 236.3713
962.3337, 238.7409
962.8159, 239.7702
963.2980, 243.2695
963.7801, 247.0491
964.2622, 242.8332
964.7443, 229.0417
965.2264, 222.2844
965.7086, 229.8853
966.1907, 240.0863
966.6728, 233.8839
967.1549, 220.2575
967.6370, 215.3111
968.1191, 229.6144
968.6013, 241.1393
969.0834, 246.0719
969.5655, 245.9469
970.0476, 240.2097
970.5297, 228.5369
971.0118, 221.4545
971.4940, 219.4965
971.9761, 220.7091
972.4582, 225.0662
972.9403, 230.6689
973.4224, 236.5497
973.9045, 242.4764
974.3867, 245.3121
974.8688, 243.7766
975.3509, 239.9166
975.8330, 232.6940
976.3151, 224.2760
976.7972, 225.1522
977.2793, 233.7747
977.7614, 238.6544
978.2435, 231.0510
978.7256, 222.9180
979.2078, 224.7055
979.6899, 231.9505
980.1720, 237.1816
980.6541, 239.1061
981.1362, 239.3821
981.6183, 237.8340
982.1005, 235.1920
982.5826, 231.2137
983.0647, 226.8390
983.5468, 225.5502
984.0289, 227.8558
984.5110, 231.3143
984.9932, 236.4649
985.4753, 240.5801
985.9574, 241.5818
986.4395, 239.5392
986.9216, 235.6208
987.4037, 229.2358
987.8859, 223.3239
988.3680, 217.5193
988.8501, 214.5931
989.3322, 223.6651
989.8143, 240.3607
990.2964, 252.2096
990.7786, 250.3090
991.2607, 247.0265
991.7428, 246.4441
992.2249, 246.1122
992.7070, 241.6994
993.1891, 232.6753
993.6713, 226.8298
994.1534, 225.2115
994.6355, 226.2499
995.1176, 231.5783
995.5997, 236.8703
996.0818, 235.4857
996.5640, 224.9555
997.0461, 219.4522
997.5282, 224.0166
998.0103, 229.5327
998.4924, 231.9109
998.9745, 231.6158
999.4567, 230.8827
999.9388, 229.8223
1000.421, 229.3533
1000.903, 230.6339
1001.385, 232.0264
1001.867, 233.0760
1002.349, 233.3073
1002.831, 231.2271
1003.314, 224.6469
1003.796, 221.5119
1004.278, 223.3627
1004.760, 227.3213
1005.242, 231.0707
1005.724, 233.7403
1006.206, 232.6887
1006.688, 227.0538
1007.171, 221.8077
1007.653, 218.0044
1008.135, 216.5807
1008.617, 217.9681
1009.099, 222.1311
1009.581, 229.1115
1010.063, 239.4414
1010.545, 246.7694
1011.027, 247.4067
1011.510, 243.6665
1011.992, 235.2427
1012.474, 224.9053
1012.956, 219.3823
1013.438, 224.0370
1013.920, 229.4712
1014.402, 236.0262
1014.884, 240.8955
1015.367, 238.2173
1015.849, 229.5770
1016.331, 226.0987
1016.813, 229.6289
1017.295, 234.0267
1017.777, 234.8153
1018.259, 234.3950
1018.741, 234.1377
1019.223, 234.1012
1019.706, 237.1232
1020.188, 245.2494
1020.670, 249.2024
1021.152, 242.5376
1021.634, 230.8346
1022.116, 224.8318
1022.598, 223.5263
1023.080, 224.3637
1023.563, 225.8007
1024.045, 230.0307
1024.527, 241.6734
1025.009, 253.4314
1025.491, 255.3295
1025.973, 247.0441
1026.455, 243.9516
1026.937, 247.7574
1027.419, 251.5396
1027.901, 246.4643
1028.384, 240.1690
1028.866, 241.1157
1029.348, 249.9624
1029.830, 256.2648
1030.312, 259.5279
1030.794, 259.5990
1031.276, 255.5799
1031.758, 249.1228
1032.241, 243.8172
1032.723, 239.6804
1033.205, 236.6175
1033.687, 234.0925
1034.169, 233.5788
1034.651, 237.3581
1035.133, 242.5218
1035.615, 245.9599
1036.098, 247.2816
1036.580, 249.7897
1037.062, 253.9339
1037.544, 255.4060
1038.026, 246.6397
1038.508, 235.8466
1038.990, 233.4877
1039.472, 238.9330
1039.954, 242.9487
1040.437, 242.6154
1040.919, 242.2610
1041.401, 242.6891
1041.883, 243.8157
1042.365, 246.1667
1042.847, 249.1760
1043.329, 250.2688
1043.811, 247.9597
1044.293, 246.4718
1044.776, 251.1577
1045.258, 255.5937
1045.740, 253.1610
1046.222, 242.4642
1046.704, 237.9347
1047.186, 240.3056
1047.668, 243.3998
1048.150, 243.3420
1048.633, 241.6436
1049.115, 238.9434
1049.597, 236.1765
1050.079, 236.1563
1050.561, 241.5289
1051.043, 247.5895
1051.525, 254.5733
1052.007, 260.7463
1052.490, 264.6074
1052.972, 265.5375
1053.454, 258.6266
1053.936, 242.2962
1054.418, 229.8759
1054.900, 233.3887
1055.382, 241.0474
1055.864, 245.9252
1056.346, 247.9006
1056.828, 245.9138
1057.311, 239.1892
1057.793, 235.9012
1058.275, 241.8120
1058.757, 249.6186
1059.239, 250.0721
1059.721, 245.6687
1060.203, 240.6998
1060.685, 233.3175
1061.168, 230.6963
1061.650, 235.1069
1062.132, 240.7511
1062.614, 241.1524
1063.096, 238.2713
1063.578, 241.2786
1064.060, 249.7571
1064.542, 255.2215
1065.025, 249.2086
1065.507, 242.6271
1065.989, 241.3820
1066.471, 243.6866
1066.953, 246.3578
1067.435, 249.7134
1067.917, 248.0138
1068.399, 238.5094
1068.881, 229.1815
1069.364, 229.8320
1069.846, 234.7650
1070.328, 237.1570
1070.810, 235.0406
1071.292, 235.0824
1071.774, 238.8673
1072.256, 241.5807
1072.738, 240.1409
1073.220, 236.0093
1073.703, 231.8973
1074.185, 228.4306
1074.667, 227.8077
1075.149, 234.7127
1075.631, 239.8354
1076.113, 237.7479
1076.595, 234.7768
1077.077, 239.8980
1077.559, 252.9375
1078.042, 255.9175
1078.524, 247.5216
1079.006, 238.8143
1079.488, 241.1422
1079.970, 244.4256
1080.452, 238.3805
1080.934, 224.6460
1081.416, 220.8734
1081.899, 230.5664
1082.381, 237.3257
1082.863, 236.6523
1083.345, 231.8591
1083.827, 223.8451
1084.309, 216.5155
1084.791, 217.6205
1085.273, 232.7877
1085.755, 240.7589
1086.238, 232.1476
1086.720, 224.5920
1087.202, 229.8741
1087.684, 243.7760
1088.166, 245.3577
1088.648, 237.1247
1089.130, 232.0437
1089.612, 242.1653
1090.094, 250.5605
1090.577, 246.3865
1091.059, 237.8129
1091.541, 235.5931
1092.023, 240.3156
1092.505, 247.6821
1092.987, 257.9080
1093.469, 263.5204
1093.951, 254.0961
1094.434, 240.2100
1094.916, 230.0952
1095.398, 224.5157
1095.880, 224.4579
1096.362, 232.4405
1096.844, 238.2151
1097.326, 238.7392
1097.808, 237.7566
1098.291, 241.3093
1098.773, 247.5703
1099.255, 253.8258
1099.737, 260.6415
1100.219, 262.0642
1100.701, 251.3052
1101.183, 241.4301
1101.665, 238.3811
1102.147, 241.1628
1102.630, 247.2392
1103.112, 255.3992
1103.594, 259.6905
1104.076, 253.8986
1104.558, 248.4154
1105.040, 249.3387
1105.522, 252.7601
1106.004, 253.9830
1106.486, 252.5976
1106.969, 252.9417
1107.451, 255.2537
1107.933, 256.3497
1108.415, 251.7228
1108.897, 246.4754
1109.379, 247.2131
1109.861, 251.6710
1110.343, 249.1088
1110.826, 234.8000
1111.308, 227.0834
1111.790, 230.0644
1112.272, 237.1414
1112.754, 240.1730
1113.236, 241.6517
1113.718, 246.5095
1114.200, 255.8035
1114.682, 261.5183
1115.165, 261.5460
1115.647, 258.2317
1116.129, 250.7783
1116.611, 241.8555
1117.093, 239.1707
1117.575, 241.2442
1118.057, 243.4852
1118.539, 244.9815
1119.021, 245.0847
1119.504, 240.7538
1119.986, 237.4296
1120.468, 240.2341
1120.950, 248.9635
1121.432, 249.8282
1121.914, 243.4628
1122.396, 238.8430
1122.878, 244.0954
1123.361, 249.8513
1123.843, 249.1458
1124.325, 245.1185
1124.807, 244.1869
1125.289, 247.7882
1125.771, 246.3688
1126.253, 238.4801
1126.735, 231.9595
1127.218, 234.9180
1127.700, 242.1444
1128.182, 250.0381
1128.664, 257.5570
1129.146, 259.9270
1129.628, 255.0513
1130.110, 250.1006
1130.592, 246.2367
1131.074, 243.5775
1131.557, 241.0307
1132.039, 240.2784
1132.521, 247.9604
1133.003, 267.6418
1133.485, 270.9009
1133.967, 235.7248
1134.449, 208.6671
1134.931, 210.4691
1135.413, 230.1452
1135.896, 237.2405
1136.378, 235.5313
1136.860, 237.1856
1137.342, 249.7072
1137.824, 258.0559
1138.306, 251.6622
1138.788, 243.4449
1139.270, 242.6588
1139.752, 248.5603
1140.235, 249.9198
1140.717, 247.0086
1141.199, 242.0594
1141.681, 231.9519
1142.163, 225.0094
1142.645, 227.8235
1143.127, 235.7876
1143.609, 243.1103
1144.092, 250.4959
1144.574, 249.1862
1145.056, 238.2642
1145.538, 228.1447
1146.020, 226.0830
1146.502, 229.1990
1146.984, 238.6423
1147.466, 251.5026
1147.948, 256.2540
1148.431, 250.1111
1148.913, 248.1711
1149.395, 253.8479
1149.877, 260.4136
1150.359, 261.0172
1150.841, 257.7000
1151.323, 251.4206
1151.805, 242.2691
1152.287, 237.4518
1152.770, 239.3088
1153.252, 239.4185
1153.734, 233.6404
1154.216, 227.3914
1154.698, 232.0091
1155.180, 241.9726
1155.662, 247.5335
1156.144, 245.2829
1156.627, 243.4990
1157.109, 242.9698
1157.591, 243.6541
1158.073, 246.8394
1158.555, 250.3529
1159.037, 246.5344
1159.519, 238.1779
1160.001, 233.0770
1160.484, 235.4621
1160.966, 239.2067
1161.448, 243.7704
1161.930, 248.2718
1162.412, 253.5210
1162.894, 258.4070
1163.376, 254.7984
1163.858, 244.0367
1164.340, 234.5711
1164.823, 229.1583
1165.305, 227.7998
1165.787, 232.6246
1166.269, 239.6022
1166.751, 243.5805
1167.233, 244.9713
1167.715, 248.8626
1168.197, 255.4803
1168.679, 259.5753
1169.162, 256.0316
1169.644, 250.7417
1170.126, 245.9306
1170.608, 242.0388
1171.090, 240.0915
1171.572, 240.0852
1172.054, 242.2074
1172.536, 247.0382
1173.019, 248.7657
1173.501, 235.9538
1173.983, 224.0407
1174.465, 228.5315
1174.947, 245.3195
1175.429, 252.9629
1175.911, 251.0535
1176.393, 245.7799
1176.875, 237.1817
1177.358, 231.9885
1177.840, 242.4939
1178.322, 255.9024
1178.804, 257.1389
1179.286, 244.7863
1179.768, 240.6509
1180.250, 245.7440
1180.732, 249.6453
1181.214, 246.7731
1181.697, 242.7193
1182.179, 245.3486
1182.661, 249.8958
1183.143, 248.3167
1183.625, 235.6662
1184.107, 235.5432
1184.589, 250.7053
1185.071, 262.8098
1185.554, 255.8055
1186.036, 243.9416
1186.518, 247.5862
1187.000, 259.6172
1187.482, 265.2031
1187.964, 257.8386
1188.446, 254.2743
1188.928, 255.5484
1189.411, 257.4501
1189.893, 256.2220
1190.375, 253.7177
1190.857, 252.9552
1191.339, 253.2579
1191.821, 252.1755
1192.303, 249.0305
1192.785, 244.2106
1193.267, 236.2970
1193.750, 231.3140
1194.232, 241.0603
1194.714, 254.8317
1195.196, 252.8761
1195.678, 237.2287
1196.160, 230.0693
1196.642, 241.4877
1197.124, 249.9752
1197.606, 251.4767
1198.089, 250.5726
1198.571, 254.8054
1199.053, 260.2186
1199.535, 258.7103
1200.017, 249.6716
1200.499, 244.4343
1200.981, 247.0329
1201.463, 250.1686
1201.945, 252.8240
1202.428, 253.4904
1202.910, 247.4972
1203.392, 238.4416
1203.874, 232.1256
1204.356, 229.3088
1204.838, 231.9908
1205.320, 244.8375
1205.802, 254.2168
1206.285, 254.3179
1206.767, 249.5406
1207.249, 247.9075
1207.731, 248.2515
1208.213, 248.1795
1208.695, 246.7667
1209.177, 246.4807
1209.659, 248.1539
1210.141, 250.0036
1210.624, 251.6244
1211.106, 252.3952
1211.588, 249.2553
1212.070, 244.3908
1212.552, 242.6377
1213.034, 245.5723
1213.516, 252.4278
1213.998, 266.7488
1214.480, 277.0699
1214.963, 274.7759
1215.445, 264.2553
1215.927, 253.1674
1216.409, 243.6268
1216.891, 241.3696
1217.373, 259.5598
1217.855, 264.8573
1218.337, 248.5214
1218.820, 231.8982
1219.302, 234.8298
1219.784, 248.7579
1220.266, 251.1111
1220.748, 245.3950
1221.230, 242.5920
1221.712, 250.9044
1222.194, 255.8714
1222.677, 255.9149
1223.159, 253.1470
1223.641, 247.0199
1224.123, 240.5645
1224.605, 242.1509
1225.087, 249.7962
1225.569, 254.4095
1226.051, 248.3105
1226.533, 246.3916
1227.016, 252.0900
1227.498, 257.9607
1227.980, 254.3618
1228.462, 245.8481
1228.944, 239.3373
1229.426, 235.6778
1229.908, 237.0743
1230.390, 249.5277
1230.872, 257.7783
1231.355, 259.2791
1231.837, 256.9506
1232.319, 251.7729
1232.801, 246.4946
1233.283, 246.4975
1233.765, 251.6234
1234.247, 256.1658
1234.729, 260.2410
1235.212, 260.2325
1235.694, 253.8878
1236.176, 247.5869
1236.658, 251.1214
1237.140, 259.4362
1237.622, 266.1938
1238.104, 270.5019
1238.586, 271.0083
1239.068, 265.5698
1239.551, 263.3304
1240.033, 267.5781
1240.515, 272.4787
1240.997, 267.5096
1241.479, 260.1365
1241.961, 262.2186
1242.443, 275.2439
1242.925, 279.9009
1243.407, 273.1485
1243.890, 267.0744
1244.372, 265.4418
1244.854, 264.9888
1245.336, 259.6014
1245.818, 254.2543
1246.300, 256.4172
1246.782, 267.6886
1247.264, 273.0897
1247.747, 272.2733
1248.229, 266.2404
1248.711, 252.1527
1249.193, 241.6398
1249.675, 253.9534
1250.157, 272.5759
1250.639, 277.4340
1251.121, 267.0810
1251.604, 262.5580
1252.086, 264.4384
1252.568, 265.0919
1253.050, 260.1916
1253.532, 256.8925
1254.014, 266.4250
1254.496, 277.9357
1254.978, 277.9069
1255.460, 266.6042
1255.943, 266.1335
1256.425, 276.3705
1256.907, 284.3494
1257.389, 285.9454
1257.871, 281.6590
1258.353, 261.5293
1258.835, 244.2781
1259.317, 249.7966
1259.799, 276.4432
1260.281, 287.4204
1260.764, 284.0549
1261.246, 277.2146
1261.728, 268.9061
1262.210, 263.2510
1262.692, 268.0838
##END=



