##NAMES=Fingerite
##RRUFFID=R070614
##IDEAL CHEMISTRY=Cu^2+^_11_O_2_(V^5+^O_4_)_6_
##LOCALITY=Izalco Volcano, Sonsonate Department, El Salvador
##OWNER=RRUFF
##SOURCE=Michael Scott
##DESCRIPTION=Black submetallic well-formed prismatic crystals associated with black, poorly-formed ziesite, R070482
##STATUS=The identification of this mineral has been confirmed by single-crystal X-ray diffraction.
##URL=rruff.info/R070614
98.78827, 3627.749
99.27039, 3757.811
99.75250, 3875.309
100.2346, 3985.739
100.7167, 4094.071
101.1989, 4194.230
101.6810, 4263.273
102.1631, 4251.720
102.6452, 4241.920
103.1273, 4229.014
103.6094, 4204.709
104.0916, 4175.408
104.5737, 4162.350
105.0558, 4177.425
105.5379, 4192.374
106.0200, 4195.329
106.5021, 4186.235
106.9843, 4166.194
107.4664, 4131.875
107.9485, 4078.905
108.4306, 4034.161
108.9127, 3999.218
109.3948, 3971.340
109.8770, 3949.996
110.3591, 3934.638
110.8412, 3924.228
111.3233, 3917.023
111.8054, 3914.626
112.2875, 3912.948
112.7697, 3910.944
113.2518, 3909.365
113.7339, 3910.069
114.2160, 3914.344
114.6981, 3920.678
115.1802, 3918.657
115.6624, 3896.932
116.1445, 3879.538
116.6266, 3877.970
117.1087, 3888.298
117.5908, 3896.510
118.0729, 3890.848
118.5551, 3870.423
119.0372, 3856.136
119.5193, 3850.924
120.0014, 3849.924
120.4835, 3850.193
120.9656, 3851.690
121.4478, 3851.849
121.9299, 3846.284
122.4120, 3836.092
122.8941, 3826.419
123.3762, 3821.570
123.8583, 3818.881
124.3405, 3809.992
124.8226, 3789.066
125.3047, 3766.305
125.7868, 3749.645
126.2689, 3739.247
126.7510, 3733.861
127.2332, 3733.908
127.7153, 3740.084
128.1974, 3745.968
128.6795, 3750.474
129.1616, 3753.930
129.6437, 3755.828
130.1259, 3755.938
130.6080, 3755.828
131.0901, 3760.479
131.5722, 3781.009
132.0543, 3785.245
132.5364, 3757.339
133.0186, 3716.454
133.5007, 3682.819
133.9828, 3667.845
134.4649, 3669.140
134.9470, 3669.952
135.4291, 3665.564
135.9113, 3665.463
136.3934, 3672.578
136.8755, 3685.691
137.3576, 3702.751
137.8397, 3722.958
138.3219, 3747.419
138.8040, 3762.248
139.2861, 3770.912
139.7682, 3769.505
140.2503, 3749.355
140.7324, 3711.990
141.2146, 3674.244
141.6967, 3656.033
142.1788, 3663.770
142.6609, 3666.126
143.1430, 3660.194
143.6251, 3648.614
144.1073, 3631.151
144.5894, 3605.291
145.0715, 3582.182
145.5536, 3585.290
146.0357, 3617.847
146.5178, 3640.045
147.0000, 3626.618
147.4821, 3587.957
147.9642, 3561.420
148.4463, 3565.982
148.9284, 3581.406
149.4105, 3579.078
149.8927, 3554.269
150.3748, 3526.761
150.8569, 3515.914
151.3390, 3523.689
151.8211, 3527.439
152.3032, 3508.476
152.7854, 3485.873
153.2675, 3476.486
153.7496, 3487.276
154.2317, 3508.349
154.7138, 3523.406
155.1959, 3532.844
155.6781, 3534.286
156.1602, 3523.677
156.6423, 3507.118
157.1244, 3491.432
157.6065, 3480.363
158.0886, 3472.980
158.5708, 3464.188
159.0529, 3449.475
159.5350, 3438.556
160.0171, 3433.384
160.4992, 3433.559
160.9813, 3438.551
161.4635, 3448.833
161.9456, 3465.104
162.4277, 3476.428
162.9098, 3485.530
163.3919, 3487.831
163.8740, 3475.415
164.3562, 3452.146
164.8383, 3431.146
165.3204, 3427.252
165.8025, 3447.702
166.2846, 3459.424
166.7667, 3458.634
167.2489, 3453.070
167.7310, 3445.440
168.2131, 3437.009
168.6952, 3431.330
169.1773, 3433.478
169.6594, 3445.950
170.1416, 3461.678
170.6237, 3489.119
171.1058, 3516.552
171.5879, 3528.403
172.0700, 3518.795
172.5521, 3497.989
173.0343, 3484.061
173.5164, 3477.078
173.9985, 3473.239
174.4806, 3470.330
174.9627, 3469.659
175.4448, 3475.992
175.9270, 3494.698
176.4091, 3516.657
176.8912, 3525.367
177.3733, 3517.749
177.8554, 3506.090
178.3375, 3496.529
178.8197, 3489.032
179.3018, 3482.887
179.7839, 3478.276
180.2660, 3474.797
180.7481, 3470.877
181.2302, 3463.985
181.7124, 3460.801
182.1945, 3475.893
182.6766, 3515.138
183.1587, 3537.025
183.6408, 3497.623
184.1229, 3438.993
184.6051, 3402.929
185.0872, 3409.034
185.5693, 3436.293
186.0514, 3445.399
186.5335, 3428.460
187.0156, 3410.039
187.4978, 3401.043
187.9799, 3395.809
188.4620, 3386.944
188.9441, 3369.378
189.4262, 3346.148
189.9083, 3329.593
190.3905, 3323.461
190.8726, 3319.698
191.3547, 3315.111
191.8368, 3310.981
192.3189, 3310.134
192.8010, 3315.978
193.2832, 3327.824
193.7653, 3331.089
194.2474, 3311.125
194.7295, 3295.642
195.2116, 3294.601
195.6937, 3304.200
196.1759, 3314.895
196.6580, 3318.966
197.1401, 3315.970
197.6222, 3310.075
198.1043, 3296.194
198.5864, 3284.151
199.0686, 3276.942
199.5507, 3274.983
200.0328, 3278.187
200.5149, 3287.485
200.9970, 3306.343
201.4791, 3316.296
201.9613, 3317.350
202.4434, 3311.690
202.9255, 3296.700
203.4076, 3274.042
203.8897, 3251.352
204.3718, 3237.687
204.8540, 3235.606
205.3361, 3237.583
205.8182, 3251.196
206.3003, 3263.995
206.7824, 3264.722
207.2645, 3251.440
207.7467, 3232.163
208.2288, 3216.952
208.7109, 3205.708
209.1930, 3200.420
209.6751, 3205.810
210.1572, 3215.258
210.6394, 3222.868
211.1215, 3227.219
211.6036, 3227.385
212.0857, 3219.869
212.5678, 3201.132
213.0499, 3187.886
213.5321, 3187.966
214.0142, 3194.190
214.4963, 3195.526
214.9784, 3188.364
215.4605, 3176.328
215.9426, 3163.399
216.4248, 3147.279
216.9069, 3138.503
217.3890, 3149.663
217.8711, 3170.789
218.3532, 3176.787
218.8353, 3154.163
219.3175, 3122.338
219.7996, 3113.387
220.2817, 3130.917
220.7638, 3149.840
221.2459, 3160.010
221.7280, 3162.095
222.2102, 3157.801
222.6923, 3144.184
223.1744, 3128.041
223.6565, 3118.871
224.1386, 3117.614
224.6207, 3118.882
225.1029, 3120.551
225.5850, 3122.364
226.0671, 3121.082
226.5492, 3109.701
227.0313, 3100.114
227.5134, 3109.413
227.9956, 3143.869
228.4777, 3173.975
228.9598, 3168.689
229.4419, 3128.141
229.9240, 3096.997
230.4061, 3096.048
230.8883, 3106.845
231.3704, 3111.591
231.8525, 3106.924
232.3346, 3102.212
232.8167, 3110.429
233.2988, 3133.760
233.7810, 3148.453
234.2631, 3135.795
234.7452, 3117.726
235.2273, 3112.287
235.7094, 3124.480
236.1915, 3141.240
236.6737, 3146.120
237.1558, 3136.532
237.6379, 3128.280
238.1200, 3127.654
238.6021, 3129.106
239.0842, 3128.491
239.5664, 3124.591
240.0485, 3120.022
240.5306, 3118.043
241.0127, 3118.593
241.4948, 3122.080
241.9769, 3129.176
242.4591, 3138.803
242.9412, 3153.460
243.4233, 3174.536
243.9054, 3192.307
244.3875, 3188.010
244.8696, 3150.324
245.3518, 3122.325
245.8339, 3117.053
246.3160, 3121.340
246.7981, 3126.273
247.2802, 3128.966
247.7623, 3131.250
248.2445, 3137.369
248.7266, 3151.569
249.2087, 3158.941
249.6908, 3150.443
250.1729, 3138.683
250.6550, 3134.522
251.1372, 3141.486
251.6193, 3153.274
252.1014, 3159.391
252.5835, 3159.540
253.0656, 3153.755
253.5477, 3137.174
254.0299, 3118.504
254.5120, 3102.607
254.9941, 3091.307
255.4762, 3087.066
255.9583, 3097.670
256.4405, 3139.874
256.9226, 3161.888
257.4047, 3144.934
257.8868, 3117.460
258.3689, 3103.423
258.8510, 3110.219
259.3332, 3125.987
259.8153, 3127.527
260.2974, 3100.579
260.7795, 3087.631
261.2616, 3100.814
261.7437, 3121.430
262.2259, 3135.941
262.7080, 3140.019
263.1901, 3136.921
263.6722, 3131.298
264.1543, 3118.544
264.6364, 3112.677
265.1186, 3117.602
265.6007, 3126.434
266.0828, 3135.261
266.5649, 3142.561
267.0470, 3147.436
267.5291, 3148.453
268.0113, 3145.421
268.4934, 3138.281
268.9755, 3119.859
269.4576, 3102.629
269.9397, 3097.838
270.4218, 3107.331
270.9040, 3122.265
271.3861, 3127.793
271.8682, 3114.645
272.3503, 3111.217
272.8324, 3125.794
273.3145, 3142.816
273.7967, 3151.750
274.2788, 3150.467
274.7609, 3143.726
275.2430, 3137.571
275.7251, 3130.836
276.2072, 3127.721
276.6894, 3126.640
277.1715, 3129.445
277.6536, 3139.894
278.1357, 3157.151
278.6178, 3174.897
279.0999, 3185.038
279.5821, 3185.394
280.0642, 3183.550
280.5463, 3177.896
281.0284, 3171.764
281.5105, 3168.974
281.9926, 3168.747
282.4748, 3165.278
282.9569, 3149.636
283.4390, 3113.770
283.9211, 3097.039
284.4032, 3114.627
284.8853, 3135.444
285.3675, 3144.347
285.8496, 3140.976
286.3317, 3133.639
286.8138, 3130.641
287.2959, 3133.114
287.7780, 3133.414
288.2602, 3128.496
288.7423, 3124.360
289.2244, 3126.454
289.7065, 3132.301
290.1886, 3133.591
290.6707, 3121.102
291.1529, 3092.749
291.6350, 3077.546
292.1171, 3087.148
292.5992, 3098.294
293.0813, 3106.675
293.5634, 3110.540
294.0456, 3106.873
294.5277, 3090.928
295.0098, 3063.183
295.4919, 3053.959
295.9740, 3092.075
296.4561, 3120.482
296.9383, 3116.861
297.4204, 3093.776
297.9025, 3076.147
298.3846, 3081.037
298.8667, 3105.074
299.3488, 3119.845
299.8310, 3113.444
300.3131, 3110.431
300.7952, 3121.650
301.2773, 3137.668
301.7594, 3143.615
302.2415, 3130.260
302.7237, 3103.352
303.2058, 3085.440
303.6879, 3078.083
304.1700, 3078.974
304.6521, 3094.861
305.1342, 3115.562
305.6164, 3130.573
306.0985, 3135.256
306.5806, 3130.681
307.0627, 3117.745
307.5448, 3084.720
308.0269, 3063.971
308.5091, 3065.880
308.9912, 3076.859
309.4733, 3085.271
309.9554, 3087.022
310.4375, 3085.011
310.9196, 3084.159
311.4018, 3084.619
311.8839, 3085.982
312.3660, 3090.774
312.8481, 3094.690
313.3302, 3092.489
313.8123, 3083.701
314.2945, 3075.530
314.7766, 3079.982
315.2587, 3103.244
315.7408, 3117.031
316.2229, 3111.891
316.7050, 3102.498
317.1872, 3095.531
317.6693, 3091.980
318.1514, 3089.972
318.6335, 3088.518
319.1156, 3088.091
319.5977, 3084.045
320.0799, 3062.503
320.5620, 3049.890
321.0441, 3065.936
321.5262, 3103.965
322.0083, 3138.558
322.4904, 3146.178
322.9726, 3128.396
323.4547, 3119.069
323.9368, 3125.923
324.4189, 3131.970
324.9010, 3125.845
325.3831, 3113.132
325.8653, 3106.844
326.3474, 3118.171
326.8295, 3141.415
327.3116, 3155.274
327.7937, 3157.353
328.2758, 3153.968
328.7580, 3140.276
329.2401, 3125.104
329.7222, 3123.447
330.2043, 3147.708
330.6864, 3182.123
331.1685, 3194.720
331.6507, 3178.916
332.1328, 3163.561
332.6149, 3160.945
333.0970, 3165.178
333.5791, 3171.591
334.0612, 3179.823
334.5434, 3187.901
335.0255, 3193.763
335.5076, 3197.383
335.9897, 3199.304
336.4718, 3199.534
336.9539, 3198.062
337.4361, 3194.659
337.9182, 3189.005
338.4003, 3182.921
338.8824, 3178.687
339.3645, 3175.722
339.8466, 3169.521
340.3288, 3156.323
340.8109, 3142.831
341.2930, 3136.453
341.7751, 3137.242
342.2572, 3140.039
342.7393, 3142.111
343.2215, 3144.390
343.7036, 3150.235
344.1857, 3161.958
344.6678, 3172.687
345.1499, 3171.290
345.6320, 3160.231
346.1142, 3155.765
346.5963, 3172.537
347.0784, 3193.287
347.5605, 3192.529
348.0426, 3166.968
348.5247, 3140.983
349.0069, 3135.800
349.4890, 3148.992
349.9711, 3155.999
350.4532, 3149.462
350.9353, 3141.093
351.4174, 3141.043
351.8996, 3147.864
352.3817, 3151.591
352.8638, 3145.177
353.3459, 3131.100
353.8280, 3121.962
354.3102, 3120.560
354.7923, 3120.299
355.2744, 3118.420
355.7565, 3115.960
356.2386, 3115.840
356.7207, 3119.851
357.2029, 3125.163
357.6850, 3124.426
358.1671, 3113.167
358.6492, 3103.388
359.1313, 3095.738
359.6134, 3090.578
360.0956, 3088.892
360.5777, 3090.842
361.0598, 3094.628
361.5419, 3097.771
362.0240, 3100.500
362.5061, 3101.766
362.9883, 3101.979
363.4704, 3100.575
363.9525, 3096.880
364.4346, 3091.026
364.9167, 3083.921
365.3988, 3076.323
365.8810, 3068.228
366.3631, 3059.704
366.8452, 3043.425
367.3273, 3033.988
367.8094, 3040.648
368.2915, 3058.160
368.7737, 3075.648
369.2558, 3086.229
369.7379, 3090.635
370.2200, 3093.205
370.7021, 3095.773
371.1842, 3093.584
371.6664, 3082.712
372.1485, 3068.125
372.6306, 3056.267
373.1127, 3049.886
373.5948, 3044.865
374.0769, 3030.151
374.5591, 2995.568
375.0412, 2978.933
375.5233, 3003.313
376.0054, 3035.289
376.4875, 3053.008
376.9696, 3052.675
377.4518, 3043.905
377.9339, 3034.115
378.4160, 3023.182
378.8981, 3016.375
379.3802, 3017.220
379.8623, 3019.354
380.3445, 3019.948
380.8266, 3018.715
381.3087, 3015.022
381.7908, 3004.742
382.2729, 2991.728
382.7550, 2989.144
383.2372, 3001.479
383.7193, 3013.015
384.2014, 3011.862
384.6835, 3003.168
385.1656, 2994.916
385.6477, 2985.046
386.1299, 2980.276
386.6120, 2992.535
387.0941, 3021.177
387.5762, 3044.522
388.0583, 3051.561
388.5404, 3046.997
389.0226, 3042.943
389.5047, 3041.030
389.9868, 3036.103
390.4689, 3018.935
390.9510, 2997.162
391.4331, 2990.411
391.9153, 3006.708
392.3974, 3031.943
392.8795, 3045.484
393.3616, 3045.585
393.8437, 3043.190
394.3258, 3039.640
394.8080, 3034.209
395.2901, 3023.555
395.7722, 3008.323
396.2543, 2997.496
396.7364, 3001.438
397.2185, 3022.231
397.7007, 3025.976
398.1828, 2995.420
398.6649, 2967.871
399.1470, 2961.003
399.6291, 2969.301
400.1112, 2979.108
400.5934, 2982.744
401.0755, 2981.435
401.5576, 2980.222
402.0397, 2978.349
402.5218, 2977.606
403.0039, 2979.408
403.4861, 2981.716
403.9682, 2982.381
404.4503, 2980.793
404.9324, 2978.170
405.4145, 2975.665
405.8966, 2971.944
406.3788, 2972.567
406.8609, 2986.335
407.3430, 2997.185
407.8251, 2994.311
408.3072, 2979.975
408.7893, 2965.663
409.2715, 2960.059
409.7536, 2962.473
410.2357, 2969.120
410.7178, 2985.980
411.1999, 2996.728
411.6820, 2994.641
412.1642, 2982.378
412.6463, 2961.562
413.1284, 2925.800
413.6105, 2891.794
414.0926, 2887.642
414.5747, 2915.649
415.0569, 2940.436
415.5390, 2948.429
416.0211, 2946.759
416.5032, 2945.469
416.9853, 2945.089
417.4674, 2944.117
417.9496, 2940.324
418.4317, 2935.392
418.9138, 2933.681
419.3959, 2936.548
419.8780, 2941.222
420.3601, 2946.400
420.8423, 2952.335
421.3244, 2950.954
421.8065, 2929.464
422.2886, 2908.900
422.7707, 2909.229
423.2528, 2928.539
423.7350, 2950.258
424.2171, 2964.360
424.6992, 2971.043
425.1813, 2972.029
425.6634, 2964.563
426.1455, 2955.666
426.6277, 2943.966
427.1098, 2932.716
427.5919, 2926.484
428.0740, 2926.943
428.5561, 2931.549
429.0382, 2935.985
429.5204, 2941.420
430.0025, 2944.221
430.4846, 2942.026
430.9667, 2939.553
431.4488, 2940.515
431.9309, 2944.345
432.4131, 2947.179
432.8952, 2944.840
433.3773, 2937.782
433.8594, 2935.078
434.3415, 2941.732
434.8236, 2945.593
435.3058, 2939.903
435.7879, 2929.739
436.2700, 2922.490
436.7521, 2921.357
437.2342, 2923.609
437.7163, 2925.489
438.1985, 2926.915
438.6806, 2928.897
439.1627, 2932.494
439.6448, 2936.154
440.1269, 2938.805
440.6090, 2940.513
441.0912, 2939.843
441.5733, 2935.255
442.0554, 2927.875
442.5375, 2918.355
443.0196, 2905.661
443.5017, 2897.344
443.9839, 2902.943
444.4660, 2921.221
444.9481, 2932.265
445.4302, 2928.172
445.9124, 2922.736
446.3945, 2922.250
446.8766, 2927.337
447.3587, 2941.776
447.8408, 2969.885
448.3229, 3002.357
448.8051, 3011.492
449.2872, 2970.787
449.7693, 2941.191
450.2514, 2929.770
450.7335, 2927.596
451.2156, 2926.916
451.6978, 2926.239
452.1799, 2928.899
452.6620, 2939.911
453.1441, 2961.246
453.6262, 2975.731
454.1083, 2980.185
454.5905, 2980.229
455.0726, 2976.562
455.5547, 2969.678
456.0368, 2958.951
456.5189, 2942.542
457.0010, 2925.581
457.4832, 2920.382
457.9653, 2929.425
458.4474, 2941.207
458.9295, 2960.525
459.4116, 2976.208
459.8937, 2975.760
460.3759, 2957.328
460.8580, 2939.601
461.3401, 2937.661
461.8222, 2946.792
462.3043, 2951.593
462.7864, 2948.453
463.2686, 2946.844
463.7507, 2957.525
464.2328, 2977.769
464.7149, 2992.844
465.1970, 2998.418
465.6791, 3000.564
466.1613, 3002.547
466.6434, 3004.471
467.1255, 3005.645
467.6076, 3005.132
468.0897, 3005.246
468.5718, 3011.903
469.0540, 3029.882
469.5361, 3047.109
470.0182, 3067.740
470.5003, 3084.473
470.9824, 3087.963
471.4645, 3079.155
471.9467, 3069.412
472.4288, 3070.355
472.9109, 3082.449
473.3930, 3090.880
473.8751, 3094.936
474.3572, 3095.702
474.8394, 3091.993
475.3215, 3085.654
475.8036, 3076.953
476.2857, 3064.776
476.7678, 3057.442
477.2499, 3074.297
477.7321, 3120.211
478.2142, 3149.335
478.6963, 3141.028
479.1784, 3122.444
479.6605, 3113.537
480.1426, 3114.692
480.6248, 3122.446
481.1069, 3144.974
481.5890, 3169.468
482.0711, 3171.952
482.5532, 3150.210
483.0353, 3123.832
483.5175, 3100.671
483.9996, 3083.889
484.4817, 3083.824
484.9638, 3119.487
485.4459, 3147.584
485.9280, 3149.689
486.4102, 3135.741
486.8923, 3117.044
487.3744, 3097.387
487.8565, 3083.260
488.3386, 3085.221
488.8207, 3110.602
489.3029, 3126.163
489.7850, 3122.115
490.2671, 3119.656
490.7492, 3133.647
491.2313, 3156.707
491.7134, 3169.861
492.1956, 3159.954
492.6777, 3138.036
493.1598, 3137.639
493.6419, 3169.849
494.1240, 3194.521
494.6061, 3196.767
495.0883, 3191.608
495.5704, 3187.989
496.0525, 3187.236
496.5346, 3189.012
497.0167, 3195.795
497.4988, 3204.874
497.9810, 3205.967
498.4631, 3195.355
498.9452, 3189.354
499.4273, 3205.878
499.9094, 3236.574
500.3915, 3250.731
500.8737, 3231.731
501.3558, 3211.653
501.8379, 3208.474
502.3200, 3215.928
502.8021, 3222.104
503.2842, 3223.140
503.7664, 3219.742
504.2485, 3212.917
504.7306, 3202.386
505.2127, 3188.730
505.6948, 3167.384
506.1769, 3147.423
506.6591, 3133.404
507.1412, 3124.859
507.6233, 3119.142
508.1054, 3114.337
508.5875, 3111.867
509.0696, 3117.428
509.5518, 3136.159
510.0339, 3150.639
510.5160, 3159.261
510.9981, 3160.829
511.4802, 3149.888
511.9623, 3126.991
512.4445, 3107.271
512.9266, 3104.912
513.4087, 3113.904
513.8908, 3117.651
514.3729, 3114.518
514.8550, 3108.891
515.3372, 3102.598
515.8193, 3096.136
516.3014, 3091.232
516.7835, 3092.775
517.2656, 3089.756
517.7477, 3071.116
518.2299, 3046.060
518.7120, 3030.897
519.1941, 3030.234
519.6762, 3036.964
520.1583, 3042.997
520.6404, 3049.980
521.1226, 3048.269
521.6047, 3029.635
522.0868, 3012.011
522.5689, 2999.221
523.0510, 2993.330
523.5331, 3000.473
524.0153, 3025.624
524.4974, 3053.921
524.9795, 3050.704
525.4616, 3006.250
525.9437, 2973.095
526.4258, 2964.874
526.9080, 2968.074
527.3901, 2978.113
527.8722, 2992.920
528.3543, 3001.620
528.8364, 2997.251
529.3185, 2984.272
529.8007, 2964.588
530.2828, 2938.648
530.7649, 2923.964
531.2470, 2932.957
531.7291, 2956.997
532.2112, 2972.349
532.6934, 2977.433
533.1755, 2978.802
533.6576, 2976.696
534.1397, 2972.112
534.6218, 2964.566
535.1039, 2954.865
535.5861, 2946.671
536.0682, 2943.816
536.5503, 2945.888
537.0324, 2944.168
537.5145, 2933.324
537.9966, 2925.726
538.4788, 2928.165
538.9609, 2932.795
539.4430, 2929.271
539.9251, 2915.051
540.4072, 2901.459
540.8893, 2902.335
541.3715, 2915.649
541.8536, 2926.320
542.3357, 2934.659
542.8178, 2936.185
543.2999, 2919.542
543.7820, 2893.101
544.2642, 2879.869
544.7463, 2894.484
545.2284, 2910.853
545.7105, 2911.061
546.1926, 2901.775
546.6747, 2896.977
547.1569, 2901.073
547.6390, 2911.133
548.1211, 2924.416
548.6032, 2944.186
549.0853, 2953.850
549.5674, 2942.101
550.0496, 2933.564
550.5317, 2945.971
551.0138, 2967.539
551.4959, 2974.710
551.9780, 2955.286
552.4601, 2923.375
552.9423, 2904.457
553.4244, 2900.458
553.9065, 2896.078
554.3886, 2885.698
554.8707, 2877.937
555.3528, 2881.155
555.8350, 2893.029
556.3171, 2902.450
556.7992, 2902.635
557.2813, 2900.083
557.7634, 2905.469
558.2455, 2916.021
558.7277, 2913.710
559.2098, 2887.701
559.6919, 2852.563
560.1740, 2836.412
560.6561, 2852.412
561.1382, 2859.248
561.6204, 2848.846
562.1025, 2835.616
562.5846, 2825.689
563.0667, 2821.066
563.5488, 2825.074
564.0309, 2841.086
564.5131, 2863.559
564.9952, 2876.457
565.4773, 2878.279
565.9594, 2874.840
566.4415, 2862.687
566.9236, 2848.848
567.4058, 2835.114
567.8879, 2822.664
568.3700, 2818.226
568.8521, 2833.281
569.3342, 2854.661
569.8163, 2862.052
570.2985, 2855.540
570.7806, 2844.283
571.2627, 2830.552
571.7448, 2817.484
572.2269, 2813.228
572.7090, 2820.235
573.1912, 2830.123
573.6733, 2847.844
574.1554, 2863.949
574.6375, 2871.419
575.1196, 2870.150
575.6017, 2862.632
576.0839, 2849.715
576.5660, 2833.441
577.0481, 2821.663
577.5302, 2814.643
578.0123, 2811.634
578.4944, 2817.135
578.9766, 2823.357
579.4587, 2823.732
579.9408, 2818.336
580.4229, 2814.021
580.9050, 2818.160
581.3871, 2824.208
581.8693, 2818.024
582.3514, 2800.057
582.8335, 2789.735
583.3156, 2798.757
583.7977, 2819.619
584.2798, 2834.119
584.7620, 2840.220
585.2441, 2844.600
585.7262, 2851.887
586.2083, 2854.527
586.6904, 2841.307
587.1725, 2816.875
587.6547, 2798.396
588.1368, 2798.272
588.6189, 2811.562
589.1010, 2822.943
589.5831, 2834.585
590.0652, 2838.231
590.5474, 2822.795
591.0295, 2805.373
591.5116, 2800.117
591.9937, 2806.371
592.4758, 2809.667
592.9579, 2798.948
593.4401, 2783.729
593.9222, 2776.185
594.4043, 2776.023
594.8864, 2778.579
595.3685, 2782.086
595.8506, 2786.199
596.3328, 2789.954
596.8149, 2790.768
597.2970, 2796.803
597.7791, 2820.791
598.2612, 2838.820
598.7433, 2828.583
599.2255, 2799.727
599.7076, 2779.255
600.1897, 2783.986
600.6718, 2802.106
601.1539, 2805.623
601.6360, 2790.448
602.1182, 2786.657
602.6003, 2811.725
603.0824, 2837.124
603.5645, 2836.578
604.0466, 2814.360
604.5287, 2795.275
605.0109, 2787.785
605.4930, 2785.852
605.9751, 2785.393
606.4572, 2786.362
606.9393, 2789.803
607.4214, 2796.399
607.9036, 2802.538
608.3857, 2801.698
608.8678, 2789.197
609.3499, 2786.833
609.8320, 2810.934
610.3141, 2826.999
610.7963, 2813.758
611.2784, 2785.944
611.7605, 2767.958
612.2426, 2769.578
612.7247, 2781.288
613.2068, 2796.028
613.6890, 2812.469
614.1711, 2814.872
614.6532, 2796.308
615.1353, 2776.165
615.6174, 2769.964
616.0995, 2775.521
616.5817, 2780.736
617.0638, 2786.038
617.5459, 2789.778
618.0280, 2789.210
618.5101, 2787.583
618.9922, 2790.807
619.4744, 2799.386
619.9565, 2806.616
620.4386, 2805.162
620.9207, 2795.400
621.4028, 2787.936
621.8849, 2781.645
622.3671, 2779.746
622.8492, 2788.049
623.3313, 2797.884
623.8134, 2798.552
624.2955, 2788.273
624.7776, 2781.305
625.2598, 2790.396
625.7419, 2807.174
626.2240, 2818.364
626.7061, 2823.036
627.1882, 2822.265
627.6703, 2815.814
628.1525, 2805.398
628.6346, 2795.647
629.1167, 2784.966
629.5988, 2777.753
630.0809, 2776.912
630.5630, 2777.078
631.0452, 2773.966
631.5273, 2768.756
632.0094, 2764.761
632.4915, 2762.934
632.9736, 2766.015
633.4557, 2783.562
633.9379, 2817.178
634.4200, 2840.161
634.9021, 2845.116
635.3842, 2840.396
635.8663, 2830.900
636.3484, 2817.639
636.8306, 2806.140
637.3127, 2792.257
637.7948, 2785.548
638.2769, 2798.806
638.7590, 2821.034
639.2411, 2832.958
639.7233, 2828.948
640.2054, 2815.480
640.6875, 2797.361
641.1696, 2773.293
641.6517, 2768.813
642.1339, 2799.434
642.6160, 2826.827
643.0981, 2836.769
643.5802, 2838.385
644.0623, 2843.621
644.5444, 2855.482
645.0266, 2859.864
645.5087, 2837.165
645.9908, 2805.250
646.4729, 2796.696
646.9550, 2812.550
647.4371, 2832.338
647.9193, 2845.469
648.4014, 2852.190
648.8835, 2853.177
649.3656, 2844.627
649.8477, 2836.190
650.3298, 2823.930
650.8120, 2815.285
651.2941, 2818.699
651.7762, 2829.542
652.2583, 2835.269
652.7404, 2828.282
653.2225, 2815.895
653.7047, 2806.605
654.1868, 2800.786
654.6689, 2805.855
655.1510, 2827.897
655.6331, 2848.865
656.1152, 2849.525
656.5974, 2830.690
657.0795, 2821.250
657.5616, 2831.286
658.0437, 2838.790
658.5258, 2833.231
659.0079, 2822.583
659.4901, 2815.603
659.9722, 2814.519
660.4543, 2818.729
660.9364, 2830.399
661.4185, 2846.797
661.9006, 2847.394
662.3828, 2824.417
662.8649, 2810.927
663.3470, 2825.798
663.8291, 2850.101
664.3112, 2862.079
664.7933, 2860.913
665.2755, 2856.411
665.7576, 2848.142
666.2397, 2840.581
666.7218, 2838.683
667.2039, 2840.690
667.6860, 2840.771
668.1682, 2836.416
668.6503, 2831.765
669.1324, 2833.075
669.6145, 2840.392
670.0966, 2854.333
670.5787, 2887.486
671.0609, 2910.510
671.5430, 2901.691
672.0251, 2880.222
672.5072, 2876.591
672.9893, 2901.609
673.4714, 2925.339
673.9536, 2927.403
674.4357, 2916.616
674.9178, 2902.125
675.3999, 2886.758
675.8820, 2883.998
676.3641, 2905.059
676.8463, 2939.326
677.3284, 2951.757
677.8105, 2926.824
678.2926, 2909.091
678.7747, 2908.023
679.2568, 2906.369
679.7390, 2888.983
680.2211, 2863.642
680.7032, 2851.227
681.1853, 2863.745
681.6674, 2885.553
682.1495, 2902.543
682.6317, 2914.950
683.1138, 2924.328
683.5959, 2931.260
684.0780, 2929.891
684.5601, 2911.211
685.0422, 2878.579
685.5244, 2867.370
686.0065, 2897.402
686.4886, 2923.161
686.9707, 2943.681
687.4528, 2955.940
687.9349, 2952.521
688.4171, 2937.167
688.8992, 2925.796
689.3813, 2929.997
689.8634, 2942.292
690.3455, 2952.031
690.8276, 2958.928
691.3098, 2960.293
691.7919, 2955.772
692.2740, 2943.471
692.7561, 2915.693
693.2382, 2869.867
693.7203, 2855.139
694.2025, 2902.662
694.6846, 2940.287
695.1667, 2939.740
695.6488, 2923.512
696.1309, 2916.909
696.6130, 2923.863
697.0952, 2931.148
697.5773, 2927.276
698.0594, 2915.663
698.5415, 2903.201
699.0236, 2889.536
699.5057, 2885.177
699.9879, 2897.250
700.4700, 2914.736
700.9521, 2921.921
701.4342, 2916.300
701.9163, 2914.863
702.3984, 2920.592
702.8806, 2927.582
703.3627, 2936.380
703.8448, 2943.625
704.3269, 2942.399
704.8090, 2931.900
705.2911, 2923.603
705.7733, 2933.493
706.2554, 2955.928
706.7375, 2964.618
707.2196, 2957.934
707.7017, 2949.941
708.1838, 2946.823
708.6660, 2945.122
709.1481, 2938.454
709.6302, 2925.173
710.1123, 2914.880
710.5944, 2903.600
711.0765, 2900.234
711.5587, 2915.075
712.0408, 2939.060
712.5229, 2958.959
713.0050, 2970.081
713.4871, 2974.019
713.9692, 2971.335
714.4514, 2962.729
714.9335, 2947.813
715.4156, 2923.202
715.8977, 2914.361
716.3798, 2941.117
716.8619, 2983.304
717.3441, 3002.588
717.8262, 2994.771
718.3083, 2982.708
718.7904, 2960.972
719.2725, 2942.782
719.7546, 2933.756
720.2368, 2933.854
720.7189, 2945.172
721.2010, 2968.019
721.6831, 2990.001
722.1652, 2997.036
722.6473, 2990.758
723.1295, 2975.849
723.6116, 2949.507
724.0937, 2935.426
724.5758, 2950.493
725.0579, 2979.594
725.5400, 2990.842
726.0222, 2976.652
726.5043, 2968.391
726.9864, 2970.042
727.4685, 2975.680
727.9506, 2985.710
728.4327, 2996.492
728.9149, 3001.822
729.3970, 2999.658
729.8791, 2995.849
730.3612, 2997.104
730.8433, 3002.073
731.3254, 3005.990
731.8076, 3008.746
732.2897, 3009.012
732.7718, 3005.901
733.2539, 3000.143
733.7360, 2992.551
734.2181, 2980.413
734.7003, 2973.860
735.1824, 2976.329
735.6645, 2980.605
736.1466, 2984.646
736.6287, 2987.816
737.1108, 2987.771
737.5930, 2983.872
738.0751, 2984.113
738.5572, 3000.926
739.0393, 3026.475
739.5214, 3040.183
740.0035, 3041.372
740.4857, 3038.712
740.9678, 3034.603
741.4499, 3032.978
741.9320, 3042.569
742.4141, 3071.449
742.8962, 3083.751
743.3784, 3064.231
743.8605, 3046.772
744.3426, 3046.697
744.8247, 3053.580
745.3068, 3052.011
745.7889, 3038.615
746.2711, 3026.672
746.7532, 3024.552
747.2353, 3030.472
747.7174, 3047.576
748.1995, 3072.415
748.6816, 3082.215
749.1638, 3066.058
749.6459, 3034.654
750.1280, 3055.364
750.6101, 3068.969
751.0922, 3075.849
751.5743, 3055.863
752.0565, 3070.570
752.5386, 3071.372
753.0207, 3071.605
753.5028, 3091.193
753.9849, 3075.115
754.4670, 3094.396
754.9492, 3099.564
755.4313, 3111.190
755.9134, 3108.828
756.3955, 3110.787
756.8776, 3126.738
757.3597, 3079.463
757.8419, 3053.172
758.3240, 3069.168
758.8061, 3124.228
759.2882, 3147.469
759.7703, 3124.104
760.2524, 3105.007
760.7346, 3104.241
761.2167, 3114.884
761.6988, 3134.956
762.1809, 3163.205
762.6630, 3180.022
763.1451, 3169.917
763.6273, 3159.061
764.1094, 3163.724
764.5915, 3175.765
765.0736, 3184.437
765.5557, 3187.136
766.0378, 3185.107
766.5200, 3177.293
767.0021, 3167.727
767.4842, 3169.947
767.9663, 3184.826
768.4484, 3200.705
768.9305, 3214.958
769.4127, 3229.490
769.8948, 3248.851
770.3769, 3271.799
770.8590, 3280.592
771.3411, 3260.833
771.8232, 3246.563
772.3054, 3248.312
772.7875, 3255.487
773.2696, 3256.339
773.7517, 3253.618
774.2338, 3262.448
774.7159, 3296.686
775.1981, 3331.822
775.6802, 3326.849
776.1623, 3294.005
776.6444, 3283.267
777.1265, 3302.964
777.6086, 3324.939
778.0908, 3329.367
778.5729, 3321.295
779.0550, 3318.509
779.5371, 3323.947
780.0192, 3329.008
780.5013, 3335.585
780.9835, 3339.594
781.4656, 3336.738
781.9477, 3330.489
782.4298, 3327.518
782.9119, 3330.043
783.3940, 3333.478
783.8762, 3333.195
784.3583, 3333.408
784.8404, 3341.922
785.3225, 3356.365
785.8046, 3365.907
786.2867, 3365.235
786.7689, 3360.860
787.2510, 3364.694
787.7331, 3377.809
788.2152, 3381.081
788.6973, 3370.582
789.1794, 3359.953
789.6616, 3354.051
790.1437, 3351.808
790.6258, 3350.746
791.1079, 3350.193
791.5900, 3355.775
792.0721, 3379.089
792.5543, 3397.035
793.0364, 3396.951
793.5185, 3384.676
794.0006, 3363.636
794.4827, 3337.555
794.9648, 3320.941
795.4470, 3332.333
795.9291, 3357.354
796.4112, 3362.104
796.8933, 3349.209
797.3754, 3345.821
797.8575, 3360.650
798.3397, 3379.006
798.8218, 3386.415
799.3039, 3383.522
799.7860, 3379.279
800.2681, 3371.361
800.7502, 3365.815
801.2324, 3365.840
801.7145, 3366.110
802.1966, 3361.313
802.6787, 3353.668
803.1608, 3351.528
803.6429, 3363.290
804.1251, 3370.114
804.6072, 3350.331
805.0893, 3323.260
805.5714, 3318.572
806.0535, 3334.958
806.5356, 3351.315
807.0178, 3355.787
807.4999, 3352.213
807.9820, 3346.528
808.4641, 3338.624
808.9462, 3331.291
809.4283, 3323.662
809.9105, 3320.077
810.3926, 3325.085
810.8747, 3333.986
811.3568, 3336.270
811.8389, 3327.939
812.3210, 3327.296
812.8032, 3341.015
813.2853, 3356.346
813.7674, 3372.751
814.2495, 3384.800
814.7317, 3382.958
815.2138, 3366.560
815.6959, 3350.518
816.1780, 3348.197
816.6602, 3350.850
817.1423, 3345.183
817.6244, 3333.423
818.1065, 3322.510
818.5886, 3314.451
819.0707, 3312.150
819.5529, 3320.485
820.0350, 3336.219
820.5171, 3334.396
820.9992, 3303.394
821.4813, 3288.843
821.9634, 3307.290
822.4456, 3334.215
822.9277, 3357.810
823.4098, 3375.412
823.8919, 3376.444
824.3740, 3346.334
824.8561, 3322.685
825.3383, 3317.008
825.8204, 3321.420
826.3025, 3333.781
826.7846, 3350.058
827.2667, 3364.807
827.7488, 3376.262
828.2310, 3378.493
828.7131, 3355.279
829.1952, 3319.047
829.6773, 3309.726
830.1594, 3327.314
830.6415, 3338.682
831.1237, 3328.094
831.6058, 3310.315
832.0879, 3307.314
832.5700, 3320.470
833.0521, 3334.146
833.5342, 3346.755
834.0164, 3362.570
834.4985, 3396.423
834.9806, 3424.154
835.4627, 3416.411
835.9448, 3377.424
836.4269, 3354.970
836.9091, 3367.049
837.3912, 3390.481
837.8733, 3428.896
838.3554, 3463.833
838.8375, 3468.037
839.3196, 3446.216
839.8018, 3426.880
840.2839, 3425.881
840.7660, 3439.286
841.2481, 3470.466
841.7302, 3512.133
842.2123, 3528.278
842.6945, 3514.604
843.1766, 3502.817
843.6587, 3511.350
844.1408, 3531.474
844.6229, 3545.187
845.1050, 3550.679
845.5872, 3556.929
846.0693, 3566.987
846.5514, 3573.466
847.0335, 3567.905
847.5156, 3561.109
847.9977, 3568.719
848.4799, 3591.910
848.9620, 3603.935
849.4441, 3590.633
849.9262, 3572.249
850.4083, 3555.449
850.8904, 3542.557
851.3726, 3536.889
851.8547, 3538.096
852.3368, 3542.542
852.8189, 3548.715
853.3010, 3554.907
853.7831, 3556.865
854.2653, 3556.306
854.7474, 3563.326
855.2295, 3579.262
855.7116, 3586.573
856.1937, 3572.891
856.6758, 3546.404
857.1580, 3526.463
857.6401, 3513.539
858.1222, 3505.291
858.6043, 3504.393
859.0864, 3503.950
859.5685, 3502.590
860.0507, 3499.159
860.5328, 3492.269
861.0149, 3481.868
861.4970, 3468.128
861.9791, 3440.957
862.4612, 3422.146
862.9434, 3429.657
863.4255, 3446.552
863.9076, 3451.146
864.3897, 3442.640
864.8718, 3436.983
865.3539, 3447.136
865.8361, 3459.199
866.3182, 3452.887
866.8003, 3435.558
867.2824, 3427.610
867.7645, 3430.676
868.2466, 3429.986
868.7288, 3415.558
869.2109, 3395.753
869.6930, 3389.467
870.1751, 3398.582
870.6572, 3403.462
871.1393, 3403.274
871.6215, 3399.491
872.1036, 3390.817
872.5857, 3380.637
873.0678, 3374.028
873.5499, 3371.280
874.0320, 3370.743
874.5142, 3372.711
874.9963, 3376.502
875.4784, 3382.749
875.9605, 3390.137
876.4426, 3401.793
876.9247, 3414.391
877.4069, 3413.562
877.8890, 3383.512
878.3711, 3355.225
878.8532, 3351.976
879.3353, 3364.264
879.8174, 3385.867
880.2996, 3410.917
880.7817, 3424.101
881.2638, 3417.396
881.7459, 3402.552
882.2280, 3394.518
882.7101, 3392.860
883.1923, 3397.417
883.6744, 3408.656
884.1565, 3411.838
884.6386, 3399.406
885.1207, 3383.670
885.6028, 3379.469
886.0850, 3386.813
886.5671, 3402.005
887.0492, 3436.917
887.5313, 3457.697
888.0134, 3446.088
888.4955, 3429.969
888.9777, 3428.147
889.4598, 3437.434
889.9419, 3447.286
890.4240, 3457.433
890.9061, 3465.769
891.3882, 3472.764
891.8704, 3476.735
892.3525, 3472.677
892.8346, 3465.791
893.3167, 3466.754
893.7988, 3478.537
894.2809, 3490.297
894.7631, 3492.828
895.2452, 3490.910
895.7273, 3493.946
896.2094, 3498.079
896.6915, 3488.046
897.1736, 3461.767
897.6558, 3439.257
898.1379, 3438.118
898.6200, 3451.798
899.1021, 3463.580
899.5842, 3473.672
900.0663, 3473.651
900.5485, 3459.189
901.0306, 3448.783
901.5127, 3455.522
901.9948, 3471.341
902.4769, 3478.839
902.9590, 3478.726
903.4412, 3467.332
903.9233, 3423.742
904.4054, 3396.390
904.8875, 3418.700
905.3696, 3450.192
905.8517, 3443.761
906.3339, 3401.085
906.8160, 3373.025
907.2981, 3381.626
907.7802, 3394.498
908.2623, 3405.500
908.7444, 3409.513
909.2266, 3395.435
909.7087, 3370.220
910.1908, 3356.063
910.6729, 3364.534
911.1550, 3372.563
911.6371, 3350.194
912.1193, 3318.361
912.6014, 3315.842
913.0835, 3336.243
913.5656, 3348.365
914.0477, 3341.738
914.5298, 3330.555
915.0120, 3331.427
915.4941, 3339.538
915.9762, 3332.823
916.4583, 3310.859
916.9404, 3299.367
917.4225, 3306.230
917.9047, 3310.667
918.3868, 3294.478
918.8689, 3267.217
919.3510, 3260.452
919.8331, 3285.263
920.3152, 3302.261
920.7974, 3309.488
921.2795, 3311.556
921.7616, 3304.938
922.2437, 3297.189
922.7258, 3299.044
923.2079, 3311.295
923.6901, 3319.081
924.1722, 3320.370
924.6543, 3316.901
925.1364, 3305.207
925.6185, 3292.189
926.1006, 3281.502
926.5828, 3275.098
927.0649, 3278.099
927.5470, 3296.663
928.0291, 3310.441
928.5112, 3300.063
928.9933, 3281.052
929.4755, 3270.656
929.9576, 3267.737
930.4397, 3265.013
930.9218, 3260.386
931.4039, 3259.592
931.8860, 3270.963
932.3682, 3288.023
932.8503, 3296.983
933.3324, 3298.295
933.8145, 3291.090
934.2966, 3275.416
934.7787, 3266.497
935.2609, 3276.115
935.7430, 3296.270
936.2251, 3309.493
936.7072, 3316.375
937.1893, 3306.321
937.6714, 3270.069
938.1536, 3249.057
938.6357, 3268.164
939.1178, 3299.359
939.5999, 3303.537
940.0820, 3278.859
940.5641, 3264.570
941.0463, 3265.948
941.5284, 3269.780
942.0105, 3277.537
942.4926, 3284.098
942.9747, 3287.143
943.4568, 3286.307
943.9390, 3280.616
944.4211, 3268.797
944.9032, 3255.458
945.3853, 3235.225
945.8674, 3220.717
946.3495, 3223.825
946.8317, 3235.129
947.3138, 3243.209
947.7959, 3245.377
948.2780, 3241.473
948.7601, 3227.862
949.2422, 3212.525
949.7244, 3196.566
950.2065, 3186.157
950.6886, 3196.354
951.1707, 3221.712
951.6528, 3238.608
952.1349, 3235.543
952.6171, 3224.062
953.0992, 3214.406
953.5813, 3207.848
954.0634, 3210.081
954.5455, 3219.334
955.0276, 3225.086
955.5098, 3224.354
955.9919, 3221.791
956.4740, 3222.175
956.9561, 3223.151
957.4382, 3215.479
957.9203, 3198.693
958.4025, 3185.901
958.8846, 3178.595
959.3667, 3175.555
959.8488, 3176.765
960.3309, 3180.801
960.8130, 3185.834
961.2952, 3192.410
961.7773, 3194.508
962.2594, 3190.866
962.7415, 3185.112
963.2236, 3175.857
963.7057, 3167.130
964.1879, 3161.129
964.6700, 3158.375
965.1521, 3161.240
965.6342, 3176.314
966.1163, 3184.987
966.5984, 3181.099
967.0806, 3175.928
967.5627, 3174.622
968.0448, 3175.122
968.5269, 3175.904
969.0090, 3176.455
969.4911, 3171.388
969.9733, 3152.953
970.4554, 3135.977
970.9375, 3120.753
971.4196, 3115.560
971.9017, 3138.805
972.3839, 3178.119
972.8660, 3197.494
973.3481, 3181.321
973.8302, 3165.043
974.3123, 3183.215
974.7944, 3207.585
975.2766, 3206.499
975.7587, 3186.924
976.2408, 3159.666
976.7229, 3130.914
977.2050, 3116.010
977.6871, 3129.098
978.1693, 3153.206
978.6514, 3165.132
979.1335, 3167.411
979.6156, 3165.459
980.0977, 3160.299
980.5798, 3152.695
981.0620, 3142.962
981.5441, 3136.399
982.0262, 3141.442
982.5083, 3154.516
982.9904, 3161.061
983.4725, 3161.061
983.9547, 3148.552
984.4368, 3120.104
984.9189, 3107.318
985.4010, 3136.901
985.8831, 3185.322
986.3652, 3195.434
986.8474, 3160.827
987.3295, 3134.214
987.8116, 3113.497
988.2937, 3110.085
988.7758, 3134.295
989.2579, 3164.801
989.7401, 3179.559
990.2222, 3180.397
990.7043, 3184.287
991.1864, 3195.321
991.6685, 3200.445
992.1506, 3194.448
992.6328, 3188.492
993.1149, 3192.642
993.5970, 3197.752
994.0791, 3184.110
994.5612, 3146.907
995.0433, 3133.607
995.5255, 3173.373
996.0076, 3200.018
996.4897, 3189.844
996.9718, 3170.503
997.4539, 3157.381
997.9360, 3152.246
998.4182, 3158.147
998.9003, 3180.976
999.3824, 3195.029
999.8645, 3183.542
1000.347, 3172.205
1000.829, 3175.144
1001.311, 3185.737
1001.793, 3201.013
1002.275, 3216.583
1002.757, 3216.106
1003.239, 3180.991
1003.721, 3153.259
1004.204, 3160.856
1004.686, 3183.320
1005.168, 3208.233
1005.650, 3230.427
1006.132, 3244.948
1006.614, 3250.275
1007.096, 3245.400
1007.578, 3222.159
1008.060, 3196.774
1008.543, 3185.836
1009.025, 3183.252
1009.507, 3180.784
1009.989, 3177.231
1010.471, 3172.738
1010.953, 3167.346
1011.435, 3164.563
1011.917, 3168.672
1012.400, 3177.494
1012.882, 3189.365
1013.364, 3202.476
1013.846, 3214.413
1014.328, 3223.292
1014.810, 3218.282
1015.292, 3189.425
1015.774, 3159.972
1016.256, 3176.338
1016.739, 3222.174
1017.221, 3235.839
1017.703, 3219.029
1018.185, 3205.199
1018.667, 3204.915
1019.149, 3212.919
1019.631, 3226.374
1020.113, 3240.396
1020.596, 3239.911
1021.078, 3225.981
1021.560, 3210.602
1022.042, 3194.712
1022.524, 3188.975
1023.006, 3199.518
1023.488, 3212.518
1023.970, 3207.755
1024.452, 3189.503
1024.935, 3193.431
1025.417, 3223.202
1025.899, 3234.128
1026.381, 3214.585
1026.863, 3198.782
1027.345, 3208.977
1027.827, 3230.400
1028.309, 3235.483
1028.792, 3223.136
1029.274, 3210.688
1029.756, 3195.179
1030.238, 3191.420
1030.720, 3206.767
1031.202, 3226.259
1031.684, 3241.220
1032.166, 3249.584
1032.648, 3243.816
1033.130, 3217.376
1033.613, 3200.281
1034.095, 3192.210
1034.577, 3194.996
1035.059, 3215.877
1035.541, 3239.077
1036.023, 3249.459
1036.505, 3248.841
1036.987, 3247.684
1037.470, 3247.663
1037.952, 3243.624
1038.434, 3232.347
1038.916, 3221.393
1039.398, 3208.709
1039.880, 3201.566
1040.362, 3212.645
1040.844, 3241.200
1041.327, 3259.096
1041.809, 3258.283
1042.291, 3259.061
1042.773, 3267.134
1043.255, 3272.068
1043.737, 3267.025
1044.219, 3256.703
1044.701, 3247.939
1045.183, 3241.111
1045.666, 3233.041
1046.148, 3216.058
1046.630, 3208.292
1047.112, 3219.547
1047.594, 3234.574
1048.076, 3245.399
1048.558, 3252.381
1049.040, 3257.608
1049.522, 3261.724
1050.005, 3260.680
1050.487, 3240.338
1050.969, 3232.441
1051.451, 3263.323
1051.933, 3295.870
1052.415, 3296.875
1052.897, 3276.033
1053.379, 3261.349
1053.862, 3257.657
1054.344, 3259.027
1054.826, 3268.203
1055.308, 3277.036
1055.790, 3284.699
1056.272, 3288.261
1056.754, 3280.950
1057.236, 3267.114
1057.719, 3262.017
1058.201, 3272.428
1058.683, 3281.475
1059.165, 3281.052
1059.647, 3281.149
1060.129, 3291.742
1060.611, 3302.735
1061.093, 3299.267
1061.575, 3284.175
1062.058, 3276.476
1062.540, 3286.260
1063.022, 3293.284
1063.504, 3285.694
1063.986, 3277.440
1064.468, 3280.299
1064.950, 3286.417
1065.432, 3282.926
1065.915, 3270.494
1066.397, 3263.255
1066.879, 3268.732
1067.361, 3275.300
1067.843, 3279.725
1068.325, 3281.587
1068.807, 3278.551
1069.289, 3273.784
1069.771, 3270.100
1070.254, 3268.827
1070.736, 3275.022
1071.218, 3298.692
1071.700, 3317.872
1072.182, 3318.261
1072.664, 3313.978
1073.146, 3319.119
1073.628, 3326.469
1074.110, 3319.047
1074.593, 3295.793
1075.075, 3281.370
1075.557, 3293.626
1076.039, 3307.382
1076.521, 3309.002
1077.003, 3308.383
1077.485, 3317.147
1077.967, 3328.795
1078.450, 3327.960
1078.932, 3312.367
1079.414, 3302.459
1079.896, 3313.146
1080.378, 3324.137
1080.860, 3326.316
1081.342, 3323.530
1081.824, 3317.622
1082.307, 3310.020
1082.789, 3302.227
1083.271, 3294.583
1083.753, 3288.591
1084.235, 3281.987
1084.717, 3280.806
1085.199, 3293.175
1085.681, 3307.865
1086.163, 3315.670
1086.646, 3317.377
1087.128, 3315.196
1087.610, 3309.542
1088.092, 3307.200
1088.574, 3313.966
1089.056, 3320.901
1089.538, 3322.333
1090.020, 3323.228
1090.502, 3325.391
1090.985, 3331.411
1091.467, 3349.709
1091.949, 3383.254
1092.431, 3402.909
1092.913, 3388.061
1093.395, 3369.633
1093.877, 3363.474
1094.359, 3358.191
1094.842, 3335.353
1095.324, 3307.622
1095.806, 3307.374
1096.288, 3343.823
1096.770, 3371.970
1097.252, 3370.632
1097.734, 3367.193
1098.216, 3380.089
1098.698, 3388.645
1099.181, 3366.443
1099.663, 3328.882
1100.145, 3312.130
1100.627, 3324.620
1101.109, 3334.212
1101.591, 3330.068
1102.073, 3325.595
1102.555, 3323.602
1103.037, 3324.630
1103.520, 3332.886
1104.002, 3343.221
1104.484, 3342.251
1104.966, 3325.025
1105.448, 3321.559
1105.930, 3352.721
1106.412, 3376.713
1106.894, 3371.546
1107.377, 3365.735
1107.859, 3388.617
1108.341, 3422.909
1108.823, 3430.072
1109.305, 3402.785
1109.787, 3379.852
1110.269, 3362.193
1110.751, 3352.675
1111.234, 3360.694
1111.716, 3368.025
1112.198, 3354.146
1112.680, 3334.687
1113.162, 3344.885
1113.644, 3392.913
1114.126, 3419.342
1114.608, 3410.941
1115.090, 3401.243
1115.573, 3391.819
1116.055, 3385.684
1116.537, 3385.940
1117.019, 3389.751
1117.501, 3392.944
1117.983, 3395.846
1118.465, 3393.452
1118.947, 3378.915
1119.429, 3374.345
1119.912, 3391.059
1120.394, 3402.738
1120.876, 3389.647
1121.358, 3369.332
1121.840, 3370.578
1122.322, 3393.451
1122.804, 3415.260
1123.286, 3438.513
1123.769, 3452.684
1124.251, 3457.105
1124.733, 3449.020
1125.215, 3422.444
1125.697, 3392.250
1126.179, 3379.319
1126.661, 3382.233
1127.143, 3385.417
1127.625, 3388.515
1128.108, 3395.253
1128.590, 3407.105
1129.072, 3416.150
1129.554, 3418.232
1130.036, 3418.428
1130.518, 3423.357
1131.000, 3431.139
1131.482, 3432.489
1131.964, 3427.472
1132.447, 3420.783
1132.929, 3412.718
1133.411, 3418.404
1133.893, 3444.767
1134.375, 3469.588
1134.857, 3469.409
1135.339, 3453.025
1135.821, 3440.366
1136.304, 3431.958
1136.786, 3432.542
1137.268, 3441.058
1137.750, 3445.768
1138.232, 3443.444
1138.714, 3446.662
1139.196, 3468.526
1139.678, 3493.568
1140.161, 3493.524
1140.643, 3476.795
1141.125, 3462.346
1141.607, 3451.042
1142.089, 3441.278
1142.571, 3432.582
1143.053, 3424.600
1143.535, 3416.261
1144.017, 3412.449
1144.500, 3421.366
1144.982, 3436.453
1145.464, 3450.239
1145.946, 3461.727
1146.428, 3469.443
1146.910, 3473.804
1147.392, 3478.596
1147.874, 3487.099
1148.356, 3487.719
1148.839, 3460.485
1149.321, 3432.552
1149.803, 3430.864
1150.285, 3442.746
1150.767, 3453.051
1151.249, 3459.407
1151.731, 3462.332
1152.213, 3461.260
1152.696, 3462.551
1153.178, 3471.296
1153.660, 3480.565
1154.142, 3485.557
1154.624, 3490.379
1155.106, 3501.337
1155.588, 3514.581
1156.070, 3521.870
1156.552, 3522.029
1157.035, 3515.037
1157.517, 3489.916
1157.999, 3473.184
1158.481, 3477.096
1158.963, 3485.660
1159.445, 3489.890
1159.927, 3491.778
1160.409, 3493.974
1160.891, 3496.360
1161.374, 3504.575
1161.856, 3528.872
1162.338, 3539.590
1162.820, 3528.115
1163.302, 3513.390
1163.784, 3500.522
1164.266, 3492.015
1164.748, 3490.914
1165.231, 3496.741
1165.713, 3508.123
1166.195, 3528.791
1166.677, 3536.936
1167.159, 3528.927
1167.641, 3520.313
1168.123, 3515.818
1168.605, 3514.786
1169.088, 3517.758
1169.570, 3521.249
1170.052, 3511.522
1170.534, 3490.704
1171.016, 3497.251
1171.498, 3530.104
1171.980, 3552.244
1172.462, 3555.257
1172.944, 3552.266
1173.427, 3551.362
1173.909, 3551.441
1174.391, 3550.320
1174.873, 3549.138
1175.355, 3552.169
1175.837, 3557.387
1176.319, 3557.511
1176.801, 3553.116
1177.283, 3551.988
1177.766, 3557.427
1178.248, 3563.914
1178.730, 3567.070
1179.212, 3568.173
1179.694, 3566.751
1180.176, 3565.520
1180.658, 3570.130
1181.140, 3577.555
1181.623, 3579.838
1182.105, 3575.507
1182.587, 3570.945
1183.069, 3568.295
1183.551, 3567.789
1184.033, 3569.989
1184.515, 3573.904
1184.997, 3580.764
1185.479, 3587.668
1185.962, 3568.467
1186.444, 3586.713
1186.926, 3597.921
1187.408, 3602.468
1187.890, 3580.403
1188.372, 3592.701
1188.854, 3591.229
1189.336, 3589.192
1189.818, 3606.326
1190.301, 3588.137
1190.783, 3604.968
1191.265, 3607.817
1191.747, 3617.065
1192.229, 3612.458
1192.711, 3612.130
1193.193, 3625.663
1193.675, 3631.521
1194.158, 3625.322
1194.640, 3634.978
1195.122, 3616.299
1195.604, 3622.484
1196.086, 3639.396
1196.568, 3633.890
1197.050, 3643.799
1197.532, 3647.836
1198.015, 3625.199
1198.497, 3648.956
1198.979, 3652.647
1199.461, 3635.735
1199.943, 3657.901
1200.425, 3643.829
1200.907, 3642.692
1201.389, 3651.290
1201.871, 3649.740
1202.354, 3664.193
1202.836, 3663.229
1203.318, 3660.887
1203.800, 3664.556
1204.282, 3651.194
1204.764, 3669.427
1205.246, 3666.078
1205.728, 3667.844
1206.210, 3680.729
1206.693, 3693.106
1207.175, 3677.276
1207.657, 3644.293
1208.139, 3623.542
1208.621, 3621.157
1209.103, 3633.666
1209.585, 3687.038
1210.067, 3716.271
1210.550, 3684.143
1211.032, 3645.564
1211.514, 3623.680
1211.996, 3619.630
1212.478, 3639.711
1212.960, 3679.933
1213.442, 3703.105
1213.924, 3703.074
1214.406, 3703.213
1214.889, 3705.513
1215.371, 3702.226
1215.853, 3688.488
1216.335, 3677.109
1216.817, 3678.917
1217.299, 3688.202
1217.781, 3694.038
1218.263, 3696.280
1218.745, 3691.594
1219.228, 3681.004
1219.710, 3675.449
1220.192, 3676.155
1220.674, 3677.075
1221.156, 3675.372
1221.638, 3672.009
1222.120, 3666.229
1222.602, 3661.813
1223.085, 3663.275
1223.567, 3670.735
1224.049, 3689.777
1224.531, 3713.345
1225.013, 3725.545
1225.495, 3724.088
1225.977, 3717.594
1226.459, 3707.563
1226.942, 3700.685
1227.424, 3702.295
1227.906, 3706.154
1228.388, 3707.413
1228.870, 3709.847
1229.352, 3721.336
1229.834, 3736.724
1230.316, 3738.615
1230.798, 3719.928
1231.281, 3718.018
1231.763, 3751.225
1232.245, 3768.887
1232.727, 3757.513
1233.209, 3742.440
1233.691, 3733.018
1234.173, 3731.283
1234.655, 3742.304
1235.137, 3761.223
1235.620, 3762.911
1236.102, 3746.948
1236.584, 3748.048
1237.066, 3767.120
1237.548, 3775.127
1238.030, 3764.694
1238.512, 3745.334
1238.994, 3722.157
1239.477, 3704.568
1239.959, 3710.544
1240.441, 3727.157
1240.923, 3726.272
1241.405, 3721.136
1241.887, 3745.886
1242.369, 3789.386
1242.851, 3809.748
1243.333, 3795.879
1243.816, 3776.980
1244.298, 3760.321
1244.780, 3755.738
1245.262, 3786.438
1245.744, 3810.432
1246.226, 3785.680
1246.708, 3747.856
1247.190, 3742.547
1247.672, 3765.082
1248.155, 3782.083
1248.637, 3792.658
1249.119, 3795.030
1249.601, 3786.289
1250.083, 3774.651
1250.565, 3757.117
1251.047, 3749.446
1251.529, 3762.923
1252.012, 3784.613
1252.494, 3797.916
1252.976, 3802.852
1253.458, 3793.539
1253.940, 3773.903
1254.422, 3781.359
1254.904, 3814.311
1255.386, 3845.932
1255.869, 3867.244
1256.351, 3869.612
1256.833, 3843.789
1257.315, 3820.450
1257.797, 3843.144
1258.279, 3875.783
1258.761, 3878.353
1259.243, 3863.447
1259.725, 3842.039
1260.208, 3821.725
1260.690, 3815.503
1261.172, 3825.899
1261.654, 3836.573
1262.136, 3846.646
1262.618, 3850.116
1263.100, 3836.603
1263.582, 3827.637
1264.064, 3842.204
1264.547, 3854.805
1265.029, 3835.340
1265.511, 3799.409
1265.993, 3795.834
1266.475, 3828.486
1266.957, 3853.357
1267.439, 3870.458
1267.921, 3878.012
1268.404, 3875.485
1268.886, 3874.445
1269.368, 3880.498
1269.850, 3884.820
1270.332, 3876.624
1270.814, 3864.321
1271.296, 3862.178
1271.778, 3866.498
1272.260, 3873.169
1272.743, 3879.510
1273.225, 3878.359
1273.707, 3871.705
1274.189, 3872.321
##END=



