##NAMES=Fizelyite
##RRUFFID=R060175
##IDEAL CHEMISTRY=Ag^1+^_5_Pb^2+^_14_Sb^3+^_21_S^2-^_48_
##LOCALITY=Van Silver mine, Squamish, British Columbia, Canada
##OWNER=RRUFF
##SOURCE=Ty Balacko
##DESCRIPTION=Dark gray deeply-striated single crystals
##STATUS=The identification of this mineral is confirmed by single-crystal X-ray diffraction and chemical analysis.
##URL=rruff.info/R060175
##MEASURED CHEMISTRY=Pb_13.74_Ag_5.94_Sb_20.87_S_48.00_
110.916, 109.987
111.399, 112.751
111.881, 113.224
112.363, 115.987
112.845, 123.173
113.327, 131.237
113.809, 139.838
114.291, 149.157
114.773, 157.424
115.256, 161.973
115.738, 165.635
116.220, 172.083
116.702, 182.680
117.184, 196.193
117.666, 213.213
118.148, 236.113
118.630, 256.628
119.112, 268.272
119.595, 273.890
120.077, 280.679
120.559, 295.095
121.041, 311.105
121.523, 322.862
122.005, 325.641
122.487, 327.379
122.969, 335.237
123.451, 334.307
123.934, 343.409
124.416, 350.076
124.898, 354.439
125.380, 349.597
125.862, 356.641
126.344, 358.921
126.826, 363.560
127.308, 364.529
127.790, 364.318
128.273, 368.650
128.755, 371.879
129.237, 374.064
129.719, 372.082
130.201, 375.481
130.683, 376.724
131.165, 377.879
131.648, 382.036
132.130, 380.660
132.612, 384.769
133.094, 386.689
133.576, 388.101
134.058, 398.698
134.540, 408.774
135.022, 417.653
135.504, 424.586
135.986, 426.305
136.469, 421.800
136.951, 416.771
137.433, 415.239
137.915, 417.358
138.397, 422.434
138.879, 432.415
139.361, 446.071
139.843, 451.108
140.326, 444.132
140.808, 434.341
141.290, 431.798
141.772, 439.632
142.254, 446.740
142.736, 450.653
143.218, 451.269
143.700, 449.223
144.182, 442.080
144.665, 433.881
145.147, 431.535
145.629, 440.871
146.111, 447.865
146.593, 447.729
147.075, 436.787
147.557, 426.784
148.039, 415.663
148.521, 405.608
149.004, 401.948
149.486, 408.317
149.968, 417.990
150.450, 428.486
150.932, 443.429
151.414, 454.707
151.896, 461.838
152.378, 465.148
152.861, 466.052
153.343, 461.374
153.825, 456.459
154.307, 454.342
154.789, 462.010
155.271, 465.537
155.753, 459.541
156.235, 444.709
156.717, 434.409
157.200, 432.766
157.682, 435.911
158.164, 440.544
158.646, 447.194
159.128, 454.046
159.610, 461.754
160.092, 470.722
160.574, 475.513
161.057, 469.378
161.539, 459.178
162.021, 453.469
162.503, 459.281
162.985, 467.334
163.467, 473.438
163.949, 477.258
164.431, 478.241
164.913, 472.928
165.396, 464.692
165.878, 459.707
166.360, 464.432
166.842, 471.382
167.324, 474.514
167.806, 471.490
168.288, 468.016
168.770, 468.113
169.253, 470.822
169.735, 473.436
170.217, 475.492
170.699, 476.258
171.181, 474.702
171.663, 469.570
172.145, 463.587
172.627, 456.783
173.109, 450.152
173.592, 448.380
174.074, 461.138
174.556, 479.716
175.038, 489.810
175.520, 481.531
176.002, 468.157
176.484, 467.717
176.966, 479.299
177.449, 490.152
177.931, 486.056
178.413, 473.245
178.895, 465.907
179.377, 473.507
179.859, 487.769
180.341, 495.233
180.823, 495.811
181.305, 492.608
181.788, 486.329
182.270, 478.191
182.752, 472.348
183.234, 470.806
183.716, 472.853
184.198, 478.236
184.680, 487.732
185.162, 496.186
185.645, 497.890
186.127, 493.146
186.609, 484.161
187.091, 466.889
187.573, 445.022
188.055, 435.330
188.537, 440.288
189.019, 452.289
189.501, 460.855
189.984, 466.136
190.466, 470.483
190.948, 476.261
191.430, 482.885
191.912, 484.401
192.394, 478.679
192.876, 470.631
193.358, 469.798
193.840, 471.823
194.323, 473.154
194.805, 473.828
195.287, 471.881
195.769, 473.319
196.251, 473.400
196.733, 473.426
197.215, 475.341
197.697, 473.775
198.180, 475.660
198.662, 476.167
199.144, 477.305
199.626, 477.077
200.108, 477.236
200.590, 473.991
201.072, 471.222
201.554, 468.454
202.036, 467.743
202.519, 471.271
203.001, 479.528
203.483, 488.475
203.965, 497.860
204.447, 507.424
204.929, 515.679
205.411, 523.102
205.893, 528.125
206.376, 527.756
206.858, 520.015
207.340, 516.444
207.822, 521.617
208.304, 534.470
208.786, 538.782
209.268, 531.323
209.750, 521.080
210.232, 517.873
210.714, 523.743
211.197, 529.906
211.679, 535.145
212.161, 539.533
212.643, 539.537
213.125, 534.066
213.607, 525.741
214.089, 516.515
214.572, 504.425
215.054, 496.668
215.536, 495.593
216.018, 501.580
216.500, 510.453
216.982, 524.203
217.464, 538.612
217.946, 547.946
218.428, 550.651
218.911, 551.445
219.393, 550.688
219.875, 547.413
220.357, 549.338
220.839, 560.616
221.321, 573.739
221.803, 576.460
222.285, 562.794
222.767, 550.673
223.250, 547.226
223.732, 555.881
224.214, 557.830
224.696, 548.221
225.178, 535.122
225.660, 532.914
226.142, 547.272
226.624, 562.513
227.107, 573.333
227.589, 579.257
228.071, 582.489
228.553, 582.726
229.035, 580.383
229.517, 576.012
229.999, 567.786
230.481, 560.334
230.963, 555.352
231.445, 553.097
231.928, 552.858
232.410, 556.786
232.892, 561.953
233.374, 560.930
233.856, 548.943
234.338, 538.224
234.820, 533.838
235.303, 538.371
235.785, 543.550
236.267, 551.709
236.749, 559.915
237.231, 559.916
237.713, 546.896
238.195, 532.807
238.677, 522.086
239.159, 513.270
239.641, 511.605
240.124, 520.842
240.606, 536.450
241.088, 546.003
241.570, 545.857
242.052, 544.791
242.534, 547.104
243.016, 556.138
243.498, 561.033
243.981, 559.779
244.463, 554.624
244.945, 552.179
245.427, 553.433
245.909, 555.965
246.391, 559.095
246.873, 564.478
247.355, 566.471
247.837, 563.289
248.320, 556.915
248.802, 552.937
249.284, 550.489
249.766, 551.786
250.248, 558.844
250.730, 576.094
251.212, 588.954
251.694, 597.655
252.176, 601.651
252.659, 598.175
253.141, 581.435
253.623, 566.296
254.105, 560.286
254.587, 566.781
255.069, 574.153
255.551, 582.904
256.033, 592.109
256.516, 599.348
256.998, 604.796
257.480, 607.994
257.962, 607.503
258.444, 599.544
258.926, 599.333
259.408, 612.155
259.890, 631.484
260.372, 636.020
260.855, 616.637
261.337, 599.473
261.819, 600.571
262.301, 630.141
262.783, 644.434
263.265, 635.830
263.747, 613.908
264.229, 605.207
264.711, 615.696
265.194, 626.676
265.676, 626.956
266.158, 611.944
266.640, 605.289
267.122, 610.410
267.604, 622.672
268.086, 630.890
268.569, 634.831
269.051, 635.571
269.533, 633.476
270.015, 628.393
270.497, 620.735
270.979, 608.956
271.461, 595.983
271.943, 589.450
272.425, 591.230
272.908, 593.148
273.390, 589.703
273.872, 579.433
274.354, 576.663
274.836, 584.966
275.318, 597.150
275.800, 597.683
276.282, 584.247
276.764, 569.869
277.247, 559.779
277.729, 554.066
278.211, 553.030
278.693, 558.107
279.175, 565.514
279.657, 568.946
280.139, 568.237
280.621, 564.723
281.103, 556.563
281.586, 543.883
282.068, 539.557
282.550, 546.205
283.032, 555.835
283.514, 553.286
283.996, 537.725
284.478, 526.704
284.960, 532.342
285.443, 552.518
285.925, 561.390
286.407, 557.253
286.889, 547.324
287.371, 540.092
287.853, 535.535
288.335, 533.153
288.817, 534.230
289.299, 537.725
289.782, 538.622
290.264, 536.878
290.746, 532.691
291.228, 524.229
291.710, 512.351
292.192, 503.407
292.674, 501.217
293.156, 503.774
293.638, 506.667
294.121, 510.228
294.603, 511.077
295.085, 502.961
295.567, 488.273
296.049, 476.462
296.531, 471.719
297.013, 471.911
297.496, 474.375
297.978, 479.157
298.460, 482.634
298.942, 479.814
299.424, 472.936
299.906, 467.619
300.388, 465.800
300.870, 466.575
301.352, 468.936
301.835, 472.856
302.317, 477.977
302.799, 486.878
303.281, 496.421
303.763, 501.218
304.245, 499.410
304.727, 492.241
305.209, 476.745
305.691, 454.412
306.174, 437.554
306.656, 436.922
307.138, 445.652
307.620, 455.556
308.102, 468.733
308.584, 476.685
309.066, 467.138
309.548, 444.426
310.030, 426.552
310.513, 425.045
310.995, 432.419
311.477, 442.908
311.959, 458.930
312.441, 470.784
312.923, 469.434
313.405, 458.674
313.887, 448.954
314.370, 445.709
314.852, 444.663
315.334, 443.066
315.816, 440.802
316.298, 437.099
316.780, 430.260
317.262, 421.782
317.744, 414.541
318.226, 407.473
318.709, 403.600
319.191, 406.040
319.673, 418.010
320.155, 426.277
320.637, 423.240
321.119, 415.097
321.601, 410.653
322.083, 416.944
322.565, 422.864
323.048, 423.948
323.530, 418.676
324.012, 414.953
324.494, 417.038
324.976, 420.059
325.458, 418.813
325.940, 404.740
326.422, 394.422
326.905, 392.944
327.387, 401.630
327.869, 407.297
328.351, 407.585
328.833, 405.917
329.315, 405.030
329.797, 407.300
330.279, 407.217
330.762, 405.470
331.244, 406.503
331.726, 406.860
332.208, 406.580
332.690, 403.749
333.172, 404.211
333.654, 403.353
334.136, 402.442
334.618, 403.368
335.100, 400.908
335.583, 401.624
336.065, 399.812
336.547, 400.697
337.029, 400.927
337.511, 400.538
337.993, 397.674
338.475, 398.005
338.957, 397.056
339.440, 396.055
339.922, 396.836
340.404, 394.332
340.886, 395.085
341.368, 394.538
341.850, 394.586
342.332, 393.345
342.814, 392.469
343.297, 389.991
343.779, 391.454
344.261, 393.471
344.743, 395.327
345.225, 396.774
345.707, 395.623
346.189, 391.345
346.671, 387.117
347.153, 388.790
347.635, 394.810
348.118, 395.463
348.600, 384.043
349.082, 366.649
349.564, 357.247
350.046, 355.746
350.528, 355.716
351.010, 349.495
351.492, 340.555
351.975, 337.118
352.457, 343.758
352.939, 354.079
353.421, 361.526
353.903, 366.139
354.385, 368.143
354.867, 367.450
355.349, 364.339
355.832, 358.453
356.314, 348.134
356.796, 338.778
357.278, 334.385
357.760, 334.284
358.242, 336.760
358.724, 346.809
359.206, 355.350
359.688, 354.302
360.171, 340.343
360.653, 326.495
361.135, 318.184
361.617, 313.961
362.099, 311.757
362.581, 311.051
363.063, 312.011
363.545, 315.314
364.027, 321.235
364.510, 326.623
364.992, 330.990
365.474, 334.334
365.956, 336.667
366.438, 338.930
366.920, 339.150
367.402, 336.720
367.884, 331.713
368.366, 325.529
368.849, 314.827
369.331, 305.344
369.813, 300.417
370.295, 303.343
370.777, 306.123
371.259, 311.250
371.741, 316.012
372.224, 310.286
372.706, 283.832
373.188, 261.722
373.670, 256.141
374.152, 272.197
374.634, 288.212
375.116, 306.160
375.598, 321.967
376.080, 326.617
376.562, 316.498
377.045, 308.707
377.527, 311.635
378.009, 324.702
378.491, 327.385
378.973, 317.710
379.455, 303.993
379.937, 294.422
380.419, 288.922
380.902, 287.591
381.384, 291.311
381.866, 298.738
382.348, 307.045
382.830, 316.223
383.312, 324.377
383.794, 329.933
384.276, 333.159
384.759, 335.022
385.241, 335.946
385.723, 334.983
386.205, 329.930
386.687, 321.573
387.169, 312.922
387.651, 302.214
388.133, 293.814
388.615, 295.142
389.098, 308.800
389.580, 322.236
390.062, 325.860
390.544, 322.603
391.026, 317.188
391.508, 306.587
391.990, 298.448
392.472, 298.865
392.954, 308.068
393.437, 317.222
393.919, 325.094
394.401, 329.855
394.883, 330.057
395.365, 320.306
395.847, 311.188
396.329, 303.962
396.811, 299.116
397.293, 298.899
397.776, 311.072
398.258, 322.340
398.740, 325.783
399.222, 311.254
399.704, 305.150
400.186, 313.806
400.668, 329.610
401.151, 338.275
401.633, 337.388
402.115, 332.590
402.597, 324.117
403.079, 310.919
403.561, 302.556
404.043, 300.142
404.525, 301.131
405.007, 303.214
405.490, 306.730
405.972, 310.097
406.454, 313.142
406.936, 315.772
407.418, 318.349
407.900, 321.496
408.382, 321.300
408.864, 311.051
409.346, 292.349
409.828, 283.763
410.311, 290.069
410.793, 302.140
411.275, 305.277
411.757, 300.544
412.239, 295.612
412.721, 294.414
413.203, 295.804
413.685, 298.289
414.168, 301.953
414.650, 304.590
415.132, 303.913
415.614, 300.805
416.096, 296.816
416.578, 289.445
417.060, 283.838
417.542, 286.196
418.025, 295.220
418.507, 302.388
418.989, 303.438
419.471, 300.728
419.953, 295.831
420.435, 287.476
420.917, 279.833
421.399, 271.939
421.881, 265.876
422.364, 266.078
422.846, 281.514
423.328, 296.281
423.810, 304.028
424.292, 302.637
424.774, 301.546
425.256, 298.488
425.738, 297.348
426.220, 303.084
426.703, 327.976
427.185, 339.451
427.667, 325.105
428.149, 289.839
428.631, 275.998
429.113, 292.839
429.595, 313.953
430.077, 320.653
430.560, 309.635
431.042, 307.161
431.524, 318.162
432.006, 333.997
432.488, 336.717
432.970, 325.718
433.452, 315.463
433.934, 313.344
434.417, 317.455
434.899, 319.330
435.381, 318.812
435.863, 317.669
436.345, 317.224
436.827, 317.526
437.309, 318.835
437.791, 321.864
438.273, 325.133
438.755, 327.275
439.238, 328.260
439.720, 327.965
440.202, 324.527
440.684, 320.711
441.166, 319.326
441.648, 321.288
442.130, 324.020
442.612, 327.416
443.095, 330.494
443.577, 331.728
444.059, 329.036
444.541, 325.958
445.023, 324.389
445.505, 324.467
445.987, 322.350
446.469, 314.591
446.952, 306.287
447.434, 300.884
447.916, 301.549
448.398, 300.603
448.880, 295.765
449.362, 289.359
449.844, 288.619
450.326, 297.123
450.808, 304.480
451.290, 305.496
451.773, 299.003
452.255, 297.737
452.737, 303.457
453.219, 310.809
453.701, 311.230
454.183, 304.298
454.665, 302.499
455.147, 288.886
455.630, 307.076
456.112, 317.546
456.594, 320.711
457.076, 294.693
457.558, 306.359
458.040, 302.923
458.522, 306.964
459.004, 283.154
459.487, 293.445
459.969, 299.724
460.451, 301.665
460.933, 298.698
461.415, 281.068
461.897, 265.734
462.379, 268.891
462.861, 289.606
463.343, 304.827
463.826, 288.192
464.308, 272.667
464.790, 294.529
465.272, 307.317
465.754, 311.516
466.236, 281.406
466.718, 295.599
467.200, 292.037
467.682, 287.748
468.165, 308.177
468.647, 283.057
469.129, 303.094
469.611, 305.105
470.093, 315.366
470.575, 307.762
471.057, 305.677
471.539, 321.461
472.022, 327.351
472.504, 317.691
472.986, 328.476
473.468, 310.878
473.950, 313.951
474.432, 317.893
474.914, 309.094
475.396, 292.166
475.878, 290.267
476.361, 306.438
476.843, 324.826
477.325, 325.911
477.807, 315.366
478.289, 307.069
478.771, 308.395
479.253, 311.963
479.735, 308.760
480.217, 300.478
480.700, 295.406
481.182, 300.905
481.664, 309.912
482.146, 317.024
482.628, 320.760
483.110, 324.131
483.592, 328.766
484.074, 333.443
484.556, 336.482
485.039, 337.242
485.521, 336.588
486.003, 334.050
486.485, 329.754
486.967, 326.481
487.449, 326.078
487.931, 324.681
488.414, 319.176
488.896, 306.533
489.378, 299.331
489.860, 298.990
490.342, 302.980
490.824, 308.510
491.306, 316.281
491.788, 319.440
492.270, 313.458
492.753, 301.220
493.235, 292.955
493.717, 288.799
494.199, 288.328
494.681, 296.069
495.163, 306.909
495.645, 307.538
496.127, 291.922
496.609, 275.347
497.092, 275.359
497.574, 286.068
498.056, 294.991
498.538, 294.927
499.020, 292.232
499.502, 289.365
499.984, 286.542
500.466, 287.459
500.948, 299.354
501.431, 311.885
501.913, 317.421
502.395, 306.761
502.877, 300.000
503.359, 302.704
503.841, 309.568
504.323, 309.886
504.805, 299.282
505.288, 288.695
505.770, 279.849
506.252, 272.617
506.734, 274.334
507.216, 288.050
507.698, 303.030
508.180, 310.491
508.662, 310.471
509.145, 305.256
509.627, 292.370
510.109, 280.140
510.591, 287.893
511.073, 311.417
511.555, 327.675
512.037, 316.677
512.519, 295.458
513.001, 289.693
513.484, 298.998
513.966, 309.250
514.448, 310.933
514.930, 308.616
515.412, 306.888
515.894, 306.920
516.376, 307.465
516.858, 306.660
517.341, 306.177
517.823, 309.130
518.305, 321.693
518.787, 332.354
519.269, 337.930
519.751, 338.377
520.233, 334.559
520.715, 320.868
521.197, 309.465
521.680, 310.518
522.162, 330.210
522.644, 339.949
523.126, 335.284
523.608, 323.438
524.090, 317.110
524.572, 316.482
525.054, 317.237
525.536, 317.503
526.019, 318.032
526.501, 322.446
526.983, 330.494
527.465, 336.243
527.947, 332.348
528.429, 323.969
528.911, 319.565
529.393, 321.885
529.875, 323.929
530.358, 319.158
530.840, 311.115
531.322, 305.369
531.804, 306.911
532.286, 308.357
532.768, 305.782
533.250, 299.682
533.732, 296.156
534.214, 300.828
534.697, 304.299
535.179, 301.211
535.661, 285.661
536.143, 279.228
536.625, 286.292
537.107, 298.239
537.589, 302.536
538.071, 296.875
538.554, 296.456
539.036, 309.029
539.518, 326.652
540.000, 319.873
540.482, 288.758
540.964, 262.222
541.446, 263.568
541.928, 281.816
542.411, 292.336
542.893, 293.089
543.375, 291.463
543.857, 293.644
544.339, 297.502
544.821, 300.007
545.303, 299.500
545.785, 298.377
546.268, 298.774
546.750, 299.561
547.232, 297.710
547.714, 287.458
548.196, 278.990
548.678, 276.209
549.160, 279.967
549.642, 285.564
550.124, 296.054
550.606, 305.288
551.089, 308.371
551.571, 303.920
552.053, 297.038
552.535, 285.666
553.017, 275.309
553.499, 280.695
553.981, 301.977
554.463, 316.158
554.945, 308.737
555.428, 289.952
555.910, 285.631
556.392, 294.860
556.874, 306.232
557.356, 316.734
557.838, 322.345
558.320, 314.590
558.802, 287.329
559.284, 266.146
559.767, 270.453
560.249, 287.832
560.731, 302.320
561.213, 310.539
561.695, 314.352
562.177, 310.882
562.659, 302.169
563.141, 299.595
563.624, 309.313
564.106, 317.444
564.588, 316.888
565.070, 305.509
565.552, 304.604
566.034, 318.182
566.516, 333.306
566.998, 334.281
567.481, 321.920
567.963, 318.687
568.445, 331.647
568.927, 348.396
569.409, 347.321
569.891, 332.802
570.373, 321.108
570.855, 325.587
571.338, 333.453
571.820, 328.456
572.302, 312.327
572.784, 302.811
573.266, 316.796
573.748, 335.272
574.230, 344.761
574.712, 339.876
575.194, 333.910
575.677, 329.925
576.159, 325.486
576.641, 317.283
577.123, 299.612
577.605, 288.556
578.087, 288.010
578.569, 295.332
579.051, 301.925
579.533, 308.127
580.016, 311.902
580.498, 311.523
580.980, 307.651
581.462, 303.092
581.944, 297.751
582.426, 293.739
582.908, 294.042
583.390, 296.840
583.872, 298.568
584.355, 297.576
584.837, 297.813
585.319, 305.432
585.801, 315.630
586.283, 320.274
586.765, 308.179
587.247, 298.531
587.729, 300.751
588.211, 313.291
588.694, 319.028
589.176, 312.291
589.658, 304.386
590.140, 300.387
590.622, 301.562
591.104, 298.959
591.586, 290.938
592.068, 282.723
592.551, 279.290
593.033, 280.589
593.515, 286.084
593.997, 296.860
594.479, 309.338
594.961, 319.965
595.443, 328.116
595.925, 331.547
596.407, 322.805
596.890, 313.429
597.372, 317.692
597.854, 333.065
598.336, 341.281
598.818, 322.443
599.300, 302.374
599.782, 299.079
600.265, 323.030
600.747, 337.582
601.229, 332.640
601.711, 322.336
602.193, 320.134
602.675, 330.484
603.157, 337.044
603.639, 337.022
604.121, 333.178
604.604, 332.032
605.086, 333.713
605.568, 333.562
606.050, 326.017
606.532, 316.764
607.014, 323.843
607.496, 345.079
607.978, 359.688
608.460, 346.399
608.943, 322.263
609.425, 303.948
609.907, 293.184
610.389, 290.373
610.871, 303.475
611.353, 320.893
611.835, 331.121
612.317, 323.750
612.799, 320.033
613.282, 324.889
613.764, 333.487
614.246, 334.381
614.728, 323.143
615.210, 316.471
615.692, 322.775
616.174, 337.822
616.656, 334.447
617.138, 311.409
617.621, 292.572
618.103, 302.068
618.585, 326.581
619.067, 334.169
619.549, 321.376
620.031, 306.197
620.513, 303.113
620.995, 305.609
621.477, 305.415
621.960, 296.193
622.442, 290.630
622.924, 297.614
623.406, 310.276
623.888, 315.988
624.370, 303.671
624.852, 296.796
625.334, 303.271
625.817, 319.800
626.299, 323.401
626.781, 310.514
627.263, 296.729
627.745, 290.287
628.227, 290.527
628.709, 292.691
629.191, 297.020
629.674, 300.188
630.156, 297.768
630.638, 292.352
631.120, 288.917
631.602, 289.549
632.084, 288.730
632.566, 279.200
633.048, 266.826
633.531, 259.948
634.013, 264.083
634.495, 270.821
634.977, 280.336
635.459, 291.264
635.941, 298.712
636.423, 302.933
636.905, 303.109
637.387, 296.830
637.870, 284.918
638.352, 281.836
638.834, 288.981
639.316, 296.403
639.798, 294.084
640.280, 285.805
640.762, 285.034
641.244, 293.629
641.726, 304.082
642.209, 312.980
642.691, 318.426
643.173, 316.848
643.655, 299.839
644.137, 287.159
644.619, 290.209
645.101, 302.571
645.583, 311.816
646.065, 315.834
646.548, 316.791
647.030, 313.799
647.512, 307.720
647.994, 303.475
648.476, 300.847
648.958, 300.655
649.440, 305.544
649.922, 314.057
650.404, 314.209
650.887, 305.570
651.369, 297.705
651.851, 298.976
652.333, 306.437
652.815, 317.310
653.297, 333.084
653.779, 343.045
654.261, 331.550
654.744, 313.811
655.226, 307.773
655.708, 335.779
656.190, 354.150
656.672, 347.580
657.154, 328.429
657.636, 323.772
658.118, 343.645
658.601, 352.759
659.083, 335.852
659.565, 301.381
660.047, 289.092
660.529, 299.593
661.011, 312.648
661.493, 317.701
661.975, 315.924
662.458, 306.125
662.940, 288.526
663.422, 275.193
663.904, 279.063
664.386, 288.623
664.868, 292.470
665.350, 285.415
665.832, 281.375
666.314, 287.569
666.797, 296.516
667.279, 300.034
667.761, 295.642
668.243, 290.095
668.725, 281.879
669.207, 274.672
669.689, 278.381
670.171, 293.449
670.653, 305.306
671.135, 307.927
671.618, 304.936
672.100, 303.981
672.582, 304.208
673.064, 301.368
673.546, 287.637
674.028, 273.711
674.510, 268.498
674.992, 272.457
675.474, 278.488
675.957, 287.351
676.439, 295.224
676.921, 299.490
677.403, 299.103
677.885, 298.654
678.367, 298.338
678.849, 297.687
679.331, 295.362
679.814, 291.201
680.296, 290.380
680.778, 293.900
681.260, 300.109
681.742, 310.060
682.224, 321.044
682.706, 325.096
683.188, 315.338
683.670, 302.427
684.153, 292.116
684.635, 284.874
685.117, 281.754
685.599, 282.802
686.081, 288.417
686.563, 303.669
687.045, 326.358
687.528, 335.365
688.010, 323.533
688.492, 311.756
688.974, 311.911
689.456, 323.187
689.938, 324.259
690.420, 314.219
690.902, 304.104
691.384, 303.888
691.867, 310.430
692.349, 319.825
692.831, 332.868
693.313, 340.008
693.795, 325.663
694.277, 306.159
694.759, 299.291
695.241, 324.445
695.723, 340.687
696.206, 337.725
696.688, 324.381
697.170, 311.472
697.652, 297.390
698.134, 288.514
698.616, 286.598
699.098, 290.069
699.580, 296.677
700.062, 306.010
700.545, 313.849
701.027, 318.375
701.509, 320.232
701.991, 320.941
702.473, 320.004
702.955, 315.105
703.437, 300.772
703.919, 285.660
704.402, 273.773
704.884, 265.333
705.366, 261.781
705.848, 264.277
706.330, 270.275
706.812, 279.871
707.294, 294.823
707.776, 302.437
708.258, 301.449
708.741, 297.801
709.223, 301.551
709.705, 308.231
710.187, 297.579
710.669, 261.128
711.151, 229.030
711.633, 232.189
712.115, 255.231
712.597, 276.656
713.080, 295.667
713.562, 305.068
714.044, 295.401
714.526, 276.015
715.008, 265.123
715.490, 266.641
715.972, 269.935
716.455, 274.099
716.937, 278.066
717.419, 277.432
717.901, 272.118
718.383, 268.314
718.865, 269.088
719.347, 272.986
719.829, 279.527
720.311, 287.685
720.794, 292.556
721.276, 289.450
721.758, 283.539
722.240, 277.075
722.722, 270.058
723.204, 266.076
723.686, 264.126
724.168, 266.848
724.651, 277.174
725.133, 297.040
725.615, 311.465
726.097, 320.474
726.579, 323.574
727.061, 318.347
727.543, 306.552
728.025, 293.616
728.507, 279.556
728.990, 269.100
729.472, 269.033
729.954, 274.368
730.436, 277.865
730.918, 271.178
731.400, 274.011
731.882, 306.898
732.364, 346.605
732.846, 358.840
733.328, 325.173
733.811, 304.851
734.293, 310.444
734.775, 328.594
735.257, 330.277
735.739, 316.600
736.221, 306.354
736.703, 307.232
737.185, 313.777
737.667, 319.324
738.150, 324.277
738.632, 329.997
739.114, 344.264
739.596, 352.694
740.078, 342.990
740.560, 317.886
741.042, 303.440
741.524, 306.677
742.007, 312.786
742.489, 317.309
742.971, 320.220
743.453, 321.317
743.935, 320.573
744.417, 318.111
744.899, 312.189
745.381, 305.013
745.864, 302.472
746.346, 304.632
746.828, 305.526
747.310, 300.658
747.792, 293.161
748.274, 284.171
748.756, 271.540
749.238, 266.609
749.721, 279.128
750.203, 292.295
750.685, 294.784
751.167, 290.598
751.649, 296.701
752.131, 300.307
752.613, 301.549
753.095, 293.350
753.577, 297.343
754.060, 296.449
754.542, 295.356
755.024, 301.064
755.506, 294.239
755.988, 299.172
756.470, 297.730
756.952, 281.617
757.434, 269.003
757.916, 262.701
758.399, 261.613
758.881, 265.082
759.363, 274.425
759.845, 284.189
760.327, 294.474
760.809, 302.939
761.291, 303.229
761.773, 296.799
762.255, 291.508
762.738, 292.244
763.220, 293.605
763.702, 287.743
764.184, 278.293
764.666, 274.652
765.148, 287.008
765.630, 298.640
766.112, 304.125
766.594, 304.422
767.077, 302.941
767.559, 298.455
768.041, 295.836
768.523, 299.168
769.005, 305.280
769.487, 299.152
769.969, 282.092
770.451, 269.641
770.934, 273.469
771.416, 285.653
771.898, 301.616
772.380, 320.259
772.862, 332.273
773.344, 330.035
773.826, 324.228
774.308, 320.450
774.791, 319.221
775.273, 313.526
775.755, 301.440
776.237, 289.676
776.719, 282.397
777.201, 279.270
777.683, 278.399
778.165, 279.709
778.648, 284.489
779.130, 300.825
779.612, 317.377
780.094, 317.865
780.576, 296.679
781.058, 284.014
781.540, 299.908
782.022, 320.199
782.504, 327.893
782.987, 319.515
783.469, 308.250
783.951, 291.412
784.433, 277.823
784.915, 280.029
785.397, 293.944
785.879, 297.409
786.361, 286.451
786.843, 274.913
787.326, 277.449
787.808, 285.881
788.290, 290.600
788.772, 288.331
789.254, 284.555
789.736, 280.275
790.218, 275.199
790.700, 268.006
791.182, 255.433
791.665, 252.745
792.147, 263.794
792.629, 278.756
793.111, 284.116
793.593, 281.950
794.075, 279.804
794.557, 278.812
795.039, 280.240
795.521, 291.081
796.004, 303.022
796.486, 304.765
796.968, 276.247
797.450, 259.277
797.932, 264.386
798.414, 280.230
798.896, 291.017
799.378, 296.487
799.860, 298.232
800.343, 295.504
800.825, 291.475
801.307, 291.658
801.789, 294.842
802.271, 297.342
802.753, 297.473
803.235, 297.070
803.718, 298.849
804.200, 300.629
804.682, 298.456
805.164, 287.035
805.646, 277.200
806.128, 269.634
806.610, 264.698
807.092, 263.727
807.574, 266.837
808.057, 271.012
808.539, 275.153
809.021, 280.283
809.503, 289.350
809.985, 300.732
810.467, 310.048
810.949, 315.799
811.431, 318.642
811.914, 315.112
812.396, 308.919
812.878, 310.717
813.360, 327.058
813.842, 339.548
814.324, 344.444
814.806, 343.057
815.288, 336.660
815.770, 325.926
816.253, 318.583
816.735, 320.299
817.217, 323.979
817.699, 321.607
818.181, 314.578
818.663, 306.589
819.145, 296.733
819.627, 288.534
820.109, 281.234
820.592, 276.570
821.074, 282.089
821.556, 302.667
822.038, 315.977
822.520, 312.904
823.002, 300.792
823.484, 294.572
823.966, 293.976
824.448, 297.586
824.931, 309.656
825.413, 321.278
825.895, 325.991
826.377, 325.117
826.859, 322.551
827.341, 315.435
827.823, 311.238
828.305, 311.879
828.787, 316.329
829.270, 322.578
829.752, 331.069
830.234, 335.812
830.716, 336.220
831.198, 329.978
831.680, 303.823
832.162, 266.882
832.644, 246.529
833.127, 275.215
833.609, 302.380
834.091, 301.843
834.573, 281.783
835.055, 273.576
835.537, 282.453
836.019, 291.652
836.501, 297.085
836.984, 299.979
837.466, 304.786
837.948, 310.543
838.430, 311.152
838.912, 299.579
839.394, 286.370
839.876, 280.657
840.358, 280.772
840.841, 282.623
841.323, 284.387
841.805, 288.803
842.287, 297.939
842.769, 309.454
843.251, 317.674
843.733, 322.793
844.215, 322.305
844.697, 313.677
845.180, 301.633
845.662, 293.286
846.144, 288.048
846.626, 284.541
847.108, 281.101
847.590, 280.413
848.072, 285.056
848.554, 293.197
849.036, 300.753
849.519, 309.102
850.001, 313.404
850.483, 311.974
850.965, 307.154
851.447, 302.247
851.929, 297.756
852.411, 296.871
852.893, 302.960
853.375, 308.713
853.858, 304.746
854.340, 296.705
854.822, 293.963
855.304, 304.465
855.786, 313.448
856.268, 318.697
856.750, 321.735
857.232, 325.805
857.714, 331.221
858.197, 330.783
858.679, 320.921
859.161, 310.846
859.643, 317.146
860.125, 330.898
860.607, 335.229
861.089, 319.301
861.571, 303.882
862.054, 295.687
862.536, 292.763
863.018, 292.714
863.500, 298.018
863.982, 297.658
864.464, 287.973
864.946, 279.415
865.428, 291.121
865.911, 315.397
866.393, 327.956
866.875, 322.485
867.357, 311.959
867.839, 299.618
868.321, 290.490
868.803, 290.129
869.285, 306.972
869.767, 317.833
870.250, 320.411
870.732, 320.269
871.214, 323.237
871.696, 328.841
872.178, 330.962
872.660, 329.222
873.142, 323.248
873.624, 307.000
874.106, 289.337
874.589, 281.064
875.071, 285.258
875.553, 290.122
876.035, 294.238
876.517, 296.935
876.999, 296.992
877.481, 293.915
877.963, 295.627
878.445, 302.934
878.928, 308.470
879.410, 303.052
879.892, 293.607
880.374, 292.065
880.856, 298.578
881.338, 304.285
881.820, 303.191
882.302, 301.909
882.784, 305.795
883.267, 314.422
883.749, 314.196
884.231, 302.465
884.713, 291.879
885.195, 291.380
885.677, 295.986
886.159, 287.900
886.641, 270.982
887.124, 264.445
887.606, 293.790
888.088, 322.600
888.570, 327.027
889.052, 311.124
889.534, 300.756
890.016, 295.283
890.498, 299.561
890.981, 320.193
891.463, 346.659
891.945, 345.954
892.427, 323.745
892.909, 309.959
893.391, 325.890
893.873, 344.247
894.355, 342.018
894.838, 327.503
895.320, 316.994
895.802, 317.466
896.284, 316.049
896.766, 309.672
897.248, 302.712
897.730, 304.030
898.212, 312.648
898.694, 317.774
899.177, 316.043
899.659, 313.393
900.141, 318.444
900.623, 325.156
901.105, 324.688
901.587, 306.198
902.069, 298.033
902.551, 308.639
903.033, 324.412
903.516, 333.539
903.998, 335.910
904.480, 336.355
904.962, 335.203
905.444, 331.929
905.926, 323.193
906.408, 313.517
906.890, 308.033
907.372, 307.463
907.855, 311.430
908.337, 327.567
908.819, 340.971
909.301, 343.793
909.783, 335.991
910.265, 321.905
910.747, 300.552
911.229, 283.811
911.711, 282.619
912.194, 289.258
912.676, 294.141
913.158, 296.571
913.640, 294.653
914.122, 279.469
914.604, 268.492
915.086, 269.261
915.568, 279.563
916.051, 293.478
916.533, 313.177
917.015, 320.281
917.497, 301.349
917.979, 275.283
918.461, 278.357
918.943, 299.422
919.425, 311.257
919.907, 290.639
920.390, 272.972
920.872, 272.409
921.354, 281.141
921.836, 288.208
922.318, 293.839
922.800, 295.974
923.282, 292.941
923.764, 290.504
924.247, 299.906
924.729, 314.756
925.211, 322.114
925.693, 317.363
926.175, 311.431
926.657, 311.045
927.139, 309.991
927.621, 301.493
928.104, 281.370
928.586, 274.543
929.068, 283.069
929.550, 296.136
930.032, 308.273
930.514, 317.547
930.996, 318.926
931.478, 312.592
931.960, 305.718
932.443, 298.433
932.925, 294.748
933.407, 298.387
933.889, 308.160
934.371, 316.520
934.853, 324.085
935.335, 326.444
935.817, 317.895
936.299, 306.363
936.782, 310.688
937.264, 325.533
937.746, 334.830
938.228, 326.845
938.710, 317.109
939.192, 309.571
939.674, 304.794
940.156, 303.881
940.638, 307.610
941.121, 312.034
941.603, 316.951
942.085, 321.238
942.567, 325.792
943.049, 328.020
943.531, 320.682
944.013, 296.773
944.495, 281.300
944.977, 293.158
945.460, 311.296
945.942, 318.683
946.424, 312.967
946.906, 308.241
947.388, 304.524
947.870, 301.533
948.352, 298.018
948.834, 295.545
949.317, 298.450
949.799, 306.159
950.281, 310.751
950.763, 301.462
951.245, 296.231
951.727, 306.436
952.209, 327.303
952.691, 331.399
953.174, 316.981
953.656, 304.017
954.138, 301.536
954.620, 303.131
955.102, 299.983
955.584, 293.942
956.066, 288.882
956.548, 283.303
957.031, 282.757
957.513, 291.408
957.995, 303.248
958.477, 311.717
958.959, 316.949
959.441, 315.800
959.923, 306.879
960.405, 297.397
960.887, 295.739
961.370, 297.227
961.852, 295.388
962.334, 288.195
962.816, 284.153
963.298, 286.831
963.780, 290.692
964.262, 293.140
964.744, 294.314
965.226, 295.843
965.709, 297.728
966.191, 299.961
966.673, 304.969
967.155, 308.373
967.637, 303.506
968.119, 293.128
968.601, 287.810
969.083, 291.112
969.565, 297.293
970.048, 306.305
970.530, 316.785
971.012, 329.144
971.494, 341.604
971.976, 342.662
972.458, 324.817
972.940, 309.383
973.422, 317.112
973.904, 333.226
974.387, 341.458
974.869, 337.288
975.351, 331.868
975.833, 324.322
976.315, 317.650
976.797, 314.175
977.279, 313.628
977.761, 315.499
978.244, 319.643
978.726, 324.662
979.208, 332.816
979.690, 338.684
980.172, 339.483
980.654, 335.280
981.136, 325.441
981.618, 307.509
982.101, 294.694
982.583, 291.102
983.065, 294.911
983.547, 309.289
984.029, 328.052
984.511, 336.334
984.993, 317.856
985.475, 307.190
985.957, 325.314
986.440, 348.818
986.922, 355.447
987.404, 343.234
987.886, 332.016
988.368, 322.845
988.850, 314.579
989.332, 305.670
989.814, 297.451
990.296, 291.701
990.779, 288.586
991.261, 286.069
991.743, 281.969
992.225, 281.079
992.707, 287.134
993.189, 296.909
993.671, 294.057
994.153, 281.022
994.635, 277.775
995.118, 302.483
995.600, 326.280
996.082, 320.592
996.564, 300.815
997.046, 292.464
997.528, 309.161
998.010, 313.750
998.492, 300.408
998.974, 283.867
999.457, 280.611
999.939, 287.216
1000.421, 296.095
1000.903, 306.558
1001.385, 312.836
1001.867, 306.541
1002.349, 299.518
1002.831, 302.134
1003.314, 312.387
1003.796, 306.812
1004.278, 282.348
1004.760, 263.659
1005.242, 263.008
1005.724, 271.463
1006.206, 274.237
1006.688, 275.803
1007.171, 285.800
1007.653, 322.901
1008.135, 347.493
1008.617, 351.113
1009.099, 344.060
1009.581, 335.912
1010.063, 326.814
1010.545, 322.507
1011.027, 323.616
1011.510, 326.091
1011.992, 327.812
1012.474, 328.477
1012.956, 327.375
1013.438, 324.387
1013.920, 322.242
1014.402, 320.955
1014.884, 320.518
1015.367, 319.923
1015.849, 321.086
1016.331, 334.009
1016.813, 353.308
1017.295, 361.379
1017.777, 341.385
1018.259, 322.149
1018.741, 318.281
1019.223, 319.672
1019.706, 313.132
1020.188, 295.573
1020.670, 289.382
1021.152, 297.000
1021.634, 307.556
1022.116, 310.023
1022.598, 309.827
1023.080, 315.169
1023.563, 326.327
1024.045, 332.270
1024.527, 322.516
1025.009, 318.625
1025.491, 329.740
1025.973, 349.631
1026.455, 360.763
1026.937, 363.682
1027.419, 360.997
1027.901, 351.323
1028.384, 340.850
1028.866, 335.220
1029.348, 330.566
1029.830, 321.411
1030.312, 304.151
1030.794, 292.618
1031.276, 287.029
1031.758, 286.535
1032.241, 293.744
1032.723, 304.068
1033.205, 308.698
1033.687, 308.004
1034.169, 308.913
1034.651, 321.596
1035.133, 326.587
1035.615, 312.799
1036.098, 290.411
1036.580, 290.318
1037.062, 310.149
1037.544, 321.096
1038.026, 313.568
1038.508, 300.598
1038.990, 290.676
1039.472, 283.103
1039.954, 277.312
1040.437, 273.803
1040.919, 268.729
1041.401, 259.117
1041.883, 256.593
1042.365, 275.653
1042.847, 305.532
1043.329, 319.375
1043.811, 320.089
1044.293, 321.266
1044.776, 336.986
1045.258, 344.021
1045.740, 329.566
1046.222, 306.040
1046.704, 294.113
1047.186, 293.814
1047.668, 296.625
1048.150, 301.527
1048.633, 306.825
1049.115, 311.543
1049.597, 315.406
1050.079, 317.437
1050.561, 316.897
1051.043, 320.395
1051.525, 330.490
1052.007, 337.757
1052.490, 336.071
1052.972, 329.795
1053.454, 328.228
1053.936, 330.691
1054.418, 335.215
1054.900, 345.368
1055.382, 351.743
1055.864, 348.969
1056.346, 343.372
1056.828, 342.436
1057.311, 346.279
1057.793, 342.433
1058.275, 329.571
1058.757, 319.811
1059.239, 328.994
1059.721, 340.532
1060.203, 337.332
1060.685, 320.507
1061.168, 315.368
1061.650, 329.109
1062.132, 335.660
1062.614, 324.716
1063.096, 308.103
1063.578, 309.610
1064.060, 320.593
1064.542, 321.553
1065.025, 301.383
1065.507, 287.228
1065.989, 291.958
1066.471, 301.299
1066.953, 307.390
1067.435, 310.350
1067.917, 312.946
1068.399, 315.095
1068.881, 315.231
1069.364, 310.000
1069.846, 304.733
1070.328, 303.228
1070.810, 304.553
1071.292, 305.963
1071.774, 306.803
1072.256, 310.186
1072.738, 317.312
1073.220, 323.933
1073.703, 326.920
1074.185, 325.095
1074.667, 312.298
1075.149, 286.991
1075.631, 274.475
1076.113, 293.808
1076.595, 309.839
1077.077, 308.529
1077.559, 296.259
1078.042, 294.464
1078.524, 300.283
1079.006, 300.047
1079.488, 282.624
1079.970, 270.486
1080.452, 280.309
1080.934, 299.135
1081.416, 313.871
1081.899, 324.834
1082.381, 329.570
1082.863, 328.021
1083.345, 320.164
1083.827, 294.802
1084.309, 271.836
1084.791, 280.372
1085.273, 310.486
1085.755, 320.828
1086.238, 287.377
1086.720, 272.693
1087.202, 290.064
1087.684, 319.486
1088.166, 337.919
1088.648, 346.041
1089.130, 343.568
1089.612, 329.561
1090.094, 317.927
1090.577, 314.693
1091.059, 315.457
1091.541, 320.124
1092.023, 326.755
1092.505, 324.466
1092.987, 314.555
1093.469, 307.678
1093.951, 306.674
1094.434, 312.278
1094.916, 334.311
1095.398, 358.218
1095.880, 365.181
1096.362, 350.431
1096.844, 337.134
1097.326, 324.998
1097.808, 315.882
1098.291, 308.271
1098.773, 306.449
1099.255, 323.972
1099.737, 353.100
1100.219, 365.841
1100.701, 341.687
1101.183, 324.777
1101.665, 321.621
1102.147, 324.878
1102.630, 325.947
1103.112, 325.118
1103.594, 321.744
1104.076, 315.606
1104.558, 313.398
1105.040, 323.721
1105.522, 332.611
1106.004, 333.925
1106.486, 329.349
1106.969, 324.495
1107.451, 319.507
1107.933, 315.539
1108.415, 313.424
1108.897, 311.393
1109.379, 308.307
1109.861, 304.573
1110.343, 299.589
1110.826, 292.172
1111.308, 294.339
1111.790, 307.422
1112.272, 317.889
1112.754, 313.841
1113.236, 305.267
1113.718, 303.542
1114.200, 306.526
1114.682, 308.791
1115.165, 307.139
1115.647, 310.355
1116.129, 321.934
1116.611, 331.020
1117.093, 321.747
1117.575, 302.890
1118.057, 291.401
1118.539, 288.304
1119.021, 288.807
1119.504, 297.189
1119.986, 300.697
1120.468, 292.553
1120.950, 280.723
1121.432, 287.099
1121.914, 306.292
1122.396, 312.809
1122.878, 297.713
1123.361, 286.617
1123.843, 300.454
1124.325, 318.089
1124.807, 324.921
1125.289, 321.964
1125.771, 323.405
1126.253, 328.992
1126.735, 329.463
1127.218, 314.472
1127.700, 302.563
1128.182, 315.715
1128.664, 338.635
1129.146, 348.853
1129.628, 339.435
1130.110, 340.141
1130.592, 353.233
1131.074, 362.458
1131.557, 349.432
1132.039, 329.734
1132.521, 322.048
1133.003, 324.877
1133.485, 333.210
1133.967, 354.989
1134.449, 363.939
1134.931, 354.347
1135.413, 338.717
1135.896, 331.539
1136.378, 329.959
1136.860, 328.257
1137.342, 325.996
1137.824, 326.262
1138.306, 330.729
1138.788, 338.077
1139.270, 351.481
1139.752, 364.036
1140.235, 355.601
1140.717, 332.861
1141.199, 318.626
1141.681, 319.352
1142.163, 324.678
1142.645, 335.055
1143.127, 343.063
1143.609, 344.272
1144.092, 339.294
1144.574, 331.141
1145.056, 320.205
1145.538, 310.576
1146.020, 303.710
1146.502, 299.163
1146.984, 299.414
1147.466, 300.250
1147.948, 296.360
1148.431, 286.288
1148.913, 280.759
1149.395, 279.763
1149.877, 282.541
1150.359, 293.171
1150.841, 303.087
1151.323, 302.193
1151.805, 295.456
1152.287, 296.032
1152.770, 307.891
1153.252, 314.820
1153.734, 315.203
1154.216, 311.965
1154.698, 305.179
1155.180, 298.390
1155.662, 296.269
1156.144, 298.637
1156.627, 301.263
1157.109, 303.167
1157.591, 306.708
1158.073, 313.172
1158.555, 319.554
1159.037, 322.765
1159.519, 322.521
1160.001, 315.832
1160.484, 301.028
1160.966, 295.762
1161.448, 310.409
1161.930, 321.541
1162.412, 317.988
1162.894, 308.936
1163.376, 319.200
1163.858, 340.840
1164.340, 352.819
1164.823, 345.761
1165.305, 339.661
1165.787, 339.942
1166.269, 342.643
1166.751, 347.264
1167.233, 352.289
1167.715, 347.840
1168.197, 336.616
1168.679, 330.528
1169.162, 341.576
1169.644, 349.549
1170.126, 345.934
1170.608, 337.486
1171.090, 326.376
1171.572, 313.669
1172.054, 318.041
1172.536, 338.152
1173.019, 355.629
1173.501, 359.463
1173.983, 358.285
1174.465, 354.157
1174.947, 348.708
1175.429, 343.322
1175.911, 338.052
1176.393, 336.427
1176.875, 338.858
1177.358, 341.824
1177.840, 346.157
1178.322, 346.858
1178.804, 335.581
1179.286, 318.452
1179.768, 315.452
1180.250, 327.401
1180.732, 333.678
1181.214, 329.545
1181.697, 324.947
1182.179, 332.845
1182.661, 340.974
1183.143, 334.591
1183.625, 315.858
1184.107, 313.029
1184.589, 327.952
1185.071, 340.292
1185.554, 344.459
1186.036, 342.255
1186.518, 329.949
1187.000, 315.602
1187.482, 309.394
1187.964, 312.895
1188.446, 314.025
1188.928, 312.475
1189.411, 310.543
1189.893, 308.405
1190.375, 307.749
1190.857, 313.636
1191.339, 321.081
1191.821, 322.152
1192.303, 313.454
1192.785, 306.381
1193.267, 300.929
1193.750, 297.102
1194.232, 295.414
1194.714, 294.934
1195.196, 294.592
1195.678, 294.468
1196.160, 294.330
1196.642, 288.759
1197.124, 298.333
1197.606, 328.626
1198.089, 353.806
1198.571, 343.682
1199.053, 320.513
1199.535, 314.803
1200.017, 323.271
1200.499, 330.497
1200.981, 330.662
1201.463, 338.276
1201.945, 357.701
1202.428, 374.044
1202.910, 367.957
1203.392, 350.762
1203.874, 336.042
1204.356, 325.226
1204.838, 321.802
1205.320, 330.928
1205.802, 335.453
1206.285, 330.643
1206.767, 325.363
1207.249, 335.062
1207.731, 349.975
1208.213, 353.602
1208.695, 344.313
1209.177, 339.065
1209.659, 340.683
1210.141, 345.425
1210.624, 353.922
1211.106, 361.502
1211.588, 356.824
1212.070, 348.114
1212.552, 350.584
1213.034, 368.581
1213.516, 380.568
1213.998, 384.654
1214.480, 381.961
1214.963, 371.178
1215.445, 356.609
1215.927, 341.138
1216.409, 328.946
1216.891, 329.934
1217.373, 352.605
1217.855, 360.672
1218.337, 344.866
1218.820, 332.118
1219.302, 338.289
1219.784, 352.153
1220.266, 353.367
1220.748, 345.938
1221.230, 337.188
1221.712, 329.233
1222.194, 318.102
1222.677, 300.680
1223.159, 288.301
1223.641, 292.248
1224.123, 302.275
1224.605, 294.767
1225.087, 279.351
1225.569, 276.923
1226.051, 310.865
1226.533, 325.969
1227.016, 314.836
1227.498, 303.974
1227.980, 319.713
1228.462, 344.862
1228.944, 351.369
1229.426, 343.252
1229.908, 331.351
1230.390, 311.916
1230.872, 301.759
1231.355, 304.013
1231.837, 307.497
1232.319, 297.506
1232.801, 285.808
1233.283, 294.854
1233.765, 317.803
1234.247, 328.232
1234.729, 314.150
1235.212, 306.531
1235.694, 308.955
1236.176, 314.401
1236.658, 316.319
1237.140, 316.826
1237.622, 318.251
1238.104, 320.691
1238.586, 324.484
1239.068, 331.531
1239.551, 332.402
1240.033, 324.051
1240.515, 317.621
1240.997, 329.047
1241.479, 345.639
1241.961, 352.725
1242.443, 350.659
1242.925, 350.289
1243.407, 353.250
1243.890, 351.827
1244.372, 343.456
1244.854, 336.466
1245.336, 343.424
1245.818, 353.653
1246.300, 354.638
1246.782, 347.197
1247.264, 349.423
1247.747, 363.890
1248.229, 368.521
1248.711, 356.416
1249.193, 342.448
1249.675, 342.492
1250.157, 346.210
1250.639, 343.228
1251.121, 334.497
1251.604, 329.332
1252.086, 327.806
1252.568, 330.396
1253.050, 338.653
1253.532, 344.577
1254.014, 336.187
1254.496, 326.518
1254.978, 326.999
1255.460, 336.207
1255.943, 347.801
1256.425, 361.427
1256.907, 368.207
1257.389, 365.351
1257.871, 356.267
1258.353, 334.853
1258.835, 316.249
1259.317, 313.292
1259.799, 322.560
1260.281, 321.997
1260.764, 313.398
1261.246, 308.595
1261.728, 311.640
1262.210, 318.385
1262.692, 329.864
1263.174, 341.401
1263.656, 352.149
1264.138, 360.125
1264.621, 353.250
1265.103, 334.772
1265.585, 316.825
1266.067, 301.058
1266.549, 293.344
1267.031, 301.965
1267.513, 311.966
1267.995, 315.877
1268.478, 314.993
1268.960, 309.554
1269.442, 303.201
1269.924, 307.757
1270.406, 336.402
1270.888, 353.323
1271.370, 350.095
1271.852, 341.774
1272.334, 335.889
1272.817, 332.118
1273.299, 330.055
1273.781, 329.337
1274.263, 329.204
1274.745, 330.299
1275.227, 330.518
1275.709, 330.789
1276.191, 326.946
1276.673, 310.250
1277.156, 293.605
1277.638, 302.369
1278.120, 324.427
1278.602, 336.494
1279.084, 328.289
1279.566, 329.151
1280.048, 340.542
1280.530, 352.088
1281.013, 359.017
1281.495, 361.061
1281.977, 353.712
1282.459, 343.204
1282.941, 340.602
1283.423, 348.687
1283.905, 351.311
1284.387, 348.320
1284.870, 346.234
1285.352, 354.001
1285.834, 358.861
1286.316, 346.137
1286.798, 329.292
1287.280, 326.552
1287.762, 338.694
1288.244, 343.208
1288.726, 340.506
1289.208, 336.624
1289.691, 328.999
1290.173, 328.387
1290.655, 347.746
1291.137, 369.039
1291.619, 377.314
1292.101, 373.330
1292.583, 356.519
1293.065, 331.004
1293.548, 315.950
1294.030, 329.543
1294.512, 341.272
1294.994, 345.308
1295.476, 346.669
1295.958, 351.000
1296.440, 355.599
1296.922, 351.665
1297.405, 342.543
1297.887, 336.904
1298.369, 340.026
1298.851, 340.862
1299.333, 338.807
1299.815, 334.877
1300.297, 329.682
1300.779, 323.222
##END=



