##NAMES=Fleischerite
##RRUFFID=R120043
##IDEAL CHEMISTRY=Pb^2+^_3_Ge^4+^(S^6+^O_4_)_2_(OH)_6_&#183;3H_2_O
##LOCALITY=Tsumeb, Namibia
##OWNER=RRUFF
##SOURCE=William W. Pinch
##DESCRIPTION=Bundled aggregate of tan colored acicular crystals
##STATUS=The identification of this mineral has been confirmed by single-crystal X-ray diffraction.
##URL=rruff.info/R120043
9.112140e+001, 0.000000e+000
9.160352e+001, 3.536488e+002
9.208563e+001, 3.429438e+002
9.256775e+001, 3.416455e+002
9.304987e+001, 3.548325e+002
9.353198e+001, 3.707718e+002
9.401410e+001, 3.813211e+002
9.449622e+001, 3.870939e+002
9.497833e+001, 3.907709e+002
9.546045e+001, 3.944853e+002
9.594257e+001, 3.982003e+002
9.642468e+001, 4.014238e+002
9.690680e+001, 4.039828e+002
9.738892e+001, 4.068423e+002
9.787103e+001, 4.105727e+002
9.835315e+001, 4.145282e+002
9.883527e+001, 4.179051e+002
9.931738e+001, 4.210791e+002
9.979950e+001, 4.241857e+002
1.002816e+002, 4.272344e+002
1.007637e+002, 4.298407e+002
1.012458e+002, 4.324550e+002
1.017280e+002, 4.357138e+002
1.022101e+002, 4.398853e+002
1.026922e+002, 4.440220e+002
1.031743e+002, 4.464993e+002
1.036564e+002, 4.474675e+002
1.041385e+002, 4.476754e+002
1.046207e+002, 4.471419e+002
1.051028e+002, 4.459819e+002
1.055849e+002, 4.446721e+002
1.060670e+002, 4.436831e+002
1.065491e+002, 4.420011e+002
1.070313e+002, 4.384897e+002
1.075134e+002, 4.328428e+002
1.079955e+002, 4.266977e+002
1.084776e+002, 4.216679e+002
1.089597e+002, 4.178839e+002
1.094418e+002, 4.145634e+002
1.099240e+002, 4.112045e+002
1.104061e+002, 4.083069e+002
1.108882e+002, 4.062652e+002
1.113703e+002, 4.052128e+002
1.118524e+002, 4.051541e+002
1.123345e+002, 4.061024e+002
1.128167e+002, 4.080610e+002
1.132988e+002, 4.112749e+002
1.137809e+002, 4.161273e+002
1.142630e+002, 4.220557e+002
1.147451e+002, 4.283988e+002
1.152272e+002, 4.346773e+002
1.157094e+002, 4.409804e+002
1.161915e+002, 4.480721e+002
1.166736e+002, 4.560887e+002
1.171557e+002, 4.646455e+002
1.176378e+002, 4.738023e+002
1.181199e+002, 4.834535e+002
1.186021e+002, 4.933403e+002
1.190842e+002, 5.033373e+002
1.195663e+002, 5.134102e+002
1.200484e+002, 5.226766e+002
1.205305e+002, 5.316155e+002
1.210126e+002, 5.395442e+002
1.214948e+002, 5.459460e+002
1.219769e+002, 5.507779e+002
1.224590e+002, 5.539329e+002
1.229411e+002, 5.545485e+002
1.234232e+002, 5.531985e+002
1.239053e+002, 5.511590e+002
1.243875e+002, 5.487576e+002
1.248696e+002, 5.459684e+002
1.253517e+002, 5.426877e+002
1.258338e+002, 5.386373e+002
1.263159e+002, 5.344167e+002
1.267980e+002, 5.303466e+002
1.272802e+002, 5.264467e+002
1.277623e+002, 5.228386e+002
1.282444e+002, 5.197502e+002
1.287265e+002, 5.172723e+002
1.292086e+002, 5.144977e+002
1.296907e+002, 5.102032e+002
1.301729e+002, 5.064436e+002
1.306550e+002, 5.043536e+002
1.311371e+002, 5.040015e+002
1.316192e+002, 5.045728e+002
1.321013e+002, 5.048837e+002
1.325834e+002, 5.042982e+002
1.330656e+002, 5.048310e+002
1.335477e+002, 5.065980e+002
1.340298e+002, 5.092056e+002
1.345119e+002, 5.124983e+002
1.349940e+002, 5.163835e+002
1.354761e+002, 5.206975e+002
1.359583e+002, 5.250446e+002
1.364404e+002, 5.297829e+002
1.369225e+002, 5.340753e+002
1.374046e+002, 5.382508e+002
1.378867e+002, 5.418990e+002
1.383688e+002, 5.444102e+002
1.388510e+002, 5.455292e+002
1.393331e+002, 5.452943e+002
1.398152e+002, 5.437957e+002
1.402973e+002, 5.409860e+002
1.407794e+002, 5.373828e+002
1.412615e+002, 5.330803e+002
1.417437e+002, 5.281288e+002
1.422258e+002, 5.226378e+002
1.427079e+002, 5.165597e+002
1.431900e+002, 5.099975e+002
1.436721e+002, 5.032963e+002
1.441542e+002, 4.965362e+002
1.446364e+002, 4.895374e+002
1.451185e+002, 4.820748e+002
1.456006e+002, 4.741085e+002
1.460827e+002, 4.659363e+002
1.465648e+002, 4.574201e+002
1.470469e+002, 4.488287e+002
1.475291e+002, 4.404598e+002
1.480112e+002, 4.325186e+002
1.484933e+002, 4.247567e+002
1.489754e+002, 4.165715e+002
1.494575e+002, 4.075461e+002
1.499396e+002, 3.987375e+002
1.504218e+002, 3.901800e+002
1.509039e+002, 3.820173e+002
1.513860e+002, 3.745024e+002
1.518681e+002, 3.677866e+002
1.523502e+002, 3.617863e+002
1.528323e+002, 3.561455e+002
1.533145e+002, 3.509306e+002
1.537966e+002, 3.460584e+002
1.542787e+002, 3.414528e+002
1.547608e+002, 3.371597e+002
1.552429e+002, 3.332499e+002
1.557250e+002, 3.297756e+002
1.562072e+002, 3.267650e+002
1.566893e+002, 3.239126e+002
1.571714e+002, 3.212307e+002
1.576535e+002, 3.186422e+002
1.581356e+002, 3.160282e+002
1.586177e+002, 3.134378e+002
1.590999e+002, 3.110551e+002
1.595820e+002, 3.090753e+002
1.600641e+002, 3.075687e+002
1.605462e+002, 3.060643e+002
1.610283e+002, 3.046759e+002
1.615104e+002, 3.032243e+002
1.619926e+002, 3.015094e+002
1.624747e+002, 2.995143e+002
1.629568e+002, 2.974906e+002
1.634389e+002, 2.957122e+002
1.639210e+002, 2.941678e+002
1.644031e+002, 2.927655e+002
1.648853e+002, 2.915765e+002
1.653674e+002, 2.904994e+002
1.658495e+002, 2.894489e+002
1.663316e+002, 2.884556e+002
1.668137e+002, 2.873498e+002
1.672958e+002, 2.858105e+002
1.677780e+002, 2.839631e+002
1.682601e+002, 2.823297e+002
1.687422e+002, 2.812514e+002
1.692243e+002, 2.806126e+002
1.697064e+002, 2.799996e+002
1.701885e+002, 2.795020e+002
1.706707e+002, 2.788359e+002
1.711528e+002, 2.777066e+002
1.716349e+002, 2.762226e+002
1.721170e+002, 2.748227e+002
1.725991e+002, 2.737699e+002
1.730812e+002, 2.730593e+002
1.735634e+002, 2.727992e+002
1.740455e+002, 2.735975e+002
1.745276e+002, 2.743947e+002
1.750097e+002, 2.746674e+002
1.754918e+002, 2.744620e+002
1.759739e+002, 2.741963e+002
1.764561e+002, 2.743589e+002
1.769382e+002, 2.751263e+002
1.774203e+002, 2.757267e+002
1.779024e+002, 2.760332e+002
1.783845e+002, 2.762898e+002
1.788666e+002, 2.765907e+002
1.793488e+002, 2.769622e+002
1.798309e+002, 2.774041e+002
1.803130e+002, 2.779059e+002
1.807951e+002, 2.784344e+002
1.812772e+002, 2.791238e+002
1.817593e+002, 2.799686e+002
1.822415e+002, 2.809491e+002
1.827236e+002, 2.820672e+002
1.832057e+002, 2.833178e+002
1.836878e+002, 2.846628e+002
1.841699e+002, 2.860382e+002
1.846520e+002, 2.873783e+002
1.851342e+002, 2.889237e+002
1.856163e+002, 2.908932e+002
1.860984e+002, 2.929787e+002
1.865805e+002, 2.948650e+002
1.870626e+002, 2.964596e+002
1.875447e+002, 2.978420e+002
1.880269e+002, 2.990021e+002
1.885090e+002, 2.997271e+002
1.889911e+002, 3.010530e+002
1.894732e+002, 3.035606e+002
1.899553e+002, 3.067666e+002
1.904374e+002, 3.097914e+002
1.909196e+002, 3.123674e+002
1.914017e+002, 3.147882e+002
1.918838e+002, 3.175518e+002
1.923659e+002, 3.206620e+002
1.928480e+002, 3.237287e+002
1.933301e+002, 3.264725e+002
1.938123e+002, 3.289976e+002
1.942944e+002, 3.317584e+002
1.947765e+002, 3.350553e+002
1.952586e+002, 3.383763e+002
1.957407e+002, 3.412063e+002
1.962228e+002, 3.435325e+002
1.967050e+002, 3.456781e+002
1.971871e+002, 3.479069e+002
1.976692e+002, 3.502061e+002
1.981513e+002, 3.522491e+002
1.986334e+002, 3.536009e+002
1.991155e+002, 3.550005e+002
1.995977e+002, 3.570797e+002
2.000798e+002, 3.598410e+002
2.005619e+002, 3.626094e+002
2.010440e+002, 3.647740e+002
2.015261e+002, 3.663056e+002
2.020082e+002, 3.675083e+002
2.024904e+002, 3.680168e+002
2.029725e+002, 3.684909e+002
2.034546e+002, 3.692343e+002
2.039367e+002, 3.702939e+002
2.044188e+002, 3.715659e+002
2.049009e+002, 3.729535e+002
2.053831e+002, 3.745114e+002
2.058652e+002, 3.760089e+002
2.063473e+002, 3.775296e+002
2.068294e+002, 3.789259e+002
2.073115e+002, 3.801724e+002
2.077936e+002, 3.812282e+002
2.082758e+002, 3.819833e+002
2.087579e+002, 3.821535e+002
2.092400e+002, 3.810280e+002
2.097221e+002, 3.809422e+002
2.102042e+002, 3.825881e+002
2.106863e+002, 3.845919e+002
2.111685e+002, 3.860160e+002
2.116506e+002, 3.866837e+002
2.121327e+002, 3.870732e+002
2.126148e+002, 3.879178e+002
2.130969e+002, 3.897264e+002
2.135790e+002, 3.908564e+002
2.140612e+002, 3.910551e+002
2.145433e+002, 3.907920e+002
2.150254e+002, 3.903328e+002
2.155075e+002, 3.897696e+002
2.159896e+002, 3.892118e+002
2.164717e+002, 3.888675e+002
2.169539e+002, 3.890436e+002
2.174360e+002, 3.885967e+002
2.179181e+002, 3.876357e+002
2.184002e+002, 3.859822e+002
2.188823e+002, 3.832262e+002
2.193644e+002, 3.792674e+002
2.198466e+002, 3.748483e+002
2.203287e+002, 3.710312e+002
2.208108e+002, 3.679760e+002
2.212929e+002, 3.644811e+002
2.217750e+002, 3.600782e+002
2.222571e+002, 3.552686e+002
2.227393e+002, 3.506569e+002
2.232214e+002, 3.463839e+002
2.237035e+002, 3.422596e+002
2.241856e+002, 3.379613e+002
2.246677e+002, 3.335067e+002
2.251498e+002, 3.295502e+002
2.256320e+002, 3.265393e+002
2.261141e+002, 3.240654e+002
2.265962e+002, 3.213925e+002
2.270783e+002, 3.182846e+002
2.275604e+002, 3.153258e+002
2.280425e+002, 3.129885e+002
2.285247e+002, 3.112168e+002
2.290068e+002, 3.100451e+002
2.294889e+002, 3.099353e+002
2.299710e+002, 3.104105e+002
2.304531e+002, 3.103033e+002
2.309352e+002, 3.092066e+002
2.314174e+002, 3.081534e+002
2.318995e+002, 3.080201e+002
2.323816e+002, 3.085574e+002
2.328637e+002, 3.091310e+002
2.333458e+002, 3.093598e+002
2.338279e+002, 3.093807e+002
2.343101e+002, 3.096879e+002
2.347922e+002, 3.104832e+002
2.352743e+002, 3.112370e+002
2.357564e+002, 3.114886e+002
2.362385e+002, 3.114806e+002
2.367206e+002, 3.117354e+002
2.372028e+002, 3.128006e+002
2.376849e+002, 3.143789e+002
2.381670e+002, 3.151868e+002
2.386491e+002, 3.149174e+002
2.391312e+002, 3.142540e+002
2.396133e+002, 3.134206e+002
2.400955e+002, 3.124627e+002
2.405776e+002, 3.114554e+002
2.410597e+002, 3.104959e+002
2.415418e+002, 3.095113e+002
2.420239e+002, 3.081566e+002
2.425060e+002, 3.062159e+002
2.429882e+002, 3.041548e+002
2.434703e+002, 3.020115e+002
2.439524e+002, 2.998640e+002
2.444345e+002, 2.978259e+002
2.449166e+002, 2.959863e+002
2.453987e+002, 2.942782e+002
2.458809e+002, 2.924151e+002
2.463630e+002, 2.902184e+002
2.468451e+002, 2.880913e+002
2.473272e+002, 2.862472e+002
2.478093e+002, 2.844800e+002
2.482914e+002, 2.825340e+002
2.487736e+002, 2.802640e+002
2.492557e+002, 2.777275e+002
2.497378e+002, 2.751763e+002
2.502199e+002, 2.724381e+002
2.507020e+002, 2.699035e+002
2.511841e+002, 2.678289e+002
2.516663e+002, 2.659244e+002
2.521484e+002, 2.638288e+002
2.526305e+002, 2.613503e+002
2.531126e+002, 2.586686e+002
2.535947e+002, 2.562905e+002
2.540768e+002, 2.545862e+002
2.545590e+002, 2.527907e+002
2.550411e+002, 2.509404e+002
2.555232e+002, 2.489445e+002
2.560053e+002, 2.466196e+002
2.564874e+002, 2.438990e+002
2.569695e+002, 2.409804e+002
2.574517e+002, 2.383451e+002
2.579338e+002, 2.361444e+002
2.584159e+002, 2.340752e+002
2.588980e+002, 2.322111e+002
2.593801e+002, 2.304390e+002
2.598622e+002, 2.286210e+002
2.603444e+002, 2.267109e+002
2.608265e+002, 2.247660e+002
2.613086e+002, 2.229050e+002
2.617907e+002, 2.212893e+002
2.622728e+002, 2.194636e+002
2.627549e+002, 2.170692e+002
2.632371e+002, 2.146234e+002
2.637192e+002, 2.126846e+002
2.642013e+002, 2.113897e+002
2.646834e+002, 2.104485e+002
2.651655e+002, 2.094665e+002
2.656476e+002, 2.085090e+002
2.661298e+002, 2.073078e+002
2.666119e+002, 2.057067e+002
2.670940e+002, 2.039382e+002
2.675761e+002, 2.021149e+002
2.680582e+002, 2.002709e+002
2.685403e+002, 1.986471e+002
2.690225e+002, 1.975928e+002
2.695046e+002, 1.973030e+002
2.699867e+002, 1.967165e+002
2.704688e+002, 1.955405e+002
2.709509e+002, 1.942304e+002
2.714330e+002, 1.932359e+002
2.719152e+002, 1.925964e+002
2.723973e+002, 1.919172e+002
2.728794e+002, 1.907220e+002
2.733615e+002, 1.889712e+002
2.738436e+002, 1.878123e+002
2.743257e+002, 1.876902e+002
2.748079e+002, 1.878571e+002
2.752900e+002, 1.878584e+002
2.757721e+002, 1.876421e+002
2.762542e+002, 1.871004e+002
2.767363e+002, 1.860019e+002
2.772184e+002, 1.844483e+002
2.777006e+002, 1.833133e+002
2.781827e+002, 1.828787e+002
2.786648e+002, 1.826487e+002
2.791469e+002, 1.822906e+002
2.796290e+002, 1.818197e+002
2.801111e+002, 1.814209e+002
2.805933e+002, 1.812660e+002
2.810754e+002, 1.812452e+002
2.815575e+002, 1.809938e+002
2.820396e+002, 1.804356e+002
2.825217e+002, 1.797476e+002
2.830038e+002, 1.789646e+002
2.834860e+002, 1.781148e+002
2.839681e+002, 1.773230e+002
2.844502e+002, 1.766027e+002
2.849323e+002, 1.760269e+002
2.854144e+002, 1.757208e+002
2.858965e+002, 1.757785e+002
2.863787e+002, 1.758615e+002
2.868608e+002, 1.758148e+002
2.873429e+002, 1.756484e+002
2.878250e+002, 1.753494e+002
2.883071e+002, 1.747899e+002
2.887892e+002, 1.742743e+002
2.892714e+002, 1.742519e+002
2.897535e+002, 1.747514e+002
2.902356e+002, 1.753644e+002
2.907177e+002, 1.761075e+002
2.911998e+002, 1.768282e+002
2.916819e+002, 1.770807e+002
2.921641e+002, 1.766523e+002
2.926462e+002, 1.759473e+002
2.931283e+002, 1.753076e+002
2.936104e+002, 1.747350e+002
2.940925e+002, 1.743912e+002
2.945746e+002, 1.745170e+002
2.950568e+002, 1.748875e+002
2.955389e+002, 1.749792e+002
2.960210e+002, 1.746074e+002
2.965031e+002, 1.743309e+002
2.969852e+002, 1.748449e+002
2.974673e+002, 1.758745e+002
2.979495e+002, 1.766805e+002
2.984316e+002, 1.768368e+002
2.989137e+002, 1.767031e+002
2.993958e+002, 1.768723e+002
2.998779e+002, 1.774394e+002
3.003600e+002, 1.779056e+002
3.008422e+002, 1.776874e+002
3.013243e+002, 1.771767e+002
3.018064e+002, 1.770676e+002
3.022885e+002, 1.776529e+002
3.027706e+002, 1.785627e+002
3.032527e+002, 1.794602e+002
3.037349e+002, 1.803594e+002
3.042170e+002, 1.810912e+002
3.046991e+002, 1.814541e+002
3.051812e+002, 1.816549e+002
3.056633e+002, 1.819265e+002
3.061454e+002, 1.822274e+002
3.066276e+002, 1.827752e+002
3.071097e+002, 1.839875e+002
3.075918e+002, 1.858066e+002
3.080739e+002, 1.872083e+002
3.085560e+002, 1.875016e+002
3.090381e+002, 1.875314e+002
3.095203e+002, 1.883280e+002
3.100024e+002, 1.899917e+002
3.104845e+002, 1.916675e+002
3.109666e+002, 1.925887e+002
3.114487e+002, 1.929577e+002
3.119308e+002, 1.938269e+002
3.124130e+002, 1.956304e+002
3.128951e+002, 1.976481e+002
3.133772e+002, 1.990595e+002
3.138593e+002, 1.999823e+002
3.143414e+002, 2.011817e+002
3.148235e+002, 2.031382e+002
3.153057e+002, 2.056483e+002
3.157878e+002, 2.082973e+002
3.162699e+002, 2.111724e+002
3.167520e+002, 2.138648e+002
3.172341e+002, 2.158862e+002
3.177162e+002, 2.174898e+002
3.181984e+002, 2.192231e+002
3.186805e+002, 2.210447e+002
3.191626e+002, 2.232092e+002
3.196447e+002, 2.262645e+002
3.201268e+002, 2.303653e+002
3.206089e+002, 2.345761e+002
3.210911e+002, 2.383586e+002
3.215732e+002, 2.419545e+002
3.220553e+002, 2.456448e+002
3.225374e+002, 2.494335e+002
3.230195e+002, 2.534501e+002
3.235016e+002, 2.580078e+002
3.239838e+002, 2.631410e+002
3.244659e+002, 2.678527e+002
3.249480e+002, 2.713735e+002
3.254301e+002, 2.745357e+002
3.259122e+002, 2.784433e+002
3.263943e+002, 2.833585e+002
3.268765e+002, 2.881114e+002
3.273586e+002, 2.917530e+002
3.278407e+002, 2.944671e+002
3.283228e+002, 2.973856e+002
3.288049e+002, 3.014943e+002
3.292870e+002, 3.047711e+002
3.297692e+002, 3.051444e+002
3.302513e+002, 3.028237e+002
3.307334e+002, 2.995750e+002
3.312155e+002, 2.962811e+002
3.316976e+002, 2.926673e+002
3.321797e+002, 2.879532e+002
3.326619e+002, 2.818133e+002
3.331440e+002, 2.752573e+002
3.336261e+002, 2.691136e+002
3.341082e+002, 2.632070e+002
3.345903e+002, 2.570241e+002
3.350724e+002, 2.499711e+002
3.355546e+002, 2.428323e+002
3.360367e+002, 2.367781e+002
3.365188e+002, 2.319299e+002
3.370009e+002, 2.271537e+002
3.374830e+002, 2.215843e+002
3.379651e+002, 2.157415e+002
3.384473e+002, 2.106546e+002
3.389294e+002, 2.067124e+002
3.394115e+002, 2.031078e+002
3.398936e+002, 1.991522e+002
3.403757e+002, 1.949163e+002
3.408578e+002, 1.910502e+002
3.413400e+002, 1.877495e+002
3.418221e+002, 1.849951e+002
3.423042e+002, 1.827228e+002
3.427863e+002, 1.809854e+002
3.432684e+002, 1.793303e+002
3.437505e+002, 1.776152e+002
3.442327e+002, 1.758145e+002
3.447148e+002, 1.737727e+002
3.451969e+002, 1.713301e+002
3.456790e+002, 1.689836e+002
3.461611e+002, 1.674112e+002
3.466432e+002, 1.664913e+002
3.471254e+002, 1.656786e+002
3.476075e+002, 1.648641e+002
3.480896e+002, 1.640675e+002
3.485717e+002, 1.633340e+002
3.490538e+002, 1.626657e+002
3.495359e+002, 1.620114e+002
3.500181e+002, 1.612764e+002
3.505002e+002, 1.605238e+002
3.509823e+002, 1.599962e+002
3.514644e+002, 1.600783e+002
3.519465e+002, 1.600737e+002
3.524286e+002, 1.593984e+002
3.529108e+002, 1.581790e+002
3.533929e+002, 1.569597e+002
3.538750e+002, 1.559063e+002
3.543571e+002, 1.551298e+002
3.548392e+002, 1.549502e+002
3.553214e+002, 1.556832e+002
3.558035e+002, 1.562151e+002
3.562856e+002, 1.560017e+002
3.567677e+002, 1.553460e+002
3.572498e+002, 1.547522e+002
3.577319e+002, 1.543495e+002
3.582141e+002, 1.541123e+002
3.586962e+002, 1.540541e+002
3.591783e+002, 1.542189e+002
3.596604e+002, 1.542801e+002
3.601425e+002, 1.541383e+002
3.606246e+002, 1.539162e+002
3.611068e+002, 1.536821e+002
3.615889e+002, 1.534555e+002
3.620710e+002, 1.533422e+002
3.625531e+002, 1.534840e+002
3.630352e+002, 1.538673e+002
3.635173e+002, 1.539509e+002
3.639995e+002, 1.536713e+002
3.644816e+002, 1.531902e+002
3.649637e+002, 1.523931e+002
3.654458e+002, 1.514429e+002
3.659279e+002, 1.507316e+002
3.664100e+002, 1.504702e+002
3.668922e+002, 1.505663e+002
3.673743e+002, 1.507437e+002
3.678564e+002, 1.512192e+002
3.683385e+002, 1.514661e+002
3.688206e+002, 1.512621e+002
3.693027e+002, 1.508598e+002
3.697849e+002, 1.505748e+002
3.702670e+002, 1.504901e+002
3.707491e+002, 1.504176e+002
3.712312e+002, 1.500795e+002
3.717133e+002, 1.493346e+002
3.721954e+002, 1.487562e+002
3.726776e+002, 1.484844e+002
3.731597e+002, 1.482505e+002
3.736418e+002, 1.478700e+002
3.741239e+002, 1.473615e+002
3.746060e+002, 1.468572e+002
3.750881e+002, 1.464479e+002
3.755703e+002, 1.461367e+002
3.760524e+002, 1.459601e+002
3.765345e+002, 1.459214e+002
3.770166e+002, 1.460075e+002
3.774987e+002, 1.463560e+002
3.779808e+002, 1.467935e+002
3.784630e+002, 1.471042e+002
3.789451e+002, 1.471897e+002
3.794272e+002, 1.470540e+002
3.799093e+002, 1.466706e+002
3.803914e+002, 1.456664e+002
3.808735e+002, 1.450515e+002
3.813557e+002, 1.451175e+002
3.818378e+002, 1.453591e+002
3.823199e+002, 1.453631e+002
3.828020e+002, 1.450974e+002
3.832841e+002, 1.448613e+002
3.837662e+002, 1.450560e+002
3.842484e+002, 1.457996e+002
3.847305e+002, 1.461446e+002
3.852126e+002, 1.456288e+002
3.856947e+002, 1.451432e+002
3.861768e+002, 1.450453e+002
3.866589e+002, 1.451870e+002
3.871411e+002, 1.452152e+002
3.876232e+002, 1.448858e+002
3.881053e+002, 1.443374e+002
3.885874e+002, 1.440668e+002
3.890695e+002, 1.441357e+002
3.895516e+002, 1.443886e+002
3.900338e+002, 1.450462e+002
3.905159e+002, 1.457061e+002
3.909980e+002, 1.459099e+002
3.914801e+002, 1.455388e+002
3.919622e+002, 1.450476e+002
3.924443e+002, 1.450999e+002
3.929265e+002, 1.457898e+002
3.934086e+002, 1.461086e+002
3.938907e+002, 1.456796e+002
3.943728e+002, 1.450681e+002
3.948549e+002, 1.444770e+002
3.953370e+002, 1.439636e+002
3.958192e+002, 1.436704e+002
3.963013e+002, 1.438954e+002
3.967834e+002, 1.444057e+002
3.972655e+002, 1.442953e+002
3.977476e+002, 1.432134e+002
3.982297e+002, 1.424268e+002
3.987119e+002, 1.428462e+002
3.991940e+002, 1.438818e+002
3.996761e+002, 1.448684e+002
4.001582e+002, 1.457129e+002
4.006403e+002, 1.463008e+002
4.011224e+002, 1.463732e+002
4.016046e+002, 1.459672e+002
4.020867e+002, 1.457265e+002
4.025688e+002, 1.459187e+002
4.030509e+002, 1.462760e+002
4.035330e+002, 1.464218e+002
4.040151e+002, 1.463462e+002
4.044973e+002, 1.464266e+002
4.049794e+002, 1.470329e+002
4.054615e+002, 1.478446e+002
4.059436e+002, 1.482227e+002
4.064257e+002, 1.480397e+002
4.069078e+002, 1.478486e+002
4.073900e+002, 1.480838e+002
4.078721e+002, 1.487068e+002
4.083542e+002, 1.494338e+002
4.088363e+002, 1.503633e+002
4.093184e+002, 1.512868e+002
4.098005e+002, 1.520652e+002
4.102827e+002, 1.527209e+002
4.107648e+002, 1.532731e+002
4.112469e+002, 1.536693e+002
4.117290e+002, 1.540851e+002
4.122111e+002, 1.549512e+002
4.126932e+002, 1.563354e+002
4.131754e+002, 1.578957e+002
4.136575e+002, 1.597505e+002
4.141396e+002, 1.616564e+002
4.146217e+002, 1.632608e+002
4.151038e+002, 1.645391e+002
4.155859e+002, 1.659469e+002
4.160681e+002, 1.680144e+002
4.165502e+002, 1.708511e+002
4.170323e+002, 1.730694e+002
4.175144e+002, 1.739214e+002
4.179965e+002, 1.750336e+002
4.184786e+002, 1.774126e+002
4.189608e+002, 1.804939e+002
4.194429e+002, 1.831260e+002
4.199250e+002, 1.846983e+002
4.204071e+002, 1.855889e+002
4.208892e+002, 1.868685e+002
4.213713e+002, 1.891926e+002
4.218535e+002, 1.908814e+002
4.223356e+002, 1.916029e+002
4.228177e+002, 1.919296e+002
4.232998e+002, 1.922133e+002
4.237819e+002, 1.925488e+002
4.242640e+002, 1.929149e+002
4.247462e+002, 1.932722e+002
4.252283e+002, 1.936106e+002
4.257104e+002, 1.941058e+002
4.261925e+002, 1.947815e+002
4.266746e+002, 1.956074e+002
4.271567e+002, 1.964580e+002
4.276389e+002, 1.974775e+002
4.281210e+002, 1.988767e+002
4.286031e+002, 2.007612e+002
4.290852e+002, 2.030610e+002
4.295673e+002, 2.056669e+002
4.300494e+002, 2.086470e+002
4.305316e+002, 2.116990e+002
4.310137e+002, 2.146335e+002
4.314958e+002, 2.176924e+002
4.319779e+002, 2.210887e+002
4.324600e+002, 2.248161e+002
4.329421e+002, 2.285779e+002
4.334243e+002, 2.322636e+002
4.339064e+002, 2.358202e+002
4.343885e+002, 2.390577e+002
4.348706e+002, 2.420041e+002
4.353527e+002, 2.445683e+002
4.358348e+002, 2.465699e+002
4.363170e+002, 2.481838e+002
4.367991e+002, 2.496903e+002
4.372812e+002, 2.512197e+002
4.377633e+002, 2.525613e+002
4.382454e+002, 2.532298e+002
4.387275e+002, 2.533845e+002
4.392097e+002, 2.541813e+002
4.396918e+002, 2.561773e+002
4.401739e+002, 2.587418e+002
4.406560e+002, 2.607633e+002
4.411381e+002, 2.621233e+002
4.416202e+002, 2.642541e+002
4.421024e+002, 2.680081e+002
4.425845e+002, 2.724843e+002
4.430666e+002, 2.767293e+002
4.435487e+002, 2.806446e+002
4.440308e+002, 2.843958e+002
4.445129e+002, 2.881362e+002
4.449951e+002, 2.918149e+002
4.454772e+002, 2.951498e+002
4.459593e+002, 2.984994e+002
4.464414e+002, 3.011393e+002
4.469235e+002, 3.030588e+002
4.474056e+002, 3.040680e+002
4.478878e+002, 3.038412e+002
4.483699e+002, 3.022755e+002
4.488520e+002, 2.996571e+002
4.493341e+002, 2.964030e+002
4.498162e+002, 2.925854e+002
4.502983e+002, 2.878216e+002
4.507805e+002, 2.816553e+002
4.512626e+002, 2.751337e+002
4.517447e+002, 2.685210e+002
4.522268e+002, 2.619913e+002
4.527089e+002, 2.556974e+002
4.531910e+002, 2.497449e+002
4.536732e+002, 2.441771e+002
4.541553e+002, 2.392594e+002
4.546374e+002, 2.352568e+002
4.551195e+002, 2.314922e+002
4.556016e+002, 2.278069e+002
4.560837e+002, 2.243127e+002
4.565659e+002, 2.210675e+002
4.570480e+002, 2.180801e+002
4.575301e+002, 2.155084e+002
4.580122e+002, 2.137583e+002
4.584943e+002, 2.127969e+002
4.589764e+002, 2.112496e+002
4.594586e+002, 2.089368e+002
4.599407e+002, 2.062073e+002
4.604228e+002, 2.032282e+002
4.609049e+002, 2.000254e+002
4.613870e+002, 1.965952e+002
4.618691e+002, 1.928078e+002
4.623513e+002, 1.890103e+002
4.628334e+002, 1.856725e+002
4.633155e+002, 1.827815e+002
4.637976e+002, 1.800148e+002
4.642797e+002, 1.773611e+002
4.647618e+002, 1.746876e+002
4.652440e+002, 1.717226e+002
4.657261e+002, 1.684457e+002
4.662082e+002, 1.654694e+002
4.666903e+002, 1.630800e+002
4.671724e+002, 1.610446e+002
4.676545e+002, 1.591069e+002
4.681367e+002, 1.572511e+002
4.686188e+002, 1.555159e+002
4.691009e+002, 1.539902e+002
4.695830e+002, 1.526054e+002
4.700651e+002, 1.509643e+002
4.705472e+002, 1.485181e+002
4.710294e+002, 1.465517e+002
4.715115e+002, 1.456445e+002
4.719936e+002, 1.452912e+002
4.724757e+002, 1.449454e+002
4.729578e+002, 1.444423e+002
4.734399e+002, 1.437399e+002
4.739221e+002, 1.427464e+002
4.744042e+002, 1.413668e+002
4.748863e+002, 1.402562e+002
4.753684e+002, 1.394600e+002
4.758505e+002, 1.388379e+002
4.763326e+002, 1.384399e+002
4.768148e+002, 1.381628e+002
4.772969e+002, 1.378682e+002
4.777790e+002, 1.374935e+002
4.782611e+002, 1.370356e+002
4.787432e+002, 1.364666e+002
4.792253e+002, 1.357167e+002
4.797075e+002, 1.350629e+002
4.801896e+002, 1.344596e+002
4.806717e+002, 1.340279e+002
4.811538e+002, 1.338975e+002
4.816359e+002, 1.340262e+002
4.821180e+002, 1.342350e+002
4.826002e+002, 1.344864e+002
4.830823e+002, 1.347051e+002
4.835644e+002, 1.346368e+002
4.840465e+002, 1.342077e+002
4.845286e+002, 1.337631e+002
4.850107e+002, 1.334708e+002
4.854929e+002, 1.332360e+002
4.859750e+002, 1.329673e+002
4.864571e+002, 1.326723e+002
4.869392e+002, 1.322663e+002
4.874213e+002, 1.314565e+002
4.879034e+002, 1.305318e+002
4.883856e+002, 1.302712e+002
4.888677e+002, 1.308728e+002
4.893498e+002, 1.315123e+002
4.898319e+002, 1.314372e+002
4.903140e+002, 1.306960e+002
4.907961e+002, 1.302096e+002
4.912783e+002, 1.301015e+002
4.917604e+002, 1.301102e+002
4.922425e+002, 1.301882e+002
4.927246e+002, 1.302857e+002
4.932067e+002, 1.303297e+002
4.936888e+002, 1.302950e+002
4.941710e+002, 1.301651e+002
4.946531e+002, 1.298868e+002
4.951352e+002, 1.293252e+002
4.956173e+002, 1.290585e+002
4.960994e+002, 1.294005e+002
4.965815e+002, 1.296889e+002
4.970637e+002, 1.295485e+002
4.975458e+002, 1.291051e+002
4.980279e+002, 1.286422e+002
4.985100e+002, 1.283037e+002
4.989921e+002, 1.281238e+002
4.994742e+002, 1.282456e+002
4.999564e+002, 1.288810e+002
5.004385e+002, 1.292747e+002
5.009206e+002, 1.291877e+002
5.014027e+002, 1.289345e+002
5.018848e+002, 1.286319e+002
5.023669e+002, 1.283190e+002
5.028491e+002, 1.280723e+002
5.033312e+002, 1.279815e+002
5.038133e+002, 1.279865e+002
5.042954e+002, 1.278987e+002
5.047775e+002, 1.276820e+002
5.052596e+002, 1.275523e+002
5.057418e+002, 1.276855e+002
5.062239e+002, 1.279247e+002
5.067060e+002, 1.280740e+002
5.071881e+002, 1.281439e+002
5.076702e+002, 1.280351e+002
5.081523e+002, 1.274830e+002
5.086345e+002, 1.267892e+002
5.091166e+002, 1.265040e+002
5.095987e+002, 1.267087e+002
5.100808e+002, 1.270319e+002
5.105629e+002, 1.271733e+002
5.110450e+002, 1.271548e+002
5.115272e+002, 1.272521e+002
5.120093e+002, 1.277026e+002
5.124914e+002, 1.279720e+002
5.129735e+002, 1.277520e+002
5.134556e+002, 1.273247e+002
5.139377e+002, 1.270684e+002
5.144199e+002, 1.270820e+002
5.149020e+002, 1.271930e+002
5.153841e+002, 1.271974e+002
5.158662e+002, 1.270926e+002
5.163483e+002, 1.269025e+002
5.168304e+002, 1.264175e+002
5.173126e+002, 1.260730e+002
5.177947e+002, 1.260746e+002
5.182768e+002, 1.262708e+002
5.187589e+002, 1.264480e+002
5.192410e+002, 1.265228e+002
5.197231e+002, 1.265344e+002
5.202053e+002, 1.265554e+002
5.206874e+002, 1.265937e+002
5.211695e+002, 1.264930e+002
5.216516e+002, 1.260410e+002
5.221337e+002, 1.256972e+002
5.226158e+002, 1.259278e+002
5.230980e+002, 1.265150e+002
5.235801e+002, 1.268190e+002
5.240622e+002, 1.263899e+002
5.245443e+002, 1.258034e+002
5.250264e+002, 1.256504e+002
5.255085e+002, 1.258833e+002
5.259907e+002, 1.262800e+002
5.264728e+002, 1.268467e+002
5.269549e+002, 1.273651e+002
5.274370e+002, 1.274788e+002
5.279191e+002, 1.271371e+002
5.284012e+002, 1.267624e+002
5.288834e+002, 1.261011e+002
5.293655e+002, 1.256719e+002
5.298476e+002, 1.261102e+002
5.303297e+002, 1.271107e+002
5.308118e+002, 1.277465e+002
5.312939e+002, 1.274998e+002
5.317761e+002, 1.267166e+002
5.322582e+002, 1.262917e+002
5.327403e+002, 1.265559e+002
5.332224e+002, 1.265676e+002
5.337045e+002, 1.259852e+002
5.341866e+002, 1.254616e+002
5.346688e+002, 1.255000e+002
5.351509e+002, 1.259581e+002
5.356330e+002, 1.262993e+002
5.361151e+002, 1.261200e+002
5.365972e+002, 1.256581e+002
5.370793e+002, 1.256246e+002
5.375615e+002, 1.261787e+002
5.380436e+002, 1.265011e+002
5.385257e+002, 1.261215e+002
5.390078e+002, 1.255937e+002
5.394899e+002, 1.253450e+002
5.399720e+002, 1.253935e+002
5.404542e+002, 1.256764e+002
5.409363e+002, 1.264467e+002
5.414184e+002, 1.272946e+002
5.419005e+002, 1.275912e+002
5.423826e+002, 1.273346e+002
5.428647e+002, 1.269143e+002
5.433469e+002, 1.264689e+002
5.438290e+002, 1.260521e+002
5.443111e+002, 1.258217e+002
5.447932e+002, 1.258608e+002
5.452753e+002, 1.258597e+002
5.457574e+002, 1.255671e+002
5.462396e+002, 1.253644e+002
5.467217e+002, 1.257671e+002
5.472038e+002, 1.266388e+002
5.476859e+002, 1.272670e+002
5.481680e+002, 1.271128e+002
5.486501e+002, 1.263961e+002
5.491323e+002, 1.260938e+002
5.496144e+002, 1.263620e+002
5.500965e+002, 1.268017e+002
5.505786e+002, 1.276938e+002
5.510607e+002, 1.284714e+002
5.515428e+002, 1.286159e+002
5.520250e+002, 1.281819e+002
5.525071e+002, 1.277010e+002
5.529892e+002, 1.275345e+002
5.534713e+002, 1.276150e+002
5.539534e+002, 1.277102e+002
5.544355e+002, 1.277757e+002
5.549177e+002, 1.281077e+002
5.553998e+002, 1.290477e+002
5.558819e+002, 1.301568e+002
5.563640e+002, 1.308533e+002
5.568461e+002, 1.310966e+002
5.573282e+002, 1.311905e+002
5.578104e+002, 1.310581e+002
5.582925e+002, 1.309531e+002
5.587746e+002, 1.312442e+002
5.592567e+002, 1.319086e+002
5.597388e+002, 1.325614e+002
5.602209e+002, 1.329520e+002
5.607031e+002, 1.332051e+002
5.611852e+002, 1.337198e+002
5.616673e+002, 1.347492e+002
5.621494e+002, 1.357033e+002
5.626315e+002, 1.365723e+002
5.631136e+002, 1.373661e+002
5.635958e+002, 1.380623e+002
5.640779e+002, 1.386884e+002
5.645600e+002, 1.392777e+002
5.650421e+002, 1.398200e+002
5.655242e+002, 1.404047e+002
5.660063e+002, 1.414087e+002
5.664885e+002, 1.430494e+002
5.669706e+002, 1.444530e+002
5.674527e+002, 1.448888e+002
5.679348e+002, 1.454136e+002
5.684169e+002, 1.469101e+002
5.688990e+002, 1.492840e+002
5.693812e+002, 1.516300e+002
5.698633e+002, 1.533931e+002
5.703454e+002, 1.548770e+002
5.708275e+002, 1.563651e+002
5.713096e+002, 1.578883e+002
5.717917e+002, 1.598690e+002
5.722739e+002, 1.625859e+002
5.727560e+002, 1.657364e+002
5.732381e+002, 1.688145e+002
5.737202e+002, 1.718135e+002
5.742023e+002, 1.748313e+002
5.746844e+002, 1.776067e+002
5.751666e+002, 1.806566e+002
5.756487e+002, 1.844112e+002
5.761308e+002, 1.887431e+002
5.766129e+002, 1.932521e+002
5.770950e+002, 1.977481e+002
5.775771e+002, 2.023425e+002
5.780593e+002, 2.072415e+002
5.785414e+002, 2.122855e+002
5.790235e+002, 2.180743e+002
5.795056e+002, 2.251484e+002
5.799877e+002, 2.325214e+002
5.804698e+002, 2.398118e+002
5.809520e+002, 2.470455e+002
5.814341e+002, 2.544305e+002
5.819162e+002, 2.620608e+002
5.823983e+002, 2.698756e+002
5.828804e+002, 2.774616e+002
5.833625e+002, 2.849596e+002
5.838447e+002, 2.937827e+002
5.843268e+002, 3.046887e+002
5.848089e+002, 3.159947e+002
5.852910e+002, 3.260374e+002
5.857731e+002, 3.348640e+002
5.862552e+002, 3.427946e+002
5.867374e+002, 3.501257e+002
5.872195e+002, 3.562875e+002
5.877016e+002, 3.612273e+002
5.881837e+002, 3.647038e+002
5.886658e+002, 3.664481e+002
5.891479e+002, 3.663492e+002
5.896301e+002, 3.641126e+002
5.901122e+002, 3.591829e+002
5.905943e+002, 3.513282e+002
5.910764e+002, 3.429357e+002
5.915585e+002, 3.341147e+002
5.920406e+002, 3.245250e+002
5.925228e+002, 3.136472e+002
5.930049e+002, 3.021567e+002
5.934870e+002, 2.908130e+002
5.939691e+002, 2.797713e+002
5.944512e+002, 2.690185e+002
5.949333e+002, 2.582910e+002
5.954155e+002, 2.477357e+002
5.958976e+002, 2.380940e+002
5.963797e+002, 2.294439e+002
5.968618e+002, 2.215874e+002
5.973439e+002, 2.144850e+002
5.978260e+002, 2.081706e+002
5.983082e+002, 2.025693e+002
5.987903e+002, 1.976524e+002
5.992724e+002, 1.935200e+002
5.997545e+002, 1.905375e+002
6.002366e+002, 1.881467e+002
6.007188e+002, 1.856695e+002
6.012009e+002, 1.831397e+002
6.016830e+002, 1.811824e+002
6.021651e+002, 1.802436e+002
6.026472e+002, 1.801075e+002
6.031293e+002, 1.800009e+002
6.036115e+002, 1.800064e+002
6.040936e+002, 1.798826e+002
6.045757e+002, 1.793199e+002
6.050578e+002, 1.788913e+002
6.055399e+002, 1.791019e+002
6.060220e+002, 1.797773e+002
6.065042e+002, 1.802785e+002
6.069863e+002, 1.801284e+002
6.074684e+002, 1.797970e+002
6.079505e+002, 1.801490e+002
6.084326e+002, 1.811646e+002
6.089147e+002, 1.819192e+002
6.093969e+002, 1.819638e+002
6.098790e+002, 1.820631e+002
6.103611e+002, 1.832516e+002
6.108432e+002, 1.854226e+002
6.113253e+002, 1.871720e+002
6.118074e+002, 1.880506e+002
6.122896e+002, 1.887912e+002
6.127717e+002, 1.896827e+002
6.132538e+002, 1.907246e+002
6.137359e+002, 1.920098e+002
6.142180e+002, 1.935318e+002
6.147001e+002, 1.949045e+002
6.151823e+002, 1.956325e+002
6.156644e+002, 1.956759e+002
6.161465e+002, 1.959083e+002
6.166286e+002, 1.966220e+002
6.171107e+002, 1.971120e+002
6.175928e+002, 1.972340e+002
6.180750e+002, 1.970434e+002
6.185571e+002, 1.965222e+002
6.190392e+002, 1.956842e+002
6.195213e+002, 1.947955e+002
6.200034e+002, 1.940223e+002
6.204855e+002, 1.933523e+002
6.209677e+002, 1.927471e+002
6.214498e+002, 1.922063e+002
6.219319e+002, 1.917754e+002
6.224140e+002, 1.915127e+002
6.228961e+002, 1.913390e+002
6.233782e+002, 1.911472e+002
6.238604e+002, 1.911143e+002
6.243425e+002, 1.905288e+002
6.248246e+002, 1.889062e+002
6.253067e+002, 1.870699e+002
6.257888e+002, 1.856855e+002
6.262709e+002, 1.845415e+002
6.267531e+002, 1.829504e+002
6.272352e+002, 1.805743e+002
6.277173e+002, 1.778313e+002
6.281994e+002, 1.754165e+002
6.286815e+002, 1.732845e+002
6.291636e+002, 1.717368e+002
6.296458e+002, 1.713208e+002
6.301279e+002, 1.708181e+002
6.306100e+002, 1.692238e+002
6.310921e+002, 1.672288e+002
6.315742e+002, 1.661894e+002
6.320563e+002, 1.667635e+002
6.325385e+002, 1.673522e+002
6.330206e+002, 1.667023e+002
6.335027e+002, 1.652790e+002
6.339848e+002, 1.640270e+002
6.344669e+002, 1.630785e+002
6.349490e+002, 1.619987e+002
6.354312e+002, 1.604765e+002
6.359133e+002, 1.585596e+002
6.363954e+002, 1.564415e+002
6.368775e+002, 1.542088e+002
6.373596e+002, 1.516526e+002
6.378417e+002, 1.484832e+002
6.383239e+002, 1.452305e+002
6.388060e+002, 1.421086e+002
6.392881e+002, 1.392358e+002
6.397702e+002, 1.368406e+002
6.402523e+002, 1.351282e+002
6.407344e+002, 1.337841e+002
6.412166e+002, 1.322259e+002
6.416987e+002, 1.304360e+002
6.421808e+002, 1.286716e+002
6.426629e+002, 1.268811e+002
6.431450e+002, 1.252771e+002
6.436271e+002, 1.241200e+002
6.441093e+002, 1.233162e+002
6.445914e+002, 1.225893e+002
6.450735e+002, 1.219832e+002
6.455556e+002, 1.213592e+002
6.460377e+002, 1.205209e+002
6.465198e+002, 1.196801e+002
6.470020e+002, 1.192678e+002
6.474841e+002, 1.192992e+002
6.479662e+002, 1.192113e+002
6.484483e+002, 1.184245e+002
6.489304e+002, 1.171155e+002
6.494125e+002, 1.165869e+002
6.498947e+002, 1.174898e+002
6.503768e+002, 1.179525e+002
6.508589e+002, 1.172889e+002
6.513410e+002, 1.163878e+002
6.518231e+002, 1.158690e+002
6.523052e+002, 1.157058e+002
6.527874e+002, 1.154884e+002
6.532695e+002, 1.149376e+002
6.537516e+002, 1.143017e+002
6.542337e+002, 1.138667e+002
6.547158e+002, 1.136142e+002
6.551979e+002, 1.135141e+002
6.556801e+002, 1.135936e+002
6.561622e+002, 1.136009e+002
6.566443e+002, 1.132005e+002
6.571264e+002, 1.123556e+002
6.576085e+002, 1.118478e+002
6.580906e+002, 1.119432e+002
6.585728e+002, 1.119940e+002
6.590549e+002, 1.117979e+002
6.595370e+002, 1.115111e+002
6.600191e+002, 1.113226e+002
6.605012e+002, 1.112429e+002
6.609833e+002, 1.111089e+002
6.614655e+002, 1.107281e+002
6.619476e+002, 1.102239e+002
6.624297e+002, 1.100073e+002
6.629118e+002, 1.101062e+002
6.633939e+002, 1.102884e+002
6.638760e+002, 1.105485e+002
6.643582e+002, 1.107845e+002
6.648403e+002, 1.109339e+002
6.653224e+002, 1.109954e+002
6.658045e+002, 1.107553e+002
6.662866e+002, 1.097385e+002
6.667687e+002, 1.088729e+002
6.672509e+002, 1.088785e+002
6.677330e+002, 1.093169e+002
6.682151e+002, 1.093927e+002
6.686972e+002, 1.089304e+002
6.691793e+002, 1.084613e+002
6.696614e+002, 1.085991e+002
6.701436e+002, 1.092744e+002
6.706257e+002, 1.094530e+002
6.711078e+002, 1.088553e+002
6.715899e+002, 1.083399e+002
6.720720e+002, 1.082325e+002
6.725541e+002, 1.082348e+002
6.730363e+002, 1.080442e+002
6.735184e+002, 1.076852e+002
6.740005e+002, 1.075505e+002
6.744826e+002, 1.081744e+002
6.749647e+002, 1.088028e+002
6.754468e+002, 1.084780e+002
6.759290e+002, 1.075221e+002
6.764111e+002, 1.069497e+002
6.768932e+002, 1.070803e+002
6.773753e+002, 1.074828e+002
6.778574e+002, 1.076570e+002
6.783395e+002, 1.075900e+002
6.788217e+002, 1.076335e+002
6.793038e+002, 1.080823e+002
6.797859e+002, 1.082573e+002
6.802680e+002, 1.077516e+002
6.807501e+002, 1.071251e+002
6.812322e+002, 1.068923e+002
6.817144e+002, 1.070862e+002
6.821965e+002, 1.073950e+002
6.826786e+002, 1.077044e+002
6.831607e+002, 1.079442e+002
6.836428e+002, 1.080239e+002
6.841249e+002, 1.079373e+002
6.846071e+002, 1.075658e+002
6.850892e+002, 1.067999e+002
6.855713e+002, 1.059944e+002
6.860534e+002, 1.055022e+002
6.865355e+002, 1.053257e+002
6.870176e+002, 1.055482e+002
6.874998e+002, 1.068461e+002
6.879819e+002, 1.076562e+002
6.884640e+002, 1.071501e+002
6.889461e+002, 1.062424e+002
6.894282e+002, 1.058667e+002
6.899103e+002, 1.061173e+002
6.903925e+002, 1.064930e+002
6.908746e+002, 1.066563e+002
6.913567e+002, 1.066411e+002
6.918388e+002, 1.064837e+002
6.923209e+002, 1.061774e+002
6.928030e+002, 1.058975e+002
6.932852e+002, 1.056345e+002
6.937673e+002, 1.055230e+002
6.942494e+002, 1.058350e+002
6.947315e+002, 1.065216e+002
6.952136e+002, 1.068166e+002
6.956957e+002, 1.064188e+002
6.961779e+002, 1.059590e+002
6.966600e+002, 1.055382e+002
6.971421e+002, 1.052352e+002
6.976242e+002, 1.051666e+002
6.981063e+002, 1.053198e+002
6.985884e+002, 1.055679e+002
6.990706e+002, 1.058375e+002
6.995527e+002, 1.060922e+002
7.000348e+002, 1.062124e+002
7.005169e+002, 1.061752e+002
7.009990e+002, 1.061580e+002
7.014811e+002, 1.062544e+002
7.019633e+002, 1.062964e+002
7.024454e+002, 1.059422e+002
7.029275e+002, 1.053860e+002
7.034096e+002, 1.053284e+002
7.038917e+002, 1.063265e+002
7.043738e+002, 1.071952e+002
7.048560e+002, 1.072684e+002
7.053381e+002, 1.070467e+002
7.058202e+002, 1.071819e+002
7.063023e+002, 1.076837e+002
7.067844e+002, 1.080996e+002
7.072665e+002, 1.081100e+002
7.077487e+002, 1.078538e+002
7.082308e+002, 1.077206e+002
7.087129e+002, 1.077588e+002
7.091950e+002, 1.076677e+002
7.096771e+002, 1.071821e+002
7.101592e+002, 1.068705e+002
7.106414e+002, 1.072830e+002
7.111235e+002, 1.080954e+002
7.116056e+002, 1.086282e+002
7.120877e+002, 1.087488e+002
7.125698e+002, 1.086330e+002
7.130519e+002, 1.080742e+002
7.135341e+002, 1.075018e+002
7.140162e+002, 1.074961e+002
7.144983e+002, 1.080091e+002
7.149804e+002, 1.086150e+002
7.154625e+002, 1.090860e+002
7.159446e+002, 1.094177e+002
7.164268e+002, 1.095413e+002
7.169089e+002, 1.093408e+002
7.173910e+002, 1.094879e+002
7.178731e+002, 1.104050e+002
7.183552e+002, 1.111133e+002
7.188373e+002, 1.109602e+002
7.193195e+002, 1.104106e+002
7.198016e+002, 1.101204e+002
7.202837e+002, 1.102055e+002
7.207658e+002, 1.104097e+002
7.212479e+002, 1.106930e+002
7.217300e+002, 1.109748e+002
7.222122e+002, 1.111489e+002
7.226943e+002, 1.112398e+002
7.231764e+002, 1.113956e+002
7.236585e+002, 1.116841e+002
7.241406e+002, 1.118965e+002
7.246227e+002, 1.116506e+002
7.251049e+002, 1.108610e+002
7.255870e+002, 1.104296e+002
7.260691e+002, 1.105827e+002
7.265512e+002, 1.107320e+002
7.270333e+002, 1.105816e+002
7.275154e+002, 1.103900e+002
7.279976e+002, 1.104419e+002
7.284797e+002, 1.107561e+002
7.289618e+002, 1.110735e+002
7.294439e+002, 1.112325e+002
7.299260e+002, 1.113927e+002
7.304081e+002, 1.117671e+002
7.308903e+002, 1.122483e+002
7.313724e+002, 1.125666e+002
7.318545e+002, 1.126475e+002
7.323366e+002, 1.126269e+002
7.328187e+002, 1.126541e+002
7.333008e+002, 1.127155e+002
7.337830e+002, 1.126434e+002
7.342651e+002, 1.124043e+002
7.347472e+002, 1.121024e+002
7.352293e+002, 1.115074e+002
7.357114e+002, 1.110710e+002
7.361935e+002, 1.112079e+002
7.366757e+002, 1.118161e+002
7.371578e+002, 1.124068e+002
7.376399e+002, 1.129484e+002
7.381220e+002, 1.132781e+002
7.386041e+002, 1.131711e+002
7.390862e+002, 1.128264e+002
7.395684e+002, 1.125062e+002
7.400505e+002, 1.122763e+002
7.405326e+002, 1.121739e+002
7.410147e+002, 1.122261e+002
7.414968e+002, 1.124267e+002
7.419789e+002, 1.128183e+002
7.424611e+002, 1.135409e+002
7.429432e+002, 1.139269e+002
7.434253e+002, 1.137702e+002
7.439074e+002, 1.134382e+002
7.443895e+002, 1.129576e+002
7.448716e+002, 1.125006e+002
7.453538e+002, 1.124310e+002
7.458359e+002, 1.129174e+002
7.463180e+002, 1.134213e+002
7.468001e+002, 1.137784e+002
7.472822e+002, 1.139771e+002
7.477643e+002, 1.139242e+002
7.482465e+002, 1.136974e+002
7.487286e+002, 1.134930e+002
7.492107e+002, 1.134010e+002
7.496928e+002, 1.134598e+002
7.501749e+002, 1.138065e+002
7.506570e+002, 1.144699e+002
7.511392e+002, 1.147792e+002
7.516213e+002, 1.145554e+002
7.521034e+002, 1.143983e+002
7.525855e+002, 1.147136e+002
7.530676e+002, 1.150957e+002
7.535497e+002, 1.149385e+002
7.540319e+002, 1.142128e+002
7.545140e+002, 1.138217e+002
7.549961e+002, 1.141535e+002
7.554782e+002, 1.146975e+002
7.559603e+002, 1.153147e+002
7.564424e+002, 1.158728e+002
7.569246e+002, 1.161986e+002
7.574067e+002, 1.162572e+002
7.578888e+002, 1.160926e+002
7.583709e+002, 1.156555e+002
7.588530e+002, 1.151213e+002
7.593351e+002, 1.151596e+002
7.598173e+002, 1.158483e+002
7.602994e+002, 1.164427e+002
7.607815e+002, 1.167941e+002
7.612636e+002, 1.169958e+002
7.617457e+002, 1.170636e+002
7.622278e+002, 1.170351e+002
7.627100e+002, 1.170950e+002
7.631921e+002, 1.173277e+002
7.636742e+002, 1.175255e+002
7.641563e+002, 1.175239e+002
7.646384e+002, 1.175650e+002
7.651205e+002, 1.178998e+002
7.656027e+002, 1.184510e+002
7.660848e+002, 1.190355e+002
7.665669e+002, 1.195855e+002
7.670490e+002, 1.198971e+002
7.675311e+002, 1.194571e+002
7.680132e+002, 1.184734e+002
7.684954e+002, 1.182112e+002
7.689775e+002, 1.188308e+002
7.694596e+002, 1.194236e+002
7.699417e+002, 1.195312e+002
7.704238e+002, 1.193985e+002
7.709059e+002, 1.194335e+002
7.713881e+002, 1.196517e+002
7.718702e+002, 1.199962e+002
7.723523e+002, 1.206985e+002
7.728344e+002, 1.212488e+002
7.733165e+002, 1.214241e+002
7.737986e+002, 1.213809e+002
7.742808e+002, 1.212196e+002
7.747629e+002, 1.210042e+002
7.752450e+002, 1.209125e+002
7.757271e+002, 1.210827e+002
7.762092e+002, 1.214269e+002
7.766913e+002, 1.219445e+002
7.771735e+002, 1.225435e+002
7.776556e+002, 1.227459e+002
7.781377e+002, 1.224268e+002
7.786198e+002, 1.221427e+002
7.791019e+002, 1.224026e+002
7.795840e+002, 1.230733e+002
7.800662e+002, 1.234828e+002
7.805483e+002, 1.236275e+002
7.810304e+002, 1.235095e+002
7.815125e+002, 1.228491e+002
7.819946e+002, 1.222140e+002
7.824767e+002, 1.219393e+002
7.829589e+002, 1.218710e+002
7.834410e+002, 1.216614e+002
7.839231e+002, 1.211671e+002
7.844052e+002, 1.208275e+002
7.848873e+002, 1.211435e+002
7.853694e+002, 1.216008e+002
7.858516e+002, 1.215782e+002
7.863337e+002, 1.211161e+002
7.868158e+002, 1.204091e+002
7.872979e+002, 1.195420e+002
7.877800e+002, 1.188202e+002
7.882621e+002, 1.187098e+002
7.887443e+002, 1.191855e+002
7.892264e+002, 1.193567e+002
7.897085e+002, 1.190513e+002
7.901906e+002, 1.189358e+002
7.906727e+002, 1.194074e+002
7.911548e+002, 1.199491e+002
7.916370e+002, 1.201011e+002
7.921191e+002, 1.198812e+002
7.926012e+002, 1.193690e+002
7.930833e+002, 1.182881e+002
7.935654e+002, 1.172720e+002
7.940475e+002, 1.165782e+002
7.945297e+002, 1.160552e+002
7.950118e+002, 1.155752e+002
7.954939e+002, 1.151111e+002
7.959760e+002, 1.146745e+002
7.964581e+002, 1.142768e+002
7.969402e+002, 1.138713e+002
7.974224e+002, 1.133337e+002
7.979045e+002, 1.127031e+002
7.983866e+002, 1.123108e+002
7.988687e+002, 1.122208e+002
7.993508e+002, 1.120283e+002
7.998329e+002, 1.114888e+002
8.003151e+002, 1.107864e+002
8.007972e+002, 1.102734e+002
8.012793e+002, 1.100111e+002
8.017614e+002, 1.096918e+002
8.022435e+002, 1.093504e+002
8.027256e+002, 1.089154e+002
8.032078e+002, 1.083027e+002
8.036899e+002, 1.076290e+002
8.041720e+002, 1.069214e+002
8.046541e+002, 1.062410e+002
8.051362e+002, 1.058277e+002
8.056183e+002, 1.059242e+002
8.061005e+002, 1.062159e+002
8.065826e+002, 1.065645e+002
8.070647e+002, 1.068197e+002
8.075468e+002, 1.065501e+002
8.080289e+002, 1.057278e+002
8.085110e+002, 1.047917e+002
8.089932e+002, 1.040209e+002
8.094753e+002, 1.034487e+002
8.099574e+002, 1.032140e+002
8.104395e+002, 1.034315e+002
8.109216e+002, 1.034787e+002
8.114037e+002, 1.033906e+002
8.118859e+002, 1.030190e+002
8.123680e+002, 1.019532e+002
8.128501e+002, 1.007140e+002
8.133322e+002, 1.001108e+002
8.138143e+002, 1.002705e+002
8.142964e+002, 1.003815e+002
8.147786e+002, 1.001954e+002
8.152607e+002, 9.997652e+001
8.157428e+002, 9.988362e+001
8.162249e+002, 9.985245e+001
8.167070e+002, 9.978830e+001
8.171891e+002, 9.967245e+001
8.176713e+002, 9.954292e+001
8.181534e+002, 9.944717e+001
8.186355e+002, 9.932741e+001
8.191176e+002, 9.899594e+001
8.195997e+002, 9.849986e+001
8.200818e+002, 9.826102e+001
8.205640e+002, 9.838192e+001
8.210461e+002, 9.850140e+001
8.215282e+002, 9.836333e+001
8.220103e+002, 9.803909e+001
8.224924e+002, 9.775533e+001
8.229745e+002, 9.760233e+001
8.234567e+002, 9.728110e+001
8.239388e+002, 9.657303e+001
8.244209e+002, 9.594720e+001
8.249030e+002, 9.561691e+001
8.253851e+002, 9.543716e+001
8.258672e+002, 9.518901e+001
8.263494e+002, 9.484547e+001
8.268315e+002, 9.465463e+001
8.273136e+002, 9.493204e+001
8.277957e+002, 9.522132e+001
8.282778e+002, 9.510672e+001
8.287599e+002, 9.473606e+001
8.292421e+002, 9.431531e+001
8.297242e+002, 9.392813e+001
8.302063e+002, 9.373404e+001
8.306884e+002, 9.388955e+001
8.311705e+002, 9.422018e+001
8.316526e+002, 9.429095e+001
8.321348e+002, 9.409495e+001
8.326169e+002, 9.381813e+001
8.330990e+002, 9.344350e+001
8.335811e+002, 9.311016e+001
8.340632e+002, 9.290410e+001
8.345453e+002, 9.278658e+001
8.350275e+002, 9.265944e+001
8.355096e+002, 9.246812e+001
8.359917e+002, 9.243986e+001
8.364738e+002, 9.293148e+001
8.369559e+002, 9.316594e+001
8.374380e+002, 9.258434e+001
8.379202e+002, 9.176469e+001
8.384023e+002, 9.141325e+001
8.388844e+002, 9.155894e+001
8.393665e+002, 9.162830e+001
8.398486e+002, 9.120858e+001
8.403307e+002, 9.070958e+001
8.408129e+002, 9.049242e+001
8.412950e+002, 9.051920e+001
8.417771e+002, 9.083596e+001
8.422592e+002, 9.137504e+001
8.427413e+002, 9.174985e+001
8.432234e+002, 9.171348e+001
8.437056e+002, 9.137627e+001
8.441877e+002, 9.086420e+001
8.446698e+002, 9.013546e+001
8.451519e+002, 8.983382e+001
8.456340e+002, 9.015543e+001
8.461161e+002, 9.040240e+001
8.465983e+002, 9.027310e+001
8.470804e+002, 8.992667e+001
8.475625e+002, 8.951891e+001
8.480446e+002, 8.903210e+001
8.485267e+002, 8.876004e+001
8.490089e+002, 8.887181e+001
8.494910e+002, 8.899615e+001
8.499731e+002, 8.899980e+001
8.504552e+002, 8.899527e+001
8.509373e+002, 8.915730e+001
8.514194e+002, 8.940959e+001
8.519016e+002, 8.947010e+001
8.523837e+002, 8.917146e+001
8.528658e+002, 8.881526e+001
8.533479e+002, 8.870239e+001
8.538300e+002, 8.870631e+001
8.543121e+002, 8.857220e+001
8.547943e+002, 8.832513e+001
8.552764e+002, 8.820287e+001
8.557585e+002, 8.831018e+001
8.562406e+002, 8.844553e+001
8.567227e+002, 8.832088e+001
8.572048e+002, 8.796504e+001
8.576870e+002, 8.775039e+001
8.581691e+002, 8.769241e+001
8.586512e+002, 8.774135e+001
8.591333e+002, 8.799548e+001
8.596154e+002, 8.817136e+001
8.600975e+002, 8.790310e+001
8.605797e+002, 8.731492e+001
8.610618e+002, 8.710823e+001
8.615439e+002, 8.751704e+001
8.620260e+002, 8.790540e+001
8.625081e+002, 8.826692e+001
8.629902e+002, 8.853164e+001
8.634724e+002, 8.865445e+001
8.639545e+002, 8.865439e+001
8.644366e+002, 8.851750e+001
8.649187e+002, 8.824806e+001
8.654008e+002, 8.806110e+001
8.658829e+002, 8.814059e+001
8.663651e+002, 8.834238e+001
8.668472e+002, 8.860777e+001
8.673293e+002, 8.884277e+001
8.678114e+002, 8.876807e+001
8.682935e+002, 8.836343e+001
8.687756e+002, 8.796463e+001
8.692578e+002, 8.782539e+001
8.697399e+002, 8.787358e+001
8.702220e+002, 8.799900e+001
8.707041e+002, 8.821651e+001
8.711862e+002, 8.811305e+001
8.716683e+002, 8.754819e+001
8.721505e+002, 8.704335e+001
8.726326e+002, 8.684933e+001
8.731147e+002, 8.688992e+001
8.735968e+002, 8.707117e+001
8.740789e+002, 8.744149e+001
8.745610e+002, 8.768626e+001
8.750432e+002, 8.788238e+001
8.755253e+002, 8.785777e+001
8.760074e+002, 8.729077e+001
8.764895e+002, 8.671358e+001
8.769716e+002, 8.665977e+001
8.774537e+002, 8.701197e+001
8.779359e+002, 8.719296e+001
8.784180e+002, 8.690141e+001
8.789001e+002, 8.667603e+001
8.793822e+002, 8.710749e+001
8.798643e+002, 8.759261e+001
8.803464e+002, 8.729593e+001
8.808286e+002, 8.645534e+001
8.813107e+002, 8.582853e+001
8.817928e+002, 8.569435e+001
8.822749e+002, 8.581794e+001
8.827570e+002, 8.595061e+001
8.832391e+002, 8.614433e+001
8.837213e+002, 8.666118e+001
8.842034e+002, 8.746975e+001
8.846855e+002, 8.798032e+001
8.851676e+002, 8.802018e+001
8.856497e+002, 8.802237e+001
8.861318e+002, 8.836943e+001
8.866140e+002, 8.889099e+001
8.870961e+002, 8.899941e+001
8.875782e+002, 8.857222e+001
8.880603e+002, 8.802412e+001
8.885424e+002, 8.707056e+001
8.890245e+002, 8.639377e+001
8.895067e+002, 8.640175e+001
8.899888e+002, 8.674404e+001
8.904709e+002, 8.707446e+001
8.909530e+002, 8.737549e+001
8.914351e+002, 8.759946e+001
8.919172e+002, 8.784039e+001
8.923994e+002, 8.787421e+001
8.928815e+002, 8.741737e+001
8.933636e+002, 8.685660e+001
8.938457e+002, 8.656603e+001
8.943278e+002, 8.652101e+001
8.948099e+002, 8.654625e+001
8.952921e+002, 8.658614e+001
8.957742e+002, 8.652000e+001
8.962563e+002, 8.607627e+001
8.967384e+002, 8.553310e+001
8.972205e+002, 8.544491e+001
8.977026e+002, 8.571959e+001
8.981848e+002, 8.591239e+001
8.986669e+002, 8.588544e+001
8.991490e+002, 8.578310e+001
8.996311e+002, 8.573103e+001
9.001132e+002, 8.573611e+001
9.005953e+002, 8.587833e+001
9.010775e+002, 8.618970e+001
9.015596e+002, 8.624122e+001
9.020417e+002, 8.590560e+001
9.025238e+002, 8.551477e+001
9.030059e+002, 8.520328e+001
9.034880e+002, 8.502682e+001
9.039702e+002, 8.514034e+001
9.044523e+002, 8.567397e+001
9.049344e+002, 8.596829e+001
9.054165e+002, 8.598067e+001
9.058986e+002, 8.580721e+001
9.063807e+002, 8.514516e+001
9.068629e+002, 8.455997e+001
9.073450e+002, 8.473647e+001
9.078271e+002, 8.546194e+001
9.083092e+002, 8.576059e+001
9.087913e+002, 8.513879e+001
9.092734e+002, 8.457125e+001
9.097556e+002, 8.460996e+001
9.102377e+002, 8.478742e+001
9.107198e+002, 8.465698e+001
9.112019e+002, 8.434547e+001
9.116840e+002, 8.420853e+001
9.121661e+002, 8.433033e+001
9.126483e+002, 8.440176e+001
9.131304e+002, 8.411372e+001
9.136125e+002, 8.366518e+001
9.140946e+002, 8.330119e+001
9.145767e+002, 8.305577e+001
9.150588e+002, 8.311755e+001
9.155410e+002, 8.348215e+001
9.160231e+002, 8.378617e+001
9.165052e+002, 8.379418e+001
9.169873e+002, 8.364725e+001
9.174694e+002, 8.364267e+001
9.179515e+002, 8.379091e+001
9.184337e+002, 8.373627e+001
9.189158e+002, 8.339970e+001
9.193979e+002, 8.324303e+001
9.198800e+002, 8.351717e+001
9.203621e+002, 8.383385e+001
9.208442e+002, 8.371684e+001
9.213264e+002, 8.323483e+001
9.218085e+002, 8.312753e+001
9.222906e+002, 8.382755e+001
9.227727e+002, 8.419336e+001
9.232548e+002, 8.394073e+001
9.237369e+002, 8.361575e+001
9.242191e+002, 8.345837e+001
9.247012e+002, 8.339685e+001
9.251833e+002, 8.329365e+001
9.256654e+002, 8.312747e+001
9.261475e+002, 8.306882e+001
9.266296e+002, 8.325520e+001
9.271118e+002, 8.345962e+001
9.275939e+002, 8.357502e+001
9.280760e+002, 8.364359e+001
9.285581e+002, 8.374554e+001
9.290402e+002, 8.384897e+001
9.295223e+002, 8.379284e+001
9.300045e+002, 8.346903e+001
9.304866e+002, 8.322571e+001
9.309687e+002, 8.349267e+001
9.314508e+002, 8.397308e+001
9.319329e+002, 8.424552e+001
9.324150e+002, 8.431344e+001
9.328972e+002, 8.426785e+001
9.333793e+002, 8.413467e+001
9.338614e+002, 8.385275e+001
9.343435e+002, 8.331052e+001
9.348256e+002, 8.271787e+001
9.353077e+002, 8.262397e+001
9.357899e+002, 8.300095e+001
9.362720e+002, 8.353122e+001
9.367541e+002, 8.421291e+001
9.372362e+002, 8.460751e+001
9.377183e+002, 8.444341e+001
9.382004e+002, 8.405527e+001
9.386826e+002, 8.395117e+001
9.391647e+002, 8.413944e+001
9.396468e+002, 8.416774e+001
9.401289e+002, 8.370659e+001
9.406110e+002, 8.394814e+001
9.410931e+002, 8.589848e+001
9.415753e+002, 8.757777e+001
9.420574e+002, 8.727220e+001
9.425395e+002, 8.570128e+001
9.430216e+002, 8.485718e+001
9.435037e+002, 8.501517e+001
9.439858e+002, 8.506825e+001
9.444680e+002, 8.478437e+001
9.449501e+002, 8.455898e+001
9.454322e+002, 8.467142e+001
9.459143e+002, 8.481982e+001
9.463964e+002, 8.461214e+001
9.468785e+002, 8.411915e+001
9.473607e+002, 8.380342e+001
9.478428e+002, 8.385503e+001
9.483249e+002, 8.402323e+001
9.488070e+002, 8.414275e+001
9.492891e+002, 8.434225e+001
9.497712e+002, 8.488841e+001
9.502534e+002, 8.556469e+001
9.507355e+002, 8.590508e+001
9.512176e+002, 8.581232e+001
9.516997e+002, 8.562148e+001
9.521818e+002, 8.556371e+001
9.526639e+002, 8.557047e+001
9.531461e+002, 8.548497e+001
9.536282e+002, 8.540874e+001
9.541103e+002, 8.566483e+001
9.545924e+002, 8.621848e+001
9.550745e+002, 8.666802e+001
9.555566e+002, 8.681655e+001
9.560388e+002, 8.679400e+001
9.565209e+002, 8.675500e+001
9.570030e+002, 8.670272e+001
9.574851e+002, 8.656846e+001
9.579672e+002, 8.635538e+001
9.584493e+002, 8.657582e+001
9.589315e+002, 8.738824e+001
9.594136e+002, 8.831838e+001
9.598957e+002, 8.902818e+001
9.603778e+002, 8.959651e+001
9.608599e+002, 9.022433e+001
9.613420e+002, 9.091943e+001
9.618242e+002, 9.164279e+001
9.623063e+002, 9.247620e+001
9.627884e+002, 9.310690e+001
9.632705e+002, 9.325749e+001
9.637526e+002, 9.339112e+001
9.642347e+002, 9.398671e+001
9.647169e+002, 9.498824e+001
9.651990e+002, 9.599736e+001
9.656811e+002, 9.691855e+001
9.661632e+002, 9.799403e+001
9.666453e+002, 9.932171e+001
9.671274e+002, 1.006898e+002
9.676096e+002, 1.020074e+002
9.680917e+002, 1.033253e+002
9.685738e+002, 1.046620e+002
9.690559e+002, 1.060371e+002
9.695380e+002, 1.076059e+002
9.700201e+002, 1.094500e+002
9.705023e+002, 1.114537e+002
9.709844e+002, 1.134740e+002
9.714665e+002, 1.157348e+002
9.719486e+002, 1.182355e+002
9.724307e+002, 1.211986e+002
9.729128e+002, 1.250533e+002
9.733950e+002, 1.299050e+002
9.738771e+002, 1.353044e+002
9.743592e+002, 1.409136e+002
9.748413e+002, 1.471013e+002
9.753234e+002, 1.539325e+002
9.758055e+002, 1.617119e+002
9.762877e+002, 1.707144e+002
9.767698e+002, 1.810996e+002
9.772519e+002, 1.930041e+002
9.777340e+002, 2.064706e+002
9.782161e+002, 2.221145e+002
9.786982e+002, 2.398330e+002
9.791804e+002, 2.605010e+002
9.796625e+002, 2.851992e+002
9.801446e+002, 3.141230e+002
9.806267e+002, 3.476355e+002
9.811088e+002, 3.859539e+002
9.815909e+002, 4.309647e+002
9.820731e+002, 4.840081e+002
9.825552e+002, 5.444841e+002
9.830373e+002, 6.119063e+002
9.835194e+002, 6.861976e+002
9.840015e+002, 7.694816e+002
9.844836e+002, 8.620181e+002
9.849658e+002, 9.549295e+002
9.854479e+002, 1.046857e+003
9.859300e+002, 1.126165e+003
9.864121e+002, 1.182403e+003
9.868942e+002, 1.217069e+003
9.873763e+002, 1.233591e+003
9.878585e+002, 1.230644e+003
9.883406e+002, 1.219220e+003
9.888227e+002, 1.202833e+003
9.893048e+002, 1.167877e+003
9.897869e+002, 1.108853e+003
9.902690e+002, 1.028506e+003
9.907512e+002, 9.265245e+002
9.912333e+002, 8.050028e+002
9.917154e+002, 6.917121e+002
9.921975e+002, 5.828723e+002
9.926796e+002, 4.901123e+002
9.931617e+002, 4.162943e+002
9.936439e+002, 3.560007e+002
9.941260e+002, 3.087172e+002
9.946081e+002, 2.719286e+002
9.950902e+002, 2.427197e+002
9.955723e+002, 2.212354e+002
9.960544e+002, 2.026714e+002
9.965366e+002, 1.870338e+002
9.970187e+002, 1.739079e+002
9.975008e+002, 1.640018e+002
9.979829e+002, 1.557990e+002
9.984650e+002, 1.486478e+002
9.989471e+002, 1.423874e+002
9.994293e+002, 1.370182e+002
9.999114e+002, 1.325397e+002
1.000393e+003, 1.285485e+002
1.000876e+003, 1.250473e+002
1.001358e+003, 1.218915e+002
1.001840e+003, 1.191499e+002
1.002322e+003, 1.166604e+002
1.002804e+003, 1.142388e+002
1.003286e+003, 1.119549e+002
1.003768e+003, 1.100066e+002
1.004250e+003, 1.084708e+002
1.004733e+003, 1.070140e+002
1.005215e+003, 1.053675e+002
1.005697e+003, 1.038432e+002
1.006179e+003, 1.027553e+002
1.006661e+003, 1.018876e+002
1.007143e+003, 1.009225e+002
1.007625e+003, 9.990232e+001
1.008107e+003, 9.911792e+001
1.008589e+003, 9.871408e+001
1.009072e+003, 9.828658e+001
1.009554e+003, 9.736198e+001
1.010036e+003, 9.634364e+001
1.010518e+003, 9.576993e+001
1.011000e+003, 9.545373e+001
1.011482e+003, 9.498614e+001
1.011964e+003, 9.432859e+001
1.012446e+003, 9.367346e+001
1.012929e+003, 9.311127e+001
1.013411e+003, 9.267962e+001
1.013893e+003, 9.253532e+001
1.014375e+003, 9.249694e+001
1.014857e+003, 9.206559e+001
1.015339e+003, 9.140726e+001
1.015821e+003, 9.116793e+001
1.016303e+003, 9.145418e+001
1.016785e+003, 9.184028e+001
1.017268e+003, 9.204990e+001
1.017750e+003, 9.211964e+001
1.018232e+003, 9.216584e+001
1.018714e+003, 9.212534e+001
1.019196e+003, 9.163356e+001
1.019678e+003, 9.074438e+001
1.020160e+003, 8.994092e+001
1.020642e+003, 8.935685e+001
1.021125e+003, 8.913612e+001
1.021607e+003, 8.944467e+001
1.022089e+003, 8.999657e+001
1.022571e+003, 9.006593e+001
1.023053e+003, 8.969234e+001
1.023535e+003, 8.970380e+001
1.024017e+003, 9.014942e+001
1.024499e+003, 9.046166e+001
1.024981e+003, 9.045795e+001
1.025464e+003, 9.030233e+001
1.025946e+003, 9.012116e+001
1.026428e+003, 8.994320e+001
1.026910e+003, 8.983450e+001
1.027392e+003, 8.977927e+001
1.027874e+003, 9.000121e+001
1.028356e+003, 9.059409e+001
1.028838e+003, 9.102378e+001
1.029321e+003, 9.105684e+001
1.029803e+003, 9.101881e+001
1.030285e+003, 9.126876e+001
1.030767e+003, 9.169065e+001
1.031249e+003, 9.174773e+001
1.031731e+003, 9.134190e+001
1.032213e+003, 9.093098e+001
1.032695e+003, 9.048875e+001
1.033177e+003, 9.012709e+001
1.033660e+003, 8.983666e+001
1.034142e+003, 8.973475e+001
1.034624e+003, 9.000220e+001
1.035106e+003, 9.056718e+001
1.035588e+003, 9.097073e+001
1.036070e+003, 9.115976e+001
1.036552e+003, 9.132301e+001
1.037034e+003, 9.155464e+001
1.037516e+003, 9.159716e+001
1.037999e+003, 9.123978e+001
1.038481e+003, 9.076840e+001
1.038963e+003, 9.045139e+001
1.039445e+003, 9.028690e+001
1.039927e+003, 9.026633e+001
1.040409e+003, 9.060733e+001
1.040891e+003, 9.070376e+001
1.041373e+003, 9.017255e+001
1.041855e+003, 8.988378e+001
1.042338e+003, 9.046971e+001
1.042820e+003, 9.122305e+001
1.043302e+003, 9.136545e+001
1.043784e+003, 9.098075e+001
1.044266e+003, 9.073850e+001
1.044748e+003, 9.072510e+001
1.045230e+003, 9.074281e+001
1.045712e+003, 9.077473e+001
1.046195e+003, 9.084537e+001
1.046677e+003, 9.102373e+001
1.047159e+003, 9.120406e+001
1.047641e+003, 9.126917e+001
1.048123e+003, 9.122673e+001
1.048605e+003, 9.116664e+001
1.049087e+003, 9.115369e+001
1.049569e+003, 9.102116e+001
1.050052e+003, 9.063705e+001
1.050534e+003, 9.025606e+001
1.051016e+003, 8.994971e+001
1.051498e+003, 8.973751e+001
1.051980e+003, 8.965176e+001
1.052462e+003, 8.967984e+001
1.052944e+003, 8.974873e+001
1.053426e+003, 8.986952e+001
1.053908e+003, 8.998101e+001
1.054391e+003, 8.996392e+001
1.054873e+003, 9.005529e+001
1.055355e+003, 9.055384e+001
1.055837e+003, 9.110152e+001
1.056319e+003, 9.122612e+001
1.056801e+003, 9.099038e+001
1.057283e+003, 9.089172e+001
1.057765e+003, 9.108358e+001
1.058248e+003, 9.133007e+001
1.058730e+003, 9.159391e+001
1.059212e+003, 9.186069e+001
1.059694e+003, 9.227139e+001
1.060176e+003, 9.257751e+001
1.060658e+003, 9.231166e+001
1.061140e+003, 9.164799e+001
1.061622e+003, 9.146233e+001
1.062104e+003, 9.224516e+001
1.062587e+003, 9.278722e+001
1.063069e+003, 9.230551e+001
1.063551e+003, 9.185547e+001
1.064033e+003, 9.209055e+001
1.064515e+003, 9.266614e+001
1.064997e+003, 9.328165e+001
1.065479e+003, 9.383163e+001
1.065961e+003, 9.414056e+001
1.066443e+003, 9.409182e+001
1.066926e+003, 9.403366e+001
1.067408e+003, 9.404762e+001
1.067890e+003, 9.416102e+001
1.068372e+003, 9.439787e+001
1.068854e+003, 9.473768e+001
1.069336e+003, 9.520663e+001
1.069818e+003, 9.575416e+001
1.070300e+003, 9.622285e+001
1.070782e+003, 9.653262e+001
1.071265e+003, 9.694869e+001
1.071747e+003, 9.774596e+001
1.072229e+003, 9.850515e+001
1.072711e+003, 9.895541e+001
1.073193e+003, 9.924985e+001
1.073675e+003, 9.946641e+001
1.074157e+003, 9.969167e+001
1.074639e+003, 1.001301e+002
1.075122e+003, 1.008778e+002
1.075604e+003, 1.015330e+002
1.076086e+003, 1.017136e+002
1.076568e+003, 1.019851e+002
1.077050e+003, 1.028717e+002
1.077532e+003, 1.038633e+002
1.078014e+003, 1.043982e+002
1.078496e+003, 1.045800e+002
1.078979e+003, 1.047336e+002
1.079461e+003, 1.049278e+002
1.079943e+003, 1.053936e+002
1.080425e+003, 1.063966e+002
1.080907e+003, 1.074992e+002
1.081389e+003, 1.085451e+002
1.081871e+003, 1.094985e+002
1.082353e+003, 1.103850e+002
1.082835e+003, 1.111386e+002
1.083318e+003, 1.115605e+002
1.083800e+003, 1.116128e+002
1.084282e+003, 1.117541e+002
1.084764e+003, 1.124313e+002
1.085246e+003, 1.129260e+002
1.085728e+003, 1.126273e+002
1.086210e+003, 1.122262e+002
1.086692e+003, 1.123163e+002
1.087175e+003, 1.127536e+002
1.087657e+003, 1.132366e+002
1.088139e+003, 1.136982e+002
1.088621e+003, 1.141150e+002
1.089103e+003, 1.146672e+002
1.089585e+003, 1.149055e+002
1.090067e+003, 1.143231e+002
1.090549e+003, 1.136621e+002
1.091031e+003, 1.134477e+002
1.091514e+003, 1.135602e+002
1.091996e+003, 1.136341e+002
1.092478e+003, 1.137094e+002
1.092960e+003, 1.144695e+002
1.093442e+003, 1.166136e+002
1.093924e+003, 1.185858e+002
1.094406e+003, 1.198564e+002
1.094888e+003, 1.207339e+002
1.095370e+003, 1.212812e+002
1.095853e+003, 1.216516e+002
1.096335e+003, 1.218367e+002
1.096817e+003, 1.219780e+002
1.097299e+003, 1.226581e+002
1.097781e+003, 1.242326e+002
1.098263e+003, 1.258364e+002
1.098745e+003, 1.271906e+002
1.099227e+003, 1.285153e+002
1.099709e+003, 1.298867e+002
1.100192e+003, 1.313217e+002
1.100674e+003, 1.328999e+002
1.101156e+003, 1.345452e+002
1.101638e+003, 1.360553e+002
1.102120e+003, 1.374838e+002
1.102602e+003, 1.384212e+002
1.103084e+003, 1.383533e+002
1.103566e+003, 1.383106e+002
1.104049e+003, 1.387626e+002
1.104531e+003, 1.393503e+002
1.105013e+003, 1.396765e+002
1.105495e+003, 1.399064e+002
1.105977e+003, 1.404885e+002
1.106459e+003, 1.415221e+002
1.106941e+003, 1.425992e+002
1.107423e+003, 1.440976e+002
1.107906e+003, 1.450127e+002
1.108388e+003, 1.446108e+002
1.108870e+003, 1.440193e+002
1.109352e+003, 1.441068e+002
1.109834e+003, 1.444508e+002
1.110316e+003, 1.442917e+002
1.110798e+003, 1.435732e+002
1.111280e+003, 1.426765e+002
1.111762e+003, 1.414419e+002
1.112245e+003, 1.403177e+002
1.112727e+003, 1.394135e+002
1.113209e+003, 1.385633e+002
1.113691e+003, 1.377359e+002
1.114173e+003, 1.368918e+002
1.114655e+003, 1.359842e+002
1.115137e+003, 1.350159e+002
1.115619e+003, 1.339790e+002
1.116102e+003, 1.330648e+002
1.116584e+003, 1.317256e+002
1.117066e+003, 1.294277e+002
1.117548e+003, 1.275013e+002
1.118030e+003, 1.267550e+002
1.118512e+003, 1.261757e+002
1.118994e+003, 1.247262e+002
1.119476e+003, 1.226405e+002
1.119958e+003, 1.208619e+002
1.120441e+003, 1.194685e+002
1.120923e+003, 1.181640e+002
1.121405e+003, 1.171638e+002
1.121887e+003, 1.157707e+002
1.122369e+003, 1.136896e+002
1.122851e+003, 1.113804e+002
1.123333e+003, 1.090561e+002
1.123815e+003, 1.068675e+002
1.124297e+003, 1.051576e+002
1.124780e+003, 1.039593e+002
1.125262e+003, 1.028699e+002
1.125744e+003, 1.018718e+002
1.126226e+003, 1.011112e+002
1.126708e+003, 1.007156e+002
1.127190e+003, 1.002180e+002
1.127672e+003, 9.935561e+001
1.128154e+003, 9.825672e+001
1.128636e+003, 9.706789e+001
1.129119e+003, 9.581870e+001
1.129601e+003, 9.480103e+001
1.130083e+003, 9.403028e+001
1.130565e+003, 9.328696e+001
1.131047e+003, 9.257250e+001
1.131529e+003, 9.165911e+001
1.132011e+003, 9.043135e+001
1.132493e+003, 8.916613e+001
1.132976e+003, 8.812866e+001
1.133458e+003, 8.730222e+001
1.133940e+003, 8.668217e+001
1.134422e+003, 8.624733e+001
1.134904e+003, 8.569952e+001
1.135386e+003, 8.504069e+001
1.135868e+003, 8.459291e+001
1.136350e+003, 8.443910e+001
1.136833e+003, 8.427821e+001
1.137315e+003, 8.388121e+001
1.137797e+003, 8.345567e+001
1.138279e+003, 8.350216e+001
1.138761e+003, 8.378051e+001
1.139243e+003, 8.326736e+001
1.139725e+003, 8.220789e+001
1.140207e+003, 8.175124e+001
1.140689e+003, 8.198824e+001
1.141172e+003, 8.213513e+001
1.141654e+003, 8.181947e+001
1.142136e+003, 8.134689e+001
1.142618e+003, 8.094869e+001
1.143100e+003, 8.070762e+001
1.143582e+003, 8.093294e+001
1.144064e+003, 8.134973e+001
1.144546e+003, 8.137048e+001
1.145029e+003, 8.103536e+001
1.145511e+003, 8.062199e+001
1.145993e+003, 8.023574e+001
1.146475e+003, 7.994608e+001
1.146957e+003, 7.980942e+001
1.147439e+003, 7.976184e+001
1.147921e+003, 7.978549e+001
1.148403e+003, 7.982494e+001
1.148885e+003, 7.983262e+001
1.149368e+003, 7.979665e+001
1.149850e+003, 7.969707e+001
1.150332e+003, 7.954111e+001
1.150814e+003, 7.935889e+001
1.151296e+003, 7.916026e+001
1.151778e+003, 7.896087e+001
1.152260e+003, 7.880742e+001
1.152742e+003, 7.861581e+001
1.153224e+003, 7.823699e+001
1.153707e+003, 7.786298e+001
1.154189e+003, 7.767324e+001
1.154671e+003, 7.766430e+001
1.155153e+003, 7.782799e+001
1.155635e+003, 7.816570e+001
1.156117e+003, 7.839687e+001
1.156599e+003, 7.836430e+001
1.157081e+003, 7.831114e+001
1.157563e+003, 7.824266e+001
1.158046e+003, 7.825274e+001
1.158528e+003, 7.854845e+001
1.159010e+003, 7.886254e+001
1.159492e+003, 7.871645e+001
1.159974e+003, 7.818692e+001
1.160456e+003, 7.808055e+001
1.160938e+003, 7.879027e+001
1.161420e+003, 7.928568e+001
1.161903e+003, 7.948856e+001
1.162385e+003, 7.952492e+001
1.162867e+003, 7.934276e+001
1.163349e+003, 7.909620e+001
1.163831e+003, 7.882010e+001
1.164313e+003, 7.861635e+001
1.164795e+003, 7.878101e+001
1.165277e+003, 7.938944e+001
1.165760e+003, 7.969785e+001
1.166242e+003, 7.952927e+001
1.166724e+003, 7.967026e+001
1.167206e+003, 8.037039e+001
1.167688e+003, 8.095933e+001
1.168170e+003, 8.106441e+001
1.168652e+003, 8.097489e+001
1.169134e+003, 8.107439e+001
1.169616e+003, 8.128882e+001
1.170099e+003, 8.126986e+001
1.170581e+003, 8.101588e+001
1.171063e+003, 8.052876e+001
1.171545e+003, 7.980368e+001
1.172027e+003, 7.947295e+001
1.172509e+003, 7.973038e+001
1.172991e+003, 8.024858e+001
1.173473e+003, 8.083421e+001
1.173956e+003, 8.120738e+001
1.174438e+003, 8.075362e+001
1.174920e+003, 7.972610e+001
1.175402e+003, 7.880865e+001
1.175884e+003, 7.807110e+001
1.176366e+003, 7.785269e+001
1.176848e+003, 7.807990e+001
1.177330e+003, 7.816399e+001
1.177813e+003, 7.785610e+001
1.178295e+003, 7.742960e+001
1.178777e+003, 7.708265e+001
1.179259e+003, 7.680647e+001
1.179741e+003, 7.663005e+001
1.180223e+003, 7.648934e+001
1.180705e+003, 7.628543e+001
1.181187e+003, 7.604515e+001
1.181669e+003, 7.588319e+001
1.182151e+003, 7.578198e+001
1.182634e+003, 7.550942e+001
1.183116e+003, 7.486781e+001
1.183598e+003, 7.439793e+001
1.184080e+003, 7.454076e+001
1.184562e+003, 7.481965e+001
1.185044e+003, 7.504558e+001
1.185526e+003, 7.513645e+001
1.186008e+003, 7.492894e+001
1.186490e+003, 7.455543e+001
1.186973e+003, 7.436429e+001
1.187455e+003, 7.443163e+001
1.187937e+003, 7.431763e+001
1.188419e+003, 7.380839e+001
1.188901e+003, 7.330009e+001
1.189383e+003, 7.268056e+001
1.189865e+003, 7.229710e+001
1.190347e+003, 7.249426e+001
1.190830e+003, 7.288702e+001
1.191312e+003, 7.308332e+001
1.191794e+003, 7.311746e+001
1.192276e+003, 7.316679e+001
1.192758e+003, 7.326997e+001
1.193240e+003, 7.325932e+001
1.193722e+003, 7.313367e+001
1.194204e+003, 7.286125e+001
1.194687e+003, 7.234269e+001
1.195169e+003, 7.199262e+001
1.195651e+003, 7.211633e+001
1.196133e+003, 7.243227e+001
1.196615e+003, 7.247522e+001
1.197097e+003, 7.231001e+001
1.197579e+003, 7.238544e+001
1.198061e+003, 7.267947e+001
1.198543e+003, 7.272440e+001
1.199026e+003, 7.249289e+001
1.199508e+003, 7.226062e+001
1.199990e+003, 7.212285e+001
1.200472e+003, 7.202198e+001
1.200954e+003, 7.191650e+001
1.201436e+003, 7.181047e+001
1.201918e+003, 7.167631e+001
1.202400e+003, 7.156484e+001
1.202883e+003, 7.162943e+001
1.203365e+003, 7.178300e+001
1.203847e+003, 7.177421e+001
1.204329e+003, 7.164321e+001
1.204811e+003, 7.171139e+001
1.205293e+003, 7.208349e+001
1.205775e+003, 7.232944e+001
1.206257e+003, 7.201714e+001
1.206740e+003, 7.166677e+001
1.207222e+003, 7.171530e+001
1.207704e+003, 7.183775e+001
1.208186e+003, 7.175344e+001
1.208668e+003, 7.153586e+001
1.209150e+003, 7.128268e+001
1.209632e+003, 7.103103e+001
1.210114e+003, 7.085279e+001
1.210596e+003, 7.076189e+001
1.211078e+003, 7.075372e+001
1.211561e+003, 7.090212e+001
1.212043e+003, 7.102910e+001
1.212525e+003, 7.105692e+001
1.213007e+003, 7.107206e+001
1.213489e+003, 7.114034e+001
1.213971e+003, 7.122148e+001
1.214453e+003, 7.124100e+001
1.214935e+003, 7.120519e+001
1.215417e+003, 7.124231e+001
1.215900e+003, 7.136911e+001
1.216382e+003, 7.153664e+001
1.216864e+003, 7.180605e+001
1.217346e+003, 7.179225e+001
1.217828e+003, 7.132304e+001
1.218310e+003, 7.079931e+001
1.218792e+003, 7.050227e+001
1.219274e+003, 7.042448e+001
1.219757e+003, 7.062991e+001
1.220239e+003, 7.102425e+001
1.220721e+003, 7.111279e+001
1.221203e+003, 7.096575e+001
1.221685e+003, 7.097130e+001
1.222167e+003, 7.112523e+001
1.222649e+003, 7.096084e+001
1.223131e+003, 7.039214e+001
1.223614e+003, 7.038695e+001
1.224096e+003, 7.194442e+001
1.224578e+003, 7.355156e+001
1.225060e+003, 7.303147e+001
1.225542e+003, 7.208155e+001
1.226024e+003, 7.330107e+001
1.226506e+003, 7.515950e+001
1.226988e+003, 7.489980e+001
1.227470e+003, 7.295135e+001
1.227953e+003, 7.155449e+001
1.228435e+003, 7.134335e+001
1.228917e+003, 7.132732e+001
1.229399e+003, 7.124033e+001
1.229881e+003, 7.112798e+001
1.230363e+003, 7.081982e+001
1.230845e+003, 7.070081e+001
1.231327e+003, 7.121008e+001
1.231810e+003, 7.187249e+001
1.232292e+003, 7.214113e+001
1.232774e+003, 7.207330e+001
1.233256e+003, 7.189902e+001
1.233738e+003, 7.159439e+001
1.234220e+003, 7.124818e+001
1.234702e+003, 7.072761e+001
1.235184e+003, 7.067289e+001
1.235667e+003, 7.136378e+001
1.236149e+003, 7.188470e+001
1.236631e+003, 7.174548e+001
1.237113e+003, 7.128371e+001
1.237595e+003, 7.083561e+001
1.238077e+003, 7.049741e+001
1.238559e+003, 7.065529e+001
1.239041e+003, 7.118520e+001
1.239523e+003, 7.149699e+001
1.240005e+003, 7.156496e+001
1.240488e+003, 7.133930e+001
1.240970e+003, 7.087703e+001
1.241452e+003, 7.049808e+001
1.241934e+003, 7.035726e+001
1.242416e+003, 7.041263e+001
1.242898e+003, 7.070487e+001
1.243380e+003, 7.108072e+001
1.243862e+003, 7.163070e+001
1.244344e+003, 7.196922e+001
1.244827e+003, 7.136913e+001
1.245309e+003, 7.039437e+001
1.245791e+003, 7.002866e+001
1.246273e+003, 7.031127e+001
1.246755e+003, 7.064894e+001
1.247237e+003, 7.092610e+001
1.247719e+003, 7.113278e+001
1.248201e+003, 7.132786e+001
1.248684e+003, 7.136806e+001
1.249166e+003, 7.107296e+001
1.249648e+003, 7.076979e+001
1.250130e+003, 7.065527e+001
1.250612e+003, 7.062102e+001
1.251094e+003, 7.050631e+001
1.251576e+003, 7.034134e+001
1.252058e+003, 7.037074e+001
1.252541e+003, 7.066957e+001
1.253023e+003, 7.051321e+001
1.253505e+003, 6.981226e+001
1.253987e+003, 6.957961e+001
1.254469e+003, 7.005948e+001
1.254951e+003, 7.055689e+001
1.255433e+003, 7.067220e+001
1.255915e+003, 7.063039e+001
1.256397e+003, 7.075168e+001
1.256880e+003, 7.083508e+001
1.257362e+003, 7.029082e+001
1.257844e+003, 6.952381e+001
1.258326e+003, 6.937512e+001
1.258808e+003, 6.969215e+001
1.259290e+003, 7.001131e+001
1.259772e+003, 7.022915e+001
1.260254e+003, 7.044543e+001
1.260737e+003, 7.072266e+001
1.261219e+003, 7.081216e+001
1.261701e+003, 7.039266e+001
1.262183e+003, 7.000938e+001
1.262665e+003, 6.985754e+001
1.263147e+003, 6.990975e+001
1.263629e+003, 7.025227e+001
1.264111e+003, 7.071292e+001
1.264594e+003, 7.110719e+001
1.265076e+003, 7.141088e+001
1.265558e+003, 7.155096e+001
1.266040e+003, 7.156174e+001
1.266522e+003, 7.122762e+001
1.267004e+003, 7.036567e+001
1.267486e+003, 6.979893e+001
1.267968e+003, 6.969546e+001
1.268450e+003, 6.990473e+001
1.268932e+003, 7.040457e+001
1.269415e+003, 7.081076e+001
1.269897e+003, 7.065011e+001
1.270379e+003, 7.017913e+001
1.270861e+003, 7.004797e+001
1.271343e+003, 7.011228e+001
1.271825e+003, 6.981116e+001
1.272307e+003, 6.933594e+001
1.272789e+003, 6.940878e+001
1.273271e+003, 6.999183e+001
1.273754e+003, 7.039593e+001
1.274236e+003, 7.036849e+001
1.274718e+003, 7.032881e+001
1.275200e+003, 7.063605e+001
1.275682e+003, 7.088261e+001
1.276164e+003, 7.085241e+001
1.276646e+003, 7.064575e+001
1.277128e+003, 7.009019e+001
1.277611e+003, 6.959004e+001
1.278093e+003, 6.976908e+001
1.278575e+003, 7.037663e+001
1.279057e+003, 7.047973e+001
1.279539e+003, 6.996339e+001
1.280021e+003, 6.971814e+001
1.280503e+003, 6.982764e+001
1.280985e+003, 6.993591e+001
1.281468e+003, 7.003333e+001
1.281950e+003, 7.009051e+001
1.282432e+003, 7.006530e+001
1.282914e+003, 7.019982e+001
1.283396e+003, 7.075075e+001
1.283878e+003, 7.135914e+001
1.284360e+003, 7.129163e+001
1.284842e+003, 7.074268e+001
1.285324e+003, 7.027520e+001
##END=



