##NAMES=Fluellite
##RRUFFID=R070473
##IDEAL CHEMISTRY=Al_2_(PO_4_)F_2_(OH)&#183;7H_2_O
##LOCALITY=Gold Quarry mine (Maggie claims), Maggie Creek District, Eureka County, Nevada, USA
##OWNER=RRUFF
##SOURCE=Michael Scott
##DESCRIPTION=Colorless to pale green blocky prismatic crystals
##STATUS=The identification of this mineral has been confirmed by single-crystal X-ray diffraction.
##URL=rruff.info/R070473
142.4415, 3362.243
142.9236, 3462.843
143.4057, 3547.225
143.8878, 3612.423
144.3699, 3667.992
144.8521, 3717.438
145.3342, 3761.592
145.8163, 3790.453
146.2984, 3793.691
146.7805, 3786.736
147.2626, 3794.750
147.7448, 3837.777
148.2269, 3871.549
148.7090, 3881.175
149.1911, 3852.384
149.6732, 3826.806
150.1553, 3795.705
150.6375, 3766.868
151.1196, 3762.454
151.6017, 3812.252
152.0838, 3864.396
152.5659, 3897.591
153.0480, 3887.942
153.5302, 3886.462
154.0123, 3895.540
154.4944, 3915.085
154.9765, 3944.085
155.4586, 3980.916
155.9407, 4027.540
156.4229, 4085.723
156.9050, 4151.526
157.3871, 4196.301
157.8692, 4226.673
158.3513, 4243.839
158.8334, 4272.730
159.3156, 4335.672
159.7977, 4407.121
160.2798, 4460.378
160.7619, 4469.208
161.2440, 4475.728
161.7261, 4496.895
162.2083, 4535.921
162.6904, 4580.922
163.1725, 4625.266
163.6546, 4672.820
164.1367, 4729.999
164.6188, 4799.059
165.1010, 4878.284
165.5831, 4967.037
166.0652, 5066.309
166.5473, 5171.927
167.0294, 5289.807
167.5115, 5413.121
167.9937, 5526.367
168.4758, 5612.829
168.9579, 5688.010
169.4400, 5766.017
169.9221, 5854.384
170.4042, 5941.266
170.8864, 6028.389
171.3685, 6111.187
171.8506, 6167.492
172.3327, 6171.262
172.8148, 6142.407
173.2969, 6107.123
173.7791, 6080.056
174.2612, 6046.931
174.7433, 5990.355
175.2254, 5910.269
175.7075, 5825.387
176.1896, 5739.440
176.6718, 5659.348
177.1539, 5597.334
177.6360, 5574.291
178.1181, 5566.863
178.6002, 5540.429
179.0823, 5492.075
179.5645, 5438.180
180.0466, 5392.893
180.5287, 5355.064
181.0108, 5322.523
181.4929, 5289.995
181.9750, 5254.462
182.4572, 5246.339
182.9393, 5234.085
183.4214, 5217.919
183.9035, 5186.124
184.3856, 5174.511
184.8677, 5154.809
185.3499, 5134.772
185.8320, 5126.000
186.3141, 5096.478
186.7962, 5087.526
187.2783, 5070.363
187.7604, 5056.958
188.2426, 5035.413
188.7247, 5016.383
189.2068, 5005.495
189.6889, 4990.099
190.1710, 4967.619
190.6531, 4954.454
191.1353, 4924.644
191.6174, 4909.439
192.0995, 4900.536
192.5816, 4878.465
193.0637, 4865.449
193.5458, 4848.983
194.0280, 4816.845
194.5101, 4803.155
194.9922, 4800.906
195.4743, 4794.522
195.9564, 4784.227
196.4385, 4758.301
196.9207, 4752.556
197.4028, 4738.726
197.8849, 4724.563
198.3670, 4721.661
198.8491, 4698.009
199.3312, 4694.928
199.8134, 4683.633
200.2955, 4676.099
200.7776, 4660.427
201.2597, 4647.269
201.7418, 4642.250
202.2239, 4632.725
202.7061, 4616.114
203.1882, 4607.956
203.6703, 4597.654
204.1524, 4591.096
204.6345, 4609.160
205.1166, 4658.725
205.5988, 4703.355
206.0809, 4721.562
206.5630, 4707.609
207.0451, 4707.780
207.5272, 4726.452
208.0093, 4757.602
208.4915, 4787.982
208.9736, 4819.172
209.4557, 4845.940
209.9378, 4864.092
210.4199, 4871.871
210.9020, 4881.204
211.3842, 4895.986
211.8663, 4911.980
212.3484, 4914.441
212.8305, 4901.735
213.3126, 4879.353
213.7947, 4846.418
214.2769, 4795.388
214.7590, 4760.934
215.2411, 4752.310
215.7232, 4763.721
216.2053, 4765.397
216.6874, 4757.101
217.1696, 4739.381
217.6517, 4711.003
218.1338, 4667.920
218.6159, 4624.331
219.0980, 4579.717
219.5801, 4534.649
220.0623, 4501.167
220.5444, 4485.954
221.0265, 4472.916
221.5086, 4446.186
221.9907, 4396.025
222.4728, 4355.365
222.9550, 4334.260
223.4371, 4332.973
223.9192, 4316.648
224.4013, 4278.998
224.8834, 4233.779
225.3655, 4194.151
225.8477, 4162.068
226.3298, 4132.201
226.8119, 4103.301
227.2940, 4075.561
227.7761, 4049.240
228.2582, 4027.109
228.7404, 4003.832
229.2225, 3971.864
229.7046, 3924.790
230.1867, 3881.167
230.6688, 3845.957
231.1509, 3819.482
231.6331, 3798.259
232.1152, 3787.950
232.5973, 3778.584
233.0794, 3754.557
233.5615, 3702.891
234.0436, 3660.257
234.5258, 3640.487
235.0079, 3651.995
235.4900, 3649.134
235.9721, 3625.117
236.4542, 3591.198
236.9363, 3566.452
237.4185, 3554.416
237.9006, 3545.310
238.3827, 3535.525
238.8648, 3522.849
239.3469, 3516.561
239.8290, 3517.982
240.3112, 3524.923
240.7933, 3534.293
241.2754, 3549.530
241.7575, 3561.257
242.2396, 3566.793
242.7217, 3567.353
243.2039, 3556.504
243.6860, 3524.430
244.1681, 3484.676
244.6502, 3467.739
245.1323, 3485.641
245.6144, 3507.910
246.0966, 3524.271
246.5787, 3537.236
247.0608, 3537.489
247.5429, 3521.060
248.0250, 3493.475
248.5071, 3465.302
248.9893, 3427.731
249.4714, 3403.945
249.9535, 3407.319
250.4356, 3455.665
250.9177, 3488.258
251.3998, 3500.617
251.8820, 3498.439
252.3641, 3495.634
252.8462, 3488.883
253.3283, 3486.833
253.8104, 3494.842
254.2925, 3518.841
254.7747, 3537.714
255.2568, 3551.155
255.7389, 3559.275
256.2210, 3561.213
256.7031, 3553.087
257.1852, 3545.406
257.6674, 3543.080
258.1495, 3546.433
258.6316, 3554.300
259.1137, 3567.262
259.5958, 3584.424
260.0779, 3603.656
260.5601, 3626.325
261.0422, 3648.251
261.5243, 3665.765
262.0064, 3676.162
262.4885, 3691.478
262.9706, 3713.226
263.4528, 3740.031
263.9349, 3767.132
264.4170, 3795.401
264.8991, 3822.799
265.3812, 3847.188
265.8633, 3866.272
266.3455, 3890.174
266.8276, 3918.524
267.3097, 3952.139
267.7918, 3994.688
268.2739, 4046.581
268.7560, 4105.550
269.2382, 4171.414
269.7203, 4246.196
270.2024, 4318.429
270.6845, 4386.143
271.1666, 4451.493
271.6487, 4518.544
272.1309, 4586.558
272.6130, 4657.728
273.0951, 4732.225
273.5772, 4808.785
274.0593, 4893.396
274.5414, 4990.972
275.0236, 5094.763
275.5057, 5191.147
275.9878, 5283.168
276.4699, 5355.831
276.9520, 5404.346
277.4341, 5430.163
277.9163, 5409.566
278.3984, 5332.856
278.8805, 5216.302
279.3626, 5098.165
279.8447, 4978.230
280.3268, 4851.844
280.8090, 4704.624
281.2911, 4534.490
281.7732, 4402.887
282.2553, 4319.451
282.7374, 4269.314
283.2195, 4223.760
283.7017, 4183.038
284.1838, 4143.731
284.6659, 4100.389
285.1480, 4053.699
285.6301, 4021.353
286.1122, 4007.574
286.5944, 4003.659
287.0765, 3992.362
287.5586, 3973.495
288.0407, 3956.683
288.5228, 3947.064
289.0049, 3944.395
289.4871, 3946.762
289.9692, 3953.903
290.4513, 3966.236
290.9334, 3988.431
291.4155, 4019.757
291.8976, 4046.678
292.3798, 4057.015
292.8619, 4055.559
293.3440, 4061.209
293.8261, 4077.277
294.3082, 4095.307
294.7903, 4098.213
295.2725, 4089.004
295.7546, 4087.533
296.2367, 4115.333
296.7188, 4158.691
297.2009, 4181.782
297.6830, 4179.067
298.1652, 4165.898
298.6473, 4154.783
299.1294, 4147.225
299.6115, 4148.793
300.0936, 4174.386
300.5757, 4208.247
301.0579, 4219.471
301.5400, 4202.522
302.0221, 4180.780
302.5042, 4181.045
302.9863, 4196.227
303.4684, 4207.099
303.9506, 4197.548
304.4327, 4181.379
304.9148, 4176.637
305.3969, 4185.246
305.8790, 4198.131
306.3611, 4210.370
306.8433, 4221.260
307.3254, 4229.107
307.8075, 4232.603
308.2896, 4233.101
308.7717, 4230.951
309.2538, 4225.927
309.7360, 4221.311
310.2181, 4220.775
310.7002, 4221.731
311.1823, 4220.372
311.6644, 4212.959
312.1465, 4204.174
312.6287, 4196.534
313.1108, 4190.104
313.5929, 4186.080
314.0750, 4198.150
314.5571, 4208.669
315.0392, 4197.527
315.5214, 4132.864
316.0035, 4066.393
316.4856, 4025.160
316.9677, 4008.653
317.4498, 3995.627
317.9319, 3972.622
318.4141, 3951.423
318.8962, 3942.361
319.3783, 3969.815
319.8604, 3988.536
320.3425, 3973.939
320.8246, 3931.144
321.3068, 3903.089
321.7889, 3908.994
322.2710, 3929.835
322.7531, 3952.884
323.2352, 3985.833
323.7173, 4009.639
324.1995, 4016.448
324.6816, 4009.534
325.1637, 4005.141
325.6458, 4010.458
326.1279, 4015.425
326.6100, 4014.866
327.0922, 4002.407
327.5743, 3991.982
328.0564, 3988.123
328.5385, 3987.629
329.0206, 3979.747
329.5027, 3956.848
329.9849, 3933.665
330.4670, 3916.346
330.9491, 3911.671
331.4312, 3900.825
331.9133, 3879.997
332.3954, 3853.847
332.8776, 3832.669
333.3597, 3818.336
333.8418, 3806.523
334.3239, 3795.623
334.8060, 3785.296
335.2881, 3776.102
335.7703, 3765.575
336.2524, 3757.731
336.7345, 3761.607
337.2166, 3784.482
337.6987, 3801.260
338.1808, 3801.527
338.6630, 3783.772
339.1451, 3770.438
339.6272, 3763.147
340.1093, 3757.292
340.5914, 3746.152
341.0735, 3728.250
341.5557, 3713.139
342.0378, 3703.689
342.5199, 3699.529
343.0020, 3701.034
343.4841, 3711.466
343.9662, 3715.143
344.4484, 3690.267
344.9305, 3637.567
345.4126, 3591.082
345.8947, 3558.143
346.3768, 3537.313
346.8589, 3528.436
347.3411, 3532.201
347.8232, 3530.631
348.3053, 3501.737
348.7874, 3452.975
349.2695, 3414.516
349.7516, 3392.104
350.2338, 3382.528
350.7159, 3385.369
351.1980, 3398.679
351.6801, 3409.164
352.1622, 3400.573
352.6443, 3383.949
353.1265, 3382.694
353.6086, 3407.033
354.0907, 3430.400
354.5728, 3420.005
355.0549, 3385.145
355.5370, 3352.448
356.0192, 3337.436
356.5013, 3332.022
356.9834, 3329.579
357.4655, 3330.436
357.9476, 3329.114
358.4297, 3325.127
358.9119, 3316.246
359.3940, 3298.574
359.8761, 3251.141
360.3582, 3209.145
360.8403, 3200.346
361.3224, 3228.874
361.8046, 3253.608
362.2867, 3255.921
362.7688, 3245.517
363.2509, 3232.715
363.7330, 3211.756
364.2151, 3197.041
364.6973, 3197.909
365.1794, 3213.471
365.6615, 3222.153
366.1436, 3210.084
366.6257, 3194.929
367.1078, 3188.459
367.5900, 3209.599
368.0721, 3219.621
368.5542, 3206.460
369.0363, 3175.664
369.5184, 3156.901
370.0005, 3158.471
370.4827, 3165.235
370.9648, 3171.364
371.4469, 3181.617
371.9290, 3182.557
372.4111, 3169.275
372.8932, 3148.016
373.3754, 3132.247
373.8575, 3120.120
374.3396, 3116.445
374.8217, 3120.935
375.3038, 3129.455
375.7859, 3133.841
376.2681, 3134.314
376.7502, 3119.158
377.2323, 3124.185
377.7144, 3121.123
378.1965, 3117.729
378.6786, 3125.596
379.1608, 3112.713
379.6429, 3120.401
380.1250, 3119.878
380.6071, 3123.113
381.0892, 3118.210
381.5714, 3115.820
382.0535, 3121.572
382.5356, 3122.815
383.0177, 3116.975
383.4998, 3120.449
383.9819, 3107.282
384.4641, 3108.718
384.9462, 3116.454
385.4283, 3111.023
385.9104, 3114.646
386.3925, 3102.663
386.8746, 3101.790
387.3568, 3117.407
387.8389, 3144.489
388.3210, 3166.876
388.8031, 3169.943
389.2852, 3165.757
389.7673, 3167.829
390.2495, 3177.865
390.7316, 3190.951
391.2137, 3211.308
391.6958, 3231.278
392.1779, 3238.639
392.6600, 3205.239
393.1422, 3176.966
393.6243, 3189.581
394.1064, 3243.354
394.5885, 3282.799
395.0706, 3272.566
395.5527, 3245.210
396.0349, 3228.314
396.5170, 3232.071
396.9991, 3242.635
397.4812, 3263.211
397.9633, 3290.427
398.4454, 3307.532
398.9276, 3296.515
399.4097, 3286.804
399.8918, 3293.072
400.3739, 3330.643
400.8560, 3359.954
401.3381, 3379.884
401.8203, 3391.903
402.3024, 3398.525
402.7845, 3398.695
403.2666, 3395.010
403.7487, 3384.166
404.2308, 3361.715
404.7130, 3364.627
405.1951, 3403.387
405.6772, 3453.011
406.1593, 3483.637
406.6414, 3492.810
407.1235, 3495.945
407.6057, 3493.768
408.0878, 3488.556
408.5699, 3493.365
409.0520, 3509.785
409.5341, 3526.248
410.0162, 3535.573
410.4984, 3537.319
410.9805, 3528.423
411.4626, 3506.154
411.9447, 3476.896
412.4268, 3449.005
412.9089, 3422.859
413.3911, 3401.726
413.8732, 3391.047
414.3553, 3386.051
414.8374, 3379.994
415.3195, 3372.753
415.8016, 3362.048
416.2838, 3339.152
416.7659, 3312.043
417.2480, 3295.296
417.7301, 3303.718
418.2122, 3318.818
418.6943, 3332.238
419.1765, 3343.153
419.6586, 3341.571
420.1407, 3305.728
420.6228, 3263.977
421.1049, 3240.506
421.5870, 3255.688
422.0692, 3272.579
422.5513, 3280.197
423.0334, 3281.333
423.5155, 3284.443
423.9976, 3293.233
424.4797, 3302.521
424.9619, 3310.332
425.4440, 3317.254
425.9261, 3320.947
426.4082, 3319.768
426.8903, 3316.021
427.3724, 3312.937
427.8546, 3311.693
428.3367, 3308.870
428.8188, 3301.526
429.3009, 3289.876
429.7830, 3289.410
430.2651, 3305.235
430.7473, 3322.863
431.2294, 3328.668
431.7115, 3320.650
432.1936, 3317.432
432.6757, 3323.263
433.1578, 3333.824
433.6400, 3338.703
434.1221, 3337.772
434.6042, 3333.332
435.0863, 3322.027
435.5684, 3307.440
436.0505, 3304.721
436.5327, 3315.920
437.0148, 3331.984
437.4969, 3342.200
437.9790, 3348.615
438.4611, 3357.486
438.9432, 3374.739
439.4254, 3393.629
439.9075, 3409.631
440.3896, 3422.205
440.8717, 3425.109
441.3538, 3403.998
441.8359, 3375.872
442.3181, 3358.936
442.8002, 3363.180
443.2823, 3369.658
443.7644, 3368.720
444.2465, 3363.719
444.7286, 3362.410
445.2108, 3368.181
445.6929, 3377.317
446.1750, 3390.847
446.6571, 3412.994
447.1392, 3423.059
447.6213, 3401.692
448.1035, 3374.906
448.5856, 3370.055
449.0677, 3401.915
449.5498, 3434.754
450.0319, 3463.445
450.5140, 3488.467
450.9962, 3515.687
451.4783, 3549.877
451.9604, 3577.991
452.4425, 3588.613
452.9246, 3576.562
453.4067, 3578.023
453.8889, 3597.589
454.3710, 3627.108
454.8531, 3651.800
455.3352, 3671.688
455.8173, 3692.657
456.2994, 3719.732
456.7816, 3749.618
457.2637, 3769.552
457.7458, 3778.649
458.2279, 3789.782
458.7100, 3824.760
459.1921, 3870.077
459.6743, 3893.497
460.1564, 3876.475
460.6385, 3850.839
461.1206, 3844.979
461.6027, 3856.463
462.0848, 3876.782
462.5670, 3918.333
463.0491, 3955.875
463.5312, 3968.131
464.0133, 3947.865
464.4954, 3925.758
464.9775, 3914.190
465.4597, 3907.178
465.9418, 3897.654
466.4239, 3884.484
466.9060, 3867.868
467.3881, 3848.349
467.8702, 3825.713
468.3524, 3796.887
468.8345, 3754.313
469.3166, 3712.281
469.7987, 3677.813
470.2808, 3649.527
470.7629, 3631.371
471.2451, 3628.546
471.7272, 3631.776
472.2093, 3621.976
472.6914, 3594.450
473.1735, 3574.241
473.6556, 3574.751
474.1378, 3591.646
474.6199, 3591.298
475.1020, 3572.438
475.5841, 3546.185
476.0662, 3517.140
476.5483, 3487.969
477.0305, 3471.498
477.5126, 3473.756
477.9947, 3482.276
478.4768, 3479.130
478.9589, 3467.514
479.4410, 3458.831
479.9232, 3456.601
480.4053, 3461.739
480.8874, 3478.732
481.3695, 3508.233
481.8516, 3534.814
482.3337, 3549.836
482.8159, 3557.264
483.2980, 3561.225
483.7801, 3560.480
484.2622, 3558.936
484.7443, 3554.265
485.2264, 3548.769
485.7086, 3551.540
486.1907, 3573.247
486.6728, 3595.242
487.1549, 3609.280
487.6370, 3611.235
488.1191, 3618.840
488.6013, 3633.792
489.0834, 3652.993
489.5655, 3674.249
490.0476, 3701.240
490.5297, 3718.144
491.0118, 3716.735
491.4940, 3704.326
491.9761, 3712.121
492.4582, 3742.301
492.9403, 3778.164
493.4224, 3808.653
493.9045, 3835.096
494.3867, 3866.389
494.8688, 3903.508
495.3509, 3944.663
495.8330, 3997.331
496.3151, 4053.337
496.7972, 4092.286
497.2794, 4083.816
497.7615, 4069.405
498.2436, 4091.790
498.7257, 4145.938
499.2078, 4202.944
499.6899, 4255.098
500.1721, 4298.357
500.6542, 4325.545
501.1363, 4323.539
501.6184, 4334.532
502.1005, 4382.762
502.5826, 4448.343
503.0648, 4501.012
503.5469, 4521.783
504.0290, 4545.791
504.5111, 4579.241
504.9932, 4622.278
505.4753, 4671.205
505.9575, 4730.527
506.4396, 4790.732
506.9217, 4844.960
507.4038, 4891.080
507.8859, 4942.961
508.3680, 5005.704
508.8502, 5068.611
509.3323, 5104.793
509.8144, 5114.918
510.2965, 5142.475
510.7786, 5215.006
511.2607, 5312.610
511.7429, 5379.506
512.2250, 5416.915
512.7071, 5457.136
513.1892, 5528.707
513.6713, 5617.709
514.1534, 5703.391
514.6356, 5780.872
515.1177, 5857.243
515.5998, 5938.097
516.0819, 6021.269
516.5640, 6103.333
517.0461, 6180.996
517.5283, 6258.176
518.0104, 6336.925
518.4925, 6417.255
518.9746, 6495.735
519.4567, 6580.424
519.9388, 6656.452
520.4210, 6716.099
520.9031, 6748.818
521.3852, 6785.023
521.8673, 6833.400
522.3494, 6879.851
522.8315, 6900.239
523.3137, 6892.958
523.7958, 6865.712
524.2779, 6815.081
524.7600, 6745.732
525.2421, 6692.401
525.7242, 6657.088
526.2064, 6608.496
526.6885, 6516.712
527.1706, 6392.200
527.6527, 6265.938
528.1348, 6141.719
528.6169, 6019.991
529.0991, 5897.874
529.5812, 5778.163
530.0633, 5664.097
530.5454, 5560.125
531.0275, 5459.800
531.5096, 5355.325
531.9918, 5248.771
532.4739, 5148.052
532.9560, 5049.910
533.4381, 4965.190
533.9202, 4904.937
534.4023, 4885.878
534.8845, 4854.295
535.3666, 4797.195
535.8487, 4729.897
536.3308, 4668.508
536.8129, 4614.521
537.2950, 4565.891
537.7772, 4521.729
538.2593, 4483.307
538.7414, 4457.625
539.2235, 4447.662
539.7056, 4438.731
540.1877, 4422.441
540.6699, 4399.479
541.1520, 4372.509
541.6341, 4340.177
542.1162, 4312.265
542.5983, 4302.604
543.0804, 4305.637
543.5626, 4308.219
544.0447, 4307.257
544.5268, 4302.695
545.0089, 4294.648
545.4910, 4282.896
545.9731, 4266.845
546.4553, 4235.504
546.9374, 4208.282
547.4195, 4198.320
547.9016, 4209.358
548.3837, 4219.830
548.8658, 4227.090
549.3480, 4230.769
549.8301, 4230.591
550.3122, 4226.593
550.7943, 4218.793
551.2764, 4204.943
551.7585, 4188.374
552.2407, 4177.681
552.7228, 4175.035
553.2049, 4170.522
553.6870, 4156.978
554.1691, 4137.551
554.6512, 4135.072
555.1334, 4150.541
555.6155, 4171.125
556.0976, 4190.206
556.5797, 4205.727
557.0618, 4212.551
557.5439, 4209.259
558.0261, 4199.106
558.5082, 4176.241
558.9903, 4149.809
559.4724, 4136.343
559.9545, 4160.777
560.4366, 4183.569
560.9188, 4178.759
561.4009, 4143.266
561.8830, 4157.365
562.3651, 4167.329
562.8472, 4173.380
563.3293, 4163.802
563.8115, 4174.408
564.2936, 4176.923
564.7757, 4179.108
565.2578, 4192.553
565.7399, 4185.249
566.2220, 4198.514
566.7042, 4203.570
567.1863, 4212.383
567.6684, 4213.058
568.1505, 4216.246
568.6326, 4227.576
569.1147, 4217.486
569.5969, 4213.639
570.0790, 4211.654
570.5611, 4219.209
571.0432, 4236.208
571.5253, 4252.342
572.0074, 4254.616
572.4896, 4253.193
572.9717, 4260.388
573.4538, 4282.012
573.9359, 4305.934
574.4180, 4332.426
574.9001, 4356.645
575.3823, 4370.834
575.8644, 4354.795
576.3465, 4348.851
576.8286, 4365.620
577.3107, 4402.489
577.7928, 4438.051
578.2750, 4473.435
578.7571, 4506.441
579.2392, 4537.307
579.7213, 4567.539
580.2034, 4585.831
580.6855, 4590.203
581.1677, 4589.688
581.6498, 4591.012
582.1319, 4595.435
582.6140, 4612.335
583.0961, 4651.042
583.5782, 4690.449
584.0604, 4698.581
584.5425, 4684.829
585.0246, 4677.396
585.5067, 4701.294
585.9888, 4728.450
586.4709, 4738.257
586.9531, 4730.261
587.4352, 4720.216
587.9173, 4712.128
588.3994, 4704.588
588.8815, 4697.893
589.3636, 4702.750
589.8458, 4686.343
590.3279, 4629.313
590.8100, 4564.144
591.2921, 4539.040
591.7742, 4570.589
592.2563, 4583.710
592.7385, 4559.510
593.2206, 4508.962
593.7027, 4457.747
594.1848, 4405.938
594.6669, 4362.508
595.1490, 4337.562
595.6312, 4323.456
596.1133, 4302.955
596.5954, 4275.605
597.0775, 4251.484
597.5596, 4247.238
598.0417, 4245.857
598.5239, 4227.546
599.0060, 4181.031
599.4881, 4132.525
599.9702, 4088.840
600.4523, 4049.357
600.9344, 4012.989
601.4166, 3976.706
601.8987, 3947.588
602.3808, 3929.299
602.8629, 3919.587
603.3450, 3906.119
603.8271, 3887.461
604.3093, 3868.480
604.7914, 3850.411
605.2735, 3833.503
605.7556, 3822.418
606.2377, 3818.256
606.7198, 3812.002
607.2020, 3788.915
607.6841, 3757.510
608.1662, 3739.199
608.6483, 3741.398
609.1304, 3748.221
609.6125, 3749.507
610.0947, 3745.103
610.5768, 3734.646
611.0589, 3712.669
611.5410, 3690.094
612.0231, 3669.021
612.5052, 3650.218
612.9874, 3637.111
613.4695, 3636.670
613.9516, 3635.044
614.4337, 3626.180
614.9158, 3608.488
615.3979, 3596.644
615.8801, 3591.701
616.3622, 3589.869
616.8443, 3589.349
617.3264, 3589.928
617.8085, 3586.026
618.2906, 3576.477
618.7728, 3563.726
619.2549, 3548.977
619.7370, 3533.545
620.2191, 3521.696
620.7012, 3517.610
621.1833, 3515.177
621.6655, 3507.497
622.1476, 3496.888
622.6297, 3491.465
623.1118, 3500.096
623.5939, 3509.903
624.0760, 3513.805
624.5582, 3509.923
625.0403, 3512.144
625.5224, 3530.805
626.0045, 3545.173
626.4866, 3537.832
626.9688, 3499.313
627.4509, 3481.093
627.9330, 3489.477
628.4151, 3508.647
628.8972, 3515.669
629.3793, 3512.429
629.8615, 3516.177
630.3436, 3535.751
630.8257, 3558.397
631.3078, 3566.012
631.7899, 3561.965
632.2720, 3556.778
632.7542, 3557.014
633.2363, 3557.076
633.7184, 3552.642
634.2005, 3543.846
634.6826, 3535.852
635.1647, 3532.629
635.6469, 3528.628
636.1290, 3518.667
636.6111, 3495.321
637.0932, 3491.120
637.5753, 3516.256
638.0574, 3547.737
638.5396, 3559.364
639.0217, 3549.175
639.5038, 3546.185
639.9859, 3557.067
640.4680, 3571.804
640.9501, 3572.645
641.4323, 3562.368
641.9144, 3551.921
642.3965, 3541.480
642.8786, 3536.883
643.3607, 3549.058
643.8428, 3573.765
644.3250, 3593.486
644.8071, 3598.829
645.2892, 3598.593
645.7713, 3595.825
646.2534, 3589.919
646.7355, 3588.118
647.2177, 3593.955
647.6998, 3600.766
648.1819, 3604.467
648.6640, 3604.849
649.1461, 3602.519
649.6282, 3596.005
650.1104, 3590.062
650.5925, 3593.373
651.0746, 3604.313
651.5567, 3610.105
652.0388, 3604.910
652.5209, 3597.894
653.0031, 3605.253
653.4852, 3620.831
653.9673, 3628.425
654.4494, 3622.328
654.9315, 3605.637
655.4136, 3608.943
655.8958, 3608.111
656.3779, 3603.370
656.8600, 3582.999
657.3421, 3582.810
657.8242, 3574.532
658.3063, 3565.924
658.7885, 3568.574
659.2706, 3550.476
659.7527, 3552.949
660.2348, 3547.210
660.7169, 3545.229
661.1990, 3535.111
661.6812, 3527.504
662.1633, 3536.467
662.6454, 3541.770
663.1275, 3534.959
663.6096, 3516.381
664.0917, 3476.598
664.5739, 3439.322
665.0560, 3421.578
665.5381, 3418.593
666.0202, 3419.918
666.5023, 3432.014
666.9844, 3438.093
667.4666, 3427.624
667.9487, 3403.808
668.4308, 3392.071
668.9129, 3398.519
669.3950, 3405.106
669.8771, 3402.922
670.3593, 3392.302
670.8414, 3382.911
671.3235, 3374.721
671.8056, 3367.543
672.2877, 3363.887
672.7698, 3360.594
673.2520, 3348.472
673.7341, 3324.083
674.2162, 3302.719
674.6983, 3294.410
675.1804, 3296.132
675.6625, 3304.662
676.1447, 3337.089
676.6268, 3353.449
677.1089, 3328.762
677.5910, 3285.826
678.0731, 3267.486
678.5552, 3287.907
679.0374, 3304.987
679.5195, 3310.529
680.0016, 3306.013
680.4837, 3294.045
680.9658, 3274.166
681.4479, 3257.494
681.9301, 3249.526
682.4122, 3248.854
682.8943, 3257.196
683.3764, 3273.226
683.8585, 3282.678
684.3406, 3269.958
684.8228, 3250.856
685.3049, 3238.364
685.7870, 3234.834
686.2691, 3233.701
686.7512, 3239.276
687.2333, 3242.654
687.7155, 3236.045
688.1976, 3208.811
688.6797, 3196.970
689.1618, 3206.879
689.6439, 3224.014
690.1260, 3227.484
690.6082, 3217.715
691.0903, 3210.473
691.5724, 3209.928
692.0545, 3212.091
692.5366, 3215.811
693.0187, 3217.791
693.5009, 3209.306
693.9830, 3170.039
694.4651, 3134.038
694.9472, 3125.238
695.4293, 3138.410
695.9114, 3151.141
696.3936, 3161.271
696.8757, 3166.895
697.3578, 3165.794
697.8399, 3158.144
698.3220, 3155.684
698.8041, 3159.179
699.2863, 3165.868
699.7684, 3176.763
700.2505, 3190.540
700.7326, 3195.452
701.2147, 3190.903
701.6968, 3182.265
702.1790, 3166.776
702.6611, 3152.889
703.1432, 3157.157
703.6253, 3190.083
704.1074, 3213.443
704.5895, 3196.468
705.0717, 3164.299
705.5538, 3144.483
706.0359, 3154.761
706.5180, 3159.155
707.0001, 3151.589
707.4822, 3140.589
707.9644, 3143.361
708.4465, 3163.258
708.9286, 3175.074
709.4107, 3170.110
709.8928, 3156.615
710.3749, 3149.902
710.8571, 3149.664
711.3392, 3154.015
711.8213, 3167.972
712.3034, 3181.532
712.7855, 3185.440
713.2676, 3180.924
713.7498, 3174.759
714.2319, 3166.060
714.7140, 3159.202
715.1961, 3157.355
715.6782, 3160.719
716.1603, 3160.727
716.6425, 3153.945
717.1246, 3149.973
717.6067, 3157.714
718.0888, 3176.843
718.5709, 3185.803
719.0530, 3183.758
719.5352, 3176.982
720.0173, 3169.481
720.4994, 3162.038
720.9815, 3155.835
721.4636, 3151.252
721.9457, 3147.957
722.4279, 3148.085
722.9100, 3148.521
723.3921, 3145.957
723.8742, 3135.345
724.3563, 3127.650
724.8384, 3123.095
725.3206, 3121.811
725.8027, 3124.427
726.2848, 3131.380
726.7669, 3139.967
727.2490, 3150.968
727.7311, 3161.171
728.2133, 3160.886
728.6954, 3153.277
729.1775, 3152.793
729.6596, 3175.679
730.1417, 3199.399
730.6238, 3200.554
731.1060, 3185.394
731.5881, 3174.512
732.0702, 3181.766
732.5523, 3188.117
733.0344, 3183.408
733.5165, 3169.714
733.9987, 3167.211
734.4808, 3183.345
734.9629, 3194.428
735.4450, 3183.859
735.9271, 3156.347
736.4092, 3152.271
736.8914, 3172.053
737.3735, 3189.724
737.8556, 3178.518
738.3377, 3155.822
738.8198, 3146.427
739.3019, 3153.396
739.7841, 3162.457
740.2662, 3170.502
740.7483, 3175.091
741.2304, 3173.591
741.7125, 3160.966
742.1946, 3153.083
742.6768, 3150.022
743.1589, 3151.683
743.6410, 3158.708
744.1231, 3171.358
744.6052, 3187.582
745.0873, 3209.605
745.5695, 3225.527
746.0516, 3211.201
746.5337, 3179.751
747.0158, 3163.082
747.4979, 3174.945
747.9800, 3191.754
748.4622, 3204.499
748.9443, 3211.195
749.4264, 3209.119
749.9085, 3179.924
750.3906, 3165.413
750.8727, 3180.698
751.3549, 3208.926
751.8370, 3209.956
752.3191, 3178.429
752.8012, 3153.807
753.2833, 3148.328
753.7654, 3155.440
754.2476, 3164.351
754.7297, 3174.356
755.2118, 3182.335
755.6939, 3183.994
756.1760, 3185.280
756.6581, 3190.174
757.1403, 3198.276
757.6224, 3208.118
758.1045, 3225.521
758.5866, 3237.464
759.0687, 3239.887
759.5508, 3233.075
760.0330, 3216.925
760.5151, 3186.300
760.9972, 3166.458
761.4793, 3181.235
761.9614, 3218.428
762.4435, 3226.696
762.9257, 3208.228
763.4078, 3193.380
763.8899, 3211.386
764.3720, 3237.860
764.8541, 3250.536
765.3362, 3246.955
765.8184, 3238.818
766.3005, 3221.190
766.7826, 3206.982
767.2647, 3203.992
767.7468, 3214.640
768.2289, 3223.297
768.7111, 3229.390
769.1932, 3234.800
769.6753, 3243.050
770.1574, 3252.329
770.6395, 3252.510
771.1216, 3241.586
771.6038, 3233.555
772.0859, 3245.834
772.5680, 3265.219
773.0501, 3275.810
773.5322, 3269.935
774.0143, 3267.811
774.4965, 3283.753
774.9786, 3299.943
775.4607, 3298.954
775.9428, 3272.420
776.4249, 3253.573
776.9070, 3244.156
777.3892, 3242.976
777.8713, 3252.377
778.3534, 3269.630
778.8355, 3282.306
779.3176, 3287.365
779.7997, 3288.443
780.2819, 3286.059
780.7640, 3282.812
781.2461, 3282.467
781.7282, 3287.510
782.2103, 3293.859
782.6924, 3303.044
783.1746, 3312.031
783.6567, 3315.069
784.1388, 3308.026
784.6209, 3309.563
785.1030, 3325.999
785.5851, 3347.203
786.0673, 3352.758
786.5494, 3346.063
787.0315, 3342.226
787.5136, 3350.563
787.9957, 3358.272
788.4778, 3346.334
788.9600, 3326.458
789.4421, 3322.261
789.9242, 3368.767
790.4063, 3398.273
790.8884, 3384.212
791.3705, 3346.331
791.8527, 3337.427
792.3348, 3365.044
792.8169, 3387.987
793.2990, 3393.056
793.7811, 3387.270
794.2632, 3382.460
794.7454, 3379.417
795.2275, 3381.110
795.7096, 3394.257
796.1917, 3408.118
796.6738, 3413.941
797.1559, 3414.061
797.6381, 3416.331
798.1202, 3420.836
798.6023, 3430.206
799.0844, 3449.246
799.5665, 3473.633
800.0486, 3481.357
800.5308, 3470.003
801.0129, 3460.404
801.4950, 3462.693
801.9771, 3471.821
802.4592, 3477.502
802.9413, 3480.722
803.4235, 3485.730
803.9056, 3501.326
804.3877, 3513.500
804.8698, 3506.893
805.3519, 3485.545
805.8340, 3484.294
806.3162, 3522.445
806.7983, 3555.379
807.2804, 3566.678
807.7625, 3560.348
808.2446, 3562.104
808.7267, 3572.182
809.2089, 3579.039
809.6910, 3570.301
810.1731, 3557.247
810.6552, 3560.396
811.1373, 3576.272
811.6194, 3585.491
812.1016, 3568.855
812.5837, 3552.016
813.0658, 3545.103
813.5479, 3548.820
814.0300, 3567.448
814.5121, 3612.213
814.9943, 3647.375
815.4764, 3653.947
815.9585, 3638.138
816.4406, 3626.293
816.9227, 3618.873
817.4048, 3621.353
817.8870, 3652.376
818.3691, 3684.655
818.8512, 3684.004
819.3333, 3653.855
819.8154, 3635.675
820.2975, 3647.015
820.7797, 3668.939
821.2618, 3698.166
821.7439, 3733.512
822.2260, 3750.218
822.7081, 3744.027
823.1902, 3736.741
823.6724, 3739.661
824.1545, 3750.520
824.6366, 3766.723
825.1187, 3787.080
825.6008, 3802.928
826.0829, 3803.987
826.5651, 3803.074
827.0472, 3809.587
827.5293, 3823.727
828.0114, 3836.265
828.4935, 3846.972
828.9756, 3855.524
829.4578, 3862.179
829.9399, 3866.845
830.4220, 3865.341
830.9041, 3857.498
831.3862, 3853.209
831.8683, 3860.065
832.3505, 3873.066
832.8326, 3887.885
833.3147, 3903.544
833.7968, 3914.470
834.2789, 3912.491
834.7610, 3910.554
835.2432, 3914.789
835.7253, 3924.641
836.2074, 3937.602
836.6895, 3957.395
837.1716, 3969.144
837.6537, 3961.233
838.1359, 3941.852
838.6180, 3937.873
839.1001, 3947.935
839.5822, 3961.739
840.0643, 3980.853
840.5464, 3994.933
841.0286, 3988.421
841.5107, 3966.340
841.9928, 3961.658
842.4749, 3992.014
842.9570, 4027.100
843.4391, 4062.136
843.9213, 4095.194
844.4034, 4114.557
844.8855, 4119.691
845.3676, 4124.837
845.8497, 4139.453
846.3318, 4156.130
846.8140, 4165.823
847.2961, 4168.592
847.7782, 4164.696
848.2603, 4142.787
848.7424, 4126.093
849.2245, 4126.987
849.7067, 4141.437
850.1888, 4154.220
850.6709, 4165.268
851.1530, 4175.408
851.6351, 4184.548
852.1172, 4193.591
852.5994, 4205.868
853.0815, 4220.359
853.5636, 4232.540
854.0457, 4243.473
854.5278, 4247.936
855.0099, 4233.007
855.4921, 4209.056
855.9742, 4202.324
856.4563, 4238.398
856.9384, 4262.010
857.4205, 4261.482
857.9026, 4245.678
858.3848, 4229.455
858.8669, 4213.348
859.3490, 4212.290
859.8311, 4236.544
860.3132, 4267.043
860.7953, 4282.446
861.2775, 4287.075
861.7596, 4289.250
862.2417, 4294.209
862.7238, 4294.258
863.2059, 4278.244
863.6880, 4260.429
864.1702, 4262.094
864.6523, 4287.651
865.1344, 4313.917
865.6165, 4339.904
866.0986, 4357.208
866.5807, 4343.621
867.0629, 4312.440
867.5450, 4295.842
868.0271, 4308.196
868.5092, 4322.094
868.9913, 4325.652
869.4734, 4321.001
869.9556, 4308.699
870.4377, 4273.910
870.9198, 4266.209
871.4019, 4296.919
871.8840, 4335.889
872.3661, 4346.043
872.8483, 4333.342
873.3304, 4328.327
873.8125, 4335.501
874.2946, 4344.215
874.7767, 4344.843
875.2589, 4342.825
875.7410, 4341.849
876.2231, 4338.850
876.7052, 4350.932
877.1873, 4396.690
877.6694, 4434.978
878.1516, 4430.156
878.6337, 4381.159
879.1158, 4361.051
879.5979, 4372.027
880.0800, 4385.832
880.5621, 4375.027
881.0443, 4355.890
881.5264, 4346.494
882.0085, 4348.462
882.4906, 4358.732
882.9727, 4385.337
883.4548, 4411.466
883.9370, 4429.003
884.4191, 4438.281
884.9012, 4449.265
885.3833, 4463.228
885.8654, 4469.740
886.3475, 4455.808
886.8297, 4433.528
887.3118, 4424.694
887.7939, 4427.985
888.2760, 4436.319
888.7581, 4449.588
889.2402, 4463.818
889.7224, 4476.764
890.2045, 4489.040
890.6866, 4504.142
891.1687, 4524.299
891.6508, 4538.035
892.1329, 4536.511
892.6151, 4532.167
893.0972, 4557.960
893.5793, 4604.478
894.0614, 4639.669
894.5435, 4644.096
895.0256, 4641.192
895.5078, 4637.973
895.9899, 4637.548
896.4720, 4647.030
896.9541, 4676.469
897.4362, 4694.376
897.9183, 4694.492
898.4005, 4687.311
898.8826, 4685.053
899.3647, 4689.027
899.8468, 4707.448
900.3289, 4746.429
900.8110, 4782.816
901.2932, 4790.426
901.7753, 4789.372
902.2574, 4801.996
902.7395, 4845.417
903.2216, 4874.669
903.7037, 4882.526
904.1859, 4886.165
904.6680, 4900.164
905.1501, 4923.672
905.6322, 4949.936
906.1143, 4978.572
906.5964, 5004.613
907.0786, 5023.692
907.5607, 5037.748
908.0428, 5047.740
908.5249, 5053.736
909.0070, 5058.598
909.4891, 5060.265
909.9713, 5064.772
910.4534, 5077.781
910.9355, 5096.947
911.4176, 5100.852
911.8997, 5089.963
912.3818, 5076.691
912.8640, 5066.754
913.3461, 5059.342
913.8282, 5051.417
914.3103, 5044.847
914.7924, 5046.620
915.2745, 5078.438
915.7567, 5094.269
916.2388, 5082.367
916.7209, 5049.359
917.2030, 5008.330
917.6851, 4959.390
918.1672, 4915.674
918.6494, 4882.145
919.1315, 4854.308
919.6136, 4827.531
920.0957, 4802.750
920.5778, 4782.017
921.0599, 4771.147
921.5421, 4755.903
922.0242, 4729.359
922.5063, 4702.107
922.9884, 4690.082
923.4705, 4695.036
923.9526, 4676.266
924.4348, 4627.561
924.9169, 4574.365
925.3990, 4541.980
925.8811, 4520.304
926.3632, 4496.682
926.8453, 4469.057
927.3275, 4441.017
927.8096, 4417.376
928.2917, 4390.009
928.7738, 4352.867
929.2559, 4306.360
929.7380, 4270.225
930.2202, 4244.748
930.7023, 4216.686
931.1844, 4168.167
931.6665, 4117.722
932.1486, 4093.755
932.6307, 4090.643
933.1129, 4083.372
933.5950, 4062.003
934.0771, 4036.304
934.5592, 4006.787
935.0413, 3975.919
935.5234, 3948.601
936.0056, 3925.025
936.4877, 3909.662
936.9698, 3910.238
937.4519, 3906.133
937.9340, 3859.807
938.4161, 3795.114
938.8983, 3750.152
939.3804, 3749.238
939.8625, 3748.057
940.3446, 3743.214
940.8267, 3731.794
941.3088, 3706.150
941.7910, 3665.157
942.2731, 3641.272
942.7552, 3637.690
943.2373, 3639.549
943.7194, 3636.157
944.2015, 3628.642
944.6837, 3617.501
945.1658, 3602.467
945.6479, 3588.154
946.1300, 3574.830
946.6121, 3563.613
947.0942, 3556.631
947.5764, 3552.609
948.0585, 3538.970
948.5406, 3516.367
949.0227, 3498.963
949.5048, 3500.546
949.9869, 3506.006
950.4691, 3498.775
950.9512, 3483.424
951.4333, 3471.582
951.9154, 3476.080
952.3975, 3470.329
952.8796, 3446.018
953.3618, 3414.831
953.8439, 3397.953
954.3260, 3384.581
954.8081, 3391.519
955.2902, 3394.323
955.7723, 3393.216
956.2545, 3376.478
956.7366, 3379.922
957.2187, 3375.279
957.7008, 3370.304
958.1829, 3376.589
958.6650, 3362.125
959.1472, 3368.231
959.6293, 3366.126
960.1114, 3367.780
960.5935, 3361.295
961.0756, 3357.323
961.5577, 3361.493
962.0399, 3361.154
962.5220, 3353.733
963.0041, 3355.625
963.4862, 3340.876
963.9683, 3340.730
964.4504, 3346.885
964.9326, 3339.872
965.4147, 3341.913
965.8968, 3340.505
966.3789, 3323.428
966.8610, 3333.603
967.3431, 3331.992
967.8253, 3339.270
968.3074, 3348.189
968.7895, 3337.896
969.2716, 3323.041
969.7537, 3321.671
970.2358, 3343.324
970.7180, 3350.839
971.2001, 3340.404
971.6822, 3328.576
972.1643, 3333.918
972.6464, 3347.721
973.1285, 3349.669
973.6107, 3339.353
974.0928, 3331.590
974.5749, 3333.087
975.0570, 3339.896
975.5391, 3354.307
976.0212, 3373.020
976.5034, 3374.173
976.9855, 3354.888
977.4676, 3345.517
977.9497, 3364.224
978.4318, 3388.589
978.9139, 3381.712
979.3961, 3357.668
979.8782, 3343.719
980.3603, 3361.026
980.8424, 3371.986
981.3245, 3365.668
981.8066, 3355.474
982.2888, 3354.213
982.7709, 3366.394
983.2530, 3374.441
983.7351, 3378.576
984.2172, 3367.082
984.6993, 3375.769
985.1815, 3376.369
985.6636, 3376.637
986.1457, 3388.165
986.6278, 3378.944
987.1099, 3390.293
987.5920, 3393.431
988.0742, 3400.328
988.5563, 3399.086
989.0384, 3400.358
989.5205, 3409.771
990.0026, 3414.676
990.4847, 3412.497
990.9669, 3419.633
991.4490, 3400.913
991.9311, 3387.866
992.4132, 3385.062
992.8953, 3399.880
993.3774, 3406.962
993.8596, 3402.719
994.3417, 3398.470
994.8238, 3407.985
995.3059, 3426.162
995.7880, 3442.335
996.2701, 3455.551
996.7523, 3466.659
997.2344, 3478.091
997.7165, 3485.104
998.1986, 3484.432
998.6807, 3477.262
999.1628, 3469.780
999.6450, 3461.375
1000.127, 3461.208
1000.609, 3476.689
1001.091, 3497.016
1001.573, 3508.158
1002.056, 3514.134
1002.538, 3522.150
1003.020, 3539.060
1003.502, 3551.095
1003.984, 3555.646
1004.466, 3557.123
1004.948, 3560.468
1005.430, 3565.195
1005.912, 3564.337
1006.395, 3557.376
1006.877, 3556.067
1007.359, 3571.412
1007.841, 3594.207
1008.323, 3617.725
1008.805, 3641.965
1009.287, 3670.336
1009.769, 3707.647
1010.252, 3734.939
1010.734, 3741.999
1011.216, 3740.686
1011.698, 3758.003
1012.180, 3786.025
1012.662, 3803.969
1013.144, 3795.341
1013.626, 3793.376
1014.108, 3821.716
1014.591, 3854.168
1015.073, 3863.635
1015.555, 3844.191
1016.037, 3852.889
1016.519, 3892.924
1017.001, 3931.832
1017.483, 3938.755
1017.965, 3934.390
1018.448, 3934.213
1018.930, 3941.431
1019.412, 3971.264
1019.894, 4050.488
1020.376, 4113.862
1020.858, 4141.418
1021.340, 4150.639
1021.822, 4175.396
1022.304, 4214.936
1022.787, 4267.379
1023.269, 4334.463
1023.751, 4405.784
1024.233, 4480.423
1024.715, 4552.276
1025.197, 4612.749
1025.679, 4656.815
1026.161, 4717.258
1026.644, 4795.864
1027.126, 4884.024
1027.608, 4982.258
1028.090, 5084.328
1028.572, 5178.860
1029.054, 5267.725
1029.536, 5359.495
1030.018, 5456.851
1030.500, 5556.857
1030.983, 5660.111
1031.465, 5763.142
1031.947, 5859.782
1032.429, 5950.204
1032.911, 6028.081
1033.393, 6089.993
1033.875, 6154.745
1034.357, 6256.737
1034.839, 6354.119
1035.322, 6408.250
1035.804, 6411.991
1036.286, 6414.465
1036.768, 6420.271
1037.250, 6410.024
1037.732, 6374.081
1038.214, 6316.391
1038.696, 6240.088
1039.178, 6148.220
1039.661, 6051.278
1040.143, 5965.343
1040.625, 5855.624
1041.107, 5685.762
1041.589, 5512.296
1042.071, 5412.834
1042.553, 5384.480
1043.035, 5296.053
1043.518, 5136.966
1044.000, 4979.404
1044.482, 4883.100
1044.964, 4810.495
1045.446, 4737.309
1045.928, 4661.473
1046.410, 4579.257
1046.892, 4481.805
1047.375, 4404.885
1047.857, 4363.125
1048.339, 4337.564
1048.821, 4298.843
1049.303, 4250.851
1049.785, 4200.604
1050.267, 4147.583
1050.749, 4097.893
1051.231, 4055.401
1051.714, 4015.355
1052.196, 3973.034
1052.678, 3928.772
1053.160, 3900.190
1053.642, 3886.423
1054.124, 3876.134
1054.606, 3867.186
1055.088, 3854.465
1055.571, 3833.039
1056.053, 3804.898
1056.535, 3773.511
1057.017, 3732.750
1057.499, 3708.328
1057.981, 3705.925
1058.463, 3711.327
1058.945, 3708.248
1059.427, 3700.597
1059.910, 3695.505
1060.392, 3693.873
1060.874, 3693.127
1061.356, 3692.896
1061.838, 3692.668
1062.320, 3691.928
1062.802, 3691.115
1063.284, 3693.379
1063.766, 3697.915
1064.249, 3697.578
1064.731, 3687.530
1065.213, 3677.456
1065.695, 3674.606
1066.177, 3675.636
1066.659, 3677.169
1067.141, 3679.727
1067.623, 3678.687
1068.105, 3673.181
1068.588, 3668.436
1069.070, 3656.889
1069.552, 3666.977
1070.034, 3672.930
1070.516, 3674.971
1070.998, 3661.383
1071.480, 3667.976
1071.962, 3666.482
1072.445, 3664.657
1072.927, 3674.091
1073.409, 3662.776
1073.891, 3672.031
1074.373, 3673.075
1074.855, 3677.878
1075.337, 3674.542
1075.819, 3673.719
1076.302, 3687.688
1076.784, 3688.694
1077.266, 3680.331
1077.748, 3674.210
1078.230, 3670.021
1078.712, 3675.279
1079.194, 3697.678
1079.676, 3719.094
1080.158, 3711.297
1080.641, 3693.374
1081.123, 3692.124
1081.605, 3725.328
1082.087, 3740.614
1082.569, 3727.051
1083.051, 3720.873
1083.533, 3757.947
1084.015, 3817.087
1084.498, 3841.668
1084.980, 3837.754
1085.462, 3828.235
1085.944, 3810.304
1086.426, 3804.980
1086.908, 3821.461
1087.390, 3848.162
1087.872, 3871.307
1088.354, 3891.082
1088.837, 3908.773
1089.319, 3924.505
1089.801, 3940.420
1090.283, 3949.647
1090.765, 3966.970
1091.247, 4014.931
1091.729, 4083.688
1092.211, 4113.232
1092.693, 4095.825
1093.176, 4087.545
1093.658, 4107.001
1094.140, 4131.450
1094.622, 4125.532
1095.104, 4110.154
1095.586, 4116.240
1096.068, 4157.845
1096.550, 4187.946
1097.032, 4206.818
1097.515, 4206.382
1097.997, 4170.286
1098.479, 4118.917
1098.961, 4112.574
1099.443, 4139.651
1099.925, 4165.830
1100.407, 4192.348
1100.889, 4193.753
1101.372, 4142.503
1101.854, 4083.172
1102.336, 4062.232
1102.818, 4076.486
1103.300, 4067.506
1103.782, 4034.519
1104.264, 4000.506
1104.746, 3974.481
1105.229, 3959.521
1105.711, 3968.003
1106.193, 3987.752
1106.675, 3984.716
1107.157, 3954.243
1107.639, 3928.901
1108.121, 3912.954
1108.603, 3906.150
1109.085, 3918.011
1109.568, 3932.143
1110.050, 3924.908
1110.532, 3892.894
1111.014, 3880.384
1111.496, 3897.391
1111.978, 3913.355
1112.460, 3916.574
1112.942, 3915.017
1113.425, 3926.654
1113.907, 3944.073
1114.389, 3950.627
1114.871, 3936.697
1115.353, 3928.057
1115.835, 3933.967
1116.317, 3942.406
1116.799, 3947.026
1117.281, 3948.574
1117.764, 3952.126
1118.246, 3956.391
1118.728, 3954.642
1119.210, 3936.616
1119.692, 3920.622
1120.174, 3917.833
1120.656, 3918.905
1121.138, 3911.050
1121.620, 3893.062
1122.103, 3896.508
1122.585, 3922.768
1123.067, 3942.572
1123.549, 3933.672
1124.031, 3911.654
1124.513, 3882.555
1124.995, 3850.203
1125.477, 3825.588
1125.959, 3810.617
1126.442, 3795.592
1126.924, 3779.198
1127.406, 3761.580
1127.888, 3741.277
1128.370, 3720.766
1128.852, 3702.281
1129.334, 3686.109
1129.816, 3675.660
1130.299, 3676.953
1130.781, 3668.843
1131.263, 3643.072
1131.745, 3608.407
1132.227, 3573.461
1132.709, 3542.164
1133.191, 3523.819
1133.673, 3523.944
1134.156, 3522.236
1134.638, 3513.733
1135.120, 3503.251
1135.602, 3491.787
1136.084, 3480.750
1136.566, 3475.027
1137.048, 3473.826
1137.530, 3474.708
1138.012, 3482.350
1138.495, 3482.123
1138.977, 3460.180
1139.459, 3434.844
1139.941, 3419.266
1140.423, 3413.189
1140.905, 3416.437
1141.387, 3427.772
1141.869, 3432.624
1142.352, 3410.606
1142.834, 3392.698
1143.316, 3407.210
1143.798, 3431.724
1144.280, 3427.547
1144.762, 3390.292
1145.244, 3369.160
1145.726, 3368.637
1146.208, 3370.729
1146.691, 3358.248
1147.173, 3344.469
1147.655, 3341.938
1148.137, 3348.137
1148.619, 3348.413
1149.101, 3340.521
1149.583, 3336.281
1150.065, 3338.474
1150.547, 3340.760
1151.030, 3334.969
1151.512, 3326.068
1151.994, 3319.116
1152.476, 3314.755
1152.958, 3314.270
1153.440, 3320.609
1153.922, 3320.976
1154.404, 3307.997
1154.886, 3295.138
1155.369, 3311.298
1155.851, 3339.466
1156.333, 3349.386
1156.815, 3331.450
1157.297, 3315.492
1157.779, 3303.288
1158.261, 3297.192
1158.743, 3299.778
1159.226, 3307.722
1159.708, 3315.210
1160.190, 3321.325
1160.672, 3324.175
1161.154, 3323.991
1161.636, 3317.865
1162.118, 3299.188
1162.600, 3283.441
1163.083, 3283.769
1163.565, 3295.143
1164.047, 3292.649
1164.529, 3280.324
1165.011, 3273.946
1165.493, 3283.781
1165.975, 3297.281
1166.457, 3317.840
1166.939, 3333.438
1167.422, 3328.262
1167.904, 3305.563
1168.386, 3294.283
1168.868, 3294.593
1169.350, 3302.584
1169.832, 3327.717
1170.314, 3346.580
1170.796, 3344.849
1171.279, 3332.983
1171.761, 3322.946
1172.243, 3314.690
1172.725, 3308.882
1173.207, 3305.612
1173.689, 3303.522
1174.171, 3300.627
1174.653, 3299.776
1175.135, 3305.563
1175.618, 3313.955
1176.100, 3314.929
1176.582, 3308.377
1177.064, 3304.886
1177.546, 3306.115
1178.028, 3310.073
1178.510, 3287.612
1178.992, 3305.449
1179.474, 3318.170
1179.957, 3326.006
1180.439, 3317.213
1180.921, 3327.619
1181.403, 3328.952
1181.885, 3328.971
1182.367, 3339.264
1182.849, 3327.825
1183.331, 3335.972
1183.813, 3334.923
1184.296, 3336.642
1184.778, 3329.244
1185.260, 3323.374
1185.742, 3324.662
1186.224, 3320.457
1186.706, 3308.183
1187.188, 3304.241
1187.670, 3305.687
1188.153, 3313.269
1188.635, 3342.948
1189.117, 3356.699
1189.599, 3352.608
1190.081, 3344.749
1190.563, 3335.691
1191.045, 3331.941
1191.527, 3352.429
1192.010, 3378.059
1192.492, 3378.512
1192.974, 3337.703
1193.456, 3318.547
1193.938, 3324.316
1194.420, 3333.245
1194.902, 3332.549
1195.384, 3328.202
1195.866, 3324.547
1196.349, 3323.638
1196.831, 3330.327
1197.313, 3354.421
1197.795, 3362.629
1198.277, 3352.649
1198.759, 3337.278
1199.241, 3318.505
1199.723, 3305.235
1200.206, 3317.568
1200.688, 3343.960
1201.170, 3355.092
1201.652, 3334.740
1202.134, 3329.460
1202.616, 3345.390
1203.098, 3358.703
1203.580, 3333.869
1204.063, 3304.106
1204.545, 3328.814
1205.027, 3387.954
1205.509, 3406.200
1205.991, 3344.923
1206.473, 3313.829
1206.955, 3326.174
1207.437, 3355.281
1207.919, 3392.115
1208.401, 3417.919
1208.884, 3394.278
1209.366, 3332.434
1209.848, 3299.960
1210.330, 3317.764
1210.812, 3328.563
1211.294, 3323.726
1211.776, 3314.011
1212.258, 3308.081
1212.740, 3306.692
1213.223, 3313.567
1213.705, 3327.559
1214.187, 3336.922
1214.669, 3342.473
1215.151, 3336.568
1215.633, 3313.906
1216.115, 3293.201
1216.597, 3300.063
1217.080, 3320.333
1217.562, 3338.246
1218.044, 3351.902
1218.526, 3357.196
1219.008, 3349.430
1219.490, 3349.540
1219.972, 3365.248
1220.454, 3380.978
1220.937, 3372.033
1221.419, 3353.862
1221.901, 3345.631
1222.383, 3349.885
1222.865, 3355.727
1223.347, 3364.014
1223.829, 3368.908
1224.311, 3368.732
1224.793, 3365.059
1225.276, 3355.771
1225.758, 3346.812
1226.240, 3346.930
1226.722, 3358.184
1227.204, 3363.798
1227.686, 3362.994
1228.168, 3359.788
1228.650, 3354.666
1229.133, 3349.889
1229.615, 3349.635
1230.097, 3350.547
1230.579, 3348.239
1231.061, 3341.827
1231.543, 3336.690
1232.025, 3332.404
1232.507, 3332.710
1232.990, 3342.539
1233.472, 3348.887
1233.954, 3325.524
1234.436, 3297.632
1234.918, 3300.804
1235.400, 3339.983
1235.882, 3350.374
1236.364, 3329.260
1236.846, 3307.206
1237.328, 3290.996
1237.811, 3290.951
1238.293, 3338.962
1238.775, 3394.836
1239.257, 3405.555
1239.739, 3368.889
1240.221, 3357.455
1240.703, 3371.947
1241.185, 3381.003
1241.667, 3366.543
1242.150, 3350.860
1242.632, 3355.700
1243.114, 3366.594
1243.596, 3368.959
1244.078, 3362.585
1244.560, 3353.379
1245.042, 3341.382
1245.524, 3327.469
1246.007, 3304.814
1246.489, 3293.513
1246.971, 3319.337
1247.453, 3353.231
1247.935, 3366.293
1248.417, 3359.702
1248.899, 3362.613
1249.381, 3372.945
1249.864, 3373.541
1250.346, 3343.796
1250.828, 3323.842
1251.310, 3353.841
1251.792, 3383.936
1252.274, 3368.308
1252.756, 3315.928
1253.238, 3304.438
1253.720, 3327.277
1254.203, 3349.960
1254.685, 3359.306
1255.167, 3362.872
1255.649, 3358.988
1256.131, 3355.498
1256.613, 3359.172
1257.095, 3367.809
1257.577, 3371.256
1258.060, 3370.302
1258.542, 3367.677
1259.024, 3363.585
1259.506, 3359.137
1259.988, 3353.529
1260.470, 3349.152
1260.952, 3349.058
1261.434, 3350.904
1261.917, 3346.250
1262.399, 3337.936
1262.881, 3333.445
1263.363, 3332.174
1263.845, 3342.449
1264.327, 3369.075
1264.809, 3395.449
1265.291, 3409.805
1265.773, 3415.694
1266.255, 3416.887
1266.738, 3415.383
1267.220, 3415.610
1267.702, 3420.984
1268.184, 3423.749
1268.666, 3424.317
1269.148, 3420.612
1269.630, 3410.238
1270.112, 3395.763
1270.594, 3369.330
1271.077, 3344.388
1271.559, 3351.237
1272.041, 3408.320
1272.523, 3433.585
1273.005, 3424.941
1273.487, 3405.743
1273.969, 3381.909
1274.451, 3363.686
1274.934, 3363.466
1275.416, 3372.952
1275.898, 3380.060
1276.380, 3384.117
1276.862, 3387.478
1277.344, 3390.229
1277.826, 3395.902
1278.308, 3413.656
1278.791, 3425.898
1279.273, 3411.758
1279.755, 3394.935
1280.237, 3403.078
1280.719, 3434.065
1281.201, 3441.176
1281.683, 3427.773
1282.165, 3415.251
1282.647, 3414.165
1283.130, 3415.605
1283.612, 3422.130
1284.094, 3423.594
1284.576, 3407.533
1285.058, 3380.500
1285.540, 3368.425
1286.022, 3369.427
1286.504, 3377.983
1286.987, 3397.277
1287.469, 3415.197
1287.951, 3430.835
1288.433, 3443.416
1288.915, 3454.841
1289.397, 3460.863
1289.879, 3446.099
1290.361, 3420.299
1290.844, 3404.232
1291.326, 3406.311
1291.808, 3414.048
1292.290, 3429.667
1292.772, 3440.828
1293.254, 3435.801
1293.736, 3427.486
1294.218, 3432.769
1294.700, 3444.845
1295.182, 3452.972
1295.665, 3456.332
1296.147, 3459.257
1296.629, 3461.993
1297.111, 3456.477
1297.593, 3428.864
1298.075, 3406.771
1298.557, 3416.753
1299.039, 3440.591
1299.521, 3460.758
1300.004, 3476.653
1300.486, 3472.529
1300.968, 3451.160
1301.450, 3431.927
1301.932, 3424.766
##END=



