##NAMES=Fluorellestadite
##RRUFFID=R130124
##IDEAL CHEMISTRY=Ca_5_(SiO_4_)_1.5_(S^6+^O_4_)_1.5_F
##LOCALITY=Kopeisk, South Urals, Russia
##OWNER=RRUFF
##SOURCE=Rock Currier
##DESCRIPTION=Green to blue acicular or hexagonal prismatic crystals, associated with opaque nenadkevichite.
##STATUS=The identification of this mineral has been confirmed only by single crystal X-ray diffraction.
##URL=rruff.info/R130124
8.975323e+001, 0.000000e+000
9.023535e+001, 1.373805e+002
9.071747e+001, 1.366641e+002
9.119958e+001, 1.358840e+002
9.168170e+001, 1.373539e+002
9.216382e+001, 1.383237e+002
9.264594e+001, 1.386114e+002
9.312805e+001, 1.386347e+002
9.361017e+001, 1.385283e+002
9.409229e+001, 1.376877e+002
9.457440e+001, 1.355833e+002
9.505651e+001, 1.336504e+002
9.553863e+001, 1.320192e+002
9.602074e+001, 1.306010e+002
9.650286e+001, 1.293014e+002
9.698498e+001, 1.279901e+002
9.746709e+001, 1.264786e+002
9.794921e+001, 1.252862e+002
9.843133e+001, 1.246977e+002
9.891344e+001, 1.240438e+002
9.939556e+001, 1.230716e+002
9.987768e+001, 1.218561e+002
1.003598e+002, 1.206068e+002
1.008419e+002, 1.193172e+002
1.013240e+002, 1.181414e+002
1.018061e+002, 1.174842e+002
1.022883e+002, 1.176563e+002
1.027704e+002, 1.181117e+002
1.032525e+002, 1.183683e+002
1.037346e+002, 1.183992e+002
1.042167e+002, 1.183523e+002
1.046988e+002, 1.182485e+002
1.051810e+002, 1.181096e+002
1.056631e+002, 1.179766e+002
1.061452e+002, 1.178967e+002
1.066273e+002, 1.178376e+002
1.071094e+002, 1.176558e+002
1.075915e+002, 1.171875e+002
1.080737e+002, 1.167887e+002
1.085558e+002, 1.166252e+002
1.090379e+002, 1.166466e+002
1.095200e+002, 1.167239e+002
1.100021e+002, 1.167390e+002
1.104842e+002, 1.166688e+002
1.109664e+002, 1.166563e+002
1.114485e+002, 1.168883e+002
1.119306e+002, 1.170282e+002
1.124127e+002, 1.167675e+002
1.128948e+002, 1.161406e+002
1.133769e+002, 1.155221e+002
1.138591e+002, 1.154751e+002
1.143412e+002, 1.165145e+002
1.148233e+002, 1.172340e+002
1.153054e+002, 1.174260e+002
1.157875e+002, 1.174113e+002
1.162696e+002, 1.175118e+002
1.167517e+002, 1.178471e+002
1.172339e+002, 1.182945e+002
1.177160e+002, 1.185471e+002
1.181981e+002, 1.185185e+002
1.186802e+002, 1.185193e+002
1.191623e+002, 1.186711e+002
1.196444e+002, 1.189243e+002
1.201266e+002, 1.191534e+002
1.206087e+002, 1.193232e+002
1.210908e+002, 1.194040e+002
1.215729e+002, 1.193743e+002
1.220550e+002, 1.191987e+002
1.225371e+002, 1.189728e+002
1.230193e+002, 1.187367e+002
1.235014e+002, 1.184745e+002
1.239835e+002, 1.183290e+002
1.244656e+002, 1.184724e+002
1.249477e+002, 1.187353e+002
1.254298e+002, 1.189840e+002
1.259120e+002, 1.191765e+002
1.263941e+002, 1.193239e+002
1.268762e+002, 1.194633e+002
1.273583e+002, 1.196740e+002
1.278404e+002, 1.197266e+002
1.283225e+002, 1.195149e+002
1.288047e+002, 1.191429e+002
1.292868e+002, 1.187415e+002
1.297689e+002, 1.183871e+002
1.302510e+002, 1.180781e+002
1.307331e+002, 1.177920e+002
1.312152e+002, 1.174012e+002
1.316974e+002, 1.171596e+002
1.321795e+002, 1.172179e+002
1.326616e+002, 1.174961e+002
1.331437e+002, 1.177999e+002
1.336258e+002, 1.179565e+002
1.341079e+002, 1.179333e+002
1.345901e+002, 1.179774e+002
1.350722e+002, 1.182246e+002
1.355543e+002, 1.184209e+002
1.360364e+002, 1.183563e+002
1.365185e+002, 1.180370e+002
1.370006e+002, 1.176937e+002
1.374828e+002, 1.176014e+002
1.379649e+002, 1.178224e+002
1.384470e+002, 1.180101e+002
1.389291e+002, 1.181449e+002
1.394112e+002, 1.182388e+002
1.398933e+002, 1.183113e+002
1.403755e+002, 1.183704e+002
1.408576e+002, 1.183910e+002
1.413397e+002, 1.183036e+002
1.418218e+002, 1.181174e+002
1.423039e+002, 1.179740e+002
1.427860e+002, 1.179935e+002
1.432681e+002, 1.181170e+002
1.437503e+002, 1.181118e+002
1.442324e+002, 1.178158e+002
1.447145e+002, 1.175044e+002
1.451966e+002, 1.174284e+002
1.456787e+002, 1.175897e+002
1.461608e+002, 1.178141e+002
1.466430e+002, 1.179572e+002
1.471251e+002, 1.180101e+002
1.476072e+002, 1.180683e+002
1.480893e+002, 1.181091e+002
1.485714e+002, 1.181885e+002
1.490535e+002, 1.184254e+002
1.495357e+002, 1.188245e+002
1.500178e+002, 1.191636e+002
1.504999e+002, 1.190354e+002
1.509820e+002, 1.180563e+002
1.514641e+002, 1.174542e+002
1.519462e+002, 1.174451e+002
1.524284e+002, 1.177169e+002
1.529105e+002, 1.181149e+002
1.533926e+002, 1.185649e+002
1.538747e+002, 1.189669e+002
1.543568e+002, 1.190596e+002
1.548389e+002, 1.183575e+002
1.553211e+002, 1.179150e+002
1.558032e+002, 1.179429e+002
1.562853e+002, 1.182060e+002
1.567674e+002, 1.184168e+002
1.572495e+002, 1.184282e+002
1.577316e+002, 1.183045e+002
1.582138e+002, 1.183244e+002
1.586959e+002, 1.186413e+002
1.591780e+002, 1.189080e+002
1.596601e+002, 1.190112e+002
1.601422e+002, 1.189988e+002
1.606243e+002, 1.189776e+002
1.611065e+002, 1.190012e+002
1.615886e+002, 1.190694e+002
1.620707e+002, 1.191655e+002
1.625528e+002, 1.193707e+002
1.630349e+002, 1.195275e+002
1.635170e+002, 1.194884e+002
1.639991e+002, 1.192763e+002
1.644813e+002, 1.191258e+002
1.649634e+002, 1.192619e+002
1.654455e+002, 1.195413e+002
1.659276e+002, 1.196285e+002
1.664097e+002, 1.193735e+002
1.668918e+002, 1.190030e+002
1.673740e+002, 1.187296e+002
1.678561e+002, 1.185384e+002
1.683382e+002, 1.185174e+002
1.688203e+002, 1.189407e+002
1.693024e+002, 1.195154e+002
1.697845e+002, 1.198664e+002
1.702667e+002, 1.197764e+002
1.707488e+002, 1.194208e+002
1.712309e+002, 1.191966e+002
1.717130e+002, 1.191423e+002
1.721951e+002, 1.191632e+002
1.726772e+002, 1.192539e+002
1.731594e+002, 1.193758e+002
1.736415e+002, 1.194707e+002
1.741236e+002, 1.194955e+002
1.746057e+002, 1.194669e+002
1.750878e+002, 1.194835e+002
1.755699e+002, 1.195463e+002
1.760521e+002, 1.196645e+002
1.765342e+002, 1.198939e+002
1.770163e+002, 1.201763e+002
1.774984e+002, 1.204091e+002
1.779805e+002, 1.205113e+002
1.784626e+002, 1.204815e+002
1.789448e+002, 1.204940e+002
1.794269e+002, 1.205098e+002
1.799090e+002, 1.206042e+002
1.803911e+002, 1.208648e+002
1.808732e+002, 1.212356e+002
1.813553e+002, 1.215786e+002
1.818375e+002, 1.217719e+002
1.823196e+002, 1.217956e+002
1.828017e+002, 1.218509e+002
1.832838e+002, 1.219467e+002
1.837659e+002, 1.220564e+002
1.842480e+002, 1.222061e+002
1.847301e+002, 1.223740e+002
1.852123e+002, 1.224658e+002
1.856944e+002, 1.223653e+002
1.861765e+002, 1.220325e+002
1.866586e+002, 1.218925e+002
1.871407e+002, 1.219988e+002
1.876228e+002, 1.222485e+002
1.881050e+002, 1.226750e+002
1.885871e+002, 1.232615e+002
1.890692e+002, 1.237275e+002
1.895513e+002, 1.237162e+002
1.900334e+002, 1.232416e+002
1.905155e+002, 1.229325e+002
1.909977e+002, 1.229325e+002
1.914798e+002, 1.230960e+002
1.919619e+002, 1.233040e+002
1.924440e+002, 1.235644e+002
1.929261e+002, 1.237604e+002
1.934082e+002, 1.236995e+002
1.938904e+002, 1.234609e+002
1.943725e+002, 1.232791e+002
1.948546e+002, 1.232677e+002
1.953367e+002, 1.233540e+002
1.958188e+002, 1.233689e+002
1.963009e+002, 1.232341e+002
1.967831e+002, 1.231773e+002
1.972652e+002, 1.234632e+002
1.977473e+002, 1.239681e+002
1.982294e+002, 1.243679e+002
1.987115e+002, 1.243584e+002
1.991936e+002, 1.240725e+002
1.996758e+002, 1.241106e+002
2.001579e+002, 1.247120e+002
2.006400e+002, 1.253358e+002
2.011221e+002, 1.257209e+002
2.016042e+002, 1.259005e+002
2.020863e+002, 1.259574e+002
2.025685e+002, 1.258905e+002
2.030506e+002, 1.257131e+002
2.035327e+002, 1.256593e+002
2.040148e+002, 1.257773e+002
2.044969e+002, 1.259873e+002
2.049790e+002, 1.263524e+002
2.054612e+002, 1.267921e+002
2.059433e+002, 1.271339e+002
2.064254e+002, 1.272106e+002
2.069075e+002, 1.270056e+002
2.073896e+002, 1.268520e+002
2.078717e+002, 1.266842e+002
2.083539e+002, 1.266339e+002
2.088360e+002, 1.268430e+002
2.093181e+002, 1.272276e+002
2.098002e+002, 1.275649e+002
2.102823e+002, 1.276243e+002
2.107644e+002, 1.273428e+002
2.112466e+002, 1.273519e+002
2.117287e+002, 1.279385e+002
2.122108e+002, 1.285192e+002
2.126929e+002, 1.288873e+002
2.131750e+002, 1.290415e+002
2.136571e+002, 1.290774e+002
2.141393e+002, 1.290741e+002
2.146214e+002, 1.290281e+002
2.151035e+002, 1.289623e+002
2.155856e+002, 1.287845e+002
2.160677e+002, 1.286706e+002
2.165498e+002, 1.287126e+002
2.170320e+002, 1.289054e+002
2.175141e+002, 1.292045e+002
2.179962e+002, 1.296047e+002
2.184783e+002, 1.301359e+002
2.189604e+002, 1.303756e+002
2.194425e+002, 1.300608e+002
2.199247e+002, 1.297052e+002
2.204068e+002, 1.296303e+002
2.208889e+002, 1.298378e+002
2.213710e+002, 1.301251e+002
2.218531e+002, 1.303260e+002
2.223352e+002, 1.304325e+002
2.228174e+002, 1.305657e+002
2.232995e+002, 1.306979e+002
2.237816e+002, 1.308752e+002
2.242637e+002, 1.312027e+002
2.247458e+002, 1.316701e+002
2.252279e+002, 1.320314e+002
2.257100e+002, 1.320038e+002
2.261922e+002, 1.316529e+002
2.266743e+002, 1.315370e+002
2.271564e+002, 1.319095e+002
2.276385e+002, 1.323943e+002
2.281206e+002, 1.326499e+002
2.286027e+002, 1.326564e+002
2.290849e+002, 1.325644e+002
2.295670e+002, 1.324006e+002
2.300491e+002, 1.322225e+002
2.305312e+002, 1.321888e+002
2.310133e+002, 1.323407e+002
2.314954e+002, 1.326419e+002
2.319776e+002, 1.331233e+002
2.324597e+002, 1.338222e+002
2.329418e+002, 1.344396e+002
2.334239e+002, 1.347389e+002
2.339060e+002, 1.348385e+002
2.343881e+002, 1.348903e+002
2.348703e+002, 1.348630e+002
2.353524e+002, 1.348617e+002
2.358345e+002, 1.350819e+002
2.363166e+002, 1.355952e+002
2.367987e+002, 1.360352e+002
2.372808e+002, 1.360978e+002
2.377630e+002, 1.360175e+002
2.382451e+002, 1.360561e+002
2.387272e+002, 1.363262e+002
2.392093e+002, 1.367022e+002
2.396914e+002, 1.369992e+002
2.401735e+002, 1.372197e+002
2.406557e+002, 1.373520e+002
2.411378e+002, 1.373221e+002
2.416199e+002, 1.372360e+002
2.421020e+002, 1.371798e+002
2.425841e+002, 1.371749e+002
2.430662e+002, 1.372369e+002
2.435484e+002, 1.374025e+002
2.440305e+002, 1.376990e+002
2.445126e+002, 1.380294e+002
2.449947e+002, 1.384462e+002
2.454768e+002, 1.388428e+002
2.459589e+002, 1.391244e+002
2.464410e+002, 1.392582e+002
2.469232e+002, 1.392807e+002
2.474053e+002, 1.392169e+002
2.478874e+002, 1.389579e+002
2.483695e+002, 1.388853e+002
2.488516e+002, 1.390682e+002
2.493337e+002, 1.394310e+002
2.498159e+002, 1.400089e+002
2.502980e+002, 1.407994e+002
2.507801e+002, 1.415936e+002
2.512622e+002, 1.420407e+002
2.517443e+002, 1.420300e+002
2.522264e+002, 1.418905e+002
2.527086e+002, 1.413935e+002
2.531907e+002, 1.409655e+002
2.536728e+002, 1.409998e+002
2.541549e+002, 1.415603e+002
2.546370e+002, 1.422986e+002
2.551191e+002, 1.426646e+002
2.556013e+002, 1.424202e+002
2.560834e+002, 1.423057e+002
2.565655e+002, 1.422401e+002
2.570476e+002, 1.423460e+002
2.575297e+002, 1.428283e+002
2.580118e+002, 1.436618e+002
2.584940e+002, 1.445288e+002
2.589761e+002, 1.449898e+002
2.594582e+002, 1.448829e+002
2.599403e+002, 1.447524e+002
2.604224e+002, 1.443805e+002
2.609045e+002, 1.441506e+002
2.613867e+002, 1.444682e+002
2.618688e+002, 1.452766e+002
2.623509e+002, 1.460505e+002
2.628330e+002, 1.461330e+002
2.633151e+002, 1.451897e+002
2.637972e+002, 1.447861e+002
2.642794e+002, 1.452655e+002
2.647615e+002, 1.458837e+002
2.652436e+002, 1.462307e+002
2.657257e+002, 1.463003e+002
2.662078e+002, 1.463347e+002
2.666899e+002, 1.465816e+002
2.671721e+002, 1.470951e+002
2.676542e+002, 1.474657e+002
2.681363e+002, 1.476264e+002
2.686184e+002, 1.477375e+002
2.691005e+002, 1.478659e+002
2.695826e+002, 1.480136e+002
2.700648e+002, 1.481689e+002
2.705469e+002, 1.483422e+002
2.710290e+002, 1.485396e+002
2.715111e+002, 1.484902e+002
2.719932e+002, 1.477971e+002
2.724753e+002, 1.472970e+002
2.729575e+002, 1.475124e+002
2.734396e+002, 1.482422e+002
2.739217e+002, 1.488911e+002
2.744038e+002, 1.490360e+002
2.748859e+002, 1.487328e+002
2.753680e+002, 1.486717e+002
2.758501e+002, 1.490622e+002
2.763322e+002, 1.494069e+002
2.768144e+002, 1.495041e+002
2.772965e+002, 1.494290e+002
2.777786e+002, 1.493483e+002
2.782607e+002, 1.493438e+002
2.787428e+002, 1.494140e+002
2.792249e+002, 1.495636e+002
2.797071e+002, 1.500528e+002
2.801892e+002, 1.503084e+002
2.806713e+002, 1.499417e+002
2.811534e+002, 1.492736e+002
2.816355e+002, 1.489319e+002
2.821176e+002, 1.492310e+002
2.825998e+002, 1.498627e+002
2.830819e+002, 1.499933e+002
2.835640e+002, 1.492871e+002
2.840461e+002, 1.487966e+002
2.845282e+002, 1.488215e+002
2.850103e+002, 1.491673e+002
2.854925e+002, 1.496100e+002
2.859746e+002, 1.500995e+002
2.864567e+002, 1.505269e+002
2.869388e+002, 1.506669e+002
2.874209e+002, 1.504179e+002
2.879030e+002, 1.502561e+002
2.883852e+002, 1.502655e+002
2.888673e+002, 1.503967e+002
2.893494e+002, 1.506057e+002
2.898315e+002, 1.508841e+002
2.903136e+002, 1.512058e+002
2.907957e+002, 1.515823e+002
2.912779e+002, 1.520393e+002
2.917600e+002, 1.523037e+002
2.922421e+002, 1.520883e+002
2.927242e+002, 1.518139e+002
2.932063e+002, 1.520199e+002
2.936884e+002, 1.527627e+002
2.941706e+002, 1.534146e+002
2.946527e+002, 1.532751e+002
2.951348e+002, 1.523401e+002
2.956169e+002, 1.519092e+002
2.960990e+002, 1.524452e+002
2.965811e+002, 1.531980e+002
2.970633e+002, 1.536155e+002
2.975454e+002, 1.536824e+002
2.980275e+002, 1.536163e+002
2.985096e+002, 1.535288e+002
2.989917e+002, 1.534329e+002
2.994738e+002, 1.533913e+002
2.999560e+002, 1.533277e+002
3.004381e+002, 1.533845e+002
3.009202e+002, 1.537486e+002
3.014023e+002, 1.543456e+002
3.018844e+002, 1.548373e+002
3.023665e+002, 1.550309e+002
3.028487e+002, 1.550054e+002
3.033308e+002, 1.550248e+002
3.038129e+002, 1.551305e+002
3.042950e+002, 1.552096e+002
3.047771e+002, 1.551667e+002
3.052592e+002, 1.550551e+002
3.057414e+002, 1.550046e+002
3.062235e+002, 1.550535e+002
3.067056e+002, 1.552062e+002
3.071877e+002, 1.554852e+002
3.076698e+002, 1.558947e+002
3.081519e+002, 1.563602e+002
3.086341e+002, 1.569932e+002
3.091162e+002, 1.576400e+002
3.095983e+002, 1.580119e+002
3.100804e+002, 1.580176e+002
3.105625e+002, 1.578105e+002
3.110446e+002, 1.574986e+002
3.115268e+002, 1.570614e+002
3.120089e+002, 1.568407e+002
3.124910e+002, 1.569975e+002
3.129731e+002, 1.573624e+002
3.134552e+002, 1.578072e+002
3.139373e+002, 1.583209e+002
3.144195e+002, 1.587191e+002
3.149016e+002, 1.587510e+002
3.153837e+002, 1.584487e+002
3.158658e+002, 1.583432e+002
3.163479e+002, 1.585945e+002
3.168300e+002, 1.589747e+002
3.173121e+002, 1.593320e+002
3.177943e+002, 1.596563e+002
3.182764e+002, 1.599356e+002
3.187585e+002, 1.601746e+002
3.192406e+002, 1.603526e+002
3.197227e+002, 1.604245e+002
3.202048e+002, 1.602363e+002
3.206870e+002, 1.600991e+002
3.211691e+002, 1.602552e+002
3.216512e+002, 1.606232e+002
3.221333e+002, 1.608941e+002
3.226154e+002, 1.608782e+002
3.230975e+002, 1.607331e+002
3.235797e+002, 1.608968e+002
3.240618e+002, 1.615810e+002
3.245439e+002, 1.620712e+002
3.250260e+002, 1.619539e+002
3.255081e+002, 1.614946e+002
3.259902e+002, 1.611925e+002
3.264724e+002, 1.612105e+002
3.269545e+002, 1.614019e+002
3.274366e+002, 1.615256e+002
3.279187e+002, 1.615362e+002
3.284008e+002, 1.617224e+002
3.288829e+002, 1.623803e+002
3.293651e+002, 1.631279e+002
3.298472e+002, 1.634574e+002
3.303293e+002, 1.632804e+002
3.308114e+002, 1.629942e+002
3.312935e+002, 1.629773e+002
3.317756e+002, 1.632568e+002
3.322578e+002, 1.635862e+002
3.327399e+002, 1.641037e+002
3.332220e+002, 1.645554e+002
3.337041e+002, 1.646633e+002
3.341862e+002, 1.644710e+002
3.346683e+002, 1.643578e+002
3.351505e+002, 1.646211e+002
3.356326e+002, 1.651941e+002
3.361147e+002, 1.655517e+002
3.365968e+002, 1.655642e+002
3.370789e+002, 1.655313e+002
3.375610e+002, 1.656034e+002
3.380432e+002, 1.657285e+002
3.385253e+002, 1.657456e+002
3.390074e+002, 1.655500e+002
3.394895e+002, 1.652729e+002
3.399716e+002, 1.652961e+002
3.404537e+002, 1.657842e+002
3.409359e+002, 1.662225e+002
3.414180e+002, 1.665516e+002
3.419001e+002, 1.667653e+002
3.423822e+002, 1.667702e+002
3.428643e+002, 1.665385e+002
3.433464e+002, 1.663323e+002
3.438286e+002, 1.665403e+002
3.443107e+002, 1.673709e+002
3.447928e+002, 1.680395e+002
3.452749e+002, 1.685790e+002
3.457570e+002, 1.689245e+002
3.462391e+002, 1.689556e+002
3.467213e+002, 1.686997e+002
3.472034e+002, 1.683439e+002
3.476855e+002, 1.680216e+002
3.481676e+002, 1.677274e+002
3.486497e+002, 1.677177e+002
3.491318e+002, 1.681987e+002
3.496140e+002, 1.687060e+002
3.500961e+002, 1.691402e+002
3.505782e+002, 1.694453e+002
3.510603e+002, 1.694773e+002
3.515424e+002, 1.691118e+002
3.520245e+002, 1.684966e+002
3.525067e+002, 1.682748e+002
3.529888e+002, 1.687263e+002
3.534709e+002, 1.692209e+002
3.539530e+002, 1.697199e+002
3.544351e+002, 1.702078e+002
3.549172e+002, 1.707037e+002
3.553994e+002, 1.712077e+002
3.558815e+002, 1.716406e+002
3.563636e+002, 1.718646e+002
3.568457e+002, 1.717687e+002
3.573278e+002, 1.716672e+002
3.578099e+002, 1.713294e+002
3.582920e+002, 1.711534e+002
3.587741e+002, 1.715660e+002
3.592563e+002, 1.725008e+002
3.597384e+002, 1.734442e+002
3.602205e+002, 1.738933e+002
3.607026e+002, 1.738003e+002
3.611847e+002, 1.736600e+002
3.616668e+002, 1.732682e+002
3.621490e+002, 1.730420e+002
3.626311e+002, 1.732104e+002
3.631132e+002, 1.736422e+002
3.635953e+002, 1.740741e+002
3.640774e+002, 1.743419e+002
3.645595e+002, 1.745013e+002
3.650417e+002, 1.747964e+002
3.655238e+002, 1.754151e+002
3.660059e+002, 1.759096e+002
3.664880e+002, 1.761656e+002
3.669701e+002, 1.763103e+002
3.674522e+002, 1.764676e+002
3.679344e+002, 1.766767e+002
3.684165e+002, 1.768931e+002
3.688986e+002, 1.770284e+002
3.693807e+002, 1.770067e+002
3.698628e+002, 1.771163e+002
3.703449e+002, 1.775571e+002
3.708271e+002, 1.779653e+002
3.713092e+002, 1.780671e+002
3.717913e+002, 1.779213e+002
3.722734e+002, 1.778421e+002
3.727555e+002, 1.781356e+002
3.732376e+002, 1.787881e+002
3.737198e+002, 1.793649e+002
3.742019e+002, 1.799682e+002
3.746840e+002, 1.803474e+002
3.751661e+002, 1.803078e+002
3.756482e+002, 1.800340e+002
3.761303e+002, 1.797759e+002
3.766125e+002, 1.796248e+002
3.770946e+002, 1.796262e+002
3.775767e+002, 1.799274e+002
3.780588e+002, 1.806510e+002
3.785409e+002, 1.813262e+002
3.790230e+002, 1.818434e+002
3.795052e+002, 1.822503e+002
3.799873e+002, 1.825496e+002
3.804694e+002, 1.827436e+002
3.809515e+002, 1.829098e+002
3.814336e+002, 1.830866e+002
3.819157e+002, 1.832759e+002
3.823979e+002, 1.836097e+002
3.828800e+002, 1.842072e+002
3.833621e+002, 1.848348e+002
3.838442e+002, 1.853228e+002
3.843263e+002, 1.857006e+002
3.848084e+002, 1.860941e+002
3.852906e+002, 1.866165e+002
3.857727e+002, 1.871887e+002
3.862548e+002, 1.876386e+002
3.867369e+002, 1.879580e+002
3.872190e+002, 1.881761e+002
3.877011e+002, 1.881714e+002
3.881833e+002, 1.881131e+002
3.886654e+002, 1.882606e+002
3.891475e+002, 1.887222e+002
3.896296e+002, 1.892908e+002
3.901117e+002, 1.898090e+002
3.905938e+002, 1.902823e+002
3.910760e+002, 1.907356e+002
3.915581e+002, 1.911839e+002
3.920402e+002, 1.916073e+002
3.925223e+002, 1.919878e+002
3.930044e+002, 1.923299e+002
3.934865e+002, 1.926191e+002
3.939687e+002, 1.927168e+002
3.944508e+002, 1.928003e+002
3.949329e+002, 1.932635e+002
3.954150e+002, 1.942107e+002
3.958971e+002, 1.950419e+002
3.963792e+002, 1.950808e+002
3.968614e+002, 1.944245e+002
3.973435e+002, 1.942803e+002
3.978256e+002, 1.951646e+002
3.983077e+002, 1.961658e+002
3.987898e+002, 1.966904e+002
3.992719e+002, 1.968185e+002
3.997540e+002, 1.968824e+002
4.002361e+002, 1.970334e+002
4.007183e+002, 1.972493e+002
4.012004e+002, 1.974701e+002
4.016825e+002, 1.976924e+002
4.021646e+002, 1.979232e+002
4.026467e+002, 1.980544e+002
4.031288e+002, 1.982450e+002
4.036110e+002, 1.988068e+002
4.040931e+002, 1.997733e+002
4.045752e+002, 2.006911e+002
4.050573e+002, 2.010056e+002
4.055394e+002, 2.005739e+002
4.060215e+002, 2.002022e+002
4.065037e+002, 1.997976e+002
4.069858e+002, 1.995330e+002
4.074679e+002, 1.995119e+002
4.079500e+002, 1.997021e+002
4.084321e+002, 2.000146e+002
4.089142e+002, 2.004008e+002
4.093964e+002, 2.008571e+002
4.098785e+002, 2.013764e+002
4.103606e+002, 2.021003e+002
4.108427e+002, 2.026957e+002
4.113248e+002, 2.031606e+002
4.118069e+002, 2.034738e+002
4.122891e+002, 2.035562e+002
4.127712e+002, 2.034130e+002
4.132533e+002, 2.032156e+002
4.137354e+002, 2.031764e+002
4.142175e+002, 2.032988e+002
4.146996e+002, 2.035678e+002
4.151818e+002, 2.041576e+002
4.156639e+002, 2.047344e+002
4.161460e+002, 2.052050e+002
4.166281e+002, 2.055597e+002
4.171102e+002, 2.057878e+002
4.175923e+002, 2.058552e+002
4.180745e+002, 2.058208e+002
4.185566e+002, 2.058971e+002
4.190387e+002, 2.061399e+002
4.195208e+002, 2.063708e+002
4.200029e+002, 2.064675e+002
4.204850e+002, 2.065631e+002
4.209672e+002, 2.068097e+002
4.214493e+002, 2.072476e+002
4.219314e+002, 2.077065e+002
4.224135e+002, 2.080358e+002
4.228956e+002, 2.082357e+002
4.233777e+002, 2.083051e+002
4.238599e+002, 2.081335e+002
4.243420e+002, 2.079851e+002
4.248241e+002, 2.080294e+002
4.253062e+002, 2.082522e+002
4.257883e+002, 2.086114e+002
4.262704e+002, 2.093501e+002
4.267526e+002, 2.100993e+002
4.272347e+002, 2.101639e+002
4.277168e+002, 2.094961e+002
4.281989e+002, 2.089581e+002
4.286810e+002, 2.090202e+002
4.291631e+002, 2.095174e+002
4.296453e+002, 2.100236e+002
4.301274e+002, 2.105721e+002
4.306095e+002, 2.110512e+002
4.310916e+002, 2.112955e+002
4.315737e+002, 2.114446e+002
4.320558e+002, 2.118815e+002
4.325380e+002, 2.127485e+002
4.330201e+002, 2.135365e+002
4.335022e+002, 2.135222e+002
4.339843e+002, 2.125412e+002
4.344664e+002, 2.121544e+002
4.349485e+002, 2.128871e+002
4.354307e+002, 2.138235e+002
4.359128e+002, 2.144504e+002
4.363949e+002, 2.147613e+002
4.368770e+002, 2.148669e+002
4.373591e+002, 2.148111e+002
4.378412e+002, 2.146400e+002
4.383234e+002, 2.145305e+002
4.388055e+002, 2.143097e+002
4.392876e+002, 2.143819e+002
4.397697e+002, 2.148642e+002
4.402518e+002, 2.156019e+002
4.407339e+002, 2.166613e+002
4.412160e+002, 2.179444e+002
4.416982e+002, 2.189382e+002
4.421803e+002, 2.189474e+002
4.426624e+002, 2.177618e+002
4.431445e+002, 2.171349e+002
4.436266e+002, 2.173198e+002
4.441087e+002, 2.178167e+002
4.445909e+002, 2.186820e+002
4.450730e+002, 2.197196e+002
4.455551e+002, 2.206764e+002
4.460372e+002, 2.214218e+002
4.465193e+002, 2.219814e+002
4.470014e+002, 2.223961e+002
4.474836e+002, 2.226365e+002
4.479657e+002, 2.228178e+002
4.484478e+002, 2.227527e+002
4.489299e+002, 2.227903e+002
4.494120e+002, 2.231595e+002
4.498941e+002, 2.238696e+002
4.503763e+002, 2.247840e+002
4.508584e+002, 2.259476e+002
4.513405e+002, 2.272587e+002
4.518226e+002, 2.282228e+002
4.523047e+002, 2.287317e+002
4.527868e+002, 2.291292e+002
4.532690e+002, 2.294464e+002
4.537511e+002, 2.298197e+002
4.542332e+002, 2.305107e+002
4.547153e+002, 2.317141e+002
4.551974e+002, 2.329643e+002
4.556795e+002, 2.338907e+002
4.561617e+002, 2.345366e+002
4.566438e+002, 2.350972e+002
4.571259e+002, 2.356101e+002
4.576080e+002, 2.360927e+002
4.580901e+002, 2.365184e+002
4.585722e+002, 2.368787e+002
4.590544e+002, 2.374206e+002
4.595365e+002, 2.386202e+002
4.600186e+002, 2.397081e+002
4.605007e+002, 2.399055e+002
4.609828e+002, 2.392958e+002
4.614649e+002, 2.385101e+002
4.619471e+002, 2.378752e+002
4.624292e+002, 2.374167e+002
4.629113e+002, 2.372380e+002
4.633934e+002, 2.376043e+002
4.638755e+002, 2.378826e+002
4.643576e+002, 2.380643e+002
4.648398e+002, 2.380913e+002
4.653219e+002, 2.378155e+002
4.658040e+002, 2.372521e+002
4.662861e+002, 2.366805e+002
4.667682e+002, 2.364321e+002
4.672503e+002, 2.365573e+002
4.677325e+002, 2.364855e+002
4.682146e+002, 2.358055e+002
4.686967e+002, 2.353672e+002
4.691788e+002, 2.357346e+002
4.696609e+002, 2.363980e+002
4.701430e+002, 2.365372e+002
4.706252e+002, 2.357751e+002
4.711073e+002, 2.346152e+002
4.715894e+002, 2.339871e+002
4.720715e+002, 2.340495e+002
4.725536e+002, 2.339477e+002
4.730357e+002, 2.332867e+002
4.735179e+002, 2.326712e+002
4.740000e+002, 2.325916e+002
4.744821e+002, 2.329147e+002
4.749642e+002, 2.330339e+002
4.754463e+002, 2.324001e+002
4.759284e+002, 2.313882e+002
4.764106e+002, 2.308980e+002
4.768927e+002, 2.310371e+002
4.773748e+002, 2.310119e+002
4.778569e+002, 2.302213e+002
4.783390e+002, 2.291750e+002
4.788211e+002, 2.287122e+002
4.793033e+002, 2.290087e+002
4.797854e+002, 2.293610e+002
4.802675e+002, 2.293274e+002
4.807496e+002, 2.291345e+002
4.812317e+002, 2.292603e+002
4.817138e+002, 2.298020e+002
4.821959e+002, 2.303503e+002
4.826780e+002, 2.305515e+002
4.831602e+002, 2.303955e+002
4.836423e+002, 2.301658e+002
4.841244e+002, 2.297903e+002
4.846065e+002, 2.294243e+002
4.850886e+002, 2.290369e+002
4.855707e+002, 2.287204e+002
4.860529e+002, 2.286922e+002
4.865350e+002, 2.290291e+002
4.870171e+002, 2.294778e+002
4.874992e+002, 2.295998e+002
4.879813e+002, 2.291983e+002
4.884634e+002, 2.290132e+002
4.889456e+002, 2.292476e+002
4.894277e+002, 2.294678e+002
4.899098e+002, 2.293582e+002
4.903919e+002, 2.290668e+002
4.908740e+002, 2.289810e+002
4.913561e+002, 2.293669e+002
4.918383e+002, 2.300183e+002
4.923204e+002, 2.303308e+002
4.928025e+002, 2.301311e+002
4.932846e+002, 2.300717e+002
4.937667e+002, 2.304193e+002
4.942488e+002, 2.308594e+002
4.947310e+002, 2.311856e+002
4.952131e+002, 2.313898e+002
4.956952e+002, 2.315975e+002
4.961773e+002, 2.319434e+002
4.966594e+002, 2.323525e+002
4.971415e+002, 2.325918e+002
4.976237e+002, 2.326207e+002
4.981058e+002, 2.326527e+002
4.985879e+002, 2.328600e+002
4.990700e+002, 2.331218e+002
4.995521e+002, 2.331713e+002
5.000342e+002, 2.328469e+002
5.005164e+002, 2.326745e+002
5.009985e+002, 2.330685e+002
5.014806e+002, 2.337495e+002
5.019627e+002, 2.342074e+002
5.024448e+002, 2.343354e+002
5.029269e+002, 2.343800e+002
5.034091e+002, 2.345749e+002
5.038912e+002, 2.349287e+002
5.043733e+002, 2.352195e+002
5.048554e+002, 2.354679e+002
5.053375e+002, 2.356396e+002
5.058196e+002, 2.356149e+002
5.063018e+002, 2.355384e+002
5.067839e+002, 2.356463e+002
5.072660e+002, 2.360185e+002
5.077481e+002, 2.365067e+002
5.082302e+002, 2.368515e+002
5.087123e+002, 2.369311e+002
5.091945e+002, 2.373090e+002
5.096766e+002, 2.384524e+002
5.101587e+002, 2.394250e+002
5.106408e+002, 2.397772e+002
5.111229e+002, 2.397101e+002
5.116050e+002, 2.396118e+002
5.120872e+002, 2.396495e+002
5.125693e+002, 2.398339e+002
5.130514e+002, 2.402597e+002
5.135335e+002, 2.409850e+002
5.140156e+002, 2.415074e+002
5.144977e+002, 2.415823e+002
5.149799e+002, 2.415531e+002
5.154620e+002, 2.416604e+002
5.159441e+002, 2.419074e+002
5.164262e+002, 2.422882e+002
5.169083e+002, 2.429831e+002
5.173904e+002, 2.437066e+002
5.178726e+002, 2.439564e+002
5.183547e+002, 2.437784e+002
5.188368e+002, 2.438813e+002
5.193189e+002, 2.446839e+002
5.198010e+002, 2.458671e+002
5.202831e+002, 2.467046e+002
5.207653e+002, 2.471664e+002
5.212474e+002, 2.474771e+002
5.217295e+002, 2.475233e+002
5.222116e+002, 2.475354e+002
5.226937e+002, 2.477622e+002
5.231758e+002, 2.481754e+002
5.236580e+002, 2.485201e+002
5.241401e+002, 2.485870e+002
5.246222e+002, 2.484661e+002
5.251043e+002, 2.486343e+002
5.255864e+002, 2.493162e+002
5.260685e+002, 2.499813e+002
5.265507e+002, 2.508756e+002
5.270328e+002, 2.515407e+002
5.275149e+002, 2.513580e+002
5.279970e+002, 2.504212e+002
5.284791e+002, 2.496135e+002
5.289612e+002, 2.498090e+002
5.294434e+002, 2.508235e+002
5.299255e+002, 2.515172e+002
5.304076e+002, 2.517543e+002
5.308897e+002, 2.519830e+002
5.313718e+002, 2.523878e+002
5.318539e+002, 2.528873e+002
5.323361e+002, 2.534438e+002
5.328182e+002, 2.540723e+002
5.333003e+002, 2.546133e+002
5.337824e+002, 2.549983e+002
5.342645e+002, 2.552175e+002
5.347466e+002, 2.551447e+002
5.352288e+002, 2.547315e+002
5.357109e+002, 2.544831e+002
5.361930e+002, 2.548747e+002
5.366751e+002, 2.557704e+002
5.371572e+002, 2.562887e+002
5.376393e+002, 2.560813e+002
5.381215e+002, 2.559593e+002
5.386036e+002, 2.562000e+002
5.390857e+002, 2.566297e+002
5.395678e+002, 2.570405e+002
5.400499e+002, 2.573853e+002
5.405320e+002, 2.577382e+002
5.410142e+002, 2.581893e+002
5.414963e+002, 2.587446e+002
5.419784e+002, 2.591682e+002
5.424604e+002, 2.593027e+002
5.429426e+002, 2.594839e+002
5.434247e+002, 2.598607e+002
5.439068e+002, 2.602774e+002
5.443889e+002, 2.605099e+002
5.448710e+002, 2.605101e+002
5.453531e+002, 2.605169e+002
5.458353e+002, 2.608793e+002
5.463174e+002, 2.615495e+002
5.467995e+002, 2.619087e+002
5.472816e+002, 2.617915e+002
5.477637e+002, 2.616442e+002
5.482458e+002, 2.617259e+002
5.487280e+002, 2.619655e+002
5.492101e+002, 2.622673e+002
5.496922e+002, 2.626110e+002
5.501743e+002, 2.630249e+002
5.506564e+002, 2.635756e+002
5.511385e+002, 2.642032e+002
5.516207e+002, 2.648516e+002
5.521028e+002, 2.655160e+002
5.525849e+002, 2.659644e+002
5.530670e+002, 2.659385e+002
5.535491e+002, 2.654353e+002
5.540313e+002, 2.650256e+002
5.545134e+002, 2.644635e+002
5.549955e+002, 2.642718e+002
5.554776e+002, 2.648412e+002
5.559597e+002, 2.657478e+002
5.564418e+002, 2.664619e+002
5.569240e+002, 2.668551e+002
5.574061e+002, 2.671697e+002
5.578882e+002, 2.677111e+002
5.583703e+002, 2.684887e+002
5.588524e+002, 2.691059e+002
5.593345e+002, 2.694231e+002
5.598167e+002, 2.697653e+002
5.602988e+002, 2.703138e+002
5.607809e+002, 2.709108e+002
5.612630e+002, 2.713243e+002
5.617451e+002, 2.714733e+002
5.622272e+002, 2.716622e+002
5.627094e+002, 2.722911e+002
5.631915e+002, 2.731821e+002
5.636736e+002, 2.736695e+002
5.641557e+002, 2.736019e+002
5.646378e+002, 2.735285e+002
5.651199e+002, 2.738713e+002
5.656021e+002, 2.745375e+002
5.660842e+002, 2.750638e+002
5.665663e+002, 2.752881e+002
5.670484e+002, 2.756069e+002
5.675305e+002, 2.763306e+002
5.680126e+002, 2.771420e+002
5.684948e+002, 2.776032e+002
5.689769e+002, 2.776631e+002
5.694590e+002, 2.776212e+002
5.699411e+002, 2.777410e+002
5.704232e+002, 2.780198e+002
5.709053e+002, 2.783889e+002
5.713875e+002, 2.790443e+002
5.718696e+002, 2.795231e+002
5.723517e+002, 2.796589e+002
5.728338e+002, 2.796564e+002
5.733159e+002, 2.796740e+002
5.737980e+002, 2.797510e+002
5.742802e+002, 2.798874e+002
5.747623e+002, 2.801394e+002
5.752444e+002, 2.804577e+002
5.757265e+002, 2.805782e+002
5.762086e+002, 2.804145e+002
5.766907e+002, 2.804239e+002
5.771729e+002, 2.809428e+002
5.776550e+002, 2.816976e+002
5.781371e+002, 2.822258e+002
5.786192e+002, 2.824676e+002
5.791013e+002, 2.827198e+002
5.795834e+002, 2.831650e+002
5.800656e+002, 2.836369e+002
5.805477e+002, 2.838809e+002
5.810298e+002, 2.839253e+002
5.815119e+002, 2.840718e+002
5.819940e+002, 2.845213e+002
5.824761e+002, 2.851926e+002
5.829583e+002, 2.858151e+002
5.834404e+002, 2.864215e+002
5.839225e+002, 2.869199e+002
5.844046e+002, 2.872982e+002
5.848867e+002, 2.875835e+002
5.853688e+002, 2.877076e+002
5.858510e+002, 2.877459e+002
5.863331e+002, 2.879027e+002
5.868152e+002, 2.883236e+002
5.872973e+002, 2.889060e+002
5.877794e+002, 2.894779e+002
5.882615e+002, 2.900795e+002
5.887437e+002, 2.903462e+002
5.892258e+002, 2.898401e+002
5.897079e+002, 2.893612e+002
5.901900e+002, 2.898542e+002
5.906721e+002, 2.911352e+002
5.911542e+002, 2.919904e+002
5.916364e+002, 2.916710e+002
5.921185e+002, 2.911049e+002
5.926006e+002, 2.910443e+002
5.930827e+002, 2.913895e+002
5.935648e+002, 2.918236e+002
5.940469e+002, 2.922365e+002
5.945291e+002, 2.926675e+002
5.950112e+002, 2.931870e+002
5.954933e+002, 2.938458e+002
5.959754e+002, 2.943735e+002
5.964575e+002, 2.946667e+002
5.969396e+002, 2.949686e+002
5.974218e+002, 2.953951e+002
5.979039e+002, 2.958752e+002
5.983860e+002, 2.963236e+002
5.988681e+002, 2.967081e+002
5.993502e+002, 2.969966e+002
5.998323e+002, 2.970596e+002
6.003145e+002, 2.969136e+002
6.007966e+002, 2.970957e+002
6.012787e+002, 2.978000e+002
6.017608e+002, 2.984570e+002
6.022429e+002, 2.984991e+002
6.027250e+002, 2.983575e+002
6.032072e+002, 2.987650e+002
6.036893e+002, 3.000223e+002
6.041714e+002, 3.011870e+002
6.046535e+002, 3.013946e+002
6.051356e+002, 3.013909e+002
6.056177e+002, 3.026103e+002
6.060999e+002, 3.050493e+002
6.065820e+002, 3.070314e+002
6.070641e+002, 3.072538e+002
6.075462e+002, 3.061457e+002
6.080283e+002, 3.056487e+002
6.085104e+002, 3.061589e+002
6.089926e+002, 3.067594e+002
6.094747e+002, 3.074378e+002
6.099568e+002, 3.081753e+002
6.104389e+002, 3.090463e+002
6.109210e+002, 3.099780e+002
6.114031e+002, 3.107568e+002
6.118853e+002, 3.112295e+002
6.123674e+002, 3.115002e+002
6.128495e+002, 3.117469e+002
6.133316e+002, 3.119599e+002
6.138137e+002, 3.122826e+002
6.142958e+002, 3.127204e+002
6.147780e+002, 3.133238e+002
6.152601e+002, 3.143023e+002
6.157422e+002, 3.155658e+002
6.162243e+002, 3.165095e+002
6.167064e+002, 3.167242e+002
6.171885e+002, 3.168656e+002
6.176707e+002, 3.172663e+002
6.181528e+002, 3.179127e+002
6.186349e+002, 3.188400e+002
6.191170e+002, 3.200442e+002
6.195991e+002, 3.212659e+002
6.200812e+002, 3.221996e+002
6.205634e+002, 3.228346e+002
6.210455e+002, 3.233815e+002
6.215276e+002, 3.236680e+002
6.220097e+002, 3.240812e+002
6.224918e+002, 3.249503e+002
6.229739e+002, 3.258401e+002
6.234561e+002, 3.262368e+002
6.239382e+002, 3.260682e+002
6.244203e+002, 3.257886e+002
6.249023e+002, 3.256757e+002
6.253845e+002, 3.257448e+002
6.258666e+002, 3.260843e+002
6.263487e+002, 3.267165e+002
6.268308e+002, 3.274103e+002
6.273129e+002, 3.281486e+002
6.277950e+002, 3.288076e+002
6.282772e+002, 3.290773e+002
6.287593e+002, 3.288506e+002
6.292414e+002, 3.288167e+002
6.297235e+002, 3.293874e+002
6.302056e+002, 3.299043e+002
6.306877e+002, 3.297951e+002
6.311699e+002, 3.292672e+002
6.316520e+002, 3.288178e+002
6.321341e+002, 3.286757e+002
6.326162e+002, 3.288389e+002
6.330983e+002, 3.294124e+002
6.335804e+002, 3.305546e+002
6.340626e+002, 3.312784e+002
6.345447e+002, 3.311196e+002
6.350268e+002, 3.311336e+002
6.355089e+002, 3.321310e+002
6.359910e+002, 3.334623e+002
6.364731e+002, 3.339995e+002
6.369553e+002, 3.332752e+002
6.374374e+002, 3.326646e+002
6.379195e+002, 3.334696e+002
6.384016e+002, 3.349624e+002
6.388837e+002, 3.356870e+002
6.393658e+002, 3.354975e+002
6.398480e+002, 3.353062e+002
6.403301e+002, 3.357631e+002
6.408122e+002, 3.365874e+002
6.412943e+002, 3.368268e+002
6.417764e+002, 3.352041e+002
6.422585e+002, 3.349181e+002
6.427407e+002, 3.376075e+002
6.432228e+002, 3.401695e+002
6.437049e+002, 3.403935e+002
6.441870e+002, 3.388302e+002
6.446691e+002, 3.372296e+002
6.451512e+002, 3.364719e+002
6.456334e+002, 3.362924e+002
6.461155e+002, 3.364060e+002
6.465976e+002, 3.368101e+002
6.470797e+002, 3.370507e+002
6.475618e+002, 3.370848e+002
6.480439e+002, 3.368921e+002
6.485261e+002, 3.361999e+002
6.490082e+002, 3.352645e+002
6.494903e+002, 3.349335e+002
6.499724e+002, 3.357160e+002
6.504545e+002, 3.364205e+002
6.509366e+002, 3.364058e+002
6.514188e+002, 3.361556e+002
6.519009e+002, 3.363707e+002
6.523830e+002, 3.370320e+002
6.528651e+002, 3.374414e+002
6.533472e+002, 3.370179e+002
6.538293e+002, 3.360779e+002
6.543115e+002, 3.358443e+002
6.547936e+002, 3.366245e+002
6.552757e+002, 3.373619e+002
6.557578e+002, 3.378824e+002
6.562399e+002, 3.383498e+002
6.567220e+002, 3.389071e+002
6.572042e+002, 3.394886e+002
6.576863e+002, 3.398783e+002
6.581684e+002, 3.399355e+002
6.586505e+002, 3.398707e+002
6.591326e+002, 3.397782e+002
6.596147e+002, 3.397259e+002
6.600969e+002, 3.399831e+002
6.605790e+002, 3.406182e+002
6.610611e+002, 3.412131e+002
6.615432e+002, 3.413589e+002
6.620253e+002, 3.411203e+002
6.625074e+002, 3.411860e+002
6.629896e+002, 3.417741e+002
6.634717e+002, 3.423883e+002
6.639538e+002, 3.430775e+002
6.644359e+002, 3.437142e+002
6.649180e+002, 3.441095e+002
6.654001e+002, 3.443421e+002
6.658823e+002, 3.447321e+002
6.663644e+002, 3.455389e+002
6.668465e+002, 3.465176e+002
6.673286e+002, 3.472340e+002
6.678107e+002, 3.476941e+002
6.682928e+002, 3.481154e+002
6.687750e+002, 3.485790e+002
6.692571e+002, 3.489115e+002
6.697392e+002, 3.487195e+002
6.702213e+002, 3.481366e+002
6.707034e+002, 3.483867e+002
6.711855e+002, 3.505688e+002
6.716677e+002, 3.522500e+002
6.721498e+002, 3.522010e+002
6.726319e+002, 3.515228e+002
6.731140e+002, 3.513413e+002
6.735961e+002, 3.518194e+002
6.740782e+002, 3.526042e+002
6.745604e+002, 3.534813e+002
6.750425e+002, 3.543805e+002
6.755246e+002, 3.551393e+002
6.760067e+002, 3.558371e+002
6.764888e+002, 3.559868e+002
6.769709e+002, 3.548575e+002
6.774531e+002, 3.538810e+002
6.779352e+002, 3.544633e+002
6.784173e+002, 3.561671e+002
6.788994e+002, 3.574147e+002
6.793815e+002, 3.575241e+002
6.798636e+002, 3.575146e+002
6.803458e+002, 3.580244e+002
6.808279e+002, 3.587884e+002
6.813100e+002, 3.593589e+002
6.817921e+002, 3.596789e+002
6.822742e+002, 3.600578e+002
6.827563e+002, 3.607810e+002
6.832385e+002, 3.617321e+002
6.837206e+002, 3.622983e+002
6.842027e+002, 3.621516e+002
6.846848e+002, 3.623295e+002
6.851669e+002, 3.632530e+002
6.856490e+002, 3.642836e+002
6.861312e+002, 3.651513e+002
6.866133e+002, 3.658220e+002
6.870954e+002, 3.662560e+002
6.875775e+002, 3.663279e+002
6.880596e+002, 3.663513e+002
6.885417e+002, 3.665010e+002
6.890239e+002, 3.668302e+002
6.895060e+002, 3.676233e+002
6.899881e+002, 3.689155e+002
6.904702e+002, 3.699674e+002
6.909523e+002, 3.701110e+002
6.914344e+002, 3.696086e+002
6.919166e+002, 3.698153e+002
6.923987e+002, 3.716077e+002
6.928808e+002, 3.727050e+002
6.933629e+002, 3.723934e+002
6.938450e+002, 3.719543e+002
6.943271e+002, 3.721304e+002
6.948093e+002, 3.728271e+002
6.952914e+002, 3.736852e+002
6.957735e+002, 3.746331e+002
6.962556e+002, 3.754126e+002
6.967377e+002, 3.754352e+002
6.972198e+002, 3.750268e+002
6.977020e+002, 3.755347e+002
6.981841e+002, 3.772221e+002
6.986662e+002, 3.788369e+002
6.991483e+002, 3.794550e+002
6.996304e+002, 3.793527e+002
7.001125e+002, 3.795736e+002
7.005947e+002, 3.804803e+002
7.010768e+002, 3.811602e+002
7.015589e+002, 3.815490e+002
7.020410e+002, 3.817635e+002
7.025231e+002, 3.816551e+002
7.030052e+002, 3.814675e+002
7.034874e+002, 3.817575e+002
7.039695e+002, 3.828115e+002
7.044516e+002, 3.839613e+002
7.049337e+002, 3.842526e+002
7.054158e+002, 3.838839e+002
7.058979e+002, 3.838513e+002
7.063801e+002, 3.842815e+002
7.068622e+002, 3.847971e+002
7.073442e+002, 3.851928e+002
7.078264e+002, 3.855150e+002
7.083085e+002, 3.858713e+002
7.087906e+002, 3.862036e+002
7.092727e+002, 3.867032e+002
7.097548e+002, 3.875268e+002
7.102369e+002, 3.883785e+002
7.107191e+002, 3.890652e+002
7.112012e+002, 3.896552e+002
7.116833e+002, 3.903345e+002
7.121654e+002, 3.911681e+002
7.126475e+002, 3.919159e+002
7.131296e+002, 3.921198e+002
7.136118e+002, 3.919496e+002
7.140939e+002, 3.924405e+002
7.145760e+002, 3.937216e+002
7.150581e+002, 3.950490e+002
7.155402e+002, 3.961954e+002
7.160223e+002, 3.970817e+002
7.165045e+002, 3.974534e+002
7.169866e+002, 3.971779e+002
7.174687e+002, 3.972421e+002
7.179508e+002, 3.979402e+002
7.184329e+002, 3.987687e+002
7.189150e+002, 3.997446e+002
7.193972e+002, 4.005785e+002
7.198793e+002, 4.007391e+002
7.203614e+002, 4.001690e+002
7.208435e+002, 3.995543e+002
7.213256e+002, 3.994918e+002
7.218077e+002, 3.999424e+002
7.222899e+002, 4.008347e+002
7.227720e+002, 4.022252e+002
7.232541e+002, 4.036602e+002
7.237362e+002, 4.051400e+002
7.242183e+002, 4.063828e+002
7.247004e+002, 4.068727e+002
7.251826e+002, 4.066365e+002
7.256647e+002, 4.068258e+002
7.261468e+002, 4.080600e+002
7.266289e+002, 4.090663e+002
7.271110e+002, 4.091366e+002
7.275931e+002, 4.088897e+002
7.280753e+002, 4.089572e+002
7.285574e+002, 4.094540e+002
7.290395e+002, 4.102716e+002
7.295216e+002, 4.114338e+002
7.300037e+002, 4.126768e+002
7.304858e+002, 4.132429e+002
7.309680e+002, 4.130926e+002
7.314501e+002, 4.134629e+002
7.319322e+002, 4.148313e+002
7.324143e+002, 4.161988e+002
7.328964e+002, 4.166787e+002
7.333785e+002, 4.164386e+002
7.338607e+002, 4.164467e+002
7.343428e+002, 4.168114e+002
7.348249e+002, 4.172486e+002
7.353070e+002, 4.176578e+002
7.357891e+002, 4.181523e+002
7.362712e+002, 4.188721e+002
7.367534e+002, 4.197626e+002
7.372355e+002, 4.206915e+002
7.377176e+002, 4.216133e+002
7.381997e+002, 4.224287e+002
7.386818e+002, 4.229561e+002
7.391639e+002, 4.232228e+002
7.396461e+002, 4.234503e+002
7.401282e+002, 4.236032e+002
7.406103e+002, 4.239614e+002
7.410924e+002, 4.247177e+002
7.415745e+002, 4.257534e+002
7.420566e+002, 4.268937e+002
7.425388e+002, 4.283403e+002
7.430209e+002, 4.292168e+002
7.435030e+002, 4.288784e+002
7.439851e+002, 4.285519e+002
7.444672e+002, 4.289538e+002
7.449493e+002, 4.297685e+002
7.454315e+002, 4.303903e+002
7.459136e+002, 4.306769e+002
7.463957e+002, 4.311164e+002
7.468778e+002, 4.323694e+002
7.473599e+002, 4.341067e+002
7.478420e+002, 4.352980e+002
7.483242e+002, 4.359350e+002
7.488063e+002, 4.363396e+002
7.492884e+002, 4.365154e+002
7.497705e+002, 4.367579e+002
7.502526e+002, 4.375177e+002
7.507347e+002, 4.388420e+002
7.512169e+002, 4.396476e+002
7.516990e+002, 4.396630e+002
7.521811e+002, 4.395576e+002
7.526632e+002, 4.393073e+002
7.531453e+002, 4.391222e+002
7.536274e+002, 4.391046e+002
7.541096e+002, 4.393207e+002
7.545917e+002, 4.399151e+002
7.550738e+002, 4.410509e+002
7.555559e+002, 4.424431e+002
7.560380e+002, 4.438077e+002
7.565201e+002, 4.451017e+002
7.570023e+002, 4.460244e+002
7.574844e+002, 4.465040e+002
7.579665e+002, 4.470434e+002
7.584486e+002, 4.480458e+002
7.589307e+002, 4.493305e+002
7.594128e+002, 4.502744e+002
7.598950e+002, 4.503910e+002
7.603771e+002, 4.510641e+002
7.608592e+002, 4.530934e+002
7.613413e+002, 4.547936e+002
7.618234e+002, 4.552485e+002
7.623055e+002, 4.548871e+002
7.627877e+002, 4.542393e+002
7.632698e+002, 4.534156e+002
7.637519e+002, 4.531505e+002
7.642340e+002, 4.543375e+002
7.647161e+002, 4.562448e+002
7.651982e+002, 4.578735e+002
7.656804e+002, 4.591653e+002
7.661625e+002, 4.600076e+002
7.666446e+002, 4.603397e+002
7.671267e+002, 4.604983e+002
7.676088e+002, 4.609411e+002
7.680909e+002, 4.616908e+002
7.685731e+002, 4.621574e+002
7.690552e+002, 4.616953e+002
7.695373e+002, 4.620237e+002
7.700194e+002, 4.644198e+002
7.705015e+002, 4.669977e+002
7.709836e+002, 4.681371e+002
7.714658e+002, 4.680244e+002
7.719479e+002, 4.680484e+002
7.724300e+002, 4.687705e+002
7.729121e+002, 4.696629e+002
7.733942e+002, 4.704491e+002
7.738763e+002, 4.711288e+002
7.743585e+002, 4.717031e+002
7.748406e+002, 4.721726e+002
7.753227e+002, 4.725133e+002
7.758048e+002, 4.726975e+002
7.762869e+002, 4.728168e+002
7.767690e+002, 4.730287e+002
7.772512e+002, 4.732900e+002
7.777333e+002, 4.739962e+002
7.782154e+002, 4.754205e+002
7.786975e+002, 4.768383e+002
7.791796e+002, 4.777181e+002
7.796617e+002, 4.784052e+002
7.801439e+002, 4.794781e+002
7.806260e+002, 4.810282e+002
7.811081e+002, 4.826185e+002
7.815902e+002, 4.845224e+002
7.820723e+002, 4.860483e+002
7.825544e+002, 4.865293e+002
7.830366e+002, 4.864047e+002
7.835187e+002, 4.862946e+002
7.840008e+002, 4.864196e+002
7.844829e+002, 4.868934e+002
7.849650e+002, 4.879406e+002
7.854471e+002, 4.893419e+002
7.859293e+002, 4.904112e+002
7.864114e+002, 4.911392e+002
7.868935e+002, 4.919076e+002
7.873756e+002, 4.928593e+002
7.878577e+002, 4.937180e+002
7.883398e+002, 4.941563e+002
7.888220e+002, 4.942499e+002
7.893040e+002, 4.946172e+002
7.897861e+002, 4.953596e+002
7.902682e+002, 4.962250e+002
7.907504e+002, 4.972648e+002
7.912325e+002, 4.983627e+002
7.917146e+002, 4.995649e+002
7.921967e+002, 5.007460e+002
7.926788e+002, 5.016806e+002
7.931609e+002, 5.022769e+002
7.936431e+002, 5.026783e+002
7.941252e+002, 5.028523e+002
7.946073e+002, 5.029802e+002
7.950894e+002, 5.034304e+002
7.955715e+002, 5.041873e+002
7.960536e+002, 5.049932e+002
7.965358e+002, 5.057432e+002
7.970179e+002, 5.064887e+002
7.975000e+002, 5.072864e+002
7.979821e+002, 5.081352e+002
7.984642e+002, 5.091689e+002
7.989464e+002, 5.107010e+002
7.994285e+002, 5.118542e+002
7.999106e+002, 5.120987e+002
8.003927e+002, 5.121288e+002
8.008748e+002, 5.124578e+002
8.013569e+002, 5.130353e+002
8.018391e+002, 5.134891e+002
8.023212e+002, 5.132825e+002
8.028033e+002, 5.135812e+002
8.032854e+002, 5.155090e+002
8.037675e+002, 5.179495e+002
8.042496e+002, 5.196915e+002
8.047318e+002, 5.206467e+002
8.052139e+002, 5.210504e+002
8.056960e+002, 5.209811e+002
8.061781e+002, 5.209953e+002
8.066602e+002, 5.223043e+002
8.071423e+002, 5.247528e+002
8.076245e+002, 5.259515e+002
8.081066e+002, 5.255416e+002
8.085887e+002, 5.252693e+002
8.090708e+002, 5.259814e+002
8.095529e+002, 5.271164e+002
8.100350e+002, 5.277790e+002
8.105172e+002, 5.278232e+002
8.109993e+002, 5.283893e+002
8.114814e+002, 5.300613e+002
8.119635e+002, 5.315013e+002
8.124456e+002, 5.321801e+002
8.129277e+002, 5.325822e+002
8.134099e+002, 5.330167e+002
8.138920e+002, 5.336023e+002
8.143741e+002, 5.345767e+002
8.148562e+002, 5.363138e+002
8.153383e+002, 5.379362e+002
8.158204e+002, 5.381449e+002
8.163026e+002, 5.376290e+002
8.167847e+002, 5.379545e+002
8.172668e+002, 5.392520e+002
8.177489e+002, 5.408295e+002
8.182310e+002, 5.423196e+002
8.187131e+002, 5.436928e+002
8.191953e+002, 5.448824e+002
8.196774e+002, 5.458679e+002
8.201595e+002, 5.467717e+002
8.206416e+002, 5.474913e+002
8.211237e+002, 5.483384e+002
8.216058e+002, 5.497335e+002
8.220880e+002, 5.510889e+002
8.225701e+002, 5.515219e+002
8.230522e+002, 5.510787e+002
8.235343e+002, 5.512512e+002
8.240164e+002, 5.527858e+002
8.244985e+002, 5.544489e+002
8.249807e+002, 5.558751e+002
8.254628e+002, 5.570458e+002
8.259449e+002, 5.578665e+002
8.264270e+002, 5.584105e+002
8.269091e+002, 5.588719e+002
8.273912e+002, 5.593179e+002
8.278734e+002, 5.599431e+002
8.283555e+002, 5.610884e+002
8.288376e+002, 5.626585e+002
8.293197e+002, 5.642880e+002
8.298018e+002, 5.659366e+002
8.302839e+002, 5.676136e+002
8.307661e+002, 5.693735e+002
8.312482e+002, 5.709794e+002
8.317303e+002, 5.719586e+002
8.322124e+002, 5.721232e+002
8.326945e+002, 5.730129e+002
8.331766e+002, 5.754672e+002
8.336588e+002, 5.774187e+002
8.341409e+002, 5.781343e+002
8.346230e+002, 5.784044e+002
8.351051e+002, 5.785955e+002
8.355872e+002, 5.788770e+002
8.360693e+002, 5.798127e+002
8.365515e+002, 5.818396e+002
8.370336e+002, 5.841251e+002
8.375157e+002, 5.865091e+002
8.379978e+002, 5.887258e+002
8.384799e+002, 5.903507e+002
8.389620e+002, 5.915135e+002
8.394442e+002, 5.927711e+002
8.399263e+002, 5.943876e+002
8.404084e+002, 5.959364e+002
8.408905e+002, 5.964808e+002
8.413726e+002, 5.963431e+002
8.418547e+002, 5.975754e+002
8.423369e+002, 6.002889e+002
8.428190e+002, 6.029033e+002
8.433011e+002, 6.047669e+002
8.437832e+002, 6.065457e+002
8.442653e+002, 6.091452e+002
8.447474e+002, 6.125267e+002
8.452296e+002, 6.148328e+002
8.457117e+002, 6.150170e+002
8.461938e+002, 6.156281e+002
8.466759e+002, 6.170864e+002
8.471580e+002, 6.188318e+002
8.476401e+002, 6.206389e+002
8.481223e+002, 6.224421e+002
8.486044e+002, 6.241617e+002
8.490865e+002, 6.257684e+002
8.495686e+002, 6.273293e+002
8.500507e+002, 6.290117e+002
8.505328e+002, 6.305720e+002
8.510150e+002, 6.317820e+002
8.514971e+002, 6.326758e+002
8.519792e+002, 6.332316e+002
8.524613e+002, 6.335029e+002
8.529434e+002, 6.339657e+002
8.534255e+002, 6.351608e+002
8.539077e+002, 6.368342e+002
8.543898e+002, 6.381336e+002
8.548719e+002, 6.390613e+002
8.553540e+002, 6.402015e+002
8.558361e+002, 6.417630e+002
8.563182e+002, 6.430839e+002
8.568004e+002, 6.435501e+002
8.572825e+002, 6.434766e+002
8.577646e+002, 6.439442e+002
8.582467e+002, 6.456788e+002
8.587288e+002, 6.463533e+002
8.592109e+002, 6.451443e+002
8.596931e+002, 6.438666e+002
8.601752e+002, 6.430007e+002
8.606573e+002, 6.424994e+002
8.611394e+002, 6.421956e+002
8.616215e+002, 6.420983e+002
8.621036e+002, 6.426031e+002
8.625858e+002, 6.449236e+002
8.630679e+002, 6.467770e+002
8.635500e+002, 6.458445e+002
8.640321e+002, 6.438817e+002
8.645142e+002, 6.435019e+002
8.649963e+002, 6.447413e+002
8.654785e+002, 6.459332e+002
8.659606e+002, 6.460956e+002
8.664427e+002, 6.458366e+002
8.669248e+002, 6.461456e+002
8.674069e+002, 6.468734e+002
8.678890e+002, 6.472403e+002
8.683712e+002, 6.471951e+002
8.688533e+002, 6.468209e+002
8.693354e+002, 6.460438e+002
8.698175e+002, 6.453098e+002
8.702996e+002, 6.452141e+002
8.707817e+002, 6.457578e+002
8.712639e+002, 6.465867e+002
8.717459e+002, 6.481550e+002
8.722280e+002, 6.492063e+002
8.727101e+002, 6.487927e+002
8.731923e+002, 6.484906e+002
8.736744e+002, 6.495603e+002
8.741565e+002, 6.514293e+002
8.746386e+002, 6.526629e+002
8.751207e+002, 6.528863e+002
8.756028e+002, 6.528983e+002
8.760850e+002, 6.525203e+002
8.765671e+002, 6.524664e+002
8.770492e+002, 6.534828e+002
8.775313e+002, 6.551174e+002
8.780134e+002, 6.566914e+002
8.784955e+002, 6.579845e+002
8.789777e+002, 6.589277e+002
8.794598e+002, 6.592783e+002
8.799419e+002, 6.594699e+002
8.804240e+002, 6.602831e+002
8.809061e+002, 6.615611e+002
8.813882e+002, 6.627084e+002
8.818704e+002, 6.636370e+002
8.823525e+002, 6.645760e+002
8.828346e+002, 6.656540e+002
8.833167e+002, 6.668831e+002
8.837988e+002, 6.683077e+002
8.842809e+002, 6.699638e+002
8.847631e+002, 6.716621e+002
8.852452e+002, 6.737681e+002
8.857273e+002, 6.749389e+002
8.862094e+002, 6.740221e+002
8.866915e+002, 6.726817e+002
8.871736e+002, 6.729460e+002
8.876558e+002, 6.746878e+002
8.881379e+002, 6.759102e+002
8.886200e+002, 6.759160e+002
8.891021e+002, 6.763007e+002
8.895842e+002, 6.773526e+002
8.900663e+002, 6.788571e+002
8.905485e+002, 6.811164e+002
8.910306e+002, 6.835880e+002
8.915127e+002, 6.851608e+002
8.919948e+002, 6.855072e+002
8.924769e+002, 6.858265e+002
8.929590e+002, 6.869170e+002
8.934412e+002, 6.883403e+002
8.939233e+002, 6.898574e+002
8.944054e+002, 6.912784e+002
8.948875e+002, 6.921369e+002
8.953696e+002, 6.924056e+002
8.958517e+002, 6.925377e+002
8.963339e+002, 6.928018e+002
8.968160e+002, 6.933569e+002
8.972981e+002, 6.947057e+002
8.977802e+002, 6.967405e+002
8.982623e+002, 6.983864e+002
8.987444e+002, 6.995092e+002
8.992266e+002, 7.006621e+002
8.997087e+002, 7.021434e+002
9.001908e+002, 7.036827e+002
9.006729e+002, 7.048585e+002
9.011550e+002, 7.056454e+002
9.016371e+002, 7.066120e+002
9.021193e+002, 7.081349e+002
9.026014e+002, 7.091251e+002
9.030835e+002, 7.086058e+002
9.035656e+002, 7.082575e+002
9.040477e+002, 7.094223e+002
9.045298e+002, 7.116059e+002
9.050120e+002, 7.135538e+002
9.054941e+002, 7.151528e+002
9.059762e+002, 7.164584e+002
9.064583e+002, 7.173265e+002
9.069404e+002, 7.180746e+002
9.074225e+002, 7.187381e+002
9.079047e+002, 7.194752e+002
9.083868e+002, 7.205344e+002
9.088689e+002, 7.219106e+002
9.093510e+002, 7.233176e+002
9.098331e+002, 7.245769e+002
9.103152e+002, 7.258018e+002
9.107974e+002, 7.271136e+002
9.112795e+002, 7.284760e+002
9.117616e+002, 7.300016e+002
9.122437e+002, 7.315404e+002
9.127258e+002, 7.322914e+002
9.132079e+002, 7.318688e+002
9.136901e+002, 7.314619e+002
9.141722e+002, 7.328661e+002
9.146543e+002, 7.357125e+002
9.151364e+002, 7.379592e+002
9.156185e+002, 7.395956e+002
9.161006e+002, 7.408549e+002
9.165828e+002, 7.417343e+002
9.170649e+002, 7.425538e+002
9.175470e+002, 7.435239e+002
9.180291e+002, 7.447061e+002
9.185112e+002, 7.463925e+002
9.189933e+002, 7.490594e+002
9.194755e+002, 7.510607e+002
9.199576e+002, 7.522064e+002
9.204397e+002, 7.529648e+002
9.209218e+002, 7.530606e+002
9.214039e+002, 7.531664e+002
9.218860e+002, 7.542021e+002
9.223682e+002, 7.561230e+002
9.228503e+002, 7.575950e+002
9.233324e+002, 7.580102e+002
9.238145e+002, 7.585334e+002
9.242966e+002, 7.597112e+002
9.247787e+002, 7.609158e+002
9.252609e+002, 7.613039e+002
9.257430e+002, 7.614093e+002
9.262251e+002, 7.624753e+002
9.267072e+002, 7.648847e+002
9.271893e+002, 7.674648e+002
9.276714e+002, 7.697338e+002
9.281536e+002, 7.715211e+002
9.286357e+002, 7.725145e+002
9.291178e+002, 7.729571e+002
9.295999e+002, 7.730828e+002
9.300820e+002, 7.731055e+002
9.305641e+002, 7.736953e+002
9.310463e+002, 7.753397e+002
9.315284e+002, 7.774095e+002
9.320105e+002, 7.789256e+002
9.324926e+002, 7.800062e+002
9.329747e+002, 7.811321e+002
9.334568e+002, 7.823255e+002
9.339390e+002, 7.834613e+002
9.344211e+002, 7.844856e+002
9.349032e+002, 7.854482e+002
9.353853e+002, 7.863616e+002
9.358674e+002, 7.872854e+002
9.363495e+002, 7.885453e+002
9.368317e+002, 7.901470e+002
9.373138e+002, 7.921779e+002
9.377959e+002, 7.950443e+002
9.382780e+002, 7.974548e+002
9.387601e+002, 7.985609e+002
9.392422e+002, 7.988993e+002
9.397244e+002, 7.993301e+002
9.402065e+002, 7.997643e+002
9.406886e+002, 8.007735e+002
9.411707e+002, 8.027581e+002
9.416528e+002, 8.047352e+002
9.421349e+002, 8.067953e+002
9.426171e+002, 8.085320e+002
9.430992e+002, 8.093463e+002
9.435813e+002, 8.096412e+002
9.440634e+002, 8.104340e+002
9.445455e+002, 8.119744e+002
9.450276e+002, 8.138333e+002
9.455098e+002, 8.165300e+002
9.459919e+002, 8.188089e+002
9.464740e+002, 8.194432e+002
9.469561e+002, 8.193547e+002
9.474382e+002, 8.197055e+002
9.479203e+002, 8.206891e+002
9.484025e+002, 8.220299e+002
9.488846e+002, 8.237090e+002
9.493667e+002, 8.253676e+002
9.498488e+002, 8.266416e+002
9.503309e+002, 8.276912e+002
9.508130e+002, 8.287578e+002
9.512952e+002, 8.298376e+002
9.517773e+002, 8.307385e+002
9.522594e+002, 8.314380e+002
9.527415e+002, 8.324434e+002
9.532236e+002, 8.343497e+002
9.537057e+002, 8.367796e+002
9.541878e+002, 8.389442e+002
9.546699e+002, 8.408253e+002
9.551520e+002, 8.422030e+002
9.556342e+002, 8.430582e+002
9.561163e+002, 8.438886e+002
9.565984e+002, 8.449456e+002
9.570805e+002, 8.462666e+002
9.575626e+002, 8.479677e+002
9.580447e+002, 8.500519e+002
9.585269e+002, 8.518322e+002
9.590090e+002, 8.533270e+002
9.594911e+002, 8.544452e+002
9.599732e+002, 8.550264e+002
9.604553e+002, 8.555286e+002
9.609374e+002, 8.561588e+002
9.614196e+002, 8.570309e+002
9.619017e+002, 8.585062e+002
9.623838e+002, 8.608019e+002
9.628659e+002, 8.630099e+002
9.633480e+002, 8.655790e+002
9.638301e+002, 8.674083e+002
9.643123e+002, 8.674915e+002
9.647944e+002, 8.673021e+002
9.652765e+002, 8.681940e+002
9.657586e+002, 8.699548e+002
9.662407e+002, 8.714725e+002
9.667228e+002, 8.725129e+002
9.672050e+002, 8.735080e+002
9.676871e+002, 8.743544e+002
9.681692e+002, 8.753965e+002
9.686513e+002, 8.769910e+002
9.691334e+002, 8.788183e+002
9.696155e+002, 8.805487e+002
9.700977e+002, 8.820949e+002
9.705798e+002, 8.832728e+002
9.710619e+002, 8.836550e+002
9.715440e+002, 8.842240e+002
9.720261e+002, 8.856058e+002
9.725082e+002, 8.874911e+002
9.729904e+002, 8.899152e+002
9.734725e+002, 8.924695e+002
9.739546e+002, 8.942974e+002
9.744367e+002, 8.951843e+002
9.749188e+002, 8.958212e+002
9.754009e+002, 8.964987e+002
9.758831e+002, 8.974847e+002
9.763652e+002, 8.994409e+002
9.768473e+002, 9.018721e+002
9.773294e+002, 9.035082e+002
9.778115e+002, 9.044523e+002
9.782936e+002, 9.061229e+002
9.787758e+002, 9.091976e+002
9.792579e+002, 9.123781e+002
9.797400e+002, 9.137775e+002
9.802221e+002, 9.140948e+002
9.807042e+002, 9.156841e+002
9.811863e+002, 9.184146e+002
9.816685e+002, 9.213817e+002
9.821506e+002, 9.243982e+002
9.826327e+002, 9.270214e+002
9.831148e+002, 9.289344e+002
9.835969e+002, 9.303741e+002
9.840790e+002, 9.316037e+002
9.845612e+002, 9.326155e+002
9.850433e+002, 9.347029e+002
9.855254e+002, 9.380311e+002
9.860075e+002, 9.415038e+002
9.864896e+002, 9.449142e+002
9.869717e+002, 9.481403e+002
9.874539e+002, 9.509750e+002
9.879360e+002, 9.536393e+002
9.884181e+002, 9.568608e+002
9.889002e+002, 9.607530e+002
9.893823e+002, 9.647572e+002
9.898644e+002, 9.690529e+002
9.903466e+002, 9.730752e+002
9.908287e+002, 9.762339e+002
9.913108e+002, 9.795404e+002
9.917929e+002, 9.841494e+002
9.922750e+002, 9.898211e+002
9.927571e+002, 9.950817e+002
9.932393e+002, 9.997865e+002
9.937214e+002, 1.004337e+003
9.942035e+002, 1.008574e+003
9.946856e+002, 1.012906e+003
9.951677e+002, 1.017131e+003
9.956498e+002, 1.021764e+003
9.961320e+002, 1.027795e+003
9.966141e+002, 1.034954e+003
9.970962e+002, 1.041028e+003
9.975783e+002, 1.044978e+003
9.980604e+002, 1.048811e+003
9.985425e+002, 1.053044e+003
9.990247e+002, 1.057254e+003
9.995068e+002, 1.060961e+003
9.999889e+002, 1.064537e+003
1.000471e+003, 1.068774e+003
1.000953e+003, 1.073606e+003
1.001435e+003, 1.077567e+003
1.001917e+003, 1.079914e+003
1.002399e+003, 1.081433e+003
1.002882e+003, 1.082250e+003
1.003364e+003, 1.082695e+003
1.003846e+003, 1.083094e+003
1.004328e+003, 1.083363e+003
1.004810e+003, 1.083400e+003
1.005292e+003, 1.083132e+003
1.005774e+003, 1.082237e+003
1.006256e+003, 1.080447e+003
1.006739e+003, 1.078036e+003
1.007221e+003, 1.075154e+003
1.007703e+003, 1.071899e+003
1.008185e+003, 1.068028e+003
1.008667e+003, 1.063954e+003
1.009149e+003, 1.060839e+003
1.009631e+003, 1.059042e+003
1.010113e+003, 1.057529e+003
1.010595e+003, 1.055365e+003
1.011078e+003, 1.053003e+003
1.011560e+003, 1.050949e+003
1.012042e+003, 1.049286e+003
1.012524e+003, 1.048498e+003
1.013006e+003, 1.048370e+003
1.013488e+003, 1.047675e+003
1.013970e+003, 1.045889e+003
1.014452e+003, 1.043945e+003
1.014935e+003, 1.042788e+003
1.015417e+003, 1.042323e+003
1.015899e+003, 1.042501e+003
1.016381e+003, 1.043186e+003
1.016863e+003, 1.043822e+003
1.017345e+003, 1.044299e+003
1.017827e+003, 1.044245e+003
1.018309e+003, 1.043416e+003
1.018791e+003, 1.043000e+003
1.019274e+003, 1.044978e+003
1.019756e+003, 1.048691e+003
1.020238e+003, 1.050805e+003
1.020720e+003, 1.051382e+003
1.021202e+003, 1.052113e+003
1.021684e+003, 1.053312e+003
1.022166e+003, 1.054233e+003
1.022648e+003, 1.054342e+003
1.023130e+003, 1.054447e+003
1.023613e+003, 1.055900e+003
1.024095e+003, 1.058630e+003
1.024577e+003, 1.061689e+003
1.025059e+003, 1.065228e+003
1.025541e+003, 1.067409e+003
1.026023e+003, 1.067541e+003
1.026505e+003, 1.067915e+003
1.026987e+003, 1.070135e+003
1.027469e+003, 1.073049e+003
1.027952e+003, 1.074333e+003
1.028434e+003, 1.073864e+003
1.028916e+003, 1.075147e+003
1.029398e+003, 1.078876e+003
1.029880e+003, 1.081902e+003
1.030362e+003, 1.083447e+003
1.030844e+003, 1.084651e+003
1.031326e+003, 1.086167e+003
1.031809e+003, 1.087952e+003
1.032291e+003, 1.090006e+003
1.032773e+003, 1.092462e+003
1.033255e+003, 1.094078e+003
1.033737e+003, 1.094282e+003
1.034219e+003, 1.094938e+003
1.034701e+003, 1.096448e+003
1.035183e+003, 1.098436e+003
1.035666e+003, 1.100761e+003
1.036148e+003, 1.103325e+003
1.036630e+003, 1.106029e+003
1.037112e+003, 1.109059e+003
1.037594e+003, 1.111101e+003
1.038076e+003, 1.110955e+003
1.038558e+003, 1.111713e+003
1.039040e+003, 1.114606e+003
1.039522e+003, 1.117746e+003
1.040005e+003, 1.119944e+003
1.040487e+003, 1.121517e+003
1.040969e+003, 1.123013e+003
1.041451e+003, 1.124308e+003
1.041933e+003, 1.126177e+003
1.042415e+003, 1.129836e+003
1.042897e+003, 1.132398e+003
1.043379e+003, 1.132084e+003
1.043861e+003, 1.131779e+003
1.044344e+003, 1.133612e+003
1.044826e+003, 1.136694e+003
1.045308e+003, 1.139245e+003
1.045790e+003, 1.141092e+003
1.046272e+003, 1.142883e+003
1.046754e+003, 1.144640e+003
1.047236e+003, 1.146436e+003
1.047718e+003, 1.148037e+003
1.048201e+003, 1.149932e+003
1.048683e+003, 1.152690e+003
1.049165e+003, 1.155893e+003
1.049647e+003, 1.158932e+003
1.050129e+003, 1.161767e+003
1.050611e+003, 1.163787e+003
1.051093e+003, 1.163668e+003
1.051575e+003, 1.164316e+003
1.052057e+003, 1.166916e+003
1.052540e+003, 1.170244e+003
1.053022e+003, 1.174282e+003
1.053504e+003, 1.178048e+003
1.053986e+003, 1.179371e+003
1.054468e+003, 1.177866e+003
1.054950e+003, 1.177894e+003
1.055432e+003, 1.182170e+003
1.055914e+003, 1.186042e+003
1.056396e+003, 1.187803e+003
1.056879e+003, 1.188710e+003
1.057361e+003, 1.188786e+003
1.057843e+003, 1.189083e+003
1.058325e+003, 1.191623e+003
1.058807e+003, 1.196644e+003
1.059289e+003, 1.201016e+003
1.059771e+003, 1.203735e+003
1.060253e+003, 1.205635e+003
1.060736e+003, 1.206715e+003
1.061218e+003, 1.207428e+003
1.061700e+003, 1.207558e+003
1.062182e+003, 1.207828e+003
1.062664e+003, 1.209677e+003
1.063146e+003, 1.213163e+003
1.063628e+003, 1.216022e+003
1.064110e+003, 1.216450e+003
1.064593e+003, 1.217526e+003
1.065075e+003, 1.221926e+003
1.065557e+003, 1.226064e+003
1.066039e+003, 1.226208e+003
1.066521e+003, 1.224730e+003
1.067003e+003, 1.225719e+003
1.067485e+003, 1.229512e+003
1.067967e+003, 1.232988e+003
1.068449e+003, 1.234721e+003
1.068932e+003, 1.236393e+003
1.069414e+003, 1.239030e+003
1.069896e+003, 1.241606e+003
1.070378e+003, 1.242484e+003
1.070860e+003, 1.243299e+003
1.071342e+003, 1.247420e+003
1.071824e+003, 1.254347e+003
1.072306e+003, 1.258630e+003
1.072788e+003, 1.256609e+003
1.073271e+003, 1.255491e+003
1.073753e+003, 1.260355e+003
1.074235e+003, 1.265518e+003
1.074717e+003, 1.266182e+003
1.075199e+003, 1.265041e+003
1.075681e+003, 1.265927e+003
1.076163e+003, 1.268937e+003
1.076645e+003, 1.271760e+003
1.077127e+003, 1.273445e+003
1.077610e+003, 1.275421e+003
1.078092e+003, 1.278695e+003
1.078574e+003, 1.282136e+003
1.079056e+003, 1.285315e+003
1.079538e+003, 1.288017e+003
1.080020e+003, 1.290100e+003
1.080502e+003, 1.291537e+003
1.080984e+003, 1.292033e+003
1.081467e+003, 1.291068e+003
1.081949e+003, 1.291351e+003
1.082431e+003, 1.295118e+003
1.082913e+003, 1.299321e+003
1.083395e+003, 1.302265e+003
1.083877e+003, 1.304531e+003
1.084359e+003, 1.306525e+003
1.084841e+003, 1.308504e+003
1.085323e+003, 1.310896e+003
1.085806e+003, 1.313820e+003
1.086288e+003, 1.317000e+003
1.086770e+003, 1.320979e+003
1.087252e+003, 1.324357e+003
1.087734e+003, 1.326051e+003
1.088216e+003, 1.327153e+003
1.088698e+003, 1.328584e+003
1.089180e+003, 1.330280e+003
1.089662e+003, 1.331714e+003
1.090145e+003, 1.332786e+003
1.090627e+003, 1.334604e+003
1.091109e+003, 1.338219e+003
1.091591e+003, 1.341842e+003
1.092073e+003, 1.344623e+003
1.092555e+003, 1.347203e+003
1.093037e+003, 1.350369e+003
1.093519e+003, 1.353537e+003
1.094002e+003, 1.355269e+003
1.094484e+003, 1.355559e+003
1.094966e+003, 1.357026e+003
1.095448e+003, 1.361283e+003
1.095930e+003, 1.365666e+003
1.096412e+003, 1.369950e+003
1.096894e+003, 1.373394e+003
1.097376e+003, 1.375001e+003
1.097859e+003, 1.375838e+003
1.098341e+003, 1.377477e+003
1.098823e+003, 1.379858e+003
1.099305e+003, 1.381454e+003
1.099787e+003, 1.380977e+003
1.100269e+003, 1.381674e+003
1.100751e+003, 1.384863e+003
1.101233e+003, 1.388829e+003
1.101715e+003, 1.393438e+003
1.102198e+003, 1.397874e+003
1.102680e+003, 1.401505e+003
1.103162e+003, 1.404238e+003
1.103644e+003, 1.405764e+003
1.104126e+003, 1.405287e+003
1.104608e+003, 1.406061e+003
1.105090e+003, 1.409590e+003
1.105572e+003, 1.413250e+003
1.106054e+003, 1.416256e+003
1.106537e+003, 1.418932e+003
1.107019e+003, 1.421588e+003
1.107501e+003, 1.424143e+003
1.107983e+003, 1.426114e+003
1.108465e+003, 1.427116e+003
1.108947e+003, 1.429598e+003
1.109429e+003, 1.435520e+003
1.109911e+003, 1.440441e+003
1.110394e+003, 1.442997e+003
1.110876e+003, 1.444774e+003
1.111358e+003, 1.445936e+003
1.111840e+003, 1.447302e+003
1.112322e+003, 1.450684e+003
1.112804e+003, 1.456268e+003
1.113286e+003, 1.459921e+003
1.113768e+003, 1.460216e+003
1.114250e+003, 1.460911e+003
1.114733e+003, 1.462016e+003
1.115215e+003, 1.463912e+003
1.115697e+003, 1.467496e+003
1.116179e+003, 1.471277e+003
1.116661e+003, 1.473159e+003
1.117143e+003, 1.473570e+003
1.117625e+003, 1.475732e+003
1.118107e+003, 1.480945e+003
1.118589e+003, 1.484731e+003
1.119072e+003, 1.486051e+003
1.119554e+003, 1.488040e+003
1.120036e+003, 1.492133e+003
1.120518e+003, 1.496505e+003
1.121000e+003, 1.499599e+003
1.121482e+003, 1.501792e+003
1.121964e+003, 1.504162e+003
1.122446e+003, 1.506753e+003
1.122929e+003, 1.509169e+003
1.123411e+003, 1.511250e+003
1.123893e+003, 1.513809e+003
1.124375e+003, 1.517307e+003
1.124857e+003, 1.520270e+003
1.125339e+003, 1.521391e+003
1.125821e+003, 1.522209e+003
1.126303e+003, 1.525459e+003
1.126786e+003, 1.531004e+003
1.127268e+003, 1.536801e+003
1.127750e+003, 1.543057e+003
1.128232e+003, 1.547069e+003
1.128714e+003, 1.548141e+003
1.129196e+003, 1.549493e+003
1.129678e+003, 1.552676e+003
1.130160e+003, 1.556103e+003
1.130642e+003, 1.557890e+003
1.131125e+003, 1.558582e+003
1.131607e+003, 1.559916e+003
1.132089e+003, 1.561907e+003
1.132571e+003, 1.564944e+003
1.133053e+003, 1.569031e+003
1.133535e+003, 1.572735e+003
1.134017e+003, 1.575623e+003
1.134499e+003, 1.578189e+003
1.134981e+003, 1.580782e+003
1.135464e+003, 1.583473e+003
1.135946e+003, 1.586482e+003
1.136428e+003, 1.589685e+003
1.136910e+003, 1.592634e+003
1.137392e+003, 1.595336e+003
1.137874e+003, 1.597596e+003
1.138356e+003, 1.599567e+003
1.138838e+003, 1.602665e+003
1.139321e+003, 1.607634e+003
1.139803e+003, 1.612655e+003
1.140285e+003, 1.615721e+003
1.140767e+003, 1.617519e+003
1.141249e+003, 1.618826e+003
1.141731e+003, 1.620084e+003
1.142213e+003, 1.622052e+003
1.142695e+003, 1.624937e+003
1.143177e+003, 1.629708e+003
1.143660e+003, 1.636258e+003
1.144142e+003, 1.641219e+003
1.144624e+003, 1.641473e+003
1.145106e+003, 1.641018e+003
1.145588e+003, 1.644124e+003
1.146070e+003, 1.648893e+003
1.146552e+003, 1.653977e+003
1.147034e+003, 1.658409e+003
1.147516e+003, 1.659891e+003
1.147999e+003, 1.659091e+003
1.148481e+003, 1.660182e+003
1.148963e+003, 1.665213e+003
1.149445e+003, 1.670473e+003
1.149927e+003, 1.673154e+003
1.150409e+003, 1.675741e+003
1.150891e+003, 1.680632e+003
1.151373e+003, 1.685871e+003
1.151856e+003, 1.689039e+003
1.152338e+003, 1.690797e+003
1.152820e+003, 1.693053e+003
1.153302e+003, 1.696211e+003
1.153784e+003, 1.699694e+003
1.154266e+003, 1.703804e+003
1.154748e+003, 1.707530e+003
1.155230e+003, 1.710399e+003
1.155713e+003, 1.712948e+003
1.156195e+003, 1.715391e+003
1.156677e+003, 1.717818e+003
1.157159e+003, 1.720257e+003
1.157641e+003, 1.722772e+003
1.158123e+003, 1.725678e+003
1.158605e+003, 1.729620e+003
1.159087e+003, 1.732718e+003
1.159569e+003, 1.733447e+003
1.160052e+003, 1.735301e+003
1.160534e+003, 1.739550e+003
1.161016e+003, 1.744900e+003
1.161498e+003, 1.751153e+003
1.161980e+003, 1.757399e+003
1.162462e+003, 1.761541e+003
1.162944e+003, 1.763404e+003
1.163426e+003, 1.764984e+003
1.163908e+003, 1.765813e+003
1.164391e+003, 1.767711e+003
1.164873e+003, 1.770990e+003
1.165355e+003, 1.775170e+003
1.165837e+003, 1.780306e+003
1.166319e+003, 1.785550e+003
1.166801e+003, 1.789917e+003
1.167283e+003, 1.793551e+003
1.167765e+003, 1.797021e+003
1.168247e+003, 1.800307e+003
1.168730e+003, 1.804261e+003
1.169212e+003, 1.808952e+003
1.169694e+003, 1.812352e+003
1.170176e+003, 1.813857e+003
1.170658e+003, 1.815724e+003
1.171140e+003, 1.819552e+003
1.171622e+003, 1.824309e+003
1.172104e+003, 1.828606e+003
1.172587e+003, 1.832381e+003
1.173069e+003, 1.834935e+003
1.173551e+003, 1.836822e+003
1.174033e+003, 1.840506e+003
1.174515e+003, 1.845883e+003
1.174997e+003, 1.850827e+003
1.175479e+003, 1.854549e+003
1.175961e+003, 1.857648e+003
1.176443e+003, 1.860519e+003
1.176926e+003, 1.863296e+003
1.177408e+003, 1.866123e+003
1.177890e+003, 1.868977e+003
1.178372e+003, 1.871689e+003
1.178854e+003, 1.874465e+003
1.179336e+003, 1.877653e+003
1.179818e+003, 1.881351e+003
1.180300e+003, 1.885777e+003
1.180782e+003, 1.891241e+003
1.181265e+003, 1.895679e+003
1.181747e+003, 1.897004e+003
1.182229e+003, 1.897888e+003
1.182711e+003, 1.899614e+003
1.183193e+003, 1.902144e+003
1.183675e+003, 1.906073e+003
1.184157e+003, 1.910454e+003
1.184639e+003, 1.913143e+003
1.185122e+003, 1.914029e+003
1.185604e+003, 1.916671e+003
1.186086e+003, 1.923927e+003
1.186568e+003, 1.929682e+003
1.187050e+003, 1.931648e+003
1.187532e+003, 1.933506e+003
1.188014e+003, 1.936240e+003
1.188496e+003, 1.940048e+003
1.188979e+003, 1.945766e+003
1.189461e+003, 1.952456e+003
1.189943e+003, 1.957148e+003
1.190425e+003, 1.959352e+003
1.190907e+003, 1.962397e+003
1.191389e+003, 1.966512e+003
1.191871e+003, 1.970783e+003
1.192353e+003, 1.975018e+003
1.192835e+003, 1.979556e+003
1.193318e+003, 1.984680e+003
1.193800e+003, 1.989934e+003
1.194282e+003, 1.994957e+003
1.194764e+003, 1.999354e+003
1.195246e+003, 2.000859e+003
1.195728e+003, 1.999659e+003
1.196210e+003, 2.001101e+003
1.196692e+003, 2.005291e+003
1.197174e+003, 2.009423e+003
1.197657e+003, 2.012760e+003
1.198139e+003, 2.015449e+003
1.198621e+003, 2.017498e+003
1.199103e+003, 2.020090e+003
1.199585e+003, 2.025239e+003
1.200067e+003, 2.031653e+003
1.200549e+003, 2.037470e+003
1.201031e+003, 2.042286e+003
1.201514e+003, 2.044671e+003
1.201996e+003, 2.045342e+003
1.202478e+003, 2.046318e+003
1.202960e+003, 2.048336e+003
1.203442e+003, 2.051898e+003
1.203924e+003, 2.057936e+003
1.204406e+003, 2.063701e+003
1.204888e+003, 2.067279e+003
1.205370e+003, 2.069553e+003
1.205853e+003, 2.069841e+003
1.206335e+003, 2.070313e+003
1.206817e+003, 2.074006e+003
1.207299e+003, 2.079978e+003
1.207781e+003, 2.085136e+003
1.208263e+003, 2.088809e+003
1.208745e+003, 2.092721e+003
1.209227e+003, 2.097185e+003
1.209709e+003, 2.102022e+003
1.210192e+003, 2.107967e+003
1.210674e+003, 2.113383e+003
1.211156e+003, 2.116700e+003
1.211638e+003, 2.119751e+003
1.212120e+003, 2.125013e+003
1.212602e+003, 2.131387e+003
1.213084e+003, 2.134228e+003
1.213566e+003, 2.132032e+003
1.214049e+003, 2.134112e+003
1.214531e+003, 2.141612e+003
1.215013e+003, 2.149146e+003
1.215495e+003, 2.156140e+003
1.215977e+003, 2.160602e+003
1.216459e+003, 2.160978e+003
1.216941e+003, 2.160967e+003
1.217423e+003, 2.165329e+003
1.217906e+003, 2.172504e+003
1.218388e+003, 2.177696e+003
1.218870e+003, 2.181251e+003
1.219352e+003, 2.184674e+003
1.219834e+003, 2.188169e+003
1.220316e+003, 2.192187e+003
1.220798e+003, 2.196792e+003
1.221280e+003, 2.201899e+003
1.221762e+003, 2.207525e+003
1.222245e+003, 2.212330e+003
1.222727e+003, 2.213869e+003
1.223209e+003, 2.214984e+003
1.223691e+003, 2.219185e+003
1.224173e+003, 2.224749e+003
1.224655e+003, 2.230027e+003
1.225137e+003, 2.234535e+003
1.225619e+003, 2.237063e+003
1.226101e+003, 2.238064e+003
1.226584e+003, 2.241180e+003
1.227066e+003, 2.248592e+003
1.227548e+003, 2.255429e+003
1.228030e+003, 2.260241e+003
1.228512e+003, 2.263867e+003
1.228994e+003, 2.264751e+003
1.229476e+003, 2.266481e+003
1.229958e+003, 2.272805e+003
1.230441e+003, 2.281426e+003
1.230923e+003, 2.288220e+003
1.231405e+003, 2.293256e+003
1.231887e+003, 2.298079e+003
1.232369e+003, 2.302661e+003
1.232851e+003, 2.306906e+003
1.233333e+003, 2.310382e+003
1.233815e+003, 2.315242e+003
1.234297e+003, 2.322511e+003
1.234780e+003, 2.329569e+003
1.235262e+003, 2.334518e+003
1.235744e+003, 2.338193e+003
1.236226e+003, 2.341815e+003
1.236708e+003, 2.345492e+003
1.237190e+003, 2.349969e+003
1.237672e+003, 2.354989e+003
1.238154e+003, 2.359829e+003
1.238636e+003, 2.364204e+003
1.239119e+003, 2.366810e+003
1.239601e+003, 2.367692e+003
1.240083e+003, 2.369942e+003
1.240565e+003, 2.375714e+003
1.241047e+003, 2.382538e+003
1.241529e+003, 2.388965e+003
1.242011e+003, 2.394356e+003
1.242493e+003, 2.397253e+003
1.242975e+003, 2.399505e+003
1.243458e+003, 2.403527e+003
1.243940e+003, 2.408741e+003
1.244422e+003, 2.413322e+003
1.244904e+003, 2.417074e+003
1.245386e+003, 2.421368e+003
1.245868e+003, 2.427374e+003
1.246350e+003, 2.432435e+003
1.246832e+003, 2.434907e+003
1.247315e+003, 2.438019e+003
1.247797e+003, 2.443387e+003
1.248279e+003, 2.449065e+003
1.248761e+003, 2.453630e+003
1.249243e+003, 2.457626e+003
1.249725e+003, 2.461983e+003
1.250207e+003, 2.466688e+003
1.250689e+003, 2.472443e+003
1.251172e+003, 2.479478e+003
1.251654e+003, 2.484028e+003
1.252136e+003, 2.485643e+003
1.252618e+003, 2.489989e+003
1.253100e+003, 2.498746e+003
1.253582e+003, 2.507208e+003
1.254064e+003, 2.512069e+003
1.254546e+003, 2.515426e+003
1.255028e+003, 2.520037e+003
1.255510e+003, 2.525177e+003
1.255993e+003, 2.529437e+003
1.256475e+003, 2.533198e+003
1.256957e+003, 2.537079e+003
1.257439e+003, 2.541035e+003
1.257921e+003, 2.544734e+003
1.258403e+003, 2.548163e+003
1.258885e+003, 2.551673e+003
1.259367e+003, 2.555264e+003
1.259850e+003, 2.559515e+003
1.260332e+003, 2.565612e+003
1.260814e+003, 2.571227e+003
1.261296e+003, 2.574112e+003
1.261778e+003, 2.577284e+003
1.262260e+003, 2.583542e+003
1.262742e+003, 2.591358e+003
1.263224e+003, 2.598533e+003
1.263707e+003, 2.604977e+003
1.264189e+003, 2.609600e+003
1.264671e+003, 2.611629e+003
1.265153e+003, 2.614542e+003
1.265635e+003, 2.618598e+003
1.266117e+003, 2.622123e+003
1.266599e+003, 2.624503e+003
1.267081e+003, 2.628060e+003
1.267563e+003, 2.634142e+003
1.268046e+003, 2.641505e+003
1.268528e+003, 2.649030e+003
1.269010e+003, 2.656210e+003
1.269492e+003, 2.661726e+003
1.269974e+003, 2.666093e+003
1.270456e+003, 2.670431e+003
1.270938e+003, 2.674878e+003
1.271420e+003, 2.679616e+003
1.271902e+003, 2.684577e+003
1.272385e+003, 2.689275e+003
1.272867e+003, 2.693523e+003
1.273349e+003, 2.698426e+003
1.273831e+003, 2.705489e+003
1.274313e+003, 2.712222e+003
1.274795e+003, 2.717005e+003
1.275277e+003, 2.721552e+003
1.275759e+003, 2.726978e+003
1.276242e+003, 2.732870e+003
1.276724e+003, 2.739028e+003
1.277206e+003, 2.745187e+003
1.277688e+003, 2.750478e+003
1.278170e+003, 2.754865e+003
1.278652e+003, 2.758456e+003
1.279134e+003, 2.760422e+003
1.279616e+003, 2.765000e+003
1.280099e+003, 2.773305e+003
1.280581e+003, 2.780425e+003
1.281063e+003, 2.784499e+003
1.281545e+003, 2.787427e+003
1.282027e+003, 2.790606e+003
1.282509e+003, 2.794314e+003
1.282991e+003, 2.799400e+003
1.283473e+003, 2.805100e+003
1.283955e+003, 2.810363e+003
##END=



