##NAMES=Fluoro-richterite
##RRUFFID=R060290
##IDEAL CHEMISTRY=Na(NaCa)Mg_5_Si_8_O_22_F_2_
##LOCALITY=Koschka Valley, Badakshan Province, Afghanistan
##OWNER=RRUFF
##SOURCE=Herb Obodda
##DESCRIPTION=Tan colored transparent prismatic crystal
##STATUS=The identification of this mineral has been made only by X-ray diffraction.
##URL=rruff.info/R060290
8.930109e+001, 0.000000e+000
8.978320e+001, 1.672424e+004
9.026532e+001, 1.664628e+004
9.074744e+001, 1.664853e+004
9.122955e+001, 1.675509e+004
9.171167e+001, 1.692890e+004
9.219379e+001, 1.713296e+004
9.267590e+001, 1.736936e+004
9.315802e+001, 1.757867e+004
9.364014e+001, 1.770071e+004
9.412225e+001, 1.776151e+004
9.460437e+001, 1.782368e+004
9.508649e+001, 1.790549e+004
9.556860e+001, 1.799184e+004
9.605072e+001, 1.806840e+004
9.653284e+001, 1.815039e+004
9.701495e+001, 1.823034e+004
9.749707e+001, 1.829165e+004
9.797919e+001, 1.833432e+004
9.846130e+001, 1.838461e+004
9.894342e+001, 1.844632e+004
9.942554e+001, 1.852008e+004
9.990765e+001, 1.862009e+004
1.003898e+002, 1.875038e+004
1.008719e+002, 1.889779e+004
1.013540e+002, 1.904661e+004
1.018361e+002, 1.920038e+004
1.023182e+002, 1.934695e+004
1.028004e+002, 1.947663e+004
1.032825e+002, 1.957483e+004
1.037646e+002, 1.971679e+004
1.042467e+002, 1.991158e+004
1.047288e+002, 2.014343e+004
1.052109e+002, 2.037681e+004
1.056931e+002, 2.062118e+004
1.061752e+002, 2.085976e+004
1.066573e+002, 2.108815e+004
1.071394e+002, 2.129663e+004
1.076215e+002, 2.151414e+004
1.081036e+002, 2.177853e+004
1.085858e+002, 2.206815e+004
1.090679e+002, 2.225417e+004
1.095500e+002, 2.228528e+004
1.100321e+002, 2.225792e+004
1.105142e+002, 2.222385e+004
1.109963e+002, 2.219692e+004
1.114785e+002, 2.215073e+004
1.119606e+002, 2.207924e+004
1.124427e+002, 2.198351e+004
1.129248e+002, 2.188184e+004
1.134069e+002, 2.178112e+004
1.138890e+002, 2.167408e+004
1.143712e+002, 2.155355e+004
1.148533e+002, 2.141173e+004
1.153354e+002, 2.126315e+004
1.158175e+002, 2.111656e+004
1.162996e+002, 2.097169e+004
1.167817e+002, 2.081103e+004
1.172639e+002, 2.060705e+004
1.177460e+002, 2.038737e+004
1.182281e+002, 2.018704e+004
1.187102e+002, 2.002259e+004
1.191923e+002, 1.987738e+004
1.196744e+002, 1.974565e+004
1.201566e+002, 1.962811e+004
1.206387e+002, 1.951402e+004
1.211208e+002, 1.938444e+004
1.216029e+002, 1.925292e+004
1.220850e+002, 1.914877e+004
1.225671e+002, 1.909377e+004
1.230493e+002, 1.906946e+004
1.235314e+002, 1.906389e+004
1.240135e+002, 1.908527e+004
1.244956e+002, 1.909793e+004
1.249777e+002, 1.905623e+004
1.254598e+002, 1.897164e+004
1.259420e+002, 1.888924e+004
1.264241e+002, 1.884090e+004
1.269062e+002, 1.881398e+004
1.273883e+002, 1.878495e+004
1.278704e+002, 1.874584e+004
1.283525e+002, 1.870616e+004
1.288347e+002, 1.868132e+004
1.293168e+002, 1.867069e+004
1.297989e+002, 1.866508e+004
1.302810e+002, 1.865653e+004
1.307631e+002, 1.864655e+004
1.312452e+002, 1.864161e+004
1.317274e+002, 1.864646e+004
1.322095e+002, 1.865618e+004
1.326916e+002, 1.865729e+004
1.331737e+002, 1.864938e+004
1.336558e+002, 1.863673e+004
1.341379e+002, 1.862180e+004
1.346201e+002, 1.860479e+004
1.351022e+002, 1.858912e+004
1.355843e+002, 1.857404e+004
1.360664e+002, 1.856063e+004
1.365485e+002, 1.855882e+004
1.370306e+002, 1.857082e+004
1.375128e+002, 1.858929e+004
1.379949e+002, 1.860539e+004
1.384770e+002, 1.861818e+004
1.389591e+002, 1.863324e+004
1.394412e+002, 1.865298e+004
1.399233e+002, 1.867739e+004
1.404055e+002, 1.870248e+004
1.408876e+002, 1.873115e+004
1.413697e+002, 1.875683e+004
1.418518e+002, 1.876671e+004
1.423339e+002, 1.875263e+004
1.428160e+002, 1.874043e+004
1.432982e+002, 1.874051e+004
1.437803e+002, 1.875795e+004
1.442624e+002, 1.877091e+004
1.447445e+002, 1.877638e+004
1.452266e+002, 1.877843e+004
1.457087e+002, 1.878591e+004
1.461909e+002, 1.879936e+004
1.466730e+002, 1.881800e+004
1.471551e+002, 1.884248e+004
1.476372e+002, 1.887846e+004
1.481193e+002, 1.891092e+004
1.486014e+002, 1.894009e+004
1.490836e+002, 1.896604e+004
1.495657e+002, 1.898953e+004
1.500478e+002, 1.900008e+004
1.505299e+002, 1.901609e+004
1.510120e+002, 1.904579e+004
1.514941e+002, 1.909624e+004
1.519763e+002, 1.915113e+004
1.524584e+002, 1.921059e+004
1.529405e+002, 1.927423e+004
1.534226e+002, 1.934171e+004
1.539047e+002, 1.941603e+004
1.543868e+002, 1.949197e+004
1.548690e+002, 1.956670e+004
1.553511e+002, 1.961161e+004
1.558332e+002, 1.968517e+004
1.563153e+002, 1.980460e+004
1.567974e+002, 1.996567e+004
1.572795e+002, 2.013332e+004
1.577617e+002, 2.030406e+004
1.582438e+002, 2.047687e+004
1.587259e+002, 2.065106e+004
1.592080e+002, 2.083315e+004
1.596901e+002, 2.101079e+004
1.601722e+002, 2.120407e+004
1.606544e+002, 2.140875e+004
1.611365e+002, 2.154381e+004
1.616186e+002, 2.156041e+004
1.621007e+002, 2.150239e+004
1.625828e+002, 2.141036e+004
1.630649e+002, 2.127062e+004
1.635471e+002, 2.112138e+004
1.640292e+002, 2.097173e+004
1.645113e+002, 2.082189e+004
1.649934e+002, 2.069229e+004
1.654755e+002, 2.059766e+004
1.659576e+002, 2.052729e+004
1.664398e+002, 2.046911e+004
1.669219e+002, 2.041472e+004
1.674040e+002, 2.037230e+004
1.678861e+002, 2.035185e+004
1.683682e+002, 2.035459e+004
1.688503e+002, 2.036111e+004
1.693325e+002, 2.035280e+004
1.698146e+002, 2.034085e+004
1.702967e+002, 2.034330e+004
1.707788e+002, 2.037348e+004
1.712609e+002, 2.041888e+004
1.717430e+002, 2.047196e+004
1.722252e+002, 2.053383e+004
1.727073e+002, 2.059188e+004
1.731894e+002, 2.062521e+004
1.736715e+002, 2.064675e+004
1.741536e+002, 2.068393e+004
1.746357e+002, 2.076364e+004
1.751179e+002, 2.086123e+004
1.756000e+002, 2.094493e+004
1.760821e+002, 2.100882e+004
1.765642e+002, 2.107312e+004
1.770463e+002, 2.116440e+004
1.775284e+002, 2.127417e+004
1.780106e+002, 2.137493e+004
1.784927e+002, 2.144626e+004
1.789748e+002, 2.150088e+004
1.794569e+002, 2.156082e+004
1.799390e+002, 2.163154e+004
1.804211e+002, 2.169760e+004
1.809033e+002, 2.174547e+004
1.813854e+002, 2.177527e+004
1.818675e+002, 2.178638e+004
1.823496e+002, 2.177487e+004
1.828317e+002, 2.174489e+004
1.833138e+002, 2.170423e+004
1.837960e+002, 2.165286e+004
1.842781e+002, 2.159406e+004
1.847602e+002, 2.153006e+004
1.852423e+002, 2.146114e+004
1.857244e+002, 2.139559e+004
1.862065e+002, 2.133676e+004
1.866887e+002, 2.128452e+004
1.871708e+002, 2.123601e+004
1.876529e+002, 2.118857e+004
1.881350e+002, 2.114932e+004
1.886171e+002, 2.113452e+004
1.890992e+002, 2.114354e+004
1.895814e+002, 2.115997e+004
1.900635e+002, 2.117449e+004
1.905456e+002, 2.118777e+004
1.910277e+002, 2.120405e+004
1.915098e+002, 2.122613e+004
1.919919e+002, 2.124823e+004
1.924741e+002, 2.125338e+004
1.929562e+002, 2.124061e+004
1.934383e+002, 2.123229e+004
1.939204e+002, 2.124176e+004
1.944025e+002, 2.126876e+004
1.948846e+002, 2.131071e+004
1.953668e+002, 2.136983e+004
1.958489e+002, 2.144083e+004
1.963310e+002, 2.151497e+004
1.968131e+002, 2.159349e+004
1.972952e+002, 2.166489e+004
1.977773e+002, 2.171663e+004
1.982595e+002, 2.174762e+004
1.987416e+002, 2.178998e+004
1.992237e+002, 2.184754e+004
1.997058e+002, 2.191828e+004
2.001879e+002, 2.199711e+004
2.006700e+002, 2.208565e+004
2.011522e+002, 2.217921e+004
2.016343e+002, 2.227543e+004
2.021164e+002, 2.237450e+004
2.025985e+002, 2.247559e+004
2.030806e+002, 2.257643e+004
2.035627e+002, 2.267944e+004
2.040449e+002, 2.279295e+004
2.045270e+002, 2.291973e+004
2.050091e+002, 2.304742e+004
2.054912e+002, 2.316760e+004
2.059733e+002, 2.327934e+004
2.064554e+002, 2.338733e+004
2.069376e+002, 2.348931e+004
2.074197e+002, 2.358835e+004
2.079018e+002, 2.370395e+004
2.083839e+002, 2.384442e+004
2.088660e+002, 2.398115e+004
2.093481e+002, 2.409279e+004
2.098303e+002, 2.417687e+004
2.103124e+002, 2.425075e+004
2.107945e+002, 2.431495e+004
2.112766e+002, 2.437076e+004
2.117587e+002, 2.442802e+004
2.122408e+002, 2.449382e+004
2.127230e+002, 2.454661e+004
2.132051e+002, 2.456384e+004
2.136872e+002, 2.452602e+004
2.141693e+002, 2.452075e+004
2.146514e+002, 2.456477e+004
2.151335e+002, 2.464790e+004
2.156157e+002, 2.471828e+004
2.160978e+002, 2.476213e+004
2.165799e+002, 2.481830e+004
2.170620e+002, 2.491817e+004
2.175441e+002, 2.508141e+004
2.180262e+002, 2.522914e+004
2.185084e+002, 2.534435e+004
2.189905e+002, 2.543927e+004
2.194726e+002, 2.556991e+004
2.199547e+002, 2.575103e+004
2.204368e+002, 2.594658e+004
2.209189e+002, 2.612863e+004
2.214011e+002, 2.628480e+004
2.218832e+002, 2.646672e+004
2.223653e+002, 2.668735e+004
2.228474e+002, 2.693756e+004
2.233295e+002, 2.718503e+004
2.238116e+002, 2.741582e+004
2.242938e+002, 2.765746e+004
2.247759e+002, 2.792929e+004
2.252580e+002, 2.824445e+004
2.257401e+002, 2.855194e+004
2.262222e+002, 2.884647e+004
2.267043e+002, 2.913032e+004
2.271865e+002, 2.943025e+004
2.276686e+002, 2.975271e+004
2.281507e+002, 3.007226e+004
2.286328e+002, 3.037353e+004
2.291149e+002, 3.066192e+004
2.295970e+002, 3.091893e+004
2.300792e+002, 3.114680e+004
2.305613e+002, 3.134239e+004
2.310434e+002, 3.148630e+004
2.315255e+002, 3.158073e+004
2.320076e+002, 3.161979e+004
2.324897e+002, 3.160077e+004
2.329719e+002, 3.152902e+004
2.334540e+002, 3.138655e+004
2.339361e+002, 3.115170e+004
2.344182e+002, 3.084663e+004
2.349003e+002, 3.054490e+004
2.353824e+002, 3.025294e+004
2.358646e+002, 2.995496e+004
2.363467e+002, 2.964159e+004
2.368288e+002, 2.930342e+004
2.373109e+002, 2.896827e+004
2.377930e+002, 2.863038e+004
2.382751e+002, 2.829506e+004
2.387573e+002, 2.798653e+004
2.392394e+002, 2.769313e+004
2.397215e+002, 2.744197e+004
2.402036e+002, 2.724593e+004
2.406857e+002, 2.712297e+004
2.411678e+002, 2.701396e+004
2.416500e+002, 2.691845e+004
2.421321e+002, 2.683691e+004
2.426142e+002, 2.676946e+004
2.430963e+002, 2.671674e+004
2.435784e+002, 2.667796e+004
2.440605e+002, 2.665365e+004
2.445427e+002, 2.664540e+004
2.450248e+002, 2.664930e+004
2.455069e+002, 2.667723e+004
2.459890e+002, 2.671299e+004
2.464711e+002, 2.672425e+004
2.469532e+002, 2.672310e+004
2.474354e+002, 2.667846e+004
2.479175e+002, 2.657307e+004
2.483996e+002, 2.638685e+004
2.488817e+002, 2.620427e+004
2.493638e+002, 2.602496e+004
2.498459e+002, 2.585011e+004
2.503281e+002, 2.568262e+004
2.508102e+002, 2.552626e+004
2.512923e+002, 2.537048e+004
2.517744e+002, 2.520407e+004
2.522565e+002, 2.501684e+004
2.527386e+002, 2.487029e+004
2.532208e+002, 2.477398e+004
2.537029e+002, 2.471147e+004
2.541850e+002, 2.465753e+004
2.546671e+002, 2.461607e+004
2.551492e+002, 2.457436e+004
2.556313e+002, 2.452538e+004
2.561135e+002, 2.446515e+004
2.565956e+002, 2.442459e+004
2.570777e+002, 2.441294e+004
2.575598e+002, 2.441163e+004
2.580419e+002, 2.439311e+004
2.585240e+002, 2.434434e+004
2.590062e+002, 2.430764e+004
2.594883e+002, 2.429770e+004
2.599704e+002, 2.431666e+004
2.604525e+002, 2.433049e+004
2.609346e+002, 2.433879e+004
2.614167e+002, 2.434239e+004
2.618989e+002, 2.434250e+004
2.623810e+002, 2.434025e+004
2.628631e+002, 2.433231e+004
2.633452e+002, 2.431709e+004
2.638273e+002, 2.429475e+004
2.643094e+002, 2.427518e+004
2.647916e+002, 2.426125e+004
2.652737e+002, 2.424624e+004
2.657558e+002, 2.422152e+004
2.662379e+002, 2.418291e+004
2.667200e+002, 2.415060e+004
2.672021e+002, 2.413234e+004
2.676843e+002, 2.412547e+004
2.681664e+002, 2.410121e+004
2.686485e+002, 2.405371e+004
2.691306e+002, 2.400061e+004
2.696127e+002, 2.395201e+004
2.700948e+002, 2.390279e+004
2.705770e+002, 2.388163e+004
2.710591e+002, 2.390179e+004
2.715412e+002, 2.395264e+004
2.720233e+002, 2.398422e+004
2.725054e+002, 2.399145e+004
2.729875e+002, 2.399056e+004
2.734697e+002, 2.398975e+004
2.739518e+002, 2.398723e+004
2.744339e+002, 2.399760e+004
2.749160e+002, 2.402733e+004
2.753981e+002, 2.406827e+004
2.758802e+002, 2.409667e+004
2.763624e+002, 2.411129e+004
2.768445e+002, 2.411729e+004
2.773266e+002, 2.411177e+004
2.778087e+002, 2.409292e+004
2.782908e+002, 2.409348e+004
2.787729e+002, 2.411994e+004
2.792551e+002, 2.416306e+004
2.797372e+002, 2.420419e+004
2.802193e+002, 2.424438e+004
2.807014e+002, 2.427736e+004
2.811835e+002, 2.429849e+004
2.816656e+002, 2.430794e+004
2.821478e+002, 2.431277e+004
2.826299e+002, 2.430882e+004
2.831120e+002, 2.430927e+004
2.835941e+002, 2.434234e+004
2.840762e+002, 2.440989e+004
2.845583e+002, 2.447546e+004
2.850405e+002, 2.452038e+004
2.855226e+002, 2.454710e+004
2.860047e+002, 2.457827e+004
2.864868e+002, 2.461446e+004
2.869689e+002, 2.465353e+004
2.874510e+002, 2.469047e+004
2.879332e+002, 2.472568e+004
2.884153e+002, 2.476919e+004
2.888974e+002, 2.483205e+004
2.893795e+002, 2.490618e+004
2.898616e+002, 2.495872e+004
2.903438e+002, 2.498857e+004
2.908259e+002, 2.500401e+004
2.913080e+002, 2.500435e+004
2.917901e+002, 2.499375e+004
2.922722e+002, 2.499829e+004
2.927543e+002, 2.503375e+004
2.932365e+002, 2.508638e+004
2.937186e+002, 2.512632e+004
2.942007e+002, 2.515318e+004
2.946828e+002, 2.516926e+004
2.951649e+002, 2.516711e+004
2.956470e+002, 2.515398e+004
2.961292e+002, 2.515505e+004
2.966113e+002, 2.518245e+004
2.970934e+002, 2.522111e+004
2.975755e+002, 2.524538e+004
2.980576e+002, 2.525691e+004
2.985397e+002, 2.527117e+004
2.990219e+002, 2.530311e+004
2.995040e+002, 2.534635e+004
2.999861e+002, 2.538667e+004
3.004682e+002, 2.542124e+004
3.009503e+002, 2.545283e+004
3.014324e+002, 2.548603e+004
3.019146e+002, 2.551986e+004
3.023967e+002, 2.555095e+004
3.028788e+002, 2.556731e+004
3.033609e+002, 2.558264e+004
3.038430e+002, 2.561989e+004
3.043251e+002, 2.568687e+004
3.048073e+002, 2.575777e+004
3.052894e+002, 2.581104e+004
3.057715e+002, 2.584969e+004
3.062536e+002, 2.588278e+004
3.067357e+002, 2.590302e+004
3.072178e+002, 2.592515e+004
3.077000e+002, 2.596772e+004
3.081821e+002, 2.603376e+004
3.086642e+002, 2.610011e+004
3.091463e+002, 2.614923e+004
3.096284e+002, 2.618697e+004
3.101105e+002, 2.622332e+004
3.105927e+002, 2.626619e+004
3.110748e+002, 2.630564e+004
3.115569e+002, 2.633215e+004
3.120390e+002, 2.634571e+004
3.125211e+002, 2.636084e+004
3.130032e+002, 2.638782e+004
3.134854e+002, 2.642054e+004
3.139675e+002, 2.645211e+004
3.144496e+002, 2.647838e+004
3.149317e+002, 2.650530e+004
3.154138e+002, 2.653108e+004
3.158959e+002, 2.655816e+004
3.163781e+002, 2.660040e+004
3.168602e+002, 2.668707e+004
3.173423e+002, 2.677786e+004
3.178244e+002, 2.684155e+004
3.183065e+002, 2.684875e+004
3.187886e+002, 2.686043e+004
3.192708e+002, 2.689747e+004
3.197529e+002, 2.695415e+004
3.202350e+002, 2.701471e+004
3.207171e+002, 2.707902e+004
3.211992e+002, 2.714156e+004
3.216813e+002, 2.719878e+004
3.221635e+002, 2.724744e+004
3.226456e+002, 2.729607e+004
3.231277e+002, 2.733725e+004
3.236098e+002, 2.738031e+004
3.240919e+002, 2.744120e+004
3.245740e+002, 2.753806e+004
3.250562e+002, 2.763768e+004
3.255383e+002, 2.772954e+004
3.260204e+002, 2.781084e+004
3.265025e+002, 2.789396e+004
3.269846e+002, 2.798321e+004
3.274667e+002, 2.807342e+004
3.279489e+002, 2.816039e+004
3.284310e+002, 2.824996e+004
3.289131e+002, 2.833081e+004
3.293952e+002, 2.840227e+004
3.298773e+002, 2.846459e+004
3.303594e+002, 2.851708e+004
3.308416e+002, 2.854205e+004
3.313237e+002, 2.857185e+004
3.318058e+002, 2.863041e+004
3.322879e+002, 2.873659e+004
3.327700e+002, 2.883977e+004
3.332521e+002, 2.893507e+004
3.337343e+002, 2.902446e+004
3.342164e+002, 2.911979e+004
3.346985e+002, 2.922738e+004
3.351806e+002, 2.932872e+004
3.356627e+002, 2.941538e+004
3.361448e+002, 2.948811e+004
3.366270e+002, 2.953733e+004
3.371091e+002, 2.954998e+004
3.375912e+002, 2.954807e+004
3.380733e+002, 2.958624e+004
3.385554e+002, 2.968354e+004
3.390375e+002, 2.975821e+004
3.395197e+002, 2.976638e+004
3.400018e+002, 2.970302e+004
3.404839e+002, 2.967237e+004
3.409660e+002, 2.968476e+004
3.414481e+002, 2.970848e+004
3.419302e+002, 2.969918e+004
3.424124e+002, 2.965391e+004
3.428945e+002, 2.961336e+004
3.433766e+002, 2.959305e+004
3.438587e+002, 2.958674e+004
3.443408e+002, 2.956103e+004
3.448229e+002, 2.951296e+004
3.453051e+002, 2.946585e+004
3.457872e+002, 2.944186e+004
3.462693e+002, 2.943855e+004
3.467514e+002, 2.944128e+004
3.472335e+002, 2.945152e+004
3.477156e+002, 2.946094e+004
3.481978e+002, 2.944981e+004
3.486799e+002, 2.941977e+004
3.491620e+002, 2.938847e+004
3.496441e+002, 2.936814e+004
3.501262e+002, 2.935571e+004
3.506083e+002, 2.934149e+004
3.510905e+002, 2.932195e+004
3.515726e+002, 2.930930e+004
3.520547e+002, 2.932191e+004
3.525368e+002, 2.935378e+004
3.530189e+002, 2.938678e+004
3.535010e+002, 2.940632e+004
3.539832e+002, 2.942435e+004
3.544653e+002, 2.945889e+004
3.549474e+002, 2.951151e+004
3.554295e+002, 2.956241e+004
3.559116e+002, 2.958407e+004
3.563937e+002, 2.959648e+004
3.568759e+002, 2.962945e+004
3.573580e+002, 2.971861e+004
3.578401e+002, 2.981150e+004
3.583222e+002, 2.986413e+004
3.588043e+002, 2.988416e+004
3.592864e+002, 2.991431e+004
3.597686e+002, 2.998369e+004
3.602507e+002, 3.007007e+004
3.607328e+002, 3.015345e+004
3.612149e+002, 3.022603e+004
3.616970e+002, 3.030153e+004
3.621791e+002, 3.039495e+004
3.626613e+002, 3.049518e+004
3.631434e+002, 3.057697e+004
3.636255e+002, 3.059580e+004
3.641076e+002, 3.062293e+004
3.645897e+002, 3.069745e+004
3.650718e+002, 3.083733e+004
3.655540e+002, 3.097103e+004
3.660361e+002, 3.108996e+004
3.665182e+002, 3.119472e+004
3.670003e+002, 3.128609e+004
3.674824e+002, 3.134745e+004
3.679645e+002, 3.141322e+004
3.684467e+002, 3.149818e+004
3.689288e+002, 3.160300e+004
3.694109e+002, 3.168794e+004
3.698930e+002, 3.173952e+004
3.703751e+002, 3.178268e+004
3.708572e+002, 3.183447e+004
3.713394e+002, 3.190047e+004
3.718215e+002, 3.196615e+004
3.723036e+002, 3.203523e+004
3.727857e+002, 3.210312e+004
3.732678e+002, 3.215272e+004
3.737499e+002, 3.217590e+004
3.742321e+002, 3.219519e+004
3.747142e+002, 3.221933e+004
3.751963e+002, 3.224761e+004
3.756784e+002, 3.228368e+004
3.761605e+002, 3.232912e+004
3.766426e+002, 3.237940e+004
3.771248e+002, 3.242765e+004
3.776069e+002, 3.247504e+004
3.780890e+002, 3.251531e+004
3.785711e+002, 3.254341e+004
3.790532e+002, 3.256176e+004
3.795353e+002, 3.258721e+004
3.800175e+002, 3.262159e+004
3.804996e+002, 3.265574e+004
3.809817e+002, 3.267262e+004
3.814638e+002, 3.267645e+004
3.819459e+002, 3.270641e+004
3.824280e+002, 3.277732e+004
3.829102e+002, 3.286866e+004
3.833923e+002, 3.293302e+004
3.838744e+002, 3.297434e+004
3.843565e+002, 3.302990e+004
3.848386e+002, 3.313082e+004
3.853207e+002, 3.326144e+004
3.858029e+002, 3.338938e+004
3.862850e+002, 3.351352e+004
3.867671e+002, 3.362986e+004
3.872492e+002, 3.372770e+004
3.877313e+002, 3.381521e+004
3.882134e+002, 3.390915e+004
3.886956e+002, 3.401523e+004
3.891777e+002, 3.413137e+004
3.896598e+002, 3.425808e+004
3.901419e+002, 3.439495e+004
3.906240e+002, 3.453830e+004
3.911061e+002, 3.469462e+004
3.915883e+002, 3.485477e+004
3.920704e+002, 3.500835e+004
3.925525e+002, 3.513789e+004
3.930346e+002, 3.528116e+004
3.935167e+002, 3.546764e+004
3.939988e+002, 3.568466e+004
3.944810e+002, 3.589834e+004
3.949631e+002, 3.609841e+004
3.954452e+002, 3.629109e+004
3.959273e+002, 3.648305e+004
3.964094e+002, 3.668302e+004
3.968915e+002, 3.685657e+004
3.973737e+002, 3.700120e+004
3.978558e+002, 3.711427e+004
3.983379e+002, 3.719255e+004
3.988200e+002, 3.723184e+004
3.993021e+002, 3.723871e+004
3.997842e+002, 3.721004e+004
4.002664e+002, 3.714563e+004
4.007485e+002, 3.706426e+004
4.012306e+002, 3.697300e+004
4.017127e+002, 3.685811e+004
4.021948e+002, 3.670813e+004
4.026769e+002, 3.650574e+004
4.031591e+002, 3.630418e+004
4.036412e+002, 3.610212e+004
4.041233e+002, 3.590487e+004
4.046054e+002, 3.572080e+004
4.050875e+002, 3.555397e+004
4.055696e+002, 3.539416e+004
4.060518e+002, 3.523578e+004
4.065339e+002, 3.507871e+004
4.070160e+002, 3.493848e+004
4.074981e+002, 3.481735e+004
4.079802e+002, 3.471224e+004
4.084623e+002, 3.462214e+004
4.089445e+002, 3.454701e+004
4.094266e+002, 3.448265e+004
4.099087e+002, 3.443323e+004
4.103908e+002, 3.439062e+004
4.108729e+002, 3.432704e+004
4.113550e+002, 3.424378e+004
4.118372e+002, 3.417756e+004
4.123193e+002, 3.416386e+004
4.128014e+002, 3.418553e+004
4.132835e+002, 3.420252e+004
4.137656e+002, 3.420912e+004
4.142477e+002, 3.421180e+004
4.147299e+002, 3.420644e+004
4.152120e+002, 3.420121e+004
4.156941e+002, 3.421639e+004
4.161762e+002, 3.427828e+004
4.166583e+002, 3.435283e+004
4.171404e+002, 3.440732e+004
4.176226e+002, 3.444176e+004
4.181047e+002, 3.447695e+004
4.185868e+002, 3.452363e+004
4.190689e+002, 3.457706e+004
4.195510e+002, 3.463491e+004
4.200331e+002, 3.471055e+004
4.205153e+002, 3.477055e+004
4.209974e+002, 3.479355e+004
4.214795e+002, 3.479056e+004
4.219616e+002, 3.478801e+004
4.224437e+002, 3.480163e+004
4.229258e+002, 3.481060e+004
4.234080e+002, 3.480126e+004
4.238901e+002, 3.476179e+004
4.243722e+002, 3.474666e+004
4.248543e+002, 3.478450e+004
4.253364e+002, 3.483804e+004
4.258185e+002, 3.487075e+004
4.263007e+002, 3.487195e+004
4.267828e+002, 3.486843e+004
4.272649e+002, 3.485940e+004
4.277470e+002, 3.484730e+004
4.282291e+002, 3.484950e+004
4.287112e+002, 3.487246e+004
4.291934e+002, 3.489779e+004
4.296755e+002, 3.491495e+004
4.301576e+002, 3.492137e+004
4.306397e+002, 3.492856e+004
4.311218e+002, 3.493359e+004
4.316039e+002, 3.494393e+004
4.320861e+002, 3.497838e+004
4.325682e+002, 3.503918e+004
4.330503e+002, 3.508895e+004
4.335324e+002, 3.511379e+004
4.340145e+002, 3.511857e+004
4.344966e+002, 3.511757e+004
4.349788e+002, 3.511098e+004
4.354609e+002, 3.510340e+004
4.359430e+002, 3.509451e+004
4.364251e+002, 3.508781e+004
4.369072e+002, 3.509309e+004
4.373893e+002, 3.511359e+004
4.378715e+002, 3.514317e+004
4.383536e+002, 3.517941e+004
4.388357e+002, 3.521963e+004
4.393178e+002, 3.525637e+004
4.397999e+002, 3.528180e+004
4.402820e+002, 3.530402e+004
4.407642e+002, 3.533341e+004
4.412463e+002, 3.537045e+004
4.417284e+002, 3.539655e+004
4.422105e+002, 3.538201e+004
4.426926e+002, 3.536010e+004
4.431747e+002, 3.536352e+004
4.436569e+002, 3.542485e+004
4.441390e+002, 3.548324e+004
4.446211e+002, 3.551663e+004
4.451032e+002, 3.553221e+004
4.455853e+002, 3.554991e+004
4.460674e+002, 3.557295e+004
4.465496e+002, 3.560012e+004
4.470317e+002, 3.563250e+004
4.475138e+002, 3.567348e+004
4.479959e+002, 3.571193e+004
4.484780e+002, 3.575322e+004
4.489601e+002, 3.579015e+004
4.494423e+002, 3.581456e+004
4.499244e+002, 3.581668e+004
4.504065e+002, 3.582724e+004
4.508886e+002, 3.584840e+004
4.513707e+002, 3.588173e+004
4.518528e+002, 3.593748e+004
4.523350e+002, 3.602120e+004
4.528171e+002, 3.611054e+004
4.532992e+002, 3.619938e+004
4.537813e+002, 3.628771e+004
4.542634e+002, 3.635403e+004
4.547455e+002, 3.639410e+004
4.552277e+002, 3.642320e+004
4.557098e+002, 3.645821e+004
4.561919e+002, 3.649864e+004
4.566740e+002, 3.654648e+004
4.571561e+002, 3.660263e+004
4.576382e+002, 3.666510e+004
4.581204e+002, 3.673179e+004
4.586025e+002, 3.680249e+004
4.590846e+002, 3.687016e+004
4.595667e+002, 3.693045e+004
4.600488e+002, 3.698621e+004
4.605309e+002, 3.704209e+004
4.610131e+002, 3.709965e+004
4.614952e+002, 3.715421e+004
4.619773e+002, 3.719407e+004
4.624594e+002, 3.723008e+004
4.629415e+002, 3.727858e+004
4.634236e+002, 3.735165e+004
4.639058e+002, 3.743207e+004
4.643879e+002, 3.752029e+004
4.648700e+002, 3.761276e+004
4.653521e+002, 3.769060e+004
4.658342e+002, 3.774383e+004
4.663163e+002, 3.778548e+004
4.667985e+002, 3.782080e+004
4.672806e+002, 3.783558e+004
4.677627e+002, 3.787107e+004
4.682448e+002, 3.793970e+004
4.687269e+002, 3.802374e+004
4.692090e+002, 3.809928e+004
4.696912e+002, 3.816382e+004
4.701733e+002, 3.822514e+004
4.706554e+002, 3.828298e+004
4.711375e+002, 3.833818e+004
4.716196e+002, 3.840209e+004
4.721017e+002, 3.847896e+004
4.725839e+002, 3.855248e+004
4.730660e+002, 3.861548e+004
4.735481e+002, 3.866779e+004
4.740302e+002, 3.869970e+004
4.745123e+002, 3.870476e+004
4.749944e+002, 3.870609e+004
4.754766e+002, 3.874313e+004
4.759587e+002, 3.881086e+004
4.764408e+002, 3.887466e+004
4.769229e+002, 3.891395e+004
4.774050e+002, 3.894540e+004
4.778871e+002, 3.900025e+004
4.783693e+002, 3.907625e+004
4.788514e+002, 3.915005e+004
4.793335e+002, 3.919788e+004
4.798156e+002, 3.923773e+004
4.802977e+002, 3.929183e+004
4.807798e+002, 3.936702e+004
4.812620e+002, 3.944468e+004
4.817441e+002, 3.951641e+004
4.822262e+002, 3.958236e+004
4.827083e+002, 3.964295e+004
4.831904e+002, 3.969664e+004
4.836725e+002, 3.974553e+004
4.841547e+002, 3.978614e+004
4.846368e+002, 3.981900e+004
4.851189e+002, 3.985710e+004
4.856010e+002, 3.990159e+004
4.860831e+002, 3.995197e+004
4.865652e+002, 4.000874e+004
4.870474e+002, 4.008123e+004
4.875295e+002, 4.013859e+004
4.880116e+002, 4.016582e+004
4.884937e+002, 4.018826e+004
4.889758e+002, 4.025029e+004
4.894579e+002, 4.037597e+004
4.899401e+002, 4.046537e+004
4.904222e+002, 4.048073e+004
4.909043e+002, 4.044335e+004
4.913864e+002, 4.045984e+004
4.918685e+002, 4.053749e+004
4.923506e+002, 4.061973e+004
4.928328e+002, 4.066464e+004
4.933149e+002, 4.068036e+004
4.937970e+002, 4.070226e+004
4.942791e+002, 4.073225e+004
4.947612e+002, 4.077439e+004
4.952433e+002, 4.084112e+004
4.957255e+002, 4.092477e+004
4.962076e+002, 4.100623e+004
4.966897e+002, 4.108036e+004
4.971718e+002, 4.114832e+004
4.976539e+002, 4.120488e+004
4.981360e+002, 4.125372e+004
4.986182e+002, 4.130989e+004
4.991003e+002, 4.139232e+004
4.995824e+002, 4.147714e+004
5.000645e+002, 4.153830e+004
5.005466e+002, 4.156273e+004
5.010287e+002, 4.161463e+004
5.015109e+002, 4.174323e+004
5.019930e+002, 4.189427e+004
5.024751e+002, 4.201200e+004
5.029572e+002, 4.203885e+004
5.034393e+002, 4.209198e+004
5.039214e+002, 4.219509e+004
5.044036e+002, 4.233329e+004
5.048857e+002, 4.245892e+004
5.053678e+002, 4.257348e+004
5.058499e+002, 4.267487e+004
5.063320e+002, 4.275727e+004
5.068141e+002, 4.281839e+004
5.072963e+002, 4.289829e+004
5.077784e+002, 4.300158e+004
5.082605e+002, 4.311488e+004
5.087426e+002, 4.322500e+004
5.092247e+002, 4.333272e+004
5.097068e+002, 4.345186e+004
5.101890e+002, 4.358837e+004
5.106711e+002, 4.373013e+004
5.111532e+002, 4.385643e+004
5.116353e+002, 4.396852e+004
5.121174e+002, 4.407015e+004
5.125995e+002, 4.415843e+004
5.130817e+002, 4.424072e+004
5.135638e+002, 4.432875e+004
5.140459e+002, 4.442201e+004
5.145280e+002, 4.450680e+004
5.150101e+002, 4.457029e+004
5.154922e+002, 4.462397e+004
5.159744e+002, 4.467852e+004
5.164565e+002, 4.474088e+004
5.169386e+002, 4.479695e+004
5.174207e+002, 4.482927e+004
5.179028e+002, 4.485543e+004
5.183849e+002, 4.490405e+004
5.188671e+002, 4.501858e+004
5.193492e+002, 4.511382e+004
5.198313e+002, 4.515758e+004
5.203134e+002, 4.515497e+004
5.207955e+002, 4.519460e+004
5.212776e+002, 4.530357e+004
5.217598e+002, 4.541416e+004
5.222419e+002, 4.548671e+004
5.227240e+002, 4.551547e+004
5.232061e+002, 4.553665e+004
5.236882e+002, 4.554982e+004
5.241703e+002, 4.555696e+004
5.246525e+002, 4.555562e+004
5.251346e+002, 4.554718e+004
5.256167e+002, 4.555504e+004
5.260988e+002, 4.559798e+004
5.265809e+002, 4.564708e+004
5.270630e+002, 4.564266e+004
5.275452e+002, 4.559243e+004
5.280273e+002, 4.553911e+004
5.285094e+002, 4.548989e+004
5.289915e+002, 4.546092e+004
5.294736e+002, 4.547945e+004
5.299557e+002, 4.554898e+004
5.304379e+002, 4.561922e+004
5.309200e+002, 4.566080e+004
5.314021e+002, 4.568772e+004
5.318842e+002, 4.571339e+004
5.323663e+002, 4.573507e+004
5.328484e+002, 4.576296e+004
5.333306e+002, 4.579821e+004
5.338127e+002, 4.584084e+004
5.342948e+002, 4.589070e+004
5.347769e+002, 4.596801e+004
5.352590e+002, 4.602973e+004
5.357411e+002, 4.606190e+004
5.362233e+002, 4.606580e+004
5.367054e+002, 4.607556e+004
5.371875e+002, 4.608810e+004
5.376696e+002, 4.611419e+004
5.381517e+002, 4.617332e+004
5.386339e+002, 4.627095e+004
5.391160e+002, 4.632054e+004
5.395981e+002, 4.630570e+004
5.400802e+002, 4.627630e+004
5.405623e+002, 4.629696e+004
5.410444e+002, 4.636216e+004
5.415266e+002, 4.644165e+004
5.420087e+002, 4.653117e+004
5.424908e+002, 4.662354e+004
5.429729e+002, 4.671184e+004
5.434550e+002, 4.679337e+004
5.439371e+002, 4.686118e+004
5.444193e+002, 4.689289e+004
5.449014e+002, 4.692148e+004
5.453835e+002, 4.697840e+004
5.458656e+002, 4.706748e+004
5.463477e+002, 4.715420e+004
5.468298e+002, 4.722147e+004
5.473120e+002, 4.728277e+004
5.477941e+002, 4.734845e+004
5.482762e+002, 4.741782e+004
5.487583e+002, 4.749514e+004
5.492404e+002, 4.759284e+004
5.497225e+002, 4.769474e+004
5.502047e+002, 4.777293e+004
5.506868e+002, 4.781978e+004
5.511689e+002, 4.785677e+004
5.516510e+002, 4.788457e+004
5.521331e+002, 4.790627e+004
5.526152e+002, 4.793891e+004
5.530974e+002, 4.798225e+004
5.535795e+002, 4.804080e+004
5.540616e+002, 4.813495e+004
5.545437e+002, 4.825388e+004
5.550258e+002, 4.832180e+004
5.555079e+002, 4.832919e+004
5.559901e+002, 4.833146e+004
5.564722e+002, 4.839190e+004
5.569543e+002, 4.849043e+004
5.574364e+002, 4.858491e+004
5.579185e+002, 4.866178e+004
5.584006e+002, 4.873302e+004
5.588828e+002, 4.879883e+004
5.593649e+002, 4.886573e+004
5.598470e+002, 4.895093e+004
5.603291e+002, 4.909746e+004
5.608112e+002, 4.922864e+004
5.612933e+002, 4.929398e+004
5.617755e+002, 4.929039e+004
5.622576e+002, 4.932101e+004
5.627397e+002, 4.942873e+004
5.632218e+002, 4.954915e+004
5.637039e+002, 4.965396e+004
5.641860e+002, 4.974525e+004
5.646682e+002, 4.981395e+004
5.651503e+002, 4.985157e+004
5.656324e+002, 4.987953e+004
5.661145e+002, 4.992410e+004
5.665966e+002, 4.998747e+004
5.670787e+002, 5.006139e+004
5.675609e+002, 5.015051e+004
5.680430e+002, 5.024348e+004
5.685251e+002, 5.030339e+004
5.690072e+002, 5.033655e+004
5.694893e+002, 5.038518e+004
5.699714e+002, 5.049195e+004
5.704536e+002, 5.061977e+004
5.709357e+002, 5.070836e+004
5.714178e+002, 5.075904e+004
5.718999e+002, 5.081920e+004
5.723820e+002, 5.093149e+004
5.728641e+002, 5.105876e+004
5.733463e+002, 5.116452e+004
5.738284e+002, 5.123353e+004
5.743105e+002, 5.130623e+004
5.747926e+002, 5.139114e+004
5.752747e+002, 5.148703e+004
5.757568e+002, 5.159253e+004
5.762390e+002, 5.173217e+004
5.767211e+002, 5.184819e+004
5.772032e+002, 5.191954e+004
5.776853e+002, 5.196414e+004
5.781674e+002, 5.204426e+004
5.786495e+002, 5.217155e+004
5.791317e+002, 5.230144e+004
5.796138e+002, 5.242033e+004
5.800959e+002, 5.252743e+004
5.805780e+002, 5.260880e+004
5.810601e+002, 5.266316e+004
5.815422e+002, 5.271715e+004
5.820244e+002, 5.279727e+004
5.825065e+002, 5.289478e+004
5.829886e+002, 5.298324e+004
5.834707e+002, 5.305804e+004
5.839528e+002, 5.313834e+004
5.844349e+002, 5.324661e+004
5.849171e+002, 5.337041e+004
5.853992e+002, 5.349141e+004
5.858813e+002, 5.361638e+004
5.863634e+002, 5.372280e+004
5.868455e+002, 5.378057e+004
5.873276e+002, 5.381014e+004
5.878098e+002, 5.386605e+004
5.882919e+002, 5.398548e+004
5.887740e+002, 5.410467e+004
5.892561e+002, 5.420638e+004
5.897382e+002, 5.429020e+004
5.902203e+002, 5.436271e+004
5.907025e+002, 5.441880e+004
5.911846e+002, 5.447111e+004
5.916667e+002, 5.452740e+004
5.921488e+002, 5.458834e+004
5.926309e+002, 5.465029e+004
5.931130e+002, 5.471459e+004
5.935952e+002, 5.477757e+004
5.940773e+002, 5.483709e+004
5.945594e+002, 5.489271e+004
5.950415e+002, 5.493782e+004
5.955236e+002, 5.496477e+004
5.960057e+002, 5.499474e+004
5.964879e+002, 5.504896e+004
5.969700e+002, 5.512424e+004
5.974521e+002, 5.521254e+004
5.979342e+002, 5.532869e+004
5.984163e+002, 5.544070e+004
5.988984e+002, 5.552976e+004
5.993806e+002, 5.559734e+004
5.998627e+002, 5.565870e+004
6.003448e+002, 5.570286e+004
6.008269e+002, 5.575326e+004
6.013090e+002, 5.582330e+004
6.017911e+002, 5.592007e+004
6.022733e+002, 5.600864e+004
6.027554e+002, 5.608865e+004
6.032375e+002, 5.616046e+004
6.037196e+002, 5.621543e+004
6.042017e+002, 5.624964e+004
6.046838e+002, 5.631708e+004
6.051660e+002, 5.643141e+004
6.056481e+002, 5.656623e+004
6.061302e+002, 5.667830e+004
6.066123e+002, 5.677211e+004
6.070944e+002, 5.686696e+004
6.075765e+002, 5.696899e+004
6.080587e+002, 5.707736e+004
6.085408e+002, 5.720341e+004
6.090229e+002, 5.733796e+004
6.095050e+002, 5.745332e+004
6.099871e+002, 5.751057e+004
6.104692e+002, 5.756180e+004
6.109514e+002, 5.764372e+004
6.114335e+002, 5.776139e+004
6.119156e+002, 5.786132e+004
6.123977e+002, 5.790774e+004
6.128798e+002, 5.795195e+004
6.133619e+002, 5.802582e+004
6.138441e+002, 5.815402e+004
6.143262e+002, 5.825316e+004
6.148083e+002, 5.831266e+004
6.152904e+002, 5.835933e+004
6.157725e+002, 5.842582e+004
6.162546e+002, 5.851352e+004
6.167368e+002, 5.860606e+004
6.172189e+002, 5.870486e+004
6.177010e+002, 5.880238e+004
6.181831e+002, 5.887566e+004
6.186652e+002, 5.893243e+004
6.191473e+002, 5.900409e+004
6.196295e+002, 5.912425e+004
6.201116e+002, 5.925343e+004
6.205937e+002, 5.934776e+004
6.210758e+002, 5.941286e+004
6.215579e+002, 5.948064e+004
6.220400e+002, 5.956342e+004
6.225222e+002, 5.965389e+004
6.230043e+002, 5.975148e+004
6.234864e+002, 5.985943e+004
6.239685e+002, 5.995341e+004
6.244506e+002, 6.000991e+004
6.249327e+002, 6.006918e+004
6.254149e+002, 6.015924e+004
6.258970e+002, 6.028922e+004
6.263791e+002, 6.042209e+004
6.268612e+002, 6.056236e+004
6.273433e+002, 6.069538e+004
6.278254e+002, 6.079363e+004
6.283076e+002, 6.085896e+004
6.287897e+002, 6.093407e+004
6.292718e+002, 6.103489e+004
6.297539e+002, 6.114247e+004
6.302360e+002, 6.121214e+004
6.307181e+002, 6.125990e+004
6.312003e+002, 6.133543e+004
6.316824e+002, 6.149201e+004
6.321645e+002, 6.166466e+004
6.326466e+002, 6.180809e+004
6.331287e+002, 6.192402e+004
6.336108e+002, 6.202145e+004
6.340930e+002, 6.207782e+004
6.345751e+002, 6.213979e+004
6.350572e+002, 6.223657e+004
6.355393e+002, 6.238108e+004
6.360214e+002, 6.249701e+004
6.365035e+002, 6.256036e+004
6.369857e+002, 6.262411e+004
6.374678e+002, 6.273554e+004
6.379499e+002, 6.290474e+004
6.384320e+002, 6.304068e+004
6.389141e+002, 6.313026e+004
6.393962e+002, 6.320284e+004
6.398784e+002, 6.329530e+004
6.403605e+002, 6.340364e+004
6.408426e+002, 6.351423e+004
6.413247e+002, 6.362145e+004
6.418068e+002, 6.373147e+004
6.422889e+002, 6.384983e+004
6.427711e+002, 6.397701e+004
6.432532e+002, 6.411679e+004
6.437353e+002, 6.428907e+004
6.442174e+002, 6.445548e+004
6.446995e+002, 6.459711e+004
6.451816e+002, 6.471548e+004
6.456638e+002, 6.482808e+004
6.461459e+002, 6.491790e+004
6.466280e+002, 6.502260e+004
6.471101e+002, 6.516203e+004
6.475922e+002, 6.533774e+004
6.480743e+002, 6.549045e+004
6.485565e+002, 6.560723e+004
6.490386e+002, 6.572977e+004
6.495207e+002, 6.589743e+004
6.500028e+002, 6.610223e+004
6.504849e+002, 6.627718e+004
6.509670e+002, 6.641316e+004
6.514492e+002, 6.653569e+004
6.519313e+002, 6.666113e+004
6.524134e+002, 6.679319e+004
6.528955e+002, 6.693905e+004
6.533776e+002, 6.711198e+004
6.538597e+002, 6.728017e+004
6.543419e+002, 6.741381e+004
6.548240e+002, 6.753385e+004
6.553061e+002, 6.767024e+004
6.557882e+002, 6.784573e+004
6.562703e+002, 6.802370e+004
6.567524e+002, 6.818987e+004
6.572346e+002, 6.835427e+004
6.577167e+002, 6.854995e+004
6.581988e+002, 6.879502e+004
6.586809e+002, 6.903119e+004
6.591630e+002, 6.922888e+004
6.596451e+002, 6.940036e+004
6.601273e+002, 6.962177e+004
6.606094e+002, 6.989721e+004
6.610915e+002, 7.018438e+004
6.615736e+002, 7.046164e+004
6.620557e+002, 7.073080e+004
6.625378e+002, 7.098602e+004
6.630200e+002, 7.122667e+004
6.635021e+002, 7.149133e+004
6.639842e+002, 7.182309e+004
6.644663e+002, 7.218327e+004
6.649484e+002, 7.252823e+004
6.654305e+002, 7.283880e+004
6.659127e+002, 7.317559e+004
6.663948e+002, 7.356436e+004
6.668769e+002, 7.398190e+004
6.673590e+002, 7.440460e+004
6.678411e+002, 7.481758e+004
6.683232e+002, 7.526432e+004
6.688054e+002, 7.575693e+004
6.692875e+002, 7.626956e+004
6.697696e+002, 7.673584e+004
6.702517e+002, 7.715366e+004
6.707338e+002, 7.763346e+004
6.712159e+002, 7.820729e+004
6.716981e+002, 7.885136e+004
6.721802e+002, 7.953746e+004
6.726623e+002, 8.025533e+004
6.731444e+002, 8.099438e+004
6.736265e+002, 8.170530e+004
6.741086e+002, 8.245974e+004
6.745908e+002, 8.331487e+004
6.750729e+002, 8.425938e+004
6.755550e+002, 8.525691e+004
6.760371e+002, 8.629827e+004
6.765192e+002, 8.738907e+004
6.770013e+002, 8.855905e+004
6.774835e+002, 8.981835e+004
6.779656e+002, 9.108122e+004
6.784477e+002, 9.234561e+004
6.789298e+002, 9.363771e+004
6.794119e+002, 9.500394e+004
6.798940e+002, 9.646167e+004
6.803762e+002, 9.775331e+004
6.808583e+002, 9.889288e+004
6.813404e+002, 9.983279e+004
6.818225e+002, 1.005852e+005
6.823046e+002, 1.011021e+005
6.827867e+002, 1.012952e+005
6.832689e+002, 1.011320e+005
6.837510e+002, 1.006786e+005
6.842331e+002, 9.992447e+004
6.847152e+002, 9.893296e+004
6.851973e+002, 9.780133e+004
6.856794e+002, 9.644498e+004
6.861616e+002, 9.506668e+004
6.866437e+002, 9.366846e+004
6.871258e+002, 9.227386e+004
6.876079e+002, 9.094093e+004
6.880900e+002, 8.967748e+004
6.885721e+002, 8.849273e+004
6.890543e+002, 8.738880e+004
6.895364e+002, 8.638143e+004
6.900185e+002, 8.550603e+004
6.905006e+002, 8.476475e+004
6.909827e+002, 8.411855e+004
6.914648e+002, 8.357244e+004
6.919470e+002, 8.309044e+004
6.924291e+002, 8.259605e+004
6.929112e+002, 8.209844e+004
6.933933e+002, 8.165045e+004
6.938754e+002, 8.127838e+004
6.943575e+002, 8.096322e+004
6.948397e+002, 8.069009e+004
6.953218e+002, 8.045645e+004
6.958039e+002, 8.028583e+004
6.962860e+002, 8.022139e+004
6.967681e+002, 8.018218e+004
6.972502e+002, 8.012623e+004
6.977324e+002, 8.004534e+004
6.982145e+002, 7.999923e+004
6.986966e+002, 7.999773e+004
6.991787e+002, 8.000476e+004
6.996608e+002, 7.997328e+004
7.001429e+002, 7.991585e+004
7.006251e+002, 7.989339e+004
7.011072e+002, 7.991423e+004
7.015893e+002, 7.996452e+004
7.020714e+002, 8.004992e+004
7.025535e+002, 8.014893e+004
7.030356e+002, 8.022777e+004
7.035178e+002, 8.025228e+004
7.039999e+002, 8.029478e+004
7.044820e+002, 8.040383e+004
7.049641e+002, 8.054082e+004
7.054462e+002, 8.064514e+004
7.059283e+002, 8.066683e+004
7.064105e+002, 8.073147e+004
7.068926e+002, 8.086498e+004
7.073747e+002, 8.104539e+004
7.078568e+002, 8.123520e+004
7.083389e+002, 8.143991e+004
7.088210e+002, 8.159348e+004
7.093032e+002, 8.164848e+004
7.097853e+002, 8.166383e+004
7.102674e+002, 8.176534e+004
7.107495e+002, 8.193646e+004
7.112316e+002, 8.210304e+004
7.117137e+002, 8.222105e+004
7.121959e+002, 8.232213e+004
7.126780e+002, 8.241627e+004
7.131601e+002, 8.250869e+004
7.136422e+002, 8.262721e+004
7.141243e+002, 8.279439e+004
7.146064e+002, 8.297731e+004
7.150886e+002, 8.317295e+004
7.155707e+002, 8.338439e+004
7.160528e+002, 8.354411e+004
7.165349e+002, 8.363812e+004
7.170170e+002, 8.372049e+004
7.174991e+002, 8.382606e+004
7.179813e+002, 8.395180e+004
7.184634e+002, 8.407864e+004
7.189455e+002, 8.420550e+004
7.194276e+002, 8.434127e+004
7.199097e+002, 8.451005e+004
7.203918e+002, 8.468553e+004
7.208740e+002, 8.482214e+004
7.213561e+002, 8.490674e+004
7.218382e+002, 8.500051e+004
7.223203e+002, 8.512969e+004
7.228024e+002, 8.528267e+004
7.232845e+002, 8.545252e+004
7.237667e+002, 8.567245e+004
7.242488e+002, 8.584646e+004
7.247309e+002, 8.595410e+004
7.252130e+002, 8.603844e+004
7.256951e+002, 8.614802e+004
7.261772e+002, 8.628327e+004
7.266594e+002, 8.643541e+004
7.271415e+002, 8.660754e+004
7.276236e+002, 8.677673e+004
7.281057e+002, 8.690832e+004
7.285878e+002, 8.701250e+004
7.290699e+002, 8.711589e+004
7.295521e+002, 8.722190e+004
7.300342e+002, 8.733922e+004
7.305163e+002, 8.749489e+004
7.309984e+002, 8.766274e+004
7.314805e+002, 8.779584e+004
7.319626e+002, 8.784505e+004
7.324448e+002, 8.790391e+004
7.329269e+002, 8.798676e+004
7.334090e+002, 8.809117e+004
7.338911e+002, 8.821513e+004
7.343732e+002, 8.836777e+004
7.348553e+002, 8.849419e+004
7.353375e+002, 8.855833e+004
7.358196e+002, 8.859973e+004
7.363017e+002, 8.873766e+004
7.367838e+002, 8.895687e+004
7.372659e+002, 8.916411e+004
7.377480e+002, 8.929323e+004
7.382302e+002, 8.939801e+004
7.387123e+002, 8.953998e+004
7.391944e+002, 8.970774e+004
7.396765e+002, 8.984289e+004
7.401586e+002, 8.986101e+004
7.406407e+002, 8.990159e+004
7.411229e+002, 9.005173e+004
7.416050e+002, 9.030506e+004
7.420871e+002, 9.047512e+004
7.425692e+002, 9.052786e+004
7.430513e+002, 9.058068e+004
7.435334e+002, 9.069659e+004
7.440156e+002, 9.086963e+004
7.444977e+002, 9.104816e+004
7.449798e+002, 9.123313e+004
7.454619e+002, 9.141033e+004
7.459440e+002, 9.155999e+004
7.464261e+002, 9.169754e+004
7.469083e+002, 9.184366e+004
7.473904e+002, 9.199995e+004
7.478725e+002, 9.215707e+004
7.483546e+002, 9.229794e+004
7.488367e+002, 9.244395e+004
7.493188e+002, 9.261185e+004
7.498010e+002, 9.280504e+004
7.502831e+002, 9.299982e+004
7.507652e+002, 9.321655e+004
7.512473e+002, 9.340142e+004
7.517294e+002, 9.350002e+004
7.522115e+002, 9.351293e+004
7.526937e+002, 9.353483e+004
7.531758e+002, 9.356771e+004
7.536579e+002, 9.363917e+004
7.541400e+002, 9.381535e+004
7.546221e+002, 9.403832e+004
7.551042e+002, 9.420764e+004
7.555864e+002, 9.428861e+004
7.560685e+002, 9.437847e+004
7.565506e+002, 9.455379e+004
7.570327e+002, 9.475221e+004
7.575148e+002, 9.490570e+004
7.579969e+002, 9.495558e+004
7.584791e+002, 9.504591e+004
7.589612e+002, 9.519493e+004
7.594433e+002, 9.536315e+004
7.599254e+002, 9.548536e+004
7.604075e+002, 9.555719e+004
7.608896e+002, 9.569962e+004
7.613718e+002, 9.594604e+004
7.618539e+002, 9.621614e+004
7.623360e+002, 9.641385e+004
7.628181e+002, 9.655422e+004
7.633002e+002, 9.666612e+004
7.637823e+002, 9.674652e+004
7.642645e+002, 9.682467e+004
7.647466e+002, 9.690208e+004
7.652287e+002, 9.699199e+004
7.657108e+002, 9.711765e+004
7.661929e+002, 9.732909e+004
7.666750e+002, 9.751171e+004
7.671572e+002, 9.764798e+004
7.676393e+002, 9.775750e+004
7.681214e+002, 9.787632e+004
7.686035e+002, 9.800507e+004
7.690856e+002, 9.813653e+004
7.695677e+002, 9.826917e+004
7.700499e+002, 9.840383e+004
7.705320e+002, 9.853123e+004
7.710141e+002, 9.866073e+004
7.714962e+002, 9.881749e+004
7.719783e+002, 9.903213e+004
7.724604e+002, 9.925510e+004
7.729426e+002, 9.948681e+004
7.734247e+002, 9.970476e+004
7.739068e+002, 9.985098e+004
7.743889e+002, 9.984284e+004
7.748710e+002, 9.987430e+004
7.753531e+002, 9.999321e+004
7.758353e+002, 1.001670e+005
7.763174e+002, 1.002928e+005
7.767995e+002, 1.003670e+005
7.772816e+002, 1.004741e+005
7.777637e+002, 1.006601e+005
7.782458e+002, 1.008819e+005
7.787280e+002, 1.010811e+005
7.792101e+002, 1.012577e+005
7.796922e+002, 1.014060e+005
7.801743e+002, 1.014758e+005
7.806564e+002, 1.015664e+005
7.811385e+002, 1.017514e+005
7.816207e+002, 1.020075e+005
7.821028e+002, 1.022246e+005
7.825849e+002, 1.023752e+005
7.830670e+002, 1.025182e+005
7.835491e+002, 1.026589e+005
7.840313e+002, 1.028044e+005
7.845134e+002, 1.030054e+005
7.849955e+002, 1.032640e+005
7.854776e+002, 1.034790e+005
7.859597e+002, 1.035774e+005
7.864418e+002, 1.036238e+005
7.869240e+002, 1.037087e+005
7.874061e+002, 1.038279e+005
7.878882e+002, 1.039673e+005
7.883703e+002, 1.041257e+005
7.888524e+002, 1.042938e+005
7.893345e+002, 1.044823e+005
7.898167e+002, 1.046840e+005
7.902988e+002, 1.048302e+005
7.907809e+002, 1.048812e+005
7.912630e+002, 1.049545e+005
7.917451e+002, 1.050990e+005
7.922272e+002, 1.052970e+005
7.927094e+002, 1.054829e+005
7.931915e+002, 1.056560e+005
7.936736e+002, 1.058250e+005
7.941557e+002, 1.059922e+005
7.946378e+002, 1.061581e+005
7.951199e+002, 1.063240e+005
7.956021e+002, 1.064867e+005
7.960842e+002, 1.066424e+005
7.965663e+002, 1.067857e+005
7.970484e+002, 1.069226e+005
7.975305e+002, 1.070400e+005
7.980126e+002, 1.071440e+005
7.984948e+002, 1.072953e+005
7.989769e+002, 1.075058e+005
7.994590e+002, 1.077360e+005
7.999411e+002, 1.079800e+005
8.004232e+002, 1.082285e+005
8.009053e+002, 1.084283e+005
8.013875e+002, 1.085824e+005
8.018696e+002, 1.087185e+005
8.023517e+002, 1.088283e+005
8.028338e+002, 1.089484e+005
8.033159e+002, 1.091176e+005
8.037980e+002, 1.093312e+005
8.042802e+002, 1.095537e+005
8.047623e+002, 1.097735e+005
8.052444e+002, 1.099994e+005
8.057265e+002, 1.102370e+005
8.062086e+002, 1.104822e+005
8.066907e+002, 1.107122e+005
8.071729e+002, 1.109293e+005
8.076550e+002, 1.111154e+005
8.081371e+002, 1.112463e+005
8.086192e+002, 1.113476e+005
8.091013e+002, 1.114947e+005
8.095834e+002, 1.116803e+005
8.100656e+002, 1.118622e+005
8.105477e+002, 1.120132e+005
8.110298e+002, 1.121555e+005
8.115119e+002, 1.123076e+005
8.119940e+002, 1.124691e+005
8.124761e+002, 1.126268e+005
8.129583e+002, 1.127691e+005
8.134404e+002, 1.129237e+005
8.139225e+002, 1.131027e+005
8.144046e+002, 1.133019e+005
8.148867e+002, 1.135061e+005
8.153688e+002, 1.137149e+005
8.158510e+002, 1.139118e+005
8.163331e+002, 1.140679e+005
8.168152e+002, 1.142178e+005
8.172973e+002, 1.144320e+005
8.177794e+002, 1.146928e+005
8.182615e+002, 1.149302e+005
8.187437e+002, 1.150554e+005
8.192258e+002, 1.151957e+005
8.197079e+002, 1.154409e+005
8.201900e+002, 1.157694e+005
8.206721e+002, 1.160063e+005
8.211542e+002, 1.161103e+005
8.216364e+002, 1.162156e+005
8.221185e+002, 1.163752e+005
8.226006e+002, 1.165631e+005
8.230827e+002, 1.166979e+005
8.235648e+002, 1.167843e+005
8.240469e+002, 1.168657e+005
8.245291e+002, 1.169588e+005
8.250112e+002, 1.170643e+005
8.254933e+002, 1.171873e+005
8.259754e+002, 1.173262e+005
8.264575e+002, 1.174744e+005
8.269396e+002, 1.176274e+005
8.274218e+002, 1.177955e+005
8.279039e+002, 1.179861e+005
8.283860e+002, 1.181929e+005
8.288681e+002, 1.183888e+005
8.293502e+002, 1.185759e+005
8.298323e+002, 1.187458e+005
8.303145e+002, 1.188854e+005
8.307966e+002, 1.190176e+005
8.312787e+002, 1.191918e+005
8.317608e+002, 1.193971e+005
8.322429e+002, 1.195951e+005
8.327250e+002, 1.197360e+005
8.332072e+002, 1.198999e+005
8.336893e+002, 1.201742e+005
8.341714e+002, 1.205037e+005
8.346535e+002, 1.207332e+005
8.351356e+002, 1.207704e+005
8.356177e+002, 1.208696e+005
8.360999e+002, 1.211063e+005
8.365820e+002, 1.214044e+005
8.370641e+002, 1.215622e+005
8.375462e+002, 1.215976e+005
8.380283e+002, 1.217241e+005
8.385104e+002, 1.220458e+005
8.389926e+002, 1.224190e+005
8.394747e+002, 1.226939e+005
8.399568e+002, 1.229035e+005
8.404389e+002, 1.231098e+005
8.409210e+002, 1.233337e+005
8.414031e+002, 1.235514e+005
8.418853e+002, 1.237514e+005
8.423674e+002, 1.239416e+005
8.428495e+002, 1.241263e+005
8.433316e+002, 1.242965e+005
8.438137e+002, 1.245083e+005
8.442958e+002, 1.247858e+005
8.447780e+002, 1.250666e+005
8.452601e+002, 1.252461e+005
8.457422e+002, 1.253567e+005
8.462243e+002, 1.254815e+005
8.467064e+002, 1.256456e+005
8.471885e+002, 1.258194e+005
8.476707e+002, 1.259809e+005
8.481528e+002, 1.261462e+005
8.486349e+002, 1.263383e+005
8.491170e+002, 1.266125e+005
8.495991e+002, 1.268100e+005
8.500812e+002, 1.268997e+005
8.505634e+002, 1.269637e+005
8.510455e+002, 1.271035e+005
8.515276e+002, 1.273098e+005
8.520097e+002, 1.274976e+005
8.524918e+002, 1.276549e+005
8.529739e+002, 1.278160e+005
8.534561e+002, 1.279892e+005
8.539382e+002, 1.281961e+005
8.544203e+002, 1.284769e+005
8.549024e+002, 1.288801e+005
8.553845e+002, 1.292134e+005
8.558666e+002, 1.293958e+005
8.563488e+002, 1.295371e+005
8.568309e+002, 1.296865e+005
8.573130e+002, 1.298328e+005
8.577951e+002, 1.300831e+005
8.582772e+002, 1.304482e+005
8.587593e+002, 1.308139e+005
8.592415e+002, 1.310738e+005
8.597236e+002, 1.312663e+005
8.602057e+002, 1.314576e+005
8.606878e+002, 1.316524e+005
8.611699e+002, 1.318415e+005
8.616520e+002, 1.320301e+005
8.621342e+002, 1.322065e+005
8.626163e+002, 1.323617e+005
8.630984e+002, 1.324951e+005
8.635805e+002, 1.326340e+005
8.640626e+002, 1.327672e+005
8.645447e+002, 1.329470e+005
8.650269e+002, 1.332522e+005
8.655090e+002, 1.336253e+005
8.659911e+002, 1.338253e+005
8.664732e+002, 1.338756e+005
8.669553e+002, 1.339327e+005
8.674374e+002, 1.340638e+005
8.679196e+002, 1.342608e+005
8.684017e+002, 1.345527e+005
8.688838e+002, 1.349183e+005
8.693659e+002, 1.352144e+005
8.698480e+002, 1.353709e+005
8.703301e+002, 1.355486e+005
8.708123e+002, 1.358024e+005
8.712944e+002, 1.361047e+005
8.717765e+002, 1.363798e+005
8.722586e+002, 1.366220e+005
8.727407e+002, 1.368171e+005
8.732228e+002, 1.369124e+005
8.737050e+002, 1.370052e+005
8.741871e+002, 1.372190e+005
8.746692e+002, 1.375054e+005
8.751513e+002, 1.377624e+005
8.756334e+002, 1.379258e+005
8.761155e+002, 1.380997e+005
8.765977e+002, 1.383203e+005
8.770798e+002, 1.385560e+005
8.775619e+002, 1.387407e+005
8.780440e+002, 1.388704e+005
8.785261e+002, 1.390230e+005
8.790082e+002, 1.392195e+005
8.794904e+002, 1.394372e+005
8.799725e+002, 1.396573e+005
8.804546e+002, 1.398780e+005
8.809367e+002, 1.400943e+005
8.814188e+002, 1.402958e+005
8.819009e+002, 1.405110e+005
8.823831e+002, 1.407788e+005
8.828652e+002, 1.410473e+005
8.833473e+002, 1.412558e+005
8.838294e+002, 1.413872e+005
8.843115e+002, 1.415273e+005
8.847936e+002, 1.416720e+005
8.852758e+002, 1.418575e+005
8.857579e+002, 1.421547e+005
8.862400e+002, 1.425160e+005
8.867221e+002, 1.428288e+005
8.872042e+002, 1.430767e+005
8.876863e+002, 1.433227e+005
8.881685e+002, 1.436304e+005
8.886506e+002, 1.439304e+005
8.891327e+002, 1.441501e+005
8.896148e+002, 1.442657e+005
8.900969e+002, 1.444831e+005
8.905790e+002, 1.448352e+005
8.910612e+002, 1.452015e+005
8.915433e+002, 1.455027e+005
8.920254e+002, 1.457573e+005
8.925075e+002, 1.460412e+005
8.929896e+002, 1.463482e+005
8.934717e+002, 1.466328e+005
8.939539e+002, 1.468718e+005
8.944360e+002, 1.470786e+005
8.949181e+002, 1.472375e+005
8.954002e+002, 1.473654e+005
8.958823e+002, 1.475539e+005
8.963644e+002, 1.478472e+005
8.968466e+002, 1.481348e+005
8.973287e+002, 1.483960e+005
8.978108e+002, 1.486330e+005
8.982929e+002, 1.488422e+005
8.987750e+002, 1.490317e+005
8.992571e+002, 1.492493e+005
8.997393e+002, 1.495367e+005
9.002214e+002, 1.498250e+005
9.007035e+002, 1.500380e+005
9.011856e+002, 1.502135e+005
9.016677e+002, 1.504098e+005
9.021498e+002, 1.506611e+005
9.026320e+002, 1.509010e+005
9.031141e+002, 1.511082e+005
9.035962e+002, 1.513190e+005
9.040783e+002, 1.516066e+005
9.045604e+002, 1.519605e+005
9.050425e+002, 1.522047e+005
9.055247e+002, 1.522985e+005
9.060068e+002, 1.523780e+005
9.064889e+002, 1.525542e+005
9.069710e+002, 1.527986e+005
9.074531e+002, 1.530927e+005
9.079352e+002, 1.534620e+005
9.084174e+002, 1.537864e+005
9.088995e+002, 1.540447e+005
9.093816e+002, 1.542662e+005
9.098637e+002, 1.544488e+005
9.103458e+002, 1.545953e+005
9.108279e+002, 1.548062e+005
9.113101e+002, 1.550820e+005
9.117922e+002, 1.553704e+005
9.122743e+002, 1.556480e+005
9.127564e+002, 1.559065e+005
9.132385e+002, 1.561087e+005
9.137206e+002, 1.562683e+005
9.142028e+002, 1.564886e+005
9.146849e+002, 1.568922e+005
9.151670e+002, 1.572534e+005
9.156491e+002, 1.574941e+005
9.161312e+002, 1.576465e+005
9.166133e+002, 1.578218e+005
9.170955e+002, 1.580221e+005
9.175776e+002, 1.582615e+005
9.180597e+002, 1.585529e+005
9.185418e+002, 1.588801e+005
9.190239e+002, 1.592468e+005
9.195060e+002, 1.596315e+005
9.199882e+002, 1.599865e+005
9.204703e+002, 1.602823e+005
9.209524e+002, 1.605655e+005
9.214345e+002, 1.608184e+005
9.219166e+002, 1.610752e+005
9.223987e+002, 1.613863e+005
9.228809e+002, 1.617557e+005
9.233630e+002, 1.620964e+005
9.238451e+002, 1.623983e+005
9.243272e+002, 1.626733e+005
9.248093e+002, 1.629155e+005
9.252914e+002, 1.631453e+005
9.257736e+002, 1.633854e+005
9.262557e+002, 1.636416e+005
9.267378e+002, 1.639098e+005
9.272199e+002, 1.642066e+005
9.277020e+002, 1.645001e+005
9.281841e+002, 1.647808e+005
9.286663e+002, 1.650488e+005
9.291484e+002, 1.652682e+005
9.296305e+002, 1.654384e+005
9.301126e+002, 1.656235e+005
9.305947e+002, 1.658834e+005
9.310768e+002, 1.661721e+005
9.315590e+002, 1.664192e+005
9.320411e+002, 1.666398e+005
9.325232e+002, 1.668842e+005
9.330053e+002, 1.672204e+005
9.334874e+002, 1.675241e+005
9.339695e+002, 1.677549e+005
9.344517e+002, 1.679398e+005
9.349338e+002, 1.681473e+005
9.354159e+002, 1.683765e+005
9.358980e+002, 1.686304e+005
9.363801e+002, 1.689189e+005
9.368622e+002, 1.691987e+005
9.373444e+002, 1.694017e+005
9.378265e+002, 1.695625e+005
9.383086e+002, 1.697339e+005
9.387907e+002, 1.699246e+005
9.392728e+002, 1.701315e+005
9.397549e+002, 1.703386e+005
9.402371e+002, 1.705714e+005
9.407192e+002, 1.708772e+005
9.412013e+002, 1.712576e+005
9.416834e+002, 1.715509e+005
9.421655e+002, 1.717474e+005
9.426476e+002, 1.719024e+005
9.431298e+002, 1.719879e+005
9.436119e+002, 1.721003e+005
9.440940e+002, 1.723799e+005
9.445761e+002, 1.728280e+005
9.450582e+002, 1.732196e+005
9.455403e+002, 1.734588e+005
9.460225e+002, 1.736857e+005
9.465046e+002, 1.739373e+005
9.469867e+002, 1.742114e+005
9.474688e+002, 1.745080e+005
9.479509e+002, 1.748232e+005
9.484330e+002, 1.751498e+005
9.489152e+002, 1.754885e+005
9.493973e+002, 1.758303e+005
9.498794e+002, 1.761498e+005
9.503615e+002, 1.764694e+005
9.508436e+002, 1.768306e+005
9.513257e+002, 1.773001e+005
9.518079e+002, 1.777267e+005
9.522900e+002, 1.781045e+005
9.527721e+002, 1.784352e+005
9.532542e+002, 1.787149e+005
9.537363e+002, 1.789472e+005
9.542184e+002, 1.791467e+005
9.547006e+002, 1.793137e+005
9.551827e+002, 1.794862e+005
9.556648e+002, 1.796890e+005
9.561469e+002, 1.799210e+005
9.566290e+002, 1.802007e+005
9.571111e+002, 1.805444e+005
9.575933e+002, 1.807929e+005
9.580754e+002, 1.808860e+005
9.585575e+002, 1.810005e+005
9.590396e+002, 1.812415e+005
9.595217e+002, 1.815584e+005
9.600038e+002, 1.817499e+005
9.604860e+002, 1.818450e+005
9.609681e+002, 1.819947e+005
9.614502e+002, 1.823245e+005
9.619323e+002, 1.826843e+005
9.624144e+002, 1.829650e+005
9.628965e+002, 1.832132e+005
9.633787e+002, 1.835325e+005
9.638608e+002, 1.839722e+005
9.643429e+002, 1.843673e+005
9.648250e+002, 1.847048e+005
9.653071e+002, 1.849799e+005
9.657892e+002, 1.850980e+005
9.662714e+002, 1.851564e+005
9.667535e+002, 1.854473e+005
9.672356e+002, 1.860554e+005
9.677177e+002, 1.866061e+005
9.681998e+002, 1.868485e+005
9.686819e+002, 1.869875e+005
9.691641e+002, 1.871542e+005
9.696462e+002, 1.873555e+005
9.701283e+002, 1.875688e+005
9.706104e+002, 1.877953e+005
9.710925e+002, 1.880411e+005
9.715746e+002, 1.883090e+005
9.720568e+002, 1.886015e+005
9.725389e+002, 1.889564e+005
9.730210e+002, 1.893472e+005
9.735031e+002, 1.896763e+005
9.739852e+002, 1.898247e+005
9.744673e+002, 1.900004e+005
9.749495e+002, 1.902737e+005
9.754316e+002, 1.906052e+005
9.759137e+002, 1.909416e+005
9.763958e+002, 1.912871e+005
9.768779e+002, 1.915552e+005
9.773600e+002, 1.917120e+005
9.778422e+002, 1.918796e+005
9.783243e+002, 1.922515e+005
9.788064e+002, 1.926867e+005
9.792885e+002, 1.929819e+005
9.797706e+002, 1.930629e+005
9.802527e+002, 1.932183e+005
9.807349e+002, 1.935197e+005
9.812170e+002, 1.938683e+005
9.816991e+002, 1.942135e+005
9.821812e+002, 1.945560e+005
9.826633e+002, 1.948997e+005
9.831454e+002, 1.952419e+005
9.836276e+002, 1.955724e+005
9.841097e+002, 1.958657e+005
9.845918e+002, 1.961591e+005
9.850739e+002, 1.964940e+005
9.855560e+002, 1.968465e+005
9.860381e+002, 1.971483e+005
9.865203e+002, 1.973678e+005
9.870024e+002, 1.975957e+005
9.874845e+002, 1.978432e+005
9.879666e+002, 1.981067e+005
9.884487e+002, 1.983867e+005
9.889308e+002, 1.986792e+005
9.894130e+002, 1.989809e+005
9.898951e+002, 1.992952e+005
9.903772e+002, 1.996014e+005
9.908593e+002, 1.999149e+005
9.913414e+002, 2.001957e+005
9.918235e+002, 2.003937e+005
9.923057e+002, 2.005051e+005
9.927878e+002, 2.006931e+005
9.932699e+002, 2.009664e+005
9.937520e+002, 2.012677e+005
9.942341e+002, 2.015614e+005
9.947162e+002, 2.018670e+005
9.951984e+002, 2.022537e+005
9.956805e+002, 2.026792e+005
9.961626e+002, 2.030180e+005
9.966447e+002, 2.031170e+005
9.971268e+002, 2.032633e+005
9.976089e+002, 2.035190e+005
9.980911e+002, 2.038527e+005
9.985732e+002, 2.042285e+005
9.990553e+002, 2.046471e+005
9.995374e+002, 2.050889e+005
1.000020e+003, 2.055512e+005
1.000502e+003, 2.059675e+005
1.000984e+003, 2.062123e+005
1.001466e+003, 2.064132e+005
1.001948e+003, 2.067115e+005
1.002430e+003, 2.071320e+005
1.002912e+003, 2.074802e+005
1.003394e+003, 2.077015e+005
1.003876e+003, 2.079295e+005
1.004359e+003, 2.082219e+005
1.004841e+003, 2.085612e+005
1.005323e+003, 2.088858e+005
1.005805e+003, 2.092035e+005
1.006287e+003, 2.095313e+005
1.006769e+003, 2.099234e+005
1.007251e+003, 2.102766e+005
1.007733e+003, 2.104591e+005
1.008216e+003, 2.106081e+005
1.008698e+003, 2.109169e+005
1.009180e+003, 2.114497e+005
1.009662e+003, 2.119070e+005
1.010144e+003, 2.122644e+005
1.010626e+003, 2.125829e+005
1.011108e+003, 2.128936e+005
1.011590e+003, 2.132077e+005
1.012072e+003, 2.135438e+005
1.012555e+003, 2.139034e+005
1.013037e+003, 2.142575e+005
1.013519e+003, 2.146088e+005
1.014001e+003, 2.149312e+005
1.014483e+003, 2.152042e+005
1.014965e+003, 2.154501e+005
1.015447e+003, 2.157455e+005
1.015929e+003, 2.160883e+005
1.016411e+003, 2.164514e+005
1.016894e+003, 2.168418e+005
1.017376e+003, 2.172111e+005
1.017858e+003, 2.174999e+005
1.018340e+003, 2.177468e+005
1.018822e+003, 2.179920e+005
1.019304e+003, 2.182270e+005
1.019786e+003, 2.185112e+005
1.020268e+003, 2.188595e+005
1.020751e+003, 2.192233e+005
1.021233e+003, 2.195738e+005
1.021715e+003, 2.199122e+005
1.022197e+003, 2.202403e+005
1.022679e+003, 2.205561e+005
1.023161e+003, 2.208387e+005
1.023643e+003, 2.209922e+005
1.024125e+003, 2.212040e+005
1.024607e+003, 2.215787e+005
1.025090e+003, 2.220481e+005
1.025572e+003, 2.224829e+005
1.026054e+003, 2.228828e+005
1.026536e+003, 2.232629e+005
1.027018e+003, 2.236265e+005
1.027500e+003, 2.239813e+005
1.027982e+003, 2.243588e+005
1.028464e+003, 2.247189e+005
1.028947e+003, 2.250057e+005
1.029429e+003, 2.251908e+005
1.029911e+003, 2.254089e+005
1.030393e+003, 2.256983e+005
1.030875e+003, 2.259779e+005
1.031357e+003, 2.261892e+005
1.031839e+003, 2.263695e+005
1.032321e+003, 2.266226e+005
1.032803e+003, 2.269502e+005
1.033286e+003, 2.273608e+005
1.033768e+003, 2.279844e+005
1.034250e+003, 2.285451e+005
1.034732e+003, 2.288725e+005
1.035214e+003, 2.290894e+005
1.035696e+003, 2.293593e+005
1.036178e+003, 2.296809e+005
1.036660e+003, 2.300702e+005
1.037143e+003, 2.305393e+005
1.037625e+003, 2.310073e+005
1.038107e+003, 2.313884e+005
1.038589e+003, 2.317415e+005
1.039071e+003, 2.321362e+005
1.039553e+003, 2.325768e+005
1.040035e+003, 2.330166e+005
1.040517e+003, 2.334950e+005
1.041000e+003, 2.338878e+005
1.041482e+003, 2.341156e+005
1.041964e+003, 2.342743e+005
1.042446e+003, 2.345960e+005
1.042928e+003, 2.350498e+005
1.043410e+003, 2.354956e+005
1.043892e+003, 2.358973e+005
1.044374e+003, 2.362780e+005
1.044856e+003, 2.366855e+005
1.045339e+003, 2.370435e+005
1.045821e+003, 2.372577e+005
1.046303e+003, 2.372865e+005
1.046785e+003, 2.375067e+005
1.047267e+003, 2.379338e+005
1.047749e+003, 2.384090e+005
1.048231e+003, 2.388553e+005
1.048713e+003, 2.392590e+005
1.049195e+003, 2.395733e+005
1.049677e+003, 2.398270e+005
1.050160e+003, 2.400969e+005
1.050642e+003, 2.403702e+005
1.051124e+003, 2.407183e+005
1.051606e+003, 2.411868e+005
1.052088e+003, 2.416725e+005
1.052570e+003, 2.420148e+005
1.053052e+003, 2.422508e+005
1.053534e+003, 2.425012e+005
1.054017e+003, 2.427795e+005
1.054499e+003, 2.430868e+005
1.054981e+003, 2.434308e+005
1.055463e+003, 2.438001e+005
1.055945e+003, 2.442125e+005
1.056427e+003, 2.446512e+005
1.056909e+003, 2.449949e+005
1.057391e+003, 2.452386e+005
1.057874e+003, 2.454757e+005
1.058356e+003, 2.457432e+005
1.058838e+003, 2.460138e+005
1.059320e+003, 2.461880e+005
1.059802e+003, 2.463714e+005
1.060284e+003, 2.467341e+005
1.060766e+003, 2.474323e+005
1.061248e+003, 2.480313e+005
1.061730e+003, 2.484843e+005
1.062213e+003, 2.489007e+005
1.062695e+003, 2.493793e+005
1.063177e+003, 2.498805e+005
1.063659e+003, 2.502365e+005
1.064141e+003, 2.504779e+005
1.064623e+003, 2.507502e+005
1.065105e+003, 2.510791e+005
1.065587e+003, 2.515021e+005
1.066070e+003, 2.521488e+005
1.066552e+003, 2.528386e+005
1.067034e+003, 2.532557e+005
1.067516e+003, 2.533842e+005
1.067998e+003, 2.536648e+005
1.068480e+003, 2.541563e+005
1.068962e+003, 2.546907e+005
1.069444e+003, 2.551500e+005
1.069927e+003, 2.555574e+005
1.070409e+003, 2.559425e+005
1.070891e+003, 2.563014e+005
1.071373e+003, 2.566261e+005
1.071855e+003, 2.569094e+005
1.072337e+003, 2.571882e+005
1.072819e+003, 2.574680e+005
1.073301e+003, 2.577692e+005
1.073783e+003, 2.581685e+005
1.074266e+003, 2.586141e+005
1.074748e+003, 2.589883e+005
1.075230e+003, 2.592133e+005
1.075712e+003, 2.594964e+005
1.076194e+003, 2.599678e+005
1.076676e+003, 2.604292e+005
1.077158e+003, 2.607497e+005
1.077640e+003, 2.609457e+005
1.078122e+003, 2.612180e+005
1.078604e+003, 2.615564e+005
1.079087e+003, 2.618787e+005
1.079569e+003, 2.621225e+005
1.080051e+003, 2.623513e+005
1.080533e+003, 2.625791e+005
1.081015e+003, 2.628205e+005
1.081497e+003, 2.631058e+005
1.081979e+003, 2.634405e+005
1.082461e+003, 2.637754e+005
1.082944e+003, 2.641082e+005
1.083426e+003, 2.644216e+005
1.083908e+003, 2.646826e+005
1.084390e+003, 2.649209e+005
1.084872e+003, 2.651923e+005
1.085354e+003, 2.654918e+005
1.085836e+003, 2.657002e+005
1.086318e+003, 2.656915e+005
1.086801e+003, 2.658223e+005
1.087283e+003, 2.662211e+005
1.087765e+003, 2.667357e+005
1.088247e+003, 2.671124e+005
1.088729e+003, 2.673763e+005
1.089211e+003, 2.675589e+005
1.089693e+003, 2.676385e+005
1.090175e+003, 2.677954e+005
1.090657e+003, 2.681948e+005
1.091140e+003, 2.686037e+005
1.091622e+003, 2.688886e+005
1.092104e+003, 2.690664e+005
1.092586e+003, 2.692887e+005
1.093068e+003, 2.695507e+005
1.093550e+003, 2.697854e+005
1.094032e+003, 2.699423e+005
1.094514e+003, 2.700973e+005
1.094997e+003, 2.703032e+005
1.095479e+003, 2.705419e+005
1.095961e+003, 2.707930e+005
1.096443e+003, 2.710583e+005
1.096925e+003, 2.713161e+005
1.097407e+003, 2.715598e+005
1.097889e+003, 2.718475e+005
1.098371e+003, 2.722457e+005
1.098854e+003, 2.726948e+005
1.099336e+003, 2.731560e+005
1.099818e+003, 2.736059e+005
1.100300e+003, 2.739571e+005
1.100782e+003, 2.741170e+005
1.101264e+003, 2.742978e+005
1.101746e+003, 2.745198e+005
1.102228e+003, 2.747770e+005
1.102710e+003, 2.750676e+005
1.103193e+003, 2.753861e+005
1.103675e+003, 2.757231e+005
1.104157e+003, 2.760777e+005
1.104639e+003, 2.764608e+005
1.105121e+003, 2.769880e+005
1.105603e+003, 2.774153e+005
1.106085e+003, 2.776062e+005
1.106567e+003, 2.776647e+005
1.107049e+003, 2.779111e+005
1.107531e+003, 2.783287e+005
1.108014e+003, 2.787552e+005
1.108496e+003, 2.791421e+005
1.108978e+003, 2.795595e+005
1.109460e+003, 2.800687e+005
1.109942e+003, 2.806178e+005
1.110424e+003, 2.811853e+005
1.110906e+003, 2.817794e+005
1.111388e+003, 2.821469e+005
1.111871e+003, 2.822706e+005
1.112353e+003, 2.824059e+005
1.112835e+003, 2.826862e+005
1.113317e+003, 2.830367e+005
1.113799e+003, 2.833806e+005
1.114281e+003, 2.837353e+005
1.114763e+003, 2.841413e+005
1.115245e+003, 2.846899e+005
1.115728e+003, 2.850988e+005
1.116210e+003, 2.853412e+005
1.116692e+003, 2.855447e+005
1.117174e+003, 2.857909e+005
1.117656e+003, 2.860801e+005
1.118138e+003, 2.864154e+005
1.118620e+003, 2.867922e+005
1.119102e+003, 2.871934e+005
1.119584e+003, 2.876239e+005
1.120067e+003, 2.880540e+005
1.120549e+003, 2.884738e+005
1.121031e+003, 2.888868e+005
1.121513e+003, 2.893563e+005
1.121995e+003, 2.898210e+005
1.122477e+003, 2.899940e+005
1.122959e+003, 2.898592e+005
1.123441e+003, 2.898386e+005
1.123924e+003, 2.902658e+005
1.124406e+003, 2.907367e+005
1.124888e+003, 2.910770e+005
1.125370e+003, 2.913341e+005
1.125852e+003, 2.916465e+005
1.126334e+003, 2.920106e+005
1.126816e+003, 2.923343e+005
1.127298e+003, 2.925949e+005
1.127781e+003, 2.928396e+005
1.128263e+003, 2.930891e+005
1.128745e+003, 2.933531e+005
1.129227e+003, 2.936548e+005
1.129709e+003, 2.939923e+005
1.130191e+003, 2.942539e+005
1.130673e+003, 2.944329e+005
1.131155e+003, 2.946752e+005
1.131637e+003, 2.950634e+005
1.132120e+003, 2.954970e+005
1.132602e+003, 2.958578e+005
1.133084e+003, 2.962007e+005
1.133566e+003, 2.965988e+005
1.134048e+003, 2.970883e+005
1.134530e+003, 2.975321e+005
1.135012e+003, 2.979170e+005
1.135494e+003, 2.983028e+005
1.135976e+003, 2.987343e+005
1.136458e+003, 2.991932e+005
1.136941e+003, 2.996692e+005
1.137423e+003, 3.001449e+005
1.137905e+003, 3.005761e+005
1.138387e+003, 3.009699e+005
1.138869e+003, 3.012698e+005
1.139351e+003, 3.014093e+005
1.139833e+003, 3.015854e+005
1.140315e+003, 3.020204e+005
1.140798e+003, 3.026261e+005
1.141280e+003, 3.032471e+005
1.141762e+003, 3.038568e+005
1.142244e+003, 3.043276e+005
1.142726e+003, 3.044675e+005
1.143208e+003, 3.046496e+005
1.143690e+003, 3.049738e+005
1.144172e+003, 3.053606e+005
1.144655e+003, 3.057198e+005
1.145137e+003, 3.060412e+005
1.145619e+003, 3.062729e+005
1.146101e+003, 3.064082e+005
1.146583e+003, 3.066148e+005
1.147065e+003, 3.070514e+005
1.147547e+003, 3.075256e+005
1.148029e+003, 3.079703e+005
1.148511e+003, 3.083801e+005
1.148994e+003, 3.087234e+005
1.149476e+003, 3.090078e+005
1.149958e+003, 3.092696e+005
1.150440e+003, 3.094981e+005
1.150922e+003, 3.098137e+005
1.151404e+003, 3.103751e+005
1.151886e+003, 3.109938e+005
1.152368e+003, 3.115273e+005
1.152851e+003, 3.119782e+005
1.153333e+003, 3.124257e+005
1.153815e+003, 3.128656e+005
1.154297e+003, 3.132641e+005
1.154779e+003, 3.135977e+005
1.155261e+003, 3.138979e+005
1.155743e+003, 3.141667e+005
1.156225e+003, 3.144218e+005
1.156708e+003, 3.146840e+005
1.157190e+003, 3.149562e+005
1.157672e+003, 3.152199e+005
1.158154e+003, 3.154748e+005
1.158636e+003, 3.157435e+005
1.159118e+003, 3.160685e+005
1.159600e+003, 3.163861e+005
1.160082e+003, 3.165962e+005
1.160564e+003, 3.167623e+005
1.161047e+003, 3.169956e+005
1.161529e+003, 3.173520e+005
1.162011e+003, 3.176948e+005
1.162493e+003, 3.180238e+005
1.162975e+003, 3.183593e+005
1.163457e+003, 3.187149e+005
1.163939e+003, 3.190873e+005
1.164421e+003, 3.194653e+005
1.164903e+003, 3.198518e+005
1.165385e+003, 3.202621e+005
1.165868e+003, 3.207136e+005
1.166350e+003, 3.211427e+005
1.166832e+003, 3.215344e+005
1.167314e+003, 3.219040e+005
1.167796e+003, 3.222782e+005
1.168278e+003, 3.226276e+005
1.168760e+003, 3.228291e+005
1.169242e+003, 3.229246e+005
1.169725e+003, 3.231976e+005
1.170207e+003, 3.239494e+005
1.170689e+003, 3.245824e+005
1.171171e+003, 3.249952e+005
1.171653e+003, 3.252831e+005
1.172135e+003, 3.255125e+005
1.172617e+003, 3.257360e+005
1.173099e+003, 3.261197e+005
1.173582e+003, 3.266750e+005
1.174064e+003, 3.271381e+005
1.174546e+003, 3.272290e+005
1.175028e+003, 3.274669e+005
1.175510e+003, 3.280513e+005
1.175992e+003, 3.287624e+005
1.176474e+003, 3.291108e+005
1.176956e+003, 3.292152e+005
1.177438e+003, 3.294214e+005
1.177921e+003, 3.298069e+005
1.178403e+003, 3.301716e+005
1.178885e+003, 3.303608e+005
1.179367e+003, 3.306116e+005
1.179849e+003, 3.310490e+005
1.180331e+003, 3.315967e+005
1.180813e+003, 3.320176e+005
1.181295e+003, 3.323305e+005
1.181778e+003, 3.325882e+005
1.182260e+003, 3.327794e+005
1.182742e+003, 3.330152e+005
1.183224e+003, 3.333444e+005
1.183706e+003, 3.337452e+005
1.184188e+003, 3.342292e+005
1.184670e+003, 3.347714e+005
1.185152e+003, 3.351942e+005
1.185635e+003, 3.355199e+005
1.186117e+003, 3.358972e+005
1.186599e+003, 3.364353e+005
1.187081e+003, 3.369146e+005
1.187563e+003, 3.372166e+005
1.188045e+003, 3.374112e+005
1.188527e+003, 3.374931e+005
1.189009e+003, 3.374898e+005
1.189491e+003, 3.378071e+005
1.189974e+003, 3.384100e+005
1.190456e+003, 3.390417e+005
1.190938e+003, 3.396593e+005
1.191420e+003, 3.401603e+005
1.191902e+003, 3.404312e+005
1.192384e+003, 3.406073e+005
1.192866e+003, 3.408186e+005
1.193348e+003, 3.410668e+005
1.193830e+003, 3.413316e+005
1.194313e+003, 3.416122e+005
1.194795e+003, 3.418990e+005
1.195277e+003, 3.421800e+005
1.195759e+003, 3.424702e+005
1.196241e+003, 3.427616e+005
1.196723e+003, 3.430745e+005
1.197205e+003, 3.434616e+005
1.197687e+003, 3.439296e+005
1.198169e+003, 3.442384e+005
1.198652e+003, 3.443832e+005
1.199134e+003, 3.445318e+005
1.199616e+003, 3.448112e+005
1.200098e+003, 3.451149e+005
1.200580e+003, 3.453762e+005
1.201062e+003, 3.456250e+005
1.201544e+003, 3.459173e+005
1.202026e+003, 3.462553e+005
1.202509e+003, 3.465784e+005
1.202991e+003, 3.468793e+005
1.203473e+003, 3.472434e+005
1.203955e+003, 3.478172e+005
1.204437e+003, 3.483892e+005
1.204919e+003, 3.488154e+005
1.205401e+003, 3.491385e+005
1.205883e+003, 3.494409e+005
1.206365e+003, 3.497204e+005
1.206848e+003, 3.500040e+005
1.207330e+003, 3.502912e+005
1.207812e+003, 3.506118e+005
1.208294e+003, 3.510609e+005
1.208776e+003, 3.514878e+005
1.209258e+003, 3.517527e+005
1.209740e+003, 3.519151e+005
1.210222e+003, 3.521160e+005
1.210705e+003, 3.523605e+005
1.211187e+003, 3.526809e+005
1.211669e+003, 3.530976e+005
1.212151e+003, 3.534988e+005
1.212633e+003, 3.538121e+005
1.213115e+003, 3.540627e+005
1.213597e+003, 3.542288e+005
1.214079e+003, 3.543507e+005
1.214562e+003, 3.545526e+005
1.215044e+003, 3.548353e+005
1.215526e+003, 3.551783e+005
1.216008e+003, 3.555871e+005
1.216490e+003, 3.560109e+005
1.216972e+003, 3.564243e+005
1.217454e+003, 3.568201e+005
1.217936e+003, 3.571689e+005
1.218418e+003, 3.574824e+005
1.218901e+003, 3.578207e+005
1.219383e+003, 3.581824e+005
1.219865e+003, 3.585811e+005
1.220347e+003, 3.590383e+005
1.220829e+003, 3.594489e+005
1.221311e+003, 3.597017e+005
1.221793e+003, 3.598998e+005
1.222275e+003, 3.601182e+005
1.222757e+003, 3.603596e+005
1.223240e+003, 3.606643e+005
1.223722e+003, 3.610242e+005
1.224204e+003, 3.612851e+005
1.224686e+003, 3.613661e+005
1.225168e+003, 3.614442e+005
1.225650e+003, 3.616369e+005
1.226132e+003, 3.618897e+005
1.226614e+003, 3.621676e+005
1.227096e+003, 3.624678e+005
1.227579e+003, 3.627308e+005
1.228061e+003, 3.629671e+005
1.228543e+003, 3.632689e+005
1.229025e+003, 3.636924e+005
1.229507e+003, 3.641239e+005
1.229989e+003, 3.644984e+005
1.230471e+003, 3.648439e+005
1.230953e+003, 3.651669e+005
1.231436e+003, 3.654716e+005
1.231918e+003, 3.658369e+005
1.232400e+003, 3.662484e+005
1.232882e+003, 3.666076e+005
1.233364e+003, 3.668438e+005
1.233846e+003, 3.670831e+005
1.234328e+003, 3.674117e+005
1.234810e+003, 3.677485e+005
1.235292e+003, 3.680064e+005
1.235775e+003, 3.682130e+005
1.236257e+003, 3.686791e+005
1.236739e+003, 3.693404e+005
1.237221e+003, 3.698475e+005
1.237703e+003, 3.699234e+005
1.238185e+003, 3.700297e+005
1.238667e+003, 3.703723e+005
1.239149e+003, 3.707734e+005
1.239632e+003, 3.711030e+005
1.240114e+003, 3.713778e+005
1.240596e+003, 3.717709e+005
1.241078e+003, 3.722406e+005
1.241560e+003, 3.726273e+005
1.242042e+003, 3.727508e+005
1.242524e+003, 3.729316e+005
1.243006e+003, 3.732547e+005
1.243489e+003, 3.736386e+005
1.243971e+003, 3.740536e+005
1.244453e+003, 3.744766e+005
1.244935e+003, 3.747662e+005
1.245417e+003, 3.749623e+005
1.245899e+003, 3.752032e+005
1.246381e+003, 3.755473e+005
1.246863e+003, 3.759623e+005
1.247345e+003, 3.764849e+005
1.247828e+003, 3.769847e+005
1.248310e+003, 3.773267e+005
1.248792e+003, 3.775629e+005
1.249274e+003, 3.777956e+005
1.249756e+003, 3.780471e+005
1.250238e+003, 3.783830e+005
1.250720e+003, 3.790233e+005
1.251202e+003, 3.794201e+005
1.251684e+003, 3.794475e+005
1.252167e+003, 3.794365e+005
1.252649e+003, 3.796921e+005
1.253131e+003, 3.800992e+005
1.253613e+003, 3.804499e+005
1.254095e+003, 3.807542e+005
1.254577e+003, 3.810612e+005
1.255059e+003, 3.813838e+005
1.255541e+003, 3.816924e+005
1.256023e+003, 3.819696e+005
1.256506e+003, 3.822719e+005
1.256988e+003, 3.827033e+005
1.257470e+003, 3.831582e+005
1.257952e+003, 3.835179e+005
1.258434e+003, 3.837754e+005
1.258916e+003, 3.838776e+005
1.259398e+003, 3.836912e+005
1.259880e+003, 3.837842e+005
1.260363e+003, 3.842243e+005
1.260845e+003, 3.847539e+005
1.261327e+003, 3.852744e+005
1.261809e+003, 3.856748e+005
1.262291e+003, 3.857489e+005
1.262773e+003, 3.856253e+005
1.263255e+003, 3.856623e+005
1.263737e+003, 3.859220e+005
1.264219e+003, 3.860688e+005
1.264702e+003, 3.860684e+005
1.265184e+003, 3.860978e+005
1.265666e+003, 3.862924e+005
1.266148e+003, 3.865735e+005
1.266630e+003, 3.868862e+005
1.267112e+003, 3.872485e+005
1.267594e+003, 3.877174e+005
1.268076e+003, 3.883150e+005
1.268559e+003, 3.887094e+005
1.269041e+003, 3.888811e+005
1.269523e+003, 3.890581e+005
1.270005e+003, 3.894627e+005
1.270487e+003, 3.898517e+005
1.270969e+003, 3.900273e+005
1.271451e+003, 3.901270e+005
1.271933e+003, 3.903303e+005
1.272416e+003, 3.906289e+005
1.272898e+003, 3.909383e+005
1.273380e+003, 3.912541e+005
1.273862e+003, 3.916345e+005
1.274344e+003, 3.922430e+005
1.274826e+003, 3.927514e+005
1.275308e+003, 3.930458e+005
1.275790e+003, 3.932047e+005
1.276272e+003, 3.932428e+005
1.276755e+003, 3.932328e+005
1.277237e+003, 3.935213e+005
1.277719e+003, 3.940749e+005
1.278201e+003, 3.945383e+005
1.278683e+003, 3.945996e+005
1.279165e+003, 3.947802e+005
1.279647e+003, 3.952081e+005
1.280129e+003, 3.957222e+005
1.280611e+003, 3.961904e+005
1.281094e+003, 3.966022e+005
1.281576e+003, 3.969318e+005
1.282058e+003, 3.971863e+005
1.282540e+003, 3.973893e+005
1.283022e+003, 3.974647e+005
1.283504e+003, 3.976463e+005
1.283986e+003, 3.979692e+005
1.284468e+003, 3.983511e+005
1.284950e+003, 3.987174e+005
1.285433e+003, 3.990896e+005
1.285915e+003, 3.995107e+005
1.286397e+003, 3.999604e+005
1.286879e+003, 4.003696e+005
1.287361e+003, 4.007601e+005
1.287843e+003, 4.009833e+005
1.288325e+003, 4.010052e+005
1.288807e+003, 4.010439e+005
1.289290e+003, 4.012775e+005
1.289772e+003, 4.016218e+005
1.290254e+003, 4.021040e+005
1.290736e+003, 4.026087e+005
1.291218e+003, 4.028479e+005
1.291700e+003, 4.027814e+005
1.292182e+003, 4.030243e+005
1.292664e+003, 4.036127e+005
1.293146e+003, 4.041881e+005
1.293629e+003, 4.044973e+005
1.294111e+003, 4.047205e+005
1.294593e+003, 4.049378e+005
1.295075e+003, 4.051342e+005
1.295557e+003, 4.052507e+005
1.296039e+003, 4.053115e+005
1.296521e+003, 4.055455e+005
1.297003e+003, 4.059355e+005
1.297486e+003, 4.062912e+005
1.297968e+003, 4.065658e+005
1.298450e+003, 4.067846e+005
1.298932e+003, 4.069671e+005
1.299414e+003, 4.071185e+005
1.299896e+003, 4.072084e+005
1.300378e+003, 4.072903e+005
1.300860e+003, 4.074908e+005
1.301343e+003, 4.078330e+005
1.301825e+003, 4.083606e+005
##END=



