##NAMES=Fluorcalciomicrolite
##RRUFFID=R130019
##IDEAL CHEMISTRY=(Ca,Na)_2_Ta^5+^_2_O_6_F
##LOCALITY=Virgem da Lapa, Minas Gerais, Brazil 
##OWNER=RRUFF
##SOURCE=Royal Ontario Museum
##DESCRIPTION=Yellow outer zone of 1.5 cm zoned octahedron
##STATUS=The identification of this mineral is confirmed by single-crystal X-ray diffraction and chemical analysis.
##URL=rruff.info/R130019
##MEASURED CHEMISTRY=(Ca_0.96_Na_0.91_Pb_0.03_)_Σ=1.90_(Ta_1.69_Nb_0.31_)_Σ=2_O_6_[F_0.81_(OH)_0.08_]_Σ=0.89_
8.975323e+001, 0.000000e+000
9.023535e+001, 2.377998e+003
9.071747e+001, 2.328234e+003
9.119958e+001, 2.301393e+003
9.168170e+001, 2.357742e+003
9.216382e+001, 2.415488e+003
9.264594e+001, 2.456274e+003
9.312805e+001, 2.484292e+003
9.361017e+001, 2.507526e+003
9.409229e+001, 2.524573e+003
9.457440e+001, 2.533261e+003
9.505651e+001, 2.539046e+003
9.553863e+001, 2.543290e+003
9.602074e+001, 2.547016e+003
9.650286e+001, 2.551274e+003
9.698498e+001, 2.554903e+003
9.746709e+001, 2.552873e+003
9.794921e+001, 2.550417e+003
9.843133e+001, 2.547394e+003
9.891344e+001, 2.545153e+003
9.939556e+001, 2.543256e+003
9.987768e+001, 2.541606e+003
1.003598e+002, 2.540625e+003
1.008419e+002, 2.540281e+003
1.013240e+002, 2.540848e+003
1.018061e+002, 2.542642e+003
1.022883e+002, 2.546606e+003
1.027704e+002, 2.550823e+003
1.032525e+002, 2.553210e+003
1.037346e+002, 2.553335e+003
1.042167e+002, 2.553289e+003
1.046988e+002, 2.553973e+003
1.051810e+002, 2.554776e+003
1.056631e+002, 2.554867e+003
1.061452e+002, 2.553367e+003
1.066273e+002, 2.550697e+003
1.071094e+002, 2.548783e+003
1.075915e+002, 2.548013e+003
1.080737e+002, 2.547400e+003
1.085558e+002, 2.546346e+003
1.090379e+002, 2.545022e+003
1.095200e+002, 2.543924e+003
1.100021e+002, 2.543655e+003
1.104842e+002, 2.544508e+003
1.109664e+002, 2.544609e+003
1.114485e+002, 2.543175e+003
1.119306e+002, 2.541707e+003
1.124127e+002, 2.541195e+003
1.128948e+002, 2.541616e+003
1.133769e+002, 2.542025e+003
1.138591e+002, 2.541045e+003
1.143412e+002, 2.537666e+003
1.148233e+002, 2.534471e+003
1.153054e+002, 2.531397e+003
1.157875e+002, 2.528474e+003
1.162696e+002, 2.525854e+003
1.167517e+002, 2.523595e+003
1.172339e+002, 2.521355e+003
1.177160e+002, 2.518179e+003
1.181981e+002, 2.513383e+003
1.186802e+002, 2.509124e+003
1.191623e+002, 2.506472e+003
1.196444e+002, 2.504883e+003
1.201266e+002, 2.502883e+003
1.206087e+002, 2.499821e+003
1.210908e+002, 2.495839e+003
1.215729e+002, 2.491520e+003
1.220550e+002, 2.486741e+003
1.225371e+002, 2.481797e+003
1.230193e+002, 2.476937e+003
1.235014e+002, 2.472139e+003
1.239835e+002, 2.467474e+003
1.244656e+002, 2.463214e+003
1.249477e+002, 2.459060e+003
1.254298e+002, 2.454593e+003
1.259120e+002, 2.449461e+003
1.263941e+002, 2.444281e+003
1.268762e+002, 2.440743e+003
1.273583e+002, 2.440361e+003
1.278404e+002, 2.439094e+003
1.283225e+002, 2.435751e+003
1.288047e+002, 2.430965e+003
1.292868e+002, 2.425528e+003
1.297689e+002, 2.419880e+003
1.302510e+002, 2.414035e+003
1.307331e+002, 2.408141e+003
1.312152e+002, 2.401862e+003
1.316974e+002, 2.395823e+003
1.321795e+002, 2.390030e+003
1.326616e+002, 2.384592e+003
1.331437e+002, 2.379743e+003
1.336258e+002, 2.375677e+003
1.341079e+002, 2.372456e+003
1.345901e+002, 2.369718e+003
1.350722e+002, 2.368310e+003
1.355543e+002, 2.366632e+003
1.360364e+002, 2.363406e+003
1.365185e+002, 2.358664e+003
1.370006e+002, 2.353790e+003
1.374828e+002, 2.350515e+003
1.379649e+002, 2.349267e+003
1.384470e+002, 2.347477e+003
1.389291e+002, 2.344793e+003
1.394112e+002, 2.341588e+003
1.398933e+002, 2.338164e+003
1.403755e+002, 2.334523e+003
1.408576e+002, 2.330986e+003
1.413397e+002, 2.327886e+003
1.418218e+002, 2.325154e+003
1.423039e+002, 2.323040e+003
1.427860e+002, 2.321922e+003
1.432681e+002, 2.321567e+003
1.437503e+002, 2.321244e+003
1.442324e+002, 2.321252e+003
1.447145e+002, 2.320605e+003
1.451966e+002, 2.318046e+003
1.456787e+002, 2.313597e+003
1.461608e+002, 2.309488e+003
1.466430e+002, 2.308110e+003
1.471251e+002, 2.309831e+003
1.476072e+002, 2.310636e+003
1.480893e+002, 2.308722e+003
1.485714e+002, 2.306283e+003
1.490535e+002, 2.304568e+003
1.495357e+002, 2.303822e+003
1.500178e+002, 2.303270e+003
1.504999e+002, 2.301646e+003
1.509820e+002, 2.298123e+003
1.514641e+002, 2.295316e+003
1.519462e+002, 2.294111e+003
1.524284e+002, 2.293223e+003
1.529105e+002, 2.291570e+003
1.533926e+002, 2.288765e+003
1.538747e+002, 2.285267e+003
1.543568e+002, 2.282217e+003
1.548389e+002, 2.280115e+003
1.553211e+002, 2.277921e+003
1.558032e+002, 2.276079e+003
1.562853e+002, 2.273970e+003
1.567674e+002, 2.270764e+003
1.572495e+002, 2.266002e+003
1.577316e+002, 2.260044e+003
1.582138e+002, 2.254413e+003
1.586959e+002, 2.249626e+003
1.591780e+002, 2.244528e+003
1.596601e+002, 2.238536e+003
1.601422e+002, 2.232007e+003
1.606243e+002, 2.225727e+003
1.611065e+002, 2.220178e+003
1.615886e+002, 2.215278e+003
1.620707e+002, 2.210615e+003
1.625528e+002, 2.207433e+003
1.630349e+002, 2.203369e+003
1.635170e+002, 2.196580e+003
1.639991e+002, 2.187297e+003
1.644813e+002, 2.177895e+003
1.649634e+002, 2.169921e+003
1.654455e+002, 2.162822e+003
1.659276e+002, 2.155230e+003
1.664097e+002, 2.146511e+003
1.668918e+002, 2.137588e+003
1.673740e+002, 2.129794e+003
1.678561e+002, 2.123459e+003
1.683382e+002, 2.116734e+003
1.688203e+002, 2.107543e+003
1.693024e+002, 2.097572e+003
1.697845e+002, 2.088993e+003
1.702667e+002, 2.083316e+003
1.707488e+002, 2.079163e+003
1.712309e+002, 2.073329e+003
1.717130e+002, 2.065172e+003
1.721951e+002, 2.056385e+003
1.726772e+002, 2.046959e+003
1.731594e+002, 2.037516e+003
1.736415e+002, 2.028901e+003
1.741236e+002, 2.021693e+003
1.746057e+002, 2.015748e+003
1.750878e+002, 2.010307e+003
1.755699e+002, 2.006056e+003
1.760521e+002, 2.001574e+003
1.765342e+002, 1.996946e+003
1.770163e+002, 1.991822e+003
1.774984e+002, 1.985537e+003
1.779805e+002, 1.977317e+003
1.784626e+002, 1.967117e+003
1.789448e+002, 1.958910e+003
1.794269e+002, 1.954229e+003
1.799090e+002, 1.949994e+003
1.803911e+002, 1.945459e+003
1.808732e+002, 1.940620e+003
1.813553e+002, 1.935872e+003
1.818375e+002, 1.931609e+003
1.823196e+002, 1.927956e+003
1.828017e+002, 1.923369e+003
1.832838e+002, 1.917363e+003
1.837659e+002, 1.911062e+003
1.842480e+002, 1.904675e+003
1.847301e+002, 1.898385e+003
1.852123e+002, 1.892735e+003
1.856944e+002, 1.888461e+003
1.861765e+002, 1.885847e+003
1.866586e+002, 1.881887e+003
1.871407e+002, 1.875451e+003
1.876228e+002, 1.868566e+003
1.881050e+002, 1.862441e+003
1.885871e+002, 1.857274e+003
1.890692e+002, 1.853162e+003
1.895513e+002, 1.850996e+003
1.900334e+002, 1.850638e+003
1.905155e+002, 1.847988e+003
1.909977e+002, 1.840674e+003
1.914798e+002, 1.831766e+003
1.919619e+002, 1.824809e+003
1.924440e+002, 1.820420e+003
1.929261e+002, 1.816785e+003
1.934082e+002, 1.811948e+003
1.938904e+002, 1.806357e+003
1.943725e+002, 1.801555e+003
1.948546e+002, 1.798969e+003
1.953367e+002, 1.797324e+003
1.958188e+002, 1.793877e+003
1.963009e+002, 1.787778e+003
1.967831e+002, 1.781246e+003
1.972652e+002, 1.775544e+003
1.977473e+002, 1.770615e+003
1.982294e+002, 1.766611e+003
1.987115e+002, 1.764080e+003
1.991936e+002, 1.762639e+003
1.996758e+002, 1.760633e+003
2.001579e+002, 1.757638e+003
2.006400e+002, 1.754574e+003
2.011221e+002, 1.752027e+003
2.016042e+002, 1.749823e+003
2.020863e+002, 1.747564e+003
2.025685e+002, 1.745013e+003
2.030506e+002, 1.742167e+003
2.035327e+002, 1.739048e+003
2.040148e+002, 1.735069e+003
2.044969e+002, 1.731458e+003
2.049790e+002, 1.729375e+003
2.054612e+002, 1.728130e+003
2.059433e+002, 1.726022e+003
2.064254e+002, 1.721307e+003
2.069075e+002, 1.713777e+003
2.073896e+002, 1.707698e+003
2.078717e+002, 1.704090e+003
2.083539e+002, 1.701094e+003
2.088360e+002, 1.698765e+003
2.093181e+002, 1.696680e+003
2.098002e+002, 1.693943e+003
2.102823e+002, 1.689477e+003
2.107644e+002, 1.682872e+003
2.112466e+002, 1.678528e+003
2.117287e+002, 1.678753e+003
2.122108e+002, 1.678883e+003
2.126929e+002, 1.676888e+003
2.131750e+002, 1.673041e+003
2.136571e+002, 1.668841e+003
2.141393e+002, 1.665679e+003
2.146214e+002, 1.663771e+003
2.151035e+002, 1.661398e+003
2.155856e+002, 1.657946e+003
2.160677e+002, 1.654677e+003
2.165498e+002, 1.652266e+003
2.170320e+002, 1.650669e+003
2.175141e+002, 1.649322e+003
2.179962e+002, 1.647645e+003
2.184783e+002, 1.645530e+003
2.189604e+002, 1.644513e+003
2.194425e+002, 1.645449e+003
2.199247e+002, 1.646637e+003
2.204068e+002, 1.647317e+003
2.208889e+002, 1.647353e+003
2.213710e+002, 1.646534e+003
2.218531e+002, 1.644358e+003
2.223352e+002, 1.640751e+003
2.228174e+002, 1.638571e+003
2.232995e+002, 1.638254e+003
2.237816e+002, 1.638996e+003
2.242637e+002, 1.640854e+003
2.247458e+002, 1.643690e+003
2.252279e+002, 1.645826e+003
2.257100e+002, 1.645601e+003
2.261922e+002, 1.643245e+003
2.266743e+002, 1.641300e+003
2.271564e+002, 1.639709e+003
2.276385e+002, 1.638725e+003
2.281206e+002, 1.638789e+003
2.286027e+002, 1.639946e+003
2.290849e+002, 1.641408e+003
2.295670e+002, 1.642776e+003
2.300491e+002, 1.644012e+003
2.305312e+002, 1.645009e+003
2.310133e+002, 1.645258e+003
2.314954e+002, 1.645533e+003
2.319776e+002, 1.646877e+003
2.324597e+002, 1.649436e+003
2.329418e+002, 1.652046e+003
2.334239e+002, 1.654001e+003
2.339060e+002, 1.655523e+003
2.343881e+002, 1.656858e+003
2.348703e+002, 1.657710e+003
2.353524e+002, 1.658696e+003
2.358345e+002, 1.660883e+003
2.363166e+002, 1.664603e+003
2.367987e+002, 1.668174e+003
2.372808e+002, 1.671419e+003
2.377630e+002, 1.673823e+003
2.382451e+002, 1.674475e+003
2.387272e+002, 1.672633e+003
2.392093e+002, 1.669587e+003
2.396914e+002, 1.667168e+003
2.401735e+002, 1.665240e+003
2.406557e+002, 1.664402e+003
2.411378e+002, 1.665510e+003
2.416199e+002, 1.667507e+003
2.421020e+002, 1.669510e+003
2.425841e+002, 1.671237e+003
2.430662e+002, 1.672797e+003
2.435484e+002, 1.674357e+003
2.440305e+002, 1.675918e+003
2.445126e+002, 1.677490e+003
2.449947e+002, 1.678970e+003
2.454768e+002, 1.680511e+003
2.459589e+002, 1.682366e+003
2.464410e+002, 1.684653e+003
2.469232e+002, 1.686941e+003
2.474053e+002, 1.688466e+003
2.478874e+002, 1.688922e+003
2.483695e+002, 1.689299e+003
2.488516e+002, 1.689578e+003
2.493337e+002, 1.689955e+003
2.498159e+002, 1.690613e+003
2.502980e+002, 1.691601e+003
2.507801e+002, 1.692777e+003
2.512622e+002, 1.694053e+003
2.517443e+002, 1.695894e+003
2.522264e+002, 1.696670e+003
2.527086e+002, 1.695182e+003
2.531907e+002, 1.693439e+003
2.536728e+002, 1.692863e+003
2.541549e+002, 1.693809e+003
2.546370e+002, 1.695642e+003
2.551191e+002, 1.697361e+003
2.556013e+002, 1.698500e+003
2.560834e+002, 1.700611e+003
2.565655e+002, 1.704223e+003
2.570476e+002, 1.708255e+003
2.575297e+002, 1.712362e+003
2.580118e+002, 1.716308e+003
2.584940e+002, 1.719656e+003
2.589761e+002, 1.721661e+003
2.594582e+002, 1.721428e+003
2.599403e+002, 1.722129e+003
2.604224e+002, 1.724438e+003
2.609045e+002, 1.726965e+003
2.613867e+002, 1.728571e+003
2.618688e+002, 1.729313e+003
2.623509e+002, 1.730320e+003
2.628330e+002, 1.733058e+003
2.633151e+002, 1.738391e+003
2.637972e+002, 1.742275e+003
2.642794e+002, 1.743646e+003
2.647615e+002, 1.744751e+003
2.652436e+002, 1.746854e+003
2.657257e+002, 1.749944e+003
2.662078e+002, 1.753193e+003
2.666899e+002, 1.755700e+003
2.671721e+002, 1.757170e+003
2.676542e+002, 1.759885e+003
2.681363e+002, 1.764945e+003
2.686184e+002, 1.769985e+003
2.691005e+002, 1.773879e+003
2.695826e+002, 1.776672e+003
2.700648e+002, 1.778937e+003
2.705469e+002, 1.781105e+003
2.710290e+002, 1.783160e+003
2.715111e+002, 1.785161e+003
2.719932e+002, 1.786757e+003
2.724753e+002, 1.788635e+003
2.729575e+002, 1.790952e+003
2.734396e+002, 1.793769e+003
2.739217e+002, 1.797331e+003
2.744038e+002, 1.801994e+003
2.748859e+002, 1.807572e+003
2.753680e+002, 1.811554e+003
2.758501e+002, 1.812483e+003
2.763322e+002, 1.813811e+003
2.768144e+002, 1.816946e+003
2.772965e+002, 1.821375e+003
2.777786e+002, 1.826076e+003
2.782607e+002, 1.830685e+003
2.787428e+002, 1.834880e+003
2.792249e+002, 1.837107e+003
2.797071e+002, 1.835012e+003
2.801892e+002, 1.834117e+003
2.806713e+002, 1.836652e+003
2.811534e+002, 1.841215e+003
2.816355e+002, 1.845390e+003
2.821176e+002, 1.848155e+003
2.825998e+002, 1.849914e+003
2.830819e+002, 1.851572e+003
2.835640e+002, 1.853100e+003
2.840461e+002, 1.854622e+003
2.845282e+002, 1.855985e+003
2.850103e+002, 1.857410e+003
2.854925e+002, 1.859254e+003
2.859746e+002, 1.861661e+003
2.864567e+002, 1.864415e+003
2.869388e+002, 1.867237e+003
2.874209e+002, 1.870199e+003
2.879030e+002, 1.872971e+003
2.883852e+002, 1.875295e+003
2.888673e+002, 1.877469e+003
2.893494e+002, 1.880179e+003
2.898315e+002, 1.883631e+003
2.903136e+002, 1.886531e+003
2.907957e+002, 1.887026e+003
2.912779e+002, 1.884759e+003
2.917600e+002, 1.882711e+003
2.922421e+002, 1.881354e+003
2.927242e+002, 1.880229e+003
2.932063e+002, 1.878838e+003
2.936884e+002, 1.877115e+003
2.941706e+002, 1.875474e+003
2.946527e+002, 1.874487e+003
2.951348e+002, 1.874124e+003
2.956169e+002, 1.872839e+003
2.960990e+002, 1.869750e+003
2.965811e+002, 1.866328e+003
2.970633e+002, 1.864042e+003
2.975454e+002, 1.862814e+003
2.980275e+002, 1.861001e+003
2.985096e+002, 1.857381e+003
2.989917e+002, 1.852093e+003
2.994738e+002, 1.846807e+003
2.999560e+002, 1.841178e+003
3.004381e+002, 1.835899e+003
3.009202e+002, 1.831503e+003
3.014023e+002, 1.827848e+003
3.018844e+002, 1.824276e+003
3.023665e+002, 1.820594e+003
3.028487e+002, 1.816591e+003
3.033308e+002, 1.811712e+003
3.038129e+002, 1.805644e+003
3.042950e+002, 1.799285e+003
3.047771e+002, 1.792683e+003
3.052592e+002, 1.786063e+003
3.057414e+002, 1.780343e+003
3.062235e+002, 1.776349e+003
3.067056e+002, 1.772525e+003
3.071877e+002, 1.765538e+003
3.076698e+002, 1.754828e+003
3.081519e+002, 1.744164e+003
3.086341e+002, 1.734685e+003
3.091162e+002, 1.726068e+003
3.095983e+002, 1.718094e+003
3.100804e+002, 1.710892e+003
3.105625e+002, 1.703645e+003
3.110446e+002, 1.694849e+003
3.115268e+002, 1.684340e+003
3.120089e+002, 1.675308e+003
3.124910e+002, 1.669216e+003
3.129731e+002, 1.664546e+003
3.134552e+002, 1.659586e+003
3.139373e+002, 1.654108e+003
3.144195e+002, 1.648398e+003
3.149016e+002, 1.642917e+003
3.153837e+002, 1.637523e+003
3.158658e+002, 1.630870e+003
3.163479e+002, 1.621684e+003
3.168300e+002, 1.612016e+003
3.173121e+002, 1.603417e+003
3.177943e+002, 1.595908e+003
3.182764e+002, 1.589131e+003
3.187585e+002, 1.582931e+003
3.192406e+002, 1.577331e+003
3.197227e+002, 1.572020e+003
3.202048e+002, 1.567412e+003
3.206870e+002, 1.562660e+003
3.211691e+002, 1.556745e+003
3.216512e+002, 1.550170e+003
3.221333e+002, 1.544840e+003
3.226154e+002, 1.542116e+003
3.230975e+002, 1.540667e+003
3.235797e+002, 1.537057e+003
3.240618e+002, 1.530384e+003
3.245439e+002, 1.523936e+003
3.250260e+002, 1.518841e+003
3.255081e+002, 1.514754e+003
3.259902e+002, 1.511052e+003
3.264724e+002, 1.507590e+003
3.269545e+002, 1.504266e+003
3.274366e+002, 1.500785e+003
3.279187e+002, 1.496951e+003
3.284008e+002, 1.493946e+003
3.288829e+002, 1.493220e+003
3.293651e+002, 1.492872e+003
3.298472e+002, 1.490198e+003
3.303293e+002, 1.484724e+003
3.308114e+002, 1.479077e+003
3.312935e+002, 1.476033e+003
3.317756e+002, 1.475851e+003
3.322578e+002, 1.474838e+003
3.327399e+002, 1.472258e+003
3.332220e+002, 1.469289e+003
3.337041e+002, 1.466248e+003
3.341862e+002, 1.463383e+003
3.346683e+002, 1.461941e+003
3.351505e+002, 1.463423e+003
3.356326e+002, 1.467085e+003
3.361147e+002, 1.467612e+003
3.365968e+002, 1.463337e+003
3.370789e+002, 1.458123e+003
3.375610e+002, 1.453301e+003
3.380432e+002, 1.448765e+003
3.385253e+002, 1.444272e+003
3.390074e+002, 1.439737e+003
3.394895e+002, 1.435136e+003
3.399716e+002, 1.430380e+003
3.404537e+002, 1.425151e+003
3.409359e+002, 1.420375e+003
3.414180e+002, 1.416392e+003
3.419001e+002, 1.412897e+003
3.423822e+002, 1.409695e+003
3.428643e+002, 1.406742e+003
3.433464e+002, 1.403643e+003
3.438286e+002, 1.399864e+003
3.443107e+002, 1.395231e+003
3.447928e+002, 1.390211e+003
3.452749e+002, 1.384082e+003
3.457570e+002, 1.378104e+003
3.462391e+002, 1.373405e+003
3.467213e+002, 1.370002e+003
3.472034e+002, 1.367001e+003
3.476855e+002, 1.363762e+003
3.481676e+002, 1.360283e+003
3.486497e+002, 1.356035e+003
3.491318e+002, 1.350475e+003
3.496140e+002, 1.344848e+003
3.500961e+002, 1.339680e+003
3.505782e+002, 1.334912e+003
3.510603e+002, 1.330295e+003
3.515424e+002, 1.325717e+003
3.520245e+002, 1.321187e+003
3.525067e+002, 1.316695e+003
3.529888e+002, 1.312344e+003
3.534709e+002, 1.307918e+003
3.539530e+002, 1.302585e+003
3.544351e+002, 1.297482e+003
3.549172e+002, 1.294401e+003
3.553994e+002, 1.293892e+003
3.558815e+002, 1.294146e+003
3.563636e+002, 1.292021e+003
3.568457e+002, 1.285936e+003
3.573278e+002, 1.280528e+003
3.578099e+002, 1.276169e+003
3.582920e+002, 1.272124e+003
3.587741e+002, 1.268011e+003
3.592563e+002, 1.263726e+003
3.597384e+002, 1.259316e+003
3.602205e+002, 1.254787e+003
3.607026e+002, 1.250127e+003
3.611847e+002, 1.245467e+003
3.616668e+002, 1.240502e+003
3.621490e+002, 1.235861e+003
3.626311e+002, 1.231997e+003
3.631132e+002, 1.228583e+003
3.635953e+002, 1.225053e+003
3.640774e+002, 1.221038e+003
3.645595e+002, 1.216679e+003
3.650417e+002, 1.212595e+003
3.655238e+002, 1.209264e+003
3.660059e+002, 1.205538e+003
3.664880e+002, 1.200673e+003
3.669701e+002, 1.195690e+003
3.674522e+002, 1.191679e+003
3.679344e+002, 1.188971e+003
3.684165e+002, 1.186894e+003
3.688986e+002, 1.184485e+003
3.693807e+002, 1.181820e+003
3.698628e+002, 1.178593e+003
3.703449e+002, 1.175056e+003
3.708271e+002, 1.170789e+003
3.713092e+002, 1.165041e+003
3.717913e+002, 1.158160e+003
3.722734e+002, 1.151326e+003
3.727555e+002, 1.145548e+003
3.732376e+002, 1.140822e+003
3.737198e+002, 1.136643e+003
3.742019e+002, 1.133302e+003
3.746840e+002, 1.130206e+003
3.751661e+002, 1.127386e+003
3.756482e+002, 1.124613e+003
3.761303e+002, 1.121617e+003
3.766125e+002, 1.118281e+003
3.770946e+002, 1.114564e+003
3.775767e+002, 1.110060e+003
3.780588e+002, 1.104052e+003
3.785409e+002, 1.099312e+003
3.790230e+002, 1.097496e+003
3.795052e+002, 1.096668e+003
3.799873e+002, 1.095707e+003
3.804694e+002, 1.094365e+003
3.809515e+002, 1.092193e+003
3.814336e+002, 1.088470e+003
3.819157e+002, 1.083218e+003
3.823979e+002, 1.077985e+003
3.828800e+002, 1.072567e+003
3.833621e+002, 1.067725e+003
3.838442e+002, 1.064103e+003
3.843263e+002, 1.061458e+003
3.848084e+002, 1.058809e+003
3.852906e+002, 1.055472e+003
3.857727e+002, 1.051825e+003
3.862548e+002, 1.048812e+003
3.867369e+002, 1.046637e+003
3.872190e+002, 1.044390e+003
3.877011e+002, 1.041533e+003
3.881833e+002, 1.038267e+003
3.886654e+002, 1.034782e+003
3.891475e+002, 1.030955e+003
3.896296e+002, 1.027214e+003
3.901117e+002, 1.023898e+003
3.905938e+002, 1.020988e+003
3.910760e+002, 1.018420e+003
3.915581e+002, 1.016198e+003
3.920402e+002, 1.014310e+003
3.925223e+002, 1.013073e+003
3.930044e+002, 1.012655e+003
3.934865e+002, 1.011127e+003
3.939687e+002, 1.007309e+003
3.944508e+002, 1.002058e+003
3.949329e+002, 9.963626e+002
3.954150e+002, 9.901994e+002
3.958971e+002, 9.848193e+002
3.963792e+002, 9.814909e+002
3.968614e+002, 9.801281e+002
3.973435e+002, 9.787785e+002
3.978256e+002, 9.774442e+002
3.983077e+002, 9.760004e+002
3.987898e+002, 9.745309e+002
3.992719e+002, 9.729138e+002
3.997540e+002, 9.706971e+002
4.002361e+002, 9.675911e+002
4.007183e+002, 9.638373e+002
4.012004e+002, 9.601337e+002
4.016825e+002, 9.563141e+002
4.021646e+002, 9.528027e+002
4.026467e+002, 9.496823e+002
4.031288e+002, 9.469022e+002
4.036110e+002, 9.444557e+002
4.040931e+002, 9.423428e+002
4.045752e+002, 9.405339e+002
4.050573e+002, 9.391524e+002
4.055394e+002, 9.385579e+002
4.060215e+002, 9.364564e+002
4.065037e+002, 9.316271e+002
4.069858e+002, 9.266761e+002
4.074679e+002, 9.227154e+002
4.079500e+002, 9.196853e+002
4.084321e+002, 9.171453e+002
4.089142e+002, 9.148123e+002
4.093964e+002, 9.126898e+002
4.098785e+002, 9.107659e+002
4.103606e+002, 9.094650e+002
4.108427e+002, 9.077966e+002
4.113248e+002, 9.054364e+002
4.118069e+002, 9.028073e+002
4.122891e+002, 9.001659e+002
4.127712e+002, 8.976356e+002
4.132533e+002, 8.954275e+002
4.137354e+002, 8.939263e+002
4.142175e+002, 8.933682e+002
4.146996e+002, 8.925344e+002
4.151818e+002, 8.914552e+002
4.156639e+002, 8.900648e+002
4.161460e+002, 8.881298e+002
4.166281e+002, 8.858430e+002
4.171102e+002, 8.836716e+002
4.175923e+002, 8.819231e+002
4.180745e+002, 8.804819e+002
4.185566e+002, 8.788491e+002
4.190387e+002, 8.767523e+002
4.195208e+002, 8.751094e+002
4.200029e+002, 8.747343e+002
4.204850e+002, 8.746359e+002
4.209672e+002, 8.739436e+002
4.214493e+002, 8.724525e+002
4.219314e+002, 8.704424e+002
4.224135e+002, 8.678105e+002
4.228956e+002, 8.646334e+002
4.233777e+002, 8.625162e+002
4.238599e+002, 8.624628e+002
4.243420e+002, 8.624728e+002
4.248241e+002, 8.607559e+002
4.253062e+002, 8.577648e+002
4.257883e+002, 8.551211e+002
4.262704e+002, 8.538145e+002
4.267526e+002, 8.531033e+002
4.272347e+002, 8.518119e+002
4.277168e+002, 8.498849e+002
4.281989e+002, 8.481509e+002
4.286810e+002, 8.470329e+002
4.291631e+002, 8.464363e+002
4.296453e+002, 8.460397e+002
4.301274e+002, 8.458713e+002
4.306095e+002, 8.458334e+002
4.310916e+002, 8.459911e+002
4.315737e+002, 8.462256e+002
4.320558e+002, 8.464212e+002
4.325380e+002, 8.465997e+002
4.330201e+002, 8.463129e+002
4.335022e+002, 8.447360e+002
4.339843e+002, 8.415826e+002
4.344664e+002, 8.396882e+002
4.349485e+002, 8.402726e+002
4.354307e+002, 8.411766e+002
4.359128e+002, 8.410723e+002
4.363949e+002, 8.400428e+002
4.368770e+002, 8.386508e+002
4.373591e+002, 8.371823e+002
4.378412e+002, 8.356839e+002
4.383234e+002, 8.343615e+002
4.388055e+002, 8.330141e+002
4.392876e+002, 8.321190e+002
4.397697e+002, 8.319252e+002
4.402518e+002, 8.320856e+002
4.407339e+002, 8.324429e+002
4.412160e+002, 8.328844e+002
4.416982e+002, 8.331129e+002
4.421803e+002, 8.327215e+002
4.426624e+002, 8.315807e+002
4.431445e+002, 8.307832e+002
4.436266e+002, 8.305958e+002
4.441087e+002, 8.304880e+002
4.445909e+002, 8.304305e+002
4.450730e+002, 8.303214e+002
4.455551e+002, 8.299830e+002
4.460372e+002, 8.293031e+002
4.465193e+002, 8.284647e+002
4.470014e+002, 8.279386e+002
4.474836e+002, 8.279362e+002
4.479657e+002, 8.276140e+002
4.484478e+002, 8.262322e+002
4.489299e+002, 8.249070e+002
4.494120e+002, 8.244952e+002
4.498941e+002, 8.249622e+002
4.503763e+002, 8.254580e+002
4.508584e+002, 8.253800e+002
4.513405e+002, 8.248001e+002
4.518226e+002, 8.238860e+002
4.523047e+002, 8.223568e+002
4.527868e+002, 8.212090e+002
4.532690e+002, 8.217171e+002
4.537511e+002, 8.228108e+002
4.542332e+002, 8.228958e+002
4.547153e+002, 8.213676e+002
4.551974e+002, 8.192880e+002
4.556795e+002, 8.169343e+002
4.561617e+002, 8.146113e+002
4.566438e+002, 8.138155e+002
4.571259e+002, 8.153460e+002
4.576080e+002, 8.177548e+002
4.580901e+002, 8.194019e+002
4.585722e+002, 8.203609e+002
4.590544e+002, 8.204436e+002
4.595365e+002, 8.187690e+002
4.600186e+002, 8.168165e+002
4.605007e+002, 8.158141e+002
4.609828e+002, 8.157650e+002
4.614649e+002, 8.162492e+002
4.619471e+002, 8.171500e+002
4.624292e+002, 8.182520e+002
4.629113e+002, 8.186497e+002
4.633934e+002, 8.179674e+002
4.638755e+002, 8.171307e+002
4.643576e+002, 8.158469e+002
4.648398e+002, 8.146598e+002
4.653219e+002, 8.142753e+002
4.658040e+002, 8.147468e+002
4.662861e+002, 8.153895e+002
4.667682e+002, 8.154016e+002
4.672503e+002, 8.146608e+002
4.677325e+002, 8.144342e+002
4.682146e+002, 8.147839e+002
4.686967e+002, 8.155931e+002
4.691788e+002, 8.170576e+002
4.696609e+002, 8.189072e+002
4.701430e+002, 8.208345e+002
4.706252e+002, 8.227197e+002
4.711073e+002, 8.244281e+002
4.715894e+002, 8.256199e+002
4.720715e+002, 8.261199e+002
4.725536e+002, 8.268873e+002
4.730357e+002, 8.283649e+002
4.735179e+002, 8.298941e+002
4.740000e+002, 8.312665e+002
4.744821e+002, 8.323948e+002
4.749642e+002, 8.330673e+002
4.754463e+002, 8.326467e+002
4.759284e+002, 8.318611e+002
4.764106e+002, 8.322734e+002
4.768927e+002, 8.339398e+002
4.773748e+002, 8.365025e+002
4.778569e+002, 8.405273e+002
4.783390e+002, 8.449717e+002
4.788211e+002, 8.481136e+002
4.793033e+002, 8.495744e+002
4.797854e+002, 8.508519e+002
4.802675e+002, 8.520386e+002
4.807496e+002, 8.537076e+002
4.812317e+002, 8.574066e+002
4.817138e+002, 8.634957e+002
4.821959e+002, 8.695758e+002
4.826780e+002, 8.734615e+002
4.831602e+002, 8.751332e+002
4.836423e+002, 8.771511e+002
4.841244e+002, 8.791732e+002
4.846065e+002, 8.818716e+002
4.850886e+002, 8.858860e+002
4.855707e+002, 8.907018e+002
4.860529e+002, 8.953918e+002
4.865350e+002, 8.996258e+002
4.870171e+002, 9.037676e+002
4.874992e+002, 9.084209e+002
4.879813e+002, 9.139766e+002
4.884634e+002, 9.190627e+002
4.889456e+002, 9.228170e+002
4.894277e+002, 9.269918e+002
4.899098e+002, 9.326811e+002
4.903919e+002, 9.394610e+002
4.908740e+002, 9.462533e+002
4.913561e+002, 9.523874e+002
4.918383e+002, 9.581083e+002
4.923204e+002, 9.640793e+002
4.928025e+002, 9.703398e+002
4.932846e+002, 9.767063e+002
4.937667e+002, 9.830417e+002
4.942488e+002, 9.895026e+002
4.947310e+002, 9.964584e+002
4.952131e+002, 1.003793e+003
4.956952e+002, 1.010687e+003
4.961773e+002, 1.016073e+003
4.966594e+002, 1.020576e+003
4.971415e+002, 1.026006e+003
4.976237e+002, 1.032615e+003
4.981058e+002, 1.039154e+003
4.985879e+002, 1.045034e+003
4.990700e+002, 1.050417e+003
4.995521e+002, 1.055570e+003
5.000342e+002, 1.060358e+003
5.005164e+002, 1.065323e+003
5.009985e+002, 1.071277e+003
5.014806e+002, 1.077482e+003
5.019627e+002, 1.082677e+003
5.024448e+002, 1.086587e+003
5.029269e+002, 1.089766e+003
5.034091e+002, 1.092706e+003
5.038912e+002, 1.095417e+003
5.043733e+002, 1.097637e+003
5.048554e+002, 1.099832e+003
5.053375e+002, 1.101090e+003
5.058196e+002, 1.100446e+003
5.063018e+002, 1.098850e+003
5.067839e+002, 1.097769e+003
5.072660e+002, 1.097715e+003
5.077481e+002, 1.098068e+003
5.082302e+002, 1.097975e+003
5.087123e+002, 1.097576e+003
5.091945e+002, 1.096214e+003
5.096766e+002, 1.092582e+003
5.101587e+002, 1.089292e+003
5.106408e+002, 1.087791e+003
5.111229e+002, 1.087294e+003
5.116050e+002, 1.086097e+003
5.120872e+002, 1.083186e+003
5.125693e+002, 1.079725e+003
5.130514e+002, 1.078010e+003
5.135335e+002, 1.078312e+003
5.140156e+002, 1.078254e+003
5.144977e+002, 1.077330e+003
5.149799e+002, 1.075840e+003
5.154620e+002, 1.073966e+003
5.159441e+002, 1.071757e+003
5.164262e+002, 1.069512e+003
5.169083e+002, 1.066987e+003
5.173904e+002, 1.064692e+003
5.178726e+002, 1.063578e+003
5.183547e+002, 1.063546e+003
5.188368e+002, 1.063009e+003
5.193189e+002, 1.060828e+003
5.198010e+002, 1.058156e+003
5.202831e+002, 1.057921e+003
5.207653e+002, 1.060950e+003
5.212474e+002, 1.063416e+003
5.217295e+002, 1.064589e+003
5.222116e+002, 1.065000e+003
5.226937e+002, 1.064650e+003
5.231758e+002, 1.063844e+003
5.236580e+002, 1.063550e+003
5.241401e+002, 1.064490e+003
5.246222e+002, 1.066484e+003
5.251043e+002, 1.068680e+003
5.255864e+002, 1.071673e+003
5.260685e+002, 1.073964e+003
5.265507e+002, 1.074744e+003
5.270328e+002, 1.075297e+003
5.275149e+002, 1.076897e+003
5.279970e+002, 1.079525e+003
5.284791e+002, 1.081969e+003
5.289612e+002, 1.083005e+003
5.294434e+002, 1.082905e+003
5.299255e+002, 1.083372e+003
5.304076e+002, 1.084641e+003
5.308897e+002, 1.085940e+003
5.313718e+002, 1.086591e+003
5.318539e+002, 1.087278e+003
5.323361e+002, 1.088754e+003
5.328182e+002, 1.091178e+003
5.333003e+002, 1.094098e+003
5.337824e+002, 1.097847e+003
5.342645e+002, 1.101773e+003
5.347466e+002, 1.104331e+003
5.352288e+002, 1.105255e+003
5.357109e+002, 1.105742e+003
5.361930e+002, 1.106568e+003
5.366751e+002, 1.107718e+003
5.371572e+002, 1.109005e+003
5.376393e+002, 1.110094e+003
5.381215e+002, 1.111710e+003
5.386036e+002, 1.114632e+003
5.390857e+002, 1.117932e+003
5.395678e+002, 1.120490e+003
5.400499e+002, 1.122063e+003
5.405320e+002, 1.123044e+003
5.410142e+002, 1.123753e+003
5.414963e+002, 1.124170e+003
5.419784e+002, 1.124906e+003
5.424604e+002, 1.125472e+003
5.429426e+002, 1.127003e+003
5.434247e+002, 1.131225e+003
5.439068e+002, 1.135798e+003
5.443889e+002, 1.137665e+003
5.448710e+002, 1.136130e+003
5.453531e+002, 1.133897e+003
5.458353e+002, 1.134189e+003
5.463174e+002, 1.136734e+003
5.467995e+002, 1.138179e+003
5.472816e+002, 1.137900e+003
5.477637e+002, 1.137468e+003
5.482458e+002, 1.138120e+003
5.487280e+002, 1.139210e+003
5.492101e+002, 1.139634e+003
5.496922e+002, 1.138926e+003
5.501743e+002, 1.138146e+003
5.506564e+002, 1.137985e+003
5.511385e+002, 1.138227e+003
5.516207e+002, 1.138468e+003
5.521028e+002, 1.138630e+003
5.525849e+002, 1.138660e+003
5.530670e+002, 1.138473e+003
5.535491e+002, 1.138073e+003
5.540313e+002, 1.137803e+003
5.545134e+002, 1.138383e+003
5.549955e+002, 1.138237e+003
5.554776e+002, 1.136088e+003
5.559597e+002, 1.133355e+003
5.564418e+002, 1.132049e+003
5.569240e+002, 1.132550e+003
5.574061e+002, 1.133304e+003
5.578882e+002, 1.132239e+003
5.583703e+002, 1.129231e+003
5.588524e+002, 1.128019e+003
5.593345e+002, 1.130347e+003
5.598167e+002, 1.131963e+003
5.602988e+002, 1.131549e+003
5.607809e+002, 1.129666e+003
5.612630e+002, 1.126586e+003
5.617451e+002, 1.122236e+003
5.622272e+002, 1.118274e+003
5.627094e+002, 1.116728e+003
5.631915e+002, 1.116770e+003
5.636736e+002, 1.115337e+003
5.641557e+002, 1.111740e+003
5.646378e+002, 1.108386e+003
5.651199e+002, 1.107212e+003
5.656021e+002, 1.107731e+003
5.660842e+002, 1.107541e+003
5.665663e+002, 1.106455e+003
5.670484e+002, 1.104957e+003
5.675305e+002, 1.103038e+003
5.680126e+002, 1.100891e+003
5.684948e+002, 1.098627e+003
5.689769e+002, 1.096339e+003
5.694590e+002, 1.094258e+003
5.699411e+002, 1.092654e+003
5.704232e+002, 1.091498e+003
5.709053e+002, 1.090305e+003
5.713875e+002, 1.089301e+003
5.718696e+002, 1.087930e+003
5.723517e+002, 1.085631e+003
5.728338e+002, 1.083233e+003
5.733159e+002, 1.081536e+003
5.737980e+002, 1.080631e+003
5.742802e+002, 1.080012e+003
5.747623e+002, 1.079300e+003
5.752444e+002, 1.078510e+003
5.757265e+002, 1.077757e+003
5.762086e+002, 1.077113e+003
5.766907e+002, 1.076185e+003
5.771729e+002, 1.074594e+003
5.776550e+002, 1.072725e+003
5.781371e+002, 1.071108e+003
5.786192e+002, 1.069675e+003
5.791013e+002, 1.068848e+003
5.795834e+002, 1.069197e+003
5.800656e+002, 1.069990e+003
5.805477e+002, 1.070552e+003
5.810298e+002, 1.070764e+003
5.815119e+002, 1.070385e+003
5.819940e+002, 1.069108e+003
5.824761e+002, 1.067414e+003
5.829583e+002, 1.066985e+003
5.834404e+002, 1.069500e+003
5.839225e+002, 1.070703e+003
5.844046e+002, 1.069156e+003
5.848867e+002, 1.067494e+003
5.853688e+002, 1.067618e+003
5.858510e+002, 1.069231e+003
5.863331e+002, 1.070908e+003
5.868152e+002, 1.071837e+003
5.872973e+002, 1.072116e+003
5.877794e+002, 1.071714e+003
5.882615e+002, 1.070433e+003
5.887437e+002, 1.069852e+003
5.892258e+002, 1.070665e+003
5.897079e+002, 1.071975e+003
5.901900e+002, 1.072945e+003
5.906721e+002, 1.073634e+003
5.911542e+002, 1.074396e+003
5.916364e+002, 1.075130e+003
5.921185e+002, 1.076164e+003
5.926006e+002, 1.077789e+003
5.930827e+002, 1.079947e+003
5.935648e+002, 1.082568e+003
5.940469e+002, 1.085658e+003
5.945291e+002, 1.088860e+003
5.950112e+002, 1.091701e+003
5.954933e+002, 1.094160e+003
5.959754e+002, 1.096391e+003
5.964575e+002, 1.098505e+003
5.969396e+002, 1.100328e+003
5.974218e+002, 1.101400e+003
5.979039e+002, 1.102300e+003
5.983860e+002, 1.103631e+003
5.988681e+002, 1.105638e+003
5.993502e+002, 1.108639e+003
5.998323e+002, 1.113477e+003
6.003145e+002, 1.120076e+003
6.007966e+002, 1.125933e+003
6.012787e+002, 1.130899e+003
6.017608e+002, 1.135149e+003
6.022429e+002, 1.138344e+003
6.027250e+002, 1.140980e+003
6.032072e+002, 1.143592e+003
6.036893e+002, 1.145979e+003
6.041714e+002, 1.149136e+003
6.046535e+002, 1.154426e+003
6.051356e+002, 1.160428e+003
6.056177e+002, 1.164889e+003
6.060999e+002, 1.167640e+003
6.065820e+002, 1.170066e+003
6.070641e+002, 1.173092e+003
6.075462e+002, 1.176631e+003
6.080283e+002, 1.180331e+003
6.085104e+002, 1.184593e+003
6.089926e+002, 1.188420e+003
6.094747e+002, 1.191311e+003
6.099568e+002, 1.194156e+003
6.104389e+002, 1.197787e+003
6.109210e+002, 1.201993e+003
6.114031e+002, 1.205859e+003
6.118853e+002, 1.208741e+003
6.123674e+002, 1.211045e+003
6.128495e+002, 1.213511e+003
6.133316e+002, 1.216126e+003
6.138137e+002, 1.219287e+003
6.142958e+002, 1.223355e+003
6.147780e+002, 1.227681e+003
6.152601e+002, 1.231655e+003
6.157422e+002, 1.235335e+003
6.162243e+002, 1.239006e+003
6.167064e+002, 1.243232e+003
6.171885e+002, 1.246954e+003
6.176707e+002, 1.248960e+003
6.181528e+002, 1.250056e+003
6.186349e+002, 1.251904e+003
6.191170e+002, 1.254988e+003
6.195991e+002, 1.258663e+003
6.200812e+002, 1.262212e+003
6.205634e+002, 1.265648e+003
6.210455e+002, 1.268895e+003
6.215276e+002, 1.271425e+003
6.220097e+002, 1.274438e+003
6.224918e+002, 1.279051e+003
6.229739e+002, 1.283756e+003
6.234561e+002, 1.286798e+003
6.239382e+002, 1.287913e+003
6.244203e+002, 1.288572e+003
6.249023e+002, 1.289704e+003
6.253845e+002, 1.291319e+003
6.258666e+002, 1.293609e+003
6.263487e+002, 1.296653e+003
6.268308e+002, 1.299546e+003
6.273129e+002, 1.301901e+003
6.277950e+002, 1.303861e+003
6.282772e+002, 1.305702e+003
6.287593e+002, 1.307455e+003
6.292414e+002, 1.308984e+003
6.297235e+002, 1.309465e+003
6.302056e+002, 1.310435e+003
6.306877e+002, 1.313379e+003
6.311699e+002, 1.317658e+003
6.316520e+002, 1.321795e+003
6.321341e+002, 1.325097e+003
6.326162e+002, 1.327655e+003
6.330983e+002, 1.329636e+003
6.335804e+002, 1.331109e+003
6.340626e+002, 1.331667e+003
6.345447e+002, 1.330889e+003
6.350268e+002, 1.329714e+003
6.355089e+002, 1.328122e+003
6.359910e+002, 1.326581e+003
6.364731e+002, 1.325809e+003
6.369553e+002, 1.326016e+003
6.374374e+002, 1.326822e+003
6.379195e+002, 1.328434e+003
6.384016e+002, 1.330306e+003
6.388837e+002, 1.331383e+003
6.393658e+002, 1.331549e+003
6.398480e+002, 1.331360e+003
6.403301e+002, 1.331205e+003
6.408122e+002, 1.330921e+003
6.412943e+002, 1.329949e+003
6.417764e+002, 1.326643e+003
6.422585e+002, 1.325130e+003
6.427407e+002, 1.327182e+003
6.432228e+002, 1.329433e+003
6.437049e+002, 1.329506e+003
6.441870e+002, 1.327974e+003
6.446691e+002, 1.326816e+003
6.451512e+002, 1.327140e+003
6.456334e+002, 1.327995e+003
6.461155e+002, 1.327551e+003
6.465976e+002, 1.325832e+003
6.470797e+002, 1.325395e+003
6.475618e+002, 1.327233e+003
6.480439e+002, 1.329132e+003
6.485261e+002, 1.329315e+003
6.490082e+002, 1.328207e+003
6.494903e+002, 1.327140e+003
6.499724e+002, 1.326683e+003
6.504545e+002, 1.325559e+003
6.509366e+002, 1.322455e+003
6.514188e+002, 1.318858e+003
6.519009e+002, 1.316520e+003
6.523830e+002, 1.315625e+003
6.528651e+002, 1.315626e+003
6.533472e+002, 1.316299e+003
6.538293e+002, 1.317153e+003
6.543115e+002, 1.316162e+003
6.547936e+002, 1.312248e+003
6.552757e+002, 1.309090e+003
6.557578e+002, 1.307749e+003
6.562399e+002, 1.306809e+003
6.567220e+002, 1.305579e+003
6.572042e+002, 1.304113e+003
6.576863e+002, 1.302745e+003
6.581684e+002, 1.301706e+003
6.586505e+002, 1.300633e+003
6.591326e+002, 1.299039e+003
6.596147e+002, 1.297146e+003
6.600969e+002, 1.295743e+003
6.605790e+002, 1.295030e+003
6.610611e+002, 1.293984e+003
6.615432e+002, 1.291602e+003
6.620253e+002, 1.288033e+003
6.625074e+002, 1.284927e+003
6.629896e+002, 1.282484e+003
6.634717e+002, 1.280270e+003
6.639538e+002, 1.278396e+003
6.644359e+002, 1.276622e+003
6.649180e+002, 1.274475e+003
6.654001e+002, 1.272197e+003
6.658823e+002, 1.270837e+003
6.663644e+002, 1.271546e+003
6.668465e+002, 1.272679e+003
6.673286e+002, 1.271075e+003
6.678107e+002, 1.266801e+003
6.682928e+002, 1.261837e+003
6.687750e+002, 1.256068e+003
6.692571e+002, 1.251106e+003
6.697392e+002, 1.249040e+003
6.702213e+002, 1.249520e+003
6.707034e+002, 1.248772e+003
6.711855e+002, 1.246265e+003
6.716677e+002, 1.243092e+003
6.721498e+002, 1.239208e+003
6.726319e+002, 1.235072e+003
6.731140e+002, 1.231090e+003
6.735961e+002, 1.227351e+003
6.740782e+002, 1.223893e+003
6.745604e+002, 1.220882e+003
6.750425e+002, 1.217903e+003
6.755246e+002, 1.213117e+003
6.760067e+002, 1.205686e+003
6.764888e+002, 1.200328e+003
6.769709e+002, 1.199568e+003
6.774531e+002, 1.199330e+003
6.779352e+002, 1.196396e+003
6.784173e+002, 1.191310e+003
6.788994e+002, 1.185944e+003
6.793815e+002, 1.180514e+003
6.798636e+002, 1.175187e+003
6.803458e+002, 1.169738e+003
6.808279e+002, 1.164589e+003
6.813100e+002, 1.160678e+003
6.817921e+002, 1.158011e+003
6.822742e+002, 1.155293e+003
6.827563e+002, 1.151497e+003
6.832385e+002, 1.146723e+003
6.837206e+002, 1.141329e+003
6.842027e+002, 1.134838e+003
6.846848e+002, 1.128781e+003
6.851669e+002, 1.123496e+003
6.856490e+002, 1.118616e+003
6.861312e+002, 1.114208e+003
6.866133e+002, 1.110055e+003
6.870954e+002, 1.105534e+003
6.875775e+002, 1.100268e+003
6.880596e+002, 1.094843e+003
6.885417e+002, 1.089631e+003
6.890239e+002, 1.084702e+003
6.895060e+002, 1.080519e+003
6.899881e+002, 1.077109e+003
6.904702e+002, 1.073289e+003
6.909523e+002, 1.068032e+003
6.914344e+002, 1.061642e+003
6.919166e+002, 1.055497e+003
6.923987e+002, 1.049303e+003
6.928808e+002, 1.043864e+003
6.933629e+002, 1.040020e+003
6.938450e+002, 1.036186e+003
6.943271e+002, 1.031233e+003
6.948093e+002, 1.025473e+003
6.952914e+002, 1.019895e+003
6.957735e+002, 1.014932e+003
6.962556e+002, 1.010276e+003
6.967377e+002, 1.005588e+003
6.972198e+002, 1.000911e+003
6.977020e+002, 9.963032e+002
6.981841e+002, 9.917951e+002
6.986662e+002, 9.874984e+002
6.991483e+002, 9.836662e+002
6.996304e+002, 9.800060e+002
7.001125e+002, 9.754363e+002
7.005947e+002, 9.687029e+002
7.010768e+002, 9.630325e+002
7.015589e+002, 9.591884e+002
7.020410e+002, 9.557607e+002
7.025231e+002, 9.520340e+002
7.030052e+002, 9.480345e+002
7.034874e+002, 9.438206e+002
7.039695e+002, 9.393846e+002
7.044516e+002, 9.353242e+002
7.049337e+002, 9.331203e+002
7.054158e+002, 9.321489e+002
7.058979e+002, 9.287986e+002
7.063801e+002, 9.223226e+002
7.068622e+002, 9.164777e+002
7.073442e+002, 9.137313e+002
7.078264e+002, 9.128334e+002
7.083085e+002, 9.105737e+002
7.087906e+002, 9.063705e+002
7.092727e+002, 9.023489e+002
7.097548e+002, 8.986046e+002
7.102369e+002, 8.950801e+002
7.107191e+002, 8.916699e+002
7.112012e+002, 8.884794e+002
7.116833e+002, 8.858021e+002
7.121654e+002, 8.837156e+002
7.126475e+002, 8.817922e+002
7.131296e+002, 8.795867e+002
7.136118e+002, 8.771169e+002
7.140939e+002, 8.743820e+002
7.145760e+002, 8.713752e+002
7.150581e+002, 8.682079e+002
7.155402e+002, 8.646461e+002
7.160223e+002, 8.612958e+002
7.165045e+002, 8.594476e+002
7.169866e+002, 8.594688e+002
7.174687e+002, 8.586659e+002
7.179508e+002, 8.562939e+002
7.184329e+002, 8.536111e+002
7.189150e+002, 8.507384e+002
7.193972e+002, 8.481599e+002
7.198793e+002, 8.467328e+002
7.203614e+002, 8.465463e+002
7.208435e+002, 8.464396e+002
7.213256e+002, 8.451816e+002
7.218077e+002, 8.430993e+002
7.222899e+002, 8.416194e+002
7.227720e+002, 8.408473e+002
7.232541e+002, 8.396623e+002
7.237362e+002, 8.375432e+002
7.242183e+002, 8.351270e+002
7.247004e+002, 8.331936e+002
7.251826e+002, 8.317192e+002
7.256647e+002, 8.301236e+002
7.261468e+002, 8.279916e+002
7.266289e+002, 8.261938e+002
7.271110e+002, 8.250420e+002
7.275931e+002, 8.243917e+002
7.280753e+002, 8.241637e+002
7.285574e+002, 8.242933e+002
7.290395e+002, 8.246849e+002
7.295216e+002, 8.253586e+002
7.300037e+002, 8.260849e+002
7.304858e+002, 8.264789e+002
7.309680e+002, 8.265562e+002
7.314501e+002, 8.255768e+002
7.319322e+002, 8.229299e+002
7.324143e+002, 8.202828e+002
7.328964e+002, 8.190974e+002
7.333785e+002, 8.191024e+002
7.338607e+002, 8.187385e+002
7.343428e+002, 8.177816e+002
7.348249e+002, 8.168043e+002
7.353070e+002, 8.158245e+002
7.357891e+002, 8.149384e+002
7.362712e+002, 8.141326e+002
7.367534e+002, 8.134886e+002
7.372355e+002, 8.132199e+002
7.377176e+002, 8.134491e+002
7.381997e+002, 8.139064e+002
7.386818e+002, 8.143122e+002
7.391639e+002, 8.146342e+002
7.396461e+002, 8.144095e+002
7.401282e+002, 8.134120e+002
7.406103e+002, 8.127601e+002
7.410924e+002, 8.131807e+002
7.415745e+002, 8.142741e+002
7.420566e+002, 8.152139e+002
7.425388e+002, 8.160530e+002
7.430209e+002, 8.165986e+002
7.435030e+002, 8.163174e+002
7.439851e+002, 8.162793e+002
7.444672e+002, 8.174255e+002
7.449493e+002, 8.190450e+002
7.454315e+002, 8.199529e+002
7.459136e+002, 8.198520e+002
7.463957e+002, 8.195278e+002
7.468778e+002, 8.195853e+002
7.473599e+002, 8.200328e+002
7.478420e+002, 8.211262e+002
7.483242e+002, 8.228934e+002
7.488063e+002, 8.240897e+002
7.492884e+002, 8.241492e+002
7.497705e+002, 8.238388e+002
7.502526e+002, 8.240045e+002
7.507347e+002, 8.246651e+002
7.512169e+002, 8.255267e+002
7.516990e+002, 8.267886e+002
7.521811e+002, 8.279711e+002
7.526632e+002, 8.287104e+002
7.531453e+002, 8.295204e+002
7.536274e+002, 8.310157e+002
7.541096e+002, 8.330722e+002
7.545917e+002, 8.349708e+002
7.550738e+002, 8.361984e+002
7.555559e+002, 8.373295e+002
7.560380e+002, 8.393878e+002
7.565201e+002, 8.420961e+002
7.570023e+002, 8.440978e+002
7.574844e+002, 8.451407e+002
7.579665e+002, 8.460613e+002
7.584486e+002, 8.473888e+002
7.589307e+002, 8.491008e+002
7.594128e+002, 8.511276e+002
7.598950e+002, 8.535178e+002
7.603771e+002, 8.561615e+002
7.608592e+002, 8.590881e+002
7.613413e+002, 8.621995e+002
7.618234e+002, 8.655068e+002
7.623055e+002, 8.689385e+002
7.627877e+002, 8.724205e+002
7.632698e+002, 8.759234e+002
7.637519e+002, 8.794542e+002
7.642340e+002, 8.829863e+002
7.647161e+002, 8.865668e+002
7.651982e+002, 8.903446e+002
7.656804e+002, 8.942841e+002
7.661625e+002, 8.980934e+002
7.666446e+002, 9.016865e+002
7.671267e+002, 9.049777e+002
7.676088e+002, 9.077635e+002
7.680909e+002, 9.100301e+002
7.685731e+002, 9.126647e+002
7.690552e+002, 9.160406e+002
7.695373e+002, 9.191880e+002
7.700194e+002, 9.216134e+002
7.705015e+002, 9.239648e+002
7.709836e+002, 9.266929e+002
7.714658e+002, 9.297861e+002
7.719479e+002, 9.330234e+002
7.724300e+002, 9.362862e+002
7.729121e+002, 9.397242e+002
7.733942e+002, 9.434353e+002
7.738763e+002, 9.473795e+002
7.743585e+002, 9.514579e+002
7.748406e+002, 9.556883e+002
7.753227e+002, 9.603147e+002
7.758048e+002, 9.655918e+002
7.762869e+002, 9.710561e+002
7.767690e+002, 9.754937e+002
7.772512e+002, 9.787415e+002
7.777333e+002, 9.821399e+002
7.782154e+002, 9.857272e+002
7.786975e+002, 9.895704e+002
7.791796e+002, 9.936624e+002
7.796617e+002, 9.980555e+002
7.801439e+002, 1.002835e+003
7.806260e+002, 1.008128e+003
7.811081e+002, 1.013346e+003
7.815902e+002, 1.018761e+003
7.820723e+002, 1.023629e+003
7.825544e+002, 1.027141e+003
7.830366e+002, 1.029908e+003
7.835187e+002, 1.032795e+003
7.840008e+002, 1.036092e+003
7.844829e+002, 1.039861e+003
7.849650e+002, 1.044395e+003
7.854471e+002, 1.049299e+003
7.859293e+002, 1.053064e+003
7.864114e+002, 1.055648e+003
7.868935e+002, 1.059026e+003
7.873756e+002, 1.063739e+003
7.878577e+002, 1.069188e+003
7.883398e+002, 1.074721e+003
7.888220e+002, 1.080454e+003
7.893040e+002, 1.087171e+003
7.897861e+002, 1.096814e+003
7.902682e+002, 1.104652e+003
7.907504e+002, 1.109962e+003
7.912325e+002, 1.113720e+003
7.917146e+002, 1.115887e+003
7.921967e+002, 1.117161e+003
7.926788e+002, 1.118860e+003
7.931609e+002, 1.121508e+003
7.936431e+002, 1.124113e+003
7.941252e+002, 1.125800e+003
7.946073e+002, 1.126853e+003
7.950894e+002, 1.127639e+003
7.955715e+002, 1.128240e+003
7.960536e+002, 1.128853e+003
7.965358e+002, 1.129516e+003
7.970179e+002, 1.130687e+003
7.975000e+002, 1.133195e+003
7.979821e+002, 1.137154e+003
7.984642e+002, 1.139729e+003
7.989464e+002, 1.140106e+003
7.994285e+002, 1.140579e+003
7.999106e+002, 1.142440e+003
8.003927e+002, 1.144012e+003
8.008748e+002, 1.143487e+003
8.013569e+002, 1.141379e+003
8.018391e+002, 1.140296e+003
8.023212e+002, 1.141170e+003
8.028033e+002, 1.142844e+003
8.032854e+002, 1.145796e+003
8.037675e+002, 1.148549e+003
8.042496e+002, 1.148971e+003
8.047318e+002, 1.147420e+003
8.052139e+002, 1.145877e+003
8.056960e+002, 1.145423e+003
8.061781e+002, 1.145400e+003
8.066602e+002, 1.144847e+003
8.071423e+002, 1.143778e+003
8.076245e+002, 1.142253e+003
8.081066e+002, 1.140144e+003
8.085887e+002, 1.138246e+003
8.090708e+002, 1.137028e+003
8.095529e+002, 1.136052e+003
8.100350e+002, 1.134681e+003
8.105172e+002, 1.132859e+003
8.109993e+002, 1.130950e+003
8.114814e+002, 1.129225e+003
8.119635e+002, 1.127081e+003
8.124456e+002, 1.124148e+003
8.129277e+002, 1.120880e+003
8.134099e+002, 1.117518e+003
8.138920e+002, 1.114238e+003
8.143741e+002, 1.111421e+003
8.148562e+002, 1.109288e+003
8.153383e+002, 1.107634e+003
8.158204e+002, 1.106580e+003
8.163026e+002, 1.105784e+003
8.167847e+002, 1.104517e+003
8.172668e+002, 1.102695e+003
8.177489e+002, 1.100467e+003
8.182310e+002, 1.097888e+003
8.187131e+002, 1.095119e+003
8.191953e+002, 1.092453e+003
8.196774e+002, 1.089865e+003
8.201595e+002, 1.087589e+003
8.206416e+002, 1.086333e+003
8.211237e+002, 1.083983e+003
8.216058e+002, 1.079153e+003
8.220880e+002, 1.073236e+003
8.225701e+002, 1.067391e+003
8.230522e+002, 1.061673e+003
8.235343e+002, 1.057230e+003
8.240164e+002, 1.055560e+003
8.244985e+002, 1.053716e+003
8.249807e+002, 1.049751e+003
8.254628e+002, 1.045362e+003
8.259449e+002, 1.042747e+003
8.264270e+002, 1.041692e+003
8.269091e+002, 1.040418e+003
8.273912e+002, 1.037960e+003
8.278734e+002, 1.034661e+003
8.283555e+002, 1.030683e+003
8.288376e+002, 1.026251e+003
8.293197e+002, 1.022373e+003
8.298018e+002, 1.019162e+003
8.302839e+002, 1.015924e+003
8.307661e+002, 1.012321e+003
8.312482e+002, 1.008534e+003
8.317303e+002, 1.004808e+003
8.322124e+002, 1.001152e+003
8.326945e+002, 9.976068e+002
8.331766e+002, 9.938978e+002
8.336588e+002, 9.907482e+002
8.341409e+002, 9.888234e+002
8.346230e+002, 9.871042e+002
8.351051e+002, 9.849354e+002
8.355872e+002, 9.822294e+002
8.360693e+002, 9.788078e+002
8.365515e+002, 9.740974e+002
8.370336e+002, 9.694991e+002
8.375157e+002, 9.658728e+002
8.379978e+002, 9.626865e+002
8.384799e+002, 9.594519e+002
8.389620e+002, 9.560631e+002
8.394442e+002, 9.523887e+002
8.399263e+002, 9.483716e+002
8.404084e+002, 9.443642e+002
8.408905e+002, 9.407609e+002
8.413726e+002, 9.376019e+002
8.418547e+002, 9.354341e+002
8.423369e+002, 9.343719e+002
8.428190e+002, 9.328026e+002
8.433011e+002, 9.302509e+002
8.437832e+002, 9.267116e+002
8.442653e+002, 9.220310e+002
8.447474e+002, 9.162310e+002
8.452296e+002, 9.107135e+002
8.457117e+002, 9.053495e+002
8.461938e+002, 9.005002e+002
8.466759e+002, 8.962452e+002
8.471580e+002, 8.924290e+002
8.476401e+002, 8.892150e+002
8.481223e+002, 8.862976e+002
8.486044e+002, 8.829819e+002
8.490865e+002, 8.789913e+002
8.495686e+002, 8.750586e+002
8.500507e+002, 8.716744e+002
8.505328e+002, 8.684487e+002
8.510150e+002, 8.649938e+002
8.514971e+002, 8.613422e+002
8.519792e+002, 8.575787e+002
8.524613e+002, 8.537746e+002
8.529434e+002, 8.500360e+002
8.534255e+002, 8.465452e+002
8.539077e+002, 8.431995e+002
8.543898e+002, 8.398103e+002
8.548719e+002, 8.363708e+002
8.553540e+002, 8.323439e+002
8.558361e+002, 8.274122e+002
8.563182e+002, 8.228659e+002
8.568004e+002, 8.197647e+002
8.572825e+002, 8.177427e+002
8.577646e+002, 8.156945e+002
8.582467e+002, 8.143568e+002
8.587288e+002, 8.113647e+002
8.592109e+002, 8.052272e+002
8.596931e+002, 7.992257e+002
8.601752e+002, 7.943170e+002
8.606573e+002, 7.902610e+002
8.611394e+002, 7.868382e+002
8.616215e+002, 7.839835e+002
8.621036e+002, 7.813279e+002
8.625858e+002, 7.790020e+002
8.630679e+002, 7.764966e+002
8.635500e+002, 7.734362e+002
8.640321e+002, 7.700059e+002
8.645142e+002, 7.663931e+002
8.649963e+002, 7.626740e+002
8.654785e+002, 7.590410e+002
8.659606e+002, 7.555987e+002
8.664427e+002, 7.523246e+002
8.669248e+002, 7.494465e+002
8.674069e+002, 7.467828e+002
8.678890e+002, 7.430401e+002
8.683712e+002, 7.381014e+002
8.688533e+002, 7.339103e+002
8.693354e+002, 7.314609e+002
8.698175e+002, 7.293704e+002
8.702996e+002, 7.257247e+002
8.707817e+002, 7.204970e+002
8.712639e+002, 7.160704e+002
8.717459e+002, 7.129531e+002
8.722280e+002, 7.097416e+002
8.727101e+002, 7.057757e+002
8.731923e+002, 7.020925e+002
8.736744e+002, 6.997614e+002
8.741565e+002, 6.981531e+002
8.746386e+002, 6.955508e+002
8.751207e+002, 6.912568e+002
8.756028e+002, 6.873348e+002
8.760850e+002, 6.851141e+002
8.765671e+002, 6.829576e+002
8.770492e+002, 6.794930e+002
8.775313e+002, 6.752948e+002
8.780134e+002, 6.712374e+002
8.784955e+002, 6.676374e+002
8.789777e+002, 6.647465e+002
8.794598e+002, 6.630731e+002
8.799419e+002, 6.618578e+002
8.804240e+002, 6.597370e+002
8.809061e+002, 6.569788e+002
8.813882e+002, 6.546013e+002
8.818704e+002, 6.527551e+002
8.823525e+002, 6.510245e+002
8.828346e+002, 6.491453e+002
8.833167e+002, 6.472695e+002
8.837988e+002, 6.457884e+002
8.842809e+002, 6.447928e+002
8.847631e+002, 6.435638e+002
8.852452e+002, 6.423530e+002
8.857273e+002, 6.402250e+002
8.862094e+002, 6.363478e+002
8.866915e+002, 6.319274e+002
8.871736e+002, 6.282369e+002
8.876558e+002, 6.252426e+002
8.881379e+002, 6.222502e+002
8.886200e+002, 6.188344e+002
8.891021e+002, 6.159942e+002
8.895842e+002, 6.142997e+002
8.900663e+002, 6.128430e+002
8.905485e+002, 6.111906e+002
8.910306e+002, 6.092518e+002
8.915127e+002, 6.068135e+002
8.919948e+002, 6.037648e+002
8.924769e+002, 6.011364e+002
8.929590e+002, 5.998243e+002
8.934412e+002, 5.990566e+002
8.939233e+002, 5.984197e+002
8.944054e+002, 5.975795e+002
8.948875e+002, 5.957364e+002
8.953696e+002, 5.928666e+002
8.958517e+002, 5.898158e+002
8.963339e+002, 5.871452e+002
8.968160e+002, 5.849686e+002
8.972981e+002, 5.839380e+002
8.977802e+002, 5.838467e+002
8.982623e+002, 5.823217e+002
8.987444e+002, 5.790180e+002
8.992266e+002, 5.760167e+002
8.997087e+002, 5.744120e+002
9.001908e+002, 5.732324e+002
9.006729e+002, 5.709823e+002
9.011550e+002, 5.675960e+002
9.016371e+002, 5.645817e+002
9.021193e+002, 5.621418e+002
9.026014e+002, 5.596593e+002
9.030835e+002, 5.565009e+002
9.035656e+002, 5.537813e+002
9.040477e+002, 5.527757e+002
9.045298e+002, 5.527315e+002
9.050120e+002, 5.515996e+002
9.054941e+002, 5.485516e+002
9.059762e+002, 5.462026e+002
9.064583e+002, 5.463660e+002
9.069404e+002, 5.461708e+002
9.074225e+002, 5.435316e+002
9.079047e+002, 5.396796e+002
9.083868e+002, 5.361474e+002
9.088689e+002, 5.333204e+002
9.093510e+002, 5.311531e+002
9.098331e+002, 5.299400e+002
9.103152e+002, 5.288922e+002
9.107974e+002, 5.272620e+002
9.112795e+002, 5.251866e+002
9.117616e+002, 5.227076e+002
9.122437e+002, 5.200037e+002
9.127258e+002, 5.177653e+002
9.132079e+002, 5.163210e+002
9.136901e+002, 5.149933e+002
9.141722e+002, 5.126098e+002
9.146543e+002, 5.095134e+002
9.151364e+002, 5.077544e+002
9.156185e+002, 5.073712e+002
9.161006e+002, 5.073173e+002
9.165828e+002, 5.075527e+002
9.170649e+002, 5.069431e+002
9.175470e+002, 5.043256e+002
9.180291e+002, 5.003098e+002
9.185112e+002, 4.971351e+002
9.189933e+002, 4.951661e+002
9.194755e+002, 4.930585e+002
9.199576e+002, 4.907883e+002
9.204397e+002, 4.884161e+002
9.209218e+002, 4.859035e+002
9.214039e+002, 4.833437e+002
9.218860e+002, 4.808208e+002
9.223682e+002, 4.783433e+002
9.228503e+002, 4.760017e+002
9.233324e+002, 4.739337e+002
9.238145e+002, 4.718358e+002
9.242966e+002, 4.693860e+002
9.247787e+002, 4.670922e+002
9.252609e+002, 4.655814e+002
9.257430e+002, 4.644903e+002
9.262251e+002, 4.630210e+002
9.267072e+002, 4.609314e+002
9.271893e+002, 4.587126e+002
9.276714e+002, 4.566802e+002
9.281536e+002, 4.546941e+002
9.286357e+002, 4.521376e+002
9.291178e+002, 4.496674e+002
9.295999e+002, 4.490313e+002
9.300820e+002, 4.500668e+002
9.305641e+002, 4.504337e+002
9.310463e+002, 4.486278e+002
9.315284e+002, 4.455000e+002
9.320105e+002, 4.419930e+002
9.324926e+002, 4.383147e+002
9.329747e+002, 4.353214e+002
9.334568e+002, 4.330540e+002
9.339390e+002, 4.313947e+002
9.344211e+002, 4.303762e+002
9.349032e+002, 4.292774e+002
9.353853e+002, 4.271646e+002
9.358674e+002, 4.243791e+002
9.363495e+002, 4.232251e+002
9.368317e+002, 4.244174e+002
9.373138e+002, 4.239968e+002
9.377959e+002, 4.209429e+002
9.382780e+002, 4.174448e+002
9.387601e+002, 4.142234e+002
9.392422e+002, 4.116555e+002
9.397244e+002, 4.107580e+002
9.402065e+002, 4.121471e+002
9.406886e+002, 4.115553e+002
9.411707e+002, 4.071183e+002
9.416528e+002, 4.033152e+002
9.421349e+002, 4.014800e+002
9.426171e+002, 4.001094e+002
9.430992e+002, 3.981751e+002
9.435813e+002, 3.957933e+002
9.440634e+002, 3.934012e+002
9.445455e+002, 3.910036e+002
9.450276e+002, 3.888999e+002
9.455098e+002, 3.873365e+002
9.459919e+002, 3.859428e+002
9.464740e+002, 3.844960e+002
9.469561e+002, 3.830763e+002
9.474382e+002, 3.819335e+002
9.479203e+002, 3.809970e+002
9.484025e+002, 3.797390e+002
9.488846e+002, 3.777103e+002
9.493667e+002, 3.757007e+002
9.498488e+002, 3.747994e+002
9.503309e+002, 3.742011e+002
9.508130e+002, 3.723344e+002
9.512952e+002, 3.695891e+002
9.517773e+002, 3.675649e+002
9.522594e+002, 3.667793e+002
9.527415e+002, 3.664850e+002
9.532236e+002, 3.661178e+002
9.537057e+002, 3.655327e+002
9.541878e+002, 3.641718e+002
9.546699e+002, 3.621955e+002
9.551520e+002, 3.608061e+002
9.556342e+002, 3.601619e+002
9.561163e+002, 3.591470e+002
9.565984e+002, 3.570677e+002
9.570805e+002, 3.547953e+002
9.575626e+002, 3.537867e+002
9.580447e+002, 3.540126e+002
9.585269e+002, 3.542008e+002
9.590090e+002, 3.545255e+002
9.594911e+002, 3.539678e+002
9.599732e+002, 3.519418e+002
9.604553e+002, 3.498415e+002
9.609374e+002, 3.487807e+002
9.614196e+002, 3.483880e+002
9.619017e+002, 3.476188e+002
9.623838e+002, 3.463500e+002
9.628659e+002, 3.450659e+002
9.633480e+002, 3.431539e+002
9.638301e+002, 3.420681e+002
9.643123e+002, 3.429141e+002
9.647944e+002, 3.441268e+002
9.652765e+002, 3.443794e+002
9.657586e+002, 3.438058e+002
9.662407e+002, 3.431686e+002
9.667228e+002, 3.423810e+002
9.672050e+002, 3.418986e+002
9.676871e+002, 3.423428e+002
9.681692e+002, 3.425524e+002
9.686513e+002, 3.417407e+002
9.691334e+002, 3.403652e+002
9.696155e+002, 3.390287e+002
9.700977e+002, 3.378170e+002
9.705798e+002, 3.365361e+002
9.710619e+002, 3.348913e+002
9.715440e+002, 3.335121e+002
9.720261e+002, 3.328878e+002
9.725082e+002, 3.326591e+002
9.729904e+002, 3.326527e+002
9.734725e+002, 3.326723e+002
9.739546e+002, 3.323109e+002
9.744367e+002, 3.314901e+002
9.749188e+002, 3.307157e+002
9.754009e+002, 3.302700e+002
9.758831e+002, 3.302191e+002
9.763652e+002, 3.311859e+002
9.768473e+002, 3.324363e+002
9.773294e+002, 3.320950e+002
9.778115e+002, 3.302822e+002
9.782936e+002, 3.287287e+002
9.787758e+002, 3.282503e+002
9.792579e+002, 3.283715e+002
9.797400e+002, 3.285262e+002
9.802221e+002, 3.287939e+002
9.807042e+002, 3.297835e+002
9.811863e+002, 3.312931e+002
9.816685e+002, 3.313816e+002
9.821506e+002, 3.296735e+002
9.826327e+002, 3.281859e+002
9.831148e+002, 3.282874e+002
9.835969e+002, 3.291460e+002
9.840790e+002, 3.292761e+002
9.845612e+002, 3.286797e+002
9.850433e+002, 3.272333e+002
9.855254e+002, 3.246668e+002
9.860075e+002, 3.228875e+002
9.864896e+002, 3.224578e+002
9.869717e+002, 3.227698e+002
9.874539e+002, 3.235779e+002
9.879360e+002, 3.245199e+002
9.884181e+002, 3.243885e+002
9.889002e+002, 3.227969e+002
9.893823e+002, 3.214711e+002
9.898644e+002, 3.203114e+002
9.903466e+002, 3.196243e+002
9.908287e+002, 3.197274e+002
9.913108e+002, 3.200935e+002
9.917929e+002, 3.201975e+002
9.922750e+002, 3.201122e+002
9.927571e+002, 3.202776e+002
9.932393e+002, 3.210117e+002
9.937214e+002, 3.214279e+002
9.942035e+002, 3.214209e+002
9.946856e+002, 3.212121e+002
9.951677e+002, 3.207171e+002
9.956498e+002, 3.201826e+002
9.961320e+002, 3.199453e+002
9.966141e+002, 3.199529e+002
9.970962e+002, 3.197290e+002
9.975783e+002, 3.188975e+002
9.980604e+002, 3.183057e+002
9.985425e+002, 3.184509e+002
9.990247e+002, 3.185990e+002
9.995068e+002, 3.180995e+002
9.999889e+002, 3.174101e+002
1.000471e+003, 3.172776e+002
1.000953e+003, 3.177427e+002
1.001435e+003, 3.181347e+002
1.001917e+003, 3.180203e+002
1.002399e+003, 3.180071e+002
1.002882e+003, 3.188822e+002
1.003364e+003, 3.196130e+002
1.003846e+003, 3.186082e+002
1.004328e+003, 3.169131e+002
1.004810e+003, 3.170614e+002
1.005292e+003, 3.194198e+002
1.005774e+003, 3.210720e+002
1.006256e+003, 3.196466e+002
1.006739e+003, 3.174804e+002
1.007221e+003, 3.166455e+002
1.007703e+003, 3.165268e+002
1.008185e+003, 3.163081e+002
1.008667e+003, 3.159918e+002
1.009149e+003, 3.159467e+002
1.009631e+003, 3.162773e+002
1.010113e+003, 3.165961e+002
1.010595e+003, 3.165917e+002
1.011078e+003, 3.163450e+002
1.011560e+003, 3.157443e+002
1.012042e+003, 3.150630e+002
1.012524e+003, 3.151191e+002
1.013006e+003, 3.158071e+002
1.013488e+003, 3.160053e+002
1.013970e+003, 3.152514e+002
1.014452e+003, 3.148761e+002
1.014935e+003, 3.168321e+002
1.015417e+003, 3.199083e+002
1.015899e+003, 3.209694e+002
1.016381e+003, 3.203713e+002
1.016863e+003, 3.196317e+002
1.017345e+003, 3.190127e+002
1.017827e+003, 3.185655e+002
1.018309e+003, 3.183290e+002
1.018791e+003, 3.180779e+002
1.019274e+003, 3.174072e+002
1.019756e+003, 3.164828e+002
1.020238e+003, 3.161808e+002
1.020720e+003, 3.164774e+002
1.021202e+003, 3.166386e+002
1.021684e+003, 3.165283e+002
1.022166e+003, 3.165312e+002
1.022648e+003, 3.169137e+002
1.023130e+003, 3.172934e+002
1.023613e+003, 3.169144e+002
1.024095e+003, 3.158705e+002
1.024577e+003, 3.159534e+002
1.025059e+003, 3.173633e+002
1.025541e+003, 3.181398e+002
1.026023e+003, 3.178283e+002
1.026505e+003, 3.171800e+002
1.026987e+003, 3.164777e+002
1.027469e+003, 3.161437e+002
1.027952e+003, 3.171399e+002
1.028434e+003, 3.195696e+002
1.028916e+003, 3.208556e+002
1.029398e+003, 3.207909e+002
1.029880e+003, 3.202607e+002
1.030362e+003, 3.192160e+002
1.030844e+003, 3.182681e+002
1.031326e+003, 3.179454e+002
1.031809e+003, 3.178214e+002
1.032291e+003, 3.168508e+002
1.032773e+003, 3.147523e+002
1.033255e+003, 3.143260e+002
1.033737e+003, 3.166167e+002
1.034219e+003, 3.183075e+002
1.034701e+003, 3.186881e+002
1.035183e+003, 3.184679e+002
1.035666e+003, 3.179601e+002
1.036148e+003, 3.172477e+002
1.036630e+003, 3.163932e+002
1.037112e+003, 3.152074e+002
1.037594e+003, 3.149489e+002
1.038076e+003, 3.163009e+002
1.038558e+003, 3.174814e+002
1.039040e+003, 3.181937e+002
1.039522e+003, 3.186281e+002
1.040005e+003, 3.187896e+002
1.040487e+003, 3.187882e+002
1.040969e+003, 3.188428e+002
1.041451e+003, 3.189460e+002
1.041933e+003, 3.191336e+002
1.042415e+003, 3.193326e+002
1.042897e+003, 3.197215e+002
1.043379e+003, 3.209782e+002
1.043861e+003, 3.217979e+002
1.044344e+003, 3.208075e+002
1.044826e+003, 3.189640e+002
1.045308e+003, 3.181928e+002
1.045790e+003, 3.187729e+002
1.046272e+003, 3.193227e+002
1.046754e+003, 3.197332e+002
1.047236e+003, 3.200533e+002
1.047718e+003, 3.203794e+002
1.048201e+003, 3.205370e+002
1.048683e+003, 3.202150e+002
1.049165e+003, 3.197094e+002
1.049647e+003, 3.196378e+002
1.050129e+003, 3.201214e+002
1.050611e+003, 3.203665e+002
1.051093e+003, 3.197872e+002
1.051575e+003, 3.195321e+002
1.052057e+003, 3.198997e+002
1.052540e+003, 3.207451e+002
1.053022e+003, 3.222218e+002
1.053504e+003, 3.239901e+002
1.053986e+003, 3.256683e+002
1.054468e+003, 3.272258e+002
1.054950e+003, 3.277956e+002
1.055432e+003, 3.263811e+002
1.055914e+003, 3.249867e+002
1.056396e+003, 3.240208e+002
1.056879e+003, 3.235923e+002
1.057361e+003, 3.241829e+002
1.057843e+003, 3.251972e+002
1.058325e+003, 3.255919e+002
1.058807e+003, 3.252192e+002
1.059289e+003, 3.249070e+002
1.059771e+003, 3.251694e+002
1.060253e+003, 3.252104e+002
1.060736e+003, 3.246195e+002
1.061218e+003, 3.238021e+002
1.061700e+003, 3.228745e+002
1.062182e+003, 3.220233e+002
1.062664e+003, 3.215062e+002
1.063146e+003, 3.213562e+002
1.063628e+003, 3.214088e+002
1.064110e+003, 3.218260e+002
1.064593e+003, 3.221197e+002
1.065075e+003, 3.219708e+002
1.065557e+003, 3.217404e+002
1.066039e+003, 3.218656e+002
1.066521e+003, 3.220158e+002
1.067003e+003, 3.213798e+002
1.067485e+003, 3.200313e+002
1.067967e+003, 3.194967e+002
1.068449e+003, 3.209813e+002
1.068932e+003, 3.222629e+002
1.069414e+003, 3.218936e+002
1.069896e+003, 3.214088e+002
1.070378e+003, 3.221458e+002
1.070860e+003, 3.234062e+002
1.071342e+003, 3.241439e+002
1.071824e+003, 3.242498e+002
1.072306e+003, 3.242063e+002
1.072788e+003, 3.241398e+002
1.073271e+003, 3.240601e+002
1.073753e+003, 3.238465e+002
1.074235e+003, 3.237509e+002
1.074717e+003, 3.240131e+002
1.075199e+003, 3.244681e+002
1.075681e+003, 3.251513e+002
1.076163e+003, 3.258416e+002
1.076645e+003, 3.256469e+002
1.077127e+003, 3.238714e+002
1.077610e+003, 3.224602e+002
1.078092e+003, 3.223186e+002
1.078574e+003, 3.228438e+002
1.079056e+003, 3.241730e+002
1.079538e+003, 3.255537e+002
1.080020e+003, 3.260468e+002
1.080502e+003, 3.257831e+002
1.080984e+003, 3.254765e+002
1.081467e+003, 3.252469e+002
1.081949e+003, 3.254942e+002
1.082431e+003, 3.269800e+002
1.082913e+003, 3.283231e+002
1.083395e+003, 3.285063e+002
1.083877e+003, 3.282362e+002
1.084359e+003, 3.282900e+002
1.084841e+003, 3.285863e+002
1.085323e+003, 3.285371e+002
1.085806e+003, 3.278979e+002
1.086288e+003, 3.278581e+002
1.086770e+003, 3.296023e+002
1.087252e+003, 3.312221e+002
1.087734e+003, 3.318619e+002
1.088216e+003, 3.318145e+002
1.088698e+003, 3.310893e+002
1.089180e+003, 3.300078e+002
1.089662e+003, 3.290367e+002
1.090145e+003, 3.282653e+002
1.090627e+003, 3.279922e+002
1.091109e+003, 3.282315e+002
1.091591e+003, 3.291197e+002
1.092073e+003, 3.312007e+002
1.092555e+003, 3.334843e+002
1.093037e+003, 3.355973e+002
1.093519e+003, 3.371558e+002
1.094002e+003, 3.376264e+002
1.094484e+003, 3.369592e+002
1.094966e+003, 3.356002e+002
1.095448e+003, 3.327826e+002
1.095930e+003, 3.306400e+002
1.096412e+003, 3.303246e+002
1.096894e+003, 3.304124e+002
1.097376e+003, 3.297135e+002
1.097859e+003, 3.290302e+002
1.098341e+003, 3.296368e+002
1.098823e+003, 3.314628e+002
1.099305e+003, 3.332578e+002
1.099787e+003, 3.350214e+002
1.100269e+003, 3.361359e+002
1.100751e+003, 3.363571e+002
1.101233e+003, 3.359874e+002
1.101715e+003, 3.346385e+002
1.102198e+003, 3.331839e+002
1.102680e+003, 3.325661e+002
1.103162e+003, 3.326599e+002
1.103644e+003, 3.328180e+002
1.104126e+003, 3.331113e+002
1.104608e+003, 3.329420e+002
1.105090e+003, 3.310663e+002
1.105572e+003, 3.302003e+002
1.106054e+003, 3.322565e+002
1.106537e+003, 3.347964e+002
1.107019e+003, 3.359574e+002
1.107501e+003, 3.360386e+002
1.107983e+003, 3.359261e+002
1.108465e+003, 3.356645e+002
1.108947e+003, 3.353324e+002
1.109429e+003, 3.348688e+002
1.109911e+003, 3.344269e+002
1.110394e+003, 3.338716e+002
1.110876e+003, 3.335199e+002
1.111358e+003, 3.337425e+002
1.111840e+003, 3.342021e+002
1.112322e+003, 3.342232e+002
1.112804e+003, 3.337483e+002
1.113286e+003, 3.339092e+002
1.113768e+003, 3.353921e+002
1.114250e+003, 3.363528e+002
1.114733e+003, 3.359379e+002
1.115215e+003, 3.360168e+002
1.115697e+003, 3.382505e+002
1.116179e+003, 3.405487e+002
1.116661e+003, 3.400010e+002
1.117143e+003, 3.371772e+002
1.117625e+003, 3.363581e+002
1.118107e+003, 3.385719e+002
1.118589e+003, 3.403385e+002
1.119072e+003, 3.413490e+002
1.119554e+003, 3.425596e+002
1.120036e+003, 3.448089e+002
1.120518e+003, 3.464624e+002
1.121000e+003, 3.459384e+002
1.121482e+003, 3.438641e+002
1.121964e+003, 3.419068e+002
1.122446e+003, 3.397902e+002
1.122929e+003, 3.396746e+002
1.123411e+003, 3.422904e+002
1.123893e+003, 3.443614e+002
1.124375e+003, 3.450036e+002
1.124857e+003, 3.456028e+002
1.125339e+003, 3.471687e+002
1.125821e+003, 3.489211e+002
1.126303e+003, 3.494592e+002
1.126786e+003, 3.488513e+002
1.127268e+003, 3.483907e+002
1.127750e+003, 3.481161e+002
1.128232e+003, 3.475687e+002
1.128714e+003, 3.466152e+002
1.129196e+003, 3.460126e+002
1.129678e+003, 3.461377e+002
1.130160e+003, 3.465590e+002
1.130642e+003, 3.467626e+002
1.131125e+003, 3.469052e+002
1.131607e+003, 3.475951e+002
1.132089e+003, 3.488001e+002
1.132571e+003, 3.500183e+002
1.133053e+003, 3.512144e+002
1.133535e+003, 3.518940e+002
1.134017e+003, 3.519094e+002
1.134499e+003, 3.518269e+002
1.134981e+003, 3.520675e+002
1.135464e+003, 3.525661e+002
1.135946e+003, 3.532900e+002
1.136428e+003, 3.541603e+002
1.136910e+003, 3.548441e+002
1.137392e+003, 3.553830e+002
1.137874e+003, 3.558169e+002
1.138356e+003, 3.562711e+002
1.138838e+003, 3.578589e+002
1.139321e+003, 3.611681e+002
1.139803e+003, 3.637079e+002
1.140285e+003, 3.619455e+002
1.140767e+003, 3.582794e+002
1.141249e+003, 3.569385e+002
1.141731e+003, 3.571955e+002
1.142213e+003, 3.578220e+002
1.142695e+003, 3.584794e+002
1.143177e+003, 3.584938e+002
1.143660e+003, 3.578145e+002
1.144142e+003, 3.578700e+002
1.144624e+003, 3.600755e+002
1.145106e+003, 3.624623e+002
1.145588e+003, 3.627847e+002
1.146070e+003, 3.622534e+002
1.146552e+003, 3.622209e+002
1.147034e+003, 3.625893e+002
1.147516e+003, 3.630009e+002
1.147999e+003, 3.634039e+002
1.148481e+003, 3.639051e+002
1.148963e+003, 3.645420e+002
1.149445e+003, 3.653311e+002
1.149927e+003, 3.667499e+002
1.150409e+003, 3.677893e+002
1.150891e+003, 3.672236e+002
1.151373e+003, 3.662910e+002
1.151856e+003, 3.663073e+002
1.152338e+003, 3.671007e+002
1.152820e+003, 3.680594e+002
1.153302e+003, 3.690498e+002
1.153784e+003, 3.697916e+002
1.154266e+003, 3.700245e+002
1.154748e+003, 3.702350e+002
1.155230e+003, 3.704568e+002
1.155713e+003, 3.708453e+002
1.156195e+003, 3.715611e+002
1.156677e+003, 3.724628e+002
1.157159e+003, 3.735792e+002
1.157641e+003, 3.747819e+002
1.158123e+003, 3.752365e+002
1.158605e+003, 3.741655e+002
1.159087e+003, 3.738678e+002
1.159569e+003, 3.747598e+002
1.160052e+003, 3.760853e+002
1.160534e+003, 3.781772e+002
1.161016e+003, 3.800401e+002
1.161498e+003, 3.808004e+002
1.161980e+003, 3.808895e+002
1.162462e+003, 3.812614e+002
1.162944e+003, 3.819693e+002
1.163426e+003, 3.823504e+002
1.163908e+003, 3.821961e+002
1.164391e+003, 3.823102e+002
1.164873e+003, 3.827903e+002
1.165355e+003, 3.835509e+002
1.165837e+003, 3.845505e+002
1.166319e+003, 3.858610e+002
1.166801e+003, 3.876906e+002
1.167283e+003, 3.897788e+002
1.167765e+003, 3.909967e+002
1.168247e+003, 3.913116e+002
1.168730e+003, 3.917326e+002
1.169212e+003, 3.923017e+002
1.169694e+003, 3.929533e+002
1.170176e+003, 3.936682e+002
1.170658e+003, 3.943913e+002
1.171140e+003, 3.950469e+002
1.171622e+003, 3.959842e+002
1.172104e+003, 3.981923e+002
1.172587e+003, 4.009815e+002
1.173069e+003, 4.019203e+002
1.173551e+003, 4.013875e+002
1.174033e+003, 4.002055e+002
1.174515e+003, 3.989490e+002
1.174997e+003, 4.000039e+002
1.175479e+003, 4.040450e+002
1.175961e+003, 4.076328e+002
1.176443e+003, 4.077606e+002
1.176926e+003, 4.064570e+002
1.177408e+003, 4.056728e+002
1.177890e+003, 4.054857e+002
1.178372e+003, 4.064075e+002
1.178854e+003, 4.078492e+002
1.179336e+003, 4.086299e+002
1.179818e+003, 4.087098e+002
1.180300e+003, 4.088022e+002
1.180782e+003, 4.091589e+002
1.181265e+003, 4.099144e+002
1.181747e+003, 4.114221e+002
1.182229e+003, 4.130286e+002
1.182711e+003, 4.144539e+002
1.183193e+003, 4.156398e+002
1.183675e+003, 4.163480e+002
1.184157e+003, 4.168682e+002
1.184639e+003, 4.178311e+002
1.185122e+003, 4.192823e+002
1.185604e+003, 4.203598e+002
1.186086e+003, 4.204640e+002
1.186568e+003, 4.208432e+002
1.187050e+003, 4.219203e+002
1.187532e+003, 4.230424e+002
1.188014e+003, 4.238091e+002
1.188496e+003, 4.246080e+002
1.188979e+003, 4.258378e+002
1.189461e+003, 4.273682e+002
1.189943e+003, 4.288499e+002
1.190425e+003, 4.303577e+002
1.190907e+003, 4.312808e+002
1.191389e+003, 4.311792e+002
1.191871e+003, 4.318083e+002
1.192353e+003, 4.337641e+002
1.192835e+003, 4.354805e+002
1.193318e+003, 4.360604e+002
1.193800e+003, 4.363679e+002
1.194282e+003, 4.374684e+002
1.194764e+003, 4.391563e+002
1.195246e+003, 4.405292e+002
1.195728e+003, 4.416170e+002
1.196210e+003, 4.433790e+002
1.196692e+003, 4.458073e+002
1.197174e+003, 4.481368e+002
1.197657e+003, 4.501384e+002
1.198139e+003, 4.514088e+002
1.198621e+003, 4.516506e+002
1.199103e+003, 4.516817e+002
1.199585e+003, 4.527783e+002
1.200067e+003, 4.542715e+002
1.200549e+003, 4.545089e+002
1.201031e+003, 4.542329e+002
1.201514e+003, 4.549934e+002
1.201996e+003, 4.568208e+002
1.202478e+003, 4.594899e+002
1.202960e+003, 4.627513e+002
1.203442e+003, 4.655865e+002
1.203924e+003, 4.674577e+002
1.204406e+003, 4.685833e+002
1.204888e+003, 4.688703e+002
1.205370e+003, 4.687556e+002
1.205853e+003, 4.679650e+002
1.206335e+003, 4.674668e+002
1.206817e+003, 4.685369e+002
1.207299e+003, 4.708423e+002
1.207781e+003, 4.734144e+002
1.208263e+003, 4.761048e+002
1.208745e+003, 4.782177e+002
1.209227e+003, 4.796634e+002
1.209709e+003, 4.803804e+002
1.210192e+003, 4.793430e+002
1.210674e+003, 4.787813e+002
1.211156e+003, 4.798951e+002
1.211638e+003, 4.819564e+002
1.212120e+003, 4.846742e+002
1.212602e+003, 4.876562e+002
1.213084e+003, 4.892774e+002
1.213566e+003, 4.891391e+002
1.214049e+003, 4.896884e+002
1.214531e+003, 4.911750e+002
1.215013e+003, 4.923176e+002
1.215495e+003, 4.928096e+002
1.215977e+003, 4.932296e+002
1.216459e+003, 4.938365e+002
1.216941e+003, 4.947663e+002
1.217423e+003, 4.962408e+002
1.217906e+003, 4.980800e+002
1.218388e+003, 4.998849e+002
1.218870e+003, 5.015438e+002
1.219352e+003, 5.023293e+002
1.219834e+003, 5.023838e+002
1.220316e+003, 5.024604e+002
1.220798e+003, 5.028123e+002
1.221280e+003, 5.037202e+002
1.221762e+003, 5.053446e+002
1.222245e+003, 5.074018e+002
1.222727e+003, 5.097759e+002
1.223209e+003, 5.122593e+002
1.223691e+003, 5.147202e+002
1.224173e+003, 5.170671e+002
1.224655e+003, 5.194376e+002
1.225137e+003, 5.214587e+002
1.225619e+003, 5.224092e+002
1.226101e+003, 5.222455e+002
1.226584e+003, 5.215058e+002
1.227066e+003, 5.201246e+002
1.227548e+003, 5.189391e+002
1.228030e+003, 5.180419e+002
1.228512e+003, 5.176679e+002
1.228994e+003, 5.181611e+002
1.229476e+003, 5.189836e+002
1.229958e+003, 5.197769e+002
1.230441e+003, 5.205895e+002
1.230923e+003, 5.215349e+002
1.231405e+003, 5.226124e+002
1.231887e+003, 5.237277e+002
1.232369e+003, 5.250748e+002
1.232851e+003, 5.256903e+002
1.233333e+003, 5.250505e+002
1.233815e+003, 5.254799e+002
1.234297e+003, 5.278466e+002
1.234780e+003, 5.308225e+002
1.235262e+003, 5.336463e+002
1.235744e+003, 5.356872e+002
1.236226e+003, 5.354700e+002
1.236708e+003, 5.337435e+002
1.237190e+003, 5.338752e+002
1.237672e+003, 5.353864e+002
1.238154e+003, 5.362761e+002
1.238636e+003, 5.363622e+002
1.239119e+003, 5.357740e+002
1.239601e+003, 5.347025e+002
1.240083e+003, 5.340955e+002
1.240565e+003, 5.346633e+002
1.241047e+003, 5.353240e+002
1.241529e+003, 5.345839e+002
1.242011e+003, 5.339149e+002
1.242493e+003, 5.350932e+002
1.242975e+003, 5.369459e+002
1.243458e+003, 5.378876e+002
1.243940e+003, 5.383300e+002
1.244422e+003, 5.397682e+002
1.244904e+003, 5.422914e+002
1.245386e+003, 5.435829e+002
1.245868e+003, 5.424772e+002
1.246350e+003, 5.411540e+002
1.246832e+003, 5.391447e+002
1.247315e+003, 5.381213e+002
1.247797e+003, 5.395136e+002
1.248279e+003, 5.409788e+002
1.248761e+003, 5.405626e+002
1.249243e+003, 5.394641e+002
1.249725e+003, 5.399438e+002
1.250207e+003, 5.418830e+002
1.250689e+003, 5.433691e+002
1.251172e+003, 5.444075e+002
1.251654e+003, 5.446912e+002
1.252136e+003, 5.441583e+002
1.252618e+003, 5.438488e+002
1.253100e+003, 5.440746e+002
1.253582e+003, 5.448397e+002
1.254064e+003, 5.462155e+002
1.254546e+003, 5.473661e+002
1.255028e+003, 5.467522e+002
1.255510e+003, 5.453901e+002
1.255993e+003, 5.449824e+002
1.256475e+003, 5.453687e+002
1.256957e+003, 5.466563e+002
1.257439e+003, 5.483576e+002
1.257921e+003, 5.493639e+002
1.258403e+003, 5.495585e+002
1.258885e+003, 5.499256e+002
1.259367e+003, 5.511332e+002
1.259850e+003, 5.515824e+002
1.260332e+003, 5.491322e+002
1.260814e+003, 5.475937e+002
1.261296e+003, 5.491398e+002
1.261778e+003, 5.519122e+002
1.262260e+003, 5.551760e+002
1.262742e+003, 5.583012e+002
1.263224e+003, 5.604263e+002
1.263707e+003, 5.616070e+002
1.264189e+003, 5.621471e+002
1.264671e+003, 5.618519e+002
1.265153e+003, 5.614854e+002
1.265635e+003, 5.608848e+002
1.266117e+003, 5.610355e+002
1.266599e+003, 5.622451e+002
1.267081e+003, 5.636799e+002
1.267563e+003, 5.649117e+002
1.268046e+003, 5.658325e+002
1.268528e+003, 5.663276e+002
1.269010e+003, 5.664100e+002
1.269492e+003, 5.655803e+002
1.269974e+003, 5.645934e+002
1.270456e+003, 5.657297e+002
1.270938e+003, 5.683110e+002
1.271420e+003, 5.703898e+002
1.271902e+003, 5.716451e+002
1.272385e+003, 5.725169e+002
1.272867e+003, 5.731706e+002
1.273349e+003, 5.736596e+002
1.273831e+003, 5.737638e+002
1.274313e+003, 5.740676e+002
1.274795e+003, 5.748663e+002
1.275277e+003, 5.759685e+002
1.275759e+003, 5.775268e+002
1.276242e+003, 5.791078e+002
1.276724e+003, 5.803497e+002
1.277206e+003, 5.811950e+002
1.277688e+003, 5.814626e+002
1.278170e+003, 5.810541e+002
1.278652e+003, 5.808736e+002
1.279134e+003, 5.805736e+002
1.279616e+003, 5.819705e+002
1.280099e+003, 5.856022e+002
1.280581e+003, 5.891520e+002
1.281063e+003, 5.918395e+002
1.281545e+003, 5.936100e+002
1.282027e+003, 5.943429e+002
1.282509e+003, 5.946842e+002
1.282991e+003, 5.957752e+002
1.283473e+003, 5.972651e+002
1.283955e+003, 5.985279e+002
##END=



