##NAMES=Fluorcalciomicrolite
##RRUFFID=R130022
##IDEAL CHEMISTRY=(Ca,Na)_2_Ta^5+^_2_O_6_F
##LOCALITY=Emdal mines, Muiane, Mozambique
##OWNER=RRUFF
##SOURCE=Royal Ontario Museum
##DESCRIPTION=Yellowish brown transparent fragment
##STATUS=The identification of this mineral is confirmed by single-crystal X-ray diffraction and chemical analysis.
##URL=rruff.info/R130022
##MEASURED CHEMISTRY=(Ca_1.14_Na_0.78_U_0.03_)_Σ=1.95_(Ta_1.63_Nb_0.18_Ti_0.15_Sb_0.02_Sn_0.02_)_Σ=2_O_6_[F_0.73_(OH)_0.24_]_Σ=0.97_
8.936163e+001, 0.000000e+000
8.984375e+001, 9.996371e+001
9.032587e+001, 1.008085e+002
9.080798e+001, 1.009993e+002
9.129010e+001, 1.003731e+002
9.177222e+001, 9.927897e+001
9.225433e+001, 9.799496e+001
9.273645e+001, 9.653905e+001
9.321857e+001, 9.516479e+001
9.370068e+001, 9.427833e+001
9.418280e+001, 9.369774e+001
9.466492e+001, 9.281977e+001
9.514703e+001, 9.115937e+001
9.562915e+001, 8.911987e+001
9.611127e+001, 8.786900e+001
9.659338e+001, 8.750123e+001
9.707550e+001, 8.749461e+001
9.755762e+001, 8.739218e+001
9.803973e+001, 8.719658e+001
9.852185e+001, 8.661501e+001
9.900397e+001, 8.518214e+001
9.948608e+001, 8.285580e+001
9.996820e+001, 8.162185e+001
1.004503e+002, 8.187067e+001
1.009324e+002, 8.275491e+001
1.014146e+002, 8.238912e+001
1.018967e+002, 8.037146e+001
1.023788e+002, 7.824207e+001
1.028609e+002, 7.677356e+001
1.033430e+002, 7.611057e+001
1.038251e+002, 7.572640e+001
1.043073e+002, 7.578025e+001
1.047894e+002, 7.611874e+001
1.052715e+002, 7.590840e+001
1.057536e+002, 7.483703e+001
1.062357e+002, 7.355931e+001
1.067178e+002, 7.251775e+001
1.072000e+002, 7.192580e+001
1.076821e+002, 7.127271e+001
1.081642e+002, 7.047033e+001
1.086463e+002, 6.950333e+001
1.091284e+002, 6.859885e+001
1.096105e+002, 6.766328e+001
1.100927e+002, 6.682986e+001
1.105748e+002, 6.623196e+001
1.110569e+002, 6.630317e+001
1.115390e+002, 6.620382e+001
1.120211e+002, 6.565385e+001
1.125032e+002, 6.445848e+001
1.129854e+002, 6.350219e+001
1.134675e+002, 6.317590e+001
1.139496e+002, 6.311094e+001
1.144317e+002, 6.276785e+001
1.149138e+002, 6.152835e+001
1.153959e+002, 6.035242e+001
1.158781e+002, 5.976775e+001
1.163602e+002, 6.024113e+001
1.168423e+002, 6.047679e+001
1.173244e+002, 5.975823e+001
1.178065e+002, 5.842382e+001
1.182886e+002, 5.733463e+001
1.187708e+002, 5.714307e+001
1.192529e+002, 5.719346e+001
1.197350e+002, 5.696543e+001
1.202171e+002, 5.614027e+001
1.206992e+002, 5.522519e+001
1.211813e+002, 5.451605e+001
1.216635e+002, 5.399231e+001
1.221456e+002, 5.356211e+001
1.226277e+002, 5.320051e+001
1.231098e+002, 5.289100e+001
1.235919e+002, 5.261346e+001
1.240740e+002, 5.242340e+001
1.245562e+002, 5.222302e+001
1.250383e+002, 5.190189e+001
1.255204e+002, 5.145948e+001
1.260025e+002, 5.097211e+001
1.264846e+002, 5.047414e+001
1.269667e+002, 4.997846e+001
1.274489e+002, 4.951730e+001
1.279310e+002, 4.884908e+001
1.284131e+002, 4.826588e+001
1.288952e+002, 4.864413e+001
1.293773e+002, 5.022408e+001
1.298594e+002, 5.171314e+001
1.303416e+002, 5.116180e+001
1.308237e+002, 4.883724e+001
1.313058e+002, 4.664937e+001
1.317879e+002, 4.578107e+001
1.322700e+002, 4.597099e+001
1.327521e+002, 4.592785e+001
1.332343e+002, 4.549785e+001
1.337164e+002, 4.489967e+001
1.341985e+002, 4.456263e+001
1.346806e+002, 4.450940e+001
1.351627e+002, 4.441693e+001
1.356448e+002, 4.401275e+001
1.361270e+002, 4.328873e+001
1.366091e+002, 4.270956e+001
1.370912e+002, 4.233983e+001
1.375733e+002, 4.215076e+001
1.380554e+002, 4.207934e+001
1.385375e+002, 4.219376e+001
1.390197e+002, 4.222512e+001
1.395018e+002, 4.189751e+001
1.399839e+002, 4.110150e+001
1.404660e+002, 4.044041e+001
1.409481e+002, 4.002979e+001
1.414302e+002, 3.985668e+001
1.419124e+002, 3.973309e+001
1.423945e+002, 3.969291e+001
1.428766e+002, 3.965625e+001
1.433587e+002, 3.953607e+001
1.438408e+002, 3.928618e+001
1.443229e+002, 3.904847e+001
1.448051e+002, 3.885043e+001
1.452872e+002, 3.869027e+001
1.457693e+002, 3.858321e+001
1.462514e+002, 3.865038e+001
1.467335e+002, 3.869472e+001
1.472156e+002, 3.844566e+001
1.476978e+002, 3.763010e+001
1.481799e+002, 3.686211e+001
1.486620e+002, 3.630857e+001
1.491441e+002, 3.608231e+001
1.496262e+002, 3.577297e+001
1.501083e+002, 3.525203e+001
1.505905e+002, 3.467281e+001
1.510726e+002, 3.430432e+001
1.515547e+002, 3.440740e+001
1.520368e+002, 3.449894e+001
1.525189e+002, 3.440996e+001
1.530010e+002, 3.391688e+001
1.534832e+002, 3.362934e+001
1.539653e+002, 3.371370e+001
1.544474e+002, 3.403714e+001
1.549295e+002, 3.428089e+001
1.554116e+002, 3.450914e+001
1.558937e+002, 3.457481e+001
1.563759e+002, 3.438736e+001
1.568580e+002, 3.360793e+001
1.573401e+002, 3.301572e+001
1.578222e+002, 3.287122e+001
1.583043e+002, 3.306333e+001
1.587864e+002, 3.318234e+001
1.592686e+002, 3.309908e+001
1.597507e+002, 3.291862e+001
1.602328e+002, 3.270723e+001
1.607149e+002, 3.243456e+001
1.611970e+002, 3.217923e+001
1.616791e+002, 3.193577e+001
1.621613e+002, 3.171788e+001
1.626434e+002, 3.159365e+001
1.631255e+002, 3.171017e+001
1.636076e+002, 3.188422e+001
1.640897e+002, 3.195258e+001
1.645718e+002, 3.180854e+001
1.650540e+002, 3.159136e+001
1.655361e+002, 3.126068e+001
1.660182e+002, 3.083110e+001
1.665003e+002, 3.063638e+001
1.669824e+002, 3.108801e+001
1.674645e+002, 3.181566e+001
1.679467e+002, 3.235585e+001
1.684288e+002, 3.238842e+001
1.689109e+002, 3.227547e+001
1.693930e+002, 3.222969e+001
1.698751e+002, 3.225722e+001
1.703572e+002, 3.239468e+001
1.708394e+002, 3.267453e+001
1.713215e+002, 3.308245e+001
1.718036e+002, 3.358799e+001
1.722857e+002, 3.407835e+001
1.727678e+002, 3.471461e+001
1.732499e+002, 3.575166e+001
1.737321e+002, 3.726651e+001
1.742142e+002, 3.877841e+001
1.746963e+002, 3.966864e+001
1.751784e+002, 4.024315e+001
1.756605e+002, 4.123162e+001
1.761426e+002, 4.321296e+001
1.766248e+002, 4.574738e+001
1.771069e+002, 4.817881e+001
1.775890e+002, 5.039514e+001
1.780711e+002, 5.279282e+001
1.785532e+002, 5.590630e+001
1.790353e+002, 5.962127e+001
1.795175e+002, 6.340419e+001
1.799996e+002, 6.685097e+001
1.804817e+002, 7.019175e+001
1.809638e+002, 7.402246e+001
1.814459e+002, 7.854283e+001
1.819280e+002, 8.323787e+001
1.824102e+002, 8.747969e+001
1.828923e+002, 9.126636e+001
1.833744e+002, 9.509702e+001
1.838565e+002, 9.919368e+001
1.843386e+002, 1.035526e+002
1.848207e+002, 1.080668e+002
1.853029e+002, 1.128329e+002
1.857850e+002, 1.176249e+002
1.862671e+002, 1.222335e+002
1.867492e+002, 1.266356e+002
1.872313e+002, 1.307866e+002
1.877134e+002, 1.344346e+002
1.881956e+002, 1.377486e+002
1.886777e+002, 1.413649e+002
1.891598e+002, 1.454655e+002
1.896419e+002, 1.498877e+002
1.901240e+002, 1.543621e+002
1.906061e+002, 1.589512e+002
1.910883e+002, 1.634861e+002
1.915704e+002, 1.679165e+002
1.920525e+002, 1.722738e+002
1.925346e+002, 1.764553e+002
1.930167e+002, 1.803707e+002
1.934988e+002, 1.840239e+002
1.939810e+002, 1.870035e+002
1.944631e+002, 1.890935e+002
1.949452e+002, 1.913850e+002
1.954273e+002, 1.940835e+002
1.959094e+002, 1.971741e+002
1.963915e+002, 2.002620e+002
1.968737e+002, 2.032805e+002
1.973558e+002, 2.062301e+002
1.978379e+002, 2.091306e+002
1.983200e+002, 2.119384e+002
1.988021e+002, 2.148569e+002
1.992842e+002, 2.181313e+002
1.997664e+002, 2.218091e+002
2.002485e+002, 2.252585e+002
2.007306e+002, 2.283353e+002
2.012127e+002, 2.311098e+002
2.016948e+002, 2.340452e+002
2.021769e+002, 2.372051e+002
2.026591e+002, 2.403654e+002
2.031412e+002, 2.432520e+002
2.036233e+002, 2.458508e+002
2.041054e+002, 2.484481e+002
2.045875e+002, 2.511226e+002
2.050696e+002, 2.538594e+002
2.055518e+002, 2.565616e+002
2.060339e+002, 2.593033e+002
2.065160e+002, 2.618520e+002
2.069981e+002, 2.639502e+002
2.074802e+002, 2.655293e+002
2.079623e+002, 2.668972e+002
2.084445e+002, 2.680748e+002
2.089266e+002, 2.690748e+002
2.094087e+002, 2.701833e+002
2.098908e+002, 2.715646e+002
2.103729e+002, 2.727740e+002
2.108550e+002, 2.732125e+002
2.113372e+002, 2.726237e+002
2.118193e+002, 2.721708e+002
2.123014e+002, 2.721922e+002
2.127835e+002, 2.726871e+002
2.132656e+002, 2.729663e+002
2.137477e+002, 2.729115e+002
2.142299e+002, 2.728067e+002
2.147120e+002, 2.730138e+002
2.151941e+002, 2.736521e+002
2.156762e+002, 2.742475e+002
2.161583e+002, 2.745897e+002
2.166404e+002, 2.746336e+002
2.171226e+002, 2.752086e+002
2.176047e+002, 2.765702e+002
2.180868e+002, 2.781532e+002
2.185689e+002, 2.792642e+002
2.190510e+002, 2.797127e+002
2.195331e+002, 2.801592e+002
2.200153e+002, 2.808202e+002
2.204974e+002, 2.817417e+002
2.209795e+002, 2.823443e+002
2.214616e+002, 2.822737e+002
2.219437e+002, 2.822656e+002
2.224258e+002, 2.834299e+002
2.229080e+002, 2.865629e+002
2.233901e+002, 2.891432e+002
2.238722e+002, 2.903341e+002
2.243543e+002, 2.899707e+002
2.248364e+002, 2.898058e+002
2.253185e+002, 2.898039e+002
2.258007e+002, 2.900223e+002
2.262828e+002, 2.905949e+002
2.267649e+002, 2.917466e+002
2.272470e+002, 2.927867e+002
2.277291e+002, 2.935502e+002
2.282112e+002, 2.940559e+002
2.286934e+002, 2.941489e+002
2.291755e+002, 2.935655e+002
2.296576e+002, 2.927963e+002
2.301397e+002, 2.925410e+002
2.306218e+002, 2.931884e+002
2.311039e+002, 2.936236e+002
2.315861e+002, 2.934362e+002
2.320682e+002, 2.924591e+002
2.325503e+002, 2.920898e+002
2.330324e+002, 2.926187e+002
2.335145e+002, 2.935191e+002
2.339966e+002, 2.941421e+002
2.344788e+002, 2.943871e+002
2.349609e+002, 2.945323e+002
2.354430e+002, 2.945613e+002
2.359251e+002, 2.943970e+002
2.364072e+002, 2.947027e+002
2.368893e+002, 2.957411e+002
2.373715e+002, 2.970280e+002
2.378536e+002, 2.979501e+002
2.383357e+002, 2.983384e+002
2.388178e+002, 2.986614e+002
2.392999e+002, 2.990306e+002
2.397820e+002, 2.994485e+002
2.402642e+002, 2.998085e+002
2.407463e+002, 2.999815e+002
2.412284e+002, 3.001925e+002
2.417105e+002, 3.007638e+002
2.421926e+002, 3.019774e+002
2.426747e+002, 3.030207e+002
2.431569e+002, 3.036648e+002
2.436390e+002, 3.038661e+002
2.441211e+002, 3.040206e+002
2.446032e+002, 3.041431e+002
2.450853e+002, 3.042072e+002
2.455674e+002, 3.041403e+002
2.460496e+002, 3.037277e+002
2.465317e+002, 3.036026e+002
2.470138e+002, 3.040438e+002
2.474959e+002, 3.051461e+002
2.479780e+002, 3.057731e+002
2.484601e+002, 3.057826e+002
2.489423e+002, 3.054814e+002
2.494244e+002, 3.051735e+002
2.499065e+002, 3.047914e+002
2.503886e+002, 3.045593e+002
2.508707e+002, 3.045898e+002
2.513528e+002, 3.049040e+002
2.518350e+002, 3.050387e+002
2.523171e+002, 3.049168e+002
2.527992e+002, 3.046978e+002
2.532813e+002, 3.044959e+002
2.537634e+002, 3.041688e+002
2.542455e+002, 3.041694e+002
2.547277e+002, 3.046855e+002
2.552098e+002, 3.057274e+002
2.556919e+002, 3.065721e+002
2.561740e+002, 3.072441e+002
2.566561e+002, 3.076787e+002
2.571382e+002, 3.077132e+002
2.576204e+002, 3.070345e+002
2.581025e+002, 3.067386e+002
2.585846e+002, 3.072417e+002
2.590667e+002, 3.084790e+002
2.595488e+002, 3.089143e+002
2.600309e+002, 3.081862e+002
2.605131e+002, 3.071792e+002
2.609952e+002, 3.066862e+002
2.614773e+002, 3.068682e+002
2.619594e+002, 3.071056e+002
2.624415e+002, 3.072545e+002
2.629236e+002, 3.073530e+002
2.634058e+002, 3.077752e+002
2.638879e+002, 3.086358e+002
2.643700e+002, 3.096402e+002
2.648521e+002, 3.106258e+002
2.653342e+002, 3.116443e+002
2.658163e+002, 3.124390e+002
2.662985e+002, 3.129301e+002
2.667806e+002, 3.131566e+002
2.672627e+002, 3.133463e+002
2.677448e+002, 3.134973e+002
2.682269e+002, 3.136069e+002
2.687090e+002, 3.136378e+002
2.691912e+002, 3.135384e+002
2.696733e+002, 3.135764e+002
2.701554e+002, 3.138140e+002
2.706375e+002, 3.142008e+002
2.711196e+002, 3.145146e+002
2.716017e+002, 3.147066e+002
2.720839e+002, 3.149512e+002
2.725660e+002, 3.154444e+002
2.730481e+002, 3.162740e+002
2.735302e+002, 3.167223e+002
2.740123e+002, 3.165077e+002
2.744944e+002, 3.160121e+002
2.749766e+002, 3.165257e+002
2.754587e+002, 3.183239e+002
2.759408e+002, 3.200649e+002
2.764229e+002, 3.208268e+002
2.769050e+002, 3.205357e+002
2.773871e+002, 3.202554e+002
2.778693e+002, 3.199733e+002
2.783514e+002, 3.198445e+002
2.788335e+002, 3.203055e+002
2.793156e+002, 3.214488e+002
2.797977e+002, 3.226639e+002
2.802798e+002, 3.236924e+002
2.807620e+002, 3.245263e+002
2.812441e+002, 3.250688e+002
2.817262e+002, 3.252855e+002
2.822083e+002, 3.252563e+002
2.826904e+002, 3.250140e+002
2.831725e+002, 3.245301e+002
2.836547e+002, 3.242058e+002
2.841368e+002, 3.242516e+002
2.846189e+002, 3.246479e+002
2.851010e+002, 3.252346e+002
2.855831e+002, 3.260667e+002
2.860652e+002, 3.269214e+002
2.865474e+002, 3.274576e+002
2.870295e+002, 3.276805e+002
2.875116e+002, 3.278230e+002
2.879937e+002, 3.279843e+002
2.884758e+002, 3.281536e+002
2.889579e+002, 3.282227e+002
2.894401e+002, 3.281677e+002
2.899222e+002, 3.281452e+002
2.904043e+002, 3.284816e+002
2.908864e+002, 3.291097e+002
2.913685e+002, 3.294709e+002
2.918506e+002, 3.291695e+002
2.923328e+002, 3.284637e+002
2.928149e+002, 3.281402e+002
2.932970e+002, 3.282148e+002
2.937791e+002, 3.284318e+002
2.942612e+002, 3.287167e+002
2.947433e+002, 3.289778e+002
2.952255e+002, 3.288036e+002
2.957076e+002, 3.277859e+002
2.961897e+002, 3.264020e+002
2.966718e+002, 3.256266e+002
2.971539e+002, 3.254503e+002
2.976360e+002, 3.254791e+002
2.981182e+002, 3.255600e+002
2.986003e+002, 3.255967e+002
2.990824e+002, 3.253122e+002
2.995645e+002, 3.244469e+002
3.000466e+002, 3.234258e+002
3.005287e+002, 3.228875e+002
3.010109e+002, 3.227817e+002
3.014930e+002, 3.227373e+002
3.019751e+002, 3.225244e+002
3.024572e+002, 3.221890e+002
3.029393e+002, 3.218271e+002
3.034214e+002, 3.214951e+002
3.039036e+002, 3.210733e+002
3.043857e+002, 3.203584e+002
3.048678e+002, 3.194240e+002
3.053499e+002, 3.185174e+002
3.058320e+002, 3.178778e+002
3.063141e+002, 3.173260e+002
3.067963e+002, 3.166352e+002
3.072784e+002, 3.157125e+002
3.077605e+002, 3.147882e+002
3.082426e+002, 3.141013e+002
3.087247e+002, 3.135593e+002
3.092068e+002, 3.129427e+002
3.096890e+002, 3.123255e+002
3.101711e+002, 3.114676e+002
3.106532e+002, 3.099835e+002
3.111353e+002, 3.076708e+002
3.116174e+002, 3.055931e+002
3.120995e+002, 3.046118e+002
3.125817e+002, 3.043080e+002
3.130638e+002, 3.039893e+002
3.135459e+002, 3.032275e+002
3.140280e+002, 3.024684e+002
3.145101e+002, 3.020822e+002
3.149922e+002, 3.021286e+002
3.154744e+002, 3.020107e+002
3.159565e+002, 3.012788e+002
3.164386e+002, 3.002924e+002
3.169207e+002, 2.994703e+002
3.174028e+002, 2.994828e+002
3.178849e+002, 2.991956e+002
3.183671e+002, 2.978764e+002
3.188492e+002, 2.955772e+002
3.193313e+002, 2.936699e+002
3.198134e+002, 2.927487e+002
3.202955e+002, 2.923273e+002
3.207776e+002, 2.920257e+002
3.212598e+002, 2.921913e+002
3.217419e+002, 2.919978e+002
3.222240e+002, 2.909489e+002
3.227061e+002, 2.892469e+002
3.231882e+002, 2.879625e+002
3.236703e+002, 2.875710e+002
3.241525e+002, 2.874583e+002
3.246346e+002, 2.873069e+002
3.251167e+002, 2.872702e+002
3.255988e+002, 2.869347e+002
3.260809e+002, 2.859882e+002
3.265630e+002, 2.846935e+002
3.270452e+002, 2.837656e+002
3.275273e+002, 2.834181e+002
3.280094e+002, 2.833124e+002
3.284915e+002, 2.833950e+002
3.289736e+002, 2.839275e+002
3.294557e+002, 2.840656e+002
3.299379e+002, 2.836127e+002
3.304200e+002, 2.828246e+002
3.309021e+002, 2.820991e+002
3.313842e+002, 2.812895e+002
3.318663e+002, 2.807274e+002
3.323484e+002, 2.805958e+002
3.328306e+002, 2.810074e+002
3.333127e+002, 2.811059e+002
3.337948e+002, 2.808192e+002
3.342769e+002, 2.802775e+002
3.347590e+002, 2.795737e+002
3.352411e+002, 2.785150e+002
3.357233e+002, 2.777361e+002
3.362054e+002, 2.774965e+002
3.366875e+002, 2.777448e+002
3.371696e+002, 2.775962e+002
3.376517e+002, 2.769202e+002
3.381339e+002, 2.761114e+002
3.386160e+002, 2.755140e+002
3.390981e+002, 2.751783e+002
3.395802e+002, 2.747855e+002
3.400623e+002, 2.742667e+002
3.405444e+002, 2.736682e+002
3.410266e+002, 2.731642e+002
3.415087e+002, 2.727419e+002
3.419908e+002, 2.724191e+002
3.424729e+002, 2.723652e+002
3.429550e+002, 2.725732e+002
3.434371e+002, 2.721806e+002
3.439193e+002, 2.710035e+002
3.444014e+002, 2.694150e+002
3.448835e+002, 2.680096e+002
3.453656e+002, 2.667881e+002
3.458477e+002, 2.658067e+002
3.463298e+002, 2.652245e+002
3.468120e+002, 2.649360e+002
3.472941e+002, 2.644922e+002
3.477762e+002, 2.638664e+002
3.482583e+002, 2.631746e+002
3.487404e+002, 2.625048e+002
3.492225e+002, 2.618731e+002
3.497047e+002, 2.613427e+002
3.501868e+002, 2.610059e+002
3.506689e+002, 2.607569e+002
3.511510e+002, 2.604576e+002
3.516331e+002, 2.601045e+002
3.521152e+002, 2.595761e+002
3.525974e+002, 2.586950e+002
3.530795e+002, 2.575741e+002
3.535616e+002, 2.564002e+002
3.540437e+002, 2.551079e+002
3.545258e+002, 2.539349e+002
3.550079e+002, 2.531149e+002
3.554901e+002, 2.526232e+002
3.559722e+002, 2.523264e+002
3.564543e+002, 2.525510e+002
3.569364e+002, 2.527393e+002
3.574185e+002, 2.521946e+002
3.579006e+002, 2.504951e+002
3.583828e+002, 2.488782e+002
3.588649e+002, 2.481336e+002
3.593470e+002, 2.480251e+002
3.598291e+002, 2.480627e+002
3.603112e+002, 2.483989e+002
3.607933e+002, 2.485420e+002
3.612755e+002, 2.481225e+002
3.617576e+002, 2.470355e+002
3.622397e+002, 2.459056e+002
3.627218e+002, 2.447940e+002
3.632039e+002, 2.438239e+002
3.636860e+002, 2.431336e+002
3.641682e+002, 2.432519e+002
3.646503e+002, 2.431703e+002
3.651324e+002, 2.423926e+002
3.656145e+002, 2.409485e+002
3.660966e+002, 2.398406e+002
3.665787e+002, 2.395637e+002
3.670609e+002, 2.394687e+002
3.675430e+002, 2.391402e+002
3.680251e+002, 2.383676e+002
3.685072e+002, 2.375641e+002
3.689893e+002, 2.367384e+002
3.694714e+002, 2.359043e+002
3.699536e+002, 2.351252e+002
3.704357e+002, 2.343584e+002
3.709178e+002, 2.336924e+002
3.713999e+002, 2.332109e+002
3.718820e+002, 2.330960e+002
3.723641e+002, 2.326534e+002
3.728463e+002, 2.316287e+002
3.733284e+002, 2.304474e+002
3.738105e+002, 2.297953e+002
3.742926e+002, 2.298853e+002
3.747747e+002, 2.300244e+002
3.752568e+002, 2.300229e+002
3.757390e+002, 2.298776e+002
3.762211e+002, 2.297650e+002
3.767032e+002, 2.297662e+002
3.771853e+002, 2.296209e+002
3.776674e+002, 2.289191e+002
3.781495e+002, 2.275518e+002
3.786317e+002, 2.266295e+002
3.791138e+002, 2.265426e+002
3.795959e+002, 2.269266e+002
3.800780e+002, 2.265127e+002
3.805601e+002, 2.252283e+002
3.810422e+002, 2.239884e+002
3.815244e+002, 2.235941e+002
3.820065e+002, 2.238596e+002
3.824886e+002, 2.237362e+002
3.829707e+002, 2.230613e+002
3.834528e+002, 2.221481e+002
3.839349e+002, 2.214260e+002
3.844171e+002, 2.208570e+002
3.848992e+002, 2.202360e+002
3.853813e+002, 2.193226e+002
3.858634e+002, 2.183264e+002
3.863455e+002, 2.175281e+002
3.868276e+002, 2.169344e+002
3.873098e+002, 2.166620e+002
3.877919e+002, 2.172161e+002
3.882740e+002, 2.181049e+002
3.887561e+002, 2.184346e+002
3.892382e+002, 2.175414e+002
3.897203e+002, 2.163354e+002
3.902025e+002, 2.155355e+002
3.906846e+002, 2.150826e+002
3.911667e+002, 2.146871e+002
3.916488e+002, 2.141709e+002
3.921309e+002, 2.136554e+002
3.926130e+002, 2.132639e+002
3.930952e+002, 2.131100e+002
3.935773e+002, 2.128939e+002
3.940594e+002, 2.124593e+002
3.945415e+002, 2.118825e+002
3.950236e+002, 2.113042e+002
3.955057e+002, 2.108363e+002
3.959879e+002, 2.103194e+002
3.964700e+002, 2.096078e+002
3.969521e+002, 2.086211e+002
3.974342e+002, 2.079235e+002
3.979163e+002, 2.078548e+002
3.983984e+002, 2.079940e+002
3.988806e+002, 2.079567e+002
3.993627e+002, 2.075839e+002
3.998448e+002, 2.071861e+002
4.003269e+002, 2.068225e+002
4.008090e+002, 2.064728e+002
4.012911e+002, 2.059955e+002
4.017733e+002, 2.052568e+002
4.022554e+002, 2.045429e+002
4.027375e+002, 2.040364e+002
4.032196e+002, 2.039204e+002
4.037017e+002, 2.035062e+002
4.041838e+002, 2.025839e+002
4.046660e+002, 2.015207e+002
4.051481e+002, 2.011349e+002
4.056302e+002, 2.016482e+002
4.061123e+002, 2.020161e+002
4.065944e+002, 2.018555e+002
4.070765e+002, 2.011830e+002
4.075587e+002, 2.003003e+002
4.080408e+002, 1.990970e+002
4.085229e+002, 1.980767e+002
4.090050e+002, 1.979930e+002
4.094871e+002, 1.987593e+002
4.099692e+002, 1.991172e+002
4.104514e+002, 1.987122e+002
4.109335e+002, 1.978316e+002
4.114156e+002, 1.969165e+002
4.118977e+002, 1.959939e+002
4.123798e+002, 1.952934e+002
4.128619e+002, 1.951238e+002
4.133441e+002, 1.952651e+002
4.138262e+002, 1.953197e+002
4.143083e+002, 1.952564e+002
4.147904e+002, 1.950483e+002
4.152725e+002, 1.945843e+002
4.157546e+002, 1.939602e+002
4.162368e+002, 1.933618e+002
4.167189e+002, 1.928442e+002
4.172010e+002, 1.924151e+002
4.176831e+002, 1.921514e+002
4.181652e+002, 1.920382e+002
4.186473e+002, 1.918081e+002
4.191295e+002, 1.911158e+002
4.196116e+002, 1.903426e+002
4.200937e+002, 1.898585e+002
4.205758e+002, 1.900354e+002
4.210579e+002, 1.900899e+002
4.215400e+002, 1.895798e+002
4.220222e+002, 1.887535e+002
4.225043e+002, 1.882099e+002
4.229864e+002, 1.885523e+002
4.234685e+002, 1.888044e+002
4.239506e+002, 1.884780e+002
4.244327e+002, 1.872259e+002
4.249149e+002, 1.865046e+002
4.253970e+002, 1.869264e+002
4.258791e+002, 1.875908e+002
4.263612e+002, 1.875601e+002
4.268433e+002, 1.861005e+002
4.273254e+002, 1.851310e+002
4.278076e+002, 1.851263e+002
4.282897e+002, 1.859124e+002
4.287718e+002, 1.862456e+002
4.292539e+002, 1.859850e+002
4.297360e+002, 1.855449e+002
4.302181e+002, 1.851442e+002
4.307003e+002, 1.847788e+002
4.311824e+002, 1.844588e+002
4.316645e+002, 1.841682e+002
4.321466e+002, 1.839508e+002
4.326287e+002, 1.839348e+002
4.331108e+002, 1.841263e+002
4.335930e+002, 1.842874e+002
4.340751e+002, 1.844185e+002
4.345572e+002, 1.844422e+002
4.350393e+002, 1.839461e+002
4.355214e+002, 1.829190e+002
4.360035e+002, 1.819638e+002
4.364857e+002, 1.817069e+002
4.369678e+002, 1.819407e+002
4.374499e+002, 1.821780e+002
4.379320e+002, 1.823513e+002
4.384141e+002, 1.824115e+002
4.388962e+002, 1.821702e+002
4.393784e+002, 1.817454e+002
4.398605e+002, 1.814864e+002
4.403426e+002, 1.818704e+002
4.408247e+002, 1.823131e+002
4.413068e+002, 1.822405e+002
4.417889e+002, 1.815596e+002
4.422711e+002, 1.809331e+002
4.427532e+002, 1.807612e+002
4.432353e+002, 1.807877e+002
4.437174e+002, 1.807464e+002
4.441995e+002, 1.803649e+002
4.446816e+002, 1.801133e+002
4.451638e+002, 1.802624e+002
4.456459e+002, 1.806966e+002
4.461280e+002, 1.808898e+002
4.466101e+002, 1.805779e+002
4.470922e+002, 1.801646e+002
4.475743e+002, 1.797985e+002
4.480565e+002, 1.794393e+002
4.485386e+002, 1.792502e+002
4.490207e+002, 1.793539e+002
4.495028e+002, 1.795521e+002
4.499849e+002, 1.795723e+002
4.504670e+002, 1.793068e+002
4.509492e+002, 1.791125e+002
4.514313e+002, 1.790950e+002
4.519134e+002, 1.792248e+002
4.523955e+002, 1.793150e+002
4.528776e+002, 1.794027e+002
4.533597e+002, 1.793303e+002
4.538419e+002, 1.789067e+002
4.543240e+002, 1.781472e+002
4.548061e+002, 1.774550e+002
4.552882e+002, 1.768153e+002
4.557703e+002, 1.763944e+002
4.562524e+002, 1.765997e+002
4.567346e+002, 1.773435e+002
4.572167e+002, 1.780264e+002
4.576988e+002, 1.786133e+002
4.581809e+002, 1.788913e+002
4.586630e+002, 1.781552e+002
4.591451e+002, 1.764884e+002
4.596273e+002, 1.751456e+002
4.601094e+002, 1.755886e+002
4.605915e+002, 1.767575e+002
4.610736e+002, 1.772153e+002
4.615557e+002, 1.763627e+002
4.620378e+002, 1.753890e+002
4.625200e+002, 1.750680e+002
4.630021e+002, 1.751773e+002
4.634842e+002, 1.752910e+002
4.639663e+002, 1.752700e+002
4.644484e+002, 1.751970e+002
4.649305e+002, 1.751207e+002
4.654127e+002, 1.750489e+002
4.658948e+002, 1.749082e+002
4.663769e+002, 1.744759e+002
4.668590e+002, 1.740971e+002
4.673411e+002, 1.740243e+002
4.678232e+002, 1.746196e+002
4.683054e+002, 1.750616e+002
4.687875e+002, 1.752412e+002
4.692696e+002, 1.752613e+002
4.697517e+002, 1.753854e+002
4.702338e+002, 1.756809e+002
4.707159e+002, 1.759516e+002
4.711981e+002, 1.761420e+002
4.716802e+002, 1.762526e+002
4.721623e+002, 1.761806e+002
4.726444e+002, 1.758189e+002
4.731265e+002, 1.755638e+002
4.736086e+002, 1.759296e+002
4.740908e+002, 1.769028e+002
4.745729e+002, 1.776884e+002
4.750550e+002, 1.781031e+002
4.755371e+002, 1.783198e+002
4.760192e+002, 1.787128e+002
4.765013e+002, 1.792433e+002
4.769835e+002, 1.796073e+002
4.774656e+002, 1.794416e+002
4.779477e+002, 1.790715e+002
4.784298e+002, 1.790534e+002
4.789119e+002, 1.794171e+002
4.793940e+002, 1.798745e+002
4.798762e+002, 1.803654e+002
4.803583e+002, 1.807606e+002
4.808404e+002, 1.808592e+002
4.813225e+002, 1.802453e+002
4.818046e+002, 1.798178e+002
4.822867e+002, 1.801613e+002
4.827689e+002, 1.810609e+002
4.832510e+002, 1.819598e+002
4.837331e+002, 1.828706e+002
4.842152e+002, 1.835839e+002
4.846973e+002, 1.839316e+002
4.851794e+002, 1.838061e+002
4.856616e+002, 1.838450e+002
4.861437e+002, 1.842352e+002
4.866258e+002, 1.847307e+002
4.871079e+002, 1.851348e+002
4.875900e+002, 1.852728e+002
4.880721e+002, 1.856385e+002
4.885543e+002, 1.863584e+002
4.890364e+002, 1.873025e+002
4.895185e+002, 1.880909e+002
4.900006e+002, 1.886746e+002
4.904827e+002, 1.892180e+002
4.909648e+002, 1.896685e+002
4.914470e+002, 1.900525e+002
4.919291e+002, 1.911121e+002
4.924112e+002, 1.929882e+002
4.928933e+002, 1.948330e+002
4.933754e+002, 1.955900e+002
4.938575e+002, 1.955160e+002
4.943397e+002, 1.957223e+002
4.948218e+002, 1.964804e+002
4.953039e+002, 1.975684e+002
4.957860e+002, 1.987285e+002
4.962681e+002, 1.999655e+002
4.967502e+002, 2.012852e+002
4.972324e+002, 2.029086e+002
4.977145e+002, 2.044958e+002
4.981966e+002, 2.056915e+002
4.986787e+002, 2.064857e+002
4.991608e+002, 2.071876e+002
4.996429e+002, 2.078893e+002
5.001251e+002, 2.086122e+002
5.006072e+002, 2.093972e+002
5.010893e+002, 2.103118e+002
5.015714e+002, 2.111866e+002
5.020535e+002, 2.118829e+002
5.025356e+002, 2.125187e+002
5.030178e+002, 2.133705e+002
5.034999e+002, 2.148967e+002
5.039820e+002, 2.161737e+002
5.044641e+002, 2.168028e+002
5.049462e+002, 2.167392e+002
5.054283e+002, 2.173620e+002
5.059105e+002, 2.191839e+002
5.063926e+002, 2.208988e+002
5.068747e+002, 2.213785e+002
5.073568e+002, 2.204072e+002
5.078389e+002, 2.196593e+002
5.083210e+002, 2.192489e+002
5.088032e+002, 2.192039e+002
5.092853e+002, 2.198147e+002
5.097674e+002, 2.210251e+002
5.102495e+002, 2.219149e+002
5.107316e+002, 2.220251e+002
5.112137e+002, 2.215988e+002
5.116959e+002, 2.210514e+002
5.121780e+002, 2.203992e+002
5.126601e+002, 2.198299e+002
5.131422e+002, 2.195144e+002
5.136243e+002, 2.193486e+002
5.141064e+002, 2.192691e+002
5.145886e+002, 2.193561e+002
5.150707e+002, 2.191952e+002
5.155528e+002, 2.182670e+002
5.160349e+002, 2.170005e+002
5.165170e+002, 2.160004e+002
5.169991e+002, 2.156365e+002
5.174813e+002, 2.153961e+002
5.179634e+002, 2.151930e+002
5.184455e+002, 2.150070e+002
5.189276e+002, 2.146926e+002
5.194097e+002, 2.140198e+002
5.198918e+002, 2.134077e+002
5.203740e+002, 2.130418e+002
5.208561e+002, 2.129949e+002
5.213382e+002, 2.129479e+002
5.218203e+002, 2.129151e+002
5.223024e+002, 2.128580e+002
5.227845e+002, 2.127400e+002
5.232667e+002, 2.125637e+002
5.237488e+002, 2.122522e+002
5.242309e+002, 2.116811e+002
5.247130e+002, 2.110654e+002
5.251951e+002, 2.109616e+002
5.256772e+002, 2.113655e+002
5.261594e+002, 2.120051e+002
5.266415e+002, 2.130191e+002
5.271236e+002, 2.141141e+002
5.276057e+002, 2.145169e+002
5.280878e+002, 2.141986e+002
5.285699e+002, 2.137591e+002
5.290521e+002, 2.136978e+002
5.295342e+002, 2.138178e+002
5.300163e+002, 2.138351e+002
5.304984e+002, 2.135432e+002
5.309805e+002, 2.133835e+002
5.314626e+002, 2.137258e+002
5.319448e+002, 2.143618e+002
5.324269e+002, 2.148858e+002
5.329090e+002, 2.149507e+002
5.333911e+002, 2.151079e+002
5.338732e+002, 2.156150e+002
5.343553e+002, 2.164885e+002
5.348375e+002, 2.172130e+002
5.353196e+002, 2.178797e+002
5.358017e+002, 2.182786e+002
5.362838e+002, 2.182035e+002
5.367659e+002, 2.172894e+002
5.372480e+002, 2.169473e+002
5.377302e+002, 2.173337e+002
5.382123e+002, 2.180893e+002
5.386944e+002, 2.187504e+002
5.391765e+002, 2.193297e+002
5.396586e+002, 2.197123e+002
5.401407e+002, 2.198172e+002
5.406229e+002, 2.197529e+002
5.411050e+002, 2.197119e+002
5.415871e+002, 2.197065e+002
5.420692e+002, 2.198298e+002
5.425513e+002, 2.202469e+002
5.430334e+002, 2.207991e+002
5.435156e+002, 2.212597e+002
5.439977e+002, 2.216171e+002
5.444798e+002, 2.218810e+002
5.449619e+002, 2.220420e+002
5.454440e+002, 2.221153e+002
5.459261e+002, 2.221026e+002
5.464083e+002, 2.218441e+002
5.468904e+002, 2.217225e+002
5.473725e+002, 2.219317e+002
5.478546e+002, 2.223578e+002
5.483367e+002, 2.227658e+002
5.488188e+002, 2.233314e+002
5.493010e+002, 2.236336e+002
5.497831e+002, 2.234407e+002
5.502652e+002, 2.227620e+002
5.507473e+002, 2.224327e+002
5.512294e+002, 2.226015e+002
5.517115e+002, 2.228688e+002
5.521937e+002, 2.229747e+002
5.526758e+002, 2.228953e+002
5.531579e+002, 2.229722e+002
5.536400e+002, 2.233092e+002
5.541221e+002, 2.235706e+002
5.546042e+002, 2.231477e+002
5.550864e+002, 2.221671e+002
5.555685e+002, 2.213916e+002
5.560506e+002, 2.210110e+002
5.565327e+002, 2.210056e+002
5.570148e+002, 2.216446e+002
5.574969e+002, 2.227212e+002
5.579791e+002, 2.234652e+002
5.584612e+002, 2.231247e+002
5.589433e+002, 2.224734e+002
5.594254e+002, 2.221810e+002
5.599075e+002, 2.222980e+002
5.603896e+002, 2.222964e+002
5.608718e+002, 2.217152e+002
5.613539e+002, 2.210842e+002
5.618360e+002, 2.208169e+002
5.623181e+002, 2.214718e+002
5.628002e+002, 2.217287e+002
5.632823e+002, 2.212426e+002
5.637645e+002, 2.204520e+002
5.642466e+002, 2.200177e+002
5.647287e+002, 2.200361e+002
5.652108e+002, 2.202282e+002
5.656929e+002, 2.206164e+002
5.661750e+002, 2.211198e+002
5.666572e+002, 2.214121e+002
5.671393e+002, 2.214946e+002
5.676214e+002, 2.213302e+002
5.681035e+002, 2.205925e+002
5.685856e+002, 2.195505e+002
5.690677e+002, 2.194170e+002
5.695499e+002, 2.202874e+002
5.700320e+002, 2.211650e+002
5.705141e+002, 2.210721e+002
5.709962e+002, 2.203662e+002
5.714783e+002, 2.195608e+002
5.719604e+002, 2.185681e+002
5.724426e+002, 2.179366e+002
5.729247e+002, 2.183858e+002
5.734068e+002, 2.193824e+002
5.738889e+002, 2.199815e+002
5.743710e+002, 2.195836e+002
5.748531e+002, 2.190306e+002
5.753353e+002, 2.184464e+002
5.758174e+002, 2.178766e+002
5.762995e+002, 2.177530e+002
5.767816e+002, 2.185448e+002
5.772637e+002, 2.192401e+002
5.777458e+002, 2.193286e+002
5.782280e+002, 2.186348e+002
5.787101e+002, 2.182896e+002
5.791922e+002, 2.183851e+002
5.796743e+002, 2.186254e+002
5.801564e+002, 2.186589e+002
5.806385e+002, 2.185040e+002
5.811207e+002, 2.185319e+002
5.816028e+002, 2.188353e+002
5.820849e+002, 2.192822e+002
5.825670e+002, 2.197661e+002
5.830491e+002, 2.202389e+002
5.835313e+002, 2.205690e+002
5.840134e+002, 2.205929e+002
5.844955e+002, 2.205117e+002
5.849776e+002, 2.204919e+002
5.854597e+002, 2.205273e+002
5.859418e+002, 2.205747e+002
5.864240e+002, 2.205197e+002
5.869061e+002, 2.205419e+002
5.873882e+002, 2.207942e+002
5.878703e+002, 2.213869e+002
5.883524e+002, 2.218279e+002
5.888345e+002, 2.219043e+002
5.893167e+002, 2.219067e+002
5.897988e+002, 2.220585e+002
5.902809e+002, 2.224114e+002
5.907630e+002, 2.228101e+002
5.912451e+002, 2.232864e+002
5.917272e+002, 2.237636e+002
5.922094e+002, 2.240205e+002
5.926915e+002, 2.240287e+002
5.931736e+002, 2.242576e+002
5.936557e+002, 2.249607e+002
5.941378e+002, 2.259253e+002
5.946199e+002, 2.267304e+002
5.951021e+002, 2.273592e+002
5.955842e+002, 2.277279e+002
5.960663e+002, 2.274538e+002
5.965484e+002, 2.270591e+002
5.970305e+002, 2.271459e+002
5.975126e+002, 2.277693e+002
5.979948e+002, 2.286643e+002
5.984769e+002, 2.300264e+002
5.989590e+002, 2.313918e+002
5.994411e+002, 2.323559e+002
5.999232e+002, 2.325842e+002
6.004053e+002, 2.328356e+002
6.008875e+002, 2.332857e+002
6.013696e+002, 2.337951e+002
6.018517e+002, 2.341575e+002
6.023338e+002, 2.342711e+002
6.028159e+002, 2.344291e+002
6.032980e+002, 2.346616e+002
6.037802e+002, 2.349845e+002
6.042623e+002, 2.354617e+002
6.047444e+002, 2.360878e+002
6.052265e+002, 2.368671e+002
6.057086e+002, 2.378923e+002
6.061907e+002, 2.390705e+002
6.066729e+002, 2.401628e+002
6.071550e+002, 2.411609e+002
6.076371e+002, 2.419116e+002
6.081192e+002, 2.420145e+002
6.086013e+002, 2.418982e+002
6.090834e+002, 2.421503e+002
6.095656e+002, 2.429414e+002
6.100477e+002, 2.438011e+002
6.105298e+002, 2.446060e+002
6.110119e+002, 2.452872e+002
6.114940e+002, 2.457758e+002
6.119761e+002, 2.456845e+002
6.124583e+002, 2.458451e+002
6.129404e+002, 2.464444e+002
6.134225e+002, 2.473715e+002
6.139046e+002, 2.484429e+002
6.143867e+002, 2.497446e+002
6.148688e+002, 2.509861e+002
6.153510e+002, 2.521293e+002
6.158331e+002, 2.531496e+002
6.163152e+002, 2.538385e+002
6.167973e+002, 2.541473e+002
6.172794e+002, 2.545378e+002
6.177615e+002, 2.555667e+002
6.182437e+002, 2.568877e+002
6.187258e+002, 2.574306e+002
6.192079e+002, 2.571134e+002
6.196900e+002, 2.567201e+002
6.201721e+002, 2.568869e+002
6.206542e+002, 2.573769e+002
6.211364e+002, 2.579069e+002
6.216185e+002, 2.584418e+002
6.221006e+002, 2.589558e+002
6.225827e+002, 2.594786e+002
6.230648e+002, 2.599728e+002
6.235469e+002, 2.603856e+002
6.240291e+002, 2.605193e+002
6.245112e+002, 2.608253e+002
6.249933e+002, 2.615405e+002
6.254754e+002, 2.624745e+002
6.259575e+002, 2.629026e+002
6.264396e+002, 2.626404e+002
6.269218e+002, 2.624390e+002
6.274039e+002, 2.626296e+002
6.278860e+002, 2.631337e+002
6.283681e+002, 2.634586e+002
6.288502e+002, 2.635977e+002
6.293323e+002, 2.637137e+002
6.298145e+002, 2.638026e+002
6.302966e+002, 2.639819e+002
6.307787e+002, 2.646031e+002
6.312608e+002, 2.657382e+002
6.317429e+002, 2.667448e+002
6.322250e+002, 2.669872e+002
6.327072e+002, 2.669141e+002
6.331893e+002, 2.670203e+002
6.336714e+002, 2.675394e+002
6.341535e+002, 2.680440e+002
6.346356e+002, 2.685658e+002
6.351177e+002, 2.689602e+002
6.355999e+002, 2.689809e+002
6.360820e+002, 2.681547e+002
6.365641e+002, 2.677570e+002
6.370462e+002, 2.682414e+002
6.375283e+002, 2.692287e+002
6.380104e+002, 2.693134e+002
6.384926e+002, 2.683247e+002
6.389747e+002, 2.675418e+002
6.394568e+002, 2.676612e+002
6.399389e+002, 2.684088e+002
6.404210e+002, 2.688960e+002
6.409031e+002, 2.691365e+002
6.413853e+002, 2.692431e+002
6.418674e+002, 2.691933e+002
6.423495e+002, 2.691129e+002
6.428316e+002, 2.691718e+002
6.433137e+002, 2.694027e+002
6.437958e+002, 2.696281e+002
6.442780e+002, 2.696712e+002
6.447601e+002, 2.697164e+002
6.452422e+002, 2.699351e+002
6.457243e+002, 2.706218e+002
6.462064e+002, 2.710570e+002
6.466885e+002, 2.710923e+002
6.471707e+002, 2.709273e+002
6.476528e+002, 2.708295e+002
6.481349e+002, 2.708351e+002
6.486170e+002, 2.707745e+002
6.490991e+002, 2.706061e+002
6.495812e+002, 2.703593e+002
6.500634e+002, 2.699499e+002
6.505455e+002, 2.694127e+002
6.510276e+002, 2.693122e+002
6.515097e+002, 2.704083e+002
6.519918e+002, 2.717984e+002
6.524739e+002, 2.718137e+002
6.529561e+002, 2.707174e+002
6.534382e+002, 2.698861e+002
6.539203e+002, 2.705261e+002
6.544024e+002, 2.714137e+002
6.548845e+002, 2.716979e+002
6.553666e+002, 2.712501e+002
6.558488e+002, 2.707467e+002
6.563309e+002, 2.701411e+002
6.568130e+002, 2.696818e+002
6.572951e+002, 2.695648e+002
6.577772e+002, 2.700602e+002
6.582593e+002, 2.701514e+002
6.587415e+002, 2.697343e+002
6.592236e+002, 2.690821e+002
6.597057e+002, 2.683899e+002
6.601878e+002, 2.676670e+002
6.606699e+002, 2.673711e+002
6.611520e+002, 2.677042e+002
6.616342e+002, 2.682018e+002
6.621163e+002, 2.682835e+002
6.625984e+002, 2.680040e+002
6.630805e+002, 2.674962e+002
6.635626e+002, 2.665038e+002
6.640447e+002, 2.656193e+002
6.645269e+002, 2.653398e+002
6.650090e+002, 2.655130e+002
6.654911e+002, 2.656855e+002
6.659732e+002, 2.657967e+002
6.664553e+002, 2.658081e+002
6.669374e+002, 2.656284e+002
6.674196e+002, 2.652833e+002
6.679017e+002, 2.651610e+002
6.683838e+002, 2.654318e+002
6.688659e+002, 2.656159e+002
6.693480e+002, 2.654771e+002
6.698301e+002, 2.650194e+002
6.703123e+002, 2.643726e+002
6.707944e+002, 2.635082e+002
6.712765e+002, 2.626546e+002
6.717586e+002, 2.619314e+002
6.722407e+002, 2.613682e+002
6.727228e+002, 2.611382e+002
6.732050e+002, 2.613296e+002
6.736871e+002, 2.613857e+002
6.741692e+002, 2.606225e+002
6.746513e+002, 2.595927e+002
6.751334e+002, 2.589743e+002
6.756155e+002, 2.594041e+002
6.760977e+002, 2.595318e+002
6.765798e+002, 2.588116e+002
6.770619e+002, 2.576906e+002
6.775440e+002, 2.568362e+002
6.780261e+002, 2.563626e+002
6.785082e+002, 2.559411e+002
6.789904e+002, 2.555302e+002
6.794725e+002, 2.551356e+002
6.799546e+002, 2.547491e+002
6.804367e+002, 2.543791e+002
6.809188e+002, 2.540606e+002
6.814009e+002, 2.539140e+002
6.818831e+002, 2.537671e+002
6.823652e+002, 2.532644e+002
6.828473e+002, 2.524539e+002
6.833294e+002, 2.515923e+002
6.838115e+002, 2.506607e+002
6.842936e+002, 2.498572e+002
6.847758e+002, 2.493636e+002
6.852579e+002, 2.491919e+002
6.857400e+002, 2.489890e+002
6.862221e+002, 2.486629e+002
6.867042e+002, 2.482832e+002
6.871863e+002, 2.478894e+002
6.876685e+002, 2.474963e+002
6.881506e+002, 2.470251e+002
6.886327e+002, 2.464790e+002
6.891148e+002, 2.458257e+002
6.895969e+002, 2.449083e+002
6.900790e+002, 2.437566e+002
6.905612e+002, 2.430743e+002
6.910433e+002, 2.430080e+002
6.915254e+002, 2.430120e+002
6.920075e+002, 2.423276e+002
6.924896e+002, 2.412911e+002
6.929717e+002, 2.405788e+002
6.934539e+002, 2.406272e+002
6.939360e+002, 2.405362e+002
6.944181e+002, 2.396247e+002
6.949002e+002, 2.382850e+002
6.953823e+002, 2.371221e+002
6.958644e+002, 2.361487e+002
6.963466e+002, 2.355652e+002
6.968287e+002, 2.357097e+002
6.973108e+002, 2.361843e+002
6.977929e+002, 2.358731e+002
6.982750e+002, 2.345697e+002
6.987571e+002, 2.332666e+002
6.992393e+002, 2.322313e+002
6.997214e+002, 2.314522e+002
7.002035e+002, 2.310199e+002
7.006856e+002, 2.308888e+002
7.011677e+002, 2.306748e+002
7.016498e+002, 2.301192e+002
7.021320e+002, 2.293783e+002
7.026141e+002, 2.285281e+002
7.030962e+002, 2.275999e+002
7.035783e+002, 2.268586e+002
7.040604e+002, 2.263582e+002
7.045425e+002, 2.261158e+002
7.050247e+002, 2.263101e+002
7.055068e+002, 2.271359e+002
7.059889e+002, 2.272114e+002
7.064710e+002, 2.259676e+002
7.069531e+002, 2.246980e+002
7.074352e+002, 2.244467e+002
7.079174e+002, 2.253849e+002
7.083995e+002, 2.252572e+002
7.088816e+002, 2.238597e+002
7.093637e+002, 2.222108e+002
7.098458e+002, 2.213146e+002
7.103279e+002, 2.210035e+002
7.108101e+002, 2.209203e+002
7.112922e+002, 2.210914e+002
7.117743e+002, 2.211064e+002
7.122564e+002, 2.203071e+002
7.127385e+002, 2.193176e+002
7.132206e+002, 2.189022e+002
7.137028e+002, 2.199432e+002
7.141849e+002, 2.206360e+002
7.146670e+002, 2.204770e+002
7.151491e+002, 2.198565e+002
7.156312e+002, 2.192449e+002
7.161133e+002, 2.186161e+002
7.165955e+002, 2.180790e+002
7.170776e+002, 2.176541e+002
7.175597e+002, 2.173306e+002
7.180418e+002, 2.171385e+002
7.185239e+002, 2.170586e+002
7.190060e+002, 2.169314e+002
7.194882e+002, 2.166248e+002
7.199703e+002, 2.163090e+002
7.204524e+002, 2.161947e+002
7.209345e+002, 2.162439e+002
7.214166e+002, 2.163465e+002
7.218987e+002, 2.165077e+002
7.223809e+002, 2.166541e+002
7.228630e+002, 2.168346e+002
7.233451e+002, 2.170100e+002
7.238272e+002, 2.168528e+002
7.243093e+002, 2.161417e+002
7.247914e+002, 2.154176e+002
7.252736e+002, 2.148220e+002
7.257557e+002, 2.143706e+002
7.262378e+002, 2.142517e+002
7.267199e+002, 2.144793e+002
7.272020e+002, 2.149467e+002
7.276841e+002, 2.159032e+002
7.281663e+002, 2.169806e+002
7.286484e+002, 2.172613e+002
7.291305e+002, 2.167374e+002
7.296126e+002, 2.159942e+002
7.300947e+002, 2.150150e+002
7.305768e+002, 2.142592e+002
7.310590e+002, 2.142310e+002
7.315411e+002, 2.151763e+002
7.320232e+002, 2.158524e+002
7.325053e+002, 2.158669e+002
7.329874e+002, 2.156748e+002
7.334695e+002, 2.154870e+002
7.339517e+002, 2.152009e+002
7.344338e+002, 2.153566e+002
7.349159e+002, 2.160887e+002
7.353980e+002, 2.168749e+002
7.358801e+002, 2.170570e+002
7.363622e+002, 2.167919e+002
7.368444e+002, 2.167122e+002
7.373265e+002, 2.169090e+002
7.378086e+002, 2.173517e+002
7.382907e+002, 2.182683e+002
7.387728e+002, 2.193178e+002
7.392549e+002, 2.200411e+002
7.397371e+002, 2.201843e+002
7.402192e+002, 2.202263e+002
7.407013e+002, 2.201678e+002
7.411834e+002, 2.201390e+002
7.416655e+002, 2.203159e+002
7.421476e+002, 2.207843e+002
7.426298e+002, 2.212524e+002
7.431119e+002, 2.216990e+002
7.435940e+002, 2.221044e+002
7.440761e+002, 2.223388e+002
7.445582e+002, 2.224354e+002
7.450403e+002, 2.228255e+002
7.455225e+002, 2.237769e+002
7.460046e+002, 2.248299e+002
7.464867e+002, 2.254438e+002
7.469688e+002, 2.257258e+002
7.474509e+002, 2.259026e+002
7.479330e+002, 2.258454e+002
7.484152e+002, 2.259352e+002
7.488973e+002, 2.263978e+002
7.493794e+002, 2.271407e+002
7.498615e+002, 2.278210e+002
7.503436e+002, 2.283768e+002
7.508257e+002, 2.290038e+002
7.513079e+002, 2.298286e+002
7.517900e+002, 2.307334e+002
7.522721e+002, 2.311809e+002
7.527542e+002, 2.311766e+002
7.532363e+002, 2.312251e+002
7.537184e+002, 2.316214e+002
7.542006e+002, 2.321880e+002
7.546827e+002, 2.325603e+002
7.551648e+002, 2.328286e+002
7.556469e+002, 2.333508e+002
7.561290e+002, 2.344275e+002
7.566111e+002, 2.357066e+002
7.570933e+002, 2.371340e+002
7.575754e+002, 2.386549e+002
7.580575e+002, 2.399152e+002
7.585396e+002, 2.408245e+002
7.590217e+002, 2.415639e+002
7.595038e+002, 2.421613e+002
7.599860e+002, 2.426290e+002
7.604681e+002, 2.431716e+002
7.609502e+002, 2.437831e+002
7.614323e+002, 2.445033e+002
7.619144e+002, 2.454937e+002
7.623965e+002, 2.465604e+002
7.628787e+002, 2.472523e+002
7.633608e+002, 2.475949e+002
7.638429e+002, 2.480739e+002
7.643250e+002, 2.489533e+002
7.648071e+002, 2.500880e+002
7.652892e+002, 2.514706e+002
7.657714e+002, 2.531818e+002
7.662535e+002, 2.545603e+002
7.667356e+002, 2.553949e+002
7.672177e+002, 2.561313e+002
7.676998e+002, 2.569862e+002
7.681819e+002, 2.579691e+002
7.686641e+002, 2.590998e+002
7.691462e+002, 2.603926e+002
7.696283e+002, 2.616598e+002
7.701104e+002, 2.627187e+002
7.705925e+002, 2.636431e+002
7.710746e+002, 2.644551e+002
7.715568e+002, 2.651415e+002
7.720389e+002, 2.661965e+002
7.725210e+002, 2.685646e+002
7.730031e+002, 2.709922e+002
7.734852e+002, 2.723876e+002
7.739673e+002, 2.720909e+002
7.744495e+002, 2.724377e+002
7.749316e+002, 2.738024e+002
7.754137e+002, 2.754601e+002
7.758958e+002, 2.769243e+002
7.763779e+002, 2.781976e+002
7.768600e+002, 2.792828e+002
7.773422e+002, 2.801794e+002
7.778243e+002, 2.809398e+002
7.783064e+002, 2.813224e+002
7.787885e+002, 2.816842e+002
7.792706e+002, 2.828384e+002
7.797527e+002, 2.850341e+002
7.802349e+002, 2.872021e+002
7.807170e+002, 2.888031e+002
7.811991e+002, 2.900179e+002
7.816812e+002, 2.909780e+002
7.821633e+002, 2.914904e+002
7.826454e+002, 2.921359e+002
7.831276e+002, 2.929155e+002
7.836097e+002, 2.938334e+002
7.840918e+002, 2.948563e+002
7.845739e+002, 2.959754e+002
7.850560e+002, 2.974974e+002
7.855381e+002, 2.995384e+002
7.860203e+002, 3.014375e+002
7.865024e+002, 3.022428e+002
7.869845e+002, 3.024465e+002
7.874666e+002, 3.029179e+002
7.879487e+002, 3.039016e+002
7.884308e+002, 3.049970e+002
7.889130e+002, 3.059796e+002
7.893951e+002, 3.070009e+002
7.898772e+002, 3.082490e+002
7.903593e+002, 3.099568e+002
7.908414e+002, 3.114785e+002
7.913235e+002, 3.128298e+002
7.918057e+002, 3.139420e+002
7.922878e+002, 3.145576e+002
7.927699e+002, 3.147276e+002
7.932520e+002, 3.151961e+002
7.937341e+002, 3.161039e+002
7.942162e+002, 3.171803e+002
7.946984e+002, 3.182503e+002
7.951805e+002, 3.192715e+002
7.956626e+002, 3.201798e+002
7.961447e+002, 3.210133e+002
7.966268e+002, 3.216518e+002
7.971089e+002, 3.219202e+002
7.975911e+002, 3.220499e+002
7.980732e+002, 3.223072e+002
7.985553e+002, 3.227758e+002
7.990374e+002, 3.232259e+002
7.995195e+002, 3.237093e+002
8.000016e+002, 3.240659e+002
8.004838e+002, 3.239228e+002
8.009659e+002, 3.234147e+002
8.014480e+002, 3.233717e+002
8.019301e+002, 3.240424e+002
8.024122e+002, 3.248039e+002
8.028943e+002, 3.251597e+002
8.033765e+002, 3.251929e+002
8.038586e+002, 3.249799e+002
8.043407e+002, 3.242531e+002
8.048228e+002, 3.238034e+002
8.053049e+002, 3.239167e+002
8.057870e+002, 3.243085e+002
8.062692e+002, 3.247816e+002
8.067513e+002, 3.254597e+002
8.072334e+002, 3.256559e+002
8.077155e+002, 3.252118e+002
8.081976e+002, 3.245340e+002
8.086797e+002, 3.241097e+002
8.091619e+002, 3.238784e+002
8.096440e+002, 3.237424e+002
8.101261e+002, 3.237748e+002
8.106082e+002, 3.235195e+002
8.110903e+002, 3.222943e+002
8.115724e+002, 3.207704e+002
8.120546e+002, 3.196865e+002
8.125367e+002, 3.193717e+002
8.130188e+002, 3.192607e+002
8.135009e+002, 3.195822e+002
8.139830e+002, 3.198425e+002
8.144651e+002, 3.194147e+002
8.149473e+002, 3.182475e+002
8.154294e+002, 3.172573e+002
8.159115e+002, 3.165328e+002
8.163936e+002, 3.160095e+002
8.168757e+002, 3.157697e+002
8.173578e+002, 3.156371e+002
8.178400e+002, 3.152934e+002
8.183221e+002, 3.146422e+002
8.188042e+002, 3.138542e+002
8.192863e+002, 3.127635e+002
8.197684e+002, 3.117075e+002
8.202505e+002, 3.110392e+002
8.207327e+002, 3.109955e+002
8.212148e+002, 3.108336e+002
8.216969e+002, 3.105932e+002
8.221790e+002, 3.101380e+002
8.226611e+002, 3.092410e+002
8.231432e+002, 3.079628e+002
8.236254e+002, 3.067696e+002
8.241075e+002, 3.057046e+002
8.245896e+002, 3.047113e+002
8.250717e+002, 3.038313e+002
8.255538e+002, 3.029584e+002
8.260359e+002, 3.019728e+002
8.265181e+002, 3.008222e+002
8.270002e+002, 2.996952e+002
8.274823e+002, 2.986686e+002
8.279644e+002, 2.976595e+002
8.284465e+002, 2.965742e+002
8.289286e+002, 2.953653e+002
8.294108e+002, 2.944999e+002
8.298929e+002, 2.941068e+002
8.303750e+002, 2.935392e+002
8.308571e+002, 2.918301e+002
8.313392e+002, 2.895935e+002
8.318214e+002, 2.881998e+002
8.323035e+002, 2.878210e+002
8.327856e+002, 2.876154e+002
8.332677e+002, 2.871524e+002
8.337498e+002, 2.865908e+002
8.342319e+002, 2.861185e+002
8.347141e+002, 2.858839e+002
8.351962e+002, 2.850473e+002
8.356783e+002, 2.833229e+002
8.361604e+002, 2.814684e+002
8.366425e+002, 2.799467e+002
8.371246e+002, 2.787460e+002
8.376068e+002, 2.777401e+002
8.380889e+002, 2.769283e+002
8.385710e+002, 2.762550e+002
8.390531e+002, 2.758618e+002
8.395352e+002, 2.754729e+002
8.400173e+002, 2.747852e+002
8.404995e+002, 2.737756e+002
8.409816e+002, 2.726451e+002
8.414637e+002, 2.713605e+002
8.419458e+002, 2.700648e+002
8.424279e+002, 2.688175e+002
8.429100e+002, 2.676163e+002
8.433922e+002, 2.664037e+002
8.438743e+002, 2.651940e+002
8.443564e+002, 2.638807e+002
8.448385e+002, 2.621050e+002
8.453206e+002, 2.602546e+002
8.458027e+002, 2.595660e+002
8.462849e+002, 2.598016e+002
8.467670e+002, 2.596500e+002
8.472491e+002, 2.578893e+002
8.477312e+002, 2.559821e+002
8.482133e+002, 2.548451e+002
8.486954e+002, 2.544104e+002
8.491776e+002, 2.536753e+002
8.496597e+002, 2.524941e+002
8.501418e+002, 2.512492e+002
8.506239e+002, 2.500443e+002
8.511060e+002, 2.488969e+002
8.515881e+002, 2.479042e+002
8.520703e+002, 2.470528e+002
8.525524e+002, 2.462128e+002
8.530345e+002, 2.452580e+002
8.535166e+002, 2.443535e+002
8.539987e+002, 2.438146e+002
8.544808e+002, 2.434362e+002
8.549630e+002, 2.426978e+002
8.554451e+002, 2.410864e+002
8.559272e+002, 2.395238e+002
8.564093e+002, 2.380865e+002
8.568914e+002, 2.368629e+002
8.573735e+002, 2.360650e+002
8.578557e+002, 2.357245e+002
8.583378e+002, 2.354261e+002
8.588199e+002, 2.351593e+002
8.593020e+002, 2.346712e+002
8.597841e+002, 2.335211e+002
8.602662e+002, 2.318788e+002
8.607484e+002, 2.300804e+002
8.612305e+002, 2.278299e+002
8.617126e+002, 2.260685e+002
8.621947e+002, 2.255879e+002
8.626768e+002, 2.256409e+002
8.631589e+002, 2.251561e+002
8.636411e+002, 2.239005e+002
8.641232e+002, 2.227858e+002
8.646053e+002, 2.219586e+002
8.650874e+002, 2.211375e+002
8.655695e+002, 2.198362e+002
8.660516e+002, 2.182211e+002
8.665338e+002, 2.167653e+002
8.670159e+002, 2.155124e+002
8.674980e+002, 2.145843e+002
8.679801e+002, 2.144397e+002
8.684622e+002, 2.144331e+002
8.689443e+002, 2.138694e+002
8.694265e+002, 2.121696e+002
8.699086e+002, 2.111335e+002
8.703907e+002, 2.112056e+002
8.708728e+002, 2.112572e+002
8.713549e+002, 2.101761e+002
8.718370e+002, 2.080893e+002
8.723192e+002, 2.066112e+002
8.728013e+002, 2.057913e+002
8.732834e+002, 2.051739e+002
8.737655e+002, 2.044879e+002
8.742476e+002, 2.037441e+002
8.747297e+002, 2.029075e+002
8.752119e+002, 2.019631e+002
8.756940e+002, 2.011527e+002
8.761761e+002, 2.007074e+002
8.766582e+002, 2.002315e+002
8.771403e+002, 1.995571e+002
8.776224e+002, 1.987003e+002
8.781046e+002, 1.978685e+002
8.785867e+002, 1.970642e+002
8.790688e+002, 1.963124e+002
8.795509e+002, 1.957547e+002
8.800330e+002, 1.952058e+002
8.805151e+002, 1.943860e+002
8.809973e+002, 1.933416e+002
8.814794e+002, 1.922490e+002
8.819615e+002, 1.910623e+002
8.824436e+002, 1.899743e+002
8.829257e+002, 1.891248e+002
8.834078e+002, 1.884272e+002
8.838900e+002, 1.875936e+002
8.843721e+002, 1.866088e+002
8.848542e+002, 1.855365e+002
8.853363e+002, 1.843141e+002
8.858184e+002, 1.831430e+002
8.863005e+002, 1.824351e+002
8.867827e+002, 1.820594e+002
8.872648e+002, 1.816885e+002
8.877469e+002, 1.811177e+002
8.882290e+002, 1.806529e+002
8.887111e+002, 1.806556e+002
8.891932e+002, 1.807518e+002
8.896754e+002, 1.803916e+002
8.901575e+002, 1.794251e+002
8.906396e+002, 1.783615e+002
8.911217e+002, 1.771898e+002
8.916038e+002, 1.760689e+002
8.920859e+002, 1.751802e+002
8.925681e+002, 1.744971e+002
8.930502e+002, 1.740070e+002
8.935323e+002, 1.737578e+002
8.940144e+002, 1.733575e+002
8.944965e+002, 1.724179e+002
8.949786e+002, 1.712936e+002
8.954608e+002, 1.702756e+002
8.959429e+002, 1.694424e+002
8.964250e+002, 1.685301e+002
8.969071e+002, 1.673968e+002
8.973892e+002, 1.664810e+002
8.978713e+002, 1.662587e+002
8.983535e+002, 1.665675e+002
8.988356e+002, 1.664618e+002
8.993177e+002, 1.659518e+002
8.997998e+002, 1.652922e+002
9.002819e+002, 1.645890e+002
9.007640e+002, 1.638525e+002
9.012462e+002, 1.630597e+002
9.017283e+002, 1.622265e+002
9.022104e+002, 1.614288e+002
9.026925e+002, 1.606889e+002
9.031746e+002, 1.599914e+002
9.036567e+002, 1.593547e+002
9.041389e+002, 1.587432e+002
9.046210e+002, 1.579348e+002
9.051031e+002, 1.569745e+002
9.055852e+002, 1.562472e+002
9.060673e+002, 1.560495e+002
9.065494e+002, 1.559541e+002
9.070316e+002, 1.556392e+002
9.075137e+002, 1.551381e+002
9.079958e+002, 1.545038e+002
9.084779e+002, 1.536695e+002
9.089600e+002, 1.527986e+002
9.094421e+002, 1.518505e+002
9.099243e+002, 1.509353e+002
9.104064e+002, 1.501677e+002
9.108885e+002, 1.495504e+002
9.113706e+002, 1.490923e+002
9.118527e+002, 1.488149e+002
9.123348e+002, 1.485702e+002
9.128170e+002, 1.482723e+002
9.132991e+002, 1.478990e+002
9.137812e+002, 1.474246e+002
9.142633e+002, 1.468419e+002
9.147454e+002, 1.461684e+002
9.152275e+002, 1.453560e+002
9.157097e+002, 1.445181e+002
9.161918e+002, 1.436957e+002
9.166739e+002, 1.428905e+002
9.171560e+002, 1.421994e+002
9.176381e+002, 1.416277e+002
9.181202e+002, 1.411705e+002
9.186024e+002, 1.409015e+002
9.190845e+002, 1.406928e+002
9.195666e+002, 1.404880e+002
9.200487e+002, 1.402452e+002
9.205308e+002, 1.397606e+002
9.210129e+002, 1.385893e+002
9.214951e+002, 1.376398e+002
9.219772e+002, 1.372376e+002
9.224593e+002, 1.371649e+002
9.229414e+002, 1.367769e+002
9.234235e+002, 1.360794e+002
9.239056e+002, 1.352265e+002
9.243878e+002, 1.341648e+002
9.248699e+002, 1.331713e+002
9.253520e+002, 1.325827e+002
9.258341e+002, 1.322605e+002
9.263162e+002, 1.319801e+002
9.267983e+002, 1.318250e+002
9.272805e+002, 1.314714e+002
9.277626e+002, 1.307184e+002
9.282447e+002, 1.299309e+002
9.287268e+002, 1.295899e+002
9.292089e+002, 1.297047e+002
9.296910e+002, 1.293404e+002
9.301732e+002, 1.283993e+002
9.306553e+002, 1.274190e+002
9.311374e+002, 1.268593e+002
9.316195e+002, 1.265503e+002
9.321016e+002, 1.263563e+002
9.325837e+002, 1.262735e+002
9.330659e+002, 1.260564e+002
9.335480e+002, 1.255948e+002
9.340301e+002, 1.250445e+002
9.345122e+002, 1.244463e+002
9.349943e+002, 1.238026e+002
9.354764e+002, 1.231851e+002
9.359586e+002, 1.225829e+002
9.364407e+002, 1.219667e+002
9.369228e+002, 1.211689e+002
9.374049e+002, 1.204723e+002
9.378870e+002, 1.203354e+002
9.383691e+002, 1.205137e+002
9.388513e+002, 1.204475e+002
9.393334e+002, 1.196602e+002
9.398155e+002, 1.190687e+002
9.402976e+002, 1.189364e+002
9.407797e+002, 1.189192e+002
9.412618e+002, 1.184530e+002
9.417440e+002, 1.175707e+002
9.422261e+002, 1.166431e+002
9.427082e+002, 1.156847e+002
9.431903e+002, 1.149206e+002
9.436724e+002, 1.146658e+002
9.441545e+002, 1.146642e+002
9.446367e+002, 1.146894e+002
9.451188e+002, 1.147518e+002
9.456009e+002, 1.146061e+002
9.460830e+002, 1.140763e+002
9.465651e+002, 1.135876e+002
9.470472e+002, 1.134507e+002
9.475294e+002, 1.135975e+002
9.480115e+002, 1.134572e+002
9.484936e+002, 1.130502e+002
9.489757e+002, 1.126213e+002
9.494578e+002, 1.123006e+002
9.499399e+002, 1.120415e+002
9.504221e+002, 1.118779e+002
9.509042e+002, 1.117588e+002
9.513863e+002, 1.114661e+002
9.518684e+002, 1.107108e+002
9.523505e+002, 1.103394e+002
9.528326e+002, 1.106678e+002
9.533148e+002, 1.112420e+002
9.537969e+002, 1.111464e+002
9.542790e+002, 1.105262e+002
9.547611e+002, 1.099908e+002
9.552432e+002, 1.096995e+002
9.557253e+002, 1.095051e+002
9.562075e+002, 1.093818e+002
9.566896e+002, 1.092560e+002
9.571717e+002, 1.090462e+002
9.576538e+002, 1.087190e+002
9.581359e+002, 1.083736e+002
9.586180e+002, 1.079838e+002
9.591002e+002, 1.076300e+002
9.595823e+002, 1.073507e+002
9.600644e+002, 1.071531e+002
9.605465e+002, 1.071057e+002
9.610286e+002, 1.071891e+002
9.615107e+002, 1.072573e+002
9.619929e+002, 1.073337e+002
9.624750e+002, 1.072683e+002
9.629571e+002, 1.068174e+002
9.634392e+002, 1.061504e+002
9.639213e+002, 1.058820e+002
9.644034e+002, 1.061081e+002
9.648856e+002, 1.063816e+002
9.653677e+002, 1.066385e+002
9.658498e+002, 1.068022e+002
9.663319e+002, 1.066637e+002
9.668140e+002, 1.063575e+002
9.672961e+002, 1.061974e+002
9.677783e+002, 1.063793e+002
9.682604e+002, 1.064027e+002
9.687425e+002, 1.058473e+002
9.692246e+002, 1.052347e+002
9.697067e+002, 1.049984e+002
9.701888e+002, 1.052160e+002
9.706710e+002, 1.052467e+002
9.711531e+002, 1.050681e+002
9.716352e+002, 1.049089e+002
9.721173e+002, 1.049977e+002
9.725994e+002, 1.051762e+002
9.730815e+002, 1.052458e+002
9.735637e+002, 1.052099e+002
9.740458e+002, 1.051416e+002
9.745279e+002, 1.049406e+002
9.750100e+002, 1.048719e+002
9.754921e+002, 1.050538e+002
9.759742e+002, 1.053744e+002
9.764564e+002, 1.055889e+002
9.769385e+002, 1.056983e+002
9.774206e+002, 1.056438e+002
9.779027e+002, 1.053631e+002
9.783848e+002, 1.050747e+002
9.788669e+002, 1.051054e+002
9.793491e+002, 1.051929e+002
9.798312e+002, 1.049785e+002
9.803133e+002, 1.041503e+002
9.807954e+002, 1.036977e+002
9.812775e+002, 1.037946e+002
9.817596e+002, 1.040088e+002
9.822418e+002, 1.040014e+002
9.827239e+002, 1.038365e+002
9.832060e+002, 1.039206e+002
9.836881e+002, 1.042194e+002
9.841702e+002, 1.044279e+002
9.846523e+002, 1.041766e+002
9.851345e+002, 1.039514e+002
9.856166e+002, 1.040853e+002
9.860987e+002, 1.044935e+002
9.865808e+002, 1.048162e+002
9.870629e+002, 1.050264e+002
9.875450e+002, 1.052542e+002
9.880272e+002, 1.055704e+002
9.885093e+002, 1.058080e+002
9.889914e+002, 1.056064e+002
9.894735e+002, 1.051607e+002
9.899556e+002, 1.048966e+002
9.904377e+002, 1.049655e+002
9.909199e+002, 1.049666e+002
9.914020e+002, 1.045088e+002
9.918841e+002, 1.041307e+002
9.923662e+002, 1.042654e+002
9.928483e+002, 1.049361e+002
9.933304e+002, 1.051936e+002
9.938126e+002, 1.050177e+002
9.942947e+002, 1.047774e+002
9.947768e+002, 1.046717e+002
9.952589e+002, 1.046506e+002
9.957410e+002, 1.046299e+002
9.962231e+002, 1.046406e+002
9.967053e+002, 1.047740e+002
9.971874e+002, 1.053069e+002
9.976695e+002, 1.056030e+002
9.981516e+002, 1.054826e+002
9.986337e+002, 1.051991e+002
9.991158e+002, 1.051513e+002
9.995980e+002, 1.053033e+002
1.000080e+003, 1.053836e+002
1.000562e+003, 1.053394e+002
1.001044e+003, 1.053471e+002
1.001526e+003, 1.056640e+002
1.002009e+003, 1.060043e+002
1.002491e+003, 1.061413e+002
1.002973e+003, 1.060471e+002
1.003455e+003, 1.057288e+002
1.003937e+003, 1.050192e+002
1.004419e+003, 1.046351e+002
1.004901e+003, 1.050451e+002
1.005383e+003, 1.058676e+002
1.005865e+003, 1.063613e+002
1.006348e+003, 1.065707e+002
1.006830e+003, 1.066361e+002
1.007312e+003, 1.062418e+002
1.007794e+003, 1.061711e+002
1.008276e+003, 1.070773e+002
1.008758e+003, 1.081643e+002
1.009240e+003, 1.085543e+002
1.009722e+003, 1.081685e+002
1.010205e+003, 1.078018e+002
1.010687e+003, 1.074826e+002
1.011169e+003, 1.073471e+002
1.011651e+003, 1.076290e+002
1.012133e+003, 1.080754e+002
1.012615e+003, 1.084888e+002
1.013097e+003, 1.088395e+002
1.013579e+003, 1.089561e+002
1.014061e+003, 1.085493e+002
1.014544e+003, 1.083805e+002
1.015026e+003, 1.088203e+002
1.015508e+003, 1.094934e+002
1.015990e+003, 1.092549e+002
1.016472e+003, 1.083883e+002
1.016954e+003, 1.081326e+002
1.017436e+003, 1.091551e+002
1.017918e+003, 1.101297e+002
1.018401e+003, 1.101170e+002
1.018883e+003, 1.097143e+002
1.019365e+003, 1.095226e+002
1.019847e+003, 1.096110e+002
1.020329e+003, 1.096589e+002
1.020811e+003, 1.096564e+002
1.021293e+003, 1.096712e+002
1.021775e+003, 1.097400e+002
1.022257e+003, 1.098636e+002
1.022740e+003, 1.100943e+002
1.023222e+003, 1.103905e+002
1.023704e+003, 1.105969e+002
1.024186e+003, 1.104261e+002
1.024668e+003, 1.104794e+002
1.025150e+003, 1.110068e+002
1.025632e+003, 1.116898e+002
1.026114e+003, 1.119496e+002
1.026596e+003, 1.118348e+002
1.027079e+003, 1.118433e+002
1.027561e+003, 1.120673e+002
1.028043e+003, 1.123017e+002
1.028525e+003, 1.124576e+002
1.029007e+003, 1.124948e+002
1.029489e+003, 1.122443e+002
1.029971e+003, 1.116678e+002
1.030453e+003, 1.117487e+002
1.030936e+003, 1.127684e+002
1.031418e+003, 1.134815e+002
1.031900e+003, 1.131703e+002
1.032382e+003, 1.124472e+002
1.032864e+003, 1.125269e+002
1.033346e+003, 1.131690e+002
1.033828e+003, 1.138090e+002
1.034310e+003, 1.142983e+002
1.034792e+003, 1.146793e+002
1.035275e+003, 1.150236e+002
1.035757e+003, 1.152087e+002
1.036239e+003, 1.149930e+002
1.036721e+003, 1.143789e+002
1.037203e+003, 1.143394e+002
1.037685e+003, 1.149024e+002
1.038167e+003, 1.155155e+002
1.038649e+003, 1.158342e+002
1.039132e+003, 1.159866e+002
1.039614e+003, 1.159142e+002
1.040096e+003, 1.157352e+002
1.040578e+003, 1.160319e+002
1.041060e+003, 1.171350e+002
1.041542e+003, 1.178674e+002
1.042024e+003, 1.179268e+002
1.042506e+003, 1.177215e+002
1.042989e+003, 1.178397e+002
1.043471e+003, 1.181650e+002
1.043953e+003, 1.184619e+002
1.044435e+003, 1.186859e+002
1.044917e+003, 1.188877e+002
1.045399e+003, 1.190192e+002
1.045881e+003, 1.192103e+002
1.046363e+003, 1.195737e+002
1.046845e+003, 1.200657e+002
1.047328e+003, 1.202914e+002
1.047810e+003, 1.202701e+002
1.048292e+003, 1.202708e+002
1.048774e+003, 1.204075e+002
1.049256e+003, 1.206328e+002
1.049738e+003, 1.210651e+002
1.050220e+003, 1.215114e+002
1.050702e+003, 1.216263e+002
1.051184e+003, 1.211363e+002
1.051667e+003, 1.209471e+002
1.052149e+003, 1.211257e+002
1.052631e+003, 1.214421e+002
1.053113e+003, 1.217154e+002
1.053595e+003, 1.219777e+002
1.054077e+003, 1.223646e+002
1.054559e+003, 1.228367e+002
1.055041e+003, 1.231169e+002
1.055523e+003, 1.227135e+002
1.056006e+003, 1.225932e+002
1.056488e+003, 1.231559e+002
1.056970e+003, 1.240304e+002
1.057452e+003, 1.244170e+002
1.057934e+003, 1.243767e+002
1.058416e+003, 1.244734e+002
1.058898e+003, 1.248321e+002
1.059380e+003, 1.252368e+002
1.059863e+003, 1.256039e+002
1.060345e+003, 1.258673e+002
1.060827e+003, 1.258950e+002
1.061309e+003, 1.256747e+002
1.061791e+003, 1.256799e+002
1.062273e+003, 1.259314e+002
1.062755e+003, 1.263278e+002
1.063237e+003, 1.269443e+002
1.063719e+003, 1.275127e+002
1.064202e+003, 1.274989e+002
1.064684e+003, 1.271558e+002
1.065166e+003, 1.269672e+002
1.065648e+003, 1.271545e+002
1.066130e+003, 1.273707e+002
1.066612e+003, 1.275172e+002
1.067094e+003, 1.277636e+002
1.067576e+003, 1.283825e+002
1.068059e+003, 1.292558e+002
1.068541e+003, 1.296005e+002
1.069023e+003, 1.294640e+002
1.069505e+003, 1.293040e+002
1.069987e+003, 1.292597e+002
1.070469e+003, 1.294012e+002
1.070951e+003, 1.298139e+002
1.071433e+003, 1.304252e+002
1.071916e+003, 1.312233e+002
1.072398e+003, 1.322870e+002
1.072880e+003, 1.326331e+002
1.073362e+003, 1.320137e+002
1.073844e+003, 1.314174e+002
1.074326e+003, 1.320919e+002
1.074808e+003, 1.331572e+002
1.075290e+003, 1.336220e+002
1.075772e+003, 1.333927e+002
1.076255e+003, 1.334095e+002
1.076737e+003, 1.338387e+002
1.077219e+003, 1.342646e+002
1.077701e+003, 1.345197e+002
1.078183e+003, 1.347415e+002
1.078665e+003, 1.353214e+002
1.079147e+003, 1.360636e+002
1.079629e+003, 1.364972e+002
1.080111e+003, 1.364264e+002
1.080594e+003, 1.362607e+002
1.081076e+003, 1.359975e+002
1.081558e+003, 1.358185e+002
1.082040e+003, 1.358595e+002
1.082522e+003, 1.360949e+002
1.083004e+003, 1.361926e+002
1.083486e+003, 1.361919e+002
1.083968e+003, 1.364712e+002
1.084450e+003, 1.376359e+002
1.084933e+003, 1.387096e+002
1.085415e+003, 1.390064e+002
1.085897e+003, 1.388279e+002
1.086379e+003, 1.386509e+002
1.086861e+003, 1.384143e+002
1.087343e+003, 1.385587e+002
1.087825e+003, 1.391706e+002
1.088307e+003, 1.397250e+002
1.088790e+003, 1.396917e+002
1.089272e+003, 1.393901e+002
1.089754e+003, 1.390925e+002
1.090236e+003, 1.388571e+002
1.090718e+003, 1.389085e+002
1.091200e+003, 1.395466e+002
1.091682e+003, 1.399837e+002
1.092164e+003, 1.400391e+002
1.092646e+003, 1.399265e+002
1.093129e+003, 1.398978e+002
1.093611e+003, 1.399726e+002
1.094093e+003, 1.402455e+002
1.094575e+003, 1.407453e+002
1.095057e+003, 1.411865e+002
1.095539e+003, 1.413653e+002
1.096021e+003, 1.415363e+002
1.096503e+003, 1.418599e+002
1.096986e+003, 1.422444e+002
1.097468e+003, 1.422431e+002
1.097950e+003, 1.419226e+002
1.098432e+003, 1.418978e+002
1.098914e+003, 1.425222e+002
1.099396e+003, 1.430642e+002
1.099878e+003, 1.428652e+002
1.100360e+003, 1.424076e+002
1.100843e+003, 1.421856e+002
1.101325e+003, 1.422468e+002
1.101807e+003, 1.420976e+002
1.102289e+003, 1.416895e+002
1.102771e+003, 1.415883e+002
1.103253e+003, 1.424921e+002
1.103735e+003, 1.434990e+002
1.104217e+003, 1.433230e+002
1.104699e+003, 1.425104e+002
1.105182e+003, 1.421065e+002
1.105664e+003, 1.427021e+002
1.106146e+003, 1.429585e+002
1.106628e+003, 1.427323e+002
1.107110e+003, 1.424677e+002
1.107592e+003, 1.426239e+002
1.108074e+003, 1.430034e+002
1.108556e+003, 1.432317e+002
1.109038e+003, 1.433018e+002
1.109521e+003, 1.432729e+002
1.110003e+003, 1.428771e+002
1.110485e+003, 1.428016e+002
1.110967e+003, 1.433316e+002
1.111449e+003, 1.440558e+002
1.111931e+003, 1.443007e+002
1.112413e+003, 1.441838e+002
1.112895e+003, 1.442841e+002
1.113377e+003, 1.446756e+002
1.113860e+003, 1.449711e+002
1.114342e+003, 1.449679e+002
1.114824e+003, 1.447598e+002
1.115306e+003, 1.442637e+002
1.115788e+003, 1.436398e+002
1.116270e+003, 1.434594e+002
1.116752e+003, 1.437134e+002
1.117234e+003, 1.439522e+002
1.117717e+003, 1.440626e+002
1.118199e+003, 1.441283e+002
1.118681e+003, 1.442088e+002
1.119163e+003, 1.442892e+002
1.119645e+003, 1.443684e+002
1.120127e+003, 1.444475e+002
1.120609e+003, 1.444298e+002
1.121091e+003, 1.443036e+002
1.121573e+003, 1.441337e+002
1.122056e+003, 1.438921e+002
1.122538e+003, 1.437078e+002
1.123020e+003, 1.437830e+002
1.123502e+003, 1.440109e+002
1.123984e+003, 1.442403e+002
1.124466e+003, 1.445168e+002
1.124948e+003, 1.445692e+002
1.125430e+003, 1.443139e+002
1.125913e+003, 1.440526e+002
1.126395e+003, 1.440331e+002
1.126877e+003, 1.441299e+002
1.127359e+003, 1.440202e+002
1.127841e+003, 1.437843e+002
1.128323e+003, 1.436428e+002
1.128805e+003, 1.438913e+002
1.129287e+003, 1.439122e+002
1.129770e+003, 1.434941e+002
1.130252e+003, 1.430371e+002
1.130734e+003, 1.429407e+002
1.131216e+003, 1.431352e+002
1.131698e+003, 1.434063e+002
1.132180e+003, 1.437187e+002
1.132662e+003, 1.438989e+002
1.133144e+003, 1.437583e+002
1.133626e+003, 1.435721e+002
1.134109e+003, 1.434008e+002
1.134591e+003, 1.432677e+002
1.135073e+003, 1.432262e+002
1.135555e+003, 1.432680e+002
1.136037e+003, 1.432936e+002
1.136519e+003, 1.432922e+002
1.137001e+003, 1.432881e+002
1.137483e+003, 1.434104e+002
1.137965e+003, 1.434344e+002
1.138448e+003, 1.431021e+002
1.138930e+003, 1.425661e+002
1.139412e+003, 1.423426e+002
1.139894e+003, 1.424573e+002
1.140376e+003, 1.423393e+002
1.140858e+003, 1.418261e+002
1.141340e+003, 1.413014e+002
1.141822e+003, 1.410164e+002
1.142304e+003, 1.409621e+002
1.142787e+003, 1.413046e+002
1.143269e+003, 1.420207e+002
1.143751e+003, 1.420042e+002
1.144233e+003, 1.410719e+002
1.144715e+003, 1.404438e+002
1.145197e+003, 1.406579e+002
1.145679e+003, 1.410773e+002
1.146161e+003, 1.408273e+002
1.146644e+003, 1.403075e+002
1.147126e+003, 1.400745e+002
1.147608e+003, 1.403574e+002
1.148090e+003, 1.403555e+002
1.148572e+003, 1.399552e+002
1.149054e+003, 1.395960e+002
1.149536e+003, 1.395580e+002
1.150018e+003, 1.396174e+002
1.150500e+003, 1.392762e+002
1.150983e+003, 1.387571e+002
1.151465e+003, 1.385114e+002
1.151947e+003, 1.388380e+002
1.152429e+003, 1.390970e+002
1.152911e+003, 1.392642e+002
1.153393e+003, 1.393192e+002
1.153875e+003, 1.392338e+002
1.154357e+003, 1.390316e+002
1.154840e+003, 1.387421e+002
1.155322e+003, 1.383862e+002
1.155804e+003, 1.380447e+002
1.156286e+003, 1.379343e+002
1.156768e+003, 1.375205e+002
1.157250e+003, 1.364290e+002
1.157732e+003, 1.354748e+002
1.158214e+003, 1.356090e+002
1.158697e+003, 1.365349e+002
1.159179e+003, 1.369581e+002
1.159661e+003, 1.369193e+002
1.160143e+003, 1.368606e+002
1.160625e+003, 1.370758e+002
1.161107e+003, 1.372100e+002
1.161589e+003, 1.371966e+002
1.162071e+003, 1.370166e+002
1.162553e+003, 1.365478e+002
1.163036e+003, 1.358526e+002
1.163518e+003, 1.353326e+002
1.164000e+003, 1.350184e+002
1.164482e+003, 1.349489e+002
1.164964e+003, 1.354379e+002
1.165446e+003, 1.358600e+002
1.165928e+003, 1.359036e+002
1.166410e+003, 1.356977e+002
1.166892e+003, 1.354445e+002
1.167375e+003, 1.351438e+002
1.167857e+003, 1.347964e+002
1.168339e+003, 1.343987e+002
1.168821e+003, 1.340186e+002
1.169303e+003, 1.335058e+002
1.169785e+003, 1.332177e+002
1.170267e+003, 1.335768e+002
1.170749e+003, 1.343087e+002
1.171231e+003, 1.346697e+002
1.171714e+003, 1.346627e+002
1.172196e+003, 1.345241e+002
1.172678e+003, 1.342791e+002
1.173160e+003, 1.340620e+002
1.173642e+003, 1.340300e+002
1.174124e+003, 1.340398e+002
1.174606e+003, 1.339785e+002
1.175088e+003, 1.338524e+002
1.175571e+003, 1.337170e+002
1.176053e+003, 1.335741e+002
1.176535e+003, 1.333503e+002
1.177017e+003, 1.329677e+002
1.177499e+003, 1.326940e+002
1.177981e+003, 1.330336e+002
1.178463e+003, 1.334351e+002
1.178945e+003, 1.332435e+002
1.179427e+003, 1.324382e+002
1.179910e+003, 1.320355e+002
1.180392e+003, 1.320638e+002
1.180874e+003, 1.322036e+002
1.181356e+003, 1.324213e+002
1.181838e+003, 1.325012e+002
1.182320e+003, 1.319682e+002
1.182802e+003, 1.313088e+002
1.183284e+003, 1.312182e+002
1.183767e+003, 1.318948e+002
1.184249e+003, 1.318547e+002
1.184731e+003, 1.309781e+002
1.185213e+003, 1.302026e+002
1.185695e+003, 1.300043e+002
1.186177e+003, 1.300798e+002
1.186659e+003, 1.302084e+002
1.187141e+003, 1.303288e+002
1.187624e+003, 1.303338e+002
1.188106e+003, 1.301640e+002
1.188588e+003, 1.300773e+002
1.189070e+003, 1.300850e+002
1.189552e+003, 1.301280e+002
1.190034e+003, 1.302495e+002
1.190516e+003, 1.303071e+002
1.190998e+003, 1.300068e+002
1.191480e+003, 1.295543e+002
1.191963e+003, 1.293117e+002
1.192445e+003, 1.294453e+002
1.192927e+003, 1.295239e+002
1.193409e+003, 1.295592e+002
1.193891e+003, 1.294738e+002
1.194373e+003, 1.290030e+002
1.194855e+003, 1.285359e+002
1.195337e+003, 1.286882e+002
1.195819e+003, 1.292230e+002
1.196302e+003, 1.296194e+002
1.196784e+003, 1.297631e+002
1.197266e+003, 1.298657e+002
1.197748e+003, 1.299648e+002
1.198230e+003, 1.298739e+002
1.198712e+003, 1.292193e+002
1.199194e+003, 1.284470e+002
1.199676e+003, 1.282774e+002
1.200158e+003, 1.284915e+002
1.200641e+003, 1.284488e+002
1.201123e+003, 1.277914e+002
1.201605e+003, 1.275391e+002
1.202087e+003, 1.278321e+002
1.202569e+003, 1.281870e+002
1.203051e+003, 1.281804e+002
1.203533e+003, 1.279641e+002
1.204015e+003, 1.276347e+002
1.204498e+003, 1.272656e+002
1.204980e+003, 1.270852e+002
1.205462e+003, 1.271605e+002
1.205944e+003, 1.273413e+002
1.206426e+003, 1.276460e+002
1.206908e+003, 1.279361e+002
1.207390e+003, 1.280494e+002
1.207872e+003, 1.280839e+002
1.208354e+003, 1.282289e+002
1.208837e+003, 1.284267e+002
1.209319e+003, 1.283669e+002
1.209801e+003, 1.279273e+002
1.210283e+003, 1.274677e+002
1.210765e+003, 1.269995e+002
1.211247e+003, 1.266171e+002
1.211729e+003, 1.262753e+002
1.212211e+003, 1.261626e+002
1.212694e+003, 1.268497e+002
1.213176e+003, 1.281118e+002
1.213658e+003, 1.284151e+002
1.214140e+003, 1.271842e+002
1.214622e+003, 1.264883e+002
1.215104e+003, 1.267154e+002
1.215586e+003, 1.271565e+002
1.216068e+003, 1.270130e+002
1.216551e+003, 1.266693e+002
1.217033e+003, 1.266085e+002
1.217515e+003, 1.268196e+002
1.217997e+003, 1.269562e+002
1.218479e+003, 1.270070e+002
1.218961e+003, 1.269268e+002
1.219443e+003, 1.266754e+002
1.219925e+003, 1.264264e+002
1.220407e+003, 1.263898e+002
1.220890e+003, 1.264501e+002
1.221372e+003, 1.264606e+002
1.221854e+003, 1.264267e+002
1.222336e+003, 1.265412e+002
1.222818e+003, 1.269106e+002
1.223300e+003, 1.269180e+002
1.223782e+003, 1.263295e+002
1.224264e+003, 1.258724e+002
1.224746e+003, 1.267724e+002
1.225229e+003, 1.279180e+002
1.225711e+003, 1.280253e+002
1.226193e+003, 1.270994e+002
1.226675e+003, 1.265436e+002
1.227157e+003, 1.264031e+002
1.227639e+003, 1.265035e+002
1.228121e+003, 1.268703e+002
1.228603e+003, 1.271629e+002
1.229085e+003, 1.268433e+002
1.229568e+003, 1.264072e+002
1.230050e+003, 1.264021e+002
1.230532e+003, 1.267940e+002
1.231014e+003, 1.269276e+002
1.231496e+003, 1.267819e+002
1.231978e+003, 1.265397e+002
1.232460e+003, 1.262127e+002
1.232942e+003, 1.259482e+002
1.233425e+003, 1.258840e+002
1.233907e+003, 1.259453e+002
1.234389e+003, 1.261646e+002
1.234871e+003, 1.264733e+002
1.235353e+003, 1.264346e+002
1.235835e+003, 1.260311e+002
1.236317e+003, 1.257219e+002
1.236799e+003, 1.256326e+002
1.237281e+003, 1.255847e+002
1.237764e+003, 1.253909e+002
1.238246e+003, 1.252075e+002
1.238728e+003, 1.251781e+002
1.239210e+003, 1.252702e+002
1.239692e+003, 1.254094e+002
1.240174e+003, 1.255852e+002
1.240656e+003, 1.255105e+002
1.241138e+003, 1.250573e+002
1.241621e+003, 1.247078e+002
1.242103e+003, 1.250051e+002
1.242585e+003, 1.253519e+002
1.243067e+003, 1.252900e+002
1.243549e+003, 1.249647e+002
1.244031e+003, 1.249287e+002
1.244513e+003, 1.251502e+002
1.244995e+003, 1.254061e+002
1.245478e+003, 1.256627e+002
1.245960e+003, 1.258369e+002
1.246442e+003, 1.258730e+002
1.246924e+003, 1.258085e+002
1.247406e+003, 1.256498e+002
1.247888e+003, 1.254333e+002
1.248370e+003, 1.252578e+002
1.248852e+003, 1.251287e+002
1.249334e+003, 1.250970e+002
1.249817e+003, 1.252029e+002
1.250299e+003, 1.252118e+002
1.250781e+003, 1.249012e+002
1.251263e+003, 1.245912e+002
1.251745e+003, 1.243666e+002
1.252227e+003, 1.242723e+002
1.252709e+003, 1.245762e+002
1.253191e+003, 1.250888e+002
1.253673e+003, 1.252059e+002
1.254156e+003, 1.247456e+002
1.254638e+003, 1.243834e+002
1.255120e+003, 1.244267e+002
1.255602e+003, 1.244477e+002
1.256084e+003, 1.242676e+002
1.256566e+003, 1.240424e+002
1.257048e+003, 1.240810e+002
1.257530e+003, 1.243132e+002
1.258012e+003, 1.246496e+002
1.258495e+003, 1.251019e+002
1.258977e+003, 1.253310e+002
1.259459e+003, 1.252167e+002
1.259941e+003, 1.250538e+002
1.260423e+003, 1.249075e+002
1.260905e+003, 1.248161e+002
1.261387e+003, 1.249715e+002
1.261869e+003, 1.251573e+002
1.262352e+003, 1.249225e+002
1.262834e+003, 1.241639e+002
1.263316e+003, 1.240750e+002
1.263798e+003, 1.249940e+002
1.264280e+003, 1.255004e+002
1.264762e+003, 1.250929e+002
1.265244e+003, 1.243784e+002
1.265726e+003, 1.238405e+002
1.266208e+003, 1.235721e+002
1.266691e+003, 1.238275e+002
1.267173e+003, 1.246008e+002
1.267655e+003, 1.249456e+002
1.268137e+003, 1.248239e+002
1.268619e+003, 1.245928e+002
1.269101e+003, 1.243296e+002
1.269583e+003, 1.240559e+002
1.270065e+003, 1.238284e+002
1.270548e+003, 1.235651e+002
1.271030e+003, 1.230903e+002
1.271512e+003, 1.225054e+002
1.271994e+003, 1.222504e+002
1.272476e+003, 1.223276e+002
1.272958e+003, 1.228518e+002
1.273440e+003, 1.239497e+002
1.273922e+003, 1.247245e+002
1.274405e+003, 1.242628e+002
1.274887e+003, 1.235358e+002
1.275369e+003, 1.230776e+002
1.275851e+003, 1.228312e+002
1.276333e+003, 1.226162e+002
1.276815e+003, 1.224463e+002
1.277297e+003, 1.224011e+002
1.277779e+003, 1.224997e+002
1.278261e+003, 1.226484e+002
1.278744e+003, 1.228719e+002
1.279226e+003, 1.230401e+002
1.279708e+003, 1.231091e+002
1.280190e+003, 1.230930e+002
1.280672e+003, 1.229283e+002
1.281154e+003, 1.227205e+002
1.281636e+003, 1.228202e+002
1.282118e+003, 1.232741e+002
1.282600e+003, 1.235201e+002
1.283083e+003, 1.233059e+002
1.283565e+003, 1.230020e+002
1.284047e+003, 1.226572e+002
1.284529e+003, 1.223343e+002
1.285011e+003, 1.220280e+002
1.285493e+003, 1.218542e+002
1.285975e+003, 1.222145e+002
1.286457e+003, 1.230563e+002
1.286939e+003, 1.230836e+002
1.287422e+003, 1.218413e+002
1.287904e+003, 1.211564e+002
1.288386e+003, 1.214562e+002
1.288868e+003, 1.220207e+002
1.289350e+003, 1.222632e+002
1.289832e+003, 1.222253e+002
1.290314e+003, 1.218607e+002
1.290796e+003, 1.212296e+002
1.291279e+003, 1.205924e+002
1.291761e+003, 1.199202e+002
1.292243e+003, 1.195379e+002
1.292725e+003, 1.194970e+002
1.293207e+003, 1.196239e+002
1.293689e+003, 1.199804e+002
1.294171e+003, 1.202505e+002
1.294653e+003, 1.200745e+002
1.295135e+003, 1.197337e+002
1.295618e+003, 1.197814e+002
1.296100e+003, 1.201527e+002
1.296582e+003, 1.202109e+002
1.297064e+003, 1.199160e+002
1.297546e+003, 1.194731e+002
1.298028e+003, 1.188615e+002
1.298510e+003, 1.182389e+002
1.298992e+003, 1.175854e+002
1.299475e+003, 1.170711e+002
1.299957e+003, 1.169480e+002
1.300439e+003, 1.171448e+002
1.300921e+003, 1.175517e+002
1.301403e+003, 1.180997e+002
1.301885e+003, 1.184701e+002
##END=



