##NAMES=Fluoro-edenite
##RRUFFID=R070003
##IDEAL CHEMISTRY=NaCa_2_Mg_5_(Si_7_Al)O_22_F_2_
##LOCALITY=Cobden, Ontario, Canada
##OWNER=RRUFF
##SOURCE=Michael Scott
##DESCRIPTION=Black to very dark green single crystal fragment
##STATUS=The identification of this mineral has been confirmed by X-ray diffraction and chemical analysis
##URL=rruff.info/R070003
##MEASURED CHEMISTRY=(Na_0.55_K_0.35_[box]_0.10_)_Σ=1_(Ca_1.65_Na_0.35_)_Σ=2_(Mg_2.42_Fe^2+^_1.81_Fe^3+^_0.52_Al_0.14_Ti_0.07_Mn_0.04_)_Σ=5_(Si_6.65_Al_1.35_)O_22_(F_1.03_(OH)_0.94_Cl_0.03_)_Σ=2_; (OH) estimated by difference
113.5961, 88.22124
114.0782, 98.39758
114.5603, 114.8443
115.0425, 140.4259
115.5246, 160.6258
116.0067, 174.9198
116.4888, 185.1585
116.9709, 193.0302
117.4530, 198.5194
117.9352, 199.5745
118.4173, 193.1413
118.8994, 175.6382
119.3815, 160.5717
119.8636, 148.0321
120.3457, 137.9296
120.8279, 130.0939
121.3100, 124.4829
121.7921, 121.3791
122.2742, 121.3799
122.7563, 124.4163
123.2384, 130.4076
123.7206, 136.6845
124.2027, 146.7099
124.6848, 165.3770
125.1669, 194.2691
125.6490, 231.4520
126.1311, 276.0853
126.6133, 327.9366
127.0954, 381.6222
127.5775, 434.9867
128.0596, 489.0716
128.5417, 547.3008
129.0238, 612.1109
129.5060, 679.5128
129.9881, 744.7057
130.4702, 807.7761
130.9523, 870.5235
131.4344, 948.6205
131.9165, 1033.354
132.3987, 1077.037
132.8808, 1059.330
133.3629, 1000.232
133.8450, 917.4541
134.3271, 810.1399
134.8092, 704.6857
135.2914, 622.5772
135.7735, 563.4722
136.2556, 510.4713
136.7377, 458.8215
137.2198, 414.1938
137.7019, 380.8712
138.1841, 359.5807
138.6662, 345.5492
139.1483, 334.3831
139.6304, 325.8560
140.1125, 322.0388
140.5946, 320.3630
141.0768, 325.9416
141.5589, 344.4691
142.0410, 376.7907
142.5231, 415.4524
143.0052, 451.4928
143.4873, 484.2672
143.9695, 516.4061
144.4516, 549.1256
144.9337, 581.1707
145.4158, 611.7336
145.8979, 640.6755
146.3800, 668.3154
146.8622, 697.2383
147.3443, 734.6110
147.8264, 755.6422
148.3085, 753.3352
148.7906, 739.9186
149.2727, 722.1174
149.7549, 702.4178
150.2370, 681.9810
150.7191, 663.0763
151.2012, 647.8149
151.6833, 630.3038
152.1654, 608.4816
152.6476, 585.6343
153.1297, 564.0283
153.6118, 544.4421
154.0939, 527.3378
154.5760, 513.4943
155.0581, 502.9066
155.5403, 496.3827
156.0224, 496.6650
156.5045, 499.2759
156.9866, 500.2307
157.4687, 498.1346
157.9508, 494.2187
158.4330, 490.9633
158.9151, 484.5317
159.3972, 484.3368
159.8793, 496.7779
160.3614, 512.4835
160.8435, 521.5272
161.3257, 520.3226
161.8078, 513.1765
162.2899, 509.0970
162.7720, 511.7593
163.2541, 512.7807
163.7362, 509.9966
164.2184, 506.1948
164.7005, 505.2854
165.1826, 508.7343
165.6647, 513.5652
166.1468, 513.4043
166.6289, 504.8315
167.1111, 496.7661
167.5932, 489.7751
168.0753, 483.7834
168.5574, 478.9927
169.0395, 475.4983
169.5216, 472.5775
170.0038, 468.6330
170.4859, 462.6552
170.9680, 457.7954
171.4501, 455.5381
171.9322, 454.3414
172.4143, 451.6798
172.8965, 446.5070
173.3786, 440.7778
173.8607, 438.6678
174.3428, 442.2271
174.8249, 443.1965
175.3070, 435.6520
175.7892, 425.5502
176.2713, 423.0217
176.7534, 431.9248
177.2355, 445.6441
177.7176, 453.2801
178.1997, 455.1614
178.6819, 452.9311
179.1640, 443.0166
179.6461, 430.0959
180.1282, 421.8296
180.6103, 420.6695
181.0924, 423.4865
181.5745, 426.0319
182.0567, 428.0901
182.5388, 431.2539
183.0209, 439.3379
183.5030, 448.1326
183.9851, 449.0959
184.4672, 438.6959
184.9494, 425.1529
185.4315, 419.6382
185.9136, 421.5813
186.3957, 424.7191
186.8778, 428.1621
187.3599, 431.3804
187.8421, 433.0628
188.3242, 432.4632
188.8063, 431.8480
189.2884, 435.5320
189.7705, 442.9097
190.2526, 446.5974
190.7348, 441.2011
191.2169, 431.3655
191.6990, 425.6152
192.1811, 426.0607
192.6632, 427.7715
193.1453, 425.2469
193.6275, 419.4515
194.1096, 414.4500
194.5917, 410.5261
195.0738, 408.4468
195.5559, 410.0648
196.0380, 416.2942
196.5202, 423.7494
197.0023, 430.0566
197.4844, 435.3539
197.9665, 439.4916
198.4486, 444.1470
198.9307, 447.0976
199.4129, 443.4732
199.8950, 431.4028
200.3771, 419.0508
200.8592, 413.1243
201.3413, 411.6274
201.8234, 411.0680
202.3056, 410.8266
202.7877, 410.8218
203.2698, 410.4763
203.7519, 409.3981
204.2340, 409.8889
204.7161, 415.8524
205.1983, 424.2980
205.6804, 429.8094
206.1625, 430.5925
206.6446, 428.1414
207.1267, 422.9341
207.6088, 414.2786
208.0910, 407.7046
208.5731, 407.0987
209.0552, 410.5310
209.5373, 415.7476
210.0194, 424.5619
210.5015, 432.4076
210.9837, 433.1066
211.4658, 426.1264
211.9479, 419.1733
212.4300, 415.1029
212.9121, 413.6096
213.3942, 414.5219
213.8764, 418.5877
214.3585, 423.6133
214.8406, 428.1365
215.3227, 432.1945
215.8048, 434.4981
216.2869, 433.7790
216.7691, 431.3971
217.2512, 428.6428
217.7333, 425.0251
218.2154, 422.9677
218.6975, 425.4236
219.1796, 432.0124
219.6618, 437.7797
220.1439, 441.2638
220.6260, 443.1941
221.1081, 444.3900
221.5902, 444.7661
222.0723, 445.2054
222.5545, 446.8321
223.0366, 449.2522
223.5187, 450.3562
224.0008, 449.5823
224.4829, 447.2761
224.9650, 444.2385
225.4472, 440.4860
225.9293, 435.2086
226.4114, 424.4065
226.8935, 411.2496
227.3756, 407.3769
227.8577, 418.1133
228.3399, 432.0580
228.8220, 440.9342
229.3041, 444.9331
229.7862, 443.2395
230.2683, 429.1426
230.7504, 410.0002
231.2325, 403.0945
231.7147, 413.4598
232.1968, 426.2539
232.6789, 429.1670
233.1610, 424.9240
233.6431, 419.8552
234.1252, 416.3390
234.6074, 412.9441
235.0895, 406.5259
235.5716, 396.1173
236.0537, 387.5099
236.5358, 385.9026
237.0179, 388.9041
237.5001, 391.6649
237.9822, 392.1106
238.4643, 392.7865
238.9464, 398.3038
239.4285, 408.8775
239.9106, 415.0911
240.3928, 408.5208
240.8749, 395.1585
241.3570, 387.7582
241.8391, 389.7351
242.3212, 394.1212
242.8033, 395.9569
243.2855, 395.5391
243.7676, 395.3304
244.2497, 397.3483
244.7318, 399.1344
245.2139, 396.0066
245.6960, 385.8841
246.1782, 376.6260
246.6603, 372.6001
247.1424, 372.7514
247.6245, 374.3921
248.1066, 377.6442
248.5887, 380.4487
249.0709, 379.1006
249.5530, 373.1718
250.0351, 367.9187
250.5172, 364.8405
250.9993, 363.7299
251.4814, 364.6270
251.9636, 367.7998
252.4457, 371.8218
252.9278, 375.5452
253.4099, 379.0258
253.8920, 380.9309
254.3741, 382.7852
254.8563, 382.0206
255.3384, 374.1289
255.8205, 358.5425
256.3026, 342.1990
256.7847, 330.2813
257.2668, 323.2540
257.7490, 320.3948
258.2311, 324.3466
258.7132, 330.3998
259.1953, 335.0863
259.6774, 338.5943
260.1595, 343.4380
260.6417, 352.3362
261.1238, 363.7833
261.6059, 368.8497
262.0880, 365.1100
262.5701, 358.3614
263.0522, 346.9335
263.5344, 334.1910
264.0165, 328.8515
264.4986, 336.4038
264.9807, 351.6166
265.4628, 358.8079
265.9449, 354.7860
266.4271, 348.9586
266.9092, 339.4875
267.3913, 330.2930
267.8734, 327.4560
268.3555, 333.0162
268.8376, 342.7713
269.3198, 350.2875
269.8019, 356.0639
270.2840, 357.5176
270.7661, 350.8234
271.2482, 342.1935
271.7303, 335.8824
272.2125, 332.8776
272.6946, 333.2096
273.1767, 337.5513
273.6588, 347.4876
274.1409, 353.0845
274.6230, 349.8370
275.1052, 346.9794
275.5873, 350.8689
276.0694, 359.6832
276.5515, 366.6829
277.0336, 366.5392
277.5157, 359.6414
277.9979, 354.6050
278.4800, 350.2836
278.9621, 349.0768
279.4442, 353.6200
279.9263, 361.2233
280.4084, 367.9478
280.8906, 371.7616
281.3727, 373.4891
281.8548, 375.7825
282.3369, 380.7560
282.8190, 382.9877
283.3011, 379.5524
283.7833, 374.7573
284.2654, 372.2756
284.7475, 373.2195
285.2296, 376.4612
285.7117, 380.6218
286.1938, 386.4471
286.6760, 391.1449
287.1581, 394.8223
287.6402, 397.2957
288.1223, 398.7180
288.6044, 398.8869
289.0865, 396.9628
289.5687, 390.4851
290.0508, 379.1483
290.5329, 374.9186
291.0150, 385.3237
291.4971, 394.8587
291.9792, 399.0290
292.4614, 398.0214
292.9435, 391.6427
293.4256, 376.4397
293.9077, 358.1704
294.3898, 356.4631
294.8719, 379.3840
295.3541, 400.8963
295.8362, 415.2005
296.3183, 421.8327
296.8004, 417.1182
297.2825, 397.3945
297.7646, 375.7526
298.2468, 370.3293
298.7289, 382.6183
299.2110, 393.0260
299.6931, 395.3968
300.1752, 394.4181
300.6573, 394.2618
301.1395, 395.2080
301.6216, 395.8076
302.1037, 394.2596
302.5858, 391.4049
303.0679, 390.9017
303.5500, 394.4958
304.0321, 398.0576
304.5143, 397.2859
304.9964, 393.1238
305.4785, 389.1385
305.9606, 386.3786
306.4427, 384.4615
306.9248, 382.9151
307.4070, 381.7145
307.8891, 381.0373
308.3712, 380.6511
308.8533, 381.0337
309.3354, 383.4787
309.8175, 393.6003
310.2997, 400.0336
310.7818, 392.0133
311.2639, 374.2498
311.7460, 362.1049
312.2281, 362.9488
312.7102, 371.1789
313.1924, 373.8845
313.6745, 369.0336
314.1566, 364.6486
314.6387, 363.4428
315.1208, 363.0469
315.6029, 359.2989
316.0851, 351.4899
316.5672, 345.0808
317.0493, 347.2108
317.5314, 361.2768
318.0135, 369.1676
318.4956, 365.5754
318.9778, 360.9782
319.4599, 361.9209
319.9420, 367.3482
320.4241, 372.0947
320.9062, 372.3094
321.3883, 368.5273
321.8705, 366.0393
322.3526, 367.3900
322.8347, 367.1122
323.3168, 361.6180
323.7989, 354.9838
324.2810, 353.0045
324.7632, 357.9690
325.2453, 365.9613
325.7274, 368.8386
326.2095, 363.0139
326.6916, 360.0033
327.1737, 363.5688
327.6559, 367.4228
328.1380, 367.5631
328.6201, 363.7418
329.1022, 358.2709
329.5843, 352.5525
330.0664, 346.5658
330.5486, 343.1884
331.0307, 343.4266
331.5128, 345.2841
331.9949, 348.0588
332.4770, 351.6705
332.9591, 356.3241
333.4413, 363.0700
333.9234, 369.8040
334.4055, 371.9680
334.8876, 368.6730
335.3697, 364.7286
335.8518, 360.5311
336.3340, 357.3666
336.8161, 357.4556
337.2982, 361.8882
337.7803, 365.2960
338.2624, 361.1900
338.7445, 351.9285
339.2267, 348.9787
339.7088, 357.4041
340.1909, 367.5694
340.6730, 367.9935
341.1551, 359.9360
341.6372, 352.1397
342.1194, 344.0519
342.6015, 339.0091
343.0836, 342.8357
343.5657, 355.3496
344.0478, 367.8260
344.5299, 374.6957
345.0121, 376.3504
345.4942, 376.6533
345.9763, 377.0635
346.4584, 374.7037
346.9405, 365.7044
347.4226, 353.6512
347.9048, 344.7829
348.3869, 341.4724
348.8690, 342.3564
349.3511, 345.2413
349.8332, 352.4659
350.3153, 357.1981
350.7975, 357.8773
351.2796, 357.3487
351.7617, 357.2015
352.2438, 357.7793
352.7259, 359.0423
353.2080, 361.0523
353.6902, 363.8008
354.1723, 366.2688
354.6544, 370.9679
355.1365, 372.5161
355.6186, 367.2850
356.1007, 358.9284
356.5829, 351.8412
357.0650, 347.9425
357.5471, 347.4146
358.0292, 351.9565
358.5113, 364.4964
358.9934, 372.7068
359.4756, 370.9516
359.9577, 366.7304
360.4398, 364.0022
360.9219, 363.2231
361.4040, 363.2763
361.8861, 363.6038
362.3683, 364.1126
362.8504, 364.6586
363.3325, 366.0443
363.8146, 365.6892
364.2967, 358.9747
364.7788, 349.6275
365.2610, 345.1980
365.7431, 351.6948
366.2252, 359.4142
366.7073, 357.1495
367.1894, 346.4295
367.6715, 338.6545
368.1537, 338.5023
368.6358, 343.5271
369.1179, 350.2477
369.6000, 359.9154
370.0821, 366.3267
370.5642, 365.5173
371.0464, 361.5782
371.5285, 359.5501
372.0106, 360.1248
372.4927, 360.5522
372.9748, 357.8739
373.4569, 351.7923
373.9391, 349.1929
374.4212, 353.4071
374.9033, 356.9599
375.3854, 356.4190
375.8675, 353.4137
376.3496, 350.9899
376.8318, 350.5857
377.3139, 351.4407
377.7960, 351.6808
378.2781, 349.8828
378.7602, 350.2332
379.2423, 354.1661
379.7245, 358.9362
380.2066, 364.2837
380.6887, 369.2157
381.1708, 370.6978
381.6529, 364.1338
382.1350, 350.6267
382.6172, 344.0677
383.0993, 347.7146
383.5814, 353.2965
384.0635, 359.0170
384.5456, 363.9429
385.0277, 366.7440
385.5099, 366.8751
385.9920, 365.0913
386.4741, 361.1967
386.9562, 355.3799
387.4383, 351.9966
387.9204, 353.9490
388.4026, 356.4705
388.8847, 353.7337
389.3668, 345.9549
389.8489, 338.0351
390.3310, 329.7578
390.8131, 323.2103
391.2953, 321.8531
391.7774, 325.6855
392.2595, 331.0914
392.7416, 336.6771
393.2237, 341.6552
393.7058, 341.3874
394.1880, 328.6245
394.6701, 320.1140
395.1522, 325.0356
395.6343, 334.9932
396.1164, 337.2676
396.5985, 328.3622
397.0807, 316.9445
397.5628, 315.7646
398.0449, 329.4546
398.5270, 337.0605
399.0091, 334.3941
399.4912, 330.5799
399.9734, 330.2396
400.4555, 331.8604
400.9376, 331.0295
401.4197, 324.5798
401.9018, 315.2419
402.3839, 310.9548
402.8660, 313.2167
403.3481, 316.7326
403.8303, 324.8162
404.3124, 330.6628
404.7945, 325.6927
405.2766, 309.5475
405.7587, 296.7577
406.2408, 303.0536
406.7230, 321.9276
407.2051, 329.3517
407.6872, 320.3330
408.1693, 309.5738
408.6514, 307.2999
409.1335, 311.3534
409.6157, 316.0446
410.0978, 322.0556
410.5799, 327.0285
411.0620, 329.2508
411.5441, 329.2510
412.0262, 328.2330
412.5084, 326.5485
412.9905, 324.3149
413.4726, 321.4990
413.9547, 317.2447
414.4368, 315.0633
414.9189, 316.3715
415.4011, 318.5462
415.8832, 320.4876
416.3653, 321.8550
416.8474, 322.1240
417.3295, 320.7772
417.8116, 318.4163
418.2938, 317.7271
418.7759, 319.1700
419.2580, 321.6906
419.7401, 325.8266
420.2222, 330.3900
420.7043, 335.4008
421.1865, 340.4142
421.6686, 342.9440
422.1507, 338.3119
422.6328, 327.6672
423.1149, 323.3936
423.5970, 328.8094
424.0792, 334.8252
424.5613, 335.8533
425.0434, 334.0641
425.5255, 332.9310
426.0076, 333.8233
426.4897, 334.6299
426.9719, 331.9919
427.4540, 327.4798
427.9361, 327.9756
428.4182, 336.8390
428.9003, 347.0728
429.3824, 348.3486
429.8646, 338.5425
430.3467, 334.3407
430.8288, 343.8026
431.3109, 353.1554
431.7930, 352.0112
432.2751, 342.7805
432.7573, 333.8953
433.2394, 330.0844
433.7215, 329.9153
434.2036, 328.8145
434.6857, 324.4576
435.1678, 323.1181
435.6500, 326.5443
436.1321, 331.6258
436.6142, 337.6524
437.0963, 343.6167
437.5784, 346.7769
438.0605, 343.7708
438.5427, 335.9563
439.0248, 330.5296
439.5069, 326.5406
439.9890, 327.1439
440.4711, 338.9873
440.9532, 353.8868
441.4354, 362.5511
441.9175, 362.6815
442.3996, 360.0753
442.8817, 358.3754
443.3638, 357.1074
443.8459, 354.9867
444.3281, 351.7550
444.8102, 347.9463
445.2923, 343.9133
445.7744, 339.6712
446.2565, 335.5617
446.7386, 328.3044
447.2208, 324.6779
447.7029, 330.6555
448.1850, 341.6417
448.6671, 351.1011
449.1492, 356.5093
449.6313, 356.2041
450.1135, 345.6991
450.5956, 317.6280
451.0777, 302.6089
451.5598, 310.4622
452.0419, 320.9978
452.5240, 325.9996
453.0062, 327.1362
453.4883, 330.0969
453.9704, 339.0231
454.4525, 348.5323
454.9346, 345.6537
455.4167, 327.8019
455.8989, 316.8107
456.3810, 322.6264
456.8631, 332.9726
457.3452, 337.7978
457.8273, 336.9819
458.3094, 329.9574
458.7916, 307.8643
459.2737, 284.5630
459.7558, 278.9730
460.2379, 290.1017
460.7200, 301.8345
461.2021, 305.3537
461.6843, 303.8925
462.1664, 306.8975
462.6485, 320.9752
463.1306, 328.1396
463.6127, 320.7788
464.0948, 310.1370
464.5770, 305.7346
465.0591, 307.8459
465.5412, 311.1322
466.0233, 311.4971
466.5054, 309.1909
466.9875, 305.7567
467.4697, 300.8083
467.9518, 295.3649
468.4339, 288.1429
468.9160, 281.4998
469.3981, 277.1112
469.8802, 275.3464
470.3624, 276.6602
470.8445, 282.6628
471.3266, 292.0559
471.8087, 301.8893
472.2908, 313.0450
472.7729, 319.2774
473.2551, 313.3723
473.7372, 299.9774
474.2193, 294.5975
474.7014, 301.0399
475.1835, 309.4929
475.6656, 320.6045
476.1478, 329.7781
476.6299, 328.3014
477.1120, 315.4067
477.5941, 301.0311
478.0762, 294.9868
478.5583, 297.4319
479.0405, 302.2102
479.5226, 317.1874
480.0047, 325.2836
480.4868, 316.3306
480.9689, 301.9391
481.4510, 296.4893
481.9332, 303.7126
482.4153, 313.8391
482.8974, 316.0785
483.3795, 310.8798
483.8616, 305.0131
484.3438, 297.0992
484.8259, 292.1200
485.3080, 297.3065
485.7901, 307.0828
486.2722, 310.4364
486.7543, 299.6812
487.2365, 292.1514
487.7186, 303.9653
488.2007, 325.8559
488.6828, 337.8242
489.1649, 335.0477
489.6470, 327.5299
490.1292, 325.5551
490.6113, 329.6478
491.0934, 332.5594
491.5755, 333.0168
492.0576, 333.9495
492.5397, 336.0270
493.0219, 339.1359
493.5040, 343.5521
493.9861, 349.2099
494.4682, 354.6615
494.9503, 358.9105
495.4324, 362.1235
495.9146, 359.5149
496.3967, 345.8753
496.8788, 334.4706
497.3609, 332.2230
497.8430, 336.7354
498.3251, 345.1400
498.8073, 358.9657
499.2894, 371.6644
499.7715, 378.0464
500.2536, 379.5622
500.7357, 378.9508
501.2178, 376.6122
501.6999, 374.9084
502.1820, 376.5995
502.6642, 381.8165
503.1463, 384.1942
503.6284, 380.1475
504.1105, 377.8502
504.5926, 380.4369
505.0747, 385.7293
505.5569, 391.9060
506.0390, 398.0612
506.5211, 402.5863
507.0032, 402.9698
507.4853, 399.1212
507.9674, 396.0752
508.4496, 393.9670
508.9317, 392.4687
509.4138, 390.2937
509.8959, 388.9962
510.3780, 391.5303
510.8601, 399.6917
511.3423, 407.1561
511.8244, 409.0209
512.3065, 407.1134
512.7886, 404.4532
513.2708, 401.4810
513.7529, 400.5235
514.2350, 404.1987
514.7171, 411.8482
515.1992, 416.1191
515.6813, 414.7630
516.1635, 413.3605
516.6456, 410.8705
517.1277, 409.9932
517.6098, 415.9456
518.0919, 427.9423
518.5740, 436.9956
519.0562, 432.6497
519.5383, 417.5714
520.0204, 413.0571
520.5025, 423.0988
520.9846, 434.2413
521.4667, 445.0031
521.9489, 452.4285
522.4310, 451.2305
522.9131, 439.9844
523.3952, 431.4656
523.8773, 434.2352
524.3594, 442.4880
524.8416, 449.1671
525.3237, 453.5340
525.8058, 454.8329
526.2879, 451.9629
526.7700, 446.7313
527.2521, 444.8908
527.7343, 450.4210
528.2164, 453.7105
528.6985, 451.7692
529.1806, 450.1040
529.6627, 455.2671
530.1448, 464.4742
530.6270, 467.6293
531.1091, 456.5384
531.5912, 438.9474
532.0733, 433.7589
532.5554, 442.9338
533.0375, 450.4079
533.5197, 450.4742
534.0018, 449.6017
534.4839, 456.0524
534.9660, 468.6153
535.4481, 475.9972
535.9302, 471.4517
536.4124, 463.9841
536.8945, 461.0762
537.3766, 460.8371
537.8587, 457.2261
538.3408, 447.9111
538.8229, 437.0767
539.3051, 431.1220
539.7872, 431.5704
540.2693, 430.5475
540.7514, 424.4211
541.2335, 420.8083
541.7156, 423.2732
542.1978, 429.3639
542.6799, 436.6831
543.1620, 444.7707
543.6441, 449.2089
544.1262, 441.8017
544.6083, 425.7207
545.0905, 417.6478
545.5726, 420.6305
546.0547, 426.5676
546.5368, 431.2821
547.0189, 434.3355
547.5010, 434.3118
547.9832, 428.4611
548.4653, 423.7377
548.9474, 422.3979
549.4295, 422.8633
549.9116, 424.6523
550.3937, 426.9459
550.8758, 427.1061
551.3579, 422.5883
551.8400, 414.7408
552.3221, 409.4791
552.8043, 407.0219
553.2864, 406.7309
553.7685, 412.2536
554.2506, 417.1359
554.7327, 415.7030
555.2148, 408.5680
555.6970, 402.5745
556.1791, 402.2165
556.6612, 403.6541
557.1433, 403.5378
557.6254, 401.5841
558.1075, 395.5506
558.5897, 383.7131
559.0718, 372.0158
559.5539, 369.9955
560.0360, 381.6825
560.5181, 386.5858
561.0002, 378.4715
561.4824, 371.4093
561.9645, 373.2427
562.4466, 378.5163
562.9287, 377.7575
563.4108, 367.9019
563.8929, 357.5376
564.3751, 358.7548
564.8572, 369.2505
565.3393, 372.4057
565.8214, 365.0800
566.3035, 357.7382
566.7856, 357.1668
567.2678, 360.7831
567.7499, 361.7538
568.2320, 359.8367
568.7141, 355.8258
569.1962, 346.0683
569.6783, 336.9895
570.1605, 335.8427
570.6426, 341.7434
571.1247, 348.9327
571.6068, 354.0845
572.0889, 356.3610
572.5710, 352.0463
573.0532, 337.3242
573.5353, 327.9175
574.0174, 329.6752
574.4995, 333.6665
574.9816, 336.0538
575.4637, 336.3579
575.9459, 333.3808
576.4280, 322.9739
576.9101, 314.0450
577.3922, 318.4719
577.8743, 329.9738
578.3564, 330.2241
578.8386, 314.6989
579.3207, 298.9507
579.8028, 299.9252
580.2849, 317.2157
580.7670, 323.2458
581.2491, 304.7674
581.7313, 291.0063
582.2134, 288.9691
582.6955, 291.2620
583.1776, 291.7941
583.6597, 289.5857
584.1418, 286.3789
584.6240, 283.0672
585.1061, 279.7940
585.5882, 276.5627
586.0703, 273.3969
586.5524, 271.6390
587.0345, 271.9882
587.5167, 273.5965
587.9988, 275.3690
588.4809, 277.3187
588.9630, 279.4332
589.4451, 283.0876
589.9272, 285.4509
590.4094, 284.5933
590.8915, 281.7881
591.3736, 279.3188
591.8557, 277.8252
592.3378, 275.6793
592.8199, 269.2247
593.3021, 259.1638
593.7842, 255.7618
594.2663, 260.3619
594.7484, 268.0961
595.2305, 281.0181
595.7126, 293.3127
596.1948, 294.9124
596.6769, 283.2101
597.1590, 272.0167
597.6411, 264.7852
598.1232, 259.9953
598.6053, 255.5288
599.0875, 252.3516
599.5696, 254.4482
600.0517, 263.8720
600.5338, 275.7324
601.0159, 281.1544
601.4980, 279.1308
601.9802, 275.3736
602.4623, 266.7769
602.9444, 261.0220
603.4265, 264.6667
603.9086, 272.3985
604.3907, 274.8618
604.8729, 268.3597
605.3550, 263.7002
605.8371, 269.9708
606.3192, 280.2080
606.8013, 284.5642
607.2834, 282.6079
607.7656, 278.4850
608.2477, 274.3856
608.7298, 271.0230
609.2119, 270.3357
609.6940, 272.4820
610.1761, 276.9885
610.6583, 291.0006
611.1404, 300.3425
611.6225, 293.3630
612.1046, 277.6797
612.5867, 269.8373
613.0688, 277.3510
613.5510, 287.6376
614.0331, 290.2821
614.5152, 287.6568
614.9973, 284.5585
615.4794, 281.7344
615.9615, 279.6416
616.4437, 278.9969
616.9258, 278.9807
617.4079, 276.0597
617.8900, 265.5465
618.3721, 259.8237
618.8542, 261.5995
619.3364, 265.7999
619.8185, 270.2211
620.3006, 274.4569
620.7827, 278.3196
621.2648, 281.4974
621.7469, 284.7770
622.2291, 289.7722
622.7112, 295.6881
623.1933, 300.3332
623.6754, 303.5447
624.1575, 302.3317
624.6396, 292.4895
625.1218, 276.6522
625.6039, 269.9390
626.0860, 284.4933
626.5681, 291.6429
627.0502, 282.6410
627.5323, 272.1147
628.0145, 271.0497
628.4966, 277.6309
628.9787, 283.5982
629.4608, 284.4288
629.9429, 283.5168
630.4250, 286.4382
630.9072, 292.0666
631.3893, 293.1394
631.8714, 287.4473
632.3535, 283.1643
632.8356, 288.3766
633.3177, 300.6427
633.7999, 304.0050
634.2820, 288.1418
634.7641, 278.1321
635.2462, 279.4691
635.7283, 284.6430
636.2104, 289.3105
636.6926, 292.7982
637.1747, 295.4579
637.6568, 297.4902
638.1389, 298.8016
638.6210, 299.4835
639.1031, 299.4149
639.5853, 296.8943
640.0674, 290.8278
640.5495, 286.5241
641.0316, 288.8665
641.5137, 296.4865
641.9958, 301.2744
642.4780, 301.9805
642.9601, 301.8325
643.4422, 301.0077
643.9243, 299.5048
644.4064, 296.5211
644.8885, 292.8501
645.3707, 290.6342
645.8528, 291.2089
646.3349, 292.9182
646.8170, 293.6922
647.2991, 293.5873
647.7813, 291.9282
648.2634, 287.8095
648.7455, 287.5043
649.2276, 297.8318
649.7097, 314.9913
650.1918, 322.5870
650.6740, 309.4567
651.1561, 303.6055
651.6382, 312.9473
652.1203, 324.2241
652.6024, 327.6988
653.0845, 325.8692
653.5667, 326.7169
654.0488, 334.2174
654.5309, 343.7440
655.0130, 352.3134
655.4951, 358.4182
655.9772, 352.2585
656.4594, 331.1385
656.9415, 315.6428
657.4236, 320.6380
657.9057, 339.1305
658.3878, 350.1514
658.8699, 346.4316
659.3521, 347.8921
659.8342, 361.6155
660.3163, 373.4510
660.7984, 373.7786
661.2805, 367.1060
661.7626, 362.5358
662.2448, 363.4672
662.7269, 365.8392
663.2090, 365.5720
663.6911, 363.7528
664.1732, 361.9274
664.6553, 360.3616
665.1375, 364.3792
665.6196, 378.3647
666.1017, 396.0463
666.5838, 404.0267
667.0659, 397.5147
667.5480, 394.4135
668.0302, 399.7097
668.5123, 402.6142
668.9944, 397.6888
669.4765, 388.6364
669.9586, 379.7822
670.4407, 372.1600
670.9229, 367.5654
671.4050, 369.0744
671.8871, 373.4371
672.3692, 374.9661
672.8513, 374.1466
673.3334, 375.8888
673.8156, 382.5543
674.2977, 389.5351
674.7798, 390.2050
675.2619, 384.1318
675.7440, 374.8128
676.2261, 356.0210
676.7083, 342.7927
677.1904, 343.6122
677.6725, 348.4641
678.1546, 346.6157
678.6367, 337.5370
679.1188, 330.4991
679.6010, 330.7867
680.0831, 334.2822
680.5652, 340.8087
681.0473, 346.9639
681.5294, 342.5945
682.0115, 325.6436
682.4937, 307.6599
682.9758, 300.4961
683.4579, 302.9709
683.9400, 305.9595
684.4221, 310.7165
684.9042, 312.6315
685.3864, 307.8127
685.8685, 302.5574
686.3506, 302.9799
686.8327, 307.6732
687.3148, 309.5012
687.7969, 303.4160
688.2791, 298.3796
688.7612, 302.1763
689.2433, 307.5616
689.7254, 303.7265
690.2075, 291.1678
690.6896, 279.2264
691.1718, 273.8676
691.6539, 273.9038
692.1360, 278.8937
692.6181, 289.5064
693.1002, 292.3111
693.5823, 282.5625
694.0645, 272.0189
694.5466, 268.1039
695.0287, 269.7145
695.5108, 273.3750
695.9929, 282.2421
696.4750, 286.5093
696.9572, 281.6394
697.4393, 274.4367
697.9214, 267.4823
698.4035, 262.2739
698.8856, 261.4619
699.3677, 266.1701
699.8499, 271.8334
700.3320, 273.2176
700.8141, 271.5020
701.2962, 269.9467
701.7783, 268.6952
702.2604, 269.6963
702.7426, 274.1459
703.2247, 280.5981
703.7068, 287.3138
704.1889, 295.3288
704.6710, 298.5063
705.1531, 292.1299
705.6353, 286.7133
706.1174, 286.1391
706.5995, 287.0349
707.0816, 285.4904
707.5637, 281.2729
708.0458, 277.6958
708.5280, 277.7443
709.0101, 278.3407
709.4922, 273.8712
709.9743, 267.6083
710.4564, 269.4340
710.9385, 281.1547
711.4207, 293.8461
711.9028, 300.1138
712.3849, 300.0280
712.8670, 292.7449
713.3491, 274.2783
713.8312, 261.0185
714.3134, 256.1665
714.7955, 256.5029
715.2776, 262.1117
715.7597, 270.8961
716.2418, 277.0632
716.7239, 279.4353
717.2061, 280.0609
717.6882, 278.1175
718.1703, 275.9603
718.6524, 275.9564
719.1345, 277.6985
719.6166, 279.7787
720.0988, 281.5860
720.5809, 282.4264
721.0630, 280.9162
721.5451, 277.4498
722.0272, 274.0973
722.5093, 270.7616
722.9915, 269.7431
723.4736, 273.1917
723.9557, 277.6566
724.4378, 277.2349
724.9199, 270.7972
725.4020, 264.5311
725.8842, 252.5840
726.3663, 247.9495
726.8484, 261.1895
727.3305, 279.2731
727.8126, 288.6381
728.2947, 288.1486
728.7769, 285.5439
729.2590, 285.5353
729.7411, 284.8898
730.2232, 277.6748
730.7053, 267.6193
731.1874, 265.7156
731.6696, 273.1379
732.1517, 276.6949
732.6338, 264.0604
733.1159, 243.1755
733.5980, 244.7952
734.0801, 277.3542
734.5623, 295.3074
735.0444, 284.9089
735.5265, 272.4149
736.0086, 277.0378
736.4907, 290.9228
736.9728, 296.8774
737.4550, 291.3706
737.9371, 285.3048
738.4192, 280.6766
738.9013, 276.7876
739.3834, 274.0226
739.8655, 271.3990
740.3477, 266.4593
740.8298, 258.6781
741.3119, 252.0717
741.7940, 249.8817
742.2761, 251.9661
742.7582, 260.6472
743.2404, 274.8899
743.7225, 282.7044
744.2046, 279.5385
744.6867, 273.4910
745.1688, 273.7566
745.6509, 279.8966
746.1331, 282.0387
746.6152, 277.7297
747.0973, 273.7069
747.5793, 270.7093
748.0615, 268.5211
748.5436, 267.3416
749.0257, 266.8846
749.5078, 266.3117
749.9899, 265.1145
750.4720, 264.4238
750.9542, 265.9131
751.4363, 267.3911
751.9184, 265.2201
752.4005, 260.8840
752.8826, 259.6222
753.3647, 263.8392
753.8469, 269.7758
754.3290, 273.1940
754.8111, 274.0809
755.2932, 271.6732
755.7753, 265.6233
756.2574, 260.3058
756.7396, 257.3486
757.2217, 256.0598
757.7038, 255.8468
758.1859, 256.8808
758.6680, 256.6463
759.1501, 252.5451
759.6323, 250.5791
760.1144, 253.4142
760.5965, 257.2672
761.0786, 259.5345
761.5607, 260.1384
762.0428, 259.8201
762.5250, 258.7737
763.0071, 257.0043
763.4892, 253.8826
763.9713, 250.3947
764.4534, 246.7893
764.9355, 243.9529
765.4177, 244.7010
765.8998, 250.5005
766.3819, 259.1429
766.8640, 269.3348
767.3461, 280.3377
767.8282, 281.7555
768.3104, 271.6971
768.7925, 263.2101
769.2746, 262.2118
769.7567, 264.1337
770.2388, 262.3091
770.7209, 256.0168
771.2031, 253.9964
771.6852, 262.0866
772.1673, 266.6400
772.6494, 261.8830
773.1315, 255.4478
773.6136, 252.8970
774.0958, 254.2707
774.5779, 257.9424
775.0600, 265.8089
775.5421, 270.7838
776.0242, 266.0811
776.5063, 256.9160
776.9885, 248.3690
777.4706, 241.9447
777.9527, 240.5050
778.4348, 245.4739
778.9169, 252.3720
779.3990, 254.3055
779.8812, 252.0247
780.3633, 252.4918
780.8454, 256.3488
781.3275, 256.8347
781.8096, 249.9587
782.2917, 242.3784
782.7739, 242.4821
783.2560, 250.4165
783.7381, 257.0708
784.2202, 261.9400
784.7023, 266.1649
785.1844, 273.3727
785.6666, 276.8795
786.1487, 269.1788
786.6308, 254.0947
787.1129, 241.9943
787.5950, 234.1994
788.0771, 233.5153
788.5593, 248.9802
789.0414, 266.3802
789.5235, 268.4601
790.0056, 260.1858
790.4877, 257.5837
790.9698, 266.2349
791.4520, 275.6479
791.9341, 271.5738
792.4162, 259.5345
792.8983, 259.4702
793.3804, 270.5818
793.8625, 276.6790
794.3447, 273.2439
794.8268, 262.8541
795.3089, 245.9662
795.7910, 224.8318
796.2731, 214.8939
796.7552, 219.1425
797.2374, 228.2641
797.7195, 249.2115
798.2016, 265.9556
798.6837, 267.0222
799.1658, 258.9973
799.6479, 253.9410
800.1301, 253.7362
800.6122, 253.4548
801.0943, 251.7864
801.5764, 249.6631
802.0585, 246.6751
802.5406, 244.0826
803.0228, 244.8196
803.5049, 248.6470
803.9870, 249.9521
804.4691, 242.1948
804.9512, 232.9518
805.4333, 233.3893
805.9155, 240.8810
806.3976, 248.8229
806.8797, 255.8298
807.3618, 260.8416
807.8439, 263.1119
808.3260, 263.2390
808.8082, 262.4943
809.2903, 260.9152
809.7724, 257.6682
810.2545, 251.8038
810.7366, 247.1094
811.2188, 245.4383
811.7009, 245.4229
812.1830, 244.7333
812.6651, 242.9606
813.1472, 244.9965
813.6293, 256.9170
814.1115, 264.3781
814.5936, 261.3709
815.0757, 255.5181
815.5578, 251.6318
816.0399, 250.1833
816.5220, 251.1509
817.0042, 255.7574
817.4863, 259.1899
817.9684, 259.5970
818.4505, 256.6909
818.9326, 245.8096
819.4147, 232.0300
819.8969, 228.6760
820.3790, 239.6102
820.8611, 252.9702
821.3432, 256.7041
821.8253, 253.9350
822.3074, 251.1015
822.7896, 248.6476
823.2717, 251.1876
823.7538, 260.0972
824.2359, 268.4297
824.7180, 270.6850
825.2001, 268.1850
825.6823, 265.5312
826.1644, 263.8158
826.6465, 256.9471
827.1286, 238.8786
827.6107, 226.3383
828.0928, 230.4724
828.5750, 242.7910
829.0571, 250.6037
829.5392, 253.6617
830.0213, 255.2608
830.5034, 256.7217
830.9855, 255.3499
831.4677, 246.5387
831.9498, 237.4716
832.4319, 235.7072
832.9140, 239.7828
833.3961, 242.2732
833.8782, 239.6727
834.3604, 236.9190
834.8425, 237.9188
835.3246, 240.1370
835.8067, 239.8864
836.2888, 238.2488
836.7709, 238.8017
837.2531, 242.7299
837.7352, 248.0542
838.2173, 253.6268
838.6994, 258.5878
839.1815, 260.2670
839.6636, 259.0232
840.1458, 257.0999
840.6279, 254.9352
841.1100, 253.1730
841.5921, 251.9670
842.0742, 252.1928
842.5563, 258.1576
843.0385, 273.4313
843.5206, 275.5572
844.0027, 255.7931
844.4848, 241.4147
844.9669, 247.9629
845.4490, 262.2455
845.9312, 265.6911
846.4133, 257.1839
846.8954, 250.7924
847.3775, 247.1768
847.8596, 244.7219
848.3417, 242.7699
848.8239, 242.1832
849.3060, 244.0508
849.7881, 247.7562
850.2702, 252.2407
850.7523, 258.1833
851.2344, 261.1708
851.7166, 254.7724
852.1987, 248.5560
852.6808, 253.5382
853.1629, 263.5664
853.6450, 267.0099
854.1271, 261.6843
854.6093, 254.1308
855.0914, 248.3068
855.5735, 244.2125
856.0556, 241.5099
856.5377, 240.5946
857.0198, 244.2731
857.5020, 251.8537
857.9841, 255.2795
858.4662, 249.8141
858.9483, 242.1339
859.4304, 244.4546
859.9125, 255.9006
860.3947, 259.6918
860.8768, 254.6736
861.3589, 252.4505
861.8410, 256.8680
862.3231, 264.2401
862.8052, 272.2739
863.2874, 279.9436
863.7695, 280.8462
864.2516, 270.5734
864.7337, 263.6760
865.2158, 263.6093
865.6979, 263.4526
866.1801, 258.3307
866.6622, 251.8435
867.1443, 249.0003
867.6264, 250.0784
868.1085, 253.2258
868.5906, 259.9167
869.0728, 266.4763
869.5549, 274.4563
870.0370, 279.5855
870.5191, 274.8516
871.0012, 264.0584
871.4833, 259.5078
871.9655, 267.0302
872.4476, 274.6165
872.9297, 276.7043
873.4118, 274.5122
873.8939, 264.8891
874.3760, 253.3106
874.8582, 250.8682
875.3403, 259.2050
875.8224, 268.6721
876.3045, 272.6626
876.7866, 273.1857
877.2687, 272.5641
877.7509, 271.0033
878.2330, 268.4781
878.7151, 265.3401
879.1972, 263.2063
879.6793, 262.8665
880.1614, 264.8474
880.6436, 272.1756
881.1257, 282.9692
881.6078, 281.9101
882.0899, 268.4103
882.5720, 258.8430
883.0541, 257.7176
883.5363, 259.2178
884.0184, 258.5251
884.5005, 256.6833
884.9826, 257.6205
885.4647, 262.6295
885.9468, 265.6350
886.4290, 265.7594
886.9111, 265.3236
887.3932, 264.6472
887.8753, 264.4937
888.3574, 266.0220
888.8395, 269.2888
889.3217, 272.3586
889.8038, 275.5988
890.2859, 278.1228
890.7680, 280.8613
891.2501, 281.8161
891.7322, 279.1903
892.2144, 274.1046
892.6965, 267.5492
893.1786, 258.6349
893.6607, 255.3091
894.1428, 265.7994
894.6249, 275.5085
895.1071, 274.0338
895.5892, 269.8967
896.0713, 275.9186
896.5534, 289.1086
897.0355, 293.2111
897.5176, 278.8649
897.9998, 262.6967
898.4819, 254.9055
898.9640, 252.8418
899.4461, 255.9499
899.9282, 261.7285
900.4103, 265.2315
900.8925, 265.5074
901.3746, 266.5726
901.8567, 272.7117
902.3388, 279.3318
902.8209, 277.8526
903.3030, 271.9425
903.7852, 271.3587
904.2673, 276.3184
904.7494, 281.2450
905.2315, 283.5821
905.7136, 283.9555
906.1957, 282.6260
906.6779, 280.1394
907.1600, 278.4038
907.6421, 277.4902
908.1242, 279.7766
908.6063, 286.1046
909.0884, 288.9243
909.5706, 281.9761
910.0527, 271.0015
910.5348, 269.9123
911.0169, 280.1621
911.4990, 286.2084
911.9811, 287.2409
912.4633, 287.1613
912.9454, 286.6400
913.4275, 286.6573
913.9096, 288.0650
914.3917, 290.8703
914.8738, 295.5250
915.3560, 305.5452
915.8381, 308.8431
916.3202, 300.0261
916.8023, 291.9914
917.2844, 289.5859
917.7665, 291.4620
918.2487, 298.3096
918.7308, 310.5777
919.2129, 313.7662
919.6950, 298.2583
920.1771, 287.2554
920.6592, 287.1493
921.1414, 289.2344
921.6235, 287.2585
922.1056, 284.1176
922.5877, 286.8487
923.0698, 297.6020
923.5519, 302.8580
924.0341, 294.0408
924.5162, 285.6821
924.9983, 282.1107
925.4804, 283.1448
925.9625, 292.6997
926.4446, 306.1639
926.9268, 310.0449
927.4089, 297.9044
927.8910, 287.5608
928.3731, 290.7010
928.8552, 296.7841
929.3373, 298.8918
929.8195, 297.8583
930.3016, 293.9197
930.7837, 288.4295
931.2658, 286.0489
931.7479, 289.9832
932.2300, 295.3247
932.7122, 300.3533
933.1943, 302.5071
933.6764, 295.1579
934.1585, 282.8033
934.6406, 277.4347
935.1227, 281.3317
935.6049, 284.8591
936.0870, 279.3669
936.5691, 272.3080
937.0512, 274.5875
937.5333, 283.1172
938.0154, 293.5014
938.4976, 303.7549
938.9797, 308.1481
939.4618, 304.6245
939.9439, 298.5727
940.4260, 295.4202
940.9081, 294.1213
941.3903, 292.2708
941.8724, 289.9949
942.3545, 287.3055
942.8366, 284.4312
943.3187, 283.8137
943.8008, 286.7903
944.2830, 292.0296
944.7651, 299.4920
945.2471, 307.4246
945.7292, 302.2191
946.2114, 284.5030
946.6935, 277.8118
947.1756, 287.6852
947.6577, 297.6861
948.1398, 296.5888
948.6219, 289.4093
949.1041, 285.7741
949.5862, 285.7410
950.0683, 287.4130
950.5504, 291.0543
951.0325, 295.0581
951.5146, 299.8653
951.9968, 300.9426
952.4789, 293.0160
952.9610, 280.7233
953.4431, 278.7608
953.9252, 289.8564
954.4073, 297.9630
954.8895, 303.0053
955.3716, 304.7262
955.8537, 302.0663
956.3358, 297.8872
956.8179, 294.5438
957.3000, 292.2068
957.7822, 292.1061
958.2643, 296.4449
958.7464, 296.4996
959.2285, 288.2058
959.7106, 283.1697
960.1927, 287.6451
960.6749, 295.3741
961.1570, 300.2711
961.6391, 302.2256
962.1212, 299.7835
962.6033, 287.7960
963.0854, 281.2968
963.5676, 284.8522
964.0497, 288.7327
964.5318, 287.8150
965.0139, 285.5499
965.4960, 286.4188
965.9781, 290.4482
966.4603, 294.8976
966.9424, 302.0374
967.4245, 306.1479
967.9066, 305.1387
968.3887, 302.8836
968.8708, 300.2330
969.3530, 298.0720
969.8351, 297.9000
970.3172, 299.8575
970.7993, 301.5356
971.2814, 301.3648
971.7635, 302.8394
972.2457, 309.1448
972.7278, 314.6559
973.2099, 315.0429
973.6920, 312.6742
974.1741, 312.8831
974.6563, 316.7216
975.1384, 314.3979
975.6205, 292.0904
976.1026, 279.9914
976.5847, 298.1394
977.0668, 318.1868
977.5490, 317.4748
978.0311, 304.3796
978.5132, 297.5847
978.9953, 300.4972
979.4774, 302.0582
979.9595, 299.8707
980.4417, 295.4302
980.9238, 283.2308
981.4059, 274.4374
981.8880, 282.2426
982.3701, 299.5924
982.8522, 309.7689
983.3344, 308.8608
983.8165, 307.7768
984.2986, 312.5438
984.7807, 314.6550
985.2628, 306.3989
985.7449, 297.0416
986.2271, 296.4401
986.7092, 301.6227
987.1913, 303.5338
987.6734, 299.6124
988.1555, 296.0458
988.6376, 294.2549
989.1198, 294.4545
989.6019, 298.6414
990.0840, 303.3760
990.5661, 305.2279
991.0482, 304.7007
991.5303, 304.1728
992.0125, 304.4314
992.4946, 303.3936
992.9767, 296.3890
993.4588, 292.3344
993.9409, 301.1303
994.4230, 311.6839
994.9052, 310.6699
995.3873, 301.1690
995.8694, 294.4366
996.3515, 293.3802
996.8336, 296.3634
997.3157, 308.7997
997.7979, 317.9330
998.2800, 312.1589
998.7621, 302.1262
999.2442, 300.3252
999.7263, 304.6744
1000.208, 305.2697
1000.691, 298.8326
1001.173, 291.6884
1001.655, 284.1328
1002.137, 279.7649
1002.619, 282.4020
1003.101, 288.1306
1003.583, 295.1779
1004.065, 301.2320
1004.547, 300.4265
1005.030, 289.7170
1005.512, 281.8735
1005.994, 285.7500
1006.476, 290.4877
1006.958, 290.2267
1007.440, 286.9499
1007.922, 280.8159
1008.404, 274.0412
1008.887, 271.7712
1009.369, 275.7735
1009.851, 281.6624
1010.333, 292.2005
1010.815, 298.6028
1011.297, 291.6951
1011.779, 281.5217
1012.261, 278.8472
1012.743, 281.8389
1013.226, 283.9247
1013.708, 283.9600
1014.190, 278.5579
1014.672, 255.6410
1015.154, 240.0937
1015.636, 252.0259
1016.118, 271.2826
1016.600, 279.6557
1017.083, 278.5286
1017.565, 274.4401
1018.047, 268.0350
1018.529, 266.7018
1019.011, 279.8862
1019.493, 290.0068
1019.975, 285.4221
1020.457, 277.7029
1020.939, 276.3665
1021.422, 280.2823
1021.904, 285.3897
1022.386, 291.0200
1022.868, 296.7559
1023.350, 306.1158
1023.832, 310.6621
1024.314, 304.9903
1024.796, 295.4401
1025.279, 283.8639
1025.761, 273.1608
1026.243, 267.7993
1026.725, 268.5381
1027.207, 272.8226
1027.689, 284.2110
1028.171, 293.3670
1028.653, 296.4875
1029.135, 297.6256
1029.618, 301.4852
1030.100, 304.3695
1030.582, 297.1345
1031.064, 278.5056
1031.546, 269.3374
1032.028, 282.0271
1032.510, 290.5997
1032.992, 286.0390
1033.474, 280.6813
1033.957, 282.2025
1034.439, 286.7841
1034.921, 288.9102
1035.403, 288.3342
1035.885, 287.0459
1036.367, 283.7050
1036.849, 281.8918
1037.331, 283.0542
1037.814, 284.4525
1038.296, 286.0030
1038.778, 286.3647
1039.260, 283.0399
1039.742, 276.4517
1040.224, 272.1902
1040.706, 269.4538
1041.188, 270.8180
1041.671, 281.5171
1042.153, 288.0193
1042.635, 280.8664
1043.117, 272.4527
1043.599, 277.1793
1044.081, 292.0159
1044.563, 300.1479
1045.045, 299.7682
1045.527, 297.1412
1046.010, 290.7285
1046.492, 285.9456
1046.974, 285.6414
1047.456, 285.3822
1047.938, 280.6858
1048.420, 273.3811
1048.902, 269.1747
1049.384, 268.2637
1049.866, 270.2787
1050.349, 276.9205
1050.831, 279.0209
1051.313, 272.8164
1051.795, 266.4239
1052.277, 265.8318
1052.759, 269.2397
1053.241, 273.6923
1053.723, 279.2347
1054.205, 278.6573
1054.688, 271.3514
1055.170, 265.6351
1055.652, 263.1733
1056.134, 262.0119
1056.616, 260.7009
1057.098, 261.9778
1057.580, 272.5017
1058.062, 288.8094
1058.545, 289.6837
1059.027, 276.5236
1059.509, 266.0215
1059.991, 260.6088
1060.473, 259.0374
1060.955, 260.7925
1061.437, 263.4887
1061.919, 264.2658
1062.401, 264.1324
1062.884, 266.9871
1063.366, 271.0282
1063.848, 268.3181
1064.330, 259.6478
1064.812, 253.1276
1065.294, 251.3660
1065.776, 250.1887
1066.258, 245.6975
1066.740, 240.8831
1067.223, 239.7450
1067.705, 241.6510
1068.187, 248.7146
1068.669, 257.1453
1069.151, 254.2138
1069.633, 239.9169
1070.115, 232.1900
1070.597, 243.4009
1071.080, 257.3121
1071.562, 258.7187
1072.044, 254.7293
1072.526, 252.0906
1073.008, 250.4934
1073.490, 248.6912
1073.972, 246.6585
1074.454, 245.2835
1074.937, 245.0678
1075.419, 244.2553
1075.901, 240.2807
1076.383, 237.1437
1076.865, 238.1556
1077.347, 240.8778
1077.829, 245.3356
1078.311, 248.5910
1078.793, 242.2716
1079.276, 223.9825
1079.758, 214.0417
1080.240, 225.6030
1080.722, 237.2026
1081.204, 241.6796
1081.686, 243.8338
1082.168, 247.8112
1082.650, 251.0526
1083.132, 247.6432
1083.615, 237.6959
1084.097, 233.5040
1084.579, 241.7459
1085.061, 246.7412
1085.543, 246.3383
1086.025, 244.2200
1086.507, 239.0742
1086.989, 235.5581
1087.472, 239.9837
1087.954, 249.7426
1088.436, 253.7453
1088.918, 251.0180
1089.400, 244.9219
1089.882, 231.8542
1090.364, 227.4620
1090.846, 239.9609
1091.328, 249.3843
1091.811, 239.5916
1092.293, 220.7219
1092.775, 213.0511
1093.257, 216.2110
1093.739, 220.2339
1094.221, 225.0930
1094.703, 232.6630
1095.185, 243.4720
1095.667, 245.9163
1096.150, 233.4392
1096.632, 220.7694
1097.114, 227.6170
1097.596, 244.7330
1098.078, 246.7302
1098.560, 237.1372
1099.042, 227.7764
1099.524, 220.5052
1100.007, 219.2586
1100.489, 224.3109
1100.971, 226.8156
1101.453, 218.5178
1101.935, 210.9219
1102.417, 225.0395
1102.899, 244.0972
1103.381, 239.7482
1103.864, 221.8971
1104.346, 210.2831
1104.828, 207.9271
1105.310, 211.5132
1105.792, 220.6466
1106.274, 225.9906
1106.756, 217.5905
1107.238, 207.8296
1107.720, 204.1960
1108.203, 204.6385
1108.685, 208.1378
1109.167, 213.3677
1109.649, 219.8874
1110.131, 212.2166
1110.613, 229.9695
1111.095, 239.2641
1111.577, 240.5580
1112.059, 209.6647
1112.542, 220.5047
1113.024, 214.7273
1113.506, 208.3410
1113.988, 225.2740
1114.470, 199.4506
1114.952, 216.1658
1115.434, 216.0061
1115.916, 223.6794
1116.399, 214.6276
1116.881, 210.8419
1117.363, 223.9358
1117.845, 227.8006
1118.327, 217.1185
1118.809, 225.7380
1119.291, 200.0820
1119.773, 204.6449
1120.255, 222.2885
1120.738, 212.8280
1121.220, 222.1319
1121.702, 224.3936
1122.184, 194.3842
1122.666, 220.7041
1123.148, 222.7715
1123.630, 199.9349
1124.112, 224.5536
1124.594, 205.3115
1125.077, 201.8286
1125.559, 210.2221
1126.041, 206.3880
1126.523, 222.0266
1127.005, 209.1527
1127.487, 203.6563
1127.969, 192.9031
1128.451, 185.5768
1128.934, 195.4539
1129.416, 206.5368
1129.898, 200.9006
1130.380, 188.2978
1130.862, 178.7624
1131.344, 174.5167
1131.826, 178.3353
1132.308, 190.7002
1132.791, 199.3905
1133.273, 196.9317
1133.755, 194.5535
1134.237, 195.4131
1134.719, 197.8978
1135.201, 204.6107
1135.683, 209.9670
1136.165, 204.9270
1136.647, 191.6524
1137.130, 184.7871
1137.612, 187.4365
1138.094, 187.5381
1138.576, 183.1525
1139.058, 181.1609
1139.540, 184.8796
1140.022, 186.4519
1140.504, 179.3861
1140.986, 170.0984
1141.469, 168.9410
1141.951, 175.4291
1142.433, 189.0582
1142.915, 209.1662
1143.397, 214.9755
1143.879, 205.2356
1144.361, 194.8888
1144.843, 189.2953
1145.326, 186.4738
1145.808, 184.6179
1146.290, 185.2449
1146.772, 192.7426
1147.254, 202.9655
1147.736, 209.4767
1148.218, 212.1830
1148.700, 209.8743
1149.182, 204.2999
1149.665, 202.4573
1150.147, 207.1287
1150.629, 207.4427
1151.111, 189.6345
1151.593, 174.7193
1152.075, 179.8084
1152.557, 188.1662
1153.039, 182.7677
1153.521, 173.2847
1154.004, 178.3062
1154.486, 196.7204
1154.968, 205.2081
1155.450, 194.6913
1155.932, 187.1998
1156.414, 183.2617
1156.896, 182.6644
1157.378, 185.9805
1157.861, 191.9817
1158.343, 201.6803
1158.825, 210.8657
1159.307, 211.3934
1159.789, 203.7729
1160.271, 192.7567
1160.753, 178.0545
1161.235, 177.1185
1161.718, 191.4710
1162.200, 198.2030
1162.682, 189.2688
1163.164, 179.0910
1163.646, 179.4932
1164.128, 185.5081
1164.610, 191.7474
1165.092, 196.7104
1165.574, 196.7424
1166.057, 193.6577
1166.539, 190.8967
1167.021, 189.0583
1167.503, 187.4922
1167.985, 186.0005
1168.467, 186.3613
1168.949, 191.3879
1169.431, 196.0814
1169.913, 197.5766
1170.396, 198.2039
1170.878, 200.3366
1171.360, 202.1454
1171.842, 200.0277
1172.324, 195.0278
1172.806, 193.6413
1173.288, 197.5274
1173.770, 200.6521
1174.253, 202.4726
1174.735, 205.1608
1175.217, 210.7225
1175.699, 212.9448
1176.181, 208.0301
1176.663, 198.6263
1177.145, 186.6958
1177.627, 174.9350
1178.109, 176.7347
1178.592, 189.6493
1179.074, 194.1166
1179.556, 190.2715
1180.038, 187.9517
1180.520, 188.8826
1181.002, 184.8258
1181.484, 170.3982
1181.966, 158.2264
1182.448, 164.7641
1182.931, 176.2055
1183.413, 175.8390
1183.895, 172.8876
1184.377, 180.0914
1184.859, 193.4029
1185.341, 205.2841
1185.823, 213.3280
1186.305, 211.5291
1186.788, 190.6166
1187.270, 176.1909
1187.752, 177.7330
1188.234, 180.2342
1188.716, 177.0200
1189.198, 175.5706
1189.680, 183.0166
1190.162, 193.2631
1190.645, 194.9009
1191.127, 188.7348
1191.609, 187.7977
1192.091, 192.7159
1192.573, 192.3307
1193.055, 185.7423
1193.537, 179.9675
1194.019, 177.2357
1194.501, 176.4523
1194.984, 176.7867
1195.466, 179.0531
1195.948, 188.3698
1196.430, 197.1649
1196.912, 189.1352
1197.394, 174.4664
1197.876, 169.8389
1198.358, 174.0979
1198.840, 180.9431
1199.323, 188.0833
1199.805, 191.4845
1200.287, 188.8672
1200.769, 183.8245
1201.251, 174.5330
1201.733, 166.9289
1202.215, 158.5316
1202.697, 158.4721
1203.180, 182.5529
1203.662, 213.1447
1204.144, 214.8357
1204.626, 188.6034
1205.108, 176.6707
1205.590, 181.3685
1206.072, 181.5130
1206.554, 174.9911
1207.036, 173.1150
1207.519, 179.4712
1208.001, 188.1531
1208.483, 195.6395
1208.965, 198.0140
1209.447, 183.6531
1209.929, 165.3900
1210.411, 169.5043
1210.893, 182.6670
1211.375, 178.8830
1211.858, 165.1055
1212.340, 165.6942
1212.822, 183.5156
1213.304, 196.9654
1213.786, 196.6476
1214.268, 194.9844
1214.750, 197.5409
1215.232, 197.2460
1215.715, 186.2936
1216.197, 177.0916
1216.679, 179.1278
1217.161, 187.1697
1217.643, 194.6406
1218.125, 200.6389
1218.607, 195.7952
1219.089, 179.2119
1219.572, 162.7775
1220.054, 147.1852
1220.536, 141.1239
1221.018, 146.5415
1221.500, 159.9375
1221.982, 179.7506
1222.464, 196.5060
1222.946, 199.2473
1223.428, 193.6076
1223.911, 180.4040
1224.393, 168.5853
1224.875, 172.0114
1225.357, 184.3659
1225.839, 195.3794
1226.321, 202.6241
1226.803, 204.1762
1227.285, 197.8349
1227.767, 192.4724
1228.250, 191.9241
1228.732, 188.5619
1229.214, 177.7701
1229.696, 169.9114
1230.178, 170.5313
1230.660, 175.1604
1231.142, 179.2678
1231.624, 182.9229
1232.107, 186.9772
1232.589, 190.9876
1233.071, 190.6334
1233.553, 186.5666
1234.035, 181.5440
1234.517, 176.6286
1234.999, 174.6372
1235.481, 176.3394
1235.964, 177.3336
1236.446, 173.3867
1236.928, 170.4484
1237.410, 174.0708
1237.892, 178.9937
1238.374, 183.2154
1238.856, 185.1005
1239.338, 182.1986
1239.820, 176.0276
1240.302, 170.2879
1240.785, 165.1413
1241.267, 159.1174
1241.749, 148.4366
1242.231, 152.2258
1242.713, 175.5266
1243.195, 191.1553
1243.677, 191.1522
1244.159, 183.1840
1244.641, 171.5814
##END=



