##NAMES=Fluornatromicrolite
##RRUFFID=R060589
##IDEAL CHEMISTRY=(Na_1.5_Bi^3+^_0.5_)Ta^5+^_2_O_6_F
##LOCALITY=Quixaba mine, Frei Martinho, Paraíba, Northeast Region, Brazil
##OWNER=RRUFF
##SOURCE=Michael Scott
##DESCRIPTION=Dark green octahedron embedded in white albite matrix
##STATUS=The identification of this mineral has been confirmed by X-ray diffraction and chemical analysis
##URL=rruff.info/R060589
##MEASURED CHEMISTRY=(Na_1.04_Ca_0.71_Bi_0.18_[box]_0.07_)_Σ=2_Ta_2.00_O_6_(F_0.93_(OH)_0.07_)_Σ=1_ ; OH estimated by difference and charge balance
8.975323e+001, 0.000000e+000
9.023535e+001, 5.913911e+004
9.071747e+001, 5.715314e+004
9.119958e+001, 5.621854e+004
9.168170e+001, 5.821379e+004
9.216382e+001, 6.046375e+004
9.264594e+001, 6.226249e+004
9.312805e+001, 6.364420e+004
9.361017e+001, 6.484160e+004
9.409229e+001, 6.587459e+004
9.457440e+001, 6.675388e+004
9.505651e+001, 6.743677e+004
9.553863e+001, 6.796213e+004
9.602074e+001, 6.838011e+004
9.650286e+001, 6.872702e+004
9.698498e+001, 6.897555e+004
9.746709e+001, 6.901180e+004
9.794921e+001, 6.904323e+004
9.843133e+001, 6.907214e+004
9.891344e+001, 6.912120e+004
9.939556e+001, 6.917552e+004
9.987768e+001, 6.923336e+004
1.003598e+002, 6.930846e+004
1.008419e+002, 6.940498e+004
1.013240e+002, 6.952520e+004
1.018061e+002, 6.966127e+004
1.022883e+002, 6.982045e+004
1.027704e+002, 6.998153e+004
1.032525e+002, 7.011295e+004
1.037346e+002, 7.020284e+004
1.042167e+002, 7.030861e+004
1.046988e+002, 7.047108e+004
1.051810e+002, 7.065517e+004
1.056631e+002, 7.081052e+004
1.061452e+002, 7.089795e+004
1.066273e+002, 7.093454e+004
1.071094e+002, 7.099752e+004
1.075915e+002, 7.110545e+004
1.080737e+002, 7.121358e+004
1.085558e+002, 7.130620e+004
1.090379e+002, 7.138344e+004
1.095200e+002, 7.144679e+004
1.100021e+002, 7.148871e+004
1.104842e+002, 7.149581e+004
1.109664e+002, 7.155182e+004
1.114485e+002, 7.169005e+004
1.119306e+002, 7.184567e+004
1.124127e+002, 7.200234e+004
1.128948e+002, 7.215041e+004
1.133769e+002, 7.227899e+004
1.138591e+002, 7.236916e+004
1.143412e+002, 7.238867e+004
1.148233e+002, 7.242503e+004
1.153054e+002, 7.249707e+004
1.157875e+002, 7.257584e+004
1.162696e+002, 7.262974e+004
1.167517e+002, 7.264634e+004
1.172339e+002, 7.264192e+004
1.177160e+002, 7.265226e+004
1.181981e+002, 7.266633e+004
1.186802e+002, 7.270642e+004
1.191623e+002, 7.279271e+004
1.196444e+002, 7.291119e+004
1.201266e+002, 7.302652e+004
1.206087e+002, 7.312577e+004
1.210908e+002, 7.320655e+004
1.215729e+002, 7.327108e+004
1.220550e+002, 7.331241e+004
1.225371e+002, 7.334833e+004
1.230193e+002, 7.339773e+004
1.235014e+002, 7.346352e+004
1.239835e+002, 7.351805e+004
1.244656e+002, 7.352566e+004
1.249477e+002, 7.352297e+004
1.254298e+002, 7.354545e+004
1.259120e+002, 7.361049e+004
1.263941e+002, 7.370145e+004
1.268762e+002, 7.378181e+004
1.273583e+002, 7.385358e+004
1.278404e+002, 7.391084e+004
1.283225e+002, 7.394300e+004
1.288047e+002, 7.396502e+004
1.292868e+002, 7.399858e+004
1.297689e+002, 7.406079e+004
1.302510e+002, 7.414831e+004
1.307331e+002, 7.420900e+004
1.312152e+002, 7.420767e+004
1.316974e+002, 7.421236e+004
1.321795e+002, 7.423444e+004
1.326616e+002, 7.427600e+004
1.331437e+002, 7.433748e+004
1.336258e+002, 7.442195e+004
1.341079e+002, 7.453573e+004
1.345901e+002, 7.463200e+004
1.350722e+002, 7.469248e+004
1.355543e+002, 7.475371e+004
1.360364e+002, 7.484146e+004
1.365185e+002, 7.495613e+004
1.370006e+002, 7.507452e+004
1.374828e+002, 7.516742e+004
1.379649e+002, 7.522865e+004
1.384470e+002, 7.529841e+004
1.389291e+002, 7.537833e+004
1.394112e+002, 7.546858e+004
1.398933e+002, 7.557517e+004
1.403755e+002, 7.570317e+004
1.408576e+002, 7.583152e+004
1.413397e+002, 7.592467e+004
1.418218e+002, 7.598562e+004
1.423039e+002, 7.605463e+004
1.427860e+002, 7.615173e+004
1.432681e+002, 7.627069e+004
1.437503e+002, 7.639148e+004
1.442324e+002, 7.651568e+004
1.447145e+002, 7.663187e+004
1.451966e+002, 7.672780e+004
1.456787e+002, 7.680327e+004
1.461608e+002, 7.687867e+004
1.466430e+002, 7.697692e+004
1.471251e+002, 7.710192e+004
1.476072e+002, 7.721123e+004
1.480893e+002, 7.727408e+004
1.485714e+002, 7.733335e+004
1.490535e+002, 7.741385e+004
1.495357e+002, 7.752008e+004
1.500178e+002, 7.763848e+004
1.504999e+002, 7.775039e+004
1.509820e+002, 7.786146e+004
1.514641e+002, 7.795362e+004
1.519462e+002, 7.802444e+004
1.524284e+002, 7.808133e+004
1.529105e+002, 7.812563e+004
1.533926e+002, 7.815844e+004
1.538747e+002, 7.818792e+004
1.543568e+002, 7.823487e+004
1.548389e+002, 7.832422e+004
1.553211e+002, 7.840172e+004
1.558032e+002, 7.844703e+004
1.562853e+002, 7.848415e+004
1.567674e+002, 7.855064e+004
1.572495e+002, 7.866818e+004
1.577316e+002, 7.881408e+004
1.582138e+002, 7.888790e+004
1.586959e+002, 7.883034e+004
1.591780e+002, 7.877866e+004
1.596601e+002, 7.875595e+004
1.601422e+002, 7.876266e+004
1.606243e+002, 7.880277e+004
1.611065e+002, 7.888608e+004
1.615886e+002, 7.900093e+004
1.620707e+002, 7.909080e+004
1.625528e+002, 7.915022e+004
1.630349e+002, 7.919302e+004
1.635170e+002, 7.922176e+004
1.639991e+002, 7.923765e+004
1.644813e+002, 7.925083e+004
1.649634e+002, 7.926508e+004
1.654455e+002, 7.928183e+004
1.659276e+002, 7.930361e+004
1.664097e+002, 7.933367e+004
1.668918e+002, 7.936664e+004
1.673740e+002, 7.939811e+004
1.678561e+002, 7.942889e+004
1.683382e+002, 7.945361e+004
1.688203e+002, 7.946390e+004
1.693024e+002, 7.946720e+004
1.697845e+002, 7.947190e+004
1.702667e+002, 7.948055e+004
1.707488e+002, 7.949280e+004
1.712309e+002, 7.951133e+004
1.717130e+002, 7.954888e+004
1.721951e+002, 7.956760e+004
1.726772e+002, 7.953852e+004
1.731594e+002, 7.948779e+004
1.736415e+002, 7.945083e+004
1.741236e+002, 7.944634e+004
1.746057e+002, 7.947326e+004
1.750878e+002, 7.952727e+004
1.755699e+002, 7.965603e+004
1.760521e+002, 7.975886e+004
1.765342e+002, 7.979421e+004
1.770163e+002, 7.978620e+004
1.774984e+002, 7.977606e+004
1.779805e+002, 7.979227e+004
1.784626e+002, 7.983504e+004
1.789448e+002, 7.989563e+004
1.794269e+002, 7.999262e+004
1.799090e+002, 8.008897e+004
1.803911e+002, 8.017493e+004
1.808732e+002, 8.025076e+004
1.813553e+002, 8.031895e+004
1.818375e+002, 8.038064e+004
1.823196e+002, 8.043417e+004
1.828017e+002, 8.049436e+004
1.832838e+002, 8.057105e+004
1.837659e+002, 8.064320e+004
1.842480e+002, 8.069742e+004
1.847301e+002, 8.073492e+004
1.852123e+002, 8.076790e+004
1.856944e+002, 8.080808e+004
1.861765e+002, 8.085700e+004
1.866586e+002, 8.089464e+004
1.871407e+002, 8.090280e+004
1.876228e+002, 8.091255e+004
1.881050e+002, 8.094638e+004
1.885871e+002, 8.100649e+004
1.890692e+002, 8.108347e+004
1.895513e+002, 8.117783e+004
1.900334e+002, 8.128776e+004
1.905155e+002, 8.137281e+004
1.909977e+002, 8.140199e+004
1.914798e+002, 8.141642e+004
1.919619e+002, 8.147274e+004
1.924440e+002, 8.158614e+004
1.929261e+002, 8.169672e+004
1.934082e+002, 8.173455e+004
1.938904e+002, 8.171997e+004
1.943725e+002, 8.170661e+004
1.948546e+002, 8.171443e+004
1.953367e+002, 8.173393e+004
1.958188e+002, 8.174481e+004
1.963009e+002, 8.174106e+004
1.967831e+002, 8.173863e+004
1.972652e+002, 8.174443e+004
1.977473e+002, 8.175944e+004
1.982294e+002, 8.178886e+004
1.987115e+002, 8.184677e+004
1.991936e+002, 8.192437e+004
1.996758e+002, 8.197984e+004
2.001579e+002, 8.199005e+004
2.006400e+002, 8.200966e+004
2.011221e+002, 8.206606e+004
2.016042e+002, 8.215274e+004
2.020863e+002, 8.225284e+004
2.025685e+002, 8.235912e+004
2.030506e+002, 8.247095e+004
2.035327e+002, 8.257595e+004
2.040148e+002, 8.266612e+004
2.044969e+002, 8.275654e+004
2.049790e+002, 8.286827e+004
2.054612e+002, 8.298630e+004
2.059433e+002, 8.307609e+004
2.064254e+002, 8.310198e+004
2.069075e+002, 8.305980e+004
2.073896e+002, 8.303262e+004
2.078717e+002, 8.303334e+004
2.083539e+002, 8.303802e+004
2.088360e+002, 8.303872e+004
2.093181e+002, 8.303699e+004
2.098002e+002, 8.303905e+004
2.102823e+002, 8.305077e+004
2.107644e+002, 8.307313e+004
2.112466e+002, 8.309823e+004
2.117287e+002, 8.313928e+004
2.122108e+002, 8.317152e+004
2.126929e+002, 8.316855e+004
2.131750e+002, 8.314361e+004
2.136571e+002, 8.313861e+004
2.141393e+002, 8.319614e+004
2.146214e+002, 8.333003e+004
2.151035e+002, 8.343111e+004
2.155856e+002, 8.347423e+004
2.160677e+002, 8.351533e+004
2.165498e+002, 8.358718e+004
2.170320e+002, 8.368617e+004
2.175141e+002, 8.378556e+004
2.179962e+002, 8.386045e+004
2.184783e+002, 8.390730e+004
2.189604e+002, 8.395348e+004
2.194425e+002, 8.398760e+004
2.199247e+002, 8.402994e+004
2.204068e+002, 8.409581e+004
2.208889e+002, 8.418412e+004
2.213710e+002, 8.428045e+004
2.218531e+002, 8.437402e+004
2.223352e+002, 8.446416e+004
2.228174e+002, 8.455125e+004
2.232995e+002, 8.463277e+004
2.237816e+002, 8.471288e+004
2.242637e+002, 8.479895e+004
2.247458e+002, 8.489041e+004
2.252279e+002, 8.497084e+004
2.257100e+002, 8.502315e+004
2.261922e+002, 8.504959e+004
2.266743e+002, 8.507953e+004
2.271564e+002, 8.510542e+004
2.276385e+002, 8.514126e+004
2.281206e+002, 8.520569e+004
2.286027e+002, 8.530035e+004
2.290849e+002, 8.539744e+004
2.295670e+002, 8.547514e+004
2.300491e+002, 8.553938e+004
2.305312e+002, 8.560692e+004
2.310133e+002, 8.568105e+004
2.314954e+002, 8.575933e+004
2.319776e+002, 8.584085e+004
2.324597e+002, 8.592655e+004
2.329418e+002, 8.600897e+004
2.334239e+002, 8.607176e+004
2.339060e+002, 8.613065e+004
2.343881e+002, 8.621159e+004
2.348703e+002, 8.632585e+004
2.353524e+002, 8.646080e+004
2.358345e+002, 8.660996e+004
2.363166e+002, 8.678327e+004
2.367987e+002, 8.693119e+004
2.372808e+002, 8.703039e+004
2.377630e+002, 8.708941e+004
2.382451e+002, 8.710658e+004
2.387272e+002, 8.706820e+004
2.392093e+002, 8.700662e+004
2.396914e+002, 8.696658e+004
2.401735e+002, 8.694302e+004
2.406557e+002, 8.695892e+004
2.411378e+002, 8.706456e+004
2.416199e+002, 8.719497e+004
2.421020e+002, 8.728324e+004
2.425841e+002, 8.729942e+004
2.430662e+002, 8.728736e+004
2.435484e+002, 8.732380e+004
2.440305e+002, 8.742476e+004
2.445126e+002, 8.753268e+004
2.449947e+002, 8.763284e+004
2.454768e+002, 8.773191e+004
2.459589e+002, 8.783577e+004
2.464410e+002, 8.794665e+004
2.469232e+002, 8.806140e+004
2.474053e+002, 8.818552e+004
2.478874e+002, 8.834630e+004
2.483695e+002, 8.844514e+004
2.488516e+002, 8.841273e+004
2.493337e+002, 8.835009e+004
2.498159e+002, 8.833835e+004
2.502980e+002, 8.840136e+004
2.507801e+002, 8.849689e+004
2.512622e+002, 8.855351e+004
2.517443e+002, 8.854999e+004
2.522264e+002, 8.855327e+004
2.527086e+002, 8.856514e+004
2.531907e+002, 8.858712e+004
2.536728e+002, 8.861848e+004
2.541549e+002, 8.865975e+004
2.546370e+002, 8.871516e+004
2.551191e+002, 8.879231e+004
2.556013e+002, 8.889634e+004
2.560834e+002, 8.901370e+004
2.565655e+002, 8.917330e+004
2.570476e+002, 8.932339e+004
2.575297e+002, 8.942294e+004
2.580118e+002, 8.946837e+004
2.584940e+002, 8.949407e+004
2.589761e+002, 8.954692e+004
2.594582e+002, 8.964142e+004
2.599403e+002, 8.972780e+004
2.604224e+002, 8.981039e+004
2.609045e+002, 8.988467e+004
2.613867e+002, 8.994399e+004
2.618688e+002, 8.999009e+004
2.623509e+002, 9.003252e+004
2.628330e+002, 9.008308e+004
2.633151e+002, 9.014587e+004
2.637972e+002, 9.020170e+004
2.642794e+002, 9.023621e+004
2.647615e+002, 9.027688e+004
2.652436e+002, 9.033394e+004
2.657257e+002, 9.041026e+004
2.662078e+002, 9.050912e+004
2.666899e+002, 9.063697e+004
2.671721e+002, 9.080014e+004
2.676542e+002, 9.094920e+004
2.681363e+002, 9.109036e+004
2.686184e+002, 9.121529e+004
2.691005e+002, 9.131620e+004
2.695826e+002, 9.139558e+004
2.700648e+002, 9.146044e+004
2.705469e+002, 9.151326e+004
2.710290e+002, 9.155234e+004
2.715111e+002, 9.161716e+004
2.719932e+002, 9.171420e+004
2.724753e+002, 9.182375e+004
2.729575e+002, 9.194120e+004
2.734396e+002, 9.206451e+004
2.739217e+002, 9.219079e+004
2.744038e+002, 9.231890e+004
2.748859e+002, 9.244851e+004
2.753680e+002, 9.257142e+004
2.758501e+002, 9.271418e+004
2.763322e+002, 9.282513e+004
2.768144e+002, 9.285440e+004
2.772965e+002, 9.283833e+004
2.777786e+002, 9.286076e+004
2.782607e+002, 9.297247e+004
2.787428e+002, 9.314926e+004
2.792249e+002, 9.328792e+004
2.797071e+002, 9.336172e+004
2.801892e+002, 9.343801e+004
2.806713e+002, 9.354026e+004
2.811534e+002, 9.365573e+004
2.816355e+002, 9.376400e+004
2.821176e+002, 9.385745e+004
2.825998e+002, 9.393536e+004
2.830819e+002, 9.398836e+004
2.835640e+002, 9.398648e+004
2.840461e+002, 9.401940e+004
2.845282e+002, 9.412463e+004
2.850103e+002, 9.427092e+004
2.854925e+002, 9.441536e+004
2.859746e+002, 9.454502e+004
2.864567e+002, 9.466472e+004
2.869388e+002, 9.478208e+004
2.874209e+002, 9.489489e+004
2.879030e+002, 9.501208e+004
2.883852e+002, 9.513314e+004
2.888673e+002, 9.525944e+004
2.893494e+002, 9.540149e+004
2.898315e+002, 9.556303e+004
2.903136e+002, 9.571013e+004
2.907957e+002, 9.579293e+004
2.912779e+002, 9.579997e+004
2.917600e+002, 9.582636e+004
2.922421e+002, 9.589098e+004
2.927242e+002, 9.597309e+004
2.932063e+002, 9.605127e+004
2.936884e+002, 9.612309e+004
2.941706e+002, 9.620214e+004
2.946527e+002, 9.630583e+004
2.951348e+002, 9.643428e+004
2.956169e+002, 9.654575e+004
2.960990e+002, 9.661663e+004
2.965811e+002, 9.668627e+004
2.970633e+002, 9.680133e+004
2.975454e+002, 9.695694e+004
2.980275e+002, 9.708732e+004
2.985096e+002, 9.713813e+004
2.989917e+002, 9.712050e+004
2.994738e+002, 9.712791e+004
2.999560e+002, 9.717377e+004
3.004381e+002, 9.723156e+004
3.009202e+002, 9.728548e+004
3.014023e+002, 9.733758e+004
3.018844e+002, 9.740128e+004
3.023665e+002, 9.748988e+004
3.028487e+002, 9.759006e+004
3.033308e+002, 9.766327e+004
3.038129e+002, 9.769948e+004
3.042950e+002, 9.772838e+004
3.047771e+002, 9.774897e+004
3.052592e+002, 9.777116e+004
3.057414e+002, 9.783107e+004
3.062235e+002, 9.795729e+004
3.067056e+002, 9.809945e+004
3.071877e+002, 9.814963e+004
3.076698e+002, 9.809119e+004
3.081519e+002, 9.803544e+004
3.086341e+002, 9.802682e+004
3.091162e+002, 9.804263e+004
3.095983e+002, 9.804562e+004
3.100804e+002, 9.802673e+004
3.105625e+002, 9.799243e+004
3.110446e+002, 9.794295e+004
3.115268e+002, 9.787627e+004
3.120089e+002, 9.782886e+004
3.124910e+002, 9.780792e+004
3.129731e+002, 9.780973e+004
3.134552e+002, 9.783816e+004
3.139373e+002, 9.789472e+004
3.144195e+002, 9.795138e+004
3.149016e+002, 9.798798e+004
3.153837e+002, 9.800227e+004
3.158658e+002, 9.798536e+004
3.163479e+002, 9.788806e+004
3.168300e+002, 9.779322e+004
3.173121e+002, 9.778052e+004
3.177943e+002, 9.784720e+004
3.182764e+002, 9.792088e+004
3.187585e+002, 9.795136e+004
3.192406e+002, 9.795019e+004
3.197227e+002, 9.797638e+004
3.202048e+002, 9.804816e+004
3.206870e+002, 9.812887e+004
3.211691e+002, 9.820454e+004
3.216512e+002, 9.827417e+004
3.221333e+002, 9.833646e+004
3.226154e+002, 9.839352e+004
3.230975e+002, 9.843904e+004
3.235797e+002, 9.845114e+004
3.240618e+002, 9.840677e+004
3.245439e+002, 9.838458e+004
3.250260e+002, 9.841573e+004
3.255081e+002, 9.848746e+004
3.259902e+002, 9.858405e+004
3.264724e+002, 9.870676e+004
3.269545e+002, 9.883055e+004
3.274366e+002, 9.890792e+004
3.279187e+002, 9.892840e+004
3.284008e+002, 9.897092e+004
3.288829e+002, 9.906548e+004
3.293651e+002, 9.918170e+004
3.298472e+002, 9.928863e+004
3.303293e+002, 9.938066e+004
3.308114e+002, 9.945627e+004
3.312935e+002, 9.950555e+004
3.317756e+002, 9.952561e+004
3.322578e+002, 9.957856e+004
3.327399e+002, 9.967211e+004
3.332220e+002, 9.979359e+004
3.337041e+002, 9.994430e+004
3.341862e+002, 1.001190e+005
3.346683e+002, 1.002986e+005
3.351505e+002, 1.004757e+005
3.356326e+002, 1.006451e+005
3.361147e+002, 1.007756e+005
3.365968e+002, 1.008556e+005
3.370789e+002, 1.009164e+005
3.375610e+002, 1.009652e+005
3.380432e+002, 1.010052e+005
3.385253e+002, 1.010461e+005
3.390074e+002, 1.010953e+005
3.394895e+002, 1.011417e+005
3.399716e+002, 1.011477e+005
3.404537e+002, 1.010695e+005
3.409359e+002, 1.010364e+005
3.414180e+002, 1.011064e+005
3.419001e+002, 1.012230e+005
3.423822e+002, 1.013160e+005
3.428643e+002, 1.013649e+005
3.433464e+002, 1.013884e+005
3.438286e+002, 1.014100e+005
3.443107e+002, 1.014275e+005
3.447928e+002, 1.014497e+005
3.452749e+002, 1.014731e+005
3.457570e+002, 1.015032e+005
3.462391e+002, 1.015522e+005
3.467213e+002, 1.016168e+005
3.472034e+002, 1.016753e+005
3.476855e+002, 1.017091e+005
3.481676e+002, 1.017175e+005
3.486497e+002, 1.017059e+005
3.491318e+002, 1.016536e+005
3.496140e+002, 1.016066e+005
3.500961e+002, 1.015814e+005
3.505782e+002, 1.015774e+005
3.510603e+002, 1.015936e+005
3.515424e+002, 1.016319e+005
3.520245e+002, 1.016846e+005
3.525067e+002, 1.017180e+005
3.529888e+002, 1.016898e+005
3.534709e+002, 1.016943e+005
3.539530e+002, 1.017494e+005
3.544351e+002, 1.018401e+005
3.549172e+002, 1.019646e+005
3.553994e+002, 1.021196e+005
3.558815e+002, 1.022690e+005
3.563636e+002, 1.023493e+005
3.568457e+002, 1.023095e+005
3.573278e+002, 1.023004e+005
3.578099e+002, 1.023183e+005
3.582920e+002, 1.023652e+005
3.587741e+002, 1.024561e+005
3.592563e+002, 1.025836e+005
3.597384e+002, 1.027159e+005
3.602205e+002, 1.028254e+005
3.607026e+002, 1.029133e+005
3.611847e+002, 1.029637e+005
3.616668e+002, 1.029407e+005
3.621490e+002, 1.029203e+005
3.626311e+002, 1.029233e+005
3.631132e+002, 1.029479e+005
3.635953e+002, 1.029873e+005
3.640774e+002, 1.030374e+005
3.645595e+002, 1.030978e+005
3.650417e+002, 1.031661e+005
3.655238e+002, 1.032448e+005
3.660059e+002, 1.033284e+005
3.664880e+002, 1.034110e+005
3.669701e+002, 1.034996e+005
3.674522e+002, 1.036109e+005
3.679344e+002, 1.037469e+005
3.684165e+002, 1.038807e+005
3.688986e+002, 1.039725e+005
3.693807e+002, 1.040197e+005
3.698628e+002, 1.040289e+005
3.703449e+002, 1.039604e+005
3.708271e+002, 1.038909e+005
3.713092e+002, 1.038588e+005
3.717913e+002, 1.038655e+005
3.722734e+002, 1.038915e+005
3.727555e+002, 1.039218e+005
3.732376e+002, 1.039568e+005
3.737198e+002, 1.039973e+005
3.742019e+002, 1.040333e+005
3.746840e+002, 1.040906e+005
3.751661e+002, 1.042084e+005
3.756482e+002, 1.043450e+005
3.761303e+002, 1.044306e+005
3.766125e+002, 1.044228e+005
3.770946e+002, 1.043656e+005
3.775767e+002, 1.043547e+005
3.780588e+002, 1.043975e+005
3.785409e+002, 1.044660e+005
3.790230e+002, 1.045757e+005
3.795052e+002, 1.046926e+005
3.799873e+002, 1.047875e+005
3.804694e+002, 1.048545e+005
3.809515e+002, 1.049180e+005
3.814336e+002, 1.050087e+005
3.819157e+002, 1.051255e+005
3.823979e+002, 1.052189e+005
3.828800e+002, 1.052550e+005
3.833621e+002, 1.052989e+005
3.838442e+002, 1.054092e+005
3.843263e+002, 1.055665e+005
3.848084e+002, 1.057040e+005
3.852906e+002, 1.057681e+005
3.857727e+002, 1.057891e+005
3.862548e+002, 1.058448e+005
3.867369e+002, 1.059499e+005
3.872190e+002, 1.060351e+005
3.877011e+002, 1.060287e+005
3.881833e+002, 1.059865e+005
3.886654e+002, 1.059887e+005
3.891475e+002, 1.060606e+005
3.896296e+002, 1.061620e+005
3.901117e+002, 1.062788e+005
3.905938e+002, 1.064051e+005
3.910760e+002, 1.064810e+005
3.915581e+002, 1.064599e+005
3.920402e+002, 1.064151e+005
3.925223e+002, 1.064633e+005
3.930044e+002, 1.066140e+005
3.934865e+002, 1.067308e+005
3.939687e+002, 1.067266e+005
3.944508e+002, 1.066669e+005
3.949329e+002, 1.066562e+005
3.954150e+002, 1.067118e+005
3.958971e+002, 1.067903e+005
3.963792e+002, 1.068521e+005
3.968614e+002, 1.069012e+005
3.973435e+002, 1.069799e+005
3.978256e+002, 1.071058e+005
3.983077e+002, 1.072477e+005
3.987898e+002, 1.074070e+005
3.992719e+002, 1.075696e+005
3.997540e+002, 1.076825e+005
4.002361e+002, 1.077099e+005
4.007183e+002, 1.076854e+005
4.012004e+002, 1.077100e+005
4.016825e+002, 1.078147e+005
4.021646e+002, 1.079049e+005
4.026467e+002, 1.079395e+005
4.031288e+002, 1.079625e+005
4.036110e+002, 1.080314e+005
4.040931e+002, 1.081571e+005
4.045752e+002, 1.083000e+005
4.050573e+002, 1.084159e+005
4.055394e+002, 1.085012e+005
4.060215e+002, 1.085709e+005
4.065037e+002, 1.086247e+005
4.069858e+002, 1.086661e+005
4.074679e+002, 1.086859e+005
4.079500e+002, 1.086946e+005
4.084321e+002, 1.087127e+005
4.089142e+002, 1.087519e+005
4.093964e+002, 1.088134e+005
4.098785e+002, 1.089037e+005
4.103606e+002, 1.090747e+005
4.108427e+002, 1.092049e+005
4.113248e+002, 1.092498e+005
4.118069e+002, 1.092684e+005
4.122891e+002, 1.093175e+005
4.127712e+002, 1.094112e+005
4.132533e+002, 1.095245e+005
4.137354e+002, 1.096239e+005
4.142175e+002, 1.097038e+005
4.146996e+002, 1.097932e+005
4.151818e+002, 1.099168e+005
4.156639e+002, 1.100268e+005
4.161460e+002, 1.100939e+005
4.166281e+002, 1.101321e+005
4.171102e+002, 1.101717e+005
4.175923e+002, 1.102267e+005
4.180745e+002, 1.103030e+005
4.185566e+002, 1.104305e+005
4.190387e+002, 1.106431e+005
4.195208e+002, 1.108305e+005
4.200029e+002, 1.109597e+005
4.204850e+002, 1.110491e+005
4.209672e+002, 1.111104e+005
4.214493e+002, 1.111462e+005
4.219314e+002, 1.111598e+005
4.224135e+002, 1.111398e+005
4.228956e+002, 1.110894e+005
4.233777e+002, 1.110683e+005
4.238599e+002, 1.110846e+005
4.243420e+002, 1.111368e+005
4.248241e+002, 1.112341e+005
4.253062e+002, 1.113658e+005
4.257883e+002, 1.114931e+005
4.262704e+002, 1.116123e+005
4.267526e+002, 1.117132e+005
4.272347e+002, 1.117606e+005
4.277168e+002, 1.117500e+005
4.281989e+002, 1.117750e+005
4.286810e+002, 1.118928e+005
4.291631e+002, 1.120779e+005
4.296453e+002, 1.122649e+005
4.301274e+002, 1.124644e+005
4.306095e+002, 1.126411e+005
4.310916e+002, 1.127724e+005
4.315737e+002, 1.128680e+005
4.320558e+002, 1.129430e+005
4.325380e+002, 1.129987e+005
4.330201e+002, 1.130465e+005
4.335022e+002, 1.130964e+005
4.339843e+002, 1.131471e+005
4.344664e+002, 1.132108e+005
4.349485e+002, 1.132868e+005
4.354307e+002, 1.133758e+005
4.359128e+002, 1.134913e+005
4.363949e+002, 1.136224e+005
4.368770e+002, 1.137355e+005
4.373591e+002, 1.138097e+005
4.378412e+002, 1.138542e+005
4.383234e+002, 1.139024e+005
4.388055e+002, 1.139548e+005
4.392876e+002, 1.140119e+005
4.397697e+002, 1.140617e+005
4.402518e+002, 1.141241e+005
4.407339e+002, 1.142315e+005
4.412160e+002, 1.143831e+005
4.416982e+002, 1.145340e+005
4.421803e+002, 1.146297e+005
4.426624e+002, 1.146613e+005
4.431445e+002, 1.147049e+005
4.436266e+002, 1.147480e+005
4.441087e+002, 1.148172e+005
4.445909e+002, 1.149401e+005
4.450730e+002, 1.150910e+005
4.455551e+002, 1.152288e+005
4.460372e+002, 1.153307e+005
4.465193e+002, 1.154126e+005
4.470014e+002, 1.155139e+005
4.474836e+002, 1.156481e+005
4.479657e+002, 1.157600e+005
4.484478e+002, 1.158244e+005
4.489299e+002, 1.158745e+005
4.494120e+002, 1.159188e+005
4.498941e+002, 1.159633e+005
4.503763e+002, 1.160293e+005
4.508584e+002, 1.161500e+005
4.513405e+002, 1.163090e+005
4.518226e+002, 1.164320e+005
4.523047e+002, 1.165072e+005
4.527868e+002, 1.165695e+005
4.532690e+002, 1.166209e+005
4.537511e+002, 1.166760e+005
4.542332e+002, 1.167640e+005
4.547153e+002, 1.169102e+005
4.551974e+002, 1.170508e+005
4.556795e+002, 1.171157e+005
4.561617e+002, 1.171244e+005
4.566438e+002, 1.171643e+005
4.571259e+002, 1.172644e+005
4.576080e+002, 1.173954e+005
4.580901e+002, 1.175328e+005
4.585722e+002, 1.176786e+005
4.590544e+002, 1.177909e+005
4.595365e+002, 1.178345e+005
4.600186e+002, 1.178623e+005
4.605007e+002, 1.179189e+005
4.609828e+002, 1.180045e+005
4.614649e+002, 1.181034e+005
4.619471e+002, 1.182110e+005
4.624292e+002, 1.183208e+005
4.629113e+002, 1.184063e+005
4.633934e+002, 1.184717e+005
4.638755e+002, 1.185100e+005
4.643576e+002, 1.184789e+005
4.648398e+002, 1.184422e+005
4.653219e+002, 1.184699e+005
4.658040e+002, 1.185723e+005
4.662861e+002, 1.187056e+005
4.667682e+002, 1.188245e+005
4.672503e+002, 1.189289e+005
4.677325e+002, 1.190216e+005
4.682146e+002, 1.190878e+005
4.686967e+002, 1.191564e+005
4.691788e+002, 1.192204e+005
4.696609e+002, 1.192949e+005
4.701430e+002, 1.194097e+005
4.706252e+002, 1.195801e+005
4.711073e+002, 1.197655e+005
4.715894e+002, 1.198914e+005
4.720715e+002, 1.199459e+005
4.725536e+002, 1.199955e+005
4.730357e+002, 1.200508e+005
4.735179e+002, 1.201033e+005
4.740000e+002, 1.201462e+005
4.744821e+002, 1.201819e+005
4.749642e+002, 1.202194e+005
4.754463e+002, 1.202663e+005
4.759284e+002, 1.203182e+005
4.764106e+002, 1.203595e+005
4.768927e+002, 1.203850e+005
4.773748e+002, 1.204322e+005
4.778569e+002, 1.205233e+005
4.783390e+002, 1.206459e+005
4.788211e+002, 1.207843e+005
4.793033e+002, 1.209474e+005
4.797854e+002, 1.210890e+005
4.802675e+002, 1.211548e+005
4.807496e+002, 1.211907e+005
4.812317e+002, 1.212928e+005
4.817138e+002, 1.214804e+005
4.821959e+002, 1.216756e+005
4.826780e+002, 1.218134e+005
4.831602e+002, 1.218911e+005
4.836423e+002, 1.219502e+005
4.841244e+002, 1.219672e+005
4.846065e+002, 1.219914e+005
4.850886e+002, 1.220420e+005
4.855707e+002, 1.221137e+005
4.860529e+002, 1.221998e+005
4.865350e+002, 1.222978e+005
4.870171e+002, 1.223989e+005
4.874992e+002, 1.224875e+005
4.879813e+002, 1.225608e+005
4.884634e+002, 1.226310e+005
4.889456e+002, 1.226781e+005
4.894277e+002, 1.227417e+005
4.899098e+002, 1.228575e+005
4.903919e+002, 1.230051e+005
4.908740e+002, 1.231338e+005
4.913561e+002, 1.232094e+005
4.918383e+002, 1.232570e+005
4.923204e+002, 1.233471e+005
4.928025e+002, 1.234934e+005
4.932846e+002, 1.236445e+005
4.937667e+002, 1.237859e+005
4.942488e+002, 1.239305e+005
4.947310e+002, 1.240968e+005
4.952131e+002, 1.242807e+005
4.956952e+002, 1.244483e+005
4.961773e+002, 1.245678e+005
4.966594e+002, 1.246525e+005
4.971415e+002, 1.247360e+005
4.976237e+002, 1.248170e+005
4.981058e+002, 1.249026e+005
4.985879e+002, 1.249906e+005
4.990700e+002, 1.250894e+005
4.995521e+002, 1.252099e+005
5.000342e+002, 1.253475e+005
5.005164e+002, 1.255196e+005
5.009985e+002, 1.257517e+005
5.014806e+002, 1.260205e+005
5.019627e+002, 1.262968e+005
5.024448e+002, 1.265746e+005
5.029269e+002, 1.268330e+005
5.034091e+002, 1.270491e+005
5.038912e+002, 1.272228e+005
5.043733e+002, 1.273904e+005
5.048554e+002, 1.275315e+005
5.053375e+002, 1.276902e+005
5.058196e+002, 1.278907e+005
5.063018e+002, 1.281170e+005
5.067839e+002, 1.283495e+005
5.072660e+002, 1.285799e+005
5.077481e+002, 1.287974e+005
5.082302e+002, 1.289770e+005
5.087123e+002, 1.290967e+005
5.091945e+002, 1.292590e+005
5.096766e+002, 1.295372e+005
5.101587e+002, 1.297841e+005
5.106408e+002, 1.299458e+005
5.111229e+002, 1.300349e+005
5.116050e+002, 1.300725e+005
5.120872e+002, 1.300584e+005
5.125693e+002, 1.300342e+005
5.130514e+002, 1.300827e+005
5.135335e+002, 1.302142e+005
5.140156e+002, 1.303439e+005
5.144977e+002, 1.304852e+005
5.149799e+002, 1.305847e+005
5.154620e+002, 1.305921e+005
5.159441e+002, 1.305167e+005
5.164262e+002, 1.304229e+005
5.169083e+002, 1.303095e+005
5.173904e+002, 1.302075e+005
5.178726e+002, 1.301629e+005
5.183547e+002, 1.301729e+005
5.188368e+002, 1.301939e+005
5.193189e+002, 1.302038e+005
5.198010e+002, 1.302138e+005
5.202831e+002, 1.302555e+005
5.207653e+002, 1.303488e+005
5.212474e+002, 1.304098e+005
5.217295e+002, 1.304074e+005
5.222116e+002, 1.303783e+005
5.226937e+002, 1.303416e+005
5.231758e+002, 1.303064e+005
5.236580e+002, 1.302858e+005
5.241401e+002, 1.302868e+005
5.246222e+002, 1.303140e+005
5.251043e+002, 1.303982e+005
5.255864e+002, 1.306253e+005
5.260685e+002, 1.307845e+005
5.265507e+002, 1.308167e+005
5.270328e+002, 1.308076e+005
5.275149e+002, 1.308256e+005
5.279970e+002, 1.308786e+005
5.284791e+002, 1.309327e+005
5.289612e+002, 1.309593e+005
5.294434e+002, 1.309618e+005
5.299255e+002, 1.309565e+005
5.304076e+002, 1.309339e+005
5.308897e+002, 1.309272e+005
5.313718e+002, 1.309519e+005
5.318539e+002, 1.310005e+005
5.323361e+002, 1.310685e+005
5.328182e+002, 1.311560e+005
5.333003e+002, 1.312600e+005
5.337824e+002, 1.314034e+005
5.342645e+002, 1.315577e+005
5.347466e+002, 1.316461e+005
5.352288e+002, 1.316534e+005
5.357109e+002, 1.316755e+005
5.361930e+002, 1.317999e+005
5.366751e+002, 1.320026e+005
5.371572e+002, 1.321316e+005
5.376393e+002, 1.321172e+005
5.381215e+002, 1.321212e+005
5.386036e+002, 1.321961e+005
5.390857e+002, 1.323112e+005
5.395678e+002, 1.324350e+005
5.400499e+002, 1.325575e+005
5.405320e+002, 1.326764e+005
5.410142e+002, 1.327906e+005
5.414963e+002, 1.329005e+005
5.419784e+002, 1.329844e+005
5.424604e+002, 1.330045e+005
5.429426e+002, 1.330419e+005
5.434247e+002, 1.331240e+005
5.439068e+002, 1.332255e+005
5.443889e+002, 1.333138e+005
5.448710e+002, 1.333811e+005
5.453531e+002, 1.334511e+005
5.458353e+002, 1.335587e+005
5.463174e+002, 1.336991e+005
5.467995e+002, 1.338101e+005
5.472816e+002, 1.338817e+005
5.477637e+002, 1.339377e+005
5.482458e+002, 1.339736e+005
5.487280e+002, 1.340077e+005
5.492101e+002, 1.340718e+005
5.496922e+002, 1.341745e+005
5.501743e+002, 1.343012e+005
5.506564e+002, 1.344736e+005
5.511385e+002, 1.346590e+005
5.516207e+002, 1.347798e+005
5.521028e+002, 1.348188e+005
5.525849e+002, 1.348405e+005
5.530670e+002, 1.349109e+005
5.535491e+002, 1.350308e+005
5.540313e+002, 1.350907e+005
5.545134e+002, 1.350105e+005
5.549955e+002, 1.349766e+005
5.554776e+002, 1.350753e+005
5.559597e+002, 1.352331e+005
5.564418e+002, 1.353547e+005
5.569240e+002, 1.354178e+005
5.574061e+002, 1.354695e+005
5.578882e+002, 1.355655e+005
5.583703e+002, 1.357064e+005
5.588524e+002, 1.358445e+005
5.593345e+002, 1.359833e+005
5.598167e+002, 1.361090e+005
5.602988e+002, 1.362262e+005
5.607809e+002, 1.363241e+005
5.612630e+002, 1.363847e+005
5.617451e+002, 1.364005e+005
5.622272e+002, 1.364039e+005
5.627094e+002, 1.364052e+005
5.631915e+002, 1.364151e+005
5.636736e+002, 1.364865e+005
5.641557e+002, 1.366412e+005
5.646378e+002, 1.367754e+005
5.651199e+002, 1.367999e+005
5.656021e+002, 1.367421e+005
5.660842e+002, 1.367312e+005
5.665663e+002, 1.367746e+005
5.670484e+002, 1.368552e+005
5.675305e+002, 1.370011e+005
5.680126e+002, 1.371662e+005
5.684948e+002, 1.372972e+005
5.689769e+002, 1.373833e+005
5.694590e+002, 1.374363e+005
5.699411e+002, 1.374595e+005
5.704232e+002, 1.374570e+005
5.709053e+002, 1.374965e+005
5.713875e+002, 1.376230e+005
5.718696e+002, 1.377327e+005
5.723517e+002, 1.377911e+005
5.728338e+002, 1.378382e+005
5.733159e+002, 1.379128e+005
5.737980e+002, 1.380198e+005
5.742802e+002, 1.381344e+005
5.747623e+002, 1.382312e+005
5.752444e+002, 1.383172e+005
5.757265e+002, 1.384299e+005
5.762086e+002, 1.385818e+005
5.766907e+002, 1.387051e+005
5.771729e+002, 1.387346e+005
5.776550e+002, 1.387347e+005
5.781371e+002, 1.388083e+005
5.786192e+002, 1.389684e+005
5.791013e+002, 1.391514e+005
5.795834e+002, 1.393698e+005
5.800656e+002, 1.395767e+005
5.805477e+002, 1.397049e+005
5.810298e+002, 1.397601e+005
5.815119e+002, 1.398088e+005
5.819940e+002, 1.398892e+005
5.824761e+002, 1.400007e+005
5.829583e+002, 1.401435e+005
5.834404e+002, 1.403530e+005
5.839225e+002, 1.405389e+005
5.844046e+002, 1.407223e+005
5.848867e+002, 1.408638e+005
5.853688e+002, 1.409024e+005
5.858510e+002, 1.408714e+005
5.863331e+002, 1.408757e+005
5.868152e+002, 1.409909e+005
5.872973e+002, 1.411625e+005
5.877794e+002, 1.412581e+005
5.882615e+002, 1.412637e+005
5.887437e+002, 1.412858e+005
5.892258e+002, 1.413480e+005
5.897079e+002, 1.414382e+005
5.901900e+002, 1.415573e+005
5.906721e+002, 1.416984e+005
5.911542e+002, 1.418144e+005
5.916364e+002, 1.418781e+005
5.921185e+002, 1.419230e+005
5.926006e+002, 1.419662e+005
5.930827e+002, 1.420138e+005
5.935648e+002, 1.420879e+005
5.940469e+002, 1.421990e+005
5.945291e+002, 1.423178e+005
5.950112e+002, 1.424005e+005
5.954933e+002, 1.424330e+005
5.959754e+002, 1.424996e+005
5.964575e+002, 1.426485e+005
5.969396e+002, 1.427752e+005
5.974218e+002, 1.428173e+005
5.979039e+002, 1.428244e+005
5.983860e+002, 1.428623e+005
5.988681e+002, 1.429544e+005
5.993502e+002, 1.430919e+005
5.998323e+002, 1.432776e+005
6.003145e+002, 1.435095e+005
6.007966e+002, 1.437308e+005
6.012787e+002, 1.439469e+005
6.017608e+002, 1.441303e+005
6.022429e+002, 1.442273e+005
6.027250e+002, 1.442905e+005
6.032072e+002, 1.444038e+005
6.036893e+002, 1.445967e+005
6.041714e+002, 1.447800e+005
6.046535e+002, 1.449031e+005
6.051356e+002, 1.449918e+005
6.056177e+002, 1.450838e+005
6.060999e+002, 1.451828e+005
6.065820e+002, 1.452701e+005
6.070641e+002, 1.453296e+005
6.075462e+002, 1.453697e+005
6.080283e+002, 1.454289e+005
6.085104e+002, 1.454962e+005
6.089926e+002, 1.456030e+005
6.094747e+002, 1.457831e+005
6.099568e+002, 1.459764e+005
6.104389e+002, 1.461558e+005
6.109210e+002, 1.463112e+005
6.114031e+002, 1.464262e+005
6.118853e+002, 1.464796e+005
6.123674e+002, 1.465052e+005
6.128495e+002, 1.465786e+005
6.133316e+002, 1.467056e+005
6.138137e+002, 1.468213e+005
6.142958e+002, 1.469038e+005
6.147780e+002, 1.469787e+005
6.152601e+002, 1.470695e+005
6.157422e+002, 1.471748e+005
6.162243e+002, 1.472903e+005
6.167064e+002, 1.474325e+005
6.171885e+002, 1.475667e+005
6.176707e+002, 1.476554e+005
6.181528e+002, 1.477221e+005
6.186349e+002, 1.478216e+005
6.191170e+002, 1.479686e+005
6.195991e+002, 1.481185e+005
6.200812e+002, 1.482103e+005
6.205634e+002, 1.482352e+005
6.210455e+002, 1.483342e+005
6.215276e+002, 1.485808e+005
6.220097e+002, 1.488138e+005
6.224918e+002, 1.490015e+005
6.229739e+002, 1.491579e+005
6.234561e+002, 1.492929e+005
6.239382e+002, 1.494097e+005
6.244203e+002, 1.495168e+005
6.249023e+002, 1.496097e+005
6.253845e+002, 1.496998e+005
6.258666e+002, 1.498367e+005
6.263487e+002, 1.500298e+005
6.268308e+002, 1.501624e+005
6.273129e+002, 1.501490e+005
6.277950e+002, 1.500758e+005
6.282772e+002, 1.501183e+005
6.287593e+002, 1.503007e+005
6.292414e+002, 1.504550e+005
6.297235e+002, 1.505110e+005
6.302056e+002, 1.505720e+005
6.306877e+002, 1.507253e+005
6.311699e+002, 1.509414e+005
6.316520e+002, 1.511454e+005
6.321341e+002, 1.513019e+005
6.326162e+002, 1.514257e+005
6.330983e+002, 1.515398e+005
6.335804e+002, 1.516465e+005
6.340626e+002, 1.517352e+005
6.345447e+002, 1.517913e+005
6.350268e+002, 1.518480e+005
6.355089e+002, 1.519042e+005
6.359910e+002, 1.519756e+005
6.364731e+002, 1.520927e+005
6.369553e+002, 1.522704e+005
6.374374e+002, 1.524568e+005
6.379195e+002, 1.526199e+005
6.384016e+002, 1.527633e+005
6.388837e+002, 1.529011e+005
6.393658e+002, 1.530328e+005
6.398480e+002, 1.531261e+005
6.403301e+002, 1.531489e+005
6.408122e+002, 1.531286e+005
6.412943e+002, 1.531593e+005
6.417764e+002, 1.532993e+005
6.422585e+002, 1.534030e+005
6.427407e+002, 1.533930e+005
6.432228e+002, 1.534140e+005
6.437049e+002, 1.535999e+005
6.441870e+002, 1.538937e+005
6.446691e+002, 1.541386e+005
6.451512e+002, 1.542485e+005
6.456334e+002, 1.542897e+005
6.461155e+002, 1.543650e+005
6.465976e+002, 1.544745e+005
6.470797e+002, 1.545736e+005
6.475618e+002, 1.546429e+005
6.480439e+002, 1.547313e+005
6.485261e+002, 1.549112e+005
6.490082e+002, 1.551414e+005
6.494903e+002, 1.552799e+005
6.499724e+002, 1.552279e+005
6.504545e+002, 1.552202e+005
6.509366e+002, 1.554229e+005
6.514188e+002, 1.556783e+005
6.519009e+002, 1.557692e+005
6.523830e+002, 1.556938e+005
6.528651e+002, 1.556224e+005
6.533472e+002, 1.556815e+005
6.538293e+002, 1.558393e+005
6.543115e+002, 1.559808e+005
6.547936e+002, 1.560909e+005
6.552757e+002, 1.562170e+005
6.557578e+002, 1.563939e+005
6.562399e+002, 1.565624e+005
6.567220e+002, 1.566685e+005
6.572042e+002, 1.567369e+005
6.576863e+002, 1.568521e+005
6.581684e+002, 1.570919e+005
6.586505e+002, 1.573170e+005
6.591326e+002, 1.573651e+005
6.596147e+002, 1.572946e+005
6.600969e+002, 1.572691e+005
6.605790e+002, 1.573245e+005
6.610611e+002, 1.574056e+005
6.615432e+002, 1.574620e+005
6.620253e+002, 1.575002e+005
6.625074e+002, 1.575825e+005
6.629896e+002, 1.577714e+005
6.634717e+002, 1.579239e+005
6.639538e+002, 1.580013e+005
6.644359e+002, 1.580603e+005
6.649180e+002, 1.581275e+005
6.654001e+002, 1.582173e+005
6.658823e+002, 1.583593e+005
6.663644e+002, 1.585953e+005
6.668465e+002, 1.588561e+005
6.673286e+002, 1.590146e+005
6.678107e+002, 1.590730e+005
6.682928e+002, 1.590975e+005
6.687750e+002, 1.590780e+005
6.692571e+002, 1.590870e+005
6.697392e+002, 1.592132e+005
6.702213e+002, 1.594423e+005
6.707034e+002, 1.596127e+005
6.711855e+002, 1.596609e+005
6.716677e+002, 1.597230e+005
6.721498e+002, 1.598636e+005
6.726319e+002, 1.600243e+005
6.731140e+002, 1.601334e+005
6.735961e+002, 1.601897e+005
6.740782e+002, 1.602529e+005
6.745604e+002, 1.603738e+005
6.750425e+002, 1.605270e+005
6.755246e+002, 1.606252e+005
6.760067e+002, 1.606530e+005
6.764888e+002, 1.606947e+005
6.769709e+002, 1.607596e+005
6.774531e+002, 1.608543e+005
6.779352e+002, 1.610060e+005
6.784173e+002, 1.611945e+005
6.788994e+002, 1.613424e+005
6.793815e+002, 1.614126e+005
6.798636e+002, 1.614652e+005
6.803458e+002, 1.615233e+005
6.808279e+002, 1.615918e+005
6.813100e+002, 1.616772e+005
6.817921e+002, 1.617810e+005
6.822742e+002, 1.619134e+005
6.827563e+002, 1.620910e+005
6.832385e+002, 1.622934e+005
6.837206e+002, 1.624152e+005
6.842027e+002, 1.624035e+005
6.846848e+002, 1.624240e+005
6.851669e+002, 1.625084e+005
6.856490e+002, 1.626204e+005
6.861312e+002, 1.627603e+005
6.866133e+002, 1.629111e+005
6.870954e+002, 1.630294e+005
6.875775e+002, 1.630904e+005
6.880596e+002, 1.631285e+005
6.885417e+002, 1.631443e+005
6.890239e+002, 1.631654e+005
6.895060e+002, 1.632748e+005
6.899881e+002, 1.634859e+005
6.904702e+002, 1.637005e+005
6.909523e+002, 1.638448e+005
6.914344e+002, 1.639286e+005
6.919166e+002, 1.639985e+005
6.923987e+002, 1.640244e+005
6.928808e+002, 1.640869e+005
6.933629e+002, 1.642345e+005
6.938450e+002, 1.643762e+005
6.943271e+002, 1.644376e+005
6.948093e+002, 1.644479e+005
6.952914e+002, 1.644893e+005
6.957735e+002, 1.646010e+005
6.962556e+002, 1.647428e+005
6.967377e+002, 1.648812e+005
6.972198e+002, 1.650122e+005
6.977020e+002, 1.651187e+005
6.981841e+002, 1.651946e+005
6.986662e+002, 1.652800e+005
6.991483e+002, 1.654082e+005
6.996304e+002, 1.655643e+005
7.001125e+002, 1.656896e+005
7.005947e+002, 1.657823e+005
7.010768e+002, 1.658465e+005
7.015589e+002, 1.658446e+005
7.020410e+002, 1.658515e+005
7.025231e+002, 1.659249e+005
7.030052e+002, 1.660427e+005
7.034874e+002, 1.661418e+005
7.039695e+002, 1.661905e+005
7.044516e+002, 1.662569e+005
7.049337e+002, 1.664611e+005
7.054158e+002, 1.667636e+005
7.058979e+002, 1.669517e+005
7.063801e+002, 1.669876e+005
7.068622e+002, 1.670322e+005
7.073442e+002, 1.671878e+005
7.078264e+002, 1.674070e+005
7.083085e+002, 1.675693e+005
7.087906e+002, 1.676480e+005
7.092727e+002, 1.677367e+005
7.097548e+002, 1.678393e+005
7.102369e+002, 1.679540e+005
7.107191e+002, 1.680795e+005
7.112012e+002, 1.682153e+005
7.116833e+002, 1.683628e+005
7.121654e+002, 1.685231e+005
7.126475e+002, 1.686865e+005
7.131296e+002, 1.688468e+005
7.136118e+002, 1.690028e+005
7.140939e+002, 1.691544e+005
7.145760e+002, 1.693060e+005
7.150581e+002, 1.694187e+005
7.155402e+002, 1.694358e+005
7.160223e+002, 1.694445e+005
7.165045e+002, 1.696210e+005
7.169866e+002, 1.700053e+005
7.174687e+002, 1.702987e+005
7.179508e+002, 1.704245e+005
7.184329e+002, 1.705082e+005
7.189150e+002, 1.705943e+005
7.193972e+002, 1.706841e+005
7.198793e+002, 1.707630e+005
7.203614e+002, 1.708320e+005
7.208435e+002, 1.709273e+005
7.213256e+002, 1.710992e+005
7.218077e+002, 1.713229e+005
7.222899e+002, 1.714977e+005
7.227720e+002, 1.716188e+005
7.232541e+002, 1.717341e+005
7.237362e+002, 1.718570e+005
7.242183e+002, 1.719819e+005
7.247004e+002, 1.721045e+005
7.251826e+002, 1.722257e+005
7.256647e+002, 1.723350e+005
7.261468e+002, 1.724152e+005
7.266289e+002, 1.725059e+005
7.271110e+002, 1.726032e+005
7.275931e+002, 1.727305e+005
7.280753e+002, 1.729219e+005
7.285574e+002, 1.731737e+005
7.290395e+002, 1.734527e+005
7.295216e+002, 1.737471e+005
7.300037e+002, 1.740288e+005
7.304858e+002, 1.742219e+005
7.309680e+002, 1.743225e+005
7.314501e+002, 1.744354e+005
7.319322e+002, 1.745959e+005
7.324143e+002, 1.747340e+005
7.328964e+002, 1.747696e+005
7.333785e+002, 1.747290e+005
7.338607e+002, 1.747557e+005
7.343428e+002, 1.748625e+005
7.348249e+002, 1.750135e+005
7.353070e+002, 1.752492e+005
7.357891e+002, 1.754879e+005
7.362712e+002, 1.756523e+005
7.367534e+002, 1.757607e+005
7.372355e+002, 1.758892e+005
7.377176e+002, 1.760805e+005
7.381997e+002, 1.762703e+005
7.386818e+002, 1.763398e+005
7.391639e+002, 1.763062e+005
7.396461e+002, 1.763364e+005
7.401282e+002, 1.764485e+005
7.406103e+002, 1.766074e+005
7.410924e+002, 1.768196e+005
7.415745e+002, 1.770488e+005
7.420566e+002, 1.772003e+005
7.425388e+002, 1.772320e+005
7.430209e+002, 1.773398e+005
7.435030e+002, 1.776175e+005
7.439851e+002, 1.778947e+005
7.444672e+002, 1.780858e+005
7.449493e+002, 1.782155e+005
7.454315e+002, 1.783120e+005
7.459136e+002, 1.783903e+005
7.463957e+002, 1.784982e+005
7.468778e+002, 1.787066e+005
7.473599e+002, 1.789754e+005
7.478420e+002, 1.791702e+005
7.483242e+002, 1.792889e+005
7.488063e+002, 1.794262e+005
7.492884e+002, 1.796297e+005
7.497705e+002, 1.798210e+005
7.502526e+002, 1.798910e+005
7.507347e+002, 1.798282e+005
7.512169e+002, 1.798559e+005
7.516990e+002, 1.800678e+005
7.521811e+002, 1.802400e+005
7.526632e+002, 1.802898e+005
7.531453e+002, 1.803043e+005
7.536274e+002, 1.803543e+005
7.541096e+002, 1.804475e+005
7.545917e+002, 1.805657e+005
7.550738e+002, 1.807026e+005
7.555559e+002, 1.808532e+005
7.560380e+002, 1.810090e+005
7.565201e+002, 1.811724e+005
7.570023e+002, 1.813647e+005
7.574844e+002, 1.815945e+005
7.579665e+002, 1.817749e+005
7.584486e+002, 1.818227e+005
7.589307e+002, 1.817961e+005
7.594128e+002, 1.818931e+005
7.598950e+002, 1.821902e+005
7.603771e+002, 1.824743e+005
7.608592e+002, 1.827899e+005
7.613413e+002, 1.830446e+005
7.618234e+002, 1.831523e+005
7.623055e+002, 1.831845e+005
7.627877e+002, 1.832483e+005
7.632698e+002, 1.833725e+005
7.637519e+002, 1.835368e+005
7.642340e+002, 1.837446e+005
7.647161e+002, 1.839737e+005
7.651982e+002, 1.842046e+005
7.656804e+002, 1.844294e+005
7.661625e+002, 1.846023e+005
7.666446e+002, 1.847043e+005
7.671267e+002, 1.847761e+005
7.676088e+002, 1.848673e+005
7.680909e+002, 1.849786e+005
7.685731e+002, 1.851056e+005
7.690552e+002, 1.852492e+005
7.695373e+002, 1.854077e+005
7.700194e+002, 1.856132e+005
7.705015e+002, 1.858065e+005
7.709836e+002, 1.859205e+005
7.714658e+002, 1.859713e+005
7.719479e+002, 1.860529e+005
7.724300e+002, 1.862305e+005
7.729121e+002, 1.864045e+005
7.733942e+002, 1.864766e+005
7.738763e+002, 1.865132e+005
7.743585e+002, 1.866349e+005
7.748406e+002, 1.868429e+005
7.753227e+002, 1.870320e+005
7.758048e+002, 1.871305e+005
7.762869e+002, 1.871851e+005
7.767690e+002, 1.873082e+005
7.772512e+002, 1.875119e+005
7.777333e+002, 1.877157e+005
7.782154e+002, 1.879240e+005
7.786975e+002, 1.881170e+005
7.791796e+002, 1.882704e+005
7.796617e+002, 1.884067e+005
7.801439e+002, 1.885631e+005
7.806260e+002, 1.887479e+005
7.811081e+002, 1.889196e+005
7.815902e+002, 1.890463e+005
7.820723e+002, 1.891756e+005
7.825544e+002, 1.893390e+005
7.830366e+002, 1.895246e+005
7.835187e+002, 1.897111e+005
7.840008e+002, 1.898918e+005
7.844829e+002, 1.900689e+005
7.849650e+002, 1.902445e+005
7.854471e+002, 1.904180e+005
7.859293e+002, 1.905813e+005
7.864114e+002, 1.907328e+005
7.868935e+002, 1.909155e+005
7.873756e+002, 1.911512e+005
7.878577e+002, 1.913849e+005
7.883398e+002, 1.915443e+005
7.888220e+002, 1.916498e+005
7.893040e+002, 1.918661e+005
7.897861e+002, 1.923467e+005
7.902682e+002, 1.927157e+005
7.907504e+002, 1.928986e+005
7.912325e+002, 1.930068e+005
7.917146e+002, 1.930579e+005
7.921967e+002, 1.931033e+005
7.926788e+002, 1.932497e+005
7.931609e+002, 1.935483e+005
7.936431e+002, 1.938338e+005
7.941252e+002, 1.939436e+005
7.946073e+002, 1.939485e+005
7.950894e+002, 1.939684e+005
7.955715e+002, 1.940097e+005
7.960536e+002, 1.940517e+005
7.965358e+002, 1.940832e+005
7.970179e+002, 1.941380e+005
7.975000e+002, 1.942752e+005
7.979821e+002, 1.945013e+005
7.984642e+002, 1.946346e+005
7.989464e+002, 1.945847e+005
7.994285e+002, 1.946055e+005
7.999106e+002, 1.948534e+005
8.003927e+002, 1.951205e+005
8.008748e+002, 1.952279e+005
8.013569e+002, 1.952081e+005
8.018391e+002, 1.952350e+005
8.023212e+002, 1.953407e+005
8.028033e+002, 1.955238e+005
8.032854e+002, 1.958271e+005
8.037675e+002, 1.961815e+005
8.042496e+002, 1.965408e+005
8.047318e+002, 1.968741e+005
8.052139e+002, 1.971115e+005
8.056960e+002, 1.972091e+005
8.061781e+002, 1.972541e+005
8.066602e+002, 1.973877e+005
8.071423e+002, 1.976030e+005
8.076245e+002, 1.978044e+005
8.081066e+002, 1.979900e+005
8.085887e+002, 1.981517e+005
8.090708e+002, 1.982798e+005
8.095529e+002, 1.983882e+005
8.100350e+002, 1.984994e+005
8.105172e+002, 1.986178e+005
8.109993e+002, 1.987048e+005
8.114814e+002, 1.987218e+005
8.119635e+002, 1.987567e+005
8.124456e+002, 1.988114e+005
8.129277e+002, 1.989107e+005
8.134099e+002, 1.990921e+005
8.138920e+002, 1.993429e+005
8.143741e+002, 1.996075e+005
8.148562e+002, 1.998667e+005
8.153383e+002, 2.001108e+005
8.158204e+002, 2.003203e+005
8.163026e+002, 2.005068e+005
8.167847e+002, 2.006934e+005
8.172668e+002, 2.008832e+005
8.177489e+002, 2.010685e+005
8.182310e+002, 2.012420e+005
8.187131e+002, 2.014238e+005
8.191953e+002, 2.016710e+005
8.196774e+002, 2.020119e+005
8.201595e+002, 2.022221e+005
8.206416e+002, 2.022088e+005
8.211237e+002, 2.022409e+005
8.216058e+002, 2.024623e+005
8.220880e+002, 2.027468e+005
8.225701e+002, 2.029488e+005
8.230522e+002, 2.030700e+005
8.235343e+002, 2.032123e+005
8.240164e+002, 2.034502e+005
8.244985e+002, 2.036472e+005
8.249807e+002, 2.036591e+005
8.254628e+002, 2.036556e+005
8.259449e+002, 2.038798e+005
8.264270e+002, 2.042876e+005
8.269091e+002, 2.046113e+005
8.273912e+002, 2.046905e+005
8.278734e+002, 2.046779e+005
8.283555e+002, 2.047896e+005
8.288376e+002, 2.049967e+005
8.293197e+002, 2.051783e+005
8.298018e+002, 2.053227e+005
8.302839e+002, 2.054717e+005
8.307661e+002, 2.056546e+005
8.312482e+002, 2.058217e+005
8.317303e+002, 2.058759e+005
8.322124e+002, 2.057848e+005
8.326945e+002, 2.058150e+005
8.331766e+002, 2.060400e+005
8.336588e+002, 2.062816e+005
8.341409e+002, 2.065401e+005
8.346230e+002, 2.067645e+005
8.351051e+002, 2.068833e+005
8.355872e+002, 2.069222e+005
8.360693e+002, 2.070154e+005
8.365515e+002, 2.072379e+005
8.370336e+002, 2.074673e+005
8.375157e+002, 2.076367e+005
8.379978e+002, 2.077788e+005
8.384799e+002, 2.079440e+005
8.389620e+002, 2.081199e+005
8.394442e+002, 2.082405e+005
8.399263e+002, 2.082745e+005
8.404084e+002, 2.083004e+005
8.408905e+002, 2.084522e+005
8.413726e+002, 2.086979e+005
8.418547e+002, 2.088177e+005
8.423369e+002, 2.087954e+005
8.428190e+002, 2.088694e+005
8.433011e+002, 2.091493e+005
8.437832e+002, 2.094865e+005
8.442653e+002, 2.097082e+005
8.447474e+002, 2.098172e+005
8.452296e+002, 2.099360e+005
8.457117e+002, 2.100667e+005
8.461938e+002, 2.102015e+005
8.466759e+002, 2.103396e+005
8.471580e+002, 2.104805e+005
8.476401e+002, 2.106237e+005
8.481223e+002, 2.107696e+005
8.486044e+002, 2.109136e+005
8.490865e+002, 2.110455e+005
8.495686e+002, 2.112162e+005
8.500507e+002, 2.115121e+005
8.505328e+002, 2.118147e+005
8.510150e+002, 2.119943e+005
8.514971e+002, 2.120844e+005
8.519792e+002, 2.121733e+005
8.524613e+002, 2.122895e+005
8.529434e+002, 2.124165e+005
8.534255e+002, 2.125293e+005
8.539077e+002, 2.126458e+005
8.543898e+002, 2.128355e+005
8.548719e+002, 2.130983e+005
8.553540e+002, 2.133170e+005
8.558361e+002, 2.134568e+005
8.563182e+002, 2.135903e+005
8.568004e+002, 2.137650e+005
8.572825e+002, 2.139763e+005
8.577646e+002, 2.142214e+005
8.582467e+002, 2.145823e+005
8.587288e+002, 2.147924e+005
8.592109e+002, 2.146829e+005
8.596931e+002, 2.146230e+005
8.601752e+002, 2.147748e+005
8.606573e+002, 2.150290e+005
8.611394e+002, 2.152625e+005
8.616215e+002, 2.154601e+005
8.621036e+002, 2.156420e+005
8.625858e+002, 2.158701e+005
8.630679e+002, 2.160325e+005
8.635500e+002, 2.159501e+005
8.640321e+002, 2.158105e+005
8.645142e+002, 2.159190e+005
8.649963e+002, 2.162585e+005
8.654785e+002, 2.165635e+005
8.659606e+002, 2.166768e+005
8.664427e+002, 2.167036e+005
8.669248e+002, 2.167966e+005
8.674069e+002, 2.169437e+005
8.678890e+002, 2.170706e+005
8.683712e+002, 2.171700e+005
8.688533e+002, 2.173410e+005
8.693354e+002, 2.176440e+005
8.698175e+002, 2.179683e+005
8.702996e+002, 2.181583e+005
8.707817e+002, 2.182128e+005
8.712639e+002, 2.182931e+005
8.717459e+002, 2.183921e+005
8.722280e+002, 2.185290e+005
8.727101e+002, 2.187452e+005
8.731923e+002, 2.189648e+005
8.736744e+002, 2.191462e+005
8.741565e+002, 2.192958e+005
8.746386e+002, 2.194359e+005
8.751207e+002, 2.195698e+005
8.756028e+002, 2.196918e+005
8.760850e+002, 2.197925e+005
8.765671e+002, 2.198873e+005
8.770492e+002, 2.199677e+005
8.775313e+002, 2.200583e+005
8.780134e+002, 2.201991e+005
8.784955e+002, 2.203973e+005
8.789777e+002, 2.206332e+005
8.794598e+002, 2.209178e+005
8.799419e+002, 2.211992e+005
8.804240e+002, 2.213493e+005
8.809061e+002, 2.214213e+005
8.813882e+002, 2.216483e+005
8.818704e+002, 2.220552e+005
8.823525e+002, 2.223909e+005
8.828346e+002, 2.224814e+005
8.833167e+002, 2.224662e+005
8.837988e+002, 2.226565e+005
8.842809e+002, 2.230968e+005
8.847631e+002, 2.234037e+005
8.852452e+002, 2.235349e+005
8.857273e+002, 2.236349e+005
8.862094e+002, 2.237511e+005
8.866915e+002, 2.238590e+005
8.871736e+002, 2.239013e+005
8.876558e+002, 2.238883e+005
8.881379e+002, 2.239889e+005
8.886200e+002, 2.243244e+005
8.891021e+002, 2.246075e+005
8.895842e+002, 2.247315e+005
8.900663e+002, 2.248426e+005
8.905485e+002, 2.250630e+005
8.910306e+002, 2.253413e+005
8.915127e+002, 2.255604e+005
8.919948e+002, 2.256887e+005
8.924769e+002, 2.257948e+005
8.929590e+002, 2.259200e+005
8.934412e+002, 2.260490e+005
8.939233e+002, 2.261546e+005
8.944054e+002, 2.262545e+005
8.948875e+002, 2.263878e+005
8.953696e+002, 2.265597e+005
8.958517e+002, 2.267468e+005
8.963339e+002, 2.269331e+005
8.968160e+002, 2.271150e+005
8.972981e+002, 2.272728e+005
8.977802e+002, 2.274118e+005
8.982623e+002, 2.276075e+005
8.987444e+002, 2.278727e+005
8.992266e+002, 2.280998e+005
8.997087e+002, 2.282278e+005
9.001908e+002, 2.283217e+005
9.006729e+002, 2.284828e+005
9.011550e+002, 2.287148e+005
9.016371e+002, 2.289104e+005
9.021193e+002, 2.290540e+005
9.026014e+002, 2.291888e+005
9.030835e+002, 2.292927e+005
9.035656e+002, 2.294196e+005
9.040477e+002, 2.296092e+005
9.045298e+002, 2.298491e+005
9.050120e+002, 2.301140e+005
9.054941e+002, 2.304321e+005
9.059762e+002, 2.306891e+005
9.064583e+002, 2.308095e+005
9.069404e+002, 2.309140e+005
9.074225e+002, 2.310997e+005
9.079047e+002, 2.313008e+005
9.083868e+002, 2.313964e+005
9.088689e+002, 2.313890e+005
9.093510e+002, 2.314256e+005
9.098331e+002, 2.315991e+005
9.103152e+002, 2.318428e+005
9.107974e+002, 2.321200e+005
9.112795e+002, 2.324063e+005
9.117616e+002, 2.326598e+005
9.122437e+002, 2.328743e+005
9.127258e+002, 2.330440e+005
9.132079e+002, 2.331650e+005
9.136901e+002, 2.332940e+005
9.141722e+002, 2.335271e+005
9.146543e+002, 2.338367e+005
9.151364e+002, 2.340577e+005
9.156185e+002, 2.341850e+005
9.161006e+002, 2.343649e+005
9.165828e+002, 2.346482e+005
9.170649e+002, 2.349343e+005
9.175470e+002, 2.351466e+005
9.180291e+002, 2.352943e+005
9.185112e+002, 2.353990e+005
9.189933e+002, 2.353933e+005
9.194755e+002, 2.355345e+005
9.199576e+002, 2.360180e+005
9.204397e+002, 2.363722e+005
9.209218e+002, 2.362605e+005
9.214039e+002, 2.360275e+005
9.218860e+002, 2.360633e+005
9.223682e+002, 2.363628e+005
9.228503e+002, 2.366244e+005
9.233324e+002, 2.367821e+005
9.238145e+002, 2.369313e+005
9.242966e+002, 2.370796e+005
9.247787e+002, 2.372453e+005
9.252609e+002, 2.374298e+005
9.257430e+002, 2.376442e+005
9.262251e+002, 2.379277e+005
9.267072e+002, 2.382941e+005
9.271893e+002, 2.386163e+005
9.276714e+002, 2.387396e+005
9.281536e+002, 2.388364e+005
9.286357e+002, 2.391102e+005
9.291178e+002, 2.394803e+005
9.295999e+002, 2.397796e+005
9.300820e+002, 2.399914e+005
9.305641e+002, 2.402211e+005
9.310463e+002, 2.405455e+005
9.315284e+002, 2.408687e+005
9.320105e+002, 2.410052e+005
9.324926e+002, 2.410079e+005
9.329747e+002, 2.411143e+005
9.334568e+002, 2.413293e+005
9.339390e+002, 2.414751e+005
9.344211e+002, 2.414755e+005
9.349032e+002, 2.415016e+005
9.353853e+002, 2.417602e+005
9.358674e+002, 2.421947e+005
9.363495e+002, 2.424433e+005
9.368317e+002, 2.424403e+005
9.373138e+002, 2.425523e+005
9.377959e+002, 2.428716e+005
9.382780e+002, 2.431942e+005
9.387601e+002, 2.433961e+005
9.392422e+002, 2.435436e+005
9.397244e+002, 2.437663e+005
9.402065e+002, 2.440867e+005
9.406886e+002, 2.443363e+005
9.411707e+002, 2.444175e+005
9.416528e+002, 2.445604e+005
9.421349e+002, 2.448928e+005
9.426171e+002, 2.452228e+005
9.430992e+002, 2.453933e+005
9.435813e+002, 2.454507e+005
9.440634e+002, 2.455221e+005
9.445455e+002, 2.456263e+005
9.450276e+002, 2.457733e+005
9.455098e+002, 2.460297e+005
9.459919e+002, 2.462675e+005
9.464740e+002, 2.463637e+005
9.469561e+002, 2.464110e+005
9.474382e+002, 2.465427e+005
9.479203e+002, 2.467670e+005
9.484025e+002, 2.469967e+005
9.488846e+002, 2.471795e+005
9.493667e+002, 2.473683e+005
9.498488e+002, 2.476468e+005
9.503309e+002, 2.479452e+005
9.508130e+002, 2.481321e+005
9.512952e+002, 2.482378e+005
9.517773e+002, 2.483888e+005
9.522594e+002, 2.486265e+005
9.527415e+002, 2.489014e+005
9.532236e+002, 2.491753e+005
9.537057e+002, 2.494424e+005
9.541878e+002, 2.497118e+005
9.546699e+002, 2.499705e+005
9.551520e+002, 2.501096e+005
9.556342e+002, 2.501155e+005
9.561163e+002, 2.501313e+005
9.565984e+002, 2.502299e+005
9.570805e+002, 2.504111e+005
9.575626e+002, 2.506900e+005
9.580447e+002, 2.510670e+005
9.585269e+002, 2.513853e+005
9.590090e+002, 2.516655e+005
9.594911e+002, 2.517815e+005
9.599732e+002, 2.516061e+005
9.604553e+002, 2.514993e+005
9.609374e+002, 2.517808e+005
9.614196e+002, 2.522988e+005
9.619017e+002, 2.526243e+005
9.623838e+002, 2.526933e+005
9.628659e+002, 2.527557e+005
9.633480e+002, 2.526889e+005
9.638301e+002, 2.527778e+005
9.643123e+002, 2.531963e+005
9.647944e+002, 2.537112e+005
9.652765e+002, 2.541792e+005
9.657586e+002, 2.545768e+005
9.662407e+002, 2.548212e+005
9.667228e+002, 2.547955e+005
9.672050e+002, 2.548360e+005
9.676871e+002, 2.550961e+005
9.681692e+002, 2.553543e+005
9.686513e+002, 2.554714e+005
9.691334e+002, 2.555192e+005
9.696155e+002, 2.556035e+005
9.700977e+002, 2.557339e+005
9.705798e+002, 2.558352e+005
9.710619e+002, 2.558095e+005
9.715440e+002, 2.558575e+005
9.720261e+002, 2.561628e+005
9.725082e+002, 2.565631e+005
9.729904e+002, 2.569391e+005
9.734725e+002, 2.572488e+005
9.739546e+002, 2.574074e+005
9.744367e+002, 2.574067e+005
9.749188e+002, 2.574317e+005
9.754009e+002, 2.576385e+005
9.758831e+002, 2.579353e+005
9.763652e+002, 2.582421e+005
9.768473e+002, 2.585291e+005
9.773294e+002, 2.587024e+005
9.778115e+002, 2.587826e+005
9.782936e+002, 2.589220e+005
9.787758e+002, 2.591933e+005
9.792579e+002, 2.594988e+005
9.797400e+002, 2.597149e+005
9.802221e+002, 2.598708e+005
9.807042e+002, 2.600606e+005
9.811863e+002, 2.602795e+005
9.816685e+002, 2.604843e+005
9.821506e+002, 2.606670e+005
9.826327e+002, 2.608306e+005
9.831148e+002, 2.609734e+005
9.835969e+002, 2.611188e+005
9.840790e+002, 2.613227e+005
9.845612e+002, 2.615867e+005
9.850433e+002, 2.617727e+005
9.855254e+002, 2.618617e+005
9.860075e+002, 2.619740e+005
9.864896e+002, 2.621218e+005
9.869717e+002, 2.623705e+005
9.874539e+002, 2.628159e+005
9.879360e+002, 2.633615e+005
9.884181e+002, 2.636974e+005
9.889002e+002, 2.637555e+005
9.893823e+002, 2.638316e+005
9.898644e+002, 2.639317e+005
9.903466e+002, 2.640326e+005
9.908287e+002, 2.640948e+005
9.913108e+002, 2.641920e+005
9.917929e+002, 2.644116e+005
9.922750e+002, 2.647342e+005
9.927571e+002, 2.650387e+005
9.932393e+002, 2.653305e+005
9.937214e+002, 2.655980e+005
9.942035e+002, 2.658330e+005
9.946856e+002, 2.660589e+005
9.951677e+002, 2.662823e+005
9.956498e+002, 2.665035e+005
9.961320e+002, 2.667107e+005
9.966141e+002, 2.669108e+005
9.970962e+002, 2.671487e+005
9.975783e+002, 2.674554e+005
9.980604e+002, 2.677581e+005
9.985425e+002, 2.680106e+005
9.990247e+002, 2.682775e+005
9.995068e+002, 2.686384e+005
9.999889e+002, 2.690136e+005
1.000471e+003, 2.692682e+005
1.000953e+003, 2.693977e+005
1.001435e+003, 2.695447e+005
1.001917e+003, 2.697882e+005
1.002399e+003, 2.700287e+005
1.002882e+003, 2.701578e+005
1.003364e+003, 2.703054e+005
1.003846e+003, 2.706959e+005
1.004328e+003, 2.711685e+005
1.004810e+003, 2.713717e+005
1.005292e+003, 2.712447e+005
1.005774e+003, 2.711067e+005
1.006256e+003, 2.711244e+005
1.006739e+003, 2.712655e+005
1.007221e+003, 2.715603e+005
1.007703e+003, 2.719229e+005
1.008185e+003, 2.722663e+005
1.008667e+003, 2.725603e+005
1.009149e+003, 2.727342e+005
1.009631e+003, 2.727756e+005
1.010113e+003, 2.728486e+005
1.010595e+003, 2.731181e+005
1.011078e+003, 2.734768e+005
1.011560e+003, 2.737803e+005
1.012042e+003, 2.740389e+005
1.012524e+003, 2.742604e+005
1.013006e+003, 2.744591e+005
1.013488e+003, 2.746863e+005
1.013970e+003, 2.749644e+005
1.014452e+003, 2.752736e+005
1.014935e+003, 2.756063e+005
1.015417e+003, 2.759422e+005
1.015899e+003, 2.762396e+005
1.016381e+003, 2.764962e+005
1.016863e+003, 2.766905e+005
1.017345e+003, 2.768231e+005
1.017827e+003, 2.769219e+005
1.018309e+003, 2.769996e+005
1.018791e+003, 2.770991e+005
1.019274e+003, 2.772861e+005
1.019756e+003, 2.775449e+005
1.020238e+003, 2.778094e+005
1.020720e+003, 2.780784e+005
1.021202e+003, 2.783039e+005
1.021684e+003, 2.784774e+005
1.022166e+003, 2.786171e+005
1.022648e+003, 2.787214e+005
1.023130e+003, 2.788588e+005
1.023613e+003, 2.791638e+005
1.024095e+003, 2.796200e+005
1.024577e+003, 2.799393e+005
1.025059e+003, 2.800971e+005
1.025541e+003, 2.803092e+005
1.026023e+003, 2.806326e+005
1.026505e+003, 2.809173e+005
1.026987e+003, 2.810433e+005
1.027469e+003, 2.811294e+005
1.027952e+003, 2.814146e+005
1.028434e+003, 2.819131e+005
1.028916e+003, 2.822793e+005
1.029398e+003, 2.824987e+005
1.029880e+003, 2.826231e+005
1.030362e+003, 2.826017e+005
1.030844e+003, 2.826409e+005
1.031326e+003, 2.829142e+005
1.031809e+003, 2.832983e+005
1.032291e+003, 2.835371e+005
1.032773e+003, 2.836123e+005
1.033255e+003, 2.837116e+005
1.033737e+003, 2.837862e+005
1.034219e+003, 2.840129e+005
1.034701e+003, 2.845365e+005
1.035183e+003, 2.850547e+005
1.035666e+003, 2.853527e+005
1.036148e+003, 2.855161e+005
1.036630e+003, 2.857300e+005
1.037112e+003, 2.860204e+005
1.037594e+003, 2.861994e+005
1.038076e+003, 2.861178e+005
1.038558e+003, 2.861561e+005
1.039040e+003, 2.864565e+005
1.039522e+003, 2.868018e+005
1.040005e+003, 2.870381e+005
1.040487e+003, 2.872222e+005
1.040969e+003, 2.874842e+005
1.041451e+003, 2.878479e+005
1.041933e+003, 2.881586e+005
1.042415e+003, 2.884356e+005
1.042897e+003, 2.886313e+005
1.043379e+003, 2.886787e+005
1.043861e+003, 2.887050e+005
1.044344e+003, 2.887517e+005
1.044826e+003, 2.888527e+005
1.045308e+003, 2.891051e+005
1.045790e+003, 2.895581e+005
1.046272e+003, 2.898662e+005
1.046754e+003, 2.898208e+005
1.047236e+003, 2.898702e+005
1.047718e+003, 2.901973e+005
1.048201e+003, 2.905843e+005
1.048683e+003, 2.909138e+005
1.049165e+003, 2.911818e+005
1.049647e+003, 2.913863e+005
1.050129e+003, 2.915176e+005
1.050611e+003, 2.916687e+005
1.051093e+003, 2.918174e+005
1.051575e+003, 2.920343e+005
1.052057e+003, 2.923628e+005
1.052540e+003, 2.927390e+005
1.053022e+003, 2.931919e+005
1.053504e+003, 2.936273e+005
1.053986e+003, 2.938340e+005
1.054468e+003, 2.937744e+005
1.054950e+003, 2.938631e+005
1.055432e+003, 2.943851e+005
1.055914e+003, 2.948349e+005
1.056396e+003, 2.949893e+005
1.056879e+003, 2.950603e+005
1.057361e+003, 2.951484e+005
1.057843e+003, 2.952940e+005
1.058325e+003, 2.955739e+005
1.058807e+003, 2.959953e+005
1.059289e+003, 2.963562e+005
1.059771e+003, 2.965664e+005
1.060253e+003, 2.967406e+005
1.060736e+003, 2.968871e+005
1.061218e+003, 2.970509e+005
1.061700e+003, 2.972958e+005
1.062182e+003, 2.975691e+005
1.062664e+003, 2.977710e+005
1.063146e+003, 2.978920e+005
1.063628e+003, 2.980250e+005
1.064110e+003, 2.982087e+005
1.064593e+003, 2.984049e+005
1.065075e+003, 2.986139e+005
1.065557e+003, 2.988150e+005
1.066039e+003, 2.989798e+005
1.066521e+003, 2.991327e+005
1.067003e+003, 2.992910e+005
1.067485e+003, 2.994675e+005
1.067967e+003, 2.997292e+005
1.068449e+003, 3.001843e+005
1.068932e+003, 3.005828e+005
1.069414e+003, 3.007323e+005
1.069896e+003, 3.008641e+005
1.070378e+003, 3.011894e+005
1.070860e+003, 3.015877e+005
1.071342e+003, 3.018519e+005
1.071824e+003, 3.019832e+005
1.072306e+003, 3.021886e+005
1.072788e+003, 3.025863e+005
1.073271e+003, 3.029660e+005
1.073753e+003, 3.032153e+005
1.074235e+003, 3.034246e+005
1.074717e+003, 3.036923e+005
1.075199e+003, 3.039400e+005
1.075681e+003, 3.039949e+005
1.076163e+003, 3.039104e+005
1.076645e+003, 3.039988e+005
1.077127e+003, 3.044254e+005
1.077610e+003, 3.048453e+005
1.078092e+003, 3.051052e+005
1.078574e+003, 3.052995e+005
1.079056e+003, 3.054507e+005
1.079538e+003, 3.056057e+005
1.080020e+003, 3.058277e+005
1.080502e+003, 3.061032e+005
1.080984e+003, 3.063660e+005
1.081467e+003, 3.065906e+005
1.081949e+003, 3.068255e+005
1.082431e+003, 3.070977e+005
1.082913e+003, 3.073827e+005
1.083395e+003, 3.076956e+005
1.083877e+003, 3.079887e+005
1.084359e+003, 3.081788e+005
1.084841e+003, 3.083100e+005
1.085323e+003, 3.084987e+005
1.085806e+003, 3.087716e+005
1.086288e+003, 3.091284e+005
1.086770e+003, 3.096833e+005
1.087252e+003, 3.101778e+005
1.087734e+003, 3.104727e+005
1.088216e+003, 3.106531e+005
1.088698e+003, 3.107482e+005
1.089180e+003, 3.108112e+005
1.089662e+003, 3.109146e+005
1.090145e+003, 3.110743e+005
1.090627e+003, 3.113183e+005
1.091109e+003, 3.117410e+005
1.091591e+003, 3.121416e+005
1.092073e+003, 3.124513e+005
1.092555e+003, 3.126908e+005
1.093037e+003, 3.128803e+005
1.093519e+003, 3.130077e+005
1.094002e+003, 3.129879e+005
1.094484e+003, 3.128357e+005
1.094966e+003, 3.128604e+005
1.095448e+003, 3.132996e+005
1.095930e+003, 3.137228e+005
1.096412e+003, 3.140334e+005
1.096894e+003, 3.142362e+005
1.097376e+003, 3.142011e+005
1.097859e+003, 3.141440e+005
1.098341e+003, 3.144224e+005
1.098823e+003, 3.149922e+005
1.099305e+003, 3.153576e+005
1.099787e+003, 3.152516e+005
1.100269e+003, 3.152556e+005
1.100751e+003, 3.155871e+005
1.101233e+003, 3.159805e+005
1.101715e+003, 3.164084e+005
1.102198e+003, 3.167557e+005
1.102680e+003, 3.168823e+005
1.103162e+003, 3.168249e+005
1.103644e+003, 3.167155e+005
1.104126e+003, 3.164881e+005
1.104608e+003, 3.164870e+005
1.105090e+003, 3.169052e+005
1.105572e+003, 3.173894e+005
1.106054e+003, 3.178797e+005
1.106537e+003, 3.183323e+005
1.107019e+003, 3.187462e+005
1.107501e+003, 3.190924e+005
1.107983e+003, 3.192648e+005
1.108465e+003, 3.191937e+005
1.108947e+003, 3.193112e+005
1.109429e+003, 3.198656e+005
1.109911e+003, 3.203088e+005
1.110394e+003, 3.204708e+005
1.110876e+003, 3.205505e+005
1.111358e+003, 3.206377e+005
1.111840e+003, 3.207322e+005
1.112322e+003, 3.208017e+005
1.112804e+003, 3.208361e+005
1.113286e+003, 3.210366e+005
1.113768e+003, 3.215881e+005
1.114250e+003, 3.219948e+005
1.114733e+003, 3.221296e+005
1.115215e+003, 3.222437e+005
1.115697e+003, 3.224450e+005
1.116179e+003, 3.226801e+005
1.116661e+003, 3.228881e+005
1.117143e+003, 3.230757e+005
1.117625e+003, 3.232839e+005
1.118107e+003, 3.235381e+005
1.118589e+003, 3.237559e+005
1.119072e+003, 3.239188e+005
1.119554e+003, 3.240776e+005
1.120036e+003, 3.241875e+005
1.120518e+003, 3.244107e+005
1.121000e+003, 3.249424e+005
1.121482e+003, 3.256564e+005
1.121964e+003, 3.261715e+005
1.122446e+003, 3.264487e+005
1.122929e+003, 3.267581e+005
1.123411e+003, 3.271264e+005
1.123893e+003, 3.274234e+005
1.124375e+003, 3.276004e+005
1.124857e+003, 3.277481e+005
1.125339e+003, 3.278986e+005
1.125821e+003, 3.281061e+005
1.126303e+003, 3.284818e+005
1.126786e+003, 3.290123e+005
1.127268e+003, 3.294808e+005
1.127750e+003, 3.298918e+005
1.128232e+003, 3.301480e+005
1.128714e+003, 3.302123e+005
1.129196e+003, 3.302933e+005
1.129678e+003, 3.304848e+005
1.130160e+003, 3.307347e+005
1.130642e+003, 3.309823e+005
1.131125e+003, 3.312443e+005
1.131607e+003, 3.315713e+005
1.132089e+003, 3.319640e+005
1.132571e+003, 3.324431e+005
1.133053e+003, 3.330078e+005
1.133535e+003, 3.334448e+005
1.134017e+003, 3.336897e+005
1.134499e+003, 3.338569e+005
1.134981e+003, 3.340311e+005
1.135464e+003, 3.341994e+005
1.135946e+003, 3.342716e+005
1.136428e+003, 3.343252e+005
1.136910e+003, 3.347515e+005
1.137392e+003, 3.354553e+005
1.137874e+003, 3.359322e+005
1.138356e+003, 3.361229e+005
1.138838e+003, 3.363634e+005
1.139321e+003, 3.368273e+005
1.139803e+003, 3.373070e+005
1.140285e+003, 3.375502e+005
1.140767e+003, 3.376789e+005
1.141249e+003, 3.379145e+005
1.141731e+003, 3.382155e+005
1.142213e+003, 3.384843e+005
1.142695e+003, 3.387301e+005
1.143177e+003, 3.390539e+005
1.143660e+003, 3.394685e+005
1.144142e+003, 3.397825e+005
1.144624e+003, 3.397918e+005
1.145106e+003, 3.398210e+005
1.145588e+003, 3.403107e+005
1.146070e+003, 3.409377e+005
1.146552e+003, 3.413145e+005
1.147034e+003, 3.415064e+005
1.147516e+003, 3.416297e+005
1.147999e+003, 3.417434e+005
1.148481e+003, 3.419568e+005
1.148963e+003, 3.423342e+005
1.149445e+003, 3.426965e+005
1.149927e+003, 3.428229e+005
1.150409e+003, 3.430122e+005
1.150891e+003, 3.435895e+005
1.151373e+003, 3.442511e+005
1.151856e+003, 3.446361e+005
1.152338e+003, 3.448306e+005
1.152820e+003, 3.451241e+005
1.153302e+003, 3.455758e+005
1.153784e+003, 3.459488e+005
1.154266e+003, 3.460937e+005
1.154748e+003, 3.462487e+005
1.155230e+003, 3.464796e+005
1.155713e+003, 3.467603e+005
1.156195e+003, 3.471460e+005
1.156677e+003, 3.475296e+005
1.157159e+003, 3.477381e+005
1.157641e+003, 3.478032e+005
1.158123e+003, 3.479919e+005
1.158605e+003, 3.484470e+005
1.159087e+003, 3.487834e+005
1.159569e+003, 3.488561e+005
1.160052e+003, 3.489807e+005
1.160534e+003, 3.492706e+005
1.161016e+003, 3.496095e+005
1.161498e+003, 3.499031e+005
1.161980e+003, 3.501914e+005
1.162462e+003, 3.505873e+005
1.162944e+003, 3.511207e+005
1.163426e+003, 3.514170e+005
1.163908e+003, 3.513283e+005
1.164391e+003, 3.514414e+005
1.164873e+003, 3.518865e+005
1.165355e+003, 3.523797e+005
1.165837e+003, 3.528096e+005
1.166319e+003, 3.531600e+005
1.166801e+003, 3.533788e+005
1.167283e+003, 3.535368e+005
1.167765e+003, 3.539883e+005
1.168247e+003, 3.547499e+005
1.168730e+003, 3.552566e+005
1.169212e+003, 3.554771e+005
1.169694e+003, 3.556639e+005
1.170176e+003, 3.558838e+005
1.170658e+003, 3.561507e+005
1.171140e+003, 3.564726e+005
1.171622e+003, 3.568684e+005
1.172104e+003, 3.574396e+005
1.172587e+003, 3.580828e+005
1.173069e+003, 3.584108e+005
1.173551e+003, 3.585048e+005
1.174033e+003, 3.586799e+005
1.174515e+003, 3.589550e+005
1.174997e+003, 3.591548e+005
1.175479e+003, 3.592272e+005
1.175961e+003, 3.593912e+005
1.176443e+003, 3.598648e+005
1.176926e+003, 3.604344e+005
1.177408e+003, 3.608442e+005
1.177890e+003, 3.611731e+005
1.178372e+003, 3.615546e+005
1.178854e+003, 3.619394e+005
1.179336e+003, 3.622288e+005
1.179818e+003, 3.624070e+005
1.180300e+003, 3.624766e+005
1.180782e+003, 3.624263e+005
1.181265e+003, 3.623880e+005
1.181747e+003, 3.624024e+005
1.182229e+003, 3.625076e+005
1.182711e+003, 3.627899e+005
1.183193e+003, 3.631232e+005
1.183675e+003, 3.633950e+005
1.184157e+003, 3.636235e+005
1.184639e+003, 3.638395e+005
1.185122e+003, 3.640550e+005
1.185604e+003, 3.643585e+005
1.186086e+003, 3.648991e+005
1.186568e+003, 3.653223e+005
1.187050e+003, 3.654198e+005
1.187532e+003, 3.655740e+005
1.188014e+003, 3.660116e+005
1.188496e+003, 3.665167e+005
1.188979e+003, 3.668698e+005
1.189461e+003, 3.671344e+005
1.189943e+003, 3.675082e+005
1.190425e+003, 3.680456e+005
1.190907e+003, 3.683394e+005
1.191389e+003, 3.682398e+005
1.191871e+003, 3.683323e+005
1.192353e+003, 3.687812e+005
1.192835e+003, 3.692014e+005
1.193318e+003, 3.693667e+005
1.193800e+003, 3.695177e+005
1.194282e+003, 3.699731e+005
1.194764e+003, 3.706273e+005
1.195246e+003, 3.710423e+005
1.195728e+003, 3.712289e+005
1.196210e+003, 3.714630e+005
1.196692e+003, 3.717543e+005
1.197174e+003, 3.720891e+005
1.197657e+003, 3.724532e+005
1.198139e+003, 3.726296e+005
1.198621e+003, 3.724596e+005
1.199103e+003, 3.723781e+005
1.199585e+003, 3.731296e+005
1.200067e+003, 3.742425e+005
1.200549e+003, 3.748211e+005
1.201031e+003, 3.750060e+005
1.201514e+003, 3.750121e+005
1.201996e+003, 3.749426e+005
1.202478e+003, 3.749669e+005
1.202960e+003, 3.751317e+005
1.203442e+003, 3.753912e+005
1.203924e+003, 3.757616e+005
1.204406e+003, 3.760947e+005
1.204888e+003, 3.762768e+005
1.205370e+003, 3.763811e+005
1.205853e+003, 3.764282e+005
1.206335e+003, 3.764666e+005
1.206817e+003, 3.764926e+005
1.207299e+003, 3.765710e+005
1.207781e+003, 3.768913e+005
1.208263e+003, 3.775106e+005
1.208745e+003, 3.779973e+005
1.209227e+003, 3.781607e+005
1.209709e+003, 3.783076e+005
1.210192e+003, 3.783668e+005
1.210674e+003, 3.785812e+005
1.211156e+003, 3.792364e+005
1.211638e+003, 3.799562e+005
1.212120e+003, 3.803583e+005
1.212602e+003, 3.805097e+005
1.213084e+003, 3.806559e+005
1.213566e+003, 3.807751e+005
1.214049e+003, 3.809891e+005
1.214531e+003, 3.813056e+005
1.215013e+003, 3.817078e+005
1.215495e+003, 3.822319e+005
1.215977e+003, 3.826484e+005
1.216459e+003, 3.828262e+005
1.216941e+003, 3.828821e+005
1.217423e+003, 3.829318e+005
1.217906e+003, 3.830175e+005
1.218388e+003, 3.833247e+005
1.218870e+003, 3.837867e+005
1.219352e+003, 3.839958e+005
1.219834e+003, 3.840117e+005
1.220316e+003, 3.843036e+005
1.220798e+003, 3.849226e+005
1.221280e+003, 3.854388e+005
1.221762e+003, 3.856182e+005
1.222245e+003, 3.856886e+005
1.222727e+003, 3.858223e+005
1.223209e+003, 3.860245e+005
1.223691e+003, 3.863285e+005
1.224173e+003, 3.866821e+005
1.224655e+003, 3.870523e+005
1.225137e+003, 3.873984e+005
1.225619e+003, 3.876359e+005
1.226101e+003, 3.877728e+005
1.226584e+003, 3.879478e+005
1.227066e+003, 3.882407e+005
1.227548e+003, 3.884852e+005
1.228030e+003, 3.885565e+005
1.228512e+003, 3.886627e+005
1.228994e+003, 3.888853e+005
1.229476e+003, 3.891869e+005
1.229958e+003, 3.895915e+005
1.230441e+003, 3.900277e+005
1.230923e+003, 3.903430e+005
1.231405e+003, 3.905457e+005
1.231887e+003, 3.909044e+005
1.232369e+003, 3.915254e+005
1.232851e+003, 3.919430e+005
1.233333e+003, 3.920530e+005
1.233815e+003, 3.922578e+005
1.234297e+003, 3.926910e+005
1.234780e+003, 3.931927e+005
1.235262e+003, 3.936668e+005
1.235744e+003, 3.940598e+005
1.236226e+003, 3.942373e+005
1.236708e+003, 3.942773e+005
1.237190e+003, 3.945500e+005
1.237672e+003, 3.949923e+005
1.238154e+003, 3.953582e+005
1.238636e+003, 3.956163e+005
1.239119e+003, 3.957518e+005
1.239601e+003, 3.957794e+005
1.240083e+003, 3.957943e+005
1.240565e+003, 3.958293e+005
1.241047e+003, 3.960283e+005
1.241529e+003, 3.967524e+005
1.242011e+003, 3.974785e+005
1.242493e+003, 3.976022e+005
1.242975e+003, 3.975060e+005
1.243458e+003, 3.976252e+005
1.243940e+003, 3.979469e+005
1.244422e+003, 3.983618e+005
1.244904e+003, 3.988405e+005
1.245386e+003, 3.992629e+005
1.245868e+003, 3.996003e+005
1.246350e+003, 3.998782e+005
1.246832e+003, 3.999665e+005
1.247315e+003, 4.001815e+005
1.247797e+003, 4.007358e+005
1.248279e+003, 4.013100e+005
1.248761e+003, 4.016300e+005
1.249243e+003, 4.018674e+005
1.249725e+003, 4.023525e+005
1.250207e+003, 4.030622e+005
1.250689e+003, 4.037151e+005
1.251172e+003, 4.043278e+005
1.251654e+003, 4.045591e+005
1.252136e+003, 4.043610e+005
1.252618e+003, 4.043549e+005
1.253100e+003, 4.047267e+005
1.253582e+003, 4.053455e+005
1.254064e+003, 4.061409e+005
1.254546e+003, 4.069048e+005
1.255028e+003, 4.073253e+005
1.255510e+003, 4.075243e+005
1.255993e+003, 4.076534e+005
1.256475e+003, 4.077719e+005
1.256957e+003, 4.079797e+005
1.257439e+003, 4.082755e+005
1.257921e+003, 4.086382e+005
1.258403e+003, 4.090552e+005
1.258885e+003, 4.095032e+005
1.259367e+003, 4.099806e+005
1.259850e+003, 4.104574e+005
1.260332e+003, 4.110245e+005
1.260814e+003, 4.114503e+005
1.261296e+003, 4.114150e+005
1.261778e+003, 4.114123e+005
1.262260e+003, 4.119016e+005
1.262742e+003, 4.126259e+005
1.263224e+003, 4.131642e+005
1.263707e+003, 4.135345e+005
1.264189e+003, 4.138887e+005
1.264671e+003, 4.142225e+005
1.265153e+003, 4.145474e+005
1.265635e+003, 4.148514e+005
1.266117e+003, 4.151744e+005
1.266599e+003, 4.155106e+005
1.267081e+003, 4.159888e+005
1.267563e+003, 4.166953e+005
1.268046e+003, 4.174474e+005
1.268528e+003, 4.180580e+005
1.269010e+003, 4.185131e+005
1.269492e+003, 4.186700e+005
1.269974e+003, 4.186999e+005
1.270456e+003, 4.190639e+005
1.270938e+003, 4.196817e+005
1.271420e+003, 4.203247e+005
1.271902e+003, 4.209136e+005
1.272385e+003, 4.213623e+005
1.272867e+003, 4.216381e+005
1.273349e+003, 4.218828e+005
1.273831e+003, 4.221122e+005
1.274313e+003, 4.224317e+005
1.274795e+003, 4.229113e+005
1.275277e+003, 4.234869e+005
1.275759e+003, 4.242566e+005
1.276242e+003, 4.249952e+005
1.276724e+003, 4.254538e+005
1.277206e+003, 4.256718e+005
1.277688e+003, 4.257943e+005
1.278170e+003, 4.258093e+005
1.278652e+003, 4.258113e+005
1.279134e+003, 4.256878e+005
1.279616e+003, 4.260307e+005
1.280099e+003, 4.270144e+005
1.280581e+003, 4.278350e+005
1.281063e+003, 4.281863e+005
1.281545e+003, 4.284024e+005
1.282027e+003, 4.287395e+005
1.282509e+003, 4.291601e+005
1.282991e+003, 4.296792e+005
1.283473e+003, 4.301831e+005
1.283955e+003, 4.305185e+005
##END=



