##NAMES=Fluor-uvite
##RRUFFID=R100154
##IDEAL CHEMISTRY=CaMg_3_(Al_5_Mg)(Si_6_O_18_)(BO_3_)_3_(OH)_3_F
##LOCALITY=Sri Lanka
##OWNER=RRUFF
##SOURCE=William W. Pinch
##DESCRIPTION=Brown cut gemstone
##STATUS=The identification of this mineral has been confirmed only by single crystal X-ray diffraction.
##URL=rruff.info/R100154
130.1390, 3005.283
130.6211, 3009.464
131.1032, 3013.427
131.5854, 3014.575
132.0675, 3014.697
132.5496, 3015.286
133.0317, 3016.821
133.5138, 3019.243
133.9959, 3022.599
134.4781, 3027.824
134.9602, 3032.500
135.4423, 3035.358
135.9244, 3037.460
136.4065, 3040.324
136.8886, 3045.073
137.3708, 3051.490
137.8529, 3056.208
138.3350, 3058.741
138.8171, 3059.938
139.2992, 3058.143
139.7813, 3054.937
140.2635, 3053.846
140.7456, 3058.380
141.2277, 3069.727
141.7098, 3075.517
142.1919, 3072.162
142.6740, 3067.499
143.1561, 3065.608
143.6383, 3066.806
144.1204, 3069.032
144.6025, 3070.337
145.0846, 3070.572
145.5667, 3070.456
146.0488, 3069.425
146.5310, 3068.334
147.0131, 3068.378
147.4952, 3069.964
147.9773, 3071.670
148.4594, 3071.262
148.9415, 3069.155
149.4237, 3067.941
149.9058, 3070.073
150.3879, 3073.940
150.8700, 3074.712
151.3521, 3070.010
151.8342, 3064.114
152.3164, 3060.600
152.7985, 3059.267
153.2806, 3058.517
153.7627, 3057.476
154.2448, 3056.145
154.7269, 3054.109
155.2091, 3050.483
155.6912, 3046.704
156.1733, 3043.238
156.6554, 3040.206
157.1375, 3037.829
157.6196, 3036.753
158.1018, 3037.961
158.5839, 3037.479
159.0660, 3033.956
159.5481, 3029.677
160.0302, 3025.667
160.5123, 3022.320
160.9945, 3019.811
161.4766, 3018.550
161.9587, 3019.718
162.4408, 3020.428
162.9229, 3020.935
163.4050, 3020.896
163.8871, 3019.670
164.3693, 3017.045
164.8514, 3013.834
165.3335, 3012.045
165.8156, 3012.938
166.2977, 3013.519
166.7798, 3012.929
167.2620, 3011.948
167.7441, 3012.073
168.2262, 3014.230
168.7083, 3017.239
169.1904, 3017.385
169.6725, 3012.546
170.1547, 3009.211
170.6368, 3011.458
171.1189, 3017.694
171.6010, 3022.378
172.0831, 3022.636
172.5652, 3020.003
173.0474, 3018.029
173.5295, 3016.610
174.0116, 3016.029
174.4937, 3016.658
174.9758, 3018.496
175.4579, 3020.859
175.9401, 3023.938
176.4222, 3027.197
176.9043, 3030.253
177.3864, 3033.332
177.8685, 3035.523
178.3506, 3034.954
178.8328, 3030.417
179.3149, 3027.501
179.7970, 3029.547
180.2791, 3033.342
180.7612, 3036.025
181.2433, 3036.402
181.7255, 3035.847
182.2076, 3037.606
182.6897, 3043.739
183.1718, 3048.345
183.6539, 3048.555
184.1360, 3047.519
184.6181, 3048.645
185.1003, 3053.667
185.5824, 3061.396
186.0645, 3067.549
186.5466, 3070.178
187.0287, 3073.547
187.5108, 3078.504
187.9930, 3084.403
188.4751, 3090.392
188.9572, 3095.963
189.4393, 3101.271
189.9214, 3107.118
190.4035, 3114.268
190.8857, 3121.123
191.3678, 3127.030
191.8499, 3132.454
192.3320, 3138.278
192.8141, 3145.081
193.2962, 3152.702
193.7784, 3159.940
194.2605, 3166.637
194.7426, 3173.214
195.2247, 3179.928
195.7068, 3186.659
196.1889, 3193.039
196.6711, 3198.708
197.1532, 3203.872
197.6353, 3209.628
198.1174, 3216.163
198.5995, 3223.035
199.0816, 3230.328
199.5638, 3237.940
200.0459, 3244.962
200.5280, 3250.130
201.0101, 3254.669
201.4922, 3261.707
201.9743, 3272.674
202.4565, 3284.897
202.9386, 3295.935
203.4207, 3305.763
203.9028, 3316.419
204.3849, 3329.383
204.8670, 3343.798
205.3492, 3358.204
205.8313, 3371.825
206.3134, 3386.055
206.7955, 3402.850
207.2776, 3422.702
207.7597, 3442.857
208.2419, 3461.808
208.7240, 3480.550
209.2061, 3499.562
209.6882, 3518.465
210.1703, 3538.794
210.6524, 3564.753
211.1346, 3600.142
211.6167, 3630.671
212.0988, 3651.136
212.5809, 3665.378
213.0630, 3677.140
213.5451, 3688.011
214.0273, 3696.348
214.5094, 3698.295
214.9915, 3692.582
215.4736, 3681.821
215.9557, 3665.719
216.4378, 3646.324
216.9200, 3625.426
217.4021, 3603.927
217.8842, 3581.442
218.3663, 3556.813
218.8484, 3525.930
219.3305, 3499.167
219.8127, 3478.970
220.2948, 3462.522
220.7769, 3446.860
221.2590, 3430.634
221.7411, 3414.487
222.2232, 3400.297
222.7054, 3388.214
223.1875, 3378.324
223.6696, 3371.680
224.1517, 3366.815
224.6338, 3362.066
225.1159, 3356.668
225.5980, 3351.124
226.0802, 3346.933
226.5623, 3344.267
227.0444, 3342.857
227.5265, 3343.183
228.0086, 3344.627
228.4907, 3346.397
228.9729, 3348.149
229.4550, 3350.132
229.9371, 3353.067
230.4192, 3358.157
230.9013, 3362.292
231.3834, 3363.234
231.8656, 3363.312
232.3477, 3365.812
232.8298, 3371.950
233.3119, 3381.180
233.7940, 3393.236
234.2761, 3409.478
234.7583, 3424.490
235.2404, 3435.828
235.7225, 3445.184
236.2046, 3455.778
236.6867, 3468.982
237.1688, 3483.124
237.6510, 3495.337
238.1331, 3505.392
238.6152, 3515.378
239.0973, 3527.011
239.5794, 3539.019
240.0615, 3548.359
240.5437, 3553.773
241.0258, 3557.276
241.5079, 3562.336
241.9900, 3569.158
242.4721, 3573.108
242.9542, 3571.641
243.4364, 3565.844
243.9185, 3558.354
244.4006, 3549.549
244.8827, 3539.308
245.3648, 3527.727
245.8469, 3514.906
246.3290, 3500.753
246.8112, 3484.818
247.2933, 3467.547
247.7754, 3449.871
248.2575, 3431.883
248.7396, 3413.566
249.2217, 3394.513
249.7039, 3375.040
250.1860, 3356.443
250.6681, 3339.300
251.1502, 3323.594
251.6323, 3309.050
252.1144, 3295.922
252.5966, 3283.755
253.0787, 3272.084
253.5608, 3261.022
254.0429, 3250.698
254.5250, 3241.083
255.0071, 3232.317
255.4893, 3224.848
255.9714, 3218.792
256.4535, 3214.111
256.9356, 3211.569
257.4177, 3210.033
257.8998, 3207.477
258.3820, 3202.243
258.8641, 3195.461
259.3462, 3191.298
259.8283, 3191.355
260.3104, 3191.528
260.7925, 3190.377
261.2747, 3188.516
261.7568, 3186.751
262.2389, 3185.472
262.7210, 3184.524
263.2031, 3183.398
263.6852, 3181.734
264.1674, 3180.545
264.6495, 3179.554
265.1316, 3179.271
265.6137, 3180.629
266.0958, 3184.128
266.5779, 3188.552
267.0601, 3190.757
267.5422, 3188.670
268.0243, 3188.119
268.5064, 3191.159
268.9885, 3195.223
269.4706, 3198.001
269.9528, 3198.688
270.4349, 3198.188
270.9170, 3198.218
271.3991, 3199.156
271.8812, 3199.880
272.3633, 3200.293
272.8455, 3200.514
273.3276, 3200.950
273.8097, 3201.571
274.2918, 3201.588
274.7739, 3199.386
275.2560, 3192.488
275.7382, 3188.780
276.2202, 3191.316
276.7024, 3194.061
277.1845, 3192.790
277.6666, 3187.185
278.1487, 3180.176
278.6308, 3175.417
279.1129, 3174.027
279.5951, 3170.984
280.0772, 3164.060
280.5593, 3157.651
281.0414, 3154.538
281.5235, 3154.395
282.0056, 3154.832
282.4878, 3153.530
282.9699, 3150.165
283.4520, 3147.344
283.9341, 3146.302
284.4162, 3144.569
284.8983, 3140.360
285.3805, 3134.508
285.8626, 3129.294
286.3447, 3126.547
286.8268, 3126.241
287.3089, 3125.619
287.7910, 3124.953
288.2732, 3123.749
288.7553, 3120.593
289.2374, 3116.865
289.7195, 3115.391
290.2016, 3118.071
290.6837, 3123.930
291.1659, 3127.601
291.6480, 3127.899
292.1301, 3127.354
292.6122, 3125.602
293.0943, 3123.411
293.5764, 3121.781
294.0586, 3121.163
294.5407, 3121.337
295.0228, 3121.722
295.5049, 3121.406
295.9870, 3122.506
296.4691, 3127.298
296.9513, 3132.609
297.4334, 3134.554
297.9155, 3131.965
298.3976, 3127.361
298.8797, 3124.931
299.3618, 3125.907
299.8440, 3127.067
300.3261, 3128.952
300.8082, 3130.674
301.2903, 3131.033
301.7724, 3129.997
302.2545, 3129.218
302.7367, 3130.833
303.2188, 3135.871
303.7009, 3139.212
304.1830, 3139.165
304.6651, 3138.947
305.1472, 3140.843
305.6294, 3144.699
306.1115, 3148.601
306.5936, 3150.727
307.0757, 3150.907
307.5578, 3153.154
308.0399, 3158.937
308.5221, 3164.932
309.0042, 3170.181
309.4863, 3174.510
309.9684, 3177.267
310.4505, 3177.602
310.9326, 3176.338
311.4148, 3179.408
311.8969, 3190.681
312.3790, 3201.133
312.8611, 3208.891
313.3432, 3214.390
313.8253, 3218.030
314.3075, 3219.818
314.7896, 3220.871
315.2717, 3224.161
315.7538, 3233.543
316.2359, 3239.621
316.7180, 3239.151
317.2001, 3236.129
317.6823, 3234.917
318.1644, 3236.766
318.6465, 3240.024
319.1286, 3242.207
319.6107, 3242.489
320.0928, 3243.605
320.5750, 3245.856
321.0571, 3248.667
321.5392, 3251.867
322.0213, 3255.281
322.5034, 3258.457
322.9855, 3260.907
323.4677, 3262.542
323.9498, 3263.888
324.4319, 3262.556
324.9140, 3263.117
325.3961, 3269.328
325.8782, 3279.698
326.3604, 3289.617
326.8425, 3295.870
327.3246, 3298.751
327.8067, 3301.546
328.2888, 3304.220
328.7709, 3306.930
329.2531, 3310.125
329.7352, 3313.336
330.2173, 3315.636
330.6994, 3316.542
331.1815, 3316.705
331.6636, 3317.879
332.1458, 3320.898
332.6279, 3324.000
333.1100, 3327.858
333.5921, 3331.409
334.0742, 3333.078
334.5563, 3332.568
335.0385, 3331.696
335.5206, 3333.161
336.0027, 3338.114
336.4848, 3342.585
336.9669, 3348.249
337.4490, 3352.233
337.9312, 3351.313
338.4133, 3346.236
338.8954, 3341.396
339.3775, 3341.151
339.8596, 3346.081
340.3417, 3348.219
340.8239, 3343.840
341.3060, 3340.885
341.7881, 3343.521
342.2702, 3349.682
342.7523, 3354.812
343.2344, 3355.997
343.7166, 3354.142
344.1987, 3353.655
344.6808, 3353.776
345.1629, 3356.427
345.6450, 3364.420
346.1271, 3373.972
346.6093, 3380.782
347.0914, 3383.281
347.5735, 3383.304
348.0556, 3384.167
348.5377, 3386.049
349.0198, 3388.615
349.5020, 3391.418
349.9841, 3395.136
350.4662, 3400.244
350.9483, 3406.761
351.4304, 3414.451
351.9125, 3423.244
352.3947, 3433.438
352.8768, 3442.668
353.3589, 3449.984
353.8410, 3457.263
354.3231, 3464.376
354.8052, 3471.950
355.2874, 3481.176
355.7695, 3492.943
356.2516, 3506.852
356.7337, 3520.914
357.2158, 3534.279
357.6979, 3549.076
358.1800, 3565.299
358.6621, 3583.207
359.1443, 3603.097
359.6264, 3625.182
360.1085, 3648.898
360.5906, 3673.458
361.0727, 3698.842
361.5548, 3725.267
362.0370, 3753.328
362.5191, 3781.874
363.0012, 3809.702
363.4833, 3837.159
363.9654, 3865.546
364.4475, 3896.530
364.9297, 3930.257
365.4118, 3964.228
365.8939, 4001.990
366.3760, 4035.704
366.8581, 4060.270
367.3402, 4078.565
367.8224, 4096.904
368.3045, 4119.862
368.7866, 4144.494
369.2687, 4162.266
369.7508, 4172.558
370.2329, 4176.763
370.7151, 4175.703
371.1972, 4169.296
371.6793, 4156.667
372.1614, 4137.449
372.6435, 4113.421
373.1256, 4085.941
373.6078, 4054.859
374.0899, 4023.471
374.5720, 3992.711
375.0541, 3961.510
375.5362, 3929.228
376.0183, 3895.730
376.5005, 3861.414
376.9826, 3824.719
377.4647, 3787.034
377.9468, 3753.734
378.4289, 3726.569
378.9110, 3700.613
379.3932, 3671.288
379.8753, 3640.785
380.3574, 3613.626
380.8395, 3592.315
381.3216, 3573.893
381.8037, 3554.916
382.2859, 3535.315
382.7680, 3516.788
383.2501, 3500.352
383.7322, 3485.371
384.2143, 3470.323
384.6964, 3454.974
385.1786, 3440.648
385.6607, 3428.810
386.1428, 3418.742
386.6249, 3408.272
387.1070, 3396.727
387.5891, 3385.345
388.0713, 3375.499
388.5534, 3367.068
389.0355, 3359.630
389.5176, 3353.088
389.9997, 3347.517
390.4818, 3343.041
390.9640, 3339.630
391.4461, 3337.286
391.9282, 3336.564
392.4103, 3336.829
392.8924, 3334.887
393.3745, 3329.048
393.8567, 3323.019
394.3388, 3317.735
394.8209, 3313.311
395.3030, 3310.323
395.7851, 3309.073
396.2672, 3308.529
396.7494, 3306.867
397.2315, 3303.711
397.7136, 3300.167
398.1957, 3294.992
398.6778, 3290.251
399.1599, 3288.338
399.6420, 3289.051
400.1241, 3289.556
400.6063, 3287.084
401.0884, 3281.474
401.5705, 3278.468
402.0526, 3280.776
402.5347, 3282.354
403.0168, 3280.122
403.4990, 3276.225
403.9811, 3274.725
404.4632, 3277.635
404.9453, 3282.655
405.4274, 3283.848
405.9095, 3276.449
406.3917, 3273.434
406.8738, 3279.615
407.3559, 3286.658
407.8380, 3288.117
408.3201, 3283.633
408.8022, 3277.618
409.2844, 3274.384
409.7665, 3274.120
410.2486, 3273.684
410.7307, 3273.402
411.2128, 3272.480
411.6949, 3270.277
412.1771, 3267.338
412.6592, 3264.455
413.1413, 3261.956
413.6234, 3259.898
414.1055, 3258.565
414.5876, 3258.293
415.0698, 3257.694
415.5519, 3257.185
416.0340, 3255.740
416.5161, 3251.797
416.9982, 3245.410
417.4803, 3239.599
417.9625, 3237.396
418.4446, 3238.265
418.9267, 3238.320
419.4088, 3236.886
419.8909, 3235.391
420.3730, 3234.572
420.8552, 3234.359
421.3373, 3234.818
421.8194, 3236.901
422.3015, 3238.693
422.7836, 3237.313
423.2657, 3232.804
423.7479, 3228.748
424.2300, 3226.588
424.7121, 3225.665
425.1942, 3224.896
425.6763, 3224.342
426.1584, 3223.688
426.6406, 3222.595
427.1227, 3221.387
427.6048, 3220.452
428.0869, 3219.814
428.5690, 3219.958
429.0511, 3221.438
429.5333, 3224.333
430.0154, 3227.402
430.4975, 3231.343
430.9796, 3234.796
431.4617, 3236.975
431.9438, 3238.031
432.4260, 3238.322
432.9081, 3237.939
433.3902, 3237.137
433.8723, 3236.520
434.3544, 3235.962
434.8365, 3235.783
435.3187, 3236.876
435.8008, 3237.741
436.2829, 3236.117
436.7650, 3232.401
437.2471, 3230.051
437.7292, 3232.768
438.2114, 3240.776
438.6935, 3245.245
439.1756, 3244.102
439.6577, 3241.676
440.1398, 3237.213
440.6219, 3232.612
441.1040, 3230.668
441.5862, 3232.561
442.0683, 3236.259
442.5504, 3237.905
443.0325, 3236.579
443.5146, 3236.100
443.9967, 3237.476
444.4789, 3239.232
444.9610, 3240.769
445.4431, 3242.023
445.9252, 3243.135
446.4073, 3244.415
446.8894, 3245.586
447.3716, 3245.188
447.8537, 3242.113
448.3358, 3240.210
448.8179, 3242.637
449.3000, 3246.458
449.7821, 3248.340
450.2643, 3247.254
450.7464, 3245.777
451.2285, 3246.192
451.7106, 3248.160
452.1927, 3250.101
452.6748, 3251.806
453.1570, 3253.168
453.6391, 3253.622
454.1212, 3253.443
454.6033, 3254.109
455.0854, 3257.367
455.5675, 3260.577
456.0497, 3260.783
456.5318, 3258.455
457.0139, 3256.581
457.4960, 3256.567
457.9781, 3258.146
458.4602, 3261.002
458.9424, 3266.989
459.4245, 3270.311
459.9066, 3267.219
460.3887, 3262.506
460.8708, 3261.579
461.3529, 3264.942
461.8351, 3268.810
462.3172, 3269.394
462.7993, 3266.502
463.2814, 3266.207
463.7635, 3272.027
464.2456, 3276.210
464.7278, 3275.780
465.2099, 3272.890
465.6920, 3270.164
466.1741, 3268.669
466.6562, 3268.647
467.1383, 3270.915
467.6205, 3276.696
468.1026, 3280.996
468.5847, 3282.705
469.0668, 3283.745
469.5489, 3284.702
470.0310, 3285.685
470.5132, 3286.597
470.9953, 3286.977
471.4774, 3287.646
471.9595, 3291.410
472.4416, 3299.566
472.9237, 3306.019
473.4059, 3307.215
473.8880, 3306.502
474.3701, 3306.652
474.8522, 3307.967
475.3343, 3309.839
475.8164, 3312.885
476.2986, 3316.098
476.7807, 3316.488
477.2628, 3313.229
477.7449, 3309.744
478.2270, 3308.451
478.7091, 3309.092
479.1913, 3310.250
479.6734, 3312.157
480.1555, 3314.209
480.6376, 3316.087
481.1197, 3317.875
481.6018, 3319.730
482.0839, 3321.691
482.5660, 3323.858
483.0482, 3326.626
483.5303, 3330.727
484.0124, 3332.322
484.4945, 3328.618
484.9766, 3325.176
485.4587, 3325.221
485.9409, 3327.967
486.4230, 3331.165
486.9051, 3333.619
487.3872, 3335.329
487.8693, 3336.159
488.3514, 3335.172
488.8336, 3335.111
489.3157, 3337.228
489.7978, 3339.375
490.2799, 3340.166
490.7620, 3339.565
491.2441, 3338.238
491.7263, 3336.333
492.2084, 3334.179
492.6905, 3333.384
493.1726, 3334.194
493.6547, 3335.821
494.1368, 3338.571
494.6190, 3341.679
495.1011, 3344.390
495.5832, 3346.545
496.0653, 3348.485
496.5474, 3350.824
497.0295, 3353.139
497.5117, 3354.035
497.9938, 3353.150
498.4759, 3351.407
498.9580, 3349.274
499.4401, 3346.816
499.9222, 3344.496
500.4044, 3340.831
500.8865, 3338.830
501.3686, 3341.787
501.8507, 3347.293
502.3328, 3350.272
502.8149, 3348.952
503.2971, 3345.485
503.7792, 3342.843
504.2613, 3341.282
504.7434, 3339.668
505.2255, 3338.493
505.7076, 3336.831
506.1898, 3333.853
506.6719, 3330.105
507.1540, 3326.644
507.6361, 3324.012
508.1182, 3322.108
508.6003, 3321.023
509.0825, 3321.825
509.5646, 3320.575
510.0467, 3314.578
510.5288, 3308.411
511.0109, 3304.731
511.4930, 3303.170
511.9752, 3301.603
512.4573, 3298.149
512.9394, 3294.151
513.4215, 3293.368
513.9036, 3296.506
514.3857, 3298.300
514.8679, 3296.031
515.3500, 3291.852
515.8321, 3288.684
516.3142, 3286.723
516.7963, 3284.492
517.2784, 3280.590
517.7606, 3276.390
518.2427, 3273.946
518.7248, 3273.388
519.2069, 3273.438
519.6890, 3273.403
520.1711, 3273.239
520.6533, 3272.695
521.1354, 3270.941
521.6175, 3269.961
522.0996, 3271.215
522.5817, 3272.742
523.0638, 3272.194
523.5460, 3269.441
524.0281, 3266.271
524.5102, 3264.124
524.9923, 3263.040
525.4744, 3264.936
525.9565, 3274.112
526.4387, 3280.587
526.9208, 3280.629
527.4029, 3278.046
527.8850, 3276.930
528.3671, 3278.281
528.8492, 3279.945
529.3314, 3279.612
529.8135, 3277.481
530.2956, 3275.198
530.7777, 3272.272
531.2598, 3270.449
531.7419, 3271.288
532.2241, 3273.857
532.7062, 3276.988
533.1883, 3280.976
533.6704, 3284.460
534.1525, 3286.937
534.6346, 3288.184
535.1168, 3287.085
535.5989, 3283.167
536.0810, 3279.176
536.5631, 3277.932
537.0452, 3279.584
537.5273, 3281.173
538.0095, 3284.309
538.4916, 3285.600
538.9737, 3281.891
539.4558, 3276.182
539.9379, 3273.486
540.4200, 3275.248
540.9022, 3277.959
541.3843, 3276.500
541.8664, 3269.925
542.3485, 3264.583
542.8306, 3260.634
543.3127, 3257.935
543.7948, 3256.885
544.2769, 3256.952
544.7590, 3257.468
545.2411, 3258.236
545.7233, 3259.051
546.2054, 3259.774
546.6875, 3260.375
547.1696, 3260.535
547.6517, 3260.396
548.1339, 3259.408
548.6160, 3256.051
549.0981, 3251.329
549.5802, 3248.193
550.0623, 3247.566
550.5444, 3248.260
551.0266, 3250.473
551.5087, 3253.347
551.9908, 3255.057
552.4729, 3255.073
552.9550, 3253.455
553.4371, 3249.963
553.9193, 3243.988
554.4014, 3239.892
554.8835, 3237.319
555.3656, 3236.739
555.8477, 3240.368
556.3298, 3245.442
556.8120, 3247.670
557.2941, 3245.579
557.7762, 3241.760
558.2583, 3240.125
558.7404, 3241.126
559.2225, 3240.366
559.7047, 3235.281
560.1868, 3231.698
560.6689, 3233.871
561.1510, 3238.793
561.6331, 3241.222
562.1152, 3239.035
562.5974, 3235.513
563.0795, 3232.965
563.5616, 3231.495
564.0437, 3232.184
564.5258, 3235.865
565.0079, 3238.746
565.4901, 3236.605
565.9722, 3229.772
566.4543, 3225.907
566.9364, 3227.320
567.4185, 3229.061
567.9006, 3229.616
568.3828, 3229.243
568.8649, 3227.935
569.3470, 3225.879
569.8291, 3224.279
570.3112, 3224.772
570.7933, 3227.556
571.2755, 3228.905
571.7576, 3227.304
572.2397, 3226.120
572.7218, 3225.996
573.2039, 3226.757
573.6860, 3228.488
574.1682, 3231.162
574.6503, 3233.636
575.1324, 3234.318
575.6145, 3233.766
576.0966, 3234.922
576.5787, 3238.556
577.0609, 3241.461
577.5430, 3240.972
578.0251, 3238.572
578.5072, 3237.978
578.9893, 3240.121
579.4714, 3242.137
579.9536, 3242.970
580.4357, 3243.070
580.9178, 3243.416
581.3999, 3243.890
581.8820, 3242.566
582.3641, 3237.427
582.8463, 3229.720
583.3284, 3226.713
583.8105, 3232.515
584.2926, 3237.263
584.7747, 3240.614
585.2568, 3242.439
585.7390, 3241.995
586.2211, 3239.765
586.7032, 3237.602
587.1853, 3236.864
587.6674, 3237.110
588.1495, 3237.184
588.6317, 3237.062
589.1138, 3236.896
589.5959, 3236.405
590.0780, 3236.226
590.5601, 3236.983
591.0422, 3238.655
591.5244, 3241.058
592.0065, 3245.678
592.4886, 3249.773
592.9707, 3249.861
593.4528, 3247.052
593.9349, 3245.514
594.4171, 3247.167
594.8992, 3250.233
595.3813, 3251.440
595.8634, 3249.328
596.3455, 3249.726
596.8276, 3255.236
597.3098, 3260.141
597.7919, 3261.970
598.2740, 3261.569
598.7561, 3260.761
599.2382, 3260.316
599.7203, 3259.154
600.2025, 3254.384
600.6846, 3246.212
601.1667, 3243.328
601.6488, 3248.666
602.1309, 3255.260
602.6130, 3258.656
603.0952, 3259.896
603.5773, 3260.770
604.0594, 3261.392
604.5415, 3261.948
605.0236, 3263.153
605.5057, 3264.135
605.9879, 3263.185
606.4700, 3260.189
606.9521, 3256.735
607.4342, 3253.885
607.9163, 3251.817
608.3984, 3252.018
608.8806, 3257.229
609.3627, 3260.905
609.8448, 3261.296
610.3269, 3260.857
610.8090, 3261.448
611.2911, 3263.128
611.7733, 3264.946
612.2554, 3266.390
612.7375, 3267.390
613.2196, 3267.659
613.7017, 3267.120
614.1838, 3266.743
614.6660, 3267.176
615.1481, 3267.479
615.6302, 3266.014
616.1123, 3262.956
616.5944, 3261.326
617.0765, 3263.299
617.5587, 3265.437
618.0408, 3264.490
618.5229, 3262.048
619.0050, 3262.346
619.4871, 3266.782
619.9692, 3271.704
620.4514, 3271.661
620.9335, 3265.460
621.4156, 3263.368
621.8977, 3269.151
622.3798, 3274.729
622.8619, 3278.258
623.3441, 3280.379
623.8262, 3281.847
624.3083, 3282.841
624.7904, 3283.145
625.2725, 3281.519
625.7546, 3279.177
626.2367, 3279.858
626.7188, 3283.976
627.2009, 3288.647
627.6830, 3292.693
628.1652, 3296.132
628.6473, 3299.214
629.1294, 3302.606
629.6115, 3303.768
630.0936, 3299.485
630.5757, 3295.278
631.0579, 3295.309
631.5400, 3298.847
632.0221, 3303.433
632.5042, 3307.850
632.9863, 3311.746
633.4684, 3314.667
633.9506, 3316.875
634.4327, 3316.604
634.9148, 3310.989
635.3969, 3306.415
635.8790, 3307.709
636.3611, 3311.630
636.8433, 3312.067
637.3254, 3306.302
637.8075, 3300.751
638.2896, 3301.069
638.7717, 3304.569
639.2538, 3305.683
639.7360, 3303.732
640.2181, 3302.196
640.7002, 3303.633
641.1823, 3307.325
641.6644, 3310.367
642.1465, 3313.407
642.6287, 3314.792
643.1108, 3312.121
643.5929, 3309.873
644.0750, 3311.603
644.5571, 3316.435
645.0392, 3321.282
645.5214, 3324.504
646.0035, 3326.627
646.4856, 3327.676
646.9677, 3327.671
647.4498, 3330.895
647.9319, 3339.473
648.4141, 3348.530
648.8962, 3353.690
649.3783, 3355.937
649.8604, 3358.840
650.3425, 3363.425
650.8246, 3367.634
651.3068, 3370.593
651.7889, 3372.722
652.2710, 3374.444
652.7531, 3375.845
653.2352, 3376.752
653.7173, 3376.844
654.1995, 3376.617
654.6816, 3378.339
655.1637, 3382.907
655.6458, 3387.266
656.1279, 3390.114
656.6100, 3393.355
657.0922, 3398.697
657.5743, 3405.492
658.0564, 3411.341
658.5385, 3414.792
659.0206, 3417.735
659.5027, 3422.689
659.9849, 3428.574
660.4670, 3431.677
660.9491, 3431.042
661.4312, 3430.719
661.9133, 3434.801
662.3954, 3442.834
662.8776, 3448.160
663.3597, 3448.037
663.8418, 3448.792
664.3239, 3451.017
664.8060, 3454.378
665.2881, 3459.147
665.7703, 3464.886
666.2524, 3470.229
666.7345, 3474.271
667.2166, 3477.543
667.6987, 3481.741
668.1808, 3486.771
668.6630, 3488.305
669.1451, 3483.846
669.6272, 3479.216
670.1093, 3481.347
670.5914, 3489.342
671.0735, 3492.065
671.5557, 3486.116
672.0378, 3478.785
672.5199, 3470.469
673.0020, 3463.102
673.4841, 3459.802
673.9662, 3460.130
674.4484, 3459.961
674.9305, 3456.041
675.4126, 3449.333
675.8947, 3442.699
676.3768, 3435.870
676.8589, 3430.474
677.3411, 3427.800
677.8232, 3425.592
678.3053, 3421.900
678.7874, 3417.146
679.2695, 3412.884
679.7516, 3410.481
680.2338, 3407.395
680.7159, 3400.462
681.1980, 3392.525
681.6801, 3388.539
682.1622, 3389.041
682.6443, 3390.539
683.1265, 3390.358
683.6086, 3388.568
684.0907, 3385.365
684.5728, 3379.622
685.0549, 3374.888
685.5370, 3370.745
686.0192, 3368.538
686.5013, 3370.708
686.9834, 3375.534
687.4655, 3378.079
687.9476, 3375.558
688.4297, 3371.876
688.9119, 3369.650
689.3940, 3369.040
689.8761, 3370.908
690.3582, 3375.366
690.8403, 3380.472
691.3224, 3384.855
691.8046, 3388.615
692.2867, 3392.245
692.7688, 3396.198
693.2509, 3399.343
693.7330, 3401.749
694.2151, 3403.343
694.6973, 3402.890
695.1794, 3401.707
695.6615, 3402.879
696.1436, 3408.054
696.6257, 3414.865
697.1078, 3420.120
697.5900, 3424.790
698.0721, 3433.325
698.5542, 3446.593
699.0363, 3459.007
699.5184, 3466.627
700.0005, 3470.605
700.4827, 3474.865
700.9648, 3478.974
701.4469, 3484.045
701.9290, 3489.712
702.4111, 3496.682
702.8932, 3506.200
703.3754, 3517.180
703.8575, 3527.489
704.3396, 3536.138
704.8217, 3544.532
705.3038, 3554.779
705.7859, 3566.247
706.2681, 3575.903
706.7502, 3583.367
707.2323, 3589.771
707.7144, 3595.460
708.1965, 3600.763
708.6786, 3606.667
709.1607, 3614.063
709.6428, 3619.416
710.1249, 3620.343
710.6071, 3621.339
711.0892, 3626.870
711.5713, 3633.651
712.0534, 3635.433
712.5355, 3630.277
713.0176, 3622.940
713.4998, 3619.279
713.9819, 3618.253
714.4640, 3614.090
714.9461, 3606.619
715.4282, 3596.730
715.9103, 3583.837
716.3925, 3569.891
716.8746, 3558.405
717.3567, 3550.001
717.8388, 3538.741
718.3209, 3521.593
718.8030, 3504.284
719.2852, 3489.784
719.7673, 3476.653
720.2494, 3462.286
720.7315, 3446.366
721.2136, 3431.140
721.6957, 3418.638
722.1779, 3408.438
722.6600, 3399.606
723.1421, 3392.326
723.6242, 3384.122
724.1063, 3373.692
724.5884, 3363.079
725.0706, 3354.620
725.5527, 3348.130
726.0348, 3341.913
726.5169, 3336.673
726.9990, 3330.700
727.4811, 3322.050
727.9633, 3313.249
728.4454, 3306.979
728.9275, 3303.479
729.4096, 3301.898
729.8917, 3302.133
730.3738, 3302.707
730.8560, 3299.708
731.3381, 3292.992
731.8202, 3288.667
732.3023, 3288.825
732.7844, 3288.743
733.2665, 3284.234
733.7487, 3276.724
734.2308, 3271.783
734.7129, 3270.999
735.1950, 3269.807
735.6771, 3266.739
736.1592, 3263.390
736.6414, 3260.832
737.1235, 3259.066
737.6056, 3257.912
738.0877, 3257.294
738.5698, 3256.601
739.0519, 3254.250
739.5341, 3250.665
740.0162, 3250.147
740.4983, 3253.517
740.9804, 3257.115
741.4625, 3259.606
741.9446, 3260.864
742.4268, 3260.338
742.9089, 3257.644
743.3910, 3255.293
743.8731, 3252.841
744.3552, 3251.458
744.8373, 3252.854
745.3195, 3255.158
745.8016, 3254.942
746.2837, 3251.913
746.7658, 3250.274
747.2479, 3254.835
747.7300, 3263.011
748.2122, 3267.753
748.6943, 3269.044
749.1764, 3268.990
749.6585, 3267.930
750.1406, 3266.385
750.6227, 3264.732
751.1049, 3262.997
751.5870, 3261.686
752.0691, 3260.676
752.5512, 3260.207
753.0333, 3261.085
753.5154, 3261.901
753.9976, 3260.797
754.4797, 3258.498
754.9618, 3257.658
755.4439, 3259.900
755.9260, 3263.154
756.4081, 3264.536
756.8903, 3264.554
757.3724, 3265.583
757.8545, 3268.000
758.3366, 3269.760
758.8187, 3269.480
759.3008, 3267.859
759.7830, 3266.619
760.2651, 3265.914
760.7472, 3265.267
761.2293, 3264.810
761.7114, 3264.299
762.1935, 3263.772
762.6757, 3263.096
763.1578, 3262.097
763.6399, 3260.749
764.1220, 3259.173
764.6041, 3257.526
765.0862, 3255.676
765.5684, 3253.262
766.0505, 3250.400
766.5326, 3247.898
767.0147, 3246.042
767.4968, 3243.675
767.9789, 3239.036
768.4611, 3232.348
768.9432, 3230.119
769.4253, 3235.798
769.9074, 3239.979
770.3895, 3240.919
770.8716, 3240.228
771.3538, 3238.460
771.8359, 3235.902
772.3180, 3233.126
772.8001, 3230.063
773.2822, 3227.344
773.7643, 3225.211
774.2465, 3223.809
774.7286, 3224.334
775.2107, 3226.139
775.6928, 3225.526
776.1749, 3220.228
776.6570, 3213.313
777.1392, 3211.040
777.6213, 3214.188
778.1034, 3216.495
778.5855, 3218.052
779.0676, 3218.469
779.5497, 3216.286
780.0319, 3213.622
780.5140, 3213.603
780.9961, 3216.504
781.4782, 3218.483
781.9603, 3218.638
782.4424, 3217.564
782.9246, 3214.266
783.4067, 3210.525
783.8888, 3209.292
784.3709, 3210.779
784.8530, 3212.336
785.3351, 3211.605
785.8173, 3209.862
786.2994, 3210.535
786.7815, 3213.624
787.2636, 3216.562
787.7457, 3219.052
788.2278, 3220.793
788.7100, 3221.474
789.1921, 3221.245
789.6742, 3220.549
790.1563, 3218.052
790.6384, 3217.613
791.1205, 3220.964
791.6026, 3224.930
792.0847, 3228.725
792.5668, 3231.597
793.0490, 3232.235
793.5311, 3230.306
794.0132, 3228.079
794.4953, 3227.535
794.9774, 3227.861
795.4595, 3227.920
795.9417, 3227.573
796.4238, 3226.103
796.9059, 3223.195
797.3880, 3219.938
797.8701, 3217.448
798.3522, 3215.678
798.8344, 3214.476
799.3165, 3213.323
799.7986, 3213.621
800.2807, 3217.645
800.7628, 3221.275
801.2449, 3221.371
801.7271, 3219.114
802.2092, 3217.854
802.6913, 3218.527
803.1734, 3219.881
803.6555, 3221.474
804.1376, 3223.335
804.6198, 3226.432
805.1019, 3229.843
805.5840, 3230.532
806.0661, 3227.260
806.5482, 3223.249
807.0303, 3223.239
807.5125, 3226.695
807.9946, 3228.178
808.4767, 3227.427
808.9588, 3226.335
809.4409, 3225.655
809.9230, 3224.658
810.4052, 3222.118
810.8873, 3218.046
811.3694, 3215.587
811.8515, 3214.813
812.3336, 3215.488
812.8157, 3218.698
813.2979, 3222.365
813.7800, 3224.572
814.2621, 3225.771
814.7442, 3227.999
815.2263, 3232.513
815.7084, 3236.105
816.1906, 3234.014
816.6727, 3229.276
817.1548, 3228.556
817.6369, 3231.804
818.1190, 3234.982
818.6011, 3236.297
819.0833, 3236.701
819.5654, 3237.629
820.0475, 3239.125
820.5296, 3239.565
821.0117, 3238.790
821.4938, 3237.235
821.9760, 3234.306
822.4581, 3231.237
822.9402, 3229.065
823.4223, 3227.667
823.9044, 3226.472
824.3865, 3226.403
824.8687, 3224.997
825.3508, 3218.751
825.8329, 3212.677
826.3150, 3213.693
826.7971, 3219.196
827.2792, 3220.394
827.7614, 3213.344
828.2435, 3204.639
828.7256, 3203.669
829.2077, 3207.815
829.6898, 3205.971
830.1719, 3197.884
830.6541, 3192.022
831.1362, 3191.913
831.6183, 3193.731
832.1004, 3192.987
832.5825, 3189.721
833.0646, 3186.674
833.5468, 3183.367
834.0289, 3181.090
834.5110, 3180.623
834.9931, 3180.603
835.4752, 3180.997
835.9573, 3181.069
836.4395, 3178.769
836.9216, 3172.531
837.4037, 3167.467
837.8858, 3167.529
838.3679, 3169.127
838.8500, 3168.315
839.3322, 3165.829
839.8143, 3164.548
840.2964, 3165.337
840.7785, 3165.788
841.2606, 3162.289
841.7427, 3164.270
842.2249, 3157.331
842.7070, 3164.666
843.1891, 3169.161
843.6712, 3167.956
844.1533, 3165.083
844.6354, 3163.779
845.1176, 3163.708
845.5997, 3163.277
846.0818, 3161.326
846.5639, 3160.881
847.0460, 3164.207
847.5281, 3166.547
848.0103, 3165.394
848.4924, 3161.963
848.9745, 3157.302
849.4566, 3151.638
849.9387, 3148.576
850.4208, 3152.702
850.9030, 3157.792
851.3851, 3157.761
851.8672, 3154.637
852.3493, 3152.338
852.8314, 3151.686
853.3135, 3151.469
853.7957, 3150.758
854.2778, 3149.982
854.7599, 3150.372
855.2420, 3151.887
855.7241, 3152.168
856.2062, 3150.460
856.6884, 3150.215
857.1705, 3154.163
857.6526, 3159.514
858.1347, 3161.030
858.6168, 3157.806
859.0989, 3154.671
859.5811, 3149.905
860.0632, 3147.399
860.5453, 3149.434
861.0274, 3153.019
861.5095, 3156.125
861.9916, 3158.369
862.4738, 3159.350
862.9559, 3158.849
863.4380, 3157.261
863.9201, 3153.223
864.4022, 3149.336
864.8843, 3149.585
865.3665, 3152.996
865.8486, 3155.903
866.3307, 3156.732
866.8128, 3155.995
867.2949, 3153.530
867.7770, 3150.052
868.2592, 3148.865
868.7413, 3150.005
869.2234, 3151.726
869.7055, 3153.763
870.1876, 3155.228
870.6697, 3154.863
871.1519, 3153.306
871.6340, 3154.402
872.1161, 3161.047
872.5981, 3164.720
873.0803, 3161.937
873.5624, 3159.405
874.0445, 3161.034
874.5266, 3164.052
875.0087, 3163.718
875.4908, 3159.153
875.9730, 3156.778
876.4551, 3162.479
876.9372, 3167.000
877.4193, 3162.308
877.9014, 3154.256
878.3835, 3150.938
878.8657, 3152.830
879.3478, 3155.675
879.8299, 3157.269
880.3120, 3157.463
880.7941, 3154.646
881.2762, 3150.392
881.7584, 3150.759
882.2405, 3155.751
882.7226, 3158.910
883.2047, 3157.159
883.6868, 3154.093
884.1689, 3154.815
884.6511, 3159.152
885.1332, 3161.695
885.6153, 3162.538
886.0974, 3161.103
886.5795, 3155.862
887.0616, 3150.071
887.5438, 3145.583
888.0259, 3142.471
888.5080, 3141.164
888.9901, 3142.982
889.4722, 3143.383
889.9543, 3139.413
890.4365, 3136.352
890.9186, 3138.376
891.4007, 3142.263
891.8828, 3143.121
892.3649, 3140.569
892.8470, 3138.756
893.3292, 3141.500
893.8113, 3144.126
894.2934, 3141.261
894.7755, 3135.559
895.2576, 3131.008
895.7397, 3128.363
896.2219, 3127.788
896.7040, 3129.418
897.1861, 3132.262
897.6682, 3135.984
898.1503, 3140.008
898.6324, 3138.732
899.1146, 3131.726
899.5967, 3126.066
900.0788, 3124.167
900.5609, 3123.185
901.0430, 3120.082
901.5251, 3115.492
902.0073, 3113.460
902.4894, 3115.106
902.9715, 3116.965
903.4536, 3118.577
903.9357, 3120.712
904.4178, 3124.368
904.9000, 3128.381
905.3821, 3131.108
905.8642, 3132.363
906.3463, 3133.218
906.8284, 3134.371
907.3105, 3134.625
907.7927, 3132.818
908.2748, 3130.268
908.7569, 3127.955
909.2390, 3126.205
909.7211, 3125.425
910.2032, 3125.918
910.6854, 3126.664
911.1675, 3126.611
911.6496, 3126.257
912.1317, 3126.465
912.6138, 3127.117
913.0959, 3127.763
913.5781, 3128.231
914.0602, 3128.324
914.5423, 3127.789
915.0244, 3126.846
915.5065, 3125.994
915.9886, 3125.234
916.4708, 3125.559
916.9529, 3127.479
917.4350, 3128.319
917.9171, 3126.253
918.3992, 3122.946
918.8813, 3121.253
919.3635, 3121.290
919.8456, 3122.251
920.3277, 3125.848
920.8098, 3127.613
921.2919, 3125.521
921.7740, 3122.275
922.2562, 3119.117
922.7383, 3116.332
923.2204, 3114.801
923.7025, 3115.375
924.1846, 3115.219
924.6667, 3111.979
925.1489, 3109.526
925.6310, 3110.770
926.1131, 3113.919
926.5952, 3116.815
927.0773, 3118.896
927.5594, 3119.952
928.0416, 3119.185
928.5237, 3118.422
929.0058, 3119.195
929.4879, 3121.119
929.9700, 3124.126
930.4521, 3127.734
930.9343, 3130.540
931.4164, 3131.964
931.8985, 3132.670
932.3806, 3133.954
932.8627, 3134.949
933.3448, 3131.651
933.8270, 3124.653
934.3091, 3120.532
934.7912, 3120.825
935.2733, 3122.635
935.7554, 3124.112
936.2375, 3125.267
936.7197, 3126.204
937.2018, 3127.111
937.6839, 3126.618
938.1660, 3123.977
938.6481, 3121.765
939.1302, 3120.429
939.6124, 3120.325
940.0945, 3122.315
940.5766, 3126.074
941.0587, 3128.715
941.5408, 3129.151
942.0229, 3130.109
942.5051, 3133.204
942.9872, 3135.153
943.4693, 3133.448
943.9514, 3130.085
944.4335, 3127.271
944.9156, 3125.392
945.3978, 3125.617
945.8799, 3131.294
946.3620, 3135.594
946.8441, 3134.218
947.3262, 3130.371
947.8083, 3126.278
948.2905, 3122.840
948.7726, 3121.243
949.2547, 3121.947
949.7368, 3123.256
950.2189, 3123.399
950.7010, 3123.601
951.1832, 3126.246
951.6653, 3130.136
952.1474, 3132.282
952.6295, 3132.247
953.1116, 3131.382
953.5938, 3130.462
954.0759, 3129.763
954.5580, 3130.527
955.0400, 3132.056
955.5222, 3129.643
956.0043, 3123.267
956.4864, 3118.999
956.9685, 3118.786
957.4506, 3121.555
957.9327, 3126.688
958.4149, 3133.415
958.8970, 3138.729
959.3791, 3143.198
959.8612, 3142.689
960.3433, 3134.101
960.8254, 3128.337
961.3076, 3132.265
961.7897, 3139.305
962.2718, 3140.338
962.7539, 3135.231
963.2360, 3131.336
963.7181, 3128.731
964.2003, 3127.245
964.6824, 3127.316
965.1645, 3127.962
965.6466, 3129.157
966.1287, 3130.382
966.6108, 3130.406
967.0930, 3128.869
967.5751, 3128.870
968.0572, 3134.003
968.5393, 3137.077
969.0214, 3133.209
969.5035, 3127.702
969.9857, 3125.822
970.4678, 3126.519
970.9499, 3125.412
971.4320, 3120.734
971.9141, 3117.493
972.3962, 3120.996
972.8784, 3124.904
973.3605, 3122.348
973.8426, 3117.024
974.3247, 3115.603
974.8068, 3118.114
975.2889, 3119.300
975.7711, 3116.018
976.2532, 3111.826
976.7353, 3111.132
977.2174, 3112.032
977.6995, 3110.616
978.1816, 3107.551
978.6638, 3105.819
979.1459, 3106.198
979.6280, 3107.595
980.1101, 3109.185
980.5922, 3111.049
981.0743, 3114.290
981.5565, 3118.198
982.0386, 3117.404
982.5207, 3111.705
983.0028, 3107.152
983.4849, 3106.117
983.9670, 3107.000
984.4492, 3108.382
984.9313, 3109.868
985.4134, 3109.478
985.8955, 3107.003
986.3776, 3103.578
986.8597, 3098.358
987.3419, 3096.116
987.8240, 3100.535
988.3061, 3106.497
988.7882, 3106.457
989.2703, 3100.443
989.7524, 3095.647
990.2346, 3091.655
990.7167, 3089.928
991.1988, 3092.335
991.6809, 3094.619
992.1630, 3093.162
992.6451, 3096.653
993.1273, 3092.901
993.6094, 3100.772
994.0915, 3105.683
994.5736, 3107.277
995.0557, 3106.300
995.5378, 3100.680
996.0200, 3094.699
996.5021, 3090.453
996.9842, 3088.130
997.4663, 3088.319
997.9484, 3091.513
998.4305, 3093.965
998.9127, 3095.091
999.3948, 3094.820
999.8769, 3092.159
1000.359, 3088.838
1000.841, 3085.612
1001.323, 3083.241
1001.805, 3083.600
1002.287, 3087.677
1002.770, 3091.017
1003.252, 3090.747
1003.734, 3089.563
1004.216, 3088.581
1004.698, 3088.413
1005.180, 3091.215
1005.662, 3095.560
1006.144, 3095.450
1006.627, 3087.414
1007.109, 3081.194
1007.591, 3088.027
1008.073, 3098.356
1008.555, 3101.437
1009.037, 3099.156
1009.519, 3094.616
1010.001, 3089.449
1010.483, 3086.790
1010.966, 3088.664
1011.448, 3092.150
1011.930, 3094.191
1012.412, 3095.215
1012.894, 3095.516
1013.376, 3095.597
1013.858, 3097.227
1014.340, 3100.617
1014.823, 3103.856
1015.305, 3105.555
1015.787, 3106.718
1016.269, 3109.678
1016.751, 3113.491
1017.233, 3114.053
1017.715, 3111.626
1018.197, 3109.309
1018.679, 3107.996
1019.162, 3107.149
1019.644, 3106.291
1020.126, 3105.763
1020.608, 3106.481
1021.090, 3108.357
1021.572, 3110.569
1022.054, 3113.127
1022.536, 3113.755
1023.018, 3111.379
1023.501, 3110.102
1023.983, 3114.016
1024.465, 3121.050
1024.947, 3124.300
1025.429, 3123.275
1025.911, 3124.438
1026.393, 3128.692
1026.875, 3130.957
1027.358, 3128.659
1027.840, 3126.477
1028.322, 3129.204
1028.804, 3135.565
1029.286, 3140.305
1029.768, 3143.123
1030.250, 3145.582
1030.732, 3147.748
1031.214, 3149.602
1031.697, 3151.601
1032.179, 3152.445
1032.661, 3150.390
1033.143, 3146.163
1033.625, 3143.068
1034.107, 3139.468
1034.589, 3141.594
1035.071, 3153.170
1035.553, 3163.973
1036.036, 3171.430
1036.518, 3175.397
1037.000, 3174.829
1037.482, 3170.466
1037.964, 3166.438
1038.446, 3160.544
1038.928, 3159.455
1039.410, 3168.089
1039.893, 3174.829
1040.375, 3174.305
1040.857, 3171.361
1041.339, 3169.791
1041.821, 3169.731
1042.303, 3172.127
1042.785, 3179.488
1043.267, 3184.441
1043.750, 3185.341
1044.232, 3185.457
1044.714, 3184.802
1045.196, 3184.723
1045.678, 3186.909
1046.160, 3190.875
1046.642, 3194.315
1047.124, 3196.906
1047.606, 3199.156
1048.089, 3203.024
1048.571, 3204.203
1049.053, 3198.166
1049.535, 3190.843
1050.017, 3188.456
1050.499, 3190.077
1050.981, 3190.318
1051.463, 3187.146
1051.945, 3185.885
1052.428, 3188.222
1052.910, 3192.082
1053.392, 3199.097
1053.874, 3205.228
1054.356, 3205.147
1054.838, 3200.669
1055.320, 3198.581
1055.802, 3200.223
1056.285, 3204.377
1056.767, 3214.991
1057.249, 3222.833
1057.731, 3220.816
1058.213, 3215.831
1058.695, 3214.127
1059.177, 3215.743
1059.659, 3218.904
1060.141, 3223.603
1060.624, 3227.885
1061.106, 3231.736
1061.588, 3234.214
1062.070, 3233.817
1062.552, 3232.648
1063.034, 3233.077
1063.516, 3234.507
1063.998, 3234.618
1064.480, 3232.600
1064.963, 3231.331
1065.445, 3232.179
1065.927, 3233.777
1066.409, 3236.130
1066.891, 3238.289
1067.373, 3239.824
1067.855, 3240.292
1068.337, 3238.512
1068.820, 3234.054
1069.302, 3230.343
1069.784, 3229.025
1070.266, 3228.581
1070.748, 3229.465
1071.230, 3229.775
1071.712, 3227.214
1072.194, 3222.875
1072.677, 3219.171
1073.159, 3216.644
1073.641, 3214.415
1074.123, 3213.600
1074.605, 3211.066
1075.087, 3202.995
1075.569, 3194.559
1076.051, 3191.140
1076.533, 3190.380
1077.016, 3186.596
1077.498, 3179.168
1077.980, 3174.543
1078.462, 3178.155
1078.944, 3181.188
1079.426, 3178.384
1079.908, 3174.286
1080.390, 3172.363
1080.872, 3171.815
1081.354, 3171.195
1081.837, 3170.183
1082.319, 3168.709
1082.801, 3166.817
1083.283, 3164.319
1083.765, 3161.278
1084.247, 3157.449
1084.729, 3151.464
1085.211, 3145.296
1085.694, 3141.365
1086.176, 3139.867
1086.658, 3140.060
1087.140, 3142.740
1087.622, 3144.069
1088.104, 3140.937
1088.586, 3137.590
1089.068, 3138.001
1089.551, 3138.776
1090.033, 3134.565
1090.515, 3126.917
1090.997, 3122.573
1091.479, 3123.735
1091.961, 3126.270
1092.443, 3131.483
1092.925, 3134.204
1093.407, 3131.041
1093.890, 3124.668
1094.372, 3115.141
1094.854, 3105.261
1095.336, 3101.729
1095.818, 3106.778
1096.300, 3109.678
1096.782, 3105.446
1097.264, 3100.586
1097.746, 3095.960
1098.229, 3093.308
1098.711, 3095.289
1099.193, 3099.660
1099.675, 3102.279
1100.157, 3102.552
1100.639, 3102.856
1101.121, 3103.856
1101.603, 3104.802
1102.086, 3106.333
1102.568, 3106.813
1103.050, 3103.480
1103.532, 3099.461
1104.014, 3099.787
1104.496, 3104.277
1104.978, 3107.095
1105.460, 3104.714
1105.943, 3104.929
1106.425, 3110.926
1106.907, 3117.381
1107.389, 3122.586
1107.871, 3126.604
1108.353, 3129.966
1108.835, 3132.352
1109.317, 3132.019
1109.799, 3127.228
1110.281, 3123.746
1110.764, 3124.556
1111.246, 3123.314
1111.728, 3115.972
1112.210, 3107.934
1112.692, 3102.671
1113.174, 3100.125
1113.656, 3100.163
1114.138, 3103.081
1114.621, 3107.263
1115.103, 3114.983
1115.585, 3120.216
1116.067, 3121.692
1116.549, 3120.856
1117.031, 3117.862
1117.513, 3113.579
1117.995, 3109.253
1118.478, 3104.907
1118.960, 3101.034
1119.442, 3098.410
1119.924, 3094.223
1120.406, 3086.452
1120.888, 3080.887
1121.370, 3080.671
1121.852, 3082.926
1122.334, 3085.254
1122.817, 3086.936
1123.299, 3083.299
1123.781, 3072.032
1124.263, 3065.186
1124.745, 3064.023
1125.227, 3063.725
1125.709, 3062.937
1126.191, 3062.233
1126.673, 3062.213
1127.156, 3062.380
1127.638, 3061.805
1128.120, 3060.538
1128.602, 3056.143
1129.084, 3048.163
1129.566, 3041.824
1130.048, 3038.185
1130.530, 3036.593
1131.013, 3036.938
1131.495, 3037.765
1131.977, 3036.733
1132.459, 3036.936
1132.941, 3034.040
1133.423, 3035.362
1133.905, 3034.968
1134.387, 3032.538
1134.870, 3029.144
1135.352, 3025.213
1135.834, 3022.432
1136.316, 3022.500
1136.798, 3024.547
1137.280, 3027.474
1137.762, 3030.699
1138.244, 3031.765
1138.726, 3031.059
1139.208, 3031.018
1139.691, 3032.180
1140.173, 3033.715
1140.655, 3035.188
1141.137, 3036.044
1141.619, 3035.310
1142.101, 3034.892
1142.583, 3032.503
1143.065, 3031.411
1143.548, 3028.800
1144.030, 3025.373
1144.512, 3024.433
1144.994, 3027.174
1145.476, 3030.814
1145.958, 3034.446
1146.440, 3036.260
1146.922, 3032.731
1147.405, 3027.612
1147.887, 3026.286
1148.369, 3026.994
1148.851, 3024.653
1149.333, 3018.989
1149.815, 3015.236
1150.297, 3016.147
1150.779, 3018.604
1151.261, 3021.306
1151.744, 3024.277
1152.226, 3028.119
1152.708, 3031.807
1153.190, 3035.133
1153.672, 3037.116
1154.154, 3034.549
1154.636, 3025.688
1155.118, 3019.590
1155.600, 3021.752
1156.083, 3023.218
1156.565, 3018.832
1157.047, 3014.801
1157.529, 3016.589
1158.011, 3021.079
1158.493, 3023.131
1158.975, 3022.512
1159.457, 3021.630
1159.940, 3019.618
1160.422, 3019.004
1160.904, 3019.975
1161.386, 3022.329
1161.868, 3028.371
1162.350, 3032.907
1162.832, 3030.490
1163.314, 3023.181
1163.796, 3017.059
1164.279, 3011.755
1164.761, 3010.252
1165.243, 3014.117
1165.725, 3016.101
1166.207, 3014.274
1166.689, 3012.164
1167.171, 3011.611
1167.653, 3012.510
1168.135, 3015.125
1168.618, 3018.814
1169.100, 3019.725
1169.582, 3017.893
1170.064, 3015.592
1170.546, 3013.061
1171.028, 3012.331
1171.510, 3014.084
1171.992, 3017.375
1172.474, 3021.724
1172.957, 3025.714
1173.439, 3026.899
1173.921, 3025.727
1174.403, 3022.052
1174.885, 3017.378
1175.367, 3017.313
1175.849, 3021.757
1176.331, 3025.386
1176.814, 3025.923
1177.296, 3026.145
1177.778, 3027.930
1178.260, 3031.438
1178.742, 3039.470
1179.224, 3047.397
1179.706, 3048.907
1180.188, 3045.241
1180.671, 3038.482
1181.153, 3030.136
1181.635, 3024.221
1182.117, 3023.426
1182.599, 3021.951
1183.081, 3014.806
1183.563, 3008.287
1184.045, 3006.184
1184.527, 3006.758
1185.010, 3010.064
1185.492, 3013.975
1185.974, 3013.327
1186.456, 3007.031
1186.938, 3004.099
1187.420, 3007.792
1187.902, 3012.215
1188.384, 3017.744
1188.866, 3022.208
1189.349, 3023.808
1189.831, 3024.742
1190.313, 3027.620
1190.795, 3031.624
1191.277, 3033.508
1191.759, 3032.874
1192.241, 3031.341
1192.723, 3027.816
1193.206, 3027.739
1193.688, 3033.347
1194.170, 3037.997
1194.652, 3037.707
1195.134, 3034.728
1195.616, 3031.833
1196.098, 3029.382
1196.580, 3029.585
1197.063, 3032.038
1197.545, 3032.211
1198.027, 3030.047
1198.509, 3028.455
1198.991, 3028.197
1199.473, 3027.324
1199.955, 3024.401
1200.437, 3021.154
1200.919, 3019.427
1201.401, 3019.169
1201.884, 3021.406
1202.366, 3024.448
1202.848, 3024.703
1203.330, 3022.671
1203.812, 3020.836
1204.294, 3020.042
1204.776, 3020.463
1205.258, 3023.257
1205.741, 3025.164
1206.223, 3022.200
1206.705, 3019.541
1207.187, 3022.311
1207.669, 3026.865
1208.151, 3028.875
1208.633, 3028.408
1209.115, 3027.051
1209.598, 3024.720
1210.080, 3023.501
1210.562, 3024.759
1211.044, 3025.593
1211.526, 3026.171
1212.008, 3025.168
1212.490, 3019.735
1212.972, 3014.862
1213.454, 3017.392
1213.937, 3025.374
1214.419, 3029.404
1214.901, 3029.076
1215.383, 3026.159
1215.865, 3019.783
1216.347, 3016.452
1216.829, 3017.866
1217.311, 3020.538
1217.793, 3022.536
1218.276, 3024.208
1218.758, 3026.400
1219.240, 3028.111
1219.722, 3025.496
1220.204, 3020.055
1220.686, 3016.260
1221.168, 3014.876
1221.650, 3018.528
1222.133, 3026.577
1222.615, 3031.416
1223.097, 3028.368
1223.579, 3024.827
1224.061, 3029.388
1224.543, 3034.617
1225.025, 3032.153
1225.507, 3027.053
1225.990, 3025.443
1226.472, 3026.098
1226.954, 3025.205
1227.436, 3022.336
1227.918, 3020.294
1228.400, 3019.723
1228.882, 3020.391
1229.364, 3024.367
1229.846, 3026.825
1230.328, 3024.491
1230.811, 3021.381
1231.293, 3020.738
1231.775, 3021.272
1232.257, 3020.371
1232.739, 3020.435
1233.221, 3020.826
1233.703, 3020.130
1234.185, 3021.495
1234.668, 3021.384
1235.150, 3021.249
1235.632, 3021.528
1236.114, 3022.296
1236.596, 3023.782
1237.078, 3024.900
1237.560, 3023.874
1238.042, 3020.914
1238.525, 3015.321
1239.007, 3008.630
1239.489, 3006.126
1239.971, 3007.402
1240.453, 3008.897
1240.935, 3009.398
1241.417, 3008.986
1241.899, 3007.360
1242.381, 3006.124
1242.864, 3006.469
1243.346, 3007.824
1243.828, 3010.896
1244.310, 3013.741
1244.792, 3013.424
1245.274, 3011.402
1245.756, 3011.849
1246.238, 3010.344
1246.720, 3008.293
1247.203, 3008.910
1247.685, 3004.396
1248.167, 3004.994
1248.649, 3004.636
1249.131, 3000.506
1249.613, 2996.442
1250.095, 2995.303
1250.577, 2996.292
1251.059, 2998.317
1251.542, 3001.073
1252.024, 3000.183
1252.506, 2995.684
1252.988, 2992.353
1253.470, 2990.701
1253.952, 2991.667
1254.434, 2995.361
1254.916, 2999.460
1255.399, 3002.430
1255.881, 3004.056
1256.363, 3002.414
1256.845, 3000.658
1257.327, 3004.249
1257.809, 3010.233
1258.291, 3014.669
1258.773, 3017.373
1259.255, 3019.140
1259.738, 3020.157
1260.220, 3020.444
1260.702, 3020.578
1261.184, 3018.478
1261.666, 3008.831
1262.148, 3003.089
1262.630, 3009.216
1263.112, 3017.275
1263.594, 3020.716
1264.077, 3021.187
1264.559, 3020.347
1265.041, 3018.620
1265.523, 3020.253
1266.005, 3026.384
1266.487, 3028.705
1266.969, 3026.584
1267.451, 3023.733
1267.934, 3020.923
1268.416, 3021.122
1268.898, 3026.208
1269.380, 3030.858
1269.862, 3027.441
1270.344, 3021.829
1270.826, 3025.736
1271.308, 3034.677
1271.791, 3041.514
1272.273, 3045.825
1272.755, 3047.285
1273.237, 3046.764
1273.719, 3047.305
1274.201, 3050.065
1274.683, 3051.806
1275.165, 3049.436
1275.647, 3048.177
1276.130, 3051.206
1276.612, 3054.501
1277.094, 3054.995
1277.576, 3055.234
1278.058, 3059.014
1278.540, 3064.208
1279.022, 3064.135
1279.504, 3068.364
1279.986, 3071.463
1280.469, 3071.293
1280.951, 3076.546
1281.433, 3073.240
1281.915, 3071.808
1282.397, 3076.022
1282.879, 3082.179
1283.361, 3087.638
1283.843, 3092.239
1284.326, 3095.849
1284.808, 3098.232
##END=



