##NAMES=Fluor-elbaite
##RRUFFID=R130035
##IDEAL CHEMISTRY=Na(Li_1.5_Al_1.5_)Al_6_(Si_6_O_18_)(BO_3_)_3_(OH)_3_F
##LOCALITY=Aqueana pegmatite, Aracuai, Minas Gerais, Brazil
##OWNER=RRUFF
##SOURCE=William W. Pinch
##DESCRIPTION=Green prismatic crystal; holotype specimen
##STATUS=The identification of this mineral has been confirmed only by single crystal X-ray diffraction.
##URL=rruff.info/R130035
8.936163e+001, 0.000000e+000
8.984375e+001, 3.882259e+002
9.032587e+001, 3.902696e+002
9.080798e+001, 3.907225e+002
9.129010e+001, 3.891360e+002
9.177222e+001, 3.864731e+002
9.225433e+001, 3.839093e+002
9.273645e+001, 3.813943e+002
9.321857e+001, 3.784652e+002
9.370068e+001, 3.745852e+002
9.418280e+001, 3.699547e+002
9.466492e+001, 3.652555e+002
9.514703e+001, 3.605810e+002
9.562915e+001, 3.560287e+002
9.611127e+001, 3.516859e+002
9.659338e+001, 3.475569e+002
9.707550e+001, 3.437554e+002
9.755762e+001, 3.402993e+002
9.803973e+001, 3.371730e+002
9.852185e+001, 3.346463e+002
9.900397e+001, 3.331803e+002
9.948608e+001, 3.328088e+002
9.996820e+001, 3.316346e+002
1.004503e+002, 3.296446e+002
1.009324e+002, 3.268354e+002
1.014146e+002, 3.229425e+002
1.018967e+002, 3.175044e+002
1.023788e+002, 3.122045e+002
1.028609e+002, 3.078040e+002
1.033430e+002, 3.043880e+002
1.038251e+002, 3.018204e+002
1.043073e+002, 3.005895e+002
1.047894e+002, 3.002907e+002
1.052715e+002, 2.987480e+002
1.057536e+002, 2.952448e+002
1.062357e+002, 2.912739e+002
1.067178e+002, 2.877528e+002
1.072000e+002, 2.844111e+002
1.076821e+002, 2.819908e+002
1.081642e+002, 2.812701e+002
1.086463e+002, 2.825019e+002
1.091284e+002, 2.819057e+002
1.096105e+002, 2.778686e+002
1.100927e+002, 2.726931e+002
1.105748e+002, 2.685648e+002
1.110569e+002, 2.662310e+002
1.115390e+002, 2.642741e+002
1.120211e+002, 2.625721e+002
1.125032e+002, 2.613135e+002
1.129854e+002, 2.595538e+002
1.134675e+002, 2.569702e+002
1.139496e+002, 2.538590e+002
1.144317e+002, 2.506074e+002
1.149138e+002, 2.465864e+002
1.153959e+002, 2.430037e+002
1.158781e+002, 2.405509e+002
1.163602e+002, 2.398661e+002
1.168423e+002, 2.391223e+002
1.173244e+002, 2.375803e+002
1.178065e+002, 2.354738e+002
1.182886e+002, 2.333974e+002
1.187708e+002, 2.316517e+002
1.192529e+002, 2.300067e+002
1.197350e+002, 2.282886e+002
1.202171e+002, 2.263064e+002
1.206992e+002, 2.244071e+002
1.211813e+002, 2.229248e+002
1.216635e+002, 2.217837e+002
1.221456e+002, 2.206025e+002
1.226277e+002, 2.191660e+002
1.231098e+002, 2.175424e+002
1.235919e+002, 2.158223e+002
1.240740e+002, 2.140588e+002
1.245562e+002, 2.121918e+002
1.250383e+002, 2.100252e+002
1.255204e+002, 2.075521e+002
1.260025e+002, 2.053036e+002
1.264846e+002, 2.038735e+002
1.269667e+002, 2.030425e+002
1.274489e+002, 2.022630e+002
1.279310e+002, 2.014597e+002
1.284131e+002, 2.005222e+002
1.288952e+002, 1.992567e+002
1.293773e+002, 1.976574e+002
1.298594e+002, 1.957016e+002
1.303416e+002, 1.928973e+002
1.308237e+002, 1.894415e+002
1.313058e+002, 1.865838e+002
1.317879e+002, 1.852272e+002
1.322700e+002, 1.851195e+002
1.327521e+002, 1.851276e+002
1.332343e+002, 1.852836e+002
1.337164e+002, 1.853161e+002
1.341985e+002, 1.846550e+002
1.346806e+002, 1.832660e+002
1.351627e+002, 1.816301e+002
1.356448e+002, 1.800487e+002
1.361270e+002, 1.785169e+002
1.366091e+002, 1.768941e+002
1.370912e+002, 1.750920e+002
1.375733e+002, 1.732290e+002
1.380554e+002, 1.716122e+002
1.385375e+002, 1.702902e+002
1.390197e+002, 1.690612e+002
1.395018e+002, 1.676491e+002
1.399839e+002, 1.659173e+002
1.404660e+002, 1.646893e+002
1.409481e+002, 1.642703e+002
1.414302e+002, 1.645792e+002
1.419124e+002, 1.645473e+002
1.423945e+002, 1.642001e+002
1.428766e+002, 1.634839e+002
1.433587e+002, 1.622600e+002
1.438408e+002, 1.602297e+002
1.443229e+002, 1.583262e+002
1.448051e+002, 1.567997e+002
1.452872e+002, 1.556912e+002
1.457693e+002, 1.544938e+002
1.462514e+002, 1.530049e+002
1.467335e+002, 1.515373e+002
1.472156e+002, 1.504749e+002
1.476978e+002, 1.500353e+002
1.481799e+002, 1.497514e+002
1.486620e+002, 1.496070e+002
1.491441e+002, 1.498801e+002
1.496262e+002, 1.495258e+002
1.501083e+002, 1.479704e+002
1.505905e+002, 1.458866e+002
1.510726e+002, 1.444490e+002
1.515547e+002, 1.443310e+002
1.520368e+002, 1.442888e+002
1.525189e+002, 1.439923e+002
1.530010e+002, 1.435888e+002
1.534832e+002, 1.426510e+002
1.539653e+002, 1.405246e+002
1.544474e+002, 1.378081e+002
1.549295e+002, 1.359382e+002
1.554116e+002, 1.359842e+002
1.558937e+002, 1.362683e+002
1.563759e+002, 1.360191e+002
1.568580e+002, 1.346131e+002
1.573401e+002, 1.333659e+002
1.578222e+002, 1.324844e+002
1.583043e+002, 1.319463e+002
1.587864e+002, 1.316687e+002
1.592686e+002, 1.318372e+002
1.597507e+002, 1.321384e+002
1.602328e+002, 1.323766e+002
1.607149e+002, 1.328102e+002
1.611970e+002, 1.328685e+002
1.616791e+002, 1.320645e+002
1.621613e+002, 1.305633e+002
1.626434e+002, 1.293798e+002
1.631255e+002, 1.293777e+002
1.636076e+002, 1.296938e+002
1.640897e+002, 1.295593e+002
1.645718e+002, 1.282105e+002
1.650540e+002, 1.267800e+002
1.655361e+002, 1.258209e+002
1.660182e+002, 1.253243e+002
1.665003e+002, 1.249987e+002
1.669824e+002, 1.249446e+002
1.674645e+002, 1.248979e+002
1.679467e+002, 1.245359e+002
1.684288e+002, 1.233796e+002
1.689109e+002, 1.221064e+002
1.693930e+002, 1.211698e+002
1.698751e+002, 1.205874e+002
1.703572e+002, 1.202234e+002
1.708394e+002, 1.200548e+002
1.713215e+002, 1.200293e+002
1.718036e+002, 1.200596e+002
1.722857e+002, 1.203952e+002
1.727678e+002, 1.206200e+002
1.732499e+002, 1.201250e+002
1.737321e+002, 1.187586e+002
1.742142e+002, 1.175158e+002
1.746963e+002, 1.176212e+002
1.751784e+002, 1.185212e+002
1.756605e+002, 1.189047e+002
1.761426e+002, 1.173889e+002
1.766248e+002, 1.152005e+002
1.771069e+002, 1.141032e+002
1.775890e+002, 1.143922e+002
1.780711e+002, 1.151701e+002
1.785532e+002, 1.155492e+002
1.790353e+002, 1.156203e+002
1.795175e+002, 1.156942e+002
1.799996e+002, 1.160605e+002
1.804817e+002, 1.165347e+002
1.809638e+002, 1.167725e+002
1.814459e+002, 1.167287e+002
1.819280e+002, 1.164538e+002
1.824102e+002, 1.158736e+002
1.828923e+002, 1.150521e+002
1.833744e+002, 1.143251e+002
1.838565e+002, 1.137496e+002
1.843386e+002, 1.134232e+002
1.848207e+002, 1.137881e+002
1.853029e+002, 1.151633e+002
1.857850e+002, 1.167736e+002
1.862671e+002, 1.172316e+002
1.867492e+002, 1.165798e+002
1.872313e+002, 1.157998e+002
1.877134e+002, 1.155873e+002
1.881956e+002, 1.158368e+002
1.886777e+002, 1.160494e+002
1.891598e+002, 1.161261e+002
1.896419e+002, 1.161508e+002
1.901240e+002, 1.163899e+002
1.906061e+002, 1.168625e+002
1.910883e+002, 1.171872e+002
1.915704e+002, 1.169314e+002
1.920525e+002, 1.161667e+002
1.925346e+002, 1.156087e+002
1.930167e+002, 1.153448e+002
1.934988e+002, 1.153097e+002
1.939810e+002, 1.153178e+002
1.944631e+002, 1.153270e+002
1.949452e+002, 1.153592e+002
1.954273e+002, 1.148669e+002
1.959094e+002, 1.138676e+002
1.963915e+002, 1.130983e+002
1.968737e+002, 1.127628e+002
1.973558e+002, 1.127279e+002
1.978379e+002, 1.125220e+002
1.983200e+002, 1.121294e+002
1.988021e+002, 1.116654e+002
1.992842e+002, 1.112074e+002
1.997664e+002, 1.107501e+002
2.002485e+002, 1.103815e+002
2.007306e+002, 1.101456e+002
2.012127e+002, 1.100142e+002
2.016948e+002, 1.097871e+002
2.021769e+002, 1.094223e+002
2.026591e+002, 1.090978e+002
2.031412e+002, 1.089847e+002
2.036233e+002, 1.090920e+002
2.041054e+002, 1.093064e+002
2.045875e+002, 1.095891e+002
2.050696e+002, 1.099478e+002
2.055518e+002, 1.104707e+002
2.060339e+002, 1.111575e+002
2.065160e+002, 1.119956e+002
2.069981e+002, 1.131285e+002
2.074802e+002, 1.147225e+002
2.079623e+002, 1.157600e+002
2.084445e+002, 1.157511e+002
2.089266e+002, 1.147674e+002
2.094087e+002, 1.146664e+002
2.098908e+002, 1.156653e+002
2.103729e+002, 1.171192e+002
2.108550e+002, 1.183934e+002
2.113372e+002, 1.194897e+002
2.118193e+002, 1.203500e+002
2.123014e+002, 1.208214e+002
2.127835e+002, 1.208965e+002
2.132656e+002, 1.215642e+002
2.137477e+002, 1.230756e+002
2.142299e+002, 1.248239e+002
2.147120e+002, 1.259872e+002
2.151941e+002, 1.262578e+002
2.156762e+002, 1.268410e+002
2.161583e+002, 1.281435e+002
2.166404e+002, 1.301993e+002
2.171226e+002, 1.320270e+002
2.176047e+002, 1.335472e+002
2.180868e+002, 1.349358e+002
2.185689e+002, 1.364898e+002
2.190510e+002, 1.384425e+002
2.195331e+002, 1.400150e+002
2.200153e+002, 1.408954e+002
2.204974e+002, 1.409849e+002
2.209795e+002, 1.416362e+002
2.214616e+002, 1.433283e+002
2.219437e+002, 1.450943e+002
2.224258e+002, 1.456439e+002
2.229080e+002, 1.443938e+002
2.233901e+002, 1.432000e+002
2.238722e+002, 1.427498e+002
2.243543e+002, 1.432404e+002
2.248364e+002, 1.426480e+002
2.253185e+002, 1.404654e+002
2.258007e+002, 1.376835e+002
2.262828e+002, 1.355495e+002
2.267649e+002, 1.344271e+002
2.272470e+002, 1.332468e+002
2.277291e+002, 1.317030e+002
2.282112e+002, 1.296945e+002
2.286934e+002, 1.279315e+002
2.291755e+002, 1.264982e+002
2.296576e+002, 1.252320e+002
2.301397e+002, 1.239727e+002
2.306218e+002, 1.227747e+002
2.311039e+002, 1.214480e+002
2.315861e+002, 1.198823e+002
2.320682e+002, 1.179693e+002
2.325503e+002, 1.164559e+002
2.330324e+002, 1.155072e+002
2.335145e+002, 1.148250e+002
2.339966e+002, 1.139940e+002
2.344788e+002, 1.127988e+002
2.349609e+002, 1.118618e+002
2.354430e+002, 1.114414e+002
2.359251e+002, 1.116575e+002
2.364072e+002, 1.115215e+002
2.368893e+002, 1.108216e+002
2.373715e+002, 1.099428e+002
2.378536e+002, 1.093825e+002
2.383357e+002, 1.093277e+002
2.388178e+002, 1.092438e+002
2.392999e+002, 1.089458e+002
2.397820e+002, 1.083749e+002
2.402642e+002, 1.080544e+002
2.407463e+002, 1.080959e+002
2.412284e+002, 1.082889e+002
2.417105e+002, 1.084176e+002
2.421926e+002, 1.086228e+002
2.426747e+002, 1.084976e+002
2.431569e+002, 1.078529e+002
2.436390e+002, 1.066000e+002
2.441211e+002, 1.055173e+002
2.446032e+002, 1.045714e+002
2.450853e+002, 1.038134e+002
2.455674e+002, 1.033810e+002
2.460496e+002, 1.036726e+002
2.465317e+002, 1.035392e+002
2.470138e+002, 1.025575e+002
2.474959e+002, 1.006069e+002
2.479780e+002, 9.918785e+001
2.484601e+002, 9.846320e+001
2.489423e+002, 9.809504e+001
2.494244e+002, 9.774876e+001
2.499065e+002, 9.750563e+001
2.503886e+002, 9.712117e+001
2.508707e+002, 9.646179e+001
2.513528e+002, 9.550967e+001
2.518350e+002, 9.484558e+001
2.523171e+002, 9.458723e+001
2.527992e+002, 9.449476e+001
2.532813e+002, 9.435983e+001
2.537634e+002, 9.426405e+001
2.542455e+002, 9.393412e+001
2.547277e+002, 9.318964e+001
2.552098e+002, 9.201332e+001
2.556919e+002, 9.130900e+001
2.561740e+002, 9.133914e+001
2.566561e+002, 9.150945e+001
2.571382e+002, 9.119901e+001
2.576204e+002, 9.010657e+001
2.581025e+002, 8.926600e+001
2.585846e+002, 8.895364e+001
2.590667e+002, 8.913645e+001
2.595488e+002, 8.915592e+001
2.600309e+002, 8.900951e+001
2.605131e+002, 8.870610e+001
2.609952e+002, 8.821156e+001
2.614773e+002, 8.740726e+001
2.619594e+002, 8.674125e+001
2.624415e+002, 8.631802e+001
2.629236e+002, 8.611317e+001
2.634058e+002, 8.591325e+001
2.638879e+002, 8.571723e+001
2.643700e+002, 8.552653e+001
2.648521e+002, 8.531222e+001
2.653342e+002, 8.502664e+001
2.658163e+002, 8.489370e+001
2.662985e+002, 8.499282e+001
2.667806e+002, 8.527598e+001
2.672627e+002, 8.551237e+001
2.677448e+002, 8.576705e+001
2.682269e+002, 8.583222e+001
2.687090e+002, 8.550354e+001
2.691912e+002, 8.467714e+001
2.696733e+002, 8.387149e+001
2.701554e+002, 8.311777e+001
2.706375e+002, 8.243314e+001
2.711196e+002, 8.191533e+001
2.716017e+002, 8.156899e+001
2.720839e+002, 8.137415e+001
2.725660e+002, 8.137883e+001
2.730481e+002, 8.163075e+001
2.735302e+002, 8.178117e+001
2.740123e+002, 8.182771e+001
2.744944e+002, 8.173487e+001
2.749766e+002, 8.135207e+001
2.754587e+002, 8.062138e+001
2.759408e+002, 7.983532e+001
2.764229e+002, 7.919607e+001
2.769050e+002, 7.871606e+001
2.773871e+002, 7.818588e+001
2.778693e+002, 7.757340e+001
2.783514e+002, 7.692410e+001
2.788335e+002, 7.636612e+001
2.793156e+002, 7.591847e+001
2.797977e+002, 7.541988e+001
2.802798e+002, 7.467832e+001
2.807620e+002, 7.369651e+001
2.812441e+002, 7.308534e+001
2.817262e+002, 7.297124e+001
2.822083e+002, 7.306057e+001
2.826904e+002, 7.283574e+001
2.831725e+002, 7.228140e+001
2.836547e+002, 7.162725e+001
2.841368e+002, 7.089522e+001
2.846189e+002, 7.011392e+001
2.851010e+002, 6.960984e+001
2.855831e+002, 6.945625e+001
2.860652e+002, 6.939286e+001
2.865474e+002, 6.899712e+001
2.870295e+002, 6.827651e+001
2.875116e+002, 6.759386e+001
2.879937e+002, 6.711831e+001
2.884758e+002, 6.681808e+001
2.889579e+002, 6.655244e+001
2.894401e+002, 6.632821e+001
2.899222e+002, 6.609208e+001
2.904043e+002, 6.576165e+001
2.908864e+002, 6.534879e+001
2.913685e+002, 6.494616e+001
2.918506e+002, 6.460095e+001
2.923328e+002, 6.429169e+001
2.928149e+002, 6.396586e+001
2.932970e+002, 6.362074e+001
2.937791e+002, 6.327125e+001
2.942612e+002, 6.290014e+001
2.947433e+002, 6.252886e+001
2.952255e+002, 6.224483e+001
2.957076e+002, 6.204220e+001
2.961897e+002, 6.196621e+001
2.966718e+002, 6.223909e+001
2.971539e+002, 6.284810e+001
2.976360e+002, 6.334515e+001
2.981182e+002, 6.323081e+001
2.986003e+002, 6.270319e+001
2.990824e+002, 6.224102e+001
2.995645e+002, 6.192746e+001
3.000466e+002, 6.179057e+001
3.005287e+002, 6.195355e+001
3.010109e+002, 6.237831e+001
3.014930e+002, 6.280278e+001
3.019751e+002, 6.305672e+001
3.024572e+002, 6.317761e+001
3.029393e+002, 6.319822e+001
3.034214e+002, 6.306251e+001
3.039036e+002, 6.294756e+001
3.043857e+002, 6.317919e+001
3.048678e+002, 6.363842e+001
3.053499e+002, 6.389019e+001
3.058320e+002, 6.332537e+001
3.063141e+002, 6.253385e+001
3.067963e+002, 6.229417e+001
3.072784e+002, 6.286972e+001
3.077605e+002, 6.359611e+001
3.082426e+002, 6.393328e+001
3.087247e+002, 6.399491e+001
3.092068e+002, 6.405389e+001
3.096890e+002, 6.423589e+001
3.101711e+002, 6.448224e+001
3.106532e+002, 6.474461e+001
3.111353e+002, 6.501600e+001
3.116174e+002, 6.530008e+001
3.120995e+002, 6.561069e+001
3.125817e+002, 6.592925e+001
3.130638e+002, 6.623066e+001
3.135459e+002, 6.654650e+001
3.140280e+002, 6.681359e+001
3.145101e+002, 6.696307e+001
3.149922e+002, 6.698196e+001
3.154744e+002, 6.703501e+001
3.159565e+002, 6.725059e+001
3.164386e+002, 6.752811e+001
3.169207e+002, 6.775019e+001
3.174028e+002, 6.786517e+001
3.178849e+002, 6.793668e+001
3.183671e+002, 6.798067e+001
3.188492e+002, 6.800001e+001
3.193313e+002, 6.801370e+001
3.198134e+002, 6.798939e+001
3.202955e+002, 6.798220e+001
3.207776e+002, 6.803572e+001
3.212598e+002, 6.819896e+001
3.217419e+002, 6.838000e+001
3.222240e+002, 6.859779e+001
3.227061e+002, 6.883092e+001
3.231882e+002, 6.897257e+001
3.236703e+002, 6.890004e+001
3.241525e+002, 6.879952e+001
3.246346e+002, 6.876710e+001
3.251167e+002, 6.871477e+001
3.255988e+002, 6.886336e+001
3.260809e+002, 6.932212e+001
3.265630e+002, 7.000447e+001
3.270452e+002, 7.067507e+001
3.275273e+002, 7.146999e+001
3.280094e+002, 7.211510e+001
3.284915e+002, 7.248222e+001
3.289736e+002, 7.236884e+001
3.294557e+002, 7.242482e+001
3.299379e+002, 7.281187e+001
3.304200e+002, 7.331802e+001
3.309021e+002, 7.358208e+001
3.313842e+002, 7.330994e+001
3.318663e+002, 7.318906e+001
3.323484e+002, 7.346080e+001
3.328306e+002, 7.420360e+001
3.333127e+002, 7.480025e+001
3.337948e+002, 7.530143e+001
3.342769e+002, 7.561040e+001
3.347590e+002, 7.554153e+001
3.352411e+002, 7.478554e+001
3.357233e+002, 7.435853e+001
3.362054e+002, 7.457433e+001
3.366875e+002, 7.538454e+001
3.371696e+002, 7.595114e+001
3.376517e+002, 7.622314e+001
3.381339e+002, 7.635258e+001
3.386160e+002, 7.642661e+001
3.390981e+002, 7.641909e+001
3.395802e+002, 7.649801e+001
3.400623e+002, 7.671175e+001
3.405444e+002, 7.701710e+001
3.410266e+002, 7.722023e+001
3.415087e+002, 7.728258e+001
3.419908e+002, 7.743351e+001
3.424729e+002, 7.792153e+001
3.429550e+002, 7.873837e+001
3.434371e+002, 7.926287e+001
3.439193e+002, 7.937947e+001
3.444014e+002, 7.929799e+001
3.448835e+002, 7.939490e+001
3.453656e+002, 7.966882e+001
3.458477e+002, 7.993758e+001
3.463298e+002, 8.016975e+001
3.468120e+002, 8.033703e+001
3.472941e+002, 8.024428e+001
3.477762e+002, 7.984619e+001
3.482583e+002, 7.941287e+001
3.487404e+002, 7.923550e+001
3.492225e+002, 7.929208e+001
3.497047e+002, 7.949363e+001
3.501868e+002, 7.992683e+001
3.506689e+002, 8.042836e+001
3.511510e+002, 8.064610e+001
3.516331e+002, 8.058507e+001
3.521152e+002, 8.056684e+001
3.525974e+002, 8.090195e+001
3.530795e+002, 8.146322e+001
3.535616e+002, 8.199731e+001
3.540437e+002, 8.232722e+001
3.545258e+002, 8.273702e+001
3.550079e+002, 8.360720e+001
3.554901e+002, 8.485154e+001
3.559722e+002, 8.609641e+001
3.564543e+002, 8.710143e+001
3.569364e+002, 8.799387e+001
3.574185e+002, 8.887913e+001
3.579006e+002, 8.970987e+001
3.583828e+002, 9.071388e+001
3.588649e+002, 9.216335e+001
3.593470e+002, 9.389368e+001
3.598291e+002, 9.558204e+001
3.603112e+002, 9.697674e+001
3.607933e+002, 9.836888e+001
3.612755e+002, 9.997662e+001
3.617576e+002, 1.018516e+002
3.622397e+002, 1.036974e+002
3.627218e+002, 1.051887e+002
3.632039e+002, 1.066657e+002
3.636860e+002, 1.085083e+002
3.641682e+002, 1.109802e+002
3.646503e+002, 1.136916e+002
3.651324e+002, 1.165000e+002
3.656145e+002, 1.194224e+002
3.660966e+002, 1.224508e+002
3.665787e+002, 1.256249e+002
3.670609e+002, 1.288792e+002
3.675430e+002, 1.321718e+002
3.680251e+002, 1.357405e+002
3.685072e+002, 1.390881e+002
3.689893e+002, 1.422007e+002
3.694714e+002, 1.450565e+002
3.699536e+002, 1.474989e+002
3.704357e+002, 1.498670e+002
3.709178e+002, 1.514693e+002
3.713999e+002, 1.520058e+002
3.718820e+002, 1.513282e+002
3.723641e+002, 1.499802e+002
3.728463e+002, 1.479713e+002
3.733284e+002, 1.453034e+002
3.738105e+002, 1.418743e+002
3.742926e+002, 1.374099e+002
3.747747e+002, 1.327609e+002
3.752568e+002, 1.280538e+002
3.757390e+002, 1.232659e+002
3.762211e+002, 1.187296e+002
3.767032e+002, 1.143205e+002
3.771853e+002, 1.103228e+002
3.776674e+002, 1.070470e+002
3.781495e+002, 1.045742e+002
3.786317e+002, 1.019677e+002
3.791138e+002, 9.892104e+001
3.795959e+002, 9.568118e+001
3.800780e+002, 9.291383e+001
3.805601e+002, 9.065179e+001
3.810422e+002, 8.866440e+001
3.815244e+002, 8.686889e+001
3.820065e+002, 8.522765e+001
3.824886e+002, 8.359992e+001
3.829707e+002, 8.192363e+001
3.834528e+002, 8.035591e+001
3.839349e+002, 7.911215e+001
3.844171e+002, 7.816299e+001
3.848992e+002, 7.734832e+001
3.853813e+002, 7.660165e+001
3.858634e+002, 7.592082e+001
3.863455e+002, 7.529772e+001
3.868276e+002, 7.473625e+001
3.873098e+002, 7.419658e+001
3.877919e+002, 7.374585e+001
3.882740e+002, 7.327110e+001
3.887561e+002, 7.255183e+001
3.892382e+002, 7.109146e+001
3.897203e+002, 6.976385e+001
3.902025e+002, 6.957095e+001
3.906846e+002, 7.027697e+001
3.911667e+002, 7.076596e+001
3.916488e+002, 7.014179e+001
3.921309e+002, 6.917641e+001
3.926130e+002, 6.852967e+001
3.930952e+002, 6.845906e+001
3.935773e+002, 6.845004e+001
3.940594e+002, 6.824463e+001
3.945415e+002, 6.795905e+001
3.950236e+002, 6.780874e+001
3.955057e+002, 6.799148e+001
3.959879e+002, 6.820718e+001
3.964700e+002, 6.831425e+001
3.969521e+002, 6.827358e+001
3.974342e+002, 6.832030e+001
3.979163e+002, 6.851351e+001
3.983984e+002, 6.879960e+001
3.988806e+002, 6.912950e+001
3.993627e+002, 6.962935e+001
3.998448e+002, 7.002307e+001
4.003269e+002, 7.023219e+001
4.008090e+002, 7.028614e+001
4.012911e+002, 7.039681e+001
4.017733e+002, 7.055113e+001
4.022554e+002, 7.077735e+001
4.027375e+002, 7.110176e+001
4.032196e+002, 7.157679e+001
4.037017e+002, 7.201981e+001
4.041838e+002, 7.241553e+001
4.046660e+002, 7.278612e+001
4.051481e+002, 7.319268e+001
4.056302e+002, 7.368436e+001
4.061123e+002, 7.403293e+001
4.065944e+002, 7.406120e+001
4.070765e+002, 7.379856e+001
4.075587e+002, 7.400114e+001
4.080408e+002, 7.481772e+001
4.085229e+002, 7.553720e+001
4.090050e+002, 7.525126e+001
4.094871e+002, 7.403711e+001
4.099692e+002, 7.303052e+001
4.104514e+002, 7.252570e+001
4.109335e+002, 7.230633e+001
4.114156e+002, 7.203928e+001
4.118977e+002, 7.171102e+001
4.123798e+002, 7.113518e+001
4.128619e+002, 7.007133e+001
4.133441e+002, 6.870325e+001
4.138262e+002, 6.732898e+001
4.143083e+002, 6.595172e+001
4.147904e+002, 6.470232e+001
4.152725e+002, 6.374580e+001
4.157546e+002, 6.300162e+001
4.162368e+002, 6.227818e+001
4.167189e+002, 6.154214e+001
4.172010e+002, 6.076850e+001
4.176831e+002, 5.993364e+001
4.181652e+002, 5.904352e+001
4.186473e+002, 5.808392e+001
4.191295e+002, 5.684697e+001
4.196116e+002, 5.564480e+001
4.200937e+002, 5.478550e+001
4.205758e+002, 5.451796e+001
4.210579e+002, 5.433044e+001
4.215400e+002, 5.410583e+001
4.220222e+002, 5.383687e+001
4.225043e+002, 5.349915e+001
4.229864e+002, 5.298629e+001
4.234685e+002, 5.249684e+001
4.239506e+002, 5.212766e+001
4.244327e+002, 5.195484e+001
4.249149e+002, 5.166843e+001
4.253970e+002, 5.108423e+001
4.258791e+002, 5.047826e+001
4.263612e+002, 5.013296e+001
4.268433e+002, 5.027510e+001
4.273254e+002, 5.031306e+001
4.278076e+002, 5.009393e+001
4.282897e+002, 4.967295e+001
4.287718e+002, 4.949750e+001
4.292539e+002, 4.970974e+001
4.297360e+002, 4.988118e+001
4.302181e+002, 4.968671e+001
4.307003e+002, 4.903616e+001
4.311824e+002, 4.863874e+001
4.316645e+002, 4.858079e+001
4.321466e+002, 4.868803e+001
4.326287e+002, 4.866361e+001
4.331108e+002, 4.850515e+001
4.335930e+002, 4.837572e+001
4.340751e+002, 4.834806e+001
4.345572e+002, 4.839669e+001
4.350393e+002, 4.844750e+001
4.355214e+002, 4.850141e+001
4.360035e+002, 4.853909e+001
4.364857e+002, 4.853590e+001
4.369678e+002, 4.850315e+001
4.374499e+002, 4.845739e+001
4.379320e+002, 4.837803e+001
4.384141e+002, 4.833562e+001
4.388962e+002, 4.843663e+001
4.393784e+002, 4.864317e+001
4.398605e+002, 4.884463e+001
4.403426e+002, 4.906548e+001
4.408247e+002, 4.920118e+001
4.413068e+002, 4.907531e+001
4.417889e+002, 4.864092e+001
4.422711e+002, 4.837243e+001
4.427532e+002, 4.862105e+001
4.432353e+002, 4.911318e+001
4.437174e+002, 4.956471e+001
4.441995e+002, 4.998872e+001
4.446816e+002, 5.026406e+001
4.451638e+002, 5.025478e+001
4.456459e+002, 5.003556e+001
4.461280e+002, 4.994811e+001
4.466101e+002, 5.020140e+001
4.470922e+002, 5.046486e+001
4.475743e+002, 5.060488e+001
4.480565e+002, 5.061639e+001
4.485386e+002, 5.050639e+001
4.490207e+002, 5.018686e+001
4.495028e+002, 4.980187e+001
4.499849e+002, 4.956381e+001
4.504670e+002, 4.958943e+001
4.509492e+002, 4.948107e+001
4.514313e+002, 4.906675e+001
4.519134e+002, 4.842306e+001
4.523955e+002, 4.818337e+001
4.528776e+002, 4.846158e+001
4.533597e+002, 4.876537e+001
4.538419e+002, 4.875006e+001
4.543240e+002, 4.842274e+001
4.548061e+002, 4.800629e+001
4.552882e+002, 4.747489e+001
4.557703e+002, 4.698470e+001
4.562524e+002, 4.686744e+001
4.567346e+002, 4.706139e+001
4.572167e+002, 4.716590e+001
4.576988e+002, 4.690348e+001
4.581809e+002, 4.649179e+001
4.586630e+002, 4.631593e+001
4.591451e+002, 4.636605e+001
4.596273e+002, 4.646682e+001
4.601094e+002, 4.650783e+001
4.605915e+002, 4.651173e+001
4.610736e+002, 4.650757e+001
4.615557e+002, 4.650258e+001
4.620378e+002, 4.648894e+001
4.625200e+002, 4.648821e+001
4.630021e+002, 4.647422e+001
4.634842e+002, 4.639537e+001
4.639663e+002, 4.606701e+001
4.644484e+002, 4.581200e+001
4.649305e+002, 4.586127e+001
4.654127e+002, 4.624792e+001
4.658948e+002, 4.648971e+001
4.663769e+002, 4.640173e+001
4.668590e+002, 4.618501e+001
4.673411e+002, 4.598375e+001
4.678232e+002, 4.572507e+001
4.683054e+002, 4.558961e+001
4.687875e+002, 4.565154e+001
4.692696e+002, 4.582814e+001
4.697517e+002, 4.591570e+001
4.702338e+002, 4.588158e+001
4.707159e+002, 4.581532e+001
4.711981e+002, 4.574019e+001
4.716802e+002, 4.565515e+001
4.721623e+002, 4.557666e+001
4.726444e+002, 4.549397e+001
4.731265e+002, 4.544834e+001
4.736086e+002, 4.549818e+001
4.740908e+002, 4.564173e+001
4.745729e+002, 4.578905e+001
4.750550e+002, 4.594405e+001
4.755371e+002, 4.606251e+001
4.760192e+002, 4.601310e+001
4.765013e+002, 4.581963e+001
4.769835e+002, 4.567281e+001
4.774656e+002, 4.570006e+001
4.779477e+002, 4.583194e+001
4.784298e+002, 4.599062e+001
4.789119e+002, 4.617479e+001
4.793940e+002, 4.628740e+001
4.798762e+002, 4.605742e+001
4.803583e+002, 4.577179e+001
4.808404e+002, 4.583425e+001
4.813225e+002, 4.667531e+001
4.818046e+002, 4.746089e+001
4.822867e+002, 4.773743e+001
4.827689e+002, 4.762676e+001
4.832510e+002, 4.744095e+001
4.837331e+002, 4.703901e+001
4.842152e+002, 4.679344e+001
4.846973e+002, 4.694893e+001
4.851794e+002, 4.763654e+001
4.856616e+002, 4.812831e+001
4.861437e+002, 4.817648e+001
4.866258e+002, 4.811735e+001
4.871079e+002, 4.820732e+001
4.875900e+002, 4.851768e+001
4.880721e+002, 4.886128e+001
4.885543e+002, 4.926329e+001
4.890364e+002, 4.967339e+001
4.895185e+002, 4.992446e+001
4.900006e+002, 4.996848e+001
4.904827e+002, 4.999830e+001
4.909648e+002, 5.014325e+001
4.914470e+002, 5.038834e+001
4.919291e+002, 5.033913e+001
4.924112e+002, 4.993433e+001
4.928933e+002, 4.953239e+001
4.933754e+002, 4.958187e+001
4.938575e+002, 4.997497e+001
4.943397e+002, 5.022092e+001
4.948218e+002, 5.016565e+001
4.953039e+002, 5.000615e+001
4.957860e+002, 5.000981e+001
4.962681e+002, 5.013906e+001
4.967502e+002, 5.026399e+001
4.972324e+002, 5.029510e+001
4.977145e+002, 5.030360e+001
4.981966e+002, 5.036964e+001
4.986787e+002, 5.049792e+001
4.991608e+002, 5.059712e+001
4.996429e+002, 5.063380e+001
5.001251e+002, 5.061172e+001
5.006072e+002, 5.052964e+001
5.010893e+002, 5.029660e+001
5.015714e+002, 5.012902e+001
5.020535e+002, 5.019313e+001
5.025356e+002, 5.034975e+001
5.030178e+002, 5.028119e+001
5.034999e+002, 4.965591e+001
5.039820e+002, 4.913847e+001
5.044641e+002, 4.895207e+001
5.049462e+002, 4.911567e+001
5.054283e+002, 4.909937e+001
5.059105e+002, 4.882655e+001
5.063926e+002, 4.849421e+001
5.068747e+002, 4.827251e+001
5.073568e+002, 4.819571e+001
5.078389e+002, 4.797762e+001
5.083210e+002, 4.754004e+001
5.088032e+002, 4.704942e+001
5.092853e+002, 4.681947e+001
5.097674e+002, 4.683667e+001
5.102495e+002, 4.688544e+001
5.107316e+002, 4.692124e+001
5.112137e+002, 4.690952e+001
5.116959e+002, 4.677573e+001
5.121780e+002, 4.652255e+001
5.126601e+002, 4.617752e+001
5.131422e+002, 4.563228e+001
5.136243e+002, 4.505808e+001
5.141064e+002, 4.470119e+001
5.145886e+002, 4.465507e+001
5.150707e+002, 4.464193e+001
5.155528e+002, 4.451253e+001
5.160349e+002, 4.430294e+001
5.165170e+002, 4.406337e+001
5.169991e+002, 4.380383e+001
5.174813e+002, 4.352446e+001
5.179634e+002, 4.320859e+001
5.184455e+002, 4.286436e+001
5.189276e+002, 4.255149e+001
5.194097e+002, 4.229954e+001
5.198918e+002, 4.206339e+001
5.203740e+002, 4.181800e+001
5.208561e+002, 4.152829e+001
5.213382e+002, 4.134788e+001
5.218203e+002, 4.132960e+001
5.223024e+002, 4.135802e+001
5.227845e+002, 4.127897e+001
5.232667e+002, 4.105921e+001
5.237488e+002, 4.091875e+001
5.242309e+002, 4.091715e+001
5.247130e+002, 4.100651e+001
5.251951e+002, 4.112326e+001
5.256772e+002, 4.126374e+001
5.261594e+002, 4.126157e+001
5.266415e+002, 4.087832e+001
5.271236e+002, 4.031141e+001
5.276057e+002, 4.003421e+001
5.280878e+002, 4.006533e+001
5.285699e+002, 4.016753e+001
5.290521e+002, 4.012003e+001
5.295342e+002, 4.003484e+001
5.300163e+002, 4.008273e+001
5.304984e+002, 4.042210e+001
5.309805e+002, 4.069136e+001
5.314626e+002, 4.065907e+001
5.319448e+002, 4.041648e+001
5.324269e+002, 4.014148e+001
5.329090e+002, 3.972310e+001
5.333911e+002, 3.943544e+001
5.338732e+002, 3.943212e+001
5.343553e+002, 3.972899e+001
5.348375e+002, 3.991506e+001
5.353196e+002, 3.988175e+001
5.358017e+002, 3.983129e+001
5.362838e+002, 3.989980e+001
5.367659e+002, 4.020919e+001
5.372480e+002, 4.028175e+001
5.377302e+002, 4.006166e+001
5.382123e+002, 3.967573e+001
5.386944e+002, 3.925989e+001
5.391765e+002, 3.879819e+001
5.396586e+002, 3.849934e+001
5.401407e+002, 3.846779e+001
5.406229e+002, 3.859562e+001
5.411050e+002, 3.859998e+001
5.415871e+002, 3.850076e+001
5.420692e+002, 3.849252e+001
5.425513e+002, 3.888524e+001
5.430334e+002, 3.937710e+001
5.435156e+002, 3.945335e+001
5.439977e+002, 3.906859e+001
5.444798e+002, 3.862645e+001
5.449619e+002, 3.838735e+001
5.454440e+002, 3.825582e+001
5.459261e+002, 3.812345e+001
5.464083e+002, 3.789888e+001
5.468904e+002, 3.775820e+001
5.473725e+002, 3.782569e+001
5.478546e+002, 3.801472e+001
5.483367e+002, 3.814198e+001
5.488188e+002, 3.804229e+001
5.493010e+002, 3.802773e+001
5.497831e+002, 3.825940e+001
5.502652e+002, 3.872966e+001
5.507473e+002, 3.885583e+001
5.512294e+002, 3.844598e+001
5.517115e+002, 3.801653e+001
5.521937e+002, 3.791400e+001
5.526758e+002, 3.817964e+001
5.531579e+002, 3.838413e+001
5.536400e+002, 3.850365e+001
5.541221e+002, 3.858001e+001
5.546042e+002, 3.868706e+001
5.550864e+002, 3.881042e+001
5.555685e+002, 3.884840e+001
5.560506e+002, 3.872607e+001
5.565327e+002, 3.856066e+001
5.570148e+002, 3.853805e+001
5.574969e+002, 3.862288e+001
5.579791e+002, 3.868309e+001
5.584612e+002, 3.857502e+001
5.589433e+002, 3.845702e+001
5.594254e+002, 3.850759e+001
5.599075e+002, 3.874220e+001
5.603896e+002, 3.887032e+001
5.608718e+002, 3.871882e+001
5.613539e+002, 3.844814e+001
5.618360e+002, 3.816585e+001
5.623181e+002, 3.772260e+001
5.628002e+002, 3.752800e+001
5.632823e+002, 3.775962e+001
5.637645e+002, 3.817824e+001
5.642466e+002, 3.842724e+001
5.647287e+002, 3.847408e+001
5.652108e+002, 3.841957e+001
5.656929e+002, 3.827208e+001
5.661750e+002, 3.804314e+001
5.666572e+002, 3.773330e+001
5.671393e+002, 3.731915e+001
5.676214e+002, 3.700510e+001
5.681035e+002, 3.699242e+001
5.685856e+002, 3.718818e+001
5.690677e+002, 3.721504e+001
5.695499e+002, 3.705169e+001
5.700320e+002, 3.685119e+001
5.705141e+002, 3.673980e+001
5.709962e+002, 3.669209e+001
5.714783e+002, 3.667526e+001
5.719604e+002, 3.670673e+001
5.724426e+002, 3.671306e+001
5.729247e+002, 3.661332e+001
5.734068e+002, 3.646099e+001
5.738889e+002, 3.634959e+001
5.743710e+002, 3.630029e+001
5.748531e+002, 3.630827e+001
5.753353e+002, 3.640601e+001
5.758174e+002, 3.658334e+001
5.762995e+002, 3.670446e+001
5.767816e+002, 3.676115e+001
5.772637e+002, 3.676656e+001
5.777458e+002, 3.671017e+001
5.782280e+002, 3.656898e+001
5.787101e+002, 3.649685e+001
5.791922e+002, 3.651292e+001
5.796743e+002, 3.655577e+001
5.801564e+002, 3.657305e+001
5.806385e+002, 3.656399e+001
5.811207e+002, 3.651309e+001
5.816028e+002, 3.641833e+001
5.820849e+002, 3.627870e+001
5.825670e+002, 3.602202e+001
5.830491e+002, 3.570740e+001
5.835313e+002, 3.551514e+001
5.840134e+002, 3.560769e+001
5.844955e+002, 3.580907e+001
5.849776e+002, 3.603878e+001
5.854597e+002, 3.626616e+001
5.859418e+002, 3.632843e+001
5.864240e+002, 3.593390e+001
5.869061e+002, 3.551738e+001
5.873882e+002, 3.534454e+001
5.878703e+002, 3.550821e+001
5.883524e+002, 3.567014e+001
5.888345e+002, 3.581119e+001
5.893167e+002, 3.592134e+001
5.897988e+002, 3.599287e+001
5.902809e+002, 3.602761e+001
5.907630e+002, 3.601964e+001
5.912451e+002, 3.596952e+001
5.917272e+002, 3.587606e+001
5.922094e+002, 3.570546e+001
5.926915e+002, 3.544987e+001
5.931736e+002, 3.526617e+001
5.936557e+002, 3.521540e+001
5.941378e+002, 3.526629e+001
5.946199e+002, 3.539354e+001
5.951021e+002, 3.558036e+001
5.955842e+002, 3.569735e+001
5.960663e+002, 3.560509e+001
5.965484e+002, 3.542553e+001
5.970305e+002, 3.528935e+001
5.975126e+002, 3.520730e+001
5.979948e+002, 3.516043e+001
5.984769e+002, 3.514647e+001
5.989590e+002, 3.515901e+001
5.994411e+002, 3.519462e+001
5.999232e+002, 3.527332e+001
6.004053e+002, 3.534141e+001
6.008875e+002, 3.540194e+001
6.013696e+002, 3.544321e+001
6.018517e+002, 3.544487e+001
6.023338e+002, 3.538644e+001
6.028159e+002, 3.532890e+001
6.032980e+002, 3.528265e+001
6.037802e+002, 3.524535e+001
6.042623e+002, 3.518280e+001
6.047444e+002, 3.508224e+001
6.052265e+002, 3.506808e+001
6.057086e+002, 3.531757e+001
6.061907e+002, 3.570571e+001
6.066729e+002, 3.575834e+001
6.071550e+002, 3.548108e+001
6.076371e+002, 3.514722e+001
6.081192e+002, 3.495296e+001
6.086013e+002, 3.484336e+001
6.090834e+002, 3.473995e+001
6.095656e+002, 3.461162e+001
6.100477e+002, 3.456261e+001
6.105298e+002, 3.479594e+001
6.110119e+002, 3.507964e+001
6.114940e+002, 3.515511e+001
6.119761e+002, 3.461864e+001
6.124583e+002, 3.428196e+001
6.129404e+002, 3.436011e+001
6.134225e+002, 3.470085e+001
6.139046e+002, 3.499573e+001
6.143867e+002, 3.527180e+001
6.148688e+002, 3.542629e+001
6.153510e+002, 3.537101e+001
6.158331e+002, 3.516184e+001
6.163152e+002, 3.517068e+001
6.167973e+002, 3.541230e+001
6.172794e+002, 3.571437e+001
6.177615e+002, 3.595787e+001
6.182437e+002, 3.616866e+001
6.187258e+002, 3.644408e+001
6.192079e+002, 3.679383e+001
6.196900e+002, 3.712278e+001
6.201721e+002, 3.724455e+001
6.206542e+002, 3.734023e+001
6.211364e+002, 3.766441e+001
6.216185e+002, 3.839906e+001
6.221006e+002, 3.909581e+001
6.225827e+002, 3.950858e+001
6.230648e+002, 3.978631e+001
6.235469e+002, 4.013707e+001
6.240291e+002, 4.059848e+001
6.245112e+002, 4.113801e+001
6.249933e+002, 4.177635e+001
6.254754e+002, 4.249085e+001
6.259575e+002, 4.318534e+001
6.264396e+002, 4.384880e+001
6.269218e+002, 4.454515e+001
6.274039e+002, 4.535685e+001
6.278860e+002, 4.623180e+001
6.283681e+002, 4.679408e+001
6.288502e+002, 4.703278e+001
6.293323e+002, 4.724977e+001
6.298145e+002, 4.767125e+001
6.302966e+002, 4.822815e+001
6.307787e+002, 4.883484e+001
6.312608e+002, 4.949256e+001
6.317429e+002, 5.006398e+001
6.322250e+002, 5.049958e+001
6.327072e+002, 5.076869e+001
6.331893e+002, 5.082716e+001
6.336714e+002, 5.051593e+001
6.341535e+002, 5.024256e+001
6.346356e+002, 5.027776e+001
6.351177e+002, 5.036778e+001
6.355999e+002, 5.009914e+001
6.360820e+002, 4.922994e+001
6.365641e+002, 4.838237e+001
6.370462e+002, 4.762870e+001
6.375283e+002, 4.697271e+001
6.380104e+002, 4.642100e+001
6.384926e+002, 4.597249e+001
6.389747e+002, 4.560948e+001
6.394568e+002, 4.534177e+001
6.399389e+002, 4.514683e+001
6.404210e+002, 4.498554e+001
6.409031e+002, 4.485167e+001
6.413853e+002, 4.465228e+001
6.418674e+002, 4.424984e+001
6.423495e+002, 4.377824e+001
6.428316e+002, 4.339773e+001
6.433137e+002, 4.312501e+001
6.437958e+002, 4.291777e+001
6.442780e+002, 4.278410e+001
6.447601e+002, 4.268583e+001
6.452422e+002, 4.259531e+001
6.457243e+002, 4.259079e+001
6.462064e+002, 4.245507e+001
6.466885e+002, 4.206431e+001
6.471707e+002, 4.160824e+001
6.476528e+002, 4.135249e+001
6.481349e+002, 4.134739e+001
6.486170e+002, 4.138366e+001
6.490991e+002, 4.145592e+001
6.495812e+002, 4.151358e+001
6.500634e+002, 4.136717e+001
6.505455e+002, 4.103807e+001
6.510276e+002, 4.085725e+001
6.515097e+002, 4.112671e+001
6.519918e+002, 4.154521e+001
6.524739e+002, 4.162011e+001
6.529561e+002, 4.140140e+001
6.534382e+002, 4.115409e+001
6.539203e+002, 4.098841e+001
6.544024e+002, 4.088324e+001
6.548845e+002, 4.084826e+001
6.553666e+002, 4.089412e+001
6.558488e+002, 4.089014e+001
6.563309e+002, 4.076434e+001
6.568130e+002, 4.061199e+001
6.572951e+002, 4.048339e+001
6.577772e+002, 4.035824e+001
6.582593e+002, 4.032478e+001
6.587415e+002, 4.042536e+001
6.592236e+002, 4.054956e+001
6.597057e+002, 4.057467e+001
6.601878e+002, 4.050211e+001
6.606699e+002, 4.037328e+001
6.611520e+002, 4.018585e+001
6.616342e+002, 3.997482e+001
6.621163e+002, 3.980660e+001
6.625984e+002, 3.965621e+001
6.630805e+002, 3.945716e+001
6.635626e+002, 3.915943e+001
6.640447e+002, 3.882722e+001
6.645269e+002, 3.845240e+001
6.650090e+002, 3.807505e+001
6.654911e+002, 3.780184e+001
6.659732e+002, 3.780680e+001
6.664553e+002, 3.778337e+001
6.669374e+002, 3.758062e+001
6.674196e+002, 3.721501e+001
6.679017e+002, 3.696078e+001
6.683838e+002, 3.686466e+001
6.688659e+002, 3.678929e+001
6.693480e+002, 3.665018e+001
6.698301e+002, 3.644946e+001
6.703123e+002, 3.634606e+001
6.707944e+002, 3.634999e+001
6.712765e+002, 3.637370e+001
6.717586e+002, 3.631478e+001
6.722407e+002, 3.622103e+001
6.727228e+002, 3.622125e+001
6.732050e+002, 3.635017e+001
6.736871e+002, 3.645593e+001
6.741692e+002, 3.635640e+001
6.746513e+002, 3.619831e+001
6.751334e+002, 3.616161e+001
6.756155e+002, 3.643612e+001
6.760977e+002, 3.661477e+001
6.765798e+002, 3.645353e+001
6.770619e+002, 3.619276e+001
6.775440e+002, 3.622456e+001
6.780261e+002, 3.681652e+001
6.785082e+002, 3.710633e+001
6.789904e+002, 3.682008e+001
6.794725e+002, 3.623328e+001
6.799546e+002, 3.609553e+001
6.804367e+002, 3.641314e+001
6.809188e+002, 3.674114e+001
6.814009e+002, 3.686246e+001
6.818831e+002, 3.689433e+001
6.823652e+002, 3.707940e+001
6.828473e+002, 3.738398e+001
6.833294e+002, 3.763017e+001
6.838115e+002, 3.763566e+001
6.842936e+002, 3.760643e+001
6.847758e+002, 3.769125e+001
6.852579e+002, 3.789915e+001
6.857400e+002, 3.814691e+001
6.862221e+002, 3.832597e+001
6.867042e+002, 3.861503e+001
6.871863e+002, 3.912877e+001
6.876685e+002, 3.993513e+001
6.881506e+002, 4.066655e+001
6.886327e+002, 4.131733e+001
6.891148e+002, 4.192785e+001
6.895969e+002, 4.252245e+001
6.900790e+002, 4.310743e+001
6.905612e+002, 4.369767e+001
6.910433e+002, 4.428233e+001
6.915254e+002, 4.492401e+001
6.920075e+002, 4.563708e+001
6.924896e+002, 4.645448e+001
6.929717e+002, 4.744350e+001
6.934539e+002, 4.866301e+001
6.939360e+002, 4.997025e+001
6.944181e+002, 5.133213e+001
6.949002e+002, 5.270578e+001
6.953823e+002, 5.403021e+001
6.958644e+002, 5.532853e+001
6.963466e+002, 5.650561e+001
6.968287e+002, 5.748741e+001
6.973108e+002, 5.836174e+001
6.977929e+002, 5.935527e+001
6.982750e+002, 6.052850e+001
6.987571e+002, 6.160094e+001
6.992393e+002, 6.247664e+001
6.997214e+002, 6.319683e+001
7.002035e+002, 6.382012e+001
7.006856e+002, 6.436400e+001
7.011677e+002, 6.495759e+001
7.016498e+002, 6.586820e+001
7.021320e+002, 6.675028e+001
7.026141e+002, 6.722710e+001
7.030962e+002, 6.730120e+001
7.035783e+002, 6.710094e+001
7.040604e+002, 6.658067e+001
7.045425e+002, 6.588581e+001
7.050247e+002, 6.507553e+001
7.055068e+002, 6.412612e+001
7.059889e+002, 6.319860e+001
7.064710e+002, 6.236380e+001
7.069531e+002, 6.145554e+001
7.074352e+002, 6.034129e+001
7.079174e+002, 5.900143e+001
7.083995e+002, 5.773567e+001
7.088816e+002, 5.655281e+001
7.093637e+002, 5.542965e+001
7.098458e+002, 5.441368e+001
7.103279e+002, 5.343835e+001
7.108101e+002, 5.227028e+001
7.112922e+002, 5.082940e+001
7.117743e+002, 4.941000e+001
7.122564e+002, 4.818912e+001
7.127385e+002, 4.712570e+001
7.132206e+002, 4.616752e+001
7.137028e+002, 4.532241e+001
7.141849e+002, 4.456560e+001
7.146670e+002, 4.394507e+001
7.151491e+002, 4.339906e+001
7.156312e+002, 4.283772e+001
7.161133e+002, 4.224526e+001
7.165955e+002, 4.170312e+001
7.170776e+002, 4.125982e+001
7.175597e+002, 4.083825e+001
7.180418e+002, 4.021101e+001
7.185239e+002, 3.940825e+001
7.190060e+002, 3.879099e+001
7.194882e+002, 3.858809e+001
7.199703e+002, 3.854403e+001
7.204524e+002, 3.838585e+001
7.209345e+002, 3.812636e+001
7.214166e+002, 3.779946e+001
7.218987e+002, 3.724867e+001
7.223809e+002, 3.679908e+001
7.228630e+002, 3.668821e+001
7.233451e+002, 3.687166e+001
7.238272e+002, 3.693489e+001
7.243093e+002, 3.682878e+001
7.247914e+002, 3.664796e+001
7.252736e+002, 3.640044e+001
7.257557e+002, 3.609701e+001
7.262378e+002, 3.584069e+001
7.267199e+002, 3.561767e+001
7.272020e+002, 3.554500e+001
7.276841e+002, 3.586835e+001
7.281663e+002, 3.635706e+001
7.286484e+002, 3.645000e+001
7.291305e+002, 3.614091e+001
7.296126e+002, 3.577107e+001
7.300947e+002, 3.547958e+001
7.305768e+002, 3.528548e+001
7.310590e+002, 3.526684e+001
7.315411e+002, 3.550540e+001
7.320232e+002, 3.552590e+001
7.325053e+002, 3.493272e+001
7.329874e+002, 3.434819e+001
7.334695e+002, 3.417937e+001
7.339517e+002, 3.459515e+001
7.344338e+002, 3.479761e+001
7.349159e+002, 3.470691e+001
7.353980e+002, 3.463068e+001
7.358801e+002, 3.497969e+001
7.363622e+002, 3.564355e+001
7.368444e+002, 3.617007e+001
7.373265e+002, 3.648926e+001
7.378086e+002, 3.666567e+001
7.382907e+002, 3.658666e+001
7.387728e+002, 3.646501e+001
7.392549e+002, 3.659386e+001
7.397371e+002, 3.721208e+001
7.402192e+002, 3.781048e+001
7.407013e+002, 3.821574e+001
7.411834e+002, 3.853682e+001
7.416655e+002, 3.892378e+001
7.421476e+002, 3.938033e+001
7.426298e+002, 3.988967e+001
7.431119e+002, 4.046515e+001
7.435940e+002, 4.107074e+001
7.440761e+002, 4.157522e+001
7.445582e+002, 4.200306e+001
7.450403e+002, 4.269123e+001
7.455225e+002, 4.387219e+001
7.460046e+002, 4.513077e+001
7.464867e+002, 4.595421e+001
7.469688e+002, 4.646791e+001
7.474509e+002, 4.693361e+001
7.479330e+002, 4.737971e+001
7.484152e+002, 4.788219e+001
7.488973e+002, 4.850089e+001
7.493794e+002, 4.921081e+001
7.498615e+002, 4.992681e+001
7.503436e+002, 5.085910e+001
7.508257e+002, 5.141694e+001
7.513079e+002, 5.134355e+001
7.517900e+002, 5.083156e+001
7.522721e+002, 5.064509e+001
7.527542e+002, 5.078381e+001
7.532363e+002, 5.069329e+001
7.537184e+002, 4.993927e+001
7.542006e+002, 4.890248e+001
7.546827e+002, 4.819619e+001
7.551648e+002, 4.774541e+001
7.556469e+002, 4.726684e+001
7.561290e+002, 4.659586e+001
7.566111e+002, 4.586776e+001
7.570933e+002, 4.513103e+001
7.575754e+002, 4.440094e+001
7.580575e+002, 4.366871e+001
7.585396e+002, 4.293809e+001
7.590217e+002, 4.220507e+001
7.595038e+002, 4.142160e+001
7.599860e+002, 4.061386e+001
7.604681e+002, 4.003274e+001
7.609502e+002, 3.969210e+001
7.614323e+002, 3.944881e+001
7.619144e+002, 3.925855e+001
7.623965e+002, 3.908275e+001
7.628787e+002, 3.884708e+001
7.633608e+002, 3.855352e+001
7.638429e+002, 3.823993e+001
7.643250e+002, 3.780633e+001
7.648071e+002, 3.745760e+001
7.652892e+002, 3.743761e+001
7.657714e+002, 3.784481e+001
7.662535e+002, 3.786464e+001
7.667356e+002, 3.716317e+001
7.672177e+002, 3.645396e+001
7.676998e+002, 3.615252e+001
7.681819e+002, 3.628358e+001
7.686641e+002, 3.637789e+001
7.691462e+002, 3.643847e+001
7.696283e+002, 3.643489e+001
7.701104e+002, 3.626306e+001
7.705925e+002, 3.603064e+001
7.710746e+002, 3.593513e+001
7.715568e+002, 3.599593e+001
7.720389e+002, 3.617924e+001
7.725210e+002, 3.667196e+001
7.730031e+002, 3.713806e+001
7.734852e+002, 3.728743e+001
7.739673e+002, 3.695241e+001
7.744495e+002, 3.670963e+001
7.749316e+002, 3.659341e+001
7.754137e+002, 3.655721e+001
7.758958e+002, 3.664984e+001
7.763779e+002, 3.690929e+001
7.768600e+002, 3.671116e+001
7.773422e+002, 3.597541e+001
7.778243e+002, 3.514830e+001
7.783064e+002, 3.463684e+001
7.787885e+002, 3.436522e+001
7.792706e+002, 3.423161e+001
7.797527e+002, 3.424969e+001
7.802349e+002, 3.422134e+001
7.807170e+002, 3.399180e+001
7.811991e+002, 3.368668e+001
7.816812e+002, 3.341673e+001
7.821633e+002, 3.323255e+001
7.826454e+002, 3.302570e+001
7.831276e+002, 3.281259e+001
7.836097e+002, 3.255631e+001
7.840918e+002, 3.214776e+001
7.845739e+002, 3.158025e+001
7.850560e+002, 3.136772e+001
7.855381e+002, 3.161838e+001
7.860203e+002, 3.192003e+001
7.865024e+002, 3.177306e+001
7.869845e+002, 3.137267e+001
7.874666e+002, 3.106771e+001
7.879487e+002, 3.097657e+001
7.884308e+002, 3.084280e+001
7.889130e+002, 3.040379e+001
7.893951e+002, 2.992645e+001
7.898772e+002, 2.969466e+001
7.903593e+002, 2.997316e+001
7.908414e+002, 3.004618e+001
7.913235e+002, 2.985062e+001
7.918057e+002, 2.952626e+001
7.922878e+002, 2.919235e+001
7.927699e+002, 2.885432e+001
7.932520e+002, 2.869915e+001
7.937341e+002, 2.878097e+001
7.942162e+002, 2.891361e+001
7.946984e+002, 2.894424e+001
7.951805e+002, 2.887518e+001
7.956626e+002, 2.869682e+001
7.961447e+002, 2.834284e+001
7.966268e+002, 2.802646e+001
7.971089e+002, 2.778337e+001
7.975911e+002, 2.763857e+001
7.980732e+002, 2.762728e+001
7.985553e+002, 2.785658e+001
7.990374e+002, 2.795012e+001
7.995195e+002, 2.784154e+001
8.000016e+002, 2.768208e+001
8.004838e+002, 2.769482e+001
8.009659e+002, 2.784249e+001
8.014480e+002, 2.790906e+001
8.019301e+002, 2.785049e+001
8.024122e+002, 2.772297e+001
8.028943e+002, 2.747557e+001
8.033765e+002, 2.723420e+001
8.038586e+002, 2.717399e+001
8.043407e+002, 2.747119e+001
8.048228e+002, 2.770911e+001
8.053049e+002, 2.776594e+001
8.057870e+002, 2.774452e+001
8.062692e+002, 2.772418e+001
8.067513e+002, 2.767488e+001
8.072334e+002, 2.778404e+001
8.077155e+002, 2.812811e+001
8.081976e+002, 2.845947e+001
8.086797e+002, 2.837557e+001
8.091619e+002, 2.801513e+001
8.096440e+002, 2.780582e+001
8.101261e+002, 2.788210e+001
8.106082e+002, 2.794942e+001
8.110903e+002, 2.772173e+001
8.115724e+002, 2.740034e+001
8.120546e+002, 2.720946e+001
8.125367e+002, 2.730741e+001
8.130188e+002, 2.734704e+001
8.135009e+002, 2.725411e+001
8.139830e+002, 2.715601e+001
8.144651e+002, 2.722447e+001
8.149473e+002, 2.747697e+001
8.154294e+002, 2.759614e+001
8.159115e+002, 2.753067e+001
8.163936e+002, 2.742389e+001
8.168757e+002, 2.747923e+001
8.173578e+002, 2.759811e+001
8.178400e+002, 2.757573e+001
8.183221e+002, 2.729899e+001
8.188042e+002, 2.712452e+001
8.192863e+002, 2.734404e+001
8.197684e+002, 2.767633e+001
8.202505e+002, 2.783779e+001
8.207327e+002, 2.765261e+001
8.212148e+002, 2.767988e+001
8.216969e+002, 2.800455e+001
8.221790e+002, 2.838750e+001
8.226611e+002, 2.853318e+001
8.231432e+002, 2.848934e+001
8.236254e+002, 2.853553e+001
8.241075e+002, 2.869906e+001
8.245896e+002, 2.897784e+001
8.250717e+002, 2.946955e+001
8.255538e+002, 3.002339e+001
8.260359e+002, 3.045028e+001
8.265181e+002, 3.067653e+001
8.270002e+002, 3.092054e+001
8.274823e+002, 3.126432e+001
8.279644e+002, 3.161980e+001
8.284465e+002, 3.188809e+001
8.289286e+002, 3.197839e+001
8.294108e+002, 3.249470e+001
8.298929e+002, 3.352782e+001
8.303750e+002, 3.458409e+001
8.308571e+002, 3.516900e+001
8.313392e+002, 3.544453e+001
8.318214e+002, 3.576671e+001
8.323035e+002, 3.617167e+001
8.327856e+002, 3.653010e+001
8.332677e+002, 3.663404e+001
8.337498e+002, 3.674537e+001
8.342319e+002, 3.708185e+001
8.347141e+002, 3.773769e+001
8.351962e+002, 3.834350e+001
8.356783e+002, 3.894556e+001
8.361604e+002, 3.941533e+001
8.366425e+002, 3.958255e+001
8.371246e+002, 3.947868e+001
8.376068e+002, 3.972857e+001
8.380889e+002, 4.033914e+001
8.385710e+002, 4.065187e+001
8.390531e+002, 3.975565e+001
8.395352e+002, 3.854536e+001
8.400173e+002, 3.808220e+001
8.404995e+002, 3.842121e+001
8.409816e+002, 3.863923e+001
8.414637e+002, 3.836612e+001
8.419458e+002, 3.796260e+001
8.424279e+002, 3.761763e+001
8.429100e+002, 3.732606e+001
8.433922e+002, 3.673988e+001
8.438743e+002, 3.578986e+001
8.443564e+002, 3.492311e+001
8.448385e+002, 3.452289e+001
8.453206e+002, 3.436305e+001
8.458027e+002, 3.389281e+001
8.462849e+002, 3.316089e+001
8.467670e+002, 3.244967e+001
8.472491e+002, 3.186726e+001
8.477312e+002, 3.139735e+001
8.482133e+002, 3.106656e+001
8.486954e+002, 3.086045e+001
8.491776e+002, 3.064680e+001
8.496597e+002, 3.043564e+001
8.501418e+002, 3.018900e+001
8.506239e+002, 2.990313e+001
8.511060e+002, 2.957167e+001
8.515881e+002, 2.911008e+001
8.520703e+002, 2.854707e+001
8.525524e+002, 2.812417e+001
8.530345e+002, 2.805121e+001
8.535166e+002, 2.809312e+001
8.539987e+002, 2.804747e+001
8.544808e+002, 2.794509e+001
8.549630e+002, 2.786439e+001
8.554451e+002, 2.781778e+001
8.559272e+002, 2.781866e+001
8.564093e+002, 2.796844e+001
8.568914e+002, 2.811934e+001
8.573735e+002, 2.783837e+001
8.578557e+002, 2.706840e+001
8.583378e+002, 2.658422e+001
8.588199e+002, 2.668707e+001
8.593020e+002, 2.696301e+001
8.597841e+002, 2.671029e+001
8.602662e+002, 2.617745e+001
8.607484e+002, 2.589263e+001
8.612305e+002, 2.624467e+001
8.617126e+002, 2.656328e+001
8.621947e+002, 2.660407e+001
8.626768e+002, 2.646209e+001
8.631589e+002, 2.628181e+001
8.636411e+002, 2.606141e+001
8.641232e+002, 2.578971e+001
8.646053e+002, 2.543983e+001
8.650874e+002, 2.510148e+001
8.655695e+002, 2.486024e+001
8.660516e+002, 2.472556e+001
8.665338e+002, 2.477636e+001
8.670159e+002, 2.508293e+001
8.674980e+002, 2.528680e+001
8.679801e+002, 2.505079e+001
8.684622e+002, 2.463659e+001
8.689443e+002, 2.428977e+001
8.694265e+002, 2.404353e+001
8.699086e+002, 2.387221e+001
8.703907e+002, 2.377762e+001
8.708728e+002, 2.375456e+001
8.713549e+002, 2.381188e+001
8.718370e+002, 2.394533e+001
8.723192e+002, 2.413121e+001
8.728013e+002, 2.437367e+001
8.732834e+002, 2.453427e+001
8.737655e+002, 2.444184e+001
8.742476e+002, 2.424905e+001
8.747297e+002, 2.407007e+001
8.752119e+002, 2.391301e+001
8.756940e+002, 2.388840e+001
8.761761e+002, 2.426340e+001
8.766582e+002, 2.451279e+001
8.771403e+002, 2.433689e+001
8.776224e+002, 2.379074e+001
8.781046e+002, 2.372186e+001
8.785867e+002, 2.415614e+001
8.790688e+002, 2.450477e+001
8.795509e+002, 2.431251e+001
8.800330e+002, 2.388069e+001
8.805151e+002, 2.358036e+001
8.809973e+002, 2.340753e+001
8.814794e+002, 2.333862e+001
8.819615e+002, 2.346977e+001
8.824436e+002, 2.359021e+001
8.829257e+002, 2.362006e+001
8.834078e+002, 2.358068e+001
8.838900e+002, 2.351744e+001
8.843721e+002, 2.341739e+001
8.848542e+002, 2.336106e+001
8.853363e+002, 2.337173e+001
8.858184e+002, 2.343761e+001
8.863005e+002, 2.359602e+001
8.867827e+002, 2.379233e+001
8.872648e+002, 2.388026e+001
8.877469e+002, 2.372949e+001
8.882290e+002, 2.357693e+001
8.887111e+002, 2.354346e+001
8.891932e+002, 2.356331e+001
8.896754e+002, 2.353753e+001
8.901575e+002, 2.343948e+001
8.906396e+002, 2.335830e+001
8.911217e+002, 2.329590e+001
8.916038e+002, 2.326542e+001
8.920859e+002, 2.328311e+001
8.925681e+002, 2.334597e+001
8.930502e+002, 2.347251e+001
8.935323e+002, 2.368233e+001
8.940144e+002, 2.382139e+001
8.944965e+002, 2.371389e+001
8.949786e+002, 2.353284e+001
8.954608e+002, 2.341710e+001
8.959429e+002, 2.338644e+001
8.964250e+002, 2.341681e+001
8.969071e+002, 2.351079e+001
8.973892e+002, 2.365996e+001
8.978713e+002, 2.390853e+001
8.983535e+002, 2.422083e+001
8.988356e+002, 2.437364e+001
8.993177e+002, 2.436951e+001
8.997998e+002, 2.426999e+001
9.002819e+002, 2.396267e+001
9.007640e+002, 2.370260e+001
9.012462e+002, 2.374507e+001
9.017283e+002, 2.406041e+001
9.022104e+002, 2.425751e+001
9.026925e+002, 2.422979e+001
9.031746e+002, 2.419265e+001
9.036567e+002, 2.422160e+001
9.041389e+002, 2.427872e+001
9.046210e+002, 2.420857e+001
9.051031e+002, 2.403076e+001
9.055852e+002, 2.392102e+001
9.060673e+002, 2.398463e+001
9.065494e+002, 2.409906e+001
9.070316e+002, 2.417866e+001
9.075137e+002, 2.422448e+001
9.079958e+002, 2.423919e+001
9.084779e+002, 2.416934e+001
9.089600e+002, 2.414657e+001
9.094421e+002, 2.421720e+001
9.099243e+002, 2.430107e+001
9.104064e+002, 2.425278e+001
9.108885e+002, 2.408578e+001
9.113706e+002, 2.406703e+001
9.118527e+002, 2.425875e+001
9.123348e+002, 2.445448e+001
9.128170e+002, 2.434871e+001
9.132991e+002, 2.419357e+001
9.137812e+002, 2.432311e+001
9.142633e+002, 2.489954e+001
9.147454e+002, 2.529569e+001
9.152275e+002, 2.534374e+001
9.157097e+002, 2.528105e+001
9.161918e+002, 2.523897e+001
9.166739e+002, 2.521624e+001
9.171560e+002, 2.505751e+001
9.176381e+002, 2.476148e+001
9.181202e+002, 2.463845e+001
9.186024e+002, 2.509199e+001
9.190845e+002, 2.570057e+001
9.195666e+002, 2.605415e+001
9.200487e+002, 2.615087e+001
9.205308e+002, 2.609716e+001
9.210129e+002, 2.563320e+001
9.214951e+002, 2.538092e+001
9.219772e+002, 2.558309e+001
9.224593e+002, 2.606458e+001
9.229414e+002, 2.626867e+001
9.234235e+002, 2.619995e+001
9.239056e+002, 2.621206e+001
9.243878e+002, 2.647004e+001
9.248699e+002, 2.675680e+001
9.253520e+002, 2.681747e+001
9.258341e+002, 2.674226e+001
9.263162e+002, 2.667621e+001
9.267983e+002, 2.668983e+001
9.272805e+002, 2.666562e+001
9.277626e+002, 2.654353e+001
9.282447e+002, 2.642739e+001
9.287268e+002, 2.643116e+001
9.292089e+002, 2.655553e+001
9.296910e+002, 2.671590e+001
9.301732e+002, 2.691396e+001
9.306553e+002, 2.705293e+001
9.311374e+002, 2.697319e+001
9.316195e+002, 2.682784e+001
9.321016e+002, 2.679561e+001
9.325837e+002, 2.690135e+001
9.330659e+002, 2.700601e+001
9.335480e+002, 2.708949e+001
9.340301e+002, 2.714889e+001
9.345122e+002, 2.716191e+001
9.349943e+002, 2.714507e+001
9.354764e+002, 2.722754e+001
9.359586e+002, 2.740729e+001
9.364407e+002, 2.758681e+001
9.369228e+002, 2.772933e+001
9.374049e+002, 2.783960e+001
9.378870e+002, 2.798647e+001
9.383691e+002, 2.810200e+001
9.388513e+002, 2.802592e+001
9.393334e+002, 2.734109e+001
9.398155e+002, 2.698149e+001
9.402976e+002, 2.718664e+001
9.407797e+002, 2.764707e+001
9.412618e+002, 2.791310e+001
9.417440e+002, 2.799136e+001
9.422261e+002, 2.791262e+001
9.427082e+002, 2.763830e+001
9.431903e+002, 2.745540e+001
9.436724e+002, 2.771488e+001
9.441545e+002, 2.816525e+001
9.446367e+002, 2.858167e+001
9.451188e+002, 2.896132e+001
9.456009e+002, 2.912118e+001
9.460830e+002, 2.889086e+001
9.465651e+002, 2.869883e+001
9.470472e+002, 2.886014e+001
9.475294e+002, 2.930957e+001
9.480115e+002, 2.942450e+001
9.484936e+002, 2.923750e+001
9.489757e+002, 2.911989e+001
9.494578e+002, 2.936310e+001
9.499399e+002, 2.971670e+001
9.504221e+002, 3.009299e+001
9.509042e+002, 3.043286e+001
9.513863e+002, 3.050217e+001
9.518684e+002, 3.012273e+001
9.523505e+002, 2.978846e+001
9.528326e+002, 2.957343e+001
9.533148e+002, 2.946811e+001
9.537969e+002, 2.943315e+001
9.542790e+002, 2.948747e+001
9.547611e+002, 2.975495e+001
9.552432e+002, 3.033538e+001
9.557253e+002, 3.087067e+001
9.562075e+002, 3.107442e+001
9.566896e+002, 3.112062e+001
9.571717e+002, 3.118522e+001
9.576538e+002, 3.131117e+001
9.581359e+002, 3.135211e+001
9.586180e+002, 3.125769e+001
9.591002e+002, 3.120293e+001
9.595823e+002, 3.137551e+001
9.600644e+002, 3.168155e+001
9.605465e+002, 3.181793e+001
9.610286e+002, 3.179809e+001
9.615107e+002, 3.176807e+001
9.619929e+002, 3.180149e+001
9.624750e+002, 3.185611e+001
9.629571e+002, 3.189280e+001
9.634392e+002, 3.193232e+001
9.639213e+002, 3.206033e+001
9.644034e+002, 3.230254e+001
9.648856e+002, 3.253533e+001
9.653677e+002, 3.274771e+001
9.658498e+002, 3.289793e+001
9.663319e+002, 3.282648e+001
9.668140e+002, 3.266111e+001
9.672961e+002, 3.269652e+001
9.677783e+002, 3.311483e+001
9.682604e+002, 3.345653e+001
9.687425e+002, 3.356118e+001
9.692246e+002, 3.350520e+001
9.697067e+002, 3.330334e+001
9.701888e+002, 3.290467e+001
9.706710e+002, 3.276866e+001
9.711531e+002, 3.291124e+001
9.716352e+002, 3.317243e+001
9.721173e+002, 3.351225e+001
9.725994e+002, 3.384501e+001
9.730815e+002, 3.407331e+001
9.735637e+002, 3.419382e+001
9.740458e+002, 3.422290e+001
9.745279e+002, 3.408540e+001
9.750100e+002, 3.395103e+001
9.754921e+002, 3.385230e+001
9.759742e+002, 3.378934e+001
9.764564e+002, 3.377042e+001
9.769385e+002, 3.379348e+001
9.774206e+002, 3.380739e+001
9.779027e+002, 3.378261e+001
9.783848e+002, 3.379771e+001
9.788669e+002, 3.396165e+001
9.793491e+002, 3.419413e+001
9.798312e+002, 3.441148e+001
9.803133e+002, 3.464044e+001
9.807954e+002, 3.472712e+001
9.812775e+002, 3.462665e+001
9.817596e+002, 3.445930e+001
9.822418e+002, 3.426554e+001
9.827239e+002, 3.406945e+001
9.832060e+002, 3.403463e+001
9.836881e+002, 3.414355e+001
9.841702e+002, 3.424030e+001
9.846523e+002, 3.418879e+001
9.851345e+002, 3.413419e+001
9.856166e+002, 3.420819e+001
9.860987e+002, 3.435226e+001
9.865808e+002, 3.434046e+001
9.870629e+002, 3.409941e+001
9.875450e+002, 3.393541e+001
9.880272e+002, 3.391398e+001
9.885093e+002, 3.397906e+001
9.889914e+002, 3.410621e+001
9.894735e+002, 3.424294e+001
9.899556e+002, 3.425004e+001
9.904377e+002, 3.404756e+001
9.909199e+002, 3.393433e+001
9.914020e+002, 3.413381e+001
9.918841e+002, 3.438269e+001
9.923662e+002, 3.451119e+001
9.928483e+002, 3.451522e+001
9.933304e+002, 3.446401e+001
9.938126e+002, 3.435166e+001
9.942947e+002, 3.428587e+001
9.947768e+002, 3.436446e+001
9.952589e+002, 3.450435e+001
9.957410e+002, 3.463399e+001
9.962231e+002, 3.474255e+001
9.967053e+002, 3.480579e+001
9.971874e+002, 3.486988e+001
9.976695e+002, 3.478884e+001
9.981516e+002, 3.444349e+001
9.986337e+002, 3.406123e+001
9.991158e+002, 3.401495e+001
9.995980e+002, 3.426257e+001
1.000080e+003, 3.452950e+001
1.000562e+003, 3.478926e+001
1.001044e+003, 3.495874e+001
1.001526e+003, 3.488549e+001
1.002009e+003, 3.476295e+001
1.002491e+003, 3.474884e+001
1.002973e+003, 3.486546e+001
1.003455e+003, 3.504112e+001
1.003937e+003, 3.532057e+001
1.004419e+003, 3.551612e+001
1.004901e+003, 3.551719e+001
1.005383e+003, 3.540254e+001
1.005865e+003, 3.530932e+001
1.006348e+003, 3.524467e+001
1.006830e+003, 3.522626e+001
1.007312e+003, 3.524051e+001
1.007794e+003, 3.532875e+001
1.008276e+003, 3.566296e+001
1.008758e+003, 3.597525e+001
1.009240e+003, 3.587864e+001
1.009722e+003, 3.528945e+001
1.010205e+003, 3.523304e+001
1.010687e+003, 3.581807e+001
1.011169e+003, 3.651034e+001
1.011651e+003, 3.691059e+001
1.012133e+003, 3.711949e+001
1.012615e+003, 3.721397e+001
1.013097e+003, 3.720584e+001
1.013579e+003, 3.717582e+001
1.014061e+003, 3.707849e+001
1.014544e+003, 3.706688e+001
1.015026e+003, 3.722702e+001
1.015508e+003, 3.746183e+001
1.015990e+003, 3.752717e+001
1.016472e+003, 3.745507e+001
1.016954e+003, 3.738507e+001
1.017436e+003, 3.739003e+001
1.017918e+003, 3.732758e+001
1.018401e+003, 3.694846e+001
1.018883e+003, 3.656233e+001
1.019365e+003, 3.651001e+001
1.019847e+003, 3.689897e+001
1.020329e+003, 3.709928e+001
1.020811e+003, 3.708815e+001
1.021293e+003, 3.701443e+001
1.021775e+003, 3.704801e+001
1.022257e+003, 3.705119e+001
1.022740e+003, 3.668016e+001
1.023222e+003, 3.606005e+001
1.023704e+003, 3.567344e+001
1.024186e+003, 3.588640e+001
1.024668e+003, 3.611587e+001
1.025150e+003, 3.628056e+001
1.025632e+003, 3.635590e+001
1.026114e+003, 3.623968e+001
1.026596e+003, 3.596510e+001
1.027079e+003, 3.584916e+001
1.027561e+003, 3.596286e+001
1.028043e+003, 3.606305e+001
1.028525e+003, 3.577005e+001
1.029007e+003, 3.550965e+001
1.029489e+003, 3.577697e+001
1.029971e+003, 3.665018e+001
1.030453e+003, 3.700311e+001
1.030936e+003, 3.665898e+001
1.031418e+003, 3.639400e+001
1.031900e+003, 3.659743e+001
1.032382e+003, 3.701535e+001
1.032864e+003, 3.710674e+001
1.033346e+003, 3.701054e+001
1.033828e+003, 3.705653e+001
1.034310e+003, 3.746351e+001
1.034792e+003, 3.787099e+001
1.035275e+003, 3.825483e+001
1.035757e+003, 3.854882e+001
1.036239e+003, 3.864168e+001
1.036721e+003, 3.853296e+001
1.037203e+003, 3.859795e+001
1.037685e+003, 3.884693e+001
1.038167e+003, 3.920808e+001
1.038649e+003, 3.977657e+001
1.039132e+003, 4.030974e+001
1.039614e+003, 4.051562e+001
1.040096e+003, 4.048764e+001
1.040578e+003, 4.074265e+001
1.041060e+003, 4.141020e+001
1.041542e+003, 4.207896e+001
1.042024e+003, 4.267487e+001
1.042506e+003, 4.324974e+001
1.042989e+003, 4.388201e+001
1.043471e+003, 4.456216e+001
1.043953e+003, 4.527097e+001
1.044435e+003, 4.601081e+001
1.044917e+003, 4.679283e+001
1.045399e+003, 4.780252e+001
1.045881e+003, 4.867137e+001
1.046363e+003, 4.916573e+001
1.046845e+003, 4.933916e+001
1.047328e+003, 4.954881e+001
1.047810e+003, 4.980970e+001
1.048292e+003, 5.031830e+001
1.048774e+003, 5.132056e+001
1.049256e+003, 5.239410e+001
1.049738e+003, 5.329391e+001
1.050220e+003, 5.401750e+001
1.050702e+003, 5.454220e+001
1.051184e+003, 5.475848e+001
1.051667e+003, 5.506438e+001
1.052149e+003, 5.547449e+001
1.052631e+003, 5.595354e+001
1.053113e+003, 5.663179e+001
1.053595e+003, 5.730223e+001
1.054077e+003, 5.747294e+001
1.054559e+003, 5.720013e+001
1.055041e+003, 5.698714e+001
1.055523e+003, 5.721753e+001
1.056006e+003, 5.730337e+001
1.056488e+003, 5.701559e+001
1.056970e+003, 5.655389e+001
1.057452e+003, 5.637812e+001
1.057934e+003, 5.644206e+001
1.058416e+003, 5.631115e+001
1.058898e+003, 5.589388e+001
1.059380e+003, 5.532726e+001
1.059863e+003, 5.471033e+001
1.060345e+003, 5.401414e+001
1.060827e+003, 5.318232e+001
1.061309e+003, 5.220928e+001
1.061791e+003, 5.130555e+001
1.062273e+003, 5.047046e+001
1.062755e+003, 4.971025e+001
1.063237e+003, 4.907618e+001
1.063719e+003, 4.846487e+001
1.064202e+003, 4.771377e+001
1.064684e+003, 4.685894e+001
1.065166e+003, 4.595461e+001
1.065648e+003, 4.485151e+001
1.066130e+003, 4.404058e+001
1.066612e+003, 4.372215e+001
1.067094e+003, 4.345787e+001
1.067576e+003, 4.280564e+001
1.068059e+003, 4.186877e+001
1.068541e+003, 4.133388e+001
1.069023e+003, 4.116102e+001
1.069505e+003, 4.096523e+001
1.069987e+003, 4.053031e+001
1.070469e+003, 4.000271e+001
1.070951e+003, 3.935545e+001
1.071433e+003, 3.871102e+001
1.071916e+003, 3.835221e+001
1.072398e+003, 3.833239e+001
1.072880e+003, 3.810733e+001
1.073362e+003, 3.757308e+001
1.073844e+003, 3.704848e+001
1.074326e+003, 3.695305e+001
1.074808e+003, 3.697954e+001
1.075290e+003, 3.679132e+001
1.075772e+003, 3.635693e+001
1.076255e+003, 3.592860e+001
1.076737e+003, 3.546534e+001
1.077219e+003, 3.516053e+001
1.077701e+003, 3.509968e+001
1.078183e+003, 3.520406e+001
1.078665e+003, 3.535111e+001
1.079147e+003, 3.553628e+001
1.079629e+003, 3.578321e+001
1.080111e+003, 3.619710e+001
1.080594e+003, 3.637704e+001
1.081076e+003, 3.591284e+001
1.081558e+003, 3.542792e+001
1.082040e+003, 3.529310e+001
1.082522e+003, 3.547277e+001
1.083004e+003, 3.560805e+001
1.083486e+003, 3.571019e+001
1.083968e+003, 3.587892e+001
1.084450e+003, 3.633741e+001
1.084933e+003, 3.669562e+001
1.085415e+003, 3.665231e+001
1.085897e+003, 3.636504e+001
1.086379e+003, 3.609395e+001
1.086861e+003, 3.585392e+001
1.087343e+003, 3.560014e+001
1.087825e+003, 3.532857e+001
1.088307e+003, 3.505944e+001
1.088790e+003, 3.477993e+001
1.089272e+003, 3.453436e+001
1.089754e+003, 3.445329e+001
1.090236e+003, 3.448060e+001
1.090718e+003, 3.428552e+001
1.091200e+003, 3.363078e+001
1.091682e+003, 3.308044e+001
1.092164e+003, 3.274823e+001
1.092646e+003, 3.252476e+001
1.093129e+003, 3.225969e+001
1.093611e+003, 3.196838e+001
1.094093e+003, 3.167340e+001
1.094575e+003, 3.137572e+001
1.095057e+003, 3.111444e+001
1.095539e+003, 3.094174e+001
1.096021e+003, 3.077485e+001
1.096503e+003, 3.056706e+001
1.096986e+003, 3.034120e+001
1.097468e+003, 3.017601e+001
1.097950e+003, 3.006865e+001
1.098432e+003, 3.002920e+001
1.098914e+003, 3.014518e+001
1.099396e+003, 3.009946e+001
1.099878e+003, 2.952377e+001
1.100360e+003, 2.876136e+001
1.100843e+003, 2.810010e+001
1.101325e+003, 2.751666e+001
1.101807e+003, 2.736167e+001
1.102289e+003, 2.767334e+001
1.102771e+003, 2.799248e+001
1.103253e+003, 2.804412e+001
1.103735e+003, 2.798002e+001
1.104217e+003, 2.805186e+001
1.104699e+003, 2.812176e+001
1.105182e+003, 2.790967e+001
1.105664e+003, 2.700797e+001
1.106146e+003, 2.651369e+001
1.106628e+003, 2.653893e+001
1.107110e+003, 2.674106e+001
1.107592e+003, 2.684796e+001
1.108074e+003, 2.689633e+001
1.108556e+003, 2.698688e+001
1.109038e+003, 2.710337e+001
1.109521e+003, 2.714587e+001
1.110003e+003, 2.703515e+001
1.110485e+003, 2.689750e+001
1.110967e+003, 2.676744e+001
1.111449e+003, 2.661600e+001
1.111931e+003, 2.632721e+001
1.112413e+003, 2.596677e+001
1.112895e+003, 2.587177e+001
1.113377e+003, 2.608451e+001
1.113860e+003, 2.632538e+001
1.114342e+003, 2.649135e+001
1.114824e+003, 2.656863e+001
1.115306e+003, 2.654208e+001
1.115788e+003, 2.642573e+001
1.116270e+003, 2.620087e+001
1.116752e+003, 2.587070e+001
1.117234e+003, 2.573430e+001
1.117717e+003, 2.592026e+001
1.118199e+003, 2.609655e+001
1.118681e+003, 2.587064e+001
1.119163e+003, 2.556242e+001
1.119645e+003, 2.550056e+001
1.120127e+003, 2.571142e+001
1.120609e+003, 2.587645e+001
1.121091e+003, 2.601221e+001
1.121573e+003, 2.596949e+001
1.122056e+003, 2.555416e+001
1.122538e+003, 2.514116e+001
1.123020e+003, 2.531061e+001
1.123502e+003, 2.576980e+001
1.123984e+003, 2.606629e+001
1.124466e+003, 2.605781e+001
1.124948e+003, 2.595497e+001
1.125430e+003, 2.571835e+001
1.125913e+003, 2.550223e+001
1.126395e+003, 2.545965e+001
1.126877e+003, 2.548623e+001
1.127359e+003, 2.530991e+001
1.127841e+003, 2.500139e+001
1.128323e+003, 2.475825e+001
1.128805e+003, 2.468788e+001
1.129287e+003, 2.464409e+001
1.129770e+003, 2.460654e+001
1.130252e+003, 2.458467e+001
1.130734e+003, 2.461788e+001
1.131216e+003, 2.467475e+001
1.131698e+003, 2.461625e+001
1.132180e+003, 2.444804e+001
1.132662e+003, 2.425585e+001
1.133144e+003, 2.399856e+001
1.133626e+003, 2.383405e+001
1.134109e+003, 2.388027e+001
1.134591e+003, 2.399467e+001
1.135073e+003, 2.392529e+001
1.135555e+003, 2.369600e+001
1.136037e+003, 2.361475e+001
1.136519e+003, 2.371965e+001
1.137001e+003, 2.382798e+001
1.137483e+003, 2.388450e+001
1.137965e+003, 2.383051e+001
1.138448e+003, 2.352777e+001
1.138930e+003, 2.309094e+001
1.139412e+003, 2.288295e+001
1.139894e+003, 2.291388e+001
1.140376e+003, 2.294388e+001
1.140858e+003, 2.291982e+001
1.141340e+003, 2.290230e+001
1.141822e+003, 2.292639e+001
1.142304e+003, 2.299933e+001
1.142787e+003, 2.316260e+001
1.143269e+003, 2.341200e+001
1.143751e+003, 2.355574e+001
1.144233e+003, 2.358812e+001
1.144715e+003, 2.353323e+001
1.145197e+003, 2.338786e+001
1.145679e+003, 2.318595e+001
1.146161e+003, 2.289171e+001
1.146644e+003, 2.260978e+001
1.147126e+003, 2.248117e+001
1.147608e+003, 2.256695e+001
1.148090e+003, 2.271528e+001
1.148572e+003, 2.297619e+001
1.149054e+003, 2.312405e+001
1.149536e+003, 2.299082e+001
1.150018e+003, 2.274568e+001
1.150500e+003, 2.270622e+001
1.150983e+003, 2.277494e+001
1.151465e+003, 2.274936e+001
1.151947e+003, 2.247866e+001
1.152429e+003, 2.231741e+001
1.152911e+003, 2.230743e+001
1.153393e+003, 2.236703e+001
1.153875e+003, 2.247498e+001
1.154357e+003, 2.259711e+001
1.154840e+003, 2.262058e+001
1.155322e+003, 2.257559e+001
1.155804e+003, 2.255733e+001
1.156286e+003, 2.260365e+001
1.156768e+003, 2.269081e+001
1.157250e+003, 2.287902e+001
1.157732e+003, 2.300995e+001
1.158214e+003, 2.287886e+001
1.158697e+003, 2.256211e+001
1.159179e+003, 2.237842e+001
1.159661e+003, 2.232676e+001
1.160143e+003, 2.235123e+001
1.160625e+003, 2.251744e+001
1.161107e+003, 2.263330e+001
1.161589e+003, 2.258993e+001
1.162071e+003, 2.252016e+001
1.162553e+003, 2.267945e+001
1.163036e+003, 2.299734e+001
1.163518e+003, 2.286595e+001
1.164000e+003, 2.227680e+001
1.164482e+003, 2.184881e+001
1.164964e+003, 2.217612e+001
1.165446e+003, 2.251199e+001
1.165928e+003, 2.242880e+001
1.166410e+003, 2.216297e+001
1.166892e+003, 2.219231e+001
1.167375e+003, 2.248825e+001
1.167857e+003, 2.260348e+001
1.168339e+003, 2.247338e+001
1.168821e+003, 2.232561e+001
1.169303e+003, 2.237411e+001
1.169785e+003, 2.241060e+001
1.170267e+003, 2.220379e+001
1.170749e+003, 2.189267e+001
1.171231e+003, 2.191875e+001
1.171714e+003, 2.227871e+001
1.172196e+003, 2.260583e+001
1.172678e+003, 2.283526e+001
1.173160e+003, 2.293518e+001
1.173642e+003, 2.272213e+001
1.174124e+003, 2.249278e+001
1.174606e+003, 2.255236e+001
1.175088e+003, 2.283683e+001
1.175571e+003, 2.291784e+001
1.176053e+003, 2.278176e+001
1.176535e+003, 2.275427e+001
1.177017e+003, 2.297278e+001
1.177499e+003, 2.316868e+001
1.177981e+003, 2.300998e+001
1.178463e+003, 2.275331e+001
1.178945e+003, 2.266786e+001
1.179427e+003, 2.276613e+001
1.179910e+003, 2.277242e+001
1.180392e+003, 2.267684e+001
1.180874e+003, 2.258579e+001
1.181356e+003, 2.253706e+001
1.181838e+003, 2.251265e+001
1.182320e+003, 2.245921e+001
1.182802e+003, 2.243872e+001
1.183284e+003, 2.254806e+001
1.183767e+003, 2.281652e+001
1.184249e+003, 2.304047e+001
1.184731e+003, 2.323474e+001
1.185213e+003, 2.328329e+001
1.185695e+003, 2.304828e+001
1.186177e+003, 2.277075e+001
1.186659e+003, 2.275320e+001
1.187141e+003, 2.286552e+001
1.187624e+003, 2.291984e+001
1.188106e+003, 2.286926e+001
1.188588e+003, 2.285322e+001
1.189070e+003, 2.287704e+001
1.189552e+003, 2.290784e+001
1.190034e+003, 2.293741e+001
1.190516e+003, 2.295269e+001
1.190998e+003, 2.296673e+001
1.191480e+003, 2.294555e+001
1.191963e+003, 2.281484e+001
1.192445e+003, 2.247302e+001
1.192927e+003, 2.227711e+001
1.193409e+003, 2.225200e+001
1.193891e+003, 2.225578e+001
1.194373e+003, 2.212922e+001
1.194855e+003, 2.201989e+001
1.195337e+003, 2.216817e+001
1.195819e+003, 2.247698e+001
1.196302e+003, 2.273543e+001
1.196784e+003, 2.295158e+001
1.197266e+003, 2.299860e+001
1.197748e+003, 2.283449e+001
1.198230e+003, 2.266953e+001
1.198712e+003, 2.269749e+001
1.199194e+003, 2.280722e+001
1.199676e+003, 2.286538e+001
1.200158e+003, 2.287989e+001
1.200641e+003, 2.287500e+001
1.201123e+003, 2.283447e+001
1.201605e+003, 2.281602e+001
1.202087e+003, 2.281212e+001
1.202569e+003, 2.287493e+001
1.203051e+003, 2.314567e+001
1.203533e+003, 2.344539e+001
1.204015e+003, 2.352618e+001
1.204498e+003, 2.342602e+001
1.204980e+003, 2.329065e+001
1.205462e+003, 2.302425e+001
1.205944e+003, 2.307571e+001
1.206426e+003, 2.359104e+001
1.206908e+003, 2.400204e+001
1.207390e+003, 2.345664e+001
1.207872e+003, 2.267415e+001
1.208354e+003, 2.271330e+001
1.208837e+003, 2.340661e+001
1.209319e+003, 2.376880e+001
1.209801e+003, 2.356624e+001
1.210283e+003, 2.336094e+001
1.210765e+003, 2.321349e+001
1.211247e+003, 2.308940e+001
1.211729e+003, 2.285604e+001
1.212211e+003, 2.268533e+001
1.212694e+003, 2.286621e+001
1.213176e+003, 2.334642e+001
1.213658e+003, 2.375877e+001
1.214140e+003, 2.416690e+001
1.214622e+003, 2.418656e+001
1.215104e+003, 2.369282e+001
1.215586e+003, 2.310295e+001
1.216068e+003, 2.281482e+001
1.216551e+003, 2.272074e+001
1.217033e+003, 2.271337e+001
1.217515e+003, 2.278126e+001
1.217997e+003, 2.291386e+001
1.218479e+003, 2.315266e+001
1.218961e+003, 2.329561e+001
1.219443e+003, 2.329980e+001
1.219925e+003, 2.324166e+001
1.220407e+003, 2.310673e+001
1.220890e+003, 2.302655e+001
1.221372e+003, 2.325737e+001
1.221854e+003, 2.374632e+001
1.222336e+003, 2.386696e+001
1.222818e+003, 2.345449e+001
1.223300e+003, 2.330662e+001
1.223782e+003, 2.363526e+001
1.224264e+003, 2.399940e+001
1.224746e+003, 2.384677e+001
1.225229e+003, 2.352223e+001
1.225711e+003, 2.334286e+001
1.226193e+003, 2.334752e+001
1.226675e+003, 2.355388e+001
1.227157e+003, 2.405738e+001
1.227639e+003, 2.417607e+001
1.228121e+003, 2.368280e+001
1.228603e+003, 2.317153e+001
1.229085e+003, 2.338397e+001
1.229568e+003, 2.380131e+001
1.230050e+003, 2.392545e+001
1.230532e+003, 2.374990e+001
1.231014e+003, 2.359879e+001
1.231496e+003, 2.347113e+001
1.231978e+003, 2.336261e+001
1.232460e+003, 2.326536e+001
1.232942e+003, 2.322139e+001
1.233425e+003, 2.327553e+001
1.233907e+003, 2.339630e+001
1.234389e+003, 2.358172e+001
1.234871e+003, 2.381520e+001
1.235353e+003, 2.406104e+001
1.235835e+003, 2.432946e+001
1.236317e+003, 2.428399e+001
1.236799e+003, 2.378273e+001
1.237281e+003, 2.329118e+001
1.237764e+003, 2.317020e+001
1.238246e+003, 2.324665e+001
1.238728e+003, 2.345603e+001
1.239210e+003, 2.374245e+001
1.239692e+003, 2.390737e+001
1.240174e+003, 2.395138e+001
1.240656e+003, 2.392691e+001
1.241138e+003, 2.382212e+001
1.241621e+003, 2.379678e+001
1.242103e+003, 2.409015e+001
1.242585e+003, 2.438742e+001
1.243067e+003, 2.446694e+001
1.243549e+003, 2.438250e+001
1.244031e+003, 2.432573e+001
1.244513e+003, 2.428973e+001
1.244995e+003, 2.420357e+001
1.245478e+003, 2.402900e+001
1.245960e+003, 2.393683e+001
1.246442e+003, 2.411234e+001
1.246924e+003, 2.431819e+001
1.247406e+003, 2.444468e+001
1.247888e+003, 2.448969e+001
1.248370e+003, 2.440724e+001
1.248852e+003, 2.422828e+001
1.249334e+003, 2.407660e+001
1.249817e+003, 2.397972e+001
1.250299e+003, 2.392176e+001
1.250781e+003, 2.385223e+001
1.251263e+003, 2.388910e+001
1.251745e+003, 2.413412e+001
1.252227e+003, 2.445893e+001
1.252709e+003, 2.448384e+001
1.253191e+003, 2.433084e+001
1.253673e+003, 2.439962e+001
1.254156e+003, 2.481677e+001
1.254638e+003, 2.507754e+001
1.255120e+003, 2.492584e+001
1.255602e+003, 2.473041e+001
1.256084e+003, 2.457966e+001
1.256566e+003, 2.449777e+001
1.257048e+003, 2.462530e+001
1.257530e+003, 2.483063e+001
1.258012e+003, 2.481861e+001
1.258495e+003, 2.451589e+001
1.258977e+003, 2.423771e+001
1.259459e+003, 2.398774e+001
1.259941e+003, 2.386415e+001
1.260423e+003, 2.390369e+001
1.260905e+003, 2.407376e+001
1.261387e+003, 2.444335e+001
1.261869e+003, 2.484870e+001
1.262352e+003, 2.503252e+001
1.262834e+003, 2.494259e+001
1.263316e+003, 2.485361e+001
1.263798e+003, 2.476692e+001
1.264280e+003, 2.473969e+001
1.264762e+003, 2.479477e+001
1.265244e+003, 2.489787e+001
1.265726e+003, 2.501093e+001
1.266208e+003, 2.514721e+001
1.266691e+003, 2.539629e+001
1.267173e+003, 2.574282e+001
1.267655e+003, 2.567699e+001
1.268137e+003, 2.512536e+001
1.268619e+003, 2.477813e+001
1.269101e+003, 2.484189e+001
1.269583e+003, 2.505099e+001
1.270065e+003, 2.526282e+001
1.270548e+003, 2.541924e+001
1.271030e+003, 2.546489e+001
1.271512e+003, 2.540781e+001
1.271994e+003, 2.522517e+001
1.272476e+003, 2.492124e+001
1.272958e+003, 2.462324e+001
1.273440e+003, 2.433349e+001
1.273922e+003, 2.425129e+001
1.274405e+003, 2.483579e+001
1.274887e+003, 2.533823e+001
1.275369e+003, 2.521381e+001
1.275851e+003, 2.474110e+001
1.276333e+003, 2.472999e+001
1.276815e+003, 2.509333e+001
1.277297e+003, 2.542716e+001
1.277779e+003, 2.566327e+001
1.278261e+003, 2.572515e+001
1.278744e+003, 2.538724e+001
1.279226e+003, 2.509053e+001
1.279708e+003, 2.500653e+001
1.280190e+003, 2.503656e+001
1.280672e+003, 2.495891e+001
1.281154e+003, 2.484315e+001
1.281636e+003, 2.491376e+001
1.282118e+003, 2.520123e+001
1.282600e+003, 2.536808e+001
1.283083e+003, 2.524085e+001
1.283565e+003, 2.510595e+001
1.284047e+003, 2.501532e+001
1.284529e+003, 2.497007e+001
1.285011e+003, 2.496673e+001
1.285493e+003, 2.501261e+001
1.285975e+003, 2.517054e+001
1.286457e+003, 2.542602e+001
1.286939e+003, 2.548907e+001
1.287422e+003, 2.524273e+001
1.287904e+003, 2.516317e+001
1.288386e+003, 2.536219e+001
1.288868e+003, 2.564738e+001
1.289350e+003, 2.590584e+001
1.289832e+003, 2.607035e+001
1.290314e+003, 2.601673e+001
1.290796e+003, 2.579293e+001
1.291279e+003, 2.566477e+001
1.291761e+003, 2.564053e+001
1.292243e+003, 2.562043e+001
1.292725e+003, 2.559007e+001
1.293207e+003, 2.556738e+001
1.293689e+003, 2.562573e+001
1.294171e+003, 2.563606e+001
1.294653e+003, 2.542277e+001
1.295135e+003, 2.514542e+001
1.295618e+003, 2.508563e+001
1.296100e+003, 2.522498e+001
1.296582e+003, 2.543566e+001
1.297064e+003, 2.569739e+001
1.297546e+003, 2.583463e+001
1.298028e+003, 2.553641e+001
1.298510e+003, 2.537448e+001
1.298992e+003, 2.561884e+001
1.299475e+003, 2.594047e+001
1.299957e+003, 2.586219e+001
1.300439e+003, 2.552326e+001
1.300921e+003, 2.528470e+001
1.301403e+003, 2.517515e+001
1.301885e+003, 2.517515e+001
##END=



