##NAMES=Fluorcalciomicrolite
##RRUFFID=R130019
##IDEAL CHEMISTRY=(Ca,Na)_2_Ta^5+^_2_O_6_F
##LOCALITY=Virgem da Lapa, Minas Gerais, Brazil 
##OWNER=RRUFF
##SOURCE=Royal Ontario Museum
##DESCRIPTION=Yellow outer zone of 1.5 cm zoned octahedron
##STATUS=The identification of this mineral is confirmed by single-crystal X-ray diffraction and chemical analysis.
##URL=rruff.info/R130019
##MEASURED CHEMISTRY=(Ca_0.96_Na_0.91_Pb_0.03_)_Σ=1.90_(Ta_1.69_Nb_0.31_)_Σ=2_O_6_[F_0.81_(OH)_0.08_]_Σ=0.89_
8.936163e+001, 0.000000e+000
8.984375e+001, 1.271913e+002
9.032587e+001, 1.281709e+002
9.080798e+001, 1.283604e+002
9.129010e+001, 1.274490e+002
9.177222e+001, 1.261081e+002
9.225433e+001, 1.251900e+002
9.273645e+001, 1.246518e+002
9.321857e+001, 1.240705e+002
9.370068e+001, 1.231161e+002
9.418280e+001, 1.218396e+002
9.466492e+001, 1.204046e+002
9.514703e+001, 1.187561e+002
9.562915e+001, 1.170092e+002
9.611127e+001, 1.153524e+002
9.659338e+001, 1.137551e+002
9.707550e+001, 1.124607e+002
9.755762e+001, 1.119595e+002
9.803973e+001, 1.122677e+002
9.852185e+001, 1.124206e+002
9.900397e+001, 1.119124e+002
9.948608e+001, 1.107212e+002
9.996820e+001, 1.098384e+002
1.004503e+002, 1.094414e+002
1.009324e+002, 1.091396e+002
1.014146e+002, 1.079975e+002
1.018967e+002, 1.057110e+002
1.023788e+002, 1.034236e+002
1.028609e+002, 1.017040e+002
1.033430e+002, 1.006737e+002
1.038251e+002, 9.989834e+001
1.043073e+002, 9.948936e+001
1.047894e+002, 9.933907e+001
1.052715e+002, 9.887890e+001
1.057536e+002, 9.797920e+001
1.062357e+002, 9.690874e+001
1.067178e+002, 9.580888e+001
1.072000e+002, 9.444668e+001
1.076821e+002, 9.341415e+001
1.081642e+002, 9.293978e+001
1.086463e+002, 9.308391e+001
1.091284e+002, 9.294852e+001
1.096105e+002, 9.245380e+001
1.100927e+002, 9.171177e+001
1.105748e+002, 9.083266e+001
1.110569e+002, 8.879339e+001
1.115390e+002, 8.758037e+001
1.120211e+002, 8.815682e+001
1.125032e+002, 9.143117e+001
1.129854e+002, 9.320265e+001
1.134675e+002, 9.181389e+001
1.139496e+002, 8.879643e+001
1.144317e+002, 8.634373e+001
1.149138e+002, 8.533694e+001
1.153959e+002, 8.474484e+001
1.158781e+002, 8.412761e+001
1.163602e+002, 8.339716e+001
1.168423e+002, 8.266541e+001
1.173244e+002, 8.192783e+001
1.178065e+002, 8.120794e+001
1.182886e+002, 8.056568e+001
1.187708e+002, 8.005967e+001
1.192529e+002, 7.962309e+001
1.197350e+002, 7.920516e+001
1.202171e+002, 7.874601e+001
1.206992e+002, 7.835670e+001
1.211813e+002, 7.825936e+001
1.216635e+002, 7.837466e+001
1.221456e+002, 7.826240e+001
1.226277e+002, 7.738879e+001
1.231098e+002, 7.618294e+001
1.235919e+002, 7.521695e+001
1.240740e+002, 7.499032e+001
1.245562e+002, 7.491162e+001
1.250383e+002, 7.423329e+001
1.255204e+002, 7.295704e+001
1.260025e+002, 7.175375e+001
1.264846e+002, 7.127229e+001
1.269667e+002, 7.132406e+001
1.274489e+002, 7.143752e+001
1.279310e+002, 7.144606e+001
1.284131e+002, 7.137284e+001
1.288952e+002, 7.125687e+001
1.293773e+002, 7.109592e+001
1.298594e+002, 7.090495e+001
1.303416e+002, 7.079797e+001
1.308237e+002, 7.073563e+001
1.313058e+002, 7.042397e+001
1.317879e+002, 6.941369e+001
1.322700e+002, 6.791981e+001
1.327521e+002, 6.706870e+001
1.332343e+002, 6.708450e+001
1.337164e+002, 6.752583e+001
1.341985e+002, 6.747045e+001
1.346806e+002, 6.686616e+001
1.351627e+002, 6.645555e+001
1.356448e+002, 6.681331e+001
1.361270e+002, 6.795072e+001
1.366091e+002, 6.919420e+001
1.370912e+002, 7.080063e+001
1.375733e+002, 7.229280e+001
1.380554e+002, 7.180024e+001
1.385375e+002, 6.873536e+001
1.390197e+002, 6.538628e+001
1.395018e+002, 6.354732e+001
1.399839e+002, 6.354064e+001
1.404660e+002, 6.373260e+001
1.409481e+002, 6.395426e+001
1.414302e+002, 6.418366e+001
1.419124e+002, 6.411348e+001
1.423945e+002, 6.360447e+001
1.428766e+002, 6.298998e+001
1.433587e+002, 6.253370e+001
1.438408e+002, 6.206742e+001
1.443229e+002, 6.215654e+001
1.448051e+002, 6.329464e+001
1.452872e+002, 6.583796e+001
1.457693e+002, 6.669253e+001
1.462514e+002, 6.478111e+001
1.467335e+002, 6.187197e+001
1.472156e+002, 6.022192e+001
1.476978e+002, 6.079895e+001
1.481799e+002, 6.146368e+001
1.486620e+002, 6.167238e+001
1.491441e+002, 6.121601e+001
1.496262e+002, 6.086684e+001
1.501083e+002, 6.074603e+001
1.505905e+002, 6.071782e+001
1.510726e+002, 6.054169e+001
1.515547e+002, 6.009500e+001
1.520368e+002, 5.960970e+001
1.525189e+002, 5.912857e+001
1.530010e+002, 5.853305e+001
1.534832e+002, 5.816068e+001
1.539653e+002, 5.812447e+001
1.544474e+002, 5.833127e+001
1.549295e+002, 5.855755e+001
1.554116e+002, 5.892369e+001
1.558937e+002, 5.919667e+001
1.563759e+002, 5.923866e+001
1.568580e+002, 5.857918e+001
1.573401e+002, 5.829770e+001
1.578222e+002, 5.875795e+001
1.583043e+002, 5.980400e+001
1.587864e+002, 6.086061e+001
1.592686e+002, 6.238857e+001
1.597507e+002, 6.351936e+001
1.602328e+002, 6.368874e+001
1.607149e+002, 6.171598e+001
1.611970e+002, 5.981945e+001
1.616791e+002, 5.866264e+001
1.621613e+002, 5.820381e+001
1.626434e+002, 5.806115e+001
1.631255e+002, 5.821926e+001
1.636076e+002, 5.857591e+001
1.640897e+002, 5.904002e+001
1.645718e+002, 5.967608e+001
1.650540e+002, 6.033537e+001
1.655361e+002, 6.090702e+001
1.660182e+002, 6.140017e+001
1.665003e+002, 6.197885e+001
1.669824e+002, 6.263988e+001
1.674645e+002, 6.346933e+001
1.679467e+002, 6.456123e+001
1.684288e+002, 6.606989e+001
1.689109e+002, 6.778082e+001
1.693930e+002, 6.945729e+001
1.698751e+002, 7.108566e+001
1.703572e+002, 7.304773e+001
1.708394e+002, 7.536379e+001
1.713215e+002, 7.823930e+001
1.718036e+002, 8.197143e+001
1.722857e+002, 8.719199e+001
1.727678e+002, 9.310033e+001
1.732499e+002, 9.864887e+001
1.737321e+002, 1.036764e+002
1.742142e+002, 1.094584e+002
1.746963e+002, 1.169443e+002
1.751784e+002, 1.260900e+002
1.756605e+002, 1.368394e+002
1.761426e+002, 1.490088e+002
1.766248e+002, 1.627155e+002
1.771069e+002, 1.781178e+002
1.775890e+002, 1.953549e+002
1.780711e+002, 2.140881e+002
1.785532e+002, 2.343262e+002
1.790353e+002, 2.560191e+002
1.795175e+002, 2.781856e+002
1.799996e+002, 2.999982e+002
1.804817e+002, 3.220486e+002
1.809638e+002, 3.461615e+002
1.814459e+002, 3.729817e+002
1.819280e+002, 4.008945e+002
1.824102e+002, 4.283730e+002
1.828923e+002, 4.551055e+002
1.833744e+002, 4.824346e+002
1.838565e+002, 5.107478e+002
1.843386e+002, 5.401517e+002
1.848207e+002, 5.702120e+002
1.853029e+002, 6.015011e+002
1.857850e+002, 6.328027e+002
1.862671e+002, 6.627253e+002
1.867492e+002, 6.911823e+002
1.872313e+002, 7.191384e+002
1.877134e+002, 7.468641e+002
1.881956e+002, 7.746857e+002
1.886777e+002, 8.028983e+002
1.891598e+002, 8.320970e+002
1.896419e+002, 8.615342e+002
1.901240e+002, 8.896682e+002
1.906061e+002, 9.168203e+002
1.910883e+002, 9.434600e+002
1.915704e+002, 9.700912e+002
1.920525e+002, 9.969460e+002
1.925346e+002, 1.024014e+003
1.930167e+002, 1.051410e+003
1.934988e+002, 1.078198e+003
1.939810e+002, 1.099404e+003
1.944631e+002, 1.113767e+003
1.949452e+002, 1.127552e+003
1.954273e+002, 1.140763e+003
1.959094e+002, 1.153421e+003
1.963915e+002, 1.168049e+003
1.968737e+002, 1.185295e+003
1.973558e+002, 1.204628e+003
1.978379e+002, 1.224877e+003
1.983200e+002, 1.246034e+003
1.988021e+002, 1.267823e+003
1.992842e+002, 1.289648e+003
1.997664e+002, 1.311583e+003
2.002485e+002, 1.334302e+003
2.007306e+002, 1.358491e+003
2.012127e+002, 1.383751e+003
2.016948e+002, 1.408510e+003
2.021769e+002, 1.433003e+003
2.026591e+002, 1.456638e+003
2.031412e+002, 1.478261e+003
2.036233e+002, 1.497753e+003
2.041054e+002, 1.517450e+003
2.045875e+002, 1.538536e+003
2.050696e+002, 1.560578e+003
2.055518e+002, 1.579160e+003
2.060339e+002, 1.593724e+003
2.065160e+002, 1.606225e+003
2.069981e+002, 1.618810e+003
2.074802e+002, 1.631685e+003
2.079623e+002, 1.643183e+003
2.084445e+002, 1.653064e+003
2.089266e+002, 1.661344e+003
2.094087e+002, 1.667285e+003
2.098908e+002, 1.670592e+003
2.103729e+002, 1.672223e+003
2.108550e+002, 1.672921e+003
2.113372e+002, 1.672313e+003
2.118193e+002, 1.672098e+003
2.123014e+002, 1.673031e+003
2.127835e+002, 1.675109e+003
2.132656e+002, 1.675479e+003
2.137477e+002, 1.673274e+003
2.142299e+002, 1.670573e+003
2.147120e+002, 1.669811e+003
2.151941e+002, 1.671290e+003
2.156762e+002, 1.673748e+003
2.161583e+002, 1.677043e+003
2.166404e+002, 1.681173e+003
2.171226e+002, 1.685154e+003
2.176047e+002, 1.688528e+003
2.180868e+002, 1.692270e+003
2.185689e+002, 1.697918e+003
2.190510e+002, 1.706621e+003
2.195331e+002, 1.714569e+003
2.200153e+002, 1.720531e+003
2.204974e+002, 1.724230e+003
2.209795e+002, 1.729616e+003
2.214616e+002, 1.737371e+003
2.219437e+002, 1.746185e+003
2.224258e+002, 1.754717e+003
2.229080e+002, 1.763129e+003
2.233901e+002, 1.770883e+003
2.238722e+002, 1.777800e+003
2.243543e+002, 1.784018e+003
2.248364e+002, 1.788735e+003
2.253185e+002, 1.791027e+003
2.258007e+002, 1.792573e+003
2.262828e+002, 1.795669e+003
2.267649e+002, 1.801222e+003
2.272470e+002, 1.806369e+003
2.277291e+002, 1.810243e+003
2.282112e+002, 1.812775e+003
2.286934e+002, 1.814761e+003
2.291755e+002, 1.816126e+003
2.296576e+002, 1.816993e+003
2.301397e+002, 1.817458e+003
2.306218e+002, 1.817323e+003
2.311039e+002, 1.817201e+003
2.315861e+002, 1.817277e+003
2.320682e+002, 1.817614e+003
2.325503e+002, 1.818011e+003
2.330324e+002, 1.818677e+003
2.335145e+002, 1.819320e+003
2.339966e+002, 1.819401e+003
2.344788e+002, 1.818049e+003
2.349609e+002, 1.817797e+003
2.354430e+002, 1.819560e+003
2.359251e+002, 1.823690e+003
2.364072e+002, 1.827366e+003
2.368893e+002, 1.830211e+003
2.373715e+002, 1.832887e+003
2.378536e+002, 1.836295e+003
2.383357e+002, 1.841146e+003
2.388178e+002, 1.845425e+003
2.392999e+002, 1.848114e+003
2.397820e+002, 1.848650e+003
2.402642e+002, 1.851712e+003
2.407463e+002, 1.859072e+003
2.412284e+002, 1.867390e+003
2.417105e+002, 1.872284e+003
2.421926e+002, 1.871282e+003
2.426747e+002, 1.871306e+003
2.431569e+002, 1.874548e+003
2.436390e+002, 1.881642e+003
2.441211e+002, 1.886546e+003
2.446032e+002, 1.888182e+003
2.450853e+002, 1.888633e+003
2.455674e+002, 1.890396e+003
2.460496e+002, 1.894405e+003
2.465317e+002, 1.898051e+003
2.470138e+002, 1.900736e+003
2.474959e+002, 1.902409e+003
2.479780e+002, 1.904171e+003
2.484601e+002, 1.906458e+003
2.489423e+002, 1.908506e+003
2.494244e+002, 1.909289e+003
2.499065e+002, 1.907832e+003
2.503886e+002, 1.907188e+003
2.508707e+002, 1.908444e+003
2.513528e+002, 1.911746e+003
2.518350e+002, 1.913600e+003
2.523171e+002, 1.913139e+003
2.527992e+002, 1.912148e+003
2.532813e+002, 1.912577e+003
2.537634e+002, 1.915269e+003
2.542455e+002, 1.917432e+003
2.547277e+002, 1.918222e+003
2.552098e+002, 1.917583e+003
2.556919e+002, 1.917833e+003
2.561740e+002, 1.919292e+003
2.566561e+002, 1.921157e+003
2.571382e+002, 1.922546e+003
2.576204e+002, 1.922982e+003
2.581025e+002, 1.924129e+003
2.585846e+002, 1.926705e+003
2.590667e+002, 1.930592e+003
2.595488e+002, 1.932748e+003
2.600309e+002, 1.932210e+003
2.605131e+002, 1.931321e+003
2.609952e+002, 1.932273e+003
2.614773e+002, 1.935802e+003
2.619594e+002, 1.939184e+003
2.624415e+002, 1.941867e+003
2.629236e+002, 1.943989e+003
2.634058e+002, 1.946674e+003
2.638879e+002, 1.950343e+003
2.643700e+002, 1.953957e+003
2.648521e+002, 1.956733e+003
2.653342e+002, 1.958442e+003
2.658163e+002, 1.960004e+003
2.662985e+002, 1.961413e+003
2.667806e+002, 1.962742e+003
2.672627e+002, 1.964493e+003
2.677448e+002, 1.966695e+003
2.682269e+002, 1.969196e+003
2.687090e+002, 1.971942e+003
2.691912e+002, 1.975037e+003
2.696733e+002, 1.977956e+003
2.701554e+002, 1.980634e+003
2.706375e+002, 1.983069e+003
2.711196e+002, 1.985041e+003
2.716017e+002, 1.986258e+003
2.720839e+002, 1.987753e+003
2.725660e+002, 1.990547e+003
2.730481e+002, 1.995038e+003
2.735302e+002, 1.998171e+003
2.740123e+002, 1.999229e+003
2.744944e+002, 1.999071e+003
2.749766e+002, 2.000309e+003
2.754587e+002, 2.003229e+003
2.759408e+002, 2.006489e+003
2.764229e+002, 2.009405e+003
2.769050e+002, 2.012034e+003
2.773871e+002, 2.013849e+003
2.778693e+002, 2.014482e+003
2.783514e+002, 2.014695e+003
2.788335e+002, 2.016315e+003
2.793156e+002, 2.019562e+003
2.797977e+002, 2.023026e+003
2.802798e+002, 2.026107e+003
2.807620e+002, 2.028777e+003
2.812441e+002, 2.030787e+003
2.817262e+002, 2.031969e+003
2.822083e+002, 2.032721e+003
2.826904e+002, 2.033511e+003
2.831725e+002, 2.034277e+003
2.836547e+002, 2.035734e+003
2.841368e+002, 2.038858e+003
2.846189e+002, 2.043379e+003
2.851010e+002, 2.046217e+003
2.855831e+002, 2.046989e+003
2.860652e+002, 2.046956e+003
2.865474e+002, 2.048085e+003
2.870295e+002, 2.050347e+003
2.875116e+002, 2.052305e+003
2.879937e+002, 2.053359e+003
2.884758e+002, 2.053586e+003
2.889579e+002, 2.053144e+003
2.894401e+002, 2.051881e+003
2.899222e+002, 2.050755e+003
2.904043e+002, 2.051151e+003
2.908864e+002, 2.052903e+003
2.913685e+002, 2.054664e+003
2.918506e+002, 2.056188e+003
2.923328e+002, 2.057313e+003
2.928149e+002, 2.057398e+003
2.932970e+002, 2.056404e+003
2.937791e+002, 2.054838e+003
2.942612e+002, 2.053118e+003
2.947433e+002, 2.051246e+003
2.952255e+002, 2.049203e+003
2.957076e+002, 2.046697e+003
2.961897e+002, 2.044192e+003
2.966718e+002, 2.042952e+003
2.971539e+002, 2.042945e+003
2.976360e+002, 2.042873e+003
2.981182e+002, 2.041834e+003
2.986003e+002, 2.039887e+003
2.990824e+002, 2.037080e+003
2.995645e+002, 2.033099e+003
3.000466e+002, 2.028610e+003
3.005287e+002, 2.024526e+003
3.010109e+002, 2.020817e+003
3.014930e+002, 2.017097e+003
3.019751e+002, 2.013085e+003
3.024572e+002, 2.008914e+003
3.029393e+002, 2.004909e+003
3.034214e+002, 2.001161e+003
3.039036e+002, 1.997498e+003
3.043857e+002, 1.994060e+003
3.048678e+002, 1.990672e+003
3.053499e+002, 1.986578e+003
3.058320e+002, 1.980698e+003
3.063141e+002, 1.974131e+003
3.067963e+002, 1.968287e+003
3.072784e+002, 1.963409e+003
3.077605e+002, 1.959044e+003
3.082426e+002, 1.955133e+003
3.087247e+002, 1.951436e+003
3.092068e+002, 1.947387e+003
3.096890e+002, 1.942418e+003
3.101711e+002, 1.937067e+003
3.106532e+002, 1.931859e+003
3.111353e+002, 1.926882e+003
3.116174e+002, 1.921777e+003
3.120995e+002, 1.916273e+003
3.125817e+002, 1.910529e+003
3.130638e+002, 1.904740e+003
3.135459e+002, 1.898876e+003
3.140280e+002, 1.893014e+003
3.145101e+002, 1.887071e+003
3.149922e+002, 1.881054e+003
3.154744e+002, 1.875468e+003
3.159565e+002, 1.871400e+003
3.164386e+002, 1.867703e+003
3.169207e+002, 1.863124e+003
3.174028e+002, 1.856248e+003
3.178849e+002, 1.849380e+003
3.183671e+002, 1.843438e+003
3.188492e+002, 1.838387e+003
3.193313e+002, 1.833797e+003
3.198134e+002, 1.829758e+003
3.202955e+002, 1.825974e+003
3.207776e+002, 1.822250e+003
3.212598e+002, 1.818484e+003
3.217419e+002, 1.814746e+003
3.222240e+002, 1.811013e+003
3.227061e+002, 1.807278e+003
3.231882e+002, 1.803586e+003
3.236703e+002, 1.799188e+003
3.241525e+002, 1.795307e+003
3.246346e+002, 1.792708e+003
3.251167e+002, 1.792900e+003
3.255988e+002, 1.792373e+003
3.260809e+002, 1.790588e+003
3.265630e+002, 1.787862e+003
3.270452e+002, 1.785041e+003
3.275273e+002, 1.781680e+003
3.280094e+002, 1.778725e+003
3.284915e+002, 1.776668e+003
3.289736e+002, 1.776438e+003
3.294557e+002, 1.775100e+003
3.299379e+002, 1.771947e+003
3.304200e+002, 1.767891e+003
3.309021e+002, 1.764415e+003
3.313842e+002, 1.761604e+003
3.318663e+002, 1.759185e+003
3.323484e+002, 1.757157e+003
3.328306e+002, 1.755635e+003
3.333127e+002, 1.753862e+003
3.337948e+002, 1.751692e+003
3.342769e+002, 1.749371e+003
3.347590e+002, 1.747217e+003
3.352411e+002, 1.745325e+003
3.357233e+002, 1.743409e+003
3.362054e+002, 1.741605e+003
3.366875e+002, 1.739862e+003
3.371696e+002, 1.737177e+003
3.376517e+002, 1.733152e+003
3.381339e+002, 1.729029e+003
3.386160e+002, 1.725927e+003
3.390981e+002, 1.724012e+003
3.395802e+002, 1.722293e+003
3.400623e+002, 1.720829e+003
3.405444e+002, 1.719357e+003
3.410266e+002, 1.716854e+003
3.415087e+002, 1.712992e+003
3.419908e+002, 1.709384e+003
3.424729e+002, 1.707697e+003
3.429550e+002, 1.707901e+003
3.434371e+002, 1.705433e+003
3.439193e+002, 1.699199e+003
3.444014e+002, 1.691515e+003
3.448835e+002, 1.687231e+003
3.453656e+002, 1.686319e+003
3.458477e+002, 1.684639e+003
3.463298e+002, 1.679483e+003
3.468120e+002, 1.671693e+003
3.472941e+002, 1.665062e+003
3.477762e+002, 1.659706e+003
3.482583e+002, 1.655173e+003
3.487404e+002, 1.651302e+003
3.492225e+002, 1.647910e+003
3.497047e+002, 1.644168e+003
3.501868e+002, 1.639771e+003
3.506689e+002, 1.634847e+003
3.511510e+002, 1.629284e+003
3.516331e+002, 1.623112e+003
3.521152e+002, 1.617119e+003
3.525974e+002, 1.612410e+003
3.530795e+002, 1.608275e+003
3.535616e+002, 1.603324e+003
3.540437e+002, 1.596645e+003
3.545258e+002, 1.589696e+003
3.550079e+002, 1.584203e+003
3.554901e+002, 1.579838e+003
3.559722e+002, 1.575011e+003
3.564543e+002, 1.568047e+003
3.569364e+002, 1.560483e+003
3.574185e+002, 1.553815e+003
3.579006e+002, 1.548448e+003
3.583828e+002, 1.543703e+003
3.588649e+002, 1.539231e+003
3.593470e+002, 1.535045e+003
3.598291e+002, 1.531122e+003
3.603112e+002, 1.528066e+003
3.607933e+002, 1.524812e+003
3.612755e+002, 1.520474e+003
3.617576e+002, 1.514785e+003
3.622397e+002, 1.509349e+003
3.627218e+002, 1.505071e+003
3.632039e+002, 1.501244e+003
3.636860e+002, 1.497080e+003
3.641682e+002, 1.492247e+003
3.646503e+002, 1.487119e+003
3.651324e+002, 1.481612e+003
3.656145e+002, 1.475726e+003
3.660966e+002, 1.470551e+003
3.665787e+002, 1.467135e+003
3.670609e+002, 1.463950e+003
3.675430e+002, 1.460017e+003
3.680251e+002, 1.454695e+003
3.685072e+002, 1.449255e+003
3.689893e+002, 1.443499e+003
3.694714e+002, 1.437676e+003
3.699536e+002, 1.432816e+003
3.704357e+002, 1.429831e+003
3.709178e+002, 1.426841e+003
3.713999e+002, 1.423176e+003
3.718820e+002, 1.418755e+003
3.723641e+002, 1.413699e+003
3.728463e+002, 1.407315e+003
3.733284e+002, 1.400802e+003
3.738105e+002, 1.396238e+003
3.742926e+002, 1.394810e+003
3.747747e+002, 1.392574e+003
3.752568e+002, 1.387951e+003
3.757390e+002, 1.380873e+003
3.762211e+002, 1.375516e+003
3.767032e+002, 1.372309e+003
3.771853e+002, 1.369782e+003
3.776674e+002, 1.366450e+003
3.781495e+002, 1.362212e+003
3.786317e+002, 1.357886e+003
3.791138e+002, 1.353569e+003
3.795959e+002, 1.349282e+003
3.800780e+002, 1.345013e+003
3.805601e+002, 1.340810e+003
3.810422e+002, 1.336397e+003
3.815244e+002, 1.331319e+003
3.820065e+002, 1.325755e+003
3.824886e+002, 1.321068e+003
3.829707e+002, 1.317577e+003
3.834528e+002, 1.314387e+003
3.839349e+002, 1.309878e+003
3.844171e+002, 1.304323e+003
3.848992e+002, 1.299210e+003
3.853813e+002, 1.295366e+003
3.858634e+002, 1.292332e+003
3.863455e+002, 1.289368e+003
3.868276e+002, 1.286470e+003
3.873098e+002, 1.283381e+003
3.877919e+002, 1.279776e+003
3.882740e+002, 1.275778e+003
3.887561e+002, 1.271618e+003
3.892382e+002, 1.266879e+003
3.897203e+002, 1.262410e+003
3.902025e+002, 1.259260e+003
3.906846e+002, 1.257175e+003
3.911667e+002, 1.254906e+003
3.916488e+002, 1.252220e+003
3.921309e+002, 1.248808e+003
3.926130e+002, 1.244166e+003
3.930952e+002, 1.237492e+003
3.935773e+002, 1.231307e+003
3.940594e+002, 1.227167e+003
3.945415e+002, 1.224264e+003
3.950236e+002, 1.221096e+003
3.955057e+002, 1.216579e+003
3.959879e+002, 1.212286e+003
3.964700e+002, 1.209039e+003
3.969521e+002, 1.207115e+003
3.974342e+002, 1.204855e+003
3.979163e+002, 1.202273e+003
3.983984e+002, 1.199127e+003
3.988806e+002, 1.195198e+003
3.993627e+002, 1.189264e+003
3.998448e+002, 1.183923e+003
4.003269e+002, 1.179468e+003
4.008090e+002, 1.175836e+003
4.012911e+002, 1.172801e+003
4.017733e+002, 1.170997e+003
4.022554e+002, 1.169001e+003
4.027375e+002, 1.165908e+003
4.032196e+002, 1.160823e+003
4.037017e+002, 1.157025e+003
4.041838e+002, 1.155298e+003
4.046660e+002, 1.154330e+003
4.051481e+002, 1.151473e+003
4.056302e+002, 1.146178e+003
4.061123e+002, 1.140984e+003
4.065944e+002, 1.136821e+003
4.070765e+002, 1.133628e+003
4.075587e+002, 1.130482e+003
4.080408e+002, 1.127389e+003
4.085229e+002, 1.124234e+003
4.090050e+002, 1.120707e+003
4.094871e+002, 1.116867e+003
4.099692e+002, 1.113481e+003
4.104514e+002, 1.110733e+003
4.109335e+002, 1.108453e+003
4.114156e+002, 1.106583e+003
4.118977e+002, 1.105069e+003
4.123798e+002, 1.103115e+003
4.128619e+002, 1.099703e+003
4.133441e+002, 1.095605e+003
4.138262e+002, 1.092427e+003
4.143083e+002, 1.090505e+003
4.147904e+002, 1.088720e+003
4.152725e+002, 1.085885e+003
4.157546e+002, 1.082373e+003
4.162368e+002, 1.078873e+003
4.167189e+002, 1.075882e+003
4.172010e+002, 1.072953e+003
4.176831e+002, 1.069515e+003
4.181652e+002, 1.065642e+003
4.186473e+002, 1.062114e+003
4.191295e+002, 1.059285e+003
4.196116e+002, 1.057053e+003
4.200937e+002, 1.055449e+003
4.205758e+002, 1.055303e+003
4.210579e+002, 1.054553e+003
4.215400e+002, 1.051967e+003
4.220222e+002, 1.048267e+003
4.225043e+002, 1.045158e+003
4.229864e+002, 1.043604e+003
4.234685e+002, 1.042265e+003
4.239506e+002, 1.040667e+003
4.244327e+002, 1.038793e+003
4.249149e+002, 1.036672e+003
4.253970e+002, 1.033704e+003
4.258791e+002, 1.030828e+003
4.263612e+002, 1.029029e+003
4.268433e+002, 1.029405e+003
4.273254e+002, 1.029072e+003
4.278076e+002, 1.027285e+003
4.282897e+002, 1.024299e+003
4.287718e+002, 1.022087e+003
4.292539e+002, 1.020818e+003
4.297360e+002, 1.019979e+003
4.302181e+002, 1.019482e+003
4.307003e+002, 1.019481e+003
4.311824e+002, 1.018647e+003
4.316645e+002, 1.016732e+003
4.321466e+002, 1.014298e+003
4.326287e+002, 1.012135e+003
4.331108e+002, 1.010263e+003
4.335930e+002, 1.009030e+003
4.340751e+002, 1.009002e+003
4.345572e+002, 1.009682e+003
4.350393e+002, 1.009375e+003
4.355214e+002, 1.008082e+003
4.360035e+002, 1.006312e+003
4.364857e+002, 1.003880e+003
4.369678e+002, 1.001347e+003
4.374499e+002, 1.000260e+003
4.379320e+002, 1.001611e+003
4.384141e+002, 1.003190e+003
4.388962e+002, 1.002123e+003
4.393784e+002, 9.991940e+002
4.398605e+002, 9.967188e+002
4.403426e+002, 9.961674e+002
4.408247e+002, 9.964433e+002
4.413068e+002, 9.966038e+002
4.417889e+002, 9.965311e+002
4.422711e+002, 9.967537e+002
4.427532e+002, 9.984523e+002
4.432353e+002, 1.000203e+003
4.437174e+002, 1.000525e+003
4.441995e+002, 9.969762e+002
4.446816e+002, 9.940753e+002
4.451638e+002, 9.937702e+002
4.456459e+002, 9.953967e+002
4.461280e+002, 9.958583e+002
4.466101e+002, 9.933779e+002
4.470922e+002, 9.907414e+002
4.475743e+002, 9.892861e+002
4.480565e+002, 9.899373e+002
4.485386e+002, 9.894405e+002
4.490207e+002, 9.868533e+002
4.495028e+002, 9.837164e+002
4.499849e+002, 9.821334e+002
4.504670e+002, 9.827595e+002
4.509492e+002, 9.835030e+002
4.514313e+002, 9.841661e+002
4.519134e+002, 9.846432e+002
4.523955e+002, 9.837384e+002
4.528776e+002, 9.810263e+002
4.533597e+002, 9.785142e+002
4.538419e+002, 9.779403e+002
4.543240e+002, 9.792502e+002
4.548061e+002, 9.797384e+002
4.552882e+002, 9.790118e+002
4.557703e+002, 9.778390e+002
4.562524e+002, 9.775702e+002
4.567346e+002, 9.780236e+002
4.572167e+002, 9.780327e+002
4.576988e+002, 9.765907e+002
4.581809e+002, 9.746028e+002
4.586630e+002, 9.736939e+002
4.591451e+002, 9.738116e+002
4.596273e+002, 9.741285e+002
4.601094e+002, 9.741067e+002
4.605915e+002, 9.738704e+002
4.610736e+002, 9.735513e+002
4.615557e+002, 9.730917e+002
4.620378e+002, 9.727460e+002
4.625200e+002, 9.725319e+002
4.630021e+002, 9.725672e+002
4.634842e+002, 9.730827e+002
4.639663e+002, 9.750744e+002
4.644484e+002, 9.768076e+002
4.649305e+002, 9.772015e+002
4.654127e+002, 9.761264e+002
4.658948e+002, 9.754106e+002
4.663769e+002, 9.755134e+002
4.668590e+002, 9.760677e+002
4.673411e+002, 9.768137e+002
4.678232e+002, 9.782818e+002
4.683054e+002, 9.792119e+002
4.687875e+002, 9.790644e+002
4.692696e+002, 9.784280e+002
4.697517e+002, 9.788417e+002
4.702338e+002, 9.808203e+002
4.707159e+002, 9.828693e+002
4.711981e+002, 9.844025e+002
4.716802e+002, 9.853831e+002
4.721623e+002, 9.867305e+002
4.726444e+002, 9.884720e+002
4.731265e+002, 9.904446e+002
4.736086e+002, 9.925457e+002
4.740908e+002, 9.947675e+002
4.745729e+002, 9.967941e+002
4.750550e+002, 9.984898e+002
4.755371e+002, 1.000068e+003
4.760192e+002, 1.001888e+003
4.765013e+002, 1.003947e+003
4.769835e+002, 1.006171e+003
4.774656e+002, 1.008411e+003
4.779477e+002, 1.010837e+003
4.784298e+002, 1.014036e+003
4.789119e+002, 1.018057e+003
4.793940e+002, 1.021613e+003
4.798762e+002, 1.023225e+003
4.803583e+002, 1.023908e+003
4.808404e+002, 1.025003e+003
4.813225e+002, 1.026941e+003
4.818046e+002, 1.029344e+003
4.822867e+002, 1.032178e+003
4.827689e+002, 1.035359e+003
4.832510e+002, 1.038649e+003
4.837331e+002, 1.041799e+003
4.842152e+002, 1.045237e+003
4.846973e+002, 1.049146e+003
4.851794e+002, 1.053588e+003
4.856616e+002, 1.058399e+003
4.861437e+002, 1.063738e+003
4.866258e+002, 1.069339e+003
4.871079e+002, 1.075076e+003
4.875900e+002, 1.081125e+003
4.880721e+002, 1.086992e+003
4.885543e+002, 1.092460e+003
4.890364e+002, 1.097745e+003
4.895185e+002, 1.103529e+003
4.900006e+002, 1.109935e+003
4.904827e+002, 1.116221e+003
4.909648e+002, 1.121843e+003
4.914470e+002, 1.126868e+003
4.919291e+002, 1.132355e+003
4.924112e+002, 1.138287e+003
4.928933e+002, 1.144646e+003
4.933754e+002, 1.151692e+003
4.938575e+002, 1.159250e+003
4.943397e+002, 1.166419e+003
4.948218e+002, 1.172930e+003
4.953039e+002, 1.179026e+003
4.957860e+002, 1.184530e+003
4.962681e+002, 1.189719e+003
4.967502e+002, 1.195487e+003
4.972324e+002, 1.202865e+003
4.977145e+002, 1.210776e+003
4.981966e+002, 1.218474e+003
4.986787e+002, 1.225973e+003
4.991608e+002, 1.232605e+003
4.996429e+002, 1.237621e+003
5.001251e+002, 1.241846e+003
5.006072e+002, 1.246151e+003
5.010893e+002, 1.251011e+003
5.015714e+002, 1.255457e+003
5.020535e+002, 1.259412e+003
5.025356e+002, 1.262809e+003
5.030178e+002, 1.265532e+003
5.034999e+002, 1.266865e+003
5.039820e+002, 1.268371e+003
5.044641e+002, 1.270691e+003
5.049462e+002, 1.273913e+003
5.054283e+002, 1.275990e+003
5.059105e+002, 1.276566e+003
5.063926e+002, 1.276569e+003
5.068747e+002, 1.276682e+003
5.073568e+002, 1.276960e+003
5.078389e+002, 1.277078e+003
5.083210e+002, 1.277025e+003
5.088032e+002, 1.276775e+003
5.092853e+002, 1.276284e+003
5.097674e+002, 1.275545e+003
5.102495e+002, 1.274513e+003
5.107316e+002, 1.272895e+003
5.112137e+002, 1.271051e+003
5.116959e+002, 1.269909e+003
5.121780e+002, 1.269402e+003
5.126601e+002, 1.268711e+003
5.131422e+002, 1.266939e+003
5.136243e+002, 1.264736e+003
5.141064e+002, 1.262937e+003
5.145886e+002, 1.261724e+003
5.150707e+002, 1.260797e+003
5.155528e+002, 1.260172e+003
5.160349e+002, 1.259691e+003
5.165170e+002, 1.259107e+003
5.169991e+002, 1.258053e+003
5.174813e+002, 1.257221e+003
5.179634e+002, 1.256694e+003
5.184455e+002, 1.256537e+003
5.189276e+002, 1.257121e+003
5.194097e+002, 1.259916e+003
5.198918e+002, 1.262200e+003
5.203740e+002, 1.262504e+003
5.208561e+002, 1.259513e+003
5.213382e+002, 1.258931e+003
5.218203e+002, 1.261588e+003
5.223024e+002, 1.265656e+003
5.227845e+002, 1.269193e+003
5.232667e+002, 1.272149e+003
5.237488e+002, 1.274649e+003
5.242309e+002, 1.276416e+003
5.247130e+002, 1.277957e+003
5.251951e+002, 1.280833e+003
5.256772e+002, 1.285028e+003
5.261594e+002, 1.289130e+003
5.266415e+002, 1.292371e+003
5.271236e+002, 1.295005e+003
5.276057e+002, 1.297445e+003
5.280878e+002, 1.299706e+003
5.285699e+002, 1.302052e+003
5.290521e+002, 1.304541e+003
5.295342e+002, 1.307287e+003
5.300163e+002, 1.310462e+003
5.304984e+002, 1.314199e+003
5.309805e+002, 1.318173e+003
5.314626e+002, 1.322079e+003
5.319448e+002, 1.326075e+003
5.324269e+002, 1.330447e+003
5.329090e+002, 1.335395e+003
5.333911e+002, 1.340628e+003
5.338732e+002, 1.346545e+003
5.343553e+002, 1.353132e+003
5.348375e+002, 1.358187e+003
5.353196e+002, 1.360521e+003
5.358017e+002, 1.362366e+003
5.362838e+002, 1.364898e+003
5.367659e+002, 1.368317e+003
5.372480e+002, 1.371903e+003
5.377302e+002, 1.375721e+003
5.382123e+002, 1.379580e+003
5.386944e+002, 1.383285e+003
5.391765e+002, 1.386909e+003
5.396586e+002, 1.389769e+003
5.401407e+002, 1.391399e+003
5.406229e+002, 1.392406e+003
5.411050e+002, 1.394081e+003
5.415871e+002, 1.396414e+003
5.420692e+002, 1.399127e+003
5.425513e+002, 1.402376e+003
5.430334e+002, 1.405850e+003
5.435156e+002, 1.409061e+003
5.439977e+002, 1.411993e+003
5.444798e+002, 1.414759e+003
5.449619e+002, 1.417127e+003
5.454440e+002, 1.419466e+003
5.459261e+002, 1.422183e+003
5.464083e+002, 1.425593e+003
5.468904e+002, 1.429045e+003
5.473725e+002, 1.432602e+003
5.478546e+002, 1.435955e+003
5.483367e+002, 1.438557e+003
5.488188e+002, 1.438955e+003
5.493010e+002, 1.439996e+003
5.497831e+002, 1.442684e+003
5.502652e+002, 1.446974e+003
5.507473e+002, 1.450325e+003
5.512294e+002, 1.452381e+003
5.517115e+002, 1.454111e+003
5.521937e+002, 1.456377e+003
5.526758e+002, 1.459392e+003
5.531579e+002, 1.460942e+003
5.536400e+002, 1.460675e+003
5.541221e+002, 1.459750e+003
5.546042e+002, 1.459624e+003
5.550864e+002, 1.460219e+003
5.555685e+002, 1.461005e+003
5.560506e+002, 1.461858e+003
5.565327e+002, 1.462759e+003
5.570148e+002, 1.463804e+003
5.574969e+002, 1.464893e+003
5.579791e+002, 1.465687e+003
5.584612e+002, 1.465699e+003
5.589433e+002, 1.465497e+003
5.594254e+002, 1.465659e+003
5.599075e+002, 1.466226e+003
5.603896e+002, 1.466400e+003
5.608718e+002, 1.465253e+003
5.613539e+002, 1.463952e+003
5.618360e+002, 1.463408e+003
5.623181e+002, 1.464795e+003
5.628002e+002, 1.465374e+003
5.632823e+002, 1.464579e+003
5.637645e+002, 1.463140e+003
5.642466e+002, 1.462236e+003
5.647287e+002, 1.462412e+003
5.652108e+002, 1.461855e+003
5.656929e+002, 1.459488e+003
5.661750e+002, 1.456165e+003
5.666572e+002, 1.456441e+003
5.671393e+002, 1.460912e+003
5.676214e+002, 1.464609e+003
5.681035e+002, 1.463812e+003
5.685856e+002, 1.459702e+003
5.690677e+002, 1.456665e+003
5.695499e+002, 1.454868e+003
5.700320e+002, 1.453983e+003
5.705141e+002, 1.454645e+003
5.709962e+002, 1.455801e+003
5.714783e+002, 1.455532e+003
5.719604e+002, 1.452531e+003
5.724426e+002, 1.449756e+003
5.729247e+002, 1.449446e+003
5.734068e+002, 1.450627e+003
5.738889e+002, 1.451542e+003
5.743710e+002, 1.451116e+003
5.748531e+002, 1.450871e+003
5.753353e+002, 1.452052e+003
5.758174e+002, 1.454427e+003
5.762995e+002, 1.454478e+003
5.767816e+002, 1.449934e+003
5.772637e+002, 1.445679e+003
5.777458e+002, 1.443963e+003
5.782280e+002, 1.445338e+003
5.787101e+002, 1.446400e+003
5.791922e+002, 1.447074e+003
5.796743e+002, 1.447590e+003
5.801564e+002, 1.448191e+003
5.806385e+002, 1.448864e+003
5.811207e+002, 1.449344e+003
5.816028e+002, 1.449411e+003
5.820849e+002, 1.449640e+003
5.825670e+002, 1.451449e+003
5.830491e+002, 1.454242e+003
5.835313e+002, 1.456181e+003
5.840134e+002, 1.454844e+003
5.844955e+002, 1.453346e+003
5.849776e+002, 1.454868e+003
5.854597e+002, 1.458977e+003
5.859418e+002, 1.463164e+003
5.864240e+002, 1.466971e+003
5.869061e+002, 1.469926e+003
5.873882e+002, 1.471556e+003
5.878703e+002, 1.471308e+003
5.883524e+002, 1.471615e+003
5.888345e+002, 1.472868e+003
5.893167e+002, 1.474714e+003
5.897988e+002, 1.477026e+003
5.902809e+002, 1.480427e+003
5.907630e+002, 1.482716e+003
5.912451e+002, 1.483151e+003
5.917272e+002, 1.483023e+003
5.922094e+002, 1.484870e+003
5.926915e+002, 1.488770e+003
5.931736e+002, 1.493246e+003
5.936557e+002, 1.498146e+003
5.941378e+002, 1.503069e+003
5.946199e+002, 1.506870e+003
5.951021e+002, 1.509641e+003
5.955842e+002, 1.512364e+003
5.960663e+002, 1.515607e+003
5.965484e+002, 1.519176e+003
5.970305e+002, 1.522859e+003
5.975126e+002, 1.526630e+003
5.979948e+002, 1.530735e+003
5.984769e+002, 1.535810e+003
5.989590e+002, 1.540948e+003
5.994411e+002, 1.545336e+003
5.999232e+002, 1.547893e+003
6.004053e+002, 1.551245e+003
6.008875e+002, 1.556247e+003
6.013696e+002, 1.562077e+003
6.018517e+002, 1.567657e+003
6.023338e+002, 1.573148e+003
6.028159e+002, 1.577913e+003
6.032980e+002, 1.581449e+003
6.037802e+002, 1.584313e+003
6.042623e+002, 1.588981e+003
6.047444e+002, 1.595639e+003
6.052265e+002, 1.602097e+003
6.057086e+002, 1.606590e+003
6.061907e+002, 1.609948e+003
6.066729e+002, 1.615548e+003
6.071550e+002, 1.623305e+003
6.076371e+002, 1.631019e+003
6.081192e+002, 1.636419e+003
6.086013e+002, 1.640850e+003
6.090834e+002, 1.646176e+003
6.095656e+002, 1.653113e+003
6.100477e+002, 1.659446e+003
6.105298e+002, 1.663006e+003
6.110119e+002, 1.665721e+003
6.114940e+002, 1.669806e+003
6.119761e+002, 1.677581e+003
6.124583e+002, 1.684602e+003
6.129404e+002, 1.689676e+003
6.134225e+002, 1.693719e+003
6.139046e+002, 1.698951e+003
6.143867e+002, 1.705949e+003
6.148688e+002, 1.712760e+003
6.153510e+002, 1.718695e+003
6.158331e+002, 1.723963e+003
6.163152e+002, 1.730286e+003
6.167973e+002, 1.737734e+003
6.172794e+002, 1.745020e+003
6.177615e+002, 1.750691e+003
6.182437e+002, 1.755418e+003
6.187258e+002, 1.761736e+003
6.192079e+002, 1.769873e+003
6.196900e+002, 1.777382e+003
6.201721e+002, 1.781483e+003
6.206542e+002, 1.784009e+003
6.211364e+002, 1.787278e+003
6.216185e+002, 1.792140e+003
6.221006e+002, 1.797196e+003
6.225827e+002, 1.802547e+003
6.230648e+002, 1.807591e+003
6.235469e+002, 1.811476e+003
6.240291e+002, 1.812810e+003
6.245112e+002, 1.814580e+003
6.249933e+002, 1.817383e+003
6.254754e+002, 1.820985e+003
6.259575e+002, 1.824464e+003
6.264396e+002, 1.827836e+003
6.269218e+002, 1.831223e+003
6.274039e+002, 1.834808e+003
6.278860e+002, 1.838478e+003
6.283681e+002, 1.841336e+003
6.288502e+002, 1.843346e+003
6.293323e+002, 1.845366e+003
6.298145e+002, 1.847855e+003
6.302966e+002, 1.850824e+003
6.307787e+002, 1.854639e+003
6.312608e+002, 1.859410e+003
6.317429e+002, 1.863764e+003
6.322250e+002, 1.866273e+003
6.327072e+002, 1.867974e+003
6.331893e+002, 1.870030e+003
6.336714e+002, 1.872805e+003
6.341535e+002, 1.875724e+003
6.346356e+002, 1.879099e+003
6.351177e+002, 1.882368e+003
6.355999e+002, 1.884679e+003
6.360820e+002, 1.885343e+003
6.365641e+002, 1.886147e+003
6.370462e+002, 1.887376e+003
6.375283e+002, 1.888951e+003
6.380104e+002, 1.890839e+003
6.384926e+002, 1.893229e+003
6.389747e+002, 1.894882e+003
6.394568e+002, 1.894962e+003
6.399389e+002, 1.893971e+003
6.404210e+002, 1.893370e+003
6.409031e+002, 1.893184e+003
6.413853e+002, 1.893625e+003
6.418674e+002, 1.895272e+003
6.423495e+002, 1.897442e+003
6.428316e+002, 1.899293e+003
6.433137e+002, 1.900728e+003
6.437958e+002, 1.902080e+003
6.442780e+002, 1.903282e+003
6.447601e+002, 1.904606e+003
6.452422e+002, 1.906297e+003
6.457243e+002, 1.908790e+003
6.462064e+002, 1.910999e+003
6.466885e+002, 1.912904e+003
6.471707e+002, 1.914448e+003
6.476528e+002, 1.915569e+003
6.481349e+002, 1.916332e+003
6.486170e+002, 1.916288e+003
6.490991e+002, 1.914990e+003
6.495812e+002, 1.913180e+003
6.500634e+002, 1.912900e+003
6.505455e+002, 1.914017e+003
6.510276e+002, 1.914614e+003
6.515097e+002, 1.913103e+003
6.519918e+002, 1.910982e+003
6.524739e+002, 1.910692e+003
6.529561e+002, 1.911993e+003
6.534382e+002, 1.913579e+003
6.539203e+002, 1.915644e+003
6.544024e+002, 1.916990e+003
6.548845e+002, 1.916673e+003
6.553666e+002, 1.914509e+003
6.558488e+002, 1.911788e+003
6.563309e+002, 1.907249e+003
6.568130e+002, 1.903458e+003
6.572951e+002, 1.902180e+003
6.577772e+002, 1.904940e+003
6.582593e+002, 1.906072e+003
6.587415e+002, 1.905198e+003
6.592236e+002, 1.903317e+003
6.597057e+002, 1.901349e+003
6.601878e+002, 1.899313e+003
6.606699e+002, 1.897663e+003
6.611520e+002, 1.896584e+003
6.616342e+002, 1.895744e+003
6.621163e+002, 1.894944e+003
6.625984e+002, 1.894021e+003
6.630805e+002, 1.892539e+003
6.635626e+002, 1.890037e+003
6.640447e+002, 1.887184e+003
6.645269e+002, 1.884648e+003
6.650090e+002, 1.882164e+003
6.654911e+002, 1.878894e+003
6.659732e+002, 1.872829e+003
6.664553e+002, 1.867676e+003
6.669374e+002, 1.865417e+003
6.674196e+002, 1.865797e+003
6.679017e+002, 1.865068e+003
6.683838e+002, 1.862846e+003
6.688659e+002, 1.860308e+003
6.693480e+002, 1.858398e+003
6.698301e+002, 1.857091e+003
6.703123e+002, 1.853234e+003
6.707944e+002, 1.846481e+003
6.712765e+002, 1.839707e+003
6.717586e+002, 1.835483e+003
6.722407e+002, 1.833031e+003
6.727228e+002, 1.830887e+003
6.732050e+002, 1.828913e+003
6.736871e+002, 1.826529e+003
6.741692e+002, 1.823121e+003
6.746513e+002, 1.819047e+003
6.751334e+002, 1.814797e+003
6.756155e+002, 1.810795e+003
6.760977e+002, 1.806023e+003
6.765798e+002, 1.799520e+003
6.770619e+002, 1.792414e+003
6.775440e+002, 1.786488e+003
6.780261e+002, 1.782390e+003
6.785082e+002, 1.778332e+003
6.789904e+002, 1.774235e+003
6.794725e+002, 1.769890e+003
6.799546e+002, 1.764260e+003
6.804367e+002, 1.757440e+003
6.809188e+002, 1.751015e+003
6.814009e+002, 1.746262e+003
6.818831e+002, 1.742030e+003
6.823652e+002, 1.735768e+003
6.828473e+002, 1.727924e+003
6.833294e+002, 1.720990e+003
6.838115e+002, 1.718271e+003
6.842936e+002, 1.715516e+003
6.847758e+002, 1.708692e+003
6.852579e+002, 1.697654e+003
6.857400e+002, 1.688072e+003
6.862221e+002, 1.681586e+003
6.867042e+002, 1.676951e+003
6.871863e+002, 1.673776e+003
6.876685e+002, 1.672706e+003
6.881506e+002, 1.670239e+003
6.886327e+002, 1.666114e+003
6.891148e+002, 1.660992e+003
6.895969e+002, 1.655377e+003
6.900790e+002, 1.649209e+003
6.905612e+002, 1.642372e+003
6.910433e+002, 1.634711e+003
6.915254e+002, 1.627058e+003
6.920075e+002, 1.621156e+003
6.924896e+002, 1.615963e+003
6.929717e+002, 1.609476e+003
6.934539e+002, 1.600455e+003
6.939360e+002, 1.591424e+003
6.944181e+002, 1.583770e+003
6.949002e+002, 1.577145e+003
6.953823e+002, 1.570986e+003
6.958644e+002, 1.566574e+003
6.963466e+002, 1.560999e+003
6.968287e+002, 1.553270e+003
6.973108e+002, 1.544327e+003
6.977929e+002, 1.536914e+003
6.982750e+002, 1.531525e+003
6.987571e+002, 1.525959e+003
6.992393e+002, 1.519411e+003
6.997214e+002, 1.512257e+003
7.002035e+002, 1.505767e+003
7.006856e+002, 1.499854e+003
7.011677e+002, 1.493988e+003
7.016498e+002, 1.487476e+003
7.021320e+002, 1.481062e+003
7.026141e+002, 1.475634e+003
7.030962e+002, 1.471116e+003
7.035783e+002, 1.466949e+003
7.040604e+002, 1.463749e+003
7.045425e+002, 1.459984e+003
7.050247e+002, 1.454538e+003
7.055068e+002, 1.446857e+003
7.059889e+002, 1.439806e+003
7.064710e+002, 1.433197e+003
7.069531e+002, 1.427436e+003
7.074352e+002, 1.423243e+003
7.079174e+002, 1.420893e+003
7.083995e+002, 1.417022e+003
7.088816e+002, 1.411368e+003
7.093637e+002, 1.405252e+003
7.098458e+002, 1.399956e+003
7.103279e+002, 1.395313e+003
7.108101e+002, 1.390812e+003
7.112922e+002, 1.386469e+003
7.117743e+002, 1.382033e+003
7.122564e+002, 1.376890e+003
7.127385e+002, 1.371701e+003
7.132206e+002, 1.367270e+003
7.137028e+002, 1.364851e+003
7.141849e+002, 1.361837e+003
7.146670e+002, 1.356905e+003
7.151491e+002, 1.351506e+003
7.156312e+002, 1.347628e+003
7.161133e+002, 1.345834e+003
7.165955e+002, 1.344098e+003
7.170776e+002, 1.342184e+003
7.175597e+002, 1.340017e+003
7.180418e+002, 1.337307e+003
7.185239e+002, 1.334097e+003
7.190060e+002, 1.331174e+003
7.194882e+002, 1.329118e+003
7.199703e+002, 1.327169e+003
7.204524e+002, 1.323870e+003
7.209345e+002, 1.319811e+003
7.214166e+002, 1.316666e+003
7.218987e+002, 1.316279e+003
7.223809e+002, 1.315990e+003
7.228630e+002, 1.314394e+003
7.233451e+002, 1.311641e+003
7.238272e+002, 1.309386e+003
7.243093e+002, 1.308383e+003
7.247914e+002, 1.306879e+003
7.252736e+002, 1.303811e+003
7.257557e+002, 1.299456e+003
7.262378e+002, 1.297520e+003
7.267199e+002, 1.298262e+003
7.272020e+002, 1.299195e+003
7.276841e+002, 1.298511e+003
7.281663e+002, 1.296881e+003
7.286484e+002, 1.295858e+003
7.291305e+002, 1.295475e+003
7.296126e+002, 1.294945e+003
7.300947e+002, 1.293274e+003
7.305768e+002, 1.291534e+003
7.310590e+002, 1.290636e+003
7.315411e+002, 1.290821e+003
7.320232e+002, 1.291113e+003
7.325053e+002, 1.291638e+003
7.329874e+002, 1.291934e+003
7.334695e+002, 1.291560e+003
7.339517e+002, 1.290035e+003
7.344338e+002, 1.289594e+003
7.349159e+002, 1.290480e+003
7.353980e+002, 1.291707e+003
7.358801e+002, 1.292356e+003
7.363622e+002, 1.292468e+003
7.368444e+002, 1.291933e+003
7.373265e+002, 1.290517e+003
7.378086e+002, 1.289673e+003
7.382907e+002, 1.291415e+003
7.387728e+002, 1.294341e+003
7.392549e+002, 1.296641e+003
7.397371e+002, 1.297839e+003
7.402192e+002, 1.298401e+003
7.407013e+002, 1.297610e+003
7.411834e+002, 1.296623e+003
7.416655e+002, 1.297015e+003
7.421476e+002, 1.299433e+003
7.426298e+002, 1.301599e+003
7.431119e+002, 1.303045e+003
7.435940e+002, 1.304338e+003
7.440761e+002, 1.306687e+003
7.445582e+002, 1.309942e+003
7.450403e+002, 1.312977e+003
7.455225e+002, 1.315432e+003
7.460046e+002, 1.317513e+003
7.464867e+002, 1.319196e+003
7.469688e+002, 1.320716e+003
7.474509e+002, 1.322582e+003
7.479330e+002, 1.325557e+003
7.484152e+002, 1.328333e+003
7.488973e+002, 1.329898e+003
7.493794e+002, 1.330874e+003
7.498615e+002, 1.333248e+003
7.503436e+002, 1.338025e+003
7.508257e+002, 1.342577e+003
7.513079e+002, 1.346312e+003
7.517900e+002, 1.349355e+003
7.522721e+002, 1.351712e+003
7.527542e+002, 1.353406e+003
7.532363e+002, 1.355530e+003
7.537184e+002, 1.358609e+003
7.542006e+002, 1.362441e+003
7.546827e+002, 1.367207e+003
7.551648e+002, 1.372618e+003
7.556469e+002, 1.377264e+003
7.561290e+002, 1.379350e+003
7.566111e+002, 1.381502e+003
7.570933e+002, 1.385159e+003
7.575754e+002, 1.390279e+003
7.580575e+002, 1.395974e+003
7.585396e+002, 1.402927e+003
7.590217e+002, 1.409189e+003
7.595038e+002, 1.413798e+003
7.599860e+002, 1.416901e+003
7.604681e+002, 1.420657e+003
7.609502e+002, 1.425042e+003
7.614323e+002, 1.430091e+003
7.619144e+002, 1.436011e+003
7.623965e+002, 1.442536e+003
7.628787e+002, 1.449488e+003
7.633608e+002, 1.456741e+003
7.638429e+002, 1.463442e+003
7.643250e+002, 1.468444e+003
7.648071e+002, 1.473138e+003
7.652892e+002, 1.478246e+003
7.657714e+002, 1.483868e+003
7.662535e+002, 1.490354e+003
7.667356e+002, 1.498250e+003
7.672177e+002, 1.506290e+003
7.676998e+002, 1.513693e+003
7.681819e+002, 1.520469e+003
7.686641e+002, 1.527657e+003
7.691462e+002, 1.535220e+003
7.696283e+002, 1.543049e+003
7.701104e+002, 1.551259e+003
7.705925e+002, 1.559581e+003
7.710746e+002, 1.567455e+003
7.715568e+002, 1.574814e+003
7.720389e+002, 1.582029e+003
7.725210e+002, 1.588765e+003
7.730031e+002, 1.595799e+003
7.734852e+002, 1.603912e+003
7.739673e+002, 1.613592e+003
7.744495e+002, 1.623047e+003
7.749316e+002, 1.632202e+003
7.754137e+002, 1.641072e+003
7.758958e+002, 1.649600e+003
7.763779e+002, 1.657783e+003
7.768600e+002, 1.665949e+003
7.773422e+002, 1.674117e+003
7.778243e+002, 1.682520e+003
7.783064e+002, 1.691708e+003
7.787885e+002, 1.701241e+003
7.792706e+002, 1.710181e+003
7.797527e+002, 1.718193e+003
7.802349e+002, 1.726449e+003
7.807170e+002, 1.735883e+003
7.811991e+002, 1.745654e+003
7.816812e+002, 1.755058e+003
7.821633e+002, 1.764016e+003
7.826454e+002, 1.772280e+003
7.831276e+002, 1.779261e+003
7.836097e+002, 1.786301e+003
7.840918e+002, 1.794831e+003
7.845739e+002, 1.804841e+003
7.850560e+002, 1.814674e+003
7.855381e+002, 1.824104e+003
7.860203e+002, 1.833193e+003
7.865024e+002, 1.841157e+003
7.869845e+002, 1.848989e+003
7.874666e+002, 1.858893e+003
7.879487e+002, 1.872196e+003
7.884308e+002, 1.884967e+003
7.889130e+002, 1.894854e+003
7.893951e+002, 1.903657e+003
7.898772e+002, 1.913454e+003
7.903593e+002, 1.925850e+003
7.908414e+002, 1.936231e+003
7.913235e+002, 1.943423e+003
7.918057e+002, 1.950047e+003
7.922878e+002, 1.959574e+003
7.927699e+002, 1.971821e+003
7.932520e+002, 1.982052e+003
7.937341e+002, 1.989500e+003
7.942162e+002, 1.995581e+003
7.946984e+002, 2.001577e+003
7.951805e+002, 2.007444e+003
7.956626e+002, 2.013012e+003
7.961447e+002, 2.018163e+003
7.966268e+002, 2.023452e+003
7.971089e+002, 2.029437e+003
7.975911e+002, 2.035564e+003
7.980732e+002, 2.041283e+003
7.985553e+002, 2.046841e+003
7.990374e+002, 2.051539e+003
7.995195e+002, 2.055199e+003
8.000016e+002, 2.058331e+003
8.004838e+002, 2.061613e+003
8.009659e+002, 2.065031e+003
8.014480e+002, 2.068600e+003
8.019301e+002, 2.072425e+003
8.024122e+002, 2.075982e+003
8.028943e+002, 2.078594e+003
8.033765e+002, 2.080649e+003
8.038586e+002, 2.082631e+003
8.043407e+002, 2.084284e+003
8.048228e+002, 2.086526e+003
8.053049e+002, 2.090432e+003
8.057870e+002, 2.094479e+003
8.062692e+002, 2.097020e+003
8.067513e+002, 2.097535e+003
8.072334e+002, 2.098733e+003
8.077155e+002, 2.101199e+003
8.081976e+002, 2.103261e+003
8.086797e+002, 2.102534e+003
8.091619e+002, 2.099608e+003
8.096440e+002, 2.096000e+003
8.101261e+002, 2.091728e+003
8.106082e+002, 2.087966e+003
8.110903e+002, 2.086521e+003
8.115724e+002, 2.085665e+003
8.120546e+002, 2.083460e+003
8.125367e+002, 2.077995e+003
8.130188e+002, 2.073853e+003
8.135009e+002, 2.072108e+003
8.139830e+002, 2.070942e+003
8.144651e+002, 2.068504e+003
8.149473e+002, 2.064762e+003
8.154294e+002, 2.060245e+003
8.159115e+002, 2.054868e+003
8.163936e+002, 2.049399e+003
8.168757e+002, 2.044842e+003
8.173578e+002, 2.040793e+003
8.178400e+002, 2.036270e+003
8.183221e+002, 2.030672e+003
8.188042e+002, 2.025865e+003
8.192863e+002, 2.023636e+003
8.197684e+002, 2.022049e+003
8.202505e+002, 2.019196e+003
8.207327e+002, 2.014464e+003
8.212148e+002, 2.009645e+003
8.216969e+002, 2.004735e+003
8.221790e+002, 1.999591e+003
8.226611e+002, 1.994441e+003
8.231432e+002, 1.989057e+003
8.236254e+002, 1.982180e+003
8.241075e+002, 1.973457e+003
8.245896e+002, 1.964802e+003
8.250717e+002, 1.958109e+003
8.255538e+002, 1.952473e+003
8.260359e+002, 1.947367e+003
8.265181e+002, 1.943423e+003
8.270002e+002, 1.937507e+003
8.274823e+002, 1.927060e+003
8.279644e+002, 1.915916e+003
8.284465e+002, 1.906298e+003
8.289286e+002, 1.898397e+003
8.294108e+002, 1.892086e+003
8.298929e+002, 1.887824e+003
8.303750e+002, 1.883448e+003
8.308571e+002, 1.876970e+003
8.313392e+002, 1.868933e+003
8.318214e+002, 1.859874e+003
8.323035e+002, 1.849871e+003
8.327856e+002, 1.840640e+003
8.332677e+002, 1.833372e+003
8.337498e+002, 1.827291e+003
8.342319e+002, 1.822173e+003
8.347141e+002, 1.818549e+003
8.351962e+002, 1.813144e+003
8.356783e+002, 1.805347e+003
8.361604e+002, 1.796727e+003
8.366425e+002, 1.787940e+003
8.371246e+002, 1.779063e+003
8.376068e+002, 1.771641e+003
8.380889e+002, 1.765680e+003
8.385710e+002, 1.760433e+003
8.390531e+002, 1.756641e+003
8.395352e+002, 1.752454e+003
8.400173e+002, 1.745352e+003
8.404995e+002, 1.735191e+003
8.409816e+002, 1.725521e+003
8.414637e+002, 1.717959e+003
8.419458e+002, 1.710731e+003
8.424279e+002, 1.702950e+003
8.429100e+002, 1.694624e+003
8.433922e+002, 1.686566e+003
8.438743e+002, 1.678735e+003
8.443564e+002, 1.671303e+003
8.448385e+002, 1.664829e+003
8.453206e+002, 1.658653e+003
8.458027e+002, 1.651650e+003
8.462849e+002, 1.643728e+003
8.467670e+002, 1.634532e+003
8.472491e+002, 1.621637e+003
8.477312e+002, 1.609481e+003
8.482133e+002, 1.601602e+003
8.486954e+002, 1.597447e+003
8.491776e+002, 1.590841e+003
8.496597e+002, 1.580271e+003
8.501418e+002, 1.569984e+003
8.506239e+002, 1.561519e+003
8.511060e+002, 1.554420e+003
8.515881e+002, 1.547727e+003
8.520703e+002, 1.541298e+003
8.525524e+002, 1.533806e+003
8.530345e+002, 1.523449e+003
8.535166e+002, 1.512890e+003
8.539987e+002, 1.504839e+003
8.544808e+002, 1.498429e+003
8.549630e+002, 1.491455e+003
8.554451e+002, 1.481930e+003
8.559272e+002, 1.473550e+003
8.564093e+002, 1.467732e+003
8.568914e+002, 1.463161e+003
8.573735e+002, 1.456484e+003
8.578557e+002, 1.447511e+003
8.583378e+002, 1.438105e+003
8.588199e+002, 1.428365e+003
8.593020e+002, 1.419055e+003
8.597841e+002, 1.412223e+003
8.602662e+002, 1.406631e+003
8.607484e+002, 1.399793e+003
8.612305e+002, 1.389760e+003
8.617126e+002, 1.380028e+003
8.621947e+002, 1.372443e+003
8.626768e+002, 1.365768e+003
8.631589e+002, 1.358331e+003
8.636411e+002, 1.349728e+003
8.641232e+002, 1.341325e+003
8.646053e+002, 1.333221e+003
8.650874e+002, 1.325417e+003
8.655695e+002, 1.318302e+003
8.660516e+002, 1.311434e+003
8.665338e+002, 1.303004e+003
8.670159e+002, 1.292185e+003
8.674980e+002, 1.281941e+003
8.679801e+002, 1.274346e+003
8.684622e+002, 1.268252e+003
8.689443e+002, 1.262547e+003
8.694265e+002, 1.257444e+003
8.699086e+002, 1.251710e+003
8.703907e+002, 1.245390e+003
8.708728e+002, 1.238402e+003
8.713549e+002, 1.230545e+003
8.718370e+002, 1.221872e+003
8.723192e+002, 1.213277e+003
8.728013e+002, 1.204668e+003
8.732834e+002, 1.196801e+003
8.737655e+002, 1.190689e+003
8.742476e+002, 1.185328e+003
8.747297e+002, 1.179953e+003
8.752119e+002, 1.174445e+003
8.756940e+002, 1.168254e+003
8.761761e+002, 1.160692e+003
8.766582e+002, 1.153020e+003
8.771403e+002, 1.145566e+003
8.776224e+002, 1.138372e+003
8.781046e+002, 1.132372e+003
8.785867e+002, 1.127675e+003
8.790688e+002, 1.122408e+003
8.795509e+002, 1.115000e+003
8.800330e+002, 1.106770e+003
8.805151e+002, 1.099706e+003
8.809973e+002, 1.093547e+003
8.814794e+002, 1.087227e+003
8.819615e+002, 1.079729e+003
8.824436e+002, 1.072639e+003
8.829257e+002, 1.066813e+003
8.834078e+002, 1.061855e+003
8.838900e+002, 1.056297e+003
8.843721e+002, 1.050001e+003
8.848542e+002, 1.043824e+003
8.853363e+002, 1.038043e+003
8.858184e+002, 1.032441e+003
8.863005e+002, 1.026432e+003
8.867827e+002, 1.020271e+003
8.872648e+002, 1.014744e+003
8.877469e+002, 1.010553e+003
8.882290e+002, 1.006406e+003
8.887111e+002, 1.001938e+003
8.891932e+002, 9.970882e+002
8.896754e+002, 9.917479e+002
8.901575e+002, 9.858571e+002
8.906396e+002, 9.797281e+002
8.911217e+002, 9.733217e+002
8.916038e+002, 9.669574e+002
8.920859e+002, 9.608331e+002
8.925681e+002, 9.550310e+002
8.930502e+002, 9.500129e+002
8.935323e+002, 9.460568e+002
8.940144e+002, 9.416880e+002
8.944965e+002, 9.352546e+002
8.949786e+002, 9.284582e+002
8.954608e+002, 9.227386e+002
8.959429e+002, 9.186164e+002
8.964250e+002, 9.144725e+002
8.969071e+002, 9.105487e+002
8.973892e+002, 9.061668e+002
8.978713e+002, 9.006303e+002
8.983535e+002, 8.941634e+002
8.988356e+002, 8.883405e+002
8.993177e+002, 8.831553e+002
8.997998e+002, 8.783716e+002
9.002819e+002, 8.744984e+002
9.007640e+002, 8.703694e+002
9.012462e+002, 8.646401e+002
9.017283e+002, 8.575389e+002
9.022104e+002, 8.512551e+002
9.026925e+002, 8.464525e+002
9.031746e+002, 8.419138e+002
9.036567e+002, 8.372137e+002
9.041389e+002, 8.325515e+002
9.046210e+002, 8.288180e+002
9.051031e+002, 8.258310e+002
9.055852e+002, 8.217605e+002
9.060673e+002, 8.150897e+002
9.065494e+002, 8.080916e+002
9.070316e+002, 8.030629e+002
9.075137e+002, 7.991284e+002
9.079958e+002, 7.946733e+002
9.084779e+002, 7.889723e+002
9.089600e+002, 7.831760e+002
9.094421e+002, 7.772741e+002
9.099243e+002, 7.714678e+002
9.104064e+002, 7.656882e+002
9.108885e+002, 7.600047e+002
9.113706e+002, 7.554517e+002
9.118527e+002, 7.523703e+002
9.123348e+002, 7.492305e+002
9.128170e+002, 7.442592e+002
9.132991e+002, 7.385757e+002
9.137812e+002, 7.335726e+002
9.142633e+002, 7.298076e+002
9.147454e+002, 7.252933e+002
9.152275e+002, 7.190074e+002
9.157097e+002, 7.127787e+002
9.161918e+002, 7.077579e+002
9.166739e+002, 7.039227e+002
9.171560e+002, 6.998038e+002
9.176381e+002, 6.954318e+002
9.181202e+002, 6.908859e+002
9.186024e+002, 6.863107e+002
9.190845e+002, 6.815367e+002
9.195666e+002, 6.762540e+002
9.200487e+002, 6.705770e+002
9.205308e+002, 6.649344e+002
9.210129e+002, 6.592881e+002
9.214951e+002, 6.538796e+002
9.219772e+002, 6.487113e+002
9.224593e+002, 6.437944e+002
9.229414e+002, 6.392501e+002
9.234235e+002, 6.351004e+002
9.239056e+002, 6.308360e+002
9.243878e+002, 6.262245e+002
9.248699e+002, 6.215479e+002
9.253520e+002, 6.171260e+002
9.258341e+002, 6.128105e+002
9.263162e+002, 6.082898e+002
9.267983e+002, 6.032678e+002
9.272805e+002, 5.983671e+002
9.277626e+002, 5.936985e+002
9.282447e+002, 5.890858e+002
9.287268e+002, 5.843839e+002
9.292089e+002, 5.796202e+002
9.296910e+002, 5.749043e+002
9.301732e+002, 5.703022e+002
9.306553e+002, 5.656551e+002
9.311374e+002, 5.607249e+002
9.316195e+002, 5.557567e+002
9.321016e+002, 5.508478e+002
9.325837e+002, 5.460836e+002
9.330659e+002, 5.416894e+002
9.335480e+002, 5.382469e+002
9.340301e+002, 5.345865e+002
9.345122e+002, 5.302271e+002
9.349943e+002, 5.252363e+002
9.354764e+002, 5.202562e+002
9.359586e+002, 5.152332e+002
9.364407e+002, 5.107220e+002
9.369228e+002, 5.074173e+002
9.374049e+002, 5.042148e+002
9.378870e+002, 4.998531e+002
9.383691e+002, 4.946843e+002
9.388513e+002, 4.896368e+002
9.393334e+002, 4.849349e+002
9.398155e+002, 4.803320e+002
9.402976e+002, 4.758293e+002
9.407797e+002, 4.714519e+002
9.412618e+002, 4.674717e+002
9.417440e+002, 4.638458e+002
9.422261e+002, 4.598336e+002
9.427082e+002, 4.552086e+002
9.431903e+002, 4.505611e+002
9.436724e+002, 4.462883e+002
9.441545e+002, 4.424356e+002
9.446367e+002, 4.391166e+002
9.451188e+002, 4.365504e+002
9.456009e+002, 4.337381e+002
9.460830e+002, 4.304879e+002
9.465651e+002, 4.271288e+002
9.470472e+002, 4.238109e+002
9.475294e+002, 4.205031e+002
9.480115e+002, 4.174380e+002
9.484936e+002, 4.145730e+002
9.489757e+002, 4.115852e+002
9.494578e+002, 4.082608e+002
9.499399e+002, 4.047524e+002
9.504221e+002, 4.010165e+002
9.509042e+002, 3.971684e+002
9.513863e+002, 3.937233e+002
9.518684e+002, 3.909096e+002
9.523505e+002, 3.881293e+002
9.528326e+002, 3.852999e+002
9.533148e+002, 3.824500e+002
9.537969e+002, 3.796385e+002
9.542790e+002, 3.768542e+002
9.547611e+002, 3.739884e+002
9.552432e+002, 3.709939e+002
9.557253e+002, 3.680924e+002
9.562075e+002, 3.654927e+002
9.566896e+002, 3.630401e+002
9.571717e+002, 3.605005e+002
9.576538e+002, 3.576534e+002
9.581359e+002, 3.553972e+002
9.586180e+002, 3.539283e+002
9.591002e+002, 3.525068e+002
9.595823e+002, 3.504152e+002
9.600644e+002, 3.479491e+002
9.605465e+002, 3.461329e+002
9.610286e+002, 3.448979e+002
9.615107e+002, 3.436551e+002
9.619929e+002, 3.421561e+002
9.624750e+002, 3.404580e+002
9.629571e+002, 3.384663e+002
9.634392e+002, 3.362888e+002
9.639213e+002, 3.342365e+002
9.644034e+002, 3.323490e+002
9.648856e+002, 3.304803e+002
9.653677e+002, 3.285246e+002
9.658498e+002, 3.267163e+002
9.663319e+002, 3.256318e+002
9.668140e+002, 3.249247e+002
9.672961e+002, 3.238799e+002
9.677783e+002, 3.221889e+002
9.682604e+002, 3.204422e+002
9.687425e+002, 3.188333e+002
9.692246e+002, 3.172657e+002
9.697067e+002, 3.155883e+002
9.701888e+002, 3.137647e+002
9.706710e+002, 3.123315e+002
9.711531e+002, 3.113291e+002
9.716352e+002, 3.104203e+002
9.721173e+002, 3.094705e+002
9.725994e+002, 3.084011e+002
9.730815e+002, 3.069494e+002
9.735637e+002, 3.052121e+002
9.740458e+002, 3.037355e+002
9.745279e+002, 3.029469e+002
9.750100e+002, 3.021591e+002
9.754921e+002, 3.012537e+002
9.759742e+002, 3.002013e+002
9.764564e+002, 2.988506e+002
9.769385e+002, 2.972150e+002
9.774206e+002, 2.956716e+002
9.779027e+002, 2.943176e+002
9.783848e+002, 2.931569e+002
9.788669e+002, 2.923500e+002
9.793491e+002, 2.916617e+002
9.798312e+002, 2.907938e+002
9.803133e+002, 2.896038e+002
9.807954e+002, 2.884513e+002
9.812775e+002, 2.872488e+002
9.817596e+002, 2.862360e+002
9.822418e+002, 2.856566e+002
9.827239e+002, 2.854131e+002
9.832060e+002, 2.851171e+002
9.836881e+002, 2.847280e+002
9.841702e+002, 2.839621e+002
9.846523e+002, 2.820734e+002
9.851345e+002, 2.803001e+002
9.856166e+002, 2.794964e+002
9.860987e+002, 2.794337e+002
9.865808e+002, 2.791687e+002
9.870629e+002, 2.786973e+002
9.875450e+002, 2.779855e+002
9.880272e+002, 2.769532e+002
9.885093e+002, 2.758580e+002
9.889914e+002, 2.751211e+002
9.894735e+002, 2.746210e+002
9.899556e+002, 2.741322e+002
9.904377e+002, 2.736240e+002
9.909199e+002, 2.730602e+002
9.914020e+002, 2.725915e+002
9.918841e+002, 2.719043e+002
9.923662e+002, 2.706203e+002
9.928483e+002, 2.687178e+002
9.933304e+002, 2.678522e+002
9.938126e+002, 2.680807e+002
9.942947e+002, 2.683406e+002
9.947768e+002, 2.679169e+002
9.952589e+002, 2.671917e+002
9.957410e+002, 2.666681e+002
9.962231e+002, 2.662244e+002
9.967053e+002, 2.654892e+002
9.971874e+002, 2.637597e+002
9.976695e+002, 2.625851e+002
9.981516e+002, 2.623784e+002
9.986337e+002, 2.625679e+002
9.991158e+002, 2.622198e+002
9.995980e+002, 2.614277e+002
1.000080e+003, 2.609225e+002
1.000562e+003, 2.608333e+002
1.001044e+003, 2.607784e+002
1.001526e+003, 2.605469e+002
1.002009e+003, 2.601637e+002
1.002491e+003, 2.596234e+002
1.002973e+003, 2.589079e+002
1.003455e+003, 2.582522e+002
1.003937e+003, 2.577538e+002
1.004419e+003, 2.569872e+002
1.004901e+003, 2.554923e+002
1.005383e+003, 2.538285e+002
1.005865e+003, 2.532349e+002
1.006348e+003, 2.534841e+002
1.006830e+003, 2.539108e+002
1.007312e+003, 2.547155e+002
1.007794e+003, 2.550502e+002
1.008276e+003, 2.543259e+002
1.008758e+003, 2.532000e+002
1.009240e+003, 2.522824e+002
1.009722e+003, 2.515710e+002
1.010205e+003, 2.511818e+002
1.010687e+003, 2.511450e+002
1.011169e+003, 2.511627e+002
1.011651e+003, 2.510781e+002
1.012133e+003, 2.508322e+002
1.012615e+003, 2.502823e+002
1.013097e+003, 2.494441e+002
1.013579e+003, 2.486975e+002
1.014061e+003, 2.480124e+002
1.014544e+003, 2.476072e+002
1.015026e+003, 2.477095e+002
1.015508e+003, 2.479859e+002
1.015990e+003, 2.474111e+002
1.016472e+003, 2.462381e+002
1.016954e+003, 2.455215e+002
1.017436e+003, 2.456717e+002
1.017918e+003, 2.461095e+002
1.018401e+003, 2.469641e+002
1.018883e+003, 2.476061e+002
1.019365e+003, 2.473438e+002
1.019847e+003, 2.459572e+002
1.020329e+003, 2.447287e+002
1.020811e+003, 2.436428e+002
1.021293e+003, 2.428095e+002
1.021775e+003, 2.424816e+002
1.022257e+003, 2.423610e+002
1.022740e+003, 2.418446e+002
1.023222e+003, 2.410828e+002
1.023704e+003, 2.406716e+002
1.024186e+003, 2.412710e+002
1.024668e+003, 2.416635e+002
1.025150e+003, 2.415554e+002
1.025632e+003, 2.411530e+002
1.026114e+003, 2.408223e+002
1.026596e+003, 2.405364e+002
1.027079e+003, 2.399231e+002
1.027561e+003, 2.388680e+002
1.028043e+003, 2.379438e+002
1.028525e+003, 2.376598e+002
1.029007e+003, 2.376782e+002
1.029489e+003, 2.378459e+002
1.029971e+003, 2.381660e+002
1.030453e+003, 2.378981e+002
1.030936e+003, 2.367831e+002
1.031418e+003, 2.359827e+002
1.031900e+003, 2.361968e+002
1.032382e+003, 2.367895e+002
1.032864e+003, 2.364581e+002
1.033346e+003, 2.354972e+002
1.033828e+003, 2.345911e+002
1.034310e+003, 2.336608e+002
1.034792e+003, 2.333339e+002
1.035275e+003, 2.343722e+002
1.035757e+003, 2.355330e+002
1.036239e+003, 2.357391e+002
1.036721e+003, 2.349914e+002
1.037203e+003, 2.338340e+002
1.037685e+003, 2.323077e+002
1.038167e+003, 2.310211e+002
1.038649e+003, 2.304830e+002
1.039132e+003, 2.303288e+002
1.039614e+003, 2.303807e+002
1.040096e+003, 2.305779e+002
1.040578e+003, 2.307079e+002
1.041060e+003, 2.308574e+002
1.041542e+003, 2.306255e+002
1.042024e+003, 2.297862e+002
1.042506e+003, 2.288616e+002
1.042989e+003, 2.286262e+002
1.043471e+003, 2.288896e+002
1.043953e+003, 2.293297e+002
1.044435e+003, 2.299505e+002
1.044917e+003, 2.303459e+002
1.045399e+003, 2.303980e+002
1.045881e+003, 2.301225e+002
1.046363e+003, 2.294615e+002
1.046845e+003, 2.284690e+002
1.047328e+003, 2.274388e+002
1.047810e+003, 2.263906e+002
1.048292e+003, 2.258426e+002
1.048774e+003, 2.264761e+002
1.049256e+003, 2.270806e+002
1.049738e+003, 2.262166e+002
1.050220e+003, 2.248421e+002
1.050702e+003, 2.245734e+002
1.051184e+003, 2.261383e+002
1.051667e+003, 2.272784e+002
1.052149e+003, 2.278521e+002
1.052631e+003, 2.283148e+002
1.053113e+003, 2.296492e+002
1.053595e+003, 2.309363e+002
1.054077e+003, 2.299093e+002
1.054559e+003, 2.268562e+002
1.055041e+003, 2.242684e+002
1.055523e+003, 2.233568e+002
1.056006e+003, 2.228573e+002
1.056488e+003, 2.224778e+002
1.056970e+003, 2.221976e+002
1.057452e+003, 2.220176e+002
1.057934e+003, 2.219205e+002
1.058416e+003, 2.216887e+002
1.058898e+003, 2.212473e+002
1.059380e+003, 2.208965e+002
1.059863e+003, 2.210386e+002
1.060345e+003, 2.212642e+002
1.060827e+003, 2.212557e+002
1.061309e+003, 2.209938e+002
1.061791e+003, 2.203982e+002
1.062273e+003, 2.193035e+002
1.062755e+003, 2.186901e+002
1.063237e+003, 2.192525e+002
1.063719e+003, 2.201790e+002
1.064202e+003, 2.202178e+002
1.064684e+003, 2.196811e+002
1.065166e+003, 2.191620e+002
1.065648e+003, 2.188771e+002
1.066130e+003, 2.185518e+002
1.066612e+003, 2.181192e+002
1.067094e+003, 2.176951e+002
1.067576e+003, 2.173895e+002
1.068059e+003, 2.171771e+002
1.068541e+003, 2.168627e+002
1.069023e+003, 2.164768e+002
1.069505e+003, 2.162946e+002
1.069987e+003, 2.169487e+002
1.070469e+003, 2.173544e+002
1.070951e+003, 2.164765e+002
1.071433e+003, 2.151168e+002
1.071916e+003, 2.149193e+002
1.072398e+003, 2.160736e+002
1.072880e+003, 2.166349e+002
1.073362e+003, 2.162661e+002
1.073844e+003, 2.157689e+002
1.074326e+003, 2.163517e+002
1.074808e+003, 2.169723e+002
1.075290e+003, 2.161253e+002
1.075772e+003, 2.136982e+002
1.076255e+003, 2.127344e+002
1.076737e+003, 2.142571e+002
1.077219e+003, 2.151970e+002
1.077701e+003, 2.142996e+002
1.078183e+003, 2.126483e+002
1.078665e+003, 2.124079e+002
1.079147e+003, 2.130905e+002
1.079629e+003, 2.135648e+002
1.080111e+003, 2.134681e+002
1.080594e+003, 2.133335e+002
1.081076e+003, 2.133752e+002
1.081558e+003, 2.133948e+002
1.082040e+003, 2.132609e+002
1.082522e+003, 2.129903e+002
1.083004e+003, 2.128223e+002
1.083486e+003, 2.127322e+002
1.083968e+003, 2.125065e+002
1.084450e+003, 2.117617e+002
1.084933e+003, 2.111347e+002
1.085415e+003, 2.112847e+002
1.085897e+003, 2.117093e+002
1.086379e+003, 2.115570e+002
1.086861e+003, 2.105957e+002
1.087343e+003, 2.099490e+002
1.087825e+003, 2.096836e+002
1.088307e+003, 2.096301e+002
1.088790e+003, 2.098227e+002
1.089272e+003, 2.100230e+002
1.089754e+003, 2.097958e+002
1.090236e+003, 2.092557e+002
1.090718e+003, 2.091254e+002
1.091200e+003, 2.099975e+002
1.091682e+003, 2.104172e+002
1.092164e+003, 2.100344e+002
1.092646e+003, 2.092889e+002
1.093129e+003, 2.088051e+002
1.093611e+003, 2.085012e+002
1.094093e+003, 2.081709e+002
1.094575e+003, 2.077811e+002
1.095057e+003, 2.073782e+002
1.095539e+003, 2.068536e+002
1.096021e+003, 2.064813e+002
1.096503e+003, 2.064575e+002
1.096986e+003, 2.066458e+002
1.097468e+003, 2.064178e+002
1.097950e+003, 2.058468e+002
1.098432e+003, 2.056073e+002
1.098914e+003, 2.060647e+002
1.099396e+003, 2.064949e+002
1.099878e+003, 2.062868e+002
1.100360e+003, 2.058513e+002
1.100843e+003, 2.056371e+002
1.101325e+003, 2.057095e+002
1.101807e+003, 2.053796e+002
1.102289e+003, 2.045965e+002
1.102771e+003, 2.039498e+002
1.103253e+003, 2.039621e+002
1.103735e+003, 2.041058e+002
1.104217e+003, 2.035956e+002
1.104699e+003, 2.027999e+002
1.105182e+003, 2.024332e+002
1.105664e+003, 2.031646e+002
1.106146e+003, 2.032701e+002
1.106628e+003, 2.024967e+002
1.107110e+003, 2.016620e+002
1.107592e+003, 2.015861e+002
1.108074e+003, 2.019364e+002
1.108556e+003, 2.020723e+002
1.109038e+003, 2.019811e+002
1.109521e+003, 2.017576e+002
1.110003e+003, 2.012833e+002
1.110485e+003, 2.008800e+002
1.110967e+003, 2.006219e+002
1.111449e+003, 2.004473e+002
1.111931e+003, 2.002250e+002
1.112413e+003, 1.999966e+002
1.112895e+003, 2.000343e+002
1.113377e+003, 2.003765e+002
1.113860e+003, 2.005583e+002
1.114342e+003, 1.998828e+002
1.114824e+003, 1.994086e+002
1.115306e+003, 1.999883e+002
1.115788e+003, 2.011667e+002
1.116270e+003, 2.013593e+002
1.116752e+003, 2.005858e+002
1.117234e+003, 1.998032e+002
1.117717e+003, 1.992219e+002
1.118199e+003, 1.988198e+002
1.118681e+003, 1.986608e+002
1.119163e+003, 1.986118e+002
1.119645e+003, 1.986018e+002
1.120127e+003, 1.986292e+002
1.120609e+003, 1.983436e+002
1.121091e+003, 1.976660e+002
1.121573e+003, 1.971692e+002
1.122056e+003, 1.971554e+002
1.122538e+003, 1.973422e+002
1.123020e+003, 1.975018e+002
1.123502e+003, 1.975620e+002
1.123984e+003, 1.973839e+002
1.124466e+003, 1.967178e+002
1.124948e+003, 1.963787e+002
1.125430e+003, 1.965062e+002
1.125913e+003, 1.966316e+002
1.126395e+003, 1.964140e+002
1.126877e+003, 1.959911e+002
1.127359e+003, 1.955451e+002
1.127841e+003, 1.951558e+002
1.128323e+003, 1.950495e+002
1.128805e+003, 1.957968e+002
1.129287e+003, 1.961146e+002
1.129770e+003, 1.956888e+002
1.130252e+003, 1.950409e+002
1.130734e+003, 1.946457e+002
1.131216e+003, 1.944584e+002
1.131698e+003, 1.943181e+002
1.132180e+003, 1.942081e+002
1.132662e+003, 1.940753e+002
1.133144e+003, 1.939472e+002
1.133626e+003, 1.937051e+002
1.134109e+003, 1.931692e+002
1.134591e+003, 1.925960e+002
1.135073e+003, 1.922927e+002
1.135555e+003, 1.922799e+002
1.136037e+003, 1.930710e+002
1.136519e+003, 1.947595e+002
1.137001e+003, 1.959033e+002
1.137483e+003, 1.949543e+002
1.137965e+003, 1.936230e+002
1.138448e+003, 1.929571e+002
1.138930e+003, 1.928004e+002
1.139412e+003, 1.926772e+002
1.139894e+003, 1.925942e+002
1.140376e+003, 1.924778e+002
1.140858e+003, 1.923343e+002
1.141340e+003, 1.920535e+002
1.141822e+003, 1.913164e+002
1.142304e+003, 1.905510e+002
1.142787e+003, 1.899926e+002
1.143269e+003, 1.896985e+002
1.143751e+003, 1.906216e+002
1.144233e+003, 1.931953e+002
1.144715e+003, 1.943942e+002
1.145197e+003, 1.927531e+002
1.145679e+003, 1.902730e+002
1.146161e+003, 1.892867e+002
1.146644e+003, 1.891733e+002
1.147126e+003, 1.891409e+002
1.147608e+003, 1.890458e+002
1.148090e+003, 1.891518e+002
1.148572e+003, 1.896116e+002
1.149054e+003, 1.897759e+002
1.149536e+003, 1.891347e+002
1.150018e+003, 1.882336e+002
1.150500e+003, 1.880229e+002
1.150983e+003, 1.882788e+002
1.151465e+003, 1.885545e+002
1.151947e+003, 1.887234e+002
1.152429e+003, 1.889678e+002
1.152911e+003, 1.894875e+002
1.153393e+003, 1.896975e+002
1.153875e+003, 1.888526e+002
1.154357e+003, 1.875229e+002
1.154840e+003, 1.875334e+002
1.155322e+003, 1.884356e+002
1.155804e+003, 1.888023e+002
1.156286e+003, 1.872425e+002
1.156768e+003, 1.863183e+002
1.157250e+003, 1.866317e+002
1.157732e+003, 1.872811e+002
1.158214e+003, 1.875726e+002
1.158697e+003, 1.874893e+002
1.159179e+003, 1.867240e+002
1.159661e+003, 1.854224e+002
1.160143e+003, 1.844561e+002
1.160625e+003, 1.844164e+002
1.161107e+003, 1.845937e+002
1.161589e+003, 1.847992e+002
1.162071e+003, 1.850672e+002
1.162553e+003, 1.855784e+002
1.163036e+003, 1.862410e+002
1.163518e+003, 1.863410e+002
1.164000e+003, 1.858575e+002
1.164482e+003, 1.853126e+002
1.164964e+003, 1.848227e+002
1.165446e+003, 1.845816e+002
1.165928e+003, 1.848464e+002
1.166410e+003, 1.853262e+002
1.166892e+003, 1.855283e+002
1.167375e+003, 1.854600e+002
1.167857e+003, 1.851088e+002
1.168339e+003, 1.844565e+002
1.168821e+003, 1.839219e+002
1.169303e+003, 1.839359e+002
1.169785e+003, 1.840436e+002
1.170267e+003, 1.839312e+002
1.170749e+003, 1.836758e+002
1.171231e+003, 1.834465e+002
1.171714e+003, 1.832418e+002
1.172196e+003, 1.834208e+002
1.172678e+003, 1.841399e+002
1.173160e+003, 1.846896e+002
1.173642e+003, 1.842672e+002
1.174124e+003, 1.835862e+002
1.174606e+003, 1.831389e+002
1.175088e+003, 1.829457e+002
1.175571e+003, 1.832352e+002
1.176053e+003, 1.840576e+002
1.176535e+003, 1.843710e+002
1.177017e+003, 1.837806e+002
1.177499e+003, 1.829563e+002
1.177981e+003, 1.823354e+002
1.178463e+003, 1.819450e+002
1.178945e+003, 1.818388e+002
1.179427e+003, 1.820091e+002
1.179910e+003, 1.824108e+002
1.180392e+003, 1.830922e+002
1.180874e+003, 1.835383e+002
1.181356e+003, 1.835470e+002
1.181838e+003, 1.832671e+002
1.182320e+003, 1.825889e+002
1.182802e+003, 1.818683e+002
1.183284e+003, 1.815869e+002
1.183767e+003, 1.818625e+002
1.184249e+003, 1.818929e+002
1.184731e+003, 1.816339e+002
1.185213e+003, 1.814400e+002
1.185695e+003, 1.815061e+002
1.186177e+003, 1.816797e+002
1.186659e+003, 1.819711e+002
1.187141e+003, 1.821760e+002
1.187624e+003, 1.819231e+002
1.188106e+003, 1.809693e+002
1.188588e+003, 1.803796e+002
1.189070e+003, 1.801960e+002
1.189552e+003, 1.801732e+002
1.190034e+003, 1.801649e+002
1.190516e+003, 1.802513e+002
1.190998e+003, 1.806784e+002
1.191480e+003, 1.812231e+002
1.191963e+003, 1.814901e+002
1.192445e+003, 1.812968e+002
1.192927e+003, 1.811530e+002
1.193409e+003, 1.810930e+002
1.193891e+003, 1.809078e+002
1.194373e+003, 1.801819e+002
1.194855e+003, 1.794458e+002
1.195337e+003, 1.795355e+002
1.195819e+003, 1.801318e+002
1.196302e+003, 1.805295e+002
1.196784e+003, 1.805186e+002
1.197266e+003, 1.805459e+002
1.197748e+003, 1.806426e+002
1.198230e+003, 1.806747e+002
1.198712e+003, 1.804424e+002
1.199194e+003, 1.801490e+002
1.199676e+003, 1.800963e+002
1.200158e+003, 1.802134e+002
1.200641e+003, 1.803118e+002
1.201123e+003, 1.804965e+002
1.201605e+003, 1.802828e+002
1.202087e+003, 1.795349e+002
1.202569e+003, 1.788436e+002
1.203051e+003, 1.787455e+002
1.203533e+003, 1.790276e+002
1.204015e+003, 1.796419e+002
1.204498e+003, 1.804021e+002
1.204980e+003, 1.806742e+002
1.205462e+003, 1.800822e+002
1.205944e+003, 1.797523e+002
1.206426e+003, 1.798315e+002
1.206908e+003, 1.799624e+002
1.207390e+003, 1.795976e+002
1.207872e+003, 1.792051e+002
1.208354e+003, 1.796606e+002
1.208837e+003, 1.807089e+002
1.209319e+003, 1.809808e+002
1.209801e+003, 1.799032e+002
1.210283e+003, 1.791958e+002
1.210765e+003, 1.790669e+002
1.211247e+003, 1.792995e+002
1.211729e+003, 1.799457e+002
1.212211e+003, 1.806249e+002
1.212694e+003, 1.807796e+002
1.213176e+003, 1.804729e+002
1.213658e+003, 1.802568e+002
1.214140e+003, 1.802990e+002
1.214622e+003, 1.801011e+002
1.215104e+003, 1.795710e+002
1.215586e+003, 1.788923e+002
1.216068e+003, 1.780264e+002
1.216551e+003, 1.772824e+002
1.217033e+003, 1.768702e+002
1.217515e+003, 1.768953e+002
1.217997e+003, 1.780704e+002
1.218479e+003, 1.812099e+002
1.218961e+003, 1.825053e+002
1.219443e+003, 1.810081e+002
1.219925e+003, 1.788550e+002
1.220407e+003, 1.783251e+002
1.220890e+003, 1.785483e+002
1.221372e+003, 1.786436e+002
1.221854e+003, 1.785377e+002
1.222336e+003, 1.783578e+002
1.222818e+003, 1.780604e+002
1.223300e+003, 1.778151e+002
1.223782e+003, 1.775749e+002
1.224264e+003, 1.777556e+002
1.224746e+003, 1.794126e+002
1.225229e+003, 1.812990e+002
1.225711e+003, 1.821499e+002
1.226193e+003, 1.818706e+002
1.226675e+003, 1.812081e+002
1.227157e+003, 1.801028e+002
1.227639e+003, 1.789054e+002
1.228121e+003, 1.776034e+002
1.228603e+003, 1.766570e+002
1.229085e+003, 1.769280e+002
1.229568e+003, 1.775163e+002
1.230050e+003, 1.774463e+002
1.230532e+003, 1.767732e+002
1.231014e+003, 1.767017e+002
1.231496e+003, 1.773438e+002
1.231978e+003, 1.774034e+002
1.232460e+003, 1.763694e+002
1.232942e+003, 1.757828e+002
1.233425e+003, 1.781447e+002
1.233907e+003, 1.808014e+002
1.234389e+003, 1.812201e+002
1.234871e+003, 1.796692e+002
1.235353e+003, 1.781056e+002
1.235835e+003, 1.765048e+002
1.236317e+003, 1.758934e+002
1.236799e+003, 1.767007e+002
1.237281e+003, 1.775713e+002
1.237764e+003, 1.772751e+002
1.238246e+003, 1.766468e+002
1.238728e+003, 1.763184e+002
1.239210e+003, 1.762462e+002
1.239692e+003, 1.761740e+002
1.240174e+003, 1.761095e+002
1.240656e+003, 1.763162e+002
1.241138e+003, 1.769336e+002
1.241621e+003, 1.773508e+002
1.242103e+003, 1.768385e+002
1.242585e+003, 1.762272e+002
1.243067e+003, 1.761206e+002
1.243549e+003, 1.763559e+002
1.244031e+003, 1.763094e+002
1.244513e+003, 1.760174e+002
1.244995e+003, 1.757811e+002
1.245478e+003, 1.756696e+002
1.245960e+003, 1.756060e+002
1.246442e+003, 1.754664e+002
1.246924e+003, 1.754665e+002
1.247406e+003, 1.758381e+002
1.247888e+003, 1.763475e+002
1.248370e+003, 1.760587e+002
1.248852e+003, 1.752226e+002
1.249334e+003, 1.750307e+002
1.249817e+003, 1.758902e+002
1.250299e+003, 1.764441e+002
1.250781e+003, 1.755863e+002
1.251263e+003, 1.748306e+002
1.251745e+003, 1.748457e+002
1.252227e+003, 1.753037e+002
1.252709e+003, 1.754283e+002
1.253191e+003, 1.753166e+002
1.253673e+003, 1.752400e+002
1.254156e+003, 1.752532e+002
1.254638e+003, 1.753120e+002
1.255120e+003, 1.755301e+002
1.255602e+003, 1.755702e+002
1.256084e+003, 1.752112e+002
1.256566e+003, 1.747612e+002
1.257048e+003, 1.749981e+002
1.257530e+003, 1.755634e+002
1.258012e+003, 1.757060e+002
1.258495e+003, 1.752649e+002
1.258977e+003, 1.746897e+002
1.259459e+003, 1.737586e+002
1.259941e+003, 1.734479e+002
1.260423e+003, 1.743036e+002
1.260905e+003, 1.754245e+002
1.261387e+003, 1.752322e+002
1.261869e+003, 1.744348e+002
1.262352e+003, 1.741355e+002
1.262834e+003, 1.745332e+002
1.263316e+003, 1.745623e+002
1.263798e+003, 1.740090e+002
1.264280e+003, 1.737219e+002
1.264762e+003, 1.740441e+002
1.265244e+003, 1.744383e+002
1.265726e+003, 1.741450e+002
1.266208e+003, 1.736331e+002
1.266691e+003, 1.734525e+002
1.267173e+003, 1.736485e+002
1.267655e+003, 1.737104e+002
1.268137e+003, 1.736104e+002
1.268619e+003, 1.736305e+002
1.269101e+003, 1.738812e+002
1.269583e+003, 1.741034e+002
1.270065e+003, 1.740053e+002
1.270548e+003, 1.738058e+002
1.271030e+003, 1.736935e+002
1.271512e+003, 1.736555e+002
1.271994e+003, 1.736069e+002
1.272476e+003, 1.735499e+002
1.272958e+003, 1.735520e+002
1.273440e+003, 1.736342e+002
1.273922e+003, 1.737398e+002
1.274405e+003, 1.739848e+002
1.274887e+003, 1.740715e+002
1.275369e+003, 1.737896e+002
1.275851e+003, 1.732571e+002
1.276333e+003, 1.726433e+002
1.276815e+003, 1.720390e+002
1.277297e+003, 1.720081e+002
1.277779e+003, 1.726948e+002
1.278261e+003, 1.733125e+002
1.278744e+003, 1.734131e+002
1.279226e+003, 1.733960e+002
1.279708e+003, 1.734061e+002
1.280190e+003, 1.733901e+002
1.280672e+003, 1.731994e+002
1.281154e+003, 1.729076e+002
1.281636e+003, 1.727423e+002
1.282118e+003, 1.727316e+002
1.282600e+003, 1.725919e+002
1.283083e+003, 1.720898e+002
1.283565e+003, 1.717046e+002
1.284047e+003, 1.715374e+002
1.284529e+003, 1.715499e+002
1.285011e+003, 1.715413e+002
1.285493e+003, 1.717552e+002
1.285975e+003, 1.730316e+002
1.286457e+003, 1.752557e+002
1.286939e+003, 1.757392e+002
1.287422e+003, 1.737778e+002
1.287904e+003, 1.719737e+002
1.288386e+003, 1.707636e+002
1.288868e+003, 1.701117e+002
1.289350e+003, 1.703082e+002
1.289832e+003, 1.707829e+002
1.290314e+003, 1.709911e+002
1.290796e+003, 1.709373e+002
1.291279e+003, 1.708929e+002
1.291761e+003, 1.708638e+002
1.292243e+003, 1.707073e+002
1.292725e+003, 1.703895e+002
1.293207e+003, 1.701318e+002
1.293689e+003, 1.701144e+002
1.294171e+003, 1.702108e+002
1.294653e+003, 1.704634e+002
1.295135e+003, 1.707055e+002
1.295618e+003, 1.706016e+002
1.296100e+003, 1.701917e+002
1.296582e+003, 1.698987e+002
1.297064e+003, 1.697682e+002
1.297546e+003, 1.695558e+002
1.298028e+003, 1.685190e+002
1.298510e+003, 1.681657e+002
1.298992e+003, 1.691786e+002
1.299475e+003, 1.706967e+002
1.299957e+003, 1.718542e+002
1.300439e+003, 1.725587e+002
1.300921e+003, 1.721821e+002
1.301403e+003, 1.709437e+002
1.301885e+003, 1.701649e+002
##END=



