##NAMES=Fluorcalciomicrolite
##RRUFFID=R070100
##IDEAL CHEMISTRY=(Ca,Na)_2_Ta^5+^_2_O_6_F
##LOCALITY=Urucum mine, near Galilea, Minas Gerais, Brazil
##OWNER=RRUFF
##SOURCE=Michael Scott
##DESCRIPTION=Yellow octahedra on ball of colorless stokesite, associated with titanite
##STATUS=The identification of this mineral is confirmed by single-crystal X-ray diffraction and chemical analysis.
##URL=rruff.info/R070100
##MEASURED CHEMISTRY=(Ca_1.30_Na_0.40_U_0.04_Mn_0.02_)(Ta_1.64_Nb_0.15_Ti_0.12_Sn_0.09_)O_6_(F_0.50_O_0.25_)
9.023535e+001, 3.159479e+003
9.071747e+001, 3.067081e+003
9.119958e+001, 3.022039e+003
9.168170e+001, 3.120034e+003
9.216382e+001, 3.225923e+003
9.264594e+001, 3.303788e+003
9.312805e+001, 3.356903e+003
9.361017e+001, 3.399945e+003
9.409229e+001, 3.437520e+003
9.457440e+001, 3.471976e+003
9.505652e+001, 3.496131e+003
9.553863e+001, 3.510594e+003
9.602074e+001, 3.519914e+003
9.650286e+001, 3.528064e+003
9.698498e+001, 3.534542e+003
9.746709e+001, 3.532385e+003
9.794921e+001, 3.528562e+003
9.843133e+001, 3.522765e+003
9.891344e+001, 3.517482e+003
9.939556e+001, 3.512161e+003
9.987768e+001, 3.506728e+003
1.003598e+002, 3.501870e+003
1.008419e+002, 3.497382e+003
1.013240e+002, 3.493892e+003
1.018061e+002, 3.492797e+003
1.022883e+002, 3.496079e+003
1.027704e+002, 3.499941e+003
1.032525e+002, 3.500083e+003
1.037346e+002, 3.495519e+003
1.042167e+002, 3.491443e+003
1.046988e+002, 3.491663e+003
1.051810e+002, 3.493703e+003
1.056631e+002, 3.493990e+003
1.061452e+002, 3.489640e+003
1.066273e+002, 3.481968e+003
1.071094e+002, 3.476737e+003
1.075915e+002, 3.475505e+003
1.080737e+002, 3.474748e+003
1.085558e+002, 3.473185e+003
1.090379e+002, 3.470822e+003
1.095200e+002, 3.467906e+003
1.100021e+002, 3.464385e+003
1.104842e+002, 3.459910e+003
1.109664e+002, 3.456735e+003
1.114485e+002, 3.455374e+003
1.119306e+002, 3.454761e+003
1.124127e+002, 3.454908e+003
1.128948e+002, 3.455559e+003
1.133769e+002, 3.455980e+003
1.138591e+002, 3.455124e+003
1.143412e+002, 3.452392e+003
1.148233e+002, 3.449104e+003
1.153054e+002, 3.444911e+003
1.157875e+002, 3.440293e+003
1.162696e+002, 3.435664e+003
1.167517e+002, 3.431136e+003
1.172339e+002, 3.426634e+003
1.177160e+002, 3.421882e+003
1.181981e+002, 3.415984e+003
1.186802e+002, 3.411386e+003
1.191623e+002, 3.409618e+003
1.196444e+002, 3.409790e+003
1.201266e+002, 3.409567e+003
1.206087e+002, 3.408102e+003
1.210908e+002, 3.405271e+003
1.215729e+002, 3.401216e+003
1.220550e+002, 3.395173e+003
1.225371e+002, 3.389160e+003
1.230193e+002, 3.385422e+003
1.235014e+002, 3.384270e+003
1.239835e+002, 3.382590e+003
1.244656e+002, 3.378314e+003
1.249477e+002, 3.372964e+003
1.254298e+002, 3.367666e+003
1.259120e+002, 3.362712e+003
1.263941e+002, 3.358233e+003
1.268762e+002, 3.354664e+003
1.273583e+002, 3.352553e+003
1.278404e+002, 3.350535e+003
1.283225e+002, 3.348250e+003
1.288047e+002, 3.345791e+003
1.292868e+002, 3.343466e+003
1.297689e+002, 3.341695e+003
1.302510e+002, 3.340309e+003
1.307331e+002, 3.336613e+003
1.312152e+002, 3.327187e+003
1.316974e+002, 3.318598e+003
1.321795e+002, 3.312316e+003
1.326616e+002, 3.308233e+003
1.331437e+002, 3.305760e+003
1.336258e+002, 3.304531e+003
1.341079e+002, 3.304871e+003
1.345901e+002, 3.304260e+003
1.350722e+002, 3.302624e+003
1.355543e+002, 3.300332e+003
1.360364e+002, 3.297487e+003
1.365185e+002, 3.294151e+003
1.370006e+002, 3.290433e+003
1.374828e+002, 3.286307e+003
1.379649e+002, 3.281526e+003
1.384470e+002, 3.277894e+003
1.389291e+002, 3.276002e+003
1.394112e+002, 3.275117e+003
1.398933e+002, 3.274669e+003
1.403755e+002, 3.274724e+003
1.408576e+002, 3.274500e+003
1.413397e+002, 3.272608e+003
1.418218e+002, 3.269208e+003
1.423039e+002, 3.266052e+003
1.427860e+002, 3.264154e+003
1.432681e+002, 3.263138e+003
1.437503e+002, 3.261659e+003
1.442324e+002, 3.259379e+003
1.447145e+002, 3.256500e+003
1.451966e+002, 3.252603e+003
1.456787e+002, 3.247733e+003
1.461608e+002, 3.244009e+003
1.466430e+002, 3.244407e+003
1.471251e+002, 3.249598e+003
1.476072e+002, 3.252224e+003
1.480893e+002, 3.248677e+003
1.485714e+002, 3.243412e+003
1.490535e+002, 3.238152e+003
1.495357e+002, 3.233401e+003
1.500178e+002, 3.229440e+003
1.504999e+002, 3.226870e+003
1.509820e+002, 3.226343e+003
1.514641e+002, 3.225844e+003
1.519462e+002, 3.225862e+003
1.524284e+002, 3.225469e+003
1.529105e+002, 3.223786e+003
1.533926e+002, 3.220520e+003
1.538747e+002, 3.216197e+003
1.543568e+002, 3.212124e+003
1.548389e+002, 3.208253e+003
1.553211e+002, 3.204768e+003
1.558032e+002, 3.201829e+003
1.562853e+002, 3.199213e+003
1.567674e+002, 3.196765e+003
1.572495e+002, 3.194425e+003
1.577316e+002, 3.192080e+003
1.582138e+002, 3.189223e+003
1.586959e+002, 3.185810e+003
1.591780e+002, 3.182020e+003
1.596601e+002, 3.177177e+003
1.601422e+002, 3.171925e+003
1.606243e+002, 3.167741e+003
1.611065e+002, 3.165573e+003
1.615886e+002, 3.165174e+003
1.620707e+002, 3.165035e+003
1.625528e+002, 3.166154e+003
1.630349e+002, 3.166613e+003
1.635170e+002, 3.165019e+003
1.639991e+002, 3.161532e+003
1.644813e+002, 3.157654e+003
1.649634e+002, 3.153961e+003
1.654455e+002, 3.150626e+003
1.659276e+002, 3.147987e+003
1.664097e+002, 3.146655e+003
1.668918e+002, 3.145564e+003
1.673740e+002, 3.143690e+003
1.678561e+002, 3.141075e+003
1.683382e+002, 3.137477e+003
1.688203e+002, 3.131565e+003
1.693024e+002, 3.124865e+003
1.697845e+002, 3.119274e+003
1.702667e+002, 3.115781e+003
1.707488e+002, 3.113691e+003
1.712309e+002, 3.111394e+003
1.717130e+002, 3.108621e+003
1.721951e+002, 3.106177e+003
1.726772e+002, 3.104689e+003
1.731594e+002, 3.103612e+003
1.736415e+002, 3.102155e+003
1.741236e+002, 3.099844e+003
1.746057e+002, 3.096800e+003
1.750878e+002, 3.093732e+003
1.755699e+002, 3.090974e+003
1.760521e+002, 3.087802e+003
1.765342e+002, 3.083361e+003
1.770163e+002, 3.078422e+003
1.774984e+002, 3.074402e+003
1.779805e+002, 3.072439e+003
1.784626e+002, 3.072551e+003
1.789448e+002, 3.072070e+003
1.794269e+002, 3.070214e+003
1.799090e+002, 3.068527e+003
1.803911e+002, 3.067670e+003
1.808732e+002, 3.067404e+003
1.813553e+002, 3.067117e+003
1.818375e+002, 3.066342e+003
1.823196e+002, 3.065097e+003
1.828017e+002, 3.062854e+003
1.832838e+002, 3.059436e+003
1.837659e+002, 3.055405e+003
1.842480e+002, 3.050417e+003
1.847301e+002, 3.044797e+003
1.852123e+002, 3.039822e+003
1.856944e+002, 3.036825e+003
1.861765e+002, 3.036161e+003
1.866586e+002, 3.034893e+003
1.871407e+002, 3.032692e+003
1.876228e+002, 3.030161e+003
1.881050e+002, 3.027447e+003
1.885871e+002, 3.024626e+003
1.890692e+002, 3.022372e+003
1.895513e+002, 3.021812e+003
1.900334e+002, 3.022860e+003
1.905155e+002, 3.022633e+003
1.909977e+002, 3.019846e+003
1.914798e+002, 3.016105e+003
1.919619e+002, 3.013472e+003
1.924440e+002, 3.012425e+003
1.929261e+002, 3.011192e+003
1.934082e+002, 3.006976e+003
1.938904e+002, 3.000853e+003
1.943725e+002, 2.996421e+003
1.948546e+002, 2.996466e+003
1.953367e+002, 2.998664e+003
1.958188e+002, 2.998299e+003
1.963009e+002, 2.994374e+003
1.967831e+002, 2.989171e+003
1.972652e+002, 2.983617e+003
1.977473e+002, 2.978055e+003
1.982294e+002, 2.973637e+003
1.987115e+002, 2.971430e+003
1.991936e+002, 2.970957e+003
1.996758e+002, 2.970139e+003
2.001579e+002, 2.968489e+003
2.006400e+002, 2.967127e+003
2.011221e+002, 2.966553e+003
2.016042e+002, 2.966673e+003
2.020863e+002, 2.967274e+003
2.025685e+002, 2.968546e+003
2.030506e+002, 2.970397e+003
2.035327e+002, 2.971286e+003
2.040148e+002, 2.970623e+003
2.044969e+002, 2.969468e+003
2.049790e+002, 2.968395e+003
2.054612e+002, 2.967199e+003
2.059433e+002, 2.965307e+003
2.064254e+002, 2.962113e+003
2.069075e+002, 2.957536e+003
2.073896e+002, 2.953184e+003
2.078717e+002, 2.948668e+003
2.083539e+002, 2.944753e+003
2.088360e+002, 2.941866e+003
2.093181e+002, 2.939858e+003
2.098002e+002, 2.938382e+003
2.102823e+002, 2.937315e+003
2.107644e+002, 2.936885e+003
2.112466e+002, 2.934904e+003
2.117287e+002, 2.929340e+003
2.122108e+002, 2.924292e+003
2.126929e+002, 2.921838e+003
2.131750e+002, 2.921537e+003
2.136571e+002, 2.921424e+003
2.141393e+002, 2.919619e+003
2.146214e+002, 2.915716e+003
2.151035e+002, 2.913035e+003
2.155856e+002, 2.912158e+003
2.160677e+002, 2.911687e+003
2.165498e+002, 2.911219e+003
2.170320e+002, 2.910594e+003
2.175141e+002, 2.909497e+003
2.179962e+002, 2.907489e+003
2.184783e+002, 2.904372e+003
2.189604e+002, 2.902463e+003
2.194425e+002, 2.902535e+003
2.199247e+002, 2.903002e+003
2.204068e+002, 2.903364e+003
2.208889e+002, 2.903406e+003
2.213710e+002, 2.902362e+003
2.218531e+002, 2.899170e+003
2.223352e+002, 2.893691e+003
2.228174e+002, 2.890005e+003
2.232995e+002, 2.888951e+003
2.237816e+002, 2.889022e+003
2.242637e+002, 2.889844e+003
2.247458e+002, 2.891240e+003
2.252279e+002, 2.891506e+003
2.257100e+002, 2.888668e+003
2.261922e+002, 2.883142e+003
2.266743e+002, 2.878810e+003
2.271564e+002, 2.876448e+003
2.276385e+002, 2.875043e+003
2.281206e+002, 2.873868e+003
2.286027e+002, 2.872900e+003
2.290849e+002, 2.872025e+003
2.295670e+002, 2.871339e+003
2.300491e+002, 2.870692e+003
2.305312e+002, 2.869646e+003
2.310133e+002, 2.868083e+003
2.314954e+002, 2.866127e+003
2.319776e+002, 2.863628e+003
2.324597e+002, 2.860435e+003
2.329418e+002, 2.857765e+003
2.334239e+002, 2.856619e+003
2.339060e+002, 2.856475e+003
2.343881e+002, 2.856676e+003
2.348703e+002, 2.857339e+003
2.353524e+002, 2.858036e+003
2.358345e+002, 2.858280e+003
2.363166e+002, 2.858109e+003
2.367987e+002, 2.857280e+003
2.372808e+002, 2.855213e+003
2.377630e+002, 2.852540e+003
2.382451e+002, 2.850004e+003
2.387272e+002, 2.848158e+003
2.392093e+002, 2.846066e+003
2.396914e+002, 2.841672e+003
2.401735e+002, 2.833799e+003
2.406557e+002, 2.827385e+003
2.411378e+002, 2.825057e+003
2.416199e+002, 2.824742e+003
2.421020e+002, 2.824959e+003
2.425841e+002, 2.825456e+003
2.430662e+002, 2.825535e+003
2.435484e+002, 2.823665e+003
2.440305e+002, 2.818905e+003
2.445126e+002, 2.814799e+003
2.449947e+002, 2.811992e+003
2.454768e+002, 2.810356e+003
2.459589e+002, 2.810127e+003
2.464410e+002, 2.811446e+003
2.469232e+002, 2.813467e+003
2.474053e+002, 2.814995e+003
2.478874e+002, 2.816530e+003
2.483695e+002, 2.816177e+003
2.488516e+002, 2.812279e+003
2.493337e+002, 2.807402e+003
2.498159e+002, 2.803563e+003
2.502980e+002, 2.801351e+003
2.507801e+002, 2.799812e+003
2.512622e+002, 2.797333e+003
2.517443e+002, 2.793580e+003
2.522264e+002, 2.789588e+003
2.527086e+002, 2.784372e+003
2.531907e+002, 2.779663e+003
2.536728e+002, 2.776891e+003
2.541549e+002, 2.776340e+003
2.546370e+002, 2.776959e+003
2.551191e+002, 2.777295e+003
2.556013e+002, 2.777662e+003
2.560834e+002, 2.776969e+003
2.565655e+002, 2.774642e+003
2.570476e+002, 2.771894e+003
2.575297e+002, 2.769349e+003
2.580118e+002, 2.767204e+003
2.584940e+002, 2.765435e+003
2.589761e+002, 2.764046e+003
2.594582e+002, 2.763211e+003
2.599403e+002, 2.762350e+003
2.604224e+002, 2.762254e+003
2.609045e+002, 2.761554e+003
2.613867e+002, 2.758924e+003
2.618688e+002, 2.754509e+003
2.623509e+002, 2.749898e+003
2.628330e+002, 2.747004e+003
2.633151e+002, 2.746607e+003
2.637972e+002, 2.745083e+003
2.642794e+002, 2.741598e+003
2.647615e+002, 2.737931e+003
2.652436e+002, 2.735008e+003
2.657257e+002, 2.732884e+003
2.662078e+002, 2.731090e+003
2.666899e+002, 2.729097e+003
2.671721e+002, 2.726711e+003
2.676542e+002, 2.725575e+003
2.681363e+002, 2.727367e+003
2.686184e+002, 2.728638e+003
2.691005e+002, 2.727071e+003
2.695826e+002, 2.723230e+003
2.700648e+002, 2.719640e+003
2.705469e+002, 2.718562e+003
2.710290e+002, 2.720150e+003
2.715111e+002, 2.719507e+003
2.719932e+002, 2.714825e+003
2.724753e+002, 2.710187e+003
2.729575e+002, 2.707385e+003
2.734396e+002, 2.706083e+003
2.739217e+002, 2.705093e+003
2.744038e+002, 2.703627e+003
2.748859e+002, 2.701739e+003
2.753680e+002, 2.700105e+003
2.758501e+002, 2.699402e+003
2.763322e+002, 2.698176e+003
2.768144e+002, 2.695466e+003
2.772965e+002, 2.691844e+003
2.777786e+002, 2.688827e+003
2.782607e+002, 2.687464e+003
2.787428e+002, 2.687010e+003
2.792249e+002, 2.684055e+003
2.797071e+002, 2.674896e+003
2.801892e+002, 2.668051e+003
2.806713e+002, 2.667465e+003
2.811534e+002, 2.670414e+003
2.816355e+002, 2.672303e+003
2.821176e+002, 2.671261e+003
2.825998e+002, 2.667750e+003
2.830819e+002, 2.662500e+003
2.835640e+002, 2.653535e+003
2.840461e+002, 2.646720e+003
2.845282e+002, 2.644722e+003
2.850103e+002, 2.645218e+003
2.854925e+002, 2.644847e+003
2.859746e+002, 2.642494e+003
2.864567e+002, 2.639093e+003
2.869388e+002, 2.636044e+003
2.874209e+002, 2.633242e+003
2.879030e+002, 2.631116e+003
2.883852e+002, 2.630578e+003
2.888673e+002, 2.630431e+003
2.893494e+002, 2.629112e+003
2.898315e+002, 2.626234e+003
2.903136e+002, 2.622750e+003
2.907957e+002, 2.619741e+003
2.912779e+002, 2.617276e+003
2.917600e+002, 2.614743e+003
2.922421e+002, 2.611931e+003
2.927242e+002, 2.609095e+003
2.932063e+002, 2.606825e+003
2.936884e+002, 2.605149e+003
2.941706e+002, 2.602805e+003
2.946527e+002, 2.598208e+003
2.951348e+002, 2.591342e+003
2.956169e+002, 2.585863e+003
2.960990e+002, 2.582288e+003
2.965811e+002, 2.579868e+003
2.970633e+002, 2.578793e+003
2.975454e+002, 2.578828e+003
2.980275e+002, 2.577896e+003
2.985096e+002, 2.574242e+003
2.989917e+002, 2.568249e+003
2.994738e+002, 2.563100e+003
2.999560e+002, 2.558544e+003
3.004381e+002, 2.555063e+003
3.009202e+002, 2.553635e+003
3.014023e+002, 2.553784e+003
3.018844e+002, 2.553446e+003
3.023665e+002, 2.551751e+003
3.028487e+002, 2.548579e+003
3.033308e+002, 2.543696e+003
3.038129e+002, 2.535467e+003
3.042950e+002, 2.528259e+003
3.047771e+002, 2.524257e+003
3.052592e+002, 2.522771e+003
3.057414e+002, 2.522319e+003
3.062235e+002, 2.522752e+003
3.067056e+002, 2.523217e+003
3.071877e+002, 2.521883e+003
3.076698e+002, 2.518478e+003
3.081519e+002, 2.514962e+003
3.086341e+002, 2.512110e+003
3.091162e+002, 2.509539e+003
3.095983e+002, 2.506533e+003
3.100804e+002, 2.502855e+003
3.105625e+002, 2.499043e+003
3.110446e+002, 2.496028e+003
3.115268e+002, 2.493855e+003
3.120089e+002, 2.491097e+003
3.124910e+002, 2.486317e+003
3.129731e+002, 2.481336e+003
3.134552e+002, 2.478475e+003
3.139373e+002, 2.478116e+003
3.144195e+002, 2.478771e+003
3.149016e+002, 2.479975e+003
3.153837e+002, 2.481407e+003
3.158658e+002, 2.479675e+003
3.163479e+002, 2.471083e+003
3.168300e+002, 2.461636e+003
3.173121e+002, 2.456912e+003
3.177943e+002, 2.456753e+003
3.182764e+002, 2.456516e+003
3.187585e+002, 2.452739e+003
3.192406e+002, 2.446407e+003
3.197227e+002, 2.442397e+003
3.202048e+002, 2.443299e+003
3.206870e+002, 2.443878e+003
3.211691e+002, 2.440477e+003
3.216512e+002, 2.434175e+003
3.221333e+002, 2.428821e+003
3.226154e+002, 2.426464e+003
3.230975e+002, 2.425890e+003
3.235797e+002, 2.424077e+003
3.240618e+002, 2.420788e+003
3.245439e+002, 2.417086e+003
3.250260e+002, 2.412888e+003
3.255081e+002, 2.408593e+003
3.259902e+002, 2.404974e+003
3.264724e+002, 2.402327e+003
3.269545e+002, 2.400212e+003
3.274366e+002, 2.398015e+003
3.279187e+002, 2.395755e+003
3.284008e+002, 2.393343e+003
3.288829e+002, 2.390794e+003
3.293651e+002, 2.388064e+003
3.298472e+002, 2.384881e+003
3.303293e+002, 2.381189e+003
3.308114e+002, 2.377764e+003
3.312935e+002, 2.375434e+003
3.317756e+002, 2.374304e+003
3.322578e+002, 2.373148e+003
3.327399e+002, 2.372073e+003
3.332220e+002, 2.370844e+003
3.337041e+002, 2.369023e+003
3.341862e+002, 2.366738e+003
3.346683e+002, 2.364890e+003
3.351505e+002, 2.364324e+003
3.356326e+002, 2.364745e+003
3.361147e+002, 2.364010e+003
3.365968e+002, 2.362020e+003
3.370789e+002, 2.359161e+003
3.375610e+002, 2.354851e+003
3.380432e+002, 2.349772e+003
3.385253e+002, 2.345771e+003
3.390074e+002, 2.343930e+003
3.394895e+002, 2.343179e+003
3.399716e+002, 2.340434e+003
3.404537e+002, 2.333993e+003
3.409359e+002, 2.328965e+003
3.414180e+002, 2.327366e+003
3.419001e+002, 2.327333e+003
3.423822e+002, 2.326452e+003
3.428643e+002, 2.324036e+003
3.433464e+002, 2.321034e+003
3.438286e+002, 2.318816e+003
3.443107e+002, 2.317917e+003
3.447928e+002, 2.316166e+003
3.452749e+002, 2.312006e+003
3.457570e+002, 2.308071e+003
3.462391e+002, 2.306715e+003
3.467213e+002, 2.307928e+003
3.472034e+002, 2.309954e+003
3.476855e+002, 2.311546e+003
3.481676e+002, 2.312751e+003
3.486497e+002, 2.311321e+003
3.491318e+002, 2.304885e+003
3.496140e+002, 2.298692e+003
3.500961e+002, 2.295131e+003
3.505782e+002, 2.293630e+003
3.510603e+002, 2.292542e+003
3.515424e+002, 2.290919e+003
3.520245e+002, 2.288994e+003
3.525067e+002, 2.287754e+003
3.529888e+002, 2.287961e+003
3.534709e+002, 2.287906e+003
3.539530e+002, 2.287106e+003
3.544351e+002, 2.286036e+003
3.549172e+002, 2.285291e+003
3.553994e+002, 2.285066e+003
3.558815e+002, 2.285059e+003
3.563636e+002, 2.284784e+003
3.568457e+002, 2.284304e+003
3.573278e+002, 2.283308e+003
3.578099e+002, 2.281331e+003
3.582920e+002, 2.279213e+003
3.587741e+002, 2.277681e+003
3.592563e+002, 2.276683e+003
3.597384e+002, 2.275489e+003
3.602205e+002, 2.273218e+003
3.607026e+002, 2.269602e+003
3.611847e+002, 2.267541e+003
3.616668e+002, 2.268489e+003
3.621490e+002, 2.269378e+003
3.626311e+002, 2.269197e+003
3.631132e+002, 2.268204e+003
3.635953e+002, 2.266927e+003
3.640774e+002, 2.265620e+003
3.645595e+002, 2.264464e+003
3.650417e+002, 2.264308e+003
3.655238e+002, 2.266706e+003
3.660059e+002, 2.267935e+003
3.664880e+002, 2.266774e+003
3.669701e+002, 2.264698e+003
3.674522e+002, 2.263124e+003
3.679344e+002, 2.262511e+003
3.684165e+002, 2.262367e+003
3.688986e+002, 2.262052e+003
3.693807e+002, 2.261820e+003
3.698628e+002, 2.260684e+003
3.703449e+002, 2.258054e+003
3.708271e+002, 2.255061e+003
3.713092e+002, 2.252051e+003
3.717913e+002, 2.249188e+003
3.722734e+002, 2.246631e+003
3.727555e+002, 2.244613e+003
3.732376e+002, 2.243124e+003
3.737198e+002, 2.241528e+003
3.742019e+002, 2.239657e+003
3.746840e+002, 2.237913e+003
3.751661e+002, 2.236050e+003
3.756482e+002, 2.234472e+003
3.761303e+002, 2.233982e+003
3.766125e+002, 2.235203e+003
3.770946e+002, 2.237153e+003
3.775767e+002, 2.237573e+003
3.780588e+002, 2.236004e+003
3.785409e+002, 2.234169e+003
3.790230e+002, 2.231928e+003
3.795052e+002, 2.229958e+003
3.799873e+002, 2.229034e+003
3.804694e+002, 2.229286e+003
3.809515e+002, 2.229654e+003
3.814336e+002, 2.228875e+003
3.819157e+002, 2.226974e+003
3.823979e+002, 2.225635e+003
3.828800e+002, 2.225404e+003
3.833621e+002, 2.225384e+003
3.838442e+002, 2.224869e+003
3.843263e+002, 2.223998e+003
3.848084e+002, 2.223301e+003
3.852906e+002, 2.223422e+003
3.857727e+002, 2.223854e+003
3.862548e+002, 2.223331e+003
3.867369e+002, 2.221629e+003
3.872190e+002, 2.219773e+003
3.877011e+002, 2.218052e+003
3.881833e+002, 2.216619e+003
3.886654e+002, 2.215852e+003
3.891475e+002, 2.216242e+003
3.896296e+002, 2.216559e+003
3.901117e+002, 2.215488e+003
3.905938e+002, 2.213223e+003
3.910760e+002, 2.211367e+003
3.915581e+002, 2.210829e+003
3.920402e+002, 2.210456e+003
3.925223e+002, 2.208339e+003
3.930044e+002, 2.204318e+003
3.934865e+002, 2.201016e+003
3.939687e+002, 2.199701e+003
3.944508e+002, 2.199673e+003
3.949329e+002, 2.200245e+003
3.954150e+002, 2.201446e+003
3.958971e+002, 2.201889e+003
3.963792e+002, 2.199722e+003
3.968614e+002, 2.195286e+003
3.973435e+002, 2.192726e+003
3.978256e+002, 2.194024e+003
3.983077e+002, 2.195615e+003
3.987898e+002, 2.194540e+003
3.992719e+002, 2.191586e+003
3.997540e+002, 2.190067e+003
4.002361e+002, 2.192054e+003
4.007183e+002, 2.195865e+003
4.012004e+002, 2.196453e+003
4.016825e+002, 2.192313e+003
4.021646e+002, 2.188169e+003
4.026467e+002, 2.183857e+003
4.031288e+002, 2.180408e+003
4.036110e+002, 2.179732e+003
4.040931e+002, 2.182074e+003
4.045752e+002, 2.184915e+003
4.050573e+002, 2.185242e+003
4.055394e+002, 2.182440e+003
4.060215e+002, 2.180073e+003
4.065037e+002, 2.178284e+003
4.069858e+002, 2.176757e+003
4.074679e+002, 2.175484e+003
4.079500e+002, 2.174346e+003
4.084321e+002, 2.173116e+003
4.089142e+002, 2.171630e+003
4.093964e+002, 2.169936e+003
4.098785e+002, 2.168239e+003
4.103606e+002, 2.166746e+003
4.108427e+002, 2.164946e+003
4.113248e+002, 2.162236e+003
4.118069e+002, 2.159493e+003
4.122891e+002, 2.157402e+003
4.127712e+002, 2.156191e+003
4.132533e+002, 2.155880e+003
4.137354e+002, 2.156925e+003
4.142175e+002, 2.160185e+003
4.146996e+002, 2.161330e+003
4.151818e+002, 2.157952e+003
4.156639e+002, 2.154652e+003
4.161460e+002, 2.153393e+003
4.166281e+002, 2.153676e+003
4.171102e+002, 2.153898e+003
4.175923e+002, 2.152806e+003
4.180745e+002, 2.151120e+003
4.185566e+002, 2.151810e+003
4.190387e+002, 2.156936e+003
4.195208e+002, 2.159804e+003
4.200029e+002, 2.156635e+003
4.204850e+002, 2.151359e+003
4.209672e+002, 2.147701e+003
4.214493e+002, 2.146599e+003
4.219314e+002, 2.145710e+003
4.224135e+002, 2.142212e+003
4.228956e+002, 2.136280e+003
4.233777e+002, 2.131516e+003
4.238599e+002, 2.128943e+003
4.243420e+002, 2.127029e+003
4.248241e+002, 2.124361e+003
4.253062e+002, 2.121249e+003
4.257883e+002, 2.118805e+003
4.262704e+002, 2.117958e+003
4.267526e+002, 2.117848e+003
4.272347e+002, 2.117212e+003
4.277168e+002, 2.116023e+003
4.281989e+002, 2.114732e+003
4.286810e+002, 2.113437e+003
4.291631e+002, 2.112289e+003
4.296453e+002, 2.111539e+003
4.301274e+002, 2.111237e+003
4.306095e+002, 2.111209e+003
4.310916e+002, 2.111970e+003
4.315737e+002, 2.112848e+003
4.320558e+002, 2.112323e+003
4.325380e+002, 2.109920e+003
4.330201e+002, 2.106706e+003
4.335022e+002, 2.103678e+003
4.339843e+002, 2.100786e+003
4.344664e+002, 2.098837e+003
4.349485e+002, 2.099014e+003
4.354307e+002, 2.099139e+003
4.359128e+002, 2.097694e+003
4.363949e+002, 2.094907e+003
4.368770e+002, 2.091803e+003
4.373591e+002, 2.088953e+003
4.378412e+002, 2.086286e+003
4.383234e+002, 2.083579e+003
4.388055e+002, 2.080638e+003
4.392876e+002, 2.077920e+003
4.397697e+002, 2.074675e+003
4.402518e+002, 2.072133e+003
4.407339e+002, 2.072563e+003
4.412160e+002, 2.075858e+003
4.416982e+002, 2.078500e+003
4.421803e+002, 2.075947e+003
4.426624e+002, 2.067035e+003
4.431445e+002, 2.061462e+003
4.436266e+002, 2.062340e+003
4.441087e+002, 2.063406e+003
4.445909e+002, 2.062864e+003
4.450730e+002, 2.061210e+003
4.455551e+002, 2.059425e+003
4.460372e+002, 2.057990e+003
4.465193e+002, 2.056835e+003
4.470014e+002, 2.055939e+003
4.474836e+002, 2.055593e+003
4.479657e+002, 2.054629e+003
4.484478e+002, 2.052548e+003
4.489299e+002, 2.049974e+003
4.494120e+002, 2.047006e+003
4.498941e+002, 2.043775e+003
4.503763e+002, 2.040836e+003
4.508584e+002, 2.038684e+003
4.513405e+002, 2.037185e+003
4.518226e+002, 2.035857e+003
4.523047e+002, 2.034702e+003
4.527868e+002, 2.033691e+003
4.532690e+002, 2.032890e+003
4.537511e+002, 2.032191e+003
4.542332e+002, 2.031433e+003
4.547153e+002, 2.030521e+003
4.551974e+002, 2.029651e+003
4.556795e+002, 2.029372e+003
4.561617e+002, 2.029386e+003
4.566438e+002, 2.028205e+003
4.571259e+002, 2.025074e+003
4.576080e+002, 2.021324e+003
4.580901e+002, 2.018789e+003
4.585722e+002, 2.017459e+003
4.590544e+002, 2.015880e+003
4.595365e+002, 2.013312e+003
4.600186e+002, 2.010766e+003
4.605007e+002, 2.009211e+003
4.609828e+002, 2.008578e+003
4.614649e+002, 2.008255e+003
4.619471e+002, 2.007997e+003
4.624292e+002, 2.007631e+003
4.629113e+002, 2.006387e+003
4.633934e+002, 2.003945e+003
4.638755e+002, 2.001114e+003
4.643576e+002, 1.997319e+003
4.648398e+002, 1.993497e+003
4.653219e+002, 1.990566e+003
4.658040e+002, 1.988701e+003
4.662861e+002, 1.987660e+003
4.667682e+002, 1.987341e+003
4.672503e+002, 1.987910e+003
4.677325e+002, 1.987442e+003
4.682146e+002, 1.985023e+003
4.686967e+002, 1.982499e+003
4.691788e+002, 1.979992e+003
4.696609e+002, 1.977788e+003
4.701430e+002, 1.976226e+003
4.706252e+002, 1.975453e+003
4.711073e+002, 1.975414e+003
4.715894e+002, 1.976607e+003
4.720715e+002, 1.979891e+003
4.725536e+002, 1.980635e+003
4.730357e+002, 1.976059e+003
4.735179e+002, 1.970486e+003
4.740000e+002, 1.966022e+003
4.744821e+002, 1.962724e+003
4.749642e+002, 1.959982e+003
4.754463e+002, 1.957773e+003
4.759284e+002, 1.955789e+003
4.764106e+002, 1.952960e+003
4.768927e+002, 1.948985e+003
4.773748e+002, 1.946156e+003
4.778569e+002, 1.946043e+003
4.783390e+002, 1.947512e+003
4.788211e+002, 1.948919e+003
4.793033e+002, 1.950436e+003
4.797854e+002, 1.950988e+003
4.802675e+002, 1.949241e+003
4.807496e+002, 1.946351e+003
4.812317e+002, 1.944500e+003
4.817138e+002, 1.944092e+003
4.821959e+002, 1.944060e+003
4.826780e+002, 1.943537e+003
4.831602e+002, 1.942498e+003
4.836423e+002, 1.941216e+003
4.841244e+002, 1.939802e+003
4.846065e+002, 1.938044e+003
4.850886e+002, 1.935170e+003
4.855707e+002, 1.932025e+003
4.860529e+002, 1.930175e+003
4.865350e+002, 1.930187e+003
4.870171e+002, 1.931242e+003
4.874992e+002, 1.932114e+003
4.879813e+002, 1.933213e+003
4.884634e+002, 1.932943e+003
4.889456e+002, 1.930425e+003
4.894277e+002, 1.927633e+003
4.899098e+002, 1.925502e+003
4.903919e+002, 1.923888e+003
4.908740e+002, 1.922217e+003
4.913561e+002, 1.920107e+003
4.918383e+002, 1.917842e+003
4.923204e+002, 1.916202e+003
4.928025e+002, 1.915324e+003
4.932846e+002, 1.914720e+003
4.937667e+002, 1.914749e+003
4.942488e+002, 1.914696e+003
4.947310e+002, 1.914082e+003
4.952131e+002, 1.912890e+003
4.956952e+002, 1.911391e+003
4.961773e+002, 1.909640e+003
4.966594e+002, 1.907743e+003
4.971415e+002, 1.906209e+003
4.976237e+002, 1.905269e+003
4.981058e+002, 1.903549e+003
4.985879e+002, 1.899351e+003
4.990700e+002, 1.894220e+003
4.995521e+002, 1.891114e+003
5.000342e+002, 1.890609e+003
5.005164e+002, 1.891049e+003
5.009985e+002, 1.892252e+003
5.014806e+002, 1.893678e+003
5.019627e+002, 1.894568e+003
5.024448e+002, 1.894774e+003
5.029269e+002, 1.893901e+003
5.034091e+002, 1.891400e+003
5.038912e+002, 1.887177e+003
5.043733e+002, 1.883271e+003
5.048554e+002, 1.878899e+003
5.053375e+002, 1.875669e+003
5.058196e+002, 1.874805e+003
5.063018e+002, 1.875253e+003
5.067839e+002, 1.875564e+003
5.072660e+002, 1.875193e+003
5.077481e+002, 1.874309e+003
5.082302e+002, 1.873099e+003
5.087123e+002, 1.871367e+003
5.091945e+002, 1.870006e+003
5.096766e+002, 1.869350e+003
5.101587e+002, 1.868729e+003
5.106408e+002, 1.867871e+003
5.111229e+002, 1.866863e+003
5.116050e+002, 1.865883e+003
5.120872e+002, 1.864999e+003
5.125693e+002, 1.864248e+003
5.130514e+002, 1.863615e+003
5.135335e+002, 1.863047e+003
5.140156e+002, 1.863084e+003
5.144977e+002, 1.864664e+003
5.149799e+002, 1.866040e+003
5.154620e+002, 1.865752e+003
5.159441e+002, 1.863943e+003
5.164262e+002, 1.861698e+003
5.169083e+002, 1.859006e+003
5.173904e+002, 1.856375e+003
5.178726e+002, 1.854530e+003
5.183547e+002, 1.853436e+003
5.188368e+002, 1.852522e+003
5.193189e+002, 1.851566e+003
5.198010e+002, 1.850566e+003
5.202831e+002, 1.849566e+003
5.207653e+002, 1.848670e+003
5.212474e+002, 1.847473e+003
5.217295e+002, 1.845616e+003
5.222116e+002, 1.843637e+003
5.226937e+002, 1.841873e+003
5.231758e+002, 1.840433e+003
5.236580e+002, 1.839426e+003
5.241401e+002, 1.838927e+003
5.246222e+002, 1.838945e+003
5.251043e+002, 1.839597e+003
5.255864e+002, 1.842190e+003
5.260685e+002, 1.843490e+003
5.265507e+002, 1.841916e+003
5.270328e+002, 1.839923e+003
5.275149e+002, 1.839997e+003
5.279970e+002, 1.842081e+003
5.284791e+002, 1.843746e+003
5.289612e+002, 1.842601e+003
5.294434e+002, 1.839146e+003
5.299255e+002, 1.836371e+003
5.304076e+002, 1.834399e+003
5.308897e+002, 1.832856e+003
5.313718e+002, 1.831309e+003
5.318539e+002, 1.830263e+003
5.323361e+002, 1.830475e+003
5.328182e+002, 1.832216e+003
5.333003e+002, 1.834146e+003
5.337824e+002, 1.836112e+003
5.342645e+002, 1.837518e+003
5.347466e+002, 1.836441e+003
5.352288e+002, 1.832422e+003
5.357109e+002, 1.828809e+003
5.361930e+002, 1.828202e+003
5.366751e+002, 1.830221e+003
5.371572e+002, 1.832091e+003
5.376393e+002, 1.834222e+003
5.381215e+002, 1.835723e+003
5.386036e+002, 1.835947e+003
5.390857e+002, 1.835584e+003
5.395678e+002, 1.835482e+003
5.400499e+002, 1.835814e+003
5.405320e+002, 1.836255e+003
5.410142e+002, 1.836485e+003
5.414963e+002, 1.836497e+003
5.419784e+002, 1.836307e+003
5.424605e+002, 1.834852e+003
5.429426e+002, 1.834502e+003
5.434247e+002, 1.836776e+003
5.439068e+002, 1.839886e+003
5.443889e+002, 1.841520e+003
5.448710e+002, 1.841139e+003
5.453531e+002, 1.840682e+003
5.458353e+002, 1.842850e+003
5.463174e+002, 1.847304e+003
5.467995e+002, 1.849764e+003
5.472816e+002, 1.849319e+003
5.477637e+002, 1.848333e+003
5.482458e+002, 1.847730e+003
5.487280e+002, 1.847674e+003
5.492101e+002, 1.848668e+003
5.496922e+002, 1.851299e+003
5.501743e+002, 1.853916e+003
5.506564e+002, 1.855375e+003
5.511385e+002, 1.856107e+003
5.516207e+002, 1.856988e+003
5.521028e+002, 1.858208e+003
5.525849e+002, 1.859577e+003
5.530670e+002, 1.861037e+003
5.535491e+002, 1.862596e+003
5.540313e+002, 1.863310e+003
5.545134e+002, 1.862042e+003
5.549955e+002, 1.861434e+003
5.554776e+002, 1.862555e+003
5.559597e+002, 1.864584e+003
5.564418e+002, 1.866442e+003
5.569240e+002, 1.867878e+003
5.574061e+002, 1.869428e+003
5.578882e+002, 1.871662e+003
5.583703e+002, 1.874553e+003
5.588524e+002, 1.878339e+003
5.593345e+002, 1.884531e+003
5.598167e+002, 1.889300e+003
5.602988e+002, 1.891402e+003
5.607809e+002, 1.891531e+003
5.612630e+002, 1.889916e+003
5.617451e+002, 1.886378e+003
5.622272e+002, 1.883601e+003
5.627094e+002, 1.884678e+003
5.631915e+002, 1.888448e+003
5.636736e+002, 1.890911e+003
5.641557e+002, 1.891403e+003
5.646378e+002, 1.891667e+003
5.651199e+002, 1.892956e+003
5.656021e+002, 1.895060e+003
5.660842e+002, 1.896913e+003
5.665663e+002, 1.898395e+003
5.670484e+002, 1.899822e+003
5.675305e+002, 1.901355e+003
5.680126e+002, 1.902885e+003
5.684948e+002, 1.904386e+003
5.689769e+002, 1.905803e+003
5.694590e+002, 1.906808e+003
5.699411e+002, 1.906905e+003
5.704232e+002, 1.906220e+003
5.709053e+002, 1.907112e+003
5.713875e+002, 1.911030e+003
5.718696e+002, 1.914646e+003
5.723517e+002, 1.917390e+003
5.728338e+002, 1.919665e+003
5.733159e+002, 1.921913e+003
5.737980e+002, 1.924181e+003
5.742802e+002, 1.926092e+003
5.747623e+002, 1.926990e+003
5.752444e+002, 1.927216e+003
5.757265e+002, 1.928233e+003
5.762086e+002, 1.930143e+003
5.766907e+002, 1.932421e+003
5.771729e+002, 1.935031e+003
5.776550e+002, 1.937738e+003
5.781371e+002, 1.939898e+003
5.786192e+002, 1.941119e+003
5.791013e+002, 1.943530e+003
5.795834e+002, 1.949771e+003
5.800656e+002, 1.956531e+003
5.805477e+002, 1.959447e+003
5.810298e+002, 1.958706e+003
5.815119e+002, 1.957923e+003
5.819940e+002, 1.959369e+003
5.824761e+002, 1.962465e+003
5.829583e+002, 1.965246e+003
5.834404e+002, 1.967474e+003
5.839225e+002, 1.969723e+003
5.844046e+002, 1.971809e+003
5.848867e+002, 1.974069e+003
5.853688e+002, 1.977119e+003
5.858510e+002, 1.980580e+003
5.863331e+002, 1.983245e+003
5.868152e+002, 1.984134e+003
5.872973e+002, 1.984163e+003
5.877794e+002, 1.985553e+003
5.882615e+002, 1.988537e+003
5.887437e+002, 1.991283e+003
5.892258e+002, 1.993370e+003
5.897079e+002, 1.995054e+003
5.901900e+002, 1.996434e+003
5.906721e+002, 1.997583e+003
5.911542e+002, 1.998981e+003
5.916364e+002, 2.000456e+003
5.921185e+002, 2.002517e+003
5.926006e+002, 2.006748e+003
5.930827e+002, 2.012001e+003
5.935648e+002, 2.014364e+003
5.940469e+002, 2.012232e+003
5.945291e+002, 2.008782e+003
5.950112e+002, 2.008570e+003
5.954933e+002, 2.012596e+003
5.959754e+002, 2.015427e+003
5.964575e+002, 2.016061e+003
5.969396e+002, 2.016826e+003
5.974218e+002, 2.018497e+003
5.979039e+002, 2.020840e+003
5.983860e+002, 2.023344e+003
5.988681e+002, 2.025859e+003
5.993502e+002, 2.028857e+003
5.998323e+002, 2.033160e+003
6.003145e+002, 2.038720e+003
6.007966e+002, 2.044151e+003
6.012787e+002, 2.049993e+003
6.017608e+002, 2.054343e+003
6.022429e+002, 2.054818e+003
6.027250e+002, 2.053434e+003
6.032072e+002, 2.053177e+003
6.036893e+002, 2.054607e+003
6.041714e+002, 2.056505e+003
6.046535e+002, 2.058400e+003
6.051356e+002, 2.060317e+003
6.056177e+002, 2.062197e+003
6.060999e+002, 2.064064e+003
6.065820e+002, 2.066213e+003
6.070641e+002, 2.068852e+003
6.075462e+002, 2.071923e+003
6.080283e+002, 2.075226e+003
6.085104e+002, 2.080181e+003
6.089926e+002, 2.083246e+003
6.094747e+002, 2.082569e+003
6.099568e+002, 2.081441e+003
6.104389e+002, 2.082055e+003
6.109210e+002, 2.084389e+003
6.114031e+002, 2.087510e+003
6.118853e+002, 2.091208e+003
6.123674e+002, 2.094716e+003
6.128495e+002, 2.096019e+003
6.133316e+002, 2.094879e+003
6.138137e+002, 2.094500e+003
6.142958e+002, 2.095799e+003
6.147780e+002, 2.097942e+003
6.152601e+002, 2.100480e+003
6.157422e+002, 2.103283e+003
6.162243e+002, 2.105401e+003
6.167064e+002, 2.106165e+003
6.171885e+002, 2.106651e+003
6.176707e+002, 2.107369e+003
6.181528e+002, 2.108333e+003
6.186349e+002, 2.109416e+003
6.191170e+002, 2.110600e+003
6.195991e+002, 2.112376e+003
6.200812e+002, 2.115493e+003
6.205634e+002, 2.120119e+003
6.210455e+002, 2.123648e+003
6.215276e+002, 2.124753e+003
6.220097e+002, 2.126369e+003
6.224918e+002, 2.129913e+003
6.229739e+002, 2.133787e+003
6.234561e+002, 2.136332e+003
6.239382e+002, 2.137232e+003
6.244203e+002, 2.137335e+003
6.249024e+002, 2.136647e+003
6.253845e+002, 2.135774e+003
6.258666e+002, 2.136899e+003
6.263487e+002, 2.140320e+003
6.268308e+002, 2.142520e+003
6.273129e+002, 2.141177e+003
6.277950e+002, 2.138388e+003
6.282772e+002, 2.138502e+003
6.287593e+002, 2.142254e+003
6.292414e+002, 2.144776e+003
6.297235e+002, 2.143471e+003
6.302056e+002, 2.142391e+003
6.306877e+002, 2.144719e+003
6.311699e+002, 2.149548e+003
6.316520e+002, 2.154513e+003
6.321341e+002, 2.158515e+003
6.326162e+002, 2.161708e+003
6.330983e+002, 2.164416e+003
6.335804e+002, 2.166790e+003
6.340626e+002, 2.167909e+003
6.345447e+002, 2.166784e+003
6.350268e+002, 2.165676e+003
6.355089e+002, 2.165800e+003
6.359910e+002, 2.166500e+003
6.364731e+002, 2.166747e+003
6.369553e+002, 2.166226e+003
6.374374e+002, 2.165567e+003
6.379195e+002, 2.165056e+003
6.384016e+002, 2.164763e+003
6.388837e+002, 2.165017e+003
6.393658e+002, 2.165811e+003
6.398480e+002, 2.166290e+003
6.403301e+002, 2.165820e+003
6.408122e+002, 2.164692e+003
6.412943e+002, 2.163889e+003
6.417764e+002, 2.163162e+003
6.422585e+002, 2.163161e+003
6.427407e+002, 2.164762e+003
6.432228e+002, 2.166289e+003
6.437049e+002, 2.166789e+003
6.441870e+002, 2.166309e+003
6.446691e+002, 2.165102e+003
6.451512e+002, 2.163171e+003
6.456334e+002, 2.161233e+003
6.461155e+002, 2.160593e+003
6.465976e+002, 2.161248e+003
6.470797e+002, 2.161809e+003
6.475618e+002, 2.162035e+003
6.480439e+002, 2.162280e+003
6.485261e+002, 2.163538e+003
6.490082e+002, 2.165033e+003
6.494903e+002, 2.164135e+003
6.499724e+002, 2.158378e+003
6.504545e+002, 2.153727e+003
6.509366e+002, 2.153727e+003
6.514188e+002, 2.155438e+003
6.519009e+002, 2.155325e+003
6.523830e+002, 2.153079e+003
6.528651e+002, 2.150415e+003
6.533472e+002, 2.148573e+003
6.538293e+002, 2.147339e+003
6.543115e+002, 2.145802e+003
6.547936e+002, 2.143366e+003
6.552757e+002, 2.142057e+003
6.557578e+002, 2.143889e+003
6.562399e+002, 2.145406e+003
6.567220e+002, 2.144461e+003
6.572042e+002, 2.141575e+003
6.576863e+002, 2.138597e+003
6.581684e+002, 2.136257e+003
6.586505e+002, 2.134012e+003
6.591326e+002, 2.131223e+003
6.596147e+002, 2.128134e+003
6.600969e+002, 2.125491e+003
6.605790e+002, 2.123479e+003
6.610611e+002, 2.121431e+003
6.615432e+002, 2.118691e+003
6.620253e+002, 2.115357e+003
6.625074e+002, 2.112499e+003
6.629896e+002, 2.111048e+003
6.634717e+002, 2.108858e+003
6.639538e+002, 2.104577e+003
6.644359e+002, 2.100391e+003
6.649180e+002, 2.098433e+003
6.654001e+002, 2.098322e+003
6.658823e+002, 2.097938e+003
6.663644e+002, 2.095925e+003
6.668465e+002, 2.092964e+003
6.673286e+002, 2.090394e+003
6.678107e+002, 2.088184e+003
6.682928e+002, 2.084945e+003
6.687750e+002, 2.079893e+003
6.692571e+002, 2.074925e+003
6.697392e+002, 2.072139e+003
6.702213e+002, 2.071273e+003
6.707034e+002, 2.069567e+003
6.711855e+002, 2.066048e+003
6.716677e+002, 2.062805e+003
6.721498e+002, 2.060974e+003
6.726319e+002, 2.059474e+003
6.731140e+002, 2.057387e+003
6.735961e+002, 2.054427e+003
6.740782e+002, 2.050287e+003
6.745604e+002, 2.044511e+003
6.750425e+002, 2.037709e+003
6.755246e+002, 2.031816e+003
6.760067e+002, 2.026931e+003
6.764888e+002, 2.022559e+003
6.769709e+002, 2.018687e+003
6.774531e+002, 2.015227e+003
6.779352e+002, 2.012521e+003
6.784173e+002, 2.010229e+003
6.788994e+002, 2.007083e+003
6.793815e+002, 2.002468e+003
6.798636e+002, 1.997378e+003
6.803458e+002, 1.991776e+003
6.808279e+002, 1.986326e+003
6.813100e+002, 1.982225e+003
6.817921e+002, 1.979582e+003
6.822742e+002, 1.977462e+003
6.827563e+002, 1.975323e+003
6.832385e+002, 1.972802e+003
6.837206e+002, 1.967835e+003
6.842027e+002, 1.958619e+003
6.846848e+002, 1.950886e+003
6.851669e+002, 1.946319e+003
6.856490e+002, 1.942660e+003
6.861312e+002, 1.939017e+003
6.866133e+002, 1.935232e+003
6.870954e+002, 1.931056e+003
6.875775e+002, 1.926270e+003
6.880596e+002, 1.921313e+003
6.885417e+002, 1.916292e+003
6.890239e+002, 1.911463e+003
6.895060e+002, 1.907754e+003
6.899881e+002, 1.905274e+003
6.904702e+002, 1.902581e+003
6.909523e+002, 1.898474e+003
6.914344e+002, 1.893243e+003
6.919166e+002, 1.888225e+003
6.923987e+002, 1.883392e+003
6.928808e+002, 1.878838e+003
6.933629e+002, 1.875168e+003
6.938450e+002, 1.871239e+003
6.943271e+002, 1.865966e+003
6.948093e+002, 1.859848e+003
6.952914e+002, 1.854321e+003
6.957735e+002, 1.850163e+003
6.962556e+002, 1.846306e+003
6.967377e+002, 1.841282e+003
6.972198e+002, 1.835531e+003
6.977020e+002, 1.830613e+003
6.981841e+002, 1.826825e+003
6.986662e+002, 1.823362e+003
6.991483e+002, 1.819719e+003
6.996304e+002, 1.815941e+003
7.001125e+002, 1.812253e+003
7.005947e+002, 1.809036e+003
7.010768e+002, 1.805364e+003
7.015589e+002, 1.800507e+003
7.020410e+002, 1.795884e+003
7.025231e+002, 1.792650e+003
7.030052e+002, 1.790312e+003
7.034874e+002, 1.787590e+003
7.039695e+002, 1.783917e+003
7.044516e+002, 1.780131e+003
7.049337e+002, 1.777819e+003
7.054158e+002, 1.776459e+003
7.058979e+002, 1.773137e+003
7.063801e+002, 1.767326e+003
7.068622e+002, 1.761342e+003
7.073442e+002, 1.756315e+003
7.078264e+002, 1.752123e+003
7.083085e+002, 1.748485e+003
7.087906e+002, 1.745393e+003
7.092727e+002, 1.742786e+003
7.097548e+002, 1.741200e+003
7.102369e+002, 1.739526e+003
7.107191e+002, 1.736996e+003
7.112012e+002, 1.733938e+003
7.116833e+002, 1.731063e+003
7.121654e+002, 1.728606e+003
7.126475e+002, 1.726152e+003
7.131296e+002, 1.723147e+003
7.136118e+002, 1.719703e+003
7.140939e+002, 1.716172e+003
7.145760e+002, 1.712461e+003
7.150581e+002, 1.709559e+003
7.155402e+002, 1.708230e+003
7.160223e+002, 1.707697e+003
7.165045e+002, 1.706732e+003
7.169866e+002, 1.705369e+003
7.174687e+002, 1.703525e+003
7.179508e+002, 1.700149e+003
7.184329e+002, 1.697411e+003
7.189150e+002, 1.696973e+003
7.193972e+002, 1.697604e+003
7.198793e+002, 1.697600e+003
7.203614e+002, 1.696478e+003
7.208435e+002, 1.694665e+003
7.213256e+002, 1.692303e+003
7.218077e+002, 1.689635e+003
7.222899e+002, 1.687832e+003
7.227720e+002, 1.687025e+003
7.232541e+002, 1.685796e+003
7.237362e+002, 1.683479e+003
7.242183e+002, 1.680884e+003
7.247004e+002, 1.678779e+003
7.251826e+002, 1.677163e+003
7.256647e+002, 1.676517e+003
7.261468e+002, 1.678061e+003
7.266289e+002, 1.679164e+003
7.271110e+002, 1.678513e+003
7.275931e+002, 1.677152e+003
7.280753e+002, 1.676368e+003
7.285574e+002, 1.676222e+003
7.290395e+002, 1.675713e+003
7.295216e+002, 1.673863e+003
7.300037e+002, 1.671626e+003
7.304858e+002, 1.671764e+003
7.309680e+002, 1.674416e+003
7.314501e+002, 1.675093e+003
7.319322e+002, 1.672190e+003
7.324143e+002, 1.668869e+003
7.328964e+002, 1.667831e+003
7.333785e+002, 1.668605e+003
7.338607e+002, 1.668516e+003
7.343428e+002, 1.666227e+003
7.348249e+002, 1.665127e+003
7.353070e+002, 1.667202e+003
7.357891e+002, 1.669670e+003
7.362712e+002, 1.669978e+003
7.367534e+002, 1.668631e+003
7.372355e+002, 1.667715e+003
7.377176e+002, 1.668297e+003
7.381997e+002, 1.669370e+003
7.386818e+002, 1.669277e+003
7.391639e+002, 1.668188e+003
7.396461e+002, 1.667661e+003
7.401282e+002, 1.667777e+003
7.406103e+002, 1.668751e+003
7.410924e+002, 1.671171e+003
7.415745e+002, 1.674204e+003
7.420566e+002, 1.675836e+003
7.425388e+002, 1.675485e+003
7.430209e+002, 1.675898e+003
7.435030e+002, 1.677764e+003
7.439851e+002, 1.679965e+003
7.444672e+002, 1.682425e+003
7.449493e+002, 1.684638e+003
7.454315e+002, 1.685651e+003
7.459136e+002, 1.685315e+003
7.463957e+002, 1.684970e+003
7.468778e+002, 1.686161e+003
7.473599e+002, 1.688305e+003
7.478420e+002, 1.689426e+003
7.483242e+002, 1.689486e+003
7.488063e+002, 1.690111e+003
7.492884e+002, 1.692071e+003
7.497705e+002, 1.694207e+003
7.502526e+002, 1.694970e+003
7.507347e+002, 1.694220e+003
7.512169e+002, 1.694724e+003
7.516990e+002, 1.697793e+003
7.521811e+002, 1.700297e+003
7.526632e+002, 1.700853e+003
7.531453e+002, 1.701070e+003
7.536274e+002, 1.702403e+003
7.541096e+002, 1.704864e+003
7.545917e+002, 1.707812e+003
7.550738e+002, 1.711328e+003
7.555559e+002, 1.714259e+003
7.560380e+002, 1.714185e+003
7.565201e+002, 1.711971e+003
7.570023e+002, 1.711518e+003
7.574844e+002, 1.713526e+003
7.579665e+002, 1.716242e+003
7.584486e+002, 1.718490e+003
7.589307e+002, 1.720463e+003
7.594128e+002, 1.722819e+003
7.598950e+002, 1.725713e+003
7.603771e+002, 1.728728e+003
7.608592e+002, 1.731988e+003
7.613413e+002, 1.735203e+003
7.618234e+002, 1.737987e+003
7.623055e+002, 1.740712e+003
7.627877e+002, 1.744214e+003
7.632698e+002, 1.748765e+003
7.637519e+002, 1.752867e+003
7.642340e+002, 1.754765e+003
7.647161e+002, 1.755852e+003
7.651982e+002, 1.758521e+003
7.656804e+002, 1.762579e+003
7.661625e+002, 1.766333e+003
7.666446e+002, 1.769138e+003
7.671267e+002, 1.771508e+003
7.676088e+002, 1.774017e+003
7.680909e+002, 1.776668e+003
7.685731e+002, 1.779942e+003
7.690552e+002, 1.784751e+003
7.695373e+002, 1.788690e+003
7.700194e+002, 1.790705e+003
7.705015e+002, 1.792110e+003
7.709836e+002, 1.793570e+003
7.714658e+002, 1.795251e+003
7.719479e+002, 1.797589e+003
7.724300e+002, 1.801109e+003
7.729121e+002, 1.804828e+003
7.733942e+002, 1.807838e+003
7.738763e+002, 1.810699e+003
7.743585e+002, 1.814723e+003
7.748406e+002, 1.819753e+003
7.753227e+002, 1.823828e+003
7.758048e+002, 1.825564e+003
7.762869e+002, 1.826088e+003
7.767690e+002, 1.828190e+003
7.772512e+002, 1.832220e+003
7.777333e+002, 1.835513e+003
7.782154e+002, 1.837408e+003
7.786975e+002, 1.839478e+003
7.791796e+002, 1.842199e+003
7.796617e+002, 1.845807e+003
7.801439e+002, 1.850991e+003
7.806260e+002, 1.858338e+003
7.811081e+002, 1.864570e+003
7.815902e+002, 1.868832e+003
7.820723e+002, 1.871779e+003
7.825544e+002, 1.872663e+003
7.830366e+002, 1.872938e+003
7.835187e+002, 1.875117e+003
7.840008e+002, 1.879690e+003
7.844829e+002, 1.884760e+003
7.849650e+002, 1.888649e+003
7.854471e+002, 1.891659e+003
7.859293e+002, 1.894573e+003
7.864114e+002, 1.897378e+003
7.868935e+002, 1.900153e+003
7.873756e+002, 1.902763e+003
7.878577e+002, 1.905812e+003
7.883398e+002, 1.909822e+003
7.888220e+002, 1.914764e+003
7.893041e+002, 1.920199e+003
7.897861e+002, 1.927776e+003
7.902682e+002, 1.933505e+003
7.907504e+002, 1.936512e+003
7.912325e+002, 1.938134e+003
7.917146e+002, 1.938326e+003
7.921967e+002, 1.938020e+003
7.926788e+002, 1.939092e+003
7.931609e+002, 1.942370e+003
7.936431e+002, 1.945695e+003
7.941252e+002, 1.947286e+003
7.946073e+002, 1.947581e+003
7.950894e+002, 1.946747e+003
7.955715e+002, 1.945136e+003
7.960536e+002, 1.945039e+003
7.965358e+002, 1.947509e+003
7.970179e+002, 1.950629e+003
7.975000e+002, 1.951614e+003
7.979821e+002, 1.950326e+003
7.984642e+002, 1.950333e+003
7.989464e+002, 1.952707e+003
7.994285e+002, 1.954422e+003
7.999106e+002, 1.954386e+003
8.003927e+002, 1.953692e+003
8.008748e+002, 1.952755e+003
8.013569e+002, 1.951782e+003
8.018391e+002, 1.951569e+003
8.023212e+002, 1.952585e+003
8.028033e+002, 1.954041e+003
8.032854e+002, 1.956064e+003
8.037675e+002, 1.957980e+003
8.042496e+002, 1.958804e+003
8.047318e+002, 1.958711e+003
8.052139e+002, 1.958565e+003
8.056960e+002, 1.958815e+003
8.061781e+002, 1.959497e+003
8.066602e+002, 1.961193e+003
8.071423e+002, 1.963711e+003
8.076245e+002, 1.964136e+003
8.081066e+002, 1.962096e+003
8.085887e+002, 1.959194e+003
8.090708e+002, 1.955912e+003
8.095529e+002, 1.952444e+003
8.100350e+002, 1.949052e+003
8.105172e+002, 1.945723e+003
8.109993e+002, 1.942587e+003
8.114814e+002, 1.939414e+003
8.119635e+002, 1.936736e+003
8.124456e+002, 1.934442e+003
8.129277e+002, 1.932903e+003
8.134099e+002, 1.932984e+003
8.138920e+002, 1.934284e+003
8.143741e+002, 1.935176e+003
8.148562e+002, 1.934956e+003
8.153383e+002, 1.933802e+003
8.158204e+002, 1.931563e+003
8.163026e+002, 1.928609e+003
8.167847e+002, 1.925517e+003
8.172668e+002, 1.922457e+003
8.177489e+002, 1.920258e+003
8.182310e+002, 1.919533e+003
8.187131e+002, 1.919046e+003
8.191953e+002, 1.916122e+003
8.196774e+002, 1.910148e+003
8.201595e+002, 1.905590e+003
8.206416e+002, 1.903096e+003
8.211237e+002, 1.900721e+003
8.216058e+002, 1.898405e+003
8.220880e+002, 1.895365e+003
8.225701e+002, 1.890462e+003
8.230522e+002, 1.883753e+003
8.235343e+002, 1.877317e+003
8.240164e+002, 1.871697e+003
8.244985e+002, 1.866310e+003
8.249807e+002, 1.860292e+003
8.254628e+002, 1.854749e+003
8.259449e+002, 1.851392e+003
8.264270e+002, 1.849844e+003
8.269091e+002, 1.848323e+003
8.273912e+002, 1.845993e+003
8.278734e+002, 1.842441e+003
8.283555e+002, 1.836053e+003
8.288376e+002, 1.827831e+003
8.293197e+002, 1.822457e+003
8.298018e+002, 1.820385e+003
8.302839e+002, 1.817775e+003
8.307661e+002, 1.812592e+003
8.312482e+002, 1.806350e+003
8.317303e+002, 1.801656e+003
8.322124e+002, 1.798977e+003
8.326945e+002, 1.794555e+003
8.331766e+002, 1.786599e+003
8.336588e+002, 1.779517e+003
8.341409e+002, 1.774698e+003
8.346230e+002, 1.770794e+003
8.351051e+002, 1.767297e+003
8.355872e+002, 1.763814e+003
8.360693e+002, 1.758786e+003
8.365515e+002, 1.750223e+003
8.370336e+002, 1.742464e+003
8.375157e+002, 1.738979e+003
8.379978e+002, 1.736800e+003
8.384799e+002, 1.732789e+003
8.389620e+002, 1.726774e+003
8.394442e+002, 1.719268e+003
8.399263e+002, 1.710510e+003
8.404084e+002, 1.701971e+003
8.408905e+002, 1.695954e+003
8.413726e+002, 1.692072e+003
8.418547e+002, 1.688445e+003
8.423369e+002, 1.685130e+003
8.428190e+002, 1.680957e+003
8.433011e+002, 1.675491e+003
8.437832e+002, 1.669113e+003
8.442653e+002, 1.662083e+003
8.447474e+002, 1.654420e+003
8.452296e+002, 1.647614e+003
8.457117e+002, 1.642426e+003
8.461938e+002, 1.637013e+003
8.466759e+002, 1.630744e+003
8.471580e+002, 1.624622e+003
8.476401e+002, 1.619630e+003
8.481223e+002, 1.615180e+003
8.486044e+002, 1.609661e+003
8.490865e+002, 1.602254e+003
8.495686e+002, 1.595636e+003
8.500507e+002, 1.592282e+003
8.505328e+002, 1.589573e+003
8.510150e+002, 1.584722e+003
8.514971e+002, 1.578290e+003
8.519792e+002, 1.571961e+003
8.524613e+002, 1.566273e+003
8.529434e+002, 1.560420e+003
8.534255e+002, 1.553472e+003
8.539077e+002, 1.545992e+003
8.543898e+002, 1.540069e+003
8.548719e+002, 1.535691e+003
8.553540e+002, 1.530804e+003
8.558361e+002, 1.524893e+003
8.563182e+002, 1.518937e+003
8.568004e+002, 1.513629e+003
8.572825e+002, 1.508895e+003
8.577646e+002, 1.504570e+003
8.582467e+002, 1.501722e+003
8.587288e+002, 1.496943e+003
8.592109e+002, 1.488358e+003
8.596931e+002, 1.480089e+003
8.601752e+002, 1.473788e+003
8.606573e+002, 1.468447e+003
8.611394e+002, 1.462671e+003
8.616215e+002, 1.456351e+003
8.621036e+002, 1.450752e+003
8.625858e+002, 1.447475e+003
8.630679e+002, 1.443850e+003
8.635500e+002, 1.437443e+003
8.640321e+002, 1.429899e+003
8.645142e+002, 1.423566e+003
8.649963e+002, 1.418564e+003
8.654785e+002, 1.413995e+003
8.659606e+002, 1.409418e+003
8.664427e+002, 1.404351e+003
8.669248e+002, 1.397633e+003
8.674069e+002, 1.389706e+003
8.678890e+002, 1.382842e+003
8.683712e+002, 1.377191e+003
8.688533e+002, 1.372473e+003
8.693354e+002, 1.368877e+003
8.698175e+002, 1.364976e+003
8.702996e+002, 1.358661e+003
8.707817e+002, 1.349885e+003
8.712639e+002, 1.342718e+003
8.717460e+002, 1.338366e+003
8.722280e+002, 1.333497e+003
8.727101e+002, 1.327083e+003
8.731923e+002, 1.320503e+003
8.736744e+002, 1.314699e+003
8.741565e+002, 1.309374e+003
8.746386e+002, 1.303563e+003
8.751207e+002, 1.296901e+003
8.756028e+002, 1.290545e+003
8.760850e+002, 1.285310e+003
8.765671e+002, 1.280171e+003
8.770492e+002, 1.274232e+003
8.775313e+002, 1.267909e+003
8.780134e+002, 1.262147e+003
8.784955e+002, 1.257051e+003
8.789777e+002, 1.251511e+003
8.794598e+002, 1.244285e+003
8.799419e+002, 1.236567e+003
8.804240e+002, 1.230279e+003
8.809061e+002, 1.225169e+003
8.813882e+002, 1.220594e+003
8.818704e+002, 1.216390e+003
8.823525e+002, 1.211697e+003
8.828346e+002, 1.205863e+003
8.833167e+002, 1.199783e+003
8.837988e+002, 1.195649e+003
8.842809e+002, 1.193912e+003
8.847631e+002, 1.190631e+003
8.852452e+002, 1.185498e+003
8.857273e+002, 1.179520e+003
8.862094e+002, 1.172718e+003
8.866915e+002, 1.165529e+003
8.871736e+002, 1.158020e+003
8.876558e+002, 1.150299e+003
8.881379e+002, 1.143705e+003
8.886200e+002, 1.138554e+003
8.891021e+002, 1.134141e+003
8.895842e+002, 1.131080e+003
8.900663e+002, 1.128000e+003
8.905485e+002, 1.124309e+003
8.910306e+002, 1.119792e+003
8.915127e+002, 1.113994e+003
8.919948e+002, 1.106698e+003
8.924769e+002, 1.099557e+003
8.929590e+002, 1.093962e+003
8.934412e+002, 1.088753e+003
8.939233e+002, 1.082583e+003
8.944054e+002, 1.075886e+003
8.948875e+002, 1.069750e+003
8.953696e+002, 1.064372e+003
8.958517e+002, 1.059062e+003
8.963339e+002, 1.053274e+003
8.968160e+002, 1.047491e+003
8.972981e+002, 1.042888e+003
8.977802e+002, 1.039339e+003
8.982623e+002, 1.035543e+003
8.987444e+002, 1.031432e+003
8.992266e+002, 1.026375e+003
8.997087e+002, 1.019739e+003
9.001908e+002, 1.012897e+003
9.006729e+002, 1.008047e+003
9.011550e+002, 1.005324e+003
9.016371e+002, 1.001412e+003
9.021193e+002, 9.955576e+002
9.026014e+002, 9.898624e+002
9.030835e+002, 9.845334e+002
9.035656e+002, 9.796526e+002
9.040477e+002, 9.756055e+002
9.045298e+002, 9.720189e+002
9.050120e+002, 9.679515e+002
9.054941e+002, 9.630938e+002
9.059762e+002, 9.584215e+002
9.064583e+002, 9.547861e+002
9.069404e+002, 9.507852e+002
9.074225e+002, 9.452618e+002
9.079047e+002, 9.390784e+002
9.083868e+002, 9.332584e+002
9.088689e+002, 9.280734e+002
9.093510e+002, 9.234654e+002
9.098331e+002, 9.195655e+002
9.103152e+002, 9.160181e+002
9.107974e+002, 9.128598e+002
9.112795e+002, 9.096027e+002
9.117616e+002, 9.049766e+002
9.122437e+002, 8.992469e+002
9.127258e+002, 8.941224e+002
9.132079e+002, 8.904144e+002
9.136901e+002, 8.872596e+002
9.141722e+002, 8.835400e+002
9.146543e+002, 8.793392e+002
9.151364e+002, 8.747584e+002
9.156185e+002, 8.697353e+002
9.161006e+002, 8.661437e+002
9.165828e+002, 8.647509e+002
9.170649e+002, 8.633588e+002
9.175470e+002, 8.600693e+002
9.180291e+002, 8.553888e+002
9.185112e+002, 8.511422e+002
9.189933e+002, 8.474207e+002
9.194755e+002, 8.438592e+002
9.199576e+002, 8.408883e+002
9.204397e+002, 8.374695e+002
9.209218e+002, 8.327966e+002
9.214039e+002, 8.277344e+002
9.218860e+002, 8.231092e+002
9.223682e+002, 8.189496e+002
9.228503e+002, 8.153605e+002
9.233324e+002, 8.126488e+002
9.238145e+002, 8.101154e+002
9.242966e+002, 8.076204e+002
9.247787e+002, 8.051910e+002
9.252609e+002, 8.028801e+002
9.257430e+002, 8.006518e+002
9.262251e+002, 7.986842e+002
9.267072e+002, 7.970598e+002
9.271893e+002, 7.944727e+002
9.276714e+002, 7.889509e+002
9.281536e+002, 7.830552e+002
9.286357e+002, 7.793840e+002
9.291178e+002, 7.772538e+002
9.295999e+002, 7.753796e+002
9.300820e+002, 7.734418e+002
9.305641e+002, 7.716096e+002
9.310463e+002, 7.700760e+002
9.315284e+002, 7.682205e+002
9.320105e+002, 7.646462e+002
9.324926e+002, 7.598988e+002
9.329747e+002, 7.564688e+002
9.334568e+002, 7.544010e+002
9.339390e+002, 7.517269e+002
9.344211e+002, 7.476510e+002
9.349032e+002, 7.437502e+002
9.353853e+002, 7.418791e+002
9.358674e+002, 7.416141e+002
9.363495e+002, 7.404744e+002
9.368317e+002, 7.383615e+002
9.373138e+002, 7.357134e+002
9.377959e+002, 7.322401e+002
9.382780e+002, 7.289776e+002
9.387601e+002, 7.265723e+002
9.392422e+002, 7.246176e+002
9.397244e+002, 7.223549e+002
9.402065e+002, 7.196914e+002
9.406886e+002, 7.172569e+002
9.411707e+002, 7.151035e+002
9.416528e+002, 7.130753e+002
9.421349e+002, 7.112493e+002
9.426171e+002, 7.094349e+002
9.430992e+002, 7.074527e+002
9.435813e+002, 7.053727e+002
9.440634e+002, 7.033947e+002
9.445455e+002, 7.015342e+002
9.450276e+002, 6.998658e+002
9.455098e+002, 6.990785e+002
9.459919e+002, 6.977896e+002
9.464740e+002, 6.945668e+002
9.469561e+002, 6.905883e+002
9.474382e+002, 6.873354e+002
9.479203e+002, 6.850613e+002
9.484025e+002, 6.834318e+002
9.488846e+002, 6.825656e+002
9.493667e+002, 6.815137e+002
9.498488e+002, 6.789921e+002
9.503309e+002, 6.759048e+002
9.508130e+002, 6.735468e+002
9.512952e+002, 6.719217e+002
9.517773e+002, 6.706980e+002
9.522594e+002, 6.697269e+002
9.527415e+002, 6.688158e+002
9.532236e+002, 6.678304e+002
9.537057e+002, 6.666980e+002
9.541879e+002, 6.650717e+002
9.546699e+002, 6.630760e+002
9.551520e+002, 6.617691e+002
9.556342e+002, 6.612867e+002
9.561163e+002, 6.600587e+002
9.565984e+002, 6.571133e+002
9.570805e+002, 6.536634e+002
9.575626e+002, 6.517145e+002
9.580447e+002, 6.512272e+002
9.585269e+002, 6.505763e+002
9.590090e+002, 6.497985e+002
9.594911e+002, 6.486664e+002
9.599732e+002, 6.470093e+002
9.604553e+002, 6.452870e+002
9.609374e+002, 6.439239e+002
9.614196e+002, 6.427142e+002
9.619017e+002, 6.410573e+002
9.623838e+002, 6.387612e+002
9.628659e+002, 6.365828e+002
9.633480e+002, 6.338955e+002
9.638301e+002, 6.321859e+002
9.643123e+002, 6.327924e+002
9.647944e+002, 6.337313e+002
9.652765e+002, 6.331680e+002
9.657586e+002, 6.313932e+002
9.662407e+002, 6.299305e+002
9.667228e+002, 6.289672e+002
9.672050e+002, 6.283121e+002
9.676871e+002, 6.287728e+002
9.681692e+002, 6.286168e+002
9.686513e+002, 6.262763e+002
9.691334e+002, 6.230530e+002
9.696155e+002, 6.206573e+002
9.700977e+002, 6.192800e+002
9.705798e+002, 6.181472e+002
9.710619e+002, 6.168504e+002
9.715440e+002, 6.158500e+002
9.720261e+002, 6.157835e+002
9.725082e+002, 6.158920e+002
9.729904e+002, 6.155430e+002
9.734725e+002, 6.146417e+002
9.739546e+002, 6.129094e+002
9.744367e+002, 6.103885e+002
9.749188e+002, 6.082307e+002
9.754009e+002, 6.075719e+002
9.758831e+002, 6.075307e+002
9.763652e+002, 6.067993e+002
9.768473e+002, 6.058228e+002
9.773294e+002, 6.058498e+002
9.778115e+002, 6.067264e+002
9.782936e+002, 6.069095e+002
9.787758e+002, 6.056686e+002
9.792579e+002, 6.040143e+002
9.797400e+002, 6.032552e+002
9.802221e+002, 6.030760e+002
9.807042e+002, 6.024058e+002
9.811863e+002, 6.013141e+002
9.816685e+002, 6.004140e+002
9.821506e+002, 5.998322e+002
9.826327e+002, 5.988904e+002
9.831148e+002, 5.970595e+002
9.835969e+002, 5.950653e+002
9.840790e+002, 5.945023e+002
9.845612e+002, 5.953898e+002
9.850433e+002, 5.950215e+002
9.855254e+002, 5.930749e+002
9.860075e+002, 5.918610e+002
9.864896e+002, 5.921524e+002
9.869717e+002, 5.927808e+002
9.874539e+002, 5.928875e+002
9.879360e+002, 5.925170e+002
9.884181e+002, 5.917740e+002
9.889002e+002, 5.905120e+002
9.893823e+002, 5.893802e+002
9.898644e+002, 5.883326e+002
9.903466e+002, 5.874939e+002
9.908287e+002, 5.868662e+002
9.913108e+002, 5.865028e+002
9.917929e+002, 5.865428e+002
9.922750e+002, 5.869161e+002
9.927571e+002, 5.872166e+002
9.932393e+002, 5.878685e+002
9.937214e+002, 5.876974e+002
9.942035e+002, 5.856726e+002
9.946856e+002, 5.840431e+002
9.951677e+002, 5.841107e+002
9.956498e+002, 5.847079e+002
9.961320e+002, 5.844850e+002
9.966141e+002, 5.835173e+002
9.970962e+002, 5.828972e+002
9.975783e+002, 5.830885e+002
9.980604e+002, 5.832022e+002
9.985425e+002, 5.828346e+002
9.990247e+002, 5.825048e+002
9.995068e+002, 5.825060e+002
9.999889e+002, 5.827649e+002
1.000471e+003, 5.833991e+002
1.000953e+003, 5.842813e+002
1.001435e+003, 5.844208e+002
1.001917e+003, 5.828716e+002
1.002399e+003, 5.813009e+002
1.002882e+003, 5.805963e+002
1.003364e+003, 5.803021e+002
1.003846e+003, 5.801708e+002
1.004328e+003, 5.800516e+002
1.004810e+003, 5.796558e+002
1.005292e+003, 5.789672e+002
1.005774e+003, 5.785077e+002
1.006256e+003, 5.788900e+002
1.006739e+003, 5.792599e+002
1.007221e+003, 5.784225e+002
1.007703e+003, 5.773214e+002
1.008185e+003, 5.775436e+002
1.008667e+003, 5.787309e+002
1.009149e+003, 5.793758e+002
1.009631e+003, 5.789943e+002
1.010113e+003, 5.786249e+002
1.010595e+003, 5.794385e+002
1.011078e+003, 5.805010e+002
1.011560e+003, 5.803954e+002
1.012042e+003, 5.794318e+002
1.012524e+003, 5.780961e+002
1.013006e+003, 5.766082e+002
1.013488e+003, 5.753873e+002
1.013970e+003, 5.746257e+002
1.014452e+003, 5.746659e+002
1.014935e+003, 5.764360e+002
1.015417e+003, 5.788593e+002
1.015899e+003, 5.787812e+002
1.016381e+003, 5.768294e+002
1.016863e+003, 5.760720e+002
1.017345e+003, 5.768729e+002
1.017827e+003, 5.777748e+002
1.018309e+003, 5.780502e+002
1.018791e+003, 5.777482e+002
1.019274e+003, 5.767172e+002
1.019756e+003, 5.752346e+002
1.020238e+003, 5.747686e+002
1.020720e+003, 5.752786e+002
1.021202e+003, 5.755389e+002
1.021684e+003, 5.753250e+002
1.022166e+003, 5.750722e+002
1.022648e+003, 5.749796e+002
1.023130e+003, 5.752614e+002
1.023613e+003, 5.764769e+002
1.024095e+003, 5.785013e+002
1.024577e+003, 5.789797e+002
1.025059e+003, 5.776328e+002
1.025541e+003, 5.771590e+002
1.026023e+003, 5.782507e+002
1.026505e+003, 5.793404e+002
1.026987e+003, 5.794144e+002
1.027469e+003, 5.789617e+002
1.027952e+003, 5.788733e+002
1.028434e+003, 5.791598e+002
1.028916e+003, 5.795491e+002
1.029398e+003, 5.801973e+002
1.029880e+003, 5.803674e+002
1.030362e+003, 5.797747e+002
1.030844e+003, 5.790198e+002
1.031326e+003, 5.784103e+002
1.031809e+003, 5.779933e+002
1.032291e+003, 5.778663e+002
1.032773e+003, 5.780502e+002
1.033255e+003, 5.783888e+002
1.033737e+003, 5.788676e+002
1.034219e+003, 5.795964e+002
1.034701e+003, 5.809973e+002
1.035183e+003, 5.820296e+002
1.035666e+003, 5.816556e+002
1.036148e+003, 5.806526e+002
1.036630e+003, 5.807734e+002
1.037112e+003, 5.823675e+002
1.037594e+003, 5.830814e+002
1.038076e+003, 5.821015e+002
1.038558e+003, 5.815229e+002
1.039040e+003, 5.817864e+002
1.039522e+003, 5.824454e+002
1.040005e+003, 5.833780e+002
1.040487e+003, 5.844501e+002
1.040969e+003, 5.854113e+002
1.041451e+003, 5.862919e+002
1.041933e+003, 5.869042e+002
1.042415e+003, 5.870673e+002
1.042897e+003, 5.872185e+002
1.043379e+003, 5.877365e+002
1.043861e+003, 5.879791e+002
1.044344e+003, 5.870438e+002
1.044826e+003, 5.857088e+002
1.045308e+003, 5.855804e+002
1.045790e+003, 5.869427e+002
1.046272e+003, 5.882328e+002
1.046754e+003, 5.897759e+002
1.047236e+003, 5.905653e+002
1.047718e+003, 5.894825e+002
1.048201e+003, 5.884208e+002
1.048683e+003, 5.886942e+002
1.049165e+003, 5.899103e+002
1.049647e+003, 5.914928e+002
1.050129e+003, 5.934776e+002
1.050611e+003, 5.944543e+002
1.051093e+003, 5.931495e+002
1.051575e+003, 5.921463e+002
1.052057e+003, 5.920011e+002
1.052540e+003, 5.926118e+002
1.053022e+003, 5.946020e+002
1.053504e+003, 5.969999e+002
1.053986e+003, 5.979063e+002
1.054468e+003, 5.970138e+002
1.054950e+003, 5.965538e+002
1.055432e+003, 5.975397e+002
1.055914e+003, 5.984739e+002
1.056396e+003, 5.986145e+002
1.056879e+003, 5.987462e+002
1.057361e+003, 5.995988e+002
1.057843e+003, 6.008095e+002
1.058325e+003, 6.017643e+002
1.058807e+003, 6.023615e+002
1.059289e+003, 6.026298e+002
1.059771e+003, 6.019174e+002
1.060253e+003, 6.017769e+002
1.060736e+003, 6.034205e+002
1.061218e+003, 6.052494e+002
1.061700e+003, 6.059218e+002
1.062182e+003, 6.059873e+002
1.062664e+003, 6.064609e+002
1.063146e+003, 6.074921e+002
1.063628e+003, 6.086080e+002
1.064110e+003, 6.099299e+002
1.064593e+003, 6.108971e+002
1.065075e+003, 6.111920e+002
1.065557e+003, 6.111351e+002
1.066039e+003, 6.106566e+002
1.066521e+003, 6.101526e+002
1.067003e+003, 6.101304e+002
1.067485e+003, 6.106768e+002
1.067967e+003, 6.117216e+002
1.068449e+003, 6.137084e+002
1.068932e+003, 6.153653e+002
1.069414e+003, 6.156946e+002
1.069896e+003, 6.159142e+002
1.070378e+003, 6.172596e+002
1.070860e+003, 6.189041e+002
1.071342e+003, 6.193261e+002
1.071824e+003, 6.186221e+002
1.072306e+003, 6.186809e+002
1.072788e+003, 6.206013e+002
1.073271e+003, 6.224301e+002
1.073753e+003, 6.228354e+002
1.074235e+003, 6.232621e+002
1.074717e+003, 6.251544e+002
1.075199e+003, 6.274606e+002
1.075681e+003, 6.288147e+002
1.076163e+003, 6.291263e+002
1.076645e+003, 6.288546e+002
1.077128e+003, 6.276963e+002
1.077610e+003, 6.274680e+002
1.078092e+003, 6.299176e+002
1.078574e+003, 6.325973e+002
1.079056e+003, 6.337656e+002
1.079538e+003, 6.342920e+002
1.080020e+003, 6.353704e+002
1.080502e+003, 6.369047e+002
1.080984e+003, 6.380254e+002
1.081467e+003, 6.383847e+002
1.081949e+003, 6.387247e+002
1.082431e+003, 6.390222e+002
1.082913e+003, 6.398183e+002
1.083395e+003, 6.418870e+002
1.083877e+003, 6.442804e+002
1.084359e+003, 6.461706e+002
1.084841e+003, 6.474534e+002
1.085323e+003, 6.478801e+002
1.085806e+003, 6.471793e+002
1.086288e+003, 6.477126e+002
1.086770e+003, 6.517457e+002
1.087252e+003, 6.556826e+002
1.087734e+003, 6.577751e+002
1.088216e+003, 6.588391e+002
1.088698e+003, 6.594344e+002
1.089180e+003, 6.597264e+002
1.089662e+003, 6.596135e+002
1.090145e+003, 6.590733e+002
1.090627e+003, 6.594123e+002
1.091109e+003, 6.618965e+002
1.091591e+003, 6.643316e+002
1.092073e+003, 6.658318e+002
1.092555e+003, 6.668736e+002
1.093037e+003, 6.676639e+002
1.093519e+003, 6.683326e+002
1.094002e+003, 6.690225e+002
1.094484e+003, 6.697541e+002
1.094966e+003, 6.704727e+002
1.095448e+003, 6.706417e+002
1.095930e+003, 6.715616e+002
1.096412e+003, 6.742042e+002
1.096894e+003, 6.771377e+002
1.097376e+003, 6.797421e+002
1.097859e+003, 6.819255e+002
1.098341e+003, 6.836565e+002
1.098823e+003, 6.849315e+002
1.099305e+003, 6.857342e+002
1.099787e+003, 6.854993e+002
1.100269e+003, 6.859720e+002
1.100751e+003, 6.883198e+002
1.101233e+003, 6.906162e+002
1.101715e+003, 6.916069e+002
1.102198e+003, 6.923141e+002
1.102680e+003, 6.940033e+002
1.103162e+003, 6.964166e+002
1.103644e+003, 6.982296e+002
1.104126e+003, 6.989005e+002
1.104608e+003, 7.001209e+002
1.105090e+003, 7.025397e+002
1.105572e+003, 7.050964e+002
1.106054e+003, 7.073936e+002
1.106537e+003, 7.097202e+002
1.107019e+003, 7.126782e+002
1.107501e+003, 7.157859e+002
1.107983e+003, 7.176481e+002
1.108465e+003, 7.177754e+002
1.108947e+003, 7.189352e+002
1.109429e+003, 7.225432e+002
1.109911e+003, 7.255242e+002
1.110394e+003, 7.270328e+002
1.110876e+003, 7.279718e+002
1.111358e+003, 7.285264e+002
1.111840e+003, 7.290309e+002
1.112322e+003, 7.300089e+002
1.112804e+003, 7.314737e+002
1.113286e+003, 7.331678e+002
1.113768e+003, 7.351830e+002
1.114250e+003, 7.372567e+002
1.114733e+003, 7.391486e+002
1.115215e+003, 7.414257e+002
1.115697e+003, 7.450130e+002
1.116179e+003, 7.484608e+002
1.116661e+003, 7.496547e+002
1.117143e+003, 7.490632e+002
1.117625e+003, 7.501960e+002
1.118107e+003, 7.539431e+002
1.118589e+003, 7.572877e+002
1.119072e+003, 7.600166e+002
1.119554e+003, 7.627097e+002
1.120036e+003, 7.654319e+002
1.120518e+003, 7.684305e+002
1.121000e+003, 7.721494e+002
1.121482e+003, 7.761682e+002
1.121964e+003, 7.791960e+002
1.122446e+003, 7.810899e+002
1.122929e+003, 7.827042e+002
1.123411e+003, 7.836876e+002
1.123893e+003, 7.857205e+002
1.124375e+003, 7.895203e+002
1.124857e+003, 7.932471e+002
1.125339e+003, 7.955276e+002
1.125821e+003, 7.974960e+002
1.126303e+003, 8.012504e+002
1.126786e+003, 8.066390e+002
1.127268e+003, 8.109069e+002
1.127750e+003, 8.139570e+002
1.128232e+003, 8.164518e+002
1.128714e+003, 8.183649e+002
1.129196e+003, 8.205052e+002
1.129678e+003, 8.232980e+002
1.130160e+003, 8.259740e+002
1.130642e+003, 8.274387e+002
1.131125e+003, 8.284125e+002
1.131607e+003, 8.317768e+002
1.132089e+003, 8.373528e+002
1.132571e+003, 8.419657e+002
1.133053e+003, 8.454623e+002
1.133535e+003, 8.479078e+002
1.134017e+003, 8.493326e+002
1.134499e+003, 8.514072e+002
1.134981e+003, 8.555242e+002
1.135464e+003, 8.605506e+002
1.135946e+003, 8.642468e+002
1.136428e+003, 8.671106e+002
1.136910e+003, 8.713090e+002
1.137392e+003, 8.765243e+002
1.137874e+003, 8.809985e+002
1.138356e+003, 8.845192e+002
1.138838e+003, 8.882086e+002
1.139321e+003, 8.926619e+002
1.139803e+003, 8.970100e+002
1.140285e+003, 9.003323e+002
1.140767e+003, 9.029199e+002
1.141249e+003, 9.047274e+002
1.141731e+003, 9.064791e+002
1.142213e+003, 9.099754e+002
1.142695e+003, 9.149767e+002
1.143177e+003, 9.203484e+002
1.143660e+003, 9.255861e+002
1.144142e+003, 9.298902e+002
1.144624e+003, 9.321561e+002
1.145106e+003, 9.346304e+002
1.145588e+003, 9.405205e+002
1.146070e+003, 9.473011e+002
1.146552e+003, 9.518790e+002
1.147034e+003, 9.548587e+002
1.147516e+003, 9.572928e+002
1.147999e+003, 9.596804e+002
1.148481e+003, 9.627802e+002
1.148963e+003, 9.669690e+002
1.149445e+003, 9.715826e+002
1.149927e+003, 9.762795e+002
1.150409e+003, 9.811597e+002
1.150891e+003, 9.866530e+002
1.151373e+003, 9.920654e+002
1.151856e+003, 9.961124e+002
1.152338e+003, 9.995931e+002
1.152820e+003, 1.004795e+003
1.153302e+003, 1.012179e+003
1.153784e+003, 1.018524e+003
1.154266e+003, 1.022003e+003
1.154748e+003, 1.025374e+003
1.155230e+003, 1.029001e+003
1.155713e+003, 1.033393e+003
1.156195e+003, 1.039881e+003
1.156677e+003, 1.046687e+003
1.157159e+003, 1.051061e+003
1.157641e+003, 1.053396e+003
1.158123e+003, 1.057307e+003
1.158605e+003, 1.063999e+003
1.159087e+003, 1.070503e+003
1.159569e+003, 1.076832e+003
1.160052e+003, 1.082720e+003
1.160534e+003, 1.087657e+003
1.161016e+003, 1.092697e+003
1.161498e+003, 1.098938e+003
1.161980e+003, 1.105618e+003
1.162462e+003, 1.110864e+003
1.162944e+003, 1.114417e+003
1.163426e+003, 1.119531e+003
1.163908e+003, 1.126894e+003
1.164391e+003, 1.133724e+003
1.164873e+003, 1.139435e+003
1.165355e+003, 1.145124e+003
1.165837e+003, 1.151298e+003
1.166319e+003, 1.157778e+003
1.166801e+003, 1.164448e+003
1.167283e+003, 1.171172e+003
1.167765e+003, 1.177490e+003
1.168247e+003, 1.183396e+003
1.168730e+003, 1.188904e+003
1.169212e+003, 1.193960e+003
1.169694e+003, 1.200240e+003
1.170176e+003, 1.208207e+003
1.170658e+003, 1.215821e+003
1.171140e+003, 1.221576e+003
1.171622e+003, 1.226952e+003
1.172104e+003, 1.234698e+003
1.172587e+003, 1.243874e+003
1.173069e+003, 1.251094e+003
1.173551e+003, 1.256979e+003
1.174033e+003, 1.264177e+003
1.174515e+003, 1.272670e+003
1.174997e+003, 1.280269e+003
1.175479e+003, 1.286285e+003
1.175961e+003, 1.292624e+003
1.176443e+003, 1.301261e+003
1.176926e+003, 1.310182e+003
1.177408e+003, 1.316259e+003
1.177890e+003, 1.321484e+003
1.178372e+003, 1.328828e+003
1.178854e+003, 1.337605e+003
1.179336e+003, 1.346238e+003
1.179818e+003, 1.354514e+003
1.180300e+003, 1.363000e+003
1.180782e+003, 1.372118e+003
1.181265e+003, 1.379968e+003
1.181747e+003, 1.383835e+003
1.182229e+003, 1.387900e+003
1.182711e+003, 1.394770e+003
1.183193e+003, 1.403225e+003
1.183675e+003, 1.412971e+003
1.184157e+003, 1.422955e+003
1.184639e+003, 1.431155e+003
1.185122e+003, 1.437455e+003
1.185604e+003, 1.445071e+003
1.186086e+003, 1.455912e+003
1.186568e+003, 1.466246e+003
1.187050e+003, 1.475621e+003
1.187532e+003, 1.484167e+003
1.188014e+003, 1.490520e+003
1.188496e+003, 1.497280e+003
1.188979e+003, 1.507307e+003
1.189461e+003, 1.519441e+003
1.189943e+003, 1.530161e+003
1.190425e+003, 1.539321e+003
1.190907e+003, 1.547645e+003
1.191389e+003, 1.554251e+003
1.191871e+003, 1.562599e+003
1.192353e+003, 1.573890e+003
1.192835e+003, 1.584873e+003
1.193318e+003, 1.593710e+003
1.193800e+003, 1.602044e+003
1.194282e+003, 1.611776e+003
1.194764e+003, 1.622720e+003
1.195246e+003, 1.634328e+003
1.195728e+003, 1.646544e+003
1.196210e+003, 1.657925e+003
1.196692e+003, 1.668338e+003
1.197174e+003, 1.677331e+003
1.197657e+003, 1.684882e+003
1.198139e+003, 1.693553e+003
1.198621e+003, 1.704995e+003
1.199103e+003, 1.717248e+003
1.199585e+003, 1.727332e+003
1.200067e+003, 1.736586e+003
1.200549e+003, 1.748310e+003
1.201031e+003, 1.761210e+003
1.201514e+003, 1.772337e+003
1.201996e+003, 1.782012e+003
1.202478e+003, 1.792145e+003
1.202960e+003, 1.803266e+003
1.203442e+003, 1.814605e+003
1.203924e+003, 1.825948e+003
1.204406e+003, 1.836745e+003
1.204888e+003, 1.846280e+003
1.205370e+003, 1.855368e+003
1.205853e+003, 1.864128e+003
1.206335e+003, 1.873194e+003
1.206817e+003, 1.883399e+003
1.207299e+003, 1.894565e+003
1.207781e+003, 1.906163e+003
1.208263e+003, 1.918087e+003
1.208745e+003, 1.929821e+003
1.209227e+003, 1.940497e+003
1.209709e+003, 1.951980e+003
1.210192e+003, 1.966017e+003
1.210674e+003, 1.979450e+003
1.211156e+003, 1.989686e+003
1.211638e+003, 1.999445e+003
1.212120e+003, 2.011815e+003
1.212602e+003, 2.025914e+003
1.213084e+003, 2.038239e+003
1.213566e+003, 2.048510e+003
1.214049e+003, 2.058085e+003
1.214531e+003, 2.066358e+003
1.215013e+003, 2.076610e+003
1.215495e+003, 2.089944e+003
1.215977e+003, 2.102999e+003
1.216459e+003, 2.113977e+003
1.216941e+003, 2.123564e+003
1.217423e+003, 2.132111e+003
1.217906e+003, 2.140709e+003
1.218388e+003, 2.153538e+003
1.218870e+003, 2.169463e+003
1.219352e+003, 2.182641e+003
1.219834e+003, 2.193303e+003
1.220316e+003, 2.204265e+003
1.220798e+003, 2.216151e+003
1.221280e+003, 2.227930e+003
1.221762e+003, 2.239056e+003
1.222245e+003, 2.250875e+003
1.222727e+003, 2.265823e+003
1.223209e+003, 2.281098e+003
1.223691e+003, 2.293122e+003
1.224173e+003, 2.303831e+003
1.224655e+003, 2.315502e+003
1.225137e+003, 2.327854e+003
1.225619e+003, 2.340145e+003
1.226101e+003, 2.351997e+003
1.226584e+003, 2.362812e+003
1.227066e+003, 2.372133e+003
1.227548e+003, 2.380946e+003
1.228030e+003, 2.388351e+003
1.228512e+003, 2.396910e+003
1.228994e+003, 2.408172e+003
1.229476e+003, 2.420579e+003
1.229958e+003, 2.433265e+003
1.230441e+003, 2.446117e+003
1.230923e+003, 2.459291e+003
1.231405e+003, 2.472771e+003
1.231887e+003, 2.484508e+003
1.232369e+003, 2.494055e+003
1.232851e+003, 2.502974e+003
1.233333e+003, 2.510925e+003
1.233815e+003, 2.519668e+003
1.234297e+003, 2.529677e+003
1.234780e+003, 2.541010e+003
1.235262e+003, 2.553959e+003
1.235744e+003, 2.567397e+003
1.236226e+003, 2.579468e+003
1.236708e+003, 2.590323e+003
1.237190e+003, 2.600382e+003
1.237672e+003, 2.609970e+003
1.238154e+003, 2.621490e+003
1.238636e+003, 2.634438e+003
1.239119e+003, 2.645457e+003
1.239601e+003, 2.653727e+003
1.240083e+003, 2.661156e+003
1.240565e+003, 2.668723e+003
1.241047e+003, 2.677146e+003
1.241529e+003, 2.688061e+003
1.242011e+003, 2.699215e+003
1.242493e+003, 2.707990e+003
1.242975e+003, 2.716177e+003
1.243458e+003, 2.726203e+003
1.243940e+003, 2.737504e+003
1.244422e+003, 2.748407e+003
1.244904e+003, 2.758702e+003
1.245386e+003, 2.768812e+003
1.245868e+003, 2.778776e+003
1.246350e+003, 2.788673e+003
1.246832e+003, 2.799205e+003
1.247315e+003, 2.808758e+003
1.247797e+003, 2.816073e+003
1.248279e+003, 2.823000e+003
1.248761e+003, 2.830092e+003
1.249243e+003, 2.838337e+003
1.249725e+003, 2.850052e+003
1.250207e+003, 2.864886e+003
1.250689e+003, 2.877713e+003
1.251172e+003, 2.888512e+003
1.251654e+003, 2.896262e+003
1.252136e+003, 2.900708e+003
1.252618e+003, 2.907894e+003
1.253100e+003, 2.919613e+003
1.253582e+003, 2.931332e+003
1.254064e+003, 2.939926e+003
1.254546e+003, 2.946523e+003
1.255028e+003, 2.951670e+003
1.255510e+003, 2.956530e+003
1.255993e+003, 2.963456e+003
1.256475e+003, 2.971587e+003
1.256957e+003, 2.979485e+003
1.257439e+003, 2.986970e+003
1.257921e+003, 2.994067e+003
1.258403e+003, 3.000825e+003
1.258885e+003, 3.007426e+003
1.259367e+003, 3.013673e+003
1.259850e+003, 3.020791e+003
1.260332e+003, 3.030319e+003
1.260814e+003, 3.039572e+003
1.261296e+003, 3.047282e+003
1.261778e+003, 3.054278e+003
1.262260e+003, 3.060598e+003
1.262742e+003, 3.067019e+003
1.263224e+003, 3.075113e+003
1.263707e+003, 3.084542e+003
1.264189e+003, 3.091962e+003
1.264671e+003, 3.096774e+003
1.265153e+003, 3.101425e+003
1.265635e+003, 3.105506e+003
1.266117e+003, 3.111314e+003
1.266599e+003, 3.119491e+003
1.267081e+003, 3.128754e+003
1.267563e+003, 3.138505e+003
1.268046e+003, 3.148013e+003
1.268528e+003, 3.156722e+003
1.269010e+003, 3.164155e+003
1.269492e+003, 3.167919e+003
1.269974e+003, 3.170160e+003
1.270456e+003, 3.177056e+003
1.270938e+003, 3.187109e+003
1.271420e+003, 3.195415e+003
1.271902e+003, 3.201583e+003
1.272385e+003, 3.208246e+003
1.272867e+003, 3.216406e+003
1.273349e+003, 3.224055e+003
1.273831e+003, 3.229846e+003
1.274313e+003, 3.235081e+003
1.274795e+003, 3.240005e+003
1.275277e+003, 3.245150e+003
1.275759e+003, 3.251073e+003
1.276242e+003, 3.257315e+003
1.276724e+003, 3.263665e+003
1.277206e+003, 3.269869e+003
1.277688e+003, 3.274977e+003
1.278170e+003, 3.278843e+003
1.278652e+003, 3.282906e+003
1.279134e+003, 3.287022e+003
1.279616e+003, 3.291911e+003
1.280099e+003, 3.297687e+003
1.280581e+003, 3.303997e+003
1.281063e+003, 3.310766e+003
1.281545e+003, 3.317349e+003
1.282027e+003, 3.323281e+003
1.282509e+003, 3.328758e+003
1.282991e+003, 3.334328e+003
1.283473e+003, 3.339518e+003
1.283955e+003, 3.344003e+003
1.284438e+003, 3.348162e+003
##END=



