##NAMES=Fluorcalcioromeite
##RRUFFID=R120140
##IDEAL CHEMISTRY=(Ca,Na)_2_Sb^5+^_2_O_6_F
##LOCALITY=Starlera mine, Starlera Valley, Ferrera, Hinterrhein district, Grishun, Switzerland
##OWNER=RRUFF
##SOURCE=Marcelo Andrade
##DESCRIPTION=Brownish-yellow octahedra, associated with hematite, calcite and quartz. Type specimen (Atencio et al (2013))
##STATUS=The identification of this mineral is confirmed by single-crystal X-ray diffraction and chemical analysis.
##URL=rruff.info/R120140
##MEASURED CHEMISTRY=(Ca_1.16_Na_0.56_Fe_0.03_Mn_0.03_)(Sb_1.98_Al_0.01_W_0.01_)_2_O_6_[F_0.62_(OH)_0.35_]
8.975323e+001, 0.000000e+000
9.023535e+001, 1.826090e+002
9.071747e+001, 1.835936e+002
9.119958e+001, 1.832478e+002
9.168170e+001, 1.837339e+002
9.216382e+001, 1.829346e+002
9.264594e+001, 1.811687e+002
9.312805e+001, 1.791780e+002
9.361017e+001, 1.771406e+002
9.409229e+001, 1.742657e+002
9.457440e+001, 1.699260e+002
9.505651e+001, 1.658200e+002
9.553863e+001, 1.619172e+002
9.602074e+001, 1.583745e+002
9.650286e+001, 1.553771e+002
9.698498e+001, 1.528967e+002
9.746709e+001, 1.505228e+002
9.794921e+001, 1.482625e+002
9.843133e+001, 1.463754e+002
9.891344e+001, 1.443172e+002
9.939556e+001, 1.416001e+002
9.987768e+001, 1.384888e+002
1.003598e+002, 1.357998e+002
1.008419e+002, 1.340255e+002
1.013240e+002, 1.330956e+002
1.018061e+002, 1.323079e+002
1.022883e+002, 1.317959e+002
1.027704e+002, 1.313147e+002
1.032525e+002, 1.305494e+002
1.037346e+002, 1.294046e+002
1.042167e+002, 1.284143e+002
1.046988e+002, 1.281604e+002
1.051810e+002, 1.282436e+002
1.056631e+002, 1.280698e+002
1.061452e+002, 1.273592e+002
1.066273e+002, 1.261818e+002
1.071094e+002, 1.247740e+002
1.075915e+002, 1.227427e+002
1.080737e+002, 1.209685e+002
1.085558e+002, 1.198161e+002
1.090379e+002, 1.191892e+002
1.095200e+002, 1.188453e+002
1.100021e+002, 1.186164e+002
1.104842e+002, 1.185411e+002
1.109664e+002, 1.183805e+002
1.114485e+002, 1.179260e+002
1.119306e+002, 1.175574e+002
1.124127e+002, 1.175605e+002
1.128948e+002, 1.179197e+002
1.133769e+002, 1.183345e+002
1.138591e+002, 1.183653e+002
1.143412e+002, 1.177221e+002
1.148233e+002, 1.171700e+002
1.153054e+002, 1.167334e+002
1.157875e+002, 1.163669e+002
1.162696e+002, 1.160497e+002
1.167517e+002, 1.157779e+002
1.172339e+002, 1.155045e+002
1.177160e+002, 1.150955e+002
1.181981e+002, 1.144530e+002
1.186802e+002, 1.138964e+002
1.191623e+002, 1.135121e+002
1.196444e+002, 1.132823e+002
1.201266e+002, 1.131919e+002
1.206087e+002, 1.133427e+002
1.210908e+002, 1.135356e+002
1.215729e+002, 1.134121e+002
1.220550e+002, 1.128962e+002
1.225371e+002, 1.121955e+002
1.230193e+002, 1.114116e+002
1.235014e+002, 1.105161e+002
1.239835e+002, 1.097603e+002
1.244656e+002, 1.093199e+002
1.249477e+002, 1.090704e+002
1.254298e+002, 1.089388e+002
1.259120e+002, 1.089215e+002
1.263941e+002, 1.089863e+002
1.268762e+002, 1.090706e+002
1.273583e+002, 1.092082e+002
1.278404e+002, 1.093074e+002
1.283225e+002, 1.094777e+002
1.288047e+002, 1.095785e+002
1.292868e+002, 1.093786e+002
1.297689e+002, 1.086687e+002
1.302510e+002, 1.075071e+002
1.307331e+002, 1.067573e+002
1.312152e+002, 1.068537e+002
1.316974e+002, 1.069664e+002
1.321795e+002, 1.069173e+002
1.326616e+002, 1.067179e+002
1.331437e+002, 1.064578e+002
1.336258e+002, 1.062131e+002
1.341079e+002, 1.059887e+002
1.345901e+002, 1.057366e+002
1.350722e+002, 1.053428e+002
1.355543e+002, 1.050139e+002
1.360364e+002, 1.049430e+002
1.365185e+002, 1.051192e+002
1.370006e+002, 1.053016e+002
1.374828e+002, 1.051993e+002
1.379649e+002, 1.047377e+002
1.384470e+002, 1.043411e+002
1.389291e+002, 1.041313e+002
1.394112e+002, 1.039589e+002
1.398933e+002, 1.036069e+002
1.403755e+002, 1.029923e+002
1.408576e+002, 1.023443e+002
1.413397e+002, 1.020127e+002
1.418218e+002, 1.019676e+002
1.423039e+002, 1.018862e+002
1.427860e+002, 1.015876e+002
1.432681e+002, 1.011350e+002
1.437503e+002, 1.007551e+002
1.442324e+002, 1.005043e+002
1.447145e+002, 1.003426e+002
1.451966e+002, 1.002530e+002
1.456787e+002, 1.002329e+002
1.461608e+002, 1.001785e+002
1.466430e+002, 9.998849e+001
1.471251e+002, 9.964938e+001
1.476072e+002, 9.929890e+001
1.480893e+002, 9.884542e+001
1.485714e+002, 9.846194e+001
1.490535e+002, 9.832224e+001
1.495357e+002, 9.844667e+001
1.500178e+002, 9.860932e+001
1.504999e+002, 9.843172e+001
1.509820e+002, 9.765416e+001
1.514641e+002, 9.710180e+001
1.519462e+002, 9.701999e+001
1.524284e+002, 9.705378e+001
1.529105e+002, 9.689772e+001
1.533926e+002, 9.644294e+001
1.538747e+002, 9.583144e+001
1.543568e+002, 9.541944e+001
1.548389e+002, 9.540231e+001
1.553211e+002, 9.537622e+001
1.558032e+002, 9.537562e+001
1.562853e+002, 9.533992e+001
1.567674e+002, 9.516338e+001
1.572495e+002, 9.478196e+001
1.577316e+002, 9.427636e+001
1.582138e+002, 9.400199e+001
1.586959e+002, 9.412951e+001
1.591780e+002, 9.425802e+001
1.596601e+002, 9.434193e+001
1.601422e+002, 9.436030e+001
1.606243e+002, 9.425837e+001
1.611065e+002, 9.398475e+001
1.615886e+002, 9.357357e+001
1.620707e+002, 9.320640e+001
1.625528e+002, 9.282052e+001
1.630349e+002, 9.253017e+001
1.635170e+002, 9.250827e+001
1.639991e+002, 9.271906e+001
1.644813e+002, 9.279930e+001
1.649634e+002, 9.245594e+001
1.654455e+002, 9.182854e+001
1.659276e+002, 9.125913e+001
1.664097e+002, 9.074174e+001
1.668918e+002, 9.032583e+001
1.673740e+002, 9.010245e+001
1.678561e+002, 9.010564e+001
1.683382e+002, 9.014109e+001
1.688203e+002, 9.014629e+001
1.693024e+002, 9.010567e+001
1.697845e+002, 8.998394e+001
1.702667e+002, 8.974976e+001
1.707488e+002, 8.943724e+001
1.712309e+002, 8.909999e+001
1.717130e+002, 8.865672e+001
1.721951e+002, 8.835296e+001
1.726772e+002, 8.832327e+001
1.731594e+002, 8.845686e+001
1.736415e+002, 8.860979e+001
1.741236e+002, 8.871973e+001
1.746057e+002, 8.877798e+001
1.750878e+002, 8.872079e+001
1.755699e+002, 8.842553e+001
1.760521e+002, 8.814504e+001
1.765342e+002, 8.791016e+001
1.770163e+002, 8.773962e+001
1.774984e+002, 8.767726e+001
1.779805e+002, 8.778296e+001
1.784626e+002, 8.805972e+001
1.789448e+002, 8.810325e+001
1.794269e+002, 8.758732e+001
1.799090e+002, 8.715916e+001
1.803911e+002, 8.706667e+001
1.808732e+002, 8.723770e+001
1.813553e+002, 8.744631e+001
1.818375e+002, 8.749307e+001
1.823196e+002, 8.734897e+001
1.828017e+002, 8.733060e+001
1.832838e+002, 8.751882e+001
1.837659e+002, 8.772892e+001
1.842480e+002, 8.788064e+001
1.847301e+002, 8.796841e+001
1.852123e+002, 8.802352e+001
1.856944e+002, 8.807792e+001
1.861765e+002, 8.813392e+001
1.866586e+002, 8.812318e+001
1.871407e+002, 8.800899e+001
1.876228e+002, 8.785801e+001
1.881050e+002, 8.765894e+001
1.885871e+002, 8.742175e+001
1.890692e+002, 8.730581e+001
1.895513e+002, 8.756594e+001
1.900334e+002, 8.818257e+001
1.905155e+002, 8.853198e+001
1.909977e+002, 8.832945e+001
1.914798e+002, 8.792692e+001
1.919619e+002, 8.773560e+001
1.924440e+002, 8.782964e+001
1.929261e+002, 8.798729e+001
1.934082e+002, 8.796391e+001
1.938904e+002, 8.782015e+001
1.943725e+002, 8.774831e+001
1.948546e+002, 8.785467e+001
1.953367e+002, 8.806468e+001
1.958188e+002, 8.825468e+001
1.963009e+002, 8.845242e+001
1.967831e+002, 8.853989e+001
1.972652e+002, 8.836601e+001
1.977473e+002, 8.801463e+001
1.982294e+002, 8.769823e+001
1.987115e+002, 8.749472e+001
1.991936e+002, 8.740672e+001
1.996758e+002, 8.747522e+001
2.001579e+002, 8.785714e+001
2.006400e+002, 8.817506e+001
2.011221e+002, 8.822366e+001
2.016042e+002, 8.805812e+001
2.020863e+002, 8.781440e+001
2.025685e+002, 8.753051e+001
2.030506e+002, 8.721644e+001
2.035327e+002, 8.706316e+001
2.040148e+002, 8.713676e+001
2.044969e+002, 8.732685e+001
2.049790e+002, 8.770112e+001
2.054612e+002, 8.816646e+001
2.059433e+002, 8.852817e+001
2.064254e+002, 8.861291e+001
2.069075e+002, 8.840817e+001
2.073896e+002, 8.816612e+001
2.078717e+002, 8.774865e+001
2.083539e+002, 8.741985e+001
2.088360e+002, 8.730583e+001
2.093181e+002, 8.736466e+001
2.098002e+002, 8.747501e+001
2.102823e+002, 8.753922e+001
2.107644e+002, 8.755960e+001
2.112466e+002, 8.750840e+001
2.117287e+002, 8.716030e+001
2.122108e+002, 8.695371e+001
2.126929e+002, 8.717972e+001
2.131750e+002, 8.774008e+001
2.136571e+002, 8.830384e+001
2.141393e+002, 8.857282e+001
2.146214e+002, 8.851583e+001
2.151035e+002, 8.834458e+001
2.155856e+002, 8.785900e+001
2.160677e+002, 8.745942e+001
2.165498e+002, 8.739638e+001
2.170320e+002, 8.763327e+001
2.175141e+002, 8.792989e+001
2.179962e+002, 8.806092e+001
2.184783e+002, 8.799617e+001
2.189604e+002, 8.805041e+001
2.194425e+002, 8.822536e+001
2.199247e+002, 8.849968e+001
2.204068e+002, 8.883138e+001
2.208889e+002, 8.923195e+001
2.213710e+002, 8.978496e+001
2.218531e+002, 9.057232e+001
2.223352e+002, 9.162185e+001
2.228174e+002, 9.275372e+001
2.232995e+002, 9.430183e+001
2.237816e+002, 9.569363e+001
2.242637e+002, 9.647221e+001
2.247458e+002, 9.662527e+001
2.252279e+002, 9.646999e+001
2.257100e+002, 9.631394e+001
2.261922e+002, 9.606135e+001
2.266743e+002, 9.523120e+001
2.271564e+002, 9.344288e+001
2.276385e+002, 9.128191e+001
2.281206e+002, 8.918503e+001
2.286027e+002, 8.717028e+001
2.290849e+002, 8.537170e+001
2.295670e+002, 8.389434e+001
2.300491e+002, 8.273882e+001
2.305312e+002, 8.189246e+001
2.310133e+002, 8.158988e+001
2.314954e+002, 8.147283e+001
2.319776e+002, 8.112333e+001
2.324597e+002, 8.051016e+001
2.329418e+002, 7.988448e+001
2.334239e+002, 7.939619e+001
2.339060e+002, 7.899936e+001
2.343881e+002, 7.862953e+001
2.348703e+002, 7.824441e+001
2.353524e+002, 7.790202e+001
2.358345e+002, 7.767598e+001
2.363166e+002, 7.756950e+001
2.367987e+002, 7.756344e+001
2.372808e+002, 7.774067e+001
2.377630e+002, 7.798435e+001
2.382451e+002, 7.817632e+001
2.387272e+002, 7.829211e+001
2.392093e+002, 7.832325e+001
2.396914e+002, 7.821781e+001
2.401735e+002, 7.791019e+001
2.406557e+002, 7.767724e+001
2.411378e+002, 7.764595e+001
2.416199e+002, 7.772895e+001
2.421020e+002, 7.786620e+001
2.425841e+002, 7.804665e+001
2.430662e+002, 7.824419e+001
2.435484e+002, 7.843156e+001
2.440305e+002, 7.864188e+001
2.445126e+002, 7.874493e+001
2.449947e+002, 7.857607e+001
2.454768e+002, 7.835921e+001
2.459589e+002, 7.830240e+001
2.464410e+002, 7.848146e+001
2.469232e+002, 7.877251e+001
2.474053e+002, 7.898956e+001
2.478874e+002, 7.916965e+001
2.483695e+002, 7.916684e+001
2.488516e+002, 7.868701e+001
2.493337e+002, 7.819368e+001
2.498159e+002, 7.810804e+001
2.502980e+002, 7.854781e+001
2.507801e+002, 7.920393e+001
2.512622e+002, 7.954110e+001
2.517443e+002, 7.936050e+001
2.522264e+002, 7.930311e+001
2.527086e+002, 7.948045e+001
2.531907e+002, 7.974497e+001
2.536728e+002, 8.002374e+001
2.541549e+002, 8.028702e+001
2.546370e+002, 8.050940e+001
2.551191e+002, 8.060399e+001
2.556013e+002, 8.032967e+001
2.560834e+002, 8.048028e+001
2.565655e+002, 8.148656e+001
2.570476e+002, 8.254058e+001
2.575297e+002, 8.299688e+001
2.580118e+002, 8.279993e+001
2.584940e+002, 8.248646e+001
2.589761e+002, 8.283521e+001
2.594582e+002, 8.429755e+001
2.599403e+002, 8.527661e+001
2.604224e+002, 8.548620e+001
2.609045e+002, 8.555004e+001
2.613867e+002, 8.587619e+001
2.618688e+002, 8.649025e+001
2.623509e+002, 8.711544e+001
2.628330e+002, 8.740563e+001
2.633151e+002, 8.718108e+001
2.637972e+002, 8.729149e+001
2.642794e+002, 8.783210e+001
2.647615e+002, 8.855225e+001
2.652436e+002, 8.941564e+001
2.657257e+002, 9.035637e+001
2.662078e+002, 9.122304e+001
2.666899e+002, 9.184945e+001
2.671721e+002, 9.217737e+001
2.676542e+002, 9.262591e+001
2.681363e+002, 9.315943e+001
2.686184e+002, 9.381472e+001
2.691005e+002, 9.465500e+001
2.695826e+002, 9.564514e+001
2.700648e+002, 9.667178e+001
2.705469e+002, 9.764198e+001
2.710290e+002, 9.854560e+001
2.715111e+002, 9.951672e+001
2.719932e+002, 1.006281e+002
2.724753e+002, 1.017183e+002
2.729575e+002, 1.026386e+002
2.734396e+002, 1.034665e+002
2.739217e+002, 1.044252e+002
2.744038e+002, 1.056890e+002
2.748859e+002, 1.072241e+002
2.753680e+002, 1.085794e+002
2.758501e+002, 1.097101e+002
2.763322e+002, 1.107639e+002
2.768144e+002, 1.116692e+002
2.772965e+002, 1.125371e+002
2.777786e+002, 1.136080e+002
2.782607e+002, 1.150296e+002
2.787428e+002, 1.167262e+002
2.792249e+002, 1.183994e+002
2.797071e+002, 1.200356e+002
2.801892e+002, 1.216754e+002
2.806713e+002, 1.233264e+002
2.811534e+002, 1.249892e+002
2.816355e+002, 1.267125e+002
2.821176e+002, 1.285453e+002
2.825998e+002, 1.303569e+002
2.830819e+002, 1.316885e+002
2.835640e+002, 1.320035e+002
2.840461e+002, 1.329103e+002
2.845282e+002, 1.351326e+002
2.850103e+002, 1.380404e+002
2.854925e+002, 1.407488e+002
2.859746e+002, 1.429792e+002
2.864567e+002, 1.448898e+002
2.869388e+002, 1.466904e+002
2.874209e+002, 1.482499e+002
2.879030e+002, 1.501149e+002
2.883852e+002, 1.524441e+002
2.888673e+002, 1.550867e+002
2.893494e+002, 1.579931e+002
2.898315e+002, 1.611728e+002
2.903136e+002, 1.642063e+002
2.907957e+002, 1.665955e+002
2.912779e+002, 1.682770e+002
2.917600e+002, 1.696421e+002
2.922421e+002, 1.708339e+002
2.927242e+002, 1.716625e+002
2.932063e+002, 1.718283e+002
2.936884e+002, 1.713046e+002
2.941706e+002, 1.705310e+002
2.946527e+002, 1.698356e+002
2.951348e+002, 1.692340e+002
2.956169e+002, 1.688199e+002
2.960990e+002, 1.687375e+002
2.965811e+002, 1.687428e+002
2.970633e+002, 1.686695e+002
2.975454e+002, 1.685094e+002
2.980275e+002, 1.682981e+002
2.985096e+002, 1.680681e+002
2.989917e+002, 1.678016e+002
2.994738e+002, 1.674394e+002
2.999560e+002, 1.671129e+002
3.004381e+002, 1.665808e+002
3.009202e+002, 1.656289e+002
3.014023e+002, 1.643180e+002
3.018844e+002, 1.629099e+002
3.023665e+002, 1.615105e+002
3.028487e+002, 1.601177e+002
3.033308e+002, 1.587099e+002
3.038129e+002, 1.572254e+002
3.042950e+002, 1.558117e+002
3.047771e+002, 1.547205e+002
3.052592e+002, 1.537629e+002
3.057414e+002, 1.524322e+002
3.062235e+002, 1.505086e+002
3.067056e+002, 1.481775e+002
3.071877e+002, 1.457653e+002
3.076698e+002, 1.432531e+002
3.081519e+002, 1.407553e+002
3.086341e+002, 1.382577e+002
3.091162e+002, 1.358128e+002
3.095983e+002, 1.335640e+002
3.100804e+002, 1.315778e+002
3.105625e+002, 1.296988e+002
3.110446e+002, 1.277229e+002
3.115268e+002, 1.256330e+002
3.120089e+002, 1.236681e+002
3.124910e+002, 1.218972e+002
3.129731e+002, 1.202673e+002
3.134552e+002, 1.187064e+002
3.139373e+002, 1.172083e+002
3.144195e+002, 1.157909e+002
3.149016e+002, 1.145202e+002
3.153837e+002, 1.133729e+002
3.158658e+002, 1.120756e+002
3.163479e+002, 1.103759e+002
3.168300e+002, 1.086807e+002
3.173121e+002, 1.073669e+002
3.177943e+002, 1.064209e+002
3.182764e+002, 1.055452e+002
3.187585e+002, 1.045369e+002
3.192406e+002, 1.034435e+002
3.197227e+002, 1.024673e+002
3.202048e+002, 1.016589e+002
3.206870e+002, 1.009085e+002
3.211691e+002, 1.000877e+002
3.216512e+002, 9.925867e+001
3.221333e+002, 9.868044e+001
3.226154e+002, 9.857798e+001
3.230975e+002, 9.868090e+001
3.235797e+002, 9.826231e+001
3.240618e+002, 9.704842e+001
3.245439e+002, 9.599892e+001
3.250260e+002, 9.557146e+001
3.255081e+002, 9.552048e+001
3.259902e+002, 9.540073e+001
3.264724e+002, 9.508329e+001
3.269545e+002, 9.461773e+001
3.274366e+002, 9.400127e+001
3.279187e+002, 9.316198e+001
3.284008e+002, 9.257999e+001
3.288829e+002, 9.252807e+001
3.293651e+002, 9.269644e+001
3.298472e+002, 9.275168e+001
3.303293e+002, 9.263612e+001
3.308114e+002, 9.240480e+001
3.312935e+002, 9.206044e+001
3.317756e+002, 9.159316e+001
3.322578e+002, 9.130717e+001
3.327399e+002, 9.140138e+001
3.332220e+002, 9.153727e+001
3.337041e+002, 9.146449e+001
3.341862e+002, 9.118702e+001
3.346683e+002, 9.084098e+001
3.351505e+002, 9.050135e+001
3.356326e+002, 9.017558e+001
3.361147e+002, 8.991140e+001
3.365968e+002, 8.973017e+001
3.370789e+002, 8.957712e+001
3.375610e+002, 8.944132e+001
3.380432e+002, 8.931642e+001
3.385253e+002, 8.918958e+001
3.390074e+002, 8.905490e+001
3.394895e+002, 8.891562e+001
3.399716e+002, 8.877965e+001
3.404537e+002, 8.863772e+001
3.409359e+002, 8.851547e+001
3.414180e+002, 8.844163e+001
3.419001e+002, 8.838167e+001
3.423822e+002, 8.827814e+001
3.428643e+002, 8.811487e+001
3.433464e+002, 8.794946e+001
3.438286e+002, 8.786867e+001
3.443107e+002, 8.792111e+001
3.447928e+002, 8.791713e+001
3.452749e+002, 8.780396e+001
3.457570e+002, 8.766988e+001
3.462391e+002, 8.762785e+001
3.467213e+002, 8.766286e+001
3.472034e+002, 8.760564e+001
3.476855e+002, 8.727324e+001
3.481676e+002, 8.664271e+001
3.486497e+002, 8.625364e+001
3.491318e+002, 8.625908e+001
3.496140e+002, 8.630776e+001
3.500961e+002, 8.624607e+001
3.505782e+002, 8.611034e+001
3.510603e+002, 8.601090e+001
3.515424e+002, 8.601697e+001
3.520245e+002, 8.609850e+001
3.525067e+002, 8.612581e+001
3.529888e+002, 8.606208e+001
3.534709e+002, 8.599002e+001
3.539530e+002, 8.587761e+001
3.544351e+002, 8.577798e+001
3.549172e+002, 8.574825e+001
3.553994e+002, 8.580908e+001
3.558815e+002, 8.594917e+001
3.563636e+002, 8.615706e+001
3.568457e+002, 8.649284e+001
3.573278e+002, 8.677262e+001
3.578099e+002, 8.707070e+001
3.582920e+002, 8.726442e+001
3.587741e+002, 8.721618e+001
3.592563e+002, 8.694949e+001
3.597384e+002, 8.662281e+001
3.602205e+002, 8.636656e+001
3.607026e+002, 8.616359e+001
3.611847e+002, 8.621238e+001
3.616668e+002, 8.668610e+001
3.621490e+002, 8.721255e+001
3.626311e+002, 8.772970e+001
3.631132e+002, 8.820572e+001
3.635953e+002, 8.858427e+001
3.640774e+002, 8.882334e+001
3.645595e+002, 8.896694e+001
3.650417e+002, 8.919959e+001
3.655238e+002, 8.951151e+001
3.660059e+002, 8.994250e+001
3.664880e+002, 9.061283e+001
3.669701e+002, 9.133684e+001
3.674522e+002, 9.190675e+001
3.679344e+002, 9.226265e+001
3.684165e+002, 9.255325e+001
3.688986e+002, 9.309775e+001
3.693807e+002, 9.420769e+001
3.698628e+002, 9.469114e+001
3.703449e+002, 9.410173e+001
3.708271e+002, 9.326611e+001
3.713092e+002, 9.256480e+001
3.717913e+002, 9.202567e+001
3.722734e+002, 9.148920e+001
3.727555e+002, 9.082898e+001
3.732376e+002, 9.004848e+001
3.737198e+002, 8.917953e+001
3.742019e+002, 8.796744e+001
3.746840e+002, 8.699793e+001
3.751661e+002, 8.655360e+001
3.756482e+002, 8.643781e+001
3.761303e+002, 8.635590e+001
3.766125e+002, 8.616490e+001
3.770946e+002, 8.592381e+001
3.775767e+002, 8.577402e+001
3.780588e+002, 8.575748e+001
3.785409e+002, 8.571243e+001
3.790230e+002, 8.555347e+001
3.795052e+002, 8.537291e+001
3.799873e+002, 8.523910e+001
3.804694e+002, 8.516557e+001
3.809515e+002, 8.512609e+001
3.814336e+002, 8.509290e+001
3.819157e+002, 8.506617e+001
3.823979e+002, 8.507246e+001
3.828800e+002, 8.512266e+001
3.833621e+002, 8.520041e+001
3.838442e+002, 8.531494e+001
3.843263e+002, 8.544946e+001
3.848084e+002, 8.554792e+001
3.852906e+002, 8.548354e+001
3.857727e+002, 8.537767e+001
3.862548e+002, 8.558141e+001
3.867369e+002, 8.620976e+001
3.872190e+002, 8.672817e+001
3.877011e+002, 8.666713e+001
3.881833e+002, 8.634801e+001
3.886654e+002, 8.623782e+001
3.891475e+002, 8.651861e+001
3.896296e+002, 8.685212e+001
3.901117e+002, 8.687292e+001
3.905938e+002, 8.663457e+001
3.910760e+002, 8.657543e+001
3.915581e+002, 8.691683e+001
3.920402e+002, 8.740471e+001
3.925223e+002, 8.768289e+001
3.930044e+002, 8.774386e+001
3.934865e+002, 8.777778e+001
3.939687e+002, 8.779890e+001
3.944508e+002, 8.785798e+001
3.949329e+002, 8.806465e+001
3.954150e+002, 8.844810e+001
3.958971e+002, 8.884669e+001
3.963792e+002, 8.907339e+001
3.968614e+002, 8.916227e+001
3.973435e+002, 8.946838e+001
3.978256e+002, 9.025996e+001
3.983077e+002, 9.105418e+001
3.987898e+002, 9.143792e+001
3.992719e+002, 9.152957e+001
3.997540e+002, 9.179795e+001
4.002361e+002, 9.251009e+001
4.007183e+002, 9.349641e+001
4.012004e+002, 9.426400e+001
4.016825e+002, 9.481836e+001
4.021646e+002, 9.519194e+001
4.026467e+002, 9.508545e+001
4.031288e+002, 9.493997e+001
4.036110e+002, 9.529880e+001
4.040931e+002, 9.627222e+001
4.045752e+002, 9.756178e+001
4.050573e+002, 9.886055e+001
4.055394e+002, 1.002017e+002
4.060215e+002, 1.013124e+002
4.065037e+002, 1.021050e+002
4.069858e+002, 1.027805e+002
4.074679e+002, 1.034174e+002
4.079500e+002, 1.040218e+002
4.084321e+002, 1.045712e+002
4.089142e+002, 1.050502e+002
4.093964e+002, 1.054827e+002
4.098785e+002, 1.059986e+002
4.103606e+002, 1.069976e+002
4.108427e+002, 1.075312e+002
4.113248e+002, 1.072348e+002
4.118069e+002, 1.066060e+002
4.122891e+002, 1.061010e+002
4.127712e+002, 1.058439e+002
4.132533e+002, 1.056802e+002
4.137354e+002, 1.054252e+002
4.142175e+002, 1.050856e+002
4.146996e+002, 1.046190e+002
4.151818e+002, 1.037219e+002
4.156639e+002, 1.029834e+002
4.161460e+002, 1.027086e+002
4.166281e+002, 1.027852e+002
4.171102e+002, 1.029426e+002
4.175923e+002, 1.030580e+002
4.180745e+002, 1.030813e+002
4.185566e+002, 1.027711e+002
4.190387e+002, 1.018701e+002
4.195208e+002, 1.012173e+002
4.200029e+002, 1.011629e+002
4.204850e+002, 1.014072e+002
4.209672e+002, 1.016115e+002
4.214493e+002, 1.016817e+002
4.219314e+002, 1.020445e+002
4.224135e+002, 1.035475e+002
4.228956e+002, 1.060874e+002
4.233777e+002, 1.075299e+002
4.238599e+002, 1.071636e+002
4.243420e+002, 1.061331e+002
4.248241e+002, 1.051190e+002
4.253062e+002, 1.041814e+002
4.257883e+002, 1.035516e+002
4.262704e+002, 1.034246e+002
4.267526e+002, 1.036163e+002
4.272347e+002, 1.038474e+002
4.277168e+002, 1.041106e+002
4.281989e+002, 1.045632e+002
4.286810e+002, 1.054297e+002
4.291631e+002, 1.064692e+002
4.296453e+002, 1.071280e+002
4.301274e+002, 1.072273e+002
4.306095e+002, 1.073500e+002
4.310916e+002, 1.078156e+002
4.315737e+002, 1.085008e+002
4.320558e+002, 1.091510e+002
4.325380e+002, 1.096916e+002
4.330201e+002, 1.102539e+002
4.335022e+002, 1.110306e+002
4.339843e+002, 1.120662e+002
4.344664e+002, 1.129038e+002
4.349485e+002, 1.133141e+002
4.354307e+002, 1.137029e+002
4.359128e+002, 1.142926e+002
4.363949e+002, 1.150873e+002
4.368770e+002, 1.160537e+002
4.373591e+002, 1.171886e+002
4.378412e+002, 1.184467e+002
4.383234e+002, 1.196369e+002
4.388055e+002, 1.204769e+002
4.392876e+002, 1.216209e+002
4.397697e+002, 1.232137e+002
4.402518e+002, 1.250690e+002
4.407339e+002, 1.270277e+002
4.412160e+002, 1.290404e+002
4.416982e+002, 1.311432e+002
4.421803e+002, 1.333717e+002
4.426624e+002, 1.357497e+002
4.431445e+002, 1.381207e+002
4.436266e+002, 1.404386e+002
4.441087e+002, 1.427922e+002
4.445909e+002, 1.451155e+002
4.450730e+002, 1.474954e+002
4.455551e+002, 1.501239e+002
4.460372e+002, 1.530970e+002
4.465193e+002, 1.562732e+002
4.470014e+002, 1.592776e+002
4.474836e+002, 1.619214e+002
4.479657e+002, 1.649552e+002
4.484478e+002, 1.687957e+002
4.489299e+002, 1.728904e+002
4.494120e+002, 1.769082e+002
4.498941e+002, 1.808353e+002
4.503763e+002, 1.848779e+002
4.508584e+002, 1.891491e+002
4.513405e+002, 1.936584e+002
4.518226e+002, 1.983521e+002
4.523047e+002, 2.032198e+002
4.527868e+002, 2.082393e+002
4.532690e+002, 2.134021e+002
4.537511e+002, 2.187072e+002
4.542332e+002, 2.242066e+002
4.547153e+002, 2.299446e+002
4.551974e+002, 2.357652e+002
4.556795e+002, 2.415918e+002
4.561617e+002, 2.474032e+002
4.566438e+002, 2.532462e+002
4.571259e+002, 2.591967e+002
4.576080e+002, 2.650659e+002
4.580901e+002, 2.706789e+002
4.585722e+002, 2.760655e+002
4.590544e+002, 2.809726e+002
4.595365e+002, 2.853760e+002
4.600186e+002, 2.892460e+002
4.605007e+002, 2.925252e+002
4.609828e+002, 2.952343e+002
4.614649e+002, 2.974745e+002
4.619471e+002, 2.993214e+002
4.624292e+002, 3.007500e+002
4.629113e+002, 3.016694e+002
4.633934e+002, 3.020511e+002
4.638755e+002, 3.020063e+002
4.643576e+002, 3.013320e+002
4.648398e+002, 3.003503e+002
4.653219e+002, 2.994402e+002
4.658040e+002, 2.986450e+002
4.662861e+002, 2.976670e+002
4.667682e+002, 2.961301e+002
4.672503e+002, 2.939305e+002
4.677325e+002, 2.920428e+002
4.682146e+002, 2.907720e+002
4.686967e+002, 2.894879e+002
4.691788e+002, 2.878965e+002
4.696609e+002, 2.862230e+002
4.701430e+002, 2.848654e+002
4.706252e+002, 2.840082e+002
4.711073e+002, 2.833689e+002
4.715894e+002, 2.824168e+002
4.720715e+002, 2.810529e+002
4.725536e+002, 2.798203e+002
4.730357e+002, 2.787350e+002
4.735179e+002, 2.778780e+002
4.740000e+002, 2.774571e+002
4.744821e+002, 2.773575e+002
4.749642e+002, 2.771197e+002
4.754463e+002, 2.763668e+002
4.759284e+002, 2.753327e+002
4.764106e+002, 2.744807e+002
4.768927e+002, 2.738097e+002
4.773748e+002, 2.733483e+002
4.778569e+002, 2.731219e+002
4.783390e+002, 2.731276e+002
4.788211e+002, 2.732951e+002
4.793033e+002, 2.735697e+002
4.797854e+002, 2.741917e+002
4.802675e+002, 2.752876e+002
4.807496e+002, 2.768112e+002
4.812317e+002, 2.787472e+002
4.817138e+002, 2.811030e+002
4.821959e+002, 2.836113e+002
4.826780e+002, 2.859334e+002
4.831602e+002, 2.881143e+002
4.836423e+002, 2.911743e+002
4.841244e+002, 2.958000e+002
4.846065e+002, 3.004890e+002
4.850886e+002, 3.043139e+002
4.855707e+002, 3.078762e+002
4.860529e+002, 3.121369e+002
4.865350e+002, 3.174709e+002
4.870171e+002, 3.238027e+002
4.874992e+002, 3.310054e+002
4.879813e+002, 3.394012e+002
4.884634e+002, 3.479828e+002
4.889456e+002, 3.560306e+002
4.894277e+002, 3.648860e+002
4.899098e+002, 3.751664e+002
4.903919e+002, 3.867550e+002
4.908740e+002, 3.991931e+002
4.913561e+002, 4.121221e+002
4.918383e+002, 4.258289e+002
4.923204e+002, 4.411073e+002
4.928025e+002, 4.580013e+002
4.932846e+002, 4.762439e+002
4.937667e+002, 4.954300e+002
4.942488e+002, 5.161121e+002
4.947310e+002, 5.386620e+002
4.952131e+002, 5.630904e+002
4.956952e+002, 5.895490e+002
4.961773e+002, 6.178783e+002
4.966594e+002, 6.481494e+002
4.971415e+002, 6.804651e+002
4.976237e+002, 7.149330e+002
4.981058e+002, 7.511094e+002
4.985879e+002, 7.889886e+002
4.990700e+002, 8.289108e+002
4.995521e+002, 8.711111e+002
5.000342e+002, 9.161469e+002
5.005164e+002, 9.624377e+002
5.009985e+002, 1.010073e+003
5.014806e+002, 1.058494e+003
5.019627e+002, 1.107147e+003
5.024448e+002, 1.155782e+003
5.029269e+002, 1.205443e+003
5.034091e+002, 1.257117e+003
5.038912e+002, 1.311275e+003
5.043733e+002, 1.365111e+003
5.048554e+002, 1.416642e+003
5.053375e+002, 1.470042e+003
5.058196e+002, 1.526198e+003
5.063018e+002, 1.585430e+003
5.067839e+002, 1.647758e+003
5.072660e+002, 1.713208e+003
5.077481e+002, 1.781636e+003
5.082302e+002, 1.852346e+003
5.087123e+002, 1.925219e+003
5.091945e+002, 2.001067e+003
5.096766e+002, 2.080805e+003
5.101587e+002, 2.162422e+003
5.106408e+002, 2.246323e+003
5.111229e+002, 2.331695e+003
5.116050e+002, 2.417674e+003
5.120872e+002, 2.504452e+003
5.125693e+002, 2.590082e+003
5.130514e+002, 2.674071e+003
5.135335e+002, 2.758571e+003
5.140156e+002, 2.826951e+003
5.144977e+002, 2.871472e+003
5.149799e+002, 2.902092e+003
5.154620e+002, 2.933441e+003
5.159441e+002, 2.962341e+003
5.164262e+002, 2.967566e+003
5.169083e+002, 2.938075e+003
5.173904e+002, 2.881290e+003
5.178726e+002, 2.803622e+003
5.183547e+002, 2.705825e+003
5.188368e+002, 2.593814e+003
5.193189e+002, 2.468140e+003
5.198010e+002, 2.332342e+003
5.202831e+002, 2.195294e+003
5.207653e+002, 2.054342e+003
5.212474e+002, 1.918290e+003
5.217295e+002, 1.787572e+003
5.222116e+002, 1.663614e+003
5.226937e+002, 1.548271e+003
5.231758e+002, 1.442081e+003
5.236580e+002, 1.343971e+003
5.241401e+002, 1.253711e+003
5.246222e+002, 1.171549e+003
5.251043e+002, 1.096834e+003
5.255864e+002, 1.032754e+003
5.260685e+002, 9.731755e+002
5.265507e+002, 9.175350e+002
5.270328e+002, 8.655840e+002
5.275149e+002, 8.175959e+002
5.279970e+002, 7.734173e+002
5.284791e+002, 7.323864e+002
5.289612e+002, 6.940546e+002
5.294434e+002, 6.584481e+002
5.299255e+002, 6.253437e+002
5.304076e+002, 5.951685e+002
5.308897e+002, 5.667502e+002
5.313718e+002, 5.395217e+002
5.318539e+002, 5.139194e+002
5.323361e+002, 4.903326e+002
5.328182e+002, 4.689325e+002
5.333003e+002, 4.490556e+002
5.337824e+002, 4.303726e+002
5.342645e+002, 4.128138e+002
5.347466e+002, 3.960781e+002
5.352288e+002, 3.801366e+002
5.357109e+002, 3.649496e+002
5.361930e+002, 3.507179e+002
5.366751e+002, 3.372781e+002
5.371572e+002, 3.238239e+002
5.376393e+002, 3.094281e+002
5.381215e+002, 2.960883e+002
5.386036e+002, 2.846314e+002
5.390857e+002, 2.743574e+002
5.395678e+002, 2.643850e+002
5.400499e+002, 2.545439e+002
5.405320e+002, 2.451343e+002
5.410142e+002, 2.365480e+002
5.414963e+002, 2.287990e+002
5.419784e+002, 2.213468e+002
5.424604e+002, 2.139631e+002
5.429426e+002, 2.072534e+002
5.434247e+002, 2.016132e+002
5.439068e+002, 1.965934e+002
5.443889e+002, 1.917249e+002
5.448710e+002, 1.868758e+002
5.453531e+002, 1.822305e+002
5.458353e+002, 1.780197e+002
5.463174e+002, 1.742241e+002
5.467995e+002, 1.708671e+002
5.472816e+002, 1.681296e+002
5.477637e+002, 1.654613e+002
5.482458e+002, 1.623677e+002
5.487280e+002, 1.591560e+002
5.492101e+002, 1.563149e+002
5.496922e+002, 1.539965e+002
5.501743e+002, 1.519322e+002
5.506564e+002, 1.500369e+002
5.511385e+002, 1.482530e+002
5.516207e+002, 1.464427e+002
5.521028e+002, 1.445766e+002
5.525849e+002, 1.427385e+002
5.530670e+002, 1.410181e+002
5.535491e+002, 1.394110e+002
5.540313e+002, 1.377782e+002
5.545134e+002, 1.359447e+002
5.549955e+002, 1.342985e+002
5.554776e+002, 1.329545e+002
5.559597e+002, 1.318425e+002
5.564418e+002, 1.309519e+002
5.569240e+002, 1.302456e+002
5.574061e+002, 1.295777e+002
5.578882e+002, 1.288020e+002
5.583703e+002, 1.279269e+002
5.588524e+002, 1.267962e+002
5.593345e+002, 1.250011e+002
5.598167e+002, 1.235646e+002
5.602988e+002, 1.229987e+002
5.607809e+002, 1.228553e+002
5.612630e+002, 1.226361e+002
5.617451e+002, 1.222264e+002
5.622272e+002, 1.216337e+002
5.627094e+002, 1.208308e+002
5.631915e+002, 1.198478e+002
5.636736e+002, 1.187225e+002
5.641557e+002, 1.174010e+002
5.646378e+002, 1.162228e+002
5.651199e+002, 1.155001e+002
5.656021e+002, 1.151288e+002
5.660842e+002, 1.145885e+002
5.665663e+002, 1.136415e+002
5.670484e+002, 1.128664e+002
5.675305e+002, 1.127065e+002
5.680126e+002, 1.127120e+002
5.684948e+002, 1.122065e+002
5.689769e+002, 1.111365e+002
5.694590e+002, 1.100863e+002
5.699411e+002, 1.096443e+002
5.704232e+002, 1.097641e+002
5.709053e+002, 1.095837e+002
5.713875e+002, 1.088247e+002
5.718696e+002, 1.081281e+002
5.723517e+002, 1.075459e+002
5.728338e+002, 1.070929e+002
5.733159e+002, 1.068370e+002
5.737980e+002, 1.067578e+002
5.742802e+002, 1.066694e+002
5.747623e+002, 1.064398e+002
5.752444e+002, 1.060699e+002
5.757265e+002, 1.055136e+002
5.762086e+002, 1.047070e+002
5.766907e+002, 1.039913e+002
5.771729e+002, 1.036234e+002
5.776550e+002, 1.033935e+002
5.781371e+002, 1.029239e+002
5.786192e+002, 1.021252e+002
5.791013e+002, 1.014653e+002
5.795834e+002, 1.012051e+002
5.800656e+002, 1.011263e+002
5.805477e+002, 1.010319e+002
5.810298e+002, 1.008841e+002
5.815119e+002, 1.005982e+002
5.819940e+002, 1.000825e+002
5.824761e+002, 9.946194e+001
5.829583e+002, 9.917341e+001
5.834404e+002, 9.968706e+001
5.839225e+002, 9.981026e+001
5.844046e+002, 9.918127e+001
5.848867e+002, 9.846558e+001
5.853688e+002, 9.811751e+001
5.858510e+002, 9.808664e+001
5.863331e+002, 9.806190e+001
5.868152e+002, 9.784082e+001
5.872973e+002, 9.751892e+001
5.877794e+002, 9.732127e+001
5.882615e+002, 9.726386e+001
5.887437e+002, 9.721773e+001
5.892258e+002, 9.714111e+001
5.897079e+002, 9.707893e+001
5.901900e+002, 9.712798e+001
5.906721e+002, 9.725533e+001
5.911542e+002, 9.723472e+001
5.916364e+002, 9.657871e+001
5.921185e+002, 9.610247e+001
5.926006e+002, 9.672281e+001
5.930827e+002, 9.811456e+001
5.935648e+002, 9.947050e+001
5.940469e+002, 1.005466e+002
5.945291e+002, 1.009401e+002
5.950112e+002, 9.992229e+001
5.954933e+002, 9.695777e+001
5.959754e+002, 9.502674e+001
5.964575e+002, 9.478100e+001
5.969396e+002, 9.468147e+001
5.974218e+002, 9.414549e+001
5.979039e+002, 9.343060e+001
5.983860e+002, 9.295223e+001
5.988681e+002, 9.285001e+001
5.993502e+002, 9.294383e+001
5.998323e+002, 9.305392e+001
6.003145e+002, 9.317815e+001
6.007966e+002, 9.325301e+001
6.012787e+002, 9.326426e+001
6.017608e+002, 9.324828e+001
6.022429e+002, 9.323597e+001
6.027250e+002, 9.320435e+001
6.032072e+002, 9.312527e+001
6.036893e+002, 9.301355e+001
6.041714e+002, 9.279752e+001
6.046535e+002, 9.217681e+001
6.051356e+002, 9.154366e+001
6.056177e+002, 9.165002e+001
6.060999e+002, 9.249657e+001
6.065820e+002, 9.324915e+001
6.070641e+002, 9.330334e+001
6.075462e+002, 9.278566e+001
6.080283e+002, 9.225529e+001
6.085104e+002, 9.147419e+001
6.089926e+002, 9.104436e+001
6.094747e+002, 9.130877e+001
6.099568e+002, 9.165950e+001
6.104389e+002, 9.169137e+001
6.109210e+002, 9.141027e+001
6.114031e+002, 9.101124e+001
6.118853e+002, 9.059299e+001
6.123674e+002, 9.017229e+001
6.128495e+002, 8.981816e+001
6.133316e+002, 8.954646e+001
6.138137e+002, 8.909255e+001
6.142958e+002, 8.820668e+001
6.147780e+002, 8.736068e+001
6.152601e+002, 8.720240e+001
6.157422e+002, 8.758559e+001
6.162243e+002, 8.759406e+001
6.167064e+002, 8.667692e+001
6.171885e+002, 8.569270e+001
6.176707e+002, 8.522950e+001
6.181528e+002, 8.509082e+001
6.186349e+002, 8.486103e+001
6.191170e+002, 8.441668e+001
6.195991e+002, 8.390414e+001
6.200812e+002, 8.348286e+001
6.205634e+002, 8.314910e+001
6.210455e+002, 8.294310e+001
6.215276e+002, 8.311159e+001
6.220097e+002, 8.309988e+001
6.224918e+002, 8.261600e+001
6.229739e+002, 8.200084e+001
6.234561e+002, 8.164603e+001
6.239382e+002, 8.161069e+001
6.244203e+002, 8.157764e+001
6.249023e+002, 8.118591e+001
6.253845e+002, 8.061593e+001
6.258666e+002, 8.043973e+001
6.263487e+002, 8.071221e+001
6.268308e+002, 8.083044e+001
6.273129e+002, 8.045003e+001
6.277950e+002, 7.982315e+001
6.282772e+002, 7.943655e+001
6.287593e+002, 7.934040e+001
6.292414e+002, 7.919186e+001
6.297235e+002, 7.881847e+001
6.302056e+002, 7.848499e+001
6.306877e+002, 7.840049e+001
6.311699e+002, 7.850343e+001
6.316520e+002, 7.863452e+001
6.321341e+002, 7.872045e+001
6.326162e+002, 7.876869e+001
6.330983e+002, 7.880052e+001
6.335804e+002, 7.883049e+001
6.340626e+002, 7.876006e+001
6.345447e+002, 7.845989e+001
6.350268e+002, 7.823038e+001
6.355089e+002, 7.826760e+001
6.359910e+002, 7.843006e+001
6.364731e+002, 7.847997e+001
6.369553e+002, 7.832714e+001
6.374374e+002, 7.821603e+001
6.379195e+002, 7.846182e+001
6.384016e+002, 7.882616e+001
6.388837e+002, 7.876772e+001
6.393658e+002, 7.824413e+001
6.398480e+002, 7.779369e+001
6.403301e+002, 7.778122e+001
6.408122e+002, 7.808251e+001
6.412943e+002, 7.828559e+001
6.417764e+002, 7.842026e+001
6.422585e+002, 7.839494e+001
6.427407e+002, 7.797536e+001
6.432228e+002, 7.760400e+001
6.437049e+002, 7.765932e+001
6.441870e+002, 7.799687e+001
6.446691e+002, 7.819811e+001
6.451512e+002, 7.803047e+001
6.456334e+002, 7.768970e+001
6.461155e+002, 7.750113e+001
6.465976e+002, 7.746323e+001
6.470797e+002, 7.733835e+001
6.475618e+002, 7.704524e+001
6.480439e+002, 7.676038e+001
6.485261e+002, 7.662165e+001
6.490082e+002, 7.660059e+001
6.494903e+002, 7.661321e+001
6.499724e+002, 7.665808e+001
6.504545e+002, 7.672874e+001
6.509366e+002, 7.686050e+001
6.514188e+002, 7.699569e+001
6.519009e+002, 7.708422e+001
6.523830e+002, 7.710843e+001
6.528651e+002, 7.702634e+001
6.533472e+002, 7.678928e+001
6.538293e+002, 7.645963e+001
6.543115e+002, 7.628474e+001
6.547936e+002, 7.635619e+001
6.552757e+002, 7.635979e+001
6.557578e+002, 7.620539e+001
6.562399e+002, 7.601059e+001
6.567220e+002, 7.580080e+001
6.572042e+002, 7.560022e+001
6.576863e+002, 7.547108e+001
6.581684e+002, 7.545535e+001
6.586505e+002, 7.548839e+001
6.591326e+002, 7.551607e+001
6.596147e+002, 7.554377e+001
6.600969e+002, 7.560262e+001
6.605790e+002, 7.570124e+001
6.610611e+002, 7.576852e+001
6.615432e+002, 7.574357e+001
6.620253e+002, 7.563026e+001
6.625074e+002, 7.547079e+001
6.629896e+002, 7.515717e+001
6.634717e+002, 7.494254e+001
6.639538e+002, 7.496634e+001
6.644359e+002, 7.500660e+001
6.649180e+002, 7.482738e+001
6.654001e+002, 7.448335e+001
6.658823e+002, 7.423992e+001
6.663644e+002, 7.426261e+001
6.668465e+002, 7.447514e+001
6.673286e+002, 7.488257e+001
6.678107e+002, 7.546741e+001
6.682928e+002, 7.552042e+001
6.687750e+002, 7.467496e+001
6.692571e+002, 7.376626e+001
6.697392e+002, 7.364457e+001
6.702213e+002, 7.423058e+001
6.707034e+002, 7.458937e+001
6.711855e+002, 7.453008e+001
6.716677e+002, 7.445856e+001
6.721498e+002, 7.453858e+001
6.726319e+002, 7.464788e+001
6.731140e+002, 7.464873e+001
6.735961e+002, 7.453025e+001
6.740782e+002, 7.436808e+001
6.745604e+002, 7.421646e+001
6.750425e+002, 7.406807e+001
6.755246e+002, 7.386140e+001
6.760067e+002, 7.353754e+001
6.764888e+002, 7.343366e+001
6.769709e+002, 7.378812e+001
6.774531e+002, 7.418938e+001
6.779352e+002, 7.428276e+001
6.784173e+002, 7.414729e+001
6.788994e+002, 7.406107e+001
6.793815e+002, 7.409998e+001
6.798636e+002, 7.418740e+001
6.803458e+002, 7.433595e+001
6.808279e+002, 7.448209e+001
6.813100e+002, 7.446908e+001
6.817921e+002, 7.430074e+001
6.822742e+002, 7.423931e+001
6.827563e+002, 7.454506e+001
6.832385e+002, 7.508036e+001
6.837206e+002, 7.513109e+001
6.842027e+002, 7.440366e+001
6.846848e+002, 7.383311e+001
6.851669e+002, 7.353799e+001
6.856490e+002, 7.344209e+001
6.861312e+002, 7.360508e+001
6.866133e+002, 7.393953e+001
6.870954e+002, 7.421964e+001
6.875775e+002, 7.438650e+001
6.880596e+002, 7.442542e+001
6.885417e+002, 7.421162e+001
6.890239e+002, 7.387745e+001
6.895060e+002, 7.375024e+001
6.899881e+002, 7.388615e+001
6.904702e+002, 7.412737e+001
6.909523e+002, 7.439465e+001
6.914344e+002, 7.463261e+001
6.919166e+002, 7.454318e+001
6.923987e+002, 7.364825e+001
6.928808e+002, 7.319863e+001
6.933629e+002, 7.372170e+001
6.938450e+002, 7.424950e+001
6.943271e+002, 7.408916e+001
6.948093e+002, 7.345061e+001
6.952914e+002, 7.296204e+001
6.957735e+002, 7.290398e+001
6.962556e+002, 7.306989e+001
6.967377e+002, 7.330396e+001
6.972198e+002, 7.357449e+001
6.977020e+002, 7.377699e+001
6.981841e+002, 7.389449e+001
6.986662e+002, 7.393334e+001
6.991483e+002, 7.386800e+001
6.996304e+002, 7.374574e+001
7.001125e+002, 7.375107e+001
7.005947e+002, 7.412147e+001
7.010768e+002, 7.425182e+001
7.015589e+002, 7.389022e+001
7.020410e+002, 7.351457e+001
7.025231e+002, 7.338654e+001
7.030052e+002, 7.348120e+001
7.034874e+002, 7.373135e+001
7.039695e+002, 7.412845e+001
7.044516e+002, 7.447792e+001
7.049337e+002, 7.444353e+001
7.054158e+002, 7.412719e+001
7.058979e+002, 7.409184e+001
7.063801e+002, 7.444456e+001
7.068622e+002, 7.466709e+001
7.073442e+002, 7.436210e+001
7.078264e+002, 7.379477e+001
7.083085e+002, 7.365274e+001
7.087906e+002, 7.407500e+001
7.092727e+002, 7.453797e+001
7.097548e+002, 7.514388e+001
7.102369e+002, 7.565035e+001
7.107191e+002, 7.586080e+001
7.112012e+002, 7.588231e+001
7.116833e+002, 7.590533e+001
7.121654e+002, 7.600044e+001
7.126475e+002, 7.612370e+001
7.131296e+002, 7.620055e+001
7.136118e+002, 7.625478e+001
7.140939e+002, 7.648466e+001
7.145760e+002, 7.695377e+001
7.150581e+002, 7.719746e+001
7.155402e+002, 7.686246e+001
7.160223e+002, 7.632983e+001
7.165045e+002, 7.629603e+001
7.169866e+002, 7.686191e+001
7.174687e+002, 7.725960e+001
7.179508e+002, 7.737524e+001
7.184329e+002, 7.736183e+001
7.189150e+002, 7.720583e+001
7.193972e+002, 7.700590e+001
7.198793e+002, 7.690372e+001
7.203614e+002, 7.692830e+001
7.208435e+002, 7.697509e+001
7.213256e+002, 7.692923e+001
7.218077e+002, 7.682521e+001
7.222899e+002, 7.678679e+001
7.227720e+002, 7.680879e+001
7.232541e+002, 7.696410e+001
7.237362e+002, 7.738824e+001
7.242183e+002, 7.778468e+001
7.247004e+002, 7.771225e+001
7.251826e+002, 7.718420e+001
7.256647e+002, 7.692856e+001
7.261468e+002, 7.710130e+001
7.266289e+002, 7.741122e+001
7.271110e+002, 7.797504e+001
7.275931e+002, 7.849109e+001
7.280753e+002, 7.856431e+001
7.285574e+002, 7.819978e+001
7.290395e+002, 7.769051e+001
7.295216e+002, 7.715072e+001
7.300037e+002, 7.678853e+001
7.304858e+002, 7.732616e+001
7.309680e+002, 7.881474e+001
7.314501e+002, 7.963393e+001
7.319322e+002, 7.934004e+001
7.324143e+002, 7.861209e+001
7.328964e+002, 7.782539e+001
7.333785e+002, 7.705066e+001
7.338607e+002, 7.661593e+001
7.343428e+002, 7.678539e+001
7.348249e+002, 7.688564e+001
7.353070e+002, 7.672937e+001
7.357891e+002, 7.649313e+001
7.362712e+002, 7.623757e+001
7.367534e+002, 7.603455e+001
7.372355e+002, 7.603807e+001
7.377176e+002, 7.633801e+001
7.381997e+002, 7.674484e+001
7.386818e+002, 7.700627e+001
7.391639e+002, 7.712643e+001
7.396461e+002, 7.713021e+001
7.401282e+002, 7.700048e+001
7.406103e+002, 7.683050e+001
7.410924e+002, 7.661865e+001
7.415745e+002, 7.643821e+001
7.420566e+002, 7.649316e+001
7.425388e+002, 7.689698e+001
7.430209e+002, 7.712633e+001
7.435030e+002, 7.702805e+001
7.439851e+002, 7.686148e+001
7.444672e+002, 7.670290e+001
7.449493e+002, 7.658955e+001
7.454315e+002, 7.658218e+001
7.459136e+002, 7.668829e+001
7.463957e+002, 7.680772e+001
7.468778e+002, 7.683360e+001
7.473599e+002, 7.679879e+001
7.478420e+002, 7.680992e+001
7.483242e+002, 7.686842e+001
7.488063e+002, 7.693156e+001
7.492884e+002, 7.702198e+001
7.497705e+002, 7.701423e+001
7.502526e+002, 7.669427e+001
7.507347e+002, 7.603242e+001
7.512169e+002, 7.567791e+001
7.516990e+002, 7.588712e+001
7.521811e+002, 7.604382e+001
7.526632e+002, 7.592399e+001
7.531453e+002, 7.575955e+001
7.536274e+002, 7.576344e+001
7.541096e+002, 7.593543e+001
7.545917e+002, 7.617294e+001
7.550738e+002, 7.647503e+001
7.555559e+002, 7.669595e+001
7.560380e+002, 7.655984e+001
7.565201e+002, 7.615108e+001
7.570023e+002, 7.580867e+001
7.574844e+002, 7.558025e+001
7.579665e+002, 7.554030e+001
7.584486e+002, 7.579646e+001
7.589307e+002, 7.622855e+001
7.594128e+002, 7.642545e+001
7.598950e+002, 7.615076e+001
7.603771e+002, 7.607153e+001
7.608592e+002, 7.637900e+001
7.613413e+002, 7.666631e+001
7.618234e+002, 7.667918e+001
7.623055e+002, 7.656622e+001
7.627877e+002, 7.658989e+001
7.632698e+002, 7.682666e+001
7.637519e+002, 7.708423e+001
7.642340e+002, 7.714742e+001
7.647161e+002, 7.717948e+001
7.651982e+002, 7.747395e+001
7.656804e+002, 7.799969e+001
7.661625e+002, 7.853750e+001
7.666446e+002, 7.901058e+001
7.671267e+002, 7.938197e+001
7.676088e+002, 7.954967e+001
7.680909e+002, 7.949204e+001
7.685731e+002, 7.986034e+001
7.690552e+002, 8.102721e+001
7.695373e+002, 8.201402e+001
7.700194e+002, 8.236306e+001
7.705015e+002, 8.265416e+001
7.709836e+002, 8.338692e+001
7.714658e+002, 8.449584e+001
7.719479e+002, 8.552066e+001
7.724300e+002, 8.628426e+001
7.729121e+002, 8.693994e+001
7.733942e+002, 8.747462e+001
7.738763e+002, 8.801839e+001
7.743585e+002, 8.885107e+001
7.748406e+002, 8.994926e+001
7.753227e+002, 9.095003e+001
7.758048e+002, 9.160185e+001
7.762869e+002, 9.208993e+001
7.767690e+002, 9.285457e+001
7.772512e+002, 9.393215e+001
7.777333e+002, 9.507449e+001
7.782154e+002, 9.635043e+001
7.786975e+002, 9.753723e+001
7.791796e+002, 9.845715e+001
7.796617e+002, 9.923186e+001
7.801439e+002, 1.000717e+002
7.806260e+002, 1.010272e+002
7.811081e+002, 1.018563e+002
7.815902e+002, 1.024665e+002
7.820723e+002, 1.029652e+002
7.825544e+002, 1.033910e+002
7.830366e+002, 1.037660e+002
7.835187e+002, 1.041027e+002
7.840008e+002, 1.044108e+002
7.844829e+002, 1.047235e+002
7.849650e+002, 1.050882e+002
7.854471e+002, 1.054706e+002
7.859293e+002, 1.058030e+002
7.864114e+002, 1.060865e+002
7.868935e+002, 1.061344e+002
7.873756e+002, 1.058589e+002
7.878577e+002, 1.054586e+002
7.883398e+002, 1.051020e+002
7.888220e+002, 1.047823e+002
7.893040e+002, 1.044513e+002
7.897861e+002, 1.041318e+002
7.902682e+002, 1.037683e+002
7.907504e+002, 1.032331e+002
7.912325e+002, 1.027682e+002
7.917146e+002, 1.026649e+002
7.921967e+002, 1.027270e+002
7.926788e+002, 1.024894e+002
7.931609e+002, 1.017539e+002
7.936431e+002, 1.009830e+002
7.941252e+002, 1.006290e+002
7.946073e+002, 1.004953e+002
7.950894e+002, 1.001655e+002
7.955715e+002, 9.966598e+001
7.960536e+002, 9.936697e+001
7.965358e+002, 9.942957e+001
7.970179e+002, 9.964685e+001
7.975000e+002, 9.972031e+001
7.979821e+002, 9.963649e+001
7.984642e+002, 9.977639e+001
7.989464e+002, 1.004242e+002
7.994285e+002, 1.007811e+002
7.999106e+002, 1.003910e+002
8.003927e+002, 9.984104e+001
8.008748e+002, 9.945386e+001
8.013569e+002, 9.926974e+001
8.018391e+002, 9.940482e+001
8.023212e+002, 1.001469e+002
8.028033e+002, 1.008373e+002
8.032854e+002, 1.009604e+002
8.037675e+002, 1.009517e+002
8.042496e+002, 1.013911e+002
8.047318e+002, 1.022165e+002
8.052139e+002, 1.029870e+002
8.056960e+002, 1.034594e+002
8.061781e+002, 1.037717e+002
8.066602e+002, 1.041132e+002
8.071423e+002, 1.044852e+002
8.076245e+002, 1.048358e+002
8.081066e+002, 1.050936e+002
8.085887e+002, 1.057290e+002
8.090708e+002, 1.070747e+002
8.095529e+002, 1.087304e+002
8.100350e+002, 1.100993e+002
8.105172e+002, 1.111261e+002
8.109993e+002, 1.122143e+002
8.114814e+002, 1.132430e+002
8.119635e+002, 1.144786e+002
8.124456e+002, 1.161366e+002
8.129277e+002, 1.179280e+002
8.134099e+002, 1.194666e+002
8.138920e+002, 1.208347e+002
8.143741e+002, 1.225484e+002
8.148562e+002, 1.250556e+002
8.153383e+002, 1.275917e+002
8.158204e+002, 1.290662e+002
8.163026e+002, 1.300170e+002
8.167847e+002, 1.317042e+002
8.172668e+002, 1.342158e+002
8.177489e+002, 1.368344e+002
8.182310e+002, 1.391490e+002
8.187131e+002, 1.413467e+002
8.191953e+002, 1.438398e+002
8.196774e+002, 1.467334e+002
8.201595e+002, 1.492473e+002
8.206416e+002, 1.511980e+002
8.211237e+002, 1.531470e+002
8.216058e+002, 1.551898e+002
8.220880e+002, 1.574109e+002
8.225701e+002, 1.600462e+002
8.230522e+002, 1.630699e+002
8.235343e+002, 1.656451e+002
8.240164e+002, 1.675739e+002
8.244985e+002, 1.690470e+002
8.249807e+002, 1.701132e+002
8.254628e+002, 1.707993e+002
8.259449e+002, 1.710807e+002
8.264270e+002, 1.709998e+002
8.269091e+002, 1.707306e+002
8.273912e+002, 1.704184e+002
8.278734e+002, 1.697230e+002
8.283555e+002, 1.680404e+002
8.288376e+002, 1.655462e+002
8.293197e+002, 1.630045e+002
8.298018e+002, 1.604987e+002
8.302839e+002, 1.575849e+002
8.307661e+002, 1.539863e+002
8.312482e+002, 1.500552e+002
8.317303e+002, 1.463060e+002
8.322124e+002, 1.427519e+002
8.326945e+002, 1.394191e+002
8.331766e+002, 1.364350e+002
8.336588e+002, 1.335261e+002
8.341409e+002, 1.306583e+002
8.346230e+002, 1.278391e+002
8.351051e+002, 1.249807e+002
8.355872e+002, 1.221427e+002
8.360693e+002, 1.195395e+002
8.365515e+002, 1.171830e+002
8.370336e+002, 1.151610e+002
8.375157e+002, 1.138126e+002
8.379978e+002, 1.126207e+002
8.384799e+002, 1.108714e+002
8.389620e+002, 1.086938e+002
8.394442e+002, 1.067048e+002
8.399263e+002, 1.051979e+002
8.404084e+002, 1.039678e+002
8.408905e+002, 1.028689e+002
8.413726e+002, 1.018412e+002
8.418547e+002, 1.004364e+002
8.423369e+002, 9.861619e+001
8.428190e+002, 9.707847e+001
8.433011e+002, 9.611824e+001
8.437832e+002, 9.544583e+001
8.442653e+002, 9.475951e+001
8.447474e+002, 9.405862e+001
8.452296e+002, 9.337672e+001
8.457117e+002, 9.277244e+001
8.461938e+002, 9.210280e+001
8.466759e+002, 9.131536e+001
8.471580e+002, 9.049635e+001
8.476401e+002, 8.958183e+001
8.481223e+002, 8.869510e+001
8.486044e+002, 8.817822e+001
8.490865e+002, 8.826195e+001
8.495686e+002, 8.806962e+001
8.500507e+002, 8.676219e+001
8.505328e+002, 8.523872e+001
8.510150e+002, 8.443612e+001
8.514971e+002, 8.416752e+001
8.519792e+002, 8.392338e+001
8.524613e+002, 8.352759e+001
8.529434e+002, 8.297435e+001
8.534255e+002, 8.217638e+001
8.539077e+002, 8.129490e+001
8.543898e+002, 8.097141e+001
8.548719e+002, 8.120464e+001
8.553540e+002, 8.106479e+001
8.558361e+002, 8.030018e+001
8.563182e+002, 7.943208e+001
8.568004e+002, 7.883972e+001
8.572825e+002, 7.844955e+001
8.577646e+002, 7.802188e+001
8.582467e+002, 7.752843e+001
8.587288e+002, 7.706046e+001
8.592109e+002, 7.672108e+001
8.596931e+002, 7.628648e+001
8.601752e+002, 7.554613e+001
8.606573e+002, 7.474036e+001
8.611394e+002, 7.413116e+001
8.616215e+002, 7.375223e+001
8.621036e+002, 7.355497e+001
8.625858e+002, 7.368253e+001
8.630679e+002, 7.380749e+001
8.635500e+002, 7.369199e+001
8.640321e+002, 7.344285e+001
8.645142e+002, 7.320559e+001
8.649963e+002, 7.299413e+001
8.654785e+002, 7.275478e+001
8.659606e+002, 7.245462e+001
8.664427e+002, 7.212479e+001
8.669248e+002, 7.181848e+001
8.674069e+002, 7.152815e+001
8.678890e+002, 7.119326e+001
8.683712e+002, 7.080807e+001
8.688533e+002, 7.047079e+001
8.693354e+002, 7.021657e+001
8.698175e+002, 7.004372e+001
8.702996e+002, 6.996142e+001
8.707817e+002, 6.997018e+001
8.712639e+002, 6.997083e+001
8.717459e+002, 6.996412e+001
8.722280e+002, 6.994779e+001
8.727101e+002, 6.985052e+001
8.731923e+002, 6.981074e+001
8.736744e+002, 7.006524e+001
8.741565e+002, 7.042233e+001
8.746386e+002, 7.036342e+001
8.751207e+002, 6.961108e+001
8.756028e+002, 6.904301e+001
8.760850e+002, 6.908291e+001
8.765671e+002, 6.930469e+001
8.770492e+002, 6.955018e+001
8.775313e+002, 6.969401e+001
8.780134e+002, 6.948755e+001
8.784955e+002, 6.893031e+001
8.789777e+002, 6.842526e+001
8.794598e+002, 6.830808e+001
8.799419e+002, 6.839783e+001
8.804240e+002, 6.835983e+001
8.809061e+002, 6.826870e+001
8.813882e+002, 6.850020e+001
8.818704e+002, 6.908397e+001
8.823525e+002, 6.945561e+001
8.828346e+002, 6.922957e+001
8.833167e+002, 6.869257e+001
8.837988e+002, 6.842624e+001
8.842809e+002, 6.844846e+001
8.847631e+002, 6.863392e+001
8.852452e+002, 6.910591e+001
8.857273e+002, 6.942740e+001
8.862094e+002, 6.935124e+001
8.866915e+002, 6.915926e+001
8.871736e+002, 6.918260e+001
8.876558e+002, 6.940366e+001
8.881379e+002, 6.954396e+001
8.886200e+002, 6.955041e+001
8.891021e+002, 6.953954e+001
8.895842e+002, 6.943345e+001
8.900663e+002, 6.940834e+001
8.905485e+002, 6.974487e+001
8.910306e+002, 7.020969e+001
8.915127e+002, 7.031289e+001
8.919948e+002, 6.990958e+001
8.924769e+002, 6.943436e+001
8.929590e+002, 6.905705e+001
8.934412e+002, 6.883592e+001
8.939233e+002, 6.898261e+001
8.944054e+002, 6.929410e+001
8.948875e+002, 6.926787e+001
8.953696e+002, 6.886256e+001
8.958517e+002, 6.857169e+001
8.963339e+002, 6.878654e+001
8.968160e+002, 6.925578e+001
8.972981e+002, 6.951104e+001
8.977802e+002, 6.955907e+001
8.982623e+002, 6.941953e+001
8.987444e+002, 6.906996e+001
8.992266e+002, 6.883418e+001
8.997087e+002, 6.887103e+001
9.001908e+002, 6.908382e+001
9.006729e+002, 6.935410e+001
9.011550e+002, 6.968946e+001
9.016371e+002, 6.990857e+001
9.021193e+002, 7.004133e+001
9.026014e+002, 6.999737e+001
9.030835e+002, 6.948972e+001
9.035656e+002, 6.906606e+001
9.040477e+002, 6.921343e+001
9.045298e+002, 6.971579e+001
9.050120e+002, 6.999931e+001
9.054941e+002, 6.990179e+001
9.059762e+002, 6.987781e+001
9.064583e+002, 7.013461e+001
9.069404e+002, 7.039302e+001
9.074225e+002, 7.048606e+001
9.079047e+002, 7.047623e+001
9.083868e+002, 7.042410e+001
9.088689e+002, 7.036422e+001
9.093510e+002, 7.038496e+001
9.098331e+002, 7.056876e+001
9.103152e+002, 7.080653e+001
9.107974e+002, 7.106908e+001
9.112795e+002, 7.127299e+001
9.117616e+002, 7.118250e+001
9.122437e+002, 7.085281e+001
9.127258e+002, 7.062059e+001
9.132079e+002, 7.064519e+001
9.136901e+002, 7.080704e+001
9.141722e+002, 7.098376e+001
9.146543e+002, 7.115788e+001
9.151364e+002, 7.119199e+001
9.156185e+002, 7.107654e+001
9.161006e+002, 7.112552e+001
9.165828e+002, 7.145712e+001
9.170649e+002, 7.179805e+001
9.175470e+002, 7.194308e+001
9.180291e+002, 7.190365e+001
9.185112e+002, 7.170086e+001
9.189933e+002, 7.119643e+001
9.194755e+002, 7.087443e+001
9.199576e+002, 7.071125e+001
9.204397e+002, 7.076977e+001
9.209218e+002, 7.147029e+001
9.214039e+002, 7.214951e+001
9.218860e+002, 7.188857e+001
9.223682e+002, 7.073581e+001
9.228503e+002, 7.003977e+001
9.233324e+002, 7.025290e+001
9.238145e+002, 7.058132e+001
9.242966e+002, 7.095958e+001
9.247787e+002, 7.123326e+001
9.252609e+002, 7.117912e+001
9.257430e+002, 7.095267e+001
9.262251e+002, 7.092569e+001
9.267072e+002, 7.121502e+001
9.271893e+002, 7.139842e+001
9.276714e+002, 7.114178e+001
9.281536e+002, 7.069450e+001
9.286357e+002, 7.018284e+001
9.291178e+002, 6.971320e+001
9.295999e+002, 6.951743e+001
9.300820e+002, 6.958715e+001
9.305641e+002, 6.964645e+001
9.310463e+002, 6.950306e+001
9.315284e+002, 6.935522e+001
9.320105e+002, 6.966458e+001
9.324926e+002, 7.024722e+001
9.329747e+002, 7.022559e+001
9.334568e+002, 6.959660e+001
9.339390e+002, 6.912717e+001
9.344211e+002, 6.910995e+001
9.349032e+002, 6.928453e+001
9.353853e+002, 6.939554e+001
9.358674e+002, 6.943384e+001
9.363495e+002, 6.933044e+001
9.368317e+002, 6.905443e+001
9.373138e+002, 6.875004e+001
9.377959e+002, 6.835167e+001
9.382780e+002, 6.811178e+001
9.387601e+002, 6.822332e+001
9.392422e+002, 6.853432e+001
9.397244e+002, 6.880638e+001
9.402065e+002, 6.906541e+001
9.406886e+002, 6.912613e+001
9.411707e+002, 6.890946e+001
9.416528e+002, 6.860962e+001
9.421349e+002, 6.815435e+001
9.426171e+002, 6.772483e+001
9.430992e+002, 6.746082e+001
9.435813e+002, 6.732723e+001
9.440634e+002, 6.721495e+001
9.445455e+002, 6.708634e+001
9.450276e+002, 6.704343e+001
9.455098e+002, 6.720126e+001
9.459919e+002, 6.737339e+001
9.464740e+002, 6.743780e+001
9.469561e+002, 6.743929e+001
9.474382e+002, 6.739690e+001
9.479203e+002, 6.735256e+001
9.484025e+002, 6.747641e+001
9.488846e+002, 6.798927e+001
9.493667e+002, 6.836263e+001
9.498488e+002, 6.786604e+001
9.503309e+002, 6.703487e+001
9.508130e+002, 6.670251e+001
9.512952e+002, 6.681252e+001
9.517773e+002, 6.695969e+001
9.522594e+002, 6.700015e+001
9.527415e+002, 6.701900e+001
9.532236e+002, 6.710356e+001
9.537057e+002, 6.721762e+001
9.541878e+002, 6.727224e+001
9.546699e+002, 6.727423e+001
9.551520e+002, 6.726494e+001
9.556342e+002, 6.725041e+001
9.561163e+002, 6.723854e+001
9.565984e+002, 6.723434e+001
9.570805e+002, 6.722901e+001
9.575626e+002, 6.719199e+001
9.580447e+002, 6.712638e+001
9.585269e+002, 6.722893e+001
9.590090e+002, 6.756606e+001
9.594911e+002, 6.779539e+001
9.599732e+002, 6.785539e+001
9.604553e+002, 6.775331e+001
9.609374e+002, 6.741539e+001
9.614196e+002, 6.696404e+001
9.619017e+002, 6.673061e+001
9.623838e+002, 6.668925e+001
9.628659e+002, 6.695383e+001
9.633480e+002, 6.807579e+001
9.638301e+002, 6.874827e+001
9.643123e+002, 6.821412e+001
9.647944e+002, 6.743536e+001
9.652765e+002, 6.729565e+001
9.657586e+002, 6.765584e+001
9.662407e+002, 6.778324e+001
9.667228e+002, 6.749498e+001
9.672050e+002, 6.716026e+001
9.676871e+002, 6.676408e+001
9.681692e+002, 6.644289e+001
9.686513e+002, 6.623298e+001
9.691334e+002, 6.617095e+001
9.696155e+002, 6.635835e+001
9.700977e+002, 6.676668e+001
9.705798e+002, 6.714625e+001
9.710619e+002, 6.742454e+001
9.715440e+002, 6.758640e+001
9.720261e+002, 6.751244e+001
9.725082e+002, 6.740394e+001
9.729904e+002, 6.753854e+001
9.734725e+002, 6.780592e+001
9.739546e+002, 6.790293e+001
9.744367e+002, 6.775097e+001
9.749188e+002, 6.756372e+001
9.754009e+002, 6.747168e+001
9.758831e+002, 6.747849e+001
9.763652e+002, 6.764815e+001
9.768473e+002, 6.790048e+001
9.773294e+002, 6.806364e+001
9.778115e+002, 6.812828e+001
9.782936e+002, 6.818813e+001
9.787758e+002, 6.828776e+001
9.792579e+002, 6.832905e+001
9.797400e+002, 6.813702e+001
9.802221e+002, 6.780754e+001
9.807042e+002, 6.764109e+001
9.811863e+002, 6.763734e+001
9.816685e+002, 6.788448e+001
9.821506e+002, 6.839769e+001
9.826327e+002, 6.868114e+001
9.831148e+002, 6.837505e+001
9.835969e+002, 6.781976e+001
9.840790e+002, 6.767819e+001
9.845612e+002, 6.795366e+001
9.850433e+002, 6.816245e+001
9.855254e+002, 6.829810e+001
9.860075e+002, 6.839857e+001
9.864896e+002, 6.846549e+001
9.869717e+002, 6.852466e+001
9.874539e+002, 6.859396e+001
9.879360e+002, 6.867335e+001
9.884181e+002, 6.875912e+001
9.889002e+002, 6.883322e+001
9.893823e+002, 6.899216e+001
9.898644e+002, 6.937548e+001
9.903466e+002, 6.956030e+001
9.908287e+002, 6.923758e+001
9.913108e+002, 6.886118e+001
9.917929e+002, 6.890795e+001
9.922750e+002, 6.929728e+001
9.927571e+002, 6.954835e+001
9.932393e+002, 6.956775e+001
9.937214e+002, 6.961810e+001
9.942035e+002, 6.970491e+001
9.946856e+002, 6.982265e+001
9.951677e+002, 7.002258e+001
9.956498e+002, 7.021551e+001
9.961320e+002, 7.028449e+001
9.966141e+002, 7.024463e+001
9.970962e+002, 7.023444e+001
9.975783e+002, 7.018118e+001
9.980604e+002, 7.032302e+001
9.985425e+002, 7.099660e+001
9.990247e+002, 7.159213e+001
9.995068e+002, 7.164460e+001
9.999889e+002, 7.141458e+001
1.000471e+003, 7.131123e+001
1.000953e+003, 7.137151e+001
1.001435e+003, 7.131063e+001
1.001917e+003, 7.081458e+001
1.002399e+003, 7.047076e+001
1.002882e+003, 7.074226e+001
1.003364e+003, 7.118618e+001
1.003846e+003, 7.138757e+001
1.004328e+003, 7.143682e+001
1.004810e+003, 7.166213e+001
1.005292e+003, 7.210191e+001
1.005774e+003, 7.230217e+001
1.006256e+003, 7.176066e+001
1.006739e+003, 7.115359e+001
1.007221e+003, 7.117439e+001
1.007703e+003, 7.149178e+001
1.008185e+003, 7.170358e+001
1.008667e+003, 7.176868e+001
1.009149e+003, 7.170364e+001
1.009631e+003, 7.152865e+001
1.010113e+003, 7.138023e+001
1.010595e+003, 7.132659e+001
1.011078e+003, 7.142632e+001
1.011560e+003, 7.198288e+001
1.012042e+003, 7.269957e+001
1.012524e+003, 7.274331e+001
1.013006e+003, 7.218624e+001
1.013488e+003, 7.184347e+001
1.013970e+003, 7.206879e+001
1.014452e+003, 7.251640e+001
1.014935e+003, 7.288975e+001
1.015417e+003, 7.312549e+001
1.015899e+003, 7.296231e+001
1.016381e+003, 7.250159e+001
1.016863e+003, 7.219614e+001
1.017345e+003, 7.211819e+001
1.017827e+003, 7.226104e+001
1.018309e+003, 7.263402e+001
1.018791e+003, 7.301172e+001
1.019274e+003, 7.307228e+001
1.019756e+003, 7.287260e+001
1.020238e+003, 7.255634e+001
1.020720e+003, 7.214832e+001
1.021202e+003, 7.250450e+001
1.021684e+003, 7.383727e+001
1.022166e+003, 7.465535e+001
1.022648e+003, 7.403678e+001
1.023130e+003, 7.273956e+001
1.023613e+003, 7.194479e+001
1.024095e+003, 7.162786e+001
1.024577e+003, 7.139845e+001
1.025059e+003, 7.125367e+001
1.025541e+003, 7.123747e+001
1.026023e+003, 7.137903e+001
1.026505e+003, 7.155715e+001
1.026987e+003, 7.170371e+001
1.027469e+003, 7.182575e+001
1.027952e+003, 7.194292e+001
1.028434e+003, 7.205906e+001
1.028916e+003, 7.208843e+001
1.029398e+003, 7.203561e+001
1.029880e+003, 7.186087e+001
1.030362e+003, 7.148589e+001
1.030844e+003, 7.114887e+001
1.031326e+003, 7.098078e+001
1.031809e+003, 7.098373e+001
1.032291e+003, 7.120004e+001
1.032773e+003, 7.168279e+001
1.033255e+003, 7.190987e+001
1.033737e+003, 7.166563e+001
1.034219e+003, 7.166588e+001
1.034701e+003, 7.229928e+001
1.035183e+003, 7.281443e+001
1.035666e+003, 7.261331e+001
1.036148e+003, 7.201555e+001
1.036630e+003, 7.167104e+001
1.037112e+003, 7.159736e+001
1.037594e+003, 7.168457e+001
1.038076e+003, 7.217714e+001
1.038558e+003, 7.242936e+001
1.039040e+003, 7.205757e+001
1.039522e+003, 7.171019e+001
1.040005e+003, 7.188297e+001
1.040487e+003, 7.234740e+001
1.040969e+003, 7.263404e+001
1.041451e+003, 7.272768e+001
1.041933e+003, 7.272910e+001
1.042415e+003, 7.247796e+001
1.042897e+003, 7.236352e+001
1.043379e+003, 7.256390e+001
1.043861e+003, 7.281685e+001
1.044344e+003, 7.297538e+001
1.044826e+003, 7.306029e+001
1.045308e+003, 7.311800e+001
1.045790e+003, 7.315353e+001
1.046272e+003, 7.315111e+001
1.046754e+003, 7.303681e+001
1.047236e+003, 7.298589e+001
1.047718e+003, 7.317235e+001
1.048201e+003, 7.330822e+001
1.048683e+003, 7.315565e+001
1.049165e+003, 7.282595e+001
1.049647e+003, 7.248906e+001
1.050129e+003, 7.214631e+001
1.050611e+003, 7.203024e+001
1.051093e+003, 7.237593e+001
1.051575e+003, 7.269378e+001
1.052057e+003, 7.272170e+001
1.052540e+003, 7.278367e+001
1.053022e+003, 7.323355e+001
1.053504e+003, 7.384173e+001
1.053986e+003, 7.415988e+001
1.054468e+003, 7.411996e+001
1.054950e+003, 7.405235e+001
1.055432e+003, 7.401656e+001
1.055914e+003, 7.400434e+001
1.056396e+003, 7.406303e+001
1.056879e+003, 7.409633e+001
1.057361e+003, 7.401250e+001
1.057843e+003, 7.386101e+001
1.058325e+003, 7.368456e+001
1.058807e+003, 7.349800e+001
1.059289e+003, 7.350735e+001
1.059771e+003, 7.398051e+001
1.060253e+003, 7.439047e+001
1.060736e+003, 7.451639e+001
1.061218e+003, 7.452695e+001
1.061700e+003, 7.452730e+001
1.062182e+003, 7.451558e+001
1.062664e+003, 7.443449e+001
1.063146e+003, 7.429034e+001
1.063628e+003, 7.426081e+001
1.064110e+003, 7.450391e+001
1.064593e+003, 7.474011e+001
1.065075e+003, 7.486548e+001
1.065557e+003, 7.493004e+001
1.066039e+003, 7.499110e+001
1.066521e+003, 7.500790e+001
1.067003e+003, 7.487505e+001
1.067485e+003, 7.460365e+001
1.067967e+003, 7.439138e+001
1.068449e+003, 7.427968e+001
1.068932e+003, 7.429658e+001
1.069414e+003, 7.466208e+001
1.069896e+003, 7.495045e+001
1.070378e+003, 7.472810e+001
1.070860e+003, 7.428803e+001
1.071342e+003, 7.406081e+001
1.071824e+003, 7.408369e+001
1.072306e+003, 7.412548e+001
1.072788e+003, 7.410493e+001
1.073271e+003, 7.408295e+001
1.073753e+003, 7.407190e+001
1.074235e+003, 7.408591e+001
1.074717e+003, 7.411242e+001
1.075199e+003, 7.418415e+001
1.075681e+003, 7.444749e+001
1.076163e+003, 7.481682e+001
1.076645e+003, 7.484241e+001
1.077127e+003, 7.417715e+001
1.077610e+003, 7.378435e+001
1.078092e+003, 7.448617e+001
1.078574e+003, 7.520095e+001
1.079056e+003, 7.508049e+001
1.079538e+003, 7.463869e+001
1.080020e+003, 7.448706e+001
1.080502e+003, 7.464080e+001
1.080984e+003, 7.485632e+001
1.081467e+003, 7.507199e+001
1.081949e+003, 7.527921e+001
1.082431e+003, 7.539445e+001
1.082913e+003, 7.559397e+001
1.083395e+003, 7.615381e+001
1.083877e+003, 7.672279e+001
1.084359e+003, 7.685806e+001
1.084841e+003, 7.668089e+001
1.085323e+003, 7.660871e+001
1.085806e+003, 7.675840e+001
1.086288e+003, 7.692604e+001
1.086770e+003, 7.702551e+001
1.087252e+003, 7.712069e+001
1.087734e+003, 7.737833e+001
1.088216e+003, 7.753242e+001
1.088698e+003, 7.720551e+001
1.089180e+003, 7.661774e+001
1.089662e+003, 7.631082e+001
1.090145e+003, 7.639542e+001
1.090627e+003, 7.630762e+001
1.091109e+003, 7.551294e+001
1.091591e+003, 7.493174e+001
1.092073e+003, 7.515022e+001
1.092555e+003, 7.554797e+001
1.093037e+003, 7.569225e+001
1.093519e+003, 7.564124e+001
1.094002e+003, 7.553369e+001
1.094484e+003, 7.539754e+001
1.094966e+003, 7.526315e+001
1.095448e+003, 7.509576e+001
1.095930e+003, 7.499798e+001
1.096412e+003, 7.513562e+001
1.096894e+003, 7.521109e+001
1.097376e+003, 7.498692e+001
1.097859e+003, 7.461454e+001
1.098341e+003, 7.419588e+001
1.098823e+003, 7.380866e+001
1.099305e+003, 7.379392e+001
1.099787e+003, 7.450584e+001
1.100269e+003, 7.501463e+001
1.100751e+003, 7.494484e+001
1.101233e+003, 7.477876e+001
1.101715e+003, 7.474364e+001
1.102198e+003, 7.473946e+001
1.102680e+003, 7.462901e+001
1.103162e+003, 7.444388e+001
1.103644e+003, 7.433562e+001
1.104126e+003, 7.435613e+001
1.104608e+003, 7.435714e+001
1.105090e+003, 7.425413e+001
1.105572e+003, 7.420480e+001
1.106054e+003, 7.435786e+001
1.106537e+003, 7.449999e+001
1.107019e+003, 7.434199e+001
1.107501e+003, 7.406482e+001
1.107983e+003, 7.418383e+001
1.108465e+003, 7.486089e+001
1.108947e+003, 7.520850e+001
1.109429e+003, 7.476852e+001
1.109911e+003, 7.453508e+001
1.110394e+003, 7.498441e+001
1.110876e+003, 7.540037e+001
1.111358e+003, 7.523583e+001
1.111840e+003, 7.481562e+001
1.112322e+003, 7.462244e+001
1.112804e+003, 7.465852e+001
1.113286e+003, 7.501921e+001
1.113768e+003, 7.630488e+001
1.114250e+003, 7.690212e+001
1.114733e+003, 7.612818e+001
1.115215e+003, 7.543739e+001
1.115697e+003, 7.556951e+001
1.116179e+003, 7.597480e+001
1.116661e+003, 7.602478e+001
1.117143e+003, 7.576993e+001
1.117625e+003, 7.557658e+001
1.118107e+003, 7.543029e+001
1.118589e+003, 7.539549e+001
1.119072e+003, 7.557799e+001
1.119554e+003, 7.564832e+001
1.120036e+003, 7.540278e+001
1.120518e+003, 7.518122e+001
1.121000e+003, 7.530638e+001
1.121482e+003, 7.565599e+001
1.121964e+003, 7.586753e+001
1.122446e+003, 7.591641e+001
1.122929e+003, 7.598275e+001
1.123411e+003, 7.609920e+001
1.123893e+003, 7.611678e+001
1.124375e+003, 7.599206e+001
1.124857e+003, 7.578373e+001
1.125339e+003, 7.549528e+001
1.125821e+003, 7.521813e+001
1.126303e+003, 7.512178e+001
1.126786e+003, 7.519563e+001
1.127268e+003, 7.524892e+001
1.127750e+003, 7.527713e+001
1.128232e+003, 7.532572e+001
1.128714e+003, 7.540437e+001
1.129196e+003, 7.547047e+001
1.129678e+003, 7.550269e+001
1.130160e+003, 7.552475e+001
1.130642e+003, 7.555920e+001
1.131125e+003, 7.561256e+001
1.131607e+003, 7.571925e+001
1.132089e+003, 7.587479e+001
1.132571e+003, 7.603910e+001
1.133053e+003, 7.620348e+001
1.133535e+003, 7.608043e+001
1.134017e+003, 7.558323e+001
1.134499e+003, 7.504057e+001
1.134981e+003, 7.467559e+001
1.135464e+003, 7.458389e+001
1.135946e+003, 7.515662e+001
1.136428e+003, 7.612637e+001
1.136910e+003, 7.640555e+001
1.137392e+003, 7.609946e+001
1.137874e+003, 7.567860e+001
1.138356e+003, 7.529159e+001
1.138838e+003, 7.528001e+001
1.139321e+003, 7.582034e+001
1.139803e+003, 7.644471e+001
1.140285e+003, 7.665176e+001
1.140767e+003, 7.657729e+001
1.141249e+003, 7.633637e+001
1.141731e+003, 7.606606e+001
1.142213e+003, 7.618297e+001
1.142695e+003, 7.656518e+001
1.143177e+003, 7.661700e+001
1.143660e+003, 7.620367e+001
1.144142e+003, 7.590112e+001
1.144624e+003, 7.618423e+001
1.145106e+003, 7.658187e+001
1.145588e+003, 7.655183e+001
1.146070e+003, 7.639149e+001
1.146552e+003, 7.647633e+001
1.147034e+003, 7.671908e+001
1.147516e+003, 7.694557e+001
1.147999e+003, 7.711368e+001
1.148481e+003, 7.721861e+001
1.148963e+003, 7.724960e+001
1.149445e+003, 7.727382e+001
1.149927e+003, 7.728876e+001
1.150409e+003, 7.736204e+001
1.150891e+003, 7.762424e+001
1.151373e+003, 7.790328e+001
1.151856e+003, 7.796290e+001
1.152338e+003, 7.789686e+001
1.152820e+003, 7.800160e+001
1.153302e+003, 7.833695e+001
1.153784e+003, 7.849405e+001
1.154266e+003, 7.804338e+001
1.154748e+003, 7.780964e+001
1.155230e+003, 7.824044e+001
1.155713e+003, 7.877695e+001
1.156195e+003, 7.919654e+001
1.156677e+003, 7.943700e+001
1.157159e+003, 7.933598e+001
1.157641e+003, 7.896830e+001
1.158123e+003, 7.885885e+001
1.158605e+003, 7.921638e+001
1.159087e+003, 7.948943e+001
1.159569e+003, 7.970473e+001
1.160052e+003, 7.974345e+001
1.160534e+003, 7.929097e+001
1.161016e+003, 7.897762e+001
1.161498e+003, 7.941515e+001
1.161980e+003, 8.023580e+001
1.162462e+003, 8.061803e+001
1.162944e+003, 8.051028e+001
1.163426e+003, 8.052270e+001
1.163908e+003, 8.066409e+001
1.164391e+003, 8.092014e+001
1.164873e+003, 8.135279e+001
1.165355e+003, 8.170268e+001
1.165837e+003, 8.182891e+001
1.166319e+003, 8.186561e+001
1.166801e+003, 8.196375e+001
1.167283e+003, 8.211367e+001
1.167765e+003, 8.225237e+001
1.168247e+003, 8.237334e+001
1.168730e+003, 8.277603e+001
1.169212e+003, 8.348781e+001
1.169694e+003, 8.384329e+001
1.170176e+003, 8.365543e+001
1.170658e+003, 8.327333e+001
1.171140e+003, 8.290880e+001
1.171622e+003, 8.268643e+001
1.172104e+003, 8.285104e+001
1.172587e+003, 8.330239e+001
1.173069e+003, 8.381603e+001
1.173551e+003, 8.431411e+001
1.174033e+003, 8.445189e+001
1.174515e+003, 8.424939e+001
1.174997e+003, 8.401147e+001
1.175479e+003, 8.386003e+001
1.175961e+003, 8.379195e+001
1.176443e+003, 8.385279e+001
1.176926e+003, 8.388243e+001
1.177408e+003, 8.355396e+001
1.177890e+003, 8.316153e+001
1.178372e+003, 8.316258e+001
1.178854e+003, 8.342779e+001
1.179336e+003, 8.368141e+001
1.179818e+003, 8.387061e+001
1.180300e+003, 8.404272e+001
1.180782e+003, 8.422060e+001
1.181265e+003, 8.436073e+001
1.181747e+003, 8.442760e+001
1.182229e+003, 8.445893e+001
1.182711e+003, 8.444163e+001
1.183193e+003, 8.443443e+001
1.183675e+003, 8.446947e+001
1.184157e+003, 8.456609e+001
1.184639e+003, 8.477452e+001
1.185122e+003, 8.509324e+001
1.185604e+003, 8.537340e+001
1.186086e+003, 8.544976e+001
1.186568e+003, 8.569961e+001
1.187050e+003, 8.654124e+001
1.187532e+003, 8.712536e+001
1.188014e+003, 8.668035e+001
1.188496e+003, 8.618407e+001
1.188979e+003, 8.668620e+001
1.189461e+003, 8.780411e+001
1.189943e+003, 8.837202e+001
1.190425e+003, 8.821352e+001
1.190907e+003, 8.858907e+001
1.191389e+003, 8.981591e+001
1.191871e+003, 9.065708e+001
1.192353e+003, 9.081437e+001
1.192835e+003, 9.086164e+001
1.193318e+003, 9.107346e+001
1.193800e+003, 9.133566e+001
1.194282e+003, 9.148592e+001
1.194764e+003, 9.159666e+001
1.195246e+003, 9.199961e+001
1.195728e+003, 9.267874e+001
1.196210e+003, 9.318693e+001
1.196692e+003, 9.350986e+001
1.197174e+003, 9.388286e+001
1.197657e+003, 9.435246e+001
1.198139e+003, 9.462934e+001
1.198621e+003, 9.451511e+001
1.199103e+003, 9.439289e+001
1.199585e+003, 9.494594e+001
1.200067e+003, 9.571186e+001
1.200549e+003, 9.569244e+001
1.201031e+003, 9.519114e+001
1.201514e+003, 9.479653e+001
1.201996e+003, 9.457398e+001
1.202478e+003, 9.447933e+001
1.202960e+003, 9.448717e+001
1.203442e+003, 9.455020e+001
1.203924e+003, 9.467187e+001
1.204406e+003, 9.474763e+001
1.204888e+003, 9.469480e+001
1.205370e+003, 9.456859e+001
1.205853e+003, 9.442033e+001
1.206335e+003, 9.422250e+001
1.206817e+003, 9.385849e+001
1.207299e+003, 9.343057e+001
1.207781e+003, 9.320364e+001
1.208263e+003, 9.323722e+001
1.208745e+003, 9.334455e+001
1.209227e+003, 9.363097e+001
1.209709e+003, 9.376110e+001
1.210192e+003, 9.361069e+001
1.210674e+003, 9.335200e+001
1.211156e+003, 9.296880e+001
1.211638e+003, 9.260653e+001
1.212120e+003, 9.246343e+001
1.212602e+003, 9.245020e+001
1.213084e+003, 9.221340e+001
1.213566e+003, 9.168124e+001
1.214049e+003, 9.127091e+001
1.214531e+003, 9.096580e+001
1.215013e+003, 9.086816e+001
1.215495e+003, 9.102912e+001
1.215977e+003, 9.126704e+001
1.216459e+003, 9.150790e+001
1.216941e+003, 9.165267e+001
1.217423e+003, 9.154195e+001
1.217906e+003, 9.130163e+001
1.218388e+003, 9.140699e+001
1.218870e+003, 9.174376e+001
1.219352e+003, 9.163623e+001
1.219834e+003, 9.116714e+001
1.220316e+003, 9.094825e+001
1.220798e+003, 9.110170e+001
1.221280e+003, 9.143380e+001
1.221762e+003, 9.185168e+001
1.222245e+003, 9.213062e+001
1.222727e+003, 9.185882e+001
1.223209e+003, 9.151688e+001
1.223691e+003, 9.176882e+001
1.224173e+003, 9.219801e+001
1.224655e+003, 9.212403e+001
1.225137e+003, 9.184296e+001
1.225619e+003, 9.218466e+001
1.226101e+003, 9.311425e+001
1.226584e+003, 9.351958e+001
1.227066e+003, 9.275589e+001
1.227548e+003, 9.221573e+001
1.228030e+003, 9.244900e+001
1.228512e+003, 9.290519e+001
1.228994e+003, 9.358036e+001
1.229476e+003, 9.416927e+001
1.229958e+003, 9.451487e+001
1.230441e+003, 9.457111e+001
1.230923e+003, 9.410118e+001
1.231405e+003, 9.314123e+001
1.231887e+003, 9.307705e+001
1.232369e+003, 9.444663e+001
1.232851e+003, 9.498770e+001
1.233333e+003, 9.432198e+001
1.233815e+003, 9.384339e+001
1.234297e+003, 9.399619e+001
1.234780e+003, 9.431437e+001
1.235262e+003, 9.446408e+001
1.235744e+003, 9.457091e+001
1.236226e+003, 9.490810e+001
1.236708e+003, 9.535765e+001
1.237190e+003, 9.533757e+001
1.237672e+003, 9.497968e+001
1.238154e+003, 9.491724e+001
1.238636e+003, 9.513387e+001
1.239119e+003, 9.517297e+001
1.239601e+003, 9.493620e+001
1.240083e+003, 9.478700e+001
1.240565e+003, 9.497682e+001
1.241047e+003, 9.521889e+001
1.241529e+003, 9.522861e+001
1.242011e+003, 9.516787e+001
1.242493e+003, 9.525224e+001
1.242975e+003, 9.531792e+001
1.243458e+003, 9.500912e+001
1.243940e+003, 9.457000e+001
1.244422e+003, 9.461117e+001
1.244904e+003, 9.518829e+001
1.245386e+003, 9.561758e+001
1.245868e+003, 9.573353e+001
1.246350e+003, 9.566946e+001
1.246832e+003, 9.516495e+001
1.247315e+003, 9.487047e+001
1.247797e+003, 9.516661e+001
1.248279e+003, 9.555054e+001
1.248761e+003, 9.571818e+001
1.249243e+003, 9.569346e+001
1.249725e+003, 9.547518e+001
1.250207e+003, 9.508532e+001
1.250689e+003, 9.494009e+001
1.251172e+003, 9.506291e+001
1.251654e+003, 9.513986e+001
1.252136e+003, 9.514027e+001
1.252618e+003, 9.532021e+001
1.253100e+003, 9.575517e+001
1.253582e+003, 9.618616e+001
1.254064e+003, 9.643759e+001
1.254546e+003, 9.655293e+001
1.255028e+003, 9.653002e+001
1.255510e+003, 9.645600e+001
1.255993e+003, 9.651738e+001
1.256475e+003, 9.663696e+001
1.256957e+003, 9.666124e+001
1.257439e+003, 9.661723e+001
1.257921e+003, 9.656245e+001
1.258403e+003, 9.654272e+001
1.258885e+003, 9.672575e+001
1.259367e+003, 9.728532e+001
1.259850e+003, 9.765823e+001
1.260332e+003, 9.730602e+001
1.260814e+003, 9.707077e+001
1.261296e+003, 9.745660e+001
1.261778e+003, 9.800523e+001
1.262260e+003, 9.850826e+001
1.262742e+003, 9.885114e+001
1.263224e+003, 9.883295e+001
1.263707e+003, 9.849855e+001
1.264189e+003, 9.820424e+001
1.264671e+003, 9.793245e+001
1.265153e+003, 9.774099e+001
1.265635e+003, 9.759975e+001
1.266117e+003, 9.770589e+001
1.266599e+003, 9.813393e+001
1.267081e+003, 9.863393e+001
1.267563e+003, 9.908437e+001
1.268046e+003, 9.937266e+001
1.268528e+003, 9.931652e+001
1.269010e+003, 9.909802e+001
1.269492e+003, 9.909736e+001
1.269974e+003, 9.928908e+001
1.270456e+003, 9.977669e+001
1.270938e+003, 1.003559e+002
1.271420e+003, 1.003476e+002
1.271902e+003, 9.985997e+001
1.272385e+003, 9.978323e+001
1.272867e+003, 1.004593e+002
1.273349e+003, 1.011489e+002
1.273831e+003, 1.013766e+002
1.274313e+003, 1.015576e+002
1.274795e+003, 1.019783e+002
1.275277e+003, 1.023379e+002
1.275759e+003, 1.021813e+002
1.276242e+003, 1.020579e+002
1.276724e+003, 1.028556e+002
1.277206e+003, 1.041809e+002
1.277688e+003, 1.046292e+002
1.278170e+003, 1.040613e+002
1.278652e+003, 1.039013e+002
1.279134e+003, 1.042663e+002
1.279616e+003, 1.046136e+002
1.280099e+003, 1.048739e+002
1.280581e+003, 1.052062e+002
1.281063e+003, 1.056846e+002
1.281545e+003, 1.060778e+002
1.282027e+003, 1.061903e+002
1.282509e+003, 1.061991e+002
1.282991e+003, 1.063186e+002
1.283473e+003, 1.066037e+002
1.283955e+003, 1.071958e+002
##END=



