##NAMES=Fluorcalcioromeite
##RRUFFID=R120140
##IDEAL CHEMISTRY=(Ca,Na)_2_Sb^5+^_2_O_6_F
##LOCALITY=Starlera mine, Starlera Valley, Ferrera, Hinterrhein district, Grishun, Switzerland
##OWNER=RRUFF
##SOURCE=Marcelo Andrade
##DESCRIPTION=Brownish-yellow octahedra, associated with hematite, calcite and quartz. Type specimen (Atencio et al (2013))
##STATUS=The identification of this mineral is confirmed by single-crystal X-ray diffraction and chemical analysis.
##URL=rruff.info/R120140
##MEASURED CHEMISTRY=(Ca_1.16_Na_0.56_Fe_0.03_Mn_0.03_)(Sb_1.98_Al_0.01_W_0.01_)_2_O_6_[F_0.62_(OH)_0.35_]
8.936163e+001, 0.000000e+000
8.984375e+001, 9.248596e+001
9.032587e+001, 9.373076e+001
9.080798e+001, 9.395457e+001
9.129010e+001, 9.270781e+001
9.177222e+001, 9.096346e+001
9.225433e+001, 8.992896e+001
9.273645e+001, 8.954884e+001
9.321857e+001, 8.928223e+001
9.370068e+001, 8.880229e+001
9.418280e+001, 8.809935e+001
9.466492e+001, 8.712605e+001
9.514703e+001, 8.568600e+001
9.562915e+001, 8.399976e+001
9.611127e+001, 8.266826e+001
9.659338e+001, 8.173373e+001
9.707550e+001, 8.098682e+001
9.755762e+001, 8.014997e+001
9.803973e+001, 7.921616e+001
9.852185e+001, 7.840708e+001
9.900397e+001, 7.784950e+001
9.948608e+001, 7.754769e+001
9.996820e+001, 7.723355e+001
1.004503e+002, 7.693342e+001
1.009324e+002, 7.658411e+001
1.014146e+002, 7.603324e+001
1.018967e+002, 7.522598e+001
1.023788e+002, 7.436028e+001
1.028609e+002, 7.354068e+001
1.033430e+002, 7.281869e+001
1.038251e+002, 7.198683e+001
1.043073e+002, 7.096708e+001
1.047894e+002, 6.981998e+001
1.052715e+002, 6.887314e+001
1.057536e+002, 6.820788e+001
1.062357e+002, 6.764390e+001
1.067178e+002, 6.704481e+001
1.072000e+002, 6.634632e+001
1.076821e+002, 6.571405e+001
1.081642e+002, 6.518657e+001
1.086463e+002, 6.477082e+001
1.091284e+002, 6.436498e+001
1.096105e+002, 6.414853e+001
1.100927e+002, 6.386244e+001
1.105748e+002, 6.326894e+001
1.110569e+002, 6.173638e+001
1.115390e+002, 6.048674e+001
1.120211e+002, 5.994313e+001
1.125032e+002, 6.039974e+001
1.129854e+002, 6.051940e+001
1.134675e+002, 5.988474e+001
1.139496e+002, 5.885420e+001
1.144317e+002, 5.793640e+001
1.149138e+002, 5.726255e+001
1.153959e+002, 5.672392e+001
1.158781e+002, 5.630671e+001
1.163602e+002, 5.610650e+001
1.168423e+002, 5.580918e+001
1.173244e+002, 5.519301e+001
1.178065e+002, 5.437947e+001
1.182886e+002, 5.367786e+001
1.187708e+002, 5.331546e+001
1.192529e+002, 5.306659e+001
1.197350e+002, 5.275973e+001
1.202171e+002, 5.232077e+001
1.206992e+002, 5.184724e+001
1.211813e+002, 5.136842e+001
1.216635e+002, 5.089376e+001
1.221456e+002, 5.048913e+001
1.226277e+002, 5.038568e+001
1.231098e+002, 5.033348e+001
1.235919e+002, 4.999581e+001
1.240740e+002, 4.894426e+001
1.245562e+002, 4.773797e+001
1.250383e+002, 4.697889e+001
1.255204e+002, 4.666053e+001
1.260025e+002, 4.653811e+001
1.264846e+002, 4.648817e+001
1.269667e+002, 4.648087e+001
1.274489e+002, 4.644156e+001
1.279310e+002, 4.640698e+001
1.284131e+002, 4.630752e+001
1.288952e+002, 4.593334e+001
1.293773e+002, 4.522499e+001
1.298594e+002, 4.449715e+001
1.303416e+002, 4.410240e+001
1.308237e+002, 4.402610e+001
1.313058e+002, 4.413515e+001
1.317879e+002, 4.459636e+001
1.322700e+002, 4.526560e+001
1.327521e+002, 4.535560e+001
1.332343e+002, 4.465981e+001
1.337164e+002, 4.362105e+001
1.341985e+002, 4.307969e+001
1.346806e+002, 4.307207e+001
1.351627e+002, 4.308073e+001
1.356448e+002, 4.272889e+001
1.361270e+002, 4.200896e+001
1.366091e+002, 4.137166e+001
1.370912e+002, 4.084797e+001
1.375733e+002, 4.045696e+001
1.380554e+002, 4.032380e+001
1.385375e+002, 4.057560e+001
1.390197e+002, 4.071188e+001
1.395018e+002, 4.020639e+001
1.399839e+002, 3.883690e+001
1.404660e+002, 3.783934e+001
1.409481e+002, 3.753637e+001
1.414302e+002, 3.786262e+001
1.419124e+002, 3.792285e+001
1.423945e+002, 3.764055e+001
1.428766e+002, 3.720015e+001
1.433587e+002, 3.674334e+001
1.438408e+002, 3.616979e+001
1.443229e+002, 3.580180e+001
1.448051e+002, 3.578576e+001
1.452872e+002, 3.619756e+001
1.457693e+002, 3.637556e+001
1.462514e+002, 3.619008e+001
1.467335e+002, 3.585529e+001
1.472156e+002, 3.565889e+001
1.476978e+002, 3.588351e+001
1.481799e+002, 3.589843e+001
1.486620e+002, 3.548144e+001
1.491441e+002, 3.439583e+001
1.496262e+002, 3.352608e+001
1.501083e+002, 3.285578e+001
1.505905e+002, 3.241382e+001
1.510726e+002, 3.225701e+001
1.515547e+002, 3.281250e+001
1.520368e+002, 3.328518e+001
1.525189e+002, 3.340774e+001
1.530010e+002, 3.285944e+001
1.534832e+002, 3.250824e+001
1.539653e+002, 3.256226e+001
1.544474e+002, 3.285941e+001
1.549295e+002, 3.301047e+001
1.554116e+002, 3.290009e+001
1.558937e+002, 3.268214e+001
1.563759e+002, 3.241099e+001
1.568580e+002, 3.190635e+001
1.573401e+002, 3.160257e+001
1.578222e+002, 3.169202e+001
1.583043e+002, 3.207932e+001
1.587864e+002, 3.241270e+001
1.592686e+002, 3.254055e+001
1.597507e+002, 3.261750e+001
1.602328e+002, 3.274091e+001
1.607149e+002, 3.285124e+001
1.611970e+002, 3.309409e+001
1.616791e+002, 3.360093e+001
1.621613e+002, 3.432305e+001
1.626434e+002, 3.498766e+001
1.631255e+002, 3.531347e+001
1.636076e+002, 3.559948e+001
1.640897e+002, 3.611208e+001
1.645718e+002, 3.694173e+001
1.650540e+002, 3.801400e+001
1.655361e+002, 3.940415e+001
1.660182e+002, 4.110231e+001
1.665003e+002, 4.273622e+001
1.669824e+002, 4.383549e+001
1.674645e+002, 4.484597e+001
1.679467e+002, 4.629972e+001
1.684288e+002, 4.865792e+001
1.689109e+002, 5.136581e+001
1.693930e+002, 5.398963e+001
1.698751e+002, 5.651430e+001
1.703572e+002, 5.926887e+001
1.708394e+002, 6.261291e+001
1.713215e+002, 6.636704e+001
1.718036e+002, 7.017220e+001
1.722857e+002, 7.388750e+001
1.727678e+002, 7.760716e+001
1.732499e+002, 8.150848e+001
1.737321e+002, 8.567836e+001
1.742142e+002, 8.966298e+001
1.746963e+002, 9.308817e+001
1.751784e+002, 9.610371e+001
1.756605e+002, 9.907700e+001
1.761426e+002, 1.022181e+002
1.766248e+002, 1.053921e+002
1.771069e+002, 1.084089e+002
1.775890e+002, 1.112652e+002
1.780711e+002, 1.139561e+002
1.785532e+002, 1.163325e+002
1.790353e+002, 1.185142e+002
1.795175e+002, 1.208350e+002
1.799996e+002, 1.236338e+002
1.804817e+002, 1.266909e+002
1.809638e+002, 1.296302e+002
1.814459e+002, 1.323974e+002
1.819280e+002, 1.350856e+002
1.824102e+002, 1.377841e+002
1.828923e+002, 1.404793e+002
1.833744e+002, 1.434117e+002
1.838565e+002, 1.467262e+002
1.843386e+002, 1.503854e+002
1.848207e+002, 1.542390e+002
1.853029e+002, 1.584170e+002
1.857850e+002, 1.625723e+002
1.862671e+002, 1.660338e+002
1.867492e+002, 1.688261e+002
1.872313e+002, 1.717733e+002
1.877134e+002, 1.753991e+002
1.881956e+002, 1.796759e+002
1.886777e+002, 1.843535e+002
1.891598e+002, 1.895775e+002
1.896419e+002, 1.950392e+002
1.901240e+002, 2.002007e+002
1.906061e+002, 2.051308e+002
1.910883e+002, 2.096463e+002
1.915704e+002, 2.135353e+002
1.920525e+002, 2.168834e+002
1.925346e+002, 2.201853e+002
1.930167e+002, 2.235043e+002
1.934988e+002, 2.266909e+002
1.939810e+002, 2.289929e+002
1.944631e+002, 2.302101e+002
1.949452e+002, 2.312767e+002
1.954273e+002, 2.316550e+002
1.959094e+002, 2.313715e+002
1.963915e+002, 2.322546e+002
1.968737e+002, 2.351090e+002
1.973558e+002, 2.391635e+002
1.978379e+002, 2.419881e+002
1.983200e+002, 2.436750e+002
1.988021e+002, 2.438755e+002
1.992842e+002, 2.416506e+002
1.997664e+002, 2.368504e+002
2.002485e+002, 2.328886e+002
2.007306e+002, 2.305802e+002
2.012127e+002, 2.296441e+002
2.016948e+002, 2.284372e+002
2.021769e+002, 2.268275e+002
2.026591e+002, 2.253580e+002
2.031412e+002, 2.247006e+002
2.036233e+002, 2.249829e+002
2.041054e+002, 2.250237e+002
2.045875e+002, 2.244225e+002
2.050696e+002, 2.232932e+002
2.055518e+002, 2.227226e+002
2.060339e+002, 2.228123e+002
2.065160e+002, 2.231996e+002
2.069981e+002, 2.235371e+002
2.074802e+002, 2.238097e+002
2.079623e+002, 2.240816e+002
2.084445e+002, 2.243987e+002
2.089266e+002, 2.247522e+002
2.094087e+002, 2.249093e+002
2.098908e+002, 2.248333e+002
2.103729e+002, 2.246306e+002
2.108550e+002, 2.243779e+002
2.113372e+002, 2.240287e+002
2.118193e+002, 2.238079e+002
2.123014e+002, 2.238561e+002
2.127835e+002, 2.241745e+002
2.132656e+002, 2.241523e+002
2.137477e+002, 2.237505e+002
2.142299e+002, 2.230666e+002
2.147120e+002, 2.221544e+002
2.151941e+002, 2.208634e+002
2.156762e+002, 2.197416e+002
2.161583e+002, 2.189692e+002
2.166404e+002, 2.185758e+002
2.171226e+002, 2.180423e+002
2.176047e+002, 2.173587e+002
2.180868e+002, 2.165466e+002
2.185689e+002, 2.155965e+002
2.190510e+002, 2.144259e+002
2.195331e+002, 2.133063e+002
2.200153e+002, 2.123230e+002
2.204974e+002, 2.114978e+002
2.209795e+002, 2.105340e+002
2.214616e+002, 2.093559e+002
2.219437e+002, 2.081184e+002
2.224258e+002, 2.070130e+002
2.229080e+002, 2.061548e+002
2.233901e+002, 2.052003e+002
2.238722e+002, 2.040512e+002
2.243543e+002, 2.026649e+002
2.248364e+002, 2.013421e+002
2.253185e+002, 2.000453e+002
2.258007e+002, 1.988542e+002
2.262828e+002, 1.979162e+002
2.267649e+002, 1.975014e+002
2.272470e+002, 1.967944e+002
2.277291e+002, 1.954911e+002
2.282112e+002, 1.934500e+002
2.286934e+002, 1.917510e+002
2.291755e+002, 1.904934e+002
2.296576e+002, 1.894837e+002
2.301397e+002, 1.885319e+002
2.306218e+002, 1.877514e+002
2.311039e+002, 1.867928e+002
2.315861e+002, 1.854985e+002
2.320682e+002, 1.837548e+002
2.325503e+002, 1.823797e+002
2.330324e+002, 1.814954e+002
2.335145e+002, 1.808848e+002
2.339966e+002, 1.802612e+002
2.344788e+002, 1.795522e+002
2.349609e+002, 1.789874e+002
2.354430e+002, 1.787605e+002
2.359251e+002, 1.790140e+002
2.364072e+002, 1.785275e+002
2.368893e+002, 1.767168e+002
2.373715e+002, 1.746441e+002
2.378536e+002, 1.737438e+002
2.383357e+002, 1.748788e+002
2.388178e+002, 1.756344e+002
2.392999e+002, 1.752010e+002
2.397820e+002, 1.733275e+002
2.402642e+002, 1.722185e+002
2.407463e+002, 1.722031e+002
2.412284e+002, 1.726661e+002
2.417105e+002, 1.728443e+002
2.421926e+002, 1.725016e+002
2.426747e+002, 1.722990e+002
2.431569e+002, 1.724416e+002
2.436390e+002, 1.729853e+002
2.441211e+002, 1.734010e+002
2.446032e+002, 1.736195e+002
2.450853e+002, 1.737745e+002
2.455674e+002, 1.740284e+002
2.460496e+002, 1.744524e+002
2.465317e+002, 1.748408e+002
2.470138e+002, 1.750769e+002
2.474959e+002, 1.751184e+002
2.479780e+002, 1.755697e+002
2.484601e+002, 1.766189e+002
2.489423e+002, 1.778998e+002
2.494244e+002, 1.789726e+002
2.499065e+002, 1.795862e+002
2.503886e+002, 1.805155e+002
2.508707e+002, 1.821069e+002
2.513528e+002, 1.844025e+002
2.518350e+002, 1.860973e+002
2.523171e+002, 1.869613e+002
2.527992e+002, 1.874573e+002
2.532813e+002, 1.879924e+002
2.537634e+002, 1.884296e+002
2.542455e+002, 1.892010e+002
2.547277e+002, 1.905443e+002
2.552098e+002, 1.924796e+002
2.556919e+002, 1.939189e+002
2.561740e+002, 1.947419e+002
2.566561e+002, 1.952141e+002
2.571382e+002, 1.955227e+002
2.576204e+002, 1.955448e+002
2.581025e+002, 1.957025e+002
2.585846e+002, 1.960910e+002
2.590667e+002, 1.967016e+002
2.595488e+002, 1.973674e+002
2.600309e+002, 1.981624e+002
2.605131e+002, 1.988890e+002
2.609952e+002, 1.993506e+002
2.614773e+002, 1.994913e+002
2.619594e+002, 1.995280e+002
2.624415e+002, 1.994151e+002
2.629236e+002, 1.991935e+002
2.634058e+002, 1.992280e+002
2.638879e+002, 1.994075e+002
2.643700e+002, 2.000352e+002
2.648521e+002, 2.016122e+002
2.653342e+002, 2.046508e+002
2.658163e+002, 2.068540e+002
2.662985e+002, 2.077638e+002
2.667806e+002, 2.075466e+002
2.672627e+002, 2.070207e+002
2.677448e+002, 2.059626e+002
2.682269e+002, 2.050688e+002
2.687090e+002, 2.049085e+002
2.691912e+002, 2.056401e+002
2.696733e+002, 2.064087e+002
2.701554e+002, 2.070854e+002
2.706375e+002, 2.077282e+002
2.711196e+002, 2.085471e+002
2.716017e+002, 2.095499e+002
2.720839e+002, 2.106965e+002
2.725660e+002, 2.119798e+002
2.730481e+002, 2.134384e+002
2.735302e+002, 2.148209e+002
2.740123e+002, 2.161314e+002
2.744944e+002, 2.173490e+002
2.749766e+002, 2.183660e+002
2.754587e+002, 2.191067e+002
2.759408e+002, 2.199409e+002
2.764229e+002, 2.211413e+002
2.769050e+002, 2.227538e+002
2.773871e+002, 2.242271e+002
2.778693e+002, 2.255012e+002
2.783514e+002, 2.266444e+002
2.788335e+002, 2.277584e+002
2.793156e+002, 2.288319e+002
2.797977e+002, 2.300101e+002
2.802798e+002, 2.315037e+002
2.807620e+002, 2.333036e+002
2.812441e+002, 2.346651e+002
2.817262e+002, 2.354090e+002
2.822083e+002, 2.359559e+002
2.826904e+002, 2.370991e+002
2.831725e+002, 2.388727e+002
2.836547e+002, 2.407283e+002
2.841368e+002, 2.424390e+002
2.846189e+002, 2.439958e+002
2.851010e+002, 2.454478e+002
2.855831e+002, 2.467662e+002
2.860652e+002, 2.480615e+002
2.865474e+002, 2.494995e+002
2.870295e+002, 2.510777e+002
2.875116e+002, 2.526955e+002
2.879937e+002, 2.544155e+002
2.884758e+002, 2.561886e+002
2.889579e+002, 2.575690e+002
2.894401e+002, 2.585237e+002
2.899222e+002, 2.593451e+002
2.904043e+002, 2.603436e+002
2.908864e+002, 2.615126e+002
2.913685e+002, 2.627971e+002
2.918506e+002, 2.641214e+002
2.923328e+002, 2.655500e+002
2.928149e+002, 2.673723e+002
2.932970e+002, 2.696387e+002
2.937791e+002, 2.717915e+002
2.942612e+002, 2.727033e+002
2.947433e+002, 2.728329e+002
2.952255e+002, 2.741494e+002
2.957076e+002, 2.784655e+002
2.961897e+002, 2.837091e+002
2.966718e+002, 2.853013e+002
2.971539e+002, 2.833188e+002
2.976360e+002, 2.805920e+002
2.981182e+002, 2.792448e+002
2.986003e+002, 2.790026e+002
2.990824e+002, 2.791690e+002
2.995645e+002, 2.796390e+002
3.000466e+002, 2.803441e+002
3.005287e+002, 2.814091e+002
3.010109e+002, 2.827485e+002
3.014930e+002, 2.837794e+002
3.019751e+002, 2.838936e+002
3.024572e+002, 2.834424e+002
3.029393e+002, 2.830112e+002
3.034214e+002, 2.827327e+002
3.039036e+002, 2.824936e+002
3.043857e+002, 2.823142e+002
3.048678e+002, 2.821185e+002
3.053499e+002, 2.816118e+002
3.058320e+002, 2.806988e+002
3.063141e+002, 2.793443e+002
3.067963e+002, 2.774323e+002
3.072784e+002, 2.747784e+002
3.077605e+002, 2.719954e+002
3.082426e+002, 2.694820e+002
3.087247e+002, 2.672146e+002
3.092068e+002, 2.651389e+002
3.096890e+002, 2.635733e+002
3.101711e+002, 2.619773e+002
3.106532e+002, 2.598327e+002
3.111353e+002, 2.570042e+002
3.116174e+002, 2.540625e+002
3.120995e+002, 2.511823e+002
3.125817e+002, 2.484868e+002
3.130638e+002, 2.461335e+002
3.135459e+002, 2.445556e+002
3.140280e+002, 2.430407e+002
3.145101e+002, 2.411278e+002
3.149922e+002, 2.387793e+002
3.154744e+002, 2.363435e+002
3.159565e+002, 2.336610e+002
3.164386e+002, 2.311064e+002
3.169207e+002, 2.291370e+002
3.174028e+002, 2.286980e+002
3.178849e+002, 2.281180e+002
3.183671e+002, 2.264833e+002
3.188492e+002, 2.238376e+002
3.193313e+002, 2.215789e+002
3.198134e+002, 2.203857e+002
3.202955e+002, 2.196498e+002
3.207776e+002, 2.188982e+002
3.212598e+002, 2.181558e+002
3.217419e+002, 2.172358e+002
3.222240e+002, 2.159880e+002
3.227061e+002, 2.144780e+002
3.231882e+002, 2.130573e+002
3.236703e+002, 2.115163e+002
3.241525e+002, 2.102644e+002
3.246346e+002, 2.095662e+002
3.251167e+002, 2.101352e+002
3.255988e+002, 2.103063e+002
3.260809e+002, 2.097186e+002
3.265630e+002, 2.086116e+002
3.270452e+002, 2.076369e+002
3.275273e+002, 2.070839e+002
3.280094e+002, 2.064655e+002
3.284915e+002, 2.055746e+002
3.289736e+002, 2.041931e+002
3.294557e+002, 2.030460e+002
3.299379e+002, 2.021417e+002
3.304200e+002, 2.014663e+002
3.309021e+002, 2.010218e+002
3.313842e+002, 2.009865e+002
3.318663e+002, 2.009349e+002
3.323484e+002, 2.007335e+002
3.328306e+002, 2.003499e+002
3.333127e+002, 2.000371e+002
3.337948e+002, 1.998078e+002
3.342769e+002, 1.996349e+002
3.347590e+002, 1.995432e+002
3.352411e+002, 1.997199e+002
3.357233e+002, 1.995398e+002
3.362054e+002, 1.987417e+002
3.366875e+002, 1.973783e+002
3.371696e+002, 1.964036e+002
3.376517e+002, 1.958841e+002
3.381339e+002, 1.956327e+002
3.386160e+002, 1.955726e+002
3.390981e+002, 1.957726e+002
3.395802e+002, 1.958045e+002
3.400623e+002, 1.955327e+002
3.405444e+002, 1.950829e+002
3.410266e+002, 1.949280e+002
3.415087e+002, 1.951169e+002
3.419908e+002, 1.953371e+002
3.424729e+002, 1.954025e+002
3.429550e+002, 1.953104e+002
3.434371e+002, 1.951452e+002
3.439193e+002, 1.949029e+002
3.444014e+002, 1.946060e+002
3.448835e+002, 1.942612e+002
3.453656e+002, 1.938698e+002
3.458477e+002, 1.935603e+002
3.463298e+002, 1.934104e+002
3.468120e+002, 1.934006e+002
3.472941e+002, 1.934986e+002
3.477762e+002, 1.937369e+002
3.482583e+002, 1.939211e+002
3.487404e+002, 1.937553e+002
3.492225e+002, 1.933148e+002
3.497047e+002, 1.929076e+002
3.501868e+002, 1.925708e+002
3.506689e+002, 1.923774e+002
3.511510e+002, 1.925812e+002
3.516331e+002, 1.931710e+002
3.521152e+002, 1.936830e+002
3.525974e+002, 1.936734e+002
3.530795e+002, 1.933181e+002
3.535616e+002, 1.929290e+002
3.540437e+002, 1.925315e+002
3.545258e+002, 1.922118e+002
3.550079e+002, 1.921404e+002
3.554901e+002, 1.922573e+002
3.559722e+002, 1.922899e+002
3.564543e+002, 1.919448e+002
3.569364e+002, 1.914923e+002
3.574185e+002, 1.912339e+002
3.579006e+002, 1.913020e+002
3.583828e+002, 1.913599e+002
3.588649e+002, 1.913159e+002
3.593470e+002, 1.911068e+002
3.598291e+002, 1.906069e+002
3.603112e+002, 1.893974e+002
3.607933e+002, 1.881532e+002
3.612755e+002, 1.871928e+002
3.617576e+002, 1.865281e+002
3.622397e+002, 1.862814e+002
3.627218e+002, 1.869045e+002
3.632039e+002, 1.878239e+002
3.636860e+002, 1.884000e+002
3.641682e+002, 1.879050e+002
3.646503e+002, 1.875892e+002
3.651324e+002, 1.878885e+002
3.656145e+002, 1.887910e+002
3.660966e+002, 1.897993e+002
3.665787e+002, 1.910615e+002
3.670609e+002, 1.922615e+002
3.675430e+002, 1.931975e+002
3.680251e+002, 1.936675e+002
3.685072e+002, 1.940977e+002
3.689893e+002, 1.946423e+002
3.694714e+002, 1.951872e+002
3.699536e+002, 1.953225e+002
3.704357e+002, 1.948502e+002
3.709178e+002, 1.941756e+002
3.713999e+002, 1.934550e+002
3.718820e+002, 1.926915e+002
3.723641e+002, 1.918735e+002
3.728463e+002, 1.910859e+002
3.733284e+002, 1.901968e+002
3.738105e+002, 1.889053e+002
3.742926e+002, 1.868887e+002
3.747747e+002, 1.851844e+002
3.752568e+002, 1.840856e+002
3.757390e+002, 1.835928e+002
3.762211e+002, 1.834269e+002
3.767032e+002, 1.837288e+002
3.771853e+002, 1.840551e+002
3.776674e+002, 1.839137e+002
3.781495e+002, 1.832368e+002
3.786317e+002, 1.826941e+002
3.791138e+002, 1.824612e+002
3.795959e+002, 1.824147e+002
3.800780e+002, 1.820604e+002
3.805601e+002, 1.813557e+002
3.810422e+002, 1.808535e+002
3.815244e+002, 1.812109e+002
3.820065e+002, 1.822107e+002
3.824886e+002, 1.825452e+002
3.829707e+002, 1.819710e+002
3.834528e+002, 1.810498e+002
3.839349e+002, 1.804286e+002
3.844171e+002, 1.801141e+002
3.848992e+002, 1.801189e+002
3.853813e+002, 1.807126e+002
3.858634e+002, 1.815449e+002
3.863455e+002, 1.820084e+002
3.868276e+002, 1.820732e+002
3.873098e+002, 1.819832e+002
3.877919e+002, 1.817734e+002
3.882740e+002, 1.815747e+002
3.887561e+002, 1.816018e+002
3.892382e+002, 1.816939e+002
3.897203e+002, 1.822572e+002
3.902025e+002, 1.840690e+002
3.906846e+002, 1.868240e+002
3.911667e+002, 1.891338e+002
3.916488e+002, 1.903047e+002
3.921309e+002, 1.906202e+002
3.926130e+002, 1.902120e+002
3.930952e+002, 1.888036e+002
3.935773e+002, 1.873720e+002
3.940594e+002, 1.861551e+002
3.945415e+002, 1.852238e+002
3.950236e+002, 1.847092e+002
3.955057e+002, 1.849699e+002
3.959879e+002, 1.853787e+002
3.964700e+002, 1.856999e+002
3.969521e+002, 1.859031e+002
3.974342e+002, 1.861129e+002
3.979163e+002, 1.863316e+002
3.983984e+002, 1.865754e+002
3.988806e+002, 1.868592e+002
3.993627e+002, 1.869192e+002
3.998448e+002, 1.873288e+002
4.003269e+002, 1.882841e+002
4.008090e+002, 1.897116e+002
4.012911e+002, 1.910326e+002
4.017733e+002, 1.923579e+002
4.022554e+002, 1.934591e+002
4.027375e+002, 1.941555e+002
4.032196e+002, 1.941558e+002
4.037017e+002, 1.944952e+002
4.041838e+002, 1.952625e+002
4.046660e+002, 1.963144e+002
4.051481e+002, 1.973938e+002
4.056302e+002, 1.985333e+002
4.061123e+002, 1.996050e+002
4.065944e+002, 2.005563e+002
4.070765e+002, 2.013946e+002
4.075587e+002, 2.021743e+002
4.080408e+002, 2.028777e+002
4.085229e+002, 2.035997e+002
4.090050e+002, 2.044023e+002
4.094871e+002, 2.052877e+002
4.099692e+002, 2.063864e+002
4.104514e+002, 2.078577e+002
4.109335e+002, 2.094171e+002
4.114156e+002, 2.101225e+002
4.118977e+002, 2.100860e+002
4.123798e+002, 2.107088e+002
4.128619e+002, 2.135453e+002
4.133441e+002, 2.175684e+002
4.138262e+002, 2.208771e+002
4.143083e+002, 2.232616e+002
4.147904e+002, 2.249701e+002
4.152725e+002, 2.261444e+002
4.157546e+002, 2.268480e+002
4.162368e+002, 2.272384e+002
4.167189e+002, 2.274736e+002
4.172010e+002, 2.273560e+002
4.176831e+002, 2.264223e+002
4.181652e+002, 2.247514e+002
4.186473e+002, 2.234728e+002
4.191295e+002, 2.233400e+002
4.196116e+002, 2.238162e+002
4.200937e+002, 2.244314e+002
4.205758e+002, 2.250392e+002
4.210579e+002, 2.258252e+002
4.215400e+002, 2.270152e+002
4.220222e+002, 2.284380e+002
4.225043e+002, 2.297051e+002
4.229864e+002, 2.307634e+002
4.234685e+002, 2.316081e+002
4.239506e+002, 2.321352e+002
4.244327e+002, 2.321051e+002
4.249149e+002, 2.325643e+002
4.253970e+002, 2.339118e+002
4.258791e+002, 2.355571e+002
4.263612e+002, 2.369536e+002
4.268433e+002, 2.381288e+002
4.273254e+002, 2.389596e+002
4.278076e+002, 2.391919e+002
4.282897e+002, 2.389832e+002
4.287718e+002, 2.395371e+002
4.292539e+002, 2.411667e+002
4.297360e+002, 2.428946e+002
4.302181e+002, 2.440331e+002
4.307003e+002, 2.444373e+002
4.311824e+002, 2.452771e+002
4.316645e+002, 2.467670e+002
4.321466e+002, 2.484202e+002
4.326287e+002, 2.492451e+002
4.331108e+002, 2.492174e+002
4.335930e+002, 2.493979e+002
4.340751e+002, 2.502849e+002
4.345572e+002, 2.516813e+002
4.350393e+002, 2.528779e+002
4.355214e+002, 2.538629e+002
4.360035e+002, 2.549963e+002
4.364857e+002, 2.567493e+002
4.369678e+002, 2.588770e+002
4.374499e+002, 2.607934e+002
4.379320e+002, 2.622691e+002
4.384141e+002, 2.636897e+002
4.388962e+002, 2.654190e+002
4.393784e+002, 2.674288e+002
4.398605e+002, 2.696389e+002
4.403426e+002, 2.719513e+002
4.408247e+002, 2.744734e+002
4.413068e+002, 2.774425e+002
4.417889e+002, 2.808907e+002
4.422711e+002, 2.842508e+002
4.427532e+002, 2.869736e+002
4.432353e+002, 2.895602e+002
4.437174e+002, 2.925307e+002
4.441995e+002, 2.961025e+002
4.446816e+002, 3.000002e+002
4.451638e+002, 3.041702e+002
4.456459e+002, 3.085990e+002
4.461280e+002, 3.133998e+002
4.466101e+002, 3.187816e+002
4.470922e+002, 3.243739e+002
4.475743e+002, 3.300425e+002
4.480565e+002, 3.356615e+002
4.485386e+002, 3.415103e+002
4.490207e+002, 3.473616e+002
4.495028e+002, 3.535561e+002
4.499849e+002, 3.604637e+002
4.504670e+002, 3.683751e+002
4.509492e+002, 3.764638e+002
4.514313e+002, 3.844362e+002
4.519134e+002, 3.923869e+002
4.523955e+002, 4.007318e+002
4.528776e+002, 4.092350e+002
4.533597e+002, 4.184074e+002
4.538419e+002, 4.288358e+002
4.543240e+002, 4.404037e+002
4.548061e+002, 4.518935e+002
4.552882e+002, 4.630978e+002
4.557703e+002, 4.742106e+002
4.562524e+002, 4.853917e+002
4.567346e+002, 4.967182e+002
4.572167e+002, 5.075914e+002
4.576988e+002, 5.175419e+002
4.581809e+002, 5.271577e+002
4.586630e+002, 5.380442e+002
4.591451e+002, 5.500075e+002
4.596273e+002, 5.615533e+002
4.601094e+002, 5.716592e+002
4.605915e+002, 5.804891e+002
4.610736e+002, 5.881934e+002
4.615557e+002, 5.947994e+002
4.620378e+002, 6.004962e+002
4.625200e+002, 6.048328e+002
4.630021e+002, 6.084265e+002
4.634842e+002, 6.123871e+002
4.639663e+002, 6.192139e+002
4.644484e+002, 6.247585e+002
4.649305e+002, 6.262059e+002
4.654127e+002, 6.231942e+002
4.658948e+002, 6.210075e+002
4.663769e+002, 6.213630e+002
4.668590e+002, 6.225519e+002
4.673411e+002, 6.233460e+002
4.678232e+002, 6.236724e+002
4.683054e+002, 6.236008e+002
4.687875e+002, 6.228700e+002
4.692696e+002, 6.217882e+002
4.697517e+002, 6.211537e+002
4.702338e+002, 6.212445e+002
4.707159e+002, 6.212548e+002
4.711981e+002, 6.208158e+002
4.716802e+002, 6.198943e+002
4.721623e+002, 6.194215e+002
4.726444e+002, 6.195626e+002
4.731265e+002, 6.197127e+002
4.736086e+002, 6.190807e+002
4.740908e+002, 6.176853e+002
4.745729e+002, 6.167974e+002
4.750550e+002, 6.167164e+002
4.755371e+002, 6.171325e+002
4.760192e+002, 6.175109e+002
4.765013e+002, 6.178633e+002
4.769835e+002, 6.182980e+002
4.774656e+002, 6.189716e+002
4.779477e+002, 6.197299e+002
4.784298e+002, 6.201198e+002
4.789119e+002, 6.200992e+002
4.793940e+002, 6.205493e+002
4.798762e+002, 6.222169e+002
4.803583e+002, 6.247614e+002
4.808404e+002, 6.277392e+002
4.813225e+002, 6.311232e+002
4.818046e+002, 6.348128e+002
4.822867e+002, 6.385022e+002
4.827689e+002, 6.424498e+002
4.832510e+002, 6.473104e+002
4.837331e+002, 6.531264e+002
4.842152e+002, 6.600985e+002
4.846973e+002, 6.684446e+002
4.851794e+002, 6.784006e+002
4.856616e+002, 6.887905e+002
4.861437e+002, 6.991959e+002
4.866258e+002, 7.101918e+002
4.871079e+002, 7.223016e+002
4.875900e+002, 7.354721e+002
4.880721e+002, 7.499252e+002
4.885543e+002, 7.654781e+002
4.890364e+002, 7.823450e+002
4.895185e+002, 8.010308e+002
4.900006e+002, 8.213275e+002
4.904827e+002, 8.435497e+002
4.909648e+002, 8.674836e+002
4.914470e+002, 8.932262e+002
4.919291e+002, 9.211331e+002
4.924112e+002, 9.509955e+002
4.928933e+002, 9.834002e+002
4.933754e+002, 1.018710e+003
4.938575e+002, 1.057039e+003
4.943397e+002, 1.098384e+003
4.948218e+002, 1.142145e+003
4.953039e+002, 1.189381e+003
4.957860e+002, 1.240650e+003
4.962681e+002, 1.295987e+003
4.967502e+002, 1.355227e+003
4.972324e+002, 1.417966e+003
4.977145e+002, 1.485490e+003
4.981966e+002, 1.558726e+003
4.986787e+002, 1.638342e+003
4.991608e+002, 1.723681e+003
4.996429e+002, 1.816564e+003
5.001251e+002, 1.914335e+003
5.006072e+002, 2.017092e+003
5.010893e+002, 2.123378e+003
5.015714e+002, 2.234840e+003
5.020535e+002, 2.354074e+003
5.025356e+002, 2.479166e+003
5.030178e+002, 2.606258e+003
5.034999e+002, 2.733511e+003
5.039820e+002, 2.866895e+003
5.044641e+002, 3.007074e+003
5.049462e+002, 3.154121e+003
5.054283e+002, 3.305653e+003
5.059105e+002, 3.459820e+003
5.063926e+002, 3.619926e+003
5.068747e+002, 3.787621e+003
5.073568e+002, 3.961633e+003
5.078389e+002, 4.148864e+003
5.083210e+002, 4.348081e+003
5.088032e+002, 4.558169e+003
5.092853e+002, 4.776193e+003
5.097674e+002, 5.002155e+003
5.102495e+002, 5.235320e+003
5.107316e+002, 5.478952e+003
5.112137e+002, 5.730210e+003
5.116959e+002, 5.991806e+003
5.121780e+002, 6.260188e+003
5.126601e+002, 6.519219e+003
5.131422e+002, 6.759226e+003
5.136243e+002, 6.981140e+003
5.141064e+002, 7.191965e+003
5.145886e+002, 7.401177e+003
5.150707e+002, 7.568862e+003
5.155528e+002, 7.665380e+003
5.160349e+002, 7.705726e+003
5.165170e+002, 7.713372e+003
5.169991e+002, 7.722892e+003
5.174813e+002, 7.673582e+003
5.179634e+002, 7.539866e+003
5.184455e+002, 7.326020e+003
5.189276e+002, 7.068030e+003
5.194097e+002, 6.751412e+003
5.198918e+002, 6.408254e+003
5.203740e+002, 6.050974e+003
5.208561e+002, 5.669429e+003
5.213382e+002, 5.298912e+003
5.218203e+002, 4.933698e+003
5.223024e+002, 4.585680e+003
5.227845e+002, 4.263227e+003
5.232667e+002, 3.966660e+003
5.237488e+002, 3.692812e+003
5.242309e+002, 3.443771e+003
5.247130e+002, 3.218164e+003
5.251951e+002, 3.010390e+003
5.256772e+002, 2.819668e+003
5.261594e+002, 2.645426e+003
5.266415e+002, 2.487936e+003
5.271236e+002, 2.344292e+003
5.276057e+002, 2.210648e+003
5.280878e+002, 2.087391e+003
5.285699e+002, 1.972359e+003
5.290521e+002, 1.866473e+003
5.295342e+002, 1.768416e+003
5.300163e+002, 1.676862e+003
5.304984e+002, 1.592853e+003
5.309805e+002, 1.514349e+003
5.314626e+002, 1.441631e+003
5.319448e+002, 1.374183e+003
5.324269e+002, 1.311275e+003
5.329090e+002, 1.252681e+003
5.333911e+002, 1.197927e+003
5.338732e+002, 1.146605e+003
5.343553e+002, 1.099225e+003
5.348375e+002, 1.053670e+003
5.353196e+002, 1.010134e+003
5.358017e+002, 9.685159e+002
5.362838e+002, 9.289976e+002
5.367659e+002, 8.915375e+002
5.372480e+002, 8.551912e+002
5.377302e+002, 8.199906e+002
5.382123e+002, 7.859031e+002
5.386944e+002, 7.536221e+002
5.391765e+002, 7.229195e+002
5.396586e+002, 6.933821e+002
5.401407e+002, 6.651550e+002
5.406229e+002, 6.381246e+002
5.411050e+002, 6.128663e+002
5.415871e+002, 5.894020e+002
5.420692e+002, 5.679598e+002
5.425513e+002, 5.488212e+002
5.430334e+002, 5.314748e+002
5.435156e+002, 5.154272e+002
5.439977e+002, 5.006397e+002
5.444798e+002, 4.865723e+002
5.449619e+002, 4.729506e+002
5.454440e+002, 4.599681e+002
5.459261e+002, 4.478068e+002
5.464083e+002, 4.362602e+002
5.468904e+002, 4.259007e+002
5.473725e+002, 4.176677e+002
5.478546e+002, 4.108109e+002
5.483367e+002, 4.035528e+002
5.488188e+002, 3.947186e+002
5.493010e+002, 3.864166e+002
5.497831e+002, 3.790524e+002
5.502652e+002, 3.726244e+002
5.507473e+002, 3.673451e+002
5.512294e+002, 3.639461e+002
5.517115e+002, 3.604482e+002
5.521937e+002, 3.552293e+002
5.526758e+002, 3.479739e+002
5.531579e+002, 3.421971e+002
5.536400e+002, 3.382970e+002
5.541221e+002, 3.352075e+002
5.546042e+002, 3.314394e+002
5.550864e+002, 3.271511e+002
5.555685e+002, 3.233390e+002
5.560506e+002, 3.205009e+002
5.565327e+002, 3.180836e+002
5.570148e+002, 3.152721e+002
5.574969e+002, 3.121962e+002
5.579791e+002, 3.093424e+002
5.584612e+002, 3.071555e+002
5.589433e+002, 3.052078e+002
5.594254e+002, 3.032335e+002
5.599075e+002, 3.012024e+002
5.603896e+002, 2.990775e+002
5.608718e+002, 2.967924e+002
5.613539e+002, 2.944625e+002
5.618360e+002, 2.921678e+002
5.623181e+002, 2.897042e+002
5.628002e+002, 2.876109e+002
5.632823e+002, 2.860410e+002
5.637645e+002, 2.847987e+002
5.642466e+002, 2.836013e+002
5.647287e+002, 2.824517e+002
5.652108e+002, 2.813942e+002
5.656929e+002, 2.805075e+002
5.661750e+002, 2.797188e+002
5.666572e+002, 2.785687e+002
5.671393e+002, 2.769979e+002
5.676214e+002, 2.755274e+002
5.681035e+002, 2.742817e+002
5.685856e+002, 2.733625e+002
5.690677e+002, 2.735946e+002
5.695499e+002, 2.751140e+002
5.700320e+002, 2.759760e+002
5.705141e+002, 2.735623e+002
5.709962e+002, 2.694571e+002
5.714783e+002, 2.662610e+002
5.719604e+002, 2.647894e+002
5.724426e+002, 2.639277e+002
5.729247e+002, 2.630937e+002
5.734068e+002, 2.623412e+002
5.738889e+002, 2.617472e+002
5.743710e+002, 2.617258e+002
5.748531e+002, 2.614906e+002
5.753353e+002, 2.606868e+002
5.758174e+002, 2.593550e+002
5.762995e+002, 2.581000e+002
5.767816e+002, 2.569308e+002
5.772637e+002, 2.558664e+002
5.777458e+002, 2.549222e+002
5.782280e+002, 2.541290e+002
5.787101e+002, 2.532927e+002
5.791922e+002, 2.523611e+002
5.796743e+002, 2.514996e+002
5.801564e+002, 2.505344e+002
5.806385e+002, 2.495395e+002
5.811207e+002, 2.504194e+002
5.816028e+002, 2.543625e+002
5.820849e+002, 2.583476e+002
5.825670e+002, 2.569864e+002
5.830491e+002, 2.516667e+002
5.835313e+002, 2.467999e+002
5.840134e+002, 2.444951e+002
5.844955e+002, 2.436066e+002
5.849776e+002, 2.435609e+002
5.854597e+002, 2.441858e+002
5.859418e+002, 2.445741e+002
5.864240e+002, 2.437786e+002
5.869061e+002, 2.430193e+002
5.873882e+002, 2.429491e+002
5.878703e+002, 2.436549e+002
5.883524e+002, 2.450200e+002
5.888345e+002, 2.489526e+002
5.893167e+002, 2.522719e+002
5.897988e+002, 2.521516e+002
5.902809e+002, 2.462076e+002
5.907630e+002, 2.424487e+002
5.912451e+002, 2.422387e+002
5.917272e+002, 2.436516e+002
5.922094e+002, 2.428045e+002
5.926915e+002, 2.395381e+002
5.931736e+002, 2.366969e+002
5.936557e+002, 2.353831e+002
5.941378e+002, 2.350315e+002
5.946199e+002, 2.342664e+002
5.951021e+002, 2.331633e+002
5.955842e+002, 2.322808e+002
5.960663e+002, 2.323112e+002
5.965484e+002, 2.325923e+002
5.970305e+002, 2.322683e+002
5.975126e+002, 2.312506e+002
5.979948e+002, 2.302635e+002
5.984769e+002, 2.297316e+002
5.989590e+002, 2.294081e+002
5.994411e+002, 2.291019e+002
5.999232e+002, 2.289803e+002
6.004053e+002, 2.285392e+002
6.008875e+002, 2.274397e+002
6.013696e+002, 2.260753e+002
6.018517e+002, 2.249695e+002
6.023338e+002, 2.240967e+002
6.028159e+002, 2.235873e+002
6.032980e+002, 2.236248e+002
6.037802e+002, 2.239914e+002
6.042623e+002, 2.238419e+002
6.047444e+002, 2.231231e+002
6.052265e+002, 2.223452e+002
6.057086e+002, 2.217342e+002
6.061907e+002, 2.212708e+002
6.066729e+002, 2.209675e+002
6.071550e+002, 2.208182e+002
6.076371e+002, 2.205241e+002
6.081192e+002, 2.195913e+002
6.086013e+002, 2.184752e+002
6.090834e+002, 2.179071e+002
6.095656e+002, 2.181875e+002
6.100477e+002, 2.182166e+002
6.105298e+002, 2.171803e+002
6.110119e+002, 2.156614e+002
6.114940e+002, 2.143007e+002
6.119761e+002, 2.130592e+002
6.124583e+002, 2.122363e+002
6.129404e+002, 2.121329e+002
6.134225e+002, 2.124410e+002
6.139046e+002, 2.124738e+002
6.143867e+002, 2.121051e+002
6.148688e+002, 2.117390e+002
6.153510e+002, 2.115312e+002
6.158331e+002, 2.114259e+002
6.163152e+002, 2.109933e+002
6.167973e+002, 2.101915e+002
6.172794e+002, 2.094539e+002
6.177615e+002, 2.092072e+002
6.182437e+002, 2.092427e+002
6.187258e+002, 2.089473e+002
6.192079e+002, 2.082749e+002
6.196900e+002, 2.074953e+002
6.201721e+002, 2.067344e+002
6.206542e+002, 2.060374e+002
6.211364e+002, 2.054817e+002
6.216185e+002, 2.051436e+002
6.221006e+002, 2.048000e+002
6.225827e+002, 2.042200e+002
6.230648e+002, 2.036158e+002
6.235469e+002, 2.032831e+002
6.240291e+002, 2.038624e+002
6.245112e+002, 2.040017e+002
6.249933e+002, 2.032882e+002
6.254754e+002, 2.020211e+002
6.259575e+002, 2.012609e+002
6.264396e+002, 2.011892e+002
6.269218e+002, 2.010854e+002
6.274039e+002, 2.006204e+002
6.278860e+002, 1.998807e+002
6.283681e+002, 1.993865e+002
6.288502e+002, 1.991407e+002
6.293323e+002, 1.990365e+002
6.298145e+002, 1.990993e+002
6.302966e+002, 1.992195e+002
6.307787e+002, 1.991694e+002
6.312608e+002, 1.989170e+002
6.317429e+002, 1.986167e+002
6.322250e+002, 1.983067e+002
6.327072e+002, 1.980427e+002
6.331893e+002, 1.978931e+002
6.336714e+002, 1.979888e+002
6.341535e+002, 1.980045e+002
6.346356e+002, 1.978167e+002
6.351177e+002, 1.975065e+002
6.355999e+002, 1.971927e+002
6.360820e+002, 1.967687e+002
6.365641e+002, 1.965302e+002
6.370462e+002, 1.966013e+002
6.375283e+002, 1.968709e+002
6.380104e+002, 1.970165e+002
6.384926e+002, 1.970626e+002
6.389747e+002, 1.968340e+002
6.394568e+002, 1.960702e+002
6.399389e+002, 1.949998e+002
6.404210e+002, 1.944093e+002
6.409031e+002, 1.942811e+002
6.413853e+002, 1.943685e+002
6.418674e+002, 1.947092e+002
6.423495e+002, 1.950567e+002
6.428316e+002, 1.950164e+002
6.433137e+002, 1.944954e+002
6.437958e+002, 1.941321e+002
6.442780e+002, 1.945835e+002
6.447601e+002, 1.951446e+002
6.452422e+002, 1.951746e+002
6.457243e+002, 1.939723e+002
6.462064e+002, 1.931596e+002
6.466885e+002, 1.930237e+002
6.471707e+002, 1.931838e+002
6.476528e+002, 1.931287e+002
6.481349e+002, 1.927676e+002
6.486170e+002, 1.924574e+002
6.490991e+002, 1.922116e+002
6.495812e+002, 1.921016e+002
6.500634e+002, 1.924594e+002
6.505455e+002, 1.932383e+002
6.510276e+002, 1.937142e+002
6.515097e+002, 1.933851e+002
6.519918e+002, 1.926591e+002
6.524739e+002, 1.920608e+002
6.529561e+002, 1.916102e+002
6.534382e+002, 1.913704e+002
6.539203e+002, 1.915495e+002
6.544024e+002, 1.918300e+002
6.548845e+002, 1.920448e+002
6.553666e+002, 1.921859e+002
6.558488e+002, 1.921337e+002
6.563309e+002, 1.916191e+002
6.568130e+002, 1.910888e+002
6.572951e+002, 1.908246e+002
6.577772e+002, 1.909546e+002
6.582593e+002, 1.910205e+002
6.587415e+002, 1.910434e+002
6.592236e+002, 1.909689e+002
6.597057e+002, 1.906213e+002
6.601878e+002, 1.900132e+002
6.606699e+002, 1.897992e+002
6.611520e+002, 1.902402e+002
6.616342e+002, 1.907585e+002
6.621163e+002, 1.903195e+002
6.625984e+002, 1.892860e+002
6.630805e+002, 1.886264e+002
6.635626e+002, 1.891022e+002
6.640447e+002, 1.897035e+002
6.645269e+002, 1.896042e+002
6.650090e+002, 1.890455e+002
6.654911e+002, 1.887336e+002
6.659732e+002, 1.891719e+002
6.664553e+002, 1.896133e+002
6.669374e+002, 1.898200e+002
6.674196e+002, 1.897997e+002
6.679017e+002, 1.895843e+002
6.683838e+002, 1.890186e+002
6.688659e+002, 1.885545e+002
6.693480e+002, 1.885109e+002
6.698301e+002, 1.888790e+002
6.703123e+002, 1.888590e+002
6.707944e+002, 1.884109e+002
6.712765e+002, 1.878782e+002
6.717586e+002, 1.873925e+002
6.722407e+002, 1.870677e+002
6.727228e+002, 1.872499e+002
6.732050e+002, 1.880539e+002
6.736871e+002, 1.889074e+002
6.741692e+002, 1.894115e+002
6.746513e+002, 1.897156e+002
6.751334e+002, 1.899910e+002
6.756155e+002, 1.903470e+002
6.760977e+002, 1.905780e+002
6.765798e+002, 1.905249e+002
6.770619e+002, 1.903513e+002
6.775440e+002, 1.903028e+002
6.780261e+002, 1.904352e+002
6.785082e+002, 1.905843e+002
6.789904e+002, 1.907444e+002
6.794725e+002, 1.908934e+002
6.799546e+002, 1.908788e+002
6.804367e+002, 1.906981e+002
6.809188e+002, 1.908318e+002
6.814009e+002, 1.918105e+002
6.818831e+002, 1.930179e+002
6.823652e+002, 1.931250e+002
6.828473e+002, 1.923322e+002
6.833294e+002, 1.916271e+002
6.838115e+002, 1.917662e+002
6.842936e+002, 1.920691e+002
6.847758e+002, 1.919415e+002
6.852579e+002, 1.913530e+002
6.857400e+002, 1.910528e+002
6.862221e+002, 1.914995e+002
6.867042e+002, 1.920661e+002
6.871863e+002, 1.924531e+002
6.876685e+002, 1.926493e+002
6.881506e+002, 1.926687e+002
6.886327e+002, 1.924402e+002
6.891148e+002, 1.921741e+002
6.895969e+002, 1.920285e+002
6.900790e+002, 1.920016e+002
6.905612e+002, 1.921443e+002
6.910433e+002, 1.924883e+002
6.915254e+002, 1.928488e+002
6.920075e+002, 1.931228e+002
6.924896e+002, 1.932328e+002
6.929717e+002, 1.929922e+002
6.934539e+002, 1.921699e+002
6.939360e+002, 1.913482e+002
6.944181e+002, 1.906919e+002
6.949002e+002, 1.903013e+002
6.953823e+002, 1.903331e+002
6.958644e+002, 1.914368e+002
6.963466e+002, 1.922178e+002
6.968287e+002, 1.924506e+002
6.973108e+002, 1.922554e+002
6.977929e+002, 1.918445e+002
6.982750e+002, 1.910868e+002
6.987571e+002, 1.906381e+002
6.992393e+002, 1.907883e+002
6.997214e+002, 1.913560e+002
7.002035e+002, 1.919240e+002
7.006856e+002, 1.924628e+002
7.011677e+002, 1.926743e+002
7.016498e+002, 1.919871e+002
7.021320e+002, 1.911213e+002
7.026141e+002, 1.908918e+002
7.030962e+002, 1.912782e+002
7.035783e+002, 1.918960e+002
7.040604e+002, 1.929581e+002
7.045425e+002, 1.938797e+002
7.050247e+002, 1.941906e+002
7.055068e+002, 1.936681e+002
7.059889e+002, 1.936452e+002
7.064710e+002, 1.944352e+002
7.069531e+002, 1.953227e+002
7.074352e+002, 1.958046e+002
7.079174e+002, 1.958286e+002
7.083995e+002, 1.960262e+002
7.088816e+002, 1.964163e+002
7.093637e+002, 1.969464e+002
7.098458e+002, 1.977248e+002
7.103279e+002, 1.985888e+002
7.108101e+002, 1.990877e+002
7.112922e+002, 1.990617e+002
7.117743e+002, 1.990233e+002
7.122564e+002, 1.992085e+002
7.127385e+002, 1.996716e+002
7.132206e+002, 2.005020e+002
7.137028e+002, 2.022612e+002
7.141849e+002, 2.036359e+002
7.146670e+002, 2.041173e+002
7.151491e+002, 2.041786e+002
7.156312e+002, 2.044594e+002
7.161133e+002, 2.050871e+002
7.165955e+002, 2.055464e+002
7.170776e+002, 2.056685e+002
7.175597e+002, 2.056640e+002
7.180418e+002, 2.060303e+002
7.185239e+002, 2.067286e+002
7.190060e+002, 2.073613e+002
7.194882e+002, 2.077085e+002
7.199703e+002, 2.079745e+002
7.204524e+002, 2.083607e+002
7.209345e+002, 2.088694e+002
7.214166e+002, 2.095253e+002
7.218987e+002, 2.106965e+002
7.223809e+002, 2.116718e+002
7.228630e+002, 2.118963e+002
7.233451e+002, 2.114843e+002
7.238272e+002, 2.115131e+002
7.243093e+002, 2.124066e+002
7.247914e+002, 2.131775e+002
7.252736e+002, 2.134408e+002
7.257557e+002, 2.132385e+002
7.262378e+002, 2.130083e+002
7.267199e+002, 2.127300e+002
7.272020e+002, 2.126050e+002
7.276841e+002, 2.128107e+002
7.281663e+002, 2.132562e+002
7.286484e+002, 2.138136e+002
7.291305e+002, 2.144677e+002
7.296126e+002, 2.149843e+002
7.300947e+002, 2.151528e+002
7.305768e+002, 2.151519e+002
7.310590e+002, 2.150839e+002
7.315411e+002, 2.149265e+002
7.320232e+002, 2.148838e+002
7.325053e+002, 2.151033e+002
7.329874e+002, 2.153526e+002
7.334695e+002, 2.154878e+002
7.339517e+002, 2.154646e+002
7.344338e+002, 2.154638e+002
7.349159e+002, 2.154811e+002
7.353980e+002, 2.155272e+002
7.358801e+002, 2.156463e+002
7.363622e+002, 2.158114e+002
7.368444e+002, 2.159458e+002
7.373265e+002, 2.160691e+002
7.378086e+002, 2.160069e+002
7.382907e+002, 2.154531e+002
7.387728e+002, 2.146750e+002
7.392549e+002, 2.140132e+002
7.397371e+002, 2.135260e+002
7.402192e+002, 2.132261e+002
7.407013e+002, 2.131977e+002
7.411834e+002, 2.133337e+002
7.416655e+002, 2.134938e+002
7.421476e+002, 2.137131e+002
7.426298e+002, 2.138341e+002
7.431119e+002, 2.137406e+002
7.435940e+002, 2.136624e+002
7.440761e+002, 2.141191e+002
7.445582e+002, 2.150462e+002
7.450403e+002, 2.158801e+002
7.455225e+002, 2.165206e+002
7.460046e+002, 2.168647e+002
7.464867e+002, 2.166161e+002
7.469688e+002, 2.159878e+002
7.474509e+002, 2.154426e+002
7.479330e+002, 2.152130e+002
7.484152e+002, 2.150594e+002
7.488973e+002, 2.148399e+002
7.493794e+002, 2.146212e+002
7.498615e+002, 2.146223e+002
7.503436e+002, 2.149376e+002
7.508257e+002, 2.153341e+002
7.513079e+002, 2.158630e+002
7.517900e+002, 2.163958e+002
7.522721e+002, 2.163164e+002
7.527542e+002, 2.156283e+002
7.532363e+002, 2.150588e+002
7.537184e+002, 2.147459e+002
7.542006e+002, 2.149131e+002
7.546827e+002, 2.164975e+002
7.551648e+002, 2.190619e+002
7.556469e+002, 2.207137e+002
7.561290e+002, 2.196661e+002
7.566111e+002, 2.182051e+002
7.570933e+002, 2.175213e+002
7.575754e+002, 2.176422e+002
7.580575e+002, 2.177086e+002
7.585396e+002, 2.175263e+002
7.590217e+002, 2.175059e+002
7.595038e+002, 2.179388e+002
7.599860e+002, 2.187393e+002
7.604681e+002, 2.187944e+002
7.609502e+002, 2.180251e+002
7.614323e+002, 2.174342e+002
7.619144e+002, 2.179353e+002
7.623965e+002, 2.189744e+002
7.628787e+002, 2.195354e+002
7.633608e+002, 2.196142e+002
7.638429e+002, 2.195982e+002
7.643250e+002, 2.196595e+002
7.648071e+002, 2.197490e+002
7.652892e+002, 2.199057e+002
7.657714e+002, 2.201812e+002
7.662535e+002, 2.200664e+002
7.667356e+002, 2.190903e+002
7.672177e+002, 2.183095e+002
7.676998e+002, 2.183698e+002
7.681819e+002, 2.193254e+002
7.686641e+002, 2.202697e+002
7.691462e+002, 2.212093e+002
7.696283e+002, 2.220361e+002
7.701104e+002, 2.224245e+002
7.705925e+002, 2.226986e+002
7.710746e+002, 2.234939e+002
7.715568e+002, 2.248784e+002
7.720389e+002, 2.265591e+002
7.725210e+002, 2.284610e+002
7.730031e+002, 2.305090e+002
7.734852e+002, 2.326726e+002
7.739673e+002, 2.349665e+002
7.744495e+002, 2.373042e+002
7.749316e+002, 2.396445e+002
7.754137e+002, 2.420613e+002
7.758958e+002, 2.446645e+002
7.763779e+002, 2.474931e+002
7.768600e+002, 2.500361e+002
7.773422e+002, 2.522336e+002
7.778243e+002, 2.544921e+002
7.783064e+002, 2.572581e+002
7.787885e+002, 2.603701e+002
7.792706e+002, 2.636056e+002
7.797527e+002, 2.669497e+002
7.802349e+002, 2.701203e+002
7.807170e+002, 2.730656e+002
7.811991e+002, 2.756579e+002
7.816812e+002, 2.777376e+002
7.821633e+002, 2.788197e+002
7.826454e+002, 2.802816e+002
7.831276e+002, 2.824354e+002
7.836097e+002, 2.846031e+002
7.840918e+002, 2.860520e+002
7.845739e+002, 2.867666e+002
7.850560e+002, 2.875392e+002
7.855381e+002, 2.885213e+002
7.860203e+002, 2.891155e+002
7.865024e+002, 2.882530e+002
7.869845e+002, 2.866485e+002
7.874666e+002, 2.854990e+002
7.879487e+002, 2.850772e+002
7.884308e+002, 2.850883e+002
7.889130e+002, 2.858057e+002
7.893951e+002, 2.866501e+002
7.898772e+002, 2.870536e+002
7.903593e+002, 2.873397e+002
7.908414e+002, 2.864496e+002
7.913235e+002, 2.840220e+002
7.918057e+002, 2.808981e+002
7.922878e+002, 2.779069e+002
7.927699e+002, 2.750455e+002
7.932520e+002, 2.730422e+002
7.937341e+002, 2.721108e+002
7.942162e+002, 2.714414e+002
7.946984e+002, 2.701121e+002
7.951805e+002, 2.684472e+002
7.956626e+002, 2.669862e+002
7.961447e+002, 2.659277e+002
7.966268e+002, 2.648784e+002
7.971089e+002, 2.636687e+002
7.975911e+002, 2.624040e+002
7.980732e+002, 2.612005e+002
7.985553e+002, 2.600720e+002
7.990374e+002, 2.589747e+002
7.995195e+002, 2.579398e+002
8.000016e+002, 2.568829e+002
8.004838e+002, 2.555277e+002
8.009659e+002, 2.539816e+002
8.014480e+002, 2.528407e+002
8.019301e+002, 2.522546e+002
8.024122e+002, 2.519398e+002
8.028943e+002, 2.517363e+002
8.033765e+002, 2.516048e+002
8.038586e+002, 2.514912e+002
8.043407e+002, 2.513873e+002
8.048228e+002, 2.512885e+002
8.053049e+002, 2.510808e+002
8.057870e+002, 2.509426e+002
8.062692e+002, 2.510874e+002
8.067513e+002, 2.516095e+002
8.072334e+002, 2.519837e+002
8.077155e+002, 2.520829e+002
8.081976e+002, 2.522329e+002
8.086797e+002, 2.530539e+002
8.091619e+002, 2.542693e+002
8.096440e+002, 2.549265e+002
8.101261e+002, 2.545856e+002
8.106082e+002, 2.545904e+002
8.110903e+002, 2.562103e+002
8.115724e+002, 2.585781e+002
8.120546e+002, 2.607399e+002
8.125367e+002, 2.622244e+002
8.130188e+002, 2.639789e+002
8.135009e+002, 2.660846e+002
8.139830e+002, 2.684471e+002
8.144651e+002, 2.709709e+002
8.149473e+002, 2.736880e+002
8.154294e+002, 2.763498e+002
8.159115e+002, 2.788766e+002
8.163936e+002, 2.816882e+002
8.168757e+002, 2.854162e+002
8.173578e+002, 2.897179e+002
8.178400e+002, 2.940817e+002
8.183221e+002, 2.984262e+002
8.188042e+002, 3.027706e+002
8.192863e+002, 3.068828e+002
8.197684e+002, 3.111245e+002
8.202505e+002, 3.159209e+002
8.207327e+002, 3.217549e+002
8.212148e+002, 3.268776e+002
8.216969e+002, 3.310274e+002
8.221790e+002, 3.349548e+002
8.226611e+002, 3.394031e+002
8.231432e+002, 3.443175e+002
8.236254e+002, 3.490931e+002
8.241075e+002, 3.537195e+002
8.245896e+002, 3.579217e+002
8.250717e+002, 3.614810e+002
8.255538e+002, 3.644254e+002
8.260359e+002, 3.668701e+002
8.265181e+002, 3.691046e+002
8.270002e+002, 3.698985e+002
8.274823e+002, 3.681541e+002
8.279644e+002, 3.655291e+002
8.284465e+002, 3.631427e+002
8.289286e+002, 3.613264e+002
8.294108e+002, 3.582541e+002
8.298929e+002, 3.538725e+002
8.303750e+002, 3.485429e+002
8.308571e+002, 3.421986e+002
8.313392e+002, 3.352752e+002
8.318214e+002, 3.286442e+002
8.323035e+002, 3.224640e+002
8.327856e+002, 3.161446e+002
8.332677e+002, 3.090507e+002
8.337498e+002, 3.019315e+002
8.342319e+002, 2.952919e+002
8.347141e+002, 2.891906e+002
8.351962e+002, 2.837162e+002
8.356783e+002, 2.791716e+002
8.361604e+002, 2.747458e+002
8.366425e+002, 2.699021e+002
8.371246e+002, 2.646801e+002
8.376068e+002, 2.596232e+002
8.380889e+002, 2.547326e+002
8.385710e+002, 2.502864e+002
8.390531e+002, 2.464852e+002
8.395352e+002, 2.432525e+002
8.400173e+002, 2.407368e+002
8.404995e+002, 2.388990e+002
8.409816e+002, 2.368150e+002
8.414637e+002, 2.339649e+002
8.419458e+002, 2.309947e+002
8.424279e+002, 2.281070e+002
8.429100e+002, 2.253051e+002
8.433922e+002, 2.228449e+002
8.438743e+002, 2.207678e+002
8.443564e+002, 2.187949e+002
8.448385e+002, 2.167718e+002
8.453206e+002, 2.147195e+002
8.458027e+002, 2.126684e+002
8.462849e+002, 2.106365e+002
8.467670e+002, 2.087775e+002
8.472491e+002, 2.074775e+002
8.477312e+002, 2.061019e+002
8.482133e+002, 2.042301e+002
8.486954e+002, 2.018948e+002
8.491776e+002, 1.996388e+002
8.496597e+002, 1.974288e+002
8.501418e+002, 1.953699e+002
8.506239e+002, 1.935025e+002
8.511060e+002, 1.918319e+002
8.515881e+002, 1.904669e+002
8.520703e+002, 1.893776e+002
8.525524e+002, 1.883077e+002
8.530345e+002, 1.873556e+002
8.535166e+002, 1.861702e+002
8.539987e+002, 1.841301e+002
8.544808e+002, 1.815903e+002
8.549630e+002, 1.794475e+002
8.554451e+002, 1.783916e+002
8.559272e+002, 1.772631e+002
8.564093e+002, 1.757355e+002
8.568914e+002, 1.740374e+002
8.573735e+002, 1.726988e+002
8.578557e+002, 1.717605e+002
8.583378e+002, 1.705742e+002
8.588199e+002, 1.688566e+002
8.593020e+002, 1.670167e+002
8.597841e+002, 1.656528e+002
8.602662e+002, 1.646382e+002
8.607484e+002, 1.637506e+002
8.612305e+002, 1.630337e+002
8.617126e+002, 1.622521e+002
8.621947e+002, 1.612928e+002
8.626768e+002, 1.602345e+002
8.631589e+002, 1.591902e+002
8.636411e+002, 1.580942e+002
8.641232e+002, 1.571997e+002
8.646053e+002, 1.565776e+002
8.650874e+002, 1.560465e+002
8.655695e+002, 1.554019e+002
8.660516e+002, 1.546452e+002
8.665338e+002, 1.537149e+002
8.670159e+002, 1.525261e+002
8.674980e+002, 1.515018e+002
8.679801e+002, 1.509495e+002
8.684622e+002, 1.506926e+002
8.689443e+002, 1.505928e+002
8.694265e+002, 1.508399e+002
8.699086e+002, 1.506947e+002
8.703907e+002, 1.499839e+002
8.708728e+002, 1.491539e+002
8.713549e+002, 1.485987e+002
8.718370e+002, 1.482862e+002
8.723192e+002, 1.478533e+002
8.728013e+002, 1.472791e+002
8.732834e+002, 1.466591e+002
8.737655e+002, 1.458906e+002
8.742476e+002, 1.452289e+002
8.747297e+002, 1.450495e+002
8.752119e+002, 1.453969e+002
8.756940e+002, 1.455132e+002
8.761761e+002, 1.449980e+002
8.766582e+002, 1.444298e+002
8.771403e+002, 1.439796e+002
8.776224e+002, 1.436562e+002
8.781046e+002, 1.436374e+002
8.785867e+002, 1.439354e+002
8.790688e+002, 1.442740e+002
8.795509e+002, 1.446647e+002
8.800330e+002, 1.448909e+002
8.805151e+002, 1.444491e+002
8.809973e+002, 1.435235e+002
8.814794e+002, 1.428176e+002
8.819615e+002, 1.428792e+002
8.824436e+002, 1.429411e+002
8.829257e+002, 1.425815e+002
8.834078e+002, 1.420233e+002
8.838900e+002, 1.419544e+002
8.843721e+002, 1.424841e+002
8.848542e+002, 1.429381e+002
8.853363e+002, 1.431457e+002
8.858184e+002, 1.431367e+002
8.863005e+002, 1.428415e+002
8.867827e+002, 1.423717e+002
8.872648e+002, 1.420142e+002
8.877469e+002, 1.418452e+002
8.882290e+002, 1.418485e+002
8.887111e+002, 1.421728e+002
8.891932e+002, 1.426051e+002
8.896754e+002, 1.428114e+002
8.901575e+002, 1.426087e+002
8.906396e+002, 1.426860e+002
8.911217e+002, 1.431901e+002
8.916038e+002, 1.437607e+002
8.920859e+002, 1.438840e+002
8.925681e+002, 1.437081e+002
8.930502e+002, 1.436747e+002
8.935323e+002, 1.438563e+002
8.940144e+002, 1.441754e+002
8.944965e+002, 1.448033e+002
8.949786e+002, 1.453931e+002
8.954608e+002, 1.455341e+002
8.959429e+002, 1.448774e+002
8.964250e+002, 1.450630e+002
8.969071e+002, 1.465173e+002
8.973892e+002, 1.479528e+002
8.978713e+002, 1.484519e+002
8.983535e+002, 1.481451e+002
8.988356e+002, 1.476409e+002
8.993177e+002, 1.469673e+002
8.997998e+002, 1.464584e+002
9.002819e+002, 1.463519e+002
9.007640e+002, 1.464820e+002
9.012462e+002, 1.467890e+002
9.017283e+002, 1.472455e+002
9.022104e+002, 1.476836e+002
9.026925e+002, 1.481502e+002
9.031746e+002, 1.484705e+002
9.036567e+002, 1.485314e+002
9.041389e+002, 1.484466e+002
9.046210e+002, 1.486550e+002
9.051031e+002, 1.491099e+002
9.055852e+002, 1.493851e+002
9.060673e+002, 1.491578e+002
9.065494e+002, 1.488850e+002
9.070316e+002, 1.489230e+002
9.075137e+002, 1.492192e+002
9.079958e+002, 1.496849e+002
9.084779e+002, 1.505650e+002
9.089600e+002, 1.512463e+002
9.094421e+002, 1.516770e+002
9.099243e+002, 1.518872e+002
9.104064e+002, 1.518048e+002
9.108885e+002, 1.514615e+002
9.113706e+002, 1.514857e+002
9.118527e+002, 1.520236e+002
9.123348e+002, 1.525947e+002
9.128170e+002, 1.527124e+002
9.132991e+002, 1.526198e+002
9.137812e+002, 1.525664e+002
9.142633e+002, 1.525745e+002
9.147454e+002, 1.527262e+002
9.152275e+002, 1.532701e+002
9.157097e+002, 1.536744e+002
9.161918e+002, 1.535090e+002
9.166739e+002, 1.527900e+002
9.171560e+002, 1.525969e+002
9.176381e+002, 1.529335e+002
9.181202e+002, 1.534647e+002
9.186024e+002, 1.542166e+002
9.190845e+002, 1.548604e+002
9.195666e+002, 1.549463e+002
9.200487e+002, 1.545533e+002
9.205308e+002, 1.541967e+002
9.210129e+002, 1.540655e+002
9.214951e+002, 1.539299e+002
9.219772e+002, 1.536849e+002
9.224593e+002, 1.534104e+002
9.229414e+002, 1.534480e+002
9.234235e+002, 1.537856e+002
9.239056e+002, 1.538358e+002
9.243878e+002, 1.532905e+002
9.248699e+002, 1.526066e+002
9.253520e+002, 1.522871e+002
9.258341e+002, 1.521860e+002
9.263162e+002, 1.520655e+002
9.267983e+002, 1.518357e+002
9.272805e+002, 1.516272e+002
9.277626e+002, 1.515299e+002
9.282447e+002, 1.513882e+002
9.287268e+002, 1.510393e+002
9.292089e+002, 1.504871e+002
9.296910e+002, 1.498500e+002
9.301732e+002, 1.491399e+002
9.306553e+002, 1.483918e+002
9.311374e+002, 1.474652e+002
9.316195e+002, 1.466253e+002
9.321016e+002, 1.462258e+002
9.325837e+002, 1.463311e+002
9.330659e+002, 1.463878e+002
9.335480e+002, 1.463292e+002
9.340301e+002, 1.461162e+002
9.345122e+002, 1.456656e+002
9.349943e+002, 1.450286e+002
9.354764e+002, 1.446725e+002
9.359586e+002, 1.445781e+002
9.364407e+002, 1.443167e+002
9.369228e+002, 1.434924e+002
9.374049e+002, 1.425529e+002
9.378870e+002, 1.419757e+002
9.383691e+002, 1.416406e+002
9.388513e+002, 1.412855e+002
9.393334e+002, 1.407375e+002
9.398155e+002, 1.403050e+002
9.402976e+002, 1.400639e+002
9.407797e+002, 1.399286e+002
9.412618e+002, 1.397432e+002
9.417440e+002, 1.395243e+002
9.422261e+002, 1.392488e+002
9.427082e+002, 1.387288e+002
9.431903e+002, 1.392038e+002
9.436724e+002, 1.441138e+002
9.441545e+002, 1.493176e+002
9.446367e+002, 1.499022e+002
9.451188e+002, 1.434642e+002
9.456009e+002, 1.390289e+002
9.460830e+002, 1.380460e+002
9.465651e+002, 1.379781e+002
9.470472e+002, 1.374466e+002
9.475294e+002, 1.365175e+002
9.480115e+002, 1.357709e+002
9.484936e+002, 1.352065e+002
9.489757e+002, 1.348795e+002
9.494578e+002, 1.351343e+002
9.499399e+002, 1.353700e+002
9.504221e+002, 1.349371e+002
9.509042e+002, 1.340580e+002
9.513863e+002, 1.336668e+002
9.518684e+002, 1.342570e+002
9.523505e+002, 1.345576e+002
9.528326e+002, 1.342714e+002
9.533148e+002, 1.336898e+002
9.537969e+002, 1.332505e+002
9.542790e+002, 1.329785e+002
9.547611e+002, 1.330488e+002
9.552432e+002, 1.336263e+002
9.557253e+002, 1.341044e+002
9.562075e+002, 1.340184e+002
9.566896e+002, 1.336305e+002
9.571717e+002, 1.331498e+002
9.576538e+002, 1.324673e+002
9.581359e+002, 1.321528e+002
9.586180e+002, 1.323249e+002
9.591002e+002, 1.325565e+002
9.595823e+002, 1.324549e+002
9.600644e+002, 1.321702e+002
9.605465e+002, 1.322262e+002
9.610286e+002, 1.325844e+002
9.615107e+002, 1.328847e+002
9.619929e+002, 1.328925e+002
9.624750e+002, 1.328213e+002
9.629571e+002, 1.327491e+002
9.634392e+002, 1.326909e+002
9.639213e+002, 1.326998e+002
9.644034e+002, 1.328143e+002
9.648856e+002, 1.328540e+002
9.653677e+002, 1.327938e+002
9.658498e+002, 1.325994e+002
9.663319e+002, 1.320075e+002
9.668140e+002, 1.312775e+002
9.672961e+002, 1.310155e+002
9.677783e+002, 1.315825e+002
9.682604e+002, 1.320750e+002
9.687425e+002, 1.321412e+002
9.692246e+002, 1.320010e+002
9.697067e+002, 1.318311e+002
9.701888e+002, 1.316461e+002
9.706710e+002, 1.312678e+002
9.711531e+002, 1.306603e+002
9.716352e+002, 1.302251e+002
9.721173e+002, 1.304054e+002
9.725994e+002, 1.308608e+002
9.730815e+002, 1.312372e+002
9.735637e+002, 1.314985e+002
9.740458e+002, 1.315628e+002
9.745279e+002, 1.312207e+002
9.750100e+002, 1.308918e+002
9.754921e+002, 1.306692e+002
9.759742e+002, 1.305332e+002
9.764564e+002, 1.304741e+002
9.769385e+002, 1.304836e+002
9.774206e+002, 1.303642e+002
9.779027e+002, 1.300169e+002
9.783848e+002, 1.296919e+002
9.788669e+002, 1.296708e+002
9.793491e+002, 1.297920e+002
9.798312e+002, 1.298445e+002
9.803133e+002, 1.296945e+002
9.807954e+002, 1.297546e+002
9.812775e+002, 1.301317e+002
9.817596e+002, 1.305536e+002
9.822418e+002, 1.308840e+002
9.827239e+002, 1.311024e+002
9.832060e+002, 1.309672e+002
9.836881e+002, 1.305358e+002
9.841702e+002, 1.303296e+002
9.846523e+002, 1.309787e+002
9.851345e+002, 1.316451e+002
9.856166e+002, 1.318016e+002
9.860987e+002, 1.315469e+002
9.865808e+002, 1.313364e+002
9.870629e+002, 1.311750e+002
9.875450e+002, 1.310447e+002
9.880272e+002, 1.309353e+002
9.885093e+002, 1.308741e+002
9.889914e+002, 1.309283e+002
9.894735e+002, 1.310572e+002
9.899556e+002, 1.311373e+002
9.904377e+002, 1.310798e+002
9.909199e+002, 1.312507e+002
9.914020e+002, 1.322477e+002
9.918841e+002, 1.331349e+002
9.923662e+002, 1.332049e+002
9.928483e+002, 1.324237e+002
9.933304e+002, 1.320313e+002
9.938126e+002, 1.320401e+002
9.942947e+002, 1.322220e+002
9.947768e+002, 1.325275e+002
9.952589e+002, 1.328590e+002
9.957410e+002, 1.331625e+002
9.962231e+002, 1.333977e+002
9.967053e+002, 1.334634e+002
9.971874e+002, 1.331419e+002
9.976695e+002, 1.328869e+002
9.981516e+002, 1.327306e+002
9.986337e+002, 1.326969e+002
9.991158e+002, 1.328846e+002
9.995980e+002, 1.332544e+002
1.000080e+003, 1.335279e+002
1.000562e+003, 1.336688e+002
1.001044e+003, 1.337036e+002
1.001526e+003, 1.335603e+002
1.002009e+003, 1.333910e+002
1.002491e+003, 1.333877e+002
1.002973e+003, 1.336022e+002
1.003455e+003, 1.334088e+002
1.003937e+003, 1.325983e+002
1.004419e+003, 1.320542e+002
1.004901e+003, 1.322569e+002
1.005383e+003, 1.329171e+002
1.005865e+003, 1.336522e+002
1.006348e+003, 1.343208e+002
1.006830e+003, 1.345380e+002
1.007312e+003, 1.335319e+002
1.007794e+003, 1.327886e+002
1.008276e+003, 1.330700e+002
1.008758e+003, 1.336413e+002
1.009240e+003, 1.336815e+002
1.009722e+003, 1.331126e+002
1.010205e+003, 1.328116e+002
1.010687e+003, 1.328442e+002
1.011169e+003, 1.330075e+002
1.011651e+003, 1.331377e+002
1.012133e+003, 1.332883e+002
1.012615e+003, 1.336062e+002
1.013097e+003, 1.340739e+002
1.013579e+003, 1.342394e+002
1.014061e+003, 1.337829e+002
1.014544e+003, 1.334493e+002
1.015026e+003, 1.335065e+002
1.015508e+003, 1.337721e+002
1.015990e+003, 1.338697e+002
1.016472e+003, 1.337894e+002
1.016954e+003, 1.334247e+002
1.017436e+003, 1.325285e+002
1.017918e+003, 1.318826e+002
1.018401e+003, 1.323050e+002
1.018883e+003, 1.330087e+002
1.019365e+003, 1.331355e+002
1.019847e+003, 1.324455e+002
1.020329e+003, 1.323644e+002
1.020811e+003, 1.330122e+002
1.021293e+003, 1.336181e+002
1.021775e+003, 1.335168e+002
1.022257e+003, 1.330869e+002
1.022740e+003, 1.329066e+002
1.023222e+003, 1.329293e+002
1.023704e+003, 1.329369e+002
1.024186e+003, 1.327061e+002
1.024668e+003, 1.326637e+002
1.025150e+003, 1.330392e+002
1.025632e+003, 1.335034e+002
1.026114e+003, 1.334040e+002
1.026596e+003, 1.328215e+002
1.027079e+003, 1.324801e+002
1.027561e+003, 1.325022e+002
1.028043e+003, 1.327052e+002
1.028525e+003, 1.332002e+002
1.029007e+003, 1.336239e+002
1.029489e+003, 1.335318e+002
1.029971e+003, 1.328514e+002
1.030453e+003, 1.326857e+002
1.030936e+003, 1.332132e+002
1.031418e+003, 1.336673e+002
1.031900e+003, 1.337222e+002
1.032382e+003, 1.335092e+002
1.032864e+003, 1.331351e+002
1.033346e+003, 1.327130e+002
1.033828e+003, 1.325306e+002
1.034310e+003, 1.329535e+002
1.034792e+003, 1.332186e+002
1.035275e+003, 1.330405e+002
1.035757e+003, 1.327218e+002
1.036239e+003, 1.325035e+002
1.036721e+003, 1.323880e+002
1.037203e+003, 1.323303e+002
1.037685e+003, 1.323303e+002
1.038167e+003, 1.322756e+002
1.038649e+003, 1.319764e+002
1.039132e+003, 1.316827e+002
1.039614e+003, 1.315638e+002
1.040096e+003, 1.316294e+002
1.040578e+003, 1.317042e+002
1.041060e+003, 1.310959e+002
1.041542e+003, 1.326741e+002
1.042024e+003, 1.379831e+002
1.042506e+003, 1.434515e+002
1.042989e+003, 1.429012e+002
1.043471e+003, 1.386896e+002
1.043953e+003, 1.356992e+002
1.044435e+003, 1.349335e+002
1.044917e+003, 1.347697e+002
1.045399e+003, 1.352985e+002
1.045881e+003, 1.355057e+002
1.046363e+003, 1.347041e+002
1.046845e+003, 1.330869e+002
1.047328e+003, 1.322616e+002
1.047810e+003, 1.321821e+002
1.048292e+003, 1.321783e+002
1.048774e+003, 1.318695e+002
1.049256e+003, 1.316119e+002
1.049738e+003, 1.317542e+002
1.050220e+003, 1.321167e+002
1.050702e+003, 1.324057e+002
1.051184e+003, 1.325154e+002
1.051667e+003, 1.327989e+002
1.052149e+003, 1.333719e+002
1.052631e+003, 1.337600e+002
1.053113e+003, 1.332646e+002
1.053595e+003, 1.324061e+002
1.054077e+003, 1.323499e+002
1.054559e+003, 1.330003e+002
1.055041e+003, 1.333946e+002
1.055523e+003, 1.328887e+002
1.056006e+003, 1.323611e+002
1.056488e+003, 1.319592e+002
1.056970e+003, 1.317581e+002
1.057452e+003, 1.318038e+002
1.057934e+003, 1.321402e+002
1.058416e+003, 1.335182e+002
1.058898e+003, 1.363627e+002
1.059380e+003, 1.384211e+002
1.059863e+003, 1.370705e+002
1.060345e+003, 1.347172e+002
1.060827e+003, 1.333620e+002
1.061309e+003, 1.331480e+002
1.061791e+003, 1.327448e+002
1.062273e+003, 1.320424e+002
1.062755e+003, 1.316978e+002
1.063237e+003, 1.321924e+002
1.063719e+003, 1.329445e+002
1.064202e+003, 1.331476e+002
1.064684e+003, 1.329168e+002
1.065166e+003, 1.324500e+002
1.065648e+003, 1.315011e+002
1.066130e+003, 1.308830e+002
1.066612e+003, 1.307684e+002
1.067094e+003, 1.308401e+002
1.067576e+003, 1.309318e+002
1.068059e+003, 1.310007e+002
1.068541e+003, 1.306331e+002
1.069023e+003, 1.299066e+002
1.069505e+003, 1.294874e+002
1.069987e+003, 1.303418e+002
1.070469e+003, 1.310060e+002
1.070951e+003, 1.304305e+002
1.071433e+003, 1.292283e+002
1.071916e+003, 1.285692e+002
1.072398e+003, 1.285353e+002
1.072880e+003, 1.283344e+002
1.073362e+003, 1.278397e+002
1.073844e+003, 1.273237e+002
1.074326e+003, 1.270441e+002
1.074808e+003, 1.269077e+002
1.075290e+003, 1.268873e+002
1.075772e+003, 1.269759e+002
1.076255e+003, 1.268125e+002
1.076737e+003, 1.261960e+002
1.077219e+003, 1.257948e+002
1.077701e+003, 1.259372e+002
1.078183e+003, 1.262549e+002
1.078665e+003, 1.258526e+002
1.079147e+003, 1.250774e+002
1.079629e+003, 1.247983e+002
1.080111e+003, 1.254644e+002
1.080594e+003, 1.259672e+002
1.081076e+003, 1.257758e+002
1.081558e+003, 1.254330e+002
1.082040e+003, 1.251670e+002
1.082522e+003, 1.249972e+002
1.083004e+003, 1.252509e+002
1.083486e+003, 1.258838e+002
1.083968e+003, 1.264610e+002
1.084450e+003, 1.267255e+002
1.084933e+003, 1.268804e+002
1.085415e+003, 1.271487e+002
1.085897e+003, 1.273421e+002
1.086379e+003, 1.271281e+002
1.086861e+003, 1.263205e+002
1.087343e+003, 1.258987e+002
1.087825e+003, 1.259551e+002
1.088307e+003, 1.260760e+002
1.088790e+003, 1.259314e+002
1.089272e+003, 1.256263e+002
1.089754e+003, 1.252335e+002
1.090236e+003, 1.247825e+002
1.090718e+003, 1.243887e+002
1.091200e+003, 1.240128e+002
1.091682e+003, 1.238331e+002
1.092164e+003, 1.239731e+002
1.092646e+003, 1.241487e+002
1.093129e+003, 1.238331e+002
1.093611e+003, 1.232243e+002
1.094093e+003, 1.222698e+002
1.094575e+003, 1.208017e+002
1.095057e+003, 1.216815e+002
1.095539e+003, 1.301790e+002
1.096021e+003, 1.368221e+002
1.096503e+003, 1.368935e+002
1.096986e+003, 1.322292e+002
1.097468e+003, 1.296810e+002
1.097950e+003, 1.290249e+002
1.098432e+003, 1.284475e+002
1.098914e+003, 1.273908e+002
1.099396e+003, 1.261827e+002
1.099878e+003, 1.247771e+002
1.100360e+003, 1.235291e+002
1.100843e+003, 1.227941e+002
1.101325e+003, 1.225822e+002
1.101807e+003, 1.227095e+002
1.102289e+003, 1.232166e+002
1.102771e+003, 1.236358e+002
1.103253e+003, 1.236698e+002
1.103735e+003, 1.235065e+002
1.104217e+003, 1.233159e+002
1.104699e+003, 1.231029e+002
1.105182e+003, 1.228707e+002
1.105664e+003, 1.225655e+002
1.106146e+003, 1.223295e+002
1.106628e+003, 1.221260e+002
1.107110e+003, 1.220980e+002
1.107592e+003, 1.225050e+002
1.108074e+003, 1.231262e+002
1.108556e+003, 1.235535e+002
1.109038e+003, 1.237778e+002
1.109521e+003, 1.238624e+002
1.110003e+003, 1.238167e+002
1.110485e+003, 1.236173e+002
1.110967e+003, 1.231114e+002
1.111449e+003, 1.226343e+002
1.111931e+003, 1.228011e+002
1.112413e+003, 1.234590e+002
1.112895e+003, 1.239369e+002
1.113377e+003, 1.241590e+002
1.113860e+003, 1.242160e+002
1.114342e+003, 1.238793e+002
1.114824e+003, 1.236906e+002
1.115306e+003, 1.240518e+002
1.115788e+003, 1.247678e+002
1.116270e+003, 1.252440e+002
1.116752e+003, 1.254847e+002
1.117234e+003, 1.254670e+002
1.117717e+003, 1.251174e+002
1.118199e+003, 1.247919e+002
1.118681e+003, 1.248867e+002
1.119163e+003, 1.250990e+002
1.119645e+003, 1.251125e+002
1.120127e+003, 1.248983e+002
1.120609e+003, 1.248357e+002
1.121091e+003, 1.249408e+002
1.121573e+003, 1.250949e+002
1.122056e+003, 1.252775e+002
1.122538e+003, 1.254341e+002
1.123020e+003, 1.255303e+002
1.123502e+003, 1.255431e+002
1.123984e+003, 1.254344e+002
1.124466e+003, 1.251572e+002
1.124948e+003, 1.247957e+002
1.125430e+003, 1.242348e+002
1.125913e+003, 1.238995e+002
1.126395e+003, 1.241938e+002
1.126877e+003, 1.248593e+002
1.127359e+003, 1.253901e+002
1.127841e+003, 1.257962e+002
1.128323e+003, 1.260945e+002
1.128805e+003, 1.264156e+002
1.129287e+003, 1.264247e+002
1.129770e+003, 1.260110e+002
1.130252e+003, 1.254127e+002
1.130734e+003, 1.246494e+002
1.131216e+003, 1.238917e+002
1.131698e+003, 1.240078e+002
1.132180e+003, 1.249026e+002
1.132662e+003, 1.256389e+002
1.133144e+003, 1.255311e+002
1.133626e+003, 1.253888e+002
1.134109e+003, 1.255048e+002
1.134591e+003, 1.257565e+002
1.135073e+003, 1.260140e+002
1.135555e+003, 1.262604e+002
1.136037e+003, 1.258522e+002
1.136519e+003, 1.246668e+002
1.137001e+003, 1.250371e+002
1.137483e+003, 1.319645e+002
1.137965e+003, 1.378232e+002
1.138448e+003, 1.361788e+002
1.138930e+003, 1.296324e+002
1.139412e+003, 1.247663e+002
1.139894e+003, 1.212949e+002
1.140376e+003, 1.269944e+002
1.140858e+003, 1.459029e+002
1.141340e+003, 1.611881e+002
1.141822e+003, 1.527490e+002
1.142304e+003, 1.366686e+002
1.142787e+003, 1.272253e+002
1.143269e+003, 1.255984e+002
1.143751e+003, 1.246924e+002
1.144233e+003, 1.246267e+002
1.144715e+003, 1.246550e+002
1.145197e+003, 1.245332e+002
1.145679e+003, 1.243759e+002
1.146161e+003, 1.243103e+002
1.146644e+003, 1.243094e+002
1.147126e+003, 1.243531e+002
1.147608e+003, 1.244666e+002
1.148090e+003, 1.244798e+002
1.148572e+003, 1.243529e+002
1.149054e+003, 1.242519e+002
1.149536e+003, 1.243271e+002
1.150018e+003, 1.243997e+002
1.150500e+003, 1.241024e+002
1.150983e+003, 1.235761e+002
1.151465e+003, 1.230746e+002
1.151947e+003, 1.224810e+002
1.152429e+003, 1.223878e+002
1.152911e+003, 1.230279e+002
1.153393e+003, 1.237289e+002
1.153875e+003, 1.241138e+002
1.154357e+003, 1.241795e+002
1.154840e+003, 1.233946e+002
1.155322e+003, 1.222371e+002
1.155804e+003, 1.222569e+002
1.156286e+003, 1.262212e+002
1.156768e+003, 1.282108e+002
1.157250e+003, 1.267808e+002
1.157732e+003, 1.242491e+002
1.158214e+003, 1.224229e+002
1.158697e+003, 1.213164e+002
1.159179e+003, 1.212826e+002
1.159661e+003, 1.221525e+002
1.160143e+003, 1.229501e+002
1.160625e+003, 1.233969e+002
1.161107e+003, 1.233950e+002
1.161589e+003, 1.226212e+002
1.162071e+003, 1.217032e+002
1.162553e+003, 1.213626e+002
1.163036e+003, 1.215864e+002
1.163518e+003, 1.226222e+002
1.164000e+003, 1.243974e+002
1.164482e+003, 1.253846e+002
1.164964e+003, 1.238090e+002
1.165446e+003, 1.221547e+002
1.165928e+003, 1.216565e+002
1.166410e+003, 1.218299e+002
1.166892e+003, 1.217793e+002
1.167375e+003, 1.215424e+002
1.167857e+003, 1.217899e+002
1.168339e+003, 1.226381e+002
1.168821e+003, 1.232939e+002
1.169303e+003, 1.230612e+002
1.169785e+003, 1.225619e+002
1.170267e+003, 1.221167e+002
1.170749e+003, 1.217380e+002
1.171231e+003, 1.213814e+002
1.171714e+003, 1.210455e+002
1.172196e+003, 1.211136e+002
1.172678e+003, 1.217492e+002
1.173160e+003, 1.222322e+002
1.173642e+003, 1.216012e+002
1.174124e+003, 1.208488e+002
1.174606e+003, 1.209140e+002
1.175088e+003, 1.216418e+002
1.175571e+003, 1.220884e+002
1.176053e+003, 1.222548e+002
1.176535e+003, 1.221450e+002
1.177017e+003, 1.216739e+002
1.177499e+003, 1.212319e+002
1.177981e+003, 1.212527e+002
1.178463e+003, 1.214462e+002
1.178945e+003, 1.215442e+002
1.179427e+003, 1.215295e+002
1.179910e+003, 1.214931e+002
1.180392e+003, 1.214372e+002
1.180874e+003, 1.213208e+002
1.181356e+003, 1.211081e+002
1.181838e+003, 1.208745e+002
1.182320e+003, 1.206546e+002
1.182802e+003, 1.204862e+002
1.183284e+003, 1.204224e+002
1.183767e+003, 1.204754e+002
1.184249e+003, 1.205921e+002
1.184731e+003, 1.208001e+002
1.185213e+003, 1.208804e+002
1.185695e+003, 1.206356e+002
1.186177e+003, 1.203610e+002
1.186659e+003, 1.202097e+002
1.187141e+003, 1.203361e+002
1.187624e+003, 1.211463e+002
1.188106e+003, 1.231833e+002
1.188588e+003, 1.237729e+002
1.189070e+003, 1.226891e+002
1.189552e+003, 1.214377e+002
1.190034e+003, 1.208501e+002
1.190516e+003, 1.205970e+002
1.190998e+003, 1.202453e+002
1.191480e+003, 1.199418e+002
1.191963e+003, 1.199829e+002
1.192445e+003, 1.207220e+002
1.192927e+003, 1.209192e+002
1.193409e+003, 1.204518e+002
1.193891e+003, 1.199976e+002
1.194373e+003, 1.201163e+002
1.194855e+003, 1.204404e+002
1.195337e+003, 1.205361e+002
1.195819e+003, 1.204500e+002
1.196302e+003, 1.202712e+002
1.196784e+003, 1.198805e+002
1.197266e+003, 1.197245e+002
1.197748e+003, 1.198443e+002
1.198230e+003, 1.200567e+002
1.198712e+003, 1.202644e+002
1.199194e+003, 1.204425e+002
1.199676e+003, 1.205821e+002
1.200158e+003, 1.206616e+002
1.200641e+003, 1.206007e+002
1.201123e+003, 1.202404e+002
1.201605e+003, 1.201538e+002
1.202087e+003, 1.204585e+002
1.202569e+003, 1.206876e+002
1.203051e+003, 1.201750e+002
1.203533e+003, 1.195020e+002
1.204015e+003, 1.194993e+002
1.204498e+003, 1.200206e+002
1.204980e+003, 1.204724e+002
1.205462e+003, 1.207772e+002
1.205944e+003, 1.209831e+002
1.206426e+003, 1.210861e+002
1.206908e+003, 1.211265e+002
1.207390e+003, 1.212197e+002
1.207872e+003, 1.212232e+002
1.208354e+003, 1.208153e+002
1.208837e+003, 1.201140e+002
1.209319e+003, 1.197171e+002
1.209801e+003, 1.197374e+002
1.210283e+003, 1.199560e+002
1.210765e+003, 1.204328e+002
1.211247e+003, 1.207722e+002
1.211729e+003, 1.202681e+002
1.212211e+003, 1.195867e+002
1.212694e+003, 1.197065e+002
1.213176e+003, 1.205125e+002
1.213658e+003, 1.209853e+002
1.214140e+003, 1.208512e+002
1.214622e+003, 1.209342e+002
1.215104e+003, 1.213548e+002
1.215586e+003, 1.220133e+002
1.216068e+003, 1.234012e+002
1.216551e+003, 1.245709e+002
1.217033e+003, 1.240420e+002
1.217515e+003, 1.220053e+002
1.217997e+003, 1.205915e+002
1.218479e+003, 1.199895e+002
1.218961e+003, 1.198578e+002
1.219443e+003, 1.202419e+002
1.219925e+003, 1.206256e+002
1.220407e+003, 1.202516e+002
1.220890e+003, 1.196778e+002
1.221372e+003, 1.195843e+002
1.221854e+003, 1.199644e+002
1.222336e+003, 1.201699e+002
1.222818e+003, 1.201020e+002
1.223300e+003, 1.201391e+002
1.223782e+003, 1.203431e+002
1.224264e+003, 1.207166e+002
1.224746e+003, 1.216373e+002
1.225229e+003, 1.224567e+002
1.225711e+003, 1.222520e+002
1.226193e+003, 1.211098e+002
1.226675e+003, 1.208197e+002
1.227157e+003, 1.216307e+002
1.227639e+003, 1.219860e+002
1.228121e+003, 1.215086e+002
1.228603e+003, 1.207190e+002
1.229085e+003, 1.198231e+002
1.229568e+003, 1.191529e+002
1.230050e+003, 1.191722e+002
1.230532e+003, 1.198196e+002
1.231014e+003, 1.202245e+002
1.231496e+003, 1.203552e+002
1.231978e+003, 1.205682e+002
1.232460e+003, 1.209866e+002
1.232942e+003, 1.212961e+002
1.233425e+003, 1.210738e+002
1.233907e+003, 1.207078e+002
1.234389e+003, 1.205740e+002
1.234871e+003, 1.206295e+002
1.235353e+003, 1.204596e+002
1.235835e+003, 1.200479e+002
1.236317e+003, 1.198477e+002
1.236799e+003, 1.199909e+002
1.237281e+003, 1.202485e+002
1.237764e+003, 1.205016e+002
1.238246e+003, 1.207287e+002
1.238728e+003, 1.209142e+002
1.239210e+003, 1.210589e+002
1.239692e+003, 1.210957e+002
1.240174e+003, 1.210344e+002
1.240656e+003, 1.212093e+002
1.241138e+003, 1.217482e+002
1.241621e+003, 1.222255e+002
1.242103e+003, 1.223014e+002
1.242585e+003, 1.222124e+002
1.243067e+003, 1.220470e+002
1.243549e+003, 1.218684e+002
1.244031e+003, 1.218798e+002
1.244513e+003, 1.220794e+002
1.244995e+003, 1.225339e+002
1.245478e+003, 1.233349e+002
1.245960e+003, 1.239196e+002
1.246442e+003, 1.237443e+002
1.246924e+003, 1.234722e+002
1.247406e+003, 1.235186e+002
1.247888e+003, 1.237229e+002
1.248370e+003, 1.235036e+002
1.248852e+003, 1.229873e+002
1.249334e+003, 1.227308e+002
1.249817e+003, 1.228959e+002
1.250299e+003, 1.230898e+002
1.250781e+003, 1.230921e+002
1.251263e+003, 1.231222e+002
1.251745e+003, 1.232419e+002
1.252227e+003, 1.234729e+002
1.252709e+003, 1.239610e+002
1.253191e+003, 1.246012e+002
1.253673e+003, 1.251810e+002
1.254156e+003, 1.257172e+002
1.254638e+003, 1.256761e+002
1.255120e+003, 1.243270e+002
1.255602e+003, 1.232131e+002
1.256084e+003, 1.228350e+002
1.256566e+003, 1.230023e+002
1.257048e+003, 1.236056e+002
1.257530e+003, 1.243836e+002
1.258012e+003, 1.247030e+002
1.258495e+003, 1.243865e+002
1.258977e+003, 1.244444e+002
1.259459e+003, 1.253827e+002
1.259941e+003, 1.258058e+002
1.260423e+003, 1.250650e+002
1.260905e+003, 1.240304e+002
1.261387e+003, 1.241831e+002
1.261869e+003, 1.249050e+002
1.262352e+003, 1.252855e+002
1.262834e+003, 1.251705e+002
1.263316e+003, 1.250896e+002
1.263798e+003, 1.250863e+002
1.264280e+003, 1.250789e+002
1.264762e+003, 1.250444e+002
1.265244e+003, 1.249972e+002
1.265726e+003, 1.248902e+002
1.266208e+003, 1.248228e+002
1.266691e+003, 1.249194e+002
1.267173e+003, 1.251945e+002
1.267655e+003, 1.255642e+002
1.268137e+003, 1.260831e+002
1.268619e+003, 1.262093e+002
1.269101e+003, 1.257195e+002
1.269583e+003, 1.251572e+002
1.270065e+003, 1.249545e+002
1.270548e+003, 1.249727e+002
1.271030e+003, 1.252340e+002
1.271512e+003, 1.256195e+002
1.271994e+003, 1.255649e+002
1.272476e+003, 1.250835e+002
1.272958e+003, 1.247609e+002
1.273440e+003, 1.247259e+002
1.273922e+003, 1.248749e+002
1.274405e+003, 1.253395e+002
1.274887e+003, 1.257511e+002
1.275369e+003, 1.258288e+002
1.275851e+003, 1.257343e+002
1.276333e+003, 1.259385e+002
1.276815e+003, 1.263899e+002
1.277297e+003, 1.268881e+002
1.277779e+003, 1.274083e+002
1.278261e+003, 1.277080e+002
1.278744e+003, 1.275295e+002
1.279226e+003, 1.272180e+002
1.279708e+003, 1.267726e+002
1.280190e+003, 1.264288e+002
1.280672e+003, 1.268960e+002
1.281154e+003, 1.277698e+002
1.281636e+003, 1.278805e+002
1.282118e+003, 1.270687e+002
1.282600e+003, 1.265533e+002
1.283083e+003, 1.269088e+002
1.283565e+003, 1.272280e+002
1.284047e+003, 1.273205e+002
1.284529e+003, 1.272738e+002
1.285011e+003, 1.271974e+002
1.285493e+003, 1.270743e+002
1.285975e+003, 1.267796e+002
1.286457e+003, 1.263438e+002
1.286939e+003, 1.263552e+002
1.287422e+003, 1.271034e+002
1.287904e+003, 1.273341e+002
1.288386e+003, 1.266981e+002
1.288868e+003, 1.260238e+002
1.289350e+003, 1.257772e+002
1.289832e+003, 1.262835e+002
1.290314e+003, 1.287002e+002
1.290796e+003, 1.322659e+002
1.291279e+003, 1.334043e+002
1.291761e+003, 1.318712e+002
1.292243e+003, 1.303467e+002
1.292725e+003, 1.291901e+002
1.293207e+003, 1.282191e+002
1.293689e+003, 1.270466e+002
1.294171e+003, 1.262487e+002
1.294653e+003, 1.265322e+002
1.295135e+003, 1.273131e+002
1.295618e+003, 1.276765e+002
1.296100e+003, 1.276514e+002
1.296582e+003, 1.274592e+002
1.297064e+003, 1.271467e+002
1.297546e+003, 1.269268e+002
1.298028e+003, 1.269740e+002
1.298510e+003, 1.270042e+002
1.298992e+003, 1.268408e+002
1.299475e+003, 1.267609e+002
1.299957e+003, 1.272862e+002
1.300439e+003, 1.281606e+002
1.300921e+003, 1.285711e+002
1.301403e+003, 1.285519e+002
1.301885e+003, 1.286011e+002
##END=



