##NAMES=Fluoborite
##RRUFFID=R061042
##IDEAL CHEMISTRY=Mg_3_(BO_3_)F_3_
##LOCALITY=Kinmount, Ontario, Canada
##OWNER=RRUFF
##SOURCE=Royal Ontario Museum
##DESCRIPTION=Off white massive bleb, fluorescent under short wave ultraviolet light, embedded in white calcite
##STATUS=The identification of this mineral is confirmed by single-crystal X-ray diffraction and chemical analysis.
##URL=rruff.info/R061042
##MEASURED CHEMISTRY=(Mg_0.99_Fe_0.01_)_Σ=3_(BO_3_)(F_1.96_(OH)_1.04_)_Σ=3_ ;  B assumed by stoichiometry; OH estimated by difference and stoichiometry
166.8205, 3835.666
167.3026, 3895.950
167.7847, 3950.129
168.2668, 4000.089
168.7490, 4047.881
169.2311, 4088.984
169.7132, 4139.363
170.1953, 4207.273
170.6774, 4288.919
171.1595, 4381.252
171.6417, 4492.093
172.1238, 4608.929
172.6059, 4703.232
173.0880, 4779.860
173.5701, 4820.512
174.0522, 4815.579
174.5344, 4775.541
175.0165, 4711.389
175.4986, 4620.926
175.9807, 4514.206
176.4628, 4415.541
176.9449, 4319.861
177.4271, 4243.702
177.9092, 4191.547
178.3913, 4159.651
178.8734, 4144.979
179.3555, 4148.925
179.8376, 4166.281
180.3197, 4181.489
180.8019, 4191.770
181.2840, 4205.031
181.7661, 4226.662
182.2482, 4251.379
182.7303, 4271.307
183.2124, 4280.904
183.6946, 4286.113
184.1767, 4308.194
184.6588, 4371.469
185.1409, 4406.919
185.6230, 4382.674
186.1051, 4330.420
186.5873, 4282.933
187.0694, 4253.547
187.5515, 4242.951
188.0336, 4257.744
188.5157, 4326.471
188.9978, 4369.882
189.4800, 4354.413
189.9621, 4316.058
190.4442, 4292.635
190.9263, 4301.642
191.4084, 4329.754
191.8905, 4343.777
192.3727, 4331.551
192.8548, 4326.882
193.3369, 4345.658
193.8190, 4368.779
194.3011, 4373.854
194.7832, 4351.636
195.2654, 4319.134
195.7475, 4314.280
196.2296, 4352.601
196.7117, 4391.037
197.1938, 4435.048
197.6759, 4471.029
198.1581, 4483.143
198.6402, 4466.729
199.1223, 4436.275
199.6044, 4419.000
200.0865, 4422.934
200.5686, 4424.531
201.0508, 4412.392
201.5329, 4402.989
202.0150, 4413.307
202.4971, 4446.735
202.9792, 4487.347
203.4613, 4508.881
203.9435, 4502.080
204.4256, 4496.154
204.9077, 4494.034
205.3898, 4492.112
205.8719, 4484.318
206.3540, 4471.067
206.8362, 4462.019
207.3183, 4473.957
207.8004, 4521.962
208.2825, 4551.818
208.7646, 4545.850
209.2467, 4537.388
209.7289, 4548.905
210.2110, 4580.914
210.6931, 4615.782
211.1752, 4632.260
211.6573, 4624.812
212.1395, 4618.622
212.6216, 4605.587
213.1037, 4600.419
213.5858, 4615.850
214.0679, 4648.364
214.5500, 4681.894
215.0322, 4698.291
215.5143, 4692.558
215.9964, 4703.104
216.4785, 4740.750
216.9606, 4784.406
217.4427, 4826.646
217.9249, 4868.168
218.4070, 4914.491
218.8891, 4972.264
219.3712, 5042.164
219.8533, 5098.737
220.3354, 5119.887
220.8176, 5148.817
221.2997, 5195.769
221.7818, 5259.701
222.2639, 5337.614
222.7460, 5428.698
223.2281, 5531.941
223.7103, 5628.162
224.1924, 5706.904
224.6745, 5790.246
225.1566, 5882.937
225.6387, 5983.226
226.1208, 6087.703
226.6030, 6193.730
227.0851, 6303.072
227.5672, 6422.083
228.0493, 6542.657
228.5314, 6687.777
229.0135, 6862.993
229.4957, 7061.626
229.9778, 7276.634
230.4599, 7504.927
230.9420, 7746.495
231.4241, 8002.230
231.9062, 8263.812
232.3884, 8556.504
232.8705, 8899.400
233.3526, 9259.715
233.8347, 9617.420
234.3168, 9963.799
234.7989, 10297.15
235.2811, 10618.95
235.7632, 10954.06
236.2453, 11215.51
236.7274, 11413.26
237.2095, 11537.06
237.6916, 11569.59
238.1738, 11511.54
238.6559, 11392.40
239.1380, 11252.17
239.6201, 11103.41
240.1022, 10882.50
240.5843, 10532.39
241.0665, 10154.85
241.5486, 9784.526
242.0307, 9428.413
242.5128, 9086.660
242.9949, 8754.260
243.4770, 8428.378
243.9592, 8141.212
244.4413, 7921.605
244.9234, 7714.047
245.4055, 7492.557
245.8876, 7265.000
246.3697, 7056.357
246.8519, 6884.904
247.3340, 6747.240
247.8161, 6623.265
248.2982, 6523.111
248.7803, 6423.215
249.2624, 6306.345
249.7446, 6185.071
250.2267, 6081.457
250.7088, 6009.465
251.1909, 5959.435
251.6730, 5902.718
252.1551, 5833.866
252.6373, 5769.115
253.1194, 5709.382
253.6015, 5657.610
254.0836, 5620.449
254.5657, 5602.917
255.0478, 5590.783
255.5300, 5558.951
256.0121, 5501.470
256.4942, 5447.155
256.9763, 5398.417
257.4584, 5359.600
257.9406, 5336.030
258.4227, 5329.186
258.9048, 5331.219
259.3869, 5337.305
259.8690, 5347.891
260.3511, 5351.734
260.8333, 5341.178
261.3154, 5327.841
261.7975, 5319.738
262.2796, 5317.107
262.7617, 5316.442
263.2438, 5314.289
263.7260, 5311.538
264.2081, 5314.885
264.6902, 5331.138
265.1723, 5343.837
265.6544, 5338.365
266.1365, 5319.330
266.6187, 5301.778
267.1008, 5291.780
267.5829, 5288.229
268.0650, 5291.067
268.5471, 5303.199
269.0292, 5312.189
269.5114, 5305.168
269.9935, 5289.417
270.4756, 5276.814
270.9577, 5271.105
271.4398, 5269.221
271.9219, 5267.168
272.4041, 5264.845
272.8862, 5265.983
273.3683, 5270.755
273.8504, 5281.636
274.3325, 5303.679
274.8146, 5346.315
275.2968, 5383.452
275.7789, 5395.743
276.2610, 5387.249
276.7431, 5373.066
277.2252, 5354.992
277.7073, 5338.363
278.1895, 5333.250
278.6716, 5341.697
279.1537, 5349.117
279.6358, 5350.659
280.1179, 5347.681
280.6000, 5342.471
281.0822, 5335.542
281.5643, 5326.381
282.0464, 5314.521
282.5285, 5300.174
283.0106, 5281.221
283.4927, 5251.777
283.9749, 5221.190
284.4570, 5200.145
284.9391, 5188.605
285.4212, 5174.527
285.9033, 5145.902
286.3854, 5103.483
286.8676, 5075.934
287.3497, 5073.279
287.8318, 5074.232
288.3139, 5072.586
288.7960, 5066.554
289.2781, 5051.306
289.7603, 5022.541
290.2424, 4985.238
290.7245, 4961.196
291.2066, 4954.352
291.6887, 4954.691
292.1708, 4969.701
292.6530, 4987.965
293.1351, 4993.538
293.6172, 4981.033
294.0993, 4960.221
294.5814, 4948.817
295.0635, 4956.004
295.5457, 4955.166
296.0278, 4940.395
296.5099, 4922.525
296.9920, 4908.646
297.4741, 4899.747
297.9562, 4893.248
298.4384, 4886.061
298.9205, 4877.328
299.4026, 4874.080
299.8847, 4888.886
300.3668, 4896.523
300.8489, 4878.962
301.3310, 4847.408
301.8131, 4826.510
302.2953, 4833.799
302.7774, 4863.347
303.2595, 4885.555
303.7416, 4902.546
304.2237, 4907.525
304.7058, 4889.069
305.1880, 4863.695
305.6701, 4850.460
306.1522, 4856.717
306.6343, 4871.038
307.1164, 4871.157
307.5985, 4848.715
308.0807, 4843.394
308.5628, 4890.234
309.0449, 4936.819
309.5270, 4948.906
310.0091, 4924.670
310.4912, 4889.625
310.9734, 4860.673
311.4555, 4838.142
311.9376, 4827.588
312.4197, 4834.865
312.9018, 4846.964
313.3839, 4858.772
313.8661, 4868.866
314.3482, 4873.048
314.8303, 4866.201
315.3124, 4853.711
315.7945, 4844.915
316.2766, 4840.250
316.7588, 4836.622
317.2409, 4830.085
317.7230, 4824.583
318.2051, 4827.549
318.6872, 4844.609
319.1693, 4861.870
319.6515, 4870.011
320.1336, 4869.753
320.6157, 4862.415
321.0978, 4844.248
321.5799, 4825.840
322.0620, 4827.275
322.5442, 4851.701
323.0263, 4870.992
323.5084, 4870.627
323.9905, 4863.567
324.4726, 4872.675
324.9547, 4901.632
325.4369, 4921.447
325.9190, 4898.218
326.4011, 4826.238
326.8832, 4787.338
327.3653, 4803.528
327.8474, 4830.934
328.3296, 4850.443
328.8117, 4861.063
329.2938, 4863.407
329.7759, 4856.407
330.2580, 4843.971
330.7401, 4844.111
331.2223, 4871.892
331.7044, 4893.653
332.1865, 4901.211
332.6686, 4903.273
333.1507, 4912.580
333.6328, 4931.938
334.1150, 4948.693
334.5971, 4940.604
335.0792, 4889.492
335.5613, 4863.571
336.0434, 4876.807
336.5255, 4899.607
337.0077, 4922.229
337.4898, 4941.550
337.9719, 4954.996
338.4540, 4959.040
338.9361, 4955.083
339.4182, 4955.272
339.9004, 4957.156
340.3825, 4967.699
340.8646, 4999.904
341.3467, 5036.984
341.8288, 5055.196
342.3109, 5043.378
342.7931, 5021.100
343.2752, 5020.400
343.7573, 5045.541
344.2394, 5061.323
344.7215, 5047.276
345.2036, 5030.687
345.6858, 5037.586
346.1679, 5068.407
346.6500, 5094.446
347.1321, 5093.590
347.6142, 5074.226
348.0963, 5058.726
348.5785, 5049.061
349.0606, 5043.854
349.5427, 5044.146
350.0248, 5048.332
350.5069, 5051.818
350.9890, 5056.678
351.4712, 5058.286
351.9533, 5049.422
352.4354, 5032.485
352.9175, 5020.411
353.3996, 5020.242
353.8817, 5027.581
354.3639, 5030.788
354.8460, 5027.216
355.3281, 5025.935
355.8102, 5032.807
356.2923, 5041.289
356.7744, 5043.833
357.2566, 5038.810
357.7387, 5028.201
358.2208, 5012.914
358.7029, 4990.386
359.1850, 4978.222
359.6671, 4989.208
360.1493, 4996.375
360.6314, 4982.472
361.1135, 4955.446
361.5956, 4933.529
362.0777, 4927.500
362.5598, 4934.044
363.0420, 4942.502
363.5241, 4965.874
364.0062, 4968.712
364.4883, 4920.937
364.9704, 4869.401
365.4525, 4859.353
365.9347, 4897.757
366.4168, 4948.176
366.8989, 4967.606
367.3810, 4953.820
367.8631, 4949.364
368.3452, 4965.952
368.8274, 4979.838
369.3095, 4974.028
369.7916, 4956.396
370.2737, 4946.563
370.7558, 4958.512
371.2379, 4979.538
371.7201, 4987.678
372.2022, 4981.810
372.6843, 4973.819
373.1664, 4968.547
373.6485, 4963.888
374.1306, 4955.630
374.6128, 4941.580
375.0949, 4931.433
375.5770, 4932.151
376.0591, 4940.062
376.5412, 4950.099
377.0233, 4962.128
377.5055, 4968.875
377.9876, 4959.343
378.4697, 4931.229
378.9518, 4918.104
379.4339, 4939.070
379.9160, 4958.329
380.3982, 4949.350
380.8803, 4920.365
381.3624, 4896.261
381.8445, 4890.491
382.3266, 4898.766
382.8087, 4908.360
383.2909, 4927.436
383.7730, 4936.362
384.2551, 4923.009
384.7372, 4907.107
385.2193, 4907.486
385.7014, 4925.343
386.1836, 4945.463
386.6657, 4950.799
387.1478, 4940.232
387.6299, 4936.441
388.1120, 4950.684
388.5941, 4958.462
389.0763, 4945.402
389.5584, 4922.413
390.0405, 4907.063
390.5226, 4907.491
391.0047, 4916.381
391.4868, 4923.296
391.9690, 4928.235
392.4511, 4930.941
392.9332, 4931.089
393.4153, 4928.954
393.8974, 4922.180
394.3795, 4910.980
394.8617, 4906.854
395.3438, 4924.653
395.8259, 4949.968
396.3080, 4957.892
396.7901, 4945.725
397.2722, 4925.324
397.7544, 4900.374
398.2365, 4874.080
398.7186, 4860.510
399.2007, 4863.256
399.6828, 4874.349
400.1649, 4900.012
400.6471, 4929.871
401.1292, 4946.209
401.6113, 4943.205
402.0934, 4928.262
402.5755, 4911.138
403.0576, 4888.783
403.5398, 4874.380
404.0219, 4866.064
404.5040, 4866.021
404.9861, 4885.058
405.4682, 4913.533
405.9503, 4927.781
406.4325, 4910.780
406.9146, 4873.256
407.3967, 4854.339
407.8788, 4863.767
408.3609, 4872.148
408.8430, 4870.377
409.3252, 4867.667
409.8073, 4871.734
410.2894, 4883.573
410.7715, 4897.783
411.2536, 4914.259
411.7357, 4930.509
412.2179, 4929.516
412.7000, 4901.825
413.1821, 4877.031
413.6642, 4882.133
414.1463, 4904.387
414.6284, 4918.741
415.1106, 4912.586
415.5927, 4907.163
416.0748, 4926.057
416.5569, 4959.390
417.0390, 4974.111
417.5211, 4956.735
418.0033, 4924.753
418.4854, 4902.870
418.9675, 4892.601
419.4496, 4889.221
419.9317, 4900.079
420.4138, 4911.753
420.8960, 4915.330
421.3781, 4911.542
421.8602, 4903.414
422.3423, 4891.344
422.8244, 4879.850
423.3065, 4890.087
423.7887, 4950.711
424.2708, 4987.872
424.7529, 4976.935
425.2350, 4953.253
425.7171, 4948.539
426.1992, 4965.527
426.6814, 4980.462
427.1635, 4964.143
427.6456, 4920.412
428.1277, 4898.367
428.6098, 4906.396
429.0919, 4920.298
429.5741, 4926.571
430.0562, 4930.817
430.5383, 4942.989
431.0204, 4970.182
431.5025, 4995.428
431.9846, 5003.393
432.4668, 4997.515
432.9489, 4989.336
433.4310, 4981.153
433.9131, 4973.496
434.3952, 4965.860
434.8773, 4957.809
435.3595, 4957.017
435.8416, 4964.788
436.3237, 4979.194
436.8058, 5003.606
437.2879, 5033.745
437.7701, 5059.608
438.2522, 5075.850
438.7343, 5086.027
439.2164, 5099.854
439.6985, 5127.418
440.1806, 5139.829
440.6628, 5117.727
441.1449, 5097.726
441.6270, 5107.516
442.1091, 5143.164
442.5912, 5181.397
443.0733, 5209.030
443.5555, 5223.809
444.0376, 5213.213
444.5197, 5167.836
445.0018, 5123.329
445.4839, 5087.985
445.9660, 5062.940
446.4482, 5053.113
446.9303, 5061.035
447.4124, 5069.217
447.8945, 5067.429
448.3766, 5058.226
448.8587, 5046.755
449.3409, 5033.659
449.8230, 5017.647
450.3051, 4995.558
450.7872, 4968.851
451.2693, 4951.223
451.7514, 4944.666
452.2336, 4944.036
452.7157, 4953.737
453.1978, 4966.209
453.6799, 4972.960
454.1620, 4970.998
454.6441, 4958.077
455.1263, 4927.820
455.6084, 4873.604
456.0905, 4839.831
456.5726, 4843.312
457.0547, 4851.338
457.5368, 4860.669
458.0190, 4866.577
458.5011, 4859.584
458.9832, 4832.965
459.4653, 4805.394
459.9474, 4812.203
460.4295, 4854.226
460.9117, 4869.104
461.3938, 4828.440
461.8759, 4779.773
462.3580, 4770.085
462.8401, 4791.749
463.3222, 4805.079
463.8044, 4788.613
464.2865, 4767.756
464.7686, 4766.839
465.2507, 4781.876
465.7328, 4795.302
466.2149, 4799.208
466.6971, 4798.652
467.1792, 4804.005
467.6613, 4823.529
468.1434, 4830.808
468.6255, 4812.568
469.1076, 4793.829
469.5898, 4793.521
470.0719, 4806.821
470.5540, 4815.944
471.0361, 4808.864
471.5182, 4792.287
472.0003, 4786.839
472.4825, 4798.038
472.9646, 4805.409
473.4467, 4802.785
473.9288, 4796.111
474.4109, 4790.513
474.8930, 4785.397
475.3752, 4773.584
475.8573, 4738.436
476.3394, 4698.940
476.8215, 4692.492
477.3036, 4720.195
477.7857, 4748.777
478.2679, 4763.548
478.7500, 4767.139
479.2321, 4766.124
479.7142, 4763.968
480.1963, 4750.366
480.6784, 4704.754
481.1606, 4659.328
481.6427, 4647.959
482.1248, 4668.868
482.6069, 4695.021
483.0890, 4706.415
483.5711, 4705.963
484.0533, 4710.297
484.5354, 4723.511
485.0175, 4734.862
485.4996, 4745.887
485.9817, 4752.610
486.4638, 4748.817
486.9460, 4735.446
487.4281, 4723.456
487.9102, 4723.066
488.3923, 4730.549
488.8744, 4733.861
489.3565, 4731.873
489.8387, 4732.508
490.3208, 4746.054
490.8029, 4761.074
491.2850, 4752.624
491.7671, 4709.886
492.2492, 4675.293
492.7314, 4667.643
493.2135, 4673.278
493.6956, 4677.989
494.1777, 4679.996
494.6598, 4682.734
495.1419, 4688.382
495.6241, 4697.295
496.1062, 4712.480
496.5883, 4746.838
497.0704, 4768.799
497.5525, 4775.784
498.0346, 4769.623
498.5168, 4743.776
498.9989, 4702.434
499.4810, 4668.247
499.9631, 4665.431
500.4452, 4684.476
500.9273, 4687.658
501.4095, 4670.738
501.8916, 4655.737
502.3737, 4651.806
502.8558, 4655.810
503.3379, 4662.611
503.8200, 4672.659
504.3022, 4683.150
504.7843, 4698.127
505.2664, 4710.055
505.7485, 4703.369
506.2306, 4680.994
506.7127, 4669.636
507.1949, 4689.774
507.6770, 4731.383
508.1591, 4750.108
508.6412, 4724.119
509.1233, 4706.574
509.6054, 4704.793
510.0876, 4708.567
510.5697, 4715.126
511.0518, 4721.082
511.5339, 4717.316
512.0161, 4690.912
512.4982, 4654.171
512.9803, 4644.466
513.4624, 4666.951
513.9445, 4684.998
514.4266, 4680.010
514.9088, 4669.700
515.3909, 4680.195
515.8730, 4713.716
516.3551, 4738.842
516.8372, 4749.762
517.3193, 4745.565
517.8015, 4711.042
518.2836, 4657.356
518.7657, 4628.198
519.2478, 4649.188
519.7299, 4697.995
520.2120, 4720.864
520.6942, 4700.837
521.1763, 4686.810
521.6584, 4683.435
522.1405, 4681.024
522.6226, 4672.129
523.1047, 4659.864
523.5869, 4653.424
524.0690, 4658.913
524.5511, 4669.658
525.0332, 4674.175
525.5153, 4672.518
525.9974, 4674.162
526.4796, 4684.104
526.9617, 4693.502
527.4438, 4688.262
527.9259, 4670.834
528.4080, 4665.351
528.8901, 4687.619
529.3723, 4710.440
529.8544, 4716.831
530.3365, 4712.347
530.8186, 4708.822
531.3007, 4710.236
531.7828, 4711.335
532.2650, 4703.935
532.7471, 4685.729
533.2292, 4673.270
533.7113, 4671.047
534.1934, 4669.621
534.6755, 4664.001
535.1577, 4658.274
535.6398, 4658.630
536.1219, 4667.220
536.6040, 4678.370
537.0861, 4686.696
537.5682, 4693.313
538.0504, 4703.671
538.5325, 4719.510
539.0146, 4730.064
539.4967, 4726.282
539.9788, 4710.827
540.4609, 4697.478
540.9431, 4682.287
541.4252, 4674.072
541.9073, 4684.773
542.3894, 4696.690
542.8715, 4689.205
543.3536, 4663.353
543.8358, 4637.785
544.3179, 4627.125
544.8000, 4628.916
545.2821, 4633.449
545.7642, 4642.849
546.2463, 4649.121
546.7285, 4647.104
547.2106, 4643.473
547.6926, 4643.854
548.1747, 4648.044
548.6569, 4651.111
549.1390, 4654.924
549.6211, 4653.696
550.1032, 4634.674
550.5853, 4603.144
551.0674, 4582.969
551.5496, 4584.274
552.0317, 4597.470
552.5138, 4608.054
552.9959, 4617.730
553.4780, 4618.621
553.9601, 4602.791
554.4423, 4587.975
554.9244, 4577.361
555.4065, 4573.665
555.8886, 4583.364
556.3707, 4609.320
556.8528, 4636.065
557.3350, 4643.523
557.8171, 4633.911
558.2992, 4624.435
558.7813, 4615.549
559.2634, 4610.686
559.7455, 4616.900
560.2277, 4628.162
560.7098, 4625.263
561.1919, 4597.145
561.6740, 4574.005
562.1561, 4570.050
562.6382, 4572.830
563.1204, 4566.790
563.6025, 4552.502
564.0846, 4543.817
564.5667, 4551.942
565.0488, 4571.480
565.5309, 4580.894
566.0131, 4576.616
566.4952, 4571.230
566.9773, 4566.969
567.4594, 4562.060
567.9415, 4553.281
568.4236, 4542.206
568.9058, 4535.972
569.3879, 4542.872
569.8700, 4551.144
570.3521, 4545.100
570.8342, 4529.904
571.3163, 4526.418
571.7985, 4542.353
572.2806, 4556.898
572.7627, 4540.158
573.2448, 4484.601
573.7269, 4469.404
574.2090, 4542.718
574.6912, 4596.651
575.1733, 4592.204
575.6554, 4560.764
576.1375, 4535.860
576.6196, 4525.659
577.1017, 4521.568
577.5839, 4518.604
578.0660, 4515.465
578.5481, 4504.349
579.0302, 4483.148
579.5123, 4473.826
579.9944, 4495.100
580.4766, 4526.468
580.9587, 4521.482
581.4408, 4466.103
581.9229, 4438.833
582.4050, 4474.191
582.8871, 4519.475
583.3693, 4547.048
583.8514, 4555.651
584.3335, 4545.509
584.8156, 4516.425
585.2977, 4484.019
585.7798, 4474.792
586.2620, 4490.928
586.7441, 4505.599
587.2262, 4519.144
587.7083, 4528.625
588.1904, 4529.843
588.6725, 4526.619
589.1547, 4524.586
589.6368, 4523.689
590.1189, 4526.137
590.6010, 4537.342
591.0831, 4550.145
591.5652, 4559.951
592.0474, 4563.691
592.5295, 4548.746
593.0116, 4503.978
593.4937, 4442.659
593.9758, 4404.520
594.4579, 4391.942
594.9401, 4397.341
595.4222, 4441.671
595.9043, 4484.496
596.3864, 4504.272
596.8685, 4506.332
597.3506, 4506.384
597.8328, 4510.638
598.3149, 4513.779
598.7970, 4508.980
599.2791, 4499.486
599.7612, 4494.076
600.2433, 4494.428
600.7255, 4496.026
601.2076, 4494.928
601.6897, 4491.662
602.1718, 4490.660
602.6539, 4499.701
603.1360, 4500.051
603.6182, 4479.542
604.1003, 4458.473
604.5824, 4450.796
605.0645, 4456.963
605.5466, 4472.151
606.0287, 4499.285
606.5109, 4526.252
606.9930, 4533.130
607.4751, 4521.936
607.9572, 4506.244
608.4393, 4486.633
608.9214, 4474.662
609.4036, 4486.520
609.8857, 4522.309
610.3678, 4536.152
610.8499, 4508.394
611.3320, 4485.773
611.8141, 4480.488
612.2963, 4484.561
612.7784, 4494.112
613.2605, 4505.746
613.7426, 4509.973
614.2247, 4493.456
614.7068, 4469.569
615.1890, 4478.003
615.6711, 4520.819
616.1532, 4548.533
616.6353, 4543.350
617.1174, 4524.265
617.5995, 4510.047
618.0817, 4500.790
618.5638, 4495.314
619.0459, 4499.397
619.5280, 4500.547
620.0101, 4494.049
620.4922, 4481.835
620.9744, 4458.684
621.4565, 4428.345
621.9386, 4415.261
622.4207, 4449.544
622.9028, 4515.211
623.3849, 4545.609
623.8671, 4534.227
624.3492, 4526.208
624.8313, 4539.736
625.3134, 4557.059
625.7955, 4556.604
626.2776, 4539.512
626.7598, 4518.460
627.2419, 4484.035
627.7240, 4458.111
628.2061, 4453.172
628.6882, 4463.362
629.1703, 4485.923
629.6525, 4516.911
630.1346, 4540.187
630.6167, 4536.921
631.0988, 4512.758
631.5809, 4500.001
632.0630, 4501.410
632.5452, 4503.109
633.0273, 4498.983
633.5094, 4495.336
633.9915, 4504.699
634.4736, 4525.822
634.9557, 4528.990
635.4379, 4483.938
635.9200, 4445.093
636.4021, 4450.622
636.8842, 4479.588
637.3663, 4499.946
637.8484, 4503.495
638.3306, 4499.134
638.8127, 4493.786
639.2948, 4488.555
639.7769, 4491.045
640.2590, 4503.176
640.7411, 4516.941
641.2233, 4536.911
641.7054, 4550.736
642.1875, 4543.854
642.6696, 4517.782
643.1517, 4490.323
643.6339, 4449.111
644.1160, 4424.517
644.5981, 4450.023
645.0802, 4496.289
645.5623, 4517.118
646.0444, 4504.015
646.5266, 4482.457
647.0087, 4476.696
647.4908, 4462.250
647.9729, 4446.504
648.4550, 4444.476
648.9371, 4424.448
649.4193, 4421.738
649.9014, 4428.563
650.3835, 4442.510
650.8656, 4461.448
651.3477, 4469.450
651.8298, 4453.408
652.3120, 4437.797
652.7941, 4432.657
653.2762, 4435.453
653.7583, 4446.414
654.2404, 4463.067
654.7225, 4475.285
655.2047, 4474.351
655.6868, 4463.485
656.1689, 4452.057
656.6510, 4439.310
657.1331, 4431.331
657.6152, 4432.922
658.0974, 4434.560
658.5795, 4422.487
659.0616, 4401.632
659.5437, 4395.326
660.0258, 4418.744
660.5079, 4440.672
660.9901, 4457.346
661.4722, 4462.962
661.9543, 4441.917
662.4364, 4401.242
662.9185, 4371.952
663.4006, 4376.439
663.8828, 4399.813
664.3649, 4411.048
664.8470, 4409.861
665.3291, 4404.744
665.8112, 4394.498
666.2933, 4386.247
666.7755, 4384.129
667.2576, 4388.536
667.7397, 4400.304
668.2218, 4429.853
668.7039, 4449.765
669.1860, 4453.079
669.6682, 4446.224
670.1503, 4430.016
670.6324, 4408.260
671.1145, 4387.542
671.5966, 4370.535
672.0787, 4359.496
672.5609, 4358.244
673.0430, 4366.096
673.5251, 4379.602
674.0072, 4399.770
674.4893, 4417.912
674.9714, 4428.487
675.4536, 4433.902
675.9357, 4440.641
676.4178, 4453.041
676.8999, 4457.100
677.3820, 4447.986
677.8641, 4434.993
678.3463, 4422.135
678.8284, 4409.096
679.3105, 4392.662
679.7926, 4371.866
680.2747, 4356.200
680.7568, 4356.995
681.2390, 4369.076
681.7211, 4380.875
682.2032, 4391.886
682.6853, 4404.089
683.1674, 4419.097
683.6495, 4433.349
684.1317, 4441.996
684.6138, 4445.682
685.0959, 4440.094
685.5780, 4414.862
686.0601, 4392.629
686.5422, 4374.909
687.0244, 4365.202
687.5065, 4370.401
687.9886, 4389.736
688.4707, 4407.984
688.9528, 4419.571
689.4349, 4423.362
689.9171, 4412.740
690.3992, 4393.259
690.8813, 4381.894
691.3634, 4383.153
691.8455, 4388.197
692.3276, 4388.257
692.8098, 4383.987
693.2919, 4380.907
693.7740, 4378.431
694.2561, 4378.495
694.7382, 4383.703
695.2203, 4389.583
695.7025, 4394.960
696.1846, 4398.703
696.6667, 4396.291
697.1488, 4377.255
697.6309, 4365.899
698.1130, 4383.225
698.5952, 4410.997
699.0773, 4426.771
699.5594, 4429.287
700.0415, 4428.024
700.5236, 4428.433
701.0057, 4430.672
701.4879, 4439.357
701.9700, 4455.766
702.4521, 4447.542
702.9342, 4397.986
703.4163, 4359.746
703.8984, 4370.794
704.3806, 4411.792
704.8627, 4434.797
705.3448, 4430.564
705.8269, 4436.229
706.3090, 4468.437
706.7911, 4500.401
707.2733, 4520.555
707.7554, 4527.903
708.2375, 4518.748
708.7196, 4493.060
709.2017, 4467.369
709.6838, 4458.748
710.1660, 4461.648
710.6481, 4461.962
711.1302, 4459.766
711.6123, 4460.314
712.0944, 4465.912
712.5765, 4473.350
713.0587, 4479.814
713.5408, 4485.707
714.0229, 4481.713
714.5050, 4455.834
714.9871, 4436.500
715.4692, 4429.121
715.9514, 4429.004
716.4335, 4436.282
716.9156, 4448.115
717.3977, 4454.530
717.8798, 4449.642
718.3619, 4440.681
718.8441, 4430.615
719.3262, 4421.469
719.8083, 4420.288
720.2904, 4425.590
720.7725, 4422.351
721.2546, 4399.141
721.7368, 4366.593
722.2189, 4350.244
722.7010, 4351.613
723.1831, 4361.296
723.6652, 4389.275
724.1473, 4404.036
724.6295, 4374.499
725.1116, 4325.039
725.5937, 4307.786
726.0758, 4334.468
726.5579, 4353.150
727.0400, 4343.822
727.5222, 4334.771
728.0043, 4349.087
728.4864, 4372.836
728.9685, 4378.259
729.4506, 4359.928
729.9327, 4345.019
730.4149, 4369.908
730.8970, 4410.881
731.3791, 4405.068
731.8612, 4358.517
732.3433, 4331.515
732.8254, 4343.687
733.3076, 4365.761
733.7897, 4368.071
734.2718, 4352.149
734.7539, 4338.457
735.2360, 4330.450
735.7181, 4318.713
736.2003, 4294.828
736.6824, 4273.770
737.1645, 4266.029
737.6466, 4268.504
738.1287, 4271.596
738.6108, 4271.583
739.0930, 4274.702
739.5751, 4292.763
740.0572, 4310.306
740.5393, 4308.159
741.0214, 4288.356
741.5035, 4259.909
741.9857, 4227.092
742.4678, 4199.171
742.9499, 4193.828
743.4320, 4208.827
743.9141, 4210.195
744.3962, 4194.202
744.8784, 4184.076
745.3605, 4192.622
745.8426, 4205.222
746.3247, 4199.426
746.8068, 4171.592
747.2889, 4160.202
747.7711, 4182.031
748.2532, 4197.499
748.7353, 4191.838
749.2174, 4180.028
749.6995, 4174.226
750.1816, 4175.316
750.6638, 4180.007
751.1459, 4188.818
751.6280, 4196.742
752.1101, 4199.325
752.5922, 4197.688
753.0743, 4194.306
753.5565, 4189.150
754.0386, 4178.484
754.5207, 4159.421
755.0028, 4138.965
755.4849, 4133.370
755.9670, 4145.332
756.4492, 4144.783
756.9313, 4123.753
757.4134, 4109.489
757.8955, 4119.892
758.3776, 4138.924
758.8597, 4141.006
759.3419, 4124.743
759.8240, 4110.212
760.3061, 4091.504
760.7882, 4083.749
761.2703, 4103.847
761.7524, 4130.391
762.2346, 4141.367
762.7167, 4135.117
763.1988, 4121.797
763.6809, 4103.373
764.1630, 4087.179
764.6451, 4084.326
765.1273, 4089.801
765.6094, 4091.287
766.0915, 4087.214
766.5736, 4081.208
767.0557, 4075.204
767.5378, 4070.037
768.0200, 4068.038
768.5021, 4070.028
768.9842, 4070.501
769.4663, 4070.152
769.9484, 4066.040
770.4305, 4047.411
770.9127, 4030.838
771.3948, 4048.363
771.8769, 4104.617
772.3590, 4132.087
772.8411, 4099.861
773.3232, 4065.227
773.8054, 4041.089
774.2875, 4031.672
774.7696, 4052.284
775.2517, 4093.887
775.7338, 4116.222
776.2159, 4089.042
776.6981, 4051.090
777.1802, 4051.512
777.6623, 4072.936
778.1444, 4071.131
778.6265, 4044.271
779.1086, 4024.684
779.5908, 4031.112
780.0729, 4050.761
780.5550, 4060.404
781.0371, 4059.062
781.5192, 4057.097
782.0013, 4054.565
782.4835, 4050.741
782.9656, 4040.984
783.4477, 4033.998
783.9298, 4046.907
784.4119, 4080.617
784.8940, 4093.417
785.3762, 4063.376
785.8583, 4038.316
786.3404, 4031.543
786.8225, 4034.604
787.3046, 4043.417
787.7867, 4055.072
788.2689, 4064.904
788.7510, 4072.179
789.2331, 4073.229
789.7152, 4056.168
790.1973, 4035.416
790.6794, 4041.580
791.1616, 4068.014
791.6437, 4075.769
792.1258, 4048.049
792.6079, 4011.516
793.0900, 4003.442
793.5721, 4020.540
794.0543, 4028.967
794.5364, 4026.731
795.0185, 4030.554
795.5006, 4051.127
795.9827, 4065.915
796.4648, 4046.668
796.9470, 3998.468
797.4291, 3976.761
797.9112, 4011.065
798.3933, 4029.786
798.8754, 4015.467
799.3575, 3999.041
799.8397, 3997.403
800.3218, 4006.705
800.8039, 4021.493
801.2860, 4043.354
801.7681, 4050.148
802.2502, 4012.493
802.7324, 3971.013
803.2145, 3966.677
803.6966, 3985.072
804.1787, 3995.461
804.6608, 3990.713
805.1429, 3985.050
805.6251, 3991.112
806.1072, 4003.264
806.5893, 4012.219
807.0714, 4017.110
807.5535, 4005.573
808.0356, 3973.822
808.5178, 3954.880
808.9999, 3973.215
809.4820, 4013.680
809.9641, 4038.196
810.4462, 4043.885
810.9283, 4043.923
811.4105, 4034.496
811.8926, 4025.604
812.3747, 4020.892
812.8568, 4018.813
813.3389, 4019.459
813.8210, 4022.728
814.3032, 4020.021
814.7853, 3998.324
815.2674, 3985.456
815.7495, 4001.511
816.2316, 4022.215
816.7137, 4021.591
817.1959, 4005.300
817.6780, 3998.280
818.1601, 4012.961
818.6422, 4029.573
819.1243, 4032.677
819.6064, 4026.223
820.0886, 4010.286
820.5707, 3990.081
821.0528, 3983.210
821.5349, 3995.488
822.0170, 4014.380
822.4991, 4027.375
822.9813, 4034.826
823.4634, 4038.660
823.9455, 4038.993
824.4276, 4031.292
824.9097, 4011.206
825.3918, 3997.893
825.8740, 4010.665
826.3561, 4037.582
826.8382, 4036.448
827.3203, 3985.760
827.8024, 3956.793
828.2845, 3963.614
828.7667, 3975.213
829.2488, 3987.616
829.7309, 3994.523
830.2130, 3983.166
830.6951, 3953.268
831.1772, 3936.452
831.6594, 3953.054
832.1415, 3968.557
832.6236, 3965.764
833.1057, 3956.286
833.5878, 3950.386
834.0699, 3949.223
834.5521, 3951.188
835.0342, 3955.932
835.5163, 3961.498
835.9984, 3966.438
836.4805, 3970.844
836.9626, 3977.374
837.4448, 3983.733
837.9269, 3979.026
838.4090, 3960.390
838.8911, 3943.270
839.3732, 3946.575
839.8553, 3962.232
840.3375, 3957.415
840.8196, 3931.583
841.3017, 3911.971
841.7838, 3902.097
842.2659, 3907.042
842.7480, 3935.691
843.2302, 3974.428
843.7123, 3986.850
844.1944, 3959.578
844.6765, 3951.658
845.1586, 3981.134
845.6407, 4003.033
846.1229, 3986.350
846.6050, 3966.343
847.0871, 3987.963
847.5692, 4046.248
848.0513, 4074.305
848.5334, 4041.002
849.0156, 4006.451
849.4977, 3982.601
849.9798, 3967.361
850.4619, 3959.753
850.9440, 3959.010
851.4261, 3968.271
851.9083, 3989.898
852.3904, 3999.997
852.8725, 3966.676
853.3546, 3927.720
853.8367, 3926.414
854.3188, 3949.474
854.8010, 3971.156
855.2831, 3984.189
855.7652, 3987.677
856.2473, 3980.225
856.7294, 3964.901
857.2115, 3941.507
857.6937, 3914.356
858.1758, 3905.530
858.6579, 3916.504
859.1400, 3927.571
859.6221, 3929.569
860.1042, 3927.708
860.5864, 3929.510
861.0685, 3934.769
861.5506, 3937.658
862.0327, 3937.454
862.5148, 3938.105
862.9969, 3942.149
863.4791, 3943.830
863.9612, 3937.020
864.4433, 3924.679
864.9254, 3917.884
865.4075, 3921.714
865.8896, 3920.412
866.3718, 3914.414
866.8539, 3902.979
867.3360, 3876.510
867.8181, 3850.370
868.3002, 3844.978
868.7823, 3859.914
869.2645, 3870.940
869.7466, 3868.634
870.2287, 3865.555
870.7108, 3868.194
871.1929, 3870.653
871.6750, 3862.856
872.1572, 3851.420
872.6393, 3855.514
873.1214, 3882.413
873.6035, 3903.015
874.0856, 3881.153
874.5677, 3854.612
875.0499, 3880.844
875.5320, 3931.100
876.0141, 3938.348
876.4962, 3895.777
876.9783, 3849.717
877.4604, 3830.091
877.9426, 3829.036
878.4247, 3838.592
878.9068, 3856.031
879.3889, 3873.385
879.8710, 3889.353
880.3531, 3898.502
880.8353, 3898.819
881.3174, 3886.741
881.7995, 3854.267
882.2816, 3807.023
882.7637, 3781.371
883.2458, 3779.303
883.7280, 3785.860
884.2101, 3800.871
884.6922, 3816.793
885.1743, 3828.271
885.6564, 3838.076
886.1385, 3854.400
886.6207, 3883.502
887.1028, 3889.283
887.5849, 3849.741
888.0670, 3822.658
888.5491, 3839.195
889.0313, 3859.948
889.5134, 3847.442
889.9955, 3809.112
890.4776, 3778.370
890.9597, 3749.836
891.4418, 3742.904
891.9240, 3779.398
892.4061, 3817.217
892.8882, 3837.840
893.3703, 3844.366
893.8524, 3837.191
894.3345, 3818.590
894.8167, 3809.589
895.2988, 3829.726
895.7809, 3848.037
896.2630, 3847.770
896.7451, 3837.625
897.2272, 3817.789
897.7094, 3797.509
898.1915, 3799.565
898.6736, 3832.283
899.1557, 3864.266
899.6378, 3875.551
900.1199, 3868.058
900.6021, 3830.120
901.0842, 3779.503
901.5663, 3752.636
902.0484, 3754.688
902.5305, 3772.292
903.0126, 3798.943
903.4948, 3825.532
903.9769, 3839.661
904.4590, 3842.612
904.9411, 3835.115
905.4232, 3818.827
905.9053, 3804.357
906.3875, 3795.177
906.8696, 3787.511
907.3517, 3776.733
907.8338, 3766.424
908.3159, 3771.066
908.7980, 3790.811
909.2802, 3802.452
909.7623, 3803.236
910.2444, 3797.049
910.7265, 3783.321
911.2086, 3771.217
911.6907, 3775.062
912.1729, 3794.636
912.6550, 3810.321
913.1371, 3820.934
913.6192, 3832.284
914.1013, 3849.405
914.5834, 3859.316
915.0656, 3849.205
915.5477, 3828.790
916.0298, 3822.120
916.5119, 3837.379
916.9940, 3835.067
917.4761, 3788.504
917.9583, 3762.216
918.4404, 3789.218
918.9225, 3826.251
919.4046, 3840.580
919.8867, 3836.430
920.3688, 3830.756
920.8510, 3822.125
921.3331, 3818.022
921.8152, 3820.072
922.2973, 3826.227
922.7794, 3839.411
923.2615, 3853.709
923.7437, 3865.124
924.2258, 3871.845
924.7079, 3866.564
925.1900, 3836.348
925.6721, 3811.563
926.1542, 3806.639
926.6364, 3810.102
927.1185, 3815.920
927.6006, 3822.271
928.0827, 3827.177
928.5648, 3830.435
929.0469, 3835.040
929.5291, 3842.978
930.0112, 3852.486
930.4933, 3859.627
930.9754, 3869.405
931.4575, 3891.989
931.9396, 3922.628
932.4218, 3946.880
932.9039, 3959.677
933.3860, 3967.415
933.8681, 3973.603
934.3502, 3979.399
934.8323, 3982.242
935.3145, 3987.204
935.7966, 4009.851
936.2787, 4047.063
936.7608, 4072.531
937.2429, 4071.120
937.7250, 4071.246
938.2072, 4111.701
938.6893, 4177.965
939.1714, 4240.750
939.6535, 4299.036
940.1356, 4347.792
940.6177, 4388.067
941.0999, 4435.863
941.5820, 4501.450
942.0641, 4586.667
942.5462, 4703.249
943.0283, 4843.676
943.5104, 4963.072
943.9926, 5062.115
944.4747, 5178.271
944.9568, 5322.833
945.4389, 5495.288
945.9210, 5696.958
946.4031, 5919.958
946.8853, 6139.853
947.3674, 6357.237
947.8495, 6605.437
948.3316, 6887.304
948.8137, 7189.965
949.2958, 7506.014
949.7780, 7851.522
950.2601, 8244.691
950.7422, 8679.830
951.2243, 9131.570
951.7064, 9604.071
952.1885, 10068.55
952.6707, 10530.37
953.1528, 10949.32
953.6349, 11323.96
954.1170, 11611.48
954.5991, 11764.61
955.0812, 11781.01
955.5634, 11623.26
956.0455, 11266.24
956.5276, 10807.63
957.0097, 10226.58
957.4918, 9599.527
957.9739, 8944.442
958.4561, 8289.857
958.9382, 7676.802
959.4203, 7100.825
959.9024, 6601.434
960.3845, 6192.450
960.8666, 5832.631
961.3488, 5517.081
961.8309, 5248.405
962.3130, 5035.852
962.7951, 4869.354
963.2772, 4731.718
963.7593, 4628.620
964.2415, 4523.875
964.7236, 4399.381
965.2057, 4299.569
965.6878, 4247.355
966.1699, 4206.569
966.6520, 4151.123
967.1342, 4090.439
967.6163, 4048.502
968.0984, 4032.491
968.5805, 4008.479
969.0626, 3961.111
969.5447, 3923.782
970.0269, 3906.877
970.5090, 3901.138
970.9911, 3907.453
971.4732, 3918.137
971.9553, 3913.766
972.4374, 3889.648
972.9196, 3860.901
973.4017, 3816.826
973.8838, 3784.434
974.3659, 3784.588
974.8480, 3790.987
975.3301, 3772.809
975.8123, 3741.378
976.2944, 3738.617
976.7765, 3784.366
977.2586, 3814.276
977.7407, 3805.424
978.2228, 3788.260
978.7050, 3774.539
979.1871, 3760.024
979.6692, 3737.102
980.1513, 3709.057
980.6334, 3688.194
981.1155, 3678.949
981.5977, 3671.496
982.0798, 3660.243
982.5619, 3653.217
983.0440, 3661.345
983.5261, 3670.830
984.0082, 3664.521
984.4904, 3645.178
984.9725, 3627.942
985.4546, 3614.250
985.9367, 3610.491
986.4188, 3633.510
986.9009, 3650.669
987.3831, 3633.231
987.8652, 3605.942
988.3473, 3595.503
988.8294, 3603.922
989.3115, 3626.597
989.7936, 3674.193
990.2758, 3700.025
990.7579, 3662.631
991.2400, 3621.562
991.7221, 3620.275
992.2042, 3634.059
992.6863, 3629.300
993.1685, 3606.916
993.6506, 3589.958
994.1327, 3586.135
994.6148, 3588.317
995.0969, 3600.564
995.5790, 3610.015
996.0612, 3607.186
996.5433, 3596.817
997.0254, 3579.612
997.5075, 3560.494
997.9896, 3557.257
998.4717, 3583.029
998.9539, 3603.747
999.4360, 3596.079
999.9181, 3586.104
1000.400, 3596.202
1000.882, 3612.115
1001.364, 3611.670
1001.847, 3597.443
1002.329, 3592.008
1002.811, 3606.628
1003.293, 3619.744
1003.775, 3622.638
1004.257, 3619.109
1004.739, 3610.963
1005.221, 3598.407
1005.703, 3575.617
1006.186, 3547.979
1006.668, 3536.146
1007.150, 3551.675
1007.632, 3568.060
1008.114, 3577.493
1008.596, 3579.090
1009.078, 3564.088
1009.560, 3546.436
1010.043, 3544.117
1010.525, 3555.254
1011.007, 3565.277
1011.489, 3569.774
1011.971, 3572.851
1012.453, 3579.699
1012.935, 3581.808
1013.417, 3570.831
1013.899, 3554.609
1014.382, 3538.381
1014.864, 3525.387
1015.346, 3523.319
1015.828, 3537.807
1016.310, 3547.972
1016.792, 3538.114
1017.274, 3530.959
1017.756, 3546.548
1018.239, 3565.010
1018.721, 3564.255
1019.203, 3548.023
1019.685, 3532.756
1020.167, 3522.064
1020.649, 3513.329
1021.131, 3501.308
1021.613, 3496.453
1022.095, 3513.230
1022.578, 3531.123
1023.060, 3527.385
1023.542, 3509.785
1024.024, 3501.139
1024.506, 3506.613
1024.988, 3514.453
1025.470, 3529.433
1025.952, 3536.032
1026.435, 3516.803
1026.917, 3497.581
1027.399, 3506.743
1027.881, 3529.694
1028.363, 3531.058
1028.845, 3503.069
1029.327, 3481.944
1029.809, 3469.862
1030.292, 3471.468
1030.774, 3515.638
1031.256, 3546.181
1031.738, 3496.621
1032.220, 3418.729
1032.702, 3417.638
1033.184, 3508.905
1033.666, 3557.563
1034.148, 3513.687
1034.630, 3479.515
1035.113, 3470.242
1035.595, 3476.039
1036.077, 3511.062
1036.559, 3547.546
1037.041, 3534.431
1037.523, 3468.907
1038.005, 3438.454
1038.487, 3473.776
1038.970, 3495.546
1039.452, 3492.303
1039.934, 3483.873
1040.416, 3477.562
1040.898, 3471.549
1041.380, 3463.577
1041.862, 3453.825
1042.344, 3443.474
1042.826, 3426.209
1043.309, 3423.634
1043.791, 3448.802
1044.273, 3464.701
1044.755, 3449.134
1045.237, 3431.721
1045.719, 3447.601
1046.201, 3440.065
1046.683, 3440.799
1047.166, 3458.647
1047.648, 3446.740
1048.130, 3471.149
1048.612, 3483.441
1049.094, 3463.256
1049.576, 3442.146
1050.058, 3448.296
1050.540, 3471.176
1051.022, 3482.583
1051.505, 3481.650
1051.987, 3477.095
1052.469, 3468.238
1052.951, 3459.299
1053.433, 3450.294
1053.915, 3447.521
1054.397, 3456.524
1054.879, 3470.003
1055.361, 3475.098
1055.844, 3472.095
1056.326, 3462.534
1056.808, 3446.404
1057.290, 3436.355
1057.772, 3434.562
1058.254, 3437.414
1058.736, 3443.357
1059.218, 3448.900
1059.701, 3447.843
1060.183, 3443.969
1060.665, 3454.067
1061.147, 3473.964
1061.629, 3478.751
1062.111, 3467.382
1062.593, 3454.406
1063.075, 3445.817
1063.557, 3444.819
1064.040, 3458.345
1064.522, 3473.577
1065.004, 3462.659
1065.486, 3436.514
1065.968, 3418.092
1066.450, 3410.043
1066.932, 3418.151
1067.414, 3440.457
1067.896, 3453.712
1068.379, 3439.267
1068.861, 3419.931
1069.343, 3429.591
1069.825, 3444.183
1070.307, 3420.274
1070.789, 3378.854
1071.271, 3366.865
1071.753, 3385.548
1072.236, 3400.458
1072.718, 3394.918
1073.200, 3392.436
1073.682, 3423.919
1074.164, 3450.812
1074.646, 3426.661
1075.128, 3389.487
1075.610, 3388.045
1076.093, 3415.632
1076.575, 3443.154
1077.057, 3463.355
1077.539, 3470.944
1078.021, 3459.278
1078.503, 3440.143
1078.985, 3405.402
1079.467, 3378.546
1079.949, 3382.900
1080.432, 3404.973
1080.914, 3422.334
1081.396, 3432.459
1081.878, 3442.723
1082.360, 3456.905
1082.842, 3467.622
1083.324, 3471.426
1083.806, 3474.302
1084.288, 3481.333
1084.771, 3486.940
1085.253, 3482.919
1085.735, 3471.741
1086.217, 3465.395
1086.699, 3464.561
1087.181, 3467.634
1087.663, 3482.207
1088.145, 3484.301
1088.628, 3461.493
1089.110, 3435.735
1089.592, 3420.907
1090.074, 3416.642
1090.556, 3423.576
1091.038, 3442.254
1091.520, 3457.547
1092.002, 3470.767
1092.484, 3468.967
1092.967, 3447.387
1093.449, 3426.581
1093.931, 3415.028
1094.413, 3420.974
1094.895, 3461.509
1095.377, 3520.108
1095.859, 3528.520
1096.341, 3494.606
1096.823, 3481.086
1097.306, 3490.730
1097.788, 3494.763
1098.270, 3484.229
1098.752, 3472.994
1099.234, 3473.169
1099.716, 3455.272
1100.198, 3455.527
1100.680, 3427.404
1101.163, 3409.991
1101.645, 3399.328
1102.127, 3380.724
1102.609, 3355.077
1103.091, 3337.462
1103.573, 3335.181
1104.055, 3340.134
1104.537, 3353.666
1105.020, 3362.876
1105.502, 3350.918
1105.984, 3331.476
1106.466, 3318.643
1106.948, 3313.319
1107.430, 3307.412
1107.912, 3301.239
1108.394, 3325.266
1108.876, 3443.126
1109.359, 3515.716
1109.841, 3451.834
1110.323, 3371.193
1110.805, 3344.403
1111.287, 3344.032
1111.769, 3331.333
1112.251, 3309.175
1112.733, 3307.328
1113.215, 3344.528
1113.698, 3361.549
1114.180, 3337.603
1114.662, 3324.279
1115.144, 3343.048
1115.626, 3360.992
1116.108, 3353.859
1116.590, 3333.753
1117.072, 3323.332
1117.555, 3322.643
1118.037, 3317.196
1118.519, 3304.198
1119.001, 3305.394
1119.483, 3327.011
1119.965, 3335.554
1120.447, 3314.362
1120.929, 3293.874
1121.411, 3308.128
1121.894, 3339.726
1122.376, 3339.585
1122.858, 3315.345
1123.340, 3309.530
1123.822, 3319.465
1124.304, 3321.119
1124.786, 3308.896
1125.268, 3283.288
1125.750, 3243.040
1126.233, 3216.152
1126.715, 3242.732
1127.197, 3294.481
1127.679, 3350.018
1128.161, 3392.510
1128.643, 3385.987
1129.125, 3345.016
1129.607, 3310.736
1130.090, 3294.510
1130.572, 3287.984
1131.054, 3290.815
1131.536, 3295.357
1132.018, 3294.400
1132.500, 3297.366
1132.982, 3320.567
1133.464, 3344.248
1133.947, 3343.463
1134.429, 3321.259
1134.911, 3294.799
1135.393, 3258.370
1135.875, 3244.496
1136.357, 3285.563
1136.839, 3304.320
1137.321, 3269.369
1137.803, 3236.703
1138.286, 3242.838
1138.768, 3225.341
1139.250, 3259.471
1139.732, 3235.754
1140.214, 3236.091
1140.696, 3265.611
1141.178, 3278.015
1141.660, 3268.860
1142.142, 3258.710
1142.625, 3253.936
1143.107, 3253.470
1143.589, 3257.113
1144.071, 3261.382
1144.553, 3259.858
1145.035, 3254.166
1145.517, 3247.140
1145.999, 3240.608
1146.482, 3240.063
1146.964, 3245.673
1147.446, 3255.364
1147.928, 3268.059
1148.410, 3281.557
1148.892, 3301.220
1149.374, 3309.043
1149.856, 3270.822
1150.339, 3230.112
1150.821, 3235.869
1151.303, 3265.419
1151.785, 3286.670
1152.267, 3294.362
1152.749, 3290.397
1153.231, 3271.996
1153.713, 3254.910
1154.195, 3236.025
1154.677, 3228.081
1155.160, 3241.605
1155.642, 3259.979
1156.124, 3274.303
1156.606, 3286.414
1157.088, 3301.542
1157.570, 3297.319
1158.052, 3313.159
1158.534, 3281.180
1159.017, 3254.857
1159.499, 3235.818
1159.981, 3221.769
1160.463, 3211.336
1160.945, 3213.834
1161.427, 3238.289
1161.909, 3267.731
1162.391, 3272.366
1162.874, 3259.094
1163.356, 3247.646
1163.838, 3239.099
1164.320, 3240.129
1164.802, 3248.083
1165.284, 3249.558
1165.766, 3241.104
1166.248, 3234.034
1166.730, 3237.535
1167.213, 3240.581
1167.695, 3225.654
1168.177, 3214.971
1168.659, 3235.547
1169.141, 3267.072
1169.623, 3290.327
1170.105, 3299.856
1170.587, 3285.347
1171.069, 3240.661
1171.552, 3208.907
1172.034, 3198.721
1172.516, 3200.084
1172.998, 3225.570
1173.480, 3241.578
1173.962, 3229.408
1174.444, 3207.368
1174.926, 3192.656
1175.409, 3184.968
1175.891, 3184.048
1176.373, 3190.262
1176.855, 3199.735
1177.337, 3212.718
1177.819, 3217.801
1178.301, 3213.041
1178.783, 3206.104
1179.266, 3200.689
1179.748, 3201.411
1180.230, 3217.208
1180.712, 3234.437
1181.194, 3227.790
1181.676, 3209.139
1182.158, 3194.057
1182.640, 3185.564
1183.122, 3187.719
1183.604, 3199.416
1184.087, 3217.925
1184.569, 3245.441
1185.051, 3254.312
1185.533, 3214.511
1186.015, 3177.188
1186.497, 3156.981
1186.979, 3153.957
1187.461, 3183.989
1187.944, 3220.534
1188.426, 3221.809
1188.908, 3195.122
1189.390, 3186.937
1189.872, 3204.564
1190.354, 3214.864
1190.836, 3217.052
1191.318, 3215.228
1191.801, 3210.047
1192.283, 3201.050
1192.765, 3186.920
1193.247, 3177.676
1193.729, 3187.444
1194.211, 3208.878
1194.693, 3232.482
1195.175, 3250.158
1195.657, 3230.562
1196.140, 3187.661
1196.622, 3161.813
1197.104, 3160.848
1197.586, 3177.682
1198.068, 3211.795
1198.550, 3235.708
1199.032, 3226.449
1199.514, 3209.533
1199.996, 3188.610
1200.479, 3176.996
1200.961, 3199.640
1201.443, 3229.132
1201.925, 3217.962
1202.407, 3171.847
1202.889, 3151.530
1203.371, 3167.222
1203.853, 3177.227
1204.336, 3181.545
1204.818, 3177.860
1205.300, 3161.744
1205.782, 3158.097
1206.264, 3182.579
1206.746, 3209.933
1207.228, 3208.053
1207.710, 3221.389
1208.193, 3198.217
1208.675, 3218.414
1209.157, 3217.716
1209.639, 3202.361
1210.121, 3198.908
1210.603, 3206.461
1211.085, 3194.497
1211.567, 3150.118
1212.049, 3124.033
1212.531, 3172.438
1213.014, 3213.311
1213.496, 3192.824
1213.978, 3161.224
1214.460, 3152.637
1214.942, 3153.750
1215.424, 3145.142
1215.906, 3130.111
1216.388, 3122.714
1216.871, 3122.841
1217.353, 3132.688
1217.835, 3155.200
1218.317, 3177.900
1218.799, 3201.882
1219.281, 3201.113
1219.763, 3162.444
1220.245, 3128.413
1220.728, 3140.429
1221.210, 3118.403
1221.692, 3156.161
1222.174, 3126.031
1222.656, 3136.503
1223.138, 3165.914
1223.620, 3162.251
1224.102, 3134.174
1224.584, 3126.803
1225.067, 3150.063
1225.549, 3169.735
1226.031, 3168.774
1226.513, 3166.882
1226.995, 3178.613
1227.477, 3180.430
1227.959, 3145.448
1228.441, 3114.524
1228.923, 3124.886
1229.406, 3106.951
1229.888, 3149.412
1230.370, 3122.514
1230.852, 3128.107
1231.334, 3168.196
1231.816, 3187.355
1232.298, 3183.312
1232.780, 3188.903
1233.263, 3210.182
1233.745, 3210.686
1234.227, 3168.777
1234.709, 3125.267
1235.191, 3129.087
1235.673, 3106.213
1236.155, 3130.776
1236.637, 3112.723
1237.120, 3131.938
1237.602, 3165.077
1238.084, 3169.087
1238.566, 3147.872
1239.048, 3139.900
1239.530, 3156.536
1240.012, 3163.565
1240.494, 3151.237
1240.976, 3145.958
1241.458, 3156.721
1241.941, 3157.879
1242.423, 3135.365
1242.905, 3111.791
##END=



