##NAMES=Fluornatromicrolite
##RRUFFID=R130021
##IDEAL CHEMISTRY=(Na_1.5_Bi^3+^_0.5_)Ta^5+^_2_O_6_F
##LOCALITY=Fisher’s Ledge, Topsham, Maine, USA.
##OWNER=RRUFF
##SOURCE=Royal Ontario Museum
##DESCRIPTION=Transparent green octahedra on albite
##STATUS=The identification of this mineral is confirmed by single-crystal X-ray diffraction and chemical analysis.
##URL=rruff.info/R130021
##MEASURED CHEMISTRY=(Na_1.01_Ca_0.94_Bi_0.02_Mn_0.01_)_Σ=1.99_(Ta_1.96_Nb_0.02_Sb_0.01_Sn_0.01_)_Σ=2_O_6_[F_0.85_(OH)_0.11_]_Σ=0.96_
8.975323e+001, 0.000000e+000
9.023535e+001, 1.127304e+003
9.071747e+001, 1.090557e+003
9.119958e+001, 1.073138e+003
9.168170e+001, 1.111706e+003
9.216382e+001, 1.153752e+003
9.264594e+001, 1.184143e+003
9.312805e+001, 1.203832e+003
9.361017e+001, 1.219615e+003
9.409229e+001, 1.235595e+003
9.457440e+001, 1.254050e+003
9.505651e+001, 1.268423e+003
9.553863e+001, 1.279776e+003
9.602074e+001, 1.288589e+003
9.650286e+001, 1.294950e+003
9.698498e+001, 1.298083e+003
9.746709e+001, 1.296336e+003
9.794921e+001, 1.295197e+003
9.843133e+001, 1.295605e+003
9.891344e+001, 1.295870e+003
9.939556e+001, 1.294188e+003
9.987768e+001, 1.291419e+003
1.003598e+002, 1.290528e+003
1.008419e+002, 1.293750e+003
1.013240e+002, 1.300198e+003
1.018061e+002, 1.305244e+003
1.022883e+002, 1.308050e+003
1.027704e+002, 1.309884e+003
1.032525e+002, 1.311479e+003
1.037346e+002, 1.312570e+003
1.042167e+002, 1.314436e+003
1.046988e+002, 1.318373e+003
1.051810e+002, 1.323233e+003
1.056631e+002, 1.327383e+003
1.061452e+002, 1.330232e+003
1.066273e+002, 1.331806e+003
1.071094e+002, 1.332047e+003
1.075915e+002, 1.328889e+003
1.080737e+002, 1.326895e+003
1.085558e+002, 1.328702e+003
1.090379e+002, 1.333232e+003
1.095200e+002, 1.337723e+003
1.100021e+002, 1.339031e+003
1.104842e+002, 1.335749e+003
1.109664e+002, 1.336745e+003
1.114485e+002, 1.346890e+003
1.119306e+002, 1.357025e+003
1.124127e+002, 1.362957e+003
1.128948e+002, 1.364058e+003
1.133769e+002, 1.362284e+003
1.138591e+002, 1.360277e+003
1.143412e+002, 1.357153e+003
1.148233e+002, 1.355533e+003
1.153054e+002, 1.355478e+003
1.157875e+002, 1.356760e+003
1.162696e+002, 1.359684e+003
1.167517e+002, 1.364470e+003
1.172339e+002, 1.369870e+003
1.177160e+002, 1.372558e+003
1.181981e+002, 1.371138e+003
1.186802e+002, 1.370484e+003
1.191623e+002, 1.372767e+003
1.196444e+002, 1.377001e+003
1.201266e+002, 1.380499e+003
1.206087e+002, 1.381924e+003
1.210908e+002, 1.381858e+003
1.215729e+002, 1.381717e+003
1.220550e+002, 1.381086e+003
1.225371e+002, 1.381058e+003
1.230193e+002, 1.383230e+003
1.235014e+002, 1.387971e+003
1.239835e+002, 1.391776e+003
1.244656e+002, 1.391725e+003
1.249477e+002, 1.390283e+003
1.254298e+002, 1.389592e+003
1.259120e+002, 1.390542e+003
1.263941e+002, 1.392468e+003
1.268762e+002, 1.393801e+003
1.273583e+002, 1.393965e+003
1.278404e+002, 1.394553e+003
1.283225e+002, 1.396047e+003
1.288047e+002, 1.398187e+003
1.292868e+002, 1.400777e+003
1.297689e+002, 1.403886e+003
1.302510e+002, 1.407387e+003
1.307331e+002, 1.409305e+003
1.312152e+002, 1.407549e+003
1.316974e+002, 1.406142e+003
1.321795e+002, 1.405755e+003
1.326616e+002, 1.406512e+003
1.331437e+002, 1.408450e+003
1.336258e+002, 1.411747e+003
1.341079e+002, 1.416758e+003
1.345901e+002, 1.420847e+003
1.350722e+002, 1.424598e+003
1.355543e+002, 1.427222e+003
1.360364e+002, 1.427286e+003
1.365185e+002, 1.425038e+003
1.370006e+002, 1.423076e+003
1.374828e+002, 1.424742e+003
1.379649e+002, 1.431107e+003
1.384470e+002, 1.435705e+003
1.389291e+002, 1.436514e+003
1.394112e+002, 1.436052e+003
1.398933e+002, 1.437516e+003
1.403755e+002, 1.441885e+003
1.408576e+002, 1.447065e+003
1.413397e+002, 1.450299e+003
1.418218e+002, 1.451794e+003
1.423039e+002, 1.452962e+003
1.427860e+002, 1.453887e+003
1.432681e+002, 1.454823e+003
1.437503e+002, 1.457081e+003
1.442324e+002, 1.462780e+003
1.447145e+002, 1.467605e+003
1.451966e+002, 1.466963e+003
1.456787e+002, 1.460875e+003
1.461608e+002, 1.454922e+003
1.466430e+002, 1.454496e+003
1.471251e+002, 1.460245e+003
1.476072e+002, 1.465177e+003
1.480893e+002, 1.466607e+003
1.485714e+002, 1.467717e+003
1.490535e+002, 1.470266e+003
1.495357e+002, 1.474602e+003
1.500178e+002, 1.479876e+003
1.504999e+002, 1.485044e+003
1.509820e+002, 1.490823e+003
1.514641e+002, 1.494840e+003
1.519462e+002, 1.497085e+003
1.524284e+002, 1.497822e+003
1.529105e+002, 1.496515e+003
1.533926e+002, 1.493093e+003
1.538747e+002, 1.488993e+003
1.543568e+002, 1.487891e+003
1.548389e+002, 1.494360e+003
1.553211e+002, 1.498481e+003
1.558032e+002, 1.497489e+003
1.562853e+002, 1.494588e+003
1.567674e+002, 1.494008e+003
1.572495e+002, 1.498003e+003
1.577316e+002, 1.505091e+003
1.582138e+002, 1.508881e+003
1.586959e+002, 1.506751e+003
1.591780e+002, 1.504798e+003
1.596601e+002, 1.504205e+003
1.601422e+002, 1.504846e+003
1.606243e+002, 1.506423e+003
1.611065e+002, 1.508862e+003
1.615886e+002, 1.512102e+003
1.620707e+002, 1.515586e+003
1.625528e+002, 1.520115e+003
1.630349e+002, 1.524128e+003
1.635170e+002, 1.526455e+003
1.639991e+002, 1.527237e+003
1.644813e+002, 1.527765e+003
1.649634e+002, 1.528684e+003
1.654455e+002, 1.529945e+003
1.659276e+002, 1.531397e+003
1.664097e+002, 1.533249e+003
1.668918e+002, 1.535117e+003
1.673740e+002, 1.536426e+003
1.678561e+002, 1.537013e+003
1.683382e+002, 1.537800e+003
1.688203e+002, 1.539816e+003
1.693024e+002, 1.542239e+003
1.697845e+002, 1.544054e+003
1.702667e+002, 1.544858e+003
1.707488e+002, 1.544831e+003
1.712309e+002, 1.544202e+003
1.717130e+002, 1.542326e+003
1.721951e+002, 1.541088e+003
1.726772e+002, 1.541257e+003
1.731594e+002, 1.542389e+003
1.736415e+002, 1.543820e+003
1.741236e+002, 1.545031e+003
1.746057e+002, 1.546238e+003
1.750878e+002, 1.548897e+003
1.755699e+002, 1.556060e+003
1.760521e+002, 1.561169e+003
1.765342e+002, 1.560809e+003
1.770163e+002, 1.557290e+003
1.774984e+002, 1.554875e+003
1.779805e+002, 1.557036e+003
1.784626e+002, 1.563838e+003
1.789448e+002, 1.567283e+003
1.794269e+002, 1.563080e+003
1.799090e+002, 1.559754e+003
1.803911e+002, 1.560340e+003
1.808732e+002, 1.564072e+003
1.813553e+002, 1.568481e+003
1.818375e+002, 1.571527e+003
1.823196e+002, 1.573082e+003
1.828017e+002, 1.574273e+003
1.832838e+002, 1.574406e+003
1.837659e+002, 1.574838e+003
1.842480e+002, 1.576581e+003
1.847301e+002, 1.579435e+003
1.852123e+002, 1.582199e+003
1.856944e+002, 1.583724e+003
1.861765e+002, 1.583790e+003
1.866586e+002, 1.584025e+003
1.871407e+002, 1.584659e+003
1.876228e+002, 1.585292e+003
1.881050e+002, 1.585078e+003
1.885871e+002, 1.584025e+003
1.890692e+002, 1.583994e+003
1.895513e+002, 1.587680e+003
1.900334e+002, 1.594904e+003
1.905155e+002, 1.599781e+003
1.909977e+002, 1.599745e+003
1.914798e+002, 1.597939e+003
1.919619e+002, 1.598074e+003
1.924440e+002, 1.600842e+003
1.929261e+002, 1.604135e+003
1.934082e+002, 1.606034e+003
1.938904e+002, 1.606862e+003
1.943725e+002, 1.607269e+003
1.948546e+002, 1.606414e+003
1.953367e+002, 1.605437e+003
1.958188e+002, 1.607047e+003
1.963009e+002, 1.612619e+003
1.967831e+002, 1.618235e+003
1.972652e+002, 1.621406e+003
1.977473e+002, 1.622497e+003
1.982294e+002, 1.622023e+003
1.987115e+002, 1.618723e+003
1.991936e+002, 1.613680e+003
1.996758e+002, 1.611691e+003
2.001579e+002, 1.614070e+003
2.006400e+002, 1.618116e+003
2.011221e+002, 1.623048e+003
2.016042e+002, 1.628349e+003
2.020863e+002, 1.632769e+003
2.025685e+002, 1.635191e+003
2.030506e+002, 1.635738e+003
2.035327e+002, 1.636330e+003
2.040148e+002, 1.635801e+003
2.044969e+002, 1.636672e+003
2.049790e+002, 1.641109e+003
2.054612e+002, 1.647820e+003
2.059433e+002, 1.653797e+003
2.064254e+002, 1.656354e+003
2.069075e+002, 1.655293e+003
2.073896e+002, 1.654614e+003
2.078717e+002, 1.654158e+003
2.083539e+002, 1.654264e+003
2.088360e+002, 1.655622e+003
2.093181e+002, 1.657758e+003
2.098002e+002, 1.659501e+003
2.102823e+002, 1.659704e+003
2.107644e+002, 1.658132e+003
2.112466e+002, 1.657164e+003
2.117287e+002, 1.656424e+003
2.122108e+002, 1.656559e+003
2.126929e+002, 1.658282e+003
2.131750e+002, 1.661247e+003
2.136571e+002, 1.664448e+003
2.141393e+002, 1.666974e+003
2.146214e+002, 1.668736e+003
2.151035e+002, 1.670424e+003
2.155856e+002, 1.672597e+003
2.160677e+002, 1.674255e+003
2.165498e+002, 1.674357e+003
2.170320e+002, 1.673250e+003
2.175141e+002, 1.672451e+003
2.179962e+002, 1.673350e+003
2.184783e+002, 1.676172e+003
2.189604e+002, 1.679298e+003
2.194425e+002, 1.682857e+003
2.199247e+002, 1.686582e+003
2.204068e+002, 1.690922e+003
2.208889e+002, 1.695619e+003
2.213710e+002, 1.699063e+003
2.218531e+002, 1.699370e+003
2.223352e+002, 1.696325e+003
2.228174e+002, 1.695557e+003
2.232995e+002, 1.699352e+003
2.237816e+002, 1.703720e+003
2.242637e+002, 1.705339e+003
2.247458e+002, 1.704137e+003
2.252279e+002, 1.702748e+003
2.257100e+002, 1.703355e+003
2.261922e+002, 1.705771e+003
2.266743e+002, 1.707897e+003
2.271564e+002, 1.709214e+003
2.276385e+002, 1.710438e+003
2.281206e+002, 1.712521e+003
2.286027e+002, 1.715544e+003
2.290849e+002, 1.718041e+003
2.295670e+002, 1.718314e+003
2.300491e+002, 1.717214e+003
2.305312e+002, 1.717124e+003
2.310133e+002, 1.718684e+003
2.314954e+002, 1.721293e+003
2.319776e+002, 1.724810e+003
2.324597e+002, 1.729490e+003
2.329418e+002, 1.733273e+003
2.334239e+002, 1.733791e+003
2.339060e+002, 1.732729e+003
2.343881e+002, 1.732636e+003
2.348703e+002, 1.734432e+003
2.353524e+002, 1.737223e+003
2.358345e+002, 1.740074e+003
2.363166e+002, 1.743177e+003
2.367987e+002, 1.745567e+003
2.372808e+002, 1.745744e+003
2.377630e+002, 1.745237e+003
2.382451e+002, 1.745831e+003
2.387272e+002, 1.748371e+003
2.392093e+002, 1.751813e+003
2.396914e+002, 1.754646e+003
2.401735e+002, 1.756946e+003
2.406557e+002, 1.758396e+003
2.411378e+002, 1.758053e+003
2.416199e+002, 1.757194e+003
2.421020e+002, 1.756928e+003
2.425841e+002, 1.757591e+003
2.430662e+002, 1.759146e+003
2.435484e+002, 1.761849e+003
2.440305e+002, 1.766411e+003
2.445126e+002, 1.770147e+003
2.449947e+002, 1.771367e+003
2.454768e+002, 1.771992e+003
2.459589e+002, 1.774048e+003
2.464410e+002, 1.778324e+003
2.469232e+002, 1.782975e+003
2.474053e+002, 1.784656e+003
2.478874e+002, 1.782097e+003
2.483695e+002, 1.779468e+003
2.488516e+002, 1.776392e+003
2.493337e+002, 1.774161e+003
2.498159e+002, 1.774005e+003
2.502980e+002, 1.776267e+003
2.507801e+002, 1.780005e+003
2.512622e+002, 1.783957e+003
2.517443e+002, 1.788862e+003
2.522264e+002, 1.792129e+003
2.527086e+002, 1.792381e+003
2.531907e+002, 1.791945e+003
2.536728e+002, 1.792339e+003
2.541549e+002, 1.793989e+003
2.546370e+002, 1.796490e+003
2.551191e+002, 1.799528e+003
2.556013e+002, 1.804280e+003
2.560834e+002, 1.806850e+003
2.565655e+002, 1.804782e+003
2.570476e+002, 1.802651e+003
2.575297e+002, 1.803826e+003
2.580118e+002, 1.808714e+003
2.584940e+002, 1.815035e+003
2.589761e+002, 1.819926e+003
2.594582e+002, 1.823659e+003
2.599403e+002, 1.824960e+003
2.604224e+002, 1.821319e+003
2.609045e+002, 1.817703e+003
2.613867e+002, 1.817739e+003
2.618688e+002, 1.821447e+003
2.623509e+002, 1.825845e+003
2.628330e+002, 1.827344e+003
2.633151e+002, 1.824578e+003
2.637972e+002, 1.823922e+003
2.642794e+002, 1.826938e+003
2.647615e+002, 1.830320e+003
2.652436e+002, 1.832351e+003
2.657257e+002, 1.832940e+003
2.662078e+002, 1.832743e+003
2.666899e+002, 1.832099e+003
2.671721e+002, 1.830489e+003
2.676542e+002, 1.832227e+003
2.681363e+002, 1.840527e+003
2.686184e+002, 1.848545e+003
2.691005e+002, 1.852385e+003
2.695826e+002, 1.852652e+003
2.700648e+002, 1.852615e+003
2.705469e+002, 1.855052e+003
2.710290e+002, 1.860084e+003
2.715111e+002, 1.863459e+003
2.719932e+002, 1.864241e+003
2.724753e+002, 1.864662e+003
2.729575e+002, 1.864825e+003
2.734396e+002, 1.865286e+003
2.739217e+002, 1.867746e+003
2.744038e+002, 1.873969e+003
2.748859e+002, 1.883277e+003
2.753680e+002, 1.886805e+003
2.758501e+002, 1.879205e+003
2.763322e+002, 1.873073e+003
2.768144e+002, 1.874101e+003
2.772965e+002, 1.879828e+003
2.777786e+002, 1.884159e+003
2.782607e+002, 1.883389e+003
2.787428e+002, 1.879285e+003
2.792249e+002, 1.879677e+003
2.797071e+002, 1.888793e+003
2.801892e+002, 1.896482e+003
2.806713e+002, 1.899497e+003
2.811534e+002, 1.899479e+003
2.816355e+002, 1.899169e+003
2.821176e+002, 1.899663e+003
2.825998e+002, 1.900771e+003
2.830819e+002, 1.901996e+003
2.835640e+002, 1.902967e+003
2.840461e+002, 1.904694e+003
2.845282e+002, 1.909106e+003
2.850103e+002, 1.913967e+003
2.854925e+002, 1.915267e+003
2.859746e+002, 1.911353e+003
2.864567e+002, 1.905658e+003
2.869388e+002, 1.904152e+003
2.874209e+002, 1.907849e+003
2.879030e+002, 1.911788e+003
2.883852e+002, 1.915743e+003
2.888673e+002, 1.919327e+003
2.893494e+002, 1.922011e+003
2.898315e+002, 1.923667e+003
2.903136e+002, 1.924535e+003
2.907957e+002, 1.924459e+003
2.912779e+002, 1.923116e+003
2.917600e+002, 1.923558e+003
2.922421e+002, 1.926386e+003
2.927242e+002, 1.930961e+003
2.932063e+002, 1.938151e+003
2.936884e+002, 1.947951e+003
2.941706e+002, 1.955589e+003
2.946527e+002, 1.955362e+003
2.951348e+002, 1.947183e+003
2.956169e+002, 1.943348e+003
2.960990e+002, 1.947430e+003
2.965811e+002, 1.953720e+003
2.970633e+002, 1.958462e+003
2.975454e+002, 1.961396e+003
2.980275e+002, 1.962791e+003
2.985096e+002, 1.962258e+003
2.989917e+002, 1.960238e+003
2.994738e+002, 1.959662e+003
2.999560e+002, 1.961199e+003
3.004381e+002, 1.963528e+003
3.009202e+002, 1.966337e+003
3.014023e+002, 1.969440e+003
3.018844e+002, 1.972007e+003
3.023665e+002, 1.973408e+003
3.028487e+002, 1.974119e+003
3.033308e+002, 1.975601e+003
3.038129e+002, 1.978051e+003
3.042950e+002, 1.980838e+003
3.047771e+002, 1.984536e+003
3.052592e+002, 1.988419e+003
3.057414e+002, 1.990306e+003
3.062235e+002, 1.988907e+003
3.067056e+002, 1.985987e+003
3.071877e+002, 1.984985e+003
3.076698e+002, 1.986093e+003
3.081519e+002, 1.987646e+003
3.086341e+002, 1.988840e+003
3.091162e+002, 1.990192e+003
3.095983e+002, 1.993004e+003
3.100804e+002, 1.997912e+003
3.105625e+002, 2.002971e+003
3.110446e+002, 2.005534e+003
3.115268e+002, 2.005698e+003
3.120089e+002, 2.004671e+003
3.124910e+002, 2.000447e+003
3.129731e+002, 1.996172e+003
3.134552e+002, 1.996461e+003
3.139373e+002, 2.002130e+003
3.144195e+002, 2.008264e+003
3.149016e+002, 2.009561e+003
3.153837e+002, 2.006507e+003
3.158658e+002, 2.006719e+003
3.163479e+002, 2.014216e+003
3.168300e+002, 2.022784e+003
3.173121e+002, 2.027659e+003
3.177943e+002, 2.028728e+003
3.182764e+002, 2.027164e+003
3.187585e+002, 2.022265e+003
3.192406e+002, 2.015548e+003
3.197227e+002, 2.013512e+003
3.202048e+002, 2.019836e+003
3.206870e+002, 2.027014e+003
3.211691e+002, 2.030914e+003
3.216512e+002, 2.032234e+003
3.221333e+002, 2.033578e+003
3.226154e+002, 2.036319e+003
3.230975e+002, 2.039592e+003
3.235797e+002, 2.041120e+003
3.240618e+002, 2.040521e+003
3.245439e+002, 2.039450e+003
3.250260e+002, 2.037224e+003
3.255081e+002, 2.035094e+003
3.259902e+002, 2.035912e+003
3.264724e+002, 2.041001e+003
3.269545e+002, 2.047713e+003
3.274366e+002, 2.051994e+003
3.279187e+002, 2.053694e+003
3.284008e+002, 2.054666e+003
3.288829e+002, 2.053889e+003
3.293651e+002, 2.053160e+003
3.298472e+002, 2.055221e+003
3.303293e+002, 2.060543e+003
3.308114e+002, 2.065998e+003
3.312935e+002, 2.068279e+003
3.317756e+002, 2.067058e+003
3.322578e+002, 2.066641e+003
3.327399e+002, 2.068152e+003
3.332220e+002, 2.069740e+003
3.337041e+002, 2.069391e+003
3.341862e+002, 2.067420e+003
3.346683e+002, 2.066587e+003
3.351505e+002, 2.069166e+003
3.356326e+002, 2.074583e+003
3.361147e+002, 2.078259e+003
3.365968e+002, 2.078169e+003
3.370789e+002, 2.078720e+003
3.375610e+002, 2.083145e+003
3.380432e+002, 2.089694e+003
3.385253e+002, 2.093845e+003
3.390074e+002, 2.093206e+003
3.394895e+002, 2.089641e+003
3.399716e+002, 2.088076e+003
3.404537e+002, 2.088596e+003
3.409359e+002, 2.090540e+003
3.414180e+002, 2.095497e+003
3.419001e+002, 2.101209e+003
3.423822e+002, 2.104509e+003
3.428643e+002, 2.104481e+003
3.433464e+002, 2.102802e+003
3.438286e+002, 2.101426e+003
3.443107e+002, 2.099649e+003
3.447928e+002, 2.101007e+003
3.452749e+002, 2.108975e+003
3.457570e+002, 2.117680e+003
3.462391e+002, 2.122614e+003
3.467213e+002, 2.123470e+003
3.472034e+002, 2.122450e+003
3.476855e+002, 2.121129e+003
3.481676e+002, 2.119444e+003
3.486497e+002, 2.119760e+003
3.491318e+002, 2.124483e+003
3.496140e+002, 2.128462e+003
3.500961e+002, 2.128559e+003
3.505782e+002, 2.126136e+003
3.510603e+002, 2.124366e+003
3.515424e+002, 2.125027e+003
3.520245e+002, 2.127910e+003
3.525067e+002, 2.132243e+003
3.529888e+002, 2.142229e+003
3.534709e+002, 2.148456e+003
3.539530e+002, 2.146809e+003
3.544351e+002, 2.141960e+003
3.549172e+002, 2.139334e+003
3.553994e+002, 2.140814e+003
3.558815e+002, 2.144528e+003
3.563636e+002, 2.147251e+003
3.568457e+002, 2.147505e+003
3.573278e+002, 2.149904e+003
3.578099e+002, 2.157142e+003
3.582920e+002, 2.164303e+003
3.587741e+002, 2.167627e+003
3.592563e+002, 2.167111e+003
3.597384e+002, 2.165327e+003
3.602205e+002, 2.164558e+003
3.607026e+002, 2.164710e+003
3.611847e+002, 2.166913e+003
3.616668e+002, 2.173620e+003
3.621490e+002, 2.179691e+003
3.626311e+002, 2.183748e+003
3.631132e+002, 2.185889e+003
3.635953e+002, 2.186204e+003
3.640774e+002, 2.184577e+003
3.645595e+002, 2.181717e+003
3.650417e+002, 2.180679e+003
3.655238e+002, 2.182698e+003
3.660059e+002, 2.184997e+003
3.664880e+002, 2.186385e+003
3.669701e+002, 2.188283e+003
3.674522e+002, 2.192852e+003
3.679344e+002, 2.200539e+003
3.684165e+002, 2.208771e+003
3.688986e+002, 2.213846e+003
3.693807e+002, 2.215850e+003
3.698628e+002, 2.214155e+003
3.703449e+002, 2.203110e+003
3.708271e+002, 2.193323e+003
3.713092e+002, 2.191499e+003
3.717913e+002, 2.196832e+003
3.722734e+002, 2.203320e+003
3.727555e+002, 2.205494e+003
3.732376e+002, 2.203537e+003
3.737198e+002, 2.203443e+003
3.742019e+002, 2.206177e+003
3.746840e+002, 2.209796e+003
3.751661e+002, 2.214451e+003
3.756482e+002, 2.219342e+003
3.761303e+002, 2.223170e+003
3.766125e+002, 2.225173e+003
3.770946e+002, 2.226127e+003
3.775767e+002, 2.227903e+003
3.780588e+002, 2.231018e+003
3.785409e+002, 2.233448e+003
3.790230e+002, 2.233644e+003
3.795052e+002, 2.233527e+003
3.799873e+002, 2.234726e+003
3.804694e+002, 2.237549e+003
3.809515e+002, 2.240755e+003
3.814336e+002, 2.243092e+003
3.819157e+002, 2.244574e+003
3.823979e+002, 2.246001e+003
3.828800e+002, 2.247228e+003
3.833621e+002, 2.248711e+003
3.838442e+002, 2.250940e+003
3.843263e+002, 2.253689e+003
3.848084e+002, 2.256220e+003
3.852906e+002, 2.257440e+003
3.857727e+002, 2.258260e+003
3.862548e+002, 2.261465e+003
3.867369e+002, 2.268085e+003
3.872190e+002, 2.273306e+003
3.877011e+002, 2.272471e+003
3.881833e+002, 2.269014e+003
3.886654e+002, 2.267899e+003
3.891475e+002, 2.270927e+003
3.896296e+002, 2.274895e+003
3.901117e+002, 2.277398e+003
3.905938e+002, 2.278490e+003
3.910760e+002, 2.278172e+003
3.915581e+002, 2.275410e+003
3.920402e+002, 2.272567e+003
3.925223e+002, 2.273221e+003
3.930044e+002, 2.277584e+003
3.934865e+002, 2.281826e+003
3.939687e+002, 2.284077e+003
3.944508e+002, 2.285407e+003
3.949329e+002, 2.287698e+003
3.954150e+002, 2.291338e+003
3.958971e+002, 2.294767e+003
3.963792e+002, 2.296313e+003
3.968614e+002, 2.296182e+003
3.973435e+002, 2.297106e+003
3.978256e+002, 2.300678e+003
3.983077e+002, 2.304033e+003
3.987898e+002, 2.304623e+003
3.992719e+002, 2.303214e+003
3.997540e+002, 2.302647e+003
4.002361e+002, 2.304335e+003
4.007183e+002, 2.307778e+003
4.012004e+002, 2.311708e+003
4.016825e+002, 2.316841e+003
4.021646e+002, 2.321145e+003
4.026467e+002, 2.323829e+003
4.031288e+002, 2.325711e+003
4.036110e+002, 2.327605e+003
4.040931e+002, 2.329722e+003
4.045752e+002, 2.332056e+003
4.050573e+002, 2.334742e+003
4.055394e+002, 2.338085e+003
4.060215e+002, 2.340041e+003
4.065037e+002, 2.339192e+003
4.069858e+002, 2.338498e+003
4.074679e+002, 2.339927e+003
4.079500e+002, 2.342751e+003
4.084321e+002, 2.344710e+003
4.089142e+002, 2.344233e+003
4.093964e+002, 2.342195e+003
4.098785e+002, 2.342677e+003
4.103606e+002, 2.348724e+003
4.108427e+002, 2.353414e+003
4.113248e+002, 2.355338e+003
4.118069e+002, 2.356122e+003
4.122891e+002, 2.357250e+003
4.127712e+002, 2.359134e+003
4.132533e+002, 2.361309e+003
4.137354e+002, 2.362797e+003
4.142175e+002, 2.362786e+003
4.146996e+002, 2.365399e+003
4.151818e+002, 2.375645e+003
4.156639e+002, 2.383863e+003
4.161460e+002, 2.384977e+003
4.166281e+002, 2.380918e+003
4.171102e+002, 2.376547e+003
4.175923e+002, 2.374516e+003
4.180745e+002, 2.374843e+003
4.185566e+002, 2.378151e+003
4.190387e+002, 2.386394e+003
4.195208e+002, 2.393232e+003
4.200029e+002, 2.396006e+003
4.204850e+002, 2.396956e+003
4.209672e+002, 2.397823e+003
4.214493e+002, 2.399004e+003
4.219314e+002, 2.400456e+003
4.224135e+002, 2.402277e+003
4.228956e+002, 2.404438e+003
4.233777e+002, 2.406389e+003
4.238599e+002, 2.408155e+003
4.243420e+002, 2.409528e+003
4.248241e+002, 2.410056e+003
4.253062e+002, 2.410035e+003
4.257883e+002, 2.410543e+003
4.262704e+002, 2.412599e+003
4.267526e+002, 2.415203e+003
4.272347e+002, 2.416500e+003
4.277168e+002, 2.416375e+003
4.281989e+002, 2.417049e+003
4.286810e+002, 2.419826e+003
4.291631e+002, 2.424177e+003
4.296453e+002, 2.428615e+003
4.301274e+002, 2.433080e+003
4.306095e+002, 2.437752e+003
4.310916e+002, 2.443543e+003
4.315737e+002, 2.449448e+003
4.320558e+002, 2.453138e+003
4.325380e+002, 2.453821e+003
4.330201e+002, 2.453544e+003
4.335022e+002, 2.454667e+003
4.339843e+002, 2.457406e+003
4.344664e+002, 2.459743e+003
4.349485e+002, 2.460453e+003
4.354307e+002, 2.461699e+003
4.359128e+002, 2.465633e+003
4.363949e+002, 2.471499e+003
4.368770e+002, 2.476685e+003
4.373591e+002, 2.479682e+003
4.378412e+002, 2.480848e+003
4.383234e+002, 2.481486e+003
4.388055e+002, 2.480035e+003
4.392876e+002, 2.480101e+003
4.397697e+002, 2.483297e+003
4.402518e+002, 2.487358e+003
4.407339e+002, 2.490449e+003
4.412160e+002, 2.492055e+003
4.416982e+002, 2.492218e+003
4.421803e+002, 2.490443e+003
4.426624e+002, 2.485951e+003
4.431445e+002, 2.485275e+003
4.436266e+002, 2.491703e+003
4.441087e+002, 2.498618e+003
4.445909e+002, 2.505182e+003
4.450730e+002, 2.510623e+003
4.455551e+002, 2.513786e+003
4.460372e+002, 2.513855e+003
4.465193e+002, 2.512266e+003
4.470014e+002, 2.512211e+003
4.474836e+002, 2.514132e+003
4.479657e+002, 2.516276e+003
4.484478e+002, 2.519792e+003
4.489299e+002, 2.522348e+003
4.494120e+002, 2.520993e+003
4.498941e+002, 2.516281e+003
4.503763e+002, 2.513264e+003
4.508584e+002, 2.517212e+003
4.513405e+002, 2.526331e+003
4.518226e+002, 2.532950e+003
4.523047e+002, 2.536569e+003
4.527868e+002, 2.538492e+003
4.532690e+002, 2.537261e+003
4.537511e+002, 2.535329e+003
4.542332e+002, 2.536669e+003
4.547153e+002, 2.543360e+003
4.551974e+002, 2.551015e+003
4.556795e+002, 2.556253e+003
4.561617e+002, 2.559403e+003
4.566438e+002, 2.561932e+003
4.571259e+002, 2.564141e+003
4.576080e+002, 2.566110e+003
4.580901e+002, 2.567949e+003
4.585722e+002, 2.569680e+003
4.590544e+002, 2.571196e+003
4.595365e+002, 2.572052e+003
4.600186e+002, 2.573009e+003
4.605007e+002, 2.575205e+003
4.609828e+002, 2.578354e+003
4.614649e+002, 2.580517e+003
4.619471e+002, 2.580149e+003
4.624292e+002, 2.578270e+003
4.629113e+002, 2.579175e+003
4.633934e+002, 2.585796e+003
4.638755e+002, 2.591165e+003
4.643576e+002, 2.594163e+003
4.648398e+002, 2.595749e+003
4.653219e+002, 2.596451e+003
4.658040e+002, 2.596587e+003
4.662861e+002, 2.596885e+003
4.667682e+002, 2.598078e+003
4.672503e+002, 2.600164e+003
4.677325e+002, 2.603191e+003
4.682146e+002, 2.608741e+003
4.686967e+002, 2.613516e+003
4.691788e+002, 2.616054e+003
4.696609e+002, 2.617390e+003
4.701430e+002, 2.619272e+003
4.706252e+002, 2.622514e+003
4.711073e+002, 2.625928e+003
4.715894e+002, 2.627116e+003
4.720715e+002, 2.625411e+003
4.725536e+002, 2.624429e+003
4.730357e+002, 2.624204e+003
4.735179e+002, 2.625377e+003
4.740000e+002, 2.629844e+003
4.744821e+002, 2.636484e+003
4.749642e+002, 2.641033e+003
4.754463e+002, 2.639350e+003
4.759284e+002, 2.634424e+003
4.764106e+002, 2.633125e+003
4.768927e+002, 2.636037e+003
4.773748e+002, 2.638862e+003
4.778569e+002, 2.639017e+003
4.783390e+002, 2.638238e+003
4.788211e+002, 2.639406e+003
4.793033e+002, 2.643163e+003
4.797854e+002, 2.646869e+003
4.802675e+002, 2.648788e+003
4.807496e+002, 2.649854e+003
4.812317e+002, 2.651718e+003
4.817138e+002, 2.654665e+003
4.821959e+002, 2.658372e+003
4.826780e+002, 2.662967e+003
4.831602e+002, 2.668341e+003
4.836423e+002, 2.671967e+003
4.841244e+002, 2.672497e+003
4.846065e+002, 2.672848e+003
4.850886e+002, 2.674080e+003
4.855707e+002, 2.675970e+003
4.860529e+002, 2.678325e+003
4.865350e+002, 2.681064e+003
4.870171e+002, 2.683469e+003
4.874992e+002, 2.684087e+003
4.879813e+002, 2.681287e+003
4.884634e+002, 2.681303e+003
4.889456e+002, 2.687345e+003
4.894277e+002, 2.692672e+003
4.899098e+002, 2.692609e+003
4.903919e+002, 2.689213e+003
4.908740e+002, 2.687752e+003
4.913561e+002, 2.691666e+003
4.918383e+002, 2.698827e+003
4.923204e+002, 2.703176e+003
4.928025e+002, 2.703437e+003
4.932846e+002, 2.704411e+003
4.937667e+002, 2.708148e+003
4.942488e+002, 2.712166e+003
4.947310e+002, 2.714893e+003
4.952131e+002, 2.716229e+003
4.956952e+002, 2.716921e+003
4.961773e+002, 2.716396e+003
4.966594e+002, 2.715687e+003
4.971415e+002, 2.718502e+003
4.976237e+002, 2.725928e+003
4.981058e+002, 2.732042e+003
4.985879e+002, 2.733293e+003
4.990700e+002, 2.731170e+003
4.995521e+002, 2.728398e+003
5.000342e+002, 2.724198e+003
5.005164e+002, 2.721576e+003
5.009985e+002, 2.721820e+003
5.014806e+002, 2.724677e+003
5.019627e+002, 2.730819e+003
5.024448e+002, 2.740435e+003
5.029269e+002, 2.749381e+003
5.034091e+002, 2.753354e+003
5.038912e+002, 2.752153e+003
5.043733e+002, 2.752683e+003
5.048554e+002, 2.754461e+003
5.053375e+002, 2.758274e+003
5.058196e+002, 2.766566e+003
5.063018e+002, 2.776435e+003
5.067839e+002, 2.783216e+003
5.072660e+002, 2.785316e+003
5.077481e+002, 2.785278e+003
5.082302e+002, 2.787124e+003
5.087123e+002, 2.791833e+003
5.091945e+002, 2.794873e+003
5.096766e+002, 2.792771e+003
5.101587e+002, 2.792463e+003
5.106408e+002, 2.799789e+003
5.111229e+002, 2.810427e+003
5.116050e+002, 2.815406e+003
5.120872e+002, 2.809267e+003
5.125693e+002, 2.798642e+003
5.130514e+002, 2.795824e+003
5.135335e+002, 2.801800e+003
5.140156e+002, 2.807978e+003
5.144977e+002, 2.812636e+003
5.149799e+002, 2.816840e+003
5.154620e+002, 2.821771e+003
5.159441e+002, 2.827215e+003
5.164262e+002, 2.831723e+003
5.169083e+002, 2.835013e+003
5.173904e+002, 2.836860e+003
5.178726e+002, 2.836297e+003
5.183547e+002, 2.833526e+003
5.188368e+002, 2.831257e+003
5.193189e+002, 2.830953e+003
5.198010e+002, 2.831685e+003
5.202831e+002, 2.831227e+003
5.207653e+002, 2.828967e+003
5.212474e+002, 2.827518e+003
5.217295e+002, 2.826048e+003
5.222116e+002, 2.826436e+003
5.226937e+002, 2.832149e+003
5.231758e+002, 2.842020e+003
5.236580e+002, 2.850193e+003
5.241401e+002, 2.852120e+003
5.246222e+002, 2.849244e+003
5.251043e+002, 2.849094e+003
5.255864e+002, 2.853990e+003
5.260685e+002, 2.858434e+003
5.265507e+002, 2.862663e+003
5.270328e+002, 2.865817e+003
5.275149e+002, 2.866607e+003
5.279970e+002, 2.865283e+003
5.284791e+002, 2.863828e+003
5.289612e+002, 2.863802e+003
5.294434e+002, 2.865130e+003
5.299255e+002, 2.867759e+003
5.304076e+002, 2.872873e+003
5.308897e+002, 2.876531e+003
5.313718e+002, 2.875542e+003
5.318539e+002, 2.872944e+003
5.323361e+002, 2.871678e+003
5.328182e+002, 2.872229e+003
5.333003e+002, 2.873813e+003
5.337824e+002, 2.876250e+003
5.342645e+002, 2.879296e+003
5.347466e+002, 2.882661e+003
5.352288e+002, 2.886362e+003
5.357109e+002, 2.889688e+003
5.361930e+002, 2.892160e+003
5.366751e+002, 2.893764e+003
5.371572e+002, 2.894600e+003
5.376393e+002, 2.892582e+003
5.381215e+002, 2.892394e+003
5.386036e+002, 2.897138e+003
5.390857e+002, 2.903621e+003
5.395678e+002, 2.907447e+003
5.400499e+002, 2.907920e+003
5.405320e+002, 2.908204e+003
5.410142e+002, 2.912067e+003
5.414963e+002, 2.919728e+003
5.419784e+002, 2.923025e+003
5.424604e+002, 2.914338e+003
5.429426e+002, 2.910371e+003
5.434247e+002, 2.919070e+003
5.439068e+002, 2.931964e+003
5.443889e+002, 2.939150e+003
5.448710e+002, 2.938096e+003
5.453531e+002, 2.934222e+003
5.458353e+002, 2.932873e+003
5.463174e+002, 2.933908e+003
5.467995e+002, 2.936135e+003
5.472816e+002, 2.940519e+003
5.477637e+002, 2.943893e+003
5.482458e+002, 2.941779e+003
5.487280e+002, 2.937874e+003
5.492101e+002, 2.938802e+003
5.496922e+002, 2.947884e+003
5.501743e+002, 2.957148e+003
5.506564e+002, 2.961504e+003
5.511385e+002, 2.962495e+003
5.516207e+002, 2.963078e+003
5.521028e+002, 2.963858e+003
5.525849e+002, 2.964804e+003
5.530670e+002, 2.965813e+003
5.535491e+002, 2.966901e+003
5.540313e+002, 2.968802e+003
5.545134e+002, 2.972681e+003
5.549955e+002, 2.975890e+003
5.554776e+002, 2.977259e+003
5.559597e+002, 2.977787e+003
5.564418e+002, 2.978183e+003
5.569240e+002, 2.978861e+003
5.574061e+002, 2.980878e+003
5.578882e+002, 2.986099e+003
5.583703e+002, 2.994697e+003
5.588524e+002, 3.000319e+003
5.593345e+002, 2.999820e+003
5.598167e+002, 3.000752e+003
5.602988e+002, 3.007746e+003
5.607809e+002, 3.016445e+003
5.612630e+002, 3.021065e+003
5.617451e+002, 3.019823e+003
5.622272e+002, 3.017835e+003
5.627094e+002, 3.019769e+003
5.631915e+002, 3.024560e+003
5.636736e+002, 3.029160e+003
5.641557e+002, 3.033579e+003
5.646378e+002, 3.035798e+003
5.651199e+002, 3.032665e+003
5.656021e+002, 3.026164e+003
5.660842e+002, 3.025012e+003
5.665663e+002, 3.035068e+003
5.670484e+002, 3.042142e+003
5.675305e+002, 3.038115e+003
5.680126e+002, 3.030036e+003
5.684948e+002, 3.027113e+003
5.689769e+002, 3.030692e+003
5.694590e+002, 3.035884e+003
5.699411e+002, 3.038245e+003
5.704232e+002, 3.037914e+003
5.709053e+002, 3.037181e+003
5.713875e+002, 3.034768e+003
5.718696e+002, 3.033741e+003
5.723517e+002, 3.034051e+003
5.728338e+002, 3.036194e+003
5.733159e+002, 3.041036e+003
5.737980e+002, 3.048501e+003
5.742802e+002, 3.056991e+003
5.747623e+002, 3.066219e+003
5.752444e+002, 3.075461e+003
5.757265e+002, 3.081238e+003
5.762086e+002, 3.082804e+003
5.766907e+002, 3.084021e+003
5.771729e+002, 3.086902e+003
5.776550e+002, 3.090332e+003
5.781371e+002, 3.092336e+003
5.786192e+002, 3.092464e+003
5.791013e+002, 3.093057e+003
5.795834e+002, 3.095358e+003
5.800656e+002, 3.098366e+003
5.805477e+002, 3.101377e+003
5.810298e+002, 3.104111e+003
5.815119e+002, 3.105482e+003
5.819940e+002, 3.104446e+003
5.824761e+002, 3.102215e+003
5.829583e+002, 3.103017e+003
5.834404e+002, 3.110213e+003
5.839225e+002, 3.115347e+003
5.844046e+002, 3.116495e+003
5.848867e+002, 3.117144e+003
5.853688e+002, 3.119708e+003
5.858510e+002, 3.123886e+003
5.863331e+002, 3.127971e+003
5.868152e+002, 3.130882e+003
5.872973e+002, 3.133040e+003
5.877794e+002, 3.135240e+003
5.882615e+002, 3.137412e+003
5.887437e+002, 3.140215e+003
5.892258e+002, 3.144823e+003
5.897079e+002, 3.148977e+003
5.901900e+002, 3.149863e+003
5.906721e+002, 3.148104e+003
5.911542e+002, 3.147747e+003
5.916364e+002, 3.150948e+003
5.921185e+002, 3.155271e+003
5.926006e+002, 3.159204e+003
5.930827e+002, 3.162580e+003
5.935648e+002, 3.164891e+003
5.940469e+002, 3.165912e+003
5.945291e+002, 3.166195e+003
5.950112e+002, 3.166165e+003
5.954933e+002, 3.165031e+003
5.959754e+002, 3.167508e+003
5.964575e+002, 3.177292e+003
5.969396e+002, 3.186072e+003
5.974218e+002, 3.191594e+003
5.979039e+002, 3.194080e+003
5.983860e+002, 3.192990e+003
5.988681e+002, 3.188346e+003
5.993502e+002, 3.184122e+003
5.998323e+002, 3.186421e+003
6.003145e+002, 3.194892e+003
6.007966e+002, 3.199228e+003
6.012787e+002, 3.196745e+003
6.017608e+002, 3.194826e+003
6.022429e+002, 3.198314e+003
6.027250e+002, 3.204852e+003
6.032072e+002, 3.211150e+003
6.036893e+002, 3.216951e+003
6.041714e+002, 3.222130e+003
6.046535e+002, 3.226826e+003
6.051356e+002, 3.230792e+003
6.056177e+002, 3.233720e+003
6.060999e+002, 3.235549e+003
6.065820e+002, 3.235877e+003
6.070641e+002, 3.233938e+003
6.075462e+002, 3.230771e+003
6.080283e+002, 3.231091e+003
6.085104e+002, 3.236607e+003
6.089926e+002, 3.243473e+003
6.094747e+002, 3.256237e+003
6.099568e+002, 3.266482e+003
6.104389e+002, 3.265534e+003
6.109210e+002, 3.256142e+003
6.114031e+002, 3.249086e+003
6.118853e+002, 3.251876e+003
6.123674e+002, 3.260000e+003
6.128495e+002, 3.263524e+003
6.133316e+002, 3.261925e+003
6.138137e+002, 3.262343e+003
6.142958e+002, 3.267354e+003
6.147780e+002, 3.273869e+003
6.152601e+002, 3.279063e+003
6.157422e+002, 3.283109e+003
6.162243e+002, 3.286773e+003
6.167064e+002, 3.290395e+003
6.171885e+002, 3.293484e+003
6.176707e+002, 3.296226e+003
6.181528e+002, 3.298094e+003
6.186349e+002, 3.296903e+003
6.191170e+002, 3.292207e+003
6.195991e+002, 3.288577e+003
6.200812e+002, 3.291925e+003
6.205634e+002, 3.302910e+003
6.210455e+002, 3.310983e+003
6.215276e+002, 3.315282e+003
6.220097e+002, 3.317487e+003
6.224918e+002, 3.315219e+003
6.229739e+002, 3.312591e+003
6.234561e+002, 3.314775e+003
6.239382e+002, 3.322349e+003
6.244203e+002, 3.329684e+003
6.249023e+002, 3.331018e+003
6.253845e+002, 3.328783e+003
6.258666e+002, 3.329654e+003
6.263487e+002, 3.333975e+003
6.268308e+002, 3.339173e+003
6.273129e+002, 3.344795e+003
6.277950e+002, 3.349964e+003
6.282772e+002, 3.352580e+003
6.287593e+002, 3.352015e+003
6.292414e+002, 3.352401e+003
6.297235e+002, 3.354297e+003
6.302056e+002, 3.357360e+003
6.306877e+002, 3.362639e+003
6.311699e+002, 3.368792e+003
6.316520e+002, 3.372390e+003
6.321341e+002, 3.371836e+003
6.326162e+002, 3.370148e+003
6.330983e+002, 3.373004e+003
6.335804e+002, 3.381797e+003
6.340626e+002, 3.388068e+003
6.345447e+002, 3.390572e+003
6.350268e+002, 3.391915e+003
6.355089e+002, 3.392377e+003
6.359910e+002, 3.392820e+003
6.364731e+002, 3.394569e+003
6.369553e+002, 3.398008e+003
6.374374e+002, 3.402412e+003
6.379195e+002, 3.408829e+003
6.384016e+002, 3.415346e+003
6.388837e+002, 3.417504e+003
6.393658e+002, 3.414960e+003
6.398480e+002, 3.412433e+003
6.403301e+002, 3.412732e+003
6.408122e+002, 3.415570e+003
6.412943e+002, 3.420146e+003
6.417764e+002, 3.431107e+003
6.422585e+002, 3.436653e+003
6.427407e+002, 3.431354e+003
6.432228e+002, 3.425463e+003
6.437049e+002, 3.425929e+003
6.441870e+002, 3.431312e+003
6.446691e+002, 3.436346e+003
6.451512e+002, 3.438130e+003
6.456334e+002, 3.438948e+003
6.461155e+002, 3.442645e+003
6.465976e+002, 3.449209e+003
6.470797e+002, 3.456194e+003
6.475618e+002, 3.464337e+003
6.480439e+002, 3.470488e+003
6.485261e+002, 3.470417e+003
6.490082e+002, 3.466372e+003
6.494903e+002, 3.465458e+003
6.499724e+002, 3.470456e+003
6.504545e+002, 3.475169e+003
6.509366e+002, 3.476474e+003
6.514188e+002, 3.476555e+003
6.519009e+002, 3.478387e+003
6.523830e+002, 3.481980e+003
6.528651e+002, 3.484603e+003
6.533472e+002, 3.483840e+003
6.538293e+002, 3.481349e+003
6.543115e+002, 3.483996e+003
6.547936e+002, 3.495074e+003
6.552757e+002, 3.503208e+003
6.557578e+002, 3.505194e+003
6.562399e+002, 3.505145e+003
6.567220e+002, 3.503514e+003
6.572042e+002, 3.501541e+003
6.576863e+002, 3.502598e+003
6.581684e+002, 3.509343e+003
6.586505e+002, 3.517343e+003
6.591326e+002, 3.523031e+003
6.596147e+002, 3.526613e+003
6.600969e+002, 3.528091e+003
6.605790e+002, 3.527385e+003
6.610611e+002, 3.527153e+003
6.615432e+002, 3.530082e+003
6.620253e+002, 3.535721e+003
6.625074e+002, 3.539030e+003
6.629896e+002, 3.538134e+003
6.634717e+002, 3.537383e+003
6.639538e+002, 3.536525e+003
6.644359e+002, 3.536447e+003
6.649180e+002, 3.537725e+003
6.654001e+002, 3.540437e+003
6.658823e+002, 3.544525e+003
6.663644e+002, 3.550177e+003
6.668465e+002, 3.556869e+003
6.673286e+002, 3.564840e+003
6.678107e+002, 3.573951e+003
6.682928e+002, 3.578317e+003
6.687750e+002, 3.574478e+003
6.692571e+002, 3.570827e+003
6.697392e+002, 3.577311e+003
6.702213e+002, 3.592322e+003
6.707034e+002, 3.599420e+003
6.711855e+002, 3.590534e+003
6.716677e+002, 3.583296e+003
6.721498e+002, 3.584135e+003
6.726319e+002, 3.588890e+003
6.731140e+002, 3.593655e+003
6.735961e+002, 3.597556e+003
6.740782e+002, 3.601067e+003
6.745604e+002, 3.604707e+003
6.750425e+002, 3.607996e+003
6.755246e+002, 3.609115e+003
6.760067e+002, 3.607507e+003
6.764888e+002, 3.606066e+003
6.769709e+002, 3.603624e+003
6.774531e+002, 3.603609e+003
6.779352e+002, 3.610755e+003
6.784173e+002, 3.622749e+003
6.788994e+002, 3.631114e+003
6.793815e+002, 3.632231e+003
6.798636e+002, 3.631501e+003
6.803458e+002, 3.630931e+003
6.808279e+002, 3.631023e+003
6.813100e+002, 3.633171e+003
6.817921e+002, 3.637284e+003
6.822742e+002, 3.640861e+003
6.827563e+002, 3.641585e+003
6.832385e+002, 3.640391e+003
6.837206e+002, 3.642261e+003
6.842027e+002, 3.649541e+003
6.846848e+002, 3.654677e+003
6.851669e+002, 3.652793e+003
6.856490e+002, 3.651855e+003
6.861312e+002, 3.659269e+003
6.866133e+002, 3.671614e+003
6.870954e+002, 3.678015e+003
6.875775e+002, 3.671409e+003
6.880596e+002, 3.662884e+003
6.885417e+002, 3.661575e+003
6.890239e+002, 3.665971e+003
6.895060e+002, 3.674245e+003
6.899881e+002, 3.685903e+003
6.904702e+002, 3.695262e+003
6.909523e+002, 3.697491e+003
6.914344e+002, 3.694098e+003
6.919166e+002, 3.692618e+003
6.923987e+002, 3.693161e+003
6.928808e+002, 3.695622e+003
6.933629e+002, 3.702878e+003
6.938450e+002, 3.709275e+003
6.943271e+002, 3.709371e+003
6.948093e+002, 3.705867e+003
6.952914e+002, 3.706601e+003
6.957735e+002, 3.716425e+003
6.962556e+002, 3.727112e+003
6.967377e+002, 3.728109e+003
6.972198e+002, 3.722204e+003
6.977020e+002, 3.719350e+003
6.981841e+002, 3.721130e+003
6.986662e+002, 3.724593e+003
6.991483e+002, 3.728007e+003
6.996304e+002, 3.731314e+003
7.001125e+002, 3.734235e+003
7.005947e+002, 3.736800e+003
7.010768e+002, 3.738939e+003
7.015589e+002, 3.740014e+003
7.020410e+002, 3.741309e+003
7.025231e+002, 3.744125e+003
7.030052e+002, 3.747736e+003
7.034874e+002, 3.750311e+003
7.039695e+002, 3.750938e+003
7.044516e+002, 3.751490e+003
7.049337e+002, 3.754265e+003
7.054158e+002, 3.758963e+003
7.058979e+002, 3.764257e+003
7.063801e+002, 3.770069e+003
7.068622e+002, 3.776266e+003
7.073442e+002, 3.783749e+003
7.078264e+002, 3.790826e+003
7.083085e+002, 3.792458e+003
7.087906e+002, 3.784534e+003
7.092727e+002, 3.781836e+003
7.097548e+002, 3.790284e+003
7.102369e+002, 3.799332e+003
7.107191e+002, 3.802693e+003
7.112012e+002, 3.802162e+003
7.116833e+002, 3.801178e+003
7.121654e+002, 3.801062e+003
7.126475e+002, 3.802365e+003
7.131296e+002, 3.805957e+003
7.136118e+002, 3.811598e+003
7.140939e+002, 3.818499e+003
7.145760e+002, 3.827016e+003
7.150581e+002, 3.834107e+003
7.155402e+002, 3.837260e+003
7.160223e+002, 3.839349e+003
7.165045e+002, 3.846393e+003
7.169866e+002, 3.860020e+003
7.174687e+002, 3.868417e+003
7.179508e+002, 3.866843e+003
7.184329e+002, 3.863804e+003
7.189150e+002, 3.861703e+003
7.193972e+002, 3.861545e+003
7.198793e+002, 3.864924e+003
7.203614e+002, 3.871925e+003
7.208435e+002, 3.880193e+003
7.213256e+002, 3.888923e+003
7.218077e+002, 3.896723e+003
7.222899e+002, 3.896065e+003
7.227720e+002, 3.885362e+003
7.232541e+002, 3.879559e+003
7.237362e+002, 3.885022e+003
7.242183e+002, 3.894837e+003
7.247004e+002, 3.901513e+003
7.251826e+002, 3.905147e+003
7.256647e+002, 3.907908e+003
7.261468e+002, 3.909506e+003
7.266289e+002, 3.910797e+003
7.271110e+002, 3.911159e+003
7.275931e+002, 3.911960e+003
7.280753e+002, 3.915186e+003
7.285574e+002, 3.920678e+003
7.290395e+002, 3.926244e+003
7.295216e+002, 3.930251e+003
7.300037e+002, 3.933354e+003
7.304858e+002, 3.937350e+003
7.309680e+002, 3.942301e+003
7.314501e+002, 3.945723e+003
7.319322e+002, 3.946354e+003
7.324143e+002, 3.947101e+003
7.328964e+002, 3.949799e+003
7.333785e+002, 3.954626e+003
7.338607e+002, 3.962069e+003
7.343428e+002, 3.977101e+003
7.348249e+002, 3.986954e+003
7.353070e+002, 3.983743e+003
7.357891e+002, 3.978638e+003
7.362712e+002, 3.982421e+003
7.367534e+002, 3.992547e+003
7.372355e+002, 3.999184e+003
7.377176e+002, 3.997264e+003
7.381997e+002, 3.992161e+003
7.386818e+002, 3.991365e+003
7.391639e+002, 3.994605e+003
7.396461e+002, 3.999798e+003
7.401282e+002, 4.007267e+003
7.406103e+002, 4.014501e+003
7.410924e+002, 4.020448e+003
7.415745e+002, 4.025012e+003
7.420566e+002, 4.027511e+003
7.425388e+002, 4.026895e+003
7.430209e+002, 4.028053e+003
7.435030e+002, 4.033878e+003
7.439851e+002, 4.038985e+003
7.444672e+002, 4.039354e+003
7.449493e+002, 4.037587e+003
7.454315e+002, 4.037311e+003
7.459136e+002, 4.039730e+003
7.463957e+002, 4.044883e+003
7.468778e+002, 4.055346e+003
7.473599e+002, 4.068124e+003
7.478420e+002, 4.072629e+003
7.483242e+002, 4.068636e+003
7.488063e+002, 4.065597e+003
7.492884e+002, 4.066475e+003
7.497705e+002, 4.069954e+003
7.502526e+002, 4.075078e+003
7.507347e+002, 4.081972e+003
7.512169e+002, 4.087448e+003
7.516990e+002, 4.091880e+003
7.521811e+002, 4.094523e+003
7.526632e+002, 4.092274e+003
7.531453e+002, 4.090317e+003
7.536274e+002, 4.095085e+003
7.541096e+002, 4.105107e+003
7.545917e+002, 4.112280e+003
7.550738e+002, 4.110810e+003
7.555559e+002, 4.106999e+003
7.560380e+002, 4.110208e+003
7.565201e+002, 4.118906e+003
7.570023e+002, 4.126592e+003
7.574844e+002, 4.132263e+003
7.579665e+002, 4.136393e+003
7.584486e+002, 4.139040e+003
7.589307e+002, 4.140658e+003
7.594128e+002, 4.142809e+003
7.598950e+002, 4.146126e+003
7.603771e+002, 4.148803e+003
7.608592e+002, 4.150231e+003
7.613413e+002, 4.151661e+003
7.618234e+002, 4.153382e+003
7.623055e+002, 4.155580e+003
7.627877e+002, 4.158809e+003
7.632698e+002, 4.163278e+003
7.637519e+002, 4.167200e+003
7.642340e+002, 4.168294e+003
7.647161e+002, 4.168511e+003
7.651982e+002, 4.170980e+003
7.656804e+002, 4.175582e+003
7.661625e+002, 4.181284e+003
7.666446e+002, 4.187862e+003
7.671267e+002, 4.193303e+003
7.676088e+002, 4.194259e+003
7.680909e+002, 4.190374e+003
7.685731e+002, 4.191692e+003
7.690552e+002, 4.202506e+003
7.695373e+002, 4.211513e+003
7.700194e+002, 4.214264e+003
7.705015e+002, 4.215924e+003
7.709836e+002, 4.220731e+003
7.714658e+002, 4.228236e+003
7.719479e+002, 4.235058e+003
7.724300e+002, 4.240991e+003
7.729121e+002, 4.244599e+003
7.733942e+002, 4.242948e+003
7.738763e+002, 4.239165e+003
7.743585e+002, 4.237817e+003
7.748406e+002, 4.239582e+003
7.753227e+002, 4.243810e+003
7.758048e+002, 4.250472e+003
7.762869e+002, 4.257583e+003
7.767690e+002, 4.259471e+003
7.772512e+002, 4.254810e+003
7.777333e+002, 4.254233e+003
7.782154e+002, 4.260169e+003
7.786975e+002, 4.267049e+003
7.791796e+002, 4.272026e+003
7.796617e+002, 4.276001e+003
7.801439e+002, 4.280860e+003
7.806260e+002, 4.287393e+003
7.811081e+002, 4.291215e+003
7.815902e+002, 4.286150e+003
7.820723e+002, 4.283099e+003
7.825544e+002, 4.291159e+003
7.830366e+002, 4.305307e+003
7.835187e+002, 4.318106e+003
7.840008e+002, 4.326970e+003
7.844829e+002, 4.330759e+003
7.849650e+002, 4.325766e+003
7.854471e+002, 4.316537e+003
7.859293e+002, 4.318739e+003
7.864114e+002, 4.332577e+003
7.868935e+002, 4.342618e+003
7.873756e+002, 4.344562e+003
7.878577e+002, 4.343043e+003
7.883398e+002, 4.341147e+003
7.888220e+002, 4.339298e+003
7.893040e+002, 4.341074e+003
7.897861e+002, 4.351878e+003
7.902682e+002, 4.358438e+003
7.907504e+002, 4.355245e+003
7.912325e+002, 4.351759e+003
7.917146e+002, 4.354333e+003
7.921967e+002, 4.361401e+003
7.926788e+002, 4.368792e+003
7.931609e+002, 4.375032e+003
7.936431e+002, 4.381040e+003
7.941252e+002, 4.388557e+003
7.946073e+002, 4.395994e+003
7.950894e+002, 4.399566e+003
7.955715e+002, 4.399685e+003
7.960536e+002, 4.400755e+003
7.965358e+002, 4.404766e+003
7.970179e+002, 4.408550e+003
7.975000e+002, 4.407263e+003
7.979821e+002, 4.400547e+003
7.984642e+002, 4.396902e+003
7.989464e+002, 4.396418e+003
7.994285e+002, 4.398793e+003
7.999106e+002, 4.405772e+003
8.003927e+002, 4.414213e+003
8.008748e+002, 4.422726e+003
8.013569e+002, 4.430868e+003
8.018391e+002, 4.436798e+003
8.023212e+002, 4.438055e+003
8.028033e+002, 4.439965e+003
8.032854e+002, 4.445591e+003
8.037675e+002, 4.453204e+003
8.042496e+002, 4.461934e+003
8.047318e+002, 4.470748e+003
8.052139e+002, 4.477297e+003
8.056960e+002, 4.480201e+003
8.061781e+002, 4.481034e+003
8.066602e+002, 4.482053e+003
8.071423e+002, 4.483243e+003
8.076245e+002, 4.484220e+003
8.081066e+002, 4.484880e+003
8.085887e+002, 4.485698e+003
8.090708e+002, 4.486546e+003
8.095529e+002, 4.488085e+003
8.100350e+002, 4.491334e+003
8.105172e+002, 4.496461e+003
8.109993e+002, 4.502437e+003
8.114814e+002, 4.510905e+003
8.119635e+002, 4.518098e+003
8.124456e+002, 4.522070e+003
8.129277e+002, 4.524959e+003
8.134099e+002, 4.528165e+003
8.138920e+002, 4.532158e+003
8.143741e+002, 4.537873e+003
8.148562e+002, 4.547112e+003
8.153383e+002, 4.555381e+003
8.158204e+002, 4.556384e+003
8.163026e+002, 4.553194e+003
8.167847e+002, 4.552592e+003
8.172668e+002, 4.555239e+003
8.177489e+002, 4.558577e+003
8.182310e+002, 4.561108e+003
8.187131e+002, 4.563627e+003
8.191953e+002, 4.568040e+003
8.196774e+002, 4.574972e+003
8.201595e+002, 4.579333e+003
8.206416e+002, 4.578515e+003
8.211237e+002, 4.580121e+003
8.216058e+002, 4.589852e+003
8.220880e+002, 4.601354e+003
8.225701e+002, 4.606862e+003
8.230522e+002, 4.606554e+003
8.235343e+002, 4.608009e+003
8.240164e+002, 4.616130e+003
8.244985e+002, 4.622197e+003
8.249807e+002, 4.618217e+003
8.254628e+002, 4.612965e+003
8.259449e+002, 4.617716e+003
8.264270e+002, 4.631329e+003
8.269091e+002, 4.644241e+003
8.273912e+002, 4.651095e+003
8.278734e+002, 4.655214e+003
8.283555e+002, 4.662405e+003
8.288376e+002, 4.671067e+003
8.293197e+002, 4.672601e+003
8.298018e+002, 4.666202e+003
8.302839e+002, 4.663863e+003
8.307661e+002, 4.672718e+003
8.312482e+002, 4.685181e+003
8.317303e+002, 4.688243e+003
8.322124e+002, 4.680005e+003
8.326945e+002, 4.676067e+003
8.331766e+002, 4.678036e+003
8.336588e+002, 4.682138e+003
8.341409e+002, 4.689384e+003
8.346230e+002, 4.696773e+003
8.351051e+002, 4.702020e+003
8.355872e+002, 4.705179e+003
8.360693e+002, 4.707389e+003
8.365515e+002, 4.708221e+003
8.370336e+002, 4.709403e+003
8.375157e+002, 4.712483e+003
8.379978e+002, 4.716039e+003
8.384799e+002, 4.718617e+003
8.389620e+002, 4.720108e+003
8.394442e+002, 4.720154e+003
8.399263e+002, 4.718564e+003
8.404084e+002, 4.718255e+003
8.408905e+002, 4.724634e+003
8.413726e+002, 4.736199e+003
8.418547e+002, 4.743512e+003
8.423369e+002, 4.746071e+003
8.428190e+002, 4.750188e+003
8.433011e+002, 4.758774e+003
8.437832e+002, 4.767665e+003
8.442653e+002, 4.771372e+003
8.447474e+002, 4.770092e+003
8.452296e+002, 4.772711e+003
8.457117e+002, 4.784806e+003
8.461938e+002, 4.792495e+003
8.466759e+002, 4.788485e+003
8.471580e+002, 4.785583e+003
8.476401e+002, 4.793775e+003
8.481223e+002, 4.808926e+003
8.486044e+002, 4.821601e+003
8.490865e+002, 4.829927e+003
8.495686e+002, 4.833347e+003
8.500507e+002, 4.828073e+003
8.505328e+002, 4.820571e+003
8.510150e+002, 4.816575e+003
8.514971e+002, 4.815972e+003
8.519792e+002, 4.817798e+003
8.524613e+002, 4.821558e+003
8.529434e+002, 4.826148e+003
8.534255e+002, 4.830174e+003
8.539077e+002, 4.834422e+003
8.543898e+002, 4.842585e+003
8.548719e+002, 4.854670e+003
8.553540e+002, 4.861601e+003
8.558361e+002, 4.860218e+003
8.563182e+002, 4.859359e+003
8.568004e+002, 4.866263e+003
8.572825e+002, 4.878157e+003
8.577646e+002, 4.886241e+003
8.582467e+002, 4.889301e+003
8.587288e+002, 4.891003e+003
8.592109e+002, 4.888554e+003
8.596931e+002, 4.888014e+003
8.601752e+002, 4.895044e+003
8.606573e+002, 4.903157e+003
8.611394e+002, 4.902087e+003
8.616215e+002, 4.891570e+003
8.621036e+002, 4.887004e+003
8.625858e+002, 4.901561e+003
8.630679e+002, 4.916604e+003
8.635500e+002, 4.917125e+003
8.640321e+002, 4.911451e+003
8.645142e+002, 4.911514e+003
8.649963e+002, 4.917907e+003
8.654785e+002, 4.924312e+003
8.659606e+002, 4.927038e+003
8.664427e+002, 4.928121e+003
8.669248e+002, 4.930099e+003
8.674069e+002, 4.933053e+003
8.678890e+002, 4.938211e+003
8.683712e+002, 4.945720e+003
8.688533e+002, 4.951757e+003
8.693354e+002, 4.954647e+003
8.698175e+002, 4.955648e+003
8.702996e+002, 4.956063e+003
8.707817e+002, 4.955861e+003
8.712639e+002, 4.957488e+003
8.717459e+002, 4.960147e+003
8.722280e+002, 4.966038e+003
8.727101e+002, 4.980791e+003
8.731923e+002, 4.993942e+003
8.736744e+002, 4.996644e+003
8.741565e+002, 4.993199e+003
8.746386e+002, 4.994937e+003
8.751207e+002, 5.005888e+003
8.756028e+002, 5.015157e+003
8.760850e+002, 5.018177e+003
8.765671e+002, 5.018879e+003
8.770492e+002, 5.018998e+003
8.775313e+002, 5.019298e+003
8.780134e+002, 5.020850e+003
8.784955e+002, 5.023745e+003
8.789777e+002, 5.026753e+003
8.794598e+002, 5.028851e+003
8.799419e+002, 5.030589e+003
8.804240e+002, 5.030571e+003
8.809061e+002, 5.030884e+003
8.813882e+002, 5.042518e+003
8.818704e+002, 5.066232e+003
8.823525e+002, 5.083877e+003
8.828346e+002, 5.083010e+003
8.833167e+002, 5.073041e+003
8.837988e+002, 5.074847e+003
8.842809e+002, 5.091169e+003
8.847631e+002, 5.097270e+003
8.852452e+002, 5.086789e+003
8.857273e+002, 5.082314e+003
8.862094e+002, 5.097438e+003
8.866915e+002, 5.115935e+003
8.871736e+002, 5.117435e+003
8.876558e+002, 5.103342e+003
8.881379e+002, 5.096244e+003
8.886200e+002, 5.101833e+003
8.891021e+002, 5.107252e+003
8.895842e+002, 5.108161e+003
8.900663e+002, 5.110231e+003
8.905485e+002, 5.118700e+003
8.910306e+002, 5.130950e+003
8.915127e+002, 5.141693e+003
8.919948e+002, 5.149579e+003
8.924769e+002, 5.155539e+003
8.929590e+002, 5.161267e+003
8.934412e+002, 5.164496e+003
8.939233e+002, 5.158933e+003
8.944054e+002, 5.150048e+003
8.948875e+002, 5.150723e+003
8.953696e+002, 5.162429e+003
8.958517e+002, 5.174833e+003
8.963339e+002, 5.180052e+003
8.968160e+002, 5.181843e+003
8.972981e+002, 5.188789e+003
8.977802e+002, 5.199978e+003
8.982623e+002, 5.205213e+003
8.987444e+002, 5.202890e+003
8.992266e+002, 5.203623e+003
8.997087e+002, 5.213649e+003
9.001908e+002, 5.225647e+003
9.006729e+002, 5.228170e+003
9.011550e+002, 5.220614e+003
9.016371e+002, 5.216735e+003
9.021193e+002, 5.216979e+003
9.026014e+002, 5.220056e+003
9.030835e+002, 5.227527e+003
9.035656e+002, 5.236052e+003
9.040477e+002, 5.243743e+003
9.045298e+002, 5.250688e+003
9.050120e+002, 5.257462e+003
9.054941e+002, 5.265620e+003
9.059762e+002, 5.269335e+003
9.064583e+002, 5.262184e+003
9.069404e+002, 5.255563e+003
9.074225e+002, 5.256213e+003
9.079047e+002, 5.261741e+003
9.083868e+002, 5.270056e+003
9.088689e+002, 5.279697e+003
9.093510e+002, 5.286408e+003
9.098331e+002, 5.285986e+003
9.103152e+002, 5.284235e+003
9.107974e+002, 5.285540e+003
9.112795e+002, 5.290368e+003
9.117616e+002, 5.302560e+003
9.122437e+002, 5.319842e+003
9.127258e+002, 5.331294e+003
9.132079e+002, 5.331707e+003
9.136901e+002, 5.327803e+003
9.141722e+002, 5.328484e+003
9.146543e+002, 5.332813e+003
9.151364e+002, 5.335098e+003
9.156185e+002, 5.335197e+003
9.161006e+002, 5.336843e+003
9.165828e+002, 5.341051e+003
9.170649e+002, 5.346928e+003
9.175470e+002, 5.354491e+003
9.180291e+002, 5.362558e+003
9.185112e+002, 5.366271e+003
9.189933e+002, 5.361734e+003
9.194755e+002, 5.363284e+003
9.199576e+002, 5.376820e+003
9.204397e+002, 5.388101e+003
9.209218e+002, 5.390842e+003
9.214039e+002, 5.389022e+003
9.218860e+002, 5.384253e+003
9.223682e+002, 5.377126e+003
9.228503e+002, 5.377663e+003
9.233324e+002, 5.395474e+003
9.238145e+002, 5.409970e+003
9.242966e+002, 5.413206e+003
9.247787e+002, 5.412916e+003
9.252609e+002, 5.412639e+003
9.257430e+002, 5.414323e+003
9.262251e+002, 5.421773e+003
9.267072e+002, 5.436287e+003
9.271893e+002, 5.449117e+003
9.276714e+002, 5.451854e+003
9.281536e+002, 5.452356e+003
9.286357e+002, 5.461040e+003
9.291178e+002, 5.472661e+003
9.295999e+002, 5.475139e+003
9.300820e+002, 5.468221e+003
9.305641e+002, 5.462847e+003
9.310463e+002, 5.466094e+003
9.315284e+002, 5.473788e+003
9.320105e+002, 5.480588e+003
9.324926e+002, 5.486229e+003
9.329747e+002, 5.488456e+003
9.334568e+002, 5.487505e+003
9.339390e+002, 5.489108e+003
9.344211e+002, 5.495514e+003
9.349032e+002, 5.503956e+003
9.353853e+002, 5.511672e+003
9.358674e+002, 5.518632e+003
9.363495e+002, 5.524446e+003
9.368317e+002, 5.528901e+003
9.373138e+002, 5.533138e+003
9.377959e+002, 5.536960e+003
9.382780e+002, 5.541305e+003
9.387601e+002, 5.546792e+003
9.392422e+002, 5.553045e+003
9.397244e+002, 5.559491e+003
9.402065e+002, 5.566125e+003
9.406886e+002, 5.572645e+003
9.411707e+002, 5.580319e+003
9.416528e+002, 5.586064e+003
9.421349e+002, 5.586745e+003
9.426171e+002, 5.587544e+003
9.430992e+002, 5.593484e+003
9.435813e+002, 5.602458e+003
9.440634e+002, 5.608801e+003
9.445455e+002, 5.611396e+003
9.450276e+002, 5.611567e+003
9.455098e+002, 5.607364e+003
9.459919e+002, 5.603548e+003
9.464740e+002, 5.602950e+003
9.469561e+002, 5.604952e+003
9.474382e+002, 5.609218e+003
9.479203e+002, 5.615137e+003
9.484025e+002, 5.620691e+003
9.488846e+002, 5.624185e+003
9.493667e+002, 5.628601e+003
9.498488e+002, 5.638441e+003
9.503309e+002, 5.650101e+003
9.508130e+002, 5.658347e+003
9.512952e+002, 5.663186e+003
9.517773e+002, 5.666032e+003
9.522594e+002, 5.667491e+003
9.527415e+002, 5.668204e+003
9.532236e+002, 5.667988e+003
9.537057e+002, 5.668457e+003
9.541878e+002, 5.675066e+003
9.546699e+002, 5.686559e+003
9.551520e+002, 5.694594e+003
9.556342e+002, 5.698042e+003
9.561163e+002, 5.698746e+003
9.565984e+002, 5.697156e+003
9.570805e+002, 5.696624e+003
9.575626e+002, 5.703189e+003
9.580447e+002, 5.716744e+003
9.585269e+002, 5.726884e+003
9.590090e+002, 5.733077e+003
9.594911e+002, 5.738614e+003
9.599732e+002, 5.744837e+003
9.604553e+002, 5.748969e+003
9.609374e+002, 5.747886e+003
9.614196e+002, 5.743693e+003
9.619017e+002, 5.742134e+003
9.623838e+002, 5.742866e+003
9.628659e+002, 5.747159e+003
9.633480e+002, 5.757353e+003
9.638301e+002, 5.767809e+003
9.643123e+002, 5.777486e+003
9.647944e+002, 5.786315e+003
9.652765e+002, 5.795848e+003
9.657586e+002, 5.804781e+003
9.662407e+002, 5.806951e+003
9.667228e+002, 5.795716e+003
9.672050e+002, 5.789698e+003
9.676871e+002, 5.796647e+003
9.681692e+002, 5.805795e+003
9.686513e+002, 5.812562e+003
9.691334e+002, 5.816956e+003
9.696155e+002, 5.818569e+003
9.700977e+002, 5.818010e+003
9.705798e+002, 5.818576e+003
9.710619e+002, 5.820939e+003
9.715440e+002, 5.826170e+003
9.720261e+002, 5.838159e+003
9.725082e+002, 5.850895e+003
9.729904e+002, 5.857547e+003
9.734725e+002, 5.859542e+003
9.739546e+002, 5.861192e+003
9.744367e+002, 5.863821e+003
9.749188e+002, 5.866128e+003
9.754009e+002, 5.866042e+003
9.758831e+002, 5.866130e+003
9.763652e+002, 5.870267e+003
9.768473e+002, 5.877014e+003
9.773294e+002, 5.884045e+003
9.778115e+002, 5.890680e+003
9.782936e+002, 5.895425e+003
9.787758e+002, 5.897604e+003
9.792579e+002, 5.899424e+003
9.797400e+002, 5.904271e+003
9.802221e+002, 5.910794e+003
9.807042e+002, 5.913147e+003
9.811863e+002, 5.912213e+003
9.816685e+002, 5.915624e+003
9.821506e+002, 5.924894e+003
9.826327e+002, 5.934597e+003
9.831148e+002, 5.940900e+003
9.835969e+002, 5.947074e+003
9.840790e+002, 5.961146e+003
9.845612e+002, 5.983242e+003
9.850433e+002, 5.994409e+003
9.855254e+002, 5.992978e+003
9.860075e+002, 5.989476e+003
9.864896e+002, 5.985153e+003
9.869717e+002, 5.984262e+003
9.874539e+002, 5.991263e+003
9.879360e+002, 6.003359e+003
9.884181e+002, 6.011788e+003
9.889002e+002, 6.015493e+003
9.893823e+002, 6.018974e+003
9.898644e+002, 6.022278e+003
9.903466e+002, 6.025190e+003
9.908287e+002, 6.027585e+003
9.913108e+002, 6.029644e+003
9.917929e+002, 6.031454e+003
9.922750e+002, 6.033089e+003
9.927571e+002, 6.034722e+003
9.932393e+002, 6.032054e+003
9.937214e+002, 6.037208e+003
9.942035e+002, 6.061252e+003
9.946856e+002, 6.080237e+003
9.951677e+002, 6.080019e+003
9.956498e+002, 6.073585e+003
9.961320e+002, 6.075140e+003
9.966141e+002, 6.084283e+003
9.970962e+002, 6.092034e+003
9.975783e+002, 6.097325e+003
9.980604e+002, 6.099994e+003
9.985425e+002, 6.095250e+003
9.990247e+002, 6.092730e+003
9.995068e+002, 6.101155e+003
9.999889e+002, 6.114184e+003
1.000471e+003, 6.122044e+003
1.000953e+003, 6.123897e+003
1.001435e+003, 6.126614e+003
1.001917e+003, 6.132755e+003
1.002399e+003, 6.140747e+003
1.002882e+003, 6.151108e+003
1.003364e+003, 6.161708e+003
1.003846e+003, 6.172022e+003
1.004328e+003, 6.180595e+003
1.004810e+003, 6.184507e+003
1.005292e+003, 6.183515e+003
1.005774e+003, 6.182145e+003
1.006256e+003, 6.182681e+003
1.006739e+003, 6.184888e+003
1.007221e+003, 6.188736e+003
1.007703e+003, 6.194030e+003
1.008185e+003, 6.202605e+003
1.008667e+003, 6.212181e+003
1.009149e+003, 6.215043e+003
1.009631e+003, 6.209200e+003
1.010113e+003, 6.204922e+003
1.010595e+003, 6.212364e+003
1.011078e+003, 6.225294e+003
1.011560e+003, 6.235662e+003
1.012042e+003, 6.243729e+003
1.012524e+003, 6.250485e+003
1.013006e+003, 6.255714e+003
1.013488e+003, 6.257052e+003
1.013970e+003, 6.253586e+003
1.014452e+003, 6.250303e+003
1.014935e+003, 6.252669e+003
1.015417e+003, 6.259435e+003
1.015899e+003, 6.269298e+003
1.016381e+003, 6.281019e+003
1.016863e+003, 6.288230e+003
1.017345e+003, 6.290254e+003
1.017827e+003, 6.290854e+003
1.018309e+003, 6.291926e+003
1.018791e+003, 6.293226e+003
1.019274e+003, 6.293741e+003
1.019756e+003, 6.294417e+003
1.020238e+003, 6.300246e+003
1.020720e+003, 6.311083e+003
1.021202e+003, 6.324796e+003
1.021684e+003, 6.341560e+003
1.022166e+003, 6.349316e+003
1.022648e+003, 6.339301e+003
1.023130e+003, 6.325628e+003
1.023613e+003, 6.333103e+003
1.024095e+003, 6.359824e+003
1.024577e+003, 6.372679e+003
1.025059e+003, 6.369785e+003
1.025541e+003, 6.367542e+003
1.026023e+003, 6.368325e+003
1.026505e+003, 6.372809e+003
1.026987e+003, 6.381855e+003
1.027469e+003, 6.393945e+003
1.027952e+003, 6.406863e+003
1.028434e+003, 6.420897e+003
1.028916e+003, 6.430067e+003
1.029398e+003, 6.434044e+003
1.029880e+003, 6.433959e+003
1.030362e+003, 6.428402e+003
1.030844e+003, 6.422444e+003
1.031326e+003, 6.417970e+003
1.031809e+003, 6.417030e+003
1.032291e+003, 6.424988e+003
1.032773e+003, 6.443812e+003
1.033255e+003, 6.454855e+003
1.033737e+003, 6.453379e+003
1.034219e+003, 6.454694e+003
1.034701e+003, 6.461883e+003
1.035183e+003, 6.472611e+003
1.035666e+003, 6.489692e+003
1.036148e+003, 6.506540e+003
1.036630e+003, 6.507021e+003
1.037112e+003, 6.485984e+003
1.037594e+003, 6.477438e+003
1.038076e+003, 6.490123e+003
1.038558e+003, 6.501163e+003
1.039040e+003, 6.503810e+003
1.039522e+003, 6.506632e+003
1.040005e+003, 6.518011e+003
1.040487e+003, 6.532451e+003
1.040969e+003, 6.536791e+003
1.041451e+003, 6.527646e+003
1.041933e+003, 6.526265e+003
1.042415e+003, 6.539099e+003
1.042897e+003, 6.551244e+003
1.043379e+003, 6.561680e+003
1.043861e+003, 6.569019e+003
1.044344e+003, 6.570646e+003
1.044826e+003, 6.569202e+003
1.045308e+003, 6.570173e+003
1.045790e+003, 6.574694e+003
1.046272e+003, 6.576398e+003
1.046754e+003, 6.566639e+003
1.047236e+003, 6.565161e+003
1.047718e+003, 6.585536e+003
1.048201e+003, 6.607249e+003
1.048683e+003, 6.615688e+003
1.049165e+003, 6.615534e+003
1.049647e+003, 6.616733e+003
1.050129e+003, 6.620542e+003
1.050611e+003, 6.622877e+003
1.051093e+003, 6.618417e+003
1.051575e+003, 6.618398e+003
1.052057e+003, 6.628771e+003
1.052540e+003, 6.642083e+003
1.053022e+003, 6.654566e+003
1.053504e+003, 6.665371e+003
1.053986e+003, 6.673219e+003
1.054468e+003, 6.677874e+003
1.054950e+003, 6.683018e+003
1.055432e+003, 6.694140e+003
1.055914e+003, 6.699806e+003
1.056396e+003, 6.688263e+003
1.056879e+003, 6.677508e+003
1.057361e+003, 6.683723e+003
1.057843e+003, 6.699271e+003
1.058325e+003, 6.709130e+003
1.058807e+003, 6.711127e+003
1.059289e+003, 6.715676e+003
1.059771e+003, 6.731711e+003
1.060253e+003, 6.743448e+003
1.060736e+003, 6.742249e+003
1.061218e+003, 6.737190e+003
1.061700e+003, 6.731590e+003
1.062182e+003, 6.728672e+003
1.062664e+003, 6.733414e+003
1.063146e+003, 6.746142e+003
1.063628e+003, 6.760460e+003
1.064110e+003, 6.779612e+003
1.064593e+003, 6.792142e+003
1.065075e+003, 6.787609e+003
1.065557e+003, 6.780383e+003
1.066039e+003, 6.780603e+003
1.066521e+003, 6.786009e+003
1.067003e+003, 6.793238e+003
1.067485e+003, 6.801062e+003
1.067967e+003, 6.806179e+003
1.068449e+003, 6.805389e+003
1.068932e+003, 6.805115e+003
1.069414e+003, 6.807250e+003
1.069896e+003, 6.811955e+003
1.070378e+003, 6.821909e+003
1.070860e+003, 6.833026e+003
1.071342e+003, 6.837942e+003
1.071824e+003, 6.837399e+003
1.072306e+003, 6.841938e+003
1.072788e+003, 6.858109e+003
1.073271e+003, 6.873553e+003
1.073753e+003, 6.883374e+003
1.074235e+003, 6.889457e+003
1.074717e+003, 6.891947e+003
1.075199e+003, 6.892317e+003
1.075681e+003, 6.890842e+003
1.076163e+003, 6.888807e+003
1.076645e+003, 6.890871e+003
1.077127e+003, 6.900345e+003
1.077610e+003, 6.908503e+003
1.078092e+003, 6.908357e+003
1.078574e+003, 6.908818e+003
1.079056e+003, 6.917317e+003
1.079538e+003, 6.928954e+003
1.080020e+003, 6.938565e+003
1.080502e+003, 6.945465e+003
1.080984e+003, 6.949399e+003
1.081467e+003, 6.948919e+003
1.081949e+003, 6.952473e+003
1.082431e+003, 6.970103e+003
1.082913e+003, 6.985679e+003
1.083395e+003, 6.986252e+003
1.083877e+003, 6.981958e+003
1.084359e+003, 6.983708e+003
1.084841e+003, 6.990479e+003
1.085323e+003, 6.995521e+003
1.085806e+003, 6.996510e+003
1.086288e+003, 7.001363e+003
1.086770e+003, 7.019443e+003
1.087252e+003, 7.034696e+003
1.087734e+003, 7.035206e+003
1.088216e+003, 7.032245e+003
1.088698e+003, 7.038218e+003
1.089180e+003, 7.048729e+003
1.089662e+003, 7.050462e+003
1.090145e+003, 7.040651e+003
1.090627e+003, 7.038415e+003
1.091109e+003, 7.059690e+003
1.091591e+003, 7.078347e+003
1.092073e+003, 7.080293e+003
1.092555e+003, 7.078146e+003
1.093037e+003, 7.082363e+003
1.093519e+003, 7.089324e+003
1.094002e+003, 7.090087e+003
1.094484e+003, 7.084220e+003
1.094966e+003, 7.083858e+003
1.095448e+003, 7.097965e+003
1.095930e+003, 7.110506e+003
1.096412e+003, 7.115888e+003
1.096894e+003, 7.118448e+003
1.097376e+003, 7.118605e+003
1.097859e+003, 7.119118e+003
1.098341e+003, 7.124083e+003
1.098823e+003, 7.133061e+003
1.099305e+003, 7.140858e+003
1.099787e+003, 7.145496e+003
1.100269e+003, 7.150521e+003
1.100751e+003, 7.157197e+003
1.101233e+003, 7.163999e+003
1.101715e+003, 7.172794e+003
1.102198e+003, 7.179379e+003
1.102680e+003, 7.177642e+003
1.103162e+003, 7.169725e+003
1.103644e+003, 7.163965e+003
1.104126e+003, 7.160760e+003
1.104608e+003, 7.162392e+003
1.105090e+003, 7.172233e+003
1.105572e+003, 7.183178e+003
1.106054e+003, 7.195710e+003
1.106537e+003, 7.205739e+003
1.107019e+003, 7.207381e+003
1.107501e+003, 7.204635e+003
1.107983e+003, 7.207438e+003
1.108465e+003, 7.217370e+003
1.108947e+003, 7.227813e+003
1.109429e+003, 7.239771e+003
1.109911e+003, 7.249887e+003
1.110394e+003, 7.257721e+003
1.110876e+003, 7.263142e+003
1.111358e+003, 7.264529e+003
1.111840e+003, 7.264138e+003
1.112322e+003, 7.265542e+003
1.112804e+003, 7.268809e+003
1.113286e+003, 7.272688e+003
1.113768e+003, 7.278966e+003
1.114250e+003, 7.282729e+003
1.114733e+003, 7.278962e+003
1.115215e+003, 7.279223e+003
1.115697e+003, 7.292597e+003
1.116179e+003, 7.308642e+003
1.116661e+003, 7.314892e+003
1.117143e+003, 7.312720e+003
1.117625e+003, 7.311783e+003
1.118107e+003, 7.309960e+003
1.118589e+003, 7.315130e+003
1.119072e+003, 7.332501e+003
1.119554e+003, 7.346496e+003
1.120036e+003, 7.350715e+003
1.120518e+003, 7.352584e+003
1.121000e+003, 7.358272e+003
1.121482e+003, 7.366661e+003
1.121964e+003, 7.374450e+003
1.122446e+003, 7.381465e+003
1.122929e+003, 7.388968e+003
1.123411e+003, 7.397790e+003
1.123893e+003, 7.403580e+003
1.124375e+003, 7.403785e+003
1.124857e+003, 7.405709e+003
1.125339e+003, 7.414346e+003
1.125821e+003, 7.426666e+003
1.126303e+003, 7.437882e+003
1.126786e+003, 7.447889e+003
1.127268e+003, 7.454668e+003
1.127750e+003, 7.457626e+003
1.128232e+003, 7.462212e+003
1.128714e+003, 7.469167e+003
1.129196e+003, 7.478002e+003
1.129678e+003, 7.489181e+003
1.130160e+003, 7.497583e+003
1.130642e+003, 7.496022e+003
1.131125e+003, 7.489056e+003
1.131607e+003, 7.494129e+003
1.132089e+003, 7.510403e+003
1.132571e+003, 7.522911e+003
1.133053e+003, 7.530834e+003
1.133535e+003, 7.533681e+003
1.134017e+003, 7.531340e+003
1.134499e+003, 7.528888e+003
1.134981e+003, 7.530097e+003
1.135464e+003, 7.534367e+003
1.135946e+003, 7.540366e+003
1.136428e+003, 7.548495e+003
1.136910e+003, 7.563112e+003
1.137392e+003, 7.581722e+003
1.137874e+003, 7.590780e+003
1.138356e+003, 7.589198e+003
1.138838e+003, 7.588060e+003
1.139321e+003, 7.593026e+003
1.139803e+003, 7.602853e+003
1.140285e+003, 7.618677e+003
1.140767e+003, 7.636162e+003
1.141249e+003, 7.648739e+003
1.141731e+003, 7.656356e+003
1.142213e+003, 7.654931e+003
1.142695e+003, 7.648487e+003
1.143177e+003, 7.652465e+003
1.143660e+003, 7.670088e+003
1.144142e+003, 7.684124e+003
1.144624e+003, 7.679624e+003
1.145106e+003, 7.673422e+003
1.145588e+003, 7.686077e+003
1.146070e+003, 7.704902e+003
1.146552e+003, 7.715048e+003
1.147034e+003, 7.718551e+003
1.147516e+003, 7.719759e+003
1.147999e+003, 7.720332e+003
1.148481e+003, 7.721897e+003
1.148963e+003, 7.724974e+003
1.149445e+003, 7.729984e+003
1.149927e+003, 7.735452e+003
1.150409e+003, 7.744846e+003
1.150891e+003, 7.767706e+003
1.151373e+003, 7.790011e+003
1.151856e+003, 7.792331e+003
1.152338e+003, 7.782589e+003
1.152820e+003, 7.782635e+003
1.153302e+003, 7.796981e+003
1.153784e+003, 7.808806e+003
1.154266e+003, 7.810573e+003
1.154748e+003, 7.811668e+003
1.155230e+003, 7.812901e+003
1.155713e+003, 7.816940e+003
1.156195e+003, 7.828758e+003
1.156677e+003, 7.842272e+003
1.157159e+003, 7.849466e+003
1.157641e+003, 7.850720e+003
1.158123e+003, 7.851806e+003
1.158605e+003, 7.851644e+003
1.159087e+003, 7.855041e+003
1.159569e+003, 7.865527e+003
1.160052e+003, 7.875302e+003
1.160534e+003, 7.881828e+003
1.161016e+003, 7.887561e+003
1.161498e+003, 7.893775e+003
1.161980e+003, 7.900780e+003
1.162462e+003, 7.909774e+003
1.162944e+003, 7.921320e+003
1.163426e+003, 7.928418e+003
1.163908e+003, 7.928622e+003
1.164391e+003, 7.931223e+003
1.164873e+003, 7.937151e+003
1.165355e+003, 7.946951e+003
1.165837e+003, 7.963006e+003
1.166319e+003, 7.976999e+003
1.166801e+003, 7.977248e+003
1.167283e+003, 7.969136e+003
1.167765e+003, 7.977265e+003
1.168247e+003, 8.002450e+003
1.168730e+003, 8.017674e+003
1.169212e+003, 8.021529e+003
1.169694e+003, 8.023822e+003
1.170176e+003, 8.027137e+003
1.170658e+003, 8.032085e+003
1.171140e+003, 8.039079e+003
1.171622e+003, 8.048185e+003
1.172104e+003, 8.060696e+003
1.172587e+003, 8.074963e+003
1.173069e+003, 8.087220e+003
1.173551e+003, 8.096280e+003
1.174033e+003, 8.094608e+003
1.174515e+003, 8.084269e+003
1.174997e+003, 8.079240e+003
1.175479e+003, 8.084728e+003
1.175961e+003, 8.095810e+003
1.176443e+003, 8.109855e+003
1.176926e+003, 8.124172e+003
1.177408e+003, 8.136149e+003
1.177890e+003, 8.145716e+003
1.178372e+003, 8.153620e+003
1.178854e+003, 8.158681e+003
1.179336e+003, 8.156859e+003
1.179818e+003, 8.149626e+003
1.180300e+003, 8.144609e+003
1.180782e+003, 8.144964e+003
1.181265e+003, 8.148004e+003
1.181747e+003, 8.151034e+003
1.182229e+003, 8.157601e+003
1.182711e+003, 8.175357e+003
1.183193e+003, 8.193025e+003
1.183675e+003, 8.199149e+003
1.184157e+003, 8.197357e+003
1.184639e+003, 8.193775e+003
1.185122e+003, 8.189894e+003
1.185604e+003, 8.192599e+003
1.186086e+003, 8.212693e+003
1.186568e+003, 8.224505e+003
1.187050e+003, 8.212128e+003
1.187532e+003, 8.205147e+003
1.188014e+003, 8.220564e+003
1.188496e+003, 8.242931e+003
1.188979e+003, 8.259239e+003
1.189461e+003, 8.270672e+003
1.189943e+003, 8.280252e+003
1.190425e+003, 8.287994e+003
1.190907e+003, 8.293518e+003
1.191389e+003, 8.296330e+003
1.191871e+003, 8.297580e+003
1.192353e+003, 8.295495e+003
1.192835e+003, 8.297962e+003
1.193318e+003, 8.309910e+003
1.193800e+003, 8.325534e+003
1.194282e+003, 8.338213e+003
1.194764e+003, 8.347996e+003
1.195246e+003, 8.355106e+003
1.195728e+003, 8.359532e+003
1.196210e+003, 8.358756e+003
1.196692e+003, 8.353143e+003
1.197174e+003, 8.352203e+003
1.197657e+003, 8.358236e+003
1.198139e+003, 8.367903e+003
1.198621e+003, 8.379200e+003
1.199103e+003, 8.392044e+003
1.199585e+003, 8.410169e+003
1.200067e+003, 8.426679e+003
1.200549e+003, 8.423571e+003
1.201031e+003, 8.409865e+003
1.201514e+003, 8.403712e+003
1.201996e+003, 8.406270e+003
1.202478e+003, 8.414934e+003
1.202960e+003, 8.428063e+003
1.203442e+003, 8.441541e+003
1.203924e+003, 8.454280e+003
1.204406e+003, 8.462866e+003
1.204888e+003, 8.458406e+003
1.205370e+003, 8.455540e+003
1.205853e+003, 8.474729e+003
1.206335e+003, 8.496464e+003
1.206817e+003, 8.489457e+003
1.207299e+003, 8.465843e+003
1.207781e+003, 8.465742e+003
1.208263e+003, 8.498800e+003
1.208745e+003, 8.522280e+003
1.209227e+003, 8.519896e+003
1.209709e+003, 8.515953e+003
1.210192e+003, 8.511157e+003
1.210674e+003, 8.511027e+003
1.211156e+003, 8.521998e+003
1.211638e+003, 8.535639e+003
1.212120e+003, 8.543497e+003
1.212602e+003, 8.546955e+003
1.213084e+003, 8.550946e+003
1.213566e+003, 8.554588e+003
1.214049e+003, 8.563839e+003
1.214531e+003, 8.581262e+003
1.215013e+003, 8.593832e+003
1.215495e+003, 8.598668e+003
1.215977e+003, 8.600586e+003
1.216459e+003, 8.601988e+003
1.216941e+003, 8.602090e+003
1.217423e+003, 8.598787e+003
1.217906e+003, 8.595339e+003
1.218388e+003, 8.605094e+003
1.218870e+003, 8.624059e+003
1.219352e+003, 8.628875e+003
1.219834e+003, 8.622264e+003
1.220316e+003, 8.626507e+003
1.220798e+003, 8.644727e+003
1.221280e+003, 8.660129e+003
1.221762e+003, 8.663538e+003
1.222245e+003, 8.665074e+003
1.222727e+003, 8.675538e+003
1.223209e+003, 8.688834e+003
1.223691e+003, 8.700354e+003
1.224173e+003, 8.708629e+003
1.224655e+003, 8.711243e+003
1.225137e+003, 8.709217e+003
1.225619e+003, 8.700928e+003
1.226101e+003, 8.689217e+003
1.226584e+003, 8.690068e+003
1.227066e+003, 8.715870e+003
1.227548e+003, 8.734344e+003
1.228030e+003, 8.728179e+003
1.228512e+003, 8.720833e+003
1.228994e+003, 8.718861e+003
1.229476e+003, 8.722818e+003
1.229958e+003, 8.737385e+003
1.230441e+003, 8.755818e+003
1.230923e+003, 8.765321e+003
1.231405e+003, 8.766299e+003
1.231887e+003, 8.772398e+003
1.232369e+003, 8.786758e+003
1.232851e+003, 8.795864e+003
1.233333e+003, 8.797150e+003
1.233815e+003, 8.799783e+003
1.234297e+003, 8.806132e+003
1.234780e+003, 8.816954e+003
1.235262e+003, 8.834189e+003
1.235744e+003, 8.850294e+003
1.236226e+003, 8.850092e+003
1.236708e+003, 8.838815e+003
1.237190e+003, 8.839123e+003
1.237672e+003, 8.848588e+003
1.238154e+003, 8.858507e+003
1.238636e+003, 8.866818e+003
1.239119e+003, 8.867438e+003
1.239601e+003, 8.860377e+003
1.240083e+003, 8.858584e+003
1.240565e+003, 8.870931e+003
1.241047e+003, 8.887966e+003
1.241529e+003, 8.904306e+003
1.242011e+003, 8.917178e+003
1.242493e+003, 8.923874e+003
1.242975e+003, 8.925771e+003
1.243458e+003, 8.920557e+003
1.243940e+003, 8.913644e+003
1.244422e+003, 8.914822e+003
1.244904e+003, 8.925719e+003
1.245386e+003, 8.943251e+003
1.245868e+003, 8.978854e+003
1.246350e+003, 8.998404e+003
1.246832e+003, 8.979042e+003
1.247315e+003, 8.966049e+003
1.247797e+003, 8.977818e+003
1.248279e+003, 8.997151e+003
1.248761e+003, 9.014201e+003
1.249243e+003, 9.028721e+003
1.249725e+003, 9.039865e+003
1.250207e+003, 9.047805e+003
1.250689e+003, 9.058807e+003
1.251172e+003, 9.073807e+003
1.251654e+003, 9.077835e+003
1.252136e+003, 9.069095e+003
1.252618e+003, 9.067484e+003
1.253100e+003, 9.078946e+003
1.253582e+003, 9.096331e+003
1.254064e+003, 9.115202e+003
1.254546e+003, 9.131778e+003
1.255028e+003, 9.139377e+003
1.255510e+003, 9.141936e+003
1.255993e+003, 9.145783e+003
1.256475e+003, 9.150635e+003
1.256957e+003, 9.155693e+003
1.257439e+003, 9.161289e+003
1.257921e+003, 9.168682e+003
1.258403e+003, 9.177817e+003
1.258885e+003, 9.187174e+003
1.259367e+003, 9.196757e+003
1.259850e+003, 9.204027e+003
1.260332e+003, 9.207734e+003
1.260814e+003, 9.208976e+003
1.261296e+003, 9.203333e+003
1.261778e+003, 9.200447e+003
1.262260e+003, 9.210155e+003
1.262742e+003, 9.225983e+003
1.263224e+003, 9.236508e+003
1.263707e+003, 9.242787e+003
1.264189e+003, 9.254525e+003
1.264671e+003, 9.275194e+003
1.265153e+003, 9.289438e+003
1.265635e+003, 9.296394e+003
1.266117e+003, 9.298269e+003
1.266599e+003, 9.293752e+003
1.267081e+003, 9.297967e+003
1.267563e+003, 9.320207e+003
1.268046e+003, 9.347212e+003
1.268528e+003, 9.363976e+003
1.269010e+003, 9.372920e+003
1.269492e+003, 9.378140e+003
1.269974e+003, 9.380904e+003
1.270456e+003, 9.382449e+003
1.270938e+003, 9.384991e+003
1.271420e+003, 9.397705e+003
1.271902e+003, 9.417260e+003
1.272385e+003, 9.423191e+003
1.272867e+003, 9.407643e+003
1.273349e+003, 9.400274e+003
1.273831e+003, 9.424936e+003
1.274313e+003, 9.453635e+003
1.274795e+003, 9.475162e+003
1.275277e+003, 9.493115e+003
1.275759e+003, 9.511995e+003
1.276242e+003, 9.527236e+003
1.276724e+003, 9.531201e+003
1.277206e+003, 9.527451e+003
1.277688e+003, 9.528639e+003
1.278170e+003, 9.536062e+003
1.278652e+003, 9.535189e+003
1.279134e+003, 9.520635e+003
1.279616e+003, 9.518046e+003
1.280099e+003, 9.531455e+003
1.280581e+003, 9.551192e+003
1.281063e+003, 9.574919e+003
1.281545e+003, 9.592243e+003
1.282027e+003, 9.594270e+003
1.282509e+003, 9.589575e+003
1.282991e+003, 9.591615e+003
1.283473e+003, 9.598341e+003
1.283955e+003, 9.607411e+003
##END=



