##NAMES=Fluorcalciomicrolite
##RRUFFID=R070100
##IDEAL CHEMISTRY=(Ca,Na)_2_Ta^5+^_2_O_6_F
##LOCALITY=Urucum mine, near Galilea, Minas Gerais, Brazil
##OWNER=RRUFF
##SOURCE=Michael Scott
##DESCRIPTION=Yellow octahedra on ball of colorless stokesite, associated with titanite
##STATUS=The identification of this mineral is confirmed by single-crystal X-ray diffraction and chemical analysis.
##URL=rruff.info/R070100
##MEASURED CHEMISTRY=(Ca_1.30_Na_0.40_U_0.04_Mn_0.02_)(Ta_1.64_Nb_0.15_Ti_0.12_Sn_0.09_)O_6_(F_0.50_O_0.25_)
8.936163e+001, 0.000000e+000
8.984375e+001, 2.328915e+002
9.032587e+001, 2.352027e+002
9.080798e+001, 2.356432e+002
9.129010e+001, 2.334643e+002
9.177222e+001, 2.302841e+002
9.225433e+001, 2.280906e+002
9.273645e+001, 2.267966e+002
9.321857e+001, 2.255654e+002
9.370068e+001, 2.239553e+002
9.418280e+001, 2.219066e+002
9.466492e+001, 2.191800e+002
9.514703e+001, 2.151073e+002
9.562915e+001, 2.104147e+002
9.611127e+001, 2.071496e+002
9.659338e+001, 2.054743e+002
9.707550e+001, 2.045292e+002
9.755762e+001, 2.034417e+002
9.803973e+001, 2.022069e+002
9.852185e+001, 2.007724e+002
9.900397e+001, 1.989099e+002
9.948608e+001, 1.965918e+002
9.996820e+001, 1.949430e+002
1.004503e+002, 1.942106e+002
1.009324e+002, 1.938447e+002
1.014146e+002, 1.926812e+002
1.018967e+002, 1.905500e+002
1.023788e+002, 1.880783e+002
1.028609e+002, 1.853819e+002
1.033430e+002, 1.821579e+002
1.038251e+002, 1.798228e+002
1.043073e+002, 1.788306e+002
1.047894e+002, 1.788679e+002
1.052715e+002, 1.783110e+002
1.057536e+002, 1.769871e+002
1.062357e+002, 1.752557e+002
1.067178e+002, 1.732836e+002
1.072000e+002, 1.705851e+002
1.076821e+002, 1.683870e+002
1.081642e+002, 1.671015e+002
1.086463e+002, 1.668310e+002
1.091284e+002, 1.660456e+002
1.096105e+002, 1.643177e+002
1.100927e+002, 1.622561e+002
1.105748e+002, 1.604466e+002
1.110569e+002, 1.589728e+002
1.115390e+002, 1.576806e+002
1.120211e+002, 1.566528e+002
1.125032e+002, 1.560476e+002
1.129854e+002, 1.551145e+002
1.134675e+002, 1.535396e+002
1.139496e+002, 1.516233e+002
1.144317e+002, 1.497757e+002
1.149138e+002, 1.474996e+002
1.153959e+002, 1.457685e+002
1.158781e+002, 1.452973e+002
1.163602e+002, 1.471964e+002
1.168423e+002, 1.482314e+002
1.173244e+002, 1.465103e+002
1.178065e+002, 1.429728e+002
1.182886e+002, 1.400100e+002
1.187708e+002, 1.390771e+002
1.192529e+002, 1.388895e+002
1.197350e+002, 1.384615e+002
1.202171e+002, 1.373938e+002
1.206992e+002, 1.361967e+002
1.211813e+002, 1.352133e+002
1.216635e+002, 1.344018e+002
1.221456e+002, 1.335541e+002
1.226277e+002, 1.325698e+002
1.231098e+002, 1.314653e+002
1.235919e+002, 1.302585e+002
1.240740e+002, 1.288041e+002
1.245562e+002, 1.273365e+002
1.250383e+002, 1.260918e+002
1.255204e+002, 1.250633e+002
1.260025e+002, 1.242382e+002
1.264846e+002, 1.237143e+002
1.269667e+002, 1.233994e+002
1.274489e+002, 1.230627e+002
1.279310e+002, 1.226998e+002
1.284131e+002, 1.222325e+002
1.288952e+002, 1.214500e+002
1.293773e+002, 1.202998e+002
1.298594e+002, 1.190462e+002
1.303416e+002, 1.178175e+002
1.308237e+002, 1.166715e+002
1.313058e+002, 1.159457e+002
1.317879e+002, 1.161501e+002
1.322700e+002, 1.170434e+002
1.327521e+002, 1.174385e+002
1.332343e+002, 1.172034e+002
1.337164e+002, 1.165104e+002
1.341985e+002, 1.155117e+002
1.346806e+002, 1.141744e+002
1.351627e+002, 1.129642e+002
1.356448e+002, 1.122941e+002
1.361270e+002, 1.121705e+002
1.366091e+002, 1.118954e+002
1.370912e+002, 1.113590e+002
1.375733e+002, 1.106288e+002
1.380554e+002, 1.099191e+002
1.385375e+002, 1.092704e+002
1.390197e+002, 1.085170e+002
1.395018e+002, 1.074090e+002
1.399839e+002, 1.057995e+002
1.404660e+002, 1.045386e+002
1.409481e+002, 1.038526e+002
1.414302e+002, 1.036966e+002
1.419124e+002, 1.034552e+002
1.423945e+002, 1.031722e+002
1.428766e+002, 1.027475e+002
1.433587e+002, 1.020028e+002
1.438408e+002, 1.006343e+002
1.443229e+002, 9.958923e+001
1.448051e+002, 9.916546e+001
1.452872e+002, 9.946640e+001
1.457693e+002, 9.959755e+001
1.462514e+002, 9.965827e+001
1.467335e+002, 9.949250e+001
1.472156e+002, 9.885824e+001
1.476978e+002, 9.724939e+001
1.481799e+002, 9.580744e+001
1.486620e+002, 9.487410e+001
1.491441e+002, 9.475337e+001
1.496262e+002, 9.432549e+001
1.501083e+002, 9.311147e+001
1.505905e+002, 9.167256e+001
1.510726e+002, 9.099735e+001
1.515547e+002, 9.209877e+001
1.520368e+002, 9.309329e+001
1.525189e+002, 9.337881e+001
1.530010e+002, 9.241405e+001
1.534832e+002, 9.165248e+001
1.539653e+002, 9.121069e+001
1.544474e+002, 9.103522e+001
1.549295e+002, 9.099775e+001
1.554116e+002, 9.137060e+001
1.558937e+002, 9.166972e+001
1.563759e+002, 9.158970e+001
1.568580e+002, 8.982832e+001
1.573401e+002, 8.938759e+001
1.578222e+002, 9.191935e+001
1.583043e+002, 9.653577e+001
1.587864e+002, 9.996326e+001
1.592686e+002, 1.001866e+002
1.597507e+002, 9.960079e+001
1.602328e+002, 9.973420e+001
1.607149e+002, 1.014581e+002
1.611970e+002, 1.034335e+002
1.616791e+002, 1.053773e+002
1.621613e+002, 1.072481e+002
1.626434e+002, 1.089575e+002
1.631255e+002, 1.096330e+002
1.636076e+002, 1.104680e+002
1.640897e+002, 1.125251e+002
1.645718e+002, 1.163700e+002
1.650540e+002, 1.213321e+002
1.655361e+002, 1.271839e+002
1.660182e+002, 1.339437e+002
1.665003e+002, 1.413934e+002
1.669824e+002, 1.492082e+002
1.674645e+002, 1.577966e+002
1.679467e+002, 1.675404e+002
1.684288e+002, 1.790253e+002
1.689109e+002, 1.915040e+002
1.693930e+002, 2.044669e+002
1.698751e+002, 2.179491e+002
1.703572e+002, 2.320278e+002
1.708394e+002, 2.467151e+002
1.713215e+002, 2.622271e+002
1.718036e+002, 2.786803e+002
1.722857e+002, 2.970300e+002
1.727678e+002, 3.160353e+002
1.732499e+002, 3.344072e+002
1.737321e+002, 3.521463e+002
1.742142e+002, 3.696819e+002
1.746963e+002, 3.876051e+002
1.751784e+002, 4.059367e+002
1.756605e+002, 4.248071e+002
1.761426e+002, 4.441489e+002
1.766248e+002, 4.639399e+002
1.771069e+002, 4.842072e+002
1.775890e+002, 5.051709e+002
1.780711e+002, 5.260463e+002
1.785532e+002, 5.454821e+002
1.790353e+002, 5.641088e+002
1.795175e+002, 5.834193e+002
1.799996e+002, 6.050469e+002
1.804817e+002, 6.279181e+002
1.809638e+002, 6.505151e+002
1.814459e+002, 6.728304e+002
1.819280e+002, 6.945098e+002
1.824102e+002, 7.156755e+002
1.828923e+002, 7.359552e+002
1.833744e+002, 7.555390e+002
1.838565e+002, 7.734704e+002
1.843386e+002, 7.905891e+002
1.848207e+002, 8.087784e+002
1.853029e+002, 8.286442e+002
1.857850e+002, 8.493576e+002
1.862671e+002, 8.697700e+002
1.867492e+002, 8.898559e+002
1.872313e+002, 9.108367e+002
1.877134e+002, 9.335804e+002
1.881956e+002, 9.580869e+002
1.886777e+002, 9.832878e+002
1.891598e+002, 1.009403e+003
1.896419e+002, 1.036084e+003
1.901240e+002, 1.062785e+003
1.906061e+002, 1.089854e+003
1.910883e+002, 1.116848e+003
1.915704e+002, 1.143794e+003
1.920525e+002, 1.170891e+003
1.925346e+002, 1.197681e+003
1.930167e+002, 1.223941e+003
1.934988e+002, 1.249080e+003
1.939810e+002, 1.268982e+003
1.944631e+002, 1.282321e+003
1.949452e+002, 1.295482e+003
1.954273e+002, 1.309000e+003
1.959094e+002, 1.322848e+003
1.963915e+002, 1.335160e+003
1.968737e+002, 1.345714e+003
1.973558e+002, 1.354511e+003
1.978379e+002, 1.361390e+003
1.983200e+002, 1.366203e+003
1.988021e+002, 1.369956e+003
1.992842e+002, 1.373860e+003
1.997664e+002, 1.378105e+003
2.002485e+002, 1.380354e+003
2.007306e+002, 1.379918e+003
2.012127e+002, 1.377212e+003
2.016948e+002, 1.374210e+003
2.021769e+002, 1.370922e+003
2.026591e+002, 1.367420e+003
2.031412e+002, 1.363878e+003
2.036233e+002, 1.360341e+003
2.041054e+002, 1.356357e+003
2.045875e+002, 1.351583e+003
2.050696e+002, 1.346171e+003
2.055518e+002, 1.341396e+003
2.060339e+002, 1.337013e+003
2.065160e+002, 1.333687e+003
2.069981e+002, 1.332302e+003
2.074802e+002, 1.333140e+003
2.079623e+002, 1.334430e+003
2.084445e+002, 1.335652e+003
2.089266e+002, 1.336837e+003
2.094087e+002, 1.338966e+003
2.098908e+002, 1.342190e+003
2.103729e+002, 1.346036e+003
2.108550e+002, 1.350064e+003
2.113372e+002, 1.354253e+003
2.118193e+002, 1.358573e+003
2.123014e+002, 1.363288e+003
2.127835e+002, 1.368366e+003
2.132656e+002, 1.372108e+003
2.137477e+002, 1.374157e+003
2.142299e+002, 1.375392e+003
2.147120e+002, 1.376793e+003
2.151941e+002, 1.378463e+003
2.156762e+002, 1.380005e+003
2.161583e+002, 1.381334e+003
2.166404e+002, 1.382430e+003
2.171226e+002, 1.383365e+003
2.176047e+002, 1.384292e+003
2.180868e+002, 1.384870e+003
2.185689e+002, 1.384605e+003
2.190510e+002, 1.383155e+003
2.195331e+002, 1.381673e+003
2.200153e+002, 1.380352e+003
2.204974e+002, 1.379173e+003
2.209795e+002, 1.378589e+003
2.214616e+002, 1.379082e+003
2.219437e+002, 1.379712e+003
2.224258e+002, 1.379371e+003
2.229080e+002, 1.378109e+003
2.233901e+002, 1.375789e+003
2.238722e+002, 1.372047e+003
2.243543e+002, 1.366539e+003
2.248364e+002, 1.362270e+003
2.253185e+002, 1.359541e+003
2.258007e+002, 1.357760e+003
2.262828e+002, 1.356143e+003
2.267649e+002, 1.354476e+003
2.272470e+002, 1.353327e+003
2.277291e+002, 1.353004e+003
2.282112e+002, 1.353644e+003
2.286934e+002, 1.353782e+003
2.291755e+002, 1.353170e+003
2.296576e+002, 1.352252e+003
2.301397e+002, 1.351609e+003
2.306218e+002, 1.351309e+003
2.311039e+002, 1.351172e+003
2.315861e+002, 1.351205e+003
2.320682e+002, 1.351467e+003
2.325503e+002, 1.351710e+003
2.330324e+002, 1.352042e+003
2.335145e+002, 1.352335e+003
2.339966e+002, 1.352422e+003
2.344788e+002, 1.352281e+003
2.349609e+002, 1.352017e+003
2.354430e+002, 1.351513e+003
2.359251e+002, 1.350629e+003
2.364072e+002, 1.350617e+003
2.368893e+002, 1.352113e+003
2.373715e+002, 1.353935e+003
2.378536e+002, 1.354509e+003
2.383357e+002, 1.352978e+003
2.388178e+002, 1.351664e+003
2.392999e+002, 1.351284e+003
2.397820e+002, 1.352029e+003
2.402642e+002, 1.352073e+003
2.407463e+002, 1.351034e+003
2.412284e+002, 1.349562e+003
2.417105e+002, 1.348444e+003
2.421926e+002, 1.347818e+003
2.426747e+002, 1.347239e+003
2.431569e+002, 1.346632e+003
2.436390e+002, 1.346004e+003
2.441211e+002, 1.345202e+003
2.446032e+002, 1.344288e+003
2.450853e+002, 1.343140e+003
2.455674e+002, 1.341555e+003
2.460496e+002, 1.339155e+003
2.465317e+002, 1.337045e+003
2.470138e+002, 1.335524e+003
2.474959e+002, 1.334654e+003
2.479780e+002, 1.333846e+003
2.484601e+002, 1.333223e+003
2.489423e+002, 1.332592e+003
2.494244e+002, 1.331731e+003
2.499065e+002, 1.330577e+003
2.503886e+002, 1.329396e+003
2.508707e+002, 1.328270e+003
2.513528e+002, 1.327224e+003
2.518350e+002, 1.326003e+003
2.523171e+002, 1.324225e+003
2.527992e+002, 1.322693e+003
2.532813e+002, 1.322399e+003
2.537634e+002, 1.324139e+003
2.542455e+002, 1.325332e+003
2.547277e+002, 1.325310e+003
2.552098e+002, 1.324029e+003
2.556919e+002, 1.322852e+003
2.561740e+002, 1.321519e+003
2.566561e+002, 1.320558e+003
2.571382e+002, 1.320760e+003
2.576204e+002, 1.323107e+003
2.581025e+002, 1.324143e+003
2.585846e+002, 1.322771e+003
2.590667e+002, 1.319141e+003
2.595488e+002, 1.316580e+003
2.600309e+002, 1.315428e+003
2.605131e+002, 1.314939e+003
2.609952e+002, 1.314631e+003
2.614773e+002, 1.314767e+003
2.619594e+002, 1.314376e+003
2.624415e+002, 1.313158e+003
2.629236e+002, 1.311217e+003
2.634058e+002, 1.309575e+003
2.638879e+002, 1.308154e+003
2.643700e+002, 1.307166e+003
2.648521e+002, 1.307025e+003
2.653342e+002, 1.308303e+003
2.658163e+002, 1.308428e+003
2.662985e+002, 1.306589e+003
2.667806e+002, 1.303246e+003
2.672627e+002, 1.301145e+003
2.677448e+002, 1.300773e+003
2.682269e+002, 1.300621e+003
2.687090e+002, 1.299284e+003
2.691912e+002, 1.296151e+003
2.696733e+002, 1.294479e+003
2.701554e+002, 1.295168e+003
2.706375e+002, 1.297463e+003
2.711196e+002, 1.298193e+003
2.716017e+002, 1.296920e+003
2.720839e+002, 1.295275e+003
2.725660e+002, 1.294541e+003
2.730481e+002, 1.294973e+003
2.735302e+002, 1.294581e+003
2.740123e+002, 1.292954e+003
2.744944e+002, 1.290539e+003
2.749766e+002, 1.288566e+003
2.754587e+002, 1.287079e+003
2.759408e+002, 1.285922e+003
2.764229e+002, 1.285125e+003
2.769050e+002, 1.284729e+003
2.773871e+002, 1.284247e+003
2.778693e+002, 1.283625e+003
2.783514e+002, 1.282944e+003
2.788335e+002, 1.282450e+003
2.793156e+002, 1.282202e+003
2.797977e+002, 1.281788e+003
2.802798e+002, 1.280890e+003
2.807620e+002, 1.279508e+003
2.812441e+002, 1.278300e+003
2.817262e+002, 1.277383e+003
2.822083e+002, 1.276464e+003
2.826904e+002, 1.274795e+003
2.831725e+002, 1.272287e+003
2.836547e+002, 1.270161e+003
2.841368e+002, 1.269126e+003
2.846189e+002, 1.269105e+003
2.851010e+002, 1.269178e+003
2.855831e+002, 1.269371e+003
2.860652e+002, 1.269519e+003
2.865474e+002, 1.269401e+003
2.870295e+002, 1.269020e+003
2.875116e+002, 1.268432e+003
2.879937e+002, 1.267789e+003
2.884758e+002, 1.266999e+003
2.889579e+002, 1.265340e+003
2.894401e+002, 1.262629e+003
2.899222e+002, 1.259946e+003
2.904043e+002, 1.258879e+003
2.908864e+002, 1.259229e+003
2.913685e+002, 1.259380e+003
2.918506e+002, 1.258883e+003
2.923328e+002, 1.257714e+003
2.928149e+002, 1.255519e+003
2.932970e+002, 1.252200e+003
2.937791e+002, 1.248876e+003
2.942612e+002, 1.246841e+003
2.947433e+002, 1.245837e+003
2.952255e+002, 1.244883e+003
2.957076e+002, 1.243703e+003
2.961897e+002, 1.242353e+003
2.966718e+002, 1.240975e+003
2.971539e+002, 1.239574e+003
2.976360e+002, 1.238082e+003
2.981182e+002, 1.236165e+003
2.986003e+002, 1.234108e+003
2.990824e+002, 1.232630e+003
2.995645e+002, 1.232170e+003
3.000466e+002, 1.232111e+003
3.005287e+002, 1.231653e+003
3.010109e+002, 1.230822e+003
3.014930e+002, 1.229758e+003
3.019751e+002, 1.228589e+003
3.024572e+002, 1.227261e+003
3.029393e+002, 1.225668e+003
3.034214e+002, 1.223678e+003
3.039036e+002, 1.221605e+003
3.043857e+002, 1.219622e+003
3.048678e+002, 1.217805e+003
3.053499e+002, 1.216365e+003
3.058320e+002, 1.215963e+003
3.063141e+002, 1.215834e+003
3.067963e+002, 1.214991e+003
3.072784e+002, 1.213097e+003
3.077605e+002, 1.210966e+003
3.082426e+002, 1.208980e+003
3.087247e+002, 1.207239e+003
3.092068e+002, 1.205995e+003
3.096890e+002, 1.205786e+003
3.101711e+002, 1.205858e+003
3.106532e+002, 1.205643e+003
3.111353e+002, 1.205093e+003
3.116174e+002, 1.204064e+003
3.120995e+002, 1.201967e+003
3.125817e+002, 1.199387e+003
3.130638e+002, 1.197249e+003
3.135459e+002, 1.196527e+003
3.140280e+002, 1.195894e+003
3.145101e+002, 1.194297e+003
3.149922e+002, 1.191602e+003
3.154744e+002, 1.189383e+003
3.159565e+002, 1.189107e+003
3.164386e+002, 1.189524e+003
3.169207e+002, 1.189221e+003
3.174028e+002, 1.187491e+003
3.178849e+002, 1.185241e+003
3.183671e+002, 1.182563e+003
3.188492e+002, 1.179498e+003
3.193313e+002, 1.176886e+003
3.198134e+002, 1.175121e+003
3.202955e+002, 1.173849e+003
3.207776e+002, 1.172802e+003
3.212598e+002, 1.172037e+003
3.217419e+002, 1.171322e+003
3.222240e+002, 1.170806e+003
3.227061e+002, 1.170360e+003
3.231882e+002, 1.169377e+003
3.236703e+002, 1.166730e+003
3.241525e+002, 1.164180e+003
3.246346e+002, 1.162752e+003
3.251167e+002, 1.163790e+003
3.255988e+002, 1.164235e+003
3.260809e+002, 1.163576e+003
3.265630e+002, 1.162122e+003
3.270452e+002, 1.160710e+003
3.275273e+002, 1.159412e+003
3.280094e+002, 1.158180e+003
3.284915e+002, 1.157033e+003
3.289736e+002, 1.156156e+003
3.294557e+002, 1.154982e+003
3.299379e+002, 1.153044e+003
3.304200e+002, 1.150949e+003
3.309021e+002, 1.149753e+003
3.313842e+002, 1.150452e+003
3.318663e+002, 1.150678e+003
3.323484e+002, 1.149563e+003
3.328306e+002, 1.146795e+003
3.333127e+002, 1.144786e+003
3.337948e+002, 1.143834e+003
3.342769e+002, 1.143358e+003
3.347590e+002, 1.142769e+003
3.352411e+002, 1.142100e+003
3.357233e+002, 1.141238e+003
3.362054e+002, 1.140041e+003
3.366875e+002, 1.138561e+003
3.371696e+002, 1.137672e+003
3.376517e+002, 1.137556e+003
3.381339e+002, 1.137728e+003
3.386160e+002, 1.137953e+003
3.390981e+002, 1.138384e+003
3.395802e+002, 1.138079e+003
3.400623e+002, 1.136671e+003
3.405444e+002, 1.134523e+003
3.410266e+002, 1.132998e+003
3.415087e+002, 1.132170e+003
3.419908e+002, 1.131403e+003
3.424729e+002, 1.130174e+003
3.429550e+002, 1.128479e+003
3.434371e+002, 1.127126e+003
3.439193e+002, 1.126270e+003
3.444014e+002, 1.125593e+003
3.448835e+002, 1.124397e+003
3.453656e+002, 1.122693e+003
3.458477e+002, 1.121301e+003
3.463298e+002, 1.121145e+003
3.468120e+002, 1.121776e+003
3.472941e+002, 1.120919e+003
3.477762e+002, 1.118288e+003
3.482583e+002, 1.115478e+003
3.487404e+002, 1.114456e+003
3.492225e+002, 1.114932e+003
3.497047e+002, 1.115667e+003
3.501868e+002, 1.116773e+003
3.506689e+002, 1.117585e+003
3.511510e+002, 1.116468e+003
3.516331e+002, 1.113455e+003
3.521152e+002, 1.110445e+003
3.525974e+002, 1.109133e+003
3.530795e+002, 1.108916e+003
3.535616e+002, 1.108724e+003
3.540437e+002, 1.108403e+003
3.545258e+002, 1.107806e+003
3.550079e+002, 1.106639e+003
3.554901e+002, 1.105010e+003
3.559722e+002, 1.103369e+003
3.564543e+002, 1.101678e+003
3.569364e+002, 1.100283e+003
3.574185e+002, 1.099577e+003
3.579006e+002, 1.099781e+003
3.583828e+002, 1.100291e+003
3.588649e+002, 1.101207e+003
3.593470e+002, 1.102150e+003
3.598291e+002, 1.102357e+003
3.603112e+002, 1.101108e+003
3.607933e+002, 1.099311e+003
3.612755e+002, 1.097221e+003
3.617576e+002, 1.094725e+003
3.622397e+002, 1.092933e+003
3.627218e+002, 1.092857e+003
3.632039e+002, 1.093484e+003
3.636860e+002, 1.093679e+003
3.641682e+002, 1.092658e+003
3.646503e+002, 1.091631e+003
3.651324e+002, 1.091086e+003
3.656145e+002, 1.090999e+003
3.660966e+002, 1.090679e+003
3.665787e+002, 1.089566e+003
3.670609e+002, 1.088472e+003
3.675430e+002, 1.087914e+003
3.680251e+002, 1.089338e+003
3.685072e+002, 1.089642e+003
3.689893e+002, 1.087706e+003
3.694714e+002, 1.084368e+003
3.699536e+002, 1.082458e+003
3.704357e+002, 1.083141e+003
3.709178e+002, 1.084030e+003
3.713999e+002, 1.084139e+003
3.718820e+002, 1.083030e+003
3.723641e+002, 1.082329e+003
3.728463e+002, 1.082433e+003
3.733284e+002, 1.082686e+003
3.738105e+002, 1.081940e+003
3.742926e+002, 1.079614e+003
3.747747e+002, 1.077567e+003
3.752568e+002, 1.076290e+003
3.757390e+002, 1.075778e+003
3.762211e+002, 1.075751e+003
3.767032e+002, 1.076409e+003
3.771853e+002, 1.077101e+003
3.776674e+002, 1.077124e+003
3.781495e+002, 1.076385e+003
3.786317e+002, 1.075842e+003
3.791138e+002, 1.075985e+003
3.795959e+002, 1.076260e+003
3.800780e+002, 1.074369e+003
3.805601e+002, 1.070083e+003
3.810422e+002, 1.066357e+003
3.815244e+002, 1.065877e+003
3.820065e+002, 1.067990e+003
3.824886e+002, 1.068996e+003
3.829707e+002, 1.068394e+003
3.834528e+002, 1.067050e+003
3.839349e+002, 1.066030e+003
3.844171e+002, 1.065308e+003
3.848992e+002, 1.064720e+003
3.853813e+002, 1.064132e+003
3.858634e+002, 1.063630e+003
3.863455e+002, 1.063360e+003
3.868276e+002, 1.063327e+003
3.873098e+002, 1.063426e+003
3.877919e+002, 1.063888e+003
3.882740e+002, 1.064363e+003
3.887561e+002, 1.064202e+003
3.892382e+002, 1.062633e+003
3.897203e+002, 1.060865e+003
3.902025e+002, 1.059867e+003
3.906846e+002, 1.059546e+003
3.911667e+002, 1.059480e+003
3.916488e+002, 1.060293e+003
3.921309e+002, 1.060782e+003
3.926130e+002, 1.059680e+003
3.930952e+002, 1.055835e+003
3.935773e+002, 1.052459e+003
3.940594e+002, 1.050952e+003
3.945415e+002, 1.050873e+003
3.950236e+002, 1.051402e+003
3.955057e+002, 1.053526e+003
3.959879e+002, 1.055151e+003
3.964700e+002, 1.055290e+003
3.969521e+002, 1.053672e+003
3.974342e+002, 1.051962e+003
3.979163e+002, 1.050457e+003
3.983984e+002, 1.048967e+003
3.988806e+002, 1.047317e+003
3.993627e+002, 1.044793e+003
3.998448e+002, 1.042921e+003
4.003269e+002, 1.041915e+003
4.008090e+002, 1.041724e+003
4.012911e+002, 1.042075e+003
4.017733e+002, 1.043818e+003
4.022554e+002, 1.045099e+003
4.027375e+002, 1.044724e+003
4.032196e+002, 1.041470e+003
4.037017e+002, 1.039745e+003
4.041838e+002, 1.040241e+003
4.046660e+002, 1.041812e+003
4.051481e+002, 1.042247e+003
4.056302e+002, 1.041308e+003
4.061123e+002, 1.040127e+003
4.065944e+002, 1.039024e+003
4.070765e+002, 1.037999e+003
4.075587e+002, 1.037142e+003
4.080408e+002, 1.036451e+003
4.085229e+002, 1.035889e+003
4.090050e+002, 1.035435e+003
4.094871e+002, 1.035078e+003
4.099692e+002, 1.034760e+003
4.104514e+002, 1.034474e+003
4.109335e+002, 1.034179e+003
4.114156e+002, 1.033827e+003
4.118977e+002, 1.033410e+003
4.123798e+002, 1.032848e+003
4.128619e+002, 1.031678e+003
4.133441e+002, 1.030412e+003
4.138262e+002, 1.030339e+003
4.143083e+002, 1.031882e+003
4.147904e+002, 1.033273e+003
4.152725e+002, 1.032471e+003
4.157546e+002, 1.030262e+003
4.162368e+002, 1.028248e+003
4.167189e+002, 1.027342e+003
4.172010e+002, 1.026808e+003
4.176831e+002, 1.026227e+003
4.181652e+002, 1.025570e+003
4.186473e+002, 1.024533e+003
4.191295e+002, 1.022245e+003
4.196116e+002, 1.019859e+003
4.200937e+002, 1.018482e+003
4.205758e+002, 1.019067e+003
4.210579e+002, 1.019657e+003
4.215400e+002, 1.019734e+003
4.220222e+002, 1.019357e+003
4.225043e+002, 1.018667e+003
4.229864e+002, 1.017299e+003
4.234685e+002, 1.015998e+003
4.239506e+002, 1.015078e+003
4.244327e+002, 1.014707e+003
4.249149e+002, 1.014270e+003
4.253970e+002, 1.013631e+003
4.258791e+002, 1.012984e+003
4.263612e+002, 1.012517e+003
4.268433e+002, 1.012341e+003
4.273254e+002, 1.012145e+003
4.278076e+002, 1.011809e+003
4.282897e+002, 1.011373e+003
4.287718e+002, 1.011281e+003
4.292539e+002, 1.011804e+003
4.297360e+002, 1.012083e+003
4.302181e+002, 1.011356e+003
4.307003e+002, 1.009332e+003
4.311824e+002, 1.008276e+003
4.316645e+002, 1.008538e+003
4.321466e+002, 1.009353e+003
4.326287e+002, 1.009491e+003
4.331108e+002, 1.008952e+003
4.335930e+002, 1.008077e+003
4.340751e+002, 1.006728e+003
4.345572e+002, 1.005196e+003
4.350393e+002, 1.004621e+003
4.355214e+002, 1.005038e+003
4.360035e+002, 1.005518e+003
4.364857e+002, 1.005156e+003
4.369678e+002, 1.004234e+003
4.374499e+002, 1.003423e+003
4.379320e+002, 1.002893e+003
4.384141e+002, 1.002465e+003
4.388962e+002, 1.001829e+003
4.393784e+002, 1.001104e+003
4.398605e+002, 1.000649e+003
4.403426e+002, 1.000794e+003
4.408247e+002, 1.001191e+003
4.413068e+002, 1.001662e+003
4.417889e+002, 1.002210e+003
4.422711e+002, 1.002449e+003
4.427532e+002, 1.002106e+003
4.432353e+002, 1.001378e+003
4.437174e+002, 1.000473e+003
4.441995e+002, 9.990245e+002
4.446816e+002, 9.978466e+002
4.451638e+002, 9.971985e+002
4.456459e+002, 9.970208e+002
4.461280e+002, 9.969996e+002
4.466101e+002, 9.971671e+002
4.470922e+002, 9.974200e+002
4.475743e+002, 9.978024e+002
4.480565e+002, 9.986481e+002
4.485386e+002, 9.987302e+002
4.490207e+002, 9.974155e+002
4.495028e+002, 9.957371e+002
4.499849e+002, 9.951837e+002
4.504670e+002, 9.965388e+002
4.509492e+002, 9.972227e+002
4.514313e+002, 9.964217e+002
4.519134e+002, 9.944193e+002
4.523955e+002, 9.933671e+002
4.528776e+002, 9.935530e+002
4.533597e+002, 9.938043e+002
4.538419e+002, 9.930439e+002
4.543240e+002, 9.913262e+002
4.548061e+002, 9.906797e+002
4.552882e+002, 9.915468e+002
4.557703e+002, 9.928242e+002
4.562524e+002, 9.927521e+002
4.567346e+002, 9.914900e+002
4.572167e+002, 9.901276e+002
4.576988e+002, 9.887418e+002
4.581809e+002, 9.876842e+002
4.586630e+002, 9.878942e+002
4.591451e+002, 9.892758e+002
4.596273e+002, 9.904572e+002
4.601094e+002, 9.899959e+002
4.605915e+002, 9.888334e+002
4.610736e+002, 9.882357e+002
4.615557e+002, 9.886868e+002
4.620378e+002, 9.892823e+002
4.625200e+002, 9.894016e+002
4.630021e+002, 9.892593e+002
4.634842e+002, 9.892652e+002
4.639663e+002, 9.903477e+002
4.644484e+002, 9.909714e+002
4.649305e+002, 9.900878e+002
4.654127e+002, 9.875583e+002
4.658948e+002, 9.855043e+002
4.663769e+002, 9.842512e+002
4.668590e+002, 9.837158e+002
4.673411e+002, 9.838511e+002
4.678232e+002, 9.856579e+002
4.683054e+002, 9.867982e+002
4.687875e+002, 9.867328e+002
4.692696e+002, 9.860225e+002
4.697517e+002, 9.861123e+002
4.702338e+002, 9.874269e+002
4.707159e+002, 9.887487e+002
4.711981e+002, 9.897493e+002
4.716802e+002, 9.904367e+002
4.721623e+002, 9.903007e+002
4.726444e+002, 9.890253e+002
4.731265e+002, 9.877807e+002
4.736086e+002, 9.879296e+002
4.740908e+002, 9.894428e+002
4.745729e+002, 9.907003e+002
4.750550e+002, 9.913270e+002
4.755371e+002, 9.916674e+002
4.760192e+002, 9.925047e+002
4.765013e+002, 9.937419e+002
4.769835e+002, 9.946561e+002
4.774656e+002, 9.944460e+002
4.779477e+002, 9.937955e+002
4.784298e+002, 9.939346e+002
4.789119e+002, 9.949322e+002
4.793940e+002, 9.959561e+002
4.798762e+002, 9.964836e+002
4.803583e+002, 9.966016e+002
4.808404e+002, 9.963802e+002
4.813225e+002, 9.953300e+002
4.818046e+002, 9.946636e+002
4.822867e+002, 9.955441e+002
4.827689e+002, 9.973519e+002
4.832510e+002, 9.984713e+002
4.837331e+002, 9.975024e+002
4.842152e+002, 9.965153e+002
4.846973e+002, 9.966010e+002
4.851794e+002, 9.981566e+002
4.856616e+002, 9.991631e+002
4.861437e+002, 9.988750e+002
4.866258e+002, 9.983215e+002
4.871079e+002, 9.982722e+002
4.875900e+002, 9.988430e+002
4.880721e+002, 9.997206e+002
4.885543e+002, 1.001006e+003
4.890364e+002, 1.002515e+003
4.895185e+002, 1.003758e+003
4.900006e+002, 1.004728e+003
4.904827e+002, 1.005337e+003
4.909648e+002, 1.005251e+003
4.914470e+002, 1.004535e+003
4.919291e+002, 1.005048e+003
4.924112e+002, 1.007045e+003
4.928933e+002, 1.009019e+003
4.933754e+002, 1.009211e+003
4.938575e+002, 1.007999e+003
4.943397e+002, 1.007010e+003
4.948218e+002, 1.006658e+003
4.953039e+002, 1.006614e+003
4.957860e+002, 1.006385e+003
4.962681e+002, 1.006079e+003
4.967502e+002, 1.006050e+003
4.972324e+002, 1.006787e+003
4.977145e+002, 1.007702e+003
4.981966e+002, 1.008169e+003
4.986787e+002, 1.008154e+003
4.991608e+002, 1.008223e+003
4.996429e+002, 1.009023e+003
5.001251e+002, 1.009840e+003
5.006072e+002, 1.010020e+003
5.010893e+002, 1.008674e+003
5.015714e+002, 1.007672e+003
5.020535e+002, 1.007500e+003
5.025356e+002, 1.007933e+003
5.030178e+002, 1.008469e+003
5.034999e+002, 1.009856e+003
5.039820e+002, 1.010482e+003
5.044641e+002, 1.009673e+003
5.049462e+002, 1.007363e+003
5.054283e+002, 1.005772e+003
5.059105e+002, 1.005189e+003
5.063926e+002, 1.004939e+003
5.068747e+002, 1.004568e+003
5.073568e+002, 1.004082e+003
5.078389e+002, 1.003484e+003
5.083210e+002, 1.002749e+003
5.088032e+002, 1.001975e+003
5.092853e+002, 1.001230e+003
5.097674e+002, 1.000527e+003
5.102495e+002, 1.000184e+003
5.107316e+002, 1.000437e+003
5.112137e+002, 1.001068e+003
5.116959e+002, 1.001751e+003
5.121780e+002, 1.002448e+003
5.126601e+002, 1.002862e+003
5.131422e+002, 1.002472e+003
5.136243e+002, 1.001778e+003
5.141064e+002, 1.001527e+003
5.145886e+002, 1.002036e+003
5.150707e+002, 1.002322e+003
5.155528e+002, 1.001568e+003
5.160349e+002, 1.000281e+003
5.165170e+002, 9.991795e+002
5.169991e+002, 9.981364e+002
5.174813e+002, 9.977089e+002
5.179634e+002, 9.985233e+002
5.184455e+002, 1.000382e+003
5.189276e+002, 1.001606e+003
5.194097e+002, 1.001253e+003
5.198918e+002, 1.000889e+003
5.203740e+002, 1.001305e+003
5.208561e+002, 1.003143e+003
5.213382e+002, 1.003472e+003
5.218203e+002, 1.001350e+003
5.223024e+002, 9.987722e+002
5.227845e+002, 9.983427e+002
5.232667e+002, 1.000582e+003
5.237488e+002, 1.001857e+003
5.242309e+002, 1.001126e+003
5.247130e+002, 9.992713e+002
5.251951e+002, 9.984973e+002
5.256772e+002, 9.987880e+002
5.261594e+002, 9.993811e+002
5.266415e+002, 1.000213e+003
5.271236e+002, 1.000986e+003
5.276057e+002, 1.000931e+003
5.280878e+002, 1.000032e+003
5.285699e+002, 9.988474e+002
5.290521e+002, 9.969327e+002
5.295342e+002, 9.953411e+002
5.300163e+002, 9.957200e+002
5.304984e+002, 9.997111e+002
5.309805e+002, 1.003518e+003
5.314626e+002, 1.004677e+003
5.319448e+002, 1.004180e+003
5.324269e+002, 1.003950e+003
5.329090e+002, 1.004903e+003
5.333911e+002, 1.005839e+003
5.338732e+002, 1.006271e+003
5.343553e+002, 1.006145e+003
5.348375e+002, 1.006211e+003
5.353196e+002, 1.006430e+003
5.358017e+002, 1.006861e+003
5.362838e+002, 1.007573e+003
5.367659e+002, 1.008733e+003
5.372480e+002, 1.009681e+003
5.377302e+002, 1.010404e+003
5.382123e+002, 1.010901e+003
5.386944e+002, 1.011153e+003
5.391765e+002, 1.011165e+003
5.396586e+002, 1.010970e+003
5.401407e+002, 1.010557e+003
5.406229e+002, 1.009996e+003
5.411050e+002, 1.009376e+003
5.415871e+002, 1.008734e+003
5.420692e+002, 1.008306e+003
5.425513e+002, 1.008335e+003
5.430334e+002, 1.008664e+003
5.435156e+002, 1.009039e+003
5.439977e+002, 1.009449e+003
5.444798e+002, 1.010018e+003
5.449619e+002, 1.010893e+003
5.454440e+002, 1.011943e+003
5.459261e+002, 1.013032e+003
5.464083e+002, 1.014193e+003
5.468904e+002, 1.015247e+003
5.473725e+002, 1.015958e+003
5.478546e+002, 1.016490e+003
5.483367e+002, 1.017226e+003
5.488188e+002, 1.018360e+003
5.493010e+002, 1.019522e+003
5.497831e+002, 1.020641e+003
5.502652e+002, 1.021707e+003
5.507473e+002, 1.022670e+003
5.512294e+002, 1.023539e+003
5.517115e+002, 1.024296e+003
5.521937e+002, 1.024935e+003
5.526758e+002, 1.025464e+003
5.531579e+002, 1.025904e+003
5.536400e+002, 1.026218e+003
5.541221e+002, 1.026620e+003
5.546042e+002, 1.027516e+003
5.550864e+002, 1.028822e+003
5.555685e+002, 1.029980e+003
5.560506e+002, 1.030772e+003
5.565327e+002, 1.031380e+003
5.570148e+002, 1.031904e+003
5.574969e+002, 1.032409e+003
5.579791e+002, 1.033167e+003
5.584612e+002, 1.034390e+003
5.589433e+002, 1.035865e+003
5.594254e+002, 1.037689e+003
5.599075e+002, 1.039881e+003
5.603896e+002, 1.041267e+003
5.608718e+002, 1.040482e+003
5.613539e+002, 1.039235e+003
5.618360e+002, 1.038798e+003
5.623181e+002, 1.039880e+003
5.628002e+002, 1.041018e+003
5.632823e+002, 1.042038e+003
5.637645e+002, 1.043129e+003
5.642466e+002, 1.044702e+003
5.647287e+002, 1.047330e+003
5.652108e+002, 1.049106e+003
5.656929e+002, 1.049288e+003
5.661750e+002, 1.048323e+003
5.666572e+002, 1.048098e+003
5.671393e+002, 1.048600e+003
5.676214e+002, 1.049912e+003
5.681035e+002, 1.052647e+003
5.685856e+002, 1.056282e+003
5.690677e+002, 1.058949e+003
5.695499e+002, 1.060541e+003
5.700320e+002, 1.061389e+003
5.705141e+002, 1.061341e+003
5.709962e+002, 1.060838e+003
5.714783e+002, 1.060524e+003
5.719604e+002, 1.060343e+003
5.724426e+002, 1.060823e+003
5.729247e+002, 1.062847e+003
5.734068e+002, 1.065691e+003
5.738889e+002, 1.068105e+003
5.743710e+002, 1.069114e+003
5.748531e+002, 1.070200e+003
5.753353e+002, 1.072321e+003
5.758174e+002, 1.075321e+003
5.762995e+002, 1.076865e+003
5.767816e+002, 1.075570e+003
5.772637e+002, 1.074383e+003
5.777458e+002, 1.074656e+003
5.782280e+002, 1.076688e+003
5.787101e+002, 1.078628e+003
5.791922e+002, 1.080497e+003
5.796743e+002, 1.082223e+003
5.801564e+002, 1.083662e+003
5.806385e+002, 1.084824e+003
5.811207e+002, 1.086135e+003
5.816028e+002, 1.087765e+003
5.820849e+002, 1.089314e+003
5.825670e+002, 1.089926e+003
5.830491e+002, 1.089889e+003
5.835313e+002, 1.090171e+003
5.840134e+002, 1.091359e+003
5.844955e+002, 1.092973e+003
5.849776e+002, 1.094411e+003
5.854597e+002, 1.095801e+003
5.859418e+002, 1.097866e+003
5.864240e+002, 1.102109e+003
5.869061e+002, 1.106215e+003
5.873882e+002, 1.108758e+003
5.878703e+002, 1.109151e+003
5.883524e+002, 1.109576e+003
5.888345e+002, 1.110418e+003
5.893167e+002, 1.111300e+003
5.897988e+002, 1.111807e+003
5.902809e+002, 1.111229e+003
5.907630e+002, 1.112030e+003
5.912451e+002, 1.114856e+003
5.917272e+002, 1.118678e+003
5.922094e+002, 1.121747e+003
5.926915e+002, 1.124046e+003
5.931736e+002, 1.125473e+003
5.936557e+002, 1.125650e+003
5.941378e+002, 1.125166e+003
5.946199e+002, 1.125418e+003
5.951021e+002, 1.126350e+003
5.955842e+002, 1.127492e+003
5.960663e+002, 1.128692e+003
5.965484e+002, 1.129850e+003
5.970305e+002, 1.130754e+003
5.975126e+002, 1.131368e+003
5.979948e+002, 1.132245e+003
5.984769e+002, 1.133841e+003
5.989590e+002, 1.135741e+003
5.994411e+002, 1.137612e+003
5.999232e+002, 1.139443e+003
6.004053e+002, 1.141174e+003
6.008875e+002, 1.142583e+003
6.013696e+002, 1.143954e+003
6.018517e+002, 1.145756e+003
6.023338e+002, 1.148494e+003
6.028159e+002, 1.150636e+003
6.032980e+002, 1.151843e+003
6.037802e+002, 1.152282e+003
6.042623e+002, 1.152293e+003
6.047444e+002, 1.151727e+003
6.052265e+002, 1.151939e+003
6.057086e+002, 1.154334e+003
6.061907e+002, 1.158059e+003
6.066729e+002, 1.159864e+003
6.071550e+002, 1.159771e+003
6.076371e+002, 1.159758e+003
6.081192e+002, 1.161822e+003
6.086013e+002, 1.164726e+003
6.090834e+002, 1.166818e+003
6.095656e+002, 1.167739e+003
6.100477e+002, 1.168307e+003
6.105298e+002, 1.168576e+003
6.110119e+002, 1.168921e+003
6.114940e+002, 1.169772e+003
6.119761e+002, 1.171913e+003
6.124583e+002, 1.173796e+003
6.129404e+002, 1.175212e+003
6.134225e+002, 1.176264e+003
6.139046e+002, 1.177091e+003
6.143867e+002, 1.177327e+003
6.148688e+002, 1.178129e+003
6.153510e+002, 1.179994e+003
6.158331e+002, 1.182721e+003
6.163152e+002, 1.185054e+003
6.167973e+002, 1.186924e+003
6.172794e+002, 1.188797e+003
6.177615e+002, 1.191052e+003
6.182437e+002, 1.193481e+003
6.187258e+002, 1.195576e+003
6.192079e+002, 1.197299e+003
6.196900e+002, 1.198821e+003
6.201721e+002, 1.200449e+003
6.206542e+002, 1.201885e+003
6.211364e+002, 1.202658e+003
6.216185e+002, 1.202276e+003
6.221006e+002, 1.202124e+003
6.225827e+002, 1.203237e+003
6.230648e+002, 1.204845e+003
6.235469e+002, 1.205865e+003
6.240291e+002, 1.205625e+003
6.245112e+002, 1.205436e+003
6.249933e+002, 1.205464e+003
6.254754e+002, 1.205719e+003
6.259575e+002, 1.206206e+003
6.264396e+002, 1.207037e+003
6.269218e+002, 1.207839e+003
6.274039e+002, 1.208357e+003
6.278860e+002, 1.208713e+003
6.283681e+002, 1.209805e+003
6.288502e+002, 1.211663e+003
6.293323e+002, 1.213368e+003
6.298145e+002, 1.213945e+003
6.302966e+002, 1.213942e+003
6.307787e+002, 1.214552e+003
6.312608e+002, 1.215933e+003
6.317429e+002, 1.217155e+003
6.322250e+002, 1.217154e+003
6.327072e+002, 1.216779e+003
6.331893e+002, 1.216951e+003
6.336714e+002, 1.218022e+003
6.341535e+002, 1.219405e+003
6.346356e+002, 1.221564e+003
6.351177e+002, 1.223754e+003
6.355999e+002, 1.224781e+003
6.360820e+002, 1.223624e+003
6.365641e+002, 1.222961e+003
6.370462e+002, 1.223390e+003
6.375283e+002, 1.224569e+003
6.380104e+002, 1.225350e+003
6.384926e+002, 1.225688e+003
6.389747e+002, 1.225994e+003
6.394568e+002, 1.226415e+003
6.399389e+002, 1.226978e+003
6.404210e+002, 1.228047e+003
6.409031e+002, 1.229579e+003
6.413853e+002, 1.230485e+003
6.418674e+002, 1.229027e+003
6.423495e+002, 1.226982e+003
6.428316e+002, 1.226702e+003
6.433137e+002, 1.228602e+003
6.437958e+002, 1.230539e+003
6.442780e+002, 1.231725e+003
6.447601e+002, 1.232306e+003
6.452422e+002, 1.232346e+003
6.457243e+002, 1.230863e+003
6.462064e+002, 1.230398e+003
6.466885e+002, 1.231622e+003
6.471707e+002, 1.233545e+003
6.476528e+002, 1.234914e+003
6.481349e+002, 1.235750e+003
6.486170e+002, 1.235854e+003
6.490991e+002, 1.234895e+003
6.495812e+002, 1.233465e+003
6.500634e+002, 1.233034e+003
6.505455e+002, 1.233535e+003
6.510276e+002, 1.234049e+003
6.515097e+002, 1.234024e+003
6.519918e+002, 1.233843e+003
6.524739e+002, 1.234227e+003
6.529561e+002, 1.235056e+003
6.534382e+002, 1.235698e+003
6.539203e+002, 1.235577e+003
6.544024e+002, 1.235290e+003
6.548845e+002, 1.235248e+003
6.553666e+002, 1.235512e+003
6.558488e+002, 1.235778e+003
6.563309e+002, 1.236086e+003
6.568130e+002, 1.236301e+003
6.572951e+002, 1.236422e+003
6.577772e+002, 1.236765e+003
6.582593e+002, 1.236092e+003
6.587415e+002, 1.234104e+003
6.592236e+002, 1.231589e+003
6.597057e+002, 1.229089e+003
6.601878e+002, 1.226635e+003
6.606699e+002, 1.225688e+003
6.611520e+002, 1.226930e+003
6.616342e+002, 1.228742e+003
6.621163e+002, 1.228856e+003
6.625984e+002, 1.227690e+003
6.630805e+002, 1.226335e+003
6.635626e+002, 1.225155e+003
6.640447e+002, 1.224009e+003
6.645269e+002, 1.222980e+003
6.650090e+002, 1.221924e+003
6.654911e+002, 1.220399e+003
6.659732e+002, 1.217424e+003
6.664553e+002, 1.214799e+003
6.669374e+002, 1.213173e+003
6.674196e+002, 1.212508e+003
6.679017e+002, 1.212578e+003
6.683838e+002, 1.214036e+003
6.688659e+002, 1.215054e+003
6.693480e+002, 1.214666e+003
6.698301e+002, 1.212894e+003
6.703123e+002, 1.210758e+003
6.707944e+002, 1.208215e+003
6.712765e+002, 1.205584e+003
6.717586e+002, 1.202466e+003
6.722407e+002, 1.199523e+003
6.727228e+002, 1.198797e+003
6.732050e+002, 1.200948e+003
6.736871e+002, 1.202624e+003
6.741692e+002, 1.200854e+003
6.746513e+002, 1.197367e+003
6.751334e+002, 1.194170e+003
6.756155e+002, 1.191656e+003
6.760977e+002, 1.189555e+003
6.765798e+002, 1.188127e+003
6.770619e+002, 1.187004e+003
6.775440e+002, 1.185598e+003
6.780261e+002, 1.183473e+003
6.785082e+002, 1.182158e+003
6.789904e+002, 1.182408e+003
6.794725e+002, 1.183310e+003
6.799546e+002, 1.182248e+003
6.804367e+002, 1.179240e+003
6.809188e+002, 1.176114e+003
6.814009e+002, 1.173945e+003
6.818831e+002, 1.171997e+003
6.823652e+002, 1.168541e+003
6.828473e+002, 1.163917e+003
6.833294e+002, 1.159945e+003
6.838115e+002, 1.158129e+003
6.842936e+002, 1.156988e+003
6.847758e+002, 1.155425e+003
6.852579e+002, 1.153380e+003
6.857400e+002, 1.151388e+003
6.862221e+002, 1.149676e+003
6.867042e+002, 1.147986e+003
6.871863e+002, 1.146077e+003
6.876685e+002, 1.143749e+003
6.881506e+002, 1.142150e+003
6.886327e+002, 1.141520e+003
6.891148e+002, 1.141042e+003
6.895969e+002, 1.139879e+003
6.900790e+002, 1.138070e+003
6.905612e+002, 1.136669e+003
6.910433e+002, 1.135878e+003
6.915254e+002, 1.134930e+003
6.920075e+002, 1.133027e+003
6.924896e+002, 1.130334e+003
6.929717e+002, 1.127077e+003
6.934539e+002, 1.122924e+003
6.939360e+002, 1.119017e+003
6.944181e+002, 1.116071e+003
6.949002e+002, 1.113824e+003
6.953823e+002, 1.111859e+003
6.958644e+002, 1.110668e+003
6.963466e+002, 1.109108e+003
6.968287e+002, 1.106961e+003
6.973108e+002, 1.104403e+003
6.977929e+002, 1.101854e+003
6.982750e+002, 1.099272e+003
6.987571e+002, 1.097014e+003
6.992393e+002, 1.095380e+003
6.997214e+002, 1.094067e+003
7.002035e+002, 1.092114e+003
7.006856e+002, 1.089574e+003
7.011677e+002, 1.086941e+003
7.016498e+002, 1.084122e+003
7.021320e+002, 1.081583e+003
7.026141e+002, 1.080106e+003
7.030962e+002, 1.079554e+003
7.035783e+002, 1.078781e+003
7.040604e+002, 1.077065e+003
7.045425e+002, 1.075069e+003
7.050247e+002, 1.073081e+003
7.055068e+002, 1.071041e+003
7.059889e+002, 1.069384e+003
7.064710e+002, 1.068307e+003
7.069531e+002, 1.067327e+003
7.074352e+002, 1.066169e+003
7.079174e+002, 1.064840e+003
7.083995e+002, 1.063397e+003
7.088816e+002, 1.061880e+003
7.093637e+002, 1.060109e+003
7.098458e+002, 1.057442e+003
7.103279e+002, 1.054430e+003
7.108101e+002, 1.052615e+003
7.112922e+002, 1.052604e+003
7.117743e+002, 1.052442e+003
7.122564e+002, 1.050219e+003
7.127385e+002, 1.047183e+003
7.132206e+002, 1.044819e+003
7.137028e+002, 1.044086e+003
7.141849e+002, 1.043319e+003
7.146670e+002, 1.042200e+003
7.151491e+002, 1.040911e+003
7.156312e+002, 1.039652e+003
7.161133e+002, 1.038396e+003
7.165955e+002, 1.037246e+003
7.170776e+002, 1.036187e+003
7.175597e+002, 1.035277e+003
7.180418e+002, 1.034608e+003
7.185239e+002, 1.034181e+003
7.190060e+002, 1.034239e+003
7.194882e+002, 1.035526e+003
7.199703e+002, 1.036600e+003
7.204524e+002, 1.034971e+003
7.209345e+002, 1.031549e+003
7.214166e+002, 1.029003e+003
7.218987e+002, 1.029484e+003
7.223809e+002, 1.030275e+003
7.228630e+002, 1.030126e+003
7.233451e+002, 1.029094e+003
7.238272e+002, 1.028051e+003
7.243093e+002, 1.027157e+003
7.247914e+002, 1.026097e+003
7.252736e+002, 1.024587e+003
7.257557e+002, 1.022734e+003
7.262378e+002, 1.021865e+003
7.267199e+002, 1.022063e+003
7.272020e+002, 1.022584e+003
7.276841e+002, 1.023297e+003
7.281663e+002, 1.023907e+003
7.286484e+002, 1.023522e+003
7.291305e+002, 1.022160e+003
7.296126e+002, 1.020869e+003
7.300947e+002, 1.020500e+003
7.305768e+002, 1.020396e+003
7.310590e+002, 1.020009e+003
7.315411e+002, 1.019196e+003
7.320232e+002, 1.018434e+003
7.325053e+002, 1.017288e+003
7.329874e+002, 1.016619e+003
7.334695e+002, 1.017104e+003
7.339517e+002, 1.019253e+003
7.344338e+002, 1.020758e+003
7.349159e+002, 1.021633e+003
7.353980e+002, 1.021822e+003
7.358801e+002, 1.020935e+003
7.363622e+002, 1.019248e+003
7.368444e+002, 1.017831e+003
7.373265e+002, 1.016805e+003
7.378086e+002, 1.016366e+003
7.382907e+002, 1.017166e+003
7.387728e+002, 1.018516e+003
7.392549e+002, 1.019570e+003
7.397371e+002, 1.020488e+003
7.402192e+002, 1.020458e+003
7.407013e+002, 1.017864e+003
7.411834e+002, 1.014799e+003
7.416655e+002, 1.014141e+003
7.421476e+002, 1.017281e+003
7.426298e+002, 1.019349e+003
7.431119e+002, 1.019214e+003
7.435940e+002, 1.018458e+003
7.440761e+002, 1.020563e+003
7.445582e+002, 1.025134e+003
7.450403e+002, 1.028313e+003
7.455225e+002, 1.028434e+003
7.460046e+002, 1.027510e+003
7.464867e+002, 1.028002e+003
7.469688e+002, 1.029348e+003
7.474509e+002, 1.030351e+003
7.479330e+002, 1.030296e+003
7.484152e+002, 1.030036e+003
7.488973e+002, 1.029804e+003
7.493794e+002, 1.029634e+003
7.498615e+002, 1.029570e+003
7.503436e+002, 1.029329e+003
7.508257e+002, 1.029829e+003
7.513079e+002, 1.031766e+003
7.517900e+002, 1.034458e+003
7.522721e+002, 1.035115e+003
7.527542e+002, 1.033759e+003
7.532363e+002, 1.032272e+003
7.537184e+002, 1.031324e+003
7.542006e+002, 1.030983e+003
7.546827e+002, 1.031744e+003
7.551648e+002, 1.033329e+003
7.556469e+002, 1.034532e+003
7.561290e+002, 1.033883e+003
7.566111e+002, 1.033469e+003
7.570933e+002, 1.034844e+003
7.575754e+002, 1.037885e+003
7.580575e+002, 1.039803e+003
7.585396e+002, 1.039839e+003
7.590217e+002, 1.039625e+003
7.595038e+002, 1.039653e+003
7.599860e+002, 1.039931e+003
7.604681e+002, 1.040711e+003
7.609502e+002, 1.042009e+003
7.614323e+002, 1.043530e+003
7.619144e+002, 1.045209e+003
7.623965e+002, 1.046926e+003
7.628787e+002, 1.048347e+003
7.633608e+002, 1.049499e+003
7.638429e+002, 1.050888e+003
7.643250e+002, 1.053597e+003
7.648071e+002, 1.056035e+003
7.652892e+002, 1.056744e+003
7.657714e+002, 1.055291e+003
7.662535e+002, 1.054934e+003
7.667356e+002, 1.056153e+003
7.672177e+002, 1.058099e+003
7.676998e+002, 1.060594e+003
7.681819e+002, 1.063756e+003
7.686641e+002, 1.065666e+003
7.691462e+002, 1.066199e+003
7.696283e+002, 1.066350e+003
7.701104e+002, 1.066899e+003
7.705925e+002, 1.067669e+003
7.710746e+002, 1.068260e+003
7.715568e+002, 1.068620e+003
7.720389e+002, 1.069159e+003
7.725210e+002, 1.069680e+003
7.730031e+002, 1.070773e+003
7.734852e+002, 1.073208e+003
7.739673e+002, 1.077989e+003
7.744495e+002, 1.081019e+003
7.749316e+002, 1.081250e+003
7.754137e+002, 1.080807e+003
7.758958e+002, 1.081218e+003
7.763779e+002, 1.082544e+003
7.768600e+002, 1.084140e+003
7.773422e+002, 1.086085e+003
7.778243e+002, 1.087762e+003
7.783064e+002, 1.088141e+003
7.787885e+002, 1.087926e+003
7.792706e+002, 1.088658e+003
7.797527e+002, 1.090795e+003
7.802349e+002, 1.092537e+003
7.807170e+002, 1.092090e+003
7.811991e+002, 1.091197e+003
7.816812e+002, 1.091444e+003
7.821633e+002, 1.093935e+003
7.826454e+002, 1.095910e+003
7.831276e+002, 1.097244e+003
7.836097e+002, 1.098225e+003
7.840918e+002, 1.098797e+003
7.845739e+002, 1.098921e+003
7.850560e+002, 1.100745e+003
7.855381e+002, 1.104800e+003
7.860203e+002, 1.108711e+003
7.865024e+002, 1.109281e+003
7.869845e+002, 1.108021e+003
7.874666e+002, 1.107599e+003
7.879487e+002, 1.108818e+003
7.884308e+002, 1.110193e+003
7.889130e+002, 1.110819e+003
7.893951e+002, 1.111328e+003
7.898772e+002, 1.112408e+003
7.903593e+002, 1.114468e+003
7.908414e+002, 1.116418e+003
7.913235e+002, 1.118289e+003
7.918057e+002, 1.119945e+003
7.922878e+002, 1.121055e+003
7.927699e+002, 1.121667e+003
7.932520e+002, 1.122451e+003
7.937341e+002, 1.123499e+003
7.942162e+002, 1.124750e+003
7.946984e+002, 1.126737e+003
7.951805e+002, 1.128712e+003
7.956626e+002, 1.129403e+003
7.961447e+002, 1.128033e+003
7.966268e+002, 1.126515e+003
7.971089e+002, 1.125212e+003
7.975911e+002, 1.124300e+003
7.980732e+002, 1.124029e+003
7.985553e+002, 1.125020e+003
7.990374e+002, 1.125111e+003
7.995195e+002, 1.123865e+003
8.000016e+002, 1.122340e+003
8.004838e+002, 1.121973e+003
8.009659e+002, 1.122585e+003
8.014480e+002, 1.123255e+003
8.019301e+002, 1.123975e+003
8.024122e+002, 1.124057e+003
8.028943e+002, 1.122051e+003
8.033765e+002, 1.119304e+003
8.038586e+002, 1.117586e+003
8.043407e+002, 1.117842e+003
8.048228e+002, 1.118221e+003
8.053049e+002, 1.118435e+003
8.057870e+002, 1.118521e+003
8.062692e+002, 1.118479e+003
8.067513e+002, 1.118246e+003
8.072334e+002, 1.118097e+003
8.077155e+002, 1.118071e+003
8.081976e+002, 1.118036e+003
8.086797e+002, 1.118275e+003
8.091619e+002, 1.118361e+003
8.096440e+002, 1.116715e+003
8.101261e+002, 1.112450e+003
8.106082e+002, 1.108542e+003
8.110903e+002, 1.107744e+003
8.115724e+002, 1.108271e+003
8.120546e+002, 1.108177e+003
8.125367e+002, 1.106502e+003
8.130188e+002, 1.105199e+003
8.135009e+002, 1.104584e+003
8.139830e+002, 1.104187e+003
8.144651e+002, 1.103545e+003
8.149473e+002, 1.102662e+003
8.154294e+002, 1.101572e+003
8.159115e+002, 1.100245e+003
8.163936e+002, 1.098914e+003
8.168757e+002, 1.098023e+003
8.173578e+002, 1.097273e+003
8.178400e+002, 1.095922e+003
8.183221e+002, 1.093412e+003
8.188042e+002, 1.091661e+003
8.192863e+002, 1.092422e+003
8.197684e+002, 1.093862e+003
8.202505e+002, 1.094193e+003
8.207327e+002, 1.092834e+003
8.212148e+002, 1.091470e+003
8.216969e+002, 1.090162e+003
8.221790e+002, 1.088655e+003
8.226611e+002, 1.086516e+003
8.231432e+002, 1.083859e+003
8.236254e+002, 1.081894e+003
8.241075e+002, 1.080858e+003
8.245896e+002, 1.079367e+003
8.250717e+002, 1.075356e+003
8.255538e+002, 1.070610e+003
8.260359e+002, 1.067420e+003
8.265181e+002, 1.066821e+003
8.270002e+002, 1.065593e+003
8.274823e+002, 1.062560e+003
8.279644e+002, 1.059040e+003
8.284465e+002, 1.055729e+003
8.289286e+002, 1.052582e+003
8.294108e+002, 1.050236e+003
8.298929e+002, 1.048851e+003
8.303750e+002, 1.047734e+003
8.308571e+002, 1.046417e+003
8.313392e+002, 1.044869e+003
8.318214e+002, 1.043105e+003
8.323035e+002, 1.041159e+003
8.327856e+002, 1.038449e+003
8.332677e+002, 1.033171e+003
8.337498e+002, 1.028016e+003
8.342319e+002, 1.025224e+003
8.347141e+002, 1.025767e+003
8.351962e+002, 1.025667e+003
8.356783e+002, 1.024883e+003
8.361604e+002, 1.023469e+003
8.366425e+002, 1.021289e+003
8.371246e+002, 1.018390e+003
8.376068e+002, 1.015490e+003
8.380889e+002, 1.012590e+003
8.385710e+002, 1.010135e+003
8.390531e+002, 1.008921e+003
8.395352e+002, 1.008059e+003
8.400173e+002, 1.006576e+003
8.404995e+002, 1.004403e+003
8.409816e+002, 1.002152e+003
8.414637e+002, 1.000258e+003
8.419458e+002, 9.980900e+002
8.424279e+002, 9.952773e+002
8.429100e+002, 9.918311e+002
8.433922e+002, 9.883929e+002
8.438743e+002, 9.848049e+002
8.443564e+002, 9.820436e+002
8.448385e+002, 9.813840e+002
8.453206e+002, 9.817611e+002
8.458027e+002, 9.807977e+002
8.462849e+002, 9.785975e+002
8.467670e+002, 9.757596e+002
8.472491e+002, 9.720536e+002
8.477312e+002, 9.683381e+002
8.482133e+002, 9.650654e+002
8.486954e+002, 9.622484e+002
8.491776e+002, 9.597076e+002
8.496597e+002, 9.574576e+002
8.501418e+002, 9.554804e+002
8.506239e+002, 9.539792e+002
8.511060e+002, 9.526849e+002
8.515881e+002, 9.504525e+002
8.520703e+002, 9.474231e+002
8.525524e+002, 9.447313e+002
8.530345e+002, 9.430383e+002
8.535166e+002, 9.418692e+002
8.539987e+002, 9.412386e+002
8.544808e+002, 9.407627e+002
8.549630e+002, 9.394746e+002
8.554451e+002, 9.357722e+002
8.559272e+002, 9.328713e+002
8.564093e+002, 9.319697e+002
8.568914e+002, 9.319693e+002
8.573735e+002, 9.300380e+002
8.578557e+002, 9.259499e+002
8.583378e+002, 9.225646e+002
8.588199e+002, 9.208425e+002
8.593020e+002, 9.196935e+002
8.597841e+002, 9.172889e+002
8.602662e+002, 9.142806e+002
8.607484e+002, 9.121384e+002
8.612305e+002, 9.126152e+002
8.617126e+002, 9.121876e+002
8.621947e+002, 9.082871e+002
8.626768e+002, 9.032810e+002
8.631589e+002, 9.006972e+002
8.636411e+002, 9.017725e+002
8.641232e+002, 9.016029e+002
8.646053e+002, 8.994762e+002
8.650874e+002, 8.966612e+002
8.655695e+002, 8.950444e+002
8.660516e+002, 8.941107e+002
8.665338e+002, 8.920036e+002
8.670159e+002, 8.880827e+002
8.674980e+002, 8.843951e+002
8.679801e+002, 8.826181e+002
8.684622e+002, 8.816172e+002
8.689443e+002, 8.802789e+002
8.694265e+002, 8.783304e+002
8.699086e+002, 8.762540e+002
8.703907e+002, 8.740479e+002
8.708728e+002, 8.717402e+002
8.713549e+002, 8.693205e+002
8.718370e+002, 8.668027e+002
8.723192e+002, 8.644519e+002
8.728013e+002, 8.622468e+002
8.732834e+002, 8.602114e+002
8.737655e+002, 8.582325e+002
8.742476e+002, 8.565010e+002
8.747297e+002, 8.555276e+002
8.752119e+002, 8.553710e+002
8.756940e+002, 8.543059e+002
8.761761e+002, 8.510781e+002
8.766582e+002, 8.477082e+002
8.771403e+002, 8.448951e+002
8.776224e+002, 8.426241e+002
8.781046e+002, 8.409545e+002
8.785867e+002, 8.399445e+002
8.790688e+002, 8.385052e+002
8.795509e+002, 8.353614e+002
8.800330e+002, 8.318188e+002
8.805151e+002, 8.302402e+002
8.809973e+002, 8.300466e+002
8.814794e+002, 8.289721e+002
8.819615e+002, 8.249056e+002
8.824436e+002, 8.210638e+002
8.829257e+002, 8.187576e+002
8.834078e+002, 8.175817e+002
8.838900e+002, 8.163739e+002
8.843721e+002, 8.151596e+002
8.848542e+002, 8.137523e+002
8.853363e+002, 8.120439e+002
8.858184e+002, 8.101896e+002
8.863005e+002, 8.084614e+002
8.867827e+002, 8.067941e+002
8.872648e+002, 8.050543e+002
8.877469e+002, 8.031326e+002
8.882290e+002, 8.012081e+002
8.887111e+002, 7.994895e+002
8.891932e+002, 7.977579e+002
8.896754e+002, 7.956063e+002
8.901575e+002, 7.925729e+002
8.906396e+002, 7.905206e+002
8.911217e+002, 7.899313e+002
8.916038e+002, 7.895922e+002
8.920859e+002, 7.878768e+002
8.925681e+002, 7.851636e+002
8.930502e+002, 7.824495e+002
8.935323e+002, 7.798442e+002
8.940144e+002, 7.778203e+002
8.944965e+002, 7.774839e+002
8.949786e+002, 7.773925e+002
8.954608e+002, 7.761732e+002
8.959429e+002, 7.732219e+002
8.964250e+002, 7.709326e+002
8.969071e+002, 7.695809e+002
8.973892e+002, 7.683609e+002
8.978713e+002, 7.666200e+002
8.983535e+002, 7.644989e+002
8.988356e+002, 7.631656e+002
8.993177e+002, 7.625491e+002
8.997998e+002, 7.615222e+002
9.002819e+002, 7.588835e+002
9.007640e+002, 7.558991e+002
9.012462e+002, 7.534216e+002
9.017283e+002, 7.514929e+002
9.022104e+002, 7.497957e+002
9.026925e+002, 7.484629e+002
9.031746e+002, 7.470944e+002
9.036567e+002, 7.454188e+002
9.041389e+002, 7.437101e+002
9.046210e+002, 7.432904e+002
9.051031e+002, 7.439145e+002
9.055852e+002, 7.433163e+002
9.060673e+002, 7.398615e+002
9.065494e+002, 7.357839e+002
9.070316e+002, 7.328301e+002
9.075137e+002, 7.307508e+002
9.079958e+002, 7.290723e+002
9.084779e+002, 7.280827e+002
9.089600e+002, 7.269828e+002
9.094421e+002, 7.257610e+002
9.099243e+002, 7.243407e+002
9.104064e+002, 7.223842e+002
9.108885e+002, 7.199561e+002
9.113706e+002, 7.181417e+002
9.118527e+002, 7.171712e+002
9.123348e+002, 7.163964e+002
9.128170e+002, 7.153903e+002
9.132991e+002, 7.141334e+002
9.137812e+002, 7.125342e+002
9.142633e+002, 7.104616e+002
9.147454e+002, 7.085765e+002
9.152275e+002, 7.070781e+002
9.157097e+002, 7.056751e+002
9.161918e+002, 7.042190e+002
9.166739e+002, 7.027109e+002
9.171560e+002, 7.010426e+002
9.176381e+002, 6.992222e+002
9.181202e+002, 6.977618e+002
9.186024e+002, 6.976764e+002
9.190845e+002, 6.976783e+002
9.195666e+002, 6.960396e+002
9.200487e+002, 6.930606e+002
9.205308e+002, 6.906176e+002
9.210129e+002, 6.895897e+002
9.214951e+002, 6.887858e+002
9.219772e+002, 6.880234e+002
9.224593e+002, 6.872004e+002
9.229414e+002, 6.859506e+002
9.234235e+002, 6.842861e+002
9.239056e+002, 6.825724e+002
9.243878e+002, 6.808193e+002
9.248699e+002, 6.792712e+002
9.253520e+002, 6.785577e+002
9.258341e+002, 6.781171e+002
9.263162e+002, 6.770301e+002
9.267983e+002, 6.743644e+002
9.272805e+002, 6.720652e+002
9.277626e+002, 6.703438e+002
9.282447e+002, 6.690543e+002
9.287268e+002, 6.683274e+002
9.292089e+002, 6.681882e+002
9.296910e+002, 6.669598e+002
9.301732e+002, 6.644593e+002
9.306553e+002, 6.618795e+002
9.311374e+002, 6.601615e+002
9.316195e+002, 6.590609e+002
9.321016e+002, 6.584206e+002
9.325837e+002, 6.582556e+002
9.330659e+002, 6.579188e+002
9.335480e+002, 6.574866e+002
9.340301e+002, 6.565405e+002
9.345122e+002, 6.547166e+002
9.349943e+002, 6.521751e+002
9.354764e+002, 6.501200e+002
9.359586e+002, 6.485173e+002
9.364407e+002, 6.473976e+002
9.369228e+002, 6.472504e+002
9.374049e+002, 6.470860e+002
9.378870e+002, 6.456791e+002
9.383691e+002, 6.434666e+002
9.388513e+002, 6.414965e+002
9.393334e+002, 6.405727e+002
9.398155e+002, 6.391623e+002
9.402976e+002, 6.368695e+002
9.407797e+002, 6.342631e+002
9.412618e+002, 6.323275e+002
9.417440e+002, 6.310201e+002
9.422261e+002, 6.296039e+002
9.427082e+002, 6.279166e+002
9.431903e+002, 6.262874e+002
9.436724e+002, 6.248056e+002
9.441545e+002, 6.236895e+002
9.446367e+002, 6.232968e+002
9.451188e+002, 6.239639e+002
9.456009e+002, 6.241448e+002
9.460830e+002, 6.235941e+002
9.465651e+002, 6.227040e+002
9.470472e+002, 6.215971e+002
9.475294e+002, 6.202955e+002
9.480115e+002, 6.191967e+002
9.484936e+002, 6.182806e+002
9.489757e+002, 6.174327e+002
9.494578e+002, 6.167702e+002
9.499399e+002, 6.159915e+002
9.504221e+002, 6.147805e+002
9.509042e+002, 6.132516e+002
9.513863e+002, 6.118760e+002
9.518684e+002, 6.108947e+002
9.523505e+002, 6.097276e+002
9.528326e+002, 6.081868e+002
9.533148e+002, 6.065744e+002
9.537969e+002, 6.054813e+002
9.542790e+002, 6.048259e+002
9.547611e+002, 6.041985e+002
9.552432e+002, 6.034617e+002
9.557253e+002, 6.028978e+002
9.562075e+002, 6.031947e+002
9.566896e+002, 6.034705e+002
9.571717e+002, 6.026744e+002
9.576538e+002, 6.000829e+002
9.581359e+002, 5.985696e+002
9.586180e+002, 5.985101e+002
9.591002e+002, 5.985270e+002
9.595823e+002, 5.972823e+002
9.600644e+002, 5.953358e+002
9.605465e+002, 5.945566e+002
9.610286e+002, 5.948425e+002
9.615107e+002, 5.951925e+002
9.619929e+002, 5.953982e+002
9.624750e+002, 5.951629e+002
9.629571e+002, 5.937684e+002
9.634392e+002, 5.917772e+002
9.639213e+002, 5.913096e+002
9.644034e+002, 5.928698e+002
9.648856e+002, 5.940235e+002
9.653677e+002, 5.942745e+002
9.658498e+002, 5.936545e+002
9.663319e+002, 5.915467e+002
9.668140e+002, 5.887325e+002
9.672961e+002, 5.870098e+002
9.677783e+002, 5.873373e+002
9.682604e+002, 5.874359e+002
9.687425e+002, 5.860333e+002
9.692246e+002, 5.843689e+002
9.697067e+002, 5.835455e+002
9.701888e+002, 5.838332e+002
9.706710e+002, 5.828466e+002
9.711531e+002, 5.804384e+002
9.716352e+002, 5.782028e+002
9.721173e+002, 5.775411e+002
9.725994e+002, 5.776835e+002
9.730815e+002, 5.778696e+002
9.735637e+002, 5.779872e+002
9.740458e+002, 5.776699e+002
9.745279e+002, 5.761544e+002
9.750100e+002, 5.749860e+002
9.754921e+002, 5.746949e+002
9.759742e+002, 5.748966e+002
9.764564e+002, 5.747227e+002
9.769385e+002, 5.741773e+002
9.774206e+002, 5.731354e+002
9.779027e+002, 5.713707e+002
9.783848e+002, 5.697936e+002
9.788669e+002, 5.695009e+002
9.793491e+002, 5.697958e+002
9.798312e+002, 5.698478e+002
9.803133e+002, 5.694467e+002
9.807954e+002, 5.689408e+002
9.812775e+002, 5.682818e+002
9.817596e+002, 5.676207e+002
9.822418e+002, 5.671011e+002
9.827239e+002, 5.666641e+002
9.832060e+002, 5.658782e+002
9.836881e+002, 5.648009e+002
9.841702e+002, 5.640170e+002
9.846523e+002, 5.642469e+002
9.851345e+002, 5.645104e+002
9.856166e+002, 5.640698e+002
9.860987e+002, 5.631539e+002
9.865808e+002, 5.627339e+002
9.870629e+002, 5.630852e+002
9.875450e+002, 5.630360e+002
9.880272e+002, 5.622944e+002
9.885093e+002, 5.612286e+002
9.889914e+002, 5.602723e+002
9.894735e+002, 5.594527e+002
9.899556e+002, 5.588068e+002
9.904377e+002, 5.583170e+002
9.909199e+002, 5.581436e+002
9.914020e+002, 5.589276e+002
9.918841e+002, 5.595530e+002
9.923662e+002, 5.591055e+002
9.928483e+002, 5.575388e+002
9.933304e+002, 5.570433e+002
9.938126e+002, 5.576902e+002
9.942947e+002, 5.581648e+002
9.947768e+002, 5.574871e+002
9.952589e+002, 5.562919e+002
9.957410e+002, 5.550320e+002
9.962231e+002, 5.538732e+002
9.967053e+002, 5.532399e+002
9.971874e+002, 5.539477e+002
9.976695e+002, 5.542246e+002
9.981516e+002, 5.535859e+002
9.986337e+002, 5.526941e+002
9.991158e+002, 5.526716e+002
9.995980e+002, 5.533752e+002
1.000080e+003, 5.538353e+002
1.000562e+003, 5.539219e+002
1.001044e+003, 5.536862e+002
1.001526e+003, 5.531431e+002
1.002009e+003, 5.523198e+002
1.002491e+003, 5.510840e+002
1.002973e+003, 5.493471e+002
1.003455e+003, 5.482584e+002
1.003937e+003, 5.478932e+002
1.004419e+003, 5.480009e+002
1.004901e+003, 5.487469e+002
1.005383e+003, 5.496516e+002
1.005865e+003, 5.494940e+002
1.006348e+003, 5.486094e+002
1.006830e+003, 5.479512e+002
1.007312e+003, 5.481299e+002
1.007794e+003, 5.483466e+002
1.008276e+003, 5.484246e+002
1.008758e+003, 5.483578e+002
1.009240e+003, 5.481090e+002
1.009722e+003, 5.476588e+002
1.010205e+003, 5.471310e+002
1.010687e+003, 5.465031e+002
1.011169e+003, 5.460107e+002
1.011651e+003, 5.458323e+002
1.012133e+003, 5.459117e+002
1.012615e+003, 5.464503e+002
1.013097e+003, 5.473875e+002
1.013579e+003, 5.475310e+002
1.014061e+003, 5.460563e+002
1.014544e+003, 5.448641e+002
1.015026e+003, 5.445704e+002
1.015508e+003, 5.448449e+002
1.015990e+003, 5.450045e+002
1.016472e+003, 5.450256e+002
1.016954e+003, 5.447587e+002
1.017436e+003, 5.439924e+002
1.017918e+003, 5.433459e+002
1.018401e+003, 5.434703e+002
1.018883e+003, 5.437352e+002
1.019365e+003, 5.434601e+002
1.019847e+003, 5.424720e+002
1.020329e+003, 5.417491e+002
1.020811e+003, 5.413064e+002
1.021293e+003, 5.410648e+002
1.021775e+003, 5.411398e+002
1.022257e+003, 5.412853e+002
1.022740e+003, 5.411066e+002
1.023222e+003, 5.406473e+002
1.023704e+003, 5.400990e+002
1.024186e+003, 5.391549e+002
1.024668e+003, 5.386332e+002
1.025150e+003, 5.388040e+002
1.025632e+003, 5.393474e+002
1.026114e+003, 5.398002e+002
1.026596e+003, 5.401492e+002
1.027079e+003, 5.403577e+002
1.027561e+003, 5.404100e+002
1.028043e+003, 5.403787e+002
1.028525e+003, 5.403736e+002
1.029007e+003, 5.402750e+002
1.029489e+003, 5.399310e+002
1.029971e+003, 5.393189e+002
1.030453e+003, 5.387813e+002
1.030936e+003, 5.382338e+002
1.031418e+003, 5.381111e+002
1.031900e+003, 5.389000e+002
1.032382e+003, 5.398903e+002
1.032864e+003, 5.394073e+002
1.033346e+003, 5.380131e+002
1.033828e+003, 5.370573e+002
1.034310e+003, 5.373602e+002
1.034792e+003, 5.376379e+002
1.035275e+003, 5.376474e+002
1.035757e+003, 5.374512e+002
1.036239e+003, 5.370151e+002
1.036721e+003, 5.363459e+002
1.037203e+003, 5.360320e+002
1.037685e+003, 5.360969e+002
1.038167e+003, 5.358909e+002
1.038649e+003, 5.344478e+002
1.039132e+003, 5.329653e+002
1.039614e+003, 5.322061e+002
1.040096e+003, 5.322531e+002
1.040578e+003, 5.333424e+002
1.041060e+003, 5.364758e+002
1.041542e+003, 5.377739e+002
1.042024e+003, 5.359757e+002
1.042506e+003, 5.332601e+002
1.042989e+003, 5.330266e+002
1.043471e+003, 5.343029e+002
1.043953e+003, 5.351251e+002
1.044435e+003, 5.351172e+002
1.044917e+003, 5.346437e+002
1.045399e+003, 5.333776e+002
1.045881e+003, 5.321304e+002
1.046363e+003, 5.312032e+002
1.046845e+003, 5.306393e+002
1.047328e+003, 5.309863e+002
1.047810e+003, 5.321922e+002
1.048292e+003, 5.332154e+002
1.048774e+003, 5.336335e+002
1.049256e+003, 5.336346e+002
1.049738e+003, 5.331921e+002
1.050220e+003, 5.325004e+002
1.050702e+003, 5.318361e+002
1.051184e+003, 5.310302e+002
1.051667e+003, 5.308253e+002
1.052149e+003, 5.314429e+002
1.052631e+003, 5.319689e+002
1.053113e+003, 5.312863e+002
1.053595e+003, 5.300658e+002
1.054077e+003, 5.296390e+002
1.054559e+003, 5.299752e+002
1.055041e+003, 5.304521e+002
1.055523e+003, 5.313555e+002
1.056006e+003, 5.316555e+002
1.056488e+003, 5.308904e+002
1.056970e+003, 5.295710e+002
1.057452e+003, 5.286894e+002
1.057934e+003, 5.282179e+002
1.058416e+003, 5.278007e+002
1.058898e+003, 5.273214e+002
1.059380e+003, 5.272397e+002
1.059863e+003, 5.285563e+002
1.060345e+003, 5.299641e+002
1.060827e+003, 5.301667e+002
1.061309e+003, 5.290645e+002
1.061791e+003, 5.285619e+002
1.062273e+003, 5.287901e+002
1.062755e+003, 5.289581e+002
1.063237e+003, 5.286446e+002
1.063719e+003, 5.281686e+002
1.064202e+003, 5.281422e+002
1.064684e+003, 5.282941e+002
1.065166e+003, 5.280865e+002
1.065648e+003, 5.269382e+002
1.066130e+003, 5.262042e+002
1.066612e+003, 5.262679e+002
1.067094e+003, 5.263940e+002
1.067576e+003, 5.257126e+002
1.068059e+003, 5.245014e+002
1.068541e+003, 5.245258e+002
1.069023e+003, 5.256932e+002
1.069505e+003, 5.270626e+002
1.069987e+003, 5.286581e+002
1.070469e+003, 5.296887e+002
1.070951e+003, 5.296272e+002
1.071433e+003, 5.287109e+002
1.071916e+003, 5.269308e+002
1.072398e+003, 5.239932e+002
1.072880e+003, 5.232007e+002
1.073362e+003, 5.252349e+002
1.073844e+003, 5.279191e+002
1.074326e+003, 5.296772e+002
1.074808e+003, 5.304995e+002
1.075290e+003, 5.299283e+002
1.075772e+003, 5.279526e+002
1.076255e+003, 5.271625e+002
1.076737e+003, 5.285516e+002
1.077219e+003, 5.290972e+002
1.077701e+003, 5.274902e+002
1.078183e+003, 5.249833e+002
1.078665e+003, 5.238836e+002
1.079147e+003, 5.238502e+002
1.079629e+003, 5.241281e+002
1.080111e+003, 5.245653e+002
1.080594e+003, 5.251390e+002
1.081076e+003, 5.263641e+002
1.081558e+003, 5.271757e+002
1.082040e+003, 5.266411e+002
1.082522e+003, 5.249785e+002
1.083004e+003, 5.247033e+002
1.083486e+003, 5.256746e+002
1.083968e+003, 5.265955e+002
1.084450e+003, 5.268451e+002
1.084933e+003, 5.267204e+002
1.085415e+003, 5.260203e+002
1.085897e+003, 5.252318e+002
1.086379e+003, 5.251870e+002
1.086861e+003, 5.262239e+002
1.087343e+003, 5.266608e+002
1.087825e+003, 5.263708e+002
1.088307e+003, 5.258693e+002
1.088790e+003, 5.255005e+002
1.089272e+003, 5.252556e+002
1.089754e+003, 5.252206e+002
1.090236e+003, 5.253304e+002
1.090718e+003, 5.251968e+002
1.091200e+003, 5.243582e+002
1.091682e+003, 5.240432e+002
1.092164e+003, 5.246385e+002
1.092646e+003, 5.255083e+002
1.093129e+003, 5.255184e+002
1.093611e+003, 5.250554e+002
1.094093e+003, 5.252803e+002
1.094575e+003, 5.264446e+002
1.095057e+003, 5.269948e+002
1.095539e+003, 5.254767e+002
1.096021e+003, 5.240011e+002
1.096503e+003, 5.235462e+002
1.096986e+003, 5.238178e+002
1.097468e+003, 5.235113e+002
1.097950e+003, 5.227576e+002
1.098432e+003, 5.227917e+002
1.098914e+003, 5.244035e+002
1.099396e+003, 5.258292e+002
1.099878e+003, 5.256893e+002
1.100360e+003, 5.247931e+002
1.100843e+003, 5.238163e+002
1.101325e+003, 5.227181e+002
1.101807e+003, 5.223869e+002
1.102289e+003, 5.229094e+002
1.102771e+003, 5.232521e+002
1.103253e+003, 5.226754e+002
1.103735e+003, 5.217653e+002
1.104217e+003, 5.209656e+002
1.104699e+003, 5.204066e+002
1.105182e+003, 5.203668e+002
1.105664e+003, 5.216390e+002
1.106146e+003, 5.219000e+002
1.106628e+003, 5.206901e+002
1.107110e+003, 5.195457e+002
1.107592e+003, 5.203568e+002
1.108074e+003, 5.220143e+002
1.108556e+003, 5.218838e+002
1.109038e+003, 5.202765e+002
1.109521e+003, 5.193359e+002
1.110003e+003, 5.205364e+002
1.110485e+003, 5.216627e+002
1.110967e+003, 5.223852e+002
1.111449e+003, 5.226482e+002
1.111931e+003, 5.221874e+002
1.112413e+003, 5.211709e+002
1.112895e+003, 5.203489e+002
1.113377e+003, 5.198055e+002
1.113860e+003, 5.193986e+002
1.114342e+003, 5.188625e+002
1.114824e+003, 5.186406e+002
1.115306e+003, 5.191344e+002
1.115788e+003, 5.200940e+002
1.116270e+003, 5.207299e+002
1.116752e+003, 5.210529e+002
1.117234e+003, 5.212642e+002
1.117717e+003, 5.213899e+002
1.118199e+003, 5.215223e+002
1.118681e+003, 5.220148e+002
1.119163e+003, 5.223596e+002
1.119645e+003, 5.218297e+002
1.120127e+003, 5.203453e+002
1.120609e+003, 5.198814e+002
1.121091e+003, 5.206365e+002
1.121573e+003, 5.210840e+002
1.122056e+003, 5.203370e+002
1.122538e+003, 5.193467e+002
1.123020e+003, 5.195665e+002
1.123502e+003, 5.202844e+002
1.123984e+003, 5.203730e+002
1.124466e+003, 5.192752e+002
1.124948e+003, 5.181564e+002
1.125430e+003, 5.167909e+002
1.125913e+003, 5.160630e+002
1.126395e+003, 5.171448e+002
1.126877e+003, 5.190122e+002
1.127359e+003, 5.191146e+002
1.127841e+003, 5.180377e+002
1.128323e+003, 5.173927e+002
1.128805e+003, 5.184550e+002
1.129287e+003, 5.190142e+002
1.129770e+003, 5.186738e+002
1.130252e+003, 5.179402e+002
1.130734e+003, 5.169968e+002
1.131216e+003, 5.160679e+002
1.131698e+003, 5.164232e+002
1.132180e+003, 5.178774e+002
1.132662e+003, 5.187579e+002
1.133144e+003, 5.172561e+002
1.133626e+003, 5.161046e+002
1.134109e+003, 5.164188e+002
1.134591e+003, 5.174993e+002
1.135073e+003, 5.185058e+002
1.135555e+003, 5.193890e+002
1.136037e+003, 5.195575e+002
1.136519e+003, 5.189317e+002
1.137001e+003, 5.181669e+002
1.137483e+003, 5.174825e+002
1.137965e+003, 5.170675e+002
1.138448e+003, 5.174500e+002
1.138930e+003, 5.181787e+002
1.139412e+003, 5.175955e+002
1.139894e+003, 5.156003e+002
1.140376e+003, 5.145154e+002
1.140858e+003, 5.149506e+002
1.141340e+003, 5.157498e+002
1.141822e+003, 5.158604e+002
1.142304e+003, 5.158145e+002
1.142787e+003, 5.162422e+002
1.143269e+003, 5.171555e+002
1.143751e+003, 5.173353e+002
1.144233e+003, 5.166072e+002
1.144715e+003, 5.160525e+002
1.145197e+003, 5.160490e+002
1.145679e+003, 5.163409e+002
1.146161e+003, 5.168628e+002
1.146644e+003, 5.173448e+002
1.147126e+003, 5.173708e+002
1.147608e+003, 5.166662e+002
1.148090e+003, 5.163435e+002
1.148572e+003, 5.165948e+002
1.149054e+003, 5.166599e+002
1.149536e+003, 5.160592e+002
1.150018e+003, 5.151835e+002
1.150500e+003, 5.144589e+002
1.150983e+003, 5.140370e+002
1.151465e+003, 5.142786e+002
1.151947e+003, 5.160204e+002
1.152429e+003, 5.168278e+002
1.152911e+003, 5.163024e+002
1.153393e+003, 5.153893e+002
1.153875e+003, 5.146366e+002
1.154357e+003, 5.140267e+002
1.154840e+003, 5.133998e+002
1.155322e+003, 5.128596e+002
1.155804e+003, 5.127606e+002
1.156286e+003, 5.140330e+002
1.156768e+003, 5.145571e+002
1.157250e+003, 5.136482e+002
1.157732e+003, 5.125419e+002
1.158214e+003, 5.125298e+002
1.158697e+003, 5.133049e+002
1.159179e+003, 5.135535e+002
1.159661e+003, 5.133049e+002
1.160143e+003, 5.129514e+002
1.160625e+003, 5.123290e+002
1.161107e+003, 5.121039e+002
1.161589e+003, 5.126438e+002
1.162071e+003, 5.134777e+002
1.162553e+003, 5.141776e+002
1.163036e+003, 5.146805e+002
1.163518e+003, 5.143338e+002
1.164000e+003, 5.131603e+002
1.164482e+003, 5.123353e+002
1.164964e+003, 5.128465e+002
1.165446e+003, 5.135974e+002
1.165928e+003, 5.142580e+002
1.166410e+003, 5.147128e+002
1.166892e+003, 5.146330e+002
1.167375e+003, 5.140635e+002
1.167857e+003, 5.135973e+002
1.168339e+003, 5.133082e+002
1.168821e+003, 5.131913e+002
1.169303e+003, 5.133656e+002
1.169785e+003, 5.135917e+002
1.170267e+003, 5.137830e+002
1.170749e+003, 5.138831e+002
1.171231e+003, 5.136174e+002
1.171714e+003, 5.129847e+002
1.172196e+003, 5.127376e+002
1.172678e+003, 5.130718e+002
1.173160e+003, 5.135266e+002
1.173642e+003, 5.137429e+002
1.174124e+003, 5.138923e+002
1.174606e+003, 5.141814e+002
1.175088e+003, 5.145573e+002
1.175571e+003, 5.145063e+002
1.176053e+003, 5.139882e+002
1.176535e+003, 5.140443e+002
1.177017e+003, 5.152097e+002
1.177499e+003, 5.162008e+002
1.177981e+003, 5.154166e+002
1.178463e+003, 5.141089e+002
1.178945e+003, 5.133860e+002
1.179427e+003, 5.133126e+002
1.179910e+003, 5.141332e+002
1.180392e+003, 5.160204e+002
1.180874e+003, 5.170274e+002
1.181356e+003, 5.161743e+002
1.181838e+003, 5.147419e+002
1.182320e+003, 5.137613e+002
1.182802e+003, 5.131706e+002
1.183284e+003, 5.129948e+002
1.183767e+003, 5.133087e+002
1.184249e+003, 5.133407e+002
1.184731e+003, 5.130622e+002
1.185213e+003, 5.127112e+002
1.185695e+003, 5.123663e+002
1.186177e+003, 5.120705e+002
1.186659e+003, 5.117272e+002
1.187141e+003, 5.115375e+002
1.187624e+003, 5.119519e+002
1.188106e+003, 5.134701e+002
1.188588e+003, 5.136725e+002
1.189070e+003, 5.123348e+002
1.189552e+003, 5.109980e+002
1.190034e+003, 5.105672e+002
1.190516e+003, 5.105988e+002
1.190998e+003, 5.107276e+002
1.191480e+003, 5.108614e+002
1.191963e+003, 5.108124e+002
1.192445e+003, 5.103576e+002
1.192927e+003, 5.101999e+002
1.193409e+003, 5.103281e+002
1.193891e+003, 5.107744e+002
1.194373e+003, 5.119424e+002
1.194855e+003, 5.131404e+002
1.195337e+003, 5.131923e+002
1.195819e+003, 5.126072e+002
1.196302e+003, 5.125427e+002
1.196784e+003, 5.135189e+002
1.197266e+003, 5.142590e+002
1.197748e+003, 5.147816e+002
1.198230e+003, 5.148788e+002
1.198712e+003, 5.138544e+002
1.199194e+003, 5.126832e+002
1.199676e+003, 5.130089e+002
1.200158e+003, 5.142770e+002
1.200641e+003, 5.149116e+002
1.201123e+003, 5.144665e+002
1.201605e+003, 5.138216e+002
1.202087e+003, 5.129428e+002
1.202569e+003, 5.122147e+002
1.203051e+003, 5.118651e+002
1.203533e+003, 5.119649e+002
1.204015e+003, 5.129334e+002
1.204498e+003, 5.144542e+002
1.204980e+003, 5.154551e+002
1.205462e+003, 5.158726e+002
1.205944e+003, 5.154241e+002
1.206426e+003, 5.138155e+002
1.206908e+003, 5.123781e+002
1.207390e+003, 5.128405e+002
1.207872e+003, 5.139621e+002
1.208354e+003, 5.138685e+002
1.208837e+003, 5.128815e+002
1.209319e+003, 5.129786e+002
1.209801e+003, 5.152538e+002
1.210283e+003, 5.161347e+002
1.210765e+003, 5.149401e+002
1.211247e+003, 5.132886e+002
1.211729e+003, 5.127933e+002
1.212211e+003, 5.128805e+002
1.212694e+003, 5.128920e+002
1.213176e+003, 5.128152e+002
1.213658e+003, 5.129030e+002
1.214140e+003, 5.134567e+002
1.214622e+003, 5.133032e+002
1.215104e+003, 5.121685e+002
1.215586e+003, 5.107919e+002
1.216068e+003, 5.096208e+002
1.216551e+003, 5.089020e+002
1.217033e+003, 5.093055e+002
1.217515e+003, 5.106187e+002
1.217997e+003, 5.109319e+002
1.218479e+003, 5.096639e+002
1.218961e+003, 5.091217e+002
1.219443e+003, 5.097739e+002
1.219925e+003, 5.108879e+002
1.220407e+003, 5.120099e+002
1.220890e+003, 5.128722e+002
1.221372e+003, 5.130446e+002
1.221854e+003, 5.125605e+002
1.222336e+003, 5.121351e+002
1.222818e+003, 5.117083e+002
1.223300e+003, 5.117223e+002
1.223782e+003, 5.123252e+002
1.224264e+003, 5.130922e+002
1.224746e+003, 5.135479e+002
1.225229e+003, 5.139296e+002
1.225711e+003, 5.146432e+002
1.226193e+003, 5.156183e+002
1.226675e+003, 5.159941e+002
1.227157e+003, 5.157509e+002
1.227639e+003, 5.148819e+002
1.228121e+003, 5.132408e+002
1.228603e+003, 5.116893e+002
1.229085e+003, 5.111153e+002
1.229568e+003, 5.111076e+002
1.230050e+003, 5.114028e+002
1.230532e+003, 5.119400e+002
1.231014e+003, 5.124211e+002
1.231496e+003, 5.128517e+002
1.231978e+003, 5.132277e+002
1.232460e+003, 5.136092e+002
1.232942e+003, 5.136198e+002
1.233425e+003, 5.122971e+002
1.233907e+003, 5.109260e+002
1.234389e+003, 5.109021e+002
1.234871e+003, 5.119720e+002
1.235353e+003, 5.121863e+002
1.235835e+003, 5.114856e+002
1.236317e+003, 5.115581e+002
1.236799e+003, 5.130630e+002
1.237281e+003, 5.140190e+002
1.237764e+003, 5.116305e+002
1.238246e+003, 5.089727e+002
1.238728e+003, 5.088296e+002
1.239210e+003, 5.105927e+002
1.239692e+003, 5.118935e+002
1.240174e+003, 5.127141e+002
1.240656e+003, 5.129765e+002
1.241138e+003, 5.125416e+002
1.241621e+003, 5.122355e+002
1.242103e+003, 5.130203e+002
1.242585e+003, 5.137982e+002
1.243067e+003, 5.137513e+002
1.243549e+003, 5.131205e+002
1.244031e+003, 5.126629e+002
1.244513e+003, 5.124040e+002
1.244995e+003, 5.127516e+002
1.245478e+003, 5.139437e+002
1.245960e+003, 5.148179e+002
1.246442e+003, 5.143411e+002
1.246924e+003, 5.136876e+002
1.247406e+003, 5.135596e+002
1.247888e+003, 5.137273e+002
1.248370e+003, 5.133726e+002
1.248852e+003, 5.126723e+002
1.249334e+003, 5.124330e+002
1.249817e+003, 5.129164e+002
1.250299e+003, 5.133450e+002
1.250781e+003, 5.134513e+002
1.251263e+003, 5.132601e+002
1.251745e+003, 5.126077e+002
1.252227e+003, 5.118580e+002
1.252709e+003, 5.122504e+002
1.253191e+003, 5.132601e+002
1.253673e+003, 5.130878e+002
1.254156e+003, 5.111125e+002
1.254638e+003, 5.100994e+002
1.255120e+003, 5.113953e+002
1.255602e+003, 5.131537e+002
1.256084e+003, 5.150673e+002
1.256566e+003, 5.166760e+002
1.257048e+003, 5.168380e+002
1.257530e+003, 5.160575e+002
1.258012e+003, 5.152548e+002
1.258495e+003, 5.145442e+002
1.258977e+003, 5.142993e+002
1.259459e+003, 5.148569e+002
1.259941e+003, 5.151142e+002
1.260423e+003, 5.145880e+002
1.260905e+003, 5.138660e+002
1.261387e+003, 5.138288e+002
1.261869e+003, 5.142415e+002
1.262352e+003, 5.150070e+002
1.262834e+003, 5.161575e+002
1.263316e+003, 5.160578e+002
1.263798e+003, 5.142542e+002
1.264280e+003, 5.126750e+002
1.264762e+003, 5.118951e+002
1.265244e+003, 5.115631e+002
1.265726e+003, 5.111993e+002
1.266208e+003, 5.110741e+002
1.266691e+003, 5.115814e+002
1.267173e+003, 5.127563e+002
1.267655e+003, 5.140472e+002
1.268137e+003, 5.155932e+002
1.268619e+003, 5.159523e+002
1.269101e+003, 5.144411e+002
1.269583e+003, 5.129886e+002
1.270065e+003, 5.139158e+002
1.270548e+003, 5.153137e+002
1.271030e+003, 5.153925e+002
1.271512e+003, 5.144031e+002
1.271994e+003, 5.133231e+002
1.272476e+003, 5.121773e+002
1.272958e+003, 5.119157e+002
1.273440e+003, 5.128865e+002
1.273922e+003, 5.137498e+002
1.274405e+003, 5.132906e+002
1.274887e+003, 5.126981e+002
1.275369e+003, 5.127593e+002
1.275851e+003, 5.131920e+002
1.276333e+003, 5.131202e+002
1.276815e+003, 5.126616e+002
1.277297e+003, 5.123636e+002
1.277779e+003, 5.123183e+002
1.278261e+003, 5.125897e+002
1.278744e+003, 5.136194e+002
1.279226e+003, 5.144330e+002
1.279708e+003, 5.145762e+002
1.280190e+003, 5.144254e+002
1.280672e+003, 5.148819e+002
1.281154e+003, 5.156066e+002
1.281636e+003, 5.155263e+002
1.282118e+003, 5.144921e+002
1.282600e+003, 5.141122e+002
1.283083e+003, 5.155482e+002
1.283565e+003, 5.164948e+002
1.284047e+003, 5.164299e+002
1.284529e+003, 5.156928e+002
1.285011e+003, 5.144443e+002
1.285493e+003, 5.130209e+002
1.285975e+003, 5.117699e+002
1.286457e+003, 5.107947e+002
1.286939e+003, 5.108615e+002
1.287422e+003, 5.123579e+002
1.287904e+003, 5.136101e+002
1.288386e+003, 5.143204e+002
1.288868e+003, 5.146348e+002
1.289350e+003, 5.145851e+002
1.289832e+003, 5.143182e+002
1.290314e+003, 5.136655e+002
1.290796e+003, 5.129120e+002
1.291279e+003, 5.133860e+002
1.291761e+003, 5.152825e+002
1.292243e+003, 5.161363e+002
1.292725e+003, 5.155476e+002
1.293207e+003, 5.147031e+002
1.293689e+003, 5.142993e+002
1.294171e+003, 5.142062e+002
1.294653e+003, 5.147070e+002
1.295135e+003, 5.152697e+002
1.295618e+003, 5.146730e+002
1.296100e+003, 5.131262e+002
1.296582e+003, 5.129213e+002
1.297064e+003, 5.142430e+002
1.297546e+003, 5.154163e+002
1.298028e+003, 5.152177e+002
1.298510e+003, 5.147921e+002
1.298992e+003, 5.145475e+002
1.299475e+003, 5.143489e+002
1.299957e+003, 5.138445e+002
1.300439e+003, 5.132933e+002
1.300921e+003, 5.132537e+002
1.301403e+003, 5.138300e+002
1.301885e+003, 5.151907e+002
##END=



