##NAMES=Fluorcalciomicrolite
##RRUFFID=R120163
##IDEAL CHEMISTRY=(Ca,Na)_2_Ta^5+^_2_O_6_F
##LOCALITY=Alto Ligonha, Mozambique
##OWNER=RRUFF
##SOURCE=Marcus Origlieri
##DESCRIPTION=Reddish brown octahedral fragment
##STATUS=The identification of this mineral is confirmed by single-crystal X-ray diffraction and chemical analysis.
##URL=rruff.info/R120163
##MEASURED CHEMISTRY=(Ca_1.16_Na_0.70_)_Σ1.86_(Ta_1.56_Nb_0.25_Ti_0.13_Sn_0.06_)_Σ2_(O_5.84_(OH)_0.16_)_Σ6_(F_0.82_(OH)_0.18_)
8.975323e+001, 0.000000e+000
9.023535e+001, 2.607580e+003
9.071747e+001, 2.527357e+003
9.119958e+001, 2.488768e+003
9.168170e+001, 2.573934e+003
9.216382e+001, 2.665931e+003
9.264594e+001, 2.731446e+003
9.312805e+001, 2.773178e+003
9.361017e+001, 2.806719e+003
9.409229e+001, 2.841633e+003
9.457440e+001, 2.885283e+003
9.505651e+001, 2.916739e+003
9.553863e+001, 2.934720e+003
9.602074e+001, 2.946193e+003
9.650286e+001, 2.956850e+003
9.698498e+001, 2.967209e+003
9.746709e+001, 2.971619e+003
9.794921e+001, 2.977156e+003
9.843133e+001, 2.986757e+003
9.891344e+001, 2.995130e+003
9.939556e+001, 2.998406e+003
9.987768e+001, 2.998226e+003
1.003598e+002, 3.000077e+003
1.008419e+002, 3.007622e+003
1.013240e+002, 3.019694e+003
1.018061e+002, 3.029999e+003
1.022883e+002, 3.037242e+003
1.027704e+002, 3.043245e+003
1.032525e+002, 3.049399e+003
1.037346e+002, 3.055573e+003
1.042167e+002, 3.061889e+003
1.046988e+002, 3.067666e+003
1.051810e+002, 3.072864e+003
1.056631e+002, 3.077460e+003
1.061452e+002, 3.080385e+003
1.066273e+002, 3.082423e+003
1.071094e+002, 3.087360e+003
1.075915e+002, 3.097988e+003
1.080737e+002, 3.107976e+003
1.085558e+002, 3.114775e+003
1.090379e+002, 3.118830e+003
1.095200e+002, 3.121484e+003
1.100021e+002, 3.124223e+003
1.104842e+002, 3.127619e+003
1.109664e+002, 3.127849e+003
1.114485e+002, 3.120348e+003
1.119306e+002, 3.113617e+003
1.124127e+002, 3.112411e+003
1.128948e+002, 3.116977e+003
1.133769e+002, 3.123761e+003
1.138591e+002, 3.127501e+003
1.143412e+002, 3.124604e+003
1.148233e+002, 3.125236e+003
1.153054e+002, 3.132577e+003
1.157875e+002, 3.141792e+003
1.162696e+002, 3.148469e+003
1.167517e+002, 3.151062e+003
1.172339e+002, 3.150279e+003
1.177160e+002, 3.146590e+003
1.181981e+002, 3.136392e+003
1.186802e+002, 3.130739e+003
1.191623e+002, 3.136564e+003
1.196444e+002, 3.149983e+003
1.201266e+002, 3.159922e+003
1.206087e+002, 3.159650e+003
1.210908e+002, 3.154152e+003
1.215729e+002, 3.154390e+003
1.220550e+002, 3.162879e+003
1.225371e+002, 3.172725e+003
1.230193e+002, 3.177716e+003
1.235014e+002, 3.177365e+003
1.239835e+002, 3.176390e+003
1.244656e+002, 3.177699e+003
1.249477e+002, 3.179280e+003
1.254298e+002, 3.179111e+003
1.259120e+002, 3.176168e+003
1.263941e+002, 3.171528e+003
1.268762e+002, 3.167163e+003
1.273583e+002, 3.161368e+003
1.278404e+002, 3.159214e+003
1.283225e+002, 3.163970e+003
1.288047e+002, 3.172265e+003
1.292868e+002, 3.179487e+003
1.297689e+002, 3.182442e+003
1.302510e+002, 3.181572e+003
1.307331e+002, 3.183264e+003
1.312152e+002, 3.192729e+003
1.316974e+002, 3.199876e+003
1.321795e+002, 3.200355e+003
1.326616e+002, 3.196079e+003
1.331437e+002, 3.191987e+003
1.336258e+002, 3.192492e+003
1.341079e+002, 3.198498e+003
1.345901e+002, 3.203563e+003
1.350722e+002, 3.204929e+003
1.355543e+002, 3.207672e+003
1.360364e+002, 3.217040e+003
1.365185e+002, 3.232604e+003
1.370006e+002, 3.247041e+003
1.374828e+002, 3.250712e+003
1.379649e+002, 3.240484e+003
1.384470e+002, 3.235666e+003
1.389291e+002, 3.241130e+003
1.394112e+002, 3.251031e+003
1.398933e+002, 3.258600e+003
1.403755e+002, 3.262137e+003
1.408576e+002, 3.264112e+003
1.413397e+002, 3.267149e+003
1.418218e+002, 3.271068e+003
1.423039e+002, 3.276260e+003
1.427860e+002, 3.284126e+003
1.432681e+002, 3.293681e+003
1.437503e+002, 3.300925e+003
1.442324e+002, 3.302364e+003
1.447145e+002, 3.304361e+003
1.451966e+002, 3.314176e+003
1.456787e+002, 3.331731e+003
1.461608e+002, 3.347904e+003
1.466430e+002, 3.351776e+003
1.471251e+002, 3.341309e+003
1.476072e+002, 3.338552e+003
1.480893e+002, 3.356563e+003
1.485714e+002, 3.378246e+003
1.490535e+002, 3.396010e+003
1.495357e+002, 3.407886e+003
1.500178e+002, 3.414564e+003
1.504999e+002, 3.415556e+003
1.509820e+002, 3.405620e+003
1.514641e+002, 3.401748e+003
1.519462e+002, 3.408729e+003
1.524284e+002, 3.419315e+003
1.529105e+002, 3.427263e+003
1.533926e+002, 3.430302e+003
1.538747e+002, 3.431500e+003
1.543568e+002, 3.438635e+003
1.548389e+002, 3.460249e+003
1.553211e+002, 3.477854e+003
1.558032e+002, 3.489847e+003
1.562853e+002, 3.497654e+003
1.567674e+002, 3.502131e+003
1.572495e+002, 3.503484e+003
1.577316e+002, 3.502910e+003
1.582138e+002, 3.505678e+003
1.586959e+002, 3.510315e+003
1.591780e+002, 3.519201e+003
1.596601e+002, 3.538264e+003
1.601422e+002, 3.562518e+003
1.606243e+002, 3.579589e+003
1.611065e+002, 3.580343e+003
1.615886e+002, 3.569454e+003
1.620707e+002, 3.568617e+003
1.625528e+002, 3.585920e+003
1.630349e+002, 3.604614e+003
1.635170e+002, 3.614791e+003
1.639991e+002, 3.617152e+003
1.644813e+002, 3.618042e+003
1.649634e+002, 3.619731e+003
1.654455e+002, 3.623206e+003
1.659276e+002, 3.630453e+003
1.664097e+002, 3.645102e+003
1.668918e+002, 3.660958e+003
1.673740e+002, 3.670175e+003
1.678561e+002, 3.671405e+003
1.683382e+002, 3.672328e+003
1.688203e+002, 3.677579e+003
1.693024e+002, 3.685128e+003
1.697845e+002, 3.692777e+003
1.702667e+002, 3.699652e+003
1.707488e+002, 3.706128e+003
1.712309e+002, 3.713251e+003
1.717130e+002, 3.721833e+003
1.721951e+002, 3.729502e+003
1.726772e+002, 3.733592e+003
1.731594e+002, 3.736701e+003
1.736415e+002, 3.742712e+003
1.741236e+002, 3.754310e+003
1.746057e+002, 3.770615e+003
1.750878e+002, 3.786335e+003
1.755699e+002, 3.804156e+003
1.760521e+002, 3.817953e+003
1.765342e+002, 3.823463e+003
1.770163e+002, 3.824052e+003
1.774984e+002, 3.825357e+003
1.779805e+002, 3.831518e+003
1.784626e+002, 3.842592e+003
1.789448e+002, 3.854166e+003
1.794269e+002, 3.866573e+003
1.799090e+002, 3.879156e+003
1.803911e+002, 3.890387e+003
1.808732e+002, 3.901408e+003
1.813553e+002, 3.915184e+003
1.818375e+002, 3.934891e+003
1.823196e+002, 3.961691e+003
1.828017e+002, 3.982273e+003
1.832838e+002, 3.992537e+003
1.837659e+002, 4.001686e+003
1.842480e+002, 4.015163e+003
1.847301e+002, 4.032384e+003
1.852123e+002, 4.047976e+003
1.856944e+002, 4.055855e+003
1.861765e+002, 4.054390e+003
1.866586e+002, 4.061207e+003
1.871407e+002, 4.082395e+003
1.876228e+002, 4.107075e+003
1.881050e+002, 4.127710e+003
1.885871e+002, 4.143375e+003
1.890692e+002, 4.157085e+003
1.895513e+002, 4.171977e+003
1.900334e+002, 4.187829e+003
1.905155e+002, 4.200778e+003
1.909977e+002, 4.206998e+003
1.914798e+002, 4.211626e+003
1.919619e+002, 4.220972e+003
1.924440e+002, 4.236353e+003
1.929261e+002, 4.253421e+003
1.934082e+002, 4.267455e+003
1.938904e+002, 4.279596e+003
1.943725e+002, 4.293643e+003
1.948546e+002, 4.313218e+003
1.953367e+002, 4.335142e+003
1.958188e+002, 4.352853e+003
1.963009e+002, 4.364591e+003
1.967831e+002, 4.374726e+003
1.972652e+002, 4.386747e+003
1.977473e+002, 4.399960e+003
1.982294e+002, 4.412297e+003
1.987115e+002, 4.422320e+003
1.991936e+002, 4.430555e+003
1.996758e+002, 4.438893e+003
2.001579e+002, 4.446251e+003
2.006400e+002, 4.455570e+003
2.011221e+002, 4.469618e+003
2.016042e+002, 4.486702e+003
2.020863e+002, 4.502446e+003
2.025685e+002, 4.512214e+003
2.030506e+002, 4.516625e+003
2.035327e+002, 4.526372e+003
2.040148e+002, 4.545829e+003
2.044969e+002, 4.566534e+003
2.049790e+002, 4.587267e+003
2.054612e+002, 4.606733e+003
2.059433e+002, 4.622759e+003
2.064254e+002, 4.632852e+003
2.069075e+002, 4.636674e+003
2.073896e+002, 4.640947e+003
2.078717e+002, 4.639294e+003
2.083539e+002, 4.644122e+003
2.088360e+002, 4.665397e+003
2.093181e+002, 4.697836e+003
2.098002e+002, 4.727556e+003
2.102823e+002, 4.741397e+003
2.107644e+002, 4.736974e+003
2.112466e+002, 4.737325e+003
2.117287e+002, 4.743833e+003
2.122108e+002, 4.753266e+003
2.126929e+002, 4.765727e+003
2.131750e+002, 4.780320e+003
2.136571e+002, 4.795516e+003
2.141393e+002, 4.810205e+003
2.146214e+002, 4.824826e+003
2.151035e+002, 4.835395e+003
2.155856e+002, 4.838011e+003
2.160677e+002, 4.841020e+003
2.165498e+002, 4.847548e+003
2.170320e+002, 4.858111e+003
2.175141e+002, 4.873060e+003
2.179962e+002, 4.893658e+003
2.184783e+002, 4.921049e+003
2.189604e+002, 4.941970e+003
2.194425e+002, 4.950782e+003
2.199247e+002, 4.958593e+003
2.204068e+002, 4.972554e+003
2.208889e+002, 4.992625e+003
2.213710e+002, 5.013826e+003
2.218531e+002, 5.031655e+003
2.223352e+002, 5.045882e+003
2.228174e+002, 5.062902e+003
2.232995e+002, 5.084708e+003
2.237816e+002, 5.107802e+003
2.242637e+002, 5.130184e+003
2.247458e+002, 5.151653e+003
2.252279e+002, 5.171517e+003
2.257100e+002, 5.189298e+003
2.261922e+002, 5.204713e+003
2.266743e+002, 5.217942e+003
2.271564e+002, 5.222547e+003
2.276385e+002, 5.228951e+003
2.281206e+002, 5.249679e+003
2.286027e+002, 5.285713e+003
2.290849e+002, 5.321346e+003
2.295670e+002, 5.343708e+003
2.300491e+002, 5.356576e+003
2.305312e+002, 5.370732e+003
2.310133e+002, 5.387380e+003
2.314954e+002, 5.406305e+003
2.319776e+002, 5.427709e+003
2.324597e+002, 5.451827e+003
2.329418e+002, 5.476786e+003
2.334239e+002, 5.502677e+003
2.339060e+002, 5.528509e+003
2.343881e+002, 5.552383e+003
2.348703e+002, 5.571842e+003
2.353524e+002, 5.590802e+003
2.358345e+002, 5.614141e+003
2.363166e+002, 5.641935e+003
2.367987e+002, 5.674470e+003
2.372808e+002, 5.719820e+003
2.377630e+002, 5.767711e+003
2.382451e+002, 5.805553e+003
2.387272e+002, 5.825989e+003
2.392093e+002, 5.839806e+003
2.396914e+002, 5.865108e+003
2.401735e+002, 5.905991e+003
2.406557e+002, 5.945641e+003
2.411378e+002, 5.977002e+003
2.416199e+002, 6.004296e+003
2.421020e+002, 6.030794e+003
2.425841e+002, 6.057258e+003
2.430662e+002, 6.084190e+003
2.435484e+002, 6.112094e+003
2.440305e+002, 6.140243e+003
2.445126e+002, 6.171492e+003
2.449947e+002, 6.211030e+003
2.454768e+002, 6.251443e+003
2.459589e+002, 6.285473e+003
2.464410e+002, 6.310470e+003
2.469232e+002, 6.331388e+003
2.474053e+002, 6.357235e+003
2.478874e+002, 6.389785e+003
2.483695e+002, 6.423112e+003
2.488516e+002, 6.456502e+003
2.493337e+002, 6.489801e+003
2.498159e+002, 6.524698e+003
2.502980e+002, 6.561452e+003
2.507801e+002, 6.595149e+003
2.512622e+002, 6.615401e+003
2.517443e+002, 6.610713e+003
2.522264e+002, 6.618808e+003
2.527086e+002, 6.651974e+003
2.531907e+002, 6.691107e+003
2.536728e+002, 6.722613e+003
2.541549e+002, 6.743149e+003
2.546370e+002, 6.759202e+003
2.551191e+002, 6.780755e+003
2.556013e+002, 6.810029e+003
2.560834e+002, 6.840329e+003
2.565655e+002, 6.874271e+003
2.570476e+002, 6.907061e+003
2.575297e+002, 6.935079e+003
2.580118e+002, 6.957935e+003
2.584940e+002, 6.978708e+003
2.589761e+002, 7.002203e+003
2.594582e+002, 7.032639e+003
2.599403e+002, 7.054501e+003
2.604224e+002, 7.059560e+003
2.609045e+002, 7.064407e+003
2.613867e+002, 7.079841e+003
2.618688e+002, 7.106580e+003
2.623509e+002, 7.137959e+003
2.628330e+002, 7.167482e+003
2.633151e+002, 7.197272e+003
2.637972e+002, 7.216079e+003
2.642794e+002, 7.211328e+003
2.647615e+002, 7.208222e+003
2.652436e+002, 7.222856e+003
2.657257e+002, 7.254013e+003
2.662078e+002, 7.288874e+003
2.666899e+002, 7.314888e+003
2.671721e+002, 7.330206e+003
2.676542e+002, 7.347665e+003
2.681363e+002, 7.366270e+003
2.686184e+002, 7.387352e+003
2.691005e+002, 7.414913e+003
2.695826e+002, 7.446447e+003
2.700648e+002, 7.473815e+003
2.705469e+002, 7.489823e+003
2.710290e+002, 7.493875e+003
2.715111e+002, 7.500202e+003
2.719932e+002, 7.509010e+003
2.724753e+002, 7.519271e+003
2.729575e+002, 7.529512e+003
2.734396e+002, 7.540654e+003
2.739217e+002, 7.556313e+003
2.744038e+002, 7.580357e+003
2.748859e+002, 7.611245e+003
2.753680e+002, 7.628509e+003
2.758501e+002, 7.620961e+003
2.763322e+002, 7.615437e+003
2.768144e+002, 7.620683e+003
2.772965e+002, 7.634779e+003
2.777786e+002, 7.653811e+003
2.782607e+002, 7.676725e+003
2.787428e+002, 7.701417e+003
2.792249e+002, 7.718423e+003
2.797071e+002, 7.718583e+003
2.801892e+002, 7.723427e+003
2.806713e+002, 7.742984e+003
2.811534e+002, 7.770316e+003
2.816355e+002, 7.792558e+003
2.821176e+002, 7.803662e+003
2.825998e+002, 7.808301e+003
2.830819e+002, 7.818476e+003
2.835640e+002, 7.838134e+003
2.840461e+002, 7.855125e+003
2.845282e+002, 7.863063e+003
2.850103e+002, 7.867910e+003
2.854925e+002, 7.879384e+003
2.859746e+002, 7.901216e+003
2.864567e+002, 7.927341e+003
2.869388e+002, 7.947232e+003
2.874209e+002, 7.958373e+003
2.879030e+002, 7.972207e+003
2.883852e+002, 7.993444e+003
2.888673e+002, 8.017037e+003
2.893494e+002, 8.037052e+003
2.898315e+002, 8.052150e+003
2.903136e+002, 8.063595e+003
2.907957e+002, 8.072487e+003
2.912779e+002, 8.078525e+003
2.917600e+002, 8.083562e+003
2.922421e+002, 8.084224e+003
2.927242e+002, 8.085922e+003
2.932063e+002, 8.095022e+003
2.936884e+002, 8.112258e+003
2.941706e+002, 8.131763e+003
2.946527e+002, 8.149249e+003
2.951348e+002, 8.164366e+003
2.956169e+002, 8.175419e+003
2.960990e+002, 8.177613e+003
2.965811e+002, 8.179161e+003
2.970633e+002, 8.189284e+003
2.975454e+002, 8.207145e+003
2.980275e+002, 8.220297e+003
2.985096e+002, 8.217840e+003
2.989917e+002, 8.202619e+003
2.994738e+002, 8.195507e+003
2.999560e+002, 8.201608e+003
3.004381e+002, 8.210990e+003
3.009202e+002, 8.220195e+003
3.014023e+002, 8.228494e+003
3.018844e+002, 8.232940e+003
3.023665e+002, 8.231480e+003
3.028487e+002, 8.225246e+003
3.033308e+002, 8.218081e+003
3.038129e+002, 8.208437e+003
3.042950e+002, 8.200264e+003
3.047771e+002, 8.196798e+003
3.052592e+002, 8.196236e+003
3.057414e+002, 8.193674e+003
3.062235e+002, 8.186838e+003
3.067056e+002, 8.177947e+003
3.071877e+002, 8.172041e+003
3.076698e+002, 8.170624e+003
3.081519e+002, 8.166203e+003
3.086341e+002, 8.153577e+003
3.091162e+002, 8.136979e+003
3.095983e+002, 8.124257e+003
3.100804e+002, 8.117929e+003
3.105625e+002, 8.113676e+003
3.110446e+002, 8.105442e+003
3.115268e+002, 8.093047e+003
3.120089e+002, 8.082161e+003
3.124910e+002, 8.077384e+003
3.129731e+002, 8.073066e+003
3.134552e+002, 8.061505e+003
3.139373e+002, 8.041422e+003
3.144195e+002, 8.019034e+003
3.149016e+002, 8.000081e+003
3.153837e+002, 7.984162e+003
3.158658e+002, 7.966072e+003
3.163479e+002, 7.938773e+003
3.168300e+002, 7.913821e+003
3.173121e+002, 7.902976e+003
3.177943e+002, 7.905644e+003
3.182764e+002, 7.910097e+003
3.187585e+002, 7.909448e+003
3.192406e+002, 7.903987e+003
3.197227e+002, 7.897095e+003
3.202048e+002, 7.884558e+003
3.206870e+002, 7.874786e+003
3.211691e+002, 7.875771e+003
3.216512e+002, 7.884268e+003
3.221333e+002, 7.887478e+003
3.226154e+002, 7.877029e+003
3.230975e+002, 7.860658e+003
3.235797e+002, 7.859308e+003
3.240618e+002, 7.880176e+003
3.245439e+002, 7.897652e+003
3.250260e+002, 7.899235e+003
3.255081e+002, 7.891796e+003
3.259902e+002, 7.886884e+003
3.264724e+002, 7.887206e+003
3.269545e+002, 7.894494e+003
3.274366e+002, 7.914694e+003
3.279187e+002, 7.950405e+003
3.284008e+002, 7.981081e+003
3.288829e+002, 7.998677e+003
3.293651e+002, 8.011134e+003
3.298472e+002, 8.025401e+003
3.303293e+002, 8.042648e+003
3.308114e+002, 8.066859e+003
3.312935e+002, 8.104550e+003
3.317756e+002, 8.156971e+003
3.322578e+002, 8.203738e+003
3.327399e+002, 8.240771e+003
3.332220e+002, 8.274228e+003
3.337041e+002, 8.303533e+003
3.341862e+002, 8.330856e+003
3.346683e+002, 8.369313e+003
3.351505e+002, 8.429626e+003
3.356326e+002, 8.509397e+003
3.361147e+002, 8.585347e+003
3.365968e+002, 8.656118e+003
3.370789e+002, 8.725871e+003
3.375610e+002, 8.795504e+003
3.380432e+002, 8.865686e+003
3.385253e+002, 8.936623e+003
3.390074e+002, 9.007917e+003
3.394895e+002, 9.081055e+003
3.399716e+002, 9.160271e+003
3.404537e+002, 9.246030e+003
3.409359e+002, 9.335538e+003
3.414180e+002, 9.431722e+003
3.419001e+002, 9.530290e+003
3.423822e+002, 9.625074e+003
3.428643e+002, 9.713957e+003
3.433464e+002, 9.799775e+003
3.438286e+002, 9.886197e+003
3.443107e+002, 9.974016e+003
3.447928e+002, 1.005973e+004
3.452749e+002, 1.014493e+004
3.457570e+002, 1.022622e+004
3.462391e+002, 1.029928e+004
3.467213e+002, 1.036428e+004
3.472034e+002, 1.042823e+004
3.476855e+002, 1.049784e+004
3.481676e+002, 1.057405e+004
3.486497e+002, 1.063560e+004
3.491318e+002, 1.067602e+004
3.496140e+002, 1.071116e+004
3.500961e+002, 1.074712e+004
3.505782e+002, 1.078283e+004
3.510603e+002, 1.081501e+004
3.515424e+002, 1.084161e+004
3.520245e+002, 1.086317e+004
3.525067e+002, 1.088198e+004
3.529888e+002, 1.090217e+004
3.534709e+002, 1.091453e+004
3.539530e+002, 1.091179e+004
3.544351e+002, 1.090297e+004
3.549172e+002, 1.089995e+004
3.553994e+002, 1.090660e+004
3.558815e+002, 1.091525e+004
3.563636e+002, 1.091249e+004
3.568457e+002, 1.089008e+004
3.573278e+002, 1.087230e+004
3.578099e+002, 1.086066e+004
3.582920e+002, 1.085192e+004
3.587741e+002, 1.084555e+004
3.592563e+002, 1.084047e+004
3.597384e+002, 1.083406e+004
3.602205e+002, 1.082365e+004
3.607026e+002, 1.080900e+004
3.611847e+002, 1.079271e+004
3.616668e+002, 1.077326e+004
3.621490e+002, 1.075396e+004
3.626311e+002, 1.073525e+004
3.631132e+002, 1.071751e+004
3.635953e+002, 1.070093e+004
3.640774e+002, 1.068523e+004
3.645595e+002, 1.067170e+004
3.650417e+002, 1.066672e+004
3.655238e+002, 1.068635e+004
3.660059e+002, 1.069182e+004
3.664880e+002, 1.066759e+004
3.669701e+002, 1.063347e+004
3.674522e+002, 1.060905e+004
3.679344e+002, 1.060054e+004
3.684165e+002, 1.059970e+004
3.688986e+002, 1.059434e+004
3.693807e+002, 1.058387e+004
3.698628e+002, 1.057028e+004
3.703449e+002, 1.055420e+004
3.708271e+002, 1.053487e+004
3.713092e+002, 1.051023e+004
3.717913e+002, 1.048136e+004
3.722734e+002, 1.045144e+004
3.727555e+002, 1.042229e+004
3.732376e+002, 1.039415e+004
3.737198e+002, 1.037218e+004
3.742019e+002, 1.036092e+004
3.746840e+002, 1.035072e+004
3.751661e+002, 1.034278e+004
3.756482e+002, 1.033283e+004
3.761303e+002, 1.031279e+004
3.766125e+002, 1.027613e+004
3.770946e+002, 1.023308e+004
3.775767e+002, 1.020867e+004
3.780588e+002, 1.021143e+004
3.785409e+002, 1.020851e+004
3.790230e+002, 1.018755e+004
3.795052e+002, 1.015940e+004
3.799873e+002, 1.013166e+004
3.804694e+002, 1.010585e+004
3.809515e+002, 1.007931e+004
3.814336e+002, 1.004753e+004
3.819157e+002, 1.001063e+004
3.823979e+002, 9.980014e+003
3.828800e+002, 9.960795e+003
3.833621e+002, 9.944029e+003
3.838442e+002, 9.922445e+003
3.843263e+002, 9.897653e+003
3.848084e+002, 9.875115e+003
3.852906e+002, 9.860744e+003
3.857727e+002, 9.850340e+003
3.862548e+002, 9.833869e+003
3.867369e+002, 9.810253e+003
3.872190e+002, 9.784588e+003
3.877011e+002, 9.757682e+003
3.881833e+002, 9.730994e+003
3.886654e+002, 9.706766e+003
3.891475e+002, 9.685786e+003
3.896296e+002, 9.666744e+003
3.901117e+002, 9.649384e+003
3.905938e+002, 9.633384e+003
3.910760e+002, 9.616387e+003
3.915581e+002, 9.596903e+003
3.920402e+002, 9.577133e+003
3.925223e+002, 9.559232e+003
3.930044e+002, 9.542896e+003
3.934865e+002, 9.530618e+003
3.939687e+002, 9.527633e+003
3.944508e+002, 9.528025e+003
3.949329e+002, 9.522372e+003
3.954150e+002, 9.509068e+003
3.958971e+002, 9.491647e+003
3.963792e+002, 9.470128e+003
3.968614e+002, 9.445818e+003
3.973435e+002, 9.430720e+003
3.978256e+002, 9.432994e+003
3.983077e+002, 9.437673e+003
3.987898e+002, 9.432646e+003
3.992719e+002, 9.420972e+003
3.997540e+002, 9.415816e+003
4.002361e+002, 9.425590e+003
4.007183e+002, 9.443108e+003
4.012004e+002, 9.446350e+003
4.016825e+002, 9.423982e+003
4.021646e+002, 9.409443e+003
4.026467e+002, 9.414688e+003
4.031288e+002, 9.427939e+003
4.036110e+002, 9.436064e+003
4.040931e+002, 9.436021e+003
4.045752e+002, 9.432106e+003
4.050573e+002, 9.428486e+003
4.055394e+002, 9.424103e+003
4.060215e+002, 9.426836e+003
4.065037e+002, 9.442311e+003
4.069858e+002, 9.458620e+003
4.074679e+002, 9.469646e+003
4.079500e+002, 9.476654e+003
4.084321e+002, 9.484104e+003
4.089142e+002, 9.494947e+003
4.093964e+002, 9.508238e+003
4.098785e+002, 9.519619e+003
4.103606e+002, 9.521117e+003
4.108427e+002, 9.531442e+003
4.113248e+002, 9.559150e+003
4.118069e+002, 9.592271e+003
4.122891e+002, 9.619609e+003
4.127712e+002, 9.638226e+003
4.132533e+002, 9.652521e+003
4.137354e+002, 9.666958e+003
4.142175e+002, 9.679746e+003
4.146996e+002, 9.700221e+003
4.151818e+002, 9.740263e+003
4.156639e+002, 9.776975e+003
4.161460e+002, 9.799005e+003
4.166281e+002, 9.810391e+003
4.171102e+002, 9.820760e+003
4.175923e+002, 9.834568e+003
4.180745e+002, 9.853583e+003
4.185566e+002, 9.885428e+003
4.190387e+002, 9.935041e+003
4.195208e+002, 9.986464e+003
4.200029e+002, 1.003977e+004
4.204850e+002, 1.008967e+004
4.209672e+002, 1.012811e+004
4.214493e+002, 1.015276e+004
4.219314e+002, 1.017660e+004
4.224135e+002, 1.021612e+004
4.228956e+002, 1.027012e+004
4.233777e+002, 1.031516e+004
4.238599e+002, 1.034474e+004
4.243420e+002, 1.036841e+004
4.248241e+002, 1.039174e+004
4.253062e+002, 1.041544e+004
4.257883e+002, 1.044239e+004
4.262704e+002, 1.047579e+004
4.267526e+002, 1.051234e+004
4.272347e+002, 1.054538e+004
4.277168e+002, 1.057465e+004
4.281989e+002, 1.060908e+004
4.286810e+002, 1.065647e+004
4.291631e+002, 1.071063e+004
4.296453e+002, 1.075799e+004
4.301274e+002, 1.079885e+004
4.306095e+002, 1.083218e+004
4.310916e+002, 1.085213e+004
4.315737e+002, 1.086477e+004
4.320558e+002, 1.088313e+004
4.325380e+002, 1.091073e+004
4.330201e+002, 1.094128e+004
4.335022e+002, 1.096890e+004
4.339843e+002, 1.099354e+004
4.344664e+002, 1.101033e+004
4.349485e+002, 1.101100e+004
4.354307e+002, 1.101050e+004
4.359128e+002, 1.101874e+004
4.363949e+002, 1.103453e+004
4.368770e+002, 1.105227e+004
4.373591e+002, 1.106902e+004
4.378412e+002, 1.108468e+004
4.383234e+002, 1.109868e+004
4.388055e+002, 1.111630e+004
4.392876e+002, 1.112539e+004
4.397697e+002, 1.111712e+004
4.402518e+002, 1.110456e+004
4.407339e+002, 1.109976e+004
4.412160e+002, 1.110521e+004
4.416982e+002, 1.111655e+004
4.421803e+002, 1.113015e+004
4.426624e+002, 1.114765e+004
4.431445e+002, 1.115579e+004
4.436266e+002, 1.114245e+004
4.441087e+002, 1.113227e+004
4.445909e+002, 1.113758e+004
4.450730e+002, 1.115025e+004
4.455551e+002, 1.115524e+004
4.460372e+002, 1.114400e+004
4.465193e+002, 1.112519e+004
4.470014e+002, 1.111944e+004
4.474836e+002, 1.113265e+004
4.479657e+002, 1.114127e+004
4.484478e+002, 1.113896e+004
4.489299e+002, 1.113211e+004
4.494120e+002, 1.112150e+004
4.498941e+002, 1.110861e+004
4.503763e+002, 1.110004e+004
4.508584e+002, 1.110562e+004
4.513405e+002, 1.112061e+004
4.518226e+002, 1.112294e+004
4.523047e+002, 1.110694e+004
4.527868e+002, 1.109133e+004
4.532690e+002, 1.109349e+004
4.537511e+002, 1.110138e+004
4.542332e+002, 1.109542e+004
4.547153e+002, 1.106378e+004
4.551974e+002, 1.103261e+004
4.556795e+002, 1.102765e+004
4.561617e+002, 1.104291e+004
4.566438e+002, 1.105199e+004
4.571259e+002, 1.104675e+004
4.576080e+002, 1.103439e+004
4.580901e+002, 1.102440e+004
4.585722e+002, 1.101702e+004
4.590544e+002, 1.100493e+004
4.595365e+002, 1.098157e+004
4.600186e+002, 1.095690e+004
4.605007e+002, 1.094101e+004
4.609828e+002, 1.093289e+004
4.614649e+002, 1.092398e+004
4.619471e+002, 1.090885e+004
4.624292e+002, 1.088907e+004
4.629113e+002, 1.087070e+004
4.633934e+002, 1.085731e+004
4.638755e+002, 1.084062e+004
4.643576e+002, 1.081329e+004
4.648398e+002, 1.078542e+004
4.653219e+002, 1.077001e+004
4.658040e+002, 1.076809e+004
4.662861e+002, 1.076761e+004
4.667682e+002, 1.075486e+004
4.672503e+002, 1.072797e+004
4.677325e+002, 1.070512e+004
4.682146e+002, 1.069377e+004
4.686967e+002, 1.067833e+004
4.691788e+002, 1.065028e+004
4.696609e+002, 1.061665e+004
4.701430e+002, 1.058888e+004
4.706252e+002, 1.057219e+004
4.711073e+002, 1.056028e+004
4.715894e+002, 1.054140e+004
4.720715e+002, 1.051344e+004
4.725536e+002, 1.048816e+004
4.730357e+002, 1.047166e+004
4.735179e+002, 1.045464e+004
4.740000e+002, 1.043123e+004
4.744821e+002, 1.040247e+004
4.749642e+002, 1.037316e+004
4.754463e+002, 1.034897e+004
4.759284e+002, 1.032536e+004
4.764106e+002, 1.028641e+004
4.768927e+002, 1.022749e+004
4.773748e+002, 1.018429e+004
4.778569e+002, 1.018527e+004
4.783390e+002, 1.020596e+004
4.788211e+002, 1.020726e+004
4.793033e+002, 1.018411e+004
4.797854e+002, 1.015457e+004
4.802675e+002, 1.012432e+004
4.807496e+002, 1.009455e+004
4.812317e+002, 1.006788e+004
4.817138e+002, 1.004484e+004
4.821959e+002, 1.002252e+004
4.826780e+002, 9.997821e+003
4.831602e+002, 9.970931e+003
4.836423e+002, 9.946665e+003
4.841244e+002, 9.924463e+003
4.846065e+002, 9.905315e+003
4.850886e+002, 9.893925e+003
4.855707e+002, 9.884850e+003
4.860529e+002, 9.867613e+003
4.865350e+002, 9.838339e+003
4.870171e+002, 9.803961e+003
4.874992e+002, 9.775733e+003
4.879813e+002, 9.753893e+003
4.884634e+002, 9.737619e+003
4.889456e+002, 9.734268e+003
4.894277e+002, 9.728604e+003
4.899098e+002, 9.712215e+003
4.903919e+002, 9.687600e+003
4.908740e+002, 9.661036e+003
4.913561e+002, 9.635840e+003
4.918383e+002, 9.612772e+003
4.923204e+002, 9.594208e+003
4.928025e+002, 9.581298e+003
4.932846e+002, 9.569889e+003
4.937667e+002, 9.559897e+003
4.942488e+002, 9.550704e+003
4.947310e+002, 9.541091e+003
4.952131e+002, 9.531418e+003
4.956952e+002, 9.524474e+003
4.961773e+002, 9.525257e+003
4.966594e+002, 9.530028e+003
4.971415e+002, 9.526983e+003
4.976237e+002, 9.513790e+003
4.981058e+002, 9.502588e+003
4.985879e+002, 9.500198e+003
4.990700e+002, 9.504143e+003
4.995521e+002, 9.509590e+003
5.000342e+002, 9.517180e+003
5.005164e+002, 9.524103e+003
5.009985e+002, 9.528960e+003
5.014806e+002, 9.532260e+003
5.019627e+002, 9.534726e+003
5.024448e+002, 9.536494e+003
5.029269e+002, 9.538080e+003
5.034091e+002, 9.539748e+003
5.038912e+002, 9.541520e+003
5.043733e+002, 9.544967e+003
5.048554e+002, 9.553606e+003
5.053375e+002, 9.559848e+003
5.058196e+002, 9.558682e+003
5.063018e+002, 9.554089e+003
5.067839e+002, 9.550868e+003
5.072660e+002, 9.550993e+003
5.077481e+002, 9.556224e+003
5.082302e+002, 9.570797e+003
5.087123e+002, 9.599695e+003
5.091945e+002, 9.619893e+003
5.096766e+002, 9.624674e+003
5.101587e+002, 9.627359e+003
5.106408e+002, 9.631010e+003
5.111229e+002, 9.636549e+003
5.116050e+002, 9.644314e+003
5.120872e+002, 9.654097e+003
5.125693e+002, 9.667564e+003
5.130514e+002, 9.691061e+003
5.135335e+002, 9.727265e+003
5.140156e+002, 9.752614e+003
5.144977e+002, 9.751278e+003
5.149799e+002, 9.748422e+003
5.154620e+002, 9.766992e+003
5.159441e+002, 9.804126e+003
5.164262e+002, 9.839423e+003
5.169083e+002, 9.863341e+003
5.173904e+002, 9.881460e+003
5.178726e+002, 9.898170e+003
5.183547e+002, 9.914160e+003
5.188368e+002, 9.937057e+003
5.193189e+002, 9.971830e+003
5.198010e+002, 1.001406e+004
5.202831e+002, 1.005328e+004
5.207653e+002, 1.008839e+004
5.212474e+002, 1.012469e+004
5.217295e+002, 1.016501e+004
5.222116e+002, 1.020533e+004
5.226937e+002, 1.024053e+004
5.231758e+002, 1.027133e+004
5.236580e+002, 1.030351e+004
5.241401e+002, 1.034101e+004
5.246222e+002, 1.038313e+004
5.251043e+002, 1.042779e+004
5.255864e+002, 1.048373e+004
5.260685e+002, 1.052867e+004
5.265507e+002, 1.055530e+004
5.270328e+002, 1.057484e+004
5.275149e+002, 1.059474e+004
5.279970e+002, 1.061678e+004
5.284791e+002, 1.064078e+004
5.289612e+002, 1.066986e+004
5.294434e+002, 1.070132e+004
5.299255e+002, 1.071609e+004
5.304076e+002, 1.070545e+004
5.308897e+002, 1.069845e+004
5.313718e+002, 1.071453e+004
5.318539e+002, 1.073737e+004
5.323361e+002, 1.075031e+004
5.328182e+002, 1.075017e+004
5.333003e+002, 1.074539e+004
5.337824e+002, 1.074116e+004
5.342645e+002, 1.073633e+004
5.347466e+002, 1.072914e+004
5.352288e+002, 1.071957e+004
5.357109e+002, 1.070438e+004
5.361930e+002, 1.067805e+004
5.366751e+002, 1.064373e+004
5.371572e+002, 1.062131e+004
5.376393e+002, 1.063012e+004
5.381215e+002, 1.062605e+004
5.386036e+002, 1.059087e+004
5.390857e+002, 1.053852e+004
5.395678e+002, 1.048390e+004
5.400499e+002, 1.043121e+004
5.405320e+002, 1.037988e+004
5.410142e+002, 1.032992e+004
5.414963e+002, 1.028137e+004
5.419784e+002, 1.023083e+004
5.424604e+002, 1.017224e+004
5.429426e+002, 1.011938e+004
5.434247e+002, 1.008217e+004
5.439068e+002, 1.004875e+004
5.443889e+002, 1.000504e+004
5.448710e+002, 9.947547e+003
5.453531e+002, 9.885559e+003
5.458353e+002, 9.830754e+003
5.463174e+002, 9.781973e+003
5.467995e+002, 9.726654e+003
5.472816e+002, 9.659671e+003
5.477637e+002, 9.595850e+003
5.482458e+002, 9.548961e+003
5.487280e+002, 9.510528e+003
5.492101e+002, 9.466479e+003
5.496922e+002, 9.413010e+003
5.501743e+002, 9.357358e+003
5.506564e+002, 9.303964e+003
5.511385e+002, 9.251533e+003
5.516207e+002, 9.194371e+003
5.521028e+002, 9.131037e+003
5.525849e+002, 9.074346e+003
5.530670e+002, 9.039506e+003
5.535491e+002, 9.026533e+003
5.540313e+002, 8.995998e+003
5.545134e+002, 8.930692e+003
5.549955e+002, 8.871296e+003
5.554776e+002, 8.833438e+003
5.559597e+002, 8.805322e+003
5.564418e+002, 8.772166e+003
5.569240e+002, 8.730234e+003
5.574061e+002, 8.687232e+003
5.578882e+002, 8.652320e+003
5.583703e+002, 8.626037e+003
5.588524e+002, 8.596896e+003
5.593345e+002, 8.563853e+003
5.598167e+002, 8.529439e+003
5.602988e+002, 8.493206e+003
5.607809e+002, 8.456697e+003
5.612630e+002, 8.421064e+003
5.617451e+002, 8.386539e+003
5.622272e+002, 8.354334e+003
5.627094e+002, 8.325426e+003
5.631915e+002, 8.299660e+003
5.636736e+002, 8.278095e+003
5.641557e+002, 8.262053e+003
5.646378e+002, 8.243111e+003
5.651199e+002, 8.212068e+003
5.656021e+002, 8.173220e+003
5.660842e+002, 8.145341e+003
5.665663e+002, 8.136908e+003
5.670484e+002, 8.127392e+003
5.675305e+002, 8.106810e+003
5.680126e+002, 8.082817e+003
5.684948e+002, 8.066698e+003
5.689769e+002, 8.059522e+003
5.694590e+002, 8.051455e+003
5.699411e+002, 8.033169e+003
5.704232e+002, 8.005215e+003
5.709053e+002, 7.978874e+003
5.713875e+002, 7.949446e+003
5.718696e+002, 7.928425e+003
5.723517e+002, 7.923188e+003
5.728338e+002, 7.923118e+003
5.733159e+002, 7.920359e+003
5.737980e+002, 7.912758e+003
5.742802e+002, 7.899382e+003
5.747623e+002, 7.873956e+003
5.752444e+002, 7.841365e+003
5.757265e+002, 7.823996e+003
5.762086e+002, 7.825369e+003
5.766907e+002, 7.827275e+003
5.771729e+002, 7.821446e+003
5.776550e+002, 7.810916e+003
5.781371e+002, 7.800099e+003
5.786192e+002, 7.788258e+003
5.791013e+002, 7.779812e+003
5.795834e+002, 7.779407e+003
5.800656e+002, 7.781506e+003
5.805477e+002, 7.780177e+003
5.810298e+002, 7.774978e+003
5.815119e+002, 7.766918e+003
5.819940e+002, 7.755891e+003
5.824761e+002, 7.743853e+003
5.829583e+002, 7.737487e+003
5.834404e+002, 7.740215e+003
5.839225e+002, 7.743660e+003
5.844046e+002, 7.749379e+003
5.848867e+002, 7.754227e+003
5.853688e+002, 7.756070e+003
5.858510e+002, 7.755100e+003
5.863331e+002, 7.752255e+003
5.868152e+002, 7.747378e+003
5.872973e+002, 7.742348e+003
5.877794e+002, 7.741664e+003
5.882615e+002, 7.745673e+003
5.887437e+002, 7.751837e+003
5.892258e+002, 7.761552e+003
5.897079e+002, 7.771052e+003
5.901900e+002, 7.777133e+003
5.906721e+002, 7.780047e+003
5.911542e+002, 7.781034e+003
5.916364e+002, 7.778038e+003
5.921185e+002, 7.775388e+003
5.926006e+002, 7.775294e+003
5.930827e+002, 7.778556e+003
5.935648e+002, 7.788667e+003
5.940469e+002, 7.807349e+003
5.945291e+002, 7.828648e+003
5.950112e+002, 7.844258e+003
5.954933e+002, 7.852940e+003
5.959754e+002, 7.861816e+003
5.964575e+002, 7.873919e+003
5.969396e+002, 7.882972e+003
5.974218e+002, 7.880476e+003
5.979039e+002, 7.875902e+003
5.983860e+002, 7.883785e+003
5.988681e+002, 7.908825e+003
5.993502e+002, 7.940536e+003
5.998323e+002, 7.968109e+003
6.003145e+002, 7.991580e+003
6.007966e+002, 8.008253e+003
6.012787e+002, 8.012906e+003
6.017608e+002, 8.021324e+003
6.022429e+002, 8.046131e+003
6.027250e+002, 8.079338e+003
6.032072e+002, 8.109126e+003
6.036893e+002, 8.134087e+003
6.041714e+002, 8.155866e+003
6.046535e+002, 8.171258e+003
6.051356e+002, 8.185858e+003
6.056177e+002, 8.209111e+003
6.060999e+002, 8.241353e+003
6.065820e+002, 8.275142e+003
6.070641e+002, 8.305542e+003
6.075462e+002, 8.332503e+003
6.080283e+002, 8.355844e+003
6.085104e+002, 8.366950e+003
6.089926e+002, 8.387049e+003
6.094747e+002, 8.423240e+003
6.099568e+002, 8.463275e+003
6.104389e+002, 8.500572e+003
6.109210e+002, 8.533899e+003
6.114031e+002, 8.563418e+003
6.118853e+002, 8.589123e+003
6.123674e+002, 8.611331e+003
6.128495e+002, 8.630125e+003
6.133316e+002, 8.645287e+003
6.138137e+002, 8.660676e+003
6.142958e+002, 8.676395e+003
6.147780e+002, 8.693889e+003
6.152601e+002, 8.716381e+003
6.157422e+002, 8.742810e+003
6.162243e+002, 8.766163e+003
6.167064e+002, 8.782966e+003
6.171885e+002, 8.798265e+003
6.176707e+002, 8.814434e+003
6.181528e+002, 8.831547e+003
6.186349e+002, 8.851410e+003
6.191170e+002, 8.874240e+003
6.195991e+002, 8.893623e+003
6.200812e+002, 8.900597e+003
6.205634e+002, 8.893768e+003
6.210455e+002, 8.896005e+003
6.215276e+002, 8.919759e+003
6.220097e+002, 8.937346e+003
6.224918e+002, 8.938062e+003
6.229739e+002, 8.932754e+003
6.234561e+002, 8.933756e+003
6.239382e+002, 8.942927e+003
6.244203e+002, 8.950617e+003
6.249023e+002, 8.946932e+003
6.253845e+002, 8.936096e+003
6.258666e+002, 8.931465e+003
6.263487e+002, 8.934334e+003
6.268308e+002, 8.929807e+003
6.273129e+002, 8.906838e+003
6.277950e+002, 8.876589e+003
6.282772e+002, 8.861305e+003
6.287593e+002, 8.863674e+003
6.292414e+002, 8.864451e+003
6.297235e+002, 8.860947e+003
6.302056e+002, 8.854837e+003
6.306877e+002, 8.846364e+003
6.311699e+002, 8.836277e+003
6.316520e+002, 8.826221e+003
6.321341e+002, 8.817000e+003
6.326162e+002, 8.807081e+003
6.330983e+002, 8.793877e+003
6.335804e+002, 8.777022e+003
6.340626e+002, 8.757977e+003
6.345447e+002, 8.730205e+003
6.350268e+002, 8.709386e+003
6.355089e+002, 8.711549e+003
6.359910e+002, 8.721306e+003
6.364731e+002, 8.713075e+003
6.369553e+002, 8.677474e+003
6.374374e+002, 8.639232e+003
6.379195e+002, 8.616867e+003
6.384016e+002, 8.603893e+003
6.388837e+002, 8.587927e+003
6.393658e+002, 8.567657e+003
6.398480e+002, 8.547170e+003
6.403301e+002, 8.529006e+003
6.408122e+002, 8.512678e+003
6.412943e+002, 8.496589e+003
6.417764e+002, 8.487402e+003
6.422585e+002, 8.467990e+003
6.427407e+002, 8.424977e+003
6.432228e+002, 8.383659e+003
6.437049e+002, 8.366409e+003
6.441870e+002, 8.364146e+003
6.446691e+002, 8.349670e+003
6.451512e+002, 8.307022e+003
6.456334e+002, 8.254466e+003
6.461155e+002, 8.225018e+003
6.465976e+002, 8.218432e+003
6.470797e+002, 8.199461e+003
6.475618e+002, 8.158540e+003
6.480439e+002, 8.114151e+003
6.485261e+002, 8.082462e+003
6.490082e+002, 8.058582e+003
6.494903e+002, 8.028010e+003
6.499724e+002, 7.986973e+003
6.504545e+002, 7.943342e+003
6.509366e+002, 7.899661e+003
6.514188e+002, 7.855446e+003
6.519009e+002, 7.809661e+003
6.523830e+002, 7.762663e+003
6.528651e+002, 7.717060e+003
6.533472e+002, 7.675113e+003
6.538293e+002, 7.635358e+003
6.543115e+002, 7.590849e+003
6.547936e+002, 7.536466e+003
6.552757e+002, 7.489977e+003
6.557578e+002, 7.462147e+003
6.562399e+002, 7.435698e+003
6.567220e+002, 7.400791e+003
6.572042e+002, 7.359249e+003
6.576863e+002, 7.318419e+003
6.581684e+002, 7.281639e+003
6.586505e+002, 7.245395e+003
6.591326e+002, 7.206597e+003
6.596147e+002, 7.165771e+003
6.600969e+002, 7.122227e+003
6.605790e+002, 7.075749e+003
6.610611e+002, 7.033365e+003
6.615432e+002, 7.002509e+003
6.620253e+002, 6.981552e+003
6.625074e+002, 6.953410e+003
6.629896e+002, 6.915682e+003
6.634717e+002, 6.873775e+003
6.639538e+002, 6.819043e+003
6.644359e+002, 6.767098e+003
6.649180e+002, 6.732991e+003
6.654001e+002, 6.714053e+003
6.658823e+002, 6.695707e+003
6.663644e+002, 6.669296e+003
6.668465e+002, 6.637506e+003
6.673286e+002, 6.604130e+003
6.678107e+002, 6.569209e+003
6.682928e+002, 6.533178e+003
6.687750e+002, 6.494250e+003
6.692571e+002, 6.459217e+003
6.697392e+002, 6.436847e+003
6.702213e+002, 6.425753e+003
6.707034e+002, 6.410954e+003
6.711855e+002, 6.392465e+003
6.716677e+002, 6.369882e+003
6.721498e+002, 6.341767e+003
6.726319e+002, 6.310399e+003
6.731140e+002, 6.274749e+003
6.735961e+002, 6.237180e+003
6.740782e+002, 6.207037e+003
6.745604e+002, 6.193084e+003
6.750425e+002, 6.188770e+003
6.755246e+002, 6.172081e+003
6.760067e+002, 6.140667e+003
6.764888e+002, 6.106768e+003
6.769709e+002, 6.066142e+003
6.774531e+002, 6.031209e+003
6.779352e+002, 6.015316e+003
6.784173e+002, 6.013414e+003
6.788994e+002, 6.007706e+003
6.793815e+002, 5.995798e+003
6.798636e+002, 5.977112e+003
6.803458e+002, 5.943511e+003
6.808279e+002, 5.905935e+003
6.813100e+002, 5.883698e+003
6.817921e+002, 5.878795e+003
6.822742e+002, 5.876718e+003
6.827563e+002, 5.866136e+003
6.832385e+002, 5.847876e+003
6.837206e+002, 5.825312e+003
6.842027e+002, 5.795214e+003
6.846848e+002, 5.767893e+003
6.851669e+002, 5.742560e+003
6.856490e+002, 5.722458e+003
6.861312e+002, 5.713876e+003
6.866133e+002, 5.712419e+003
6.870954e+002, 5.704999e+003
6.875775e+002, 5.684202e+003
6.880596e+002, 5.660447e+003
6.885417e+002, 5.642230e+003
6.890239e+002, 5.628301e+003
6.895060e+002, 5.616588e+003
6.899881e+002, 5.606571e+003
6.904702e+002, 5.596667e+003
6.909523e+002, 5.586003e+003
6.914344e+002, 5.574081e+003
6.919166e+002, 5.557849e+003
6.923987e+002, 5.531819e+003
6.928808e+002, 5.510296e+003
6.933629e+002, 5.496982e+003
6.938450e+002, 5.485382e+003
6.943271e+002, 5.469978e+003
6.948093e+002, 5.453000e+003
6.952914e+002, 5.441972e+003
6.957735e+002, 5.442458e+003
6.962556e+002, 5.442750e+003
6.967377e+002, 5.426123e+003
6.972198e+002, 5.398114e+003
6.977020e+002, 5.378643e+003
6.981841e+002, 5.371114e+003
6.986662e+002, 5.367743e+003
6.991483e+002, 5.364683e+003
6.996304e+002, 5.360633e+003
7.001125e+002, 5.350548e+003
7.005947e+002, 5.326545e+003
7.010768e+002, 5.308762e+003
7.015589e+002, 5.303048e+003
7.020410e+002, 5.298499e+003
7.025231e+002, 5.287300e+003
7.030052e+002, 5.272244e+003
7.034874e+002, 5.260778e+003
7.039695e+002, 5.256513e+003
7.044516e+002, 5.253641e+003
7.049337e+002, 5.244944e+003
7.054158e+002, 5.231458e+003
7.058979e+002, 5.217433e+003
7.063801e+002, 5.202933e+003
7.068622e+002, 5.190493e+003
7.073442e+002, 5.182176e+003
7.078264e+002, 5.176359e+003
7.083085e+002, 5.169054e+003
7.087906e+002, 5.160272e+003
7.092727e+002, 5.149917e+003
7.097548e+002, 5.134591e+003
7.102369e+002, 5.120833e+003
7.107191e+002, 5.114766e+003
7.112012e+002, 5.112425e+003
7.116833e+002, 5.106569e+003
7.121654e+002, 5.094540e+003
7.126475e+002, 5.079612e+003
7.131296e+002, 5.063823e+003
7.136118e+002, 5.048028e+003
7.140939e+002, 5.037276e+003
7.145760e+002, 5.032502e+003
7.150581e+002, 5.028250e+003
7.155402e+002, 5.021962e+003
7.160223e+002, 5.015097e+003
7.165045e+002, 5.010686e+003
7.169866e+002, 5.009640e+003
7.174687e+002, 5.005622e+003
7.179508e+002, 4.995859e+003
7.184329e+002, 4.985420e+003
7.189150e+002, 4.978813e+003
7.193972e+002, 4.972287e+003
7.198793e+002, 4.957390e+003
7.203614e+002, 4.933478e+003
7.208435e+002, 4.913179e+003
7.213256e+002, 4.912322e+003
7.218077e+002, 4.924291e+003
7.222899e+002, 4.921347e+003
7.227720e+002, 4.901430e+003
7.232541e+002, 4.883763e+003
7.237362e+002, 4.876193e+003
7.242183e+002, 4.870633e+003
7.247004e+002, 4.855968e+003
7.251826e+002, 4.832394e+003
7.256647e+002, 4.816019e+003
7.261468e+002, 4.815894e+003
7.266289e+002, 4.813230e+003
7.271110e+002, 4.796557e+003
7.275931e+002, 4.776573e+003
7.280753e+002, 4.767413e+003
7.285574e+002, 4.769090e+003
7.290395e+002, 4.769823e+003
7.295216e+002, 4.760679e+003
7.300037e+002, 4.745588e+003
7.304858e+002, 4.733306e+003
7.309680e+002, 4.723952e+003
7.314501e+002, 4.714676e+003
7.319322e+002, 4.705150e+003
7.324143e+002, 4.695083e+003
7.328964e+002, 4.684488e+003
7.333785e+002, 4.673114e+003
7.338607e+002, 4.659897e+003
7.343428e+002, 4.641021e+003
7.348249e+002, 4.626283e+003
7.353070e+002, 4.619797e+003
7.357891e+002, 4.616418e+003
7.362712e+002, 4.613352e+003
7.367534e+002, 4.609484e+003
7.372355e+002, 4.603585e+003
7.377176e+002, 4.594964e+003
7.381997e+002, 4.584231e+003
7.386818e+002, 4.572235e+003
7.391639e+002, 4.558962e+003
7.396461e+002, 4.543251e+003
7.401282e+002, 4.524210e+003
7.406103e+002, 4.506714e+003
7.410924e+002, 4.493733e+003
7.415745e+002, 4.483945e+003
7.420566e+002, 4.474116e+003
7.425388e+002, 4.462850e+003
7.430209e+002, 4.456186e+003
7.435030e+002, 4.462558e+003
7.439851e+002, 4.465408e+003
7.444672e+002, 4.454278e+003
7.449493e+002, 4.434533e+003
7.454315e+002, 4.412903e+003
7.459136e+002, 4.392173e+003
7.463957e+002, 4.375974e+003
7.468778e+002, 4.370041e+003
7.473599e+002, 4.371085e+003
7.478420e+002, 4.369114e+003
7.483242e+002, 4.364050e+003
7.488063e+002, 4.359032e+003
7.492884e+002, 4.355759e+003
7.497705e+002, 4.351287e+003
7.502526e+002, 4.341722e+003
7.507347e+002, 4.326776e+003
7.512169e+002, 4.312098e+003
7.516990e+002, 4.298296e+003
7.521811e+002, 4.283988e+003
7.526632e+002, 4.265579e+003
7.531453e+002, 4.248857e+003
7.536274e+002, 4.241272e+003
7.541096e+002, 4.240970e+003
7.545917e+002, 4.238235e+003
7.550738e+002, 4.226749e+003
7.555559e+002, 4.211974e+003
7.560380e+002, 4.200761e+003
7.565201e+002, 4.192810e+003
7.570023e+002, 4.188044e+003
7.574844e+002, 4.186732e+003
7.579665e+002, 4.183871e+003
7.584486e+002, 4.175574e+003
7.589307e+002, 4.163375e+003
7.594128e+002, 4.152311e+003
7.598950e+002, 4.141738e+003
7.603771e+002, 4.133480e+003
7.608592e+002, 4.127993e+003
7.613413e+002, 4.124165e+003
7.618234e+002, 4.123078e+003
7.623055e+002, 4.122718e+003
7.627877e+002, 4.119522e+003
7.632698e+002, 4.112390e+003
7.637519e+002, 4.105616e+003
7.642340e+002, 4.103206e+003
7.647161e+002, 4.102739e+003
7.651982e+002, 4.100087e+003
7.656804e+002, 4.095575e+003
7.661625e+002, 4.092650e+003
7.666446e+002, 4.092844e+003
7.671267e+002, 4.092259e+003
7.676088e+002, 4.085239e+003
7.680909e+002, 4.071343e+003
7.685731e+002, 4.061065e+003
7.690552e+002, 4.055776e+003
7.695373e+002, 4.051850e+003
7.700194e+002, 4.049889e+003
7.705015e+002, 4.047803e+003
7.709836e+002, 4.043762e+003
7.714658e+002, 4.038013e+003
7.719479e+002, 4.032266e+003
7.724300e+002, 4.026578e+003
7.729121e+002, 4.021786e+003
7.733942e+002, 4.019607e+003
7.738763e+002, 4.018256e+003
7.743585e+002, 4.014025e+003
7.748406e+002, 4.007177e+003
7.753227e+002, 4.002322e+003
7.758048e+002, 4.002745e+003
7.762869e+002, 4.005862e+003
7.767690e+002, 4.005448e+003
7.772512e+002, 4.001035e+003
7.777333e+002, 3.996140e+003
7.782154e+002, 3.989903e+003
7.786975e+002, 3.985255e+003
7.791796e+002, 3.985241e+003
7.796617e+002, 3.987223e+003
7.801439e+002, 3.986142e+003
7.806260e+002, 3.980586e+003
7.811081e+002, 3.978199e+003
7.815902e+002, 3.986153e+003
7.820723e+002, 3.992456e+003
7.825544e+002, 3.986973e+003
7.830366e+002, 3.975325e+003
7.835187e+002, 3.966889e+003
7.840008e+002, 3.964244e+003
7.844829e+002, 3.964671e+003
7.849650e+002, 3.966561e+003
7.854471e+002, 3.969057e+003
7.859293e+002, 3.968843e+003
7.864114e+002, 3.965846e+003
7.868935e+002, 3.965716e+003
7.873756e+002, 3.971161e+003
7.878577e+002, 3.975561e+003
7.883398e+002, 3.970721e+003
7.888220e+002, 3.958728e+003
7.893040e+002, 3.957436e+003
7.897861e+002, 3.977771e+003
7.902682e+002, 3.992618e+003
7.907504e+002, 4.000375e+003
7.912325e+002, 4.001743e+003
7.917146e+002, 3.993370e+003
7.921967e+002, 3.979794e+003
7.926788e+002, 3.969532e+003
7.931609e+002, 3.965707e+003
7.936431e+002, 3.965211e+003
7.941252e+002, 3.966616e+003
7.946073e+002, 3.968944e+003
7.950894e+002, 3.970353e+003
7.955715e+002, 3.970834e+003
7.960536e+002, 3.971108e+003
7.965358e+002, 3.971447e+003
7.970179e+002, 3.971968e+003
7.975000e+002, 3.973292e+003
7.979821e+002, 3.975608e+003
7.984642e+002, 3.973097e+003
7.989464e+002, 3.960914e+003
7.994285e+002, 3.952652e+003
7.999106e+002, 3.953674e+003
8.003927e+002, 3.958314e+003
8.008748e+002, 3.965415e+003
8.013569e+002, 3.973247e+003
8.018391e+002, 3.974170e+003
8.023212e+002, 3.958536e+003
8.028033e+002, 3.946870e+003
8.032854e+002, 3.954534e+003
8.037675e+002, 3.969128e+003
8.042496e+002, 3.976193e+003
8.047318e+002, 3.975650e+003
8.052139e+002, 3.974535e+003
8.056960e+002, 3.976648e+003
8.061781e+002, 3.979780e+003
8.066602e+002, 3.979885e+003
8.071423e+002, 3.977304e+003
8.076245e+002, 3.976939e+003
8.081066e+002, 3.979333e+003
8.085887e+002, 3.982586e+003
8.090708e+002, 3.987493e+003
8.095529e+002, 3.990492e+003
8.100350e+002, 3.984469e+003
8.105172e+002, 3.966760e+003
8.109993e+002, 3.958093e+003
8.114814e+002, 3.965823e+003
8.119635e+002, 3.973106e+003
8.124456e+002, 3.975389e+003
8.129277e+002, 3.975195e+003
8.134099e+002, 3.973095e+003
8.138920e+002, 3.970653e+003
8.143741e+002, 3.972701e+003
8.148562e+002, 3.983839e+003
8.153383e+002, 3.995685e+003
8.158204e+002, 3.997629e+003
8.163026e+002, 3.994075e+003
8.167847e+002, 3.995217e+003
8.172668e+002, 4.001820e+003
8.177489e+002, 4.008880e+003
8.182310e+002, 4.013763e+003
8.187131e+002, 4.016075e+003
8.191953e+002, 4.014014e+003
8.196774e+002, 4.005973e+003
8.201595e+002, 4.004092e+003
8.206416e+002, 4.012123e+003
8.211237e+002, 4.019145e+003
8.216058e+002, 4.019969e+003
8.220880e+002, 4.018525e+003
8.225701e+002, 4.020231e+003
8.230522e+002, 4.024872e+003
8.235343e+002, 4.024837e+003
8.240164e+002, 4.013778e+003
8.244985e+002, 4.003575e+003
8.249807e+002, 3.998029e+003
8.254628e+002, 3.996919e+003
8.259449e+002, 4.002843e+003
8.264270e+002, 4.013250e+003
8.269091e+002, 4.019402e+003
8.273912e+002, 4.015802e+003
8.278734e+002, 4.008848e+003
8.283555e+002, 4.007188e+003
8.288376e+002, 4.009968e+003
8.293197e+002, 4.013819e+003
8.298018e+002, 4.018423e+003
8.302839e+002, 4.024555e+003
8.307661e+002, 4.033623e+003
8.312482e+002, 4.041182e+003
8.317303e+002, 4.039003e+003
8.322124e+002, 4.025014e+003
8.326945e+002, 4.016484e+003
8.331766e+002, 4.016282e+003
8.336588e+002, 4.017600e+003
8.341409e+002, 4.020125e+003
8.346230e+002, 4.022497e+003
8.351051e+002, 4.024157e+003
8.355872e+002, 4.024771e+003
8.360693e+002, 4.022960e+003
8.365515e+002, 4.014511e+003
8.370336e+002, 4.009620e+003
8.375157e+002, 4.017622e+003
8.379978e+002, 4.029658e+003
8.384799e+002, 4.034485e+003
8.389620e+002, 4.033428e+003
8.394442e+002, 4.035312e+003
8.399263e+002, 4.044328e+003
8.404084e+002, 4.054413e+003
8.408905e+002, 4.056386e+003
8.413726e+002, 4.051800e+003
8.418547e+002, 4.049238e+003
8.423369e+002, 4.048865e+003
8.428190e+002, 4.050325e+003
8.433011e+002, 4.053657e+003
8.437832e+002, 4.058232e+003
8.442653e+002, 4.062923e+003
8.447474e+002, 4.067806e+003
8.452296e+002, 4.076657e+003
8.457117e+002, 4.099224e+003
8.461938e+002, 4.111118e+003
8.466759e+002, 4.098962e+003
8.471580e+002, 4.086491e+003
8.476401e+002, 4.090769e+003
8.481223e+002, 4.105817e+003
8.486044e+002, 4.115234e+003
8.490865e+002, 4.112384e+003
8.495686e+002, 4.114961e+003
8.500507e+002, 4.141258e+003
8.505328e+002, 4.170698e+003
8.510150e+002, 4.181583e+003
8.514971e+002, 4.178493e+003
8.519792e+002, 4.172932e+003
8.524613e+002, 4.169318e+003
8.529434e+002, 4.170069e+003
8.534255e+002, 4.178346e+003
8.539077e+002, 4.192171e+003
8.543898e+002, 4.206356e+003
8.548719e+002, 4.220924e+003
8.553540e+002, 4.230623e+003
8.558361e+002, 4.232692e+003
8.563182e+002, 4.237528e+003
8.568004e+002, 4.254813e+003
8.572825e+002, 4.279231e+003
8.577646e+002, 4.293327e+003
8.582467e+002, 4.289185e+003
8.587288e+002, 4.291771e+003
8.592109e+002, 4.307301e+003
8.596931e+002, 4.322072e+003
8.601752e+002, 4.326034e+003
8.606573e+002, 4.329655e+003
8.611394e+002, 4.349419e+003
8.616215e+002, 4.385877e+003
8.621036e+002, 4.414880e+003
8.625858e+002, 4.422859e+003
8.630679e+002, 4.424777e+003
8.635500e+002, 4.426762e+003
8.640321e+002, 4.431237e+003
8.645142e+002, 4.443075e+003
8.649963e+002, 4.461207e+003
8.654785e+002, 4.478760e+003
8.659606e+002, 4.491706e+003
8.664427e+002, 4.502454e+003
8.669248e+002, 4.513894e+003
8.674069e+002, 4.526155e+003
8.678890e+002, 4.539741e+003
8.683712e+002, 4.554591e+003
8.688533e+002, 4.573235e+003
8.693354e+002, 4.597664e+003
8.698175e+002, 4.623462e+003
8.702996e+002, 4.645073e+003
8.707817e+002, 4.662544e+003
8.712639e+002, 4.674040e+003
8.717459e+002, 4.672976e+003
8.722280e+002, 4.677535e+003
8.727101e+002, 4.696142e+003
8.731923e+002, 4.716105e+003
8.736744e+002, 4.729475e+003
8.741565e+002, 4.738374e+003
8.746386e+002, 4.749208e+003
8.751207e+002, 4.764841e+003
8.756028e+002, 4.776484e+003
8.760850e+002, 4.775264e+003
8.765671e+002, 4.774489e+003
8.770492e+002, 4.787411e+003
8.775313e+002, 4.806464e+003
8.780134e+002, 4.816864e+003
8.784955e+002, 4.816146e+003
8.789777e+002, 4.815779e+003
8.794598e+002, 4.826797e+003
8.799419e+002, 4.840787e+003
8.804240e+002, 4.841779e+003
8.809061e+002, 4.833690e+003
8.813882e+002, 4.830821e+003
8.818704e+002, 4.835366e+003
8.823525e+002, 4.843302e+003
8.828346e+002, 4.852630e+003
8.833167e+002, 4.861406e+003
8.837988e+002, 4.864716e+003
8.842809e+002, 4.861356e+003
8.847631e+002, 4.861948e+003
8.852452e+002, 4.868227e+003
8.857273e+002, 4.874364e+003
8.862094e+002, 4.880131e+003
8.866915e+002, 4.883001e+003
8.871736e+002, 4.877048e+003
8.876558e+002, 4.863355e+003
8.881379e+002, 4.858743e+003
8.886200e+002, 4.873169e+003
8.891021e+002, 4.883262e+003
8.895842e+002, 4.879692e+003
8.900663e+002, 4.875580e+003
8.905485e+002, 4.881848e+003
8.910306e+002, 4.893940e+003
8.915127e+002, 4.901716e+003
8.919948e+002, 4.902358e+003
8.924769e+002, 4.901042e+003
8.929590e+002, 4.899345e+003
8.934412e+002, 4.898812e+003
8.939233e+002, 4.900649e+003
8.944054e+002, 4.905063e+003
8.948875e+002, 4.913987e+003
8.953696e+002, 4.926714e+003
8.958517e+002, 4.936968e+003
8.963339e+002, 4.939461e+003
8.968160e+002, 4.938589e+003
8.972981e+002, 4.943212e+003
8.977802e+002, 4.952849e+003
8.982623e+002, 4.963792e+003
8.987444e+002, 4.976014e+003
8.992266e+002, 4.984821e+003
8.997087e+002, 4.987203e+003
9.001908e+002, 4.987343e+003
9.006729e+002, 4.991616e+003
9.011550e+002, 5.000248e+003
9.016371e+002, 5.007508e+003
9.021193e+002, 5.013060e+003
9.026014e+002, 5.017770e+003
9.030835e+002, 5.016605e+003
9.035656e+002, 5.019840e+003
9.040477e+002, 5.038503e+003
9.045298e+002, 5.066372e+003
9.050120e+002, 5.086853e+003
9.054941e+002, 5.095489e+003
9.059762e+002, 5.104447e+003
9.064583e+002, 5.120965e+003
9.069404e+002, 5.134083e+003
9.074225e+002, 5.132324e+003
9.079047e+002, 5.125593e+003
9.083868e+002, 5.129205e+003
9.088689e+002, 5.144153e+003
9.093510e+002, 5.157437e+003
9.098331e+002, 5.159751e+003
9.103152e+002, 5.159778e+003
9.107974e+002, 5.165395e+003
9.112795e+002, 5.175464e+003
9.117616e+002, 5.189478e+003
9.122437e+002, 5.206080e+003
9.127258e+002, 5.220651e+003
9.132079e+002, 5.230969e+003
9.136901e+002, 5.239896e+003
9.141722e+002, 5.251760e+003
9.146543e+002, 5.265663e+003
9.151364e+002, 5.276827e+003
9.156185e+002, 5.285187e+003
9.161006e+002, 5.292478e+003
9.165828e+002, 5.299235e+003
9.170649e+002, 5.304459e+003
9.175470e+002, 5.306375e+003
9.180291e+002, 5.307012e+003
9.185112e+002, 5.314114e+003
9.189933e+002, 5.330950e+003
9.194755e+002, 5.346421e+003
9.199576e+002, 5.363259e+003
9.204397e+002, 5.374818e+003
9.209218e+002, 5.371640e+003
9.214039e+002, 5.366367e+003
9.218860e+002, 5.374740e+003
9.223682e+002, 5.396239e+003
9.228503e+002, 5.413157e+003
9.233324e+002, 5.418810e+003
9.238145e+002, 5.425377e+003
9.242966e+002, 5.435976e+003
9.247787e+002, 5.448962e+003
9.252609e+002, 5.464489e+003
9.257430e+002, 5.480897e+003
9.262251e+002, 5.495771e+003
9.267072e+002, 5.508441e+003
9.271893e+002, 5.517527e+003
9.276714e+002, 5.516292e+003
9.281536e+002, 5.516057e+003
9.286357e+002, 5.530839e+003
9.291178e+002, 5.554433e+003
9.295999e+002, 5.576015e+003
9.300820e+002, 5.593083e+003
9.305641e+002, 5.605403e+003
9.310463e+002, 5.612152e+003
9.315284e+002, 5.618079e+003
9.320105e+002, 5.631871e+003
9.324926e+002, 5.651335e+003
9.329747e+002, 5.666932e+003
9.334568e+002, 5.678384e+003
9.339390e+002, 5.690688e+003
9.344211e+002, 5.705776e+003
9.349032e+002, 5.720403e+003
9.353853e+002, 5.730388e+003
9.358674e+002, 5.737192e+003
9.363495e+002, 5.750268e+003
9.368317e+002, 5.772058e+003
9.373138e+002, 5.788673e+003
9.377959e+002, 5.794629e+003
9.382780e+002, 5.804520e+003
9.387601e+002, 5.830427e+003
9.392422e+002, 5.861981e+003
9.397244e+002, 5.879710e+003
9.402065e+002, 5.880236e+003
9.406886e+002, 5.886392e+003
9.411707e+002, 5.900478e+003
9.416528e+002, 5.916715e+003
9.421349e+002, 5.935376e+003
9.426171e+002, 5.954550e+003
9.430992e+002, 5.973906e+003
9.435813e+002, 5.992560e+003
9.440634e+002, 6.007823e+003
9.445455e+002, 6.017925e+003
9.450276e+002, 6.029664e+003
9.455098e+002, 6.043956e+003
9.459919e+002, 6.062407e+003
9.464740e+002, 6.090791e+003
9.469561e+002, 6.121266e+003
9.474382e+002, 6.143665e+003
9.479203e+002, 6.156875e+003
9.484025e+002, 6.165252e+003
9.488846e+002, 6.169108e+003
9.493667e+002, 6.174169e+003
9.498488e+002, 6.185212e+003
9.503309e+002, 6.201402e+003
9.508130e+002, 6.223489e+003
9.512952e+002, 6.249549e+003
9.517773e+002, 6.274048e+003
9.522594e+002, 6.295197e+003
9.527415e+002, 6.316352e+003
9.532236e+002, 6.342789e+003
9.537057e+002, 6.369096e+003
9.541878e+002, 6.378575e+003
9.546699e+002, 6.374522e+003
9.551520e+002, 6.378409e+003
9.556342e+002, 6.393334e+003
9.561163e+002, 6.415198e+003
9.565984e+002, 6.442494e+003
9.570805e+002, 6.472390e+003
9.575626e+002, 6.500651e+003
9.580447e+002, 6.527464e+003
9.585269e+002, 6.549970e+003
9.590090e+002, 6.567026e+003
9.594911e+002, 6.585367e+003
9.599732e+002, 6.607006e+003
9.604553e+002, 6.628931e+003
9.609374e+002, 6.648743e+003
9.614196e+002, 6.666966e+003
9.619017e+002, 6.684822e+003
9.623838e+002, 6.701029e+003
9.628659e+002, 6.720603e+003
9.633480e+002, 6.746745e+003
9.638301e+002, 6.771666e+003
9.643123e+002, 6.787794e+003
9.647944e+002, 6.806153e+003
9.652765e+002, 6.840781e+003
9.657586e+002, 6.886993e+003
9.662407e+002, 6.922771e+003
9.667228e+002, 6.942775e+003
9.672050e+002, 6.957832e+003
9.676871e+002, 6.965664e+003
9.681692e+002, 6.974157e+003
9.686513e+002, 6.984650e+003
9.691334e+002, 7.000388e+003
9.696155e+002, 7.029646e+003
9.700977e+002, 7.070353e+003
9.705798e+002, 7.102336e+003
9.710619e+002, 7.110530e+003
9.715440e+002, 7.117884e+003
9.720261e+002, 7.138930e+003
9.725082e+002, 7.166448e+003
9.729904e+002, 7.194626e+003
9.734725e+002, 7.222195e+003
9.739546e+002, 7.248161e+003
9.744367e+002, 7.272273e+003
9.749188e+002, 7.295798e+003
9.754009e+002, 7.318693e+003
9.758831e+002, 7.342392e+003
9.763652e+002, 7.371768e+003
9.768473e+002, 7.402350e+003
9.773294e+002, 7.420341e+003
9.778115e+002, 7.428444e+003
9.782936e+002, 7.447630e+003
9.787758e+002, 7.487927e+003
9.792579e+002, 7.535485e+003
9.797400e+002, 7.575453e+003
9.802221e+002, 7.608192e+003
9.807042e+002, 7.630825e+003
9.811863e+002, 7.645003e+003
9.816685e+002, 7.664220e+003
9.821506e+002, 7.691095e+003
9.826327e+002, 7.722786e+003
9.831148e+002, 7.758011e+003
9.835969e+002, 7.793944e+003
9.840790e+002, 7.825627e+003
9.845612e+002, 7.853056e+003
9.850433e+002, 7.874719e+003
9.855254e+002, 7.889466e+003
9.860075e+002, 7.904170e+003
9.864896e+002, 7.918760e+003
9.869717e+002, 7.940237e+003
9.874539e+002, 7.976506e+003
9.879360e+002, 8.021900e+003
9.884181e+002, 8.058555e+003
9.889002e+002, 8.083919e+003
9.893823e+002, 8.108830e+003
9.898644e+002, 8.133539e+003
9.903466e+002, 8.157068e+003
9.908287e+002, 8.176935e+003
9.913108e+002, 8.197962e+003
9.917929e+002, 8.222404e+003
9.922750e+002, 8.251558e+003
9.927571e+002, 8.293781e+003
9.932393e+002, 8.369829e+003
9.937214e+002, 8.421486e+003
9.942035e+002, 8.427818e+003
9.946856e+002, 8.434188e+003
9.951677e+002, 8.457923e+003
9.956498e+002, 8.490373e+003
9.961320e+002, 8.523200e+003
9.966141e+002, 8.555829e+003
9.970962e+002, 8.588042e+003
9.975783e+002, 8.618877e+003
9.980604e+002, 8.650543e+003
9.985425e+002, 8.680945e+003
9.990247e+002, 8.714847e+003
9.995068e+002, 8.763174e+003
9.999889e+002, 8.812307e+003
1.000471e+003, 8.837879e+003
1.000953e+003, 8.840104e+003
1.001435e+003, 8.850772e+003
1.001917e+003, 8.887200e+003
1.002399e+003, 8.928455e+003
1.002882e+003, 8.964927e+003
1.003364e+003, 8.999384e+003
1.003846e+003, 9.035911e+003
1.004328e+003, 9.072282e+003
1.004810e+003, 9.102221e+003
1.005292e+003, 9.125382e+003
1.005774e+003, 9.153189e+003
1.006256e+003, 9.196447e+003
1.006739e+003, 9.242938e+003
1.007221e+003, 9.283244e+003
1.007703e+003, 9.318254e+003
1.008185e+003, 9.344814e+003
1.008667e+003, 9.367544e+003
1.009149e+003, 9.401756e+003
1.009631e+003, 9.451257e+003
1.010113e+003, 9.495627e+003
1.010595e+003, 9.511998e+003
1.011078e+003, 9.517871e+003
1.011560e+003, 9.535122e+003
1.012042e+003, 9.563772e+003
1.012524e+003, 9.608718e+003
1.013006e+003, 9.666299e+003
1.013488e+003, 9.720087e+003
1.013970e+003, 9.763013e+003
1.014452e+003, 9.798818e+003
1.014935e+003, 9.828564e+003
1.015417e+003, 9.856887e+003
1.015899e+003, 9.897505e+003
1.016381e+003, 9.947727e+003
1.016863e+003, 9.996303e+003
1.017345e+003, 1.004078e+004
1.017827e+003, 1.007500e+004
1.018309e+003, 1.009519e+004
1.018791e+003, 1.011445e+004
1.019274e+003, 1.015200e+004
1.019756e+003, 1.020390e+004
1.020238e+003, 1.025190e+004
1.020720e+003, 1.029601e+004
1.021202e+003, 1.034018e+004
1.021684e+003, 1.038524e+004
1.022166e+003, 1.042878e+004
1.022648e+003, 1.046924e+004
1.023130e+003, 1.050849e+004
1.023613e+003, 1.054996e+004
1.024095e+003, 1.059346e+004
1.024577e+003, 1.063427e+004
1.025059e+003, 1.067127e+004
1.025541e+003, 1.071442e+004
1.026023e+003, 1.076769e+004
1.026505e+003, 1.081644e+004
1.026987e+003, 1.084794e+004
1.027469e+003, 1.087768e+004
1.027952e+003, 1.093710e+004
1.028434e+003, 1.102859e+004
1.028916e+003, 1.109844e+004
1.029398e+003, 1.114143e+004
1.029880e+003, 1.118178e+004
1.030362e+003, 1.122406e+004
1.030844e+003, 1.126460e+004
1.031326e+003, 1.129964e+004
1.031809e+003, 1.133306e+004
1.032291e+003, 1.137279e+004
1.032773e+003, 1.141928e+004
1.033255e+003, 1.146882e+004
1.033737e+003, 1.152365e+004
1.034219e+003, 1.157676e+004
1.034701e+003, 1.162232e+004
1.035183e+003, 1.167337e+004
1.035666e+003, 1.174295e+004
1.036148e+003, 1.182069e+004
1.036630e+003, 1.188464e+004
1.037112e+003, 1.193308e+004
1.037594e+003, 1.197653e+004
1.038076e+003, 1.200878e+004
1.038558e+003, 1.204532e+004
1.039040e+003, 1.209282e+004
1.039522e+003, 1.214034e+004
1.040005e+003, 1.217431e+004
1.040487e+003, 1.220526e+004
1.040969e+003, 1.225569e+004
1.041451e+003, 1.232862e+004
1.041933e+003, 1.240538e+004
1.042415e+003, 1.250330e+004
1.042897e+003, 1.258062e+004
1.043379e+003, 1.261437e+004
1.043861e+003, 1.264076e+004
1.044344e+003, 1.267885e+004
1.044826e+003, 1.272751e+004
1.045308e+003, 1.278568e+004
1.045790e+003, 1.285561e+004
1.046272e+003, 1.291768e+004
1.046754e+003, 1.296085e+004
1.047236e+003, 1.300857e+004
1.047718e+003, 1.306902e+004
1.048201e+003, 1.313336e+004
1.048683e+003, 1.319896e+004
1.049165e+003, 1.326286e+004
1.049647e+003, 1.332055e+004
1.050129e+003, 1.337058e+004
1.050611e+003, 1.342085e+004
1.051093e+003, 1.346699e+004
1.051575e+003, 1.352089e+004
1.052057e+003, 1.359105e+004
1.052540e+003, 1.366517e+004
1.053022e+003, 1.373683e+004
1.053504e+003, 1.380502e+004
1.053986e+003, 1.386914e+004
1.054468e+003, 1.392931e+004
1.054950e+003, 1.398563e+004
1.055432e+003, 1.402536e+004
1.055914e+003, 1.407858e+004
1.056396e+003, 1.417058e+004
1.056879e+003, 1.426534e+004
1.057361e+003, 1.433649e+004
1.057843e+003, 1.439050e+004
1.058325e+003, 1.443911e+004
1.058807e+003, 1.448470e+004
1.059289e+003, 1.453744e+004
1.059771e+003, 1.461039e+004
1.060253e+003, 1.467807e+004
1.060736e+003, 1.472576e+004
1.061218e+003, 1.476990e+004
1.061700e+003, 1.482301e+004
1.062182e+003, 1.488178e+004
1.062664e+003, 1.494128e+004
1.063146e+003, 1.499987e+004
1.063628e+003, 1.505034e+004
1.064110e+003, 1.508364e+004
1.064593e+003, 1.511789e+004
1.065075e+003, 1.515973e+004
1.065557e+003, 1.520622e+004
1.066039e+003, 1.525417e+004
1.066521e+003, 1.530575e+004
1.067003e+003, 1.536674e+004
1.067485e+003, 1.543615e+004
1.067967e+003, 1.550192e+004
1.068449e+003, 1.556115e+004
1.068932e+003, 1.561314e+004
1.069414e+003, 1.564936e+004
1.069896e+003, 1.568653e+004
1.070378e+003, 1.574230e+004
1.070860e+003, 1.580432e+004
1.071342e+003, 1.585555e+004
1.071824e+003, 1.589396e+004
1.072306e+003, 1.592680e+004
1.072788e+003, 1.595368e+004
1.073271e+003, 1.598211e+004
1.073753e+003, 1.601613e+004
1.074235e+003, 1.605231e+004
1.074717e+003, 1.609171e+004
1.075199e+003, 1.612950e+004
1.075681e+003, 1.615781e+004
1.076163e+003, 1.617829e+004
1.076645e+003, 1.620246e+004
1.077127e+003, 1.623672e+004
1.077610e+003, 1.626746e+004
1.078092e+003, 1.628031e+004
1.078574e+003, 1.629661e+004
1.079056e+003, 1.633473e+004
1.079538e+003, 1.638205e+004
1.080020e+003, 1.642532e+004
1.080502e+003, 1.646289e+004
1.080984e+003, 1.649642e+004
1.081467e+003, 1.652564e+004
1.081949e+003, 1.655434e+004
1.082431e+003, 1.658489e+004
1.082913e+003, 1.661483e+004
1.083395e+003, 1.664353e+004
1.083877e+003, 1.666997e+004
1.084359e+003, 1.668884e+004
1.084841e+003, 1.670519e+004
1.085323e+003, 1.673411e+004
1.085806e+003, 1.678107e+004
1.086288e+003, 1.682361e+004
1.086770e+003, 1.684907e+004
1.087252e+003, 1.687150e+004
1.087734e+003, 1.689760e+004
1.088216e+003, 1.692479e+004
1.088698e+003, 1.695486e+004
1.089180e+003, 1.698253e+004
1.089662e+003, 1.699190e+004
1.090145e+003, 1.697974e+004
1.090627e+003, 1.698507e+004
1.091109e+003, 1.703333e+004
1.091591e+003, 1.708777e+004
1.092073e+003, 1.714155e+004
1.092555e+003, 1.718691e+004
1.093037e+003, 1.721836e+004
1.093519e+003, 1.723640e+004
1.094002e+003, 1.723481e+004
1.094484e+003, 1.721598e+004
1.094966e+003, 1.721633e+004
1.095448e+003, 1.725818e+004
1.095930e+003, 1.730486e+004
1.096412e+003, 1.734935e+004
1.096894e+003, 1.738953e+004
1.097376e+003, 1.741516e+004
1.097859e+003, 1.744152e+004
1.098341e+003, 1.749402e+004
1.098823e+003, 1.756956e+004
1.099305e+003, 1.763459e+004
1.099787e+003, 1.767954e+004
1.100269e+003, 1.771744e+004
1.100751e+003, 1.774345e+004
1.101233e+003, 1.777258e+004
1.101715e+003, 1.781350e+004
1.102198e+003, 1.786047e+004
1.102680e+003, 1.790689e+004
1.103162e+003, 1.795354e+004
1.103644e+003, 1.800456e+004
1.104126e+003, 1.805969e+004
1.104608e+003, 1.812265e+004
1.105090e+003, 1.819640e+004
1.105572e+003, 1.827507e+004
1.106054e+003, 1.835704e+004
1.106537e+003, 1.844300e+004
1.107019e+003, 1.854357e+004
1.107501e+003, 1.864679e+004
1.107983e+003, 1.871851e+004
1.108465e+003, 1.874675e+004
1.108947e+003, 1.879981e+004
1.109429e+003, 1.889927e+004
1.109911e+003, 1.900166e+004
1.110394e+003, 1.910717e+004
1.110876e+003, 1.920326e+004
1.111358e+003, 1.927279e+004
1.111840e+003, 1.933293e+004
1.112322e+003, 1.941196e+004
1.112804e+003, 1.951071e+004
1.113286e+003, 1.961172e+004
1.113768e+003, 1.971188e+004
1.114250e+003, 1.981903e+004
1.114733e+003, 1.993946e+004
1.115215e+003, 2.005865e+004
1.115697e+003, 2.016675e+004
1.116179e+003, 2.027430e+004
1.116661e+003, 2.039589e+004
1.117143e+003, 2.052885e+004
1.117625e+003, 2.065209e+004
1.118107e+003, 2.075547e+004
1.118589e+003, 2.087251e+004
1.119072e+003, 2.100788e+004
1.119554e+003, 2.114865e+004
1.120036e+003, 2.129428e+004
1.120518e+003, 2.143948e+004
1.121000e+003, 2.157987e+004
1.121482e+003, 2.171744e+004
1.121964e+003, 2.185674e+004
1.122446e+003, 2.199721e+004
1.122929e+003, 2.214167e+004
1.123411e+003, 2.228924e+004
1.123893e+003, 2.244733e+004
1.124375e+003, 2.262329e+004
1.124857e+003, 2.279028e+004
1.125339e+003, 2.292563e+004
1.125821e+003, 2.305375e+004
1.126303e+003, 2.321745e+004
1.126786e+003, 2.341439e+004
1.127268e+003, 2.360533e+004
1.127750e+003, 2.379032e+004
1.128232e+003, 2.395626e+004
1.128714e+003, 2.409700e+004
1.129196e+003, 2.424528e+004
1.129678e+003, 2.441603e+004
1.130160e+003, 2.459543e+004
1.130642e+003, 2.476848e+004
1.131125e+003, 2.493612e+004
1.131607e+003, 2.509680e+004
1.132089e+003, 2.525170e+004
1.132571e+003, 2.542223e+004
1.133053e+003, 2.561028e+004
1.133535e+003, 2.578979e+004
1.134017e+003, 2.595304e+004
1.134499e+003, 2.611996e+004
1.134981e+003, 2.630682e+004
1.135464e+003, 2.650207e+004
1.135946e+003, 2.668180e+004
1.136428e+003, 2.685217e+004
1.136910e+003, 2.703739e+004
1.137392e+003, 2.723566e+004
1.137874e+003, 2.743942e+004
1.138356e+003, 2.764599e+004
1.138838e+003, 2.784758e+004
1.139321e+003, 2.804116e+004
1.139803e+003, 2.822479e+004
1.140285e+003, 2.839434e+004
1.140767e+003, 2.855779e+004
1.141249e+003, 2.872832e+004
1.141731e+003, 2.890596e+004
1.142213e+003, 2.909552e+004
1.142695e+003, 2.929159e+004
1.143177e+003, 2.948083e+004
1.143660e+003, 2.965774e+004
1.144142e+003, 2.981394e+004
1.144624e+003, 2.993248e+004
1.145106e+003, 3.005717e+004
1.145588e+003, 3.024793e+004
1.146070e+003, 3.046051e+004
1.146552e+003, 3.064579e+004
1.147034e+003, 3.080703e+004
1.147516e+003, 3.095069e+004
1.147999e+003, 3.108385e+004
1.148481e+003, 3.122439e+004
1.148963e+003, 3.138241e+004
1.149445e+003, 3.153485e+004
1.149927e+003, 3.165534e+004
1.150409e+003, 3.177835e+004
1.150891e+003, 3.194521e+004
1.151373e+003, 3.211411e+004
1.151856e+003, 3.222949e+004
1.152338e+003, 3.231093e+004
1.152820e+003, 3.241713e+004
1.153302e+003, 3.256011e+004
1.153784e+003, 3.268508e+004
1.154266e+003, 3.275720e+004
1.154748e+003, 3.283263e+004
1.155230e+003, 3.293780e+004
1.155713e+003, 3.304329e+004
1.156195e+003, 3.313662e+004
1.156677e+003, 3.321630e+004
1.157159e+003, 3.327220e+004
1.157641e+003, 3.331130e+004
1.158123e+003, 3.337955e+004
1.158605e+003, 3.350793e+004
1.159087e+003, 3.360999e+004
1.159569e+003, 3.366155e+004
1.160052e+003, 3.371309e+004
1.160534e+003, 3.378096e+004
1.161016e+003, 3.385070e+004
1.161498e+003, 3.391296e+004
1.161980e+003, 3.396872e+004
1.162462e+003, 3.402012e+004
1.162944e+003, 3.406747e+004
1.163426e+003, 3.410512e+004
1.163908e+003, 3.412087e+004
1.164391e+003, 3.416359e+004
1.164873e+003, 3.424565e+004
1.165355e+003, 3.433816e+004
1.165837e+003, 3.443270e+004
1.166319e+003, 3.451673e+004
1.166801e+003, 3.456933e+004
1.167283e+003, 3.460556e+004
1.167765e+003, 3.469923e+004
1.168247e+003, 3.485359e+004
1.168730e+003, 3.496202e+004
1.169212e+003, 3.501898e+004
1.169694e+003, 3.505031e+004
1.170176e+003, 3.506183e+004
1.170658e+003, 3.509339e+004
1.171140e+003, 3.517357e+004
1.171622e+003, 3.528205e+004
1.172104e+003, 3.539648e+004
1.172587e+003, 3.550873e+004
1.173069e+003, 3.558579e+004
1.173551e+003, 3.563705e+004
1.174033e+003, 3.569729e+004
1.174515e+003, 3.577018e+004
1.174997e+003, 3.584339e+004
1.175479e+003, 3.591395e+004
1.175961e+003, 3.600140e+004
1.176443e+003, 3.612721e+004
1.176926e+003, 3.626666e+004
1.177408e+003, 3.638708e+004
1.177890e+003, 3.650295e+004
1.178372e+003, 3.664461e+004
1.178854e+003, 3.679471e+004
1.179336e+003, 3.691191e+004
1.179818e+003, 3.699898e+004
1.180300e+003, 3.709439e+004
1.180782e+003, 3.721502e+004
1.181265e+003, 3.733813e+004
1.181747e+003, 3.743944e+004
1.182229e+003, 3.755096e+004
1.182711e+003, 3.770052e+004
1.183193e+003, 3.786370e+004
1.183675e+003, 3.801777e+004
1.184157e+003, 3.816682e+004
1.184639e+003, 3.831839e+004
1.185122e+003, 3.847502e+004
1.185604e+003, 3.865487e+004
1.186086e+003, 3.888104e+004
1.186568e+003, 3.910090e+004
1.187050e+003, 3.929348e+004
1.187532e+003, 3.949356e+004
1.188014e+003, 3.971209e+004
1.188496e+003, 3.994734e+004
1.188979e+003, 4.020607e+004
1.189461e+003, 4.047643e+004
1.189943e+003, 4.071479e+004
1.190425e+003, 4.091082e+004
1.190907e+003, 4.113379e+004
1.191389e+003, 4.139042e+004
1.191871e+003, 4.165257e+004
1.192353e+003, 4.191407e+004
1.192835e+003, 4.218304e+004
1.193318e+003, 4.246154e+004
1.193800e+003, 4.275477e+004
1.194282e+003, 4.306928e+004
1.194764e+003, 4.340073e+004
1.195246e+003, 4.373002e+004
1.195728e+003, 4.405717e+004
1.196210e+003, 4.438193e+004
1.196692e+003, 4.470283e+004
1.197174e+003, 4.502621e+004
1.197657e+003, 4.535221e+004
1.198139e+003, 4.567543e+004
1.198621e+003, 4.599050e+004
1.199103e+003, 4.632486e+004
1.199585e+003, 4.673192e+004
1.200067e+003, 4.716722e+004
1.200549e+003, 4.754289e+004
1.201031e+003, 4.788183e+004
1.201514e+003, 4.823183e+004
1.201996e+003, 4.859717e+004
1.202478e+003, 4.896942e+004
1.202960e+003, 4.934795e+004
1.203442e+003, 4.973700e+004
1.203924e+003, 5.014233e+004
1.204406e+003, 5.055159e+004
1.204888e+003, 5.096390e+004
1.205370e+003, 5.136507e+004
1.205853e+003, 5.172298e+004
1.206335e+003, 5.207513e+004
1.206817e+003, 5.246382e+004
1.207299e+003, 5.288943e+004
1.207781e+003, 5.334763e+004
1.208263e+003, 5.383902e+004
1.208745e+003, 5.430944e+004
1.209227e+003, 5.471787e+004
1.209709e+003, 5.514196e+004
1.210192e+003, 5.560408e+004
1.210674e+003, 5.608299e+004
1.211156e+003, 5.658627e+004
1.211638e+003, 5.708521e+004
1.212120e+003, 5.754712e+004
1.212602e+003, 5.798138e+004
1.213084e+003, 5.841460e+004
1.213566e+003, 5.883800e+004
1.214049e+003, 5.930746e+004
1.214531e+003, 5.983744e+004
1.215013e+003, 6.035751e+004
1.215495e+003, 6.085704e+004
1.215977e+003, 6.133438e+004
1.216459e+003, 6.178646e+004
1.216941e+003, 6.221446e+004
1.217423e+003, 6.261052e+004
1.217906e+003, 6.299778e+004
1.218388e+003, 6.345818e+004
1.218870e+003, 6.397225e+004
1.219352e+003, 6.443520e+004
1.219834e+003, 6.485686e+004
1.220316e+003, 6.532068e+004
1.220798e+003, 6.583846e+004
1.221280e+003, 6.635217e+004
1.221762e+003, 6.683314e+004
1.222245e+003, 6.728259e+004
1.222727e+003, 6.767755e+004
1.223209e+003, 6.806701e+004
1.223691e+003, 6.852112e+004
1.224173e+003, 6.899370e+004
1.224655e+003, 6.942504e+004
1.225137e+003, 6.981995e+004
1.225619e+003, 7.019423e+004
1.226101e+003, 7.055236e+004
1.226584e+003, 7.090895e+004
1.227066e+003, 7.127056e+004
1.227548e+003, 7.161941e+004
1.228030e+003, 7.194130e+004
1.228512e+003, 7.225848e+004
1.228994e+003, 7.257967e+004
1.229476e+003, 7.290145e+004
1.229958e+003, 7.322130e+004
1.230441e+003, 7.354060e+004
1.230923e+003, 7.386670e+004
1.231405e+003, 7.419963e+004
1.231887e+003, 7.449930e+004
1.232369e+003, 7.475591e+004
1.232851e+003, 7.500617e+004
1.233333e+003, 7.525002e+004
1.233815e+003, 7.549525e+004
1.234297e+003, 7.574636e+004
1.234780e+003, 7.599111e+004
1.235262e+003, 7.622401e+004
1.235744e+003, 7.643427e+004
1.236226e+003, 7.659588e+004
1.236708e+003, 7.672286e+004
1.237190e+003, 7.688990e+004
1.237672e+003, 7.707933e+004
1.238154e+003, 7.721871e+004
1.238636e+003, 7.730370e+004
1.239119e+003, 7.735234e+004
1.239601e+003, 7.737413e+004
1.240083e+003, 7.738526e+004
1.240565e+003, 7.739164e+004
1.241047e+003, 7.741563e+004
1.241529e+003, 7.751667e+004
1.242011e+003, 7.760688e+004
1.242493e+003, 7.759417e+004
1.242975e+003, 7.752565e+004
1.243458e+003, 7.742901e+004
1.243940e+003, 7.733965e+004
1.244422e+003, 7.733227e+004
1.244904e+003, 7.740941e+004
1.245386e+003, 7.744102e+004
1.245868e+003, 7.738661e+004
1.246350e+003, 7.729827e+004
1.246832e+003, 7.714177e+004
1.247315e+003, 7.701084e+004
1.247797e+003, 7.696359e+004
1.248279e+003, 7.691709e+004
1.248761e+003, 7.679670e+004
1.249243e+003, 7.665506e+004
1.249725e+003, 7.659625e+004
1.250207e+003, 7.661179e+004
1.250689e+003, 7.656911e+004
1.251172e+003, 7.646646e+004
1.251654e+003, 7.629801e+004
1.252136e+003, 7.605883e+004
1.252618e+003, 7.584501e+004
1.253100e+003, 7.568528e+004
1.253582e+003, 7.558305e+004
1.254064e+003, 7.554680e+004
1.254546e+003, 7.551291e+004
1.255028e+003, 7.538438e+004
1.255510e+003, 7.520623e+004
1.255993e+003, 7.506174e+004
1.256475e+003, 7.493266e+004
1.256957e+003, 7.477833e+004
1.257439e+003, 7.461414e+004
1.257921e+003, 7.449180e+004
1.258403e+003, 7.441359e+004
1.258885e+003, 7.431967e+004
1.259367e+003, 7.418027e+004
1.259850e+003, 7.404248e+004
1.260332e+003, 7.394043e+004
1.260814e+003, 7.382948e+004
1.261296e+003, 7.365500e+004
1.261778e+003, 7.349667e+004
1.262260e+003, 7.342855e+004
1.262742e+003, 7.340914e+004
1.263224e+003, 7.337473e+004
1.263707e+003, 7.332507e+004
1.264189e+003, 7.326646e+004
1.264671e+003, 7.319386e+004
1.265153e+003, 7.312832e+004
1.265635e+003, 7.307102e+004
1.266117e+003, 7.301230e+004
1.266599e+003, 7.294609e+004
1.267081e+003, 7.290400e+004
1.267563e+003, 7.290353e+004
1.268046e+003, 7.293746e+004
1.268528e+003, 7.301068e+004
1.269010e+003, 7.308650e+004
1.269492e+003, 7.305373e+004
1.269974e+003, 7.296770e+004
1.270456e+003, 7.296308e+004
1.270938e+003, 7.303110e+004
1.271420e+003, 7.314161e+004
1.271902e+003, 7.327345e+004
1.272385e+003, 7.338386e+004
1.272867e+003, 7.345642e+004
1.273349e+003, 7.352205e+004
1.273831e+003, 7.358013e+004
1.274313e+003, 7.366319e+004
1.274795e+003, 7.378108e+004
1.275277e+003, 7.393814e+004
1.275759e+003, 7.417352e+004
1.276242e+003, 7.442252e+004
1.276724e+003, 7.460152e+004
1.277206e+003, 7.473573e+004
1.277688e+003, 7.491592e+004
1.278170e+003, 7.515190e+004
1.278652e+003, 7.533186e+004
1.279134e+003, 7.540851e+004
1.279616e+003, 7.561628e+004
1.280099e+003, 7.600713e+004
1.280581e+003, 7.637437e+004
1.281063e+003, 7.663984e+004
1.281545e+003, 7.689075e+004
1.282027e+003, 7.719727e+004
1.282509e+003, 7.753877e+004
1.282991e+003, 7.788865e+004
1.283473e+003, 7.823996e+004
1.283955e+003, 7.859323e+004
##END=



