##NAMES=Fluorcalciomicrolite
##RRUFFID=R130022
##IDEAL CHEMISTRY=(Ca,Na)_2_Ta^5+^_2_O_6_F
##LOCALITY=Emdal mines, Muiane, Mozambique
##OWNER=RRUFF
##SOURCE=Royal Ontario Museum
##DESCRIPTION=Yellowish brown transparent fragment
##STATUS=The identification of this mineral is confirmed by single-crystal X-ray diffraction and chemical analysis.
##URL=rruff.info/R130022
##MEASURED CHEMISTRY=(Ca_1.14_Na_0.78_U_0.03_)_Σ=1.95_(Ta_1.63_Nb_0.18_Ti_0.15_Sb_0.02_Sn_0.02_)_Σ=2_O_6_[F_0.73_(OH)_0.24_]_Σ=0.97_
8.975323e+001, 0.000000e+000
9.023535e+001, 1.094558e+002
9.071747e+001, 1.066544e+002
9.119958e+001, 1.052366e+002
9.168170e+001, 1.082438e+002
9.216382e+001, 1.114593e+002
9.264594e+001, 1.138657e+002
9.312805e+001, 1.156065e+002
9.361017e+001, 1.170681e+002
9.409229e+001, 1.182124e+002
9.457440e+001, 1.189425e+002
9.505651e+001, 1.195008e+002
9.553863e+001, 1.200233e+002
9.602074e+001, 1.204655e+002
9.650286e+001, 1.207379e+002
9.698498e+001, 1.207209e+002
9.746709e+001, 1.203067e+002
9.794921e+001, 1.201983e+002
9.843133e+001, 1.208499e+002
9.891344e+001, 1.212603e+002
9.939556e+001, 1.209711e+002
9.987768e+001, 1.201807e+002
1.003598e+002, 1.194602e+002
1.008419e+002, 1.191204e+002
1.013240e+002, 1.191351e+002
1.018061e+002, 1.192138e+002
1.022883e+002, 1.192933e+002
1.027704e+002, 1.194567e+002
1.032525e+002, 1.198136e+002
1.037346e+002, 1.203913e+002
1.042167e+002, 1.209921e+002
1.046988e+002, 1.214862e+002
1.051810e+002, 1.218833e+002
1.056631e+002, 1.221795e+002
1.061452e+002, 1.223402e+002
1.066273e+002, 1.223905e+002
1.071094e+002, 1.224477e+002
1.075915e+002, 1.225573e+002
1.080737e+002, 1.226016e+002
1.085558e+002, 1.224656e+002
1.090379e+002, 1.222167e+002
1.095200e+002, 1.220192e+002
1.100021e+002, 1.220487e+002
1.104842e+002, 1.223703e+002
1.109664e+002, 1.225749e+002
1.114485e+002, 1.225442e+002
1.119306e+002, 1.225038e+002
1.124127e+002, 1.225755e+002
1.128948e+002, 1.227665e+002
1.133769e+002, 1.229909e+002
1.138591e+002, 1.231207e+002
1.143412e+002, 1.230668e+002
1.148233e+002, 1.230743e+002
1.153054e+002, 1.232069e+002
1.157875e+002, 1.233678e+002
1.162696e+002, 1.234417e+002
1.167517e+002, 1.233819e+002
1.172339e+002, 1.232683e+002
1.177160e+002, 1.233082e+002
1.181981e+002, 1.235679e+002
1.186802e+002, 1.237984e+002
1.191623e+002, 1.239625e+002
1.196444e+002, 1.240466e+002
1.201266e+002, 1.239869e+002
1.206087e+002, 1.236627e+002
1.210908e+002, 1.232484e+002
1.215729e+002, 1.230885e+002
1.220550e+002, 1.232699e+002
1.225371e+002, 1.235529e+002
1.230193e+002, 1.237546e+002
1.235014e+002, 1.238732e+002
1.239835e+002, 1.239298e+002
1.244656e+002, 1.238277e+002
1.249477e+002, 1.237052e+002
1.254298e+002, 1.237013e+002
1.259120e+002, 1.238884e+002
1.263941e+002, 1.241917e+002
1.268762e+002, 1.244682e+002
1.273583e+002, 1.248164e+002
1.278404e+002, 1.249483e+002
1.283225e+002, 1.246494e+002
1.288047e+002, 1.241494e+002
1.292868e+002, 1.237579e+002
1.297689e+002, 1.236859e+002
1.302510e+002, 1.239072e+002
1.307331e+002, 1.240350e+002
1.312152e+002, 1.240366e+002
1.316974e+002, 1.239696e+002
1.321795e+002, 1.237346e+002
1.326616e+002, 1.234239e+002
1.331437e+002, 1.232477e+002
1.336258e+002, 1.234144e+002
1.341079e+002, 1.240107e+002
1.345901e+002, 1.243787e+002
1.350722e+002, 1.242654e+002
1.355543e+002, 1.241706e+002
1.360364e+002, 1.244548e+002
1.365185e+002, 1.251215e+002
1.370006e+002, 1.258462e+002
1.374828e+002, 1.262664e+002
1.379649e+002, 1.263291e+002
1.384470e+002, 1.262617e+002
1.389291e+002, 1.260027e+002
1.394112e+002, 1.256485e+002
1.398933e+002, 1.252581e+002
1.403755e+002, 1.248095e+002
1.408576e+002, 1.244691e+002
1.413397e+002, 1.245306e+002
1.418218e+002, 1.249520e+002
1.423039e+002, 1.253886e+002
1.427860e+002, 1.258002e+002
1.432681e+002, 1.261376e+002
1.437503e+002, 1.261837e+002
1.442324e+002, 1.256720e+002
1.447145e+002, 1.250987e+002
1.451966e+002, 1.249308e+002
1.456787e+002, 1.251717e+002
1.461608e+002, 1.254874e+002
1.466430e+002, 1.255510e+002
1.471251e+002, 1.253216e+002
1.476072e+002, 1.252389e+002
1.480893e+002, 1.254841e+002
1.485714e+002, 1.258473e+002
1.490535e+002, 1.263150e+002
1.495357e+002, 1.268623e+002
1.500178e+002, 1.273178e+002
1.504999e+002, 1.273457e+002
1.509820e+002, 1.265751e+002
1.514641e+002, 1.262019e+002
1.519462e+002, 1.265828e+002
1.524284e+002, 1.271845e+002
1.529105e+002, 1.275850e+002
1.533926e+002, 1.276256e+002
1.538747e+002, 1.274544e+002
1.543568e+002, 1.274383e+002
1.548389e+002, 1.276962e+002
1.553211e+002, 1.279895e+002
1.558032e+002, 1.283670e+002
1.562853e+002, 1.287553e+002
1.567674e+002, 1.290857e+002
1.572495e+002, 1.293294e+002
1.577316e+002, 1.294686e+002
1.582138e+002, 1.294077e+002
1.586959e+002, 1.289243e+002
1.591780e+002, 1.285193e+002
1.596601e+002, 1.283607e+002
1.601422e+002, 1.283752e+002
1.606243e+002, 1.283674e+002
1.611065e+002, 1.281846e+002
1.615886e+002, 1.279277e+002
1.620707e+002, 1.280056e+002
1.625528e+002, 1.288574e+002
1.630349e+002, 1.296039e+002
1.635170e+002, 1.295619e+002
1.639991e+002, 1.288163e+002
1.644813e+002, 1.282218e+002
1.649634e+002, 1.284753e+002
1.654455e+002, 1.292143e+002
1.659276e+002, 1.295677e+002
1.664097e+002, 1.291885e+002
1.668918e+002, 1.285917e+002
1.673740e+002, 1.283913e+002
1.678561e+002, 1.286683e+002
1.683382e+002, 1.289584e+002
1.688203e+002, 1.289902e+002
1.693024e+002, 1.288739e+002
1.697845e+002, 1.287139e+002
1.702667e+002, 1.284997e+002
1.707488e+002, 1.282948e+002
1.712309e+002, 1.282739e+002
1.717130e+002, 1.285632e+002
1.721951e+002, 1.288073e+002
1.726772e+002, 1.288319e+002
1.731594e+002, 1.287398e+002
1.736415e+002, 1.286857e+002
1.741236e+002, 1.287853e+002
1.746057e+002, 1.289950e+002
1.750878e+002, 1.290332e+002
1.755699e+002, 1.286402e+002
1.760521e+002, 1.283675e+002
1.765342e+002, 1.284160e+002
1.770163e+002, 1.286839e+002
1.774984e+002, 1.289820e+002
1.779805e+002, 1.291701e+002
1.784626e+002, 1.292472e+002
1.789448e+002, 1.293972e+002
1.794269e+002, 1.297126e+002
1.799090e+002, 1.300098e+002
1.803911e+002, 1.302690e+002
1.808732e+002, 1.304677e+002
1.813553e+002, 1.305601e+002
1.818375e+002, 1.304920e+002
1.823196e+002, 1.302368e+002
1.828017e+002, 1.300810e+002
1.832838e+002, 1.299429e+002
1.837659e+002, 1.299437e+002
1.842480e+002, 1.302804e+002
1.847301e+002, 1.308777e+002
1.852123e+002, 1.313711e+002
1.856944e+002, 1.313728e+002
1.861765e+002, 1.307852e+002
1.866586e+002, 1.305583e+002
1.871407e+002, 1.309260e+002
1.876228e+002, 1.314712e+002
1.881050e+002, 1.319455e+002
1.885871e+002, 1.323121e+002
1.890692e+002, 1.325567e+002
1.895513e+002, 1.325847e+002
1.900334e+002, 1.324103e+002
1.905155e+002, 1.324463e+002
1.909977e+002, 1.330052e+002
1.914798e+002, 1.336730e+002
1.919619e+002, 1.339037e+002
1.924440e+002, 1.335639e+002
1.929261e+002, 1.331721e+002
1.934082e+002, 1.333777e+002
1.938904e+002, 1.339839e+002
1.943725e+002, 1.343689e+002
1.948546e+002, 1.340776e+002
1.953367e+002, 1.334809e+002
1.958188e+002, 1.333780e+002
1.963009e+002, 1.340325e+002
1.967831e+002, 1.347429e+002
1.972652e+002, 1.348978e+002
1.977473e+002, 1.346848e+002
1.982294e+002, 1.345736e+002
1.987115e+002, 1.348859e+002
1.991936e+002, 1.355199e+002
1.996758e+002, 1.360393e+002
2.001579e+002, 1.364224e+002
2.006400e+002, 1.366917e+002
2.011221e+002, 1.367450e+002
2.016042e+002, 1.366923e+002
2.020863e+002, 1.368046e+002
2.025685e+002, 1.373752e+002
2.030506e+002, 1.383648e+002
2.035327e+002, 1.390837e+002
2.040148e+002, 1.394152e+002
2.044969e+002, 1.395529e+002
2.049790e+002, 1.393889e+002
2.054612e+002, 1.390736e+002
2.059433e+002, 1.389425e+002
2.064254e+002, 1.393677e+002
2.069075e+002, 1.404000e+002
2.073896e+002, 1.409870e+002
2.078717e+002, 1.406204e+002
2.083539e+002, 1.402462e+002
2.088360e+002, 1.401401e+002
2.093181e+002, 1.402828e+002
2.098002e+002, 1.405276e+002
2.102823e+002, 1.407480e+002
2.107644e+002, 1.409340e+002
2.112466e+002, 1.411776e+002
2.117287e+002, 1.415737e+002
2.122108e+002, 1.419347e+002
2.126929e+002, 1.421563e+002
2.131750e+002, 1.422661e+002
2.136571e+002, 1.423735e+002
2.141393e+002, 1.425806e+002
2.146214e+002, 1.429061e+002
2.151035e+002, 1.432080e+002
2.155856e+002, 1.434803e+002
2.160677e+002, 1.437419e+002
2.165498e+002, 1.439466e+002
2.170320e+002, 1.441280e+002
2.175141e+002, 1.444289e+002
2.179962e+002, 1.450218e+002
2.184783e+002, 1.459670e+002
2.189604e+002, 1.465590e+002
2.194425e+002, 1.466203e+002
2.199247e+002, 1.465230e+002
2.204068e+002, 1.463866e+002
2.208889e+002, 1.462594e+002
2.213710e+002, 1.462958e+002
2.218531e+002, 1.466710e+002
2.223352e+002, 1.474130e+002
2.228174e+002, 1.480121e+002
2.232995e+002, 1.484068e+002
2.237816e+002, 1.487073e+002
2.242637e+002, 1.489753e+002
2.247458e+002, 1.492178e+002
2.252279e+002, 1.494397e+002
2.257100e+002, 1.496040e+002
2.261922e+002, 1.497405e+002
2.266743e+002, 1.500354e+002
2.271564e+002, 1.506964e+002
2.276385e+002, 1.513984e+002
2.281206e+002, 1.517886e+002
2.286027e+002, 1.518410e+002
2.290849e+002, 1.518802e+002
2.295670e+002, 1.520736e+002
2.300491e+002, 1.524427e+002
2.305312e+002, 1.530473e+002
2.310133e+002, 1.543153e+002
2.314954e+002, 1.555923e+002
2.319776e+002, 1.560029e+002
2.324597e+002, 1.554284e+002
2.329418e+002, 1.548186e+002
2.334239e+002, 1.547859e+002
2.339060e+002, 1.551102e+002
2.343881e+002, 1.555001e+002
2.348703e+002, 1.559532e+002
2.353524e+002, 1.563819e+002
2.358345e+002, 1.566141e+002
2.363166e+002, 1.565804e+002
2.367987e+002, 1.566455e+002
2.372808e+002, 1.570677e+002
2.377630e+002, 1.576733e+002
2.382451e+002, 1.583154e+002
2.387272e+002, 1.589984e+002
2.392093e+002, 1.596267e+002
2.396914e+002, 1.600041e+002
2.401735e+002, 1.600457e+002
2.406557e+002, 1.601126e+002
2.411378e+002, 1.603537e+002
2.416199e+002, 1.606835e+002
2.421020e+002, 1.610222e+002
2.425841e+002, 1.613340e+002
2.430662e+002, 1.616701e+002
2.435484e+002, 1.621650e+002
2.440305e+002, 1.629388e+002
2.445126e+002, 1.635347e+002
2.449947e+002, 1.635827e+002
2.454768e+002, 1.635368e+002
2.459589e+002, 1.638812e+002
2.464410e+002, 1.648048e+002
2.469232e+002, 1.658625e+002
2.474053e+002, 1.662251e+002
2.478874e+002, 1.655239e+002
2.483695e+002, 1.649950e+002
2.488516e+002, 1.648977e+002
2.493337e+002, 1.650068e+002
2.498159e+002, 1.651763e+002
2.502980e+002, 1.653589e+002
2.507801e+002, 1.655669e+002
2.512622e+002, 1.658179e+002
2.517443e+002, 1.660938e+002
2.522264e+002, 1.664588e+002
2.527086e+002, 1.670526e+002
2.531907e+002, 1.676360e+002
2.536728e+002, 1.680042e+002
2.541549e+002, 1.681194e+002
2.546370e+002, 1.681448e+002
2.551191e+002, 1.683282e+002
2.556013e+002, 1.687227e+002
2.560834e+002, 1.691754e+002
2.565655e+002, 1.698443e+002
2.570476e+002, 1.704465e+002
2.575297e+002, 1.707243e+002
2.580118e+002, 1.706684e+002
2.584940e+002, 1.705410e+002
2.589761e+002, 1.707180e+002
2.594582e+002, 1.713997e+002
2.599403e+002, 1.718808e+002
2.604224e+002, 1.721784e+002
2.609045e+002, 1.723164e+002
2.613867e+002, 1.721497e+002
2.618688e+002, 1.717545e+002
2.623509e+002, 1.714884e+002
2.628330e+002, 1.717935e+002
2.633151e+002, 1.728767e+002
2.637972e+002, 1.738009e+002
2.642794e+002, 1.745158e+002
2.647615e+002, 1.751467e+002
2.652436e+002, 1.757356e+002
2.657257e+002, 1.762969e+002
2.662078e+002, 1.768454e+002
2.666899e+002, 1.773984e+002
2.671721e+002, 1.779608e+002
2.676542e+002, 1.784787e+002
2.681363e+002, 1.790100e+002
2.686184e+002, 1.794568e+002
2.691005e+002, 1.796816e+002
2.695826e+002, 1.797507e+002
2.700648e+002, 1.798894e+002
2.705469e+002, 1.802930e+002
2.710290e+002, 1.809697e+002
2.715111e+002, 1.816003e+002
2.719932e+002, 1.821086e+002
2.724753e+002, 1.826532e+002
2.729575e+002, 1.833393e+002
2.734396e+002, 1.841223e+002
2.739217e+002, 1.848809e+002
2.744038e+002, 1.855407e+002
2.748859e+002, 1.861025e+002
2.753680e+002, 1.865505e+002
2.758501e+002, 1.868333e+002
2.763322e+002, 1.870903e+002
2.768144e+002, 1.872805e+002
2.772965e+002, 1.874793e+002
2.777786e+002, 1.878626e+002
2.782607e+002, 1.885489e+002
2.787428e+002, 1.894581e+002
2.792249e+002, 1.902549e+002
2.797071e+002, 1.907838e+002
2.801892e+002, 1.914072e+002
2.806713e+002, 1.923437e+002
2.811534e+002, 1.934214e+002
2.816355e+002, 1.943242e+002
2.821176e+002, 1.949041e+002
2.825998e+002, 1.952721e+002
2.830819e+002, 1.956908e+002
2.835640e+002, 1.961860e+002
2.840461e+002, 1.966777e+002
2.845282e+002, 1.971316e+002
2.850103e+002, 1.975779e+002
2.854925e+002, 1.980423e+002
2.859746e+002, 1.985276e+002
2.864567e+002, 1.990796e+002
2.869388e+002, 1.998313e+002
2.874209e+002, 2.008933e+002
2.879030e+002, 2.017576e+002
2.883852e+002, 2.021379e+002
2.888673e+002, 2.023569e+002
2.893494e+002, 2.028070e+002
2.898315e+002, 2.035802e+002
2.903136e+002, 2.045103e+002
2.907957e+002, 2.054545e+002
2.912779e+002, 2.064284e+002
2.917600e+002, 2.072332e+002
2.922421e+002, 2.078201e+002
2.927242e+002, 2.082437e+002
2.932063e+002, 2.084544e+002
2.936884e+002, 2.084563e+002
2.941706e+002, 2.085556e+002
2.946527e+002, 2.090638e+002
2.951348e+002, 2.099993e+002
2.956169e+002, 2.109145e+002
2.960990e+002, 2.119263e+002
2.965811e+002, 2.128181e+002
2.970633e+002, 2.134495e+002
2.975454e+002, 2.138086e+002
2.980275e+002, 2.138764e+002
2.985096e+002, 2.135210e+002
2.989917e+002, 2.128421e+002
2.994738e+002, 2.124925e+002
2.999560e+002, 2.125270e+002
3.004381e+002, 2.128307e+002
3.009202e+002, 2.135735e+002
3.014023e+002, 2.146177e+002
3.018844e+002, 2.153044e+002
3.023665e+002, 2.151422e+002
3.028487e+002, 2.144936e+002
3.033308e+002, 2.144769e+002
3.038129e+002, 2.154583e+002
3.042950e+002, 2.164052e+002
3.047771e+002, 2.168233e+002
3.052592e+002, 2.168538e+002
3.057414e+002, 2.168495e+002
3.062235e+002, 2.169309e+002
3.067056e+002, 2.170600e+002
3.071877e+002, 2.171532e+002
3.076698e+002, 2.171866e+002
3.081519e+002, 2.172770e+002
3.086341e+002, 2.175858e+002
3.091162e+002, 2.179518e+002
3.095983e+002, 2.180060e+002
3.100804e+002, 2.175866e+002
3.105625e+002, 2.171348e+002
3.110446e+002, 2.172052e+002
3.115268e+002, 2.177621e+002
3.120089e+002, 2.187547e+002
3.124910e+002, 2.205752e+002
3.129731e+002, 2.226420e+002
3.134552e+002, 2.245412e+002
3.139373e+002, 2.262388e+002
3.144195e+002, 2.270284e+002
3.149016e+002, 2.258065e+002
3.153837e+002, 2.227221e+002
3.158658e+002, 2.204621e+002
3.163479e+002, 2.196292e+002
3.168300e+002, 2.194234e+002
3.173121e+002, 2.192945e+002
3.177943e+002, 2.192076e+002
3.182764e+002, 2.191741e+002
3.187585e+002, 2.192119e+002
3.192406e+002, 2.193134e+002
3.197227e+002, 2.194172e+002
3.202048e+002, 2.194236e+002
3.206870e+002, 2.195310e+002
3.211691e+002, 2.199409e+002
3.216512e+002, 2.205665e+002
3.221333e+002, 2.211139e+002
3.226154e+002, 2.214558e+002
3.230975e+002, 2.216193e+002
3.235797e+002, 2.216505e+002
3.240618e+002, 2.214714e+002
3.245439e+002, 2.213526e+002
3.250260e+002, 2.214164e+002
3.255081e+002, 2.216014e+002
3.259902e+002, 2.218372e+002
3.264724e+002, 2.221350e+002
3.269545e+002, 2.223503e+002
3.274366e+002, 2.221079e+002
3.279187e+002, 2.212385e+002
3.284008e+002, 2.209102e+002
3.288829e+002, 2.218367e+002
3.293651e+002, 2.231862e+002
3.298472e+002, 2.238958e+002
3.303293e+002, 2.237810e+002
3.308114e+002, 2.235781e+002
3.312935e+002, 2.240748e+002
3.317756e+002, 2.253388e+002
3.322578e+002, 2.263203e+002
3.327399e+002, 2.268736e+002
3.332220e+002, 2.272135e+002
3.337041e+002, 2.274603e+002
3.341862e+002, 2.276276e+002
3.346683e+002, 2.277090e+002
3.351505e+002, 2.276396e+002
3.356326e+002, 2.274848e+002
3.361147e+002, 2.276695e+002
3.365968e+002, 2.283891e+002
3.370789e+002, 2.292002e+002
3.375610e+002, 2.299527e+002
3.380432e+002, 2.306588e+002
3.385253e+002, 2.313619e+002
3.390074e+002, 2.320968e+002
3.394895e+002, 2.328088e+002
3.399716e+002, 2.333109e+002
3.404537e+002, 2.333815e+002
3.409359e+002, 2.336716e+002
3.414180e+002, 2.344810e+002
3.419001e+002, 2.355153e+002
3.423822e+002, 2.364099e+002
3.428643e+002, 2.370576e+002
3.433464e+002, 2.375381e+002
3.438286e+002, 2.379318e+002
3.443107e+002, 2.381584e+002
3.447928e+002, 2.385574e+002
3.452749e+002, 2.391461e+002
3.457570e+002, 2.398941e+002
3.462391e+002, 2.409344e+002
3.467213e+002, 2.421924e+002
3.472034e+002, 2.432666e+002
3.476855e+002, 2.437454e+002
3.481676e+002, 2.435909e+002
3.486497e+002, 2.436478e+002
3.491318e+002, 2.439504e+002
3.496140e+002, 2.443891e+002
3.500961e+002, 2.450087e+002
3.505782e+002, 2.457286e+002
3.510603e+002, 2.463900e+002
3.515424e+002, 2.468978e+002
3.520245e+002, 2.472741e+002
3.525067e+002, 2.476126e+002
3.529888e+002, 2.478707e+002
3.534709e+002, 2.481424e+002
3.539530e+002, 2.477739e+002
3.544351e+002, 2.476828e+002
3.549172e+002, 2.495240e+002
3.553994e+002, 2.537794e+002
3.558815e+002, 2.584820e+002
3.563636e+002, 2.602287e+002
3.568457e+002, 2.570858e+002
3.573278e+002, 2.547323e+002
3.578099e+002, 2.532645e+002
3.582920e+002, 2.524224e+002
3.587741e+002, 2.521842e+002
3.592563e+002, 2.524538e+002
3.597384e+002, 2.529885e+002
3.602205e+002, 2.535825e+002
3.607026e+002, 2.542554e+002
3.611847e+002, 2.547940e+002
3.616668e+002, 2.551175e+002
3.621490e+002, 2.554002e+002
3.626311e+002, 2.556584e+002
3.631132e+002, 2.559226e+002
3.635953e+002, 2.562635e+002
3.640774e+002, 2.567425e+002
3.645595e+002, 2.572778e+002
3.650417e+002, 2.574924e+002
3.655238e+002, 2.568269e+002
3.660059e+002, 2.566262e+002
3.664880e+002, 2.574233e+002
3.669701e+002, 2.585410e+002
3.674522e+002, 2.593102e+002
3.679344e+002, 2.595186e+002
3.684165e+002, 2.594496e+002
3.688986e+002, 2.595190e+002
3.693807e+002, 2.597408e+002
3.698628e+002, 2.600746e+002
3.703449e+002, 2.608570e+002
3.708271e+002, 2.614665e+002
3.713092e+002, 2.614164e+002
3.717913e+002, 2.608181e+002
3.722734e+002, 2.602406e+002
3.727555e+002, 2.602249e+002
3.732376e+002, 2.607502e+002
3.737198e+002, 2.611048e+002
3.742019e+002, 2.611718e+002
3.746840e+002, 2.612021e+002
3.751661e+002, 2.612620e+002
3.756482e+002, 2.613471e+002
3.761303e+002, 2.614664e+002
3.766125e+002, 2.616494e+002
3.770946e+002, 2.618092e+002
3.775767e+002, 2.616778e+002
3.780588e+002, 2.610561e+002
3.785409e+002, 2.607120e+002
3.790230e+002, 2.611922e+002
3.795052e+002, 2.618235e+002
3.799873e+002, 2.620179e+002
3.804694e+002, 2.616642e+002
3.809515e+002, 2.612590e+002
3.814336e+002, 2.613494e+002
3.819157e+002, 2.619232e+002
3.823979e+002, 2.624166e+002
3.828800e+002, 2.627718e+002
3.833621e+002, 2.630001e+002
3.838442e+002, 2.631227e+002
3.843263e+002, 2.631424e+002
3.848084e+002, 2.630734e+002
3.852906e+002, 2.628568e+002
3.857727e+002, 2.625673e+002
3.862548e+002, 2.623499e+002
3.867369e+002, 2.621856e+002
3.872190e+002, 2.621701e+002
3.877011e+002, 2.626812e+002
3.881833e+002, 2.632876e+002
3.886654e+002, 2.632828e+002
3.891475e+002, 2.622467e+002
3.896296e+002, 2.611027e+002
3.901117e+002, 2.607378e+002
3.905938e+002, 2.610556e+002
3.910760e+002, 2.613102e+002
3.915581e+002, 2.612602e+002
3.920402e+002, 2.610421e+002
3.925223e+002, 2.607979e+002
3.930044e+002, 2.605099e+002
3.934865e+002, 2.603795e+002
3.939687e+002, 2.607189e+002
3.944508e+002, 2.611921e+002
3.949329e+002, 2.611783e+002
3.954150e+002, 2.605497e+002
3.958971e+002, 2.598514e+002
3.963792e+002, 2.595169e+002
3.968614e+002, 2.595508e+002
3.973435e+002, 2.597495e+002
3.978256e+002, 2.604025e+002
3.983077e+002, 2.609567e+002
3.987898e+002, 2.609297e+002
3.992719e+002, 2.604633e+002
3.997540e+002, 2.600877e+002
4.002361e+002, 2.600714e+002
4.007183e+002, 2.603094e+002
4.012004e+002, 2.605146e+002
4.016825e+002, 2.607040e+002
4.021646e+002, 2.608378e+002
4.026467e+002, 2.610334e+002
4.031288e+002, 2.611136e+002
4.036110e+002, 2.607179e+002
4.040931e+002, 2.598093e+002
4.045752e+002, 2.589347e+002
4.050573e+002, 2.587714e+002
4.055394e+002, 2.595106e+002
4.060215e+002, 2.600507e+002
4.065037e+002, 2.603483e+002
4.069858e+002, 2.605179e+002
4.074679e+002, 2.605814e+002
4.079500e+002, 2.605639e+002
4.084321e+002, 2.605146e+002
4.089142e+002, 2.604686e+002
4.093964e+002, 2.604018e+002
4.098785e+002, 2.601996e+002
4.103606e+002, 2.596287e+002
4.108427e+002, 2.592253e+002
4.113248e+002, 2.591293e+002
4.118069e+002, 2.591621e+002
4.122891e+002, 2.591438e+002
4.127712e+002, 2.590313e+002
4.132533e+002, 2.589191e+002
4.137354e+002, 2.589525e+002
4.142175e+002, 2.591893e+002
4.146996e+002, 2.593378e+002
4.151818e+002, 2.592494e+002
4.156639e+002, 2.592103e+002
4.161460e+002, 2.593664e+002
4.166281e+002, 2.596663e+002
4.171102e+002, 2.599720e+002
4.175923e+002, 2.602052e+002
4.180745e+002, 2.603740e+002
4.185566e+002, 2.604865e+002
4.190387e+002, 2.604718e+002
4.195208e+002, 2.605621e+002
4.200029e+002, 2.609521e+002
4.204850e+002, 2.614058e+002
4.209672e+002, 2.617626e+002
4.214493e+002, 2.619907e+002
4.219314e+002, 2.619652e+002
4.224135e+002, 2.613173e+002
4.228956e+002, 2.601027e+002
4.233777e+002, 2.594943e+002
4.238599e+002, 2.599625e+002
4.243420e+002, 2.606818e+002
4.248241e+002, 2.611404e+002
4.253062e+002, 2.613369e+002
4.257883e+002, 2.612451e+002
4.262704e+002, 2.605327e+002
4.267526e+002, 2.596719e+002
4.272347e+002, 2.594719e+002
4.277168e+002, 2.599759e+002
4.281989e+002, 2.604219e+002
4.286810e+002, 2.603363e+002
4.291631e+002, 2.599691e+002
4.296453e+002, 2.598639e+002
4.301274e+002, 2.600219e+002
4.306095e+002, 2.604421e+002
4.310916e+002, 2.614268e+002
4.315737e+002, 2.626255e+002
4.320558e+002, 2.632577e+002
4.325380e+002, 2.630791e+002
4.330201e+002, 2.626521e+002
4.335022e+002, 2.626494e+002
4.339843e+002, 2.631506e+002
4.344664e+002, 2.634042e+002
4.349485e+002, 2.632138e+002
4.354307e+002, 2.629122e+002
4.359128e+002, 2.626027e+002
4.363949e+002, 2.623542e+002
4.368770e+002, 2.623831e+002
4.373591e+002, 2.628679e+002
4.378412e+002, 2.636191e+002
4.383234e+002, 2.639016e+002
4.388055e+002, 2.632149e+002
4.392876e+002, 2.626960e+002
4.397697e+002, 2.624710e+002
4.402518e+002, 2.624200e+002
4.407339e+002, 2.625030e+002
4.412160e+002, 2.626762e+002
4.416982e+002, 2.627850e+002
4.421803e+002, 2.625858e+002
4.426624e+002, 2.619626e+002
4.431445e+002, 2.618842e+002
4.436266e+002, 2.630562e+002
4.441087e+002, 2.640476e+002
4.445909e+002, 2.642975e+002
4.450730e+002, 2.640901e+002
4.455551e+002, 2.639435e+002
4.460372e+002, 2.641310e+002
4.465193e+002, 2.644738e+002
4.470014e+002, 2.645549e+002
4.474836e+002, 2.642701e+002
4.479657e+002, 2.640338e+002
4.484478e+002, 2.638642e+002
4.489299e+002, 2.638098e+002
4.494120e+002, 2.639196e+002
4.498941e+002, 2.641898e+002
4.503763e+002, 2.645654e+002
4.508584e+002, 2.651269e+002
4.513405e+002, 2.657828e+002
4.518226e+002, 2.660982e+002
4.523047e+002, 2.659759e+002
4.527868e+002, 2.657307e+002
4.532690e+002, 2.654824e+002
4.537511e+002, 2.652416e+002
4.542332e+002, 2.650178e+002
4.547153e+002, 2.647857e+002
4.551974e+002, 2.646238e+002
4.556795e+002, 2.646957e+002
4.561617e+002, 2.649216e+002
4.566438e+002, 2.648831e+002
4.571259e+002, 2.643336e+002
4.576080e+002, 2.637573e+002
4.580901e+002, 2.639281e+002
4.585722e+002, 2.648406e+002
4.590544e+002, 2.654980e+002
4.595365e+002, 2.656852e+002
4.600186e+002, 2.655742e+002
4.605007e+002, 2.652161e+002
4.609828e+002, 2.646659e+002
4.614649e+002, 2.641032e+002
4.619471e+002, 2.636071e+002
4.624292e+002, 2.632119e+002
4.629113e+002, 2.630570e+002
4.633934e+002, 2.633237e+002
4.638755e+002, 2.635753e+002
4.643576e+002, 2.639900e+002
4.648398e+002, 2.642442e+002
4.653219e+002, 2.638518e+002
4.658040e+002, 2.627971e+002
4.662861e+002, 2.616571e+002
4.667682e+002, 2.610690e+002
4.672503e+002, 2.610821e+002
4.677325e+002, 2.611235e+002
4.682146e+002, 2.612502e+002
4.686967e+002, 2.613412e+002
4.691788e+002, 2.614056e+002
4.696609e+002, 2.614004e+002
4.701430e+002, 2.612429e+002
4.706252e+002, 2.608914e+002
4.711073e+002, 2.604566e+002
4.715894e+002, 2.600973e+002
4.720715e+002, 2.597830e+002
4.725536e+002, 2.596912e+002
4.730357e+002, 2.602360e+002
4.735179e+002, 2.606786e+002
4.740000e+002, 2.604232e+002
4.744821e+002, 2.596337e+002
4.749642e+002, 2.590425e+002
4.754463e+002, 2.593204e+002
4.759284e+002, 2.600081e+002
4.764106e+002, 2.600867e+002
4.768927e+002, 2.594949e+002
4.773748e+002, 2.586384e+002
4.778569e+002, 2.572768e+002
4.783390e+002, 2.560122e+002
4.788211e+002, 2.558935e+002
4.793033e+002, 2.573108e+002
4.797854e+002, 2.585858e+002
4.802675e+002, 2.587871e+002
4.807496e+002, 2.583003e+002
4.812317e+002, 2.577234e+002
4.817138e+002, 2.571470e+002
4.821959e+002, 2.567560e+002
4.826780e+002, 2.567936e+002
4.831602e+002, 2.572465e+002
4.836423e+002, 2.573889e+002
4.841244e+002, 2.570786e+002
4.846065e+002, 2.566349e+002
4.850886e+002, 2.560638e+002
4.855707e+002, 2.554715e+002
4.860529e+002, 2.549969e+002
4.865350e+002, 2.546916e+002
4.870171e+002, 2.546071e+002
4.874992e+002, 2.548823e+002
4.879813e+002, 2.558336e+002
4.884634e+002, 2.562655e+002
4.889456e+002, 2.559369e+002
4.894277e+002, 2.554141e+002
4.899098e+002, 2.548182e+002
4.903919e+002, 2.542578e+002
4.908740e+002, 2.539186e+002
4.913561e+002, 2.539452e+002
4.918383e+002, 2.541774e+002
4.923204e+002, 2.541701e+002
4.928025e+002, 2.538586e+002
4.932846e+002, 2.534882e+002
4.937667e+002, 2.529364e+002
4.942488e+002, 2.524715e+002
4.947310e+002, 2.523596e+002
4.952131e+002, 2.525737e+002
4.956952e+002, 2.527530e+002
4.961773e+002, 2.526012e+002
4.966594e+002, 2.522288e+002
4.971415e+002, 2.519093e+002
4.976237e+002, 2.516320e+002
4.981058e+002, 2.514964e+002
4.985879e+002, 2.517540e+002
4.990700e+002, 2.521074e+002
4.995521e+002, 2.519356e+002
5.000342e+002, 2.509270e+002
5.005164e+002, 2.500810e+002
5.009985e+002, 2.500651e+002
5.014806e+002, 2.504964e+002
5.019627e+002, 2.506673e+002
5.024448e+002, 2.504314e+002
5.029269e+002, 2.501357e+002
5.034091e+002, 2.501384e+002
5.038912e+002, 2.504537e+002
5.043733e+002, 2.505158e+002
5.048554e+002, 2.501721e+002
5.053375e+002, 2.497781e+002
5.058196e+002, 2.493729e+002
5.063018e+002, 2.490245e+002
5.067839e+002, 2.488665e+002
5.072660e+002, 2.489378e+002
5.077481e+002, 2.490836e+002
5.082302e+002, 2.490665e+002
5.087123e+002, 2.488509e+002
5.091945e+002, 2.485994e+002
5.096766e+002, 2.482145e+002
5.101587e+002, 2.478912e+002
5.106408e+002, 2.477644e+002
5.111229e+002, 2.477448e+002
5.116050e+002, 2.476455e+002
5.120872e+002, 2.473553e+002
5.125693e+002, 2.470013e+002
5.130514e+002, 2.467634e+002
5.135335e+002, 2.466201e+002
5.140156e+002, 2.467515e+002
5.144977e+002, 2.472162e+002
5.149799e+002, 2.479766e+002
5.154620e+002, 2.493670e+002
5.159441e+002, 2.511828e+002
5.164262e+002, 2.521158e+002
5.169083e+002, 2.511312e+002
5.173904e+002, 2.492470e+002
5.178726e+002, 2.476094e+002
5.183547e+002, 2.462424e+002
5.188368e+002, 2.451248e+002
5.193189e+002, 2.442483e+002
5.198010e+002, 2.436114e+002
5.202831e+002, 2.432964e+002
5.207653e+002, 2.434392e+002
5.212474e+002, 2.434315e+002
5.217295e+002, 2.429993e+002
5.222116e+002, 2.424963e+002
5.226937e+002, 2.422665e+002
5.231758e+002, 2.422951e+002
5.236580e+002, 2.423037e+002
5.241401e+002, 2.420641e+002
5.246222e+002, 2.416783e+002
5.251043e+002, 2.417017e+002
5.255864e+002, 2.427891e+002
5.260685e+002, 2.433355e+002
5.265507e+002, 2.426219e+002
5.270328e+002, 2.417464e+002
5.275149e+002, 2.418127e+002
5.279970e+002, 2.427995e+002
5.284791e+002, 2.436329e+002
5.289612e+002, 2.431786e+002
5.294434e+002, 2.417208e+002
5.299255e+002, 2.410787e+002
5.304076e+002, 2.416327e+002
5.308897e+002, 2.421254e+002
5.313718e+002, 2.420349e+002
5.318539e+002, 2.415976e+002
5.323361e+002, 2.409383e+002
5.328182e+002, 2.400235e+002
5.333003e+002, 2.392575e+002
5.337824e+002, 2.389110e+002
5.342645e+002, 2.388976e+002
5.347466e+002, 2.391218e+002
5.352288e+002, 2.395973e+002
5.357109e+002, 2.399725e+002
5.361930e+002, 2.399845e+002
5.366751e+002, 2.396596e+002
5.371572e+002, 2.392352e+002
5.376393e+002, 2.385130e+002
5.381215e+002, 2.379392e+002
5.386036e+002, 2.377553e+002
5.390857e+002, 2.377333e+002
5.395678e+002, 2.375678e+002
5.400499e+002, 2.372069e+002
5.405320e+002, 2.368487e+002
5.410142e+002, 2.367410e+002
5.414963e+002, 2.369005e+002
5.419784e+002, 2.367016e+002
5.424604e+002, 2.356339e+002
5.429426e+002, 2.348112e+002
5.434247e+002, 2.345076e+002
5.439068e+002, 2.345386e+002
5.443889e+002, 2.348143e+002
5.448710e+002, 2.352802e+002
5.453531e+002, 2.355975e+002
5.458353e+002, 2.352984e+002
5.463174e+002, 2.344390e+002
5.467995e+002, 2.336907e+002
5.472816e+002, 2.330835e+002
5.477637e+002, 2.326016e+002
5.482458e+002, 2.322979e+002
5.487280e+002, 2.321025e+002
5.492101e+002, 2.319202e+002
5.496922e+002, 2.317698e+002
5.501743e+002, 2.315602e+002
5.506564e+002, 2.312035e+002
5.511385e+002, 2.307522e+002
5.516207e+002, 2.302930e+002
5.521028e+002, 2.298431e+002
5.525849e+002, 2.294695e+002
5.530670e+002, 2.293112e+002
5.535491e+002, 2.293679e+002
5.540313e+002, 2.288933e+002
5.545134e+002, 2.271088e+002
5.549955e+002, 2.258069e+002
5.554776e+002, 2.257488e+002
5.559597e+002, 2.263174e+002
5.564418e+002, 2.269043e+002
5.569240e+002, 2.272839e+002
5.574061e+002, 2.272950e+002
5.578882e+002, 2.266346e+002
5.583703e+002, 2.252676e+002
5.588524e+002, 2.242954e+002
5.593345e+002, 2.238441e+002
5.598167e+002, 2.236433e+002
5.602988e+002, 2.238130e+002
5.607809e+002, 2.240508e+002
5.612630e+002, 2.239433e+002
5.617451e+002, 2.233603e+002
5.622272e+002, 2.227102e+002
5.627094e+002, 2.223576e+002
5.631915e+002, 2.222251e+002
5.636736e+002, 2.220938e+002
5.641557e+002, 2.219649e+002
5.646378e+002, 2.216762e+002
5.651199e+002, 2.209543e+002
5.656021e+002, 2.199822e+002
5.660842e+002, 2.195452e+002
5.665663e+002, 2.202423e+002
5.670484e+002, 2.206221e+002
5.675305e+002, 2.198299e+002
5.680126e+002, 2.186219e+002
5.684948e+002, 2.180149e+002
5.689769e+002, 2.181439e+002
5.694590e+002, 2.183897e+002
5.699411e+002, 2.181941e+002
5.704232e+002, 2.175723e+002
5.709053e+002, 2.167960e+002
5.713875e+002, 2.152672e+002
5.718696e+002, 2.144189e+002
5.723517e+002, 2.150409e+002
5.728338e+002, 2.160492e+002
5.733159e+002, 2.164149e+002
5.737980e+002, 2.159999e+002
5.742802e+002, 2.154078e+002
5.747623e+002, 2.152665e+002
5.752444e+002, 2.153982e+002
5.757265e+002, 2.149453e+002
5.762086e+002, 2.137231e+002
5.766907e+002, 2.126978e+002
5.771729e+002, 2.124192e+002
5.776550e+002, 2.125727e+002
5.781371e+002, 2.126570e+002
5.786192e+002, 2.126731e+002
5.791013e+002, 2.125779e+002
5.795834e+002, 2.122755e+002
5.800656e+002, 2.119004e+002
5.805477e+002, 2.115999e+002
5.810298e+002, 2.113824e+002
5.815119e+002, 2.111828e+002
5.819940e+002, 2.109527e+002
5.824761e+002, 2.107226e+002
5.829583e+002, 2.105998e+002
5.834404e+002, 2.107405e+002
5.839225e+002, 2.107453e+002
5.844046e+002, 2.106846e+002
5.848867e+002, 2.104284e+002
5.853688e+002, 2.096845e+002
5.858510e+002, 2.086457e+002
5.863331e+002, 2.078828e+002
5.868152e+002, 2.077980e+002
5.872973e+002, 2.081254e+002
5.877794e+002, 2.082978e+002
5.882615e+002, 2.083108e+002
5.887437e+002, 2.081757e+002
5.892258e+002, 2.077623e+002
5.897079e+002, 2.073464e+002
5.901900e+002, 2.072838e+002
5.906721e+002, 2.074977e+002
5.911542e+002, 2.074753e+002
5.916364e+002, 2.067162e+002
5.921185e+002, 2.059537e+002
5.926006e+002, 2.060000e+002
5.930827e+002, 2.065775e+002
5.935648e+002, 2.068030e+002
5.940469e+002, 2.063416e+002
5.945291e+002, 2.055961e+002
5.950112e+002, 2.051062e+002
5.954933e+002, 2.048999e+002
5.959754e+002, 2.048447e+002
5.964575e+002, 2.051994e+002
5.969396e+002, 2.053988e+002
5.974218e+002, 2.052314e+002
5.979039e+002, 2.047899e+002
5.983860e+002, 2.041453e+002
5.988681e+002, 2.033342e+002
5.993502e+002, 2.025748e+002
5.998323e+002, 2.021509e+002
6.003145e+002, 2.020500e+002
6.007966e+002, 2.020018e+002
6.012787e+002, 2.020350e+002
6.017608e+002, 2.020314e+002
6.022429e+002, 2.017905e+002
6.027250e+002, 2.015088e+002
6.032072e+002, 2.015898e+002
6.036893e+002, 2.023167e+002
6.041714e+002, 2.026990e+002
6.046535e+002, 2.017913e+002
6.051356e+002, 2.004264e+002
6.056177e+002, 1.998933e+002
6.060999e+002, 2.002928e+002
6.065820e+002, 2.009065e+002
6.070641e+002, 2.012643e+002
6.075462e+002, 2.013741e+002
6.080283e+002, 2.012615e+002
6.085104e+002, 2.005948e+002
6.089926e+002, 2.001854e+002
6.094747e+002, 2.002753e+002
6.099568e+002, 2.004531e+002
6.104389e+002, 2.004449e+002
6.109210e+002, 2.002548e+002
6.114031e+002, 2.000186e+002
6.118853e+002, 1.998150e+002
6.123674e+002, 1.996296e+002
6.128495e+002, 1.994418e+002
6.133316e+002, 1.992552e+002
6.138137e+002, 1.989975e+002
6.142958e+002, 1.985646e+002
6.147780e+002, 1.981685e+002
6.152601e+002, 1.981158e+002
6.157422e+002, 1.983320e+002
6.162243e+002, 1.983477e+002
6.167064e+002, 1.978849e+002
6.171885e+002, 1.973747e+002
6.176707e+002, 1.970956e+002
6.181528e+002, 1.969682e+002
6.186349e+002, 1.968157e+002
6.191170e+002, 1.965866e+002
6.195991e+002, 1.963597e+002
6.200812e+002, 1.962192e+002
6.205634e+002, 1.961619e+002
6.210455e+002, 1.962339e+002
6.215276e+002, 1.967923e+002
6.220097e+002, 1.970288e+002
6.224918e+002, 1.965058e+002
6.229739e+002, 1.957391e+002
6.234561e+002, 1.952890e+002
6.239382e+002, 1.952500e+002
6.244203e+002, 1.952501e+002
6.249023e+002, 1.948515e+002
6.253845e+002, 1.942824e+002
6.258666e+002, 1.942603e+002
6.263487e+002, 1.948537e+002
6.268308e+002, 1.953608e+002
6.273129e+002, 1.955156e+002
6.277950e+002, 1.953517e+002
6.282772e+002, 1.948541e+002
6.287593e+002, 1.939610e+002
6.292414e+002, 1.931200e+002
6.297235e+002, 1.923256e+002
6.302056e+002, 1.916631e+002
6.306877e+002, 1.912420e+002
6.311699e+002, 1.909942e+002
6.316520e+002, 1.907347e+002
6.321341e+002, 1.903799e+002
6.326162e+002, 1.900579e+002
6.330983e+002, 1.900330e+002
6.335804e+002, 1.903952e+002
6.340626e+002, 1.905992e+002
6.345447e+002, 1.906352e+002
6.350268e+002, 1.905043e+002
6.355089e+002, 1.901163e+002
6.359910e+002, 1.896116e+002
6.364731e+002, 1.892049e+002
6.369553e+002, 1.889586e+002
6.374374e+002, 1.887657e+002
6.379195e+002, 1.886066e+002
6.384016e+002, 1.884334e+002
6.388837e+002, 1.881113e+002
6.393658e+002, 1.876338e+002
6.398480e+002, 1.872177e+002
6.403301e+002, 1.870425e+002
6.408122e+002, 1.869882e+002
6.412943e+002, 1.866473e+002
6.417764e+002, 1.856510e+002
6.422585e+002, 1.849084e+002
6.427407e+002, 1.844734e+002
6.432228e+002, 1.842418e+002
6.437049e+002, 1.843353e+002
6.441870e+002, 1.845670e+002
6.446691e+002, 1.844969e+002
6.451512e+002, 1.838582e+002
6.456334e+002, 1.829919e+002
6.461155e+002, 1.824057e+002
6.465976e+002, 1.820994e+002
6.470797e+002, 1.820622e+002
6.475618e+002, 1.824853e+002
6.480439e+002, 1.827692e+002
6.485261e+002, 1.822742e+002
6.490082e+002, 1.812683e+002
6.494903e+002, 1.806172e+002
6.499724e+002, 1.806819e+002
6.504545e+002, 1.806499e+002
6.509366e+002, 1.800486e+002
6.514188e+002, 1.792642e+002
6.519009e+002, 1.787471e+002
6.523830e+002, 1.785466e+002
6.528651e+002, 1.785155e+002
6.533472e+002, 1.785779e+002
6.538293e+002, 1.786522e+002
6.543115e+002, 1.784183e+002
6.547936e+002, 1.777771e+002
6.552757e+002, 1.770661e+002
6.557578e+002, 1.760686e+002
6.562399e+002, 1.752408e+002
6.567220e+002, 1.750275e+002
6.572042e+002, 1.752123e+002
6.576863e+002, 1.751171e+002
6.581684e+002, 1.743737e+002
6.586505e+002, 1.734390e+002
6.591326e+002, 1.726414e+002
6.596147e+002, 1.720015e+002
6.600969e+002, 1.716568e+002
6.605790e+002, 1.716493e+002
6.610611e+002, 1.715598e+002
6.615432e+002, 1.709621e+002
6.620253e+002, 1.699303e+002
6.625074e+002, 1.692713e+002
6.629896e+002, 1.692313e+002
6.634717e+002, 1.692499e+002
6.639538e+002, 1.694388e+002
6.644359e+002, 1.695492e+002
6.649180e+002, 1.693497e+002
6.654001e+002, 1.688770e+002
6.658823e+002, 1.683362e+002
6.663644e+002, 1.678181e+002
6.668465e+002, 1.673591e+002
6.673286e+002, 1.670454e+002
6.678107e+002, 1.668728e+002
6.682928e+002, 1.667041e+002
6.687750e+002, 1.665557e+002
6.692571e+002, 1.662885e+002
6.697392e+002, 1.656863e+002
6.702213e+002, 1.647982e+002
6.707034e+002, 1.641616e+002
6.711855e+002, 1.639434e+002
6.716677e+002, 1.637798e+002
6.721498e+002, 1.637043e+002
6.726319e+002, 1.635398e+002
6.731140e+002, 1.629704e+002
6.735961e+002, 1.620562e+002
6.740782e+002, 1.612605e+002
6.745604e+002, 1.609597e+002
6.750425e+002, 1.609932e+002
6.755246e+002, 1.608171e+002
6.760067e+002, 1.603690e+002
6.764888e+002, 1.600024e+002
6.769709e+002, 1.599053e+002
6.774531e+002, 1.597713e+002
6.779352e+002, 1.592685e+002
6.784173e+002, 1.585183e+002
6.788994e+002, 1.579614e+002
6.793815e+002, 1.577978e+002
6.798636e+002, 1.577244e+002
6.803458e+002, 1.576987e+002
6.808279e+002, 1.575969e+002
6.813100e+002, 1.571104e+002
6.817921e+002, 1.562479e+002
6.822742e+002, 1.554766e+002
6.827563e+002, 1.552117e+002
6.832385e+002, 1.553158e+002
6.837206e+002, 1.550893e+002
6.842027e+002, 1.543487e+002
6.846848e+002, 1.536778e+002
6.851669e+002, 1.531980e+002
6.856490e+002, 1.527722e+002
6.861312e+002, 1.522933e+002
6.866133e+002, 1.518021e+002
6.870954e+002, 1.514377e+002
6.875775e+002, 1.513216e+002
6.880596e+002, 1.512278e+002
6.885417e+002, 1.508978e+002
6.890239e+002, 1.504474e+002
6.895060e+002, 1.502043e+002
6.899881e+002, 1.502187e+002
6.904702e+002, 1.501640e+002
6.909523e+002, 1.497672e+002
6.914344e+002, 1.491005e+002
6.919166e+002, 1.485101e+002
6.923987e+002, 1.478790e+002
6.928808e+002, 1.475266e+002
6.933629e+002, 1.478132e+002
6.938450e+002, 1.480495e+002
6.943271e+002, 1.477437e+002
6.948093e+002, 1.470427e+002
6.952914e+002, 1.463868e+002
6.957735e+002, 1.459662e+002
6.962556e+002, 1.456612e+002
6.967377e+002, 1.453929e+002
6.972198e+002, 1.451314e+002
6.977020e+002, 1.447027e+002
6.981841e+002, 1.440626e+002
6.986662e+002, 1.435798e+002
6.991483e+002, 1.435901e+002
6.996304e+002, 1.439109e+002
7.001125e+002, 1.438458e+002
7.005947e+002, 1.431364e+002
7.010768e+002, 1.424272e+002
7.015589e+002, 1.416749e+002
7.020410e+002, 1.409742e+002
7.025231e+002, 1.402728e+002
7.030052e+002, 1.396888e+002
7.034874e+002, 1.395217e+002
7.039695e+002, 1.399437e+002
7.044516e+002, 1.404286e+002
7.049337e+002, 1.402729e+002
7.054158e+002, 1.395999e+002
7.058979e+002, 1.389970e+002
7.063801e+002, 1.385237e+002
7.068622e+002, 1.380806e+002
7.073442e+002, 1.375732e+002
7.078264e+002, 1.370812e+002
7.083085e+002, 1.368361e+002
7.087906e+002, 1.369903e+002
7.092727e+002, 1.369845e+002
7.097548e+002, 1.366067e+002
7.102369e+002, 1.362271e+002
7.107191e+002, 1.360456e+002
7.112012e+002, 1.360240e+002
7.116833e+002, 1.361536e+002
7.121654e+002, 1.364194e+002
7.126475e+002, 1.365142e+002
7.131296e+002, 1.358571e+002
7.136118e+002, 1.346584e+002
7.140939e+002, 1.342306e+002
7.145760e+002, 1.347783e+002
7.150581e+002, 1.349985e+002
7.155402e+002, 1.340683e+002
7.160223e+002, 1.327263e+002
7.165045e+002, 1.323357e+002
7.169866e+002, 1.331138e+002
7.174687e+002, 1.334352e+002
7.179508e+002, 1.327201e+002
7.184329e+002, 1.319941e+002
7.189150e+002, 1.317510e+002
7.193972e+002, 1.318254e+002
7.198793e+002, 1.320600e+002
7.203614e+002, 1.323545e+002
7.208435e+002, 1.324121e+002
7.213256e+002, 1.318009e+002
7.218077e+002, 1.307467e+002
7.222899e+002, 1.301688e+002
7.227720e+002, 1.301069e+002
7.232541e+002, 1.302058e+002
7.237362e+002, 1.305277e+002
7.242183e+002, 1.307034e+002
7.247004e+002, 1.301328e+002
7.251826e+002, 1.288340e+002
7.256647e+002, 1.279993e+002
7.261468e+002, 1.279212e+002
7.266289e+002, 1.280387e+002
7.271110e+002, 1.283682e+002
7.275931e+002, 1.286585e+002
7.280753e+002, 1.285572e+002
7.285574e+002, 1.280883e+002
7.290395e+002, 1.276305e+002
7.295216e+002, 1.274868e+002
7.300037e+002, 1.274880e+002
7.304858e+002, 1.271574e+002
7.309680e+002, 1.264741e+002
7.314501e+002, 1.261548e+002
7.319322e+002, 1.265061e+002
7.324143e+002, 1.268444e+002
7.328964e+002, 1.264923e+002
7.333785e+002, 1.256298e+002
7.338607e+002, 1.252352e+002
7.343428e+002, 1.257987e+002
7.348249e+002, 1.260709e+002
7.353070e+002, 1.255086e+002
7.357891e+002, 1.247922e+002
7.362712e+002, 1.244241e+002
7.367534e+002, 1.244056e+002
7.372355e+002, 1.246175e+002
7.377176e+002, 1.250304e+002
7.381997e+002, 1.253676e+002
7.386818e+002, 1.250965e+002
7.391639e+002, 1.243017e+002
7.396461e+002, 1.238264e+002
7.401282e+002, 1.237920e+002
7.406103e+002, 1.238412e+002
7.410924e+002, 1.238300e+002
7.415745e+002, 1.237397e+002
7.420566e+002, 1.234993e+002
7.425388e+002, 1.230388e+002
7.430209e+002, 1.226825e+002
7.435030e+002, 1.225532e+002
7.439851e+002, 1.224339e+002
7.444672e+002, 1.221426e+002
7.449493e+002, 1.218119e+002
7.454315e+002, 1.217023e+002
7.459136e+002, 1.218647e+002
7.463957e+002, 1.220168e+002
7.468778e+002, 1.218471e+002
7.473599e+002, 1.214611e+002
7.478420e+002, 1.211797e+002
7.483242e+002, 1.210043e+002
7.488063e+002, 1.208538e+002
7.492884e+002, 1.207022e+002
7.497705e+002, 1.205594e+002
7.502526e+002, 1.204188e+002
7.507347e+002, 1.202760e+002
7.512169e+002, 1.202569e+002
7.516990e+002, 1.205182e+002
7.521811e+002, 1.206884e+002
7.526632e+002, 1.207292e+002
7.531453e+002, 1.206143e+002
7.536274e+002, 1.201850e+002
7.541096e+002, 1.195564e+002
7.545917e+002, 1.191392e+002
7.550738e+002, 1.192007e+002
7.555559e+002, 1.195064e+002
7.560380e+002, 1.197868e+002
7.565201e+002, 1.200347e+002
7.570023e+002, 1.202271e+002
7.574844e+002, 1.203646e+002
7.579665e+002, 1.203864e+002
7.584486e+002, 1.202380e+002
7.589307e+002, 1.199511e+002
7.594128e+002, 1.196185e+002
7.598950e+002, 1.190363e+002
7.603771e+002, 1.187873e+002
7.608592e+002, 1.190610e+002
7.613413e+002, 1.194437e+002
7.618234e+002, 1.199091e+002
7.623055e+002, 1.202928e+002
7.627877e+002, 1.203141e+002
7.632698e+002, 1.198829e+002
7.637519e+002, 1.193928e+002
7.642340e+002, 1.190974e+002
7.647161e+002, 1.189470e+002
7.651982e+002, 1.188324e+002
7.656804e+002, 1.187766e+002
7.661625e+002, 1.190082e+002
7.666446e+002, 1.196423e+002
7.671267e+002, 1.202466e+002
7.676088e+002, 1.202064e+002
7.680909e+002, 1.194856e+002
7.685731e+002, 1.190397e+002
7.690552e+002, 1.189796e+002
7.695373e+002, 1.190153e+002
7.700194e+002, 1.191238e+002
7.705015e+002, 1.192673e+002
7.709836e+002, 1.194263e+002
7.714658e+002, 1.195951e+002
7.719479e+002, 1.197663e+002
7.724300e+002, 1.200529e+002
7.729121e+002, 1.201858e+002
7.733942e+002, 1.197126e+002
7.738763e+002, 1.190802e+002
7.743585e+002, 1.191711e+002
7.748406e+002, 1.199494e+002
7.753227e+002, 1.204393e+002
7.758048e+002, 1.199529e+002
7.762869e+002, 1.189960e+002
7.767690e+002, 1.188393e+002
7.772512e+002, 1.196412e+002
7.777333e+002, 1.201777e+002
7.782154e+002, 1.202885e+002
7.786975e+002, 1.202839e+002
7.791796e+002, 1.202805e+002
7.796617e+002, 1.202863e+002
7.801439e+002, 1.203058e+002
7.806260e+002, 1.203291e+002
7.811081e+002, 1.204148e+002
7.815902e+002, 1.207773e+002
7.820723e+002, 1.210048e+002
7.825544e+002, 1.205934e+002
7.830366e+002, 1.199479e+002
7.835187e+002, 1.198473e+002
7.840008e+002, 1.204314e+002
7.844829e+002, 1.210248e+002
7.849650e+002, 1.209134e+002
7.854471e+002, 1.203932e+002
7.859293e+002, 1.204219e+002
7.864114e+002, 1.210093e+002
7.868935e+002, 1.214882e+002
7.873756e+002, 1.217193e+002
7.878577e+002, 1.217046e+002
7.883398e+002, 1.213183e+002
7.888220e+002, 1.206497e+002
7.893040e+002, 1.204720e+002
7.897861e+002, 1.213050e+002
7.902682e+002, 1.218582e+002
7.907504e+002, 1.217090e+002
7.912325e+002, 1.215571e+002
7.917146e+002, 1.220468e+002
7.921967e+002, 1.228531e+002
7.926788e+002, 1.231985e+002
7.931609e+002, 1.227651e+002
7.936431e+002, 1.221709e+002
7.941252e+002, 1.218755e+002
7.946073e+002, 1.218206e+002
7.950894e+002, 1.220135e+002
7.955715e+002, 1.223906e+002
7.960536e+002, 1.225188e+002
7.965358e+002, 1.221947e+002
7.970179e+002, 1.218160e+002
7.975000e+002, 1.219852e+002
7.979821e+002, 1.227423e+002
7.984642e+002, 1.230664e+002
7.989464e+002, 1.227884e+002
7.994285e+002, 1.223853e+002
7.999106e+002, 1.217801e+002
8.003927e+002, 1.212450e+002
8.008748e+002, 1.209945e+002
8.013569e+002, 1.210057e+002
8.018391e+002, 1.211471e+002
8.023212e+002, 1.215524e+002
8.028033e+002, 1.218363e+002
8.032854e+002, 1.216365e+002
8.037675e+002, 1.213072e+002
8.042496e+002, 1.212599e+002
8.047318e+002, 1.214982e+002
8.052139e+002, 1.219027e+002
8.056960e+002, 1.224273e+002
8.061781e+002, 1.228104e+002
8.066602e+002, 1.224573e+002
8.071423e+002, 1.214500e+002
8.076245e+002, 1.210339e+002
8.081066e+002, 1.213980e+002
8.085887e+002, 1.215973e+002
8.090708e+002, 1.210785e+002
8.095529e+002, 1.203695e+002
8.100350e+002, 1.203395e+002
8.105172e+002, 1.211623e+002
8.109993e+002, 1.215074e+002
8.114814e+002, 1.210083e+002
8.119635e+002, 1.205056e+002
8.124456e+002, 1.200564e+002
8.129277e+002, 1.198279e+002
8.134099e+002, 1.201485e+002
8.138920e+002, 1.208733e+002
8.143741e+002, 1.213789e+002
8.148562e+002, 1.213124e+002
8.153383e+002, 1.210007e+002
8.158204e+002, 1.206880e+002
8.163026e+002, 1.204102e+002
8.167847e+002, 1.202435e+002
8.172668e+002, 1.201965e+002
8.177489e+002, 1.202788e+002
8.182310e+002, 1.205137e+002
8.187131e+002, 1.207740e+002
8.191953e+002, 1.208064e+002
8.196774e+002, 1.205789e+002
8.201595e+002, 1.203037e+002
8.206416e+002, 1.199099e+002
8.211237e+002, 1.195953e+002
8.216058e+002, 1.194113e+002
8.220880e+002, 1.193622e+002
8.225701e+002, 1.195734e+002
8.230522e+002, 1.200232e+002
8.235343e+002, 1.201206e+002
8.240164e+002, 1.194526e+002
8.244985e+002, 1.187648e+002
8.249807e+002, 1.183082e+002
8.254628e+002, 1.180479e+002
8.259449e+002, 1.179971e+002
8.264270e+002, 1.181046e+002
8.269091e+002, 1.182270e+002
8.273912e+002, 1.182809e+002
8.278734e+002, 1.183323e+002
8.283555e+002, 1.185028e+002
8.288376e+002, 1.187547e+002
8.293197e+002, 1.189652e+002
8.298018e+002, 1.191238e+002
8.302839e+002, 1.190960e+002
8.307661e+002, 1.187987e+002
8.312482e+002, 1.183176e+002
8.317303e+002, 1.177440e+002
8.322124e+002, 1.170173e+002
8.326945e+002, 1.166625e+002
8.331766e+002, 1.169487e+002
8.336588e+002, 1.172268e+002
8.341409e+002, 1.173606e+002
8.346230e+002, 1.174221e+002
8.351051e+002, 1.175221e+002
8.355872e+002, 1.176183e+002
8.360693e+002, 1.174898e+002
8.365515e+002, 1.168684e+002
8.370336e+002, 1.163314e+002
8.375157e+002, 1.163437e+002
8.379978e+002, 1.165077e+002
8.384799e+002, 1.162454e+002
8.389620e+002, 1.156862e+002
8.394442e+002, 1.154494e+002
8.399263e+002, 1.158294e+002
8.404084e+002, 1.163897e+002
8.408905e+002, 1.165226e+002
8.413726e+002, 1.163009e+002
8.418547e+002, 1.161770e+002
8.423369e+002, 1.161766e+002
8.428190e+002, 1.159068e+002
8.433011e+002, 1.150913e+002
8.437832e+002, 1.143588e+002
8.442653e+002, 1.145372e+002
8.447474e+002, 1.155950e+002
8.452296e+002, 1.161660e+002
8.457117e+002, 1.158764e+002
8.461938e+002, 1.156341e+002
8.466759e+002, 1.155791e+002
8.471580e+002, 1.155345e+002
8.476401e+002, 1.153808e+002
8.481223e+002, 1.151518e+002
8.486044e+002, 1.149209e+002
8.490865e+002, 1.146864e+002
8.495686e+002, 1.145427e+002
8.500507e+002, 1.145979e+002
8.505328e+002, 1.147233e+002
8.510150e+002, 1.148699e+002
8.514971e+002, 1.149637e+002
8.519792e+002, 1.148073e+002
8.524613e+002, 1.143697e+002
8.529434e+002, 1.139209e+002
8.534255e+002, 1.137401e+002
8.539077e+002, 1.137441e+002
8.543898e+002, 1.136524e+002
8.548719e+002, 1.134646e+002
8.553540e+002, 1.134096e+002
8.558361e+002, 1.135476e+002
8.563182e+002, 1.137654e+002
8.568004e+002, 1.140043e+002
8.572825e+002, 1.142391e+002
8.577646e+002, 1.143876e+002
8.582467e+002, 1.144017e+002
8.587288e+002, 1.144310e+002
8.592109e+002, 1.145127e+002
8.596931e+002, 1.145653e+002
8.601752e+002, 1.145579e+002
8.606573e+002, 1.145073e+002
8.611394e+002, 1.144276e+002
8.616215e+002, 1.143227e+002
8.621036e+002, 1.142139e+002
8.625858e+002, 1.141001e+002
8.630679e+002, 1.139959e+002
8.635500e+002, 1.138912e+002
8.640321e+002, 1.138140e+002
8.645142e+002, 1.138775e+002
8.649963e+002, 1.140275e+002
8.654785e+002, 1.139532e+002
8.659606e+002, 1.134366e+002
8.664427e+002, 1.129071e+002
8.669248e+002, 1.132069e+002
8.674069e+002, 1.141230e+002
8.678890e+002, 1.144525e+002
8.683712e+002, 1.141085e+002
8.688533e+002, 1.137605e+002
8.693354e+002, 1.136851e+002
8.698175e+002, 1.137198e+002
8.702996e+002, 1.136414e+002
8.707817e+002, 1.134475e+002
8.712639e+002, 1.133800e+002
8.717459e+002, 1.135635e+002
8.722280e+002, 1.136537e+002
8.727101e+002, 1.135219e+002
8.731923e+002, 1.133480e+002
8.736744e+002, 1.131634e+002
8.741565e+002, 1.130294e+002
8.746386e+002, 1.131278e+002
8.751207e+002, 1.136258e+002
8.756028e+002, 1.139285e+002
8.760850e+002, 1.136616e+002
8.765671e+002, 1.132853e+002
8.770492e+002, 1.130979e+002
8.775313e+002, 1.130589e+002
8.780134e+002, 1.130940e+002
8.784955e+002, 1.131647e+002
8.789777e+002, 1.131819e+002
8.794598e+002, 1.130210e+002
8.799419e+002, 1.128321e+002
8.804240e+002, 1.129084e+002
8.809061e+002, 1.131724e+002
8.813882e+002, 1.133614e+002
8.818704e+002, 1.134292e+002
8.823525e+002, 1.133259e+002
8.828346e+002, 1.129786e+002
8.833167e+002, 1.126193e+002
8.837988e+002, 1.128332e+002
8.842809e+002, 1.137689e+002
8.847631e+002, 1.140937e+002
8.852452e+002, 1.134837e+002
8.857273e+002, 1.130764e+002
8.862094e+002, 1.134404e+002
8.866915e+002, 1.139947e+002
8.871736e+002, 1.140602e+002
8.876558e+002, 1.136711e+002
8.881379e+002, 1.133864e+002
8.886200e+002, 1.132587e+002
8.891021e+002, 1.131827e+002
8.895842e+002, 1.131572e+002
8.900663e+002, 1.131611e+002
8.905485e+002, 1.131333e+002
8.910306e+002, 1.131382e+002
8.915127e+002, 1.133472e+002
8.919948e+002, 1.138205e+002
8.924769e+002, 1.142122e+002
8.929590e+002, 1.141846e+002
8.934412e+002, 1.140647e+002
8.939233e+002, 1.142543e+002
8.944054e+002, 1.146086e+002
8.948875e+002, 1.147981e+002
8.953696e+002, 1.147639e+002
8.958517e+002, 1.146767e+002
8.963339e+002, 1.146718e+002
8.968160e+002, 1.146609e+002
8.972981e+002, 1.143539e+002
8.977802e+002, 1.138142e+002
8.982623e+002, 1.137617e+002
8.987444e+002, 1.143068e+002
8.992266e+002, 1.147419e+002
8.997087e+002, 1.146903e+002
9.001908e+002, 1.144877e+002
9.006729e+002, 1.146579e+002
9.011550e+002, 1.152260e+002
9.016371e+002, 1.155810e+002
9.021193e+002, 1.156148e+002
9.026014e+002, 1.156385e+002
9.030835e+002, 1.157762e+002
9.035656e+002, 1.158531e+002
9.040477e+002, 1.156132e+002
9.045298e+002, 1.152372e+002
9.050120e+002, 1.152332e+002
9.054941e+002, 1.158379e+002
9.059762e+002, 1.162893e+002
9.064583e+002, 1.162846e+002
9.069404e+002, 1.162012e+002
9.074225e+002, 1.162597e+002
9.079047e+002, 1.163815e+002
9.083868e+002, 1.164399e+002
9.088689e+002, 1.164183e+002
9.093510e+002, 1.163826e+002
9.098331e+002, 1.163478e+002
9.103152e+002, 1.163526e+002
9.107974e+002, 1.164725e+002
9.112795e+002, 1.166449e+002
9.117616e+002, 1.167366e+002
9.122437e+002, 1.167559e+002
9.127258e+002, 1.168008e+002
9.132079e+002, 1.169172e+002
9.136901e+002, 1.171260e+002
9.141722e+002, 1.175460e+002
9.146543e+002, 1.180894e+002
9.151364e+002, 1.181598e+002
9.156185e+002, 1.177322e+002
9.161006e+002, 1.175948e+002
9.165828e+002, 1.180038e+002
9.170649e+002, 1.184672e+002
9.175470e+002, 1.185591e+002
9.180291e+002, 1.184036e+002
9.185112e+002, 1.184699e+002
9.189933e+002, 1.189085e+002
9.194755e+002, 1.191887e+002
9.199576e+002, 1.192679e+002
9.204397e+002, 1.192493e+002
9.209218e+002, 1.190517e+002
9.214039e+002, 1.188564e+002
9.218860e+002, 1.188903e+002
9.223682e+002, 1.191462e+002
9.228503e+002, 1.193727e+002
9.233324e+002, 1.194740e+002
9.238145e+002, 1.196256e+002
9.242966e+002, 1.199426e+002
9.247787e+002, 1.202683e+002
9.252609e+002, 1.204075e+002
9.257430e+002, 1.204750e+002
9.262251e+002, 1.208056e+002
9.267072e+002, 1.215102e+002
9.271893e+002, 1.219878e+002
9.276714e+002, 1.215375e+002
9.281536e+002, 1.209366e+002
9.286357e+002, 1.210076e+002
9.291178e+002, 1.215095e+002
9.295999e+002, 1.220276e+002
9.300820e+002, 1.224415e+002
9.305641e+002, 1.226676e+002
9.310463e+002, 1.226385e+002
9.315284e+002, 1.224826e+002
9.320105e+002, 1.223285e+002
9.324926e+002, 1.222194e+002
9.329747e+002, 1.224335e+002
9.334568e+002, 1.229545e+002
9.339390e+002, 1.231964e+002
9.344211e+002, 1.229099e+002
9.349032e+002, 1.226264e+002
9.353853e+002, 1.229793e+002
9.358674e+002, 1.238092e+002
9.363495e+002, 1.241363e+002
9.368317e+002, 1.238261e+002
9.373138e+002, 1.235697e+002
9.377959e+002, 1.233384e+002
9.382780e+002, 1.234292e+002
9.387601e+002, 1.242335e+002
9.392422e+002, 1.252764e+002
9.397244e+002, 1.256643e+002
9.402065e+002, 1.252460e+002
9.406886e+002, 1.250564e+002
9.411707e+002, 1.251873e+002
9.416528e+002, 1.254084e+002
9.421349e+002, 1.257268e+002
9.426171e+002, 1.260743e+002
9.430992e+002, 1.264814e+002
9.435813e+002, 1.268688e+002
9.440634e+002, 1.270111e+002
9.445455e+002, 1.267817e+002
9.450276e+002, 1.266317e+002
9.455098e+002, 1.265994e+002
9.459919e+002, 1.268276e+002
9.464740e+002, 1.276820e+002
9.469561e+002, 1.287044e+002
9.474382e+002, 1.292682e+002
9.479203e+002, 1.293318e+002
9.484025e+002, 1.292635e+002
9.488846e+002, 1.291911e+002
9.493667e+002, 1.292337e+002
9.498488e+002, 1.296853e+002
9.503309e+002, 1.302220e+002
9.508130e+002, 1.302023e+002
9.512952e+002, 1.297984e+002
9.517773e+002, 1.297157e+002
9.522594e+002, 1.301782e+002
9.527415e+002, 1.308085e+002
9.532236e+002, 1.313025e+002
9.537057e+002, 1.316383e+002
9.541878e+002, 1.316710e+002
9.546699e+002, 1.314668e+002
9.551520e+002, 1.314677e+002
9.556342e+002, 1.317368e+002
9.561163e+002, 1.321432e+002
9.565984e+002, 1.326397e+002
9.570805e+002, 1.331159e+002
9.575626e+002, 1.333651e+002
9.580447e+002, 1.333960e+002
9.585269e+002, 1.336313e+002
9.590090e+002, 1.341815e+002
9.594911e+002, 1.344301e+002
9.599732e+002, 1.341065e+002
9.604553e+002, 1.337593e+002
9.609374e+002, 1.337375e+002
9.614196e+002, 1.340365e+002
9.619017e+002, 1.347124e+002
9.623838e+002, 1.361033e+002
9.628659e+002, 1.367999e+002
9.633480e+002, 1.354798e+002
9.638301e+002, 1.352652e+002
9.643123e+002, 1.386231e+002
9.647944e+002, 1.420576e+002
9.652765e+002, 1.420912e+002
9.657586e+002, 1.394434e+002
9.662407e+002, 1.377188e+002
9.667228e+002, 1.376746e+002
9.672050e+002, 1.379208e+002
9.676871e+002, 1.384203e+002
9.681692e+002, 1.388556e+002
9.686513e+002, 1.389339e+002
9.691334e+002, 1.389013e+002
9.696155e+002, 1.391354e+002
9.700977e+002, 1.396417e+002
9.705798e+002, 1.400439e+002
9.710619e+002, 1.400656e+002
9.715440e+002, 1.401239e+002
9.720261e+002, 1.406291e+002
9.725082e+002, 1.411893e+002
9.729904e+002, 1.413526e+002
9.734725e+002, 1.412220e+002
9.739546e+002, 1.410477e+002
9.744367e+002, 1.409307e+002
9.749188e+002, 1.410041e+002
9.754009e+002, 1.414208e+002
9.758831e+002, 1.420310e+002
9.763652e+002, 1.427521e+002
9.768473e+002, 1.434728e+002
9.773294e+002, 1.438967e+002
9.778115e+002, 1.440567e+002
9.782936e+002, 1.443001e+002
9.787758e+002, 1.447929e+002
9.792579e+002, 1.452994e+002
9.797400e+002, 1.454401e+002
9.802221e+002, 1.453917e+002
9.807042e+002, 1.458432e+002
9.811863e+002, 1.467128e+002
9.816685e+002, 1.473580e+002
9.821506e+002, 1.476503e+002
9.826327e+002, 1.476179e+002
9.831148e+002, 1.472174e+002
9.835969e+002, 1.467951e+002
9.840790e+002, 1.471194e+002
9.845612e+002, 1.481983e+002
9.850433e+002, 1.487008e+002
9.855254e+002, 1.484852e+002
9.860075e+002, 1.485556e+002
9.864896e+002, 1.492352e+002
9.869717e+002, 1.500680e+002
9.874539e+002, 1.506915e+002
9.879360e+002, 1.511778e+002
9.884181e+002, 1.517789e+002
9.889002e+002, 1.526026e+002
9.893823e+002, 1.531368e+002
9.898644e+002, 1.532730e+002
9.903466e+002, 1.533135e+002
9.908287e+002, 1.531978e+002
9.913108e+002, 1.531992e+002
9.917929e+002, 1.537185e+002
9.922750e+002, 1.546231e+002
9.927571e+002, 1.551047e+002
9.932393e+002, 1.548125e+002
9.937214e+002, 1.547328e+002
9.942035e+002, 1.549798e+002
9.946856e+002, 1.553235e+002
9.951677e+002, 1.557323e+002
9.956498e+002, 1.561546e+002
9.961320e+002, 1.565760e+002
9.966141e+002, 1.569762e+002
9.970962e+002, 1.572126e+002
9.975783e+002, 1.568441e+002
9.980604e+002, 1.569985e+002
9.985425e+002, 1.586060e+002
9.990247e+002, 1.601413e+002
9.995068e+002, 1.604661e+002
9.999889e+002, 1.601963e+002
1.000471e+003, 1.601957e+002
1.000953e+003, 1.605995e+002
1.001435e+003, 1.612031e+002
1.001917e+003, 1.620706e+002
1.002399e+003, 1.628901e+002
1.002882e+003, 1.636530e+002
1.003364e+003, 1.641499e+002
1.003846e+003, 1.638930e+002
1.004328e+003, 1.633189e+002
1.004810e+003, 1.633075e+002
1.005292e+003, 1.640396e+002
1.005774e+003, 1.649190e+002
1.006256e+003, 1.656634e+002
1.006739e+003, 1.662822e+002
1.007221e+003, 1.668014e+002
1.007703e+003, 1.671897e+002
1.008185e+003, 1.672528e+002
1.008667e+003, 1.671552e+002
1.009149e+003, 1.674125e+002
1.009631e+003, 1.681758e+002
1.010113e+003, 1.689600e+002
1.010595e+003, 1.692632e+002
1.011078e+003, 1.694187e+002
1.011560e+003, 1.699764e+002
1.012042e+003, 1.707641e+002
1.012524e+003, 1.714008e+002
1.013006e+003, 1.718506e+002
1.013488e+003, 1.721850e+002
1.013970e+003, 1.724413e+002
1.014452e+003, 1.727371e+002
1.014935e+003, 1.731667e+002
1.015417e+003, 1.737631e+002
1.015899e+003, 1.748656e+002
1.016381e+003, 1.762513e+002
1.016863e+003, 1.766449e+002
1.017345e+003, 1.759640e+002
1.017827e+003, 1.755315e+002
1.018309e+003, 1.760370e+002
1.018791e+003, 1.769245e+002
1.019274e+003, 1.774224e+002
1.019756e+003, 1.776425e+002
1.020238e+003, 1.781993e+002
1.020720e+003, 1.790730e+002
1.021202e+003, 1.797430e+002
1.021684e+003, 1.801140e+002
1.022166e+003, 1.803608e+002
1.022648e+003, 1.805441e+002
1.023130e+003, 1.808646e+002
1.023613e+003, 1.817372e+002
1.024095e+003, 1.831038e+002
1.024577e+003, 1.839256e+002
1.025059e+003, 1.841316e+002
1.025541e+003, 1.843455e+002
1.026023e+003, 1.846767e+002
1.026505e+003, 1.850256e+002
1.026987e+003, 1.852867e+002
1.027469e+003, 1.856294e+002
1.027952e+003, 1.864256e+002
1.028434e+003, 1.877142e+002
1.028916e+003, 1.885603e+002
1.029398e+003, 1.888203e+002
1.029880e+003, 1.891517e+002
1.030362e+003, 1.896904e+002
1.030844e+003, 1.902994e+002
1.031326e+003, 1.909033e+002
1.031809e+003, 1.915078e+002
1.032291e+003, 1.921193e+002
1.032773e+003, 1.927315e+002
1.033255e+003, 1.934182e+002
1.033737e+003, 1.942372e+002
1.034219e+003, 1.950204e+002
1.034701e+003, 1.957977e+002
1.035183e+003, 1.964343e+002
1.035666e+003, 1.967117e+002
1.036148e+003, 1.968598e+002
1.036630e+003, 1.974180e+002
1.037112e+003, 1.985293e+002
1.037594e+003, 1.992284e+002
1.038076e+003, 1.991189e+002
1.038558e+003, 1.992220e+002
1.039040e+003, 1.998235e+002
1.039522e+003, 2.005571e+002
1.040005e+003, 2.011524e+002
1.040487e+003, 2.017252e+002
1.040969e+003, 2.025417e+002
1.041451e+003, 2.036664e+002
1.041933e+003, 2.047007e+002
1.042415e+003, 2.058767e+002
1.042897e+003, 2.066317e+002
1.043379e+003, 2.063592e+002
1.043861e+003, 2.061397e+002
1.044344e+003, 2.067177e+002
1.044826e+003, 2.078275e+002
1.045308e+003, 2.090536e+002
1.045790e+003, 2.104685e+002
1.046272e+003, 2.112698e+002
1.046754e+003, 2.106009e+002
1.047236e+003, 2.103814e+002
1.047718e+003, 2.113177e+002
1.048201e+003, 2.126219e+002
1.048683e+003, 2.139889e+002
1.049165e+003, 2.152424e+002
1.049647e+003, 2.160862e+002
1.050129e+003, 2.164446e+002
1.050611e+003, 2.168323e+002
1.051093e+003, 2.171963e+002
1.051575e+003, 2.177992e+002
1.052057e+003, 2.190609e+002
1.052540e+003, 2.202545e+002
1.053022e+003, 2.207225e+002
1.053504e+003, 2.207938e+002
1.053986e+003, 2.210948e+002
1.054468e+003, 2.217180e+002
1.054950e+003, 2.224233e+002
1.055432e+003, 2.232098e+002
1.055914e+003, 2.239841e+002
1.056396e+003, 2.247278e+002
1.056879e+003, 2.254361e+002
1.057361e+003, 2.260923e+002
1.057843e+003, 2.267138e+002
1.058325e+003, 2.272937e+002
1.058807e+003, 2.278384e+002
1.059289e+003, 2.285450e+002
1.059771e+003, 2.294653e+002
1.060253e+003, 2.305777e+002
1.060736e+003, 2.321820e+002
1.061218e+003, 2.336805e+002
1.061700e+003, 2.347018e+002
1.062182e+003, 2.352701e+002
1.062664e+003, 2.352402e+002
1.063146e+003, 2.346902e+002
1.063628e+003, 2.346993e+002
1.064110e+003, 2.361322e+002
1.064593e+003, 2.375221e+002
1.065075e+003, 2.381096e+002
1.065557e+003, 2.385824e+002
1.066039e+003, 2.395316e+002
1.066521e+003, 2.406907e+002
1.067003e+003, 2.415959e+002
1.067485e+003, 2.421884e+002
1.067967e+003, 2.427124e+002
1.068449e+003, 2.432456e+002
1.068932e+003, 2.437489e+002
1.069414e+003, 2.439809e+002
1.069896e+003, 2.444037e+002
1.070378e+003, 2.456030e+002
1.070860e+003, 2.470806e+002
1.071342e+003, 2.480683e+002
1.071824e+003, 2.485468e+002
1.072306e+003, 2.491782e+002
1.072788e+003, 2.503461e+002
1.073271e+003, 2.513679e+002
1.073753e+003, 2.516244e+002
1.074235e+003, 2.519348e+002
1.074717e+003, 2.530579e+002
1.075199e+003, 2.544942e+002
1.075681e+003, 2.555699e+002
1.076163e+003, 2.562570e+002
1.076645e+003, 2.569258e+002
1.077127e+003, 2.577435e+002
1.077610e+003, 2.584325e+002
1.078092e+003, 2.586108e+002
1.078574e+003, 2.589002e+002
1.079056e+003, 2.598669e+002
1.079538e+003, 2.610874e+002
1.080020e+003, 2.621642e+002
1.080502e+003, 2.629968e+002
1.080984e+003, 2.633978e+002
1.081467e+003, 2.631334e+002
1.081949e+003, 2.633295e+002
1.082431e+003, 2.648551e+002
1.082913e+003, 2.665746e+002
1.083395e+003, 2.678652e+002
1.083877e+003, 2.689290e+002
1.084359e+003, 2.700482e+002
1.084841e+003, 2.711513e+002
1.085323e+003, 2.719147e+002
1.085806e+003, 2.721993e+002
1.086288e+003, 2.726772e+002
1.086770e+003, 2.736869e+002
1.087252e+003, 2.748904e+002
1.087734e+003, 2.765338e+002
1.088216e+003, 2.779366e+002
1.088698e+003, 2.782134e+002
1.089180e+003, 2.778294e+002
1.089662e+003, 2.778233e+002
1.090145e+003, 2.784114e+002
1.090627e+003, 2.790705e+002
1.091109e+003, 2.792749e+002
1.091591e+003, 2.799543e+002
1.092073e+003, 2.819718e+002
1.092555e+003, 2.841695e+002
1.093037e+003, 2.857366e+002
1.093519e+003, 2.867724e+002
1.094002e+003, 2.874818e+002
1.094484e+003, 2.879250e+002
1.094966e+003, 2.883559e+002
1.095448e+003, 2.885941e+002
1.095930e+003, 2.892148e+002
1.096412e+003, 2.906050e+002
1.096894e+003, 2.922199e+002
1.097376e+003, 2.939070e+002
1.097859e+003, 2.955004e+002
1.098341e+003, 2.967749e+002
1.098823e+003, 2.977523e+002
1.099305e+003, 2.987365e+002
1.099787e+003, 2.998128e+002
1.100269e+003, 3.008671e+002
1.100751e+003, 3.019006e+002
1.101233e+003, 3.028628e+002
1.101715e+003, 3.036884e+002
1.102198e+003, 3.044669e+002
1.102680e+003, 3.051841e+002
1.103162e+003, 3.059333e+002
1.103644e+003, 3.070610e+002
1.104126e+003, 3.088135e+002
1.104608e+003, 3.103272e+002
1.105090e+003, 3.111191e+002
1.105572e+003, 3.120793e+002
1.106054e+003, 3.135636e+002
1.106537e+003, 3.152968e+002
1.107019e+003, 3.171858e+002
1.107501e+003, 3.191239e+002
1.107983e+003, 3.209215e+002
1.108465e+003, 3.226060e+002
1.108947e+003, 3.239303e+002
1.109429e+003, 3.241240e+002
1.109911e+003, 3.250225e+002
1.110394e+003, 3.278763e+002
1.110876e+003, 3.305926e+002
1.111358e+003, 3.316305e+002
1.111840e+003, 3.318633e+002
1.112322e+003, 3.326750e+002
1.112804e+003, 3.340945e+002
1.113286e+003, 3.357632e+002
1.113768e+003, 3.377604e+002
1.114250e+003, 3.398745e+002
1.114733e+003, 3.424122e+002
1.115215e+003, 3.446114e+002
1.115697e+003, 3.458860e+002
1.116179e+003, 3.469079e+002
1.116661e+003, 3.484703e+002
1.117143e+003, 3.504956e+002
1.117625e+003, 3.524175e+002
1.118107e+003, 3.543118e+002
1.118589e+003, 3.558624e+002
1.119072e+003, 3.566689e+002
1.119554e+003, 3.579647e+002
1.120036e+003, 3.603782e+002
1.120518e+003, 3.630197e+002
1.121000e+003, 3.650982e+002
1.121482e+003, 3.668627e+002
1.121964e+003, 3.690926e+002
1.122446e+003, 3.719564e+002
1.122929e+003, 3.741744e+002
1.123411e+003, 3.754775e+002
1.123893e+003, 3.771235e+002
1.124375e+003, 3.795344e+002
1.124857e+003, 3.817952e+002
1.125339e+003, 3.831607e+002
1.125821e+003, 3.844007e+002
1.126303e+003, 3.869736e+002
1.126786e+003, 3.907588e+002
1.127268e+003, 3.934285e+002
1.127750e+003, 3.948036e+002
1.128232e+003, 3.966179e+002
1.128714e+003, 3.991568e+002
1.129196e+003, 4.015356e+002
1.129678e+003, 4.033125e+002
1.130160e+003, 4.049521e+002
1.130642e+003, 4.069809e+002
1.131125e+003, 4.092997e+002
1.131607e+003, 4.115092e+002
1.132089e+003, 4.136296e+002
1.132571e+003, 4.160417e+002
1.133053e+003, 4.187744e+002
1.133535e+003, 4.213766e+002
1.134017e+003, 4.237142e+002
1.134499e+003, 4.260967e+002
1.134981e+003, 4.288004e+002
1.135464e+003, 4.315013e+002
1.135946e+003, 4.333306e+002
1.136428e+003, 4.346840e+002
1.136910e+003, 4.373404e+002
1.137392e+003, 4.409980e+002
1.137874e+003, 4.440077e+002
1.138356e+003, 4.461707e+002
1.138838e+003, 4.485353e+002
1.139321e+003, 4.516528e+002
1.139803e+003, 4.547750e+002
1.140285e+003, 4.569879e+002
1.140767e+003, 4.587679e+002
1.141249e+003, 4.609529e+002
1.141731e+003, 4.634210e+002
1.142213e+003, 4.659628e+002
1.142695e+003, 4.685186e+002
1.143177e+003, 4.711166e+002
1.143660e+003, 4.737153e+002
1.144142e+003, 4.758480e+002
1.144624e+003, 4.768159e+002
1.145106e+003, 4.781102e+002
1.145588e+003, 4.817895e+002
1.146070e+003, 4.863004e+002
1.146552e+003, 4.899424e+002
1.147034e+003, 4.927919e+002
1.147516e+003, 4.949728e+002
1.147999e+003, 4.967559e+002
1.148481e+003, 4.989013e+002
1.148963e+003, 5.017618e+002
1.149445e+003, 5.048491e+002
1.149927e+003, 5.082511e+002
1.150409e+003, 5.113180e+002
1.150891e+003, 5.130787e+002
1.151373e+003, 5.146561e+002
1.151856e+003, 5.173079e+002
1.152338e+003, 5.207823e+002
1.152820e+003, 5.244412e+002
1.153302e+003, 5.281406e+002
1.153784e+003, 5.311074e+002
1.154266e+003, 5.324757e+002
1.154748e+003, 5.339542e+002
1.155230e+003, 5.358701e+002
1.155713e+003, 5.383250e+002
1.156195e+003, 5.421061e+002
1.156677e+003, 5.460043e+002
1.157159e+003, 5.481823e+002
1.157641e+003, 5.488883e+002
1.158123e+003, 5.504659e+002
1.158605e+003, 5.535944e+002
1.159087e+003, 5.566508e+002
1.159569e+003, 5.596849e+002
1.160052e+003, 5.624433e+002
1.160534e+003, 5.644669e+002
1.161016e+003, 5.666717e+002
1.161498e+003, 5.700069e+002
1.161980e+003, 5.738228e+002
1.162462e+003, 5.765286e+002
1.162944e+003, 5.779060e+002
1.163426e+003, 5.806700e+002
1.163908e+003, 5.854281e+002
1.164391e+003, 5.897938e+002
1.164873e+003, 5.934306e+002
1.165355e+003, 5.966334e+002
1.165837e+003, 5.994509e+002
1.166319e+003, 6.021254e+002
1.166801e+003, 6.048802e+002
1.167283e+003, 6.078077e+002
1.167765e+003, 6.115186e+002
1.168247e+003, 6.160610e+002
1.168730e+003, 6.197551e+002
1.169212e+003, 6.224901e+002
1.169694e+003, 6.254201e+002
1.170176e+003, 6.288431e+002
1.170658e+003, 6.326317e+002
1.171140e+003, 6.367062e+002
1.171622e+003, 6.410699e+002
1.172104e+003, 6.459031e+002
1.172587e+003, 6.509677e+002
1.173069e+003, 6.554778e+002
1.173551e+003, 6.595351e+002
1.174033e+003, 6.635328e+002
1.174515e+003, 6.675175e+002
1.174997e+003, 6.712484e+002
1.175479e+003, 6.747162e+002
1.175961e+003, 6.786451e+002
1.176443e+003, 6.835952e+002
1.176926e+003, 6.894410e+002
1.177408e+003, 6.965471e+002
1.177890e+003, 7.040646e+002
1.178372e+003, 7.113543e+002
1.178854e+003, 7.178243e+002
1.179336e+003, 7.222734e+002
1.179818e+003, 7.249081e+002
1.180300e+003, 7.269324e+002
1.180782e+003, 7.286605e+002
1.181265e+003, 7.313688e+002
1.181747e+003, 7.363690e+002
1.182229e+003, 7.419485e+002
1.182711e+003, 7.470297e+002
1.183193e+003, 7.521025e+002
1.183675e+003, 7.578128e+002
1.184157e+003, 7.638210e+002
1.184639e+003, 7.693449e+002
1.185122e+003, 7.743245e+002
1.185604e+003, 7.797857e+002
1.186086e+003, 7.867833e+002
1.186568e+003, 7.929777e+002
1.187050e+003, 7.969034e+002
1.187532e+003, 8.013013e+002
1.188014e+003, 8.076337e+002
1.188496e+003, 8.146644e+002
1.188979e+003, 8.212819e+002
1.189461e+003, 8.276423e+002
1.189943e+003, 8.340465e+002
1.190425e+003, 8.405038e+002
1.190907e+003, 8.468641e+002
1.191389e+003, 8.530020e+002
1.191871e+003, 8.593124e+002
1.192353e+003, 8.657922e+002
1.192835e+003, 8.725831e+002
1.193318e+003, 8.797347e+002
1.193800e+003, 8.873209e+002
1.194282e+003, 8.955426e+002
1.194764e+003, 9.040685e+002
1.195246e+003, 9.112667e+002
1.195728e+003, 9.172175e+002
1.196210e+003, 9.241376e+002
1.196692e+003, 9.320656e+002
1.197174e+003, 9.405935e+002
1.197657e+003, 9.495231e+002
1.198139e+003, 9.579355e+002
1.198621e+003, 9.652444e+002
1.199103e+003, 9.718455e+002
1.199585e+003, 9.776933e+002
1.200067e+003, 9.835707e+002
1.200549e+003, 9.914713e+002
1.201031e+003, 1.000554e+003
1.201514e+003, 1.009214e+003
1.201996e+003, 1.017308e+003
1.202478e+003, 1.024831e+003
1.202960e+003, 1.031984e+003
1.203442e+003, 1.039813e+003
1.203924e+003, 1.049205e+003
1.204406e+003, 1.058652e+003
1.204888e+003, 1.067233e+003
1.205370e+003, 1.075120e+003
1.205853e+003, 1.081755e+003
1.206335e+003, 1.088241e+003
1.206817e+003, 1.096048e+003
1.207299e+003, 1.104852e+003
1.207781e+003, 1.113459e+003
1.208263e+003, 1.121590e+003
1.208745e+003, 1.129887e+003
1.209227e+003, 1.139189e+003
1.209709e+003, 1.147561e+003
1.210192e+003, 1.152668e+003
1.210674e+003, 1.159144e+003
1.211156e+003, 1.170866e+003
1.211638e+003, 1.183718e+003
1.212120e+003, 1.193618e+003
1.212602e+003, 1.201209e+003
1.213084e+003, 1.208705e+003
1.213566e+003, 1.215910e+003
1.214049e+003, 1.224022e+003
1.214531e+003, 1.233201e+003
1.215013e+003, 1.242771e+003
1.215495e+003, 1.252797e+003
1.215977e+003, 1.262264e+003
1.216459e+003, 1.270550e+003
1.216941e+003, 1.278300e+003
1.217423e+003, 1.286303e+003
1.217906e+003, 1.294365e+003
1.218388e+003, 1.301708e+003
1.218870e+003, 1.308488e+003
1.219352e+003, 1.315367e+003
1.219834e+003, 1.322511e+003
1.220316e+003, 1.330399e+003
1.220798e+003, 1.339135e+003
1.221280e+003, 1.349027e+003
1.221762e+003, 1.360375e+003
1.222245e+003, 1.370349e+003
1.222727e+003, 1.374656e+003
1.223209e+003, 1.377564e+003
1.223691e+003, 1.384157e+003
1.224173e+003, 1.392182e+003
1.224655e+003, 1.398751e+003
1.225137e+003, 1.404246e+003
1.225619e+003, 1.409833e+003
1.226101e+003, 1.415745e+003
1.226584e+003, 1.421997e+003
1.227066e+003, 1.428809e+003
1.227548e+003, 1.435217e+003
1.228030e+003, 1.440877e+003
1.228512e+003, 1.446067e+003
1.228994e+003, 1.450551e+003
1.229476e+003, 1.454979e+003
1.229958e+003, 1.459738e+003
1.230441e+003, 1.464859e+003
1.230923e+003, 1.470394e+003
1.231405e+003, 1.476348e+003
1.231887e+003, 1.482422e+003
1.232369e+003, 1.489085e+003
1.232851e+003, 1.494258e+003
1.233333e+003, 1.497432e+003
1.233815e+003, 1.500589e+003
1.234297e+003, 1.504297e+003
1.234780e+003, 1.508239e+003
1.235262e+003, 1.512235e+003
1.235744e+003, 1.516187e+003
1.236226e+003, 1.520020e+003
1.236708e+003, 1.523624e+003
1.237190e+003, 1.526673e+003
1.237672e+003, 1.529134e+003
1.238154e+003, 1.530677e+003
1.238636e+003, 1.531523e+003
1.239119e+003, 1.532704e+003
1.239601e+003, 1.534562e+003
1.240083e+003, 1.537111e+003
1.240565e+003, 1.540499e+003
1.241047e+003, 1.543918e+003
1.241529e+003, 1.547172e+003
1.242011e+003, 1.549508e+003
1.242493e+003, 1.548975e+003
1.242975e+003, 1.548091e+003
1.243458e+003, 1.550242e+003
1.243940e+003, 1.554473e+003
1.244422e+003, 1.558424e+003
1.244904e+003, 1.561647e+003
1.245386e+003, 1.564037e+003
1.245868e+003, 1.565276e+003
1.246350e+003, 1.566227e+003
1.246832e+003, 1.566267e+003
1.247315e+003, 1.567102e+003
1.247797e+003, 1.570134e+003
1.248279e+003, 1.573054e+003
1.248761e+003, 1.573641e+003
1.249243e+003, 1.573664e+003
1.249725e+003, 1.576677e+003
1.250207e+003, 1.582383e+003
1.250689e+003, 1.585981e+003
1.251172e+003, 1.587365e+003
1.251654e+003, 1.587030e+003
1.252136e+003, 1.584892e+003
1.252618e+003, 1.584282e+003
1.253100e+003, 1.586193e+003
1.253582e+003, 1.589265e+003
1.254064e+003, 1.592677e+003
1.254546e+003, 1.595455e+003
1.255028e+003, 1.595796e+003
1.255510e+003, 1.594881e+003
1.255993e+003, 1.594265e+003
1.256475e+003, 1.594418e+003
1.256957e+003, 1.596651e+003
1.257439e+003, 1.600310e+003
1.257921e+003, 1.603959e+003
1.258403e+003, 1.607121e+003
1.258885e+003, 1.609478e+003
1.259367e+003, 1.610700e+003
1.259850e+003, 1.611854e+003
1.260332e+003, 1.613766e+003
1.260814e+003, 1.615296e+003
1.261296e+003, 1.615039e+003
1.261778e+003, 1.615080e+003
1.262260e+003, 1.617175e+003
1.262742e+003, 1.620547e+003
1.263224e+003, 1.624275e+003
1.263707e+003, 1.628160e+003
1.264189e+003, 1.630277e+003
1.264671e+003, 1.629444e+003
1.265153e+003, 1.630972e+003
1.265635e+003, 1.635300e+003
1.266117e+003, 1.640457e+003
1.266599e+003, 1.646339e+003
1.267081e+003, 1.650303e+003
1.267563e+003, 1.650633e+003
1.268046e+003, 1.650587e+003
1.268528e+003, 1.654259e+003
1.269010e+003, 1.660018e+003
1.269492e+003, 1.664112e+003
1.269974e+003, 1.667278e+003
1.270456e+003, 1.671305e+003
1.270938e+003, 1.676124e+003
1.271420e+003, 1.681672e+003
1.271902e+003, 1.687465e+003
1.272385e+003, 1.691708e+003
1.272867e+003, 1.693706e+003
1.273349e+003, 1.696422e+003
1.273831e+003, 1.702016e+003
1.274313e+003, 1.708249e+003
1.274795e+003, 1.713833e+003
1.275277e+003, 1.719947e+003
1.275759e+003, 1.728581e+003
1.276242e+003, 1.737285e+003
1.276724e+003, 1.742699e+003
1.277206e+003, 1.745933e+003
1.277688e+003, 1.750799e+003
1.278170e+003, 1.757517e+003
1.278652e+003, 1.763793e+003
1.279134e+003, 1.769161e+003
1.279616e+003, 1.775984e+003
1.280099e+003, 1.784874e+003
1.280581e+003, 1.793153e+003
1.281063e+003, 1.799840e+003
1.281545e+003, 1.805463e+003
1.282027e+003, 1.810255e+003
1.282509e+003, 1.815602e+003
1.282991e+003, 1.824577e+003
1.283473e+003, 1.835423e+003
1.283955e+003, 1.844745e+003
##END=



