##NAMES=Fluorophlogopite
##RRUFFID=R040075
##IDEAL CHEMISTRY=KMg_3_(Si_3_Al)O_10_F_2_
##LOCALITY=unknown
##OWNER=RRUFF
##SOURCE=University of Arizona Mineral Museum
##DESCRIPTION=Green hexagonal tablet
##STATUS=The identification of this mineral has been confirmed by X-ray diffraction and chemical analysis
##URL=rruff.info/R040075
##MEASURED CHEMISTRY=(K_0.93_[box]_0.04_Na_0.03_)(Mg_0.66_Fe_0.30_Ti_0.02_)_3_(Si_0.75_Al_0.25_)_4_O_10_(F_0.90_(OH)_0.06_Cl_0.04_)
111.9222, 124.2854
112.4043, 132.3342
112.8864, 139.0061
113.3685, 138.5702
113.8506, 140.8298
114.3327, 150.3718
114.8149, 171.2896
115.2970, 191.6814
115.7791, 207.7204
116.2612, 220.5485
116.7433, 233.0891
117.2254, 247.4847
117.7076, 261.4989
118.1897, 273.3672
118.6718, 280.0703
119.1539, 287.0182
119.6360, 295.6100
120.1181, 306.1643
120.6003, 321.7213
121.0824, 347.5757
121.5645, 379.0433
122.0466, 409.5835
122.5287, 440.9399
123.0108, 467.8926
123.4930, 481.9758
123.9751, 480.8122
124.4572, 479.9851
124.9393, 494.8824
125.4214, 522.1207
125.9035, 548.0516
126.3857, 566.3015
126.8678, 578.6907
127.3499, 585.9854
127.8320, 587.7038
128.3141, 585.4919
128.7962, 579.0801
129.2784, 569.0687
129.7605, 561.5070
130.2426, 562.7272
130.7247, 570.6436
131.2068, 576.5604
131.6889, 578.6641
132.1711, 577.2752
132.6532, 571.2040
133.1353, 559.0856
133.6174, 548.9199
134.0995, 552.3482
134.5816, 569.5646
135.0638, 582.7755
135.5459, 576.0884
136.0280, 583.4587
136.5101, 587.5629
136.9922, 588.5765
137.4743, 577.2430
137.9565, 581.8532
138.4386, 580.0739
138.9207, 578.0327
139.4028, 584.8870
139.8849, 575.3492
140.3670, 582.0625
140.8492, 582.2886
141.3313, 585.4838
141.8134, 582.2499
142.2955, 581.0016
142.7776, 591.0996
143.2597, 597.3170
143.7419, 598.0453
144.2240, 597.6423
144.7061, 596.3294
145.1882, 594.0725
145.6703, 592.6100
146.1524, 593.2048
146.6346, 593.6552
147.1167, 591.5670
147.5988, 584.0243
148.0809, 577.4720
148.5630, 573.2712
149.0451, 571.7579
149.5273, 571.3232
150.0094, 573.0447
150.4915, 575.5990
150.9736, 576.8220
151.4557, 576.1959
151.9378, 574.6134
152.4200, 571.8647
152.9021, 563.5496
153.3842, 560.9125
153.8663, 571.5140
154.3484, 589.7807
154.8305, 598.0280
155.3127, 582.6113
155.7948, 563.7562
156.2769, 552.5624
156.7590, 557.0917
157.2411, 563.0339
157.7232, 568.6510
158.2053, 573.7486
158.6875, 576.2643
159.1696, 572.5107
159.6517, 567.2766
160.1338, 564.7867
160.6159, 568.9115
161.0980, 573.6937
161.5802, 577.0270
162.0623, 578.7613
162.5444, 579.3827
163.0265, 579.6749
163.5086, 578.8809
163.9907, 575.9507
164.4729, 566.8040
164.9550, 557.8368
165.4371, 553.5976
165.9192, 555.8531
166.4013, 558.6498
166.8834, 557.2701
167.3656, 553.7444
167.8477, 552.6965
168.3298, 558.8301
168.8119, 567.4239
169.2940, 574.3851
169.7761, 579.3038
170.2583, 581.5428
170.7404, 578.9750
171.2225, 572.6149
171.7046, 566.6913
172.1867, 563.7833
172.6688, 562.9632
173.1510, 563.0245
173.6331, 564.1188
174.1152, 565.4896
174.5973, 566.5927
175.0794, 567.4011
175.5615, 567.5593
176.0437, 565.4290
176.5258, 562.4153
177.0079, 561.5078
177.4900, 564.8790
177.9721, 570.6758
178.4542, 577.2123
178.9364, 584.7820
179.4185, 590.2667
179.9006, 588.4611
180.3827, 581.2994
180.8648, 575.4999
181.3469, 574.8740
181.8291, 577.7781
182.3112, 580.7241
182.7933, 583.6729
183.2754, 586.1032
183.7575, 587.1725
184.2396, 586.9775
184.7218, 586.3801
185.2039, 585.0591
185.6860, 583.5283
186.1681, 584.3905
186.6502, 588.9887
187.1323, 594.1931
187.6144, 593.5183
188.0966, 586.9930
188.5787, 580.2163
189.0608, 577.4801
189.5429, 578.2502
190.0250, 578.6069
190.5071, 578.1315
190.9893, 576.6562
191.4714, 573.6714
191.9535, 569.1320
192.4356, 563.5203
192.9177, 556.4072
193.3998, 547.8430
193.8820, 541.1964
194.3641, 537.9478
194.8462, 537.2191
195.3283, 535.0328
195.8104, 531.2330
196.2925, 526.6282
196.7747, 522.7626
197.2568, 519.8643
197.7389, 514.1361
198.2210, 502.7357
198.7031, 486.4516
199.1852, 474.8546
199.6674, 468.6811
200.1495, 465.4865
200.6316, 461.6434
201.1137, 456.7021
201.5958, 453.9599
202.0779, 455.9551
202.5601, 463.2596
203.0422, 466.8939
203.5243, 466.1318
204.0064, 462.7542
204.4885, 460.1288
204.9706, 458.8012
205.4528, 456.2350
205.9349, 449.6676
206.4170, 437.2375
206.8991, 432.2679
207.3812, 437.8071
207.8633, 448.8976
208.3455, 453.1233
208.8276, 448.6924
209.3097, 442.2061
209.7918, 436.9120
210.2739, 432.7787
210.7560, 430.0301
211.2382, 429.0872
211.7203, 429.4254
212.2024, 429.2615
212.6845, 428.6141
213.1666, 427.4185
213.6487, 425.3088
214.1309, 421.5382
214.6130, 419.3746
215.0951, 420.2121
215.5772, 423.1884
216.0593, 422.3946
216.5414, 415.8283
217.0236, 408.5928
217.5057, 404.9147
217.9878, 406.3933
218.4699, 407.3576
218.9520, 406.9172
219.4341, 405.1314
219.9162, 402.7977
220.3984, 398.6959
220.8805, 395.5655
221.3626, 396.7352
221.8447, 405.6445
222.3268, 411.2651
222.8089, 410.0811
223.2911, 401.6347
223.7732, 397.4138
224.2553, 399.3777
224.7374, 403.6576
225.2195, 405.7860
225.7016, 404.7269
226.1838, 403.5302
226.6659, 403.2157
227.1480, 404.1384
227.6301, 402.9578
228.1122, 398.1203
228.5943, 392.4008
229.0765, 389.4787
229.5586, 390.2086
230.0407, 392.3513
230.5228, 395.9981
231.0049, 402.2136
231.4870, 405.0644
231.9692, 403.3454
232.4513, 399.0970
232.9334, 395.4996
233.4155, 392.5394
233.8976, 390.2848
234.3797, 388.9288
234.8619, 388.8747
235.3440, 388.3987
235.8261, 387.1356
236.3082, 385.6122
236.7903, 385.0123
237.2724, 386.3035
237.7546, 387.0247
238.2367, 385.7133
238.7188, 379.8612
239.2009, 378.4122
239.6830, 383.8494
240.1651, 392.9265
240.6473, 397.5517
241.1294, 395.7617
241.6115, 392.3794
242.0936, 389.1871
242.5757, 385.5261
243.0578, 383.6208
243.5400, 384.4066
244.0221, 386.7978
244.5042, 387.5107
244.9863, 385.2173
245.4684, 383.1594
245.9505, 383.3131
246.4327, 388.0875
246.9148, 389.5571
247.3969, 385.6473
247.8790, 378.3585
248.3611, 375.0180
248.8432, 377.4052
249.3253, 381.2652
249.8075, 384.6984
250.2896, 388.8786
250.7717, 389.6497
251.2538, 384.3516
251.7359, 375.3186
252.2180, 373.1198
252.7002, 381.9557
253.1823, 391.5202
253.6644, 395.3469
254.1465, 390.4287
254.6286, 386.6607
255.1107, 384.7085
255.5929, 384.4728
256.0750, 385.6581
256.5571, 389.3227
257.0392, 392.8038
257.5213, 394.2841
258.0034, 393.2295
258.4856, 391.3929
258.9677, 387.9203
259.4498, 383.6566
259.9319, 383.8580
260.4140, 390.9543
260.8961, 398.5408
261.3783, 401.3033
261.8604, 396.4315
262.3425, 395.5279
262.8246, 402.7401
263.3067, 415.5843
263.7888, 417.3347
264.2710, 402.8449
264.7531, 386.8833
265.2352, 381.3448
265.7173, 389.4499
266.1994, 396.9958
266.6815, 402.4803
267.1637, 405.9515
267.6458, 407.3806
268.1279, 405.8781
268.6100, 404.2485
269.0921, 404.8994
269.5742, 408.4590
270.0564, 411.7130
270.5385, 414.4927
271.0206, 416.6066
271.5027, 416.9902
271.9848, 415.3995
272.4669, 412.6636
272.9491, 408.3169
273.4312, 401.4161
273.9133, 399.0221
274.3954, 403.9734
274.8775, 414.3041
275.3596, 420.0400
275.8418, 420.3308
276.3239, 418.6649
276.8060, 417.7067
277.2881, 417.5472
277.7702, 417.2857
278.2523, 416.8248
278.7345, 416.1300
279.2166, 414.4417
279.6987, 411.1998
280.1808, 409.3092
280.6629, 412.6837
281.1451, 421.5818
281.6272, 427.0946
282.1093, 426.7423
282.5914, 422.2074
283.0735, 419.0670
283.5556, 417.4153
284.0378, 416.5094
284.5199, 416.8266
285.0020, 418.1772
285.4841, 415.7320
285.9662, 406.0857
286.4483, 393.7652
286.9305, 393.2285
287.4126, 405.3711
287.8947, 418.6430
288.3768, 423.3339
288.8589, 420.5952
289.3410, 418.6107
289.8232, 419.5221
290.3053, 421.5932
290.7874, 420.9600
291.2695, 417.6349
291.7516, 412.8842
292.2337, 405.3659
292.7159, 396.5860
293.1980, 393.6871
293.6801, 400.0023
294.1622, 410.4033
294.6443, 415.9291
295.1264, 416.7961
295.6085, 415.4777
296.0906, 412.4090
296.5728, 408.5082
297.0549, 406.3091
297.5370, 406.8416
298.0191, 408.4635
298.5012, 408.8799
298.9833, 408.2266
299.4655, 407.4559
299.9476, 407.1420
300.4297, 407.1880
300.9118, 407.2803
301.3939, 407.0203
301.8760, 407.4680
302.3582, 410.6708
302.8403, 416.0193
303.3224, 420.7141
303.8045, 423.2067
304.2866, 423.9243
304.7687, 423.4382
305.2509, 421.8518
305.7330, 419.0739
306.2151, 413.0683
306.6972, 405.3587
307.1793, 400.4402
307.6614, 403.2299
308.1436, 409.0958
308.6257, 413.2174
309.1078, 413.9293
309.5899, 415.1251
310.0720, 422.0399
310.5541, 431.7639
311.0363, 437.3982
311.5184, 430.5027
312.0005, 421.2568
312.4826, 418.1163
312.9647, 423.8609
313.4468, 430.1906
313.9290, 434.4784
314.4111, 436.1421
314.8932, 434.1080
315.3753, 421.5246
315.8574, 409.7963
316.3395, 406.9571
316.8217, 416.4774
317.3038, 424.0078
317.7859, 422.0158
318.2680, 415.1129
318.7501, 410.0811
319.2322, 408.3544
319.7144, 409.3563
320.1965, 414.1086
320.6786, 423.9046
321.1607, 430.9044
321.6428, 432.3427
322.1249, 430.2652
322.6071, 427.1269
323.0892, 421.7137
323.5713, 416.8513
324.0534, 412.6096
324.5355, 408.5172
325.0176, 408.4172
325.4998, 417.5883
325.9819, 428.7828
326.4640, 435.0873
326.9461, 429.8975
327.4282, 426.3769
327.9103, 428.9181
328.3925, 438.3006
328.8746, 439.9734
329.3567, 426.0739
329.8388, 409.9237
330.3209, 402.2940
330.8030, 409.3745
331.2852, 416.0283
331.7673, 421.2735
332.2494, 424.9595
332.7315, 424.3170
333.2136, 416.4539
333.6957, 407.6478
334.1779, 402.0255
334.6600, 399.8917
335.1421, 400.5529
335.6242, 405.6161
336.1063, 413.4830
336.5884, 415.6913
337.0706, 409.3612
337.5527, 403.5068
338.0348, 405.0912
338.5169, 416.3667
338.9990, 423.5958
339.4811, 424.7862
339.9633, 421.9608
340.4454, 420.4312
340.9275, 420.4651
341.4096, 420.4137
341.8917, 418.2646
342.3738, 414.0292
342.8560, 414.6657
343.3381, 422.3530
343.8202, 431.7143
344.3023, 432.0797
344.7844, 423.5414
345.2665, 415.4713
345.7487, 413.2357
346.2308, 415.6646
346.7129, 417.5649
347.1950, 418.7677
347.6771, 419.4548
348.1592, 419.2812
348.6414, 418.5620
349.1235, 418.7419
349.6056, 421.6142
350.0877, 425.5785
350.5698, 427.8300
351.0519, 428.3420
351.5341, 426.9238
352.0162, 421.5479
352.4983, 414.0947
352.9804, 408.7321
353.4625, 406.1707
353.9446, 407.0116
354.4268, 414.6196
354.9089, 428.3169
355.3910, 439.2095
355.8731, 438.9149
356.3552, 432.4827
356.8373, 426.0240
357.3195, 419.9692
357.8015, 415.9668
358.2837, 415.6255
358.7658, 418.4965
359.2479, 422.4841
359.7300, 429.0174
360.2121, 434.8499
360.6942, 437.3956
361.1764, 434.3444
361.6585, 430.6450
362.1406, 427.3270
362.6227, 424.7193
363.1048, 423.7031
363.5869, 427.3394
364.0691, 430.5231
364.5512, 430.2077
365.0333, 423.2913
365.5154, 419.0649
365.9975, 421.4526
366.4796, 427.0412
366.9618, 430.0424
367.4439, 426.7403
367.9260, 423.6078
368.4081, 422.6476
368.8902, 424.5348
369.3723, 425.8725
369.8545, 426.9110
370.3366, 427.2263
370.8187, 426.2270
371.3008, 422.7441
371.7829, 419.7315
372.2650, 417.7517
372.7472, 416.7996
373.2293, 416.4623
373.7114, 417.0110
374.1935, 417.8323
374.6756, 418.1216
375.1577, 417.2740
375.6399, 418.4414
376.1220, 423.3751
376.6041, 430.4103
377.0862, 432.3499
377.5683, 428.2922
378.0504, 422.6964
378.5326, 417.8060
379.0147, 413.5893
379.4968, 412.3802
379.9789, 415.1027
380.4610, 419.8756
380.9431, 423.1976
381.4253, 425.1207
381.9074, 426.8984
382.3895, 429.6354
382.8716, 432.8298
383.3537, 434.7356
383.8358, 435.2007
384.3180, 434.6469
384.8001, 434.0433
385.2822, 432.9393
385.7643, 429.9093
386.2464, 419.9494
386.7285, 409.6154
387.2107, 408.9105
387.6928, 418.0631
388.1749, 428.9799
388.6570, 438.7495
389.1391, 445.7077
389.6212, 447.1104
390.1034, 435.4759
390.5855, 424.2082
391.0676, 423.8339
391.5497, 432.6403
392.0318, 440.0763
392.5139, 439.3254
392.9961, 436.2648
393.4782, 435.4295
393.9603, 439.4690
394.4424, 443.1911
394.9245, 445.0821
395.4066, 445.4582
395.8888, 445.0866
396.3709, 442.9267
396.8530, 441.0765
397.3351, 440.5192
397.8172, 441.9445
398.2993, 443.0204
398.7815, 444.3184
399.2636, 444.9424
399.7457, 443.5037
400.2278, 435.9784
400.7099, 431.6390
401.1920, 434.0014
401.6742, 443.6688
402.1563, 448.6403
402.6384, 446.7475
403.1205, 442.7409
403.6026, 440.5789
404.0847, 440.4395
404.5669, 441.8367
405.0490, 445.5013
405.5311, 450.4985
406.0132, 452.8916
406.4953, 452.4005
406.9774, 450.3872
407.4596, 447.1944
407.9417, 442.8435
408.4238, 439.2130
408.9059, 436.5042
409.3880, 434.4903
409.8701, 433.3961
410.3523, 433.0602
410.8344, 431.7327
411.3165, 425.9366
411.7986, 418.7107
412.2807, 419.0468
412.7628, 427.7099
413.2450, 437.3940
413.7271, 441.2332
414.2092, 440.7300
414.6913, 438.9001
415.1734, 436.6839
415.6555, 433.8042
416.1377, 428.9527
416.6198, 422.5565
417.1019, 418.0578
417.5840, 419.1810
418.0661, 422.2748
418.5482, 423.7380
419.0303, 421.3330
419.5125, 419.5623
419.9946, 421.2044
420.4767, 424.9827
420.9588, 427.7524
421.4409, 429.5529
421.9230, 429.3905
422.4052, 426.0544
422.8873, 417.6709
423.3694, 411.7825
423.8515, 411.1043
424.3336, 412.8062
424.8157, 413.4721
425.2979, 411.4885
425.7800, 410.4919
426.2621, 411.4699
426.7442, 414.3992
427.2263, 416.9285
427.7084, 420.0529
428.1906, 421.5120
428.6727, 418.3196
429.1548, 407.6356
429.6369, 403.8568
430.1190, 411.6126
430.6011, 425.0533
431.0833, 427.3166
431.5654, 416.7214
432.0475, 405.3205
432.5296, 399.0187
433.0117, 397.4880
433.4938, 397.8965
433.9760, 400.6032
434.4581, 403.3412
434.9402, 402.9104
435.4223, 399.8864
435.9044, 396.8477
436.3865, 395.0417
436.8687, 393.6985
437.3508, 391.2295
437.8329, 387.7768
438.3150, 385.1659
438.7971, 385.7536
439.2792, 387.6490
439.7614, 388.2836
440.2435, 386.4523
440.7256, 384.3089
441.2077, 383.6757
441.6898, 383.8336
442.1719, 382.9695
442.6541, 378.1107
443.1362, 373.7062
443.6183, 372.5825
444.1004, 375.7996
444.5825, 378.9838
445.0646, 381.5417
445.5468, 383.4308
446.0289, 384.6030
446.5110, 386.1874
446.9931, 385.7474
447.4752, 381.5724
447.9573, 374.1085
448.4395, 369.7220
448.9216, 370.1802
449.4037, 371.6585
449.8858, 371.8022
450.3679, 370.0255
450.8500, 368.5903
451.3322, 367.4761
451.8143, 366.8752
452.2964, 366.9919
452.7785, 367.7266
453.2606, 369.8589
453.7427, 375.6151
454.2249, 383.8954
454.7070, 384.7449
455.1891, 377.0551
455.6712, 368.3398
456.1533, 367.6743
456.6354, 373.0015
457.1176, 376.6446
457.5997, 375.8669
458.0818, 372.9434
458.5639, 370.8333
459.0460, 369.3496
459.5281, 367.6650
460.0103, 362.5766
460.4924, 358.2835
460.9745, 360.4398
461.4566, 371.7842
461.9387, 382.2918
462.4208, 386.9073
462.9030, 386.8124
463.3851, 383.7212
463.8672, 373.8210
464.3493, 365.1130
464.8314, 361.0927
465.3135, 361.8903
465.7957, 362.9981
466.2778, 363.4899
466.7599, 364.2101
467.2420, 365.7520
467.7241, 369.1779
468.2062, 371.9057
468.6884, 373.9868
469.1705, 375.3218
469.6526, 375.3564
470.1347, 372.9785
470.6168, 371.6329
471.0989, 372.8901
471.5811, 376.8523
472.0632, 380.5952
472.5453, 384.0471
473.0274, 387.4744
473.5095, 392.2473
473.9916, 398.1963
474.4738, 400.1569
474.9559, 395.4098
475.4380, 387.5039
475.9201, 383.1476
476.4022, 382.2006
476.8843, 383.7657
477.3665, 390.2026
477.8486, 397.8782
478.3307, 399.9570
478.8128, 394.4948
479.2949, 389.3812
479.7770, 391.6094
480.2592, 398.0627
480.7413, 403.8522
481.2234, 406.7804
481.7055, 408.8175
482.1876, 411.6279
482.6697, 414.9502
483.1518, 415.6497
483.6339, 407.7710
484.1161, 400.5227
484.5982, 399.9114
485.0803, 415.2220
485.5624, 423.2703
486.0445, 417.7792
486.5266, 406.2641
487.0088, 402.2342
487.4909, 410.8386
487.9730, 417.9783
488.4551, 418.7376
488.9372, 413.2457
489.4193, 412.8859
489.9015, 419.1864
490.3836, 426.8409
490.8657, 430.8120
491.3478, 431.0740
491.8299, 434.1208
492.3120, 442.2615
492.7942, 451.1441
493.2763, 451.3671
493.7584, 444.2568
494.2405, 438.9670
494.7226, 442.9397
495.2047, 450.9020
495.6869, 454.0245
496.1690, 451.9751
496.6511, 449.5357
497.1332, 450.9370
497.6153, 453.8342
498.0974, 455.1836
498.5796, 452.1238
499.0617, 449.8557
499.5438, 451.9994
500.0259, 456.9823
500.5080, 460.5144
500.9901, 459.7928
501.4723, 458.6572
501.9544, 458.8156
502.4365, 460.8904
502.9186, 462.4714
503.4007, 464.9716
503.8828, 465.9223
504.3650, 462.0353
504.8471, 448.0937
505.3292, 441.2918
505.8113, 447.1286
506.2934, 461.0005
506.7755, 465.3033
507.2577, 457.9724
507.7398, 450.7701
508.2219, 451.4551
508.7040, 458.9357
509.1861, 462.5646
509.6682, 461.8013
510.1504, 459.0537
510.6325, 456.7439
511.1146, 454.6350
511.5967, 451.6831
512.0788, 445.5236
512.5609, 440.7352
513.0430, 444.3648
513.5251, 454.4528
514.0073, 463.1404
514.4894, 465.5535
514.9715, 465.1478
515.4536, 463.8036
515.9357, 461.1179
516.4178, 460.5645
516.9000, 466.9313
517.3821, 474.5649
517.8642, 477.3594
518.3463, 469.9789
518.8284, 462.6290
519.3105, 455.3264
519.7927, 448.8120
520.2748, 447.2795
520.7569, 454.3735
521.2390, 460.7913
521.7211, 461.3864
522.2032, 454.6178
522.6854, 452.4728
523.1675, 456.1054
523.6496, 461.8225
524.1317, 465.5897
524.6138, 467.4542
525.0959, 467.9201
525.5781, 466.2694
526.0602, 464.2356
526.5423, 466.1162
527.0244, 471.1836
527.5065, 475.0675
527.9886, 473.0198
528.4708, 469.2041
528.9529, 469.3800
529.4350, 474.6329
529.9171, 478.9660
530.3992, 477.4017
530.8813, 473.3362
531.3635, 470.5862
531.8456, 472.1686
532.3277, 473.2050
532.8098, 471.3356
533.2919, 467.5571
533.7740, 465.9936
534.2562, 469.0270
534.7383, 472.3178
535.2204, 474.8038
535.7025, 476.7248
536.1846, 475.9138
536.6667, 470.3173
537.1489, 464.9344
537.6310, 466.0013
538.1131, 474.6596
538.5952, 480.0131
539.0773, 479.1016
539.5594, 475.4398
540.0416, 477.5184
540.5237, 484.8071
541.0058, 491.0306
541.4879, 492.4613
541.9700, 490.7043
542.4521, 487.9176
542.9343, 484.1761
543.4164, 480.7986
543.8985, 478.7924
544.3806, 477.6794
544.8627, 476.9897
545.3448, 476.8809
545.8270, 476.7213
546.3091, 475.3862
546.7912, 473.8782
547.2733, 474.2542
547.7554, 479.9777
548.2375, 484.6549
548.7197, 485.9853
549.2018, 483.8075
549.6839, 482.2343
550.1660, 482.3505
550.6481, 481.6418
551.1302, 477.2046
551.6124, 467.2059
552.0945, 463.4276
552.5766, 468.2934
553.0587, 476.7360
553.5408, 480.8413
554.0229, 480.7321
554.5051, 478.5666
554.9872, 473.2214
555.4693, 467.4901
555.9514, 467.8358
556.4335, 473.5982
556.9156, 478.9554
557.3978, 481.7343
557.8799, 481.2047
558.3620, 475.4068
558.8441, 462.5748
559.3262, 451.2414
559.8083, 445.1790
560.2905, 443.1754
560.7726, 443.8762
561.2547, 452.4030
561.7368, 457.5958
562.2189, 455.7101
562.7010, 448.4278
563.1832, 441.7372
563.6653, 434.0166
564.1474, 429.5201
564.6295, 431.4084
565.1116, 440.6257
565.5938, 444.2411
566.0759, 441.0093
566.5580, 435.5990
567.0401, 433.0273
567.5222, 432.8463
568.0043, 430.4353
568.4865, 423.9300
568.9686, 417.0126
569.4507, 415.3807
569.9328, 417.9388
570.4149, 421.0490
570.8970, 424.0992
571.3792, 426.0579
571.8613, 425.0952
572.3434, 421.4415
572.8255, 418.9133
573.3076, 420.9039
573.7897, 423.5164
574.2719, 423.8284
574.7540, 419.0658
575.2361, 416.7248
575.7182, 419.9650
576.2003, 424.7807
576.6824, 425.6585
577.1646, 419.2649
577.6467, 416.4240
578.1288, 420.8294
578.6109, 429.8655
579.0930, 433.1905
579.5751, 430.2403
580.0573, 425.4778
580.5394, 420.1903
581.0215, 414.9902
581.5036, 413.3114
581.9857, 415.4968
582.4678, 417.5904
582.9500, 414.6234
583.4321, 409.4894
583.9142, 407.2312
584.3963, 410.9398
584.8784, 414.3618
585.3605, 412.4978
585.8427, 407.6690
586.3248, 404.3705
586.8069, 405.9153
587.2890, 407.2748
587.7711, 406.8969
588.2532, 404.7084
588.7354, 401.5378
589.2175, 394.8777
589.6996, 390.3162
590.1817, 391.7588
590.6638, 401.3952
591.1459, 407.0934
591.6281, 408.3893
592.1102, 406.6944
592.5923, 402.0317
593.0744, 394.9131
593.5565, 391.4994
594.0386, 394.4802
594.5208, 400.0078
595.0029, 403.1350
595.4850, 403.9781
595.9671, 403.0902
596.4492, 398.1103
596.9313, 393.4251
597.4135, 393.1058
597.8956, 397.2672
598.3777, 401.4259
598.8598, 405.8569
599.3419, 408.4087
599.8240, 407.2307
600.3062, 397.4434
600.7883, 392.3098
601.2704, 395.0814
601.7525, 400.6417
602.2346, 401.7267
602.7167, 396.3190
603.1989, 393.2115
603.6810, 395.1098
604.1631, 399.9607
604.6452, 400.9606
605.1273, 398.1125
605.6094, 396.3856
606.0916, 399.3693
606.5737, 405.1912
607.0558, 411.7049
607.5379, 418.7120
608.0200, 421.6196
608.5021, 412.5130
608.9843, 399.5988
609.4664, 391.8825
609.9485, 393.2711
610.4306, 395.1852
610.9127, 394.5014
611.3948, 392.5551
611.8770, 391.2663
612.3591, 391.7234
612.8412, 391.7134
613.3233, 389.8514
613.8054, 387.2220
614.2875, 389.1852
614.7697, 397.1350
615.2518, 405.3647
615.7339, 412.3168
616.2160, 417.6109
616.6981, 415.5321
617.1802, 405.3840
617.6624, 396.3774
618.1445, 399.9067
618.6266, 409.9597
619.1087, 414.0158
619.5908, 408.1731
620.0729, 401.3528
620.5551, 400.5040
621.0372, 403.1479
621.5193, 405.7118
622.0014, 408.2990
622.4835, 409.3658
622.9656, 406.7369
623.4478, 401.7265
623.9299, 400.4796
624.4120, 407.1895
624.8941, 412.0009
625.3762, 410.0084
625.8583, 401.0268
626.3405, 400.1827
626.8226, 409.7506
627.3047, 419.6214
627.7868, 419.4771
628.2689, 411.4427
628.7510, 409.4124
629.2332, 415.8249
629.7153, 423.2235
630.1974, 421.6048
630.6795, 415.2841
631.1616, 412.6876
631.6437, 419.6508
632.1259, 427.4836
632.6080, 432.2690
633.0901, 434.2210
633.5722, 433.8858
634.0543, 428.5074
634.5364, 423.7282
635.0186, 421.8459
635.5006, 422.8250
635.9827, 422.4463
636.4648, 420.0659
636.9470, 417.4326
637.4291, 415.6622
637.9112, 414.8192
638.3933, 413.6124
638.8754, 411.9617
639.3575, 410.0564
639.8397, 407.0752
640.3218, 403.9192
640.8039, 403.9422
641.2860, 409.8110
641.7681, 414.8488
642.2502, 408.9838
642.7324, 398.0387
643.2145, 393.4878
643.6966, 406.7020
644.1787, 420.3318
644.6608, 428.7378
645.1429, 431.8991
645.6251, 431.5844
646.1072, 424.4088
646.5893, 418.2817
647.0714, 416.9073
647.5535, 420.8551
648.0356, 421.5641
648.5178, 417.8552
648.9999, 414.8979
649.4820, 418.5986
649.9641, 427.6062
650.4462, 433.5961
650.9283, 435.1750
651.4105, 435.5355
651.8926, 437.8534
652.3747, 441.4172
652.8568, 445.1455
653.3389, 450.3324
653.8210, 453.4428
654.3032, 449.9684
654.7853, 443.0552
655.2674, 440.2281
655.7495, 446.9344
656.2316, 453.9730
656.7137, 458.9200
657.1959, 462.0160
657.6780, 465.7061
658.1601, 470.1398
658.6422, 474.8120
659.1243, 480.2910
659.6064, 486.2827
660.0886, 487.6568
660.5707, 483.8316
661.0528, 481.0023
661.5349, 488.5439
662.0170, 500.6213
662.4991, 505.1213
662.9813, 497.3980
663.4634, 489.1198
663.9455, 486.7966
664.4276, 489.1387
664.9097, 494.3992
665.3918, 505.6177
665.8740, 515.7365
666.3561, 523.6409
666.8382, 529.3461
667.3203, 531.9059
667.8024, 528.9382
668.2845, 528.3043
668.7667, 533.6239
669.2488, 543.3264
669.7309, 547.6876
670.2130, 546.3876
670.6951, 545.8475
671.1772, 551.1177
671.6594, 559.9378
672.1415, 568.7750
672.6236, 577.3812
673.1057, 583.6976
673.5878, 583.0445
674.0699, 581.1077
674.5521, 583.8641
675.0342, 595.2667
675.5163, 604.7872
675.9984, 609.5007
676.4805, 611.2433
676.9626, 611.9564
677.4448, 610.8336
677.9269, 610.5275
678.4090, 612.0615
678.8911, 613.9183
679.3732, 611.9930
679.8553, 606.2731
680.3375, 602.1934
680.8196, 603.3065
681.3017, 606.2399
681.7838, 603.9897
682.2659, 597.6347
682.7480, 592.2817
683.2302, 593.4414
683.7123, 594.7239
684.1944, 590.5640
684.6765, 580.5159
685.1586, 571.8920
685.6407, 566.7146
686.1229, 563.3653
686.6050, 561.1522
687.0871, 560.9424
687.5692, 558.8107
688.0513, 554.1160
688.5334, 548.5490
689.0156, 542.8330
689.4977, 537.1600
689.9798, 535.6910
690.4619, 539.8412
690.9440, 545.8860
691.4261, 551.5663
691.9083, 555.4828
692.3904, 554.3592
692.8725, 542.1008
693.3546, 530.4006
693.8367, 526.1371
694.3188, 527.5468
694.8010, 529.9661
695.2831, 534.1949
695.7652, 537.2020
696.2473, 537.0405
696.7294, 534.5901
697.2115, 537.2649
697.6937, 547.9055
698.1758, 555.4122
698.6579, 551.0760
699.1400, 537.8673
699.6221, 536.0303
700.1042, 545.7227
700.5864, 555.9890
701.0685, 555.9347
701.5506, 551.9088
702.0327, 553.5399
702.5148, 563.0407
702.9969, 571.2726
703.4791, 572.6927
703.9612, 571.3885
704.4433, 570.9702
704.9254, 572.3947
705.4075, 573.9370
705.8896, 573.8957
706.3718, 575.3103
706.8539, 584.5580
707.3360, 604.0379
707.8181, 614.7815
708.3002, 611.6050
708.7823, 600.3904
709.2645, 588.0439
709.7466, 576.2790
710.2287, 571.6924
710.7108, 581.4376
711.1929, 595.9906
711.6750, 608.0367
712.1572, 618.2355
712.6393, 628.6538
713.1214, 644.4028
713.6035, 656.5162
714.0856, 660.0046
714.5677, 655.3142
715.0499, 649.9897
715.5320, 641.4777
716.0141, 637.2996
716.4962, 645.2551
716.9783, 664.6003
717.4604, 668.5087
717.9426, 656.0318
718.4247, 641.7597
718.9068, 637.7479
719.3889, 640.5394
719.8710, 645.5225
720.3531, 652.7291
720.8353, 657.2355
721.3174, 653.5458
721.7995, 646.8696
722.2816, 642.0919
722.7637, 641.8144
723.2458, 640.9447
723.7280, 639.3029
724.2101, 636.8843
724.6922, 633.0183
725.1743, 626.9672
725.6564, 624.3977
726.1385, 628.2136
726.6207, 632.6413
727.1028, 623.8500
727.5849, 605.5955
728.0670, 592.7797
728.5491, 595.2983
729.0313, 602.2334
729.5134, 605.9841
729.9955, 606.6910
730.4776, 604.7338
730.9597, 598.8003
731.4418, 591.6824
731.9240, 582.0295
732.4061, 570.9348
732.8882, 568.5469
733.3703, 579.9473
733.8524, 587.9133
734.3345, 581.8025
734.8167, 564.3705
735.2988, 558.4310
735.7809, 564.1060
736.2630, 569.1119
736.7451, 561.9929
737.2272, 549.5886
737.7094, 540.9589
738.1915, 537.0060
738.6736, 534.8087
739.1557, 533.4246
739.6378, 532.8741
740.1199, 533.6401
740.6021, 538.1977
741.0842, 537.8194
741.5663, 529.8598
742.0484, 520.1578
742.5305, 513.6251
743.0126, 510.2356
743.4948, 511.2597
743.9769, 517.8055
744.4590, 525.2322
744.9411, 527.1342
745.4232, 525.5494
745.9053, 525.2068
746.3875, 527.8982
746.8696, 531.1513
747.3517, 535.5240
747.8338, 538.8290
748.3159, 537.7247
748.7980, 527.0623
749.2802, 517.1854
749.7623, 507.9558
750.2444, 500.8671
750.7265, 500.2437
751.2086, 507.4698
751.6907, 513.3397
752.1729, 514.0167
752.6550, 512.7199
753.1371, 518.1188
753.6192, 528.4050
754.1013, 535.2257
754.5834, 531.5394
755.0656, 525.0067
755.5477, 519.6798
756.0298, 516.1778
756.5119, 516.9492
756.9940, 530.3922
757.4761, 540.1248
757.9583, 539.4705
758.4403, 528.9596
758.9224, 520.2144
759.4045, 512.9160
759.8867, 508.5990
760.3688, 508.9136
760.8509, 512.9431
761.3330, 518.0636
761.8151, 524.1589
762.2972, 527.7180
762.7794, 523.0027
763.2615, 516.4212
763.7436, 514.2040
764.2257, 517.3423
764.7078, 522.1463
765.1899, 531.5375
765.6721, 539.1043
766.1542, 540.1928
766.6363, 532.0221
767.1184, 528.4372
767.6005, 531.0258
768.0826, 534.1904
768.5648, 531.7047
769.0469, 524.7688
769.5290, 518.8497
770.0111, 514.4604
770.4932, 512.1586
770.9753, 514.0815
771.4575, 517.7258
771.9396, 520.0275
772.4217, 519.8719
772.9038, 519.1606
773.3859, 518.2894
773.8680, 517.1353
774.3502, 515.6901
774.8323, 514.3710
775.3144, 511.2729
775.7965, 505.4687
776.2786, 499.1674
776.7607, 496.0348
777.2429, 495.5782
777.7250, 495.5424
778.2071, 496.1258
778.6892, 495.0970
779.1713, 488.9617
779.6534, 480.0084
780.1356, 472.1236
780.6177, 467.0398
781.0998, 462.6543
781.5819, 457.2718
782.0640, 452.5244
782.5461, 452.6368
783.0283, 460.4245
783.5104, 463.6646
783.9925, 458.4013
784.4746, 448.3463
784.9567, 440.7714
785.4388, 435.5565
785.9210, 432.2493
786.4031, 432.4796
786.8852, 432.7592
787.3673, 429.2286
787.8494, 423.1665
788.3315, 418.2620
788.8137, 416.3878
789.2958, 414.9901
789.7779, 413.7154
790.2600, 412.3228
790.7421, 409.0616
791.2242, 402.5755
791.7064, 399.7280
792.1885, 405.6115
792.6706, 415.6263
793.1527, 417.0104
793.6348, 410.6533
794.1169, 402.1603
794.5991, 392.6764
795.0812, 383.9305
795.5633, 376.5276
796.0454, 370.7529
796.5275, 367.9750
797.0096, 373.3961
797.4918, 376.5788
797.9739, 373.1916
798.4560, 363.8934
798.9381, 356.8742
799.4202, 351.9483
799.9023, 350.3575
800.3845, 355.4226
800.8666, 363.7743
801.3487, 367.0309
801.8308, 365.5283
802.3129, 361.8952
802.7950, 354.0861
803.2772, 347.6462
803.7593, 347.6391
804.2414, 354.6678
804.7235, 358.9146
805.2056, 358.9287
805.6877, 356.9626
806.1699, 353.2969
806.6520, 348.0187
807.1341, 345.8050
807.6162, 346.9556
808.0983, 347.3412
808.5804, 342.5754
809.0626, 335.6652
809.5447, 331.0568
810.0268, 328.9824
810.5089, 328.7332
810.9910, 332.0120
811.4731, 335.3156
811.9553, 336.5880
812.4374, 335.5833
812.9195, 332.2917
813.4016, 324.2242
813.8837, 318.6505
814.3658, 322.5029
814.8480, 334.4158
815.3301, 338.1323
815.8122, 333.4106
816.2943, 328.4210
816.7764, 329.9916
817.2585, 334.5702
817.7407, 338.9496
818.2228, 342.8531
818.7049, 344.8365
819.1870, 344.0425
819.6691, 341.4319
820.1512, 337.1700
820.6334, 330.7537
821.1155, 326.2981
821.5976, 323.7416
822.0797, 323.4026
822.5618, 326.7968
823.0439, 332.5639
823.5261, 336.7598
824.0082, 339.1222
824.4903, 339.9984
824.9724, 338.9067
825.4545, 336.9251
825.9366, 334.7889
826.4188, 332.5299
826.9009, 330.4422
827.3830, 327.3159
827.8651, 325.8387
828.3472, 328.4725
828.8293, 335.6327
829.3115, 339.5964
829.7936, 340.1502
830.2757, 339.6047
830.7578, 339.5134
831.2399, 339.7534
831.7220, 340.2904
832.2042, 341.1232
832.6863, 341.6190
833.1684, 341.6208
833.6505, 341.0622
834.1326, 339.6223
834.6147, 337.0462
835.0969, 335.4983
835.5790, 335.3021
836.0611, 335.3795
836.5432, 335.2024
837.0253, 334.6943
837.5074, 332.7216
837.9896, 329.2812
838.4717, 327.3992
838.9538, 331.2275
839.4359, 336.4603
839.9180, 338.8498
840.4001, 337.6500
840.8823, 337.5521
841.3644, 342.0788
841.8465, 345.2086
842.3286, 343.5847
842.8107, 337.0016
843.2928, 330.9781
843.7750, 325.2918
844.2571, 322.5295
844.7392, 328.1720
845.2213, 336.6131
845.7034, 336.5440
846.1855, 328.0827
846.6677, 321.6376
847.1498, 324.4069
847.6319, 329.4380
848.1140, 333.0230
848.5961, 334.9549
849.0782, 336.5883
849.5604, 338.0691
850.0425, 338.8744
850.5246, 338.0976
851.0067, 336.3486
851.4888, 337.0998
851.9709, 340.1248
852.4531, 342.6817
852.9352, 341.8908
853.4173, 340.7001
853.8994, 342.6788
854.3815, 347.4821
854.8636, 348.8459
855.3458, 340.6627
855.8279, 334.8380
856.3100, 336.3889
856.7921, 343.9903
857.2742, 347.6195
857.7563, 347.1064
858.2385, 345.9600
858.7206, 345.9975
859.2027, 346.6781
859.6848, 348.5142
860.1669, 350.6423
860.6490, 349.5940
861.1312, 336.7030
861.6133, 327.5535
862.0954, 332.6980
862.5775, 347.4651
863.0596, 353.8219
863.5417, 349.4500
864.0239, 344.7852
864.5060, 342.9756
864.9881, 343.4927
865.4702, 345.1915
865.9523, 348.1128
866.4344, 352.5348
866.9166, 363.5603
867.3987, 371.1456
867.8808, 365.9189
868.3629, 352.7781
868.8450, 346.0394
869.3271, 350.4942
869.8093, 354.5837
870.2914, 356.4041
870.7735, 356.5334
871.2556, 355.7852
871.7377, 354.2748
872.2198, 352.8148
872.7020, 351.1486
873.1841, 350.5738
873.6662, 354.6718
874.1483, 360.1726
874.6304, 361.7270
875.1125, 349.5016
875.5947, 344.7358
876.0768, 354.9215
876.5589, 369.5053
877.0410, 372.7500
877.5231, 363.8932
878.0052, 355.6504
878.4874, 349.4403
878.9695, 346.5222
879.4516, 350.9771
879.9337, 359.0146
880.4158, 364.3870
880.8979, 364.9755
881.3801, 364.2206
881.8622, 360.2389
882.3442, 357.5248
882.8264, 360.7224
883.3085, 372.5326
883.7906, 380.6594
884.2727, 384.9248
884.7548, 384.9832
885.2369, 376.7380
885.7191, 364.7416
886.2012, 360.1367
886.6833, 364.7180
887.1654, 370.3389
887.6475, 374.7204
888.1296, 376.5368
888.6118, 373.8787
889.0939, 365.6659
889.5760, 359.2923
890.0581, 354.3340
890.5402, 352.2519
891.0223, 355.6553
891.5045, 362.9240
891.9866, 367.1358
892.4687, 368.2726
892.9508, 368.1779
893.4329, 366.1506
893.9150, 364.8885
894.3972, 368.1472
894.8793, 375.5621
895.3614, 376.7148
895.8435, 365.0530
896.3256, 357.5492
896.8077, 361.9795
897.2899, 374.7257
897.7720, 382.0933
898.2541, 384.3179
898.7362, 384.2237
899.2183, 382.5652
899.7004, 379.8022
900.1826, 374.9094
900.6647, 369.2151
901.1468, 366.4377
901.6289, 369.1276
902.1110, 372.9789
902.5931, 378.0568
903.0753, 383.3831
903.5574, 386.4163
904.0395, 387.2379
904.5216, 388.4897
905.0037, 391.4282
905.4858, 393.6760
905.9680, 391.2838
906.4501, 386.8727
906.9322, 384.5240
907.4143, 386.7781
907.8964, 389.0334
908.3785, 390.8869
908.8607, 392.2280
909.3428, 393.1186
909.8249, 393.6219
910.3070, 391.8957
910.7891, 387.2715
911.2712, 383.4560
911.7534, 384.9156
912.2355, 389.1086
912.7176, 393.4786
913.1997, 398.1622
913.6818, 399.2070
914.1639, 390.1403
914.6461, 381.7856
915.1282, 380.4942
915.6103, 386.6491
916.0924, 393.0809
916.5745, 400.0219
917.0566, 405.1408
917.5388, 405.9142
918.0209, 404.3037
918.5030, 402.1529
918.9851, 399.9265
919.4672, 399.8016
919.9493, 407.3141
920.4315, 412.0441
920.9136, 408.3203
921.3957, 398.6030
921.8778, 393.7292
922.3599, 394.4024
922.8420, 394.3946
923.3242, 390.4244
923.8063, 386.0409
924.2884, 388.3773
924.7705, 394.6538
925.2526, 398.5517
925.7347, 399.3560
926.2169, 395.2767
926.6990, 377.5417
927.1811, 358.7090
927.6632, 357.8143
928.1453, 379.4340
928.6274, 392.3883
929.1096, 391.8591
929.5917, 385.5937
930.0738, 380.9026
930.5559, 377.8071
931.0380, 375.9297
931.5201, 374.7843
932.0023, 377.0682
932.4844, 389.1841
932.9665, 400.7744
933.4486, 404.5313
933.9307, 399.3334
934.4128, 394.0332
934.8950, 388.4884
935.3771, 383.8203
935.8592, 380.7381
936.3413, 379.1988
936.8234, 380.6085
937.3055, 384.2668
937.7877, 384.8851
938.2698, 372.4221
938.7519, 364.8698
939.2340, 372.8137
939.7161, 391.4131
940.1982, 400.7636
940.6804, 400.2065
941.1625, 395.6585
941.6446, 387.1689
942.1267, 378.9720
942.6088, 379.5484
943.0909, 385.2716
943.5731, 388.4088
944.0552, 381.5672
944.5373, 377.5152
945.0194, 383.2658
945.5015, 390.9996
945.9836, 391.2845
946.4658, 383.0889
946.9479, 376.5337
947.4300, 372.3710
947.9121, 370.9768
948.3942, 374.3123
948.8763, 379.9244
949.3585, 385.1846
949.8406, 390.0763
950.3227, 391.4980
950.8048, 384.0261
951.2869, 377.2292
951.7690, 376.8734
952.2512, 382.6309
952.7333, 381.8798
953.2154, 374.4209
953.6975, 367.7833
954.1796, 366.4359
954.6617, 368.5456
955.1439, 374.0082
955.6260, 381.3887
956.1081, 385.8450
956.5902, 382.6076
957.0723, 380.3904
957.5544, 381.8323
958.0366, 384.7199
958.5187, 383.6620
959.0008, 378.9403
959.4829, 375.5573
959.9650, 375.3017
960.4471, 375.1715
960.9293, 370.4346
961.4114, 364.8038
961.8935, 363.2335
962.3756, 369.8180
962.8577, 374.0372
963.3398, 375.3920
963.8220, 374.1984
964.3041, 368.7894
964.7862, 360.1650
965.2683, 358.5493
965.7504, 364.0631
966.2325, 370.1159
966.7147, 372.1728
967.1968, 372.7676
967.6789, 373.5470
968.1610, 374.6406
968.6431, 376.2760
969.1252, 379.7989
969.6074, 380.9308
970.0895, 377.7506
970.5716, 371.9733
971.0537, 367.1512
971.5358, 363.4030
972.0179, 361.0499
972.5001, 359.2994
972.9822, 360.4257
973.4643, 369.7259
973.9464, 380.9494
974.4285, 384.8499
974.9106, 378.0801
975.3928, 372.8726
975.8749, 369.7362
976.3570, 368.3215
976.8391, 369.1160
977.3212, 371.1206
977.8033, 372.2845
978.2855, 372.4043
978.7676, 371.9454
979.2497, 371.0045
979.7318, 369.6506
980.2139, 367.8750
980.6960, 365.7169
981.1782, 363.0674
981.6603, 359.6752
982.1424, 358.0255
982.6245, 360.0789
983.1066, 363.5039
983.5887, 365.7723
984.0709, 366.7669
984.5530, 366.2233
985.0351, 361.3694
985.5172, 358.6443
985.9993, 359.8014
986.4814, 362.6872
986.9636, 364.9097
987.4457, 366.4778
987.9278, 367.6459
988.4099, 368.4718
988.8920, 368.5670
989.3741, 367.2375
989.8563, 365.2034
990.3384, 362.5370
990.8205, 358.9509
991.3026, 358.5909
991.7847, 363.0897
992.2668, 368.0414
992.7490, 372.0499
993.2311, 374.7737
993.7132, 374.2124
994.1953, 371.0002
994.6774, 368.1352
995.1595, 367.8456
995.6417, 367.5327
996.1238, 365.1082
996.6059, 361.9638
997.0880, 360.2784
997.5701, 359.3616
998.0522, 363.1493
998.5344, 373.4897
999.0165, 383.8093
999.4986, 386.6058
999.9807, 383.9562
1000.463, 378.5648
1000.945, 370.4105
1001.427, 364.8276
1001.909, 366.2453
1002.391, 368.4214
1002.873, 367.9093
1003.356, 365.1526
1003.838, 364.6144
1004.320, 366.3235
1004.802, 368.8221
1005.284, 372.9394
1005.766, 375.8116
1006.248, 371.8611
1006.730, 364.7055
1007.212, 361.6947
1007.695, 370.5157
1008.177, 374.9220
1008.659, 372.2313
1009.141, 367.1084
1009.623, 364.8373
1010.105, 365.0202
1010.587, 366.8491
1011.069, 370.3600
1011.551, 371.2237
1012.034, 363.9237
1012.516, 354.9703
1012.998, 348.5282
1013.480, 344.7830
1013.962, 343.3422
1014.444, 344.6557
1014.926, 346.5878
1015.408, 349.1599
1015.891, 350.7910
1016.373, 344.3791
1016.855, 335.2300
1017.337, 335.3819
1017.819, 363.0876
1018.301, 381.1283
1018.783, 374.8853
1019.265, 361.1448
1019.747, 357.1839
1020.230, 363.0784
1020.712, 360.4311
1021.194, 347.7312
1021.676, 338.0228
1022.158, 346.3075
1022.640, 359.1922
1023.122, 363.5495
1023.604, 359.1816
1024.087, 360.0008
1024.569, 371.2485
1025.051, 377.4380
1025.533, 371.7303
1026.015, 361.2534
1026.497, 362.4525
1026.979, 371.8143
1027.461, 378.8857
1027.943, 379.9498
1028.426, 379.3623
1028.908, 377.7097
1029.390, 376.2673
1029.872, 376.3885
1030.354, 378.5316
1030.836, 379.8330
1031.318, 380.4502
1031.800, 378.2780
1032.282, 366.5322
1032.765, 354.8069
1033.247, 356.2460
1033.729, 368.4689
1034.211, 378.2789
1034.693, 383.6203
1035.175, 384.2479
1035.657, 378.2232
1036.139, 369.8747
1036.622, 366.6268
1037.104, 367.7877
1037.586, 371.5132
1038.068, 378.3735
1038.550, 382.7517
1039.032, 377.6691
1039.514, 371.4515
1039.996, 371.4500
1040.479, 378.2333
1040.961, 381.5450
1041.443, 381.1012
1041.925, 379.5175
1042.407, 377.5394
1042.889, 375.8769
1043.371, 375.7822
1043.853, 376.8063
1044.335, 377.8748
1044.818, 379.9218
1045.300, 379.9552
1045.782, 376.6671
1046.264, 372.6715
1046.746, 370.7912
1047.228, 370.9204
1047.710, 373.4064
1048.192, 378.3382
1048.674, 382.0991
1049.157, 380.1692
1049.639, 378.0742
1050.121, 380.2193
1050.603, 385.8677
1051.085, 389.5839
1051.567, 391.0862
1052.049, 392.9004
1052.531, 396.7997
1053.014, 399.6296
1053.496, 394.8124
1053.978, 386.7089
1054.460, 382.6068
1054.942, 387.2653
1055.424, 389.7670
1055.906, 388.8318
1056.388, 386.1593
1056.870, 381.9085
1057.353, 376.8415
1057.835, 374.9276
1058.317, 376.0737
1058.799, 379.1940
1059.281, 388.4503
1059.763, 394.5080
1060.245, 388.3984
1060.727, 376.5879
1061.209, 373.8135
1061.692, 381.4957
1062.174, 387.6217
1062.656, 390.3315
1063.138, 391.2808
1063.620, 392.3434
1064.102, 392.6426
1064.584, 390.1509
1065.066, 384.0692
1065.549, 377.5048
1066.031, 385.5600
1066.513, 390.3408
1066.995, 392.0235
1067.477, 381.3283
1067.959, 386.6165
1068.441, 385.4994
1068.923, 384.1194
1069.405, 391.6573
1069.888, 382.7635
1070.370, 390.1600
1070.852, 391.0533
1071.334, 394.9229
1071.816, 392.3475
1072.298, 391.7627
1072.780, 397.6251
1073.262, 396.0000
1073.745, 398.0708
1074.227, 397.5071
1074.709, 392.7374
1075.191, 385.6080
1075.673, 383.8489
1076.155, 390.2644
1076.637, 395.4593
1077.119, 397.9875
1077.601, 398.3312
1078.083, 396.5040
1078.566, 393.1691
1079.048, 389.2692
1079.530, 384.8071
1080.012, 381.2000
1080.494, 377.7795
1080.976, 376.8451
1081.458, 380.3939
1081.940, 386.9417
1082.423, 390.4987
1082.905, 391.1869
1083.387, 389.3013
1083.869, 381.8229
1084.351, 377.4440
1084.833, 385.3952
1085.315, 397.2512
1085.797, 403.3688
1086.280, 402.8714
1086.762, 398.4979
1087.244, 389.5097
1087.726, 383.4163
1088.208, 389.7878
1088.690, 399.2416
1089.172, 400.3802
1089.654, 394.9550
1090.136, 390.4888
1090.619, 387.6053
1091.101, 387.5457
1091.583, 391.3956
1092.065, 396.2482
1092.547, 398.1688
1093.029, 397.9872
1093.511, 397.8615
1093.993, 398.1311
1094.475, 397.1477
1094.958, 392.3712
1095.440, 388.2477
1095.922, 386.7750
1096.404, 387.3083
1096.886, 387.9016
1097.368, 388.4053
1097.850, 387.3339
1098.332, 383.4055
1098.815, 379.8138
1099.297, 380.0076
1099.779, 381.0137
1100.261, 379.7566
1100.743, 375.9148
1101.225, 370.9055
1101.707, 364.3974
1102.189, 359.7411
1102.672, 359.9265
1103.154, 362.5356
1103.636, 364.6121
1104.118, 366.8200
1104.600, 370.9029
1105.082, 381.9155
1105.564, 385.8618
1106.046, 380.1196
1106.528, 371.6179
1107.010, 367.5458
1107.493, 366.3857
1107.975, 365.3208
1108.457, 364.0393
1108.939, 361.8956
1109.421, 356.0742
1109.903, 352.6841
1110.385, 354.6892
1110.867, 359.0510
1111.350, 358.9348
1111.832, 355.0481
1112.314, 351.1141
1112.796, 347.4984
1113.278, 346.3537
1113.760, 351.6583
1114.242, 357.8218
1114.724, 361.3796
1115.207, 362.2849
1115.689, 358.8404
1116.171, 350.8368
1116.653, 347.1922
1117.135, 354.1376
1117.617, 362.1880
1118.099, 362.2714
1118.581, 357.6001
1119.063, 352.0900
1119.546, 345.2012
1120.028, 340.3911
1120.510, 337.2350
1120.992, 337.8362
1121.474, 348.2238
1121.956, 360.5359
1122.438, 360.2522
1122.920, 351.3570
1123.402, 345.6328
1123.885, 351.7464
1124.367, 353.2943
1124.849, 347.0979
1125.331, 339.5334
1125.813, 338.0547
1126.295, 340.9606
1126.777, 344.9505
1127.259, 349.3807
1127.742, 350.6694
1128.224, 342.5638
1128.706, 336.6524
1129.188, 337.1561
1129.670, 341.6552
1130.152, 346.0762
1130.634, 350.0175
1131.116, 349.6454
1131.599, 343.4019
1132.081, 339.3348
1132.563, 345.5114
1133.045, 353.3349
1133.527, 357.0915
1134.009, 357.2056
1134.491, 357.5397
1134.973, 358.0743
1135.455, 355.5078
1135.938, 346.2566
1136.420, 339.0328
1136.902, 346.2636
1137.384, 357.4305
1137.866, 358.9340
1138.348, 347.8296
1138.830, 340.2590
1139.312, 336.0473
1139.794, 336.3110
1140.277, 346.0375
1140.759, 356.6788
1141.241, 355.6301
1141.723, 347.7120
1142.205, 342.9377
1142.687, 344.1108
1143.169, 347.6187
1143.651, 354.7283
1144.134, 360.0710
1144.616, 358.0190
1145.098, 351.2319
1145.580, 342.2888
1146.062, 332.5720
1146.544, 327.4615
1147.026, 334.9978
1147.508, 337.6235
1147.990, 329.8504
1148.473, 321.4374
1148.955, 328.5254
1149.437, 345.2445
1149.919, 357.2501
1150.401, 362.9007
1150.883, 363.1319
1151.365, 352.2806
1151.847, 343.3221
1152.329, 340.9287
1152.812, 342.8108
1153.294, 344.3865
1153.776, 345.4339
1154.258, 344.4808
1154.740, 340.8093
1155.222, 337.8265
1155.704, 337.7556
1156.186, 338.7336
1156.669, 339.4522
1157.151, 340.1403
1157.633, 342.8121
1158.115, 347.1274
1158.597, 349.2700
1159.079, 347.3859
1159.561, 344.2606
1160.043, 339.6805
1160.526, 336.4607
1161.008, 337.8853
1161.490, 344.1949
1161.972, 347.3768
1162.454, 347.4060
1162.936, 345.9150
1163.418, 341.8941
1163.900, 339.0113
1164.382, 342.9133
1164.865, 348.7391
1165.347, 348.5533
1165.829, 339.0549
1166.311, 335.9063
1166.793, 339.8121
1167.275, 345.2089
1167.757, 349.1089
1168.239, 351.5541
1168.721, 352.6875
1169.204, 352.3506
1169.686, 349.6233
1170.168, 342.9058
1170.650, 339.0627
1171.132, 338.9670
1171.614, 340.1737
1172.096, 340.1308
1172.578, 340.1551
1173.061, 342.1179
1173.543, 345.8222
1174.025, 349.8192
1174.507, 355.9349
1174.989, 356.3582
1175.471, 344.9516
1175.953, 352.0118
1176.435, 355.7833
1176.917, 356.4428
1177.400, 344.6684
1177.882, 348.9495
1178.364, 346.7966
1178.846, 344.3800
1179.328, 350.9206
1179.810, 340.9554
1180.292, 347.3541
1180.774, 343.6503
1181.256, 340.0400
1181.739, 339.5488
1182.221, 343.8482
1182.703, 347.7349
1183.185, 351.2585
1183.667, 352.0587
1184.149, 348.1043
1184.631, 342.2759
1185.113, 342.2226
1185.596, 345.2742
1186.078, 344.4749
1186.560, 336.1343
1187.042, 331.2882
1187.524, 334.7155
1188.006, 338.5824
1188.488, 339.0069
1188.970, 337.0534
1189.453, 335.0209
1189.935, 333.4457
1190.417, 334.2261
1190.899, 340.6429
1191.381, 343.6309
1191.863, 337.3798
1192.345, 332.4211
1192.827, 338.2338
1193.309, 350.6571
1193.792, 350.8847
1194.274, 341.9514
1194.756, 335.1232
1195.238, 335.5193
1195.720, 338.6394
1196.202, 345.6975
1196.684, 352.2570
1197.166, 354.7165
1197.648, 353.3453
1198.130, 346.8930
1198.613, 336.9886
1199.095, 332.3151
1199.577, 345.4604
1200.059, 353.4772
1200.541, 347.0626
1201.023, 336.1774
1201.505, 330.2967
1201.987, 329.3835
1202.470, 335.3952
1202.952, 347.3660
1203.434, 356.0156
1203.916, 352.6770
1204.398, 350.1280
1204.880, 354.4299
1205.362, 359.8228
1205.844, 357.0717
1206.327, 347.9363
1206.809, 340.9001
1207.291, 336.7991
1207.773, 335.7112
1208.255, 342.1957
1208.737, 345.9900
1209.219, 341.8997
1209.701, 334.6121
1210.183, 332.3449
1210.666, 334.3995
1211.148, 337.6503
1211.630, 341.6899
1212.112, 346.3296
1212.594, 353.5413
1213.076, 358.9969
1213.558, 362.0587
1214.040, 361.7229
1214.522, 352.8263
1215.005, 338.0510
1215.487, 329.7788
1215.969, 330.4960
1216.451, 333.2271
1216.933, 336.4869
1217.415, 338.4214
1217.897, 337.7560
1218.379, 335.6635
1218.862, 335.1619
1219.344, 336.0410
1219.826, 337.2775
1220.308, 338.3907
1220.790, 341.4785
1221.272, 351.2887
1221.754, 358.9507
1222.236, 360.1971
1222.719, 356.7264
1223.201, 352.0756
1223.683, 347.2399
1224.165, 346.4013
1224.647, 351.8851
1225.129, 356.2206
1225.611, 355.5155
1226.093, 353.6095
1226.575, 351.7169
1227.057, 350.1874
1227.540, 351.2773
1228.022, 353.7304
1228.504, 352.9008
1228.986, 345.2307
1229.468, 340.9633
1229.950, 346.5923
1230.432, 351.9952
1230.914, 351.7551
1231.397, 347.7560
1231.879, 345.7711
1232.361, 345.2159
1232.843, 344.4021
1233.325, 342.6574
1233.807, 341.0039
1234.289, 339.9800
1234.771, 338.5044
1235.254, 335.1562
1235.736, 331.3496
1236.218, 330.3107
1236.700, 332.3063
1237.182, 338.3806
1237.664, 353.2784
1238.146, 363.1713
1238.628, 366.5692
1239.110, 365.2816
1239.593, 357.5980
1240.075, 347.7362
1240.557, 348.7857
1241.039, 356.0572
1241.521, 358.0909
1242.003, 343.3014
1242.485, 339.2833
1242.967, 351.5631
1243.449, 363.6972
1243.932, 363.1320
1244.414, 355.3685
1244.896, 348.7813
1245.378, 343.6888
1245.860, 340.7714
1246.342, 341.5633
1246.824, 342.5627
1247.306, 344.1350
1247.789, 344.6979
1248.271, 340.6973
1248.753, 336.6526
1249.235, 340.5724
1249.717, 349.4135
1250.199, 356.3465
1250.681, 361.2250
1251.163, 361.4618
1251.646, 356.2417
1252.128, 350.7198
1252.610, 348.0118
1253.092, 347.5676
1253.574, 351.0443
1254.056, 355.7358
1254.538, 354.9584
1255.020, 345.4669
1255.502, 344.2956
1255.984, 352.8639
1256.467, 359.7608
1256.949, 353.8022
1257.431, 345.1948
1257.913, 341.8936
1258.395, 342.5600
1258.877, 344.6164
1259.359, 348.7466
1259.841, 347.2986
1260.324, 339.9531
1260.806, 333.9054
1261.288, 334.5422
1261.770, 337.7852
1262.252, 343.2279
1262.734, 348.3461
1263.216, 349.0030
1263.698, 345.2162
1264.181, 343.8053
1264.663, 344.8228
1265.145, 344.5148
1265.627, 335.8051
1266.109, 330.9913
1266.591, 340.5334
1267.073, 352.7922
1267.555, 353.4373
1268.037, 344.3143
1268.520, 337.4474
1269.002, 333.6077
1269.484, 334.3221
1269.966, 346.2485
1270.448, 354.7015
1270.930, 355.0981
1271.412, 352.2840
1271.894, 351.4190
1272.376, 351.8415
1272.859, 352.1647
1273.341, 351.9533
1273.823, 349.4821
1274.305, 340.3781
1274.787, 334.3898
1275.269, 332.5271
1275.751, 334.3134
1276.233, 341.5426
1276.716, 350.9116
1277.198, 357.1057
1277.680, 359.9103
1278.162, 359.2913
1278.644, 352.8976
1279.126, 348.1009
1279.608, 345.2913
1280.090, 345.0589
1280.573, 351.0160
1281.055, 357.4752
1281.537, 356.5342
1282.019, 350.4294
1282.501, 347.0309
1282.983, 347.8590
1283.465, 346.1533
1283.947, 341.0430
1284.429, 337.7305
1284.911, 342.6559
1285.394, 348.7933
1285.876, 351.2189
1286.358, 350.3061
1286.840, 346.7343
1287.322, 340.1626
1287.804, 337.3485
1288.286, 338.5905
1288.768, 341.3871
1289.251, 346.6019
1289.733, 350.0353
1290.215, 347.7413
1290.697, 343.7897
1291.179, 342.8205
##END=



