##NAMES=Fluor-elbaite
##RRUFFID=R130035
##IDEAL CHEMISTRY=Na(Li_1.5_Al_1.5_)Al_6_(Si_6_O_18_)(BO_3_)_3_(OH)_3_F
##LOCALITY=Aqueana pegmatite, Aracuai, Minas Gerais, Brazil
##OWNER=RRUFF
##SOURCE=William W. Pinch
##DESCRIPTION=Green prismatic crystal; holotype specimen
##STATUS=The identification of this mineral has been confirmed only by single crystal X-ray diffraction.
##URL=rruff.info/R130035
8.975323e+001, 0.000000e+000
9.023535e+001, 3.218251e+002
9.071747e+001, 3.274900e+002
9.119958e+001, 3.282833e+002
9.168170e+001, 3.264334e+002
9.216382e+001, 3.208570e+002
9.264594e+001, 3.128158e+002
9.312805e+001, 3.040466e+002
9.361017e+001, 2.954139e+002
9.409229e+001, 2.863830e+002
9.457440e+001, 2.760976e+002
9.505651e+001, 2.668547e+002
9.553863e+001, 2.589259e+002
9.602074e+001, 2.519373e+002
9.650286e+001, 2.455564e+002
9.698498e+001, 2.394607e+002
9.746709e+001, 2.332739e+002
9.794921e+001, 2.279260e+002
9.843133e+001, 2.238403e+002
9.891344e+001, 2.198637e+002
9.939556e+001, 2.154622e+002
9.987768e+001, 2.108181e+002
1.003598e+002, 2.065710e+002
1.008419e+002, 2.031087e+002
1.013240e+002, 2.003577e+002
1.018061e+002, 1.977156e+002
1.022883e+002, 1.951127e+002
1.027704e+002, 1.926142e+002
1.032525e+002, 1.903363e+002
1.037346e+002, 1.882953e+002
1.042167e+002, 1.862727e+002
1.046988e+002, 1.838693e+002
1.051810e+002, 1.813494e+002
1.056631e+002, 1.791830e+002
1.061452e+002, 1.778139e+002
1.066273e+002, 1.769874e+002
1.071094e+002, 1.756032e+002
1.075915e+002, 1.731206e+002
1.080737e+002, 1.707008e+002
1.085558e+002, 1.688707e+002
1.090379e+002, 1.674951e+002
1.095200e+002, 1.662251e+002
1.100021e+002, 1.647216e+002
1.104842e+002, 1.629075e+002
1.109664e+002, 1.612991e+002
1.114485e+002, 1.600250e+002
1.119306e+002, 1.588282e+002
1.124127e+002, 1.575132e+002
1.128948e+002, 1.560968e+002
1.133769e+002, 1.547905e+002
1.138591e+002, 1.539444e+002
1.143412e+002, 1.540975e+002
1.148233e+002, 1.537088e+002
1.153054e+002, 1.523789e+002
1.157875e+002, 1.507142e+002
1.162696e+002, 1.493342e+002
1.167517e+002, 1.484670e+002
1.172339e+002, 1.478516e+002
1.177160e+002, 1.468248e+002
1.181981e+002, 1.450717e+002
1.186802e+002, 1.436210e+002
1.191623e+002, 1.429769e+002
1.196444e+002, 1.428979e+002
1.201266e+002, 1.427186e+002
1.206087e+002, 1.421350e+002
1.210908e+002, 1.412646e+002
1.215729e+002, 1.404157e+002
1.220550e+002, 1.395961e+002
1.225371e+002, 1.387827e+002
1.230193e+002, 1.379443e+002
1.235014e+002, 1.370685e+002
1.239835e+002, 1.362543e+002
1.244656e+002, 1.356912e+002
1.249477e+002, 1.351697e+002
1.254298e+002, 1.344762e+002
1.259120e+002, 1.335060e+002
1.263941e+002, 1.323725e+002
1.268762e+002, 1.313305e+002
1.273583e+002, 1.303782e+002
1.278404e+002, 1.295360e+002
1.283225e+002, 1.287850e+002
1.288047e+002, 1.281266e+002
1.292868e+002, 1.275933e+002
1.297689e+002, 1.272399e+002
1.302510e+002, 1.270393e+002
1.307331e+002, 1.265865e+002
1.312152e+002, 1.256714e+002
1.316974e+002, 1.246851e+002
1.321795e+002, 1.236159e+002
1.326616e+002, 1.225378e+002
1.331437e+002, 1.216112e+002
1.336258e+002, 1.210098e+002
1.341079e+002, 1.208332e+002
1.345901e+002, 1.202639e+002
1.350722e+002, 1.189040e+002
1.355543e+002, 1.175459e+002
1.360364e+002, 1.166936e+002
1.365185e+002, 1.163738e+002
1.370006e+002, 1.162403e+002
1.374828e+002, 1.159474e+002
1.379649e+002, 1.154798e+002
1.384470e+002, 1.148181e+002
1.389291e+002, 1.137164e+002
1.394112e+002, 1.125127e+002
1.398933e+002, 1.116428e+002
1.403755e+002, 1.112508e+002
1.408576e+002, 1.110185e+002
1.413397e+002, 1.105462e+002
1.418218e+002, 1.098613e+002
1.423039e+002, 1.091371e+002
1.427860e+002, 1.084288e+002
1.432681e+002, 1.077343e+002
1.437503e+002, 1.070367e+002
1.442324e+002, 1.063096e+002
1.447145e+002, 1.056090e+002
1.451966e+002, 1.049408e+002
1.456787e+002, 1.043088e+002
1.461608e+002, 1.037867e+002
1.466430e+002, 1.035002e+002
1.471251e+002, 1.034829e+002
1.476072e+002, 1.033675e+002
1.480893e+002, 1.028562e+002
1.485714e+002, 1.023689e+002
1.490535e+002, 1.022130e+002
1.495357e+002, 1.024361e+002
1.500178e+002, 1.027467e+002
1.504999e+002, 1.026961e+002
1.509820e+002, 1.021064e+002
1.514641e+002, 1.015197e+002
1.519462e+002, 1.009537e+002
1.524284e+002, 1.004297e+002
1.529105e+002, 9.993789e+001
1.533926e+002, 9.948099e+001
1.538747e+002, 9.909887e+001
1.543568e+002, 9.889967e+001
1.548389e+002, 9.917126e+001
1.553211e+002, 9.928834e+001
1.558032e+002, 9.918645e+001
1.562853e+002, 9.892706e+001
1.567674e+002, 9.859486e+001
1.572495e+002, 9.823505e+001
1.577316e+002, 9.781774e+001
1.582138e+002, 9.719798e+001
1.586959e+002, 9.597669e+001
1.591780e+002, 9.502139e+001
1.596601e+002, 9.469243e+001
1.601422e+002, 9.480233e+001
1.606243e+002, 9.493945e+001
1.611065e+002, 9.490234e+001
1.615886e+002, 9.468336e+001
1.620707e+002, 9.431884e+001
1.625528e+002, 9.353432e+001
1.630349e+002, 9.287228e+001
1.635170e+002, 9.281914e+001
1.639991e+002, 9.330357e+001
1.644813e+002, 9.360213e+001
1.649634e+002, 9.311087e+001
1.654455e+002, 9.214753e+001
1.659276e+002, 9.147534e+001
1.664097e+002, 9.129501e+001
1.668918e+002, 9.133797e+001
1.673740e+002, 9.133643e+001
1.678561e+002, 9.129240e+001
1.683382e+002, 9.119366e+001
1.688203e+002, 9.106155e+001
1.693024e+002, 9.086623e+001
1.697845e+002, 9.053185e+001
1.702667e+002, 8.993893e+001
1.707488e+002, 8.924409e+001
1.712309e+002, 8.884341e+001
1.717130e+002, 8.892490e+001
1.721951e+002, 8.896216e+001
1.726772e+002, 8.869748e+001
1.731594e+002, 8.827499e+001
1.736415e+002, 8.789479e+001
1.741236e+002, 8.767715e+001
1.746057e+002, 8.759875e+001
1.750878e+002, 8.752103e+001
1.755699e+002, 8.743755e+001
1.760521e+002, 8.736405e+001
1.765342e+002, 8.726891e+001
1.770163e+002, 8.718792e+001
1.774984e+002, 8.720852e+001
1.779805e+002, 8.743372e+001
1.784626e+002, 8.786787e+001
1.789448e+002, 8.793073e+001
1.794269e+002, 8.716631e+001
1.799090e+002, 8.648070e+001
1.803911e+002, 8.619109e+001
1.808732e+002, 8.622051e+001
1.813553e+002, 8.632228e+001
1.818375e+002, 8.629566e+001
1.823196e+002, 8.613351e+001
1.828017e+002, 8.588444e+001
1.832838e+002, 8.534180e+001
1.837659e+002, 8.490882e+001
1.842480e+002, 8.484589e+001
1.847301e+002, 8.511827e+001
1.852123e+002, 8.548677e+001
1.856944e+002, 8.576656e+001
1.861765e+002, 8.595232e+001
1.866586e+002, 8.587841e+001
1.871407e+002, 8.529481e+001
1.876228e+002, 8.464051e+001
1.881050e+002, 8.425027e+001
1.885871e+002, 8.415764e+001
1.890692e+002, 8.415931e+001
1.895513e+002, 8.407380e+001
1.900334e+002, 8.390251e+001
1.905155e+002, 8.373565e+001
1.909977e+002, 8.351644e+001
1.914798e+002, 8.333764e+001
1.919619e+002, 8.334014e+001
1.924440e+002, 8.356821e+001
1.929261e+002, 8.382935e+001
1.934082e+002, 8.389865e+001
1.938904e+002, 8.383839e+001
1.943725e+002, 8.384077e+001
1.948546e+002, 8.399200e+001
1.953367e+002, 8.424088e+001
1.958188e+002, 8.446883e+001
1.963009e+002, 8.462175e+001
1.967831e+002, 8.485976e+001
1.972652e+002, 8.547857e+001
1.977473e+002, 8.630308e+001
1.982294e+002, 8.684346e+001
1.987115e+002, 8.654288e+001
1.991936e+002, 8.567384e+001
1.996758e+002, 8.546605e+001
2.001579e+002, 8.637419e+001
2.006400e+002, 8.738066e+001
2.011221e+002, 8.790859e+001
2.016042e+002, 8.808559e+001
2.020863e+002, 8.823518e+001
2.025685e+002, 8.859160e+001
2.030506e+002, 8.914050e+001
2.035327e+002, 8.961617e+001
2.040148e+002, 8.978396e+001
2.044969e+002, 9.013416e+001
2.049790e+002, 9.101367e+001
2.054612e+002, 9.223891e+001
2.059433e+002, 9.336704e+001
2.064254e+002, 9.397343e+001
2.069075e+002, 9.401804e+001
2.073896e+002, 9.432059e+001
2.078717e+002, 9.504198e+001
2.083539e+002, 9.589367e+001
2.088360e+002, 9.684952e+001
2.093181e+002, 9.787057e+001
2.098002e+002, 9.888880e+001
2.102823e+002, 9.982614e+001
2.107644e+002, 1.006451e+002
2.112466e+002, 1.016768e+002
2.117287e+002, 1.029599e+002
2.122108e+002, 1.043900e+002
2.126929e+002, 1.059864e+002
2.131750e+002, 1.077089e+002
2.136571e+002, 1.094793e+002
2.141393e+002, 1.112130e+002
2.146214e+002, 1.128847e+002
2.151035e+002, 1.147419e+002
2.155856e+002, 1.168120e+002
2.160677e+002, 1.189990e+002
2.165498e+002, 1.213096e+002
2.170320e+002, 1.237107e+002
2.175141e+002, 1.261655e+002
2.179962e+002, 1.286655e+002
2.184783e+002, 1.312360e+002
2.189604e+002, 1.334326e+002
2.194425e+002, 1.352136e+002
2.199247e+002, 1.367188e+002
2.204068e+002, 1.380424e+002
2.208889e+002, 1.391833e+002
2.213710e+002, 1.400782e+002
2.218531e+002, 1.406852e+002
2.223352e+002, 1.409572e+002
2.228174e+002, 1.408884e+002
2.232995e+002, 1.404225e+002
2.237816e+002, 1.396666e+002
2.242637e+002, 1.386983e+002
2.247458e+002, 1.375213e+002
2.252279e+002, 1.360916e+002
2.257100e+002, 1.342629e+002
2.261922e+002, 1.320982e+002
2.266743e+002, 1.301132e+002
2.271564e+002, 1.285390e+002
2.276385e+002, 1.270364e+002
2.281206e+002, 1.251593e+002
2.286027e+002, 1.228698e+002
2.290849e+002, 1.208795e+002
2.295670e+002, 1.199348e+002
2.300491e+002, 1.197168e+002
2.305312e+002, 1.193192e+002
2.310133e+002, 1.184404e+002
2.314954e+002, 1.174081e+002
2.319776e+002, 1.165830e+002
2.324597e+002, 1.159818e+002
2.329418e+002, 1.154726e+002
2.334239e+002, 1.150175e+002
2.339060e+002, 1.145927e+002
2.343881e+002, 1.141543e+002
2.348703e+002, 1.136266e+002
2.353524e+002, 1.131355e+002
2.358345e+002, 1.129029e+002
2.363166e+002, 1.130009e+002
2.367987e+002, 1.130506e+002
2.372808e+002, 1.126941e+002
2.377630e+002, 1.122290e+002
2.382451e+002, 1.120335e+002
2.387272e+002, 1.123532e+002
2.392093e+002, 1.128030e+002
2.396914e+002, 1.126883e+002
2.401735e+002, 1.117970e+002
2.406557e+002, 1.110201e+002
2.411378e+002, 1.108765e+002
2.416199e+002, 1.109379e+002
2.421020e+002, 1.108101e+002
2.425841e+002, 1.103511e+002
2.430662e+002, 1.096784e+002
2.435484e+002, 1.089741e+002
2.440305e+002, 1.082293e+002
2.445126e+002, 1.074805e+002
2.449947e+002, 1.067066e+002
2.454768e+002, 1.059511e+002
2.459589e+002, 1.052341e+002
2.464410e+002, 1.045577e+002
2.469232e+002, 1.039680e+002
2.474053e+002, 1.035721e+002
2.478874e+002, 1.034986e+002
2.483695e+002, 1.033105e+002
2.488516e+002, 1.029035e+002
2.493337e+002, 1.023863e+002
2.498159e+002, 1.018178e+002
2.502980e+002, 1.012180e+002
2.507801e+002, 1.006128e+002
2.512622e+002, 1.000366e+002
2.517443e+002, 9.949095e+001
2.522264e+002, 9.898156e+001
2.527086e+002, 9.858013e+001
2.531907e+002, 9.816359e+001
2.536728e+002, 9.763570e+001
2.541549e+002, 9.697596e+001
2.546370e+002, 9.623728e+001
2.551191e+002, 9.546926e+001
2.556013e+002, 9.457120e+001
2.560834e+002, 9.388521e+001
2.565655e+002, 9.358232e+001
2.570476e+002, 9.333302e+001
2.575297e+002, 9.291125e+001
2.580118e+002, 9.228260e+001
2.584940e+002, 9.157230e+001
2.589761e+002, 9.095090e+001
2.594582e+002, 9.046871e+001
2.599403e+002, 8.995014e+001
2.604224e+002, 8.931508e+001
2.609045e+002, 8.870728e+001
2.613867e+002, 8.821452e+001
2.618688e+002, 8.784445e+001
2.623509e+002, 8.756178e+001
2.628330e+002, 8.733801e+001
2.633151e+002, 8.721825e+001
2.637972e+002, 8.698409e+001
2.642794e+002, 8.645444e+001
2.647615e+002, 8.598356e+001
2.652436e+002, 8.585892e+001
2.657257e+002, 8.602832e+001
2.662078e+002, 8.617429e+001
2.666899e+002, 8.597083e+001
2.671721e+002, 8.534457e+001
2.676542e+002, 8.483040e+001
2.681363e+002, 8.449124e+001
2.686184e+002, 8.418180e+001
2.691005e+002, 8.383521e+001
2.695826e+002, 8.345428e+001
2.700648e+002, 8.308394e+001
2.705469e+002, 8.277113e+001
2.710290e+002, 8.252343e+001
2.715111e+002, 8.214638e+001
2.719932e+002, 8.158575e+001
2.724753e+002, 8.098073e+001
2.729575e+002, 8.037724e+001
2.734396e+002, 7.977776e+001
2.739217e+002, 7.916903e+001
2.744038e+002, 7.853258e+001
2.748859e+002, 7.787735e+001
2.753680e+002, 7.733588e+001
2.758501e+002, 7.704257e+001
2.763322e+002, 7.668904e+001
2.768144e+002, 7.611868e+001
2.772965e+002, 7.540614e+001
2.777786e+002, 7.473496e+001
2.782607e+002, 7.421458e+001
2.787428e+002, 7.379664e+001
2.792249e+002, 7.326240e+001
2.797071e+002, 7.258173e+001
2.801892e+002, 7.184693e+001
2.806713e+002, 7.096545e+001
2.811534e+002, 7.005798e+001
2.816355e+002, 6.938586e+001
2.821176e+002, 6.909563e+001
2.825998e+002, 6.899427e+001
2.830819e+002, 6.856355e+001
2.835640e+002, 6.755550e+001
2.840461e+002, 6.673362e+001
2.845282e+002, 6.638392e+001
2.850103e+002, 6.627892e+001
2.854925e+002, 6.608193e+001
2.859746e+002, 6.567728e+001
2.864567e+002, 6.518525e+001
2.869388e+002, 6.482654e+001
2.874209e+002, 6.468407e+001
2.879030e+002, 6.439185e+001
2.883852e+002, 6.378600e+001
2.888673e+002, 6.304428e+001
2.893494e+002, 6.236005e+001
2.898315e+002, 6.177439e+001
2.903136e+002, 6.128569e+001
2.907957e+002, 6.087673e+001
2.912779e+002, 6.053948e+001
2.917600e+002, 6.039229e+001
2.922421e+002, 6.061152e+001
2.927242e+002, 6.093385e+001
2.932063e+002, 6.114286e+001
2.936884e+002, 6.120788e+001
2.941706e+002, 6.110779e+001
2.946527e+002, 6.075555e+001
2.951348e+002, 6.015120e+001
2.956169e+002, 5.973170e+001
2.960990e+002, 5.959875e+001
2.965811e+002, 5.959319e+001
2.970633e+002, 5.964236e+001
2.975454e+002, 5.972945e+001
2.980275e+002, 5.976740e+001
2.985096e+002, 5.968594e+001
2.989917e+002, 5.949580e+001
2.994738e+002, 5.931366e+001
2.999560e+002, 5.902849e+001
3.004381e+002, 5.885140e+001
3.009202e+002, 5.894792e+001
3.014023e+002, 5.927666e+001
3.018844e+002, 5.966282e+001
3.023665e+002, 6.006195e+001
3.028487e+002, 6.041988e+001
3.033308e+002, 6.059069e+001
3.038129e+002, 6.048610e+001
3.042950e+002, 6.036143e+001
3.047771e+002, 6.033876e+001
3.052592e+002, 6.038326e+001
3.057414e+002, 6.038694e+001
3.062235e+002, 6.028229e+001
3.067056e+002, 6.016888e+001
3.071877e+002, 6.026474e+001
3.076698e+002, 6.060817e+001
3.081519e+002, 6.094566e+001
3.086341e+002, 6.120562e+001
3.091162e+002, 6.140478e+001
3.095983e+002, 6.154032e+001
3.100804e+002, 6.159163e+001
3.105625e+002, 6.166352e+001
3.110446e+002, 6.191955e+001
3.115268e+002, 6.236137e+001
3.120089e+002, 6.280284e+001
3.124910e+002, 6.326080e+001
3.129731e+002, 6.367470e+001
3.134552e+002, 6.398186e+001
3.139373e+002, 6.417237e+001
3.144195e+002, 6.425420e+001
3.149016e+002, 6.422213e+001
3.153837e+002, 6.407323e+001
3.158658e+002, 6.385070e+001
3.163479e+002, 6.338376e+001
3.168300e+002, 6.296725e+001
3.173121e+002, 6.297254e+001
3.177943e+002, 6.336585e+001
3.182764e+002, 6.360942e+001
3.187585e+002, 6.331580e+001
3.192406e+002, 6.256378e+001
3.197227e+002, 6.186689e+001
3.202048e+002, 6.101628e+001
3.206870e+002, 6.041798e+001
3.211691e+002, 6.051402e+001
3.216512e+002, 6.110435e+001
3.221333e+002, 6.144911e+001
3.226154e+002, 6.113590e+001
3.230975e+002, 6.044680e+001
3.235797e+002, 6.011976e+001
3.240618e+002, 6.028449e+001
3.245439e+002, 6.045059e+001
3.250260e+002, 6.036185e+001
3.255081e+002, 6.016800e+001
3.259902e+002, 6.018688e+001
3.264724e+002, 6.055009e+001
3.269545e+002, 6.103444e+001
3.274366e+002, 6.126982e+001
3.279187e+002, 6.121092e+001
3.284008e+002, 6.122227e+001
3.288829e+002, 6.144584e+001
3.293651e+002, 6.173858e+001
3.298472e+002, 6.193167e+001
3.303293e+002, 6.199583e+001
3.308114e+002, 6.200356e+001
3.312935e+002, 6.199214e+001
3.317756e+002, 6.196080e+001
3.322578e+002, 6.208867e+001
3.327399e+002, 6.248869e+001
3.332220e+002, 6.296670e+001
3.337041e+002, 6.346447e+001
3.341862e+002, 6.394353e+001
3.346683e+002, 6.423859e+001
3.351505e+002, 6.418845e+001
3.356326e+002, 6.384779e+001
3.361147e+002, 6.365554e+001
3.365968e+002, 6.366203e+001
3.370789e+002, 6.374124e+001
3.375610e+002, 6.383118e+001
3.380432e+002, 6.395309e+001
3.385253e+002, 6.417089e+001
3.390074e+002, 6.452558e+001
3.394895e+002, 6.496623e+001
3.399716e+002, 6.535076e+001
3.404537e+002, 6.561473e+001
3.409359e+002, 6.594553e+001
3.414180e+002, 6.644712e+001
3.419001e+002, 6.701113e+001
3.423822e+002, 6.752332e+001
3.428643e+002, 6.794975e+001
3.433464e+002, 6.825175e+001
3.438286e+002, 6.834745e+001
3.443107e+002, 6.811067e+001
3.447928e+002, 6.803910e+001
3.452749e+002, 6.839327e+001
3.457570e+002, 6.873483e+001
3.462391e+002, 6.865169e+001
3.467213e+002, 6.815621e+001
3.472034e+002, 6.760690e+001
3.476855e+002, 6.730800e+001
3.481676e+002, 6.726928e+001
3.486497e+002, 6.740323e+001
3.491318e+002, 6.786389e+001
3.496140e+002, 6.831166e+001
3.500961e+002, 6.858962e+001
3.505782e+002, 6.873756e+001
3.510603e+002, 6.884129e+001
3.515424e+002, 6.893291e+001
3.520245e+002, 6.905490e+001
3.525067e+002, 6.940249e+001
3.529888e+002, 7.021526e+001
3.534709e+002, 7.095438e+001
3.539530e+002, 7.145654e+001
3.544351e+002, 7.188905e+001
3.549172e+002, 7.245908e+001
3.553994e+002, 7.323678e+001
3.558815e+002, 7.412919e+001
3.563636e+002, 7.497861e+001
3.568457e+002, 7.568424e+001
3.573278e+002, 7.656731e+001
3.578099e+002, 7.761700e+001
3.582920e+002, 7.883259e+001
3.587741e+002, 8.025237e+001
3.592563e+002, 8.185665e+001
3.597384e+002, 8.351635e+001
3.602205e+002, 8.507544e+001
3.607026e+002, 8.647451e+001
3.611847e+002, 8.837476e+001
3.616668e+002, 9.112111e+001
3.621490e+002, 9.396733e+001
3.626311e+002, 9.660361e+001
3.631132e+002, 9.917244e+001
3.635953e+002, 1.019328e+002
3.640774e+002, 1.050529e+002
3.645595e+002, 1.084726e+002
3.650417e+002, 1.119215e+002
3.655238e+002, 1.150949e+002
3.660059e+002, 1.187571e+002
3.664880e+002, 1.232941e+002
3.669701e+002, 1.281652e+002
3.674522e+002, 1.330301e+002
3.679344e+002, 1.377107e+002
3.684165e+002, 1.419426e+002
3.688986e+002, 1.453901e+002
3.693807e+002, 1.481700e+002
3.698628e+002, 1.497393e+002
3.703449e+002, 1.496143e+002
3.708271e+002, 1.487678e+002
3.713092e+002, 1.477759e+002
3.717913e+002, 1.465766e+002
3.722734e+002, 1.446478e+002
3.727555e+002, 1.414248e+002
3.732376e+002, 1.369514e+002
3.737198e+002, 1.323639e+002
3.742019e+002, 1.274660e+002
3.746840e+002, 1.226913e+002
3.751661e+002, 1.181378e+002
3.756482e+002, 1.137926e+002
3.761303e+002, 1.096549e+002
3.766125e+002, 1.056812e+002
3.770946e+002, 1.019458e+002
3.775767e+002, 9.859989e+001
3.780588e+002, 9.567149e+001
3.785409e+002, 9.306575e+001
3.790230e+002, 9.089890e+001
3.795052e+002, 8.894897e+001
3.799873e+002, 8.706654e+001
3.804694e+002, 8.522118e+001
3.809515e+002, 8.345434e+001
3.814336e+002, 8.179286e+001
3.819157e+002, 8.023454e+001
3.823979e+002, 7.886716e+001
3.828800e+002, 7.776176e+001
3.833621e+002, 7.679616e+001
3.838442e+002, 7.590651e+001
3.843263e+002, 7.507783e+001
3.848084e+002, 7.423573e+001
3.852906e+002, 7.322941e+001
3.857727e+002, 7.220960e+001
3.862548e+002, 7.156235e+001
3.867369e+002, 7.137639e+001
3.872190e+002, 7.125163e+001
3.877011e+002, 7.099873e+001
3.881833e+002, 7.065331e+001
3.886654e+002, 7.024442e+001
3.891475e+002, 6.974065e+001
3.896296e+002, 6.924231e+001
3.901117e+002, 6.880787e+001
3.905938e+002, 6.844247e+001
3.910760e+002, 6.822201e+001
3.915581e+002, 6.824839e+001
3.920402e+002, 6.833640e+001
3.925223e+002, 6.818778e+001
3.930044e+002, 6.777901e+001
3.934865e+002, 6.747118e+001
3.939687e+002, 6.743468e+001
3.944508e+002, 6.757772e+001
3.949329e+002, 6.779156e+001
3.954150e+002, 6.807235e+001
3.958971e+002, 6.831017e+001
3.963792e+002, 6.832217e+001
3.968614e+002, 6.816045e+001
3.973435e+002, 6.834049e+001
3.978256e+002, 6.930763e+001
3.983077e+002, 7.025398e+001
3.987898e+002, 7.050871e+001
3.992719e+002, 7.025432e+001
3.997540e+002, 7.018804e+001
4.002361e+002, 7.067348e+001
4.007183e+002, 7.154592e+001
4.012004e+002, 7.232784e+001
4.016825e+002, 7.286536e+001
4.021646e+002, 7.359194e+001
4.026467e+002, 7.484981e+001
4.031288e+002, 7.621487e+001
4.036110e+002, 7.712596e+001
4.040931e+002, 7.747292e+001
4.045752e+002, 7.767341e+001
4.050573e+002, 7.825317e+001
4.055394e+002, 7.936990e+001
4.060215e+002, 8.002257e+001
4.065037e+002, 7.993942e+001
4.069858e+002, 7.971502e+001
4.074679e+002, 7.961951e+001
4.079500e+002, 7.962663e+001
4.084321e+002, 7.962534e+001
4.089142e+002, 7.955945e+001
4.093964e+002, 7.939603e+001
4.098785e+002, 7.898403e+001
4.103606e+002, 7.819136e+001
4.108427e+002, 7.729518e+001
4.113248e+002, 7.634043e+001
4.118069e+002, 7.528352e+001
4.122891e+002, 7.401073e+001
4.127712e+002, 7.252184e+001
4.132533e+002, 7.102200e+001
4.137354e+002, 6.981436e+001
4.142175e+002, 6.899205e+001
4.146996e+002, 6.806606e+001
4.151818e+002, 6.692233e+001
4.156639e+002, 6.578307e+001
4.161460e+002, 6.470291e+001
4.166281e+002, 6.369340e+001
4.171102e+002, 6.279035e+001
4.175923e+002, 6.203920e+001
4.180745e+002, 6.138084e+001
4.185566e+002, 6.057715e+001
4.190387e+002, 5.953378e+001
4.195208e+002, 5.856569e+001
4.200029e+002, 5.776210e+001
4.204850e+002, 5.708065e+001
4.209672e+002, 5.647509e+001
4.214493e+002, 5.593209e+001
4.219314e+002, 5.553551e+001
4.224135e+002, 5.544173e+001
4.228956e+002, 5.563371e+001
4.233777e+002, 5.577198e+001
4.238599e+002, 5.589821e+001
4.243420e+002, 5.581984e+001
4.248241e+002, 5.529312e+001
4.253062e+002, 5.443673e+001
4.257883e+002, 5.367665e+001
4.262704e+002, 5.323598e+001
4.267526e+002, 5.297274e+001
4.272347e+002, 5.266083e+001
4.277168e+002, 5.228832e+001
4.281989e+002, 5.203571e+001
4.286810e+002, 5.208278e+001
4.291631e+002, 5.227273e+001
4.296453e+002, 5.224999e+001
4.301274e+002, 5.193481e+001
4.306095e+002, 5.158536e+001
4.310916e+002, 5.131152e+001
4.315737e+002, 5.109680e+001
4.320558e+002, 5.089034e+001
4.325380e+002, 5.067237e+001
4.330201e+002, 5.052208e+001
4.335022e+002, 5.056618e+001
4.339843e+002, 5.084179e+001
4.344664e+002, 5.099955e+001
4.349485e+002, 5.091663e+001
4.354307e+002, 5.080676e+001
4.359128e+002, 5.082349e+001
4.363949e+002, 5.094061e+001
4.368770e+002, 5.104254e+001
4.373591e+002, 5.106141e+001
4.378412e+002, 5.101630e+001
4.383234e+002, 5.097909e+001
4.388055e+002, 5.103931e+001
4.392876e+002, 5.099072e+001
4.397697e+002, 5.066598e+001
4.402518e+002, 5.031401e+001
4.407339e+002, 5.020239e+001
4.412160e+002, 5.036712e+001
4.416982e+002, 5.061883e+001
4.421803e+002, 5.074562e+001
4.426624e+002, 5.073403e+001
4.431445e+002, 5.069898e+001
4.436266e+002, 5.068713e+001
4.441087e+002, 5.060232e+001
4.445909e+002, 5.029350e+001
4.450730e+002, 4.991525e+001
4.455551e+002, 4.972622e+001
4.460372e+002, 4.987222e+001
4.465193e+002, 5.021999e+001
4.470014e+002, 5.052893e+001
4.474836e+002, 5.089159e+001
4.479657e+002, 5.093428e+001
4.484478e+002, 5.014034e+001
4.489299e+002, 4.933098e+001
4.494120e+002, 4.910610e+001
4.498941e+002, 4.945284e+001
4.503763e+002, 4.982957e+001
4.508584e+002, 4.972124e+001
4.513405e+002, 4.927954e+001
4.518226e+002, 4.921529e+001
4.523047e+002, 4.971162e+001
4.527868e+002, 5.015772e+001
4.532690e+002, 5.013534e+001
4.537511e+002, 4.984757e+001
4.542332e+002, 4.954708e+001
4.547153e+002, 4.926052e+001
4.551974e+002, 4.902406e+001
4.556795e+002, 4.885205e+001
4.561617e+002, 4.875116e+001
4.566438e+002, 4.877406e+001
4.571259e+002, 4.898220e+001
4.576080e+002, 4.922035e+001
4.580901e+002, 4.926306e+001
4.585722e+002, 4.911470e+001
4.590544e+002, 4.898693e+001
4.595365e+002, 4.888765e+001
4.600186e+002, 4.884606e+001
4.605007e+002, 4.891121e+001
4.609828e+002, 4.906879e+001
4.614649e+002, 4.925516e+001
4.619471e+002, 4.945527e+001
4.624292e+002, 4.963148e+001
4.629113e+002, 4.962387e+001
4.633934e+002, 4.924195e+001
4.638755e+002, 4.893891e+001
4.643576e+002, 4.869635e+001
4.648398e+002, 4.859159e+001
4.653219e+002, 4.879570e+001
4.658040e+002, 4.929522e+001
4.662861e+002, 4.979282e+001
4.667682e+002, 4.993955e+001
4.672503e+002, 4.968293e+001
4.677325e+002, 4.959030e+001
4.682146e+002, 4.993510e+001
4.686967e+002, 5.015114e+001
4.691788e+002, 4.998231e+001
4.696609e+002, 4.961562e+001
4.701430e+002, 4.933245e+001
4.706252e+002, 4.925705e+001
4.711073e+002, 4.930098e+001
4.715894e+002, 4.929826e+001
4.720715e+002, 4.921714e+001
4.725536e+002, 4.923331e+001
4.730357e+002, 4.956844e+001
4.735179e+002, 4.983634e+001
4.740000e+002, 4.972612e+001
4.744821e+002, 4.932249e+001
4.749642e+002, 4.900508e+001
4.754463e+002, 4.909211e+001
4.759284e+002, 4.938509e+001
4.764106e+002, 4.942575e+001
4.768927e+002, 4.917421e+001
4.773748e+002, 4.891539e+001
4.778569e+002, 4.873053e+001
4.783390e+002, 4.865059e+001
4.788211e+002, 4.871531e+001
4.793033e+002, 4.894436e+001
4.797854e+002, 4.925024e+001
4.802675e+002, 4.974908e+001
4.807496e+002, 5.025486e+001
4.812317e+002, 5.034787e+001
4.817138e+002, 4.993828e+001
4.821959e+002, 4.947857e+001
4.826780e+002, 4.936701e+001
4.831602e+002, 4.960815e+001
4.836423e+002, 4.984232e+001
4.841244e+002, 5.007837e+001
4.846065e+002, 5.029777e+001
4.850886e+002, 5.049368e+001
4.855707e+002, 5.066864e+001
4.860529e+002, 5.081719e+001
4.865350e+002, 5.093840e+001
4.870171e+002, 5.106159e+001
4.874992e+002, 5.123826e+001
4.879813e+002, 5.150520e+001
4.884634e+002, 5.172813e+001
4.889456e+002, 5.188869e+001
4.894277e+002, 5.203057e+001
4.899098e+002, 5.221826e+001
4.903919e+002, 5.240276e+001
4.908740e+002, 5.244638e+001
4.913561e+002, 5.223711e+001
4.918383e+002, 5.191578e+001
4.923204e+002, 5.190871e+001
4.928025e+002, 5.237115e+001
4.932846e+002, 5.271837e+001
4.937667e+002, 5.267067e+001
4.942488e+002, 5.257930e+001
4.947310e+002, 5.270038e+001
4.952131e+002, 5.303298e+001
4.956952e+002, 5.336834e+001
4.961773e+002, 5.357142e+001
4.966594e+002, 5.366548e+001
4.971415e+002, 5.370772e+001
4.976237e+002, 5.369725e+001
4.981058e+002, 5.364008e+001
4.985879e+002, 5.348894e+001
4.990700e+002, 5.331183e+001
4.995521e+002, 5.323332e+001
5.000342e+002, 5.326825e+001
5.005164e+002, 5.337965e+001
5.009985e+002, 5.363405e+001
5.014806e+002, 5.393081e+001
5.019627e+002, 5.406092e+001
5.024448e+002, 5.397928e+001
5.029269e+002, 5.388079e+001
5.034091e+002, 5.397162e+001
5.038912e+002, 5.426144e+001
5.043733e+002, 5.438287e+001
5.048554e+002, 5.433540e+001
5.053375e+002, 5.414298e+001
5.058196e+002, 5.368298e+001
5.063018e+002, 5.312248e+001
5.067839e+002, 5.269977e+001
5.072660e+002, 5.250150e+001
5.077481e+002, 5.246535e+001
5.082302e+002, 5.249366e+001
5.087123e+002, 5.256474e+001
5.091945e+002, 5.277976e+001
5.096766e+002, 5.344518e+001
5.101587e+002, 5.394662e+001
5.106408e+002, 5.398117e+001
5.111229e+002, 5.368841e+001
5.116050e+002, 5.333802e+001
5.120872e+002, 5.304813e+001
5.125693e+002, 5.281564e+001
5.130514e+002, 5.266504e+001
5.135335e+002, 5.261751e+001
5.140156e+002, 5.247639e+001
5.144977e+002, 5.210710e+001
5.149799e+002, 5.172198e+001
5.154620e+002, 5.152100e+001
5.159441e+002, 5.147768e+001
5.164262e+002, 5.140548e+001
5.169083e+002, 5.117978e+001
5.173904e+002, 5.090861e+001
5.178726e+002, 5.071064e+001
5.183547e+002, 5.058911e+001
5.188368e+002, 5.057732e+001
5.193189e+002, 5.075135e+001
5.198010e+002, 5.097299e+001
5.202831e+002, 5.087706e+001
5.207653e+002, 5.031530e+001
5.212474e+002, 4.993423e+001
5.217295e+002, 5.006589e+001
5.222116e+002, 5.026631e+001
5.226937e+002, 5.006920e+001
5.231758e+002, 4.951921e+001
5.236580e+002, 4.905045e+001
5.241401e+002, 4.900399e+001
5.246222e+002, 4.926205e+001
5.251043e+002, 4.919459e+001
5.255864e+002, 4.834992e+001
5.260685e+002, 4.783047e+001
5.265507e+002, 4.785667e+001
5.270328e+002, 4.813671e+001
5.275149e+002, 4.855092e+001
5.279970e+002, 4.901285e+001
5.284791e+002, 4.932138e+001
5.289612e+002, 4.924404e+001
5.294434e+002, 4.885115e+001
5.299255e+002, 4.858549e+001
5.304076e+002, 4.852487e+001
5.308897e+002, 4.841250e+001
5.313718e+002, 4.799119e+001
5.318539e+002, 4.753326e+001
5.323361e+002, 4.735764e+001
5.328182e+002, 4.754845e+001
5.333003e+002, 4.776350e+001
5.337824e+002, 4.776789e+001
5.342645e+002, 4.763954e+001
5.347466e+002, 4.752618e+001
5.352288e+002, 4.744293e+001
5.357109e+002, 4.743607e+001
5.361930e+002, 4.760626e+001
5.366751e+002, 4.788639e+001
5.371572e+002, 4.788088e+001
5.376393e+002, 4.721818e+001
5.381215e+002, 4.674963e+001
5.386036e+002, 4.686928e+001
5.390857e+002, 4.724345e+001
5.395678e+002, 4.751115e+001
5.400499e+002, 4.757450e+001
5.405320e+002, 4.743329e+001
5.410142e+002, 4.703795e+001
5.414963e+002, 4.637215e+001
5.419784e+002, 4.601110e+001
5.424604e+002, 4.621529e+001
5.429426e+002, 4.643253e+001
5.434247e+002, 4.662638e+001
5.439068e+002, 4.674076e+001
5.443889e+002, 4.666358e+001
5.448710e+002, 4.637905e+001
5.453531e+002, 4.610674e+001
5.458353e+002, 4.617890e+001
5.463174e+002, 4.654770e+001
5.467995e+002, 4.658334e+001
5.472816e+002, 4.605915e+001
5.477637e+002, 4.561267e+001
5.482458e+002, 4.584955e+001
5.487280e+002, 4.638354e+001
5.492101e+002, 4.655950e+001
5.496922e+002, 4.610218e+001
5.501743e+002, 4.563337e+001
5.506564e+002, 4.561669e+001
5.511385e+002, 4.585557e+001
5.516207e+002, 4.588979e+001
5.521028e+002, 4.561747e+001
5.525849e+002, 4.539414e+001
5.530670e+002, 4.560994e+001
5.535491e+002, 4.626771e+001
5.540313e+002, 4.653579e+001
5.545134e+002, 4.605754e+001
5.549955e+002, 4.567881e+001
5.554776e+002, 4.576084e+001
5.559597e+002, 4.601119e+001
5.564418e+002, 4.603028e+001
5.569240e+002, 4.573256e+001
5.574061e+002, 4.537720e+001
5.578882e+002, 4.527256e+001
5.583703e+002, 4.542938e+001
5.588524e+002, 4.554436e+001
5.593345e+002, 4.565825e+001
5.598167e+002, 4.566052e+001
5.602988e+002, 4.541539e+001
5.607809e+002, 4.509634e+001
5.612630e+002, 4.491956e+001
5.617451e+002, 4.494653e+001
5.622272e+002, 4.504145e+001
5.627094e+002, 4.512174e+001
5.631915e+002, 4.517665e+001
5.636736e+002, 4.514596e+001
5.641557e+002, 4.500014e+001
5.646378e+002, 4.489526e+001
5.651199e+002, 4.502668e+001
5.656021e+002, 4.528624e+001
5.660842e+002, 4.521765e+001
5.665663e+002, 4.451274e+001
5.670484e+002, 4.392223e+001
5.675305e+002, 4.377310e+001
5.680126e+002, 4.384594e+001
5.684948e+002, 4.386017e+001
5.689769e+002, 4.377147e+001
5.694590e+002, 4.372659e+001
5.699411e+002, 4.388923e+001
5.704232e+002, 4.423787e+001
5.709053e+002, 4.434172e+001
5.713875e+002, 4.396902e+001
5.718696e+002, 4.365538e+001
5.723517e+002, 4.345790e+001
5.728338e+002, 4.336758e+001
5.733159e+002, 4.339954e+001
5.737980e+002, 4.354264e+001
5.742802e+002, 4.371949e+001
5.747623e+002, 4.394840e+001
5.752444e+002, 4.416624e+001
5.757265e+002, 4.402013e+001
5.762086e+002, 4.338247e+001
5.766907e+002, 4.292745e+001
5.771729e+002, 4.311877e+001
5.776550e+002, 4.360472e+001
5.781371e+002, 4.380156e+001
5.786192e+002, 4.364297e+001
5.791013e+002, 4.345254e+001
5.795834e+002, 4.334200e+001
5.800656e+002, 4.326929e+001
5.805477e+002, 4.313599e+001
5.810298e+002, 4.296726e+001
5.815119e+002, 4.297723e+001
5.819940e+002, 4.334618e+001
5.824761e+002, 4.390697e+001
5.829583e+002, 4.408547e+001
5.834404e+002, 4.353811e+001
5.839225e+002, 4.311686e+001
5.844046e+002, 4.282185e+001
5.848867e+002, 4.265900e+001
5.853688e+002, 4.269714e+001
5.858510e+002, 4.287630e+001
5.863331e+002, 4.304110e+001
5.868152e+002, 4.310136e+001
5.872973e+002, 4.307299e+001
5.877794e+002, 4.296064e+001
5.882615e+002, 4.274025e+001
5.887437e+002, 4.260762e+001
5.892258e+002, 4.267809e+001
5.897079e+002, 4.277617e+001
5.901900e+002, 4.272341e+001
5.906721e+002, 4.254358e+001
5.911542e+002, 4.238887e+001
5.916364e+002, 4.230495e+001
5.921185e+002, 4.226533e+001
5.926006e+002, 4.226257e+001
5.930827e+002, 4.228760e+001
5.935648e+002, 4.233481e+001
5.940469e+002, 4.240850e+001
5.945291e+002, 4.243414e+001
5.950112e+002, 4.228287e+001
5.954933e+002, 4.187285e+001
5.959754e+002, 4.166465e+001
5.964575e+002, 4.179160e+001
5.969396e+002, 4.194074e+001
5.974218e+002, 4.198130e+001
5.979039e+002, 4.198320e+001
5.983860e+002, 4.207529e+001
5.988681e+002, 4.229774e+001
5.993502e+002, 4.253202e+001
5.998323e+002, 4.264616e+001
6.003145e+002, 4.264177e+001
6.007966e+002, 4.253634e+001
6.012787e+002, 4.226933e+001
6.017608e+002, 4.203109e+001
6.022429e+002, 4.193808e+001
6.027250e+002, 4.194201e+001
6.032072e+002, 4.199659e+001
6.036893e+002, 4.213263e+001
6.041714e+002, 4.221033e+001
6.046535e+002, 4.207235e+001
6.051356e+002, 4.187072e+001
6.056177e+002, 4.188161e+001
6.060999e+002, 4.211025e+001
6.065820e+002, 4.226326e+001
6.070641e+002, 4.210122e+001
6.075462e+002, 4.172461e+001
6.080283e+002, 4.159264e+001
6.085104e+002, 4.199889e+001
6.089926e+002, 4.223505e+001
6.094747e+002, 4.214555e+001
6.099568e+002, 4.198870e+001
6.104389e+002, 4.189919e+001
6.109210e+002, 4.190760e+001
6.114031e+002, 4.204256e+001
6.118853e+002, 4.237228e+001
6.123674e+002, 4.275677e+001
6.128495e+002, 4.285842e+001
6.133316e+002, 4.264642e+001
6.138137e+002, 4.253711e+001
6.142958e+002, 4.271375e+001
6.147780e+002, 4.291674e+001
6.152601e+002, 4.279498e+001
6.157422e+002, 4.242269e+001
6.162243e+002, 4.227927e+001
6.167064e+002, 4.264257e+001
6.171885e+002, 4.308355e+001
6.176707e+002, 4.333101e+001
6.181528e+002, 4.345629e+001
6.186349e+002, 4.360090e+001
6.191170e+002, 4.380906e+001
6.195991e+002, 4.407036e+001
6.200812e+002, 4.437600e+001
6.205634e+002, 4.472944e+001
6.210455e+002, 4.509102e+001
6.215276e+002, 4.546503e+001
6.220097e+002, 4.584299e+001
6.224918e+002, 4.621067e+001
6.229739e+002, 4.658684e+001
6.234561e+002, 4.697783e+001
6.239382e+002, 4.738738e+001
6.244203e+002, 4.784666e+001
6.249023e+002, 4.846422e+001
6.253845e+002, 4.913731e+001
6.258666e+002, 4.946394e+001
6.263487e+002, 4.938375e+001
6.268308e+002, 4.965855e+001
6.273129e+002, 5.083318e+001
6.277950e+002, 5.237718e+001
6.282772e+002, 5.324567e+001
6.287593e+002, 5.332509e+001
6.292414e+002, 5.344073e+001
6.297235e+002, 5.370576e+001
6.302056e+002, 5.405187e+001
6.306877e+002, 5.447968e+001
6.311699e+002, 5.494699e+001
6.316520e+002, 5.541999e+001
6.321341e+002, 5.588190e+001
6.326162e+002, 5.620525e+001
6.330983e+002, 5.609075e+001
6.335804e+002, 5.539727e+001
6.340626e+002, 5.500069e+001
6.345447e+002, 5.512200e+001
6.350268e+002, 5.527595e+001
6.355089e+002, 5.535336e+001
6.359910e+002, 5.529225e+001
6.364731e+002, 5.492422e+001
6.369553e+002, 5.411992e+001
6.374374e+002, 5.342577e+001
6.379195e+002, 5.342724e+001
6.384016e+002, 5.375030e+001
6.388837e+002, 5.364005e+001
6.393658e+002, 5.302293e+001
6.398480e+002, 5.234172e+001
6.403301e+002, 5.186485e+001
6.408122e+002, 5.155782e+001
6.412943e+002, 5.130199e+001
6.417764e+002, 5.102614e+001
6.422585e+002, 5.092037e+001
6.427407e+002, 5.124793e+001
6.432228e+002, 5.151119e+001
6.437049e+002, 5.134508e+001
6.441870e+002, 5.084844e+001
6.446691e+002, 5.032018e+001
6.451512e+002, 4.990900e+001
6.456334e+002, 4.958509e+001
6.461155e+002, 4.931433e+001
6.465976e+002, 4.909661e+001
6.470797e+002, 4.889065e+001
6.475618e+002, 4.868074e+001
6.480439e+002, 4.850437e+001
6.485261e+002, 4.838749e+001
6.490082e+002, 4.832885e+001
6.494903e+002, 4.833794e+001
6.499724e+002, 4.854156e+001
6.504545e+002, 4.861805e+001
6.509366e+002, 4.828501e+001
6.514188e+002, 4.784188e+001
6.519009e+002, 4.769007e+001
6.523830e+002, 4.783781e+001
6.528651e+002, 4.798951e+001
6.533472e+002, 4.792390e+001
6.538293e+002, 4.769788e+001
6.543115e+002, 4.751539e+001
6.547936e+002, 4.737049e+001
6.552757e+002, 4.728447e+001
6.557578e+002, 4.730290e+001
6.562399e+002, 4.734624e+001
6.567220e+002, 4.738138e+001
6.572042e+002, 4.740635e+001
6.576863e+002, 4.742901e+001
6.581684e+002, 4.748351e+001
6.586505e+002, 4.748716e+001
6.591326e+002, 4.731917e+001
6.596147e+002, 4.703936e+001
6.600969e+002, 4.683147e+001
6.605790e+002, 4.673825e+001
6.610611e+002, 4.661811e+001
6.615432e+002, 4.632344e+001
6.620253e+002, 4.588177e+001
6.625074e+002, 4.559526e+001
6.629896e+002, 4.574791e+001
6.634717e+002, 4.567822e+001
6.639538e+002, 4.505507e+001
6.644359e+002, 4.439873e+001
6.649180e+002, 4.415803e+001
6.654001e+002, 4.429077e+001
6.658823e+002, 4.445726e+001
6.663644e+002, 4.446599e+001
6.668465e+002, 4.435886e+001
6.673286e+002, 4.419610e+001
6.678107e+002, 4.397887e+001
6.682928e+002, 4.373537e+001
6.687750e+002, 4.344812e+001
6.692571e+002, 4.319582e+001
6.697392e+002, 4.306941e+001
6.702213e+002, 4.305815e+001
6.707034e+002, 4.303127e+001
6.711855e+002, 4.300810e+001
6.716677e+002, 4.294234e+001
6.721498e+002, 4.278875e+001
6.726319e+002, 4.260339e+001
6.731140e+002, 4.240472e+001
6.735961e+002, 4.222490e+001
6.740782e+002, 4.216563e+001
6.745604e+002, 4.232745e+001
6.750425e+002, 4.262815e+001
6.755246e+002, 4.279650e+001
6.760067e+002, 4.280808e+001
6.764888e+002, 4.279281e+001
6.769709e+002, 4.274526e+001
6.774531e+002, 4.271306e+001
6.779352e+002, 4.276146e+001
6.784173e+002, 4.286019e+001
6.788994e+002, 4.289960e+001
6.793815e+002, 4.286974e+001
6.798636e+002, 4.275631e+001
6.803458e+002, 4.244682e+001
6.808279e+002, 4.208847e+001
6.813100e+002, 4.191073e+001
6.817921e+002, 4.195099e+001
6.822742e+002, 4.211841e+001
6.827563e+002, 4.234867e+001
6.832385e+002, 4.263354e+001
6.837206e+002, 4.294290e+001
6.842027e+002, 4.331792e+001
6.846848e+002, 4.362512e+001
6.851669e+002, 4.377875e+001
6.856490e+002, 4.391682e+001
6.861312e+002, 4.415210e+001
6.866133e+002, 4.443927e+001
6.870954e+002, 4.462389e+001
6.875775e+002, 4.457114e+001
6.880596e+002, 4.453411e+001
6.885417e+002, 4.473647e+001
6.890239e+002, 4.512540e+001
6.895060e+002, 4.559852e+001
6.899881e+002, 4.613762e+001
6.904702e+002, 4.669584e+001
6.909523e+002, 4.723485e+001
6.914344e+002, 4.776861e+001
6.919166e+002, 4.837853e+001
6.923987e+002, 4.908416e+001
6.928808e+002, 4.984123e+001
6.933629e+002, 5.064544e+001
6.938450e+002, 5.149357e+001
6.943271e+002, 5.246663e+001
6.948093e+002, 5.348146e+001
6.952914e+002, 5.433393e+001
6.957735e+002, 5.491784e+001
6.962556e+002, 5.536316e+001
6.967377e+002, 5.569919e+001
6.972198e+002, 5.600977e+001
6.977020e+002, 5.665822e+001
6.981841e+002, 5.771491e+001
6.986662e+002, 5.882585e+001
6.991483e+002, 5.977805e+001
6.996304e+002, 6.057158e+001
7.001125e+002, 6.119137e+001
7.005947e+002, 6.158990e+001
7.010768e+002, 6.187492e+001
7.015589e+002, 6.199107e+001
7.020410e+002, 6.204750e+001
7.025231e+002, 6.224148e+001
7.030052e+002, 6.240825e+001
7.034874e+002, 6.213546e+001
7.039695e+002, 6.121148e+001
7.044516e+002, 6.014366e+001
7.049337e+002, 5.967052e+001
7.054158e+002, 5.963277e+001
7.058979e+002, 5.919949e+001
7.063801e+002, 5.824887e+001
7.068622e+002, 5.722438e+001
7.073442e+002, 5.637159e+001
7.078264e+002, 5.561975e+001
7.083085e+002, 5.476835e+001
7.087906e+002, 5.370338e+001
7.092727e+002, 5.283222e+001
7.097548e+002, 5.236715e+001
7.102369e+002, 5.191560e+001
7.107191e+002, 5.123711e+001
7.112012e+002, 5.040944e+001
7.116833e+002, 4.956683e+001
7.121654e+002, 4.875805e+001
7.126475e+002, 4.806031e+001
7.131296e+002, 4.758134e+001
7.136118e+002, 4.729416e+001
7.140939e+002, 4.705942e+001
7.145760e+002, 4.688927e+001
7.150581e+002, 4.667981e+001
7.155402e+002, 4.638009e+001
7.160223e+002, 4.602293e+001
7.165045e+002, 4.565408e+001
7.169866e+002, 4.527230e+001
7.174687e+002, 4.489484e+001
7.179508e+002, 4.451060e+001
7.184329e+002, 4.414583e+001
7.189150e+002, 4.379528e+001
7.193972e+002, 4.348035e+001
7.198793e+002, 4.322483e+001
7.203614e+002, 4.303680e+001
7.208435e+002, 4.291774e+001
7.213256e+002, 4.291858e+001
7.218077e+002, 4.297852e+001
7.222899e+002, 4.282747e+001
7.227720e+002, 4.243481e+001
7.232541e+002, 4.207531e+001
7.237362e+002, 4.183840e+001
7.242183e+002, 4.166629e+001
7.247004e+002, 4.149747e+001
7.251826e+002, 4.133129e+001
7.256647e+002, 4.119774e+001
7.261468e+002, 4.111324e+001
7.266289e+002, 4.104346e+001
7.271110e+002, 4.106966e+001
7.275931e+002, 4.104913e+001
7.280753e+002, 4.075603e+001
7.285574e+002, 4.021891e+001
7.290395e+002, 3.971794e+001
7.295216e+002, 3.946283e+001
7.300037e+002, 3.936860e+001
7.304858e+002, 3.920177e+001
7.309680e+002, 3.895317e+001
7.314501e+002, 3.896601e+001
7.319322e+002, 3.943790e+001
7.324143e+002, 3.987845e+001
7.328964e+002, 3.988425e+001
7.333785e+002, 3.950743e+001
7.338607e+002, 3.907964e+001
7.343428e+002, 3.836556e+001
7.348249e+002, 3.796634e+001
7.353070e+002, 3.830524e+001
7.357891e+002, 3.876190e+001
7.362712e+002, 3.877581e+001
7.367534e+002, 3.844964e+001
7.372355e+002, 3.822397e+001
7.377176e+002, 3.832334e+001
7.381997e+002, 3.853902e+001
7.386818e+002, 3.854195e+001
7.391639e+002, 3.836040e+001
7.396461e+002, 3.826555e+001
7.401282e+002, 3.828232e+001
7.406103e+002, 3.838547e+001
7.410924e+002, 3.864160e+001
7.415745e+002, 3.891802e+001
7.420566e+002, 3.884965e+001
7.425388e+002, 3.823170e+001
7.430209e+002, 3.799858e+001
7.435030e+002, 3.856933e+001
7.439851e+002, 3.918488e+001
7.444672e+002, 3.937945e+001
7.449493e+002, 3.937974e+001
7.454315e+002, 3.961035e+001
7.459136e+002, 4.016947e+001
7.463957e+002, 4.072901e+001
7.468778e+002, 4.093866e+001
7.473599e+002, 4.090560e+001
7.478420e+002, 4.095686e+001
7.483242e+002, 4.109489e+001
7.488063e+002, 4.123086e+001
7.492884e+002, 4.135643e+001
7.497705e+002, 4.141457e+001
7.502526e+002, 4.131455e+001
7.507347e+002, 4.104421e+001
7.512169e+002, 4.084861e+001
7.516990e+002, 4.079237e+001
7.521811e+002, 4.072062e+001
7.526632e+002, 4.061563e+001
7.531453e+002, 4.046870e+001
7.536274e+002, 4.027429e+001
7.541096e+002, 4.003198e+001
7.545917e+002, 3.973182e+001
7.550738e+002, 3.933973e+001
7.555559e+002, 3.894443e+001
7.560380e+002, 3.865482e+001
7.565201e+002, 3.846770e+001
7.570023e+002, 3.842756e+001
7.574844e+002, 3.855657e+001
7.579665e+002, 3.857633e+001
7.584486e+002, 3.824944e+001
7.589307e+002, 3.770327e+001
7.594128e+002, 3.736427e+001
7.598950e+002, 3.732253e+001
7.603771e+002, 3.732981e+001
7.608592e+002, 3.749788e+001
7.613413e+002, 3.759403e+001
7.618234e+002, 3.746016e+001
7.623055e+002, 3.719879e+001
7.627877e+002, 3.695140e+001
7.632698e+002, 3.675377e+001
7.637519e+002, 3.665605e+001
7.642340e+002, 3.681380e+001
7.647161e+002, 3.703330e+001
7.651982e+002, 3.695103e+001
7.656804e+002, 3.661536e+001
7.661625e+002, 3.638766e+001
7.666446e+002, 3.641529e+001
7.671267e+002, 3.647319e+001
7.676088e+002, 3.622714e+001
7.680909e+002, 3.565054e+001
7.685731e+002, 3.544296e+001
7.690552e+002, 3.594274e+001
7.695373e+002, 3.625674e+001
7.700194e+002, 3.597932e+001
7.705015e+002, 3.561827e+001
7.709836e+002, 3.565791e+001
7.714658e+002, 3.601081e+001
7.719479e+002, 3.612453e+001
7.724300e+002, 3.563767e+001
7.729121e+002, 3.508408e+001
7.733942e+002, 3.479110e+001
7.738763e+002, 3.469185e+001
7.743585e+002, 3.473509e+001
7.748406e+002, 3.488037e+001
7.753227e+002, 3.500817e+001
7.758048e+002, 3.504163e+001
7.762869e+002, 3.500068e+001
7.767690e+002, 3.492871e+001
7.772512e+002, 3.482432e+001
7.777333e+002, 3.469132e+001
7.782154e+002, 3.449248e+001
7.786975e+002, 3.433447e+001
7.791796e+002, 3.429318e+001
7.796617e+002, 3.432282e+001
7.801439e+002, 3.435884e+001
7.806260e+002, 3.441095e+001
7.811081e+002, 3.441197e+001
7.815902e+002, 3.429211e+001
7.820723e+002, 3.416944e+001
7.825544e+002, 3.408078e+001
7.830366e+002, 3.405532e+001
7.835187e+002, 3.418465e+001
7.840008e+002, 3.446332e+001
7.844829e+002, 3.468617e+001
7.849650e+002, 3.463686e+001
7.854471e+002, 3.440448e+001
7.859293e+002, 3.427005e+001
7.864114e+002, 3.423640e+001
7.868935e+002, 3.409762e+001
7.873756e+002, 3.373317e+001
7.878577e+002, 3.347313e+001
7.883398e+002, 3.369761e+001
7.888220e+002, 3.432434e+001
7.893040e+002, 3.464439e+001
7.897861e+002, 3.450736e+001
7.902682e+002, 3.429730e+001
7.907504e+002, 3.401223e+001
7.912325e+002, 3.369001e+001
7.917146e+002, 3.321915e+001
7.921967e+002, 3.275649e+001
7.926788e+002, 3.266522e+001
7.931609e+002, 3.311716e+001
7.936431e+002, 3.359360e+001
7.941252e+002, 3.356110e+001
7.946073e+002, 3.327589e+001
7.950894e+002, 3.323178e+001
7.955715e+002, 3.342186e+001
7.960536e+002, 3.359128e+001
7.965358e+002, 3.363429e+001
7.970179e+002, 3.362236e+001
7.975000e+002, 3.365770e+001
7.979821e+002, 3.374465e+001
7.984642e+002, 3.377187e+001
7.989464e+002, 3.372673e+001
7.994285e+002, 3.364481e+001
7.999106e+002, 3.347881e+001
8.003927e+002, 3.332338e+001
8.008748e+002, 3.326783e+001
8.013569e+002, 3.329285e+001
8.018391e+002, 3.329691e+001
8.023212e+002, 3.325335e+001
8.028033e+002, 3.318449e+001
8.032854e+002, 3.307651e+001
8.037675e+002, 3.296616e+001
8.042496e+002, 3.287969e+001
8.047318e+002, 3.283212e+001
8.052139e+002, 3.287295e+001
8.056960e+002, 3.303579e+001
8.061781e+002, 3.320750e+001
8.066602e+002, 3.314959e+001
8.071423e+002, 3.289075e+001
8.076245e+002, 3.287154e+001
8.081066e+002, 3.316467e+001
8.085887e+002, 3.342065e+001
8.090708e+002, 3.350323e+001
8.095529e+002, 3.344163e+001
8.100350e+002, 3.323026e+001
8.105172e+002, 3.281483e+001
8.109993e+002, 3.262692e+001
8.114814e+002, 3.286871e+001
8.119635e+002, 3.307741e+001
8.124456e+002, 3.309624e+001
8.129277e+002, 3.304863e+001
8.134099e+002, 3.306128e+001
8.138920e+002, 3.312773e+001
8.143741e+002, 3.315789e+001
8.148562e+002, 3.311501e+001
8.153383e+002, 3.300205e+001
8.158204e+002, 3.276571e+001
8.163026e+002, 3.247627e+001
8.167847e+002, 3.226310e+001
8.172668e+002, 3.215159e+001
8.177489e+002, 3.220889e+001
8.182310e+002, 3.249082e+001
8.187131e+002, 3.285885e+001
8.191953e+002, 3.302818e+001
8.196774e+002, 3.295339e+001
8.201595e+002, 3.298113e+001
8.206416e+002, 3.322271e+001
8.211237e+002, 3.335471e+001
8.216058e+002, 3.317394e+001
8.220880e+002, 3.288020e+001
8.225701e+002, 3.262652e+001
8.230522e+002, 3.242307e+001
8.235343e+002, 3.246837e+001
8.240164e+002, 3.311436e+001
8.244985e+002, 3.364204e+001
8.249807e+002, 3.366287e+001
8.254628e+002, 3.345240e+001
8.259449e+002, 3.323755e+001
8.264270e+002, 3.309597e+001
8.269091e+002, 3.313495e+001
8.273912e+002, 3.345222e+001
8.278734e+002, 3.379665e+001
8.283555e+002, 3.372995e+001
8.288376e+002, 3.337490e+001
8.293197e+002, 3.323148e+001
8.298018e+002, 3.334379e+001
8.302839e+002, 3.367604e+001
8.307661e+002, 3.427698e+001
8.312482e+002, 3.489278e+001
8.317303e+002, 3.509703e+001
8.322124e+002, 3.483705e+001
8.326945e+002, 3.453459e+001
8.331766e+002, 3.394965e+001
8.336588e+002, 3.368074e+001
8.341409e+002, 3.419268e+001
8.346230e+002, 3.478924e+001
8.351051e+002, 3.484159e+001
8.355872e+002, 3.443231e+001
8.360693e+002, 3.413109e+001
8.365515e+002, 3.415331e+001
8.370336e+002, 3.424604e+001
8.375157e+002, 3.431242e+001
8.379978e+002, 3.434825e+001
8.384799e+002, 3.437686e+001
8.389620e+002, 3.437175e+001
8.394442e+002, 3.421881e+001
8.399263e+002, 3.386305e+001
8.404084e+002, 3.349930e+001
8.408905e+002, 3.340133e+001
8.413726e+002, 3.353589e+001
8.418547e+002, 3.378172e+001
8.423369e+002, 3.415544e+001
8.428190e+002, 3.427151e+001
8.433011e+002, 3.390813e+001
8.437832e+002, 3.347134e+001
8.442653e+002, 3.345432e+001
8.447474e+002, 3.384424e+001
8.452296e+002, 3.410167e+001
8.457117e+002, 3.428330e+001
8.461938e+002, 3.423751e+001
8.466759e+002, 3.362630e+001
8.471580e+002, 3.309787e+001
8.476401e+002, 3.314330e+001
8.481223e+002, 3.356856e+001
8.486044e+002, 3.391921e+001
8.490865e+002, 3.409599e+001
8.495686e+002, 3.412196e+001
8.500507e+002, 3.391250e+001
8.505328e+002, 3.363622e+001
8.510150e+002, 3.343074e+001
8.514971e+002, 3.330636e+001
8.519792e+002, 3.328947e+001
8.524613e+002, 3.337262e+001
8.529434e+002, 3.342272e+001
8.534255e+002, 3.325648e+001
8.539077e+002, 3.300286e+001
8.543898e+002, 3.314424e+001
8.548719e+002, 3.368036e+001
8.553540e+002, 3.401667e+001
8.558361e+002, 3.399976e+001
8.563182e+002, 3.393037e+001
8.568004e+002, 3.407361e+001
8.572825e+002, 3.430290e+001
8.577646e+002, 3.418528e+001
8.582467e+002, 3.340095e+001
8.587288e+002, 3.296691e+001
8.592109e+002, 3.311061e+001
8.596931e+002, 3.332790e+001
8.601752e+002, 3.352660e+001
8.606573e+002, 3.365514e+001
8.611394e+002, 3.364360e+001
8.616215e+002, 3.349038e+001
8.621036e+002, 3.330547e+001
8.625858e+002, 3.304121e+001
8.630679e+002, 3.285683e+001
8.635500e+002, 3.289260e+001
8.640321e+002, 3.305961e+001
8.645142e+002, 3.328329e+001
8.649963e+002, 3.351763e+001
8.654785e+002, 3.365391e+001
8.659606e+002, 3.362112e+001
8.664427e+002, 3.352538e+001
8.669248e+002, 3.355684e+001
8.674069e+002, 3.367646e+001
8.678890e+002, 3.367071e+001
8.683712e+002, 3.352507e+001
8.688533e+002, 3.330523e+001
8.693354e+002, 3.301333e+001
8.698175e+002, 3.274074e+001
8.702996e+002, 3.260816e+001
8.707817e+002, 3.261560e+001
8.712639e+002, 3.271907e+001
8.717459e+002, 3.306872e+001
8.722280e+002, 3.324955e+001
8.727101e+002, 3.308531e+001
8.731923e+002, 3.283115e+001
8.736744e+002, 3.256263e+001
8.741565e+002, 3.233082e+001
8.746386e+002, 3.226693e+001
8.751207e+002, 3.247088e+001
8.756028e+002, 3.260213e+001
8.760850e+002, 3.244974e+001
8.765671e+002, 3.227101e+001
8.770492e+002, 3.224503e+001
8.775313e+002, 3.233235e+001
8.780134e+002, 3.245675e+001
8.784955e+002, 3.259348e+001
8.789777e+002, 3.274117e+001
8.794598e+002, 3.292166e+001
8.799419e+002, 3.308510e+001
8.804240e+002, 3.309234e+001
8.809061e+002, 3.300935e+001
8.813882e+002, 3.313868e+001
8.818704e+002, 3.351007e+001
8.823525e+002, 3.378188e+001
8.828346e+002, 3.373857e+001
8.833167e+002, 3.345596e+001
8.837988e+002, 3.300112e+001
8.842809e+002, 3.227607e+001
8.847631e+002, 3.218452e+001
8.852452e+002, 3.306903e+001
8.857273e+002, 3.373604e+001
8.862094e+002, 3.368455e+001
8.866915e+002, 3.332931e+001
8.871736e+002, 3.308269e+001
8.876558e+002, 3.294233e+001
8.881379e+002, 3.285481e+001
8.886200e+002, 3.283411e+001
8.891021e+002, 3.284430e+001
8.895842e+002, 3.283752e+001
8.900663e+002, 3.289882e+001
8.905485e+002, 3.317120e+001
8.910306e+002, 3.353265e+001
8.915127e+002, 3.372897e+001
8.919948e+002, 3.368629e+001
8.924769e+002, 3.361911e+001
8.929590e+002, 3.371436e+001
8.934412e+002, 3.381157e+001
8.939233e+002, 3.370298e+001
8.944054e+002, 3.347296e+001
8.948875e+002, 3.329344e+001
8.953696e+002, 3.320611e+001
8.958517e+002, 3.319190e+001
8.963339e+002, 3.325542e+001
8.968160e+002, 3.331990e+001
8.972981e+002, 3.316696e+001
8.977802e+002, 3.283518e+001
8.982623e+002, 3.273976e+001
8.987444e+002, 3.293606e+001
8.992266e+002, 3.315329e+001
8.997087e+002, 3.327641e+001
9.001908e+002, 3.331568e+001
9.006729e+002, 3.325386e+001
9.011550e+002, 3.307587e+001
9.016371e+002, 3.316657e+001
9.021193e+002, 3.386148e+001
9.026014e+002, 3.419614e+001
9.030835e+002, 3.361943e+001
9.035656e+002, 3.299328e+001
9.040477e+002, 3.297686e+001
9.045298e+002, 3.335253e+001
9.050120e+002, 3.355139e+001
9.054941e+002, 3.344902e+001
9.059762e+002, 3.335540e+001
9.064583e+002, 3.332850e+001
9.069404e+002, 3.334961e+001
9.074225e+002, 3.348770e+001
9.079047e+002, 3.362558e+001
9.083868e+002, 3.356780e+001
9.088689e+002, 3.331678e+001
9.093510e+002, 3.309958e+001
9.098331e+002, 3.303821e+001
9.103152e+002, 3.308644e+001
9.107974e+002, 3.320628e+001
9.112795e+002, 3.339836e+001
9.117616e+002, 3.377017e+001
9.122437e+002, 3.424008e+001
9.127258e+002, 3.439526e+001
9.132079e+002, 3.403894e+001
9.136901e+002, 3.356876e+001
9.141722e+002, 3.356315e+001
9.146543e+002, 3.391947e+001
9.151364e+002, 3.399596e+001
9.156185e+002, 3.377851e+001
9.161006e+002, 3.372045e+001
9.165828e+002, 3.397311e+001
9.170649e+002, 3.423338e+001
9.175470e+002, 3.424451e+001
9.180291e+002, 3.407190e+001
9.185112e+002, 3.396162e+001
9.189933e+002, 3.397989e+001
9.194755e+002, 3.387831e+001
9.199576e+002, 3.346663e+001
9.204397e+002, 3.320969e+001
9.209218e+002, 3.346206e+001
9.214039e+002, 3.385022e+001
9.218860e+002, 3.392272e+001
9.223682e+002, 3.369250e+001
9.228503e+002, 3.361916e+001
9.233324e+002, 3.391471e+001
9.238145e+002, 3.417260e+001
9.242966e+002, 3.430084e+001
9.247787e+002, 3.432970e+001
9.252609e+002, 3.414661e+001
9.257430e+002, 3.391938e+001
9.262251e+002, 3.404335e+001
9.267072e+002, 3.464650e+001
9.271893e+002, 3.514614e+001
9.276714e+002, 3.505488e+001
9.281536e+002, 3.476497e+001
9.286357e+002, 3.462972e+001
9.291178e+002, 3.461113e+001
9.295999e+002, 3.468065e+001
9.300820e+002, 3.478303e+001
9.305641e+002, 3.467975e+001
9.310463e+002, 3.417731e+001
9.315284e+002, 3.363647e+001
9.320105e+002, 3.373622e+001
9.324926e+002, 3.429642e+001
9.329747e+002, 3.455211e+001
9.334568e+002, 3.447729e+001
9.339390e+002, 3.436135e+001
9.344211e+002, 3.430404e+001
9.349032e+002, 3.431932e+001
9.353853e+002, 3.443357e+001
9.358674e+002, 3.462727e+001
9.363495e+002, 3.479924e+001
9.368317e+002, 3.497164e+001
9.373138e+002, 3.501152e+001
9.377959e+002, 3.484282e+001
9.382780e+002, 3.467976e+001
9.387601e+002, 3.467035e+001
9.392422e+002, 3.470997e+001
9.397244e+002, 3.456523e+001
9.402065e+002, 3.414879e+001
9.406886e+002, 3.406384e+001
9.411707e+002, 3.466031e+001
9.416528e+002, 3.509639e+001
9.421349e+002, 3.514899e+001
9.426171e+002, 3.504698e+001
9.430992e+002, 3.489886e+001
9.435813e+002, 3.474113e+001
9.440634e+002, 3.463109e+001
9.445455e+002, 3.457251e+001
9.450276e+002, 3.459029e+001
9.455098e+002, 3.474360e+001
9.459919e+002, 3.492313e+001
9.464740e+002, 3.507376e+001
9.469561e+002, 3.519547e+001
9.474382e+002, 3.527781e+001
9.479203e+002, 3.533279e+001
9.484025e+002, 3.541557e+001
9.488846e+002, 3.556842e+001
9.493667e+002, 3.572585e+001
9.498488e+002, 3.583532e+001
9.503309e+002, 3.590387e+001
9.508130e+002, 3.592753e+001
9.512952e+002, 3.592113e+001
9.517773e+002, 3.592862e+001
9.522594e+002, 3.596379e+001
9.527415e+002, 3.600155e+001
9.532236e+002, 3.601827e+001
9.537057e+002, 3.602008e+001
9.541878e+002, 3.602607e+001
9.546699e+002, 3.603268e+001
9.551520e+002, 3.600656e+001
9.556342e+002, 3.594324e+001
9.561163e+002, 3.591148e+001
9.565984e+002, 3.595702e+001
9.570805e+002, 3.599684e+001
9.575626e+002, 3.584713e+001
9.580447e+002, 3.551744e+001
9.585269e+002, 3.566628e+001
9.590090e+002, 3.647572e+001
9.594911e+002, 3.697273e+001
9.599732e+002, 3.688533e+001
9.604553e+002, 3.657262e+001
9.609374e+002, 3.621324e+001
9.614196e+002, 3.587956e+001
9.619017e+002, 3.578611e+001
9.623838e+002, 3.601027e+001
9.628659e+002, 3.623621e+001
9.633480e+002, 3.651169e+001
9.638301e+002, 3.672132e+001
9.643123e+002, 3.682972e+001
9.647944e+002, 3.686524e+001
9.652765e+002, 3.685584e+001
9.657586e+002, 3.679563e+001
9.662407e+002, 3.664476e+001
9.667228e+002, 3.628122e+001
9.672050e+002, 3.606483e+001
9.676871e+002, 3.622585e+001
9.681692e+002, 3.638803e+001
9.686513e+002, 3.628267e+001
9.691334e+002, 3.607866e+001
9.696155e+002, 3.600853e+001
9.700977e+002, 3.609566e+001
9.705798e+002, 3.622434e+001
9.710619e+002, 3.638005e+001
9.715440e+002, 3.650636e+001
9.720261e+002, 3.654044e+001
9.725082e+002, 3.654889e+001
9.729904e+002, 3.662071e+001
9.734725e+002, 3.672257e+001
9.739546e+002, 3.678015e+001
9.744367e+002, 3.676649e+001
9.749188e+002, 3.666601e+001
9.754009e+002, 3.640415e+001
9.758831e+002, 3.611710e+001
9.763652e+002, 3.596325e+001
9.768473e+002, 3.593133e+001
9.773294e+002, 3.603211e+001
9.778115e+002, 3.623815e+001
9.782936e+002, 3.643567e+001
9.787758e+002, 3.657148e+001
9.792579e+002, 3.667938e+001
9.797400e+002, 3.682895e+001
9.802221e+002, 3.697573e+001
9.807042e+002, 3.693909e+001
9.811863e+002, 3.674152e+001
9.816685e+002, 3.655123e+001
9.821506e+002, 3.640252e+001
9.826327e+002, 3.629493e+001
9.831148e+002, 3.622803e+001
9.835969e+002, 3.620710e+001
9.840790e+002, 3.624977e+001
9.845612e+002, 3.635648e+001
9.850433e+002, 3.648260e+001
9.855254e+002, 3.665226e+001
9.860075e+002, 3.666767e+001
9.864896e+002, 3.642028e+001
9.869717e+002, 3.620122e+001
9.874539e+002, 3.629704e+001
9.879360e+002, 3.655387e+001
9.884181e+002, 3.643822e+001
9.889002e+002, 3.571249e+001
9.893823e+002, 3.548475e+001
9.898644e+002, 3.603544e+001
9.903466e+002, 3.654613e+001
9.908287e+002, 3.677031e+001
9.913108e+002, 3.684829e+001
9.917929e+002, 3.692272e+001
9.922750e+002, 3.697311e+001
9.927571e+002, 3.686759e+001
9.932393e+002, 3.641665e+001
9.937214e+002, 3.615297e+001
9.942035e+002, 3.608299e+001
9.946856e+002, 3.620191e+001
9.951677e+002, 3.675604e+001
9.956498e+002, 3.732649e+001
9.961320e+002, 3.739545e+001
9.966141e+002, 3.701577e+001
9.970962e+002, 3.674133e+001
9.975783e+002, 3.668433e+001
9.980604e+002, 3.672498e+001
9.985425e+002, 3.689962e+001
9.990247e+002, 3.709362e+001
9.995068e+002, 3.730975e+001
9.999889e+002, 3.745849e+001
1.000471e+003, 3.733590e+001
1.000953e+003, 3.696821e+001
1.001435e+003, 3.678799e+001
1.001917e+003, 3.712792e+001
1.002399e+003, 3.746095e+001
1.002882e+003, 3.745453e+001
1.003364e+003, 3.735044e+001
1.003846e+003, 3.731637e+001
1.004328e+003, 3.738332e+001
1.004810e+003, 3.764121e+001
1.005292e+003, 3.807105e+001
1.005774e+003, 3.832236e+001
1.006256e+003, 3.803753e+001
1.006739e+003, 3.766844e+001
1.007221e+003, 3.773215e+001
1.007703e+003, 3.792035e+001
1.008185e+003, 3.770769e+001
1.008667e+003, 3.721968e+001
1.009149e+003, 3.693984e+001
1.009631e+003, 3.703468e+001
1.010113e+003, 3.730176e+001
1.010595e+003, 3.767812e+001
1.011078e+003, 3.799649e+001
1.011560e+003, 3.788942e+001
1.012042e+003, 3.755864e+001
1.012524e+003, 3.751044e+001
1.013006e+003, 3.774265e+001
1.013488e+003, 3.792089e+001
1.013970e+003, 3.789986e+001
1.014452e+003, 3.782172e+001
1.014935e+003, 3.785608e+001
1.015417e+003, 3.794375e+001
1.015899e+003, 3.787937e+001
1.016381e+003, 3.772449e+001
1.016863e+003, 3.784839e+001
1.017345e+003, 3.826704e+001
1.017827e+003, 3.849500e+001
1.018309e+003, 3.827161e+001
1.018791e+003, 3.794796e+001
1.019274e+003, 3.804758e+001
1.019756e+003, 3.845383e+001
1.020238e+003, 3.857689e+001
1.020720e+003, 3.842733e+001
1.021202e+003, 3.828795e+001
1.021684e+003, 3.820731e+001
1.022166e+003, 3.814980e+001
1.022648e+003, 3.810212e+001
1.023130e+003, 3.802781e+001
1.023613e+003, 3.784557e+001
1.024095e+003, 3.756868e+001
1.024577e+003, 3.743574e+001
1.025059e+003, 3.746029e+001
1.025541e+003, 3.752021e+001
1.026023e+003, 3.759791e+001
1.026505e+003, 3.769465e+001
1.026987e+003, 3.782738e+001
1.027469e+003, 3.794402e+001
1.027952e+003, 3.794244e+001
1.028434e+003, 3.781769e+001
1.028916e+003, 3.769909e+001
1.029398e+003, 3.761312e+001
1.029880e+003, 3.742135e+001
1.030362e+003, 3.703184e+001
1.030844e+003, 3.667942e+001
1.031326e+003, 3.648474e+001
1.031809e+003, 3.646674e+001
1.032291e+003, 3.669878e+001
1.032773e+003, 3.723129e+001
1.033255e+003, 3.758880e+001
1.033737e+003, 3.774861e+001
1.034219e+003, 3.777514e+001
1.034701e+003, 3.759642e+001
1.035183e+003, 3.741823e+001
1.035666e+003, 3.742638e+001
1.036148e+003, 3.749492e+001
1.036630e+003, 3.729482e+001
1.037112e+003, 3.668852e+001
1.037594e+003, 3.659808e+001
1.038076e+003, 3.750481e+001
1.038558e+003, 3.815253e+001
1.039040e+003, 3.814994e+001
1.039522e+003, 3.801777e+001
1.040005e+003, 3.805516e+001
1.040487e+003, 3.820691e+001
1.040969e+003, 3.837834e+001
1.041451e+003, 3.859605e+001
1.041933e+003, 3.869475e+001
1.042415e+003, 3.847628e+001
1.042897e+003, 3.841362e+001
1.043379e+003, 3.875629e+001
1.043861e+003, 3.911890e+001
1.044344e+003, 3.922010e+001
1.044826e+003, 3.917611e+001
1.045308e+003, 3.919710e+001
1.045790e+003, 3.928567e+001
1.046272e+003, 3.951862e+001
1.046754e+003, 4.015338e+001
1.047236e+003, 4.058946e+001
1.047718e+003, 4.044896e+001
1.048201e+003, 4.028790e+001
1.048683e+003, 4.057117e+001
1.049165e+003, 4.107850e+001
1.049647e+003, 4.137024e+001
1.050129e+003, 4.138076e+001
1.050611e+003, 4.136343e+001
1.051093e+003, 4.125242e+001
1.051575e+003, 4.127421e+001
1.052057e+003, 4.156741e+001
1.052540e+003, 4.194748e+001
1.053022e+003, 4.244693e+001
1.053504e+003, 4.287117e+001
1.053986e+003, 4.277983e+001
1.054468e+003, 4.209362e+001
1.054950e+003, 4.170647e+001
1.055432e+003, 4.221991e+001
1.055914e+003, 4.257314e+001
1.056396e+003, 4.213217e+001
1.056879e+003, 4.166331e+001
1.057361e+003, 4.188739e+001
1.057843e+003, 4.243477e+001
1.058325e+003, 4.258299e+001
1.058807e+003, 4.222762e+001
1.059289e+003, 4.190346e+001
1.059771e+003, 4.189274e+001
1.060253e+003, 4.179649e+001
1.060736e+003, 4.137428e+001
1.061218e+003, 4.089649e+001
1.061700e+003, 4.047037e+001
1.062182e+003, 4.017680e+001
1.062664e+003, 4.024681e+001
1.063146e+003, 4.065922e+001
1.063628e+003, 4.074336e+001
1.064110e+003, 3.994241e+001
1.064593e+003, 3.921558e+001
1.065075e+003, 3.901831e+001
1.065557e+003, 3.898312e+001
1.066039e+003, 3.886860e+001
1.066521e+003, 3.870537e+001
1.067003e+003, 3.857398e+001
1.067485e+003, 3.848555e+001
1.067967e+003, 3.840733e+001
1.068449e+003, 3.837899e+001
1.068932e+003, 3.826785e+001
1.069414e+003, 3.790062e+001
1.069896e+003, 3.754370e+001
1.070378e+003, 3.736572e+001
1.070860e+003, 3.734333e+001
1.071342e+003, 3.748733e+001
1.071824e+003, 3.774961e+001
1.072306e+003, 3.790251e+001
1.072788e+003, 3.781525e+001
1.073271e+003, 3.771608e+001
1.073753e+003, 3.764280e+001
1.074235e+003, 3.766733e+001
1.074717e+003, 3.803009e+001
1.075199e+003, 3.840474e+001
1.075681e+003, 3.825613e+001
1.076163e+003, 3.766774e+001
1.076645e+003, 3.729971e+001
1.077127e+003, 3.744215e+001
1.077610e+003, 3.761173e+001
1.078092e+003, 3.753298e+001
1.078574e+003, 3.746130e+001
1.079056e+003, 3.763307e+001
1.079538e+003, 3.786664e+001
1.080020e+003, 3.787752e+001
1.080502e+003, 3.773570e+001
1.080984e+003, 3.778729e+001
1.081467e+003, 3.818347e+001
1.081949e+003, 3.854777e+001
1.082431e+003, 3.866282e+001
1.082913e+003, 3.875283e+001
1.083395e+003, 3.905712e+001
1.083877e+003, 3.932745e+001
1.084359e+003, 3.916272e+001
1.084841e+003, 3.874802e+001
1.085323e+003, 3.869471e+001
1.085806e+003, 3.921844e+001
1.086288e+003, 3.952284e+001
1.086770e+003, 3.911357e+001
1.087252e+003, 3.859672e+001
1.087734e+003, 3.819262e+001
1.088216e+003, 3.790401e+001
1.088698e+003, 3.775982e+001
1.089180e+003, 3.771486e+001
1.089662e+003, 3.769588e+001
1.090145e+003, 3.768739e+001
1.090627e+003, 3.766614e+001
1.091109e+003, 3.769386e+001
1.091591e+003, 3.761335e+001
1.092073e+003, 3.733226e+001
1.092555e+003, 3.694171e+001
1.093037e+003, 3.631553e+001
1.093519e+003, 3.572581e+001
1.094002e+003, 3.570874e+001
1.094484e+003, 3.628531e+001
1.094966e+003, 3.667957e+001
1.095448e+003, 3.657007e+001
1.095930e+003, 3.635641e+001
1.096412e+003, 3.605970e+001
1.096894e+003, 3.581698e+001
1.097376e+003, 3.577314e+001
1.097859e+003, 3.579866e+001
1.098341e+003, 3.572587e+001
1.098823e+003, 3.554506e+001
1.099305e+003, 3.531723e+001
1.099787e+003, 3.495247e+001
1.100269e+003, 3.475995e+001
1.100751e+003, 3.496865e+001
1.101233e+003, 3.519082e+001
1.101715e+003, 3.525454e+001
1.102198e+003, 3.522196e+001
1.102680e+003, 3.512902e+001
1.103162e+003, 3.500560e+001
1.103644e+003, 3.494542e+001
1.104126e+003, 3.500771e+001
1.104608e+003, 3.498617e+001
1.105090e+003, 3.483674e+001
1.105572e+003, 3.460823e+001
1.106054e+003, 3.408221e+001
1.106537e+003, 3.369830e+001
1.107019e+003, 3.402813e+001
1.107501e+003, 3.472485e+001
1.107983e+003, 3.488357e+001
1.108465e+003, 3.431842e+001
1.108947e+003, 3.391578e+001
1.109429e+003, 3.374722e+001
1.109911e+003, 3.375467e+001
1.110394e+003, 3.411105e+001
1.110876e+003, 3.444638e+001
1.111358e+003, 3.458457e+001
1.111840e+003, 3.453903e+001
1.112322e+003, 3.425129e+001
1.112804e+003, 3.369742e+001
1.113286e+003, 3.343395e+001
1.113768e+003, 3.365283e+001
1.114250e+003, 3.384644e+001
1.114733e+003, 3.399932e+001
1.115215e+003, 3.409768e+001
1.115697e+003, 3.411865e+001
1.116179e+003, 3.409588e+001
1.116661e+003, 3.403127e+001
1.117143e+003, 3.394851e+001
1.117625e+003, 3.404335e+001
1.118107e+003, 3.453375e+001
1.118589e+003, 3.466911e+001
1.119072e+003, 3.428753e+001
1.119554e+003, 3.384858e+001
1.120036e+003, 3.340585e+001
1.120518e+003, 3.310128e+001
1.121000e+003, 3.308640e+001
1.121482e+003, 3.328093e+001
1.121964e+003, 3.346322e+001
1.122446e+003, 3.365039e+001
1.122929e+003, 3.370140e+001
1.123411e+003, 3.355408e+001
1.123893e+003, 3.350723e+001
1.124375e+003, 3.369472e+001
1.124857e+003, 3.375054e+001
1.125339e+003, 3.336836e+001
1.125821e+003, 3.287907e+001
1.126303e+003, 3.288144e+001
1.126786e+003, 3.334274e+001
1.127268e+003, 3.367672e+001
1.127750e+003, 3.388060e+001
1.128232e+003, 3.393596e+001
1.128714e+003, 3.381103e+001
1.129196e+003, 3.377809e+001
1.129678e+003, 3.398282e+001
1.130160e+003, 3.419417e+001
1.130642e+003, 3.413767e+001
1.131125e+003, 3.389242e+001
1.131607e+003, 3.373738e+001
1.132089e+003, 3.366628e+001
1.132571e+003, 3.355139e+001
1.133053e+003, 3.338737e+001
1.133535e+003, 3.331183e+001
1.134017e+003, 3.336627e+001
1.134499e+003, 3.332033e+001
1.134981e+003, 3.296819e+001
1.135464e+003, 3.255178e+001
1.135946e+003, 3.258591e+001
1.136428e+003, 3.292276e+001
1.136910e+003, 3.297737e+001
1.137392e+003, 3.279386e+001
1.137874e+003, 3.259169e+001
1.138356e+003, 3.243034e+001
1.138838e+003, 3.239624e+001
1.139321e+003, 3.253385e+001
1.139803e+003, 3.272230e+001
1.140285e+003, 3.290691e+001
1.140767e+003, 3.297713e+001
1.141249e+003, 3.256485e+001
1.141731e+003, 3.194910e+001
1.142213e+003, 3.177170e+001
1.142695e+003, 3.199488e+001
1.143177e+003, 3.229500e+001
1.143660e+003, 3.254098e+001
1.144142e+003, 3.263044e+001
1.144624e+003, 3.245658e+001
1.145106e+003, 3.218102e+001
1.145588e+003, 3.183078e+001
1.146070e+003, 3.159160e+001
1.146552e+003, 3.186901e+001
1.147034e+003, 3.235901e+001
1.147516e+003, 3.245877e+001
1.147999e+003, 3.215358e+001
1.148481e+003, 3.187037e+001
1.148963e+003, 3.178353e+001
1.149445e+003, 3.176888e+001
1.149927e+003, 3.175265e+001
1.150409e+003, 3.177533e+001
1.150891e+003, 3.187733e+001
1.151373e+003, 3.202406e+001
1.151856e+003, 3.223074e+001
1.152338e+003, 3.243473e+001
1.152820e+003, 3.249462e+001
1.153302e+003, 3.238158e+001
1.153784e+003, 3.227797e+001
1.154266e+003, 3.222520e+001
1.154748e+003, 3.221908e+001
1.155230e+003, 3.238345e+001
1.155713e+003, 3.245678e+001
1.156195e+003, 3.208139e+001
1.156677e+003, 3.164638e+001
1.157159e+003, 3.174419e+001
1.157641e+003, 3.230782e+001
1.158123e+003, 3.264286e+001
1.158605e+003, 3.257113e+001
1.159087e+003, 3.251858e+001
1.159569e+003, 3.259233e+001
1.160052e+003, 3.257491e+001
1.160534e+003, 3.231026e+001
1.161016e+003, 3.204519e+001
1.161498e+003, 3.194913e+001
1.161980e+003, 3.198849e+001
1.162462e+003, 3.210322e+001
1.162944e+003, 3.230329e+001
1.163426e+003, 3.247883e+001
1.163908e+003, 3.264895e+001
1.164391e+003, 3.272927e+001
1.164873e+003, 3.268255e+001
1.165355e+003, 3.261996e+001
1.165837e+003, 3.259248e+001
1.166319e+003, 3.257220e+001
1.166801e+003, 3.251813e+001
1.167283e+003, 3.245165e+001
1.167765e+003, 3.248200e+001
1.168247e+003, 3.261534e+001
1.168730e+003, 3.259816e+001
1.169212e+003, 3.240993e+001
1.169694e+003, 3.251532e+001
1.170176e+003, 3.304940e+001
1.170658e+003, 3.349198e+001
1.171140e+003, 3.347900e+001
1.171622e+003, 3.321241e+001
1.172104e+003, 3.293061e+001
1.172587e+003, 3.269278e+001
1.173069e+003, 3.277896e+001
1.173551e+003, 3.308254e+001
1.174033e+003, 3.320913e+001
1.174515e+003, 3.312270e+001
1.174997e+003, 3.289532e+001
1.175479e+003, 3.257527e+001
1.175961e+003, 3.240271e+001
1.176443e+003, 3.265080e+001
1.176926e+003, 3.296884e+001
1.177408e+003, 3.285679e+001
1.177890e+003, 3.258389e+001
1.178372e+003, 3.256325e+001
1.178854e+003, 3.268402e+001
1.179336e+003, 3.262720e+001
1.179818e+003, 3.241446e+001
1.180300e+003, 3.239926e+001
1.180782e+003, 3.275827e+001
1.181265e+003, 3.307015e+001
1.181747e+003, 3.305732e+001
1.182229e+003, 3.293870e+001
1.182711e+003, 3.281483e+001
1.183193e+003, 3.269085e+001
1.183675e+003, 3.256640e+001
1.184157e+003, 3.244316e+001
1.184639e+003, 3.228705e+001
1.185122e+003, 3.210544e+001
1.185604e+003, 3.208353e+001
1.186086e+003, 3.230564e+001
1.186568e+003, 3.262035e+001
1.187050e+003, 3.327790e+001
1.187532e+003, 3.368064e+001
1.188014e+003, 3.329366e+001
1.188496e+003, 3.278632e+001
1.188979e+003, 3.280238e+001
1.189461e+003, 3.317788e+001
1.189943e+003, 3.344856e+001
1.190425e+003, 3.360107e+001
1.190907e+003, 3.373841e+001
1.191389e+003, 3.392815e+001
1.191871e+003, 3.388733e+001
1.192353e+003, 3.348925e+001
1.192835e+003, 3.308061e+001
1.193318e+003, 3.279871e+001
1.193800e+003, 3.270855e+001
1.194282e+003, 3.294447e+001
1.194764e+003, 3.337519e+001
1.195246e+003, 3.345610e+001
1.195728e+003, 3.320153e+001
1.196210e+003, 3.292436e+001
1.196692e+003, 3.265271e+001
1.197174e+003, 3.265676e+001
1.197657e+003, 3.298862e+001
1.198139e+003, 3.332981e+001
1.198621e+003, 3.348634e+001
1.199103e+003, 3.350534e+001
1.199585e+003, 3.343064e+001
1.200067e+003, 3.327664e+001
1.200549e+003, 3.298188e+001
1.201031e+003, 3.266655e+001
1.201514e+003, 3.265043e+001
1.201996e+003, 3.285752e+001
1.202478e+003, 3.295440e+001
1.202960e+003, 3.287125e+001
1.203442e+003, 3.284304e+001
1.203924e+003, 3.302275e+001
1.204406e+003, 3.324837e+001
1.204888e+003, 3.341611e+001
1.205370e+003, 3.355843e+001
1.205853e+003, 3.378811e+001
1.206335e+003, 3.394198e+001
1.206817e+003, 3.372102e+001
1.207299e+003, 3.327814e+001
1.207781e+003, 3.303457e+001
1.208263e+003, 3.307728e+001
1.208745e+003, 3.324197e+001
1.209227e+003, 3.377041e+001
1.209709e+003, 3.399490e+001
1.210192e+003, 3.343642e+001
1.210674e+003, 3.294793e+001
1.211156e+003, 3.306388e+001
1.211638e+003, 3.335756e+001
1.212120e+003, 3.338424e+001
1.212602e+003, 3.323699e+001
1.213084e+003, 3.330291e+001
1.213566e+003, 3.369550e+001
1.214049e+003, 3.366722e+001
1.214531e+003, 3.303145e+001
1.215013e+003, 3.276923e+001
1.215495e+003, 3.315709e+001
1.215977e+003, 3.345451e+001
1.216459e+003, 3.323843e+001
1.216941e+003, 3.292573e+001
1.217423e+003, 3.305865e+001
1.217906e+003, 3.344580e+001
1.218388e+003, 3.346386e+001
1.218870e+003, 3.319309e+001
1.219352e+003, 3.298395e+001
1.219834e+003, 3.287801e+001
1.220316e+003, 3.305235e+001
1.220798e+003, 3.347401e+001
1.221280e+003, 3.366087e+001
1.221762e+003, 3.334410e+001
1.222245e+003, 3.295014e+001
1.222727e+003, 3.288321e+001
1.223209e+003, 3.299031e+001
1.223691e+003, 3.320891e+001
1.224173e+003, 3.340843e+001
1.224655e+003, 3.338168e+001
1.225137e+003, 3.321348e+001
1.225619e+003, 3.303961e+001
1.226101e+003, 3.291924e+001
1.226584e+003, 3.299223e+001
1.227066e+003, 3.340902e+001
1.227548e+003, 3.371883e+001
1.228030e+003, 3.367954e+001
1.228512e+003, 3.361776e+001
1.228994e+003, 3.365908e+001
1.229476e+003, 3.374208e+001
1.229958e+003, 3.380544e+001
1.230441e+003, 3.388281e+001
1.230923e+003, 3.407979e+001
1.231405e+003, 3.438694e+001
1.231887e+003, 3.444779e+001
1.232369e+003, 3.418354e+001
1.232851e+003, 3.389053e+001
1.233333e+003, 3.352520e+001
1.233815e+003, 3.334594e+001
1.234297e+003, 3.346455e+001
1.234780e+003, 3.364504e+001
1.235262e+003, 3.373179e+001
1.235744e+003, 3.371289e+001
1.236226e+003, 3.351569e+001
1.236708e+003, 3.322206e+001
1.237190e+003, 3.318200e+001
1.237672e+003, 3.335803e+001
1.238154e+003, 3.369442e+001
1.238636e+003, 3.409299e+001
1.239119e+003, 3.409179e+001
1.239601e+003, 3.362602e+001
1.240083e+003, 3.326670e+001
1.240565e+003, 3.339194e+001
1.241047e+003, 3.365526e+001
1.241529e+003, 3.377262e+001
1.242011e+003, 3.381576e+001
1.242493e+003, 3.383878e+001
1.242975e+003, 3.384447e+001
1.243458e+003, 3.378051e+001
1.243940e+003, 3.371946e+001
1.244422e+003, 3.385469e+001
1.244904e+003, 3.419331e+001
1.245386e+003, 3.439688e+001
1.245868e+003, 3.426677e+001
1.246350e+003, 3.420170e+001
1.246832e+003, 3.436348e+001
1.247315e+003, 3.447079e+001
1.247797e+003, 3.437644e+001
1.248279e+003, 3.425529e+001
1.248761e+003, 3.418695e+001
1.249243e+003, 3.421926e+001
1.249725e+003, 3.450079e+001
1.250207e+003, 3.499492e+001
1.250689e+003, 3.502851e+001
1.251172e+003, 3.454844e+001
1.251654e+003, 3.417609e+001
1.252136e+003, 3.395918e+001
1.252618e+003, 3.375774e+001
1.253100e+003, 3.353048e+001
1.253582e+003, 3.351461e+001
1.254064e+003, 3.389342e+001
1.254546e+003, 3.434584e+001
1.255028e+003, 3.437431e+001
1.255510e+003, 3.420503e+001
1.255993e+003, 3.428115e+001
1.256475e+003, 3.446502e+001
1.256957e+003, 3.449763e+001
1.257439e+003, 3.440886e+001
1.257921e+003, 3.431607e+001
1.258403e+003, 3.425769e+001
1.258885e+003, 3.425999e+001
1.259367e+003, 3.435135e+001
1.259850e+003, 3.443897e+001
1.260332e+003, 3.456300e+001
1.260814e+003, 3.456371e+001
1.261296e+003, 3.416270e+001
1.261778e+003, 3.381547e+001
1.262260e+003, 3.400462e+001
1.262742e+003, 3.439788e+001
1.263224e+003, 3.439310e+001
1.263707e+003, 3.405849e+001
1.264189e+003, 3.401007e+001
1.264671e+003, 3.437125e+001
1.265153e+003, 3.459771e+001
1.265635e+003, 3.466636e+001
1.266117e+003, 3.467497e+001
1.266599e+003, 3.463306e+001
1.267081e+003, 3.462368e+001
1.267563e+003, 3.469774e+001
1.268046e+003, 3.478559e+001
1.268528e+003, 3.481215e+001
1.269010e+003, 3.477770e+001
1.269492e+003, 3.460899e+001
1.269974e+003, 3.441180e+001
1.270456e+003, 3.454264e+001
1.270938e+003, 3.485846e+001
1.271420e+003, 3.489116e+001
1.271902e+003, 3.465227e+001
1.272385e+003, 3.454168e+001
1.272867e+003, 3.471265e+001
1.273349e+003, 3.489003e+001
1.273831e+003, 3.488606e+001
1.274313e+003, 3.488050e+001
1.274795e+003, 3.502639e+001
1.275277e+003, 3.513023e+001
1.275759e+003, 3.504346e+001
1.276242e+003, 3.486073e+001
1.276724e+003, 3.461243e+001
1.277206e+003, 3.437812e+001
1.277688e+003, 3.441399e+001
1.278170e+003, 3.476584e+001
1.278652e+003, 3.495040e+001
1.279134e+003, 3.489901e+001
1.279616e+003, 3.494973e+001
1.280099e+003, 3.517462e+001
1.280581e+003, 3.528093e+001
1.281063e+003, 3.514654e+001
1.281545e+003, 3.502678e+001
1.282027e+003, 3.513721e+001
1.282509e+003, 3.530178e+001
1.282991e+003, 3.517388e+001
1.283473e+003, 3.490055e+001
1.283955e+003, 3.480418e+001
##END=



