##NAMES=Fluorcalciomicrolite
##RRUFFID=R120127
##IDEAL CHEMISTRY=(Ca,Na)_2_Ta^5+^_2_O_6_F
##LOCALITY=Volta Grande pegmatites (Volta Grande mine), Nazareno, Minas Gerais, Brazil
##OWNER=RRUFF
##SOURCE=Marcelo Barbosa de Andrade
##DESCRIPTION=Colorless octahedra
##STATUS=The identification of this mineral is confirmed by single-crystal X-ray diffraction and chemical analysis.
##URL=rruff.info/R120127
##MEASURED CHEMISTRY=(Ca_1.05_Na_0.83_)(Ta_1.83_Nb_0.14_Sn_0.03_)O_6_[F_0.83_(OH)_0.07_]
8.936163e+001, 0.000000e+000
8.984375e+001, 1.592026e+002
9.032587e+001, 1.603647e+002
9.080798e+001, 1.606447e+002
9.129010e+001, 1.598813e+002
9.177222e+001, 1.584164e+002
9.225433e+001, 1.564347e+002
9.273645e+001, 1.539752e+002
9.321857e+001, 1.515430e+002
9.370068e+001, 1.497178e+002
9.418280e+001, 1.483108e+002
9.466492e+001, 1.467139e+002
9.514703e+001, 1.444520e+002
9.562915e+001, 1.419176e+002
9.611127e+001, 1.403034e+002
9.659338e+001, 1.397476e+002
9.707550e+001, 1.394725e+002
9.755762e+001, 1.384337e+002
9.803973e+001, 1.366092e+002
9.852185e+001, 1.349468e+002
9.900397e+001, 1.339508e+002
9.948608e+001, 1.336377e+002
9.996820e+001, 1.330187e+002
1.004503e+002, 1.320237e+002
1.009324e+002, 1.307885e+002
1.014146e+002, 1.296219e+002
1.018967e+002, 1.285895e+002
1.023788e+002, 1.274095e+002
1.028609e+002, 1.257839e+002
1.033430e+002, 1.234122e+002
1.038251e+002, 1.216608e+002
1.043073e+002, 1.209269e+002
1.047894e+002, 1.209396e+002
1.052715e+002, 1.202258e+002
1.057536e+002, 1.182251e+002
1.062357e+002, 1.161083e+002
1.067178e+002, 1.146866e+002
1.072000e+002, 1.145149e+002
1.076821e+002, 1.142564e+002
1.081642e+002, 1.137989e+002
1.086463e+002, 1.131484e+002
1.091284e+002, 1.122100e+002
1.096105e+002, 1.105331e+002
1.100927e+002, 1.087612e+002
1.105748e+002, 1.075103e+002
1.110569e+002, 1.074179e+002
1.115390e+002, 1.072555e+002
1.120211e+002, 1.066193e+002
1.125032e+002, 1.052302e+002
1.129854e+002, 1.043540e+002
1.134675e+002, 1.047660e+002
1.139496e+002, 1.056807e+002
1.144317e+002, 1.059646e+002
1.149138e+002, 1.053238e+002
1.153959e+002, 1.040133e+002
1.158781e+002, 1.019610e+002
1.163602e+002, 9.848923e+001
1.168423e+002, 9.562430e+001
1.173244e+002, 9.437327e+001
1.178065e+002, 9.428568e+001
1.182886e+002, 9.421507e+001
1.187708e+002, 9.377335e+001
1.192529e+002, 9.310754e+001
1.197350e+002, 9.232028e+001
1.202171e+002, 9.132755e+001
1.206992e+002, 9.034828e+001
1.211813e+002, 8.955955e+001
1.216635e+002, 8.892935e+001
1.221456e+002, 8.830175e+001
1.226277e+002, 8.758794e+001
1.231098e+002, 8.681680e+001
1.235919e+002, 8.602877e+001
1.240740e+002, 8.533485e+001
1.245562e+002, 8.456788e+001
1.250383e+002, 8.342545e+001
1.255204e+002, 8.190564e+001
1.260025e+002, 8.052194e+001
1.264846e+002, 7.987638e+001
1.269667e+002, 7.973283e+001
1.274489e+002, 7.950098e+001
1.279310e+002, 7.872159e+001
1.284131e+002, 7.771461e+001
1.288952e+002, 7.719295e+001
1.293773e+002, 7.725176e+001
1.298594e+002, 7.741893e+001
1.303416e+002, 7.706148e+001
1.308237e+002, 7.624395e+001
1.313058e+002, 7.541290e+001
1.317879e+002, 7.482277e+001
1.322700e+002, 7.442715e+001
1.327521e+002, 7.400708e+001
1.332343e+002, 7.354816e+001
1.337164e+002, 7.305189e+001
1.341985e+002, 7.246355e+001
1.346806e+002, 7.177235e+001
1.351627e+002, 7.112945e+001
1.356448e+002, 7.068304e+001
1.361270e+002, 7.043498e+001
1.366091e+002, 7.010232e+001
1.370912e+002, 6.962796e+001
1.375733e+002, 6.905876e+001
1.380554e+002, 6.853939e+001
1.385375e+002, 6.810081e+001
1.390197e+002, 6.761666e+001
1.395018e+002, 6.696441e+001
1.399839e+002, 6.611535e+001
1.404660e+002, 6.523453e+001
1.409481e+002, 6.427013e+001
1.414302e+002, 6.325732e+001
1.419124e+002, 6.263438e+001
1.423945e+002, 6.255420e+001
1.428766e+002, 6.265360e+001
1.433587e+002, 6.259653e+001
1.438408e+002, 6.238319e+001
1.443229e+002, 6.198972e+001
1.448051e+002, 6.121552e+001
1.452872e+002, 5.987964e+001
1.457693e+002, 5.952318e+001
1.462514e+002, 6.050629e+001
1.467335e+002, 6.223119e+001
1.472156e+002, 6.407388e+001
1.476978e+002, 6.719314e+001
1.481799e+002, 6.896538e+001
1.486620e+002, 6.844371e+001
1.491441e+002, 6.452275e+001
1.496262e+002, 6.130785e+001
1.501083e+002, 5.896512e+001
1.505905e+002, 5.734115e+001
1.510726e+002, 5.617486e+001
1.515547e+002, 5.550647e+001
1.520368e+002, 5.526666e+001
1.525189e+002, 5.553772e+001
1.530010e+002, 5.702806e+001
1.534832e+002, 5.778298e+001
1.539653e+002, 5.718362e+001
1.544474e+002, 5.573614e+001
1.549295e+002, 5.465570e+001
1.554116e+002, 5.433714e+001
1.558937e+002, 5.423995e+001
1.563759e+002, 5.413202e+001
1.568580e+002, 5.399535e+001
1.573401e+002, 5.382675e+001
1.578222e+002, 5.352962e+001
1.583043e+002, 5.317221e+001
1.587864e+002, 5.300593e+001
1.592686e+002, 5.323034e+001
1.597507e+002, 5.359066e+001
1.602328e+002, 5.392358e+001
1.607149e+002, 5.407169e+001
1.611970e+002, 5.430718e+001
1.616791e+002, 5.462829e+001
1.621613e+002, 5.506191e+001
1.626434e+002, 5.582272e+001
1.631255e+002, 5.723133e+001
1.636076e+002, 5.890257e+001
1.640897e+002, 6.049331e+001
1.645718e+002, 6.164524e+001
1.650540e+002, 6.289588e+001
1.655361e+002, 6.449186e+001
1.660182e+002, 6.644093e+001
1.665003e+002, 6.864012e+001
1.669824e+002, 7.113010e+001
1.674645e+002, 7.384164e+001
1.679467e+002, 7.665259e+001
1.684288e+002, 7.901997e+001
1.689109e+002, 8.183535e+001
1.693930e+002, 8.589282e+001
1.698751e+002, 9.127364e+001
1.703572e+002, 9.700449e+001
1.708394e+002, 1.023321e+002
1.713215e+002, 1.076348e+002
1.718036e+002, 1.134611e+002
1.722857e+002, 1.206850e+002
1.727678e+002, 1.282754e+002
1.732499e+002, 1.350397e+002
1.737321e+002, 1.408413e+002
1.742142e+002, 1.466872e+002
1.746963e+002, 1.538290e+002
1.751784e+002, 1.618191e+002
1.756605e+002, 1.696300e+002
1.761426e+002, 1.765987e+002
1.766248e+002, 1.830571e+002
1.771069e+002, 1.893985e+002
1.775890e+002, 1.956897e+002
1.780711e+002, 2.018381e+002
1.785532e+002, 2.077523e+002
1.790353e+002, 2.134911e+002
1.795175e+002, 2.190347e+002
1.799996e+002, 2.243883e+002
1.804817e+002, 2.295670e+002
1.809638e+002, 2.347718e+002
1.814459e+002, 2.401230e+002
1.819280e+002, 2.452692e+002
1.824102e+002, 2.495599e+002
1.828923e+002, 2.530855e+002
1.833744e+002, 2.569373e+002
1.838565e+002, 2.617227e+002
1.843386e+002, 2.673487e+002
1.848207e+002, 2.734598e+002
1.853029e+002, 2.801843e+002
1.857850e+002, 2.871558e+002
1.862671e+002, 2.938788e+002
1.867492e+002, 3.003417e+002
1.872313e+002, 3.069081e+002
1.877134e+002, 3.137051e+002
1.881956e+002, 3.208180e+002
1.886777e+002, 3.283257e+002
1.891598e+002, 3.363485e+002
1.896419e+002, 3.447716e+002
1.901240e+002, 3.535550e+002
1.906061e+002, 3.628363e+002
1.910883e+002, 3.719420e+002
1.915704e+002, 3.803394e+002
1.920525e+002, 3.881703e+002
1.925346e+002, 3.961190e+002
1.930167e+002, 4.043617e+002
1.934988e+002, 4.124731e+002
1.939810e+002, 4.185013e+002
1.944631e+002, 4.220113e+002
1.949452e+002, 4.251862e+002
1.954273e+002, 4.281573e+002
1.959094e+002, 4.309257e+002
1.963915e+002, 4.333149e+002
1.968737e+002, 4.353953e+002
1.973558e+002, 4.370631e+002
1.978379e+002, 4.377369e+002
1.983200e+002, 4.372578e+002
1.988021e+002, 4.365950e+002
1.992842e+002, 4.368070e+002
1.997664e+002, 4.379763e+002
2.002485e+002, 4.385424e+002
2.007306e+002, 4.380517e+002
2.012127e+002, 4.367264e+002
2.016948e+002, 4.357295e+002
2.021769e+002, 4.351135e+002
2.026591e+002, 4.346707e+002
2.031412e+002, 4.343597e+002
2.036233e+002, 4.342729e+002
2.041054e+002, 4.336313e+002
2.045875e+002, 4.319693e+002
2.050696e+002, 4.294842e+002
2.055518e+002, 4.281244e+002
2.060339e+002, 4.281435e+002
2.065160e+002, 4.286575e+002
2.069981e+002, 4.288204e+002
2.074802e+002, 4.286104e+002
2.079623e+002, 4.281502e+002
2.084445e+002, 4.274925e+002
2.089266e+002, 4.266243e+002
2.094087e+002, 4.252836e+002
2.098908e+002, 4.232617e+002
2.103729e+002, 4.211216e+002
2.108550e+002, 4.195707e+002
2.113372e+002, 4.188657e+002
2.118193e+002, 4.178621e+002
2.123014e+002, 4.161031e+002
2.127835e+002, 4.135998e+002
2.132656e+002, 4.117563e+002
2.137477e+002, 4.106918e+002
2.142299e+002, 4.100955e+002
2.147120e+002, 4.096664e+002
2.151941e+002, 4.094694e+002
2.156762e+002, 4.092163e+002
2.161583e+002, 4.087120e+002
2.166404e+002, 4.079115e+002
2.171226e+002, 4.077762e+002
2.176047e+002, 4.086708e+002
2.180868e+002, 4.097899e+002
2.185689e+002, 4.101146e+002
2.190510e+002, 4.093117e+002
2.195331e+002, 4.085044e+002
2.200153e+002, 4.079569e+002
2.204974e+002, 4.076887e+002
2.209795e+002, 4.074710e+002
2.214616e+002, 4.072400e+002
2.219437e+002, 4.071346e+002
2.224258e+002, 4.074027e+002
2.229080e+002, 4.083414e+002
2.233901e+002, 4.090232e+002
2.238722e+002, 4.091445e+002
2.243543e+002, 4.086406e+002
2.248364e+002, 4.081415e+002
2.253185e+002, 4.075208e+002
2.258007e+002, 4.070128e+002
2.262828e+002, 4.069438e+002
2.267649e+002, 4.074977e+002
2.272470e+002, 4.080948e+002
2.277291e+002, 4.085248e+002
2.282112e+002, 4.087304e+002
2.286934e+002, 4.092086e+002
2.291755e+002, 4.100229e+002
2.296576e+002, 4.110443e+002
2.301397e+002, 4.121270e+002
2.306218e+002, 4.134164e+002
2.311039e+002, 4.145317e+002
2.315861e+002, 4.153357e+002
2.320682e+002, 4.157982e+002
2.325503e+002, 4.162808e+002
2.330324e+002, 4.166825e+002
2.335145e+002, 4.172042e+002
2.339966e+002, 4.180923e+002
2.344788e+002, 4.193265e+002
2.349609e+002, 4.209937e+002
2.354430e+002, 4.233343e+002
2.359251e+002, 4.265672e+002
2.364072e+002, 4.288912e+002
2.368893e+002, 4.298170e+002
2.373715e+002, 4.302349e+002
2.378536e+002, 4.312489e+002
2.383357e+002, 4.331237e+002
2.388178e+002, 4.351451e+002
2.392999e+002, 4.372501e+002
2.397820e+002, 4.394931e+002
2.402642e+002, 4.411692e+002
2.407463e+002, 4.419291e+002
2.412284e+002, 4.423988e+002
2.417105e+002, 4.433821e+002
2.421926e+002, 4.452307e+002
2.426747e+002, 4.469281e+002
2.431569e+002, 4.482033e+002
2.436390e+002, 4.490172e+002
2.441211e+002, 4.497352e+002
2.446032e+002, 4.503999e+002
2.450853e+002, 4.509370e+002
2.455674e+002, 4.512203e+002
2.460496e+002, 4.510331e+002
2.465317e+002, 4.510157e+002
2.470138e+002, 4.514164e+002
2.474959e+002, 4.523125e+002
2.479780e+002, 4.528138e+002
2.484601e+002, 4.527938e+002
2.489423e+002, 4.525317e+002
2.494244e+002, 4.523348e+002
2.499065e+002, 4.522803e+002
2.503886e+002, 4.521559e+002
2.508707e+002, 4.518412e+002
2.513528e+002, 4.513188e+002
2.518350e+002, 4.511831e+002
2.523171e+002, 4.516800e+002
2.527992e+002, 4.522958e+002
2.532813e+002, 4.524690e+002
2.537634e+002, 4.519528e+002
2.542455e+002, 4.515068e+002
2.547277e+002, 4.512650e+002
2.552098e+002, 4.512228e+002
2.556919e+002, 4.513079e+002
2.561740e+002, 4.515939e+002
2.566561e+002, 4.518970e+002
2.571382e+002, 4.519575e+002
2.576204e+002, 4.514772e+002
2.581025e+002, 4.514938e+002
2.585846e+002, 4.523990e+002
2.590667e+002, 4.541318e+002
2.595488e+002, 4.552762e+002
2.600309e+002, 4.556150e+002
2.605131e+002, 4.556591e+002
2.609952e+002, 4.557671e+002
2.614773e+002, 4.558115e+002
2.619594e+002, 4.563245e+002
2.624415e+002, 4.575630e+002
2.629236e+002, 4.594396e+002
2.634058e+002, 4.608238e+002
2.638879e+002, 4.614401e+002
2.643700e+002, 4.620667e+002
2.648521e+002, 4.634233e+002
2.653342e+002, 4.657595e+002
2.658163e+002, 4.679195e+002
2.662985e+002, 4.695753e+002
2.667806e+002, 4.708818e+002
2.672627e+002, 4.728237e+002
2.677448e+002, 4.755118e+002
2.682269e+002, 4.785707e+002
2.687090e+002, 4.818016e+002
2.691912e+002, 4.853219e+002
2.696733e+002, 4.885821e+002
2.701554e+002, 4.913649e+002
2.706375e+002, 4.938768e+002
2.711196e+002, 4.968835e+002
2.716017e+002, 5.004774e+002
2.720839e+002, 5.042838e+002
2.725660e+002, 5.079510e+002
2.730481e+002, 5.114445e+002
2.735302e+002, 5.151141e+002
2.740123e+002, 5.190079e+002
2.744944e+002, 5.231322e+002
2.749766e+002, 5.275175e+002
2.754587e+002, 5.321175e+002
2.759408e+002, 5.371353e+002
2.764229e+002, 5.428314e+002
2.769050e+002, 5.493375e+002
2.773871e+002, 5.552073e+002
2.778693e+002, 5.602421e+002
2.783514e+002, 5.647109e+002
2.788335e+002, 5.689730e+002
2.793156e+002, 5.729490e+002
2.797977e+002, 5.774355e+002
2.802798e+002, 5.833775e+002
2.807620e+002, 5.907391e+002
2.812441e+002, 5.966803e+002
2.817262e+002, 6.007365e+002
2.822083e+002, 6.039053e+002
2.826904e+002, 6.079505e+002
2.831725e+002, 6.129191e+002
2.836547e+002, 6.180145e+002
2.841368e+002, 6.229374e+002
2.846189e+002, 6.276462e+002
2.851010e+002, 6.321760e+002
2.855831e+002, 6.365273e+002
2.860652e+002, 6.406956e+002
2.865474e+002, 6.447023e+002
2.870295e+002, 6.485459e+002
2.875116e+002, 6.521258e+002
2.879937e+002, 6.551032e+002
2.884758e+002, 6.577032e+002
2.889579e+002, 6.611117e+002
2.894401e+002, 6.654495e+002
2.899222e+002, 6.701364e+002
2.904043e+002, 6.748066e+002
2.908864e+002, 6.793763e+002
2.913685e+002, 6.831349e+002
2.918506e+002, 6.853290e+002
2.923328e+002, 6.865561e+002
2.928149e+002, 6.885009e+002
2.932970e+002, 6.911996e+002
2.937791e+002, 6.942351e+002
2.942612e+002, 6.972600e+002
2.947433e+002, 7.002687e+002
2.952255e+002, 7.032036e+002
2.957076e+002, 7.060504e+002
2.961897e+002, 7.087894e+002
2.966718e+002, 7.115370e+002
2.971539e+002, 7.142681e+002
2.976360e+002, 7.163316e+002
2.981182e+002, 7.166750e+002
2.986003e+002, 7.158864e+002
2.990824e+002, 7.155004e+002
2.995645e+002, 7.162198e+002
3.000466e+002, 7.172172e+002
3.005287e+002, 7.174192e+002
3.010109e+002, 7.168611e+002
3.014930e+002, 7.157635e+002
3.019751e+002, 7.140341e+002
3.024572e+002, 7.119222e+002
3.029393e+002, 7.099803e+002
3.034214e+002, 7.085718e+002
3.039036e+002, 7.068806e+002
3.043857e+002, 7.040251e+002
3.048678e+002, 7.001501e+002
3.053499e+002, 6.956853e+002
3.058320e+002, 6.905901e+002
3.063141e+002, 6.852023e+002
3.067963e+002, 6.801766e+002
3.072784e+002, 6.758418e+002
3.077605e+002, 6.710453e+002
3.082426e+002, 6.643663e+002
3.087247e+002, 6.564238e+002
3.092068e+002, 6.487093e+002
3.096890e+002, 6.424852e+002
3.101711e+002, 6.365009e+002
3.106532e+002, 6.296943e+002
3.111353e+002, 6.218595e+002
3.116174e+002, 6.137306e+002
3.120995e+002, 6.053397e+002
3.125817e+002, 5.971150e+002
3.130638e+002, 5.896320e+002
3.135459e+002, 5.836484e+002
3.140280e+002, 5.780133e+002
3.145101e+002, 5.720380e+002
3.149922e+002, 5.656940e+002
3.154744e+002, 5.592382e+002
3.159565e+002, 5.524844e+002
3.164386e+002, 5.458359e+002
3.169207e+002, 5.398354e+002
3.174028e+002, 5.352704e+002
3.178849e+002, 5.307675e+002
3.183671e+002, 5.255974e+002
3.188492e+002, 5.197648e+002
3.193313e+002, 5.144238e+002
3.198134e+002, 5.097184e+002
3.202955e+002, 5.057583e+002
3.207776e+002, 5.026768e+002
3.212598e+002, 5.009238e+002
3.217419e+002, 4.995433e+002
3.222240e+002, 4.983119e+002
3.227061e+002, 4.972556e+002
3.231882e+002, 4.965430e+002
3.236703e+002, 4.957824e+002
3.241525e+002, 4.956564e+002
3.246346e+002, 4.965729e+002
3.251167e+002, 4.994525e+002
3.255988e+002, 5.021700e+002
3.260809e+002, 5.043698e+002
3.265630e+002, 5.062642e+002
3.270452e+002, 5.084403e+002
3.275273e+002, 5.105714e+002
3.280094e+002, 5.132859e+002
3.284915e+002, 5.168948e+002
3.289736e+002, 5.218140e+002
3.294557e+002, 5.266275e+002
3.299379e+002, 5.313937e+002
3.304200e+002, 5.360538e+002
3.309021e+002, 5.403754e+002
3.313842e+002, 5.435099e+002
3.318663e+002, 5.474802e+002
3.323484e+002, 5.532731e+002
3.328306e+002, 5.612787e+002
3.333127e+002, 5.677802e+002
3.337948e+002, 5.721813e+002
3.342769e+002, 5.756201e+002
3.347590e+002, 5.792946e+002
3.352411e+002, 5.834298e+002
3.357233e+002, 5.873839e+002
3.362054e+002, 5.910644e+002
3.366875e+002, 5.944921e+002
3.371696e+002, 5.975045e+002
3.376517e+002, 6.003153e+002
3.381339e+002, 6.023239e+002
3.386160e+002, 6.029567e+002
3.390981e+002, 6.021017e+002
3.395802e+002, 6.004550e+002
3.400623e+002, 5.980290e+002
3.405444e+002, 5.949009e+002
3.410266e+002, 5.916706e+002
3.415087e+002, 5.884581e+002
3.419908e+002, 5.843311e+002
3.424729e+002, 5.783747e+002
3.429550e+002, 5.706415e+002
3.434371e+002, 5.626913e+002
3.439193e+002, 5.546133e+002
3.444014e+002, 5.465480e+002
3.448835e+002, 5.390363e+002
3.453656e+002, 5.320750e+002
3.458477e+002, 5.250006e+002
3.463298e+002, 5.176093e+002
3.468120e+002, 5.098292e+002
3.472941e+002, 5.014310e+002
3.477762e+002, 4.921952e+002
3.482583e+002, 4.831236e+002
3.487404e+002, 4.755295e+002
3.492225e+002, 4.691564e+002
3.497047e+002, 4.628998e+002
3.501868e+002, 4.562536e+002
3.506689e+002, 4.495237e+002
3.511510e+002, 4.431457e+002
3.516331e+002, 4.371420e+002
3.521152e+002, 4.313524e+002
3.525974e+002, 4.255414e+002
3.530795e+002, 4.198582e+002
3.535616e+002, 4.146132e+002
3.540437e+002, 4.100680e+002
3.545258e+002, 4.057831e+002
3.550079e+002, 4.012915e+002
3.554901e+002, 3.966443e+002
3.559722e+002, 3.919843e+002
3.564543e+002, 3.871924e+002
3.569364e+002, 3.825443e+002
3.574185e+002, 3.782438e+002
3.579006e+002, 3.743173e+002
3.583828e+002, 3.708026e+002
3.588649e+002, 3.679740e+002
3.593470e+002, 3.655468e+002
3.598291e+002, 3.629189e+002
3.603112e+002, 3.595297e+002
3.607933e+002, 3.560859e+002
3.612755e+002, 3.529915e+002
3.617576e+002, 3.503205e+002
3.622397e+002, 3.477173e+002
3.627218e+002, 3.448656e+002
3.632039e+002, 3.420704e+002
3.636860e+002, 3.396732e+002
3.641682e+002, 3.383143e+002
3.646503e+002, 3.368108e+002
3.651324e+002, 3.346812e+002
3.656145e+002, 3.319372e+002
3.660966e+002, 3.294594e+002
3.665787e+002, 3.274623e+002
3.670609e+002, 3.257347e+002
3.675430e+002, 3.241414e+002
3.680251e+002, 3.230620e+002
3.685072e+002, 3.216417e+002
3.689893e+002, 3.195915e+002
3.694714e+002, 3.171349e+002
3.699536e+002, 3.150500e+002
3.704357e+002, 3.134263e+002
3.709178e+002, 3.120792e+002
3.713999e+002, 3.110133e+002
3.718820e+002, 3.104655e+002
3.723641e+002, 3.094854e+002
3.728463e+002, 3.074944e+002
3.733284e+002, 3.054597e+002
3.738105e+002, 3.051964e+002
3.742926e+002, 3.080196e+002
3.747747e+002, 3.095775e+002
3.752568e+002, 3.080313e+002
3.757390e+002, 3.033208e+002
3.762211e+002, 3.009605e+002
3.767032e+002, 3.016939e+002
3.771853e+002, 3.031714e+002
3.776674e+002, 3.030368e+002
3.781495e+002, 3.010932e+002
3.786317e+002, 2.992388e+002
3.791138e+002, 2.977938e+002
3.795959e+002, 2.966927e+002
3.800780e+002, 2.957396e+002
3.805601e+002, 2.949532e+002
3.810422e+002, 2.941841e+002
3.815244e+002, 2.932946e+002
3.820065e+002, 2.923185e+002
3.824886e+002, 2.915054e+002
3.829707e+002, 2.909154e+002
3.834528e+002, 2.903830e+002
3.839349e+002, 2.895905e+002
3.844171e+002, 2.885996e+002
3.848992e+002, 2.877439e+002
3.853813e+002, 2.872131e+002
3.858634e+002, 2.869020e+002
3.863455e+002, 2.866862e+002
3.868276e+002, 2.865697e+002
3.873098e+002, 2.863521e+002
3.877919e+002, 2.857169e+002
3.882740e+002, 2.848700e+002
3.887561e+002, 2.841949e+002
3.892382e+002, 2.839960e+002
3.897203e+002, 2.838284e+002
3.902025e+002, 2.831533e+002
3.906846e+002, 2.821123e+002
3.911667e+002, 2.813707e+002
3.916488e+002, 2.817814e+002
3.921309e+002, 2.823941e+002
3.926130e+002, 2.823682e+002
3.930952e+002, 2.813131e+002
3.935773e+002, 2.801181e+002
3.940594e+002, 2.789811e+002
3.945415e+002, 2.779854e+002
3.950236e+002, 2.772841e+002
3.955057e+002, 2.772531e+002
3.959879e+002, 2.772429e+002
3.964700e+002, 2.769370e+002
3.969521e+002, 2.762426e+002
3.974342e+002, 2.757359e+002
3.979163e+002, 2.755579e+002
3.983984e+002, 2.755839e+002
3.988806e+002, 2.756998e+002
3.993627e+002, 2.763201e+002
3.998448e+002, 2.765381e+002
4.003269e+002, 2.760323e+002
4.008090e+002, 2.749275e+002
4.012911e+002, 2.742109e+002
4.017733e+002, 2.741712e+002
4.022554e+002, 2.741690e+002
4.027375e+002, 2.738454e+002
4.032196e+002, 2.729954e+002
4.037017e+002, 2.723524e+002
4.041838e+002, 2.720183e+002
4.046660e+002, 2.718289e+002
4.051481e+002, 2.714663e+002
4.056302e+002, 2.708788e+002
4.061123e+002, 2.703077e+002
4.065944e+002, 2.698695e+002
4.070765e+002, 2.695502e+002
4.075587e+002, 2.690237e+002
4.080408e+002, 2.682045e+002
4.085229e+002, 2.674833e+002
4.090050e+002, 2.673824e+002
4.094871e+002, 2.678510e+002
4.099692e+002, 2.681942e+002
4.104514e+002, 2.683182e+002
4.109335e+002, 2.681628e+002
4.114156e+002, 2.674388e+002
4.118977e+002, 2.662006e+002
4.123798e+002, 2.650172e+002
4.128619e+002, 2.642884e+002
4.133441e+002, 2.638914e+002
4.138262e+002, 2.636392e+002
4.143083e+002, 2.635512e+002
4.147904e+002, 2.634154e+002
4.152725e+002, 2.629632e+002
4.157546e+002, 2.623127e+002
4.162368e+002, 2.616958e+002
4.167189e+002, 2.613154e+002
4.172010e+002, 2.609503e+002
4.176831e+002, 2.603840e+002
4.181652e+002, 2.596312e+002
4.186473e+002, 2.589026e+002
4.191295e+002, 2.582059e+002
4.196116e+002, 2.576432e+002
4.200937e+002, 2.573202e+002
4.205758e+002, 2.573314e+002
4.210579e+002, 2.574755e+002
4.215400e+002, 2.579252e+002
4.220222e+002, 2.584685e+002
4.225043e+002, 2.585951e+002
4.229864e+002, 2.574529e+002
4.234685e+002, 2.565178e+002
4.239506e+002, 2.565028e+002
4.244327e+002, 2.578915e+002
4.249149e+002, 2.587064e+002
4.253970e+002, 2.587110e+002
4.258791e+002, 2.582126e+002
4.263612e+002, 2.574680e+002
4.268433e+002, 2.561866e+002
4.273254e+002, 2.551296e+002
4.278076e+002, 2.544602e+002
4.282897e+002, 2.541199e+002
4.287718e+002, 2.537269e+002
4.292539e+002, 2.532056e+002
4.297360e+002, 2.527820e+002
4.302181e+002, 2.526077e+002
4.307003e+002, 2.527058e+002
4.311824e+002, 2.529456e+002
4.316645e+002, 2.534351e+002
4.321466e+002, 2.538704e+002
4.326287e+002, 2.535928e+002
4.331108e+002, 2.525911e+002
4.335930e+002, 2.517110e+002
4.340751e+002, 2.512981e+002
4.345572e+002, 2.512561e+002
4.350393e+002, 2.513202e+002
4.355214e+002, 2.514963e+002
4.360035e+002, 2.516510e+002
4.364857e+002, 2.516851e+002
4.369678e+002, 2.516064e+002
4.374499e+002, 2.513807e+002
4.379320e+002, 2.508751e+002
4.384141e+002, 2.504716e+002
4.388962e+002, 2.507981e+002
4.393784e+002, 2.516073e+002
4.398605e+002, 2.521773e+002
4.403426e+002, 2.516726e+002
4.408247e+002, 2.510425e+002
4.413068e+002, 2.513327e+002
4.417889e+002, 2.527363e+002
4.422711e+002, 2.536420e+002
4.427532e+002, 2.526024e+002
4.432353e+002, 2.509025e+002
4.437174e+002, 2.498773e+002
4.441995e+002, 2.507655e+002
4.446816e+002, 2.514638e+002
4.451638e+002, 2.509887e+002
4.456459e+002, 2.496999e+002
4.461280e+002, 2.492426e+002
4.466101e+002, 2.508472e+002
4.470922e+002, 2.525124e+002
4.475743e+002, 2.533521e+002
4.480565e+002, 2.530215e+002
4.485386e+002, 2.527184e+002
4.490207e+002, 2.526626e+002
4.495028e+002, 2.524977e+002
4.499849e+002, 2.516236e+002
4.504670e+002, 2.493773e+002
4.509492e+002, 2.479533e+002
4.514313e+002, 2.481597e+002
4.519134e+002, 2.496871e+002
4.523955e+002, 2.502131e+002
4.528776e+002, 2.495521e+002
4.533597e+002, 2.485235e+002
4.538419e+002, 2.475667e+002
4.543240e+002, 2.466940e+002
4.548061e+002, 2.461482e+002
4.552882e+002, 2.460554e+002
4.557703e+002, 2.460299e+002
4.562524e+002, 2.453475e+002
4.567346e+002, 2.441135e+002
4.572167e+002, 2.431035e+002
4.576988e+002, 2.428417e+002
4.581809e+002, 2.429050e+002
4.586630e+002, 2.425169e+002
4.591451e+002, 2.417018e+002
4.596273e+002, 2.408340e+002
4.601094e+002, 2.401417e+002
4.605915e+002, 2.395915e+002
4.610736e+002, 2.391845e+002
4.615557e+002, 2.390349e+002
4.620378e+002, 2.387650e+002
4.625200e+002, 2.378511e+002
4.630021e+002, 2.366582e+002
4.634842e+002, 2.359156e+002
4.639663e+002, 2.364452e+002
4.644484e+002, 2.370240e+002
4.649305e+002, 2.369666e+002
4.654127e+002, 2.361939e+002
4.658948e+002, 2.356700e+002
4.663769e+002, 2.359174e+002
4.668590e+002, 2.362930e+002
4.673411e+002, 2.363306e+002
4.678232e+002, 2.355589e+002
4.683054e+002, 2.350317e+002
4.687875e+002, 2.348123e+002
4.692696e+002, 2.348532e+002
4.697517e+002, 2.350541e+002
4.702338e+002, 2.354361e+002
4.707159e+002, 2.359401e+002
4.711981e+002, 2.366110e+002
4.716802e+002, 2.374638e+002
4.721623e+002, 2.379829e+002
4.726444e+002, 2.380247e+002
4.731265e+002, 2.381026e+002
4.736086e+002, 2.388637e+002
4.740908e+002, 2.402914e+002
4.745729e+002, 2.414109e+002
4.750550e+002, 2.420006e+002
4.755371e+002, 2.422640e+002
4.760192e+002, 2.424527e+002
4.765013e+002, 2.425979e+002
4.769835e+002, 2.429421e+002
4.774656e+002, 2.438394e+002
4.779477e+002, 2.449455e+002
4.784298e+002, 2.455892e+002
4.789119e+002, 2.457262e+002
4.793940e+002, 2.459846e+002
4.798762e+002, 2.469098e+002
4.803583e+002, 2.482401e+002
4.808404e+002, 2.496363e+002
4.813225e+002, 2.510555e+002
4.818046e+002, 2.524635e+002
4.822867e+002, 2.538522e+002
4.827689e+002, 2.552223e+002
4.832510e+002, 2.565709e+002
4.837331e+002, 2.577374e+002
4.842152e+002, 2.590334e+002
4.846973e+002, 2.606316e+002
4.851794e+002, 2.626138e+002
4.856616e+002, 2.645865e+002
4.861437e+002, 2.663063e+002
4.866258e+002, 2.681321e+002
4.871079e+002, 2.703845e+002
4.875900e+002, 2.734068e+002
4.880721e+002, 2.762297e+002
4.885543e+002, 2.785204e+002
4.890364e+002, 2.806245e+002
4.895185e+002, 2.835622e+002
4.900006e+002, 2.874404e+002
4.904827e+002, 2.917141e+002
4.909648e+002, 2.960534e+002
4.914470e+002, 3.004932e+002
4.919291e+002, 3.055594e+002
4.924112e+002, 3.112913e+002
4.928933e+002, 3.173419e+002
4.933754e+002, 3.232863e+002
4.938575e+002, 3.292310e+002
4.943397e+002, 3.355278e+002
4.948218e+002, 3.421287e+002
4.953039e+002, 3.492536e+002
4.957860e+002, 3.569883e+002
4.962681e+002, 3.653873e+002
4.967502e+002, 3.745908e+002
4.972324e+002, 3.852460e+002
4.977145e+002, 3.964927e+002
4.981966e+002, 4.072194e+002
4.986787e+002, 4.174576e+002
4.991608e+002, 4.287249e+002
4.996429e+002, 4.423691e+002
5.001251e+002, 4.571740e+002
5.006072e+002, 4.724226e+002
5.010893e+002, 4.876491e+002
5.015714e+002, 5.034464e+002
5.020535e+002, 5.201604e+002
5.025356e+002, 5.375974e+002
5.030178e+002, 5.553926e+002
5.034999e+002, 5.737745e+002
5.039820e+002, 5.925706e+002
5.044641e+002, 6.114638e+002
5.049462e+002, 6.304205e+002
5.054283e+002, 6.506027e+002
5.059105e+002, 6.726760e+002
5.063926e+002, 6.947574e+002
5.068747e+002, 7.151478e+002
5.073568e+002, 7.333900e+002
5.078389e+002, 7.529841e+002
5.083210e+002, 7.745081e+002
5.088032e+002, 7.964373e+002
5.092853e+002, 8.164274e+002
5.097674e+002, 8.344518e+002
5.102495e+002, 8.499946e+002
5.107316e+002, 8.625256e+002
5.112137e+002, 8.726962e+002
5.116959e+002, 8.827875e+002
5.121780e+002, 8.924901e+002
5.126601e+002, 8.990226e+002
5.131422e+002, 8.996887e+002
5.136243e+002, 8.962032e+002
5.141064e+002, 8.906149e+002
5.145886e+002, 8.831923e+002
5.150707e+002, 8.740372e+002
5.155528e+002, 8.627637e+002
5.160349e+002, 8.499586e+002
5.165170e+002, 8.362917e+002
5.169991e+002, 8.217736e+002
5.174813e+002, 8.066780e+002
5.179634e+002, 7.908640e+002
5.184455e+002, 7.744387e+002
5.189276e+002, 7.581127e+002
5.194097e+002, 7.418511e+002
5.198918e+002, 7.259398e+002
5.203740e+002, 7.106203e+002
5.208561e+002, 6.956619e+002
5.213382e+002, 6.817704e+002
5.218203e+002, 6.690889e+002
5.223024e+002, 6.572761e+002
5.227845e+002, 6.455697e+002
5.232667e+002, 6.337123e+002
5.237488e+002, 6.234310e+002
5.242309e+002, 6.154999e+002
5.247130e+002, 6.090731e+002
5.251951e+002, 6.018004e+002
5.256772e+002, 5.936813e+002
5.261594e+002, 5.860580e+002
5.266415e+002, 5.798412e+002
5.271236e+002, 5.745495e+002
5.276057e+002, 5.691502e+002
5.280878e+002, 5.636318e+002
5.285699e+002, 5.583748e+002
5.290521e+002, 5.536668e+002
5.295342e+002, 5.494952e+002
5.300163e+002, 5.458643e+002
5.304984e+002, 5.428474e+002
5.309805e+002, 5.403124e+002
5.314626e+002, 5.384922e+002
5.319448e+002, 5.370991e+002
5.324269e+002, 5.355817e+002
5.329090e+002, 5.333557e+002
5.333911e+002, 5.313655e+002
5.338732e+002, 5.300828e+002
5.343553e+002, 5.295591e+002
5.348375e+002, 5.285743e+002
5.353196e+002, 5.265336e+002
5.358017e+002, 5.245817e+002
5.362838e+002, 5.234127e+002
5.367659e+002, 5.234113e+002
5.372480e+002, 5.230234e+002
5.377302e+002, 5.220859e+002
5.382123e+002, 5.209586e+002
5.386944e+002, 5.202955e+002
5.391765e+002, 5.201480e+002
5.396586e+002, 5.196652e+002
5.401407e+002, 5.185524e+002
5.406229e+002, 5.170381e+002
5.411050e+002, 5.155223e+002
5.415871e+002, 5.140458e+002
5.420692e+002, 5.129573e+002
5.425513e+002, 5.131000e+002
5.430334e+002, 5.135353e+002
5.435156e+002, 5.126490e+002
5.439977e+002, 5.102994e+002
5.444798e+002, 5.078203e+002
5.449619e+002, 5.061526e+002
5.454440e+002, 5.048781e+002
5.459261e+002, 5.035572e+002
5.464083e+002, 5.022337e+002
5.468904e+002, 5.006011e+002
5.473725e+002, 4.984672e+002
5.478546e+002, 4.959572e+002
5.483367e+002, 4.933046e+002
5.488188e+002, 4.904278e+002
5.493010e+002, 4.875113e+002
5.497831e+002, 4.845778e+002
5.502652e+002, 4.816255e+002
5.507473e+002, 4.787346e+002
5.512294e+002, 4.759586e+002
5.517115e+002, 4.731486e+002
5.521937e+002, 4.701133e+002
5.526758e+002, 4.668022e+002
5.531579e+002, 4.639296e+002
5.536400e+002, 4.616967e+002
5.541221e+002, 4.594614e+002
5.546042e+002, 4.562706e+002
5.550864e+002, 4.522516e+002
5.555685e+002, 4.480875e+002
5.560506e+002, 4.437220e+002
5.565327e+002, 4.397132e+002
5.570148e+002, 4.372649e+002
5.574969e+002, 4.359948e+002
5.579791e+002, 4.344688e+002
5.584612e+002, 4.317808e+002
5.589433e+002, 4.285637e+002
5.594254e+002, 4.251790e+002
5.599075e+002, 4.216300e+002
5.603896e+002, 4.184546e+002
5.608718e+002, 4.162664e+002
5.613539e+002, 4.143280e+002
5.618360e+002, 4.120974e+002
5.623181e+002, 4.091942e+002
5.628002e+002, 4.064563e+002
5.632823e+002, 4.040766e+002
5.637645e+002, 4.018361e+002
5.642466e+002, 3.993448e+002
5.647287e+002, 3.963352e+002
5.652108e+002, 3.937840e+002
5.656929e+002, 3.920918e+002
5.661750e+002, 3.910181e+002
5.666572e+002, 3.892854e+002
5.671393e+002, 3.867947e+002
5.676214e+002, 3.844059e+002
5.681035e+002, 3.826646e+002
5.685856e+002, 3.814417e+002
5.690677e+002, 3.802411e+002
5.695499e+002, 3.790610e+002
5.700320e+002, 3.777711e+002
5.705141e+002, 3.761733e+002
5.709962e+002, 3.744149e+002
5.714783e+002, 3.727311e+002
5.719604e+002, 3.711380e+002
5.724426e+002, 3.696851e+002
5.729247e+002, 3.685059e+002
5.734068e+002, 3.674671e+002
5.738889e+002, 3.663032e+002
5.743710e+002, 3.647414e+002
5.748531e+002, 3.632496e+002
5.753353e+002, 3.620073e+002
5.758174e+002, 3.610135e+002
5.762995e+002, 3.600431e+002
5.767816e+002, 3.591429e+002
5.772637e+002, 3.582196e+002
5.777458e+002, 3.571853e+002
5.782280e+002, 3.559816e+002
5.787101e+002, 3.550501e+002
5.791922e+002, 3.544990e+002
5.796743e+002, 3.539794e+002
5.801564e+002, 3.529727e+002
5.806385e+002, 3.515287e+002
5.811207e+002, 3.505239e+002
5.816028e+002, 3.501485e+002
5.820849e+002, 3.502066e+002
5.825670e+002, 3.506693e+002
5.830491e+002, 3.513631e+002
5.835313e+002, 3.517469e+002
5.840134e+002, 3.514224e+002
5.844955e+002, 3.507671e+002
5.849776e+002, 3.499731e+002
5.854597e+002, 3.490954e+002
5.859418e+002, 3.484232e+002
5.864240e+002, 3.481342e+002
5.869061e+002, 3.480589e+002
5.873882e+002, 3.481986e+002
5.878703e+002, 3.487152e+002
5.883524e+002, 3.487858e+002
5.888345e+002, 3.477729e+002
5.893167e+002, 3.466274e+002
5.897988e+002, 3.461043e+002
5.902809e+002, 3.464773e+002
5.907630e+002, 3.468202e+002
5.912451e+002, 3.469540e+002
5.917272e+002, 3.471417e+002
5.922094e+002, 3.480885e+002
5.926915e+002, 3.498614e+002
5.931736e+002, 3.511860e+002
5.936557e+002, 3.514599e+002
5.941378e+002, 3.511191e+002
5.946199e+002, 3.511393e+002
5.951021e+002, 3.515006e+002
5.955842e+002, 3.520352e+002
5.960663e+002, 3.526935e+002
5.965484e+002, 3.534342e+002
5.970305e+002, 3.542466e+002
5.975126e+002, 3.551327e+002
5.979948e+002, 3.559826e+002
5.984769e+002, 3.565466e+002
5.989590e+002, 3.571429e+002
5.994411e+002, 3.580619e+002
5.999232e+002, 3.595443e+002
6.004053e+002, 3.610511e+002
6.008875e+002, 3.626457e+002
6.013696e+002, 3.641625e+002
6.018517e+002, 3.653428e+002
6.023338e+002, 3.660351e+002
6.028159e+002, 3.666721e+002
6.032980e+002, 3.673348e+002
6.037802e+002, 3.680016e+002
6.042623e+002, 3.685323e+002
6.047444e+002, 3.688742e+002
6.052265e+002, 3.694771e+002
6.057086e+002, 3.707965e+002
6.061907e+002, 3.725599e+002
6.066729e+002, 3.737304e+002
6.071550e+002, 3.743134e+002
6.076371e+002, 3.749670e+002
6.081192e+002, 3.765183e+002
6.086013e+002, 3.783217e+002
6.090834e+002, 3.794242e+002
6.095656e+002, 3.795242e+002
6.100477e+002, 3.795993e+002
6.105298e+002, 3.802032e+002
6.110119e+002, 3.810712e+002
6.114940e+002, 3.819159e+002
6.119761e+002, 3.828107e+002
6.124583e+002, 3.835165e+002
6.129404e+002, 3.838459e+002
6.134225e+002, 3.840003e+002
6.139046e+002, 3.844503e+002
6.143867e+002, 3.853512e+002
6.148688e+002, 3.862053e+002
6.153510e+002, 3.867965e+002
6.158331e+002, 3.872118e+002
6.163152e+002, 3.881285e+002
6.167973e+002, 3.895954e+002
6.172794e+002, 3.909799e+002
6.177615e+002, 3.918071e+002
6.182437e+002, 3.921967e+002
6.187258e+002, 3.924174e+002
6.192079e+002, 3.924640e+002
6.196900e+002, 3.926566e+002
6.201721e+002, 3.935572e+002
6.206542e+002, 3.946426e+002
6.211364e+002, 3.951967e+002
6.216185e+002, 3.947970e+002
6.221006e+002, 3.944570e+002
6.225827e+002, 3.947372e+002
6.230648e+002, 3.953192e+002
6.235469e+002, 3.957569e+002
6.240291e+002, 3.959374e+002
6.245112e+002, 3.960278e+002
6.249933e+002, 3.959516e+002
6.254754e+002, 3.958224e+002
6.259575e+002, 3.960988e+002
6.264396e+002, 3.970341e+002
6.269218e+002, 3.976510e+002
6.274039e+002, 3.974479e+002
6.278860e+002, 3.965902e+002
6.283681e+002, 3.960690e+002
6.288502e+002, 3.958901e+002
6.293323e+002, 3.958594e+002
6.298145e+002, 3.958896e+002
6.302966e+002, 3.959475e+002
6.307787e+002, 3.959429e+002
6.312608e+002, 3.958544e+002
6.317429e+002, 3.958303e+002
6.322250e+002, 3.959352e+002
6.327072e+002, 3.961777e+002
6.331893e+002, 3.966133e+002
6.336714e+002, 3.976085e+002
6.341535e+002, 3.981789e+002
6.346356e+002, 3.976229e+002
6.351177e+002, 3.966043e+002
6.355999e+002, 3.962057e+002
6.360820e+002, 3.970263e+002
6.365641e+002, 3.975108e+002
6.370462e+002, 3.972739e+002
6.375283e+002, 3.965664e+002
6.380104e+002, 3.962252e+002
6.384926e+002, 3.962891e+002
6.389747e+002, 3.964741e+002
6.394568e+002, 3.967015e+002
6.399389e+002, 3.969520e+002
6.404210e+002, 3.971397e+002
6.409031e+002, 3.972735e+002
6.413853e+002, 3.974103e+002
6.418674e+002, 3.977024e+002
6.423495e+002, 3.979714e+002
6.428316e+002, 3.978706e+002
6.433137e+002, 3.973006e+002
6.437958e+002, 3.970348e+002
6.442780e+002, 3.975462e+002
6.447601e+002, 3.984834e+002
6.452422e+002, 3.995695e+002
6.457243e+002, 4.013410e+002
6.462064e+002, 4.023064e+002
6.466885e+002, 4.019438e+002
6.471707e+002, 4.010279e+002
6.476528e+002, 4.005597e+002
6.481349e+002, 4.005876e+002
6.486170e+002, 4.009221e+002
6.490991e+002, 4.016598e+002
6.495812e+002, 4.025506e+002
6.500634e+002, 4.029472e+002
6.505455e+002, 4.028901e+002
6.510276e+002, 4.029135e+002
6.515097e+002, 4.032454e+002
6.519918e+002, 4.038226e+002
6.524739e+002, 4.046674e+002
6.529561e+002, 4.057108e+002
6.534382e+002, 4.066476e+002
6.539203e+002, 4.072547e+002
6.544024e+002, 4.077097e+002
6.548845e+002, 4.080985e+002
6.553666e+002, 4.084165e+002
6.558488e+002, 4.088065e+002
6.563309e+002, 4.095457e+002
6.568130e+002, 4.101765e+002
6.572951e+002, 4.103921e+002
6.577772e+002, 4.099545e+002
6.582593e+002, 4.097725e+002
6.587415e+002, 4.099643e+002
6.592236e+002, 4.102231e+002
6.597057e+002, 4.101258e+002
6.601878e+002, 4.096841e+002
6.606699e+002, 4.094142e+002
6.611520e+002, 4.094013e+002
6.616342e+002, 4.096257e+002
6.621163e+002, 4.103118e+002
6.625984e+002, 4.112275e+002
6.630805e+002, 4.117540e+002
6.635626e+002, 4.114139e+002
6.640447e+002, 4.108285e+002
6.645269e+002, 4.104958e+002
6.650090e+002, 4.102757e+002
6.654911e+002, 4.097515e+002
6.659732e+002, 4.082053e+002
6.664553e+002, 4.069171e+002
6.669374e+002, 4.064893e+002
6.674196e+002, 4.068564e+002
6.679017e+002, 4.070961e+002
6.683838e+002, 4.071918e+002
6.688659e+002, 4.072121e+002
6.693480e+002, 4.072428e+002
6.698301e+002, 4.072823e+002
6.703123e+002, 4.069814e+002
6.707944e+002, 4.063160e+002
6.712765e+002, 4.054826e+002
6.717586e+002, 4.045795e+002
6.722407e+002, 4.036351e+002
6.727228e+002, 4.027602e+002
6.732050e+002, 4.019807e+002
6.736871e+002, 4.011116e+002
6.741692e+002, 3.998777e+002
6.746513e+002, 3.985092e+002
6.751334e+002, 3.972846e+002
6.756155e+002, 3.962422e+002
6.760977e+002, 3.953602e+002
6.765798e+002, 3.950098e+002
6.770619e+002, 3.947007e+002
6.775440e+002, 3.936537e+002
6.780261e+002, 3.913869e+002
6.785082e+002, 3.894449e+002
6.789904e+002, 3.881508e+002
6.794725e+002, 3.873114e+002
6.799546e+002, 3.864377e+002
6.804367e+002, 3.855486e+002
6.809188e+002, 3.845869e+002
6.814009e+002, 3.837044e+002
6.818831e+002, 3.826351e+002
6.823652e+002, 3.806040e+002
6.828473e+002, 3.778198e+002
6.833294e+002, 3.754081e+002
6.838115e+002, 3.743158e+002
6.842936e+002, 3.735974e+002
6.847758e+002, 3.726681e+002
6.852579e+002, 3.714880e+002
6.857400e+002, 3.698857e+002
6.862221e+002, 3.672968e+002
6.867042e+002, 3.647253e+002
6.871863e+002, 3.626491e+002
6.876685e+002, 3.611351e+002
6.881506e+002, 3.599402e+002
6.886327e+002, 3.592656e+002
6.891148e+002, 3.584521e+002
6.895969e+002, 3.567685e+002
6.900790e+002, 3.542641e+002
6.905612e+002, 3.519632e+002
6.910433e+002, 3.499741e+002
6.915254e+002, 3.481613e+002
6.920075e+002, 3.467217e+002
6.924896e+002, 3.453242e+002
6.929717e+002, 3.432862e+002
6.934539e+002, 3.400402e+002
6.939360e+002, 3.368872e+002
6.944181e+002, 3.348762e+002
6.949002e+002, 3.333942e+002
6.953823e+002, 3.314819e+002
6.958644e+002, 3.281894e+002
6.963466e+002, 3.254309e+002
6.968287e+002, 3.237919e+002
6.973108e+002, 3.227824e+002
6.977929e+002, 3.211160e+002
6.982750e+002, 3.186197e+002
6.987571e+002, 3.161540e+002
6.992393e+002, 3.140271e+002
6.997214e+002, 3.121056e+002
7.002035e+002, 3.099439e+002
7.006856e+002, 3.075783e+002
7.011677e+002, 3.054023e+002
7.016498e+002, 3.037226e+002
7.021320e+002, 3.023039e+002
7.026141e+002, 3.010453e+002
7.030962e+002, 2.998744e+002
7.035783e+002, 2.983482e+002
7.040604e+002, 2.958302e+002
7.045425e+002, 2.932133e+002
7.050247e+002, 2.910361e+002
7.055068e+002, 2.894059e+002
7.059889e+002, 2.877957e+002
7.064710e+002, 2.863056e+002
7.069531e+002, 2.846874e+002
7.074352e+002, 2.827665e+002
7.079174e+002, 2.805277e+002
7.083995e+002, 2.781810e+002
7.088816e+002, 2.756626e+002
7.093637e+002, 2.733750e+002
7.098458e+002, 2.719435e+002
7.103279e+002, 2.710640e+002
7.108101e+002, 2.699493e+002
7.112922e+002, 2.684669e+002
7.117743e+002, 2.667672e+002
7.122564e+002, 2.646972e+002
7.127385e+002, 2.625760e+002
7.132206e+002, 2.607876e+002
7.137028e+002, 2.597902e+002
7.141849e+002, 2.586647e+002
7.146670e+002, 2.570742e+002
7.151491e+002, 2.553490e+002
7.156312e+002, 2.539523e+002
7.161133e+002, 2.530790e+002
7.165955e+002, 2.519890e+002
7.170776e+002, 2.504731e+002
7.175597e+002, 2.487823e+002
7.180418e+002, 2.475272e+002
7.185239e+002, 2.466564e+002
7.190060e+002, 2.457896e+002
7.194882e+002, 2.447443e+002
7.199703e+002, 2.436581e+002
7.204524e+002, 2.426929e+002
7.209345e+002, 2.418230e+002
7.214166e+002, 2.409474e+002
7.218987e+002, 2.400867e+002
7.223809e+002, 2.391496e+002
7.228630e+002, 2.381297e+002
7.233451e+002, 2.370198e+002
7.238272e+002, 2.357462e+002
7.243093e+002, 2.341668e+002
7.247914e+002, 2.326519e+002
7.252736e+002, 2.312950e+002
7.257557e+002, 2.301131e+002
7.262378e+002, 2.293877e+002
7.267199e+002, 2.291659e+002
7.272020e+002, 2.289546e+002
7.276841e+002, 2.284313e+002
7.281663e+002, 2.276780e+002
7.286484e+002, 2.268919e+002
7.291305e+002, 2.260777e+002
7.296126e+002, 2.251427e+002
7.300947e+002, 2.237509e+002
7.305768e+002, 2.223951e+002
7.310590e+002, 2.215183e+002
7.315411e+002, 2.212619e+002
7.320232e+002, 2.210142e+002
7.325053e+002, 2.207231e+002
7.329874e+002, 2.203557e+002
7.334695e+002, 2.198969e+002
7.339517e+002, 2.193708e+002
7.344338e+002, 2.185248e+002
7.349159e+002, 2.171471e+002
7.353980e+002, 2.160281e+002
7.358801e+002, 2.164413e+002
7.363622e+002, 2.179282e+002
7.368444e+002, 2.185110e+002
7.373265e+002, 2.177981e+002
7.378086e+002, 2.166018e+002
7.382907e+002, 2.153222e+002
7.387728e+002, 2.141696e+002
7.392549e+002, 2.134657e+002
7.397371e+002, 2.136623e+002
7.402192e+002, 2.136875e+002
7.407013e+002, 2.128521e+002
7.411834e+002, 2.118547e+002
7.416655e+002, 2.116848e+002
7.421476e+002, 2.129411e+002
7.426298e+002, 2.135477e+002
7.431119e+002, 2.130761e+002
7.435940e+002, 2.120827e+002
7.440761e+002, 2.115490e+002
7.445582e+002, 2.114395e+002
7.450403e+002, 2.113843e+002
7.455225e+002, 2.112907e+002
7.460046e+002, 2.111637e+002
7.464867e+002, 2.108976e+002
7.469688e+002, 2.106068e+002
7.474509e+002, 2.105452e+002
7.479330e+002, 2.112457e+002
7.484152e+002, 2.117427e+002
7.488973e+002, 2.113883e+002
7.493794e+002, 2.105137e+002
7.498615e+002, 2.102519e+002
7.503436e+002, 2.110906e+002
7.508257e+002, 2.116983e+002
7.513079e+002, 2.116847e+002
7.517900e+002, 2.112318e+002
7.522721e+002, 2.109454e+002
7.527542e+002, 2.108257e+002
7.532363e+002, 2.108468e+002
7.537184e+002, 2.111758e+002
7.542006e+002, 2.115242e+002
7.546827e+002, 2.112649e+002
7.551648e+002, 2.105643e+002
7.556469e+002, 2.101239e+002
7.561290e+002, 2.104336e+002
7.566111e+002, 2.109770e+002
7.570933e+002, 2.116129e+002
7.575754e+002, 2.122948e+002
7.580575e+002, 2.126528e+002
7.585396e+002, 2.124281e+002
7.590217e+002, 2.122402e+002
7.595038e+002, 2.123509e+002
7.599860e+002, 2.127257e+002
7.604681e+002, 2.129758e+002
7.609502e+002, 2.130880e+002
7.614323e+002, 2.132026e+002
7.619144e+002, 2.134356e+002
7.623965e+002, 2.137248e+002
7.628787e+002, 2.139545e+002
7.633608e+002, 2.141237e+002
7.638429e+002, 2.142832e+002
7.643250e+002, 2.142201e+002
7.648071e+002, 2.143444e+002
7.652892e+002, 2.151129e+002
7.657714e+002, 2.167175e+002
7.662535e+002, 2.176681e+002
7.667356e+002, 2.173972e+002
7.672177e+002, 2.171121e+002
7.676998e+002, 2.176350e+002
7.681819e+002, 2.190643e+002
7.686641e+002, 2.194785e+002
7.691462e+002, 2.187356e+002
7.696283e+002, 2.180419e+002
7.701104e+002, 2.187022e+002
7.705925e+002, 2.200466e+002
7.710746e+002, 2.206900e+002
7.715568e+002, 2.204747e+002
7.720389e+002, 2.203276e+002
7.725210e+002, 2.208023e+002
7.730031e+002, 2.215910e+002
7.734852e+002, 2.225336e+002
7.739673e+002, 2.237811e+002
7.744495e+002, 2.245615e+002
7.749316e+002, 2.244730e+002
7.754137e+002, 2.243707e+002
7.758958e+002, 2.249450e+002
7.763779e+002, 2.262576e+002
7.768600e+002, 2.275557e+002
7.773422e+002, 2.288631e+002
7.778243e+002, 2.298919e+002
7.783064e+002, 2.301711e+002
7.787885e+002, 2.300140e+002
7.792706e+002, 2.300196e+002
7.797527e+002, 2.303103e+002
7.802349e+002, 2.306060e+002
7.807170e+002, 2.306414e+002
7.811991e+002, 2.306667e+002
7.816812e+002, 2.309044e+002
7.821633e+002, 2.314499e+002
7.826454e+002, 2.321249e+002
7.831276e+002, 2.330770e+002
7.836097e+002, 2.339857e+002
7.840918e+002, 2.343633e+002
7.845739e+002, 2.341879e+002
7.850560e+002, 2.347335e+002
7.855381e+002, 2.362326e+002
7.860203e+002, 2.378328e+002
7.865024e+002, 2.384607e+002
7.869845e+002, 2.385637e+002
7.874666e+002, 2.389457e+002
7.879487e+002, 2.398629e+002
7.884308e+002, 2.408147e+002
7.889130e+002, 2.415136e+002
7.893951e+002, 2.421559e+002
7.898772e+002, 2.429491e+002
7.903593e+002, 2.437865e+002
7.908414e+002, 2.450461e+002
7.913235e+002, 2.470294e+002
7.918057e+002, 2.490018e+002
7.922878e+002, 2.498963e+002
7.927699e+002, 2.497986e+002
7.932520e+002, 2.498884e+002
7.937341e+002, 2.503428e+002
7.942162e+002, 2.509818e+002
7.946984e+002, 2.517190e+002
7.951805e+002, 2.524856e+002
7.956626e+002, 2.531741e+002
7.961447e+002, 2.537873e+002
7.966268e+002, 2.542841e+002
7.971089e+002, 2.546080e+002
7.975911e+002, 2.548370e+002
7.980732e+002, 2.550361e+002
7.985553e+002, 2.550563e+002
7.990374e+002, 2.554723e+002
7.995195e+002, 2.564801e+002
8.000016e+002, 2.575883e+002
8.004838e+002, 2.581236e+002
8.009659e+002, 2.581836e+002
8.014480e+002, 2.584006e+002
8.019301e+002, 2.589761e+002
8.024122e+002, 2.593752e+002
8.028943e+002, 2.587243e+002
8.033765e+002, 2.577174e+002
8.038586e+002, 2.572943e+002
8.043407e+002, 2.581224e+002
8.048228e+002, 2.587523e+002
8.053049e+002, 2.588484e+002
8.057870e+002, 2.586210e+002
8.062692e+002, 2.582238e+002
8.067513e+002, 2.575869e+002
8.072334e+002, 2.570533e+002
8.077155e+002, 2.566790e+002
8.081976e+002, 2.563397e+002
8.086797e+002, 2.558834e+002
8.091619e+002, 2.553302e+002
8.096440e+002, 2.547061e+002
8.101261e+002, 2.539636e+002
8.106082e+002, 2.533522e+002
8.110903e+002, 2.533730e+002
8.115724e+002, 2.534826e+002
8.120546e+002, 2.530689e+002
8.125367e+002, 2.515311e+002
8.130188e+002, 2.502702e+002
8.135009e+002, 2.494805e+002
8.139830e+002, 2.488650e+002
8.144651e+002, 2.481045e+002
8.149473e+002, 2.471823e+002
8.154294e+002, 2.463438e+002
8.159115e+002, 2.456128e+002
8.163936e+002, 2.449645e+002
8.168757e+002, 2.445849e+002
8.173578e+002, 2.442108e+002
8.178400e+002, 2.432737e+002
8.183221e+002, 2.414394e+002
8.188042e+002, 2.397681e+002
8.192863e+002, 2.387739e+002
8.197684e+002, 2.381717e+002
8.202505e+002, 2.377299e+002
8.207327e+002, 2.376019e+002
8.212148e+002, 2.372077e+002
8.216969e+002, 2.364324e+002
8.221790e+002, 2.355807e+002
8.226611e+002, 2.351010e+002
8.231432e+002, 2.348859e+002
8.236254e+002, 2.342147e+002
8.241075e+002, 2.329546e+002
8.245896e+002, 2.316990e+002
8.250717e+002, 2.311065e+002
8.255538e+002, 2.307730e+002
8.260359e+002, 2.302699e+002
8.265181e+002, 2.295214e+002
8.270002e+002, 2.286141e+002
8.274823e+002, 2.274022e+002
8.279644e+002, 2.261742e+002
8.284465e+002, 2.251133e+002
8.289286e+002, 2.242729e+002
8.294108e+002, 2.233983e+002
8.298929e+002, 2.224801e+002
8.303750e+002, 2.216108e+002
8.308571e+002, 2.210040e+002
8.313392e+002, 2.204862e+002
8.318214e+002, 2.195674e+002
8.323035e+002, 2.181891e+002
8.327856e+002, 2.169511e+002
8.332677e+002, 2.162047e+002
8.337498e+002, 2.157723e+002
8.342319e+002, 2.156174e+002
8.347141e+002, 2.158894e+002
8.351962e+002, 2.157014e+002
8.356783e+002, 2.148347e+002
8.361604e+002, 2.138672e+002
8.366425e+002, 2.132146e+002
8.371246e+002, 2.128451e+002
8.376068e+002, 2.122587e+002
8.380889e+002, 2.114506e+002
8.385710e+002, 2.106885e+002
8.390531e+002, 2.101573e+002
8.395352e+002, 2.097955e+002
8.400173e+002, 2.096444e+002
8.404995e+002, 2.096926e+002
8.409816e+002, 2.095016e+002
8.414637e+002, 2.086978e+002
8.419458e+002, 2.078389e+002
8.424279e+002, 2.071437e+002
8.429100e+002, 2.066109e+002
8.433922e+002, 2.062615e+002
8.438743e+002, 2.061559e+002
8.443564e+002, 2.058924e+002
8.448385e+002, 2.051154e+002
8.453206e+002, 2.040349e+002
8.458027e+002, 2.030717e+002
8.462849e+002, 2.022382e+002
8.467670e+002, 2.016336e+002
8.472491e+002, 2.015882e+002
8.477312e+002, 2.015375e+002
8.482133e+002, 2.011159e+002
8.486954e+002, 2.003550e+002
8.491776e+002, 1.996983e+002
8.496597e+002, 1.991499e+002
8.501418e+002, 1.987351e+002
8.506239e+002, 1.985322e+002
8.511060e+002, 1.984425e+002
8.515881e+002, 1.980557e+002
8.520703e+002, 1.974189e+002
8.525524e+002, 1.969245e+002
8.530345e+002, 1.969979e+002
8.535166e+002, 1.970899e+002
8.539987e+002, 1.965800e+002
8.544808e+002, 1.956867e+002
8.549630e+002, 1.949650e+002
8.554451e+002, 1.945346e+002
8.559272e+002, 1.943664e+002
8.564093e+002, 1.945270e+002
8.568914e+002, 1.948922e+002
8.573735e+002, 1.952444e+002
8.578557e+002, 1.955995e+002
8.583378e+002, 1.956986e+002
8.588199e+002, 1.953906e+002
8.593020e+002, 1.949691e+002
8.597841e+002, 1.948178e+002
8.602662e+002, 1.948923e+002
8.607484e+002, 1.951279e+002
8.612305e+002, 1.958173e+002
8.617126e+002, 1.961952e+002
8.621947e+002, 1.956186e+002
8.626768e+002, 1.947153e+002
8.631589e+002, 1.943712e+002
8.636411e+002, 1.947321e+002
8.641232e+002, 1.953140e+002
8.646053e+002, 1.962138e+002
8.650874e+002, 1.969832e+002
8.655695e+002, 1.968579e+002
8.660516e+002, 1.961096e+002
8.665338e+002, 1.955694e+002
8.670159e+002, 1.953801e+002
8.674980e+002, 1.954457e+002
8.679801e+002, 1.958662e+002
8.684622e+002, 1.964096e+002
8.689443e+002, 1.968457e+002
8.694265e+002, 1.970617e+002
8.699086e+002, 1.973918e+002
8.703907e+002, 1.979390e+002
8.708728e+002, 1.984416e+002
8.713549e+002, 1.986042e+002
8.718370e+002, 1.984718e+002
8.723192e+002, 1.986114e+002
8.728013e+002, 1.990512e+002
8.732834e+002, 1.994890e+002
8.737655e+002, 1.996457e+002
8.742476e+002, 1.996960e+002
8.747297e+002, 1.997579e+002
8.752119e+002, 1.998395e+002
8.756940e+002, 2.001257e+002
8.761761e+002, 2.009842e+002
8.766582e+002, 2.016967e+002
8.771403e+002, 2.018491e+002
8.776224e+002, 2.015180e+002
8.781046e+002, 2.019242e+002
8.785867e+002, 2.031098e+002
8.790688e+002, 2.040944e+002
8.795509e+002, 2.040122e+002
8.800330e+002, 2.035289e+002
8.805151e+002, 2.036024e+002
8.809973e+002, 2.041184e+002
8.814794e+002, 2.046179e+002
8.819615e+002, 2.050214e+002
8.824436e+002, 2.052553e+002
8.829257e+002, 2.051307e+002
8.834078e+002, 2.048349e+002
8.838900e+002, 2.049485e+002
8.843721e+002, 2.055702e+002
8.848542e+002, 2.060606e+002
8.853363e+002, 2.061743e+002
8.858184e+002, 2.061585e+002
8.863005e+002, 2.064722e+002
8.867827e+002, 2.070061e+002
8.872648e+002, 2.074885e+002
8.877469e+002, 2.078916e+002
8.882290e+002, 2.081095e+002
8.887111e+002, 2.078373e+002
8.891932e+002, 2.074529e+002
8.896754e+002, 2.075431e+002
8.901575e+002, 2.084088e+002
8.906396e+002, 2.089819e+002
8.911217e+002, 2.091824e+002
8.916038e+002, 2.090591e+002
8.920859e+002, 2.084626e+002
8.925681e+002, 2.075930e+002
8.930502e+002, 2.070917e+002
8.935323e+002, 2.070976e+002
8.940144e+002, 2.072388e+002
8.944965e+002, 2.073840e+002
8.949786e+002, 2.074704e+002
8.954608e+002, 2.074520e+002
8.959429e+002, 2.073306e+002
8.964250e+002, 2.070071e+002
8.969071e+002, 2.062972e+002
8.973892e+002, 2.057573e+002
8.978713e+002, 2.060010e+002
8.983535e+002, 2.068136e+002
8.988356e+002, 2.067672e+002
8.993177e+002, 2.059139e+002
8.997998e+002, 2.051572e+002
9.002819e+002, 2.052744e+002
9.007640e+002, 2.055796e+002
9.012462e+002, 2.055155e+002
9.017283e+002, 2.051064e+002
9.022104e+002, 2.048810e+002
9.026925e+002, 2.052746e+002
9.031746e+002, 2.051888e+002
9.036567e+002, 2.040443e+002
9.041389e+002, 2.023363e+002
9.046210e+002, 2.018215e+002
9.051031e+002, 2.023538e+002
9.055852e+002, 2.025781e+002
9.060673e+002, 2.016999e+002
9.065494e+002, 2.006198e+002
9.070316e+002, 2.001545e+002
9.075137e+002, 2.000656e+002
9.079958e+002, 1.999276e+002
9.084779e+002, 1.996611e+002
9.089600e+002, 1.992938e+002
9.094421e+002, 1.987886e+002
9.099243e+002, 1.982305e+002
9.104064e+002, 1.977384e+002
9.108885e+002, 1.973065e+002
9.113706e+002, 1.967682e+002
9.118527e+002, 1.960788e+002
9.123348e+002, 1.954189e+002
9.128170e+002, 1.950185e+002
9.132991e+002, 1.947164e+002
9.137812e+002, 1.943447e+002
9.142633e+002, 1.938851e+002
9.147454e+002, 1.933116e+002
9.152275e+002, 1.925464e+002
9.157097e+002, 1.917595e+002
9.161918e+002, 1.910078e+002
9.166739e+002, 1.902943e+002
9.171560e+002, 1.899707e+002
9.176381e+002, 1.900454e+002
9.181202e+002, 1.897669e+002
9.186024e+002, 1.880168e+002
9.190845e+002, 1.860569e+002
9.195666e+002, 1.855469e+002
9.200487e+002, 1.862205e+002
9.205308e+002, 1.863097e+002
9.210129e+002, 1.845557e+002
9.214951e+002, 1.830560e+002
9.219772e+002, 1.824385e+002
9.224593e+002, 1.823897e+002
9.229414e+002, 1.819827e+002
9.234235e+002, 1.812242e+002
9.239056e+002, 1.803747e+002
9.243878e+002, 1.794932e+002
9.248699e+002, 1.786017e+002
9.253520e+002, 1.776273e+002
9.258341e+002, 1.766795e+002
9.263162e+002, 1.759259e+002
9.267983e+002, 1.757490e+002
9.272805e+002, 1.752436e+002
9.277626e+002, 1.740952e+002
9.282447e+002, 1.728107e+002
9.287268e+002, 1.719452e+002
9.292089e+002, 1.715073e+002
9.296910e+002, 1.709631e+002
9.301732e+002, 1.702704e+002
9.306553e+002, 1.696205e+002
9.311374e+002, 1.692575e+002
9.316195e+002, 1.689961e+002
9.321016e+002, 1.686146e+002
9.325837e+002, 1.680900e+002
9.330659e+002, 1.675690e+002
9.335480e+002, 1.673769e+002
9.340301e+002, 1.668174e+002
9.345122e+002, 1.654061e+002
9.349943e+002, 1.633474e+002
9.354764e+002, 1.622695e+002
9.359586e+002, 1.621316e+002
9.364407e+002, 1.619697e+002
9.369228e+002, 1.612637e+002
9.374049e+002, 1.603105e+002
9.378870e+002, 1.592698e+002
9.383691e+002, 1.582279e+002
9.388513e+002, 1.574110e+002
9.393334e+002, 1.571794e+002
9.398155e+002, 1.567493e+002
9.402976e+002, 1.558903e+002
9.407797e+002, 1.549338e+002
9.412618e+002, 1.545868e+002
9.417440e+002, 1.547726e+002
9.422261e+002, 1.543269e+002
9.427082e+002, 1.529621e+002
9.431903e+002, 1.514411e+002
9.436724e+002, 1.502021e+002
9.441545e+002, 1.493754e+002
9.446367e+002, 1.492110e+002
9.451188e+002, 1.499863e+002
9.456009e+002, 1.504652e+002
9.460830e+002, 1.506580e+002
9.465651e+002, 1.503694e+002
9.470472e+002, 1.492097e+002
9.475294e+002, 1.473555e+002
9.480115e+002, 1.466025e+002
9.484936e+002, 1.468528e+002
9.489757e+002, 1.470360e+002
9.494578e+002, 1.463740e+002
9.499399e+002, 1.454760e+002
9.504221e+002, 1.447870e+002
9.509042e+002, 1.442634e+002
9.513863e+002, 1.436899e+002
9.518684e+002, 1.429124e+002
9.523505e+002, 1.423585e+002
9.528326e+002, 1.422043e+002
9.533148e+002, 1.421889e+002
9.537969e+002, 1.418071e+002
9.542790e+002, 1.411253e+002
9.547611e+002, 1.403786e+002
9.552432e+002, 1.395738e+002
9.557253e+002, 1.389296e+002
9.562075e+002, 1.387178e+002
9.566896e+002, 1.386781e+002
9.571717e+002, 1.385560e+002
9.576538e+002, 1.383224e+002
9.581359e+002, 1.379790e+002
9.586180e+002, 1.374490e+002
9.591002e+002, 1.369874e+002
9.595823e+002, 1.369161e+002
9.600644e+002, 1.370413e+002
9.605465e+002, 1.366748e+002
9.610286e+002, 1.358732e+002
9.615107e+002, 1.351833e+002
9.619929e+002, 1.350310e+002
9.624750e+002, 1.349499e+002
9.629571e+002, 1.346766e+002
9.634392e+002, 1.342684e+002
9.639213e+002, 1.339556e+002
9.644034e+002, 1.337703e+002
9.648856e+002, 1.335688e+002
9.653677e+002, 1.333188e+002
9.658498e+002, 1.330311e+002
9.663319e+002, 1.326580e+002
9.668140e+002, 1.322699e+002
9.672961e+002, 1.320343e+002
9.677783e+002, 1.320416e+002
9.682604e+002, 1.320723e+002
9.687425e+002, 1.321395e+002
9.692246e+002, 1.321190e+002
9.697067e+002, 1.318506e+002
9.701888e+002, 1.312527e+002
9.706710e+002, 1.311181e+002
9.711531e+002, 1.315025e+002
9.716352e+002, 1.318197e+002
9.721173e+002, 1.315501e+002
9.725994e+002, 1.309879e+002
9.730815e+002, 1.304247e+002
9.735637e+002, 1.298981e+002
9.740458e+002, 1.295221e+002
9.745279e+002, 1.295182e+002
9.750100e+002, 1.294396e+002
9.754921e+002, 1.291135e+002
9.759742e+002, 1.286801e+002
9.764564e+002, 1.285114e+002
9.769385e+002, 1.285929e+002
9.774206e+002, 1.286809e+002
9.779027e+002, 1.287615e+002
9.783848e+002, 1.286830e+002
9.788669e+002, 1.280025e+002
9.793491e+002, 1.272252e+002
9.798312e+002, 1.270317e+002
9.803133e+002, 1.279974e+002
9.807954e+002, 1.283202e+002
9.812775e+002, 1.276529e+002
9.817596e+002, 1.268532e+002
9.822418e+002, 1.265452e+002
9.827239e+002, 1.266308e+002
9.832060e+002, 1.266057e+002
9.836881e+002, 1.264757e+002
9.841702e+002, 1.263364e+002
9.846523e+002, 1.262053e+002
9.851345e+002, 1.261188e+002
9.856166e+002, 1.261582e+002
9.860987e+002, 1.262600e+002
9.865808e+002, 1.261851e+002
9.870629e+002, 1.258350e+002
9.875450e+002, 1.256569e+002
9.880272e+002, 1.258160e+002
9.885093e+002, 1.259963e+002
9.889914e+002, 1.255809e+002
9.894735e+002, 1.248603e+002
9.899556e+002, 1.244414e+002
9.904377e+002, 1.245017e+002
9.909199e+002, 1.246758e+002
9.914020e+002, 1.248988e+002
9.918841e+002, 1.251167e+002
9.923662e+002, 1.253334e+002
9.928483e+002, 1.255537e+002
9.933304e+002, 1.254785e+002
9.938126e+002, 1.250927e+002
9.942947e+002, 1.246688e+002
9.947768e+002, 1.243261e+002
9.952589e+002, 1.240748e+002
9.957410e+002, 1.239705e+002
9.962231e+002, 1.239653e+002
9.967053e+002, 1.239204e+002
9.971874e+002, 1.237400e+002
9.976695e+002, 1.235733e+002
9.981516e+002, 1.233468e+002
9.986337e+002, 1.232477e+002
9.991158e+002, 1.237946e+002
9.995980e+002, 1.248295e+002
1.000080e+003, 1.250968e+002
1.000562e+003, 1.243381e+002
1.001044e+003, 1.235394e+002
1.001526e+003, 1.234444e+002
1.002009e+003, 1.236388e+002
1.002491e+003, 1.238399e+002
1.002973e+003, 1.240340e+002
1.003455e+003, 1.240050e+002
1.003937e+003, 1.236197e+002
1.004419e+003, 1.234519e+002
1.004901e+003, 1.238883e+002
1.005383e+003, 1.246038e+002
1.005865e+003, 1.249117e+002
1.006348e+003, 1.249042e+002
1.006830e+003, 1.248530e+002
1.007312e+003, 1.248400e+002
1.007794e+003, 1.248405e+002
1.008276e+003, 1.248889e+002
1.008758e+003, 1.249164e+002
1.009240e+003, 1.248117e+002
1.009722e+003, 1.245455e+002
1.010205e+003, 1.244650e+002
1.010687e+003, 1.246039e+002
1.011169e+003, 1.248009e+002
1.011651e+003, 1.250028e+002
1.012133e+003, 1.251265e+002
1.012615e+003, 1.249828e+002
1.013097e+003, 1.245904e+002
1.013579e+003, 1.244803e+002
1.014061e+003, 1.249782e+002
1.014544e+003, 1.253565e+002
1.015026e+003, 1.253736e+002
1.015508e+003, 1.251702e+002
1.015990e+003, 1.250792e+002
1.016472e+003, 1.250749e+002
1.016954e+003, 1.250453e+002
1.017436e+003, 1.249288e+002
1.017918e+003, 1.248477e+002
1.018401e+003, 1.249820e+002
1.018883e+003, 1.251218e+002
1.019365e+003, 1.250342e+002
1.019847e+003, 1.246460e+002
1.020329e+003, 1.243703e+002
1.020811e+003, 1.242048e+002
1.021293e+003, 1.241683e+002
1.021775e+003, 1.243810e+002
1.022257e+003, 1.246716e+002
1.022740e+003, 1.247670e+002
1.023222e+003, 1.246991e+002
1.023704e+003, 1.246076e+002
1.024186e+003, 1.244856e+002
1.024668e+003, 1.244183e+002
1.025150e+003, 1.244262e+002
1.025632e+003, 1.244879e+002
1.026114e+003, 1.245890e+002
1.026596e+003, 1.247194e+002
1.027079e+003, 1.247901e+002
1.027561e+003, 1.247755e+002
1.028043e+003, 1.247929e+002
1.028525e+003, 1.250731e+002
1.029007e+003, 1.253297e+002
1.029489e+003, 1.252136e+002
1.029971e+003, 1.246688e+002
1.030453e+003, 1.245694e+002
1.030936e+003, 1.250655e+002
1.031418e+003, 1.255167e+002
1.031900e+003, 1.256682e+002
1.032382e+003, 1.255946e+002
1.032864e+003, 1.253236e+002
1.033346e+003, 1.249541e+002
1.033828e+003, 1.247302e+002
1.034310e+003, 1.248533e+002
1.034792e+003, 1.249553e+002
1.035275e+003, 1.249399e+002
1.035757e+003, 1.248749e+002
1.036239e+003, 1.248197e+002
1.036721e+003, 1.247754e+002
1.037203e+003, 1.246953e+002
1.037685e+003, 1.245801e+002
1.038167e+003, 1.244106e+002
1.038649e+003, 1.240735e+002
1.039132e+003, 1.237632e+002
1.039614e+003, 1.236764e+002
1.040096e+003, 1.237693e+002
1.040578e+003, 1.237779e+002
1.041060e+003, 1.236582e+002
1.041542e+003, 1.235318e+002
1.042024e+003, 1.234181e+002
1.042506e+003, 1.233054e+002
1.042989e+003, 1.231758e+002
1.043471e+003, 1.230297e+002
1.043953e+003, 1.228347e+002
1.044435e+003, 1.225468e+002
1.044917e+003, 1.224219e+002
1.045399e+003, 1.226640e+002
1.045881e+003, 1.229943e+002
1.046363e+003, 1.233143e+002
1.046845e+003, 1.236073e+002
1.047328e+003, 1.237680e+002
1.047810e+003, 1.237926e+002
1.048292e+003, 1.235722e+002
1.048774e+003, 1.228622e+002
1.049256e+003, 1.221625e+002
1.049738e+003, 1.218438e+002
1.050220e+003, 1.218088e+002
1.050702e+003, 1.219175e+002
1.051184e+003, 1.222094e+002
1.051667e+003, 1.225003e+002
1.052149e+003, 1.228027e+002
1.052631e+003, 1.230496e+002
1.053113e+003, 1.232639e+002
1.053595e+003, 1.233528e+002
1.054077e+003, 1.229998e+002
1.054559e+003, 1.222826e+002
1.055041e+003, 1.217745e+002
1.055523e+003, 1.219173e+002
1.056006e+003, 1.220612e+002
1.056488e+003, 1.220857e+002
1.056970e+003, 1.219593e+002
1.057452e+003, 1.214196e+002
1.057934e+003, 1.205655e+002
1.058416e+003, 1.204251e+002
1.058898e+003, 1.213028e+002
1.059380e+003, 1.222124e+002
1.059863e+003, 1.224522e+002
1.060345e+003, 1.222981e+002
1.060827e+003, 1.218383e+002
1.061309e+003, 1.210750e+002
1.061791e+003, 1.206628e+002
1.062273e+003, 1.206379e+002
1.062755e+003, 1.208224e+002
1.063237e+003, 1.213219e+002
1.063719e+003, 1.217382e+002
1.064202e+003, 1.211706e+002
1.064684e+003, 1.201213e+002
1.065166e+003, 1.195637e+002
1.065648e+003, 1.201663e+002
1.066130e+003, 1.206293e+002
1.066612e+003, 1.207959e+002
1.067094e+003, 1.208269e+002
1.067576e+003, 1.208481e+002
1.068059e+003, 1.208494e+002
1.068541e+003, 1.207210e+002
1.069023e+003, 1.204867e+002
1.069505e+003, 1.203488e+002
1.069987e+003, 1.205147e+002
1.070469e+003, 1.207173e+002
1.070951e+003, 1.209556e+002
1.071433e+003, 1.210828e+002
1.071916e+003, 1.207201e+002
1.072398e+003, 1.197764e+002
1.072880e+003, 1.192058e+002
1.073362e+003, 1.191701e+002
1.073844e+003, 1.193244e+002
1.074326e+003, 1.193709e+002
1.074808e+003, 1.193947e+002
1.075290e+003, 1.195339e+002
1.075772e+003, 1.197982e+002
1.076255e+003, 1.198527e+002
1.076737e+003, 1.195815e+002
1.077219e+003, 1.193469e+002
1.077701e+003, 1.192966e+002
1.078183e+003, 1.193060e+002
1.078665e+003, 1.190899e+002
1.079147e+003, 1.187449e+002
1.079629e+003, 1.184893e+002
1.080111e+003, 1.183729e+002
1.080594e+003, 1.183654e+002
1.081076e+003, 1.186308e+002
1.081558e+003, 1.188279e+002
1.082040e+003, 1.187045e+002
1.082522e+003, 1.183060e+002
1.083004e+003, 1.181733e+002
1.083486e+003, 1.182697e+002
1.083968e+003, 1.182603e+002
1.084450e+003, 1.178927e+002
1.084933e+003, 1.174366e+002
1.085415e+003, 1.168019e+002
1.085897e+003, 1.163090e+002
1.086379e+003, 1.165395e+002
1.086861e+003, 1.178712e+002
1.087343e+003, 1.183487e+002
1.087825e+003, 1.178014e+002
1.088307e+003, 1.169724e+002
1.088790e+003, 1.162858e+002
1.089272e+003, 1.158404e+002
1.089754e+003, 1.159183e+002
1.090236e+003, 1.163997e+002
1.090718e+003, 1.165717e+002
1.091200e+003, 1.157102e+002
1.091682e+003, 1.157532e+002
1.092164e+003, 1.174678e+002
1.092646e+003, 1.194081e+002
1.093129e+003, 1.189940e+002
1.093611e+003, 1.171143e+002
1.094093e+003, 1.159903e+002
1.094575e+003, 1.160039e+002
1.095057e+003, 1.160599e+002
1.095539e+003, 1.156880e+002
1.096021e+003, 1.152206e+002
1.096503e+003, 1.147397e+002
1.096986e+003, 1.142998e+002
1.097468e+003, 1.141537e+002
1.097950e+003, 1.142645e+002
1.098432e+003, 1.143007e+002
1.098914e+003, 1.140985e+002
1.099396e+003, 1.139542e+002
1.099878e+003, 1.142171e+002
1.100360e+003, 1.145526e+002
1.100843e+003, 1.145790e+002
1.101325e+003, 1.142334e+002
1.101807e+003, 1.142814e+002
1.102289e+003, 1.147876e+002
1.102771e+003, 1.149972e+002
1.103253e+003, 1.142070e+002
1.103735e+003, 1.131674e+002
1.104217e+003, 1.127552e+002
1.104699e+003, 1.127561e+002
1.105182e+003, 1.127648e+002
1.105664e+003, 1.126859e+002
1.106146e+003, 1.126586e+002
1.106628e+003, 1.127189e+002
1.107110e+003, 1.127447e+002
1.107592e+003, 1.126084e+002
1.108074e+003, 1.123671e+002
1.108556e+003, 1.120692e+002
1.109038e+003, 1.117539e+002
1.109521e+003, 1.115946e+002
1.110003e+003, 1.118089e+002
1.110485e+003, 1.119883e+002
1.110967e+003, 1.120492e+002
1.111449e+003, 1.120327e+002
1.111931e+003, 1.119616e+002
1.112413e+003, 1.118627e+002
1.112895e+003, 1.119134e+002
1.113377e+003, 1.121390e+002
1.113860e+003, 1.122289e+002
1.114342e+003, 1.118466e+002
1.114824e+003, 1.114262e+002
1.115306e+003, 1.112336e+002
1.115788e+003, 1.111901e+002
1.116270e+003, 1.109749e+002
1.116752e+003, 1.105945e+002
1.117234e+003, 1.105073e+002
1.117717e+003, 1.108977e+002
1.118199e+003, 1.113227e+002
1.118681e+003, 1.113172e+002
1.119163e+003, 1.112077e+002
1.119645e+003, 1.113535e+002
1.120127e+003, 1.117870e+002
1.120609e+003, 1.119892e+002
1.121091e+003, 1.119517e+002
1.121573e+003, 1.116849e+002
1.122056e+003, 1.109883e+002
1.122538e+003, 1.103949e+002
1.123020e+003, 1.109108e+002
1.123502e+003, 1.118698e+002
1.123984e+003, 1.121980e+002
1.124466e+003, 1.112353e+002
1.124948e+003, 1.106472e+002
1.125430e+003, 1.105365e+002
1.125913e+003, 1.105971e+002
1.126395e+003, 1.107330e+002
1.126877e+003, 1.108465e+002
1.127359e+003, 1.106367e+002
1.127841e+003, 1.102177e+002
1.128323e+003, 1.099069e+002
1.128805e+003, 1.097894e+002
1.129287e+003, 1.098607e+002
1.129770e+003, 1.101960e+002
1.130252e+003, 1.105798e+002
1.130734e+003, 1.108762e+002
1.131216e+003, 1.110437e+002
1.131698e+003, 1.107501e+002
1.132180e+003, 1.100783e+002
1.132662e+003, 1.097292e+002
1.133144e+003, 1.104868e+002
1.133626e+003, 1.111393e+002
1.134109e+003, 1.111860e+002
1.134591e+003, 1.109361e+002
1.135073e+003, 1.108519e+002
1.135555e+003, 1.109166e+002
1.136037e+003, 1.109141e+002
1.136519e+003, 1.108188e+002
1.137001e+003, 1.107278e+002
1.137483e+003, 1.107580e+002
1.137965e+003, 1.107734e+002
1.138448e+003, 1.106359e+002
1.138930e+003, 1.104193e+002
1.139412e+003, 1.103582e+002
1.139894e+003, 1.104602e+002
1.140376e+003, 1.106126e+002
1.140858e+003, 1.108117e+002
1.141340e+003, 1.109563e+002
1.141822e+003, 1.110168e+002
1.142304e+003, 1.109335e+002
1.142787e+003, 1.104876e+002
1.143269e+003, 1.096965e+002
1.143751e+003, 1.096225e+002
1.144233e+003, 1.104386e+002
1.144715e+003, 1.109773e+002
1.145197e+003, 1.107352e+002
1.145679e+003, 1.102735e+002
1.146161e+003, 1.102235e+002
1.146644e+003, 1.104387e+002
1.147126e+003, 1.107864e+002
1.147608e+003, 1.113446e+002
1.148090e+003, 1.115332e+002
1.148572e+003, 1.112316e+002
1.149054e+003, 1.109148e+002
1.149536e+003, 1.108130e+002
1.150018e+003, 1.108392e+002
1.150500e+003, 1.108862e+002
1.150983e+003, 1.109358e+002
1.151465e+003, 1.109471e+002
1.151947e+003, 1.108607e+002
1.152429e+003, 1.108656e+002
1.152911e+003, 1.110751e+002
1.153393e+003, 1.111656e+002
1.153875e+003, 1.107578e+002
1.154357e+003, 1.101217e+002
1.154840e+003, 1.099942e+002
1.155322e+003, 1.102794e+002
1.155804e+003, 1.106750e+002
1.156286e+003, 1.114125e+002
1.156768e+003, 1.117032e+002
1.157250e+003, 1.111994e+002
1.157732e+003, 1.106184e+002
1.158214e+003, 1.108213e+002
1.158697e+003, 1.115231e+002
1.159179e+003, 1.111871e+002
1.159661e+003, 1.100303e+002
1.160143e+003, 1.095294e+002
1.160625e+003, 1.115061e+002
1.161107e+003, 1.128222e+002
1.161589e+003, 1.119184e+002
1.162071e+003, 1.105240e+002
1.162553e+003, 1.112709e+002
1.163036e+003, 1.136996e+002
1.163518e+003, 1.143357e+002
1.164000e+003, 1.130280e+002
1.164482e+003, 1.115783e+002
1.164964e+003, 1.109532e+002
1.165446e+003, 1.105901e+002
1.165928e+003, 1.102262e+002
1.166410e+003, 1.099460e+002
1.166892e+003, 1.100191e+002
1.167375e+003, 1.104101e+002
1.167857e+003, 1.105156e+002
1.168339e+003, 1.102413e+002
1.168821e+003, 1.100750e+002
1.169303e+003, 1.104945e+002
1.169785e+003, 1.110178e+002
1.170267e+003, 1.113790e+002
1.170749e+003, 1.115874e+002
1.171231e+003, 1.116973e+002
1.171714e+003, 1.117077e+002
1.172196e+003, 1.113883e+002
1.172678e+003, 1.106096e+002
1.173160e+003, 1.100459e+002
1.173642e+003, 1.104929e+002
1.174124e+003, 1.112142e+002
1.174606e+003, 1.116462e+002
1.175088e+003, 1.118095e+002
1.175571e+003, 1.118877e+002
1.176053e+003, 1.118842e+002
1.176535e+003, 1.116915e+002
1.177017e+003, 1.111777e+002
1.177499e+003, 1.108204e+002
1.177981e+003, 1.112152e+002
1.178463e+003, 1.118949e+002
1.178945e+003, 1.125199e+002
1.179427e+003, 1.130603e+002
1.179910e+003, 1.129797e+002
1.180392e+003, 1.121957e+002
1.180874e+003, 1.116057e+002
1.181356e+003, 1.115808e+002
1.181838e+003, 1.117948e+002
1.182320e+003, 1.120507e+002
1.182802e+003, 1.122608e+002
1.183284e+003, 1.122366e+002
1.183767e+003, 1.118809e+002
1.184249e+003, 1.121484e+002
1.184731e+003, 1.131903e+002
1.185213e+003, 1.138122e+002
1.185695e+003, 1.132211e+002
1.186177e+003, 1.122923e+002
1.186659e+003, 1.119869e+002
1.187141e+003, 1.120284e+002
1.187624e+003, 1.120294e+002
1.188106e+003, 1.119037e+002
1.188588e+003, 1.119079e+002
1.189070e+003, 1.120784e+002
1.189552e+003, 1.121709e+002
1.190034e+003, 1.119214e+002
1.190516e+003, 1.116530e+002
1.190998e+003, 1.118076e+002
1.191480e+003, 1.122180e+002
1.191963e+003, 1.126098e+002
1.192445e+003, 1.129466e+002
1.192927e+003, 1.132548e+002
1.193409e+003, 1.135670e+002
1.193891e+003, 1.136937e+002
1.194373e+003, 1.133139e+002
1.194855e+003, 1.128168e+002
1.195337e+003, 1.126603e+002
1.195819e+003, 1.127937e+002
1.196302e+003, 1.131365e+002
1.196784e+003, 1.139052e+002
1.197266e+003, 1.143058e+002
1.197748e+003, 1.142653e+002
1.198230e+003, 1.141051e+002
1.198712e+003, 1.139936e+002
1.199194e+003, 1.139790e+002
1.199676e+003, 1.142542e+002
1.200158e+003, 1.146755e+002
1.200641e+003, 1.148250e+002
1.201123e+003, 1.144261e+002
1.201605e+003, 1.143021e+002
1.202087e+003, 1.145624e+002
1.202569e+003, 1.148350e+002
1.203051e+003, 1.146009e+002
1.203533e+003, 1.143026e+002
1.204015e+003, 1.147222e+002
1.204498e+003, 1.156101e+002
1.204980e+003, 1.159971e+002
1.205462e+003, 1.154098e+002
1.205944e+003, 1.152015e+002
1.206426e+003, 1.155705e+002
1.206908e+003, 1.159899e+002
1.207390e+003, 1.158187e+002
1.207872e+003, 1.154705e+002
1.208354e+003, 1.155508e+002
1.208837e+003, 1.159659e+002
1.209319e+003, 1.161605e+002
1.209801e+003, 1.160064e+002
1.210283e+003, 1.157926e+002
1.210765e+003, 1.155177e+002
1.211247e+003, 1.153174e+002
1.211729e+003, 1.153161e+002
1.212211e+003, 1.154785e+002
1.212694e+003, 1.159793e+002
1.213176e+003, 1.166753e+002
1.213658e+003, 1.166215e+002
1.214140e+003, 1.153132e+002
1.214622e+003, 1.146727e+002
1.215104e+003, 1.150728e+002
1.215586e+003, 1.157870e+002
1.216068e+003, 1.161311e+002
1.216551e+003, 1.162771e+002
1.217033e+003, 1.164167e+002
1.217515e+003, 1.165607e+002
1.217997e+003, 1.166629e+002
1.218479e+003, 1.167401e+002
1.218961e+003, 1.166879e+002
1.219443e+003, 1.164422e+002
1.219925e+003, 1.162593e+002
1.220407e+003, 1.164862e+002
1.220890e+003, 1.168914e+002
1.221372e+003, 1.172905e+002
1.221854e+003, 1.176299e+002
1.222336e+003, 1.177032e+002
1.222818e+003, 1.174265e+002
1.223300e+003, 1.171811e+002
1.223782e+003, 1.170141e+002
1.224264e+003, 1.170133e+002
1.224746e+003, 1.174225e+002
1.225229e+003, 1.179425e+002
1.225711e+003, 1.182639e+002
1.226193e+003, 1.183725e+002
1.226675e+003, 1.185109e+002
1.227157e+003, 1.187271e+002
1.227639e+003, 1.186836e+002
1.228121e+003, 1.182557e+002
1.228603e+003, 1.178104e+002
1.229085e+003, 1.177756e+002
1.229568e+003, 1.178861e+002
1.230050e+003, 1.178771e+002
1.230532e+003, 1.177543e+002
1.231014e+003, 1.177393e+002
1.231496e+003, 1.178369e+002
1.231978e+003, 1.180357e+002
1.232460e+003, 1.183809e+002
1.232942e+003, 1.185838e+002
1.233425e+003, 1.179965e+002
1.233907e+003, 1.174419e+002
1.234389e+003, 1.179349e+002
1.234871e+003, 1.192249e+002
1.235353e+003, 1.194947e+002
1.235835e+003, 1.186856e+002
1.236317e+003, 1.182157e+002
1.236799e+003, 1.184737e+002
1.237281e+003, 1.188711e+002
1.237764e+003, 1.190264e+002
1.238246e+003, 1.190177e+002
1.238728e+003, 1.187664e+002
1.239210e+003, 1.184008e+002
1.239692e+003, 1.185984e+002
1.240174e+003, 1.193205e+002
1.240656e+003, 1.195302e+002
1.241138e+003, 1.188789e+002
1.241621e+003, 1.182928e+002
1.242103e+003, 1.185919e+002
1.242585e+003, 1.190581e+002
1.243067e+003, 1.189399e+002
1.243549e+003, 1.186476e+002
1.244031e+003, 1.203866e+002
1.244513e+003, 1.237330e+002
1.244995e+003, 1.247689e+002
1.245478e+003, 1.221218e+002
1.245960e+003, 1.201062e+002
1.246442e+003, 1.229588e+002
1.246924e+003, 1.253819e+002
1.247406e+003, 1.241081e+002
1.247888e+003, 1.205731e+002
1.248370e+003, 1.191871e+002
1.248852e+003, 1.195325e+002
1.249334e+003, 1.198424e+002
1.249817e+003, 1.197028e+002
1.250299e+003, 1.196425e+002
1.250781e+003, 1.200290e+002
1.251263e+003, 1.204290e+002
1.251745e+003, 1.207154e+002
1.252227e+003, 1.208568e+002
1.252709e+003, 1.206878e+002
1.253191e+003, 1.203165e+002
1.253673e+003, 1.200223e+002
1.254156e+003, 1.198456e+002
1.254638e+003, 1.198940e+002
1.255120e+003, 1.205631e+002
1.255602e+003, 1.208755e+002
1.256084e+003, 1.203435e+002
1.256566e+003, 1.194987e+002
1.257048e+003, 1.194348e+002
1.257530e+003, 1.198582e+002
1.258012e+003, 1.201743e+002
1.258495e+003, 1.202661e+002
1.258977e+003, 1.204049e+002
1.259459e+003, 1.206448e+002
1.259941e+003, 1.209098e+002
1.260423e+003, 1.212034e+002
1.260905e+003, 1.214482e+002
1.261387e+003, 1.214703e+002
1.261869e+003, 1.213876e+002
1.262352e+003, 1.213558e+002
1.262834e+003, 1.213993e+002
1.263316e+003, 1.215943e+002
1.263798e+003, 1.220794e+002
1.264280e+003, 1.221861e+002
1.264762e+003, 1.216399e+002
1.265244e+003, 1.208888e+002
1.265726e+003, 1.202086e+002
1.266208e+003, 1.198000e+002
1.266691e+003, 1.201067e+002
1.267173e+003, 1.211205e+002
1.267655e+003, 1.213152e+002
1.268137e+003, 1.205435e+002
1.268619e+003, 1.202571e+002
1.269101e+003, 1.209607e+002
1.269583e+003, 1.216965e+002
1.270065e+003, 1.214874e+002
1.270548e+003, 1.209617e+002
1.271030e+003, 1.205700e+002
1.271512e+003, 1.203555e+002
1.271994e+003, 1.205337e+002
1.272476e+003, 1.210948e+002
1.272958e+003, 1.216215e+002
1.273440e+003, 1.220491e+002
1.273922e+003, 1.222260e+002
1.274405e+003, 1.217536e+002
1.274887e+003, 1.212971e+002
1.275369e+003, 1.212832e+002
1.275851e+003, 1.215584e+002
1.276333e+003, 1.217197e+002
1.276815e+003, 1.217780e+002
1.277297e+003, 1.217925e+002
1.277779e+003, 1.217753e+002
1.278261e+003, 1.216853e+002
1.278744e+003, 1.213357e+002
1.279226e+003, 1.211256e+002
1.279708e+003, 1.212447e+002
1.280190e+003, 1.215126e+002
1.280672e+003, 1.215761e+002
1.281154e+003, 1.215089e+002
1.281636e+003, 1.214932e+002
1.282118e+003, 1.215532e+002
1.282600e+003, 1.216725e+002
1.283083e+003, 1.219509e+002
1.283565e+003, 1.220925e+002
1.284047e+003, 1.219945e+002
1.284529e+003, 1.218200e+002
1.285011e+003, 1.217312e+002
1.285493e+003, 1.217585e+002
1.285975e+003, 1.220578e+002
1.286457e+003, 1.226015e+002
1.286939e+003, 1.227859e+002
1.287422e+003, 1.224217e+002
1.287904e+003, 1.222828e+002
1.288386e+003, 1.225823e+002
1.288868e+003, 1.228306e+002
1.289350e+003, 1.221469e+002
1.289832e+003, 1.214218e+002
1.290314e+003, 1.218083e+002
1.290796e+003, 1.230321e+002
1.291279e+003, 1.234575e+002
1.291761e+003, 1.229998e+002
1.292243e+003, 1.225681e+002
1.292725e+003, 1.222822e+002
1.293207e+003, 1.221004e+002
1.293689e+003, 1.220439e+002
1.294171e+003, 1.220218e+002
1.294653e+003, 1.219108e+002
1.295135e+003, 1.218242e+002
1.295618e+003, 1.220559e+002
1.296100e+003, 1.225498e+002
1.296582e+003, 1.226738e+002
1.297064e+003, 1.224086e+002
1.297546e+003, 1.223161e+002
1.298028e+003, 1.230700e+002
1.298510e+003, 1.235132e+002
1.298992e+003, 1.231840e+002
1.299475e+003, 1.225923e+002
1.299957e+003, 1.223737e+002
1.300439e+003, 1.224405e+002
1.300921e+003, 1.225115e+002
1.301403e+003, 1.225987e+002
1.301885e+003, 1.228441e+002
##END=



