##NAMES=Fluorcalciobritholite
##RRUFFID=R141089
##IDEAL CHEMISTRY=(Ca,Ce^3+^)_5_(SiO_4_,PO_4_)_3_F
##LOCALITY=In den Dellen, Laach lake volcano, Mendig, Eifel, Germany
##OWNER=RRUFF
##SOURCE=Ch. and H. Sch√§fer
##DESCRIPTION=Light pinkish, hexagonal prismatic crystals, associated with black prismatic augite and volcanic glass.
##STATUS=The identification of this mineral has been confirmed only by single crystal X-ray diffraction.
##URL=rruff.info/R141089
8.806445e+001, 1.941765e+003
8.854657e+001, 1.876845e+003
8.902869e+001, 1.854378e+003
8.951080e+001, 1.893094e+003
8.999292e+001, 1.965691e+003
9.047504e+001, 2.048286e+003
9.095715e+001, 2.136847e+003
9.143927e+001, 2.226924e+003
9.192139e+001, 2.313052e+003
9.240350e+001, 2.395174e+003
9.288562e+001, 2.475946e+003
9.336774e+001, 2.540649e+003
9.384985e+001, 2.571765e+003
9.433197e+001, 2.565026e+003
9.481409e+001, 2.552095e+003
9.529620e+001, 2.530461e+003
9.577832e+001, 2.513727e+003
9.626044e+001, 2.504158e+003
9.674255e+001, 2.497333e+003
9.722467e+001, 2.486998e+003
9.770679e+001, 2.471019e+003
9.818890e+001, 2.456603e+003
9.867102e+001, 2.442678e+003
9.915314e+001, 2.431163e+003
9.963525e+001, 2.423981e+003
1.001174e+002, 2.421958e+003
1.005995e+002, 2.423611e+003
1.010816e+002, 2.424035e+003
1.015637e+002, 2.423566e+003
1.020458e+002, 2.420906e+003
1.025280e+002, 2.412024e+003
1.030101e+002, 2.400420e+003
1.034922e+002, 2.391844e+003
1.039743e+002, 2.390530e+003
1.044564e+002, 2.396414e+003
1.049385e+002, 2.401711e+003
1.054207e+002, 2.405449e+003
1.059028e+002, 2.409293e+003
1.063849e+002, 2.414794e+003
1.068670e+002, 2.421708e+003
1.073491e+002, 2.427634e+003
1.078312e+002, 2.429965e+003
1.083134e+002, 2.428749e+003
1.087955e+002, 2.426935e+003
1.092776e+002, 2.423602e+003
1.097597e+002, 2.420208e+003
1.102418e+002, 2.419416e+003
1.107239e+002, 2.422645e+003
1.112061e+002, 2.425953e+003
1.116882e+002, 2.424858e+003
1.121703e+002, 2.420372e+003
1.126524e+002, 2.416931e+003
1.131345e+002, 2.418196e+003
1.136166e+002, 2.423807e+003
1.140988e+002, 2.427567e+003
1.145809e+002, 2.427388e+003
1.150630e+002, 2.426079e+003
1.155451e+002, 2.423947e+003
1.160272e+002, 2.421432e+003
1.165093e+002, 2.420442e+003
1.169915e+002, 2.424309e+003
1.174736e+002, 2.436447e+003
1.179557e+002, 2.444219e+003
1.184378e+002, 2.444196e+003
1.189199e+002, 2.441882e+003
1.194020e+002, 2.440930e+003
1.198842e+002, 2.442567e+003
1.203663e+002, 2.445659e+003
1.208484e+002, 2.447652e+003
1.213305e+002, 2.445706e+003
1.218126e+002, 2.445856e+003
1.222947e+002, 2.450857e+003
1.227769e+002, 2.457413e+003
1.232590e+002, 2.460766e+003
1.237411e+002, 2.458112e+003
1.242232e+002, 2.451270e+003
1.247053e+002, 2.448863e+003
1.251874e+002, 2.455079e+003
1.256696e+002, 2.460211e+003
1.261517e+002, 2.460070e+003
1.266338e+002, 2.455580e+003
1.271159e+002, 2.450298e+003
1.275980e+002, 2.445089e+003
1.280801e+002, 2.441388e+003
1.285623e+002, 2.442310e+003
1.290444e+002, 2.451708e+003
1.295265e+002, 2.463179e+003
1.300086e+002, 2.470676e+003
1.304907e+002, 2.473792e+003
1.309728e+002, 2.474831e+003
1.314550e+002, 2.473971e+003
1.319371e+002, 2.472189e+003
1.324192e+002, 2.470690e+003
1.329013e+002, 2.469423e+003
1.333834e+002, 2.468859e+003
1.338655e+002, 2.470803e+003
1.343477e+002, 2.477625e+003
1.348298e+002, 2.483490e+003
1.353119e+002, 2.486475e+003
1.357940e+002, 2.486901e+003
1.362761e+002, 2.485142e+003
1.367582e+002, 2.480337e+003
1.372404e+002, 2.472300e+003
1.377225e+002, 2.469304e+003
1.382046e+002, 2.476827e+003
1.386867e+002, 2.484844e+003
1.391688e+002, 2.491856e+003
1.396509e+002, 2.496859e+003
1.401331e+002, 2.498283e+003
1.406152e+002, 2.493452e+003
1.410973e+002, 2.478146e+003
1.415794e+002, 2.472919e+003
1.420615e+002, 2.484399e+003
1.425436e+002, 2.498836e+003
1.430258e+002, 2.508370e+003
1.435079e+002, 2.511454e+003
1.439900e+002, 2.510991e+003
1.444721e+002, 2.510450e+003
1.449542e+002, 2.509019e+003
1.454363e+002, 2.510074e+003
1.459185e+002, 2.518035e+003
1.464006e+002, 2.526909e+003
1.468827e+002, 2.528272e+003
1.473648e+002, 2.518697e+003
1.478469e+002, 2.505673e+003
1.483290e+002, 2.503255e+003
1.488112e+002, 2.512277e+003
1.492933e+002, 2.519307e+003
1.497754e+002, 2.516118e+003
1.502575e+002, 2.506678e+003
1.507396e+002, 2.503543e+003
1.512217e+002, 2.513926e+003
1.517039e+002, 2.528128e+003
1.521860e+002, 2.533537e+003
1.526681e+002, 2.529333e+003
1.531502e+002, 2.523215e+003
1.536323e+002, 2.520560e+003
1.541144e+002, 2.521451e+003
1.545966e+002, 2.523917e+003
1.550787e+002, 2.529775e+003
1.555608e+002, 2.535625e+003
1.560429e+002, 2.538986e+003
1.565250e+002, 2.539336e+003
1.570071e+002, 2.538040e+003
1.574893e+002, 2.536558e+003
1.579714e+002, 2.534187e+003
1.584535e+002, 2.533671e+003
1.589356e+002, 2.535825e+003
1.594177e+002, 2.539518e+003
1.598998e+002, 2.544823e+003
1.603820e+002, 2.551693e+003
1.608641e+002, 2.558431e+003
1.613462e+002, 2.560563e+003
1.618283e+002, 2.551832e+003
1.623104e+002, 2.547269e+003
1.627925e+002, 2.551370e+003
1.632747e+002, 2.558927e+003
1.637568e+002, 2.564062e+003
1.642389e+002, 2.563768e+003
1.647210e+002, 2.559690e+003
1.652031e+002, 2.558687e+003
1.656852e+002, 2.564905e+003
1.661674e+002, 2.569545e+003
1.666495e+002, 2.570486e+003
1.671316e+002, 2.568972e+003
1.676137e+002, 2.566699e+003
1.680958e+002, 2.564197e+003
1.685779e+002, 2.562156e+003
1.690601e+002, 2.564841e+003
1.695422e+002, 2.577197e+003
1.700243e+002, 2.588207e+003
1.705064e+002, 2.592368e+003
1.709885e+002, 2.590988e+003
1.714706e+002, 2.589658e+003
1.719528e+002, 2.592167e+003
1.724349e+002, 2.597435e+003
1.729170e+002, 2.600320e+003
1.733991e+002, 2.597984e+003
1.738812e+002, 2.595522e+003
1.743633e+002, 2.597729e+003
1.748455e+002, 2.604732e+003
1.753276e+002, 2.611075e+003
1.758097e+002, 2.612861e+003
1.762918e+002, 2.611739e+003
1.767739e+002, 2.610368e+003
1.772560e+002, 2.607668e+003
1.777382e+002, 2.606115e+003
1.782203e+002, 2.610537e+003
1.787024e+002, 2.623181e+003
1.791845e+002, 2.634288e+003
1.796666e+002, 2.637366e+003
1.801487e+002, 2.636181e+003
1.806309e+002, 2.634993e+003
1.811130e+002, 2.635007e+003
1.815951e+002, 2.636523e+003
1.820772e+002, 2.640924e+003
1.825593e+002, 2.651004e+003
1.830414e+002, 2.659243e+003
1.835236e+002, 2.663141e+003
1.840057e+002, 2.663865e+003
1.844878e+002, 2.662477e+003
1.849699e+002, 2.658626e+003
1.854520e+002, 2.653418e+003
1.859341e+002, 2.654124e+003
1.864163e+002, 2.665995e+003
1.868984e+002, 2.678512e+003
1.873805e+002, 2.692329e+003
1.878626e+002, 2.704876e+003
1.883447e+002, 2.711672e+003
1.888268e+002, 2.708750e+003
1.893090e+002, 2.696569e+003
1.897911e+002, 2.690617e+003
1.902732e+002, 2.697028e+003
1.907553e+002, 2.703447e+003
1.912374e+002, 2.705439e+003
1.917195e+002, 2.704684e+003
1.922017e+002, 2.706083e+003
1.926838e+002, 2.714021e+003
1.931659e+002, 2.729132e+003
1.936480e+002, 2.736104e+003
1.941301e+002, 2.728856e+003
1.946122e+002, 2.721337e+003
1.950944e+002, 2.718397e+003
1.955765e+002, 2.720272e+003
1.960586e+002, 2.726204e+003
1.965407e+002, 2.736663e+003
1.970228e+002, 2.751767e+003
1.975049e+002, 2.760746e+003
1.979871e+002, 2.758711e+003
1.984692e+002, 2.755252e+003
1.989513e+002, 2.755986e+003
1.994334e+002, 2.761057e+003
1.999155e+002, 2.767895e+003
2.003976e+002, 2.775047e+003
2.008798e+002, 2.782331e+003
2.013619e+002, 2.788382e+003
2.018440e+002, 2.792510e+003
2.023261e+002, 2.795776e+003
2.028082e+002, 2.799009e+003
2.032903e+002, 2.802255e+003
2.037725e+002, 2.805376e+003
2.042546e+002, 2.807982e+003
2.047367e+002, 2.810352e+003
2.052188e+002, 2.813279e+003
2.057009e+002, 2.816554e+003
2.061830e+002, 2.820649e+003
2.066652e+002, 2.826922e+003
2.071473e+002, 2.836210e+003
2.076294e+002, 2.844448e+003
2.081115e+002, 2.847882e+003
2.085936e+002, 2.848538e+003
2.090757e+002, 2.849258e+003
2.095579e+002, 2.850695e+003
2.100400e+002, 2.852949e+003
2.105221e+002, 2.856598e+003
2.110042e+002, 2.862516e+003
2.114863e+002, 2.867781e+003
2.119685e+002, 2.868836e+003
2.124506e+002, 2.868705e+003
2.129327e+002, 2.872327e+003
2.134148e+002, 2.883822e+003
2.138969e+002, 2.899844e+003
2.143790e+002, 2.909666e+003
2.148612e+002, 2.910136e+003
2.153433e+002, 2.909211e+003
2.158254e+002, 2.908818e+003
2.163075e+002, 2.909243e+003
2.167896e+002, 2.910596e+003
2.172717e+002, 2.912549e+003
2.177539e+002, 2.915765e+003
2.182360e+002, 2.923785e+003
2.187181e+002, 2.943804e+003
2.192002e+002, 2.958975e+003
2.196823e+002, 2.962279e+003
2.201644e+002, 2.959207e+003
2.206466e+002, 2.957191e+003
2.211287e+002, 2.960629e+003
2.216108e+002, 2.968734e+003
2.220929e+002, 2.977155e+003
2.225750e+002, 2.989863e+003
2.230571e+002, 2.998150e+003
2.235393e+002, 2.997531e+003
2.240214e+002, 2.992146e+003
2.245035e+002, 2.987469e+003
2.249856e+002, 2.986663e+003
2.254677e+002, 2.989522e+003
2.259498e+002, 2.994926e+003
2.264320e+002, 3.004417e+003
2.269141e+002, 3.014919e+003
2.273962e+002, 3.028444e+003
2.278783e+002, 3.042310e+003
2.283604e+002, 3.052029e+003
2.288425e+002, 3.054648e+003
2.293247e+002, 3.051854e+003
2.298068e+002, 3.053469e+003
2.302889e+002, 3.062372e+003
2.307710e+002, 3.072006e+003
2.312531e+002, 3.082251e+003
2.317352e+002, 3.092227e+003
2.322174e+002, 3.100529e+003
2.326995e+002, 3.106334e+003
2.331816e+002, 3.110035e+003
2.336637e+002, 3.113240e+003
2.341458e+002, 3.114305e+003
2.346279e+002, 3.116785e+003
2.351101e+002, 3.120875e+003
2.355922e+002, 3.127019e+003
2.360743e+002, 3.137439e+003
2.365564e+002, 3.154486e+003
2.370385e+002, 3.174255e+003
2.375206e+002, 3.182625e+003
2.380028e+002, 3.171830e+003
2.384849e+002, 3.164423e+003
2.389670e+002, 3.170653e+003
2.394491e+002, 3.185878e+003
2.399312e+002, 3.199787e+003
2.404133e+002, 3.207873e+003
2.408955e+002, 3.212292e+003
2.413776e+002, 3.218125e+003
2.418597e+002, 3.226220e+003
2.423418e+002, 3.233408e+003
2.428239e+002, 3.236769e+003
2.433060e+002, 3.237990e+003
2.437882e+002, 3.242223e+003
2.442703e+002, 3.252332e+003
2.447524e+002, 3.264730e+003
2.452345e+002, 3.273200e+003
2.457166e+002, 3.277018e+003
2.461987e+002, 3.281018e+003
2.466809e+002, 3.288231e+003
2.471630e+002, 3.297621e+003
2.476451e+002, 3.305573e+003
2.481272e+002, 3.310188e+003
2.486093e+002, 3.314193e+003
2.490914e+002, 3.321494e+003
2.495736e+002, 3.332150e+003
2.500557e+002, 3.341702e+003
2.505378e+002, 3.346702e+003
2.510199e+002, 3.348253e+003
2.515020e+002, 3.350963e+003
2.519841e+002, 3.356070e+003
2.524663e+002, 3.362110e+003
2.529484e+002, 3.367461e+003
2.534305e+002, 3.372254e+003
2.539126e+002, 3.377933e+003
2.543947e+002, 3.385477e+003
2.548768e+002, 3.394684e+003
2.553590e+002, 3.405000e+003
2.558411e+002, 3.418940e+003
2.563232e+002, 3.430159e+003
2.568053e+002, 3.432167e+003
2.572874e+002, 3.427544e+003
2.577695e+002, 3.425577e+003
2.582516e+002, 3.433026e+003
2.587338e+002, 3.448404e+003
2.592159e+002, 3.463729e+003
2.596980e+002, 3.480147e+003
2.601801e+002, 3.494420e+003
2.606622e+002, 3.504804e+003
2.611443e+002, 3.512119e+003
2.616265e+002, 3.518125e+003
2.621086e+002, 3.523283e+003
2.625907e+002, 3.527920e+003
2.630728e+002, 3.533257e+003
2.635549e+002, 3.538466e+003
2.640370e+002, 3.545913e+003
2.645192e+002, 3.558232e+003
2.650013e+002, 3.572798e+003
2.654834e+002, 3.585229e+003
2.659655e+002, 3.592643e+003
2.664476e+002, 3.596578e+003
2.669297e+002, 3.602730e+003
2.674119e+002, 3.612512e+003
2.678940e+002, 3.622310e+003
2.683761e+002, 3.630225e+003
2.688582e+002, 3.637729e+003
2.693403e+002, 3.646984e+003
2.698224e+002, 3.659289e+003
2.703046e+002, 3.673243e+003
2.707867e+002, 3.684938e+003
2.712688e+002, 3.693432e+003
2.717509e+002, 3.701168e+003
2.722330e+002, 3.707904e+003
2.727151e+002, 3.714658e+003
2.731973e+002, 3.722546e+003
2.736794e+002, 3.732034e+003
2.741615e+002, 3.742585e+003
2.746436e+002, 3.753445e+003
2.751257e+002, 3.765721e+003
2.756078e+002, 3.775917e+003
2.760900e+002, 3.780377e+003
2.765721e+002, 3.784753e+003
2.770542e+002, 3.794963e+003
2.775363e+002, 3.812385e+003
2.780184e+002, 3.831818e+003
2.785005e+002, 3.843956e+003
2.789827e+002, 3.844415e+003
2.794648e+002, 3.847186e+003
2.799469e+002, 3.851142e+003
2.804290e+002, 3.858453e+003
2.809111e+002, 3.872305e+003
2.813932e+002, 3.892404e+003
2.818754e+002, 3.914087e+003
2.823575e+002, 3.931233e+003
2.828396e+002, 3.942355e+003
2.833217e+002, 3.953023e+003
2.838038e+002, 3.964014e+003
2.842859e+002, 3.974025e+003
2.847681e+002, 3.980128e+003
2.852502e+002, 3.983639e+003
2.857323e+002, 3.990042e+003
2.862144e+002, 4.006292e+003
2.866965e+002, 4.035639e+003
2.871786e+002, 4.055966e+003
2.876608e+002, 4.061169e+003
2.881429e+002, 4.064068e+003
2.886250e+002, 4.067798e+003
2.891071e+002, 4.073449e+003
2.895892e+002, 4.082138e+003
2.900714e+002, 4.095395e+003
2.905535e+002, 4.113295e+003
2.910356e+002, 4.127506e+003
2.915177e+002, 4.134075e+003
2.919998e+002, 4.141106e+003
2.924819e+002, 4.151614e+003
2.929641e+002, 4.164194e+003
2.934462e+002, 4.176013e+003
2.939283e+002, 4.185329e+003
2.944104e+002, 4.192358e+003
2.948925e+002, 4.198961e+003
2.953746e+002, 4.199782e+003
2.958568e+002, 4.206341e+003
2.963389e+002, 4.224252e+003
2.968210e+002, 4.247897e+003
2.973031e+002, 4.270243e+003
2.977852e+002, 4.288029e+003
2.982673e+002, 4.301623e+003
2.987495e+002, 4.311893e+003
2.992316e+002, 4.312705e+003
2.997137e+002, 4.317981e+003
3.001958e+002, 4.331466e+003
3.006779e+002, 4.348084e+003
3.011600e+002, 4.362720e+003
3.016422e+002, 4.373731e+003
3.021243e+002, 4.382994e+003
3.026064e+002, 4.393965e+003
3.030885e+002, 4.408958e+003
3.035706e+002, 4.421426e+003
3.040527e+002, 4.427404e+003
3.045349e+002, 4.433664e+003
3.050170e+002, 4.447165e+003
3.054991e+002, 4.468128e+003
3.059812e+002, 4.489437e+003
3.064633e+002, 4.501983e+003
3.069454e+002, 4.502438e+003
3.074276e+002, 4.505411e+003
3.079097e+002, 4.510502e+003
3.083918e+002, 4.517937e+003
3.088739e+002, 4.527384e+003
3.093560e+002, 4.539196e+003
3.098381e+002, 4.554790e+003
3.103203e+002, 4.576446e+003
3.108024e+002, 4.604839e+003
3.112845e+002, 4.626596e+003
3.117666e+002, 4.640565e+003
3.122487e+002, 4.650272e+003
3.127308e+002, 4.650979e+003
3.132130e+002, 4.648378e+003
3.136951e+002, 4.654930e+003
3.141772e+002, 4.679671e+003
3.146593e+002, 4.718940e+003
3.151414e+002, 4.746515e+003
3.156235e+002, 4.746131e+003
3.161057e+002, 4.752936e+003
3.165878e+002, 4.777958e+003
3.170699e+002, 4.811983e+003
3.175520e+002, 4.842366e+003
3.180341e+002, 4.863335e+003
3.185162e+002, 4.878303e+003
3.189984e+002, 4.895708e+003
3.194805e+002, 4.916704e+003
3.199626e+002, 4.938988e+003
3.204447e+002, 4.962290e+003
3.209268e+002, 4.986951e+003
3.214089e+002, 5.014057e+003
3.218911e+002, 5.043690e+003
3.223732e+002, 5.073696e+003
3.228553e+002, 5.101046e+003
3.233374e+002, 5.123992e+003
3.238195e+002, 5.148216e+003
3.243016e+002, 5.172317e+003
3.247838e+002, 5.198420e+003
3.252659e+002, 5.228220e+003
3.257480e+002, 5.261567e+003
3.262301e+002, 5.296484e+003
3.267122e+002, 5.331417e+003
3.271943e+002, 5.366245e+003
3.276765e+002, 5.400748e+003
3.281586e+002, 5.435671e+003
3.286407e+002, 5.469360e+003
3.291228e+002, 5.500436e+003
3.296049e+002, 5.529792e+003
3.300870e+002, 5.559311e+003
3.305692e+002, 5.590102e+003
3.310513e+002, 5.622358e+003
3.315334e+002, 5.656971e+003
3.320155e+002, 5.698298e+003
3.324976e+002, 5.737578e+003
3.329797e+002, 5.772571e+003
3.334619e+002, 5.805169e+003
3.339440e+002, 5.837339e+003
3.344261e+002, 5.870051e+003
3.349082e+002, 5.903788e+003
3.353904e+002, 5.940390e+003
3.358725e+002, 5.983682e+003
3.363546e+002, 6.023606e+003
3.368367e+002, 6.055471e+003
3.373188e+002, 6.086937e+003
3.378009e+002, 6.125940e+003
3.382831e+002, 6.173222e+003
3.387652e+002, 6.221542e+003
3.392473e+002, 6.259981e+003
3.397294e+002, 6.283561e+003
3.402115e+002, 6.313399e+003
3.406936e+002, 6.353633e+003
3.411758e+002, 6.395541e+003
3.416579e+002, 6.435308e+003
3.421400e+002, 6.472915e+003
3.426221e+002, 6.509523e+003
3.431042e+002, 6.545769e+003
3.435863e+002, 6.581633e+003
3.440685e+002, 6.620653e+003
3.445506e+002, 6.667919e+003
3.450327e+002, 6.713009e+003
3.455148e+002, 6.751300e+003
3.459969e+002, 6.786229e+003
3.464790e+002, 6.823467e+003
3.469612e+002, 6.866584e+003
3.474433e+002, 6.912930e+003
3.479254e+002, 6.955590e+003
3.484075e+002, 6.996333e+003
3.488896e+002, 7.028972e+003
3.493717e+002, 7.043740e+003
3.498539e+002, 7.055873e+003
3.503360e+002, 7.079888e+003
3.508181e+002, 7.119762e+003
3.513002e+002, 7.167454e+003
3.517823e+002, 7.212152e+003
3.522644e+002, 7.254308e+003
3.527466e+002, 7.291780e+003
3.532287e+002, 7.324083e+003
3.537108e+002, 7.352363e+003
3.541929e+002, 7.373729e+003
3.546750e+002, 7.390363e+003
3.551571e+002, 7.410014e+003
3.556393e+002, 7.441306e+003
3.561214e+002, 7.484259e+003
3.566035e+002, 7.521323e+003
3.570856e+002, 7.551185e+003
3.575677e+002, 7.575736e+003
3.580498e+002, 7.590652e+003
3.585320e+002, 7.601785e+003
3.590141e+002, 7.619652e+003
3.594962e+002, 7.651452e+003
3.599783e+002, 7.691122e+003
3.604604e+002, 7.721780e+003
3.609425e+002, 7.740177e+003
3.614247e+002, 7.757107e+003
3.619068e+002, 7.774560e+003
3.623889e+002, 7.792647e+003
3.628710e+002, 7.811792e+003
3.633531e+002, 7.832156e+003
3.638352e+002, 7.852275e+003
3.643174e+002, 7.869563e+003
3.647995e+002, 7.883483e+003
3.652816e+002, 7.900479e+003
3.657637e+002, 7.926084e+003
3.662458e+002, 7.951087e+003
3.667279e+002, 7.970220e+003
3.672101e+002, 7.983389e+003
3.676922e+002, 7.992341e+003
3.681743e+002, 7.995810e+003
3.686564e+002, 7.995461e+003
3.691385e+002, 7.998901e+003
3.696206e+002, 8.007202e+003
3.701028e+002, 8.017998e+003
3.705849e+002, 8.032030e+003
3.710670e+002, 8.047167e+003
3.715491e+002, 8.059155e+003
3.720312e+002, 8.065466e+003
3.725133e+002, 8.069116e+003
3.729955e+002, 8.074703e+003
3.734776e+002, 8.082525e+003
3.739597e+002, 8.089311e+003
3.744418e+002, 8.094310e+003
3.749239e+002, 8.097001e+003
3.754060e+002, 8.096423e+003
3.758882e+002, 8.091853e+003
3.763703e+002, 8.086664e+003
3.768524e+002, 8.083233e+003
3.773345e+002, 8.081146e+003
3.778166e+002, 8.078970e+003
3.782987e+002, 8.077044e+003
3.787809e+002, 8.073687e+003
3.792630e+002, 8.065884e+003
3.797451e+002, 8.054249e+003
3.802272e+002, 8.044027e+003
3.807093e+002, 8.039182e+003
3.811914e+002, 8.035703e+003
3.816736e+002, 8.027547e+003
3.821557e+002, 8.014146e+003
3.826378e+002, 8.000881e+003
3.831199e+002, 7.993791e+003
3.836020e+002, 7.989939e+003
3.840841e+002, 7.977222e+003
3.845663e+002, 7.944196e+003
3.850484e+002, 7.913451e+003
3.855305e+002, 7.901726e+003
3.860126e+002, 7.903592e+003
3.864947e+002, 7.901657e+003
3.869768e+002, 7.888338e+003
3.874590e+002, 7.868297e+003
3.879411e+002, 7.851844e+003
3.884232e+002, 7.841974e+003
3.889053e+002, 7.826549e+003
3.893874e+002, 7.795670e+003
3.898695e+002, 7.761558e+003
3.903517e+002, 7.740155e+003
3.908338e+002, 7.733882e+003
3.913159e+002, 7.730653e+003
3.917980e+002, 7.717397e+003
3.922801e+002, 7.692241e+003
3.927622e+002, 7.674103e+003
3.932444e+002, 7.670177e+003
3.937265e+002, 7.665810e+003
3.942086e+002, 7.652593e+003
3.946907e+002, 7.632711e+003
3.951728e+002, 7.613249e+003
3.956549e+002, 7.598804e+003
3.961371e+002, 7.587021e+003
3.966192e+002, 7.568924e+003
3.971013e+002, 7.537499e+003
3.975834e+002, 7.508286e+003
3.980655e+002, 7.485220e+003
3.985476e+002, 7.463538e+003
3.990298e+002, 7.436789e+003
3.995119e+002, 7.404005e+003
3.999940e+002, 7.371550e+003
4.004761e+002, 7.348252e+003
4.009582e+002, 7.336614e+003
4.014403e+002, 7.325770e+003
4.019225e+002, 7.320240e+003
4.024046e+002, 7.311227e+003
4.028867e+002, 7.291879e+003
4.033688e+002, 7.265469e+003
4.038509e+002, 7.240284e+003
4.043330e+002, 7.222034e+003
4.048152e+002, 7.209567e+003
4.052973e+002, 7.196594e+003
4.057794e+002, 7.184643e+003
4.062615e+002, 7.169496e+003
4.067436e+002, 7.149155e+003
4.072257e+002, 7.126199e+003
4.077079e+002, 7.103346e+003
4.081900e+002, 7.081313e+003
4.086721e+002, 7.058997e+003
4.091542e+002, 7.033440e+003
4.096363e+002, 7.002721e+003
4.101184e+002, 6.978626e+003
4.106006e+002, 6.969828e+003
4.110827e+002, 6.961371e+003
4.115648e+002, 6.945175e+003
4.120469e+002, 6.922510e+003
4.125290e+002, 6.899445e+003
4.130111e+002, 6.880088e+003
4.134933e+002, 6.863284e+003
4.139754e+002, 6.844806e+003
4.144575e+002, 6.823409e+003
4.149396e+002, 6.803831e+003
4.154217e+002, 6.789892e+003
4.159038e+002, 6.778528e+003
4.163860e+002, 6.766913e+003
4.168681e+002, 6.754910e+003
4.173502e+002, 6.740871e+003
4.178323e+002, 6.721539e+003
4.183144e+002, 6.697728e+003
4.187965e+002, 6.677615e+003
4.192787e+002, 6.664694e+003
4.197608e+002, 6.653875e+003
4.202429e+002, 6.638782e+003
4.207250e+002, 6.619870e+003
4.212071e+002, 6.602798e+003
4.216892e+002, 6.589603e+003
4.221714e+002, 6.579190e+003
4.226535e+002, 6.571699e+003
4.231356e+002, 6.567135e+003
4.236177e+002, 6.559976e+003
4.240998e+002, 6.545475e+003
4.245819e+002, 6.525401e+003
4.250641e+002, 6.508472e+003
4.255462e+002, 6.496208e+003
4.260283e+002, 6.485122e+003
4.265104e+002, 6.475865e+003
4.269925e+002, 6.466495e+003
4.274746e+002, 6.451759e+003
4.279568e+002, 6.429245e+003
4.284389e+002, 6.405558e+003
4.289210e+002, 6.390567e+003
4.294031e+002, 6.387760e+003
4.298852e+002, 6.385103e+003
4.303673e+002, 6.387292e+003
4.308495e+002, 6.385894e+003
4.313316e+002, 6.371573e+003
4.318137e+002, 6.347093e+003
4.322958e+002, 6.324471e+003
4.327779e+002, 6.312487e+003
4.332600e+002, 6.309813e+003
4.337422e+002, 6.305896e+003
4.342243e+002, 6.299978e+003
4.347064e+002, 6.293587e+003
4.351885e+002, 6.286418e+003
4.356706e+002, 6.279054e+003
4.361527e+002, 6.271943e+003
4.366349e+002, 6.265271e+003
4.371170e+002, 6.259292e+003
4.375991e+002, 6.253822e+003
4.380812e+002, 6.247625e+003
4.385633e+002, 6.246503e+003
4.390454e+002, 6.257671e+003
4.395276e+002, 6.267156e+003
4.400097e+002, 6.270677e+003
4.404918e+002, 6.268031e+003
4.409739e+002, 6.258950e+003
4.414560e+002, 6.240988e+003
4.419381e+002, 6.219382e+003
4.424203e+002, 6.210571e+003
4.429024e+002, 6.219970e+003
4.433845e+002, 6.227960e+003
4.438666e+002, 6.229512e+003
4.443487e+002, 6.226708e+003
4.448308e+002, 6.218647e+003
4.453130e+002, 6.205285e+003
4.457951e+002, 6.194739e+003
4.462772e+002, 6.197401e+003
4.467593e+002, 6.209950e+003
4.472414e+002, 6.213733e+003
4.477235e+002, 6.202710e+003
4.482057e+002, 6.191085e+003
4.486878e+002, 6.191672e+003
4.491699e+002, 6.199991e+003
4.496520e+002, 6.205853e+003
4.501341e+002, 6.205056e+003
4.506162e+002, 6.202302e+003
4.510984e+002, 6.202768e+003
4.515805e+002, 6.205631e+003
4.520626e+002, 6.204564e+003
4.525447e+002, 6.194340e+003
4.530268e+002, 6.182618e+003
4.535089e+002, 6.187237e+003
4.539911e+002, 6.212667e+003
4.544732e+002, 6.229647e+003
4.549553e+002, 6.224209e+003
4.554374e+002, 6.211446e+003
4.559195e+002, 6.208536e+003
4.564016e+002, 6.216428e+003
4.568838e+002, 6.223165e+003
4.573659e+002, 6.218284e+003
4.578480e+002, 6.202754e+003
4.583301e+002, 6.194728e+003
4.588122e+002, 6.199582e+003
4.592943e+002, 6.204229e+003
4.597765e+002, 6.206274e+003
4.602586e+002, 6.205992e+003
4.607407e+002, 6.203845e+003
4.612228e+002, 6.200040e+003
4.617049e+002, 6.194636e+003
4.621870e+002, 6.186860e+003
4.626692e+002, 6.173915e+003
4.631513e+002, 6.168000e+003
4.636334e+002, 6.180045e+003
4.641155e+002, 6.188167e+003
4.645976e+002, 6.179035e+003
4.650797e+002, 6.158678e+003
4.655619e+002, 6.141691e+003
4.660440e+002, 6.137355e+003
4.665261e+002, 6.141136e+003
4.670082e+002, 6.140800e+003
4.674903e+002, 6.135602e+003
4.679724e+002, 6.128265e+003
4.684546e+002, 6.116233e+003
4.689367e+002, 6.104454e+003
4.694188e+002, 6.097486e+003
4.699009e+002, 6.095396e+003
4.703830e+002, 6.093110e+003
4.708651e+002, 6.085921e+003
4.713473e+002, 6.075258e+003
4.718294e+002, 6.065703e+003
4.723115e+002, 6.056592e+003
4.727936e+002, 6.051395e+003
4.732757e+002, 6.059531e+003
4.737578e+002, 6.071820e+003
4.742400e+002, 6.069366e+003
4.747221e+002, 6.040405e+003
4.752042e+002, 6.010865e+003
4.756863e+002, 6.001093e+003
4.761684e+002, 6.004990e+003
4.766505e+002, 6.005058e+003
4.771327e+002, 5.996110e+003
4.776148e+002, 5.982895e+003
4.780969e+002, 5.971114e+003
4.785790e+002, 5.961284e+003
4.790611e+002, 5.949444e+003
4.795432e+002, 5.932611e+003
4.800254e+002, 5.916303e+003
4.805075e+002, 5.905763e+003
4.809896e+002, 5.898930e+003
4.814717e+002, 5.888418e+003
4.819538e+002, 5.869563e+003
4.824359e+002, 5.847003e+003
4.829181e+002, 5.834333e+003
4.834002e+002, 5.845183e+003
4.838823e+002, 5.845895e+003
4.843644e+002, 5.829247e+003
4.848465e+002, 5.808040e+003
4.853286e+002, 5.791326e+003
4.858108e+002, 5.779579e+003
4.862929e+002, 5.767946e+003
4.867750e+002, 5.751804e+003
4.872571e+002, 5.732022e+003
4.877392e+002, 5.715951e+003
4.882213e+002, 5.704888e+003
4.887035e+002, 5.695580e+003
4.891856e+002, 5.688026e+003
4.896677e+002, 5.680977e+003
4.901498e+002, 5.674211e+003
4.906319e+002, 5.667640e+003
4.911140e+002, 5.657757e+003
4.915962e+002, 5.637503e+003
4.920783e+002, 5.608862e+003
4.925604e+002, 5.590490e+003
4.930425e+002, 5.589788e+003
4.935246e+002, 5.588688e+003
4.940067e+002, 5.568870e+003
4.944889e+002, 5.538713e+003
4.949710e+002, 5.517439e+003
4.954531e+002, 5.516388e+003
4.959352e+002, 5.517458e+003
4.964173e+002, 5.504723e+003
4.968994e+002, 5.481583e+003
4.973816e+002, 5.460393e+003
4.978637e+002, 5.445483e+003
4.983458e+002, 5.433692e+003
4.988279e+002, 5.420869e+003
4.993100e+002, 5.406901e+003
4.997921e+002, 5.392306e+003
5.002743e+002, 5.375813e+003
5.007564e+002, 5.359865e+003
5.012385e+002, 5.346625e+003
5.017206e+002, 5.335388e+003
5.022027e+002, 5.324092e+003
5.026848e+002, 5.311504e+003
5.031670e+002, 5.298300e+003
5.036491e+002, 5.286674e+003
5.041312e+002, 5.277418e+003
5.046133e+002, 5.268480e+003
5.050954e+002, 5.260470e+003
5.055775e+002, 5.252205e+003
5.060597e+002, 5.243368e+003
5.065418e+002, 5.233587e+003
5.070239e+002, 5.222080e+003
5.075060e+002, 5.207808e+003
5.079881e+002, 5.191457e+003
5.084702e+002, 5.176269e+003
5.089524e+002, 5.162499e+003
5.094345e+002, 5.149373e+003
5.099166e+002, 5.136063e+003
5.103987e+002, 5.123694e+003
5.108808e+002, 5.114252e+003
5.113629e+002, 5.108058e+003
5.118451e+002, 5.101121e+003
5.123271e+002, 5.089715e+003
5.128093e+002, 5.075362e+003
5.132914e+002, 5.062771e+003
5.137735e+002, 5.052739e+003
5.142556e+002, 5.042582e+003
5.147377e+002, 5.030103e+003
5.152198e+002, 5.016044e+003
5.157020e+002, 5.002945e+003
5.161841e+002, 4.989808e+003
5.166662e+002, 4.979171e+003
5.171483e+002, 4.974980e+003
5.176304e+002, 4.973202e+003
5.181125e+002, 4.966061e+003
5.185947e+002, 4.951767e+003
5.190768e+002, 4.936821e+003
5.195589e+002, 4.928632e+003
5.200410e+002, 4.928220e+003
5.205231e+002, 4.924364e+003
5.210052e+002, 4.918333e+003
5.214874e+002, 4.908049e+003
5.219695e+002, 4.886005e+003
5.224516e+002, 4.861546e+003
5.229337e+002, 4.850731e+003
5.234158e+002, 4.858765e+003
5.238979e+002, 4.871495e+003
5.243801e+002, 4.866113e+003
5.248622e+002, 4.838158e+003
5.253443e+002, 4.815661e+003
5.258264e+002, 4.799359e+003
5.263085e+002, 4.789105e+003
5.267906e+002, 4.790358e+003
5.272728e+002, 4.796538e+003
5.277549e+002, 4.794353e+003
5.282370e+002, 4.775624e+003
5.287191e+002, 4.752721e+003
5.292012e+002, 4.743880e+003
5.296833e+002, 4.747813e+003
5.301655e+002, 4.744718e+003
5.306476e+002, 4.727065e+003
5.311297e+002, 4.705146e+003
5.316118e+002, 4.689542e+003
5.320939e+002, 4.679525e+003
5.325760e+002, 4.672291e+003
5.330582e+002, 4.669229e+003
5.335403e+002, 4.667105e+003
5.340224e+002, 4.663720e+003
5.345045e+002, 4.659239e+003
5.349866e+002, 4.654636e+003
5.354688e+002, 4.650472e+003
5.359509e+002, 4.645749e+003
5.364330e+002, 4.638315e+003
5.369151e+002, 4.625715e+003
5.373972e+002, 4.616540e+003
5.378793e+002, 4.614167e+003
5.383615e+002, 4.611762e+003
5.388436e+002, 4.604918e+003
5.393257e+002, 4.594989e+003
5.398078e+002, 4.585785e+003
5.402899e+002, 4.579475e+003
5.407720e+002, 4.574866e+003
5.412542e+002, 4.569202e+003
5.417363e+002, 4.562209e+003
5.422184e+002, 4.554971e+003
5.427005e+002, 4.545540e+003
5.431826e+002, 4.537763e+003
5.436647e+002, 4.536338e+003
5.441469e+002, 4.539160e+003
5.446290e+002, 4.537800e+003
5.451111e+002, 4.523995e+003
5.455932e+002, 4.506562e+003
5.460753e+002, 4.500447e+003
5.465574e+002, 4.505232e+003
5.470396e+002, 4.507783e+003
5.475217e+002, 4.502618e+003
5.480038e+002, 4.493760e+003
5.484859e+002, 4.487519e+003
5.489680e+002, 4.484245e+003
5.494501e+002, 4.479760e+003
5.499323e+002, 4.471087e+003
5.504144e+002, 4.462760e+003
5.508965e+002, 4.460162e+003
5.513786e+002, 4.461427e+003
5.518607e+002, 4.458972e+003
5.523428e+002, 4.448281e+003
5.528250e+002, 4.433799e+003
5.533071e+002, 4.427085e+003
5.537892e+002, 4.436540e+003
5.542713e+002, 4.438396e+003
5.547534e+002, 4.427174e+003
5.552355e+002, 4.414376e+003
5.557177e+002, 4.405985e+003
5.561998e+002, 4.401653e+003
5.566819e+002, 4.398398e+003
5.571640e+002, 4.394253e+003
5.576461e+002, 4.390599e+003
5.581282e+002, 4.391499e+003
5.586104e+002, 4.398070e+003
5.590925e+002, 4.401917e+003
5.595746e+002, 4.399734e+003
5.600567e+002, 4.395293e+003
5.605388e+002, 4.392061e+003
5.610209e+002, 4.389836e+003
5.615031e+002, 4.386996e+003
5.619852e+002, 4.382310e+003
5.624673e+002, 4.377196e+003
5.629494e+002, 4.373194e+003
5.634315e+002, 4.370117e+003
5.639136e+002, 4.366874e+003
5.643958e+002, 4.362882e+003
5.648779e+002, 4.358855e+003
5.653600e+002, 4.356007e+003
5.658421e+002, 4.354675e+003
5.663242e+002, 4.353729e+003
5.668063e+002, 4.353333e+003
5.672885e+002, 4.353134e+003
5.677706e+002, 4.353009e+003
5.682527e+002, 4.352909e+003
5.687348e+002, 4.352633e+003
5.692169e+002, 4.352056e+003
5.696990e+002, 4.351726e+003
5.701812e+002, 4.353268e+003
5.706633e+002, 4.357825e+003
5.711454e+002, 4.359464e+003
5.716275e+002, 4.353083e+003
5.721096e+002, 4.348585e+003
5.725917e+002, 4.353593e+003
5.730739e+002, 4.364088e+003
5.735560e+002, 4.370514e+003
5.740381e+002, 4.368305e+003
5.745202e+002, 4.362343e+003
5.750023e+002, 4.358009e+003
5.754844e+002, 4.354813e+003
5.759666e+002, 4.349127e+003
5.764487e+002, 4.338777e+003
5.769308e+002, 4.330028e+003
5.774129e+002, 4.331677e+003
5.778950e+002, 4.343903e+003
5.783771e+002, 4.347540e+003
5.788593e+002, 4.332777e+003
5.793414e+002, 4.319472e+003
5.798235e+002, 4.317765e+003
5.803056e+002, 4.323021e+003
5.807877e+002, 4.328226e+003
5.812698e+002, 4.331012e+003
5.817520e+002, 4.331729e+003
5.822341e+002, 4.330346e+003
5.827162e+002, 4.326357e+003
5.831984e+002, 4.325097e+003
5.836805e+002, 4.330656e+003
5.841626e+002, 4.333800e+003
5.846447e+002, 4.328680e+003
5.851268e+002, 4.321313e+003
5.856089e+002, 4.320427e+003
5.860911e+002, 4.328454e+003
5.865732e+002, 4.336024e+003
5.870553e+002, 4.331461e+003
5.875374e+002, 4.318924e+003
5.880195e+002, 4.316136e+003
5.885016e+002, 4.326627e+003
5.889838e+002, 4.335942e+003
5.894659e+002, 4.333356e+003
5.899480e+002, 4.323298e+003
5.904301e+002, 4.319704e+003
5.909122e+002, 4.326326e+003
5.913943e+002, 4.331816e+003
5.918765e+002, 4.335329e+003
5.923586e+002, 4.334488e+003
5.928407e+002, 4.321872e+003
5.933228e+002, 4.300056e+003
5.938049e+002, 4.285277e+003
5.942870e+002, 4.290774e+003
5.947692e+002, 4.311038e+003
5.952513e+002, 4.320041e+003
5.957334e+002, 4.310675e+003
5.962155e+002, 4.302290e+003
5.966976e+002, 4.296278e+003
5.971797e+002, 4.292282e+003
5.976619e+002, 4.290661e+003
5.981440e+002, 4.290952e+003
5.986261e+002, 4.291711e+003
5.991082e+002, 4.292519e+003
5.995903e+002, 4.292810e+003
6.000724e+002, 4.290694e+003
6.005546e+002, 4.286131e+003
6.010367e+002, 4.283792e+003
6.015188e+002, 4.285775e+003
6.020009e+002, 4.289575e+003
6.024830e+002, 4.293035e+003
6.029651e+002, 4.296235e+003
6.034473e+002, 4.295960e+003
6.039294e+002, 4.288880e+003
6.044115e+002, 4.280958e+003
6.048936e+002, 4.274691e+003
6.053757e+002, 4.270547e+003
6.058578e+002, 4.270710e+003
6.063400e+002, 4.275769e+003
6.068221e+002, 4.279884e+003
6.073042e+002, 4.273527e+003
6.077863e+002, 4.254001e+003
6.082684e+002, 4.241907e+003
6.087505e+002, 4.240858e+003
6.092327e+002, 4.243649e+003
6.097148e+002, 4.253787e+003
6.101969e+002, 4.264095e+003
6.106790e+002, 4.263894e+003
6.111611e+002, 4.250012e+003
6.116432e+002, 4.235296e+003
6.121254e+002, 4.231176e+003
6.126075e+002, 4.235245e+003
6.130896e+002, 4.241157e+003
6.135717e+002, 4.248957e+003
6.140538e+002, 4.254305e+003
6.145359e+002, 4.254290e+003
6.150181e+002, 4.250009e+003
6.155002e+002, 4.244694e+003
6.159823e+002, 4.238077e+003
6.164644e+002, 4.231060e+003
6.169465e+002, 4.221458e+003
6.174286e+002, 4.213271e+003
6.179108e+002, 4.210938e+003
6.183929e+002, 4.213452e+003
6.188750e+002, 4.216731e+003
6.193571e+002, 4.218431e+003
6.198392e+002, 4.218288e+003
6.203214e+002, 4.214762e+003
6.208035e+002, 4.205417e+003
6.212856e+002, 4.200319e+003
6.217677e+002, 4.205933e+003
6.222498e+002, 4.210919e+003
6.227319e+002, 4.207687e+003
6.232141e+002, 4.199174e+003
6.236962e+002, 4.193640e+003
6.241783e+002, 4.196102e+003
6.246604e+002, 4.199176e+003
6.251425e+002, 4.194766e+003
6.256246e+002, 4.184881e+003
6.261068e+002, 4.175545e+003
6.265889e+002, 4.167774e+003
6.270710e+002, 4.163301e+003
6.275531e+002, 4.164744e+003
6.280352e+002, 4.171715e+003
6.285173e+002, 4.175149e+003
6.289995e+002, 4.174181e+003
6.294816e+002, 4.171292e+003
6.299637e+002, 4.164267e+003
6.304458e+002, 4.157242e+003
6.309279e+002, 4.154638e+003
6.314100e+002, 4.156601e+003
6.318922e+002, 4.159774e+003
6.323743e+002, 4.161470e+003
6.328564e+002, 4.162155e+003
6.333385e+002, 4.164412e+003
6.338206e+002, 4.169584e+003
6.343027e+002, 4.170553e+003
6.347849e+002, 4.163214e+003
6.352670e+002, 4.152632e+003
6.357491e+002, 4.142424e+003
6.362312e+002, 4.132850e+003
6.367133e+002, 4.127050e+003
6.371954e+002, 4.128455e+003
6.376776e+002, 4.131764e+003
6.381597e+002, 4.134745e+003
6.386418e+002, 4.136153e+003
6.391239e+002, 4.131813e+003
6.396060e+002, 4.120411e+003
6.400881e+002, 4.108003e+003
6.405703e+002, 4.102658e+003
6.410524e+002, 4.105286e+003
6.415345e+002, 4.104677e+003
6.420166e+002, 4.094870e+003
6.424987e+002, 4.089031e+003
6.429808e+002, 4.095189e+003
6.434630e+002, 4.103465e+003
6.439451e+002, 4.102257e+003
6.444272e+002, 4.090207e+003
6.449093e+002, 4.077707e+003
6.453914e+002, 4.073560e+003
6.458735e+002, 4.074803e+003
6.463557e+002, 4.074357e+003
6.468378e+002, 4.072083e+003
6.473199e+002, 4.069485e+003
6.478020e+002, 4.066689e+003
6.482841e+002, 4.064548e+003
6.487662e+002, 4.065187e+003
6.492484e+002, 4.069657e+003
6.497305e+002, 4.070802e+003
6.502126e+002, 4.066173e+003
6.506947e+002, 4.059946e+003
6.511768e+002, 4.054027e+003
6.516589e+002, 4.048214e+003
6.521411e+002, 4.040787e+003
6.526232e+002, 4.031462e+003
6.531053e+002, 4.024495e+003
6.535874e+002, 4.027576e+003
6.540695e+002, 4.040884e+003
6.545516e+002, 4.045498e+003
6.550338e+002, 4.037977e+003
6.555159e+002, 4.028559e+003
6.559980e+002, 4.020929e+003
6.564801e+002, 4.014070e+003
6.569622e+002, 4.006289e+003
6.574443e+002, 3.997103e+003
6.579265e+002, 3.990588e+003
6.584086e+002, 3.991233e+003
6.588907e+002, 3.993654e+003
6.593728e+002, 3.991065e+003
6.598549e+002, 3.984507e+003
6.603370e+002, 3.980006e+003
6.608192e+002, 3.980472e+003
6.613013e+002, 3.982974e+003
6.617834e+002, 3.982275e+003
6.622655e+002, 3.977187e+003
6.627476e+002, 3.973344e+003
6.632297e+002, 3.974179e+003
6.637119e+002, 3.972432e+003
6.641940e+002, 3.961235e+003
6.646761e+002, 3.948127e+003
6.651582e+002, 3.946082e+003
6.656403e+002, 3.958534e+003
6.661224e+002, 3.967382e+003
6.666046e+002, 3.951470e+003
6.670867e+002, 3.922208e+003
6.675688e+002, 3.907684e+003
6.680509e+002, 3.909624e+003
6.685330e+002, 3.914052e+003
6.690151e+002, 3.915000e+003
6.694973e+002, 3.912980e+003
6.699794e+002, 3.908553e+003
6.704615e+002, 3.899945e+003
6.709436e+002, 3.893885e+003
6.714257e+002, 3.892570e+003
6.719078e+002, 3.891703e+003
6.723900e+002, 3.890440e+003
6.728721e+002, 3.887657e+003
6.733542e+002, 3.880425e+003
6.738363e+002, 3.867968e+003
6.743184e+002, 3.856329e+003
6.748005e+002, 3.854123e+003
6.752827e+002, 3.860197e+003
6.757648e+002, 3.862981e+003
6.762469e+002, 3.861558e+003
6.767290e+002, 3.859158e+003
6.772111e+002, 3.857994e+003
6.776932e+002, 3.856241e+003
6.781754e+002, 3.850232e+003
6.786575e+002, 3.838906e+003
6.791396e+002, 3.829331e+003
6.796217e+002, 3.824410e+003
6.801038e+002, 3.820655e+003
6.805859e+002, 3.816381e+003
6.810681e+002, 3.811054e+003
6.815502e+002, 3.802928e+003
6.820323e+002, 3.791540e+003
6.825144e+002, 3.780972e+003
6.829965e+002, 3.778115e+003
6.834786e+002, 3.783611e+003
6.839608e+002, 3.786284e+003
6.844429e+002, 3.786607e+003
6.849250e+002, 3.783167e+003
6.854071e+002, 3.769322e+003
6.858892e+002, 3.754692e+003
6.863713e+002, 3.751927e+003
6.868535e+002, 3.762885e+003
6.873356e+002, 3.770299e+003
6.878177e+002, 3.762248e+003
6.882998e+002, 3.750372e+003
6.887819e+002, 3.748031e+003
6.892640e+002, 3.752484e+003
6.897462e+002, 3.752794e+003
6.902283e+002, 3.744635e+003
6.907104e+002, 3.733055e+003
6.911925e+002, 3.725576e+003
6.916746e+002, 3.723016e+003
6.921567e+002, 3.716855e+003
6.926389e+002, 3.702964e+003
6.931210e+002, 3.691049e+003
6.936031e+002, 3.684282e+003
6.940852e+002, 3.680125e+003
6.945673e+002, 3.675396e+003
6.950494e+002, 3.669908e+003
6.955316e+002, 3.667316e+003
6.960137e+002, 3.674208e+003
6.964958e+002, 3.682384e+003
6.969779e+002, 3.679605e+003
6.974600e+002, 3.667846e+003
6.979421e+002, 3.656329e+003
6.984243e+002, 3.648137e+003
6.989064e+002, 3.642543e+003
6.993885e+002, 3.638645e+003
6.998706e+002, 3.636406e+003
7.003527e+002, 3.636417e+003
7.008348e+002, 3.643271e+003
7.013170e+002, 3.646706e+003
7.017991e+002, 3.643118e+003
7.022812e+002, 3.636528e+003
7.027633e+002, 3.630417e+003
7.032454e+002, 3.625192e+003
7.037275e+002, 3.619462e+003
7.042097e+002, 3.610840e+003
7.046918e+002, 3.602455e+003
7.051739e+002, 3.601397e+003
7.056560e+002, 3.605969e+003
7.061381e+002, 3.603663e+003
7.066202e+002, 3.589626e+003
7.071024e+002, 3.576070e+003
7.075845e+002, 3.577164e+003
7.080666e+002, 3.592480e+003
7.085487e+002, 3.596948e+003
7.090308e+002, 3.579789e+003
7.095129e+002, 3.566620e+003
7.099951e+002, 3.564191e+003
7.104772e+002, 3.564876e+003
7.109593e+002, 3.560709e+003
7.114414e+002, 3.553068e+003
7.119235e+002, 3.551193e+003
7.124056e+002, 3.563628e+003
7.128878e+002, 3.578304e+003
7.133699e+002, 3.573159e+003
7.138520e+002, 3.551461e+003
7.143341e+002, 3.537185e+003
7.148162e+002, 3.535669e+003
7.152983e+002, 3.538036e+003
7.157805e+002, 3.538880e+003
7.162626e+002, 3.537525e+003
7.167447e+002, 3.529846e+003
7.172268e+002, 3.505633e+003
7.177089e+002, 3.490164e+003
7.181910e+002, 3.492662e+003
7.186732e+002, 3.498338e+003
7.191553e+002, 3.495568e+003
7.196374e+002, 3.487071e+003
7.201195e+002, 3.482536e+003
7.206016e+002, 3.487066e+003
7.210837e+002, 3.494167e+003
7.215659e+002, 3.495469e+003
7.220480e+002, 3.491711e+003
7.225301e+002, 3.486316e+003
7.230122e+002, 3.479159e+003
7.234943e+002, 3.473310e+003
7.239764e+002, 3.471335e+003
7.244586e+002, 3.471273e+003
7.249407e+002, 3.468015e+003
7.254228e+002, 3.460347e+003
7.259049e+002, 3.452477e+003
7.263870e+002, 3.440682e+003
7.268691e+002, 3.432704e+003
7.273513e+002, 3.437224e+003
7.278334e+002, 3.447160e+003
7.283155e+002, 3.450196e+003
7.287976e+002, 3.442419e+003
7.292797e+002, 3.430830e+003
7.297618e+002, 3.420975e+003
7.302440e+002, 3.413352e+003
7.307261e+002, 3.411580e+003
7.312082e+002, 3.416415e+003
7.316903e+002, 3.416555e+003
7.321724e+002, 3.405467e+003
7.326545e+002, 3.390896e+003
7.331367e+002, 3.384406e+003
7.336188e+002, 3.387947e+003
7.341009e+002, 3.389133e+003
7.345830e+002, 3.385511e+003
7.350651e+002, 3.382488e+003
7.355472e+002, 3.383906e+003
7.360294e+002, 3.385751e+003
7.365115e+002, 3.383059e+003
7.369936e+002, 3.375422e+003
7.374757e+002, 3.366167e+003
7.379578e+002, 3.356688e+003
7.384399e+002, 3.348230e+003
7.389221e+002, 3.344080e+003
7.394042e+002, 3.343930e+003
7.398863e+002, 3.342896e+003
7.403684e+002, 3.339683e+003
7.408505e+002, 3.335768e+003
7.413326e+002, 3.332909e+003
7.418148e+002, 3.330794e+003
7.422969e+002, 3.325758e+003
7.427790e+002, 3.315336e+003
7.432611e+002, 3.305652e+003
7.437432e+002, 3.296419e+003
7.442253e+002, 3.289030e+003
7.447075e+002, 3.285792e+003
7.451896e+002, 3.285222e+003
7.456717e+002, 3.283238e+003
7.461538e+002, 3.277655e+003
7.466359e+002, 3.271126e+003
7.471180e+002, 3.268000e+003
7.476002e+002, 3.266657e+003
7.480823e+002, 3.259854e+003
7.485644e+002, 3.246487e+003
7.490465e+002, 3.235002e+003
7.495286e+002, 3.230977e+003
7.500107e+002, 3.231044e+003
7.504929e+002, 3.226950e+003
7.509750e+002, 3.215223e+003
7.514571e+002, 3.207957e+003
7.519392e+002, 3.209062e+003
7.524213e+002, 3.209895e+003
7.529034e+002, 3.206043e+003
7.533856e+002, 3.200282e+003
7.538677e+002, 3.197440e+003
7.543498e+002, 3.198375e+003
7.548319e+002, 3.197578e+003
7.553140e+002, 3.189873e+003
7.557961e+002, 3.178411e+003
7.562783e+002, 3.167286e+003
7.567604e+002, 3.156937e+003
7.572425e+002, 3.149102e+003
7.577246e+002, 3.144469e+003
7.582067e+002, 3.141945e+003
7.586888e+002, 3.140702e+003
7.591710e+002, 3.140704e+003
7.596531e+002, 3.138820e+003
7.601352e+002, 3.133846e+003
7.606173e+002, 3.128754e+003
7.610994e+002, 3.123957e+003
7.615815e+002, 3.119198e+003
7.620637e+002, 3.114991e+003
7.625458e+002, 3.110730e+003
7.630279e+002, 3.104106e+003
7.635100e+002, 3.092351e+003
7.639921e+002, 3.081501e+003
7.644742e+002, 3.079646e+003
7.649564e+002, 3.081061e+003
7.654385e+002, 3.073005e+003
7.659206e+002, 3.055424e+003
7.664027e+002, 3.041103e+003
7.668848e+002, 3.038519e+003
7.673669e+002, 3.042873e+003
7.678491e+002, 3.042819e+003
7.683312e+002, 3.037045e+003
7.688133e+002, 3.031816e+003
7.692954e+002, 3.027852e+003
7.697775e+002, 3.023623e+003
7.702596e+002, 3.018465e+003
7.707418e+002, 3.012633e+003
7.712239e+002, 3.006349e+003
7.717060e+002, 2.999555e+003
7.721881e+002, 2.992873e+003
7.726702e+002, 2.986717e+003
7.731523e+002, 2.980586e+003
7.736345e+002, 2.973661e+003
7.741166e+002, 2.966578e+003
7.745987e+002, 2.960669e+003
7.750808e+002, 2.956276e+003
7.755629e+002, 2.952891e+003
7.760450e+002, 2.950719e+003
7.765272e+002, 2.948761e+003
7.770093e+002, 2.941080e+003
7.774914e+002, 2.926002e+003
7.779735e+002, 2.914431e+003
7.784556e+002, 2.909911e+003
7.789377e+002, 2.907867e+003
7.794199e+002, 2.905152e+003
7.799020e+002, 2.901612e+003
7.803841e+002, 2.896447e+003
7.808662e+002, 2.887081e+003
7.813483e+002, 2.879860e+003
7.818304e+002, 2.877887e+003
7.823126e+002, 2.877260e+003
7.827947e+002, 2.875458e+003
7.832768e+002, 2.872106e+003
7.837589e+002, 2.867050e+003
7.842410e+002, 2.860148e+003
7.847231e+002, 2.852811e+003
7.852053e+002, 2.846883e+003
7.856874e+002, 2.841989e+003
7.861695e+002, 2.836366e+003
7.866516e+002, 2.829880e+003
7.871337e+002, 2.824373e+003
7.876158e+002, 2.821178e+003
7.880980e+002, 2.818197e+003
7.885801e+002, 2.811848e+003
7.890622e+002, 2.801291e+003
7.895443e+002, 2.793188e+003
7.900264e+002, 2.789036e+003
7.905085e+002, 2.785398e+003
7.909907e+002, 2.783330e+003
7.914728e+002, 2.780181e+003
7.919549e+002, 2.771593e+003
7.924370e+002, 2.759066e+003
7.929191e+002, 2.750579e+003
7.934012e+002, 2.753420e+003
7.938834e+002, 2.756676e+003
7.943655e+002, 2.747500e+003
7.948476e+002, 2.731301e+003
7.953297e+002, 2.719643e+003
7.958118e+002, 2.713929e+003
7.962939e+002, 2.709553e+003
7.967761e+002, 2.703528e+003
7.972582e+002, 2.696814e+003
7.977403e+002, 2.692167e+003
7.982224e+002, 2.690605e+003
7.987045e+002, 2.686369e+003
7.991866e+002, 2.676704e+003
7.996688e+002, 2.668520e+003
8.001509e+002, 2.666830e+003
8.006330e+002, 2.667422e+003
8.011151e+002, 2.665319e+003
8.015972e+002, 2.660127e+003
8.020793e+002, 2.654149e+003
8.025615e+002, 2.645850e+003
8.030436e+002, 2.639304e+003
8.035257e+002, 2.640398e+003
8.040078e+002, 2.643417e+003
8.044899e+002, 2.638620e+003
8.049720e+002, 2.625347e+003
8.054542e+002, 2.611789e+003
8.059363e+002, 2.604295e+003
8.064184e+002, 2.600843e+003
8.069005e+002, 2.597582e+003
8.073826e+002, 2.594444e+003
8.078647e+002, 2.589881e+003
8.083469e+002, 2.583248e+003
8.088290e+002, 2.576806e+003
8.093111e+002, 2.571921e+003
8.097932e+002, 2.568506e+003
8.102753e+002, 2.566482e+003
8.107574e+002, 2.567446e+003
8.112396e+002, 2.566464e+003
8.117217e+002, 2.561316e+003
8.122038e+002, 2.556762e+003
8.126859e+002, 2.557348e+003
8.131680e+002, 2.558534e+003
8.136501e+002, 2.553289e+003
8.141323e+002, 2.540582e+003
8.146144e+002, 2.527660e+003
8.150965e+002, 2.518803e+003
8.155786e+002, 2.512198e+003
8.160607e+002, 2.505807e+003
8.165428e+002, 2.499993e+003
8.170250e+002, 2.495951e+003
8.175071e+002, 2.493877e+003
8.179892e+002, 2.493014e+003
8.184713e+002, 2.493167e+003
8.189534e+002, 2.493142e+003
8.194355e+002, 2.488093e+003
8.199177e+002, 2.476645e+003
8.203998e+002, 2.466337e+003
8.208819e+002, 2.457711e+003
8.213640e+002, 2.450724e+003
8.218461e+002, 2.445927e+003
8.223282e+002, 2.442611e+003
8.228104e+002, 2.439349e+003
8.232925e+002, 2.436097e+003
8.237746e+002, 2.433014e+003
8.242567e+002, 2.430943e+003
8.247388e+002, 2.428224e+003
8.252209e+002, 2.423248e+003
8.257031e+002, 2.417347e+003
8.261852e+002, 2.412963e+003
8.266673e+002, 2.410265e+003
8.271494e+002, 2.406347e+003
8.276315e+002, 2.397173e+003
8.281136e+002, 2.387536e+003
8.285958e+002, 2.388774e+003
8.290779e+002, 2.397597e+003
8.295600e+002, 2.395788e+003
8.300421e+002, 2.379496e+003
8.305242e+002, 2.364464e+003
8.310063e+002, 2.362875e+003
8.314885e+002, 2.369890e+003
8.319706e+002, 2.370335e+003
8.324527e+002, 2.360781e+003
8.329348e+002, 2.353742e+003
8.334169e+002, 2.351416e+003
8.338990e+002, 2.348935e+003
8.343812e+002, 2.343534e+003
8.348633e+002, 2.337371e+003
8.353454e+002, 2.333001e+003
8.358275e+002, 2.330704e+003
8.363096e+002, 2.329501e+003
8.367917e+002, 2.331492e+003
8.372739e+002, 2.331917e+003
8.377560e+002, 2.325436e+003
8.382381e+002, 2.316727e+003
8.387202e+002, 2.313757e+003
8.392023e+002, 2.316330e+003
8.396844e+002, 2.316606e+003
8.401666e+002, 2.308904e+003
8.406487e+002, 2.297632e+003
8.411308e+002, 2.290313e+003
8.416129e+002, 2.286473e+003
8.420950e+002, 2.282964e+003
8.425771e+002, 2.279448e+003
8.430593e+002, 2.276198e+003
8.435414e+002, 2.273250e+003
8.440235e+002, 2.270931e+003
8.445056e+002, 2.270122e+003
8.449877e+002, 2.271622e+003
8.454698e+002, 2.270603e+003
8.459520e+002, 2.263805e+003
8.464341e+002, 2.258827e+003
8.469162e+002, 2.259331e+003
8.473983e+002, 2.260854e+003
8.478804e+002, 2.259789e+003
8.483625e+002, 2.256083e+003
8.488447e+002, 2.251001e+003
8.493268e+002, 2.243335e+003
8.498089e+002, 2.236895e+003
8.502910e+002, 2.235326e+003
8.507731e+002, 2.235087e+003
8.512552e+002, 2.231774e+003
8.517374e+002, 2.225809e+003
8.522195e+002, 2.219765e+003
8.527016e+002, 2.214821e+003
8.531837e+002, 2.211194e+003
8.536658e+002, 2.210890e+003
8.541479e+002, 2.212369e+003
8.546301e+002, 2.206386e+003
8.551122e+002, 2.192625e+003
8.555943e+002, 2.184009e+003
8.560764e+002, 2.186270e+003
8.565585e+002, 2.189901e+003
8.570406e+002, 2.183633e+003
8.575228e+002, 2.168877e+003
8.580049e+002, 2.162563e+003
8.584870e+002, 2.173206e+003
8.589691e+002, 2.177891e+003
8.594512e+002, 2.171130e+003
8.599333e+002, 2.161841e+003
8.604155e+002, 2.152551e+003
8.608976e+002, 2.144651e+003
8.613797e+002, 2.141325e+003
8.618618e+002, 2.144426e+003
8.623439e+002, 2.144243e+003
8.628260e+002, 2.133968e+003
8.633082e+002, 2.121489e+003
8.637903e+002, 2.111786e+003
8.642724e+002, 2.104821e+003
8.647545e+002, 2.100330e+003
8.652366e+002, 2.097906e+003
8.657188e+002, 2.096254e+003
8.662009e+002, 2.094831e+003
8.666830e+002, 2.092659e+003
8.671651e+002, 2.086496e+003
8.676472e+002, 2.077377e+003
8.681293e+002, 2.072938e+003
8.686115e+002, 2.074555e+003
8.690936e+002, 2.074543e+003
8.695757e+002, 2.067697e+003
8.700578e+002, 2.057980e+003
8.705399e+002, 2.054043e+003
8.710220e+002, 2.057979e+003
8.715042e+002, 2.056841e+003
8.719863e+002, 2.045282e+003
8.724684e+002, 2.037279e+003
8.729505e+002, 2.043271e+003
8.734326e+002, 2.050057e+003
8.739147e+002, 2.044538e+003
8.743969e+002, 2.028490e+003
8.748790e+002, 2.015087e+003
8.753611e+002, 2.006721e+003
8.758432e+002, 2.001517e+003
8.763253e+002, 2.001115e+003
8.768074e+002, 2.001668e+003
8.772896e+002, 2.000023e+003
8.777717e+002, 1.996438e+003
8.782538e+002, 1.991897e+003
8.787359e+002, 1.986784e+003
8.792180e+002, 1.982616e+003
8.797001e+002, 1.981627e+003
8.801823e+002, 1.982081e+003
8.806644e+002, 1.981329e+003
8.811465e+002, 1.979153e+003
8.816286e+002, 1.974013e+003
8.821107e+002, 1.965650e+003
8.825928e+002, 1.958526e+003
8.830750e+002, 1.956979e+003
8.835571e+002, 1.958953e+003
8.840392e+002, 1.956858e+003
8.845213e+002, 1.949455e+003
8.850034e+002, 1.945494e+003
8.854855e+002, 1.947170e+003
8.859677e+002, 1.949060e+003
8.864498e+002, 1.948865e+003
8.869319e+002, 1.946927e+003
8.874140e+002, 1.943352e+003
8.878961e+002, 1.937710e+003
8.883782e+002, 1.933475e+003
8.888604e+002, 1.933504e+003
8.893425e+002, 1.931435e+003
8.898246e+002, 1.923754e+003
8.903067e+002, 1.914689e+003
8.907888e+002, 1.906828e+003
8.912709e+002, 1.900955e+003
8.917531e+002, 1.898376e+003
8.922352e+002, 1.900416e+003
8.927173e+002, 1.902895e+003
8.931994e+002, 1.902994e+003
8.936815e+002, 1.901958e+003
8.941636e+002, 1.902300e+003
8.946458e+002, 1.902637e+003
8.951279e+002, 1.897646e+003
8.956100e+002, 1.886333e+003
8.960921e+002, 1.876729e+003
8.965742e+002, 1.877335e+003
8.970563e+002, 1.884480e+003
8.975385e+002, 1.889654e+003
8.980206e+002, 1.892683e+003
8.985027e+002, 1.890180e+003
8.989848e+002, 1.880945e+003
8.994669e+002, 1.872921e+003
8.999490e+002, 1.871720e+003
9.004312e+002, 1.874038e+003
9.009133e+002, 1.871808e+003
9.013954e+002, 1.863042e+003
9.018775e+002, 1.859143e+003
9.023596e+002, 1.863556e+003
9.028417e+002, 1.866969e+003
9.033239e+002, 1.866166e+003
9.038060e+002, 1.863415e+003
9.042881e+002, 1.861336e+003
9.047702e+002, 1.859474e+003
9.052523e+002, 1.854723e+003
9.057344e+002, 1.840931e+003
9.062166e+002, 1.832816e+003
9.066987e+002, 1.840134e+003
9.071808e+002, 1.848370e+003
9.076629e+002, 1.844944e+003
9.081450e+002, 1.835425e+003
9.086271e+002, 1.832326e+003
9.091093e+002, 1.838615e+003
9.095914e+002, 1.843420e+003
9.100735e+002, 1.837385e+003
9.105556e+002, 1.827681e+003
9.110377e+002, 1.820852e+003
9.115198e+002, 1.816828e+003
9.120020e+002, 1.816348e+003
9.124841e+002, 1.818802e+003
9.129662e+002, 1.820979e+003
9.134483e+002, 1.820922e+003
9.139304e+002, 1.818997e+003
9.144125e+002, 1.814827e+003
9.148947e+002, 1.808969e+003
9.153768e+002, 1.806373e+003
9.158589e+002, 1.807422e+003
9.163410e+002, 1.807741e+003
9.168231e+002, 1.805559e+003
9.173052e+002, 1.802934e+003
9.177874e+002, 1.802495e+003
9.182695e+002, 1.803777e+003
9.187516e+002, 1.801819e+003
9.192337e+002, 1.793589e+003
9.197158e+002, 1.789556e+003
9.201979e+002, 1.793890e+003
9.206801e+002, 1.798469e+003
9.211622e+002, 1.798242e+003
9.216443e+002, 1.795659e+003
9.221264e+002, 1.794446e+003
9.226085e+002, 1.794822e+003
9.230906e+002, 1.795733e+003
9.235728e+002, 1.799280e+003
9.240549e+002, 1.800517e+003
9.245370e+002, 1.795283e+003
9.250191e+002, 1.788662e+003
9.255012e+002, 1.785003e+003
9.259833e+002, 1.784406e+003
9.264655e+002, 1.785755e+003
9.269476e+002, 1.789444e+003
9.274297e+002, 1.791607e+003
9.279118e+002, 1.788607e+003
9.283939e+002, 1.783440e+003
9.288760e+002, 1.777862e+003
9.293582e+002, 1.773249e+003
9.298403e+002, 1.773667e+003
9.303224e+002, 1.779130e+003
9.308045e+002, 1.782117e+003
9.312866e+002, 1.775381e+003
9.317687e+002, 1.765063e+003
9.322509e+002, 1.764094e+003
9.327330e+002, 1.770000e+003
9.332151e+002, 1.770966e+003
9.336972e+002, 1.765897e+003
9.341793e+002, 1.760714e+003
9.346614e+002, 1.758192e+003
9.351436e+002, 1.758087e+003
9.356257e+002, 1.760350e+003
9.361078e+002, 1.764846e+003
9.365899e+002, 1.769003e+003
9.370720e+002, 1.773062e+003
9.375541e+002, 1.775686e+003
9.380363e+002, 1.776547e+003
9.385184e+002, 1.775898e+003
9.390005e+002, 1.773248e+003
9.394826e+002, 1.769489e+003
9.399647e+002, 1.767032e+003
9.404468e+002, 1.765635e+003
9.409290e+002, 1.766211e+003
9.414111e+002, 1.770857e+003
9.418932e+002, 1.774729e+003
9.423753e+002, 1.776912e+003
9.428574e+002, 1.777375e+003
9.433395e+002, 1.775077e+003
9.438217e+002, 1.770832e+003
9.443038e+002, 1.768488e+003
9.447859e+002, 1.770696e+003
9.452680e+002, 1.771406e+003
9.457501e+002, 1.766084e+003
9.462322e+002, 1.760757e+003
9.467144e+002, 1.759705e+003
9.471965e+002, 1.762020e+003
9.476786e+002, 1.766956e+003
9.481607e+002, 1.773629e+003
9.486428e+002, 1.777596e+003
9.491249e+002, 1.774278e+003
9.496071e+002, 1.769278e+003
9.500892e+002, 1.768734e+003
9.505713e+002, 1.770218e+003
9.510534e+002, 1.768410e+003
9.515355e+002, 1.764300e+003
9.520176e+002, 1.765018e+003
9.524998e+002, 1.773621e+003
9.529819e+002, 1.782219e+003
9.534640e+002, 1.779805e+003
9.539461e+002, 1.770669e+003
9.544282e+002, 1.768374e+003
9.549103e+002, 1.772063e+003
9.553925e+002, 1.775119e+003
9.558746e+002, 1.776159e+003
9.563567e+002, 1.777215e+003
9.568388e+002, 1.780011e+003
9.573209e+002, 1.782594e+003
9.578030e+002, 1.779748e+003
9.582852e+002, 1.770621e+003
9.587673e+002, 1.766161e+003
9.592494e+002, 1.767197e+003
9.597315e+002, 1.769896e+003
9.602136e+002, 1.773746e+003
9.606957e+002, 1.777528e+003
9.611779e+002, 1.779921e+003
9.616600e+002, 1.781259e+003
9.621421e+002, 1.783529e+003
9.626242e+002, 1.790532e+003
9.631063e+002, 1.790779e+003
9.635884e+002, 1.774991e+003
9.640706e+002, 1.764058e+003
9.645527e+002, 1.770690e+003
9.650348e+002, 1.782669e+003
9.655169e+002, 1.786427e+003
9.659990e+002, 1.782089e+003
9.664811e+002, 1.777689e+003
9.669633e+002, 1.771814e+003
9.674454e+002, 1.769526e+003
9.679275e+002, 1.774373e+003
9.684096e+002, 1.780760e+003
9.688917e+002, 1.786548e+003
9.693738e+002, 1.790566e+003
9.698560e+002, 1.790313e+003
9.703381e+002, 1.785570e+003
9.708202e+002, 1.782983e+003
9.713023e+002, 1.787838e+003
9.717844e+002, 1.793454e+003
9.722665e+002, 1.796741e+003
9.727487e+002, 1.797406e+003
9.732308e+002, 1.792539e+003
9.737129e+002, 1.784988e+003
9.741950e+002, 1.783162e+003
9.746771e+002, 1.790273e+003
9.751592e+002, 1.797865e+003
9.756414e+002, 1.798147e+003
9.761235e+002, 1.794588e+003
9.766056e+002, 1.790989e+003
9.770877e+002, 1.787816e+003
9.775698e+002, 1.785339e+003
9.780519e+002, 1.784048e+003
9.785341e+002, 1.786714e+003
9.790162e+002, 1.795320e+003
9.794983e+002, 1.804620e+003
9.799804e+002, 1.806112e+003
9.804625e+002, 1.801875e+003
9.809446e+002, 1.799268e+003
9.814268e+002, 1.798525e+003
9.819089e+002, 1.801182e+003
9.823910e+002, 1.807683e+003
9.828731e+002, 1.812258e+003
9.833552e+002, 1.809630e+003
9.838373e+002, 1.803780e+003
9.843195e+002, 1.805869e+003
9.848016e+002, 1.816471e+003
9.852837e+002, 1.821317e+003
9.857658e+002, 1.818699e+003
9.862479e+002, 1.817986e+003
9.867300e+002, 1.823449e+003
9.872122e+002, 1.828698e+003
9.876943e+002, 1.826462e+003
9.881764e+002, 1.818741e+003
9.886585e+002, 1.816613e+003
9.891406e+002, 1.821714e+003
9.896227e+002, 1.828082e+003
9.901049e+002, 1.838644e+003
9.905870e+002, 1.844493e+003
9.910691e+002, 1.838863e+003
9.915512e+002, 1.829711e+003
9.920333e+002, 1.825972e+003
9.925154e+002, 1.827602e+003
9.929976e+002, 1.832108e+003
9.934797e+002, 1.845551e+003
9.939618e+002, 1.852630e+003
9.944439e+002, 1.847682e+003
9.949260e+002, 1.841726e+003
9.954081e+002, 1.839011e+003
9.958903e+002, 1.838933e+003
9.963724e+002, 1.841490e+003
9.968545e+002, 1.846525e+003
9.973366e+002, 1.849243e+003
9.978187e+002, 1.845562e+003
9.983008e+002, 1.843822e+003
9.987830e+002, 1.848204e+003
9.992651e+002, 1.853550e+003
9.997472e+002, 1.856026e+003
1.000229e+003, 1.856820e+003
1.000711e+003, 1.858392e+003
1.001194e+003, 1.861214e+003
1.001676e+003, 1.864440e+003
1.002158e+003, 1.869196e+003
1.002640e+003, 1.872479e+003
1.003122e+003, 1.870371e+003
1.003604e+003, 1.867653e+003
1.004086e+003, 1.870901e+003
1.004568e+003, 1.877509e+003
1.005050e+003, 1.879202e+003
1.005533e+003, 1.873546e+003
1.006015e+003, 1.869741e+003
1.006497e+003, 1.877677e+003
1.006979e+003, 1.887009e+003
1.007461e+003, 1.885359e+003
1.007943e+003, 1.879632e+003
1.008425e+003, 1.881558e+003
1.008907e+003, 1.890249e+003
1.009390e+003, 1.897283e+003
1.009872e+003, 1.899092e+003
1.010354e+003, 1.899276e+003
1.010836e+003, 1.901421e+003
1.011318e+003, 1.904154e+003
1.011800e+003, 1.905343e+003
1.012282e+003, 1.905269e+003
1.012764e+003, 1.903890e+003
1.013246e+003, 1.901777e+003
1.013729e+003, 1.901632e+003
1.014211e+003, 1.904918e+003
1.014693e+003, 1.909547e+003
1.015175e+003, 1.912949e+003
1.015657e+003, 1.915498e+003
1.016139e+003, 1.917936e+003
1.016621e+003, 1.920468e+003
1.017103e+003, 1.924388e+003
1.017586e+003, 1.929845e+003
1.018068e+003, 1.935428e+003
1.018550e+003, 1.940299e+003
1.019032e+003, 1.944298e+003
1.019514e+003, 1.947905e+003
1.019996e+003, 1.950542e+003
1.020478e+003, 1.945210e+003
1.020960e+003, 1.932316e+003
1.021442e+003, 1.929537e+003
1.021925e+003, 1.941484e+003
1.022407e+003, 1.953592e+003
1.022889e+003, 1.955626e+003
1.023371e+003, 1.952054e+003
1.023853e+003, 1.951772e+003
1.024335e+003, 1.954810e+003
1.024817e+003, 1.956507e+003
1.025299e+003, 1.956285e+003
1.025781e+003, 1.959670e+003
1.026264e+003, 1.968987e+003
1.026746e+003, 1.977901e+003
1.027228e+003, 1.981316e+003
1.027710e+003, 1.981723e+003
1.028192e+003, 1.985416e+003
1.028674e+003, 1.993139e+003
1.029156e+003, 1.997904e+003
1.029638e+003, 1.999146e+003
1.030120e+003, 1.999047e+003
1.030603e+003, 1.997417e+003
1.031085e+003, 1.996097e+003
1.031567e+003, 1.996048e+003
1.032049e+003, 1.997779e+003
1.032531e+003, 2.002953e+003
1.033013e+003, 2.012580e+003
1.033495e+003, 2.021591e+003
1.033977e+003, 2.032489e+003
1.034460e+003, 2.036941e+003
1.034942e+003, 2.027641e+003
1.035424e+003, 2.018912e+003
1.035906e+003, 2.023671e+003
1.036388e+003, 2.036930e+003
1.036870e+003, 2.043995e+003
1.037352e+003, 2.041735e+003
1.037834e+003, 2.044258e+003
1.038317e+003, 2.057513e+003
1.038799e+003, 2.066303e+003
1.039281e+003, 2.061599e+003
1.039763e+003, 2.056891e+003
1.040245e+003, 2.065748e+003
1.040727e+003, 2.082152e+003
1.041209e+003, 2.088327e+003
1.041691e+003, 2.079591e+003
1.042173e+003, 2.075464e+003
1.042656e+003, 2.079065e+003
1.043138e+003, 2.083469e+003
1.043620e+003, 2.085770e+003
1.044102e+003, 2.089391e+003
1.044584e+003, 2.099564e+003
1.045066e+003, 2.112649e+003
1.045548e+003, 2.118382e+003
1.046030e+003, 2.113319e+003
1.046512e+003, 2.112042e+003
1.046995e+003, 2.119283e+003
1.047477e+003, 2.126302e+003
1.047959e+003, 2.130311e+003
1.048441e+003, 2.133347e+003
1.048923e+003, 2.136946e+003
1.049405e+003, 2.140885e+003
1.049887e+003, 2.144186e+003
1.050369e+003, 2.146375e+003
1.050852e+003, 2.149900e+003
1.051334e+003, 2.156044e+003
1.051816e+003, 2.162547e+003
1.052298e+003, 2.170635e+003
1.052780e+003, 2.176994e+003
1.053262e+003, 2.177064e+003
1.053744e+003, 2.173851e+003
1.054226e+003, 2.174388e+003
1.054708e+003, 2.180197e+003
1.055191e+003, 2.186325e+003
1.055673e+003, 2.190564e+003
1.056155e+003, 2.196032e+003
1.056637e+003, 2.204698e+003
1.057119e+003, 2.214388e+003
1.057601e+003, 2.226033e+003
1.058083e+003, 2.236439e+003
1.058565e+003, 2.236905e+003
1.059047e+003, 2.224863e+003
1.059530e+003, 2.221510e+003
1.060012e+003, 2.242125e+003
1.060494e+003, 2.262083e+003
1.060976e+003, 2.271626e+003
1.061458e+003, 2.275553e+003
1.061940e+003, 2.274081e+003
1.062422e+003, 2.271635e+003
1.062904e+003, 2.277329e+003
1.063387e+003, 2.292768e+003
1.063869e+003, 2.303910e+003
1.064351e+003, 2.301645e+003
1.064833e+003, 2.299081e+003
1.065315e+003, 2.299935e+003
1.065797e+003, 2.304916e+003
1.066279e+003, 2.318367e+003
1.066761e+003, 2.334730e+003
1.067244e+003, 2.343489e+003
1.067726e+003, 2.343262e+003
1.068208e+003, 2.344094e+003
1.068690e+003, 2.350941e+003
1.069172e+003, 2.358488e+003
1.069654e+003, 2.365078e+003
1.070136e+003, 2.370651e+003
1.070618e+003, 2.373040e+003
1.071100e+003, 2.375346e+003
1.071583e+003, 2.383480e+003
1.072065e+003, 2.397537e+003
1.072547e+003, 2.410181e+003
1.073029e+003, 2.419561e+003
1.073511e+003, 2.425063e+003
1.073993e+003, 2.419990e+003
1.074475e+003, 2.417269e+003
1.074957e+003, 2.430993e+003
1.075439e+003, 2.451364e+003
1.075922e+003, 2.461752e+003
1.076404e+003, 2.462121e+003
1.076886e+003, 2.468540e+003
1.077368e+003, 2.491938e+003
1.077850e+003, 2.510898e+003
1.078332e+003, 2.511658e+003
1.078814e+003, 2.508479e+003
1.079297e+003, 2.510342e+003
1.079779e+003, 2.515473e+003
1.080261e+003, 2.519981e+003
1.080743e+003, 2.524415e+003
1.081225e+003, 2.533711e+003
1.081707e+003, 2.551856e+003
1.082189e+003, 2.567019e+003
1.082671e+003, 2.570128e+003
1.083153e+003, 2.572556e+003
1.083635e+003, 2.583508e+003
1.084118e+003, 2.596500e+003
1.084600e+003, 2.602248e+003
1.085082e+003, 2.602801e+003
1.085564e+003, 2.607562e+003
1.086046e+003, 2.619788e+003
1.086528e+003, 2.633034e+003
1.087010e+003, 2.645559e+003
1.087492e+003, 2.657183e+003
1.087975e+003, 2.667613e+003
1.088457e+003, 2.677322e+003
1.088939e+003, 2.685992e+003
1.089421e+003, 2.694595e+003
1.089903e+003, 2.706176e+003
1.090385e+003, 2.721865e+003
1.090867e+003, 2.734426e+003
1.091349e+003, 2.737941e+003
1.091832e+003, 2.741728e+003
1.092314e+003, 2.747829e+003
1.092796e+003, 2.758013e+003
1.093278e+003, 2.778025e+003
1.093760e+003, 2.801487e+003
1.094242e+003, 2.815344e+003
1.094724e+003, 2.817577e+003
1.095206e+003, 2.822439e+003
1.095688e+003, 2.836388e+003
1.096171e+003, 2.850994e+003
1.096653e+003, 2.864039e+003
1.097135e+003, 2.875991e+003
1.097617e+003, 2.886577e+003
1.098099e+003, 2.896666e+003
1.098581e+003, 2.908111e+003
1.099063e+003, 2.920788e+003
1.099545e+003, 2.931229e+003
1.100027e+003, 2.934184e+003
1.100510e+003, 2.942467e+003
1.100992e+003, 2.966624e+003
1.101474e+003, 2.988639e+003
1.101956e+003, 2.994161e+003
1.102438e+003, 2.995485e+003
1.102920e+003, 3.007599e+003
1.103402e+003, 3.029436e+003
1.103884e+003, 3.050485e+003
1.104367e+003, 3.070678e+003
1.104849e+003, 3.086027e+003
1.105331e+003, 3.090604e+003
1.105813e+003, 3.096749e+003
1.106295e+003, 3.109639e+003
1.106777e+003, 3.125783e+003
1.107259e+003, 3.143007e+003
1.107741e+003, 3.160592e+003
1.108224e+003, 3.176819e+003
1.108706e+003, 3.190922e+003
1.109188e+003, 3.205892e+003
1.109670e+003, 3.223649e+003
1.110152e+003, 3.239925e+003
1.110634e+003, 3.250688e+003
1.111116e+003, 3.262832e+003
1.111598e+003, 3.283537e+003
1.112080e+003, 3.307858e+003
1.112563e+003, 3.325544e+003
1.113045e+003, 3.335418e+003
1.113527e+003, 3.348414e+003
1.114009e+003, 3.366083e+003
1.114491e+003, 3.384531e+003
1.114973e+003, 3.404827e+003
1.115455e+003, 3.423978e+003
1.115937e+003, 3.440427e+003
1.116419e+003, 3.455069e+003
1.116902e+003, 3.467683e+003
1.117384e+003, 3.478822e+003
1.117866e+003, 3.495848e+003
1.118348e+003, 3.521698e+003
1.118830e+003, 3.546763e+003
1.119312e+003, 3.571381e+003
1.119794e+003, 3.593770e+003
1.120276e+003, 3.611850e+003
1.120759e+003, 3.629611e+003
1.121241e+003, 3.651469e+003
1.121723e+003, 3.675869e+003
1.122205e+003, 3.697312e+003
1.122687e+003, 3.714818e+003
1.123169e+003, 3.734059e+003
1.123651e+003, 3.755221e+003
1.124133e+003, 3.777906e+003
1.124615e+003, 3.802658e+003
1.125098e+003, 3.827059e+003
1.125580e+003, 3.849518e+003
1.126062e+003, 3.870286e+003
1.126544e+003, 3.888942e+003
1.127026e+003, 3.905587e+003
1.127508e+003, 3.928287e+003
1.127990e+003, 3.957685e+003
1.128472e+003, 3.989124e+003
1.128954e+003, 4.023083e+003
1.129437e+003, 4.049484e+003
1.129919e+003, 4.062142e+003
1.130401e+003, 4.072495e+003
1.130883e+003, 4.095371e+003
1.131365e+003, 4.127393e+003
1.131847e+003, 4.154708e+003
1.132329e+003, 4.177794e+003
1.132811e+003, 4.205014e+003
1.133294e+003, 4.236931e+003
1.133776e+003, 4.267598e+003
1.134258e+003, 4.295050e+003
1.134740e+003, 4.318626e+003
1.135222e+003, 4.336806e+003
1.135704e+003, 4.354781e+003
1.136186e+003, 4.384876e+003
1.136668e+003, 4.423302e+003
1.137151e+003, 4.454336e+003
1.137633e+003, 4.478890e+003
1.138115e+003, 4.502730e+003
1.138597e+003, 4.527352e+003
1.139079e+003, 4.555004e+003
1.139561e+003, 4.586920e+003
1.140043e+003, 4.618359e+003
1.140525e+003, 4.640929e+003
1.141007e+003, 4.661034e+003
1.141490e+003, 4.693584e+003
1.141972e+003, 4.732074e+003
1.142454e+003, 4.758764e+003
1.142936e+003, 4.776864e+003
1.143418e+003, 4.806405e+003
1.143900e+003, 4.852869e+003
1.144382e+003, 4.898661e+003
1.144864e+003, 4.929483e+003
1.145346e+003, 4.955381e+003
1.145829e+003, 4.985959e+003
1.146311e+003, 5.018568e+003
1.146793e+003, 5.049971e+003
1.147275e+003, 5.080839e+003
1.147757e+003, 5.112838e+003
1.148239e+003, 5.146250e+003
1.148721e+003, 5.180175e+003
1.149203e+003, 5.214125e+003
1.149686e+003, 5.249196e+003
1.150168e+003, 5.287997e+003
1.150650e+003, 5.325904e+003
1.151132e+003, 5.357128e+003
1.151614e+003, 5.387709e+003
1.152096e+003, 5.424573e+003
1.152578e+003, 5.466544e+003
1.153060e+003, 5.510517e+003
1.153542e+003, 5.555794e+003
1.154025e+003, 5.596666e+003
1.154507e+003, 5.625407e+003
1.154989e+003, 5.657153e+003
1.155471e+003, 5.698513e+003
1.155953e+003, 5.742975e+003
1.156435e+003, 5.791607e+003
1.156917e+003, 5.837806e+003
1.157399e+003, 5.867870e+003
1.157881e+003, 5.884338e+003
1.158364e+003, 5.916929e+003
1.158846e+003, 5.979995e+003
1.159328e+003, 6.037333e+003
1.159810e+003, 6.085037e+003
1.160292e+003, 6.128700e+003
1.160774e+003, 6.166835e+003
1.161256e+003, 6.204651e+003
1.161738e+003, 6.245671e+003
1.162221e+003, 6.289734e+003
1.162703e+003, 6.338114e+003
1.163185e+003, 6.392800e+003
1.163667e+003, 6.432941e+003
1.164149e+003, 6.447407e+003
1.164631e+003, 6.481859e+003
1.165113e+003, 6.551172e+003
1.165595e+003, 6.616309e+003
1.166078e+003, 6.654839e+003
1.166560e+003, 6.688711e+003
1.167042e+003, 6.747558e+003
1.167524e+003, 6.824065e+003
1.168006e+003, 6.882103e+003
1.168488e+003, 6.921350e+003
1.168970e+003, 6.961422e+003
1.169452e+003, 7.003415e+003
1.169934e+003, 7.046704e+003
1.170417e+003, 7.091049e+003
1.170899e+003, 7.144349e+003
1.171381e+003, 7.213431e+003
1.171863e+003, 7.286904e+003
1.172345e+003, 7.345341e+003
1.172827e+003, 7.392255e+003
1.173309e+003, 7.435495e+003
1.173791e+003, 7.478155e+003
1.174273e+003, 7.535339e+003
1.174756e+003, 7.605880e+003
1.175238e+003, 7.674377e+003
1.175720e+003, 7.734919e+003
1.176202e+003, 7.791931e+003
1.176684e+003, 7.849060e+003
1.177166e+003, 7.905155e+003
1.177648e+003, 7.956383e+003
1.178130e+003, 8.008229e+003
1.178613e+003, 8.070939e+003
1.179095e+003, 8.140417e+003
1.179577e+003, 8.209113e+003
1.180059e+003, 8.275170e+003
1.180541e+003, 8.338260e+003
1.181023e+003, 8.397158e+003
1.181505e+003, 8.458871e+003
1.181987e+003, 8.534352e+003
1.182469e+003, 8.606576e+003
1.182952e+003, 8.654674e+003
1.183434e+003, 8.702510e+003
1.183916e+003, 8.780384e+003
1.184398e+003, 8.873721e+003
1.184880e+003, 8.946867e+003
1.185362e+003, 8.995654e+003
1.185844e+003, 9.057025e+003
1.186326e+003, 9.154750e+003
1.186808e+003, 9.241399e+003
1.187291e+003, 9.288609e+003
1.187773e+003, 9.347731e+003
1.188255e+003, 9.459166e+003
1.188737e+003, 9.577312e+003
1.189219e+003, 9.654639e+003
1.189701e+003, 9.705618e+003
1.190183e+003, 9.776521e+003
1.190665e+003, 9.872768e+003
1.191148e+003, 9.961242e+003
1.191630e+003, 1.003651e+004
1.192112e+003, 1.012159e+004
1.192594e+003, 1.022513e+004
1.193076e+003, 1.032431e+004
1.193558e+003, 1.040592e+004
1.194040e+003, 1.048094e+004
1.194522e+003, 1.056178e+004
1.195005e+003, 1.064863e+004
1.195487e+003, 1.074346e+004
1.195969e+003, 1.084550e+004
1.196451e+003, 1.094739e+004
1.196933e+003, 1.104883e+004
1.197415e+003, 1.115390e+004
1.197897e+003, 1.126370e+004
1.198379e+003, 1.136833e+004
1.198861e+003, 1.146206e+004
1.199344e+003, 1.155323e+004
1.199826e+003, 1.165557e+004
1.200308e+003, 1.176283e+004
1.200790e+003, 1.186151e+004
1.201272e+003, 1.195637e+004
1.201754e+003, 1.205736e+004
1.202236e+003, 1.216517e+004
1.202718e+003, 1.227819e+004
1.203200e+003, 1.239586e+004
1.203683e+003, 1.251531e+004
1.204165e+003, 1.263555e+004
1.204647e+003, 1.275550e+004
1.205129e+003, 1.287211e+004
1.205611e+003, 1.299065e+004
1.206093e+003, 1.311903e+004
1.206575e+003, 1.324798e+004
1.207057e+003, 1.336108e+004
1.207540e+003, 1.346500e+004
1.208022e+003, 1.358310e+004
1.208504e+003, 1.372027e+004
1.208986e+003, 1.386056e+004
1.209468e+003, 1.400536e+004
1.209950e+003, 1.414585e+004
1.210432e+003, 1.427522e+004
1.210914e+003, 1.440625e+004
1.211396e+003, 1.454665e+004
1.211879e+003, 1.469160e+004
1.212361e+003, 1.483677e+004
1.212843e+003, 1.498261e+004
1.213325e+003, 1.512963e+004
1.213807e+003, 1.527905e+004
1.214289e+003, 1.541932e+004
1.214771e+003, 1.554478e+004
1.215253e+003, 1.568487e+004
1.215735e+003, 1.584696e+004
1.216218e+003, 1.601173e+004
1.216700e+003, 1.616864e+004
1.217182e+003, 1.632453e+004
1.217664e+003, 1.648999e+004
1.218146e+003, 1.666228e+004
1.218628e+003, 1.683707e+004
1.219110e+003, 1.701319e+004
1.219592e+003, 1.718704e+004
1.220075e+003, 1.735894e+004
1.220557e+003, 1.753559e+004
1.221039e+003, 1.771727e+004
1.221521e+003, 1.789927e+004
1.222003e+003, 1.807821e+004
1.222485e+003, 1.825988e+004
1.222967e+003, 1.845279e+004
1.223449e+003, 1.864887e+004
1.223932e+003, 1.883472e+004
1.224414e+003, 1.902124e+004
1.224896e+003, 1.922239e+004
1.225378e+003, 1.943631e+004
1.225860e+003, 1.965583e+004
1.226342e+003, 1.988081e+004
1.226824e+003, 2.011090e+004
1.227306e+003, 2.035260e+004
1.227788e+003, 2.058356e+004
1.228271e+003, 2.077767e+004
1.228753e+003, 2.098540e+004
1.229235e+003, 2.124398e+004
1.229717e+003, 2.150829e+004
1.230199e+003, 2.173425e+004
1.230681e+003, 2.194328e+004
1.231163e+003, 2.217679e+004
1.231645e+003, 2.243400e+004
1.232127e+003, 2.269868e+004
1.232610e+003, 2.297586e+004
1.233092e+003, 2.324410e+004
1.233574e+003, 2.350214e+004
1.234056e+003, 2.375476e+004
1.234538e+003, 2.400099e+004
1.235020e+003, 2.425981e+004
1.235502e+003, 2.454613e+004
1.235984e+003, 2.484245e+004
1.236467e+003, 2.510871e+004
1.236949e+003, 2.535826e+004
1.237431e+003, 2.564860e+004
1.237913e+003, 2.596995e+004
1.238395e+003, 2.627740e+004
1.238877e+003, 2.656771e+004
1.239359e+003, 2.685102e+004
1.239841e+003, 2.713306e+004
1.240323e+003, 2.744013e+004
1.240806e+003, 2.779269e+004
1.241288e+003, 2.814991e+004
1.241770e+003, 2.846828e+004
1.242252e+003, 2.877627e+004
1.242734e+003, 2.910276e+004
1.243216e+003, 2.943734e+004
1.243698e+003, 2.976878e+004
1.244180e+003, 3.009476e+004
1.244662e+003, 3.041170e+004
1.245145e+003, 3.071971e+004
1.245627e+003, 3.102846e+004
1.246109e+003, 3.134288e+004
1.246591e+003, 3.165188e+004
1.247073e+003, 3.192978e+004
1.247555e+003, 3.223385e+004
1.248037e+003, 3.260704e+004
1.248519e+003, 3.297932e+004
1.249002e+003, 3.329856e+004
1.249484e+003, 3.358998e+004
1.249966e+003, 3.390411e+004
1.250448e+003, 3.423815e+004
1.250930e+003, 3.454864e+004
1.251412e+003, 3.483246e+004
1.251894e+003, 3.512589e+004
1.252376e+003, 3.543286e+004
1.252859e+003, 3.574397e+004
1.253341e+003, 3.605521e+004
1.253823e+003, 3.636360e+004
1.254305e+003, 3.666665e+004
1.254787e+003, 3.696579e+004
1.255269e+003, 3.726652e+004
1.255751e+003, 3.756132e+004
1.256233e+003, 3.783798e+004
1.256715e+003, 3.810230e+004
1.257198e+003, 3.837149e+004
1.257680e+003, 3.864009e+004
1.258162e+003, 3.889699e+004
1.258644e+003, 3.913720e+004
1.259126e+003, 3.934665e+004
1.259608e+003, 3.950993e+004
1.260090e+003, 3.967725e+004
1.260572e+003, 3.987363e+004
1.261054e+003, 4.007759e+004
1.261537e+003, 4.029351e+004
1.262019e+003, 4.049765e+004
1.262501e+003, 4.067595e+004
1.262983e+003, 4.082959e+004
1.263465e+003, 4.095289e+004
1.263947e+003, 4.105207e+004
1.264429e+003, 4.118198e+004
1.264911e+003, 4.136060e+004
1.265394e+003, 4.150657e+004
1.265876e+003, 4.161751e+004
1.266358e+003, 4.170098e+004
1.266840e+003, 4.175526e+004
1.267322e+003, 4.179918e+004
1.267804e+003, 4.184095e+004
1.268286e+003, 4.189832e+004
1.268768e+003, 4.200104e+004
1.269250e+003, 4.211732e+004
1.269733e+003, 4.217565e+004
1.270215e+003, 4.219012e+004
1.270697e+003, 4.218848e+004
1.271179e+003, 4.217654e+004
1.271661e+003, 4.216176e+004
1.272143e+003, 4.214574e+004
1.272625e+003, 4.212977e+004
1.273107e+003, 4.211441e+004
1.273589e+003, 4.208877e+004
1.274072e+003, 4.205950e+004
1.274554e+003, 4.200059e+004
1.275036e+003, 4.186970e+004
1.275518e+003, 4.173802e+004
1.276000e+003, 4.165600e+004
1.276482e+003, 4.159531e+004
1.276964e+003, 4.153108e+004
1.277446e+003, 4.146404e+004
1.277929e+003, 4.139124e+004
1.278411e+003, 4.131612e+004
1.278893e+003, 4.119765e+004
1.279375e+003, 4.101884e+004
1.279857e+003, 4.086579e+004
1.280339e+003, 4.075245e+004
1.280821e+003, 4.064214e+004
1.281303e+003, 4.052524e+004
1.281786e+003, 4.041218e+004
1.282268e+003, 4.030521e+004
##END=



