##NAMES=Fluorlamprophyllite
##RRUFFID=R130421
##IDEAL CHEMISTRY=(SrNa)Ti^4+^_2_Na_3_Ti^4+^(Si_2_O_7_)_2_O_2_F_2_
##LOCALITY=Pocos de Caldas Plateau, Minas Gerais, Brazil
##OWNER=RRUFF
##SOURCE=Gunnar Farber
##DESCRIPTION=Aggregates of bladed brownish-orange crystals, associated with natrolite, aegerine, analcime, nepheline, and microcline. Type specimen.
##STATUS=The identification of this mineral is confirmed by single-crystal X-ray diffraction and chemical analysis.
##URL=rruff.info/R130421
##MEASURED CHEMISTRY=(Na_2.30_Mn_0.54_Mg_0.16_)_Σ3.00_(Sr_1.35_Na_0.33_Ca_0.15_K_0.08_)_Σ1.91_(Ti_2.63_Fe_0.24_Al_0.03_)_Σ2.90_Si_3.89_O_16_[F_1.15_(OH)_0.85_]_Σ2.00_
8.975323e+001, 0.000000e+000
9.023535e+001, 3.538755e+002
9.071747e+001, 3.561773e+002
9.119958e+001, 3.556479e+002
9.168170e+001, 3.566998e+002
9.216382e+001, 3.548312e+002
9.264594e+001, 3.501379e+002
9.312805e+001, 3.441660e+002
9.361017e+001, 3.380450e+002
9.409229e+001, 3.315023e+002
9.457440e+001, 3.241808e+002
9.505651e+001, 3.169954e+002
9.553863e+001, 3.097724e+002
9.602074e+001, 3.030137e+002
9.650286e+001, 2.972856e+002
9.698498e+001, 2.926312e+002
9.746709e+001, 2.881735e+002
9.794921e+001, 2.835704e+002
9.843133e+001, 2.784648e+002
9.891344e+001, 2.736956e+002
9.939556e+001, 2.693015e+002
9.987768e+001, 2.652727e+002
1.003598e+002, 2.617534e+002
1.008419e+002, 2.588652e+002
1.013240e+002, 2.565668e+002
1.018061e+002, 2.544189e+002
1.022883e+002, 2.523659e+002
1.027704e+002, 2.504431e+002
1.032525e+002, 2.486659e+002
1.037346e+002, 2.469945e+002
1.042167e+002, 2.455452e+002
1.046988e+002, 2.444407e+002
1.051810e+002, 2.435291e+002
1.056631e+002, 2.426304e+002
1.061452e+002, 2.417371e+002
1.066273e+002, 2.407968e+002
1.071094e+002, 2.395630e+002
1.075915e+002, 2.376876e+002
1.080737e+002, 2.359203e+002
1.085558e+002, 2.344631e+002
1.090379e+002, 2.333309e+002
1.095200e+002, 2.325430e+002
1.100021e+002, 2.321651e+002
1.104842e+002, 2.322743e+002
1.109664e+002, 2.324043e+002
1.114485e+002, 2.322737e+002
1.119306e+002, 2.323779e+002
1.124127e+002, 2.330836e+002
1.128948e+002, 2.343726e+002
1.133769e+002, 2.358825e+002
1.138591e+002, 2.370779e+002
1.143412e+002, 2.377150e+002
1.148233e+002, 2.384627e+002
1.153054e+002, 2.392493e+002
1.157875e+002, 2.401676e+002
1.162696e+002, 2.413468e+002
1.167517e+002, 2.428439e+002
1.172339e+002, 2.445333e+002
1.177160e+002, 2.461270e+002
1.181981e+002, 2.476380e+002
1.186802e+002, 2.490585e+002
1.191623e+002, 2.502916e+002
1.196444e+002, 2.514097e+002
1.201266e+002, 2.526410e+002
1.206087e+002, 2.541297e+002
1.210908e+002, 2.557519e+002
1.215729e+002, 2.572652e+002
1.220550e+002, 2.586846e+002
1.225371e+002, 2.599665e+002
1.230193e+002, 2.610377e+002
1.235014e+002, 2.618876e+002
1.239835e+002, 2.626360e+002
1.244656e+002, 2.634191e+002
1.249477e+002, 2.640931e+002
1.254298e+002, 2.644570e+002
1.259120e+002, 2.643476e+002
1.263941e+002, 2.640028e+002
1.268762e+002, 2.640404e+002
1.273583e+002, 2.649765e+002
1.278404e+002, 2.653923e+002
1.283225e+002, 2.649326e+002
1.288047e+002, 2.637879e+002
1.292868e+002, 2.622064e+002
1.297689e+002, 2.603363e+002
1.302510e+002, 2.581735e+002
1.307331e+002, 2.556385e+002
1.312152e+002, 2.526298e+002
1.316974e+002, 2.492966e+002
1.321795e+002, 2.455263e+002
1.326616e+002, 2.414290e+002
1.331437e+002, 2.372654e+002
1.336258e+002, 2.332581e+002
1.341079e+002, 2.294402e+002
1.345901e+002, 2.254319e+002
1.350722e+002, 2.211263e+002
1.355543e+002, 2.167520e+002
1.360364e+002, 2.124534e+002
1.365185e+002, 2.082456e+002
1.370006e+002, 2.040379e+002
1.374828e+002, 1.997356e+002
1.379649e+002, 1.952484e+002
1.384470e+002, 1.911466e+002
1.389291e+002, 1.875654e+002
1.394112e+002, 1.843320e+002
1.398933e+002, 1.812663e+002
1.403755e+002, 1.783562e+002
1.408576e+002, 1.755667e+002
1.413397e+002, 1.727464e+002
1.418218e+002, 1.698811e+002
1.423039e+002, 1.675038e+002
1.427860e+002, 1.659906e+002
1.432681e+002, 1.651814e+002
1.437503e+002, 1.644914e+002
1.442324e+002, 1.638071e+002
1.447145e+002, 1.632151e+002
1.451966e+002, 1.627587e+002
1.456787e+002, 1.624396e+002
1.461608e+002, 1.622355e+002
1.466430e+002, 1.621065e+002
1.471251e+002, 1.620415e+002
1.476072e+002, 1.621600e+002
1.480893e+002, 1.626314e+002
1.485714e+002, 1.632134e+002
1.490535e+002, 1.637576e+002
1.495357e+002, 1.642370e+002
1.500178e+002, 1.647793e+002
1.504999e+002, 1.656528e+002
1.509820e+002, 1.672494e+002
1.514641e+002, 1.683035e+002
1.519462e+002, 1.682516e+002
1.524284e+002, 1.679744e+002
1.529105e+002, 1.681715e+002
1.533926e+002, 1.691019e+002
1.538747e+002, 1.705279e+002
1.543568e+002, 1.718616e+002
1.548389e+002, 1.730232e+002
1.553211e+002, 1.741687e+002
1.558032e+002, 1.752927e+002
1.562853e+002, 1.764095e+002
1.567674e+002, 1.774907e+002
1.572495e+002, 1.785127e+002
1.577316e+002, 1.795391e+002
1.582138e+002, 1.808647e+002
1.586959e+002, 1.827383e+002
1.591780e+002, 1.845843e+002
1.596601e+002, 1.860163e+002
1.601422e+002, 1.872911e+002
1.606243e+002, 1.891068e+002
1.611065e+002, 1.920292e+002
1.615886e+002, 1.956912e+002
1.620707e+002, 1.983928e+002
1.625528e+002, 1.991882e+002
1.630349e+002, 1.999965e+002
1.635170e+002, 2.019629e+002
1.639991e+002, 2.050053e+002
1.644813e+002, 2.083177e+002
1.649634e+002, 2.115930e+002
1.654455e+002, 2.147491e+002
1.659276e+002, 2.176501e+002
1.664097e+002, 2.203770e+002
1.668918e+002, 2.227824e+002
1.673740e+002, 2.247502e+002
1.678561e+002, 2.263161e+002
1.683382e+002, 2.272551e+002
1.688203e+002, 2.276007e+002
1.693024e+002, 2.272156e+002
1.697845e+002, 2.257329e+002
1.702667e+002, 2.229167e+002
1.707488e+002, 2.189790e+002
1.712309e+002, 2.143336e+002
1.717130e+002, 2.087733e+002
1.721951e+002, 2.028157e+002
1.726772e+002, 1.962966e+002
1.731594e+002, 1.896136e+002
1.736415e+002, 1.833058e+002
1.741236e+002, 1.777515e+002
1.746057e+002, 1.728449e+002
1.750878e+002, 1.680031e+002
1.755699e+002, 1.629316e+002
1.760521e+002, 1.583039e+002
1.765342e+002, 1.543517e+002
1.770163e+002, 1.509549e+002
1.774984e+002, 1.479565e+002
1.779805e+002, 1.452583e+002
1.784626e+002, 1.428574e+002
1.789448e+002, 1.404709e+002
1.794269e+002, 1.379253e+002
1.799090e+002, 1.355574e+002
1.803911e+002, 1.334302e+002
1.808732e+002, 1.315654e+002
1.813553e+002, 1.300173e+002
1.818375e+002, 1.288510e+002
1.823196e+002, 1.281065e+002
1.828017e+002, 1.273871e+002
1.832838e+002, 1.266024e+002
1.837659e+002, 1.259104e+002
1.842480e+002, 1.254839e+002
1.847301e+002, 1.252718e+002
1.852123e+002, 1.249998e+002
1.856944e+002, 1.243745e+002
1.861765e+002, 1.233230e+002
1.866586e+002, 1.226086e+002
1.871407e+002, 1.224252e+002
1.876228e+002, 1.224284e+002
1.881050e+002, 1.223420e+002
1.885871e+002, 1.221421e+002
1.890692e+002, 1.220391e+002
1.895513e+002, 1.223124e+002
1.900334e+002, 1.229480e+002
1.905155e+002, 1.234120e+002
1.909977e+002, 1.235111e+002
1.914798e+002, 1.234729e+002
1.919619e+002, 1.235151e+002
1.924440e+002, 1.236499e+002
1.929261e+002, 1.239345e+002
1.934082e+002, 1.245677e+002
1.938904e+002, 1.254370e+002
1.943725e+002, 1.261877e+002
1.948546e+002, 1.266294e+002
1.953367e+002, 1.268958e+002
1.958188e+002, 1.272256e+002
1.963009e+002, 1.276036e+002
1.967831e+002, 1.281311e+002
1.972652e+002, 1.289390e+002
1.977473e+002, 1.299507e+002
1.982294e+002, 1.309673e+002
1.987115e+002, 1.318933e+002
1.991936e+002, 1.327467e+002
1.996758e+002, 1.335867e+002
2.001579e+002, 1.343902e+002
2.006400e+002, 1.352214e+002
2.011221e+002, 1.360983e+002
2.016042e+002, 1.370201e+002
2.020863e+002, 1.379748e+002
2.025685e+002, 1.389696e+002
2.030506e+002, 1.400020e+002
2.035327e+002, 1.409963e+002
2.040148e+002, 1.418529e+002
2.044969e+002, 1.427740e+002
2.049790e+002, 1.439392e+002
2.054612e+002, 1.452374e+002
2.059433e+002, 1.463961e+002
2.064254e+002, 1.470809e+002
2.069075e+002, 1.472391e+002
2.073896e+002, 1.479498e+002
2.078717e+002, 1.500108e+002
2.083539e+002, 1.519251e+002
2.088360e+002, 1.531937e+002
2.093181e+002, 1.538901e+002
2.098002e+002, 1.543150e+002
2.102823e+002, 1.546652e+002
2.107644e+002, 1.548710e+002
2.112466e+002, 1.556278e+002
2.117287e+002, 1.577237e+002
2.122108e+002, 1.595871e+002
2.126929e+002, 1.604888e+002
2.131750e+002, 1.605512e+002
2.136571e+002, 1.603846e+002
2.141393e+002, 1.605566e+002
2.146214e+002, 1.611618e+002
2.151035e+002, 1.614216e+002
2.155856e+002, 1.611448e+002
2.160677e+002, 1.607790e+002
2.165498e+002, 1.605133e+002
2.170320e+002, 1.603633e+002
2.175141e+002, 1.602781e+002
2.179962e+002, 1.602391e+002
2.184783e+002, 1.602654e+002
2.189604e+002, 1.600612e+002
2.194425e+002, 1.597143e+002
2.199247e+002, 1.591020e+002
2.204068e+002, 1.580258e+002
2.208889e+002, 1.565356e+002
2.213710e+002, 1.549719e+002
2.218531e+002, 1.535811e+002
2.223352e+002, 1.523935e+002
2.228174e+002, 1.514614e+002
2.232995e+002, 1.510715e+002
2.237816e+002, 1.507232e+002
2.242637e+002, 1.499907e+002
2.247458e+002, 1.488656e+002
2.252279e+002, 1.477152e+002
2.257100e+002, 1.468254e+002
2.261922e+002, 1.461871e+002
2.266743e+002, 1.455827e+002
2.271564e+002, 1.449911e+002
2.276385e+002, 1.444357e+002
2.281206e+002, 1.438657e+002
2.286027e+002, 1.432708e+002
2.290849e+002, 1.429308e+002
2.295670e+002, 1.431785e+002
2.300491e+002, 1.438555e+002
2.305312e+002, 1.445155e+002
2.310133e+002, 1.450164e+002
2.314954e+002, 1.455079e+002
2.319776e+002, 1.462309e+002
2.324597e+002, 1.472349e+002
2.329418e+002, 1.481154e+002
2.334239e+002, 1.482923e+002
2.339060e+002, 1.482392e+002
2.343881e+002, 1.487323e+002
2.348703e+002, 1.502266e+002
2.353524e+002, 1.521306e+002
2.358345e+002, 1.536367e+002
2.363166e+002, 1.546669e+002
2.367987e+002, 1.556541e+002
2.372808e+002, 1.567113e+002
2.377630e+002, 1.578889e+002
2.382451e+002, 1.593303e+002
2.387272e+002, 1.612156e+002
2.392093e+002, 1.631865e+002
2.396914e+002, 1.645245e+002
2.401735e+002, 1.649351e+002
2.406557e+002, 1.656866e+002
2.411378e+002, 1.676021e+002
2.416199e+002, 1.699432e+002
2.421020e+002, 1.719746e+002
2.425841e+002, 1.733678e+002
2.430662e+002, 1.745849e+002
2.435484e+002, 1.765488e+002
2.440305e+002, 1.796805e+002
2.445126e+002, 1.823909e+002
2.449947e+002, 1.840562e+002
2.454768e+002, 1.852460e+002
2.459589e+002, 1.864137e+002
2.464410e+002, 1.877164e+002
2.469232e+002, 1.890087e+002
2.474053e+002, 1.900143e+002
2.478874e+002, 1.905501e+002
2.483695e+002, 1.912333e+002
2.488516e+002, 1.923804e+002
2.493337e+002, 1.935741e+002
2.498159e+002, 1.945785e+002
2.502980e+002, 1.953086e+002
2.507801e+002, 1.956666e+002
2.512622e+002, 1.953844e+002
2.517443e+002, 1.940076e+002
2.522264e+002, 1.930267e+002
2.527086e+002, 1.928522e+002
2.531907e+002, 1.928738e+002
2.536728e+002, 1.926496e+002
2.541549e+002, 1.920743e+002
2.546370e+002, 1.913569e+002
2.551191e+002, 1.908639e+002
2.556013e+002, 1.909185e+002
2.560834e+002, 1.904705e+002
2.565655e+002, 1.891523e+002
2.570476e+002, 1.876806e+002
2.575297e+002, 1.864781e+002
2.580118e+002, 1.856420e+002
2.584940e+002, 1.850311e+002
2.589761e+002, 1.844490e+002
2.594582e+002, 1.838174e+002
2.599403e+002, 1.834395e+002
2.604224e+002, 1.835361e+002
2.609045e+002, 1.836586e+002
2.613867e+002, 1.834653e+002
2.618688e+002, 1.829607e+002
2.623509e+002, 1.824469e+002
2.628330e+002, 1.822827e+002
2.633151e+002, 1.825918e+002
2.637972e+002, 1.828156e+002
2.642794e+002, 1.828439e+002
2.647615e+002, 1.828951e+002
2.652436e+002, 1.831458e+002
2.657257e+002, 1.835628e+002
2.662078e+002, 1.839406e+002
2.666899e+002, 1.840518e+002
2.671721e+002, 1.838160e+002
2.676542e+002, 1.838453e+002
2.681363e+002, 1.842194e+002
2.686184e+002, 1.847234e+002
2.691005e+002, 1.853847e+002
2.695826e+002, 1.861142e+002
2.700648e+002, 1.866722e+002
2.705469e+002, 1.868378e+002
2.710290e+002, 1.865919e+002
2.715111e+002, 1.864621e+002
2.719932e+002, 1.862965e+002
2.724753e+002, 1.863616e+002
2.729575e+002, 1.870080e+002
2.734396e+002, 1.880146e+002
2.739217e+002, 1.887707e+002
2.744038e+002, 1.888213e+002
2.748859e+002, 1.882433e+002
2.753680e+002, 1.879896e+002
2.758501e+002, 1.883667e+002
2.763322e+002, 1.886550e+002
2.768144e+002, 1.885779e+002
2.772965e+002, 1.882284e+002
2.777786e+002, 1.878121e+002
2.782607e+002, 1.874245e+002
2.787428e+002, 1.870777e+002
2.792249e+002, 1.868313e+002
2.797071e+002, 1.868745e+002
2.801892e+002, 1.867786e+002
2.806713e+002, 1.862881e+002
2.811534e+002, 1.856040e+002
2.816355e+002, 1.851032e+002
2.821176e+002, 1.849652e+002
2.825998e+002, 1.850446e+002
2.830819e+002, 1.849805e+002
2.835640e+002, 1.847791e+002
2.840461e+002, 1.844602e+002
2.845282e+002, 1.840005e+002
2.850103e+002, 1.834328e+002
2.854925e+002, 1.827703e+002
2.859746e+002, 1.820019e+002
2.864567e+002, 1.812298e+002
2.869388e+002, 1.806336e+002
2.874209e+002, 1.802540e+002
2.879030e+002, 1.798981e+002
2.883852e+002, 1.793251e+002
2.888673e+002, 1.788486e+002
2.893494e+002, 1.789960e+002
2.898315e+002, 1.799095e+002
2.903136e+002, 1.809556e+002
2.907957e+002, 1.812794e+002
2.912779e+002, 1.807433e+002
2.917600e+002, 1.805667e+002
2.922421e+002, 1.811468e+002
2.927242e+002, 1.819809e+002
2.932063e+002, 1.825720e+002
2.936884e+002, 1.828598e+002
2.941706e+002, 1.830829e+002
2.946527e+002, 1.834143e+002
2.951348e+002, 1.838734e+002
2.956169e+002, 1.845435e+002
2.960990e+002, 1.854790e+002
2.965811e+002, 1.865904e+002
2.970633e+002, 1.879509e+002
2.975454e+002, 1.895116e+002
2.980275e+002, 1.908747e+002
2.985096e+002, 1.916808e+002
2.989917e+002, 1.920248e+002
2.994738e+002, 1.926301e+002
2.999560e+002, 1.936077e+002
3.004381e+002, 1.947317e+002
3.009202e+002, 1.958432e+002
3.014023e+002, 1.969777e+002
3.018844e+002, 1.983640e+002
3.023665e+002, 2.002560e+002
3.028487e+002, 2.023890e+002
3.033308e+002, 2.039922e+002
3.038129e+002, 2.048908e+002
3.042950e+002, 2.056259e+002
3.047771e+002, 2.062417e+002
3.052592e+002, 2.068636e+002
3.057414e+002, 2.078648e+002
3.062235e+002, 2.094565e+002
3.067056e+002, 2.113610e+002
3.071877e+002, 2.130584e+002
3.076698e+002, 2.145627e+002
3.081519e+002, 2.159149e+002
3.086341e+002, 2.170397e+002
3.091162e+002, 2.180368e+002
3.095983e+002, 2.190373e+002
3.100804e+002, 2.200542e+002
3.105625e+002, 2.211534e+002
3.110446e+002, 2.225046e+002
3.115268e+002, 2.241339e+002
3.120089e+002, 2.255243e+002
3.124910e+002, 2.263056e+002
3.129731e+002, 2.269173e+002
3.134552e+002, 2.278635e+002
3.139373e+002, 2.292148e+002
3.144195e+002, 2.308599e+002
3.149016e+002, 2.328989e+002
3.153837e+002, 2.352698e+002
3.158658e+002, 2.370856e+002
3.163479e+002, 2.378754e+002
3.168300e+002, 2.383656e+002
3.173121e+002, 2.390876e+002
3.177943e+002, 2.400662e+002
3.182764e+002, 2.412178e+002
3.187585e+002, 2.426022e+002
3.192406e+002, 2.440979e+002
3.197227e+002, 2.452152e+002
3.202048e+002, 2.455780e+002
3.206870e+002, 2.459556e+002
3.211691e+002, 2.469697e+002
3.216512e+002, 2.484014e+002
3.221333e+002, 2.494677e+002
3.226154e+002, 2.497495e+002
3.230975e+002, 2.494956e+002
3.235797e+002, 2.493026e+002
3.240618e+002, 2.490732e+002
3.245439e+002, 2.490783e+002
3.250260e+002, 2.495420e+002
3.255081e+002, 2.502872e+002
3.259902e+002, 2.509966e+002
3.264724e+002, 2.515775e+002
3.269545e+002, 2.520728e+002
3.274366e+002, 2.524854e+002
3.279187e+002, 2.527478e+002
3.284008e+002, 2.532828e+002
3.288829e+002, 2.542693e+002
3.293651e+002, 2.555205e+002
3.298472e+002, 2.569182e+002
3.303293e+002, 2.584418e+002
3.308114e+002, 2.598323e+002
3.312935e+002, 2.607355e+002
3.317756e+002, 2.611031e+002
3.322578e+002, 2.618861e+002
3.327399e+002, 2.632396e+002
3.332220e+002, 2.649138e+002
3.337041e+002, 2.669804e+002
3.341862e+002, 2.693187e+002
3.346683e+002, 2.713293e+002
3.351505e+002, 2.725202e+002
3.356326e+002, 2.730018e+002
3.361147e+002, 2.736758e+002
3.365968e+002, 2.747828e+002
3.370789e+002, 2.758158e+002
3.375610e+002, 2.766206e+002
3.380432e+002, 2.771955e+002
3.385253e+002, 2.775001e+002
3.390074e+002, 2.774863e+002
3.394895e+002, 2.772652e+002
3.399716e+002, 2.771335e+002
3.404537e+002, 2.771716e+002
3.409359e+002, 2.771442e+002
3.414180e+002, 2.770459e+002
3.419001e+002, 2.768446e+002
3.423822e+002, 2.765121e+002
3.428643e+002, 2.760422e+002
3.433464e+002, 2.754068e+002
3.438286e+002, 2.745639e+002
3.443107e+002, 2.734656e+002
3.447928e+002, 2.722293e+002
3.452749e+002, 2.706696e+002
3.457570e+002, 2.691094e+002
3.462391e+002, 2.677887e+002
3.467213e+002, 2.667336e+002
3.472034e+002, 2.658545e+002
3.476855e+002, 2.651451e+002
3.481676e+002, 2.646240e+002
3.486497e+002, 2.636578e+002
3.491318e+002, 2.616618e+002
3.496140e+002, 2.598864e+002
3.500961e+002, 2.590049e+002
3.505782e+002, 2.587819e+002
3.510603e+002, 2.585814e+002
3.515424e+002, 2.580137e+002
3.520245e+002, 2.572382e+002
3.525067e+002, 2.569492e+002
3.529888e+002, 2.577457e+002
3.534709e+002, 2.582846e+002
3.539530e+002, 2.580825e+002
3.544351e+002, 2.576641e+002
3.549172e+002, 2.576884e+002
3.553994e+002, 2.583770e+002
3.558815e+002, 2.593908e+002
3.563636e+002, 2.601468e+002
3.568457e+002, 2.603633e+002
3.573278e+002, 2.609049e+002
3.578099e+002, 2.619116e+002
3.582920e+002, 2.631037e+002
3.587741e+002, 2.643484e+002
3.592563e+002, 2.656024e+002
3.597384e+002, 2.668109e+002
3.602205e+002, 2.679196e+002
3.607026e+002, 2.689145e+002
3.611847e+002, 2.699481e+002
3.616668e+002, 2.710329e+002
3.621490e+002, 2.721383e+002
3.626311e+002, 2.731258e+002
3.631132e+002, 2.741409e+002
3.635953e+002, 2.754995e+002
3.640774e+002, 2.774374e+002
3.645595e+002, 2.797400e+002
3.650417e+002, 2.814738e+002
3.655238e+002, 2.820918e+002
3.660059e+002, 2.828624e+002
3.664880e+002, 2.841063e+002
3.669701e+002, 2.854743e+002
3.674522e+002, 2.866137e+002
3.679344e+002, 2.874109e+002
3.684165e+002, 2.880283e+002
3.688986e+002, 2.887970e+002
3.693807e+002, 2.900040e+002
3.698628e+002, 2.905440e+002
3.703449e+002, 2.901385e+002
3.708271e+002, 2.893169e+002
3.713092e+002, 2.883447e+002
3.717913e+002, 2.872208e+002
3.722734e+002, 2.857807e+002
3.727555e+002, 2.839331e+002
3.732376e+002, 2.816789e+002
3.737198e+002, 2.788054e+002
3.742019e+002, 2.750302e+002
3.746840e+002, 2.709109e+002
3.751661e+002, 2.667953e+002
3.756482e+002, 2.624489e+002
3.761303e+002, 2.575026e+002
3.766125e+002, 2.516870e+002
3.770946e+002, 2.453039e+002
3.775767e+002, 2.389382e+002
3.780588e+002, 2.325234e+002
3.785409e+002, 2.263193e+002
3.790230e+002, 2.206238e+002
3.795052e+002, 2.150184e+002
3.799873e+002, 2.089005e+002
3.804694e+002, 2.021720e+002
3.809515e+002, 1.959511e+002
3.814336e+002, 1.918294e+002
3.819157e+002, 1.897434e+002
3.823979e+002, 1.868219e+002
3.828800e+002, 1.819786e+002
3.833621e+002, 1.770717e+002
3.838442e+002, 1.732574e+002
3.843263e+002, 1.704167e+002
3.848084e+002, 1.679719e+002
3.852906e+002, 1.655696e+002
3.857727e+002, 1.633860e+002
3.862548e+002, 1.618680e+002
3.867369e+002, 1.611249e+002
3.872190e+002, 1.606755e+002
3.877011e+002, 1.605041e+002
3.881833e+002, 1.603888e+002
3.886654e+002, 1.599130e+002
3.891475e+002, 1.586730e+002
3.896296e+002, 1.576550e+002
3.901117e+002, 1.579690e+002
3.905938e+002, 1.594414e+002
3.910760e+002, 1.607160e+002
3.915581e+002, 1.613781e+002
3.920402e+002, 1.616086e+002
3.925223e+002, 1.616472e+002
3.930044e+002, 1.614934e+002
3.934865e+002, 1.612625e+002
3.939687e+002, 1.610134e+002
3.944508e+002, 1.607113e+002
3.949329e+002, 1.603042e+002
3.954150e+002, 1.597803e+002
3.958971e+002, 1.591579e+002
3.963792e+002, 1.584111e+002
3.968614e+002, 1.575528e+002
3.973435e+002, 1.567536e+002
3.978256e+002, 1.558368e+002
3.983077e+002, 1.551319e+002
3.987898e+002, 1.550838e+002
3.992719e+002, 1.554852e+002
3.997540e+002, 1.555476e+002
4.002361e+002, 1.548064e+002
4.007183e+002, 1.535843e+002
4.012004e+002, 1.528249e+002
4.016825e+002, 1.525921e+002
4.021646e+002, 1.526129e+002
4.026467e+002, 1.529612e+002
4.031288e+002, 1.534850e+002
4.036110e+002, 1.540018e+002
4.040931e+002, 1.544710e+002
4.045752e+002, 1.549972e+002
4.050573e+002, 1.557290e+002
4.055394e+002, 1.567418e+002
4.060215e+002, 1.575509e+002
4.065037e+002, 1.579298e+002
4.069858e+002, 1.583452e+002
4.074679e+002, 1.591017e+002
4.079500e+002, 1.600919e+002
4.084321e+002, 1.610235e+002
4.089142e+002, 1.617244e+002
4.093964e+002, 1.622205e+002
4.098785e+002, 1.626433e+002
4.103606e+002, 1.629264e+002
4.108427e+002, 1.632147e+002
4.113248e+002, 1.635485e+002
4.118069e+002, 1.638764e+002
4.122891e+002, 1.641873e+002
4.127712e+002, 1.644625e+002
4.132533e+002, 1.646204e+002
4.137354e+002, 1.645137e+002
4.142175e+002, 1.640474e+002
4.146996e+002, 1.636948e+002
4.151818e+002, 1.636111e+002
4.156639e+002, 1.635009e+002
4.161460e+002, 1.633683e+002
4.166281e+002, 1.631180e+002
4.171102e+002, 1.625466e+002
4.175923e+002, 1.614544e+002
4.180745e+002, 1.600096e+002
4.185566e+002, 1.588038e+002
4.190387e+002, 1.580236e+002
4.195208e+002, 1.570789e+002
4.200029e+002, 1.557892e+002
4.204850e+002, 1.542734e+002
4.209672e+002, 1.526037e+002
4.214493e+002, 1.507968e+002
4.219314e+002, 1.489272e+002
4.224135e+002, 1.470723e+002
4.228956e+002, 1.452327e+002
4.233777e+002, 1.433672e+002
4.238599e+002, 1.415772e+002
4.243420e+002, 1.396023e+002
4.248241e+002, 1.371955e+002
4.253062e+002, 1.344444e+002
4.257883e+002, 1.316358e+002
4.262704e+002, 1.288909e+002
4.267526e+002, 1.261519e+002
4.272347e+002, 1.233513e+002
4.277168e+002, 1.204700e+002
4.281989e+002, 1.175490e+002
4.286810e+002, 1.145263e+002
4.291631e+002, 1.115401e+002
4.296453e+002, 1.088808e+002
4.301274e+002, 1.066561e+002
4.306095e+002, 1.045087e+002
4.310916e+002, 1.022415e+002
4.315737e+002, 9.994016e+001
4.320558e+002, 9.775420e+001
4.325380e+002, 9.572950e+001
4.330201e+002, 9.383242e+001
4.335022e+002, 9.202147e+001
4.339843e+002, 9.029991e+001
4.344664e+002, 8.874609e+001
4.349485e+002, 8.724931e+001
4.354307e+002, 8.601615e+001
4.359128e+002, 8.531311e+001
4.363949e+002, 8.502447e+001
4.368770e+002, 8.473740e+001
4.373591e+002, 8.418827e+001
4.378412e+002, 8.350872e+001
4.383234e+002, 8.321460e+001
4.388055e+002, 8.377687e+001
4.392876e+002, 8.412592e+001
4.397697e+002, 8.391798e+001
4.402518e+002, 8.362125e+001
4.407339e+002, 8.368441e+001
4.412160e+002, 8.419041e+001
4.416982e+002, 8.492110e+001
4.421803e+002, 8.562220e+001
4.426624e+002, 8.626868e+001
4.431445e+002, 8.708430e+001
4.436266e+002, 8.836231e+001
4.441087e+002, 8.950396e+001
4.445909e+002, 9.013720e+001
4.450730e+002, 9.053909e+001
4.455551e+002, 9.117435e+001
4.460372e+002, 9.227900e+001
4.465193e+002, 9.372499e+001
4.470014e+002, 9.527601e+001
4.474836e+002, 9.700853e+001
4.479657e+002, 9.861330e+001
4.484478e+002, 9.997070e+001
4.489299e+002, 1.012360e+002
4.494120e+002, 1.023980e+002
4.498941e+002, 1.035074e+002
4.503763e+002, 1.048214e+002
4.508584e+002, 1.067409e+002
4.513405e+002, 1.090688e+002
4.518226e+002, 1.108969e+002
4.523047e+002, 1.121053e+002
4.527868e+002, 1.130514e+002
4.532690e+002, 1.138655e+002
4.537511e+002, 1.145657e+002
4.542332e+002, 1.151692e+002
4.547153e+002, 1.157036e+002
4.551974e+002, 1.160884e+002
4.556795e+002, 1.162080e+002
4.561617e+002, 1.161071e+002
4.566438e+002, 1.160038e+002
4.571259e+002, 1.159963e+002
4.576080e+002, 1.159286e+002
4.580901e+002, 1.156365e+002
4.585722e+002, 1.151481e+002
4.590544e+002, 1.142938e+002
4.595365e+002, 1.128186e+002
4.600186e+002, 1.111294e+002
4.605007e+002, 1.095647e+002
4.609828e+002, 1.081244e+002
4.614649e+002, 1.066450e+002
4.619471e+002, 1.049869e+002
4.624292e+002, 1.032413e+002
4.629113e+002, 1.017529e+002
4.633934e+002, 1.008367e+002
4.638755e+002, 9.974754e+001
4.643576e+002, 9.820548e+001
4.648398e+002, 9.654494e+001
4.653219e+002, 9.510661e+001
4.658040e+002, 9.395095e+001
4.662861e+002, 9.294639e+001
4.667682e+002, 9.196236e+001
4.672503e+002, 9.099496e+001
4.677325e+002, 9.000514e+001
4.682146e+002, 8.886915e+001
4.686967e+002, 8.784326e+001
4.691788e+002, 8.701427e+001
4.696609e+002, 8.633776e+001
4.701430e+002, 8.576926e+001
4.706252e+002, 8.529234e+001
4.711073e+002, 8.485851e+001
4.715894e+002, 8.439355e+001
4.720715e+002, 8.390601e+001
4.725536e+002, 8.335220e+001
4.730357e+002, 8.259151e+001
4.735179e+002, 8.188316e+001
4.740000e+002, 8.145729e+001
4.744821e+002, 8.124476e+001
4.749642e+002, 8.092803e+001
4.754463e+002, 8.020848e+001
4.759284e+002, 7.930037e+001
4.764106e+002, 7.871162e+001
4.768927e+002, 7.850289e+001
4.773748e+002, 7.823562e+001
4.778569e+002, 7.758345e+001
4.783390e+002, 7.682207e+001
4.788211e+002, 7.641985e+001
4.793033e+002, 7.650015e+001
4.797854e+002, 7.655360e+001
4.802675e+002, 7.624934e+001
4.807496e+002, 7.576509e+001
4.812317e+002, 7.542790e+001
4.817138e+002, 7.529770e+001
4.821959e+002, 7.523370e+001
4.826780e+002, 7.508073e+001
4.831602e+002, 7.485290e+001
4.836423e+002, 7.487363e+001
4.841244e+002, 7.545800e+001
4.846065e+002, 7.593345e+001
4.850886e+002, 7.585826e+001
4.855707e+002, 7.552486e+001
4.860529e+002, 7.550791e+001
4.865350e+002, 7.601832e+001
4.870171e+002, 7.670090e+001
4.874992e+002, 7.693688e+001
4.879813e+002, 7.642969e+001
4.884634e+002, 7.629977e+001
4.889456e+002, 7.673609e+001
4.894277e+002, 7.730132e+001
4.899098e+002, 7.789272e+001
4.903919e+002, 7.843633e+001
4.908740e+002, 7.880723e+001
4.913561e+002, 7.890390e+001
4.918383e+002, 7.884992e+001
4.923204e+002, 7.899997e+001
4.928025e+002, 7.943674e+001
4.932846e+002, 7.984814e+001
4.937667e+002, 8.033740e+001
4.942488e+002, 8.065287e+001
4.947310e+002, 8.049662e+001
4.952131e+002, 7.991256e+001
4.956952e+002, 7.937186e+001
4.961773e+002, 7.929649e+001
4.966594e+002, 7.950605e+001
4.971415e+002, 7.949818e+001
4.976237e+002, 7.922980e+001
4.981058e+002, 7.890130e+001
4.985879e+002, 7.864767e+001
4.990700e+002, 7.838466e+001
4.995521e+002, 7.796757e+001
5.000342e+002, 7.738058e+001
5.005164e+002, 7.665759e+001
5.009985e+002, 7.566268e+001
5.014806e+002, 7.457899e+001
5.019627e+002, 7.372990e+001
5.024448e+002, 7.318495e+001
5.029269e+002, 7.279505e+001
5.034091e+002, 7.244149e+001
5.038912e+002, 7.212350e+001
5.043733e+002, 7.177963e+001
5.048554e+002, 7.129217e+001
5.053375e+002, 7.091245e+001
5.058196e+002, 7.084097e+001
5.063018e+002, 7.090112e+001
5.067839e+002, 7.079284e+001
5.072660e+002, 7.041590e+001
5.077481e+002, 6.996868e+001
5.082302e+002, 6.977046e+001
5.087123e+002, 6.990516e+001
5.091945e+002, 6.998446e+001
5.096766e+002, 7.002434e+001
5.101587e+002, 6.999172e+001
5.106408e+002, 6.988366e+001
5.111229e+002, 6.969104e+001
5.116050e+002, 6.939030e+001
5.120872e+002, 6.895840e+001
5.125693e+002, 6.844753e+001
5.130514e+002, 6.793114e+001
5.135335e+002, 6.739851e+001
5.140156e+002, 6.693040e+001
5.144977e+002, 6.657153e+001
5.149799e+002, 6.625596e+001
5.154620e+002, 6.598425e+001
5.159441e+002, 6.573085e+001
5.164262e+002, 6.533846e+001
5.169083e+002, 6.462348e+001
5.173904e+002, 6.379875e+001
5.178726e+002, 6.309589e+001
5.183547e+002, 6.252181e+001
5.188368e+002, 6.210473e+001
5.193189e+002, 6.187857e+001
5.198010e+002, 6.179281e+001
5.202831e+002, 6.175462e+001
5.207653e+002, 6.178019e+001
5.212474e+002, 6.179406e+001
5.217295e+002, 6.186021e+001
5.222116e+002, 6.185656e+001
5.226937e+002, 6.163031e+001
5.231758e+002, 6.120989e+001
5.236580e+002, 6.075370e+001
5.241401e+002, 6.036304e+001
5.246222e+002, 6.005251e+001
5.251043e+002, 5.989956e+001
5.255864e+002, 6.006318e+001
5.260685e+002, 6.016384e+001
5.265507e+002, 6.019060e+001
5.270328e+002, 6.013100e+001
5.275149e+002, 5.990387e+001
5.279970e+002, 5.954634e+001
5.284791e+002, 5.927143e+001
5.289612e+002, 5.936914e+001
5.294434e+002, 5.972932e+001
5.299255e+002, 5.960088e+001
5.304076e+002, 5.871688e+001
5.308897e+002, 5.796632e+001
5.313718e+002, 5.787764e+001
5.318539e+002, 5.805003e+001
5.323361e+002, 5.810234e+001
5.328182e+002, 5.797643e+001
5.333003e+002, 5.774705e+001
5.337824e+002, 5.736195e+001
5.342645e+002, 5.692744e+001
5.347466e+002, 5.668921e+001
5.352288e+002, 5.668788e+001
5.357109e+002, 5.676256e+001
5.361930e+002, 5.682430e+001
5.366751e+002, 5.686009e+001
5.371572e+002, 5.680592e+001
5.376393e+002, 5.659302e+001
5.381215e+002, 5.638274e+001
5.386036e+002, 5.619881e+001
5.390857e+002, 5.605157e+001
5.395678e+002, 5.595404e+001
5.400499e+002, 5.590834e+001
5.405320e+002, 5.591549e+001
5.410142e+002, 5.599929e+001
5.414963e+002, 5.616706e+001
5.419784e+002, 5.614972e+001
5.424604e+002, 5.562956e+001
5.429426e+002, 5.530440e+001
5.434247e+002, 5.544728e+001
5.439068e+002, 5.579232e+001
5.443889e+002, 5.608152e+001
5.448710e+002, 5.623640e+001
5.453531e+002, 5.624040e+001
5.458353e+002, 5.604187e+001
5.463174e+002, 5.565333e+001
5.467995e+002, 5.521112e+001
5.472816e+002, 5.466289e+001
5.477637e+002, 5.418925e+001
5.482458e+002, 5.383929e+001
5.487280e+002, 5.365437e+001
5.492101e+002, 5.377066e+001
5.496922e+002, 5.436088e+001
5.501743e+002, 5.493321e+001
5.506564e+002, 5.519085e+001
5.511385e+002, 5.520818e+001
5.516207e+002, 5.503799e+001
5.521028e+002, 5.468165e+001
5.525849e+002, 5.450886e+001
5.530670e+002, 5.491640e+001
5.535491e+002, 5.590978e+001
5.540313e+002, 5.671095e+001
5.545134e+002, 5.724764e+001
5.549955e+002, 5.771129e+001
5.554776e+002, 5.807893e+001
5.559597e+002, 5.844056e+001
5.564418e+002, 5.886009e+001
5.569240e+002, 5.937207e+001
5.574061e+002, 6.004099e+001
5.578882e+002, 6.098302e+001
5.583703e+002, 6.220478e+001
5.588524e+002, 6.335948e+001
5.593345e+002, 6.445451e+001
5.598167e+002, 6.544885e+001
5.602988e+002, 6.607920e+001
5.607809e+002, 6.672406e+001
5.612630e+002, 6.791433e+001
5.617451e+002, 6.981444e+001
5.622272e+002, 7.188361e+001
5.627094e+002, 7.360526e+001
5.631915e+002, 7.511211e+001
5.636736e+002, 7.685635e+001
5.641557e+002, 7.891674e+001
5.646378e+002, 8.111414e+001
5.651199e+002, 8.331221e+001
5.656021e+002, 8.555328e+001
5.660842e+002, 8.798326e+001
5.665663e+002, 9.065174e+001
5.670484e+002, 9.343322e+001
5.675305e+002, 9.628186e+001
5.680126e+002, 9.921946e+001
5.684948e+002, 1.023012e+002
5.689769e+002, 1.055152e+002
5.694590e+002, 1.088694e+002
5.699411e+002, 1.123515e+002
5.704232e+002, 1.159630e+002
5.709053e+002, 1.194528e+002
5.713875e+002, 1.225651e+002
5.718696e+002, 1.259278e+002
5.723517e+002, 1.297470e+002
5.728338e+002, 1.337919e+002
5.733159e+002, 1.378272e+002
5.737980e+002, 1.418431e+002
5.742802e+002, 1.459984e+002
5.747623e+002, 1.504890e+002
5.752444e+002, 1.552458e+002
5.757265e+002, 1.599636e+002
5.762086e+002, 1.645988e+002
5.766907e+002, 1.693567e+002
5.771729e+002, 1.742833e+002
5.776550e+002, 1.793831e+002
5.781371e+002, 1.847080e+002
5.786192e+002, 1.903796e+002
5.791013e+002, 1.957267e+002
5.795834e+002, 2.003158e+002
5.800656e+002, 2.045509e+002
5.805477e+002, 2.090666e+002
5.810298e+002, 2.137902e+002
5.815119e+002, 2.181293e+002
5.819940e+002, 2.217441e+002
5.824761e+002, 2.246226e+002
5.829583e+002, 2.267564e+002
5.834404e+002, 2.282495e+002
5.839225e+002, 2.287445e+002
5.844046e+002, 2.283008e+002
5.848867e+002, 2.268728e+002
5.853688e+002, 2.242532e+002
5.858510e+002, 2.206046e+002
5.863331e+002, 2.163061e+002
5.868152e+002, 2.114916e+002
5.872973e+002, 2.063771e+002
5.877794e+002, 2.016141e+002
5.882615e+002, 1.973152e+002
5.887437e+002, 1.924911e+002
5.892258e+002, 1.864853e+002
5.897079e+002, 1.803039e+002
5.901900e+002, 1.749594e+002
5.906721e+002, 1.703385e+002
5.911542e+002, 1.657726e+002
5.916364e+002, 1.610558e+002
5.921185e+002, 1.563374e+002
5.926006e+002, 1.517419e+002
5.930827e+002, 1.472975e+002
5.935648e+002, 1.430241e+002
5.940469e+002, 1.389395e+002
5.945291e+002, 1.350904e+002
5.950112e+002, 1.315445e+002
5.954933e+002, 1.283584e+002
5.959754e+002, 1.252063e+002
5.964575e+002, 1.220988e+002
5.969396e+002, 1.190113e+002
5.974218e+002, 1.158951e+002
5.979039e+002, 1.127955e+002
5.983860e+002, 1.097390e+002
5.988681e+002, 1.067337e+002
5.993502e+002, 1.038684e+002
5.998323e+002, 1.011988e+002
6.003145e+002, 9.871904e+001
6.007966e+002, 9.661578e+001
6.012787e+002, 9.509377e+001
6.017608e+002, 9.354353e+001
6.022429e+002, 9.152807e+001
6.027250e+002, 8.929085e+001
6.032072e+002, 8.724991e+001
6.036893e+002, 8.551514e+001
6.041714e+002, 8.376757e+001
6.046535e+002, 8.174429e+001
6.051356e+002, 7.964152e+001
6.056177e+002, 7.779188e+001
6.060999e+002, 7.621624e+001
6.065820e+002, 7.465160e+001
6.070641e+002, 7.290412e+001
6.075462e+002, 7.103970e+001
6.080283e+002, 6.933904e+001
6.085104e+002, 6.797607e+001
6.089926e+002, 6.654250e+001
6.094747e+002, 6.491651e+001
6.099568e+002, 6.330540e+001
6.104389e+002, 6.186907e+001
6.109210e+002, 6.058726e+001
6.114031e+002, 5.933514e+001
6.118853e+002, 5.802732e+001
6.123674e+002, 5.671082e+001
6.128495e+002, 5.546399e+001
6.133316e+002, 5.427885e+001
6.138137e+002, 5.318357e+001
6.142958e+002, 5.219844e+001
6.147780e+002, 5.128165e+001
6.152601e+002, 5.035661e+001
6.157422e+002, 4.943785e+001
6.162243e+002, 4.865825e+001
6.167064e+002, 4.821899e+001
6.171885e+002, 4.775503e+001
6.176707e+002, 4.695068e+001
6.181528e+002, 4.596708e+001
6.186349e+002, 4.512642e+001
6.191170e+002, 4.452501e+001
6.195991e+002, 4.406588e+001
6.200812e+002, 4.365340e+001
6.205634e+002, 4.329389e+001
6.210455e+002, 4.285683e+001
6.215276e+002, 4.221156e+001
6.220097e+002, 4.164964e+001
6.224918e+002, 4.127067e+001
6.229739e+002, 4.098226e+001
6.234561e+002, 4.068719e+001
6.239382e+002, 4.037006e+001
6.244203e+002, 4.009098e+001
6.249023e+002, 3.997042e+001
6.253845e+002, 3.991671e+001
6.258666e+002, 3.963060e+001
6.263487e+002, 3.907965e+001
6.268308e+002, 3.862450e+001
6.273129e+002, 3.847410e+001
6.277950e+002, 3.846969e+001
6.282772e+002, 3.827943e+001
6.287593e+002, 3.784169e+001
6.292414e+002, 3.754379e+001
6.297235e+002, 3.760225e+001
6.302056e+002, 3.767459e+001
6.306877e+002, 3.746177e+001
6.311699e+002, 3.707222e+001
6.316520e+002, 3.679512e+001
6.321341e+002, 3.676414e+001
6.326162e+002, 3.687364e+001
6.330983e+002, 3.696664e+001
6.335804e+002, 3.705600e+001
6.340626e+002, 3.705550e+001
6.345447e+002, 3.684782e+001
6.350268e+002, 3.670496e+001
6.355089e+002, 3.678400e+001
6.359910e+002, 3.698354e+001
6.364731e+002, 3.709209e+001
6.369553e+002, 3.698709e+001
6.374374e+002, 3.712264e+001
6.379195e+002, 3.826267e+001
6.384016e+002, 3.972951e+001
6.388837e+002, 4.009163e+001
6.393658e+002, 3.921910e+001
6.398480e+002, 3.820732e+001
6.403301e+002, 3.773708e+001
6.408122e+002, 3.768725e+001
6.412943e+002, 3.764910e+001
6.417764e+002, 3.741605e+001
6.422585e+002, 3.752002e+001
6.427407e+002, 3.840691e+001
6.432228e+002, 3.923267e+001
6.437049e+002, 3.932895e+001
6.441870e+002, 3.891574e+001
6.446691e+002, 3.865193e+001
6.451512e+002, 3.889379e+001
6.456334e+002, 3.939016e+001
6.461155e+002, 3.975027e+001
6.465976e+002, 3.997548e+001
6.470797e+002, 4.019903e+001
6.475618e+002, 4.039228e+001
6.480439e+002, 4.069036e+001
6.485261e+002, 4.130767e+001
6.490082e+002, 4.211601e+001
6.494903e+002, 4.268282e+001
6.499724e+002, 4.275870e+001
6.504545e+002, 4.292588e+001
6.509366e+002, 4.351097e+001
6.514188e+002, 4.425519e+001
6.519009e+002, 4.480029e+001
6.523830e+002, 4.514431e+001
6.528651e+002, 4.557973e+001
6.533472e+002, 4.633369e+001
6.538293e+002, 4.732170e+001
6.543115e+002, 4.824157e+001
6.547936e+002, 4.907052e+001
6.552757e+002, 4.987940e+001
6.557578e+002, 5.068099e+001
6.562399e+002, 5.146073e+001
6.567220e+002, 5.211064e+001
6.572042e+002, 5.272573e+001
6.576863e+002, 5.359969e+001
6.581684e+002, 5.500726e+001
6.586505e+002, 5.645540e+001
6.591326e+002, 5.740027e+001
6.596147e+002, 5.801394e+001
6.600969e+002, 5.876463e+001
6.605790e+002, 5.974890e+001
6.610611e+002, 6.094189e+001
6.615432e+002, 6.238608e+001
6.620253e+002, 6.403826e+001
6.625074e+002, 6.540034e+001
6.629896e+002, 6.608228e+001
6.634717e+002, 6.698981e+001
6.639538e+002, 6.826008e+001
6.644359e+002, 6.974340e+001
6.649180e+002, 7.141214e+001
6.654001e+002, 7.319410e+001
6.658823e+002, 7.489816e+001
6.663644e+002, 7.636526e+001
6.668465e+002, 7.777739e+001
6.673286e+002, 7.953935e+001
6.678107e+002, 8.163877e+001
6.682928e+002, 8.361395e+001
6.687750e+002, 8.528538e+001
6.692571e+002, 8.696783e+001
6.697392e+002, 8.890566e+001
6.702213e+002, 9.111034e+001
6.707034e+002, 9.347826e+001
6.711855e+002, 9.574290e+001
6.716677e+002, 9.849270e+001
6.721498e+002, 1.024670e+002
6.726319e+002, 1.066653e+002
6.731140e+002, 1.098366e+002
6.735961e+002, 1.119872e+002
6.740782e+002, 1.142121e+002
6.745604e+002, 1.174166e+002
6.750425e+002, 1.212245e+002
6.755246e+002, 1.243159e+002
6.760067e+002, 1.264326e+002
6.764888e+002, 1.289856e+002
6.769709e+002, 1.324541e+002
6.774531e+002, 1.362415e+002
6.779352e+002, 1.399612e+002
6.784173e+002, 1.436010e+002
6.788994e+002, 1.470788e+002
6.793815e+002, 1.501670e+002
6.798636e+002, 1.533591e+002
6.803458e+002, 1.572026e+002
6.808279e+002, 1.612360e+002
6.813100e+002, 1.646703e+002
6.817921e+002, 1.674136e+002
6.822742e+002, 1.700972e+002
6.827563e+002, 1.732572e+002
6.832385e+002, 1.767589e+002
6.837206e+002, 1.799790e+002
6.842027e+002, 1.829007e+002
6.846848e+002, 1.855604e+002
6.851669e+002, 1.879297e+002
6.856490e+002, 1.900401e+002
6.861312e+002, 1.919488e+002
6.866133e+002, 1.936060e+002
6.870954e+002, 1.949085e+002
6.875775e+002, 1.959138e+002
6.880596e+002, 1.963664e+002
6.885417e+002, 1.959255e+002
6.890239e+002, 1.947771e+002
6.895060e+002, 1.933312e+002
6.899881e+002, 1.916554e+002
6.904702e+002, 1.897229e+002
6.909523e+002, 1.875420e+002
6.914344e+002, 1.850516e+002
6.919166e+002, 1.818762e+002
6.923987e+002, 1.776115e+002
6.928808e+002, 1.732739e+002
6.933629e+002, 1.690251e+002
6.938450e+002, 1.646472e+002
6.943271e+002, 1.599863e+002
6.948093e+002, 1.550652e+002
6.952914e+002, 1.500052e+002
6.957735e+002, 1.448670e+002
6.962556e+002, 1.395798e+002
6.967377e+002, 1.337936e+002
6.972198e+002, 1.277659e+002
6.977020e+002, 1.223551e+002
6.981841e+002, 1.177453e+002
6.986662e+002, 1.134597e+002
6.991483e+002, 1.092237e+002
6.996304e+002, 1.050249e+002
7.001125e+002, 1.008756e+002
7.005947e+002, 9.677182e+001
7.010768e+002, 9.275510e+001
7.015589e+002, 8.866970e+001
7.020410e+002, 8.481763e+001
7.025231e+002, 8.139314e+001
7.030052e+002, 7.835237e+001
7.034874e+002, 7.557203e+001
7.039695e+002, 7.303628e+001
7.044516e+002, 7.058628e+001
7.049337e+002, 6.800207e+001
7.054158e+002, 6.535355e+001
7.058979e+002, 6.297126e+001
7.063801e+002, 6.090924e+001
7.068622e+002, 5.898683e+001
7.073442e+002, 5.707253e+001
7.078264e+002, 5.523522e+001
7.083085e+002, 5.366354e+001
7.087906e+002, 5.245305e+001
7.092727e+002, 5.124489e+001
7.097548e+002, 4.991335e+001
7.102369e+002, 4.866804e+001
7.107191e+002, 4.770916e+001
7.112012e+002, 4.690746e+001
7.116833e+002, 4.602074e+001
7.121654e+002, 4.495740e+001
7.126475e+002, 4.386476e+001
7.131296e+002, 4.287513e+001
7.136118e+002, 4.199395e+001
7.140939e+002, 4.123342e+001
7.145760e+002, 4.060280e+001
7.150581e+002, 4.006832e+001
7.155402e+002, 3.964913e+001
7.160223e+002, 3.929167e+001
7.165045e+002, 3.889229e+001
7.169866e+002, 3.843139e+001
7.174687e+002, 3.805418e+001
7.179508e+002, 3.785998e+001
7.184329e+002, 3.766068e+001
7.189150e+002, 3.731459e+001
7.193972e+002, 3.692462e+001
7.198793e+002, 3.666706e+001
7.203614e+002, 3.657367e+001
7.208435e+002, 3.648417e+001
7.213256e+002, 3.620789e+001
7.218077e+002, 3.581545e+001
7.222899e+002, 3.560695e+001
7.227720e+002, 3.560267e+001
7.232541e+002, 3.560776e+001
7.237362e+002, 3.557829e+001
7.242183e+002, 3.550766e+001
7.247004e+002, 3.537158e+001
7.251826e+002, 3.517082e+001
7.256647e+002, 3.500136e+001
7.261468e+002, 3.484792e+001
7.266289e+002, 3.475032e+001
7.271110e+002, 3.475509e+001
7.275931e+002, 3.480424e+001
7.280753e+002, 3.483370e+001
7.285574e+002, 3.483684e+001
7.290395e+002, 3.485674e+001
7.295216e+002, 3.494863e+001
7.300037e+002, 3.503460e+001
7.304858e+002, 3.486849e+001
7.309680e+002, 3.443565e+001
7.314501e+002, 3.419547e+001
7.319322e+002, 3.425942e+001
7.324143e+002, 3.448513e+001
7.328964e+002, 3.484465e+001
7.333785e+002, 3.527984e+001
7.338607e+002, 3.550040e+001
7.343428e+002, 3.534371e+001
7.348249e+002, 3.522405e+001
7.353070e+002, 3.521325e+001
7.357891e+002, 3.528033e+001
7.362712e+002, 3.541337e+001
7.367534e+002, 3.560077e+001
7.372355e+002, 3.583824e+001
7.377176e+002, 3.613177e+001
7.381997e+002, 3.641567e+001
7.386818e+002, 3.650091e+001
7.391639e+002, 3.643666e+001
7.396461e+002, 3.681185e+001
7.401282e+002, 3.781043e+001
7.406103e+002, 3.860245e+001
7.410924e+002, 3.866347e+001
7.415745e+002, 3.826577e+001
7.420566e+002, 3.794757e+001
7.425388e+002, 3.760952e+001
7.430209e+002, 3.766687e+001
7.435030e+002, 3.853219e+001
7.439851e+002, 3.940718e+001
7.444672e+002, 3.989960e+001
7.449493e+002, 4.011286e+001
7.454315e+002, 4.018650e+001
7.459136e+002, 4.018367e+001
7.463957e+002, 4.024139e+001
7.468778e+002, 4.052065e+001
7.473599e+002, 4.095803e+001
7.478420e+002, 4.137876e+001
7.483242e+002, 4.178447e+001
7.488063e+002, 4.210779e+001
7.492884e+002, 4.228660e+001
7.497705e+002, 4.247029e+001
7.502526e+002, 4.284010e+001
7.507347e+002, 4.340429e+001
7.512169e+002, 4.400192e+001
7.516990e+002, 4.474180e+001
7.521811e+002, 4.536988e+001
7.526632e+002, 4.577766e+001
7.531453e+002, 4.609130e+001
7.536274e+002, 4.640326e+001
7.541096e+002, 4.673210e+001
7.545917e+002, 4.707322e+001
7.550738e+002, 4.741317e+001
7.555559e+002, 4.779187e+001
7.560380e+002, 4.827851e+001
7.565201e+002, 4.885556e+001
7.570023e+002, 4.943016e+001
7.574844e+002, 4.998619e+001
7.579665e+002, 5.058791e+001
7.584486e+002, 5.130227e+001
7.589307e+002, 5.207701e+001
7.594128e+002, 5.273556e+001
7.598950e+002, 5.316972e+001
7.603771e+002, 5.368805e+001
7.608592e+002, 5.446302e+001
7.613413e+002, 5.513264e+001
7.618234e+002, 5.531495e+001
7.623055e+002, 5.535285e+001
7.627877e+002, 5.588680e+001
7.632698e+002, 5.711405e+001
7.637519e+002, 5.827448e+001
7.642340e+002, 5.867879e+001
7.647161e+002, 5.872680e+001
7.651982e+002, 5.898476e+001
7.656804e+002, 5.947583e+001
7.661625e+002, 6.017467e+001
7.666446e+002, 6.108418e+001
7.671267e+002, 6.206816e+001
7.676088e+002, 6.295284e+001
7.680909e+002, 6.374444e+001
7.685731e+002, 6.442698e+001
7.690552e+002, 6.491579e+001
7.695373e+002, 6.543814e+001
7.700194e+002, 6.595152e+001
7.705015e+002, 6.658799e+001
7.709836e+002, 6.750195e+001
7.714658e+002, 6.864887e+001
7.719479e+002, 6.979678e+001
7.724300e+002, 7.098787e+001
7.729121e+002, 7.199080e+001
7.733942e+002, 7.245686e+001
7.738763e+002, 7.270707e+001
7.743585e+002, 7.322204e+001
7.748406e+002, 7.406313e+001
7.753227e+002, 7.508535e+001
7.758048e+002, 7.621038e+001
7.762869e+002, 7.740113e+001
7.767690e+002, 7.856477e+001
7.772512e+002, 7.969786e+001
7.777333e+002, 8.084411e+001
7.782154e+002, 8.199696e+001
7.786975e+002, 8.318502e+001
7.791796e+002, 8.446646e+001
7.796617e+002, 8.577197e+001
7.801439e+002, 8.695188e+001
7.806260e+002, 8.797495e+001
7.811081e+002, 8.905486e+001
7.815902e+002, 9.018690e+001
7.820723e+002, 9.144552e+001
7.825544e+002, 9.298820e+001
7.830366e+002, 9.465740e+001
7.835187e+002, 9.615799e+001
7.840008e+002, 9.743357e+001
7.844829e+002, 9.872060e+001
7.849650e+002, 1.002859e+002
7.854471e+002, 1.019991e+002
7.859293e+002, 1.033734e+002
7.864114e+002, 1.043955e+002
7.868935e+002, 1.056522e+002
7.873756e+002, 1.073153e+002
7.878577e+002, 1.091859e+002
7.883398e+002, 1.111972e+002
7.888220e+002, 1.132803e+002
7.893040e+002, 1.147739e+002
7.897861e+002, 1.151574e+002
7.902682e+002, 1.157387e+002
7.907504e+002, 1.166928e+002
7.912325e+002, 1.178003e+002
7.917146e+002, 1.189880e+002
7.921967e+002, 1.202050e+002
7.926788e+002, 1.213893e+002
7.931609e+002, 1.225117e+002
7.936431e+002, 1.236255e+002
7.941252e+002, 1.248512e+002
7.946073e+002, 1.260702e+002
7.950894e+002, 1.271026e+002
7.955715e+002, 1.279216e+002
7.960536e+002, 1.283420e+002
7.965358e+002, 1.282595e+002
7.970179e+002, 1.280689e+002
7.975000e+002, 1.283465e+002
7.979821e+002, 1.291228e+002
7.984642e+002, 1.296278e+002
7.989464e+002, 1.296772e+002
7.994285e+002, 1.297919e+002
7.999106e+002, 1.301903e+002
8.003927e+002, 1.306281e+002
8.008748e+002, 1.309326e+002
8.013569e+002, 1.311143e+002
8.018391e+002, 1.312521e+002
8.023212e+002, 1.314059e+002
8.028033e+002, 1.314655e+002
8.032854e+002, 1.313822e+002
8.037675e+002, 1.311683e+002
8.042496e+002, 1.307277e+002
8.047318e+002, 1.301597e+002
8.052139e+002, 1.298240e+002
8.056960e+002, 1.299347e+002
8.061781e+002, 1.301331e+002
8.066602e+002, 1.297820e+002
8.071423e+002, 1.289298e+002
8.076245e+002, 1.282646e+002
8.081066e+002, 1.278413e+002
8.085887e+002, 1.274564e+002
8.090708e+002, 1.270359e+002
8.095529e+002, 1.265895e+002
8.100350e+002, 1.261399e+002
8.105172e+002, 1.256957e+002
8.109993e+002, 1.251799e+002
8.114814e+002, 1.244096e+002
8.119635e+002, 1.238033e+002
8.124456e+002, 1.234537e+002
8.129277e+002, 1.233357e+002
8.134099e+002, 1.235866e+002
8.138920e+002, 1.240760e+002
8.143741e+002, 1.243085e+002
8.148562e+002, 1.239056e+002
8.153383e+002, 1.234336e+002
8.158204e+002, 1.235144e+002
8.163026e+002, 1.239654e+002
8.167847e+002, 1.244475e+002
8.172668e+002, 1.248956e+002
8.177489e+002, 1.251646e+002
8.182310e+002, 1.251377e+002
8.187131e+002, 1.250908e+002
8.191953e+002, 1.256824e+002
8.196774e+002, 1.271332e+002
8.201595e+002, 1.277504e+002
8.206416e+002, 1.269826e+002
8.211237e+002, 1.264304e+002
8.216058e+002, 1.268344e+002
8.220880e+002, 1.276502e+002
8.225701e+002, 1.282558e+002
8.230522e+002, 1.286577e+002
8.235343e+002, 1.292669e+002
8.240164e+002, 1.304225e+002
8.244985e+002, 1.314876e+002
8.249807e+002, 1.319500e+002
8.254628e+002, 1.323351e+002
8.259449e+002, 1.333583e+002
8.264270e+002, 1.349152e+002
8.269091e+002, 1.362696e+002
8.273912e+002, 1.369685e+002
8.278734e+002, 1.375117e+002
8.283555e+002, 1.387327e+002
8.288376e+002, 1.404246e+002
8.293197e+002, 1.416947e+002
8.298018e+002, 1.424573e+002
8.302839e+002, 1.430612e+002
8.307661e+002, 1.436089e+002
8.312482e+002, 1.442887e+002
8.317303e+002, 1.454586e+002
8.322124e+002, 1.472001e+002
8.326945e+002, 1.487784e+002
8.331766e+002, 1.498312e+002
8.336588e+002, 1.512360e+002
8.341409e+002, 1.536125e+002
8.346230e+002, 1.560435e+002
8.351051e+002, 1.575860e+002
8.355872e+002, 1.584403e+002
8.360693e+002, 1.598095e+002
8.365515e+002, 1.623601e+002
8.370336e+002, 1.650049e+002
8.375157e+002, 1.670235e+002
8.379978e+002, 1.689159e+002
8.384799e+002, 1.712804e+002
8.389620e+002, 1.740825e+002
8.394442e+002, 1.770547e+002
8.399263e+002, 1.800688e+002
8.404084e+002, 1.829439e+002
8.408905e+002, 1.852730e+002
8.413726e+002, 1.871844e+002
8.418547e+002, 1.894733e+002
8.423369e+002, 1.921744e+002
8.428190e+002, 1.946970e+002
8.433011e+002, 1.968127e+002
8.437832e+002, 1.986385e+002
8.442653e+002, 2.001790e+002
8.447474e+002, 2.014557e+002
8.452296e+002, 2.033442e+002
8.457117e+002, 2.068001e+002
8.461938e+002, 2.094401e+002
8.466759e+002, 2.105447e+002
8.471580e+002, 2.112888e+002
8.476401e+002, 2.123890e+002
8.481223e+002, 2.137087e+002
8.486044e+002, 2.148680e+002
8.490865e+002, 2.157906e+002
8.495686e+002, 2.164583e+002
8.500507e+002, 2.168732e+002
8.505328e+002, 2.170231e+002
8.510150e+002, 2.168173e+002
8.514971e+002, 2.163557e+002
8.519792e+002, 2.158117e+002
8.524613e+002, 2.152606e+002
8.529434e+002, 2.147675e+002
8.534255e+002, 2.143800e+002
8.539077e+002, 2.141235e+002
8.543898e+002, 2.141783e+002
8.548719e+002, 2.145440e+002
8.553540e+002, 2.146098e+002
8.558361e+002, 2.141905e+002
8.563182e+002, 2.137290e+002
8.568004e+002, 2.135513e+002
8.572825e+002, 2.135857e+002
8.577646e+002, 2.136124e+002
8.582467e+002, 2.136877e+002
8.587288e+002, 2.136275e+002
8.592109e+002, 2.131308e+002
8.596931e+002, 2.128520e+002
8.601752e+002, 2.131485e+002
8.606573e+002, 2.137166e+002
8.611394e+002, 2.141462e+002
8.616215e+002, 2.144096e+002
8.621036e+002, 2.148877e+002
8.625858e+002, 2.161503e+002
8.630679e+002, 2.172397e+002
8.635500e+002, 2.171297e+002
8.640321e+002, 2.166377e+002
8.645142e+002, 2.168956e+002
8.649963e+002, 2.179852e+002
8.654785e+002, 2.194206e+002
8.659606e+002, 2.209395e+002
8.664427e+002, 2.224988e+002
8.669248e+002, 2.237999e+002
8.674069e+002, 2.250203e+002
8.678890e+002, 2.271678e+002
8.683712e+002, 2.303069e+002
8.688533e+002, 2.340111e+002
8.693354e+002, 2.381128e+002
8.698175e+002, 2.427292e+002
8.702996e+002, 2.479849e+002
8.707817e+002, 2.538898e+002
8.712639e+002, 2.601770e+002
8.717459e+002, 2.667284e+002
8.722280e+002, 2.738709e+002
8.727101e+002, 2.817077e+002
8.731923e+002, 2.900594e+002
8.736744e+002, 2.988614e+002
8.741565e+002, 3.080659e+002
8.746386e+002, 3.177483e+002
8.751207e+002, 3.278842e+002
8.756028e+002, 3.384153e+002
8.760850e+002, 3.490721e+002
8.765671e+002, 3.602874e+002
8.770492e+002, 3.727084e+002
8.775313e+002, 3.857859e+002
8.780134e+002, 3.985244e+002
8.784955e+002, 4.107451e+002
8.789777e+002, 4.232623e+002
8.794598e+002, 4.366571e+002
8.799419e+002, 4.507758e+002
8.804240e+002, 4.655903e+002
8.809061e+002, 4.809777e+002
8.813882e+002, 4.965544e+002
8.818704e+002, 5.122120e+002
8.823525e+002, 5.271537e+002
8.828346e+002, 5.407275e+002
8.833167e+002, 5.536384e+002
8.837988e+002, 5.674236e+002
8.842809e+002, 5.823911e+002
8.847631e+002, 5.960668e+002
8.852452e+002, 6.081247e+002
8.857273e+002, 6.197243e+002
8.862094e+002, 6.313885e+002
8.866915e+002, 6.426896e+002
8.871736e+002, 6.534598e+002
8.876558e+002, 6.636221e+002
8.881379e+002, 6.725463e+002
8.886200e+002, 6.802094e+002
8.891021e+002, 6.866239e+002
8.895842e+002, 6.918097e+002
8.900663e+002, 6.957670e+002
8.905485e+002, 6.982216e+002
8.910306e+002, 6.995099e+002
8.915127e+002, 7.002786e+002
8.919948e+002, 7.007289e+002
8.924769e+002, 7.003280e+002
8.929590e+002, 6.991578e+002
8.934412e+002, 6.966127e+002
8.939233e+002, 6.917017e+002
8.944054e+002, 6.850194e+002
8.948875e+002, 6.777516e+002
8.953696e+002, 6.702186e+002
8.958517e+002, 6.621832e+002
8.963339e+002, 6.534877e+002
8.968160e+002, 6.443114e+002
8.972981e+002, 6.351688e+002
8.977802e+002, 6.260033e+002
8.982623e+002, 6.156736e+002
8.987444e+002, 6.039914e+002
8.992266e+002, 5.925026e+002
8.997087e+002, 5.819255e+002
9.001908e+002, 5.717639e+002
9.006729e+002, 5.612161e+002
9.011550e+002, 5.502422e+002
9.016371e+002, 5.397940e+002
9.021193e+002, 5.301351e+002
9.026014e+002, 5.204252e+002
9.030835e+002, 5.104737e+002
9.035656e+002, 5.004392e+002
9.040477e+002, 4.901387e+002
9.045298e+002, 4.798936e+002
9.050120e+002, 4.707832e+002
9.054941e+002, 4.634473e+002
9.059762e+002, 4.558361e+002
9.064583e+002, 4.471666e+002
9.069404e+002, 4.384349e+002
9.074225e+002, 4.305787e+002
9.079047e+002, 4.229522e+002
9.083868e+002, 4.143919e+002
9.088689e+002, 4.049108e+002
9.093510e+002, 3.956717e+002
9.098331e+002, 3.873859e+002
9.103152e+002, 3.796763e+002
9.107974e+002, 3.723898e+002
9.112795e+002, 3.652577e+002
9.117616e+002, 3.577424e+002
9.122437e+002, 3.499008e+002
9.127258e+002, 3.421188e+002
9.132079e+002, 3.345845e+002
9.136901e+002, 3.272877e+002
9.141722e+002, 3.201725e+002
9.146543e+002, 3.132675e+002
9.151364e+002, 3.064799e+002
9.156185e+002, 2.997911e+002
9.161006e+002, 2.934414e+002
9.165828e+002, 2.874474e+002
9.170649e+002, 2.817659e+002
9.175470e+002, 2.763548e+002
9.180291e+002, 2.711647e+002
9.185112e+002, 2.659542e+002
9.189933e+002, 2.604143e+002
9.194755e+002, 2.555522e+002
9.199576e+002, 2.516412e+002
9.204397e+002, 2.480230e+002
9.209218e+002, 2.443430e+002
9.214039e+002, 2.408953e+002
9.218860e+002, 2.380923e+002
9.223682e+002, 2.359184e+002
9.228503e+002, 2.338689e+002
9.233324e+002, 2.320974e+002
9.238145e+002, 2.301431e+002
9.242966e+002, 2.276615e+002
9.247787e+002, 2.251461e+002
9.252609e+002, 2.227969e+002
9.257430e+002, 2.207788e+002
9.262251e+002, 2.194767e+002
9.267072e+002, 2.190237e+002
9.271893e+002, 2.185130e+002
9.276714e+002, 2.170055e+002
9.281536e+002, 2.154607e+002
9.286357e+002, 2.149034e+002
9.291178e+002, 2.150156e+002
9.295999e+002, 2.151671e+002
9.300820e+002, 2.152478e+002
9.305641e+002, 2.154521e+002
9.310463e+002, 2.159064e+002
9.315284e+002, 2.165310e+002
9.320105e+002, 2.173211e+002
9.324926e+002, 2.181768e+002
9.329747e+002, 2.185534e+002
9.334568e+002, 2.184648e+002
9.339390e+002, 2.186417e+002
9.344211e+002, 2.193592e+002
9.349032e+002, 2.203972e+002
9.353853e+002, 2.215974e+002
9.358674e+002, 2.228578e+002
9.363495e+002, 2.234059e+002
9.368317e+002, 2.228769e+002
9.373138e+002, 2.233484e+002
9.377959e+002, 2.255492e+002
9.382780e+002, 2.276604e+002
9.387601e+002, 2.285534e+002
9.392422e+002, 2.288693e+002
9.397244e+002, 2.297887e+002
9.402065e+002, 2.314514e+002
9.406886e+002, 2.328703e+002
9.411707e+002, 2.338732e+002
9.416528e+002, 2.348771e+002
9.421349e+002, 2.361728e+002
9.426171e+002, 2.373026e+002
9.430992e+002, 2.377421e+002
9.435813e+002, 2.377705e+002
9.440634e+002, 2.382128e+002
9.445455e+002, 2.394655e+002
9.450276e+002, 2.402245e+002
9.455098e+002, 2.398703e+002
9.459919e+002, 2.390494e+002
9.464740e+002, 2.383161e+002
9.469561e+002, 2.373156e+002
9.474382e+002, 2.354636e+002
9.479203e+002, 2.327797e+002
9.484025e+002, 2.298055e+002
9.488846e+002, 2.268620e+002
9.493667e+002, 2.236389e+002
9.498488e+002, 2.198728e+002
9.503309e+002, 2.155974e+002
9.508130e+002, 2.107613e+002
9.512952e+002, 2.054373e+002
9.517773e+002, 1.998307e+002
9.522594e+002, 1.940037e+002
9.527415e+002, 1.878221e+002
9.532236e+002, 1.810789e+002
9.537057e+002, 1.739279e+002
9.541878e+002, 1.665508e+002
9.546699e+002, 1.590341e+002
9.551520e+002, 1.519734e+002
9.556342e+002, 1.454154e+002
9.561163e+002, 1.391491e+002
9.565984e+002, 1.330264e+002
9.570805e+002, 1.271305e+002
9.575626e+002, 1.216439e+002
9.580447e+002, 1.165268e+002
9.585269e+002, 1.116395e+002
9.590090e+002, 1.069158e+002
9.594911e+002, 1.026893e+002
9.599732e+002, 9.925513e+001
9.604553e+002, 9.579642e+001
9.609374e+002, 9.149921e+001
9.614196e+002, 8.689794e+001
9.619017e+002, 8.357226e+001
9.623838e+002, 8.207937e+001
9.628659e+002, 8.014268e+001
9.633480e+002, 7.720740e+001
9.638301e+002, 7.458836e+001
9.643123e+002, 7.280589e+001
9.647944e+002, 7.133617e+001
9.652765e+002, 6.973775e+001
9.657586e+002, 6.804720e+001
9.662407e+002, 6.649989e+001
9.667228e+002, 6.518916e+001
9.672050e+002, 6.388173e+001
9.676871e+002, 6.241753e+001
9.681692e+002, 6.106172e+001
9.686513e+002, 6.012302e+001
9.691334e+002, 5.930098e+001
9.696155e+002, 5.809308e+001
9.700977e+002, 5.652250e+001
9.705798e+002, 5.525802e+001
9.710619e+002, 5.480608e+001
9.715440e+002, 5.439521e+001
9.720261e+002, 5.352602e+001
9.725082e+002, 5.246290e+001
9.729904e+002, 5.136268e+001
9.734725e+002, 5.034147e+001
9.739546e+002, 4.960986e+001
9.744367e+002, 4.921266e+001
9.749188e+002, 4.891276e+001
9.754009e+002, 4.856601e+001
9.758831e+002, 4.816991e+001
9.763652e+002, 4.768481e+001
9.768473e+002, 4.715981e+001
9.773294e+002, 4.666776e+001
9.778115e+002, 4.623370e+001
9.782936e+002, 4.596846e+001
9.787758e+002, 4.592127e+001
9.792579e+002, 4.582868e+001
9.797400e+002, 4.529353e+001
9.802221e+002, 4.447308e+001
9.807042e+002, 4.391712e+001
9.811863e+002, 4.359759e+001
9.816685e+002, 4.323940e+001
9.821506e+002, 4.279081e+001
9.826327e+002, 4.256078e+001
9.831148e+002, 4.279652e+001
9.835969e+002, 4.315699e+001
9.840790e+002, 4.292960e+001
9.845612e+002, 4.210949e+001
9.850433e+002, 4.156762e+001
9.855254e+002, 4.133647e+001
9.860075e+002, 4.120792e+001
9.864896e+002, 4.114451e+001
9.869717e+002, 4.112094e+001
9.874539e+002, 4.113598e+001
9.879360e+002, 4.115747e+001
9.884181e+002, 4.108913e+001
9.889002e+002, 4.093924e+001
9.893823e+002, 4.065298e+001
9.898644e+002, 4.009351e+001
9.903466e+002, 3.966391e+001
9.908287e+002, 3.953790e+001
9.913108e+002, 3.953817e+001
9.917929e+002, 3.954681e+001
9.922750e+002, 3.954413e+001
9.927571e+002, 3.940538e+001
9.932393e+002, 3.898090e+001
9.937214e+002, 3.869192e+001
9.942035e+002, 3.867145e+001
9.946856e+002, 3.863387e+001
9.951677e+002, 3.843402e+001
9.956498e+002, 3.818787e+001
9.961320e+002, 3.799709e+001
9.966141e+002, 3.787325e+001
9.970962e+002, 3.784922e+001
9.975783e+002, 3.807215e+001
9.980604e+002, 3.815991e+001
9.985425e+002, 3.791117e+001
9.990247e+002, 3.760807e+001
9.995068e+002, 3.736970e+001
9.999889e+002, 3.722056e+001
1.000471e+003, 3.726661e+001
1.000953e+003, 3.746974e+001
1.001435e+003, 3.744108e+001
1.001917e+003, 3.678334e+001
1.002399e+003, 3.621865e+001
1.002882e+003, 3.622017e+001
1.003364e+003, 3.642376e+001
1.003846e+003, 3.654403e+001
1.004328e+003, 3.657915e+001
1.004810e+003, 3.661083e+001
1.005292e+003, 3.665115e+001
1.005774e+003, 3.660691e+001
1.006256e+003, 3.637742e+001
1.006739e+003, 3.609513e+001
1.007221e+003, 3.586021e+001
1.007703e+003, 3.566664e+001
1.008185e+003, 3.547623e+001
1.008667e+003, 3.532265e+001
1.009149e+003, 3.532229e+001
1.009631e+003, 3.550578e+001
1.010113e+003, 3.573341e+001
1.010595e+003, 3.596525e+001
1.011078e+003, 3.607758e+001
1.011560e+003, 3.575539e+001
1.012042e+003, 3.520334e+001
1.012524e+003, 3.489372e+001
1.013006e+003, 3.485489e+001
1.013488e+003, 3.490957e+001
1.013970e+003, 3.497797e+001
1.014452e+003, 3.506105e+001
1.014935e+003, 3.519191e+001
1.015417e+003, 3.531327e+001
1.015899e+003, 3.521691e+001
1.016381e+003, 3.497047e+001
1.016863e+003, 3.494593e+001
1.017345e+003, 3.517101e+001
1.017827e+003, 3.529812e+001
1.018309e+003, 3.514644e+001
1.018791e+003, 3.485277e+001
1.019274e+003, 3.456105e+001
1.019756e+003, 3.430360e+001
1.020238e+003, 3.425838e+001
1.020720e+003, 3.441868e+001
1.021202e+003, 3.462516e+001
1.021684e+003, 3.485747e+001
1.022166e+003, 3.500111e+001
1.022648e+003, 3.498751e+001
1.023130e+003, 3.485814e+001
1.023613e+003, 3.464567e+001
1.024095e+003, 3.436516e+001
1.024577e+003, 3.430341e+001
1.025059e+003, 3.449133e+001
1.025541e+003, 3.463341e+001
1.026023e+003, 3.466718e+001
1.026505e+003, 3.469175e+001
1.026987e+003, 3.477838e+001
1.027469e+003, 3.487249e+001
1.027952e+003, 3.487107e+001
1.028434e+003, 3.477069e+001
1.028916e+003, 3.463170e+001
1.029398e+003, 3.439626e+001
1.029880e+003, 3.434062e+001
1.030362e+003, 3.458194e+001
1.030844e+003, 3.486412e+001
1.031326e+003, 3.505013e+001
1.031809e+003, 3.513279e+001
1.032291e+003, 3.506458e+001
1.032773e+003, 3.480025e+001
1.033255e+003, 3.478673e+001
1.033737e+003, 3.518424e+001
1.034219e+003, 3.548196e+001
1.034701e+003, 3.555241e+001
1.035183e+003, 3.554887e+001
1.035666e+003, 3.553230e+001
1.036148e+003, 3.553351e+001
1.036630e+003, 3.563898e+001
1.037112e+003, 3.589282e+001
1.037594e+003, 3.599523e+001
1.038076e+003, 3.573269e+001
1.038558e+003, 3.566275e+001
1.039040e+003, 3.604228e+001
1.039522e+003, 3.646340e+001
1.040005e+003, 3.664386e+001
1.040487e+003, 3.668841e+001
1.040969e+003, 3.683066e+001
1.041451e+003, 3.710889e+001
1.041933e+003, 3.728336e+001
1.042415e+003, 3.732604e+001
1.042897e+003, 3.729889e+001
1.043379e+003, 3.700253e+001
1.043861e+003, 3.685007e+001
1.044344e+003, 3.729011e+001
1.044826e+003, 3.800281e+001
1.045308e+003, 3.830687e+001
1.045790e+003, 3.807133e+001
1.046272e+003, 3.806292e+001
1.046754e+003, 3.860881e+001
1.047236e+003, 3.905104e+001
1.047718e+003, 3.906780e+001
1.048201e+003, 3.908688e+001
1.048683e+003, 3.950828e+001
1.049165e+003, 4.010593e+001
1.049647e+003, 4.038271e+001
1.050129e+003, 4.023695e+001
1.050611e+003, 4.032735e+001
1.051093e+003, 4.097370e+001
1.051575e+003, 4.160658e+001
1.052057e+003, 4.206694e+001
1.052540e+003, 4.244590e+001
1.053022e+003, 4.279749e+001
1.053504e+003, 4.312355e+001
1.053986e+003, 4.335653e+001
1.054468e+003, 4.348048e+001
1.054950e+003, 4.386327e+001
1.055432e+003, 4.485186e+001
1.055914e+003, 4.577567e+001
1.056396e+003, 4.614489e+001
1.056879e+003, 4.661910e+001
1.057361e+003, 4.813319e+001
1.057843e+003, 4.991515e+001
1.058325e+003, 5.045525e+001
1.058807e+003, 4.955390e+001
1.059289e+003, 4.886800e+001
1.059771e+003, 4.897569e+001
1.060253e+003, 4.933701e+001
1.060736e+003, 4.996125e+001
1.061218e+003, 5.055350e+001
1.061700e+003, 5.077971e+001
1.062182e+003, 5.087254e+001
1.062664e+003, 5.127963e+001
1.063146e+003, 5.204259e+001
1.063628e+003, 5.270270e+001
1.064110e+003, 5.306921e+001
1.064593e+003, 5.334220e+001
1.065075e+003, 5.358011e+001
1.065557e+003, 5.377988e+001
1.066039e+003, 5.390707e+001
1.066521e+003, 5.401093e+001
1.067003e+003, 5.419139e+001
1.067485e+003, 5.444338e+001
1.067967e+003, 5.461184e+001
1.068449e+003, 5.463177e+001
1.068932e+003, 5.457048e+001
1.069414e+003, 5.436126e+001
1.069896e+003, 5.418004e+001
1.070378e+003, 5.410390e+001
1.070860e+003, 5.417085e+001
1.071342e+003, 5.470464e+001
1.071824e+003, 5.551914e+001
1.072306e+003, 5.544140e+001
1.072788e+003, 5.359219e+001
1.073271e+003, 5.183257e+001
1.073753e+003, 5.115847e+001
1.074235e+003, 5.074916e+001
1.074717e+003, 5.012134e+001
1.075199e+003, 4.932363e+001
1.075681e+003, 4.839673e+001
1.076163e+003, 4.740340e+001
1.076645e+003, 4.655198e+001
1.077127e+003, 4.598420e+001
1.077610e+003, 4.532753e+001
1.078092e+003, 4.430734e+001
1.078574e+003, 4.324601e+001
1.079056e+003, 4.231844e+001
1.079538e+003, 4.149863e+001
1.080020e+003, 4.080295e+001
1.080502e+003, 4.016577e+001
1.080984e+003, 3.940386e+001
1.081467e+003, 3.845521e+001
1.081949e+003, 3.742010e+001
1.082431e+003, 3.610961e+001
1.082913e+003, 3.499146e+001
1.083395e+003, 3.453436e+001
1.083877e+003, 3.428174e+001
1.084359e+003, 3.373986e+001
1.084841e+003, 3.296504e+001
1.085323e+003, 3.225577e+001
1.085806e+003, 3.170046e+001
1.086288e+003, 3.111683e+001
1.086770e+003, 3.036144e+001
1.087252e+003, 2.964165e+001
1.087734e+003, 2.909424e+001
1.088216e+003, 2.859811e+001
1.088698e+003, 2.804410e+001
1.089180e+003, 2.744771e+001
1.089662e+003, 2.685134e+001
1.090145e+003, 2.625904e+001
1.090627e+003, 2.575718e+001
1.091109e+003, 2.542255e+001
1.091591e+003, 2.512107e+001
1.092073e+003, 2.478385e+001
1.092555e+003, 2.446822e+001
1.093037e+003, 2.426425e+001
1.093519e+003, 2.409736e+001
1.094002e+003, 2.384363e+001
1.094484e+003, 2.348755e+001
1.094966e+003, 2.308870e+001
1.095448e+003, 2.251717e+001
1.095930e+003, 2.212797e+001
1.096412e+003, 2.220486e+001
1.096894e+003, 2.231990e+001
1.097376e+003, 2.223770e+001
1.097859e+003, 2.200393e+001
1.098341e+003, 2.167089e+001
1.098823e+003, 2.126212e+001
1.099305e+003, 2.083969e+001
1.099787e+003, 2.030632e+001
1.100269e+003, 1.999483e+001
1.100751e+003, 2.023241e+001
1.101233e+003, 2.042576e+001
1.101715e+003, 2.017437e+001
1.102198e+003, 1.981492e+001
1.102680e+003, 1.973441e+001
1.103162e+003, 1.987669e+001
1.103644e+003, 1.993061e+001
1.104126e+003, 1.981521e+001
1.104608e+003, 1.972689e+001
1.105090e+003, 1.973046e+001
1.105572e+003, 1.972696e+001
1.106054e+003, 1.971596e+001
1.106537e+003, 1.965364e+001
1.107019e+003, 1.948832e+001
1.107501e+003, 1.924823e+001
1.107983e+003, 1.897892e+001
1.108465e+003, 1.865262e+001
1.108947e+003, 1.847565e+001
1.109429e+003, 1.857735e+001
1.109911e+003, 1.867096e+001
1.110394e+003, 1.867956e+001
1.110876e+003, 1.868513e+001
1.111358e+003, 1.878745e+001
1.111840e+003, 1.889528e+001
1.112322e+003, 1.882275e+001
1.112804e+003, 1.855392e+001
1.113286e+003, 1.841162e+001
1.113768e+003, 1.847634e+001
1.114250e+003, 1.853589e+001
1.114733e+003, 1.860217e+001
1.115215e+003, 1.862253e+001
1.115697e+003, 1.848287e+001
1.116179e+003, 1.837523e+001
1.116661e+003, 1.860676e+001
1.117143e+003, 1.909650e+001
1.117625e+003, 1.922855e+001
1.118107e+003, 1.880667e+001
1.118589e+003, 1.849164e+001
1.119072e+003, 1.829957e+001
1.119554e+003, 1.819263e+001
1.120036e+003, 1.815205e+001
1.120518e+003, 1.821612e+001
1.121000e+003, 1.849451e+001
1.121482e+003, 1.884702e+001
1.121964e+003, 1.882043e+001
1.122446e+003, 1.830747e+001
1.122929e+003, 1.808896e+001
1.123411e+003, 1.826521e+001
1.123893e+003, 1.837782e+001
1.124375e+003, 1.828589e+001
1.124857e+003, 1.825920e+001
1.125339e+003, 1.850330e+001
1.125821e+003, 1.884025e+001
1.126303e+003, 1.896101e+001
1.126786e+003, 1.887596e+001
1.127268e+003, 1.875714e+001
1.127750e+003, 1.859188e+001
1.128232e+003, 1.853632e+001
1.128714e+003, 1.863416e+001
1.129196e+003, 1.864883e+001
1.129678e+003, 1.845683e+001
1.130160e+003, 1.824051e+001
1.130642e+003, 1.821972e+001
1.131125e+003, 1.832386e+001
1.131607e+003, 1.829622e+001
1.132089e+003, 1.814532e+001
1.132571e+003, 1.799780e+001
1.133053e+003, 1.786361e+001
1.133535e+003, 1.785242e+001
1.134017e+003, 1.799732e+001
1.134499e+003, 1.817173e+001
1.134981e+003, 1.827850e+001
1.135464e+003, 1.835087e+001
1.135946e+003, 1.846899e+001
1.136428e+003, 1.860203e+001
1.136910e+003, 1.863254e+001
1.137392e+003, 1.856586e+001
1.137874e+003, 1.839058e+001
1.138356e+003, 1.813436e+001
1.138838e+003, 1.801965e+001
1.139321e+003, 1.816089e+001
1.139803e+003, 1.828829e+001
1.140285e+003, 1.801467e+001
1.140767e+003, 1.760566e+001
1.141249e+003, 1.761670e+001
1.141731e+003, 1.784401e+001
1.142213e+003, 1.780208e+001
1.142695e+003, 1.753752e+001
1.143177e+003, 1.741180e+001
1.143660e+003, 1.752079e+001
1.144142e+003, 1.761166e+001
1.144624e+003, 1.746970e+001
1.145106e+003, 1.732336e+001
1.145588e+003, 1.747648e+001
1.146070e+003, 1.771109e+001
1.146552e+003, 1.773490e+001
1.147034e+003, 1.763682e+001
1.147516e+003, 1.762929e+001
1.147999e+003, 1.771250e+001
1.148481e+003, 1.769565e+001
1.148963e+003, 1.747278e+001
1.149445e+003, 1.730112e+001
1.149927e+003, 1.742121e+001
1.150409e+003, 1.756119e+001
1.150891e+003, 1.744504e+001
1.151373e+003, 1.730860e+001
1.151856e+003, 1.751889e+001
1.152338e+003, 1.789648e+001
1.152820e+003, 1.794259e+001
1.153302e+003, 1.755494e+001
1.153784e+003, 1.726568e+001
1.154266e+003, 1.733867e+001
1.154748e+003, 1.741531e+001
1.155230e+003, 1.735413e+001
1.155713e+003, 1.728635e+001
1.156195e+003, 1.726068e+001
1.156677e+003, 1.729854e+001
1.157159e+003, 1.747345e+001
1.157641e+003, 1.775117e+001
1.158123e+003, 1.789047e+001
1.158605e+003, 1.781251e+001
1.159087e+003, 1.771992e+001
1.159569e+003, 1.762815e+001
1.160052e+003, 1.751752e+001
1.160534e+003, 1.732830e+001
1.161016e+003, 1.717990e+001
1.161498e+003, 1.718605e+001
1.161980e+003, 1.728113e+001
1.162462e+003, 1.732238e+001
1.162944e+003, 1.730410e+001
1.163426e+003, 1.729843e+001
1.163908e+003, 1.732905e+001
1.164391e+003, 1.729186e+001
1.164873e+003, 1.713671e+001
1.165355e+003, 1.701576e+001
1.165837e+003, 1.699113e+001
1.166319e+003, 1.706854e+001
1.166801e+003, 1.729292e+001
1.167283e+003, 1.758553e+001
1.167765e+003, 1.756307e+001
1.168247e+003, 1.720699e+001
1.168730e+003, 1.716973e+001
1.169212e+003, 1.749107e+001
1.169694e+003, 1.764471e+001
1.170176e+003, 1.748422e+001
1.170658e+003, 1.726101e+001
1.171140e+003, 1.713857e+001
1.171622e+003, 1.711925e+001
1.172104e+003, 1.727448e+001
1.172587e+003, 1.751015e+001
1.173069e+003, 1.745639e+001
1.173551e+003, 1.720358e+001
1.174033e+003, 1.710932e+001
1.174515e+003, 1.718694e+001
1.174997e+003, 1.721630e+001
1.175479e+003, 1.712403e+001
1.175961e+003, 1.710574e+001
1.176443e+003, 1.737754e+001
1.176926e+003, 1.767801e+001
1.177408e+003, 1.764603e+001
1.177890e+003, 1.746216e+001
1.178372e+003, 1.735411e+001
1.178854e+003, 1.731790e+001
1.179336e+003, 1.731903e+001
1.179818e+003, 1.734234e+001
1.180300e+003, 1.737450e+001
1.180782e+003, 1.741547e+001
1.181265e+003, 1.742084e+001
1.181747e+003, 1.732405e+001
1.182229e+003, 1.723067e+001
1.182711e+003, 1.729498e+001
1.183193e+003, 1.731962e+001
1.183675e+003, 1.698844e+001
1.184157e+003, 1.652902e+001
1.184639e+003, 1.640731e+001
1.185122e+003, 1.667286e+001
1.185604e+003, 1.691489e+001
1.186086e+003, 1.707002e+001
1.186568e+003, 1.714843e+001
1.187050e+003, 1.709440e+001
1.187532e+003, 1.703539e+001
1.188014e+003, 1.704343e+001
1.188496e+003, 1.705339e+001
1.188979e+003, 1.699470e+001
1.189461e+003, 1.689273e+001
1.189943e+003, 1.681826e+001
1.190425e+003, 1.676849e+001
1.190907e+003, 1.676324e+001
1.191389e+003, 1.680729e+001
1.191871e+003, 1.689532e+001
1.192353e+003, 1.706735e+001
1.192835e+003, 1.715158e+001
1.193318e+003, 1.703642e+001
1.193800e+003, 1.686302e+001
1.194282e+003, 1.679063e+001
1.194764e+003, 1.682040e+001
1.195246e+003, 1.700328e+001
1.195728e+003, 1.732804e+001
1.196210e+003, 1.746725e+001
1.196692e+003, 1.741342e+001
1.197174e+003, 1.733135e+001
1.197657e+003, 1.726633e+001
1.198139e+003, 1.726567e+001
1.198621e+003, 1.736679e+001
1.199103e+003, 1.742847e+001
1.199585e+003, 1.720094e+001
1.200067e+003, 1.685098e+001
1.200549e+003, 1.672304e+001
1.201031e+003, 1.672859e+001
1.201514e+003, 1.664433e+001
1.201996e+003, 1.650839e+001
1.202478e+003, 1.655058e+001
1.202960e+003, 1.679634e+001
1.203442e+003, 1.694494e+001
1.203924e+003, 1.678131e+001
1.204406e+003, 1.659307e+001
1.204888e+003, 1.655317e+001
1.205370e+003, 1.662677e+001
1.205853e+003, 1.696099e+001
1.206335e+003, 1.725999e+001
1.206817e+003, 1.703900e+001
1.207299e+003, 1.651012e+001
1.207781e+003, 1.633555e+001
1.208263e+003, 1.666996e+001
1.208745e+003, 1.690087e+001
1.209227e+003, 1.654809e+001
1.209709e+003, 1.657859e+001
1.210192e+003, 1.782165e+001
1.210674e+003, 1.874830e+001
1.211156e+003, 1.833673e+001
1.211638e+003, 1.746115e+001
1.212120e+003, 1.689970e+001
1.212602e+003, 1.661777e+001
1.213084e+003, 1.651190e+001
1.213566e+003, 1.663254e+001
1.214049e+003, 1.666744e+001
1.214531e+003, 1.658521e+001
1.215013e+003, 1.655228e+001
1.215495e+003, 1.661786e+001
1.215977e+003, 1.662706e+001
1.216459e+003, 1.647538e+001
1.216941e+003, 1.636345e+001
1.217423e+003, 1.658273e+001
1.217906e+003, 1.696025e+001
1.218388e+003, 1.690348e+001
1.218870e+003, 1.651233e+001
1.219352e+003, 1.613894e+001
1.219834e+003, 1.590405e+001
1.220316e+003, 1.653907e+001
1.220798e+003, 1.799285e+001
1.221280e+003, 1.882585e+001
1.221762e+003, 1.824627e+001
1.222245e+003, 1.726403e+001
1.222727e+003, 1.676587e+001
1.223209e+003, 1.653297e+001
1.223691e+003, 1.637618e+001
1.224173e+003, 1.628460e+001
1.224655e+003, 1.625406e+001
1.225137e+003, 1.627649e+001
1.225619e+003, 1.638173e+001
1.226101e+003, 1.654089e+001
1.226584e+003, 1.657593e+001
1.227066e+003, 1.635160e+001
1.227548e+003, 1.621847e+001
1.228030e+003, 1.638400e+001
1.228512e+003, 1.654981e+001
1.228994e+003, 1.663198e+001
1.229476e+003, 1.662599e+001
1.229958e+003, 1.651614e+001
1.230441e+003, 1.632195e+001
1.230923e+003, 1.600616e+001
1.231405e+003, 1.558207e+001
1.231887e+003, 1.558351e+001
1.232369e+003, 1.626861e+001
1.232851e+003, 1.655132e+001
1.233333e+003, 1.624714e+001
1.233815e+003, 1.605367e+001
1.234297e+003, 1.621472e+001
1.234780e+003, 1.637011e+001
1.235262e+003, 1.624627e+001
1.235744e+003, 1.601735e+001
1.236226e+003, 1.599434e+001
1.236708e+003, 1.611621e+001
1.237190e+003, 1.612354e+001
1.237672e+003, 1.604089e+001
1.238154e+003, 1.594575e+001
1.238636e+003, 1.586888e+001
1.239119e+003, 1.592808e+001
1.239601e+003, 1.613230e+001
1.240083e+003, 1.629502e+001
1.240565e+003, 1.629881e+001
1.241047e+003, 1.621866e+001
1.241529e+003, 1.603932e+001
1.242011e+003, 1.590272e+001
1.242493e+003, 1.603864e+001
1.242975e+003, 1.622755e+001
1.243458e+003, 1.615228e+001
1.243940e+003, 1.592394e+001
1.244422e+003, 1.585631e+001
1.244904e+003, 1.598331e+001
1.245386e+003, 1.600507e+001
1.245868e+003, 1.568804e+001
1.246350e+003, 1.555057e+001
1.246832e+003, 1.581516e+001
1.247315e+003, 1.609204e+001
1.247797e+003, 1.636832e+001
1.248279e+003, 1.645926e+001
1.248761e+003, 1.610604e+001
1.249243e+003, 1.560926e+001
1.249725e+003, 1.553100e+001
1.250207e+003, 1.584464e+001
1.250689e+003, 1.610809e+001
1.251172e+003, 1.633402e+001
1.251654e+003, 1.632683e+001
1.252136e+003, 1.606174e+001
1.252618e+003, 1.583217e+001
1.253100e+003, 1.572660e+001
1.253582e+003, 1.577336e+001
1.254064e+003, 1.601030e+001
1.254546e+003, 1.621142e+001
1.255028e+003, 1.595334e+001
1.255510e+003, 1.552449e+001
1.255993e+003, 1.549107e+001
1.256475e+003, 1.567837e+001
1.256957e+003, 1.577634e+001
1.257439e+003, 1.580109e+001
1.257921e+003, 1.589426e+001
1.258403e+003, 1.606896e+001
1.258885e+003, 1.620675e+001
1.259367e+003, 1.625255e+001
1.259850e+003, 1.627402e+001
1.260332e+003, 1.633857e+001
1.260814e+003, 1.633898e+001
1.261296e+003, 1.609195e+001
1.261778e+003, 1.589607e+001
1.262260e+003, 1.605211e+001
1.262742e+003, 1.636886e+001
1.263224e+003, 1.656125e+001
1.263707e+003, 1.662752e+001
1.264189e+003, 1.654555e+001
1.264671e+003, 1.623150e+001
1.265153e+003, 1.604499e+001
1.265635e+003, 1.598331e+001
1.266117e+003, 1.612697e+001
1.266599e+003, 1.654888e+001
1.267081e+003, 1.676205e+001
1.267563e+003, 1.647211e+001
1.268046e+003, 1.605554e+001
1.268528e+003, 1.595228e+001
1.269010e+003, 1.606067e+001
1.269492e+003, 1.619452e+001
1.269974e+003, 1.632799e+001
1.270456e+003, 1.640189e+001
1.270938e+003, 1.641639e+001
1.271420e+003, 1.634251e+001
1.271902e+003, 1.621980e+001
1.272385e+003, 1.619592e+001
1.272867e+003, 1.632778e+001
1.273349e+003, 1.650995e+001
1.273831e+003, 1.678320e+001
1.274313e+003, 1.694731e+001
1.274795e+003, 1.682096e+001
1.275277e+003, 1.664602e+001
1.275759e+003, 1.651581e+001
1.276242e+003, 1.647783e+001
1.276724e+003, 1.663507e+001
1.277206e+003, 1.691348e+001
1.277688e+003, 1.707323e+001
1.278170e+003, 1.710511e+001
1.278652e+003, 1.710564e+001
1.279134e+003, 1.709894e+001
1.279616e+003, 1.692648e+001
1.280099e+003, 1.649630e+001
1.280581e+003, 1.636235e+001
1.281063e+003, 1.676760e+001
1.281545e+003, 1.710709e+001
1.282027e+003, 1.688022e+001
1.282509e+003, 1.643752e+001
1.282991e+003, 1.635631e+001
1.283473e+003, 1.651679e+001
1.283955e+003, 1.666710e+001
##END=



