##NAMES=Forsterite
##RRUFFID=R100100
##IDEAL CHEMISTRY=Mg_2_SiO_4_
##LOCALITY=Scott Creek, Jackson County,  North Carolina, USA
##OWNER=RRUFF
##SOURCE=American Museum of Natural History
##DESCRIPTION=Pale greenish-yellow fragments
##STATUS=The identification of this mineral is confirmed by single-crystal X-ray diffraction and chemical analysis.
##URL=rruff.info/R100100
##MEASURED CHEMISTRY=(Mg_1.832_Fe_0.153_Ni_0.008_Mn_0.002_Zn_0.001_)_Î£=1.996_Si_1.000_O_4_
126.1688, 12.82537
126.6509, 13.27767
127.1331, 14.90853
127.6152, 17.42865
128.0973, 19.40018
128.5794, 19.42085
129.0615, 18.14982
129.5436, 17.15214
130.0258, 16.80936
130.5079, 16.84710
130.9900, 16.70656
131.4721, 16.38925
131.9542, 16.28139
132.4363, 16.89438
132.9185, 18.11587
133.4006, 19.14725
133.8827, 19.63302
134.3648, 19.78534
134.8469, 20.54377
135.3290, 22.04088
135.8112, 23.56710
136.2933, 24.06774
136.7754, 23.45309
137.2575, 23.25070
137.7396, 23.99225
138.2217, 25.64795
138.7039, 27.70396
139.1860, 30.25503
139.6681, 33.06420
140.1502, 35.96709
140.6323, 39.11041
141.1144, 41.75804
141.5966, 43.32317
142.0787, 43.28170
142.5608, 44.57775
143.0429, 47.68124
143.5250, 51.84715
144.0071, 55.39138
144.4893, 58.11798
144.9714, 60.49009
145.4535, 62.57162
145.9356, 63.83018
146.4177, 65.94083
146.8998, 69.28384
147.3820, 73.54384
147.8641, 77.54646
148.3462, 80.85008
148.8283, 84.26084
149.3104, 88.26273
149.7925, 93.39743
150.2747, 98.38892
150.7568, 102.8462
151.2389, 106.8548
151.7210, 111.5093
152.2031, 117.3026
152.6852, 123.3890
153.1674, 129.3096
153.6495, 134.8356
154.1316, 140.3619
154.6137, 146.2594
155.0958, 152.5508
155.5779, 157.8163
156.0601, 161.5407
156.5422, 164.3400
157.0243, 166.6921
157.5064, 168.6003
157.9885, 170.1475
158.4706, 171.2702
158.9528, 171.9259
159.4349, 172.5346
159.9170, 173.1411
160.3991, 173.7758
160.8812, 174.4739
161.3633, 174.6193
161.8455, 175.3317
162.3276, 177.2877
162.8097, 180.7420
163.2918, 184.3347
163.7739, 187.1187
164.2560, 189.5201
164.7382, 191.3352
165.2203, 195.0556
165.7024, 198.9165
166.1845, 201.3135
166.6666, 201.5226
167.1487, 202.0818
167.6309, 204.7154
168.1130, 208.7236
168.5951, 212.5853
169.0772, 215.8777
169.5593, 218.6089
170.0414, 220.6615
170.5236, 221.7488
171.0057, 222.8171
171.4878, 224.8062
171.9699, 227.4157
172.4520, 229.6902
172.9341, 231.0850
173.4163, 231.8831
173.8984, 232.4515
174.3805, 233.0163
174.8626, 233.1386
175.3447, 232.0310
175.8268, 229.9500
176.3090, 228.0913
176.7911, 227.5056
177.2732, 227.6367
177.7553, 227.5760
178.2374, 226.9458
178.7195, 226.1872
179.2017, 225.9335
179.6838, 226.1332
180.1659, 226.3372
180.6480, 226.1882
181.1301, 225.7822
181.6122, 225.2873
182.0944, 224.4390
182.5765, 223.7527
183.0586, 224.4845
183.5407, 226.6020
184.0228, 228.5883
184.5049, 228.5952
184.9871, 227.1959
185.4692, 226.4964
185.9513, 227.6446
186.4334, 229.7336
186.9155, 230.3904
187.3976, 229.4923
187.8798, 228.5596
188.3619, 229.4700
188.8440, 231.9285
189.3261, 233.9997
189.8082, 235.1510
190.2903, 235.4282
190.7725, 234.6215
191.2546, 232.4830
191.7367, 230.5101
192.2188, 230.9227
192.7009, 233.5708
193.1830, 235.5351
193.6652, 235.2172
194.1473, 233.1070
194.6294, 232.4527
195.1115, 233.4965
195.5936, 235.1723
196.0757, 236.2392
196.5579, 236.6970
197.0400, 236.6467
197.5221, 235.8335
198.0042, 234.3463
198.4863, 233.5827
198.9684, 233.6792
199.4506, 234.2109
199.9327, 234.5862
200.4148, 234.7948
200.8969, 234.9632
201.3790, 235.1117
201.8611, 235.2343
202.3433, 235.4882
202.8254, 235.9260
203.3075, 236.4051
203.7896, 236.6748
204.2717, 236.7111
204.7538, 236.6525
205.2360, 236.4175
205.7181, 235.9227
206.2002, 236.0412
206.6823, 236.9112
207.1644, 238.2220
207.6465, 239.3839
208.1287, 240.3040
208.6108, 241.3646
209.0929, 242.8786
209.5750, 245.0499
210.0571, 246.5816
210.5392, 247.3281
211.0214, 247.5916
211.5035, 247.8674
211.9856, 247.9815
212.4677, 248.5845
212.9498, 250.1862
213.4319, 253.1644
213.9140, 255.4649
214.3962, 256.9186
214.8783, 257.7881
215.3604, 258.6005
215.8425, 259.2804
216.3246, 260.0768
216.8067, 261.1234
217.2889, 262.4564
217.7710, 263.8658
218.2531, 265.3746
218.7352, 266.9333
219.2173, 268.4397
219.6994, 269.8104
220.1816, 271.2914
220.6637, 272.9893
221.1458, 274.8648
221.6279, 277.1984
222.1100, 280.5334
222.5921, 284.1349
223.0743, 286.0852
223.5564, 285.8636
224.0385, 284.8997
224.5206, 283.8018
225.0027, 282.5049
225.4848, 281.2569
225.9670, 280.2220
226.4491, 279.2046
226.9312, 277.5537
227.4133, 274.7711
227.8954, 272.1757
228.3775, 270.5138
228.8597, 270.2931
229.3418, 269.6181
229.8239, 268.0997
230.3060, 266.1967
230.7881, 265.3505
231.2702, 266.3257
231.7524, 267.1642
232.2345, 266.9456
232.7166, 265.2341
233.1987, 263.4013
233.6808, 261.1231
234.1629, 258.8198
234.6451, 257.6794
235.1272, 258.3511
235.6093, 259.2439
236.0914, 259.7097
236.5735, 259.7509
237.0556, 259.3578
237.5378, 258.3491
238.0199, 256.9720
238.5020, 255.8443
238.9841, 255.0348
239.4662, 254.3634
239.9483, 253.7684
240.4305, 253.3141
240.9126, 252.7822
241.3947, 252.0715
241.8768, 251.3087
242.3589, 250.8870
242.8410, 251.2493
243.3232, 251.2635
243.8053, 250.3093
244.2874, 247.6186
244.7695, 245.8261
245.2516, 245.1686
245.7337, 245.2995
246.2159, 245.4720
246.6980, 245.6933
247.1801, 245.9510
247.6622, 246.2837
248.1443, 246.8262
248.6264, 247.0835
249.1086, 247.0824
249.5907, 246.7922
250.0728, 246.0284
250.5549, 244.2423
251.0370, 242.9107
251.5191, 242.7597
252.0013, 244.3475
252.4834, 245.2137
252.9655, 245.0826
253.4476, 244.3839
253.9297, 243.8620
254.4118, 243.4608
254.8940, 243.3503
255.3761, 243.7433
255.8582, 244.9527
256.3403, 245.3274
256.8224, 244.4412
257.3046, 243.0511
257.7867, 242.4696
258.2688, 243.0134
258.7509, 243.7036
259.2330, 244.3004
259.7151, 244.8658
260.1973, 244.9822
260.6794, 244.4759
261.1615, 243.6961
261.6436, 243.1408
262.1257, 242.8266
262.6078, 242.6892
263.0900, 242.7554
263.5721, 243.0544
264.0542, 243.2267
264.5363, 243.1550
265.0184, 243.0915
265.5005, 243.4460
265.9827, 244.4335
266.4648, 245.1755
266.9469, 245.2783
267.4290, 244.7144
267.9111, 244.7813
268.3932, 245.8053
268.8754, 246.9502
269.3575, 247.1905
269.8396, 246.2830
270.3217, 245.3467
270.8038, 244.5215
271.2859, 243.8291
271.7681, 243.9660
272.2502, 245.2464
272.7323, 246.7074
273.2144, 247.2717
273.6965, 246.7772
274.1786, 246.2905
274.6608, 246.0193
275.1429, 245.9458
275.6250, 245.8777
276.1071, 245.7381
276.5892, 245.8235
277.0714, 246.6098
277.5535, 248.2337
278.0356, 249.3211
278.5177, 249.5044
278.9998, 248.9910
279.4819, 248.5927
279.9641, 248.3112
280.4462, 248.1319
280.9283, 247.8978
281.4104, 247.5896
281.8925, 248.0201
282.3746, 249.6060
282.8568, 251.7883
283.3389, 252.9270
283.8210, 252.9357
284.3031, 252.5607
284.7852, 251.9359
285.2673, 251.1310
285.7495, 251.5332
286.2316, 253.6424
286.7137, 256.5536
287.1958, 258.3671
287.6779, 259.0530
288.1600, 259.4613
288.6422, 260.0601
289.1243, 260.8307
289.6064, 261.5873
290.0885, 262.3061
290.5706, 263.0511
291.0527, 263.9377
291.5349, 264.9620
292.0170, 266.0390
292.4991, 266.9534
292.9812, 267.8604
293.4633, 269.2627
293.9454, 271.1963
294.4276, 273.6243
294.9097, 276.5399
295.3918, 279.9182
295.8739, 283.5868
296.3560, 287.4801
296.8381, 291.5925
297.3203, 295.6901
297.8024, 299.6978
298.2845, 304.1367
298.7666, 309.8069
299.2487, 316.3682
299.7308, 322.9632
300.2130, 330.0411
300.6951, 336.6330
301.1772, 340.9966
301.6593, 343.1290
302.1414, 344.3087
302.6235, 345.8788
303.1057, 347.2803
303.5878, 347.3778
304.0699, 346.0363
304.5520, 343.0210
305.0341, 337.2248
305.5162, 328.9831
305.9984, 320.8619
306.4805, 314.4143
306.9626, 309.3587
307.4447, 305.5230
307.9268, 303.3029
308.4089, 301.6002
308.8911, 299.2732
309.3732, 296.5515
309.8553, 294.3894
310.3374, 293.3958
310.8195, 293.2085
311.3016, 293.4847
311.7838, 294.1190
312.2659, 295.2695
312.7480, 297.2490
313.2301, 299.8366
313.7122, 302.5174
314.1943, 305.5710
314.6765, 308.3304
315.1586, 310.4014
315.6407, 311.7802
316.1228, 312.2874
316.6049, 311.3340
317.0870, 309.5001
317.5692, 307.7580
318.0513, 307.1064
318.5334, 306.0790
319.0155, 303.5256
319.4976, 298.9908
319.9797, 295.4384
320.4619, 293.9247
320.9440, 293.8600
321.4261, 294.5935
321.9082, 296.2267
322.3903, 298.3705
322.8724, 301.6514
323.3546, 306.1127
323.8367, 308.5908
324.3188, 306.6021
324.8009, 303.4367
325.2830, 301.6318
325.7651, 303.0256
326.2473, 304.0895
326.7294, 304.3554
327.2115, 303.8704
327.6936, 303.0231
328.1757, 302.0494
328.6578, 300.5736
329.1400, 298.3790
329.6221, 294.3332
330.1042, 291.1347
330.5863, 289.0210
331.0684, 287.7607
331.5505, 286.7225
332.0327, 285.9498
332.5148, 285.3273
332.9969, 284.8238
333.4790, 284.4985
333.9611, 284.1008
334.4432, 283.3452
334.9254, 282.6790
335.4075, 283.0175
335.8896, 285.0672
336.3717, 286.7043
336.8538, 287.2242
337.3359, 286.5484
337.8180, 285.6290
338.3001, 284.4171
338.7823, 283.0461
339.2644, 281.6486
339.7465, 280.1841
340.2286, 278.8615
340.7107, 277.8563
341.1928, 277.0557
341.6750, 275.5314
342.1571, 272.9479
342.6392, 270.7923
343.1213, 270.8212
343.6034, 273.0809
344.0855, 274.1017
344.5677, 273.0124
345.0498, 270.6568
345.5319, 269.0491
346.0140, 268.2065
346.4961, 267.6271
346.9782, 266.9780
347.4604, 266.3091
347.9425, 265.9105
348.4246, 265.8419
348.9067, 265.9496
349.3888, 266.0851
349.8709, 266.2331
350.3531, 266.2928
350.8352, 266.1900
351.3173, 265.9746
351.7994, 265.6935
352.2815, 265.3392
352.7636, 265.0568
353.2458, 264.8778
353.7279, 264.8739
354.2100, 265.2097
354.6921, 266.2902
355.1742, 267.4988
355.6563, 268.2553
356.1385, 268.5611
356.6206, 268.5121
357.1027, 267.6869
357.5848, 266.7193
358.0669, 266.3898
358.5490, 267.2404
359.0312, 268.2689
359.5133, 268.9274
359.9954, 269.2638
360.4775, 269.4429
360.9596, 269.2902
361.4417, 269.1702
361.9239, 269.4149
362.4060, 270.2824
362.8881, 270.8985
363.3702, 270.3798
363.8523, 269.5074
364.3344, 269.4791
364.8166, 271.6791
365.2987, 273.8571
365.7808, 274.9320
366.2629, 274.6840
366.7450, 274.9327
367.2271, 276.5048
367.7093, 278.4344
368.1914, 279.8733
368.6735, 279.9740
369.1556, 280.4545
369.6377, 281.7896
370.1198, 283.8532
370.6020, 285.4717
371.0841, 286.8823
371.5662, 287.6304
372.0483, 287.4277
372.5304, 285.8416
373.0125, 284.0643
373.4947, 281.8284
373.9768, 279.5331
374.4589, 278.2198
374.9410, 278.4347
375.4231, 278.5037
375.9052, 277.7360
376.3874, 276.0117
376.8695, 274.2657
377.3516, 272.2845
377.8337, 270.6139
378.3158, 270.0822
378.7979, 270.8618
379.2801, 271.4848
379.7622, 271.5223
380.2443, 271.0948
380.7264, 270.7465
381.2085, 270.4939
381.6906, 270.2032
382.1728, 269.6227
382.6549, 268.8347
383.1370, 268.5198
383.6191, 269.0248
384.1012, 269.6276
384.5833, 268.6715
385.0655, 266.4148
385.5476, 264.7975
386.0297, 265.7846
386.5118, 267.9507
386.9939, 268.4118
387.4760, 266.7057
387.9582, 264.9061
388.4403, 265.3072
388.9224, 267.0463
389.4045, 268.3212
389.8866, 267.8180
390.3687, 266.9367
390.8509, 267.0880
391.3330, 268.1615
391.8151, 268.8507
392.2972, 267.8355
392.7793, 266.3060
393.2614, 265.3993
393.7436, 265.5609
394.2257, 266.1865
394.7078, 267.5182
395.1899, 269.1727
395.6720, 270.1426
396.1541, 269.3806
396.6363, 268.4464
397.1184, 268.1287
397.6005, 268.7491
398.0826, 269.2354
398.5647, 269.2771
399.0468, 269.1528
399.5290, 269.2001
400.0111, 269.2865
400.4932, 269.7232
400.9753, 270.7153
401.4574, 272.2640
401.9395, 273.5314
402.4217, 274.3594
402.9038, 275.0803
403.3859, 275.8705
403.8680, 276.5984
404.3501, 277.7574
404.8322, 279.5972
405.3144, 281.7790
405.7965, 283.3661
406.2786, 284.3078
406.7607, 284.8540
407.2428, 284.9435
407.7249, 284.5503
408.2071, 284.6703
408.6892, 285.4190
409.1713, 286.3370
409.6534, 286.7486
410.1355, 286.6888
410.6176, 286.9326
411.0998, 287.9446
411.5819, 289.2578
412.0640, 289.4060
412.5461, 288.4479
413.0282, 287.9210
413.5103, 289.4664
413.9925, 292.2336
414.4746, 294.4741
414.9567, 295.8376
415.4388, 296.8205
415.9209, 297.7156
416.4030, 298.6271
416.8852, 299.8414
417.3673, 302.0131
417.8494, 304.1935
418.3315, 305.5119
418.8136, 305.8978
419.2957, 306.1640
419.7779, 306.5203
420.2600, 307.0795
420.7421, 307.9482
421.2242, 309.2674
421.7063, 310.7960
422.1884, 312.5952
422.6706, 314.5807
423.1527, 316.4995
423.6348, 317.3243
424.1169, 318.8252
424.5990, 322.0552
425.0811, 328.2756
425.5633, 333.4559
426.0454, 336.2273
426.5275, 338.3957
427.0096, 342.3746
427.4917, 349.4898
427.9738, 356.3920
428.4560, 362.4697
428.9381, 367.7811
429.4202, 372.6040
429.9023, 377.1310
430.3844, 380.7152
430.8665, 382.9984
431.3487, 384.0952
431.8308, 383.0306
432.3129, 379.4215
432.7950, 374.0034
433.2771, 367.9546
433.7592, 361.2855
434.2414, 354.9559
434.7235, 349.5879
435.2056, 344.9506
435.6877, 339.8929
436.1698, 334.3551
436.6519, 329.3261
437.1341, 326.4979
437.6162, 325.0529
438.0983, 322.6779
438.5804, 318.2501
439.0625, 313.3586
439.5446, 309.8979
440.0268, 307.5673
440.5089, 305.2625
440.9910, 302.2452
441.4731, 299.0335
441.9552, 295.9568
442.4373, 293.0411
442.9195, 290.5362
443.4016, 288.8197
443.8837, 287.5111
444.3658, 286.1474
444.8479, 284.3829
445.3300, 282.7543
445.8122, 281.2946
446.2943, 280.0540
446.7764, 279.3097
447.2585, 279.8570
447.7406, 280.3299
448.2227, 279.9930
448.7049, 278.2319
449.1870, 276.8385
449.6691, 275.8925
450.1512, 275.2816
450.6333, 274.8853
451.1154, 274.8280
451.5976, 274.7098
452.0797, 274.4242
452.5618, 273.9787
453.0439, 273.3433
453.5260, 272.3186
454.0081, 271.7532
454.4903, 272.8404
454.9724, 275.5317
455.4545, 276.8472
455.9366, 276.1647
456.4187, 274.4937
456.9008, 273.3199
457.3830, 272.6261
457.8651, 272.3835
458.3472, 272.8653
458.8293, 273.6871
459.3114, 274.2654
459.7935, 274.5868
460.2757, 274.5131
460.7578, 273.4970
461.2399, 272.1446
461.7220, 271.3154
462.2041, 271.3630
462.6862, 271.7433
463.1684, 272.1374
463.6505, 272.5946
464.1326, 273.2223
464.6147, 274.4041
465.0968, 275.4882
465.5789, 276.2068
466.0611, 276.5670
466.5432, 276.3505
467.0253, 274.5641
467.5074, 272.6855
467.9895, 271.9608
468.4716, 273.5252
468.9538, 274.8893
469.4359, 276.0191
469.9180, 276.8376
470.4001, 277.0039
470.8822, 276.1173
471.3643, 275.3017
471.8465, 275.1046
472.3286, 275.6267
472.8107, 275.6911
473.2928, 275.1797
473.7749, 274.5165
474.2570, 274.0963
474.7392, 273.9211
475.2213, 274.1337
475.7034, 274.8922
476.1855, 275.9020
476.6676, 276.5678
477.1497, 276.9119
477.6319, 277.1334
478.1140, 277.3688
478.5961, 277.5537
479.0782, 277.5269
479.5603, 277.2590
480.0424, 277.0136
480.5246, 277.2625
481.0067, 277.5958
481.4888, 277.4011
481.9709, 275.7050
482.4530, 274.3261
482.9352, 274.4613
483.4173, 275.7176
483.8994, 276.8537
484.3815, 277.5859
484.8636, 277.9933
485.3457, 278.0434
485.8279, 277.6203
486.3100, 277.2945
486.7921, 277.1677
487.2742, 277.1314
487.7563, 277.1094
488.2384, 277.2421
488.7206, 277.1146
489.2027, 276.4674
489.6848, 275.5616
490.1669, 275.4669
490.6490, 276.4888
491.1311, 277.4013
491.6133, 277.5284
492.0954, 276.8884
492.5775, 276.3604
493.0596, 275.9036
493.5417, 275.7571
494.0238, 276.4515
494.5060, 277.7728
494.9881, 278.7436
495.4702, 279.1721
495.9523, 279.0424
496.4344, 277.8416
496.9165, 275.9117
497.3987, 274.5439
497.8808, 274.9249
498.3629, 275.9167
498.8450, 276.3495
499.3271, 276.1066
499.8092, 276.0560
500.2914, 277.1918
500.7735, 278.4799
501.2556, 278.9567
501.7377, 277.5061
502.2198, 276.2672
502.7019, 275.6835
503.1841, 275.6411
503.6662, 275.8212
504.1483, 276.5702
504.6304, 277.1465
505.1125, 277.2744
505.5946, 276.9078
506.0768, 276.7275
506.5589, 276.7702
507.0410, 276.9552
507.5231, 277.2270
508.0052, 277.5891
508.4873, 278.0609
508.9695, 278.7135
509.4516, 279.3590
509.9337, 279.5714
510.4158, 279.3727
510.8979, 279.1829
511.3800, 279.2286
511.8622, 279.3911
512.3443, 279.3152
512.8264, 279.0205
513.3085, 278.8936
513.7906, 279.4336
514.2728, 280.2389
514.7549, 280.8180
515.2370, 281.1049
515.7191, 281.0738
516.2012, 280.4063
516.6833, 279.4781
517.1655, 278.8541
517.6476, 279.0562
518.1297, 279.2602
518.6118, 278.9989
519.0939, 278.3503
519.5760, 278.2411
520.0582, 279.7274
520.5403, 280.9572
521.0224, 280.9379
521.5045, 278.7573
521.9866, 278.0854
522.4688, 279.5702
522.9509, 281.8453
523.4330, 283.2964
523.9151, 283.8315
524.3972, 283.9768
524.8793, 283.6496
525.3615, 283.1606
525.8436, 283.4590
526.3257, 284.5345
526.8078, 285.5810
527.2899, 286.0891
527.7720, 286.2465
528.2542, 286.3208
528.7363, 286.3088
529.2184, 286.6855
529.7005, 288.3505
530.1826, 290.4899
530.6647, 291.9905
531.1469, 292.4048
531.6290, 292.3275
532.1111, 291.4308
532.5932, 290.3128
533.0753, 290.1926
533.5574, 292.2410
534.0396, 294.5506
534.5217, 296.5146
535.0038, 298.0675
535.4859, 299.6080
535.9680, 300.8283
536.4501, 302.3287
536.9323, 304.5611
537.4144, 308.0671
537.8965, 310.7579
538.3786, 312.2678
538.8607, 313.3989
539.3428, 315.5023
539.8250, 318.7044
540.3071, 321.3919
540.7892, 322.8852
541.2713, 323.7294
541.7534, 325.4831
542.2355, 328.0147
542.7177, 329.8979
543.1998, 330.4789
543.6819, 329.7530
544.1640, 327.3678
544.6461, 323.2393
545.1282, 318.9384
545.6104, 315.2220
546.0925, 312.1198
546.5746, 309.7128
547.0567, 308.6754
547.5388, 307.4220
548.0209, 305.2943
548.5031, 302.5963
548.9852, 299.9547
549.4673, 297.0015
549.9494, 294.6094
550.4315, 293.0586
550.9136, 292.3466
551.3958, 291.8848
551.8779, 291.7141
552.3600, 291.7266
552.8421, 291.9576
553.3242, 292.4708
553.8063, 292.5507
554.2885, 292.0856
554.7706, 291.4126
555.2527, 290.8821
555.7348, 290.5095
556.2169, 290.4388
556.6990, 290.9110
557.1812, 291.4497
557.6633, 291.1263
558.1454, 290.2049
558.6275, 289.6797
559.1096, 290.6835
559.5917, 291.9342
560.0739, 292.2917
560.5560, 291.6686
561.0381, 291.0504
561.5202, 290.6434
562.0023, 290.5209
562.4844, 290.7490
562.9666, 291.5215
563.4487, 292.3746
563.9308, 293.3086
564.4129, 294.2881
564.8950, 295.2346
565.3771, 296.0267
565.8593, 297.0519
566.3414, 298.5204
566.8235, 300.2643
567.3056, 301.5599
567.7877, 302.3561
568.2698, 303.0058
568.7520, 303.5477
569.2341, 304.0956
569.7162, 305.1939
570.1983, 306.8737
570.6804, 308.7269
571.1625, 310.3889
571.6447, 311.9509
572.1268, 313.5352
572.6089, 315.1452
573.0910, 316.8797
573.5731, 318.9973
574.0552, 321.2642
574.5374, 323.3181
575.0195, 324.1987
575.5016, 325.6836
575.9837, 328.8492
576.4658, 333.4944
576.9479, 337.1505
577.4301, 339.1459
577.9122, 340.8362
578.3943, 342.7128
578.8764, 344.7027
579.3585, 347.3467
579.8406, 350.8423
580.3228, 354.5525
580.8049, 357.9373
581.2870, 360.9761
581.7691, 363.4898
582.2512, 365.3174
582.7333, 366.8511
583.2155, 368.6813
583.6975, 370.6896
584.1796, 372.6069
584.6617, 374.8360
585.1439, 376.4964
585.6260, 376.1910
586.1081, 374.3546
586.5902, 373.1964
587.0723, 374.7108
587.5544, 376.4455
588.0366, 376.9350
588.5187, 375.7291
589.0008, 374.5688
589.4829, 373.6289
589.9650, 372.8389
590.4471, 372.2972
590.9293, 372.7563
591.4114, 371.5687
591.8935, 367.9578
592.3756, 363.2838
592.8577, 360.0984
593.3398, 358.5215
593.8220, 356.7849
594.3041, 353.9942
594.7862, 350.9259
595.2683, 349.5627
595.7504, 349.7432
596.2325, 350.2024
596.7147, 350.1498
597.1968, 349.9477
597.6789, 349.9391
598.1610, 350.1489
598.6431, 350.7093
599.1252, 351.6466
599.6074, 352.9909
600.0895, 354.7933
600.5716, 357.2279
601.0537, 359.8456
601.5358, 362.9247
602.0179, 366.0008
602.5001, 368.4094
602.9822, 369.7118
603.4643, 371.2318
603.9464, 373.4540
604.4285, 375.9419
604.9106, 377.2368
605.3928, 377.2297
605.8749, 376.8807
606.3570, 376.6920
606.8391, 376.5151
607.3212, 375.9151
607.8033, 374.8942
608.2855, 373.4207
608.7676, 371.5678
609.2497, 369.2144
609.7318, 366.1813
610.2139, 362.3456
610.6960, 358.1778
611.1782, 353.6033
611.6603, 348.9911
612.1424, 344.6780
612.6245, 340.8487
613.1066, 337.2660
613.5887, 334.0127
614.0709, 330.9538
614.5530, 327.6523
615.0351, 323.7838
615.5172, 320.5122
615.9993, 318.2496
616.4814, 316.8291
616.9636, 315.3616
617.4457, 313.8658
617.9278, 312.2074
618.4099, 309.8767
618.8920, 307.3759
619.3741, 306.4399
619.8563, 307.1496
620.3384, 307.5143
620.8205, 305.0034
621.3026, 301.5920
621.7847, 299.8388
622.2668, 300.8599
622.7490, 301.9102
623.2311, 301.9513
623.7132, 301.2688
624.1953, 300.2279
624.6774, 298.0763
625.1595, 296.5869
625.6417, 296.2909
626.1238, 296.7391
626.6059, 296.6264
627.0880, 295.7313
627.5701, 294.9558
628.0522, 294.6700
628.5344, 294.7660
629.0165, 294.6792
629.4986, 294.4055
629.9807, 294.1567
630.4628, 294.2621
630.9449, 294.4448
631.4271, 294.0564
631.9092, 293.0233
632.3913, 292.0812
632.8734, 291.1332
633.3555, 290.8575
633.8376, 292.3016
634.3198, 297.6615
634.8019, 300.7806
635.2840, 298.1586
635.7661, 293.0062
636.2482, 289.8177
636.7303, 289.7163
637.2125, 289.9017
637.6946, 290.1801
638.1767, 290.4321
638.6588, 290.2577
639.1409, 289.5906
639.6230, 288.9810
640.1052, 288.7702
640.5873, 288.7358
641.0694, 288.0327
641.5515, 286.7327
642.0336, 285.6788
642.5157, 285.5914
642.9979, 285.9896
643.4800, 286.4259
643.9621, 286.8753
644.4442, 287.1097
644.9263, 286.8028
645.4084, 286.3661
645.8906, 286.1386
646.3727, 286.3332
646.8548, 286.4284
647.3369, 286.3155
647.8190, 286.1336
648.3011, 286.0506
648.7833, 286.0869
649.2654, 286.1083
649.7475, 286.0430
650.2296, 286.0058
650.7117, 286.2739
651.1938, 286.8276
651.6760, 287.4244
652.1581, 288.0523
652.6402, 288.6058
653.1223, 288.9058
653.6044, 288.9857
654.0865, 288.9943
654.5687, 288.9714
655.0508, 288.9437
655.5329, 288.9195
656.0150, 288.9010
656.4971, 288.9232
656.9792, 289.1177
657.4614, 289.2496
657.9435, 289.1310
658.4256, 288.5577
658.9077, 288.4940
659.3898, 289.1431
659.8719, 289.9384
660.3541, 290.2816
660.8362, 290.1837
661.3183, 290.0621
661.8004, 289.9903
662.2825, 289.8692
662.7646, 289.5156
663.2468, 289.0124
663.7289, 288.5527
664.2110, 288.1155
664.6931, 287.8654
665.1752, 288.1551
665.6573, 288.7221
666.1395, 288.9480
666.6216, 288.1291
667.1037, 287.4787
667.5858, 287.4926
668.0679, 288.0697
668.5500, 288.4941
669.0322, 288.5980
669.5143, 288.8957
669.9964, 289.7732
670.4785, 291.1603
670.9606, 291.9064
671.4427, 291.9768
671.9249, 291.7221
672.4070, 291.3256
672.8891, 290.8257
673.3712, 290.1979
673.8533, 289.3948
674.3354, 288.9462
674.8176, 289.7070
675.2997, 290.7895
675.7818, 291.1891
676.2639, 290.1072
676.7460, 289.4388
677.2281, 289.8538
677.7103, 290.8208
678.1924, 291.7603
678.6745, 292.9212
679.1566, 293.4394
679.6387, 292.9603
680.1208, 291.9997
680.6030, 291.7557
681.0851, 292.2258
681.5672, 292.5484
682.0493, 292.2178
682.5314, 291.7384
683.0135, 292.1523
683.4957, 293.2420
683.9778, 294.1399
684.4599, 294.1955
684.9420, 294.0403
685.4241, 294.1482
685.9063, 294.5075
686.3884, 294.7093
686.8705, 294.4911
687.3526, 294.2376
687.8347, 294.1171
688.3168, 294.1493
688.7990, 294.2196
689.2811, 294.3324
689.7632, 294.4875
690.2453, 294.6732
690.7274, 294.8958
691.2095, 295.2839
691.6917, 295.8868
692.1738, 296.3403
692.6559, 296.0553
693.1380, 295.3976
693.6201, 295.0121
694.1022, 295.1331
694.5844, 295.2862
695.0665, 295.1985
695.5486, 294.9792
696.0307, 294.7690
696.5128, 294.6580
696.9949, 294.4654
697.4771, 294.0024
697.9592, 293.5221
698.4413, 293.5815
698.9234, 294.3072
699.4055, 295.1171
699.8876, 296.0044
700.3698, 296.7498
700.8519, 296.5934
701.3340, 295.6686
701.8161, 294.8537
702.2982, 294.7255
702.7803, 294.8676
703.2625, 294.6880
703.7446, 294.3152
704.2267, 294.3977
704.7088, 295.9175
705.1909, 297.3607
705.6730, 297.8241
706.1552, 297.1673
706.6373, 296.8030
707.1194, 296.8596
707.6015, 297.0357
708.0836, 297.1569
708.5657, 297.2091
709.0479, 297.3686
709.5300, 297.6225
710.0121, 298.0219
710.4942, 298.8014
710.9763, 299.7278
711.4584, 300.2054
711.9406, 300.0976
712.4227, 299.9735
712.9048, 300.5235
713.3869, 301.1428
713.8690, 301.1260
714.3511, 299.6400
714.8333, 298.7532
715.3154, 299.7141
715.7975, 301.0197
716.2796, 300.8988
716.7617, 298.5303
717.2438, 297.2773
717.7260, 297.8261
718.2081, 299.2369
718.6902, 299.9286
719.1723, 299.9746
719.6544, 299.8060
720.1365, 299.2686
720.6187, 299.0291
721.1008, 300.3678
721.5829, 302.6095
722.0650, 304.2089
722.5471, 303.7100
723.0292, 303.1974
723.5114, 303.9976
723.9935, 305.6337
724.4756, 305.9196
724.9577, 303.6530
725.4398, 301.8095
725.9219, 301.2734
726.4041, 301.8822
726.8862, 302.9473
727.3683, 304.5629
727.8504, 305.6916
728.3325, 305.4159
728.8146, 304.3651
729.2968, 303.8669
729.7789, 303.8803
730.2610, 303.9381
730.7431, 303.4187
731.2252, 303.0787
731.7073, 303.7672
732.1895, 305.6851
732.6716, 306.7872
733.1537, 305.8585
733.6358, 304.7804
734.1179, 304.4832
734.6000, 305.1185
735.0822, 305.6978
735.5643, 306.2586
736.0464, 306.6368
736.5285, 306.4984
737.0106, 306.0308
737.4927, 306.0139
737.9749, 306.5649
738.4570, 307.1934
738.9391, 307.4624
739.4212, 307.5770
739.9033, 307.8014
740.3854, 308.3381
740.8676, 308.6400
741.3497, 308.3276
741.8318, 307.8390
742.3139, 307.6216
742.7960, 307.7744
743.2781, 307.8935
743.7603, 307.7873
744.2424, 307.9063
744.7245, 309.3742
745.2066, 311.9150
745.6887, 313.1900
746.1708, 312.2682
746.6530, 310.8720
747.1351, 311.0269
747.6172, 312.1027
748.0993, 313.0053
748.5814, 313.5932
749.0635, 313.6374
749.5457, 312.6117
750.0278, 311.0532
750.5099, 310.1229
750.9920, 309.9732
751.4741, 310.2234
751.9562, 310.9581
752.4384, 311.9454
752.9205, 312.5470
753.4026, 312.7780
753.8847, 312.9832
754.3668, 313.2568
754.8489, 313.6190
755.3311, 314.2130
755.8132, 314.9352
756.2953, 315.4629
756.7774, 315.4460
757.2595, 315.3998
757.7416, 315.6986
758.2238, 316.2292
758.7059, 316.3441
759.1880, 315.7472
759.6701, 315.1638
760.1522, 314.7739
760.6343, 314.5694
761.1165, 314.3698
761.5986, 314.1515
762.0807, 314.4933
762.5628, 316.3268
763.0449, 318.6553
763.5270, 319.5163
764.0092, 319.1648
764.4913, 319.0077
764.9734, 320.0405
765.4555, 321.3184
765.9376, 322.4199
766.4197, 323.3246
766.9019, 323.6556
767.3840, 322.9281
767.8661, 322.3407
768.3482, 322.5752
768.8303, 323.5741
769.3124, 323.6017
769.7946, 322.5638
770.2767, 321.7248
770.7588, 322.0589
771.2409, 323.1659
771.7230, 324.6043
772.2051, 326.3021
772.6873, 327.4917
773.1694, 327.2322
773.6515, 326.6770
774.1336, 326.5692
774.6157, 327.0291
775.0978, 327.6877
775.5800, 328.7191
776.0621, 329.6752
776.5442, 330.2663
777.0263, 330.4756
777.5084, 330.6380
777.9905, 330.7313
778.4727, 330.9829
778.9548, 331.8256
779.4369, 332.8801
779.9190, 333.4049
780.4011, 333.3005
780.8832, 333.2392
781.3654, 333.6400
781.8475, 334.2120
782.3296, 334.7130
782.8117, 334.9973
783.2938, 335.6444
783.7759, 336.8674
784.2581, 338.1693
784.7402, 339.1439
785.2223, 339.7891
785.7044, 340.6075
786.1865, 341.6612
786.6686, 342.4277
787.1508, 341.8463
787.6329, 340.8515
788.1150, 341.0763
788.5971, 342.9690
789.0792, 344.6820
789.5613, 344.8413
790.0435, 344.7769
790.5256, 345.6902
791.0077, 348.2933
791.4898, 350.0249
791.9719, 350.5663
792.4540, 350.7407
792.9362, 351.1222
793.4183, 351.7403
793.9004, 353.1764
794.3825, 355.6226
794.8646, 357.6925
795.3467, 357.2379
795.8289, 355.9736
796.3110, 356.4286
796.7931, 359.4926
797.2752, 362.3133
797.7573, 363.1118
798.2394, 363.7865
798.7216, 366.0072
799.2037, 370.7286
799.6858, 374.4329
800.1679, 376.7858
800.6500, 378.8780
801.1321, 381.9701
801.6143, 385.8353
802.0964, 389.2480
802.5785, 391.9648
803.0606, 395.0960
803.5427, 399.6155
804.0248, 405.0323
804.5070, 410.9234
804.9891, 417.3135
805.4712, 423.8135
805.9533, 430.1624
806.4354, 436.8104
806.9175, 444.1108
807.3997, 452.1372
807.8818, 460.4545
808.3639, 468.8643
808.8460, 478.0033
809.3281, 488.2906
809.8102, 499.8221
810.2924, 512.9543
810.7745, 527.7974
811.2566, 543.7278
811.7387, 559.1135
812.2208, 575.9274
812.7029, 595.9863
813.1851, 620.2775
813.6672, 645.9843
814.1493, 672.3054
814.6314, 700.7574
815.1135, 732.1155
815.5956, 766.6410
816.0778, 803.4623
816.5599, 842.4852
817.0420, 885.5518
817.5241, 934.0154
818.0062, 987.7343
818.4883, 1047.963
818.9705, 1115.491
819.4526, 1185.923
819.9347, 1259.215
820.4168, 1333.054
820.8989, 1407.411
821.3810, 1484.783
821.8632, 1550.635
822.3453, 1606.282
822.8274, 1647.761
823.3095, 1672.429
823.7916, 1680.088
824.2737, 1665.929
824.7559, 1629.702
825.2380, 1578.688
825.7201, 1514.000
826.2022, 1440.760
826.6843, 1362.539
827.1664, 1278.853
827.6486, 1199.938
828.1307, 1126.357
828.6128, 1059.327
829.0949, 998.8191
829.5770, 945.3171
830.0591, 898.6251
830.5413, 859.3440
831.0234, 824.6824
831.5055, 792.6071
831.9876, 763.7807
832.4697, 739.4574
832.9518, 719.7529
833.4340, 702.6453
833.9161, 687.4440
834.3982, 674.3215
834.8803, 663.7641
835.3624, 655.9879
835.8445, 648.5000
836.3267, 640.9572
836.8088, 634.4333
837.2909, 629.7755
837.7730, 626.6710
838.2551, 623.0765
838.7372, 619.0696
839.2194, 615.8080
839.7015, 613.8063
840.1836, 613.0875
840.6657, 613.7573
841.1478, 615.7726
841.6299, 618.8370
842.1121, 622.0583
842.5942, 627.2945
843.0763, 635.1345
843.5584, 645.4263
844.0405, 657.2762
844.5226, 670.6133
845.0048, 685.9228
845.4869, 703.1522
845.9690, 722.7700
846.4511, 745.3733
846.9332, 770.9294
847.4153, 799.1071
847.8975, 828.9461
848.3796, 862.1652
848.8617, 899.7789
849.3438, 941.7267
849.8259, 986.5936
850.3080, 1034.978
850.7902, 1085.353
851.2723, 1136.832
851.7544, 1190.028
852.2365, 1247.917
852.7186, 1309.219
853.2007, 1366.850
853.6829, 1419.236
854.1650, 1464.432
854.6471, 1504.032
855.1292, 1534.915
855.6113, 1551.877
856.0934, 1552.507
856.5756, 1539.151
857.0577, 1511.076
857.5398, 1470.972
858.0219, 1419.582
858.5040, 1356.047
858.9861, 1292.211
859.4683, 1229.367
859.9504, 1167.450
860.4325, 1105.815
860.9146, 1045.651
861.3967, 990.0496
861.8788, 940.1143
862.3610, 894.0226
862.8431, 851.5726
863.3252, 813.0752
863.8073, 779.1223
864.2894, 750.3168
864.7715, 723.4694
865.2537, 698.6281
865.7358, 675.5591
866.2179, 654.2067
866.7000, 634.2449
867.1821, 614.1840
867.6642, 593.6317
868.1464, 575.1156
868.6285, 560.9655
869.1106, 548.7733
869.5927, 536.4568
870.0748, 523.4236
870.5569, 512.0891
871.0391, 502.8842
871.5212, 494.6064
872.0033, 486.3664
872.4854, 478.3775
872.9675, 472.8060
873.4496, 469.4811
873.9318, 466.9965
874.4139, 464.7318
874.8960, 462.5947
875.3781, 460.2304
875.8602, 457.7580
876.3423, 456.2620
876.8245, 456.1272
877.3066, 456.9220
877.7887, 458.5345
878.2708, 461.0099
878.7529, 464.7572
879.2350, 469.7647
879.7172, 475.0539
880.1993, 480.7367
880.6814, 485.7455
881.1635, 489.1864
881.6456, 490.8114
882.1277, 490.0336
882.6099, 485.8273
883.0920, 480.1303
883.5741, 473.1430
884.0562, 465.1416
884.5383, 456.0342
885.0204, 445.6182
885.5026, 435.2686
885.9847, 425.0877
886.4668, 415.4576
886.9489, 406.8587
887.4310, 399.1790
887.9131, 392.2699
888.3953, 386.0433
888.8774, 380.7587
889.3595, 376.9558
889.8416, 373.9245
890.3237, 370.9389
890.8058, 367.8677
891.2880, 365.3022
891.7701, 363.3905
892.2522, 361.5700
892.7343, 359.0165
893.2164, 356.1748
893.6985, 354.3281
894.1807, 353.5841
894.6628, 353.1256
895.1449, 352.5231
895.6270, 351.9668
896.1091, 351.7168
896.5912, 351.8277
897.0734, 351.1987
897.5555, 349.2893
898.0376, 347.9798
898.5197, 348.6221
899.0018, 350.4220
899.4839, 350.2231
899.9661, 348.3808
900.4482, 346.9678
900.9303, 347.7941
901.4124, 348.8011
901.8945, 348.4352
902.3766, 347.1284
902.8588, 346.3623
903.3409, 346.4370
903.8230, 346.7738
904.3051, 347.2857
904.7872, 347.9967
905.2693, 349.0601
905.7515, 350.4112
906.2336, 351.6688
906.7157, 352.6869
907.1978, 353.6889
907.6799, 354.7072
908.1620, 355.8832
908.6442, 357.4079
909.1263, 359.4005
909.6084, 361.6328
910.0905, 364.2226
910.5726, 366.8595
911.0547, 369.1693
911.5369, 371.2220
912.0190, 373.8558
912.5011, 377.1201
912.9832, 381.0771
913.4653, 385.6950
913.9474, 391.0897
914.4296, 397.3289
914.9117, 404.4165
915.3938, 412.5641
915.8759, 422.2333
916.3580, 432.3249
916.8401, 442.4159
917.3223, 452.5582
917.8044, 464.4335
918.2865, 477.6216
918.7686, 486.8589
919.2507, 488.6372
919.7328, 485.7313
920.2150, 480.4438
920.6971, 472.6425
921.1792, 461.8947
921.6613, 444.8806
922.1434, 429.0033
922.6255, 415.0900
923.1077, 402.8983
923.5898, 391.9622
924.0719, 382.3798
924.5540, 374.3652
925.0361, 367.9921
925.5182, 363.0302
926.0004, 359.6388
926.4825, 357.2447
926.9646, 355.1738
927.4467, 353.4352
927.9288, 351.5615
928.4109, 349.1499
928.8931, 346.9900
929.3752, 345.8311
929.8573, 345.6487
930.3394, 344.5435
930.8215, 342.5269
931.3036, 341.1211
931.7858, 342.1828
932.2679, 343.8698
932.7500, 344.4135
933.2321, 343.8495
933.7142, 343.1527
934.1964, 342.1000
934.6785, 341.5598
935.1606, 341.9264
935.6427, 342.8654
936.1248, 343.4000
936.6069, 343.5521
937.0891, 343.5131
937.5712, 343.1935
938.0533, 343.0006
938.5354, 343.6485
939.0175, 344.5686
939.4996, 344.9117
939.9818, 343.2049
940.4639, 342.8906
940.9460, 344.5834
941.4281, 346.9810
941.9102, 348.9228
942.3923, 350.4086
942.8745, 351.3759
943.3566, 351.8214
943.8387, 351.9969
944.3208, 351.4629
944.8029, 351.2243
945.2850, 352.3102
945.7672, 354.8463
946.2493, 357.3434
946.7314, 359.6866
947.2135, 361.9351
947.6956, 363.9878
948.1777, 366.0328
948.6599, 368.7909
949.1420, 372.1374
949.6241, 375.2961
950.1062, 377.5935
950.5883, 379.9516
951.0704, 383.2143
951.5526, 386.9512
952.0347, 390.2079
952.5168, 391.9266
952.9989, 395.3846
953.4810, 401.4037
953.9631, 408.0697
954.4453, 412.9043
954.9274, 416.3708
955.4095, 419.9775
955.8916, 423.8737
956.3737, 428.2190
956.8558, 433.5349
957.3380, 439.0013
957.8201, 444.1054
958.3022, 448.8155
958.7843, 453.1825
959.2664, 457.2115
959.7485, 460.9175
960.2307, 464.3567
960.7128, 467.4499
961.1949, 470.0132
961.6770, 472.0499
962.1591, 473.5286
962.6412, 475.5120
963.1234, 475.7602
963.6055, 472.2963
964.0876, 466.9024
964.5697, 462.5539
965.0518, 459.6209
965.5339, 456.2556
966.0161, 452.2511
966.4982, 447.6650
966.9803, 442.3277
967.4624, 436.5124
967.9445, 430.6853
968.4266, 424.8188
968.9088, 419.3429
969.3909, 414.3650
969.8730, 409.8249
970.3551, 405.6911
970.8372, 401.9944
971.3193, 398.1479
971.8015, 394.1711
972.2836, 390.2111
972.7657, 386.1128
973.2478, 382.3426
973.7299, 379.6247
974.2120, 377.6440
974.6942, 375.5869
975.1763, 373.4044
975.6584, 370.8103
976.1405, 367.3839
976.6226, 363.9327
977.1047, 361.7847
977.5869, 360.7927
978.0690, 359.4849
978.5511, 357.6356
979.0332, 355.7923
979.5153, 354.7186
979.9974, 353.6465
980.4796, 351.5399
980.9617, 348.0257
981.4438, 346.0566
981.9259, 346.0514
982.4080, 346.9078
982.8901, 348.7495
983.3723, 350.7653
983.8544, 349.8122
984.3365, 346.5714
984.8186, 343.8732
985.3007, 343.3567
985.7828, 343.4390
986.2650, 343.7132
986.7471, 343.9582
987.2292, 343.8332
987.7113, 343.2868
988.1934, 342.4234
988.6755, 341.1124
989.1577, 340.0113
989.6398, 340.1594
990.1219, 340.9038
990.6040, 341.1715
991.0861, 340.8378
991.5682, 340.2355
992.0504, 339.1290
992.5325, 338.1820
993.0146, 337.7528
993.4967, 337.7423
993.9788, 337.5996
994.4609, 337.3295
994.9431, 336.7386
995.4252, 335.4020
995.9073, 334.2433
996.3894, 334.3935
996.8715, 335.3687
997.3536, 336.3748
997.8358, 337.4953
998.3179, 338.2138
998.8000, 338.5923
999.2821, 338.4538
999.7642, 337.2405
1000.246, 335.2542
1000.728, 334.2940
1001.211, 334.4084
1001.693, 334.8290
1002.175, 335.4378
1002.657, 335.8242
1003.139, 335.4886
1003.621, 334.5826
1004.103, 334.2854
1004.585, 334.7727
1005.068, 335.1998
1005.550, 335.3176
1006.032, 335.3025
1006.514, 335.4538
1006.996, 335.6880
1007.478, 335.8253
1007.960, 335.7570
1008.442, 335.7450
1008.924, 336.0041
1009.407, 336.2351
1009.889, 336.3006
1010.371, 336.2080
1010.853, 335.3949
1011.335, 333.8408
1011.817, 332.8716
1012.299, 334.2378
1012.781, 335.8572
1013.263, 335.1181
1013.746, 332.9326
1014.228, 332.7478
1014.710, 337.2330
1015.192, 339.4984
1015.674, 337.7992
1016.156, 334.7061
1016.638, 334.1749
1017.120, 335.4826
1017.603, 336.3903
1018.085, 336.4938
1018.567, 336.4629
1019.049, 336.5992
1019.531, 336.8180
1020.013, 337.1388
1020.495, 337.5430
1020.977, 337.5626
1021.459, 337.1685
1021.942, 336.6044
1022.424, 335.7233
1022.906, 335.0411
1023.388, 335.5577
1023.870, 336.7460
1024.352, 337.5727
1024.834, 337.5439
1025.316, 337.3630
1025.799, 336.9923
1026.281, 336.6530
1026.763, 336.5117
1027.245, 336.5921
1027.727, 337.3017
1028.209, 338.6168
1028.691, 339.3570
1029.173, 337.9814
1029.656, 336.4149
1030.138, 336.0591
1030.620, 336.7201
1031.102, 337.0384
1031.584, 336.8946
1032.066, 336.8477
1032.548, 336.9976
1033.030, 337.3883
1033.512, 338.4802
1033.995, 339.7286
1034.477, 340.0845
1034.959, 339.0489
1035.441, 338.1233
1035.923, 337.3855
1036.405, 337.2026
1036.887, 338.1958
1037.369, 340.0734
1037.851, 339.9680
1038.334, 338.0704
1038.816, 336.1308
1039.298, 334.7393
1039.780, 334.0448
1040.262, 334.7375
1040.744, 336.0436
1041.226, 336.3477
1041.708, 335.0860
1042.191, 334.3349
1042.673, 334.2365
1043.155, 334.6452
1043.637, 335.8094
1044.119, 337.2061
1044.601, 337.8647
1045.083, 337.7465
1045.565, 337.5996
1046.047, 337.9665
1046.530, 337.9648
1047.012, 337.0662
1047.494, 335.7697
1047.976, 335.7017
1048.458, 336.6687
1048.940, 337.0532
1049.422, 336.2373
1049.904, 335.3033
1050.386, 334.8013
1050.869, 334.7514
1051.351, 335.3896
1051.833, 336.9655
1052.315, 337.3888
1052.797, 336.3493
1053.279, 335.5780
1053.761, 336.3744
1054.243, 337.8819
1054.726, 338.8965
1055.208, 339.3975
1055.690, 339.3338
1056.172, 338.0049
1056.654, 337.0155
1057.136, 336.4204
1057.618, 336.4132
1058.100, 337.7301
1058.583, 340.0104
1059.065, 340.6716
1059.547, 339.5495
1060.029, 338.1898
1060.511, 337.2306
1060.993, 336.8017
1061.475, 337.3927
1061.957, 338.6468
1062.439, 339.1118
1062.922, 338.7255
1063.404, 337.8328
1063.886, 336.3273
1064.368, 334.9441
1064.850, 334.7780
1065.332, 335.2020
1065.814, 335.3192
1066.296, 334.8147
1066.778, 334.7030
1067.261, 335.1677
1067.743, 335.8558
1068.225, 336.7049
1068.707, 337.5904
1069.189, 338.1079
1069.671, 338.2817
1070.153, 338.1623
1070.635, 337.1712
1071.118, 336.7107
1071.600, 338.2054
1072.082, 339.9375
1072.564, 339.9354
1073.046, 337.9726
1073.528, 337.2308
1074.010, 337.8400
1074.492, 338.7128
1074.974, 339.2734
1075.457, 339.5040
1075.939, 339.1447
1076.421, 338.4035
1076.903, 338.1094
1077.385, 338.3896
1077.867, 338.9424
1078.349, 339.8561
1078.831, 340.6394
1079.313, 340.3011
1079.796, 339.4970
1080.278, 339.5531
1080.760, 340.7061
1081.242, 341.5304
1081.724, 341.5174
1082.206, 341.0531
1082.688, 339.9703
1083.170, 338.6940
1083.652, 338.9686
1084.135, 340.4322
1084.617, 341.1322
1085.099, 340.0811
1085.581, 339.0694
1086.063, 339.4980
1086.545, 340.2655
1087.027, 340.3136
1087.509, 339.5409
1087.992, 338.9842
1088.474, 338.6341
1088.956, 338.7043
1089.438, 339.7698
1089.920, 340.9351
1090.402, 341.1836
1090.884, 340.8343
1091.366, 340.5448
1091.849, 340.2507
1092.331, 340.3990
1092.813, 341.1502
1093.295, 341.9363
1093.777, 342.2494
1094.259, 342.1592
1094.741, 341.5011
1095.223, 340.4384
1095.705, 340.0963
1096.188, 341.9601
1096.670, 343.2840
1097.152, 343.2073
1097.634, 342.4213
1098.116, 342.0553
1098.598, 342.0978
1099.080, 342.4736
1099.562, 343.1818
1100.044, 344.1407
1100.527, 346.2189
1101.009, 347.6754
1101.491, 346.7668
1101.973, 344.0869
1102.455, 343.4008
1102.937, 344.7722
1103.419, 346.0219
1103.901, 346.4835
1104.384, 346.3541
1104.866, 345.2798
1105.348, 344.0201
1105.830, 343.5405
1106.312, 344.1985
1106.794, 344.6524
1107.276, 344.8368
1107.758, 345.0472
1108.240, 345.5865
1108.723, 346.1501
1109.205, 346.1307
1109.687, 345.7306
1110.169, 345.4168
1110.651, 345.5142
1111.133, 345.4170
1111.615, 344.8895
1112.097, 344.4847
1112.579, 345.0255
1113.062, 346.0988
1113.544, 345.9345
1114.026, 344.6914
1114.508, 343.7164
1114.990, 343.6855
1115.472, 344.0961
1115.954, 345.0226
1116.436, 346.0787
1116.919, 346.6370
1117.401, 346.7347
1117.883, 346.8763
1118.365, 347.1098
1118.847, 347.5681
1119.329, 348.9962
1119.811, 350.0965
1120.293, 349.5535
1120.776, 347.8495
1121.258, 347.0324
1121.740, 347.2021
1122.222, 347.3262
1122.704, 347.1785
1123.186, 346.8718
1123.668, 346.2503
1124.150, 345.7039
1124.632, 345.7445
1125.115, 346.5241
1125.597, 347.0732
1126.079, 347.3472
1126.561, 347.5137
1127.043, 347.6248
1127.525, 347.6911
1128.007, 347.8990
1128.489, 348.0234
1128.971, 347.5379
1129.454, 345.7370
1129.936, 345.0775
1130.418, 346.2356
1130.900, 347.5997
1131.382, 348.1987
1131.864, 348.2946
1132.346, 348.7528
1132.828, 349.4020
1133.311, 349.6988
1133.793, 348.8482
1134.275, 348.4399
1134.757, 349.0989
1135.239, 349.9870
1135.721, 350.4295
1136.203, 350.4545
1136.685, 350.2402
1137.167, 349.8195
1137.650, 349.4530
1138.132, 349.3554
1138.614, 349.2763
1139.096, 348.9593
1139.578, 348.6738
1140.060, 348.8785
1140.542, 349.5843
1141.024, 350.1374
1141.506, 350.4902
1141.989, 350.4638
1142.471, 349.5247
1142.953, 348.5331
1143.435, 347.9301
1143.917, 347.8031
1144.399, 348.4761
1144.881, 350.1539
1145.363, 351.0225
1145.846, 350.7144
1146.328, 349.8650
1146.810, 348.3646
1147.292, 347.1823
1147.774, 347.5967
1148.256, 349.6340
1148.738, 350.7672
1149.220, 350.7941
1149.703, 350.5009
1150.185, 349.9611
1150.667, 349.5769
1151.149, 349.7964
1151.631, 350.5442
1152.113, 352.0347
1152.595, 354.5575
1153.077, 355.4953
1153.559, 354.2340
1154.042, 352.6218
1154.524, 351.1027
1155.006, 350.0820
1155.488, 350.7821
1155.970, 352.4194
1156.452, 353.3682
1156.934, 352.8182
1157.416, 352.9507
1157.898, 354.6190
1158.381, 355.8177
1158.863, 355.1293
1159.345, 353.3549
1159.827, 352.8417
1160.309, 353.1884
1160.791, 353.2796
1161.273, 352.3320
1161.755, 351.8258
1162.238, 352.2740
1162.720, 352.9518
1163.202, 353.4313
1163.684, 353.7001
1164.166, 353.5912
1164.648, 353.1847
1165.130, 352.8318
1165.612, 352.6607
1166.094, 352.6199
1166.577, 352.7430
1167.059, 352.9256
1167.541, 353.0956
1168.023, 353.2367
1168.505, 353.3090
1168.987, 353.2807
1169.469, 352.9447
1169.951, 351.5010
1170.433, 350.4935
1170.916, 350.8936
1171.398, 351.9548
1171.880, 352.7794
1172.362, 353.3908
1172.844, 354.2986
1173.326, 355.5194
1173.808, 356.2637
1174.290, 355.6357
1174.773, 354.7265
1175.255, 353.9108
1175.737, 353.3634
1176.219, 353.7108
1176.701, 354.9673
1177.183, 355.0265
1177.665, 353.5526
1178.147, 352.1149
1178.630, 352.0019
1179.112, 352.3242
1179.594, 352.4555
1180.076, 352.5024
1180.558, 352.9992
1181.040, 353.9903
1181.522, 354.5998
1182.004, 354.6625
1182.486, 354.2897
1182.969, 352.9239
1183.451, 351.6979
1183.933, 351.6956
1184.415, 352.7715
1184.897, 353.8868
1185.379, 355.1253
1185.861, 355.4058
1186.343, 354.2705
1186.825, 352.8682
1187.308, 351.8480
1187.790, 351.4527
1188.272, 352.3568
1188.754, 354.4806
1189.236, 355.2725
1189.718, 354.5759
1190.200, 353.9967
1190.682, 354.0258
1191.165, 354.4388
1191.647, 355.3872
1192.129, 356.3419
1192.611, 356.7540
1193.093, 356.5603
1193.575, 355.6084
1194.057, 353.6566
1194.539, 352.7596
1195.021, 354.1080
1195.504, 356.0276
1195.986, 356.9191
1196.468, 357.0902
1196.950, 356.6666
1197.432, 355.4113
1197.914, 355.6864
1198.396, 357.7547
1198.878, 359.5810
1199.360, 360.2025
1199.843, 360.0815
1200.325, 359.2051
1200.807, 358.1821
1201.289, 358.0596
1201.771, 359.3720
1202.253, 359.3714
1202.735, 357.8057
1203.217, 356.6313
1203.700, 357.5378
1204.182, 358.6920
1204.664, 357.2364
1205.146, 354.8708
1205.628, 354.5156
1206.110, 357.2944
1206.592, 359.2344
1207.074, 360.3482
1207.557, 360.5895
1208.039, 359.3413
1208.521, 357.7697
1209.003, 357.0001
1209.485, 356.8768
1209.967, 357.1870
1210.449, 358.0202
1210.931, 358.8736
1211.413, 359.7733
1211.896, 360.5692
1212.378, 361.2385
1212.860, 361.6990
1213.342, 361.9274
1213.824, 361.8589
1214.306, 361.2529
1214.788, 359.7843
1215.270, 358.9932
1215.752, 358.9687
1216.235, 359.1789
1216.717, 359.3456
1217.199, 359.4535
1217.681, 359.5519
1218.163, 359.5646
1218.645, 359.2767
1219.127, 358.5305
1219.609, 358.1325
1220.092, 358.1273
1220.574, 358.3496
1221.056, 358.8607
1221.538, 359.3649
1222.020, 359.3467
1222.502, 359.1707
1222.984, 359.8251
1223.466, 361.7271
1223.948, 362.2501
1224.431, 361.1237
1224.913, 360.1284
1225.395, 361.2612
1225.877, 362.5941
1226.359, 362.4808
1226.841, 361.3219
1227.323, 360.2384
1227.805, 359.1961
1228.287, 358.5120
1228.770, 358.2056
1229.252, 358.3309
1229.734, 359.3600
1230.216, 360.4148
1230.698, 360.8492
1231.180, 360.8008
1231.662, 360.6185
1232.144, 360.2826
1232.627, 359.9435
1233.109, 359.6016
1233.591, 359.6748
1234.073, 360.9171
1234.555, 362.2328
1235.037, 363.1048
1235.519, 363.4616
1236.001, 363.0122
1236.484, 361.7633
1236.966, 361.0990
1237.448, 361.1430
1237.930, 360.8955
1238.412, 358.6558
1238.894, 357.0189
1239.376, 358.0133
1239.858, 360.2710
1240.340, 362.0084
1240.823, 363.1425
1241.305, 362.4841
1241.787, 360.0124
1242.269, 358.3321
1242.751, 359.9787
1243.233, 361.7426
1243.715, 362.1495
1244.197, 361.9331
1244.679, 362.3774
1245.162, 363.2558
1245.644, 362.9643
1246.126, 361.4803
1246.608, 360.8429
1247.090, 363.6352
1247.572, 365.4320
1248.054, 364.5033
1248.536, 362.4586
1249.019, 361.5920
1249.501, 361.6669
1249.983, 362.0692
1250.465, 362.7055
1250.947, 363.2647
1251.429, 363.4034
1251.911, 363.8059
1252.393, 364.8578
1252.875, 365.7763
1253.358, 365.4004
1253.840, 364.1205
1254.322, 362.4140
1254.804, 360.4888
1255.286, 359.6934
1255.768, 361.1988
1256.250, 362.5615
1256.732, 363.5225
1257.214, 363.9690
1257.697, 363.3586
1258.179, 362.3644
1258.661, 362.1409
1259.143, 362.6375
1259.625, 362.9792
1260.107, 362.9132
1260.589, 363.0557
1261.071, 363.5085
1261.554, 364.1271
1262.036, 365.3170
1262.518, 366.1727
1263.000, 365.1402
1263.482, 362.7041
1263.964, 361.4807
1264.446, 361.7869
1264.928, 362.3896
1265.411, 363.1794
1265.893, 363.8647
1266.375, 364.0801
1266.857, 364.1732
1267.339, 364.5332
1267.821, 364.5270
1268.303, 364.4707
1268.785, 364.5537
1269.267, 364.2225
1269.750, 364.0924
1270.232, 364.1041
1270.714, 364.3306
1271.196, 364.5651
1271.678, 364.6544
1272.160, 364.6753
1272.642, 364.8716
1273.124, 365.1915
1273.606, 364.6495
1274.089, 363.2446
1274.571, 362.2687
1275.053, 362.8123
1275.535, 363.5850
1276.017, 364.3236
1276.499, 364.7957
1276.981, 364.3860
1277.463, 363.4526
1277.946, 363.5063
1278.428, 364.5062
1278.910, 365.4500
1279.392, 365.9897
1279.874, 366.2606
1280.356, 366.3065
1280.838, 366.0901
1281.320, 365.4715
1281.802, 364.5988
1282.285, 363.5185
1282.767, 362.4141
1283.249, 362.0995
1283.731, 363.4338
1284.213, 364.2389
1284.695, 364.2266
1285.177, 364.1478
1285.659, 364.9711
1286.141, 365.9204
1286.624, 366.1169
1287.106, 365.5959
1287.588, 364.3466
1288.070, 361.8747
1288.552, 361.0990
1289.034, 362.2943
1289.516, 363.7104
1289.998, 364.1876
1290.481, 364.1652
1290.963, 363.3769
1291.445, 362.6404
1291.927, 363.3947
1292.409, 365.7651
1292.891, 367.4018
1293.373, 368.2621
1293.855, 368.5862
1294.338, 368.0172
1294.820, 367.5462
1295.302, 367.7676
1295.784, 368.2043
1296.266, 368.5183
1296.748, 368.7038
1297.230, 368.4480
1297.712, 367.9643
1298.194, 368.1038
1298.677, 370.1429
1299.159, 371.2643
1299.641, 370.8329
1300.123, 369.9203
1300.605, 369.0820
1301.087, 368.4530
1301.569, 368.2793
1302.051, 368.5092
1302.533, 369.0378
1303.016, 369.5981
##END=



