##NAMES=Franckeite
##RRUFFID=R140342
##IDEAL CHEMISTRY=Pb^2+^_21.7_Sn^4+^_9.3_(Fe^2+^,Fe^3+^)_4.0_Sb^3+^_8.1_S^2-^_56.9_
##LOCALITY=Pacific Limestone Products Quarry, near Santa Cruz, Santa Cruz County, California, USA
##OWNER=RRUFF
##SOURCE=James Shigley
##DESCRIPTION=Black anhedral crystals
##STATUS=The identification of this mineral has been confirmed only by single crystal X-ray diffraction.
##URL=rruff.info/R140342
8.930109e+001, 0.000000e+000
8.978320e+001, 3.033569e+002
9.026532e+001, 3.019417e+002
9.074744e+001, 3.020066e+002
9.122955e+001, 3.040535e+002
9.171167e+001, 3.072448e+002
9.219379e+001, 3.106714e+002
9.267590e+001, 3.144074e+002
9.315802e+001, 3.175938e+002
9.364014e+001, 3.200817e+002
9.412225e+001, 3.216688e+002
9.460437e+001, 3.213058e+002
9.508649e+001, 3.178182e+002
9.556860e+001, 3.127311e+002
9.605072e+001, 3.101875e+002
9.653284e+001, 3.106456e+002
9.701495e+001, 3.115734e+002
9.749707e+001, 3.101954e+002
9.797919e+001, 3.065757e+002
9.846130e+001, 3.030690e+002
9.894342e+001, 3.001087e+002
9.942554e+001, 2.977010e+002
9.990765e+001, 2.965854e+002
1.003898e+002, 2.969335e+002
1.008719e+002, 2.980706e+002
1.013540e+002, 2.992785e+002
1.018361e+002, 3.008310e+002
1.023182e+002, 3.015796e+002
1.028004e+002, 3.008421e+002
1.032825e+002, 2.980714e+002
1.037646e+002, 2.963480e+002
1.042467e+002, 2.958405e+002
1.047288e+002, 2.962555e+002
1.052109e+002, 2.968879e+002
1.056931e+002, 2.974522e+002
1.061752e+002, 2.986299e+002
1.066573e+002, 3.006838e+002
1.071394e+002, 3.032373e+002
1.076215e+002, 3.072230e+002
1.081036e+002, 3.137188e+002
1.085858e+002, 3.220323e+002
1.090679e+002, 3.283249e+002
1.095500e+002, 3.324249e+002
1.100321e+002, 3.348257e+002
1.105142e+002, 3.357878e+002
1.109963e+002, 3.333892e+002
1.114785e+002, 3.317700e+002
1.119606e+002, 3.315459e+002
1.124427e+002, 3.326682e+002
1.129248e+002, 3.340103e+002
1.134069e+002, 3.353776e+002
1.138890e+002, 3.369072e+002
1.143712e+002, 3.387275e+002
1.148533e+002, 3.411278e+002
1.153354e+002, 3.435635e+002
1.158175e+002, 3.457841e+002
1.162996e+002, 3.477786e+002
1.167817e+002, 3.499619e+002
1.172639e+002, 3.528746e+002
1.177460e+002, 3.559868e+002
1.182281e+002, 3.586247e+002
1.187102e+002, 3.608039e+002
1.191923e+002, 3.622692e+002
1.196744e+002, 3.627014e+002
1.201566e+002, 3.619233e+002
1.206387e+002, 3.607867e+002
1.211208e+002, 3.594315e+002
1.216029e+002, 3.580790e+002
1.220850e+002, 3.572026e+002
1.225671e+002, 3.570668e+002
1.230493e+002, 3.574972e+002
1.235314e+002, 3.583364e+002
1.240135e+002, 3.595743e+002
1.244956e+002, 3.611510e+002
1.249777e+002, 3.638875e+002
1.254598e+002, 3.672280e+002
1.259420e+002, 3.690238e+002
1.264241e+002, 3.666163e+002
1.269062e+002, 3.618426e+002
1.273883e+002, 3.580805e+002
1.278704e+002, 3.561963e+002
1.283525e+002, 3.553951e+002
1.288347e+002, 3.545241e+002
1.293168e+002, 3.536015e+002
1.297989e+002, 3.530147e+002
1.302810e+002, 3.535409e+002
1.307631e+002, 3.548060e+002
1.312452e+002, 3.552223e+002
1.317274e+002, 3.540297e+002
1.322095e+002, 3.519057e+002
1.326916e+002, 3.508654e+002
1.331737e+002, 3.510598e+002
1.336558e+002, 3.512627e+002
1.341379e+002, 3.499804e+002
1.346201e+002, 3.472434e+002
1.351022e+002, 3.449035e+002
1.355843e+002, 3.436171e+002
1.360664e+002, 3.432459e+002
1.365485e+002, 3.428067e+002
1.370306e+002, 3.422690e+002
1.375128e+002, 3.417310e+002
1.379949e+002, 3.412943e+002
1.384770e+002, 3.409647e+002
1.389591e+002, 3.406813e+002
1.394412e+002, 3.402765e+002
1.399233e+002, 3.396848e+002
1.404055e+002, 3.400472e+002
1.408876e+002, 3.419287e+002
1.413697e+002, 3.441733e+002
1.418518e+002, 3.448169e+002
1.423339e+002, 3.433729e+002
1.428160e+002, 3.414166e+002
1.432982e+002, 3.393943e+002
1.437803e+002, 3.371840e+002
1.442624e+002, 3.353669e+002
1.447445e+002, 3.340556e+002
1.452266e+002, 3.331066e+002
1.457087e+002, 3.322368e+002
1.461909e+002, 3.313526e+002
1.466730e+002, 3.306533e+002
1.471551e+002, 3.302142e+002
1.476372e+002, 3.301024e+002
1.481193e+002, 3.301750e+002
1.486014e+002, 3.308265e+002
1.490836e+002, 3.317237e+002
1.495657e+002, 3.317008e+002
1.500478e+002, 3.297728e+002
1.505299e+002, 3.277226e+002
1.510120e+002, 3.263140e+002
1.514941e+002, 3.260287e+002
1.519763e+002, 3.258216e+002
1.524584e+002, 3.256802e+002
1.529405e+002, 3.255993e+002
1.534226e+002, 3.255575e+002
1.539047e+002, 3.256061e+002
1.543868e+002, 3.256548e+002
1.548690e+002, 3.256535e+002
1.553511e+002, 3.254354e+002
1.558332e+002, 3.253361e+002
1.563153e+002, 3.257639e+002
1.567974e+002, 3.265698e+002
1.572795e+002, 3.265524e+002
1.577617e+002, 3.245974e+002
1.582438e+002, 3.221836e+002
1.587259e+002, 3.203798e+002
1.592080e+002, 3.198556e+002
1.596901e+002, 3.195701e+002
1.601722e+002, 3.193335e+002
1.606544e+002, 3.191308e+002
1.611365e+002, 3.187754e+002
1.616186e+002, 3.179268e+002
1.621007e+002, 3.170121e+002
1.625828e+002, 3.164041e+002
1.630649e+002, 3.161177e+002
1.635471e+002, 3.162559e+002
1.640292e+002, 3.172577e+002
1.645113e+002, 3.191324e+002
1.649934e+002, 3.203617e+002
1.654755e+002, 3.197245e+002
1.659576e+002, 3.181186e+002
1.664398e+002, 3.166678e+002
1.669219e+002, 3.157930e+002
1.674040e+002, 3.152002e+002
1.678861e+002, 3.147648e+002
1.683682e+002, 3.144851e+002
1.688503e+002, 3.142153e+002
1.693325e+002, 3.137328e+002
1.698146e+002, 3.132133e+002
1.702967e+002, 3.129464e+002
1.707788e+002, 3.131616e+002
1.712609e+002, 3.136288e+002
1.717430e+002, 3.142637e+002
1.722252e+002, 3.151094e+002
1.727073e+002, 3.157238e+002
1.731894e+002, 3.156734e+002
1.736715e+002, 3.151170e+002
1.741536e+002, 3.144223e+002
1.746357e+002, 3.136252e+002
1.751179e+002, 3.128371e+002
1.756000e+002, 3.122157e+002
1.760821e+002, 3.118007e+002
1.765642e+002, 3.114339e+002
1.770463e+002, 3.109443e+002
1.775284e+002, 3.103711e+002
1.780106e+002, 3.098434e+002
1.784927e+002, 3.095088e+002
1.789748e+002, 3.092456e+002
1.794569e+002, 3.087709e+002
1.799390e+002, 3.079706e+002
1.804211e+002, 3.072850e+002
1.809033e+002, 3.074696e+002
1.813854e+002, 3.083333e+002
1.818675e+002, 3.089593e+002
1.823496e+002, 3.084839e+002
1.828317e+002, 3.074016e+002
1.833138e+002, 3.069490e+002
1.837960e+002, 3.073836e+002
1.842781e+002, 3.081142e+002
1.847602e+002, 3.083202e+002
1.852423e+002, 3.080426e+002
1.857244e+002, 3.076204e+002
1.862065e+002, 3.070359e+002
1.866887e+002, 3.064243e+002
1.871708e+002, 3.063799e+002
1.876529e+002, 3.071075e+002
1.881350e+002, 3.081164e+002
1.886171e+002, 3.086127e+002
1.890992e+002, 3.086044e+002
1.895814e+002, 3.082945e+002
1.900635e+002, 3.076390e+002
1.905456e+002, 3.067080e+002
1.910277e+002, 3.060375e+002
1.915098e+002, 3.056908e+002
1.919919e+002, 3.056178e+002
1.924741e+002, 3.058406e+002
1.929562e+002, 3.063761e+002
1.934383e+002, 3.068310e+002
1.939204e+002, 3.069214e+002
1.944025e+002, 3.066613e+002
1.948846e+002, 3.062773e+002
1.953668e+002, 3.057446e+002
1.958489e+002, 3.051564e+002
1.963310e+002, 3.047018e+002
1.968131e+002, 3.043730e+002
1.972952e+002, 3.042324e+002
1.977773e+002, 3.044830e+002
1.982595e+002, 3.051442e+002
1.987416e+002, 3.053727e+002
1.992237e+002, 3.049551e+002
1.997058e+002, 3.041383e+002
2.001879e+002, 3.036036e+002
2.006700e+002, 3.033863e+002
2.011522e+002, 3.032817e+002
2.016343e+002, 3.031522e+002
2.021164e+002, 3.029907e+002
2.025985e+002, 3.028932e+002
2.030806e+002, 3.028801e+002
2.035627e+002, 3.029343e+002
2.040449e+002, 3.030946e+002
2.045270e+002, 3.034721e+002
2.050091e+002, 3.035827e+002
2.054912e+002, 3.028640e+002
2.059733e+002, 3.010695e+002
2.064554e+002, 2.999724e+002
2.069376e+002, 2.999740e+002
2.074197e+002, 3.007615e+002
2.079018e+002, 3.011470e+002
2.083839e+002, 3.010472e+002
2.088660e+002, 3.007605e+002
2.093481e+002, 3.005313e+002
2.098303e+002, 3.004375e+002
2.103124e+002, 3.000067e+002
2.107945e+002, 2.989678e+002
2.112766e+002, 2.975965e+002
2.117587e+002, 2.970996e+002
2.122408e+002, 2.978399e+002
2.127230e+002, 2.986962e+002
2.132051e+002, 2.988813e+002
2.136872e+002, 2.981656e+002
2.141693e+002, 2.975337e+002
2.146514e+002, 2.970207e+002
2.151335e+002, 2.966654e+002
2.156157e+002, 2.967517e+002
2.160978e+002, 2.974926e+002
2.165799e+002, 2.982665e+002
2.170620e+002, 2.986730e+002
2.175441e+002, 2.986271e+002
2.180262e+002, 2.984255e+002
2.185084e+002, 2.980114e+002
2.189905e+002, 2.974535e+002
2.194726e+002, 2.971333e+002
2.199547e+002, 2.971444e+002
2.204368e+002, 2.972311e+002
2.209189e+002, 2.972420e+002
2.214011e+002, 2.971759e+002
2.218832e+002, 2.970506e+002
2.223653e+002, 2.968533e+002
2.228474e+002, 2.966038e+002
2.233295e+002, 2.963572e+002
2.238116e+002, 2.960813e+002
2.242938e+002, 2.958716e+002
2.247759e+002, 2.958173e+002
2.252580e+002, 2.960460e+002
2.257401e+002, 2.961107e+002
2.262222e+002, 2.959292e+002
2.267043e+002, 2.955565e+002
2.271865e+002, 2.951920e+002
2.276686e+002, 2.947451e+002
2.281507e+002, 2.944456e+002
2.286328e+002, 2.945050e+002
2.291149e+002, 2.952620e+002
2.295970e+002, 2.955563e+002
2.300792e+002, 2.951296e+002
2.305613e+002, 2.941910e+002
2.310434e+002, 2.935663e+002
2.315255e+002, 2.933437e+002
2.320076e+002, 2.933234e+002
2.324897e+002, 2.934706e+002
2.329719e+002, 2.940565e+002
2.334540e+002, 2.941813e+002
2.339361e+002, 2.935721e+002
2.344182e+002, 2.924977e+002
2.349003e+002, 2.919056e+002
2.353824e+002, 2.920202e+002
2.358646e+002, 2.922956e+002
2.363467e+002, 2.924731e+002
2.368288e+002, 2.925179e+002
2.373109e+002, 2.925179e+002
2.377930e+002, 2.923867e+002
2.382751e+002, 2.922188e+002
2.387573e+002, 2.923439e+002
2.392394e+002, 2.929869e+002
2.397215e+002, 2.935851e+002
2.402036e+002, 2.938881e+002
2.406857e+002, 2.938112e+002
2.411678e+002, 2.935991e+002
2.416500e+002, 2.931519e+002
2.421321e+002, 2.925954e+002
2.426142e+002, 2.922494e+002
2.430963e+002, 2.921791e+002
2.435784e+002, 2.922294e+002
2.440605e+002, 2.923925e+002
2.445427e+002, 2.928707e+002
2.450248e+002, 2.929262e+002
2.455069e+002, 2.923734e+002
2.459890e+002, 2.914743e+002
2.464711e+002, 2.907946e+002
2.469532e+002, 2.903415e+002
2.474354e+002, 2.900952e+002
2.479175e+002, 2.901037e+002
2.483996e+002, 2.905073e+002
2.488817e+002, 2.907375e+002
2.493638e+002, 2.908290e+002
2.498459e+002, 2.907360e+002
2.503281e+002, 2.902204e+002
2.508102e+002, 2.885850e+002
2.512923e+002, 2.877764e+002
2.517744e+002, 2.888883e+002
2.522565e+002, 2.928428e+002
2.527386e+002, 2.946656e+002
2.532208e+002, 2.934478e+002
2.537029e+002, 2.907675e+002
2.541850e+002, 2.890548e+002
2.546671e+002, 2.886245e+002
2.551492e+002, 2.885485e+002
2.556313e+002, 2.886328e+002
2.561135e+002, 2.889287e+002
2.565956e+002, 2.889663e+002
2.570777e+002, 2.885556e+002
2.575598e+002, 2.880584e+002
2.580419e+002, 2.880316e+002
2.585240e+002, 2.887657e+002
2.590062e+002, 2.892956e+002
2.594883e+002, 2.892978e+002
2.599704e+002, 2.887308e+002
2.604525e+002, 2.882692e+002
2.609346e+002, 2.879616e+002
2.614167e+002, 2.877076e+002
2.618989e+002, 2.873481e+002
2.623810e+002, 2.867580e+002
2.628631e+002, 2.864248e+002
2.633452e+002, 2.865200e+002
2.638273e+002, 2.870479e+002
2.643094e+002, 2.875975e+002
2.647916e+002, 2.883130e+002
2.652737e+002, 2.888510e+002
2.657558e+002, 2.887850e+002
2.662379e+002, 2.878755e+002
2.667200e+002, 2.871632e+002
2.672021e+002, 2.868754e+002
2.676843e+002, 2.869757e+002
2.681664e+002, 2.870930e+002
2.686485e+002, 2.872244e+002
2.691306e+002, 2.873719e+002
2.696127e+002, 2.875675e+002
2.700948e+002, 2.878516e+002
2.705770e+002, 2.879712e+002
2.710591e+002, 2.878405e+002
2.715412e+002, 2.875085e+002
2.720233e+002, 2.872401e+002
2.725054e+002, 2.870848e+002
2.729875e+002, 2.868546e+002
2.734697e+002, 2.862840e+002
2.739518e+002, 2.852426e+002
2.744339e+002, 2.847539e+002
2.749160e+002, 2.851552e+002
2.753981e+002, 2.860587e+002
2.758802e+002, 2.862066e+002
2.763624e+002, 2.854335e+002
2.768445e+002, 2.845531e+002
2.773266e+002, 2.841008e+002
2.778087e+002, 2.841103e+002
2.782908e+002, 2.840649e+002
2.787729e+002, 2.839039e+002
2.792551e+002, 2.836937e+002
2.797372e+002, 2.836576e+002
2.802193e+002, 2.838491e+002
2.807014e+002, 2.838684e+002
2.811835e+002, 2.833288e+002
2.816656e+002, 2.822448e+002
2.821478e+002, 2.816813e+002
2.826299e+002, 2.818227e+002
2.831120e+002, 2.822114e+002
2.835941e+002, 2.820075e+002
2.840762e+002, 2.811779e+002
2.845583e+002, 2.803941e+002
2.850405e+002, 2.798470e+002
2.855226e+002, 2.795588e+002
2.860047e+002, 2.799357e+002
2.864868e+002, 2.811736e+002
2.869689e+002, 2.824268e+002
2.874510e+002, 2.823341e+002
2.879332e+002, 2.809638e+002
2.884153e+002, 2.797347e+002
2.888974e+002, 2.792638e+002
2.893795e+002, 2.793860e+002
2.898616e+002, 2.796426e+002
2.903438e+002, 2.800797e+002
2.908259e+002, 2.803248e+002
2.913080e+002, 2.797179e+002
2.917901e+002, 2.784332e+002
2.922722e+002, 2.774872e+002
2.927543e+002, 2.772809e+002
2.932365e+002, 2.776032e+002
2.937186e+002, 2.781647e+002
2.942007e+002, 2.789690e+002
2.946828e+002, 2.795067e+002
2.951649e+002, 2.790100e+002
2.956470e+002, 2.778175e+002
2.961292e+002, 2.770627e+002
2.966113e+002, 2.772076e+002
2.970934e+002, 2.777597e+002
2.975755e+002, 2.779383e+002
2.980576e+002, 2.777735e+002
2.985397e+002, 2.775767e+002
2.990219e+002, 2.777356e+002
2.995040e+002, 2.780201e+002
2.999861e+002, 2.777826e+002
3.004682e+002, 2.765708e+002
3.009503e+002, 2.754811e+002
3.014324e+002, 2.762001e+002
3.019146e+002, 2.783382e+002
3.023967e+002, 2.802844e+002
3.028788e+002, 2.811563e+002
3.033609e+002, 2.811738e+002
3.038430e+002, 2.804361e+002
3.043251e+002, 2.787539e+002
3.048073e+002, 2.770952e+002
3.052894e+002, 2.762809e+002
3.057715e+002, 2.761744e+002
3.062536e+002, 2.764239e+002
3.067357e+002, 2.773982e+002
3.072178e+002, 2.783504e+002
3.077000e+002, 2.783337e+002
3.081821e+002, 2.771804e+002
3.086642e+002, 2.759622e+002
3.091463e+002, 2.754045e+002
3.096284e+002, 2.753067e+002
3.101105e+002, 2.753533e+002
3.105927e+002, 2.755095e+002
3.110748e+002, 2.756913e+002
3.115569e+002, 2.759034e+002
3.120390e+002, 2.761404e+002
3.125211e+002, 2.762076e+002
3.130032e+002, 2.759539e+002
3.134854e+002, 2.754953e+002
3.139675e+002, 2.749579e+002
3.144496e+002, 2.740832e+002
3.149317e+002, 2.734197e+002
3.154138e+002, 2.733556e+002
3.158959e+002, 2.738040e+002
3.163781e+002, 2.742095e+002
3.168602e+002, 2.743821e+002
3.173423e+002, 2.743929e+002
3.178244e+002, 2.742803e+002
3.183065e+002, 2.739447e+002
3.187886e+002, 2.736439e+002
3.192708e+002, 2.734390e+002
3.197529e+002, 2.733307e+002
3.202350e+002, 2.733207e+002
3.207171e+002, 2.735135e+002
3.211992e+002, 2.737226e+002
3.216813e+002, 2.738644e+002
3.221635e+002, 2.739409e+002
3.226456e+002, 2.739095e+002
3.231277e+002, 2.736032e+002
3.236098e+002, 2.732035e+002
3.240919e+002, 2.730141e+002
3.245740e+002, 2.734341e+002
3.250562e+002, 2.737488e+002
3.255383e+002, 2.736683e+002
3.260204e+002, 2.730331e+002
3.265025e+002, 2.726083e+002
3.269846e+002, 2.727092e+002
3.274667e+002, 2.729401e+002
3.279489e+002, 2.728795e+002
3.284310e+002, 2.721071e+002
3.289131e+002, 2.715215e+002
3.293952e+002, 2.713770e+002
3.298773e+002, 2.716936e+002
3.303594e+002, 2.716916e+002
3.308416e+002, 2.710930e+002
3.313237e+002, 2.704142e+002
3.318058e+002, 2.700392e+002
3.322879e+002, 2.702486e+002
3.327700e+002, 2.702639e+002
3.332521e+002, 2.698691e+002
3.337343e+002, 2.692027e+002
3.342164e+002, 2.689720e+002
3.346985e+002, 2.693805e+002
3.351806e+002, 2.699039e+002
3.356627e+002, 2.703200e+002
3.361448e+002, 2.707116e+002
3.366270e+002, 2.706646e+002
3.371091e+002, 2.699431e+002
3.375912e+002, 2.689485e+002
3.380733e+002, 2.685886e+002
3.385554e+002, 2.690993e+002
3.390375e+002, 2.694936e+002
3.395197e+002, 2.692889e+002
3.400018e+002, 2.684417e+002
3.404839e+002, 2.678532e+002
3.409660e+002, 2.675527e+002
3.414481e+002, 2.674694e+002
3.419302e+002, 2.675969e+002
3.424124e+002, 2.679581e+002
3.428945e+002, 2.682291e+002
3.433766e+002, 2.683881e+002
3.438587e+002, 2.683777e+002
3.443408e+002, 2.677660e+002
3.448229e+002, 2.664563e+002
3.453051e+002, 2.652235e+002
3.457872e+002, 2.649325e+002
3.462693e+002, 2.654354e+002
3.467514e+002, 2.657168e+002
3.472335e+002, 2.654789e+002
3.477156e+002, 2.650323e+002
3.481978e+002, 2.651630e+002
3.486799e+002, 2.658074e+002
3.491620e+002, 2.661362e+002
3.496441e+002, 2.651928e+002
3.501262e+002, 2.635492e+002
3.506083e+002, 2.626202e+002
3.510905e+002, 2.626676e+002
3.515726e+002, 2.630771e+002
3.520547e+002, 2.632116e+002
3.525368e+002, 2.631291e+002
3.530189e+002, 2.630051e+002
3.535010e+002, 2.628563e+002
3.539832e+002, 2.627465e+002
3.544653e+002, 2.627904e+002
3.549474e+002, 2.629979e+002
3.554295e+002, 2.631952e+002
3.559116e+002, 2.634091e+002
3.563937e+002, 2.634906e+002
3.568759e+002, 2.632138e+002
3.573580e+002, 2.620090e+002
3.578401e+002, 2.608222e+002
3.583222e+002, 2.604197e+002
3.588043e+002, 2.606809e+002
3.592864e+002, 2.609083e+002
3.597686e+002, 2.606805e+002
3.602507e+002, 2.602846e+002
3.607328e+002, 2.599469e+002
3.612149e+002, 2.596254e+002
3.616970e+002, 2.595167e+002
3.621791e+002, 2.599015e+002
3.626613e+002, 2.605598e+002
3.631434e+002, 2.609886e+002
3.636255e+002, 2.609398e+002
3.641076e+002, 2.606909e+002
3.645897e+002, 2.603284e+002
3.650718e+002, 2.598170e+002
3.655540e+002, 2.593700e+002
3.660361e+002, 2.590608e+002
3.665182e+002, 2.588243e+002
3.670003e+002, 2.585830e+002
3.674824e+002, 2.582985e+002
3.679645e+002, 2.580441e+002
3.684467e+002, 2.578451e+002
3.689288e+002, 2.577103e+002
3.694109e+002, 2.575832e+002
3.698930e+002, 2.575384e+002
3.703751e+002, 2.574522e+002
3.708572e+002, 2.572459e+002
3.713394e+002, 2.569368e+002
3.718215e+002, 2.564809e+002
3.723036e+002, 2.557921e+002
3.727857e+002, 2.549552e+002
3.732678e+002, 2.542195e+002
3.737499e+002, 2.534236e+002
3.742321e+002, 2.529973e+002
3.747142e+002, 2.532820e+002
3.751963e+002, 2.545638e+002
3.756784e+002, 2.552996e+002
3.761605e+002, 2.553413e+002
3.766426e+002, 2.550107e+002
3.771248e+002, 2.547608e+002
3.776069e+002, 2.545834e+002
3.780890e+002, 2.545200e+002
3.785711e+002, 2.546636e+002
3.790532e+002, 2.549577e+002
3.795353e+002, 2.549281e+002
3.800175e+002, 2.545236e+002
3.804996e+002, 2.540561e+002
3.809817e+002, 2.538039e+002
3.814638e+002, 2.537539e+002
3.819459e+002, 2.538025e+002
3.824280e+002, 2.539595e+002
3.829102e+002, 2.541614e+002
3.833923e+002, 2.542834e+002
3.838744e+002, 2.543297e+002
3.843565e+002, 2.543508e+002
3.848386e+002, 2.545038e+002
3.853207e+002, 2.546340e+002
3.858029e+002, 2.542887e+002
3.862850e+002, 2.533176e+002
3.867671e+002, 2.524201e+002
3.872492e+002, 2.525080e+002
3.877313e+002, 2.532239e+002
3.882134e+002, 2.537535e+002
3.886956e+002, 2.535854e+002
3.891777e+002, 2.531570e+002
3.896598e+002, 2.528010e+002
3.901419e+002, 2.525301e+002
3.906240e+002, 2.523707e+002
3.911061e+002, 2.524232e+002
3.915883e+002, 2.525630e+002
3.920704e+002, 2.526750e+002
3.925525e+002, 2.528547e+002
3.930346e+002, 2.528317e+002
3.935167e+002, 2.522502e+002
3.939988e+002, 2.513420e+002
3.944810e+002, 2.507496e+002
3.949631e+002, 2.507858e+002
3.954452e+002, 2.511232e+002
3.959273e+002, 2.516840e+002
3.964094e+002, 2.526134e+002
3.968915e+002, 2.532678e+002
3.973737e+002, 2.533635e+002
3.978558e+002, 2.531719e+002
3.983379e+002, 2.530270e+002
3.988200e+002, 2.528706e+002
3.993021e+002, 2.528539e+002
3.997842e+002, 2.530908e+002
4.002664e+002, 2.535767e+002
4.007485e+002, 2.538508e+002
4.012306e+002, 2.537811e+002
4.017127e+002, 2.536186e+002
4.021948e+002, 2.535192e+002
4.026769e+002, 2.535173e+002
4.031591e+002, 2.535047e+002
4.036412e+002, 2.535022e+002
4.041233e+002, 2.534719e+002
4.046054e+002, 2.532769e+002
4.050875e+002, 2.528288e+002
4.055696e+002, 2.524886e+002
4.060518e+002, 2.524741e+002
4.065339e+002, 2.528025e+002
4.070160e+002, 2.528443e+002
4.074981e+002, 2.524882e+002
4.079802e+002, 2.521717e+002
4.084623e+002, 2.525999e+002
4.089445e+002, 2.537555e+002
4.094266e+002, 2.544653e+002
4.099087e+002, 2.542432e+002
4.103908e+002, 2.535405e+002
4.108729e+002, 2.534953e+002
4.113550e+002, 2.540896e+002
4.118372e+002, 2.546821e+002
4.123193e+002, 2.547291e+002
4.128014e+002, 2.544434e+002
4.132835e+002, 2.543266e+002
4.137656e+002, 2.544582e+002
4.142477e+002, 2.546978e+002
4.147299e+002, 2.549542e+002
4.152120e+002, 2.552006e+002
4.156941e+002, 2.553701e+002
4.161762e+002, 2.552574e+002
4.166583e+002, 2.551601e+002
4.171404e+002, 2.554445e+002
4.176226e+002, 2.560947e+002
4.181047e+002, 2.566090e+002
4.185868e+002, 2.565735e+002
4.190689e+002, 2.563181e+002
4.195510e+002, 2.561454e+002
4.200331e+002, 2.560366e+002
4.205153e+002, 2.561573e+002
4.209974e+002, 2.568368e+002
4.214795e+002, 2.578185e+002
4.219616e+002, 2.584212e+002
4.224437e+002, 2.581115e+002
4.229258e+002, 2.577098e+002
4.234080e+002, 2.575772e+002
4.238901e+002, 2.578315e+002
4.243722e+002, 2.580323e+002
4.248543e+002, 2.582530e+002
4.253364e+002, 2.583614e+002
4.258185e+002, 2.582146e+002
4.263007e+002, 2.575692e+002
4.267828e+002, 2.570116e+002
4.272649e+002, 2.565161e+002
4.277470e+002, 2.561404e+002
4.282291e+002, 2.563643e+002
4.287112e+002, 2.575725e+002
4.291934e+002, 2.587016e+002
4.296755e+002, 2.591024e+002
4.301576e+002, 2.585867e+002
4.306397e+002, 2.582889e+002
4.311218e+002, 2.582963e+002
4.316039e+002, 2.584323e+002
4.320861e+002, 2.584160e+002
4.325682e+002, 2.582370e+002
4.330503e+002, 2.580452e+002
4.335324e+002, 2.578581e+002
4.340145e+002, 2.577048e+002
4.344966e+002, 2.576711e+002
4.349788e+002, 2.577583e+002
4.354609e+002, 2.579913e+002
4.359430e+002, 2.586391e+002
4.364251e+002, 2.594649e+002
4.369072e+002, 2.596879e+002
4.373893e+002, 2.589470e+002
4.378715e+002, 2.581480e+002
4.383536e+002, 2.585291e+002
4.388357e+002, 2.597247e+002
4.393178e+002, 2.607147e+002
4.397999e+002, 2.608386e+002
4.402820e+002, 2.606003e+002
4.407642e+002, 2.603947e+002
4.412463e+002, 2.602402e+002
4.417284e+002, 2.601533e+002
4.422105e+002, 2.601827e+002
4.426926e+002, 2.602579e+002
4.431747e+002, 2.603146e+002
4.436569e+002, 2.604031e+002
4.441390e+002, 2.603826e+002
4.446211e+002, 2.600219e+002
4.451032e+002, 2.594931e+002
4.455853e+002, 2.593085e+002
4.460674e+002, 2.599741e+002
4.465496e+002, 2.606393e+002
4.470317e+002, 2.609529e+002
4.475138e+002, 2.607543e+002
4.479959e+002, 2.607280e+002
4.484780e+002, 2.610793e+002
4.489601e+002, 2.614723e+002
4.494423e+002, 2.615480e+002
4.499244e+002, 2.610613e+002
4.504065e+002, 2.608006e+002
4.508886e+002, 2.610092e+002
4.513707e+002, 2.615250e+002
4.518528e+002, 2.616029e+002
4.523350e+002, 2.610964e+002
4.528171e+002, 2.605849e+002
4.532992e+002, 2.603493e+002
4.537813e+002, 2.603882e+002
4.542634e+002, 2.606489e+002
4.547455e+002, 2.611983e+002
4.552277e+002, 2.617351e+002
4.557098e+002, 2.617988e+002
4.561919e+002, 2.614552e+002
4.566740e+002, 2.611707e+002
4.571561e+002, 2.610898e+002
4.576382e+002, 2.611676e+002
4.581204e+002, 2.613365e+002
4.586025e+002, 2.616009e+002
4.590846e+002, 2.619710e+002
4.595667e+002, 2.626330e+002
4.600488e+002, 2.633426e+002
4.605309e+002, 2.637562e+002
4.610131e+002, 2.637850e+002
4.614952e+002, 2.637179e+002
4.619773e+002, 2.637758e+002
4.624594e+002, 2.638619e+002
4.629415e+002, 2.638338e+002
4.634236e+002, 2.633717e+002
4.639058e+002, 2.630322e+002
4.643879e+002, 2.631801e+002
4.648700e+002, 2.637514e+002
4.653521e+002, 2.641346e+002
4.658342e+002, 2.640314e+002
4.663163e+002, 2.638079e+002
4.667985e+002, 2.636499e+002
4.672806e+002, 2.635088e+002
4.677627e+002, 2.635583e+002
4.682448e+002, 2.639942e+002
4.687269e+002, 2.645363e+002
4.692090e+002, 2.647889e+002
4.696912e+002, 2.646367e+002
4.701733e+002, 2.643923e+002
4.706554e+002, 2.640397e+002
4.711375e+002, 2.636193e+002
4.716196e+002, 2.635812e+002
4.721017e+002, 2.640382e+002
4.725839e+002, 2.645592e+002
4.730660e+002, 2.648902e+002
4.735481e+002, 2.650290e+002
4.740302e+002, 2.649585e+002
4.745123e+002, 2.646002e+002
4.749944e+002, 2.642500e+002
4.754766e+002, 2.645247e+002
4.759587e+002, 2.653011e+002
4.764408e+002, 2.657628e+002
4.769229e+002, 2.653631e+002
4.774050e+002, 2.645895e+002
4.778871e+002, 2.642410e+002
4.783693e+002, 2.642873e+002
4.788514e+002, 2.644358e+002
4.793335e+002, 2.645449e+002
4.798156e+002, 2.646137e+002
4.802977e+002, 2.645981e+002
4.807798e+002, 2.644239e+002
4.812620e+002, 2.643891e+002
4.817441e+002, 2.648065e+002
4.822262e+002, 2.654378e+002
4.827083e+002, 2.659322e+002
4.831904e+002, 2.660244e+002
4.836725e+002, 2.660975e+002
4.841547e+002, 2.662261e+002
4.846368e+002, 2.664215e+002
4.851189e+002, 2.668073e+002
4.856010e+002, 2.679644e+002
4.860831e+002, 2.688651e+002
4.865652e+002, 2.689356e+002
4.870474e+002, 2.675858e+002
4.875295e+002, 2.666679e+002
4.880116e+002, 2.662910e+002
4.884937e+002, 2.662747e+002
4.889758e+002, 2.664270e+002
4.894579e+002, 2.668609e+002
4.899401e+002, 2.671175e+002
4.904222e+002, 2.670700e+002
4.909043e+002, 2.667640e+002
4.913864e+002, 2.662855e+002
4.918685e+002, 2.655674e+002
4.923506e+002, 2.651405e+002
4.928328e+002, 2.656718e+002
4.933149e+002, 2.668795e+002
4.937970e+002, 2.673942e+002
4.942791e+002, 2.670312e+002
4.947612e+002, 2.664053e+002
4.952433e+002, 2.661639e+002
4.957255e+002, 2.662107e+002
4.962076e+002, 2.662925e+002
4.966897e+002, 2.663068e+002
4.971718e+002, 2.663318e+002
4.976539e+002, 2.665082e+002
4.981360e+002, 2.667810e+002
4.986182e+002, 2.669347e+002
4.991003e+002, 2.666823e+002
4.995824e+002, 2.663889e+002
5.000645e+002, 2.663332e+002
5.005466e+002, 2.665969e+002
5.010287e+002, 2.668570e+002
5.015109e+002, 2.671729e+002
5.019930e+002, 2.673689e+002
5.024751e+002, 2.672640e+002
5.029572e+002, 2.664015e+002
5.034393e+002, 2.657516e+002
5.039214e+002, 2.654822e+002
5.044036e+002, 2.655067e+002
5.048857e+002, 2.655271e+002
5.053678e+002, 2.655646e+002
5.058499e+002, 2.655599e+002
5.063320e+002, 2.654606e+002
5.068141e+002, 2.652530e+002
5.072963e+002, 2.651841e+002
5.077784e+002, 2.652812e+002
5.082605e+002, 2.654476e+002
5.087426e+002, 2.655948e+002
5.092247e+002, 2.657238e+002
5.097068e+002, 2.658659e+002
5.101890e+002, 2.660489e+002
5.106711e+002, 2.662030e+002
5.111532e+002, 2.661358e+002
5.116353e+002, 2.659015e+002
5.121174e+002, 2.657670e+002
5.125995e+002, 2.659183e+002
5.130817e+002, 2.662155e+002
5.135638e+002, 2.665646e+002
5.140459e+002, 2.669506e+002
5.145280e+002, 2.671825e+002
5.150101e+002, 2.670652e+002
5.154922e+002, 2.667765e+002
5.159744e+002, 2.664828e+002
5.164565e+002, 2.662325e+002
5.169386e+002, 2.659573e+002
5.174207e+002, 2.655816e+002
5.179028e+002, 2.651803e+002
5.183849e+002, 2.648749e+002
5.188671e+002, 2.648393e+002
5.193492e+002, 2.647313e+002
5.198313e+002, 2.643178e+002
5.203134e+002, 2.636532e+002
5.207955e+002, 2.635877e+002
5.212776e+002, 2.645536e+002
5.217598e+002, 2.654763e+002
5.222419e+002, 2.656504e+002
5.227240e+002, 2.648647e+002
5.232061e+002, 2.644993e+002
5.236882e+002, 2.646881e+002
5.241703e+002, 2.650502e+002
5.246525e+002, 2.649897e+002
5.251346e+002, 2.645480e+002
5.256167e+002, 2.644365e+002
5.260988e+002, 2.650536e+002
5.265809e+002, 2.658738e+002
5.270630e+002, 2.658156e+002
5.275452e+002, 2.650155e+002
5.280273e+002, 2.642522e+002
5.285094e+002, 2.640299e+002
5.289915e+002, 2.640712e+002
5.294736e+002, 2.640334e+002
5.299557e+002, 2.638847e+002
5.304379e+002, 2.638620e+002
5.309200e+002, 2.644040e+002
5.314021e+002, 2.649952e+002
5.318842e+002, 2.651027e+002
5.323663e+002, 2.641129e+002
5.328484e+002, 2.633192e+002
5.333306e+002, 2.630978e+002
5.338127e+002, 2.632833e+002
5.342948e+002, 2.635416e+002
5.347769e+002, 2.640292e+002
5.352590e+002, 2.643768e+002
5.357411e+002, 2.644778e+002
5.362233e+002, 2.643412e+002
5.367054e+002, 2.641875e+002
5.371875e+002, 2.640077e+002
5.376696e+002, 2.638418e+002
5.381517e+002, 2.637230e+002
5.386339e+002, 2.636595e+002
5.391160e+002, 2.635589e+002
5.395981e+002, 2.633837e+002
5.400802e+002, 2.632726e+002
5.405623e+002, 2.635820e+002
5.410444e+002, 2.641913e+002
5.415266e+002, 2.643737e+002
5.420087e+002, 2.636091e+002
5.424908e+002, 2.626423e+002
5.429729e+002, 2.626662e+002
5.434550e+002, 2.634711e+002
5.439371e+002, 2.642206e+002
5.444193e+002, 2.645244e+002
5.449014e+002, 2.645199e+002
5.453835e+002, 2.641541e+002
5.458656e+002, 2.633908e+002
5.463477e+002, 2.629658e+002
5.468298e+002, 2.634811e+002
5.473120e+002, 2.642904e+002
5.477941e+002, 2.648571e+002
5.482762e+002, 2.649149e+002
5.487583e+002, 2.649752e+002
5.492404e+002, 2.650671e+002
5.497225e+002, 2.651846e+002
5.502047e+002, 2.653252e+002
5.506868e+002, 2.655202e+002
5.511689e+002, 2.656758e+002
5.516510e+002, 2.657573e+002
5.521331e+002, 2.657789e+002
5.526152e+002, 2.657459e+002
5.530974e+002, 2.655922e+002
5.535795e+002, 2.657275e+002
5.540616e+002, 2.665010e+002
5.545437e+002, 2.678326e+002
5.550258e+002, 2.694418e+002
5.555079e+002, 2.714225e+002
5.559901e+002, 2.729775e+002
5.564722e+002, 2.732140e+002
5.569543e+002, 2.724350e+002
5.574364e+002, 2.711276e+002
5.579185e+002, 2.688098e+002
5.584006e+002, 2.670226e+002
5.588828e+002, 2.676337e+002
5.593649e+002, 2.696985e+002
5.598470e+002, 2.710447e+002
5.603291e+002, 2.701927e+002
5.608112e+002, 2.689669e+002
5.612933e+002, 2.680101e+002
5.617755e+002, 2.673568e+002
5.622576e+002, 2.671136e+002
5.627397e+002, 2.679548e+002
5.632218e+002, 2.686672e+002
5.637039e+002, 2.686044e+002
5.641860e+002, 2.673395e+002
5.646682e+002, 2.663812e+002
5.651503e+002, 2.656940e+002
5.656324e+002, 2.653530e+002
5.661145e+002, 2.656432e+002
5.665966e+002, 2.666838e+002
5.670787e+002, 2.672370e+002
5.675609e+002, 2.668581e+002
5.680430e+002, 2.660813e+002
5.685251e+002, 2.661788e+002
5.690072e+002, 2.670431e+002
5.694893e+002, 2.677889e+002
5.699714e+002, 2.677948e+002
5.704536e+002, 2.674626e+002
5.709357e+002, 2.673990e+002
5.714178e+002, 2.675952e+002
5.718999e+002, 2.677209e+002
5.723820e+002, 2.672791e+002
5.728641e+002, 2.668278e+002
5.733463e+002, 2.669285e+002
5.738284e+002, 2.679154e+002
5.743105e+002, 2.688046e+002
5.747926e+002, 2.693134e+002
5.752747e+002, 2.695546e+002
5.757568e+002, 2.696631e+002
5.762390e+002, 2.694254e+002
5.767211e+002, 2.693642e+002
5.772032e+002, 2.696685e+002
5.776853e+002, 2.701801e+002
5.781674e+002, 2.702823e+002
5.786495e+002, 2.697895e+002
5.791317e+002, 2.694390e+002
5.796138e+002, 2.696072e+002
5.800959e+002, 2.702186e+002
5.805780e+002, 2.706658e+002
5.810601e+002, 2.709542e+002
5.815422e+002, 2.710788e+002
5.820244e+002, 2.708969e+002
5.825065e+002, 2.705609e+002
5.829886e+002, 2.704422e+002
5.834707e+002, 2.705914e+002
5.839528e+002, 2.709451e+002
5.844349e+002, 2.716283e+002
5.849171e+002, 2.724333e+002
5.853992e+002, 2.730536e+002
5.858813e+002, 2.734566e+002
5.863634e+002, 2.735691e+002
5.868455e+002, 2.731071e+002
5.873276e+002, 2.723054e+002
5.878098e+002, 2.718268e+002
5.882919e+002, 2.719701e+002
5.887740e+002, 2.722807e+002
5.892561e+002, 2.726595e+002
5.897382e+002, 2.731070e+002
5.902203e+002, 2.735133e+002
5.907025e+002, 2.738657e+002
5.911846e+002, 2.741902e+002
5.916667e+002, 2.745175e+002
5.921488e+002, 2.748558e+002
5.926309e+002, 2.751123e+002
5.931130e+002, 2.752976e+002
5.935952e+002, 2.753665e+002
5.940773e+002, 2.751737e+002
5.945594e+002, 2.747993e+002
5.950415e+002, 2.745528e+002
5.955236e+002, 2.745247e+002
5.960057e+002, 2.746347e+002
5.964879e+002, 2.748489e+002
5.969700e+002, 2.751329e+002
5.974521e+002, 2.754019e+002
5.979342e+002, 2.756470e+002
5.984163e+002, 2.758397e+002
5.988984e+002, 2.759114e+002
5.993806e+002, 2.758845e+002
5.998627e+002, 2.759570e+002
6.003448e+002, 2.761484e+002
6.008269e+002, 2.764720e+002
6.013090e+002, 2.769657e+002
6.017911e+002, 2.777050e+002
6.022733e+002, 2.783294e+002
6.027554e+002, 2.788902e+002
6.032375e+002, 2.792625e+002
6.037196e+002, 2.790302e+002
6.042017e+002, 2.780204e+002
6.046838e+002, 2.784787e+002
6.051660e+002, 2.811600e+002
6.056481e+002, 2.842818e+002
6.061302e+002, 2.846220e+002
6.066123e+002, 2.827133e+002
6.070944e+002, 2.810084e+002
6.075765e+002, 2.803273e+002
6.080587e+002, 2.803775e+002
6.085408e+002, 2.811775e+002
6.090229e+002, 2.824930e+002
6.095050e+002, 2.835167e+002
6.099871e+002, 2.836025e+002
6.104692e+002, 2.834361e+002
6.109514e+002, 2.833583e+002
6.114335e+002, 2.833901e+002
6.119156e+002, 2.835927e+002
6.123977e+002, 2.840992e+002
6.128798e+002, 2.846882e+002
6.133619e+002, 2.852429e+002
6.138441e+002, 2.858452e+002
6.143262e+002, 2.862025e+002
6.148083e+002, 2.861986e+002
6.152904e+002, 2.861156e+002
6.157725e+002, 2.863732e+002
6.162546e+002, 2.870052e+002
6.167368e+002, 2.874118e+002
6.172189e+002, 2.874191e+002
6.177010e+002, 2.872622e+002
6.181831e+002, 2.873992e+002
6.186652e+002, 2.877572e+002
6.191473e+002, 2.880426e+002
6.196295e+002, 2.879069e+002
6.201116e+002, 2.877680e+002
6.205937e+002, 2.882364e+002
6.210758e+002, 2.891567e+002
6.215579e+002, 2.897624e+002
6.220400e+002, 2.894175e+002
6.225222e+002, 2.888373e+002
6.230043e+002, 2.882976e+002
6.234864e+002, 2.877321e+002
6.239685e+002, 2.877737e+002
6.244506e+002, 2.892040e+002
6.249327e+002, 2.906517e+002
6.254149e+002, 2.911553e+002
6.258970e+002, 2.903047e+002
6.263791e+002, 2.896906e+002
6.268612e+002, 2.893009e+002
6.273433e+002, 2.892672e+002
6.278254e+002, 2.899860e+002
6.283076e+002, 2.914105e+002
6.287897e+002, 2.925406e+002
6.292718e+002, 2.931263e+002
6.297539e+002, 2.933019e+002
6.302360e+002, 2.930942e+002
6.307181e+002, 2.926228e+002
6.312003e+002, 2.922677e+002
6.316824e+002, 2.923452e+002
6.321645e+002, 2.925165e+002
6.326466e+002, 2.924744e+002
6.331287e+002, 2.922624e+002
6.336108e+002, 2.921909e+002
6.340930e+002, 2.925541e+002
6.345751e+002, 2.929271e+002
6.350572e+002, 2.930017e+002
6.355393e+002, 2.926189e+002
6.360214e+002, 2.927469e+002
6.365035e+002, 2.936915e+002
6.369857e+002, 2.947738e+002
6.374678e+002, 2.955286e+002
6.379499e+002, 2.959591e+002
6.384320e+002, 2.959484e+002
6.389141e+002, 2.953817e+002
6.393962e+002, 2.946747e+002
6.398784e+002, 2.943153e+002
6.403605e+002, 2.942858e+002
6.408426e+002, 2.945347e+002
6.413247e+002, 2.951679e+002
6.418068e+002, 2.958545e+002
6.422889e+002, 2.963278e+002
6.427711e+002, 2.965812e+002
6.432532e+002, 2.966093e+002
6.437353e+002, 2.961434e+002
6.442174e+002, 2.957062e+002
6.446995e+002, 2.955204e+002
6.451816e+002, 2.955804e+002
6.456638e+002, 2.957871e+002
6.461459e+002, 2.964460e+002
6.466280e+002, 2.969124e+002
6.471101e+002, 2.968686e+002
6.475922e+002, 2.962645e+002
6.480743e+002, 2.960791e+002
6.485565e+002, 2.964439e+002
6.490386e+002, 2.968817e+002
6.495207e+002, 2.968958e+002
6.500028e+002, 2.965704e+002
6.504849e+002, 2.967624e+002
6.509670e+002, 2.975862e+002
6.514492e+002, 2.985203e+002
6.519313e+002, 2.994749e+002
6.524134e+002, 3.000495e+002
6.528955e+002, 2.992791e+002
6.533776e+002, 2.961852e+002
6.538597e+002, 2.933615e+002
6.543419e+002, 2.927834e+002
6.548240e+002, 2.934426e+002
6.553061e+002, 2.938066e+002
6.557882e+002, 2.931074e+002
6.562703e+002, 2.924985e+002
6.567524e+002, 2.923444e+002
6.572346e+002, 2.924730e+002
6.577167e+002, 2.923428e+002
6.581988e+002, 2.918094e+002
6.586809e+002, 2.913545e+002
6.591630e+002, 2.911528e+002
6.596451e+002, 2.911654e+002
6.601273e+002, 2.911784e+002
6.606094e+002, 2.911893e+002
6.610915e+002, 2.911958e+002
6.615736e+002, 2.912661e+002
6.620557e+002, 2.913060e+002
6.625378e+002, 2.910524e+002
6.630200e+002, 2.904922e+002
6.635021e+002, 2.900093e+002
6.639842e+002, 2.899492e+002
6.644663e+002, 2.900488e+002
6.649484e+002, 2.900530e+002
6.654305e+002, 2.898638e+002
6.659127e+002, 2.897397e+002
6.663948e+002, 2.897307e+002
6.668769e+002, 2.898303e+002
6.673590e+002, 2.900345e+002
6.678411e+002, 2.904100e+002
6.683232e+002, 2.907766e+002
6.688054e+002, 2.911901e+002
6.692875e+002, 2.915125e+002
6.697696e+002, 2.914262e+002
6.702517e+002, 2.909218e+002
6.707338e+002, 2.903924e+002
6.712159e+002, 2.897259e+002
6.716981e+002, 2.893986e+002
6.721802e+002, 2.908952e+002
6.726623e+002, 2.936075e+002
6.731444e+002, 2.954087e+002
6.736265e+002, 2.943881e+002
6.741086e+002, 2.926742e+002
6.745908e+002, 2.918187e+002
6.750729e+002, 2.917265e+002
6.755550e+002, 2.914600e+002
6.760371e+002, 2.902578e+002
6.765192e+002, 2.892566e+002
6.770013e+002, 2.890641e+002
6.774835e+002, 2.897815e+002
6.779656e+002, 2.901725e+002
6.784477e+002, 2.900697e+002
6.789298e+002, 2.899508e+002
6.794119e+002, 2.902184e+002
6.798940e+002, 2.908788e+002
6.803762e+002, 2.912335e+002
6.808583e+002, 2.912334e+002
6.813404e+002, 2.911132e+002
6.818225e+002, 2.912221e+002
6.823046e+002, 2.913729e+002
6.827867e+002, 2.910620e+002
6.832689e+002, 2.899927e+002
6.837510e+002, 2.891299e+002
6.842331e+002, 2.893329e+002
6.847152e+002, 2.901136e+002
6.851973e+002, 2.908488e+002
6.856794e+002, 2.914275e+002
6.861616e+002, 2.918959e+002
6.866437e+002, 2.923868e+002
6.871258e+002, 2.927440e+002
6.876079e+002, 2.925644e+002
6.880900e+002, 2.914845e+002
6.885721e+002, 2.908634e+002
6.890543e+002, 2.912104e+002
6.895364e+002, 2.921119e+002
6.900185e+002, 2.921837e+002
6.905006e+002, 2.914612e+002
6.909827e+002, 2.910544e+002
6.914648e+002, 2.920206e+002
6.919470e+002, 2.933872e+002
6.924291e+002, 2.934369e+002
6.929112e+002, 2.924036e+002
6.933933e+002, 2.915895e+002
6.938754e+002, 2.920316e+002
6.943575e+002, 2.926789e+002
6.948397e+002, 2.927547e+002
6.953218e+002, 2.921374e+002
6.958039e+002, 2.918768e+002
6.962860e+002, 2.924567e+002
6.967681e+002, 2.931076e+002
6.972502e+002, 2.934762e+002
6.977324e+002, 2.935440e+002
6.982145e+002, 2.933367e+002
6.986966e+002, 2.927188e+002
6.991787e+002, 2.922132e+002
6.996608e+002, 2.924585e+002
7.001429e+002, 2.932998e+002
7.006251e+002, 2.940234e+002
7.011072e+002, 2.945519e+002
7.015893e+002, 2.948483e+002
7.020714e+002, 2.946698e+002
7.025535e+002, 2.942945e+002
7.030356e+002, 2.941545e+002
7.035178e+002, 2.945765e+002
7.039999e+002, 2.948881e+002
7.044820e+002, 2.945521e+002
7.049641e+002, 2.940238e+002
7.054462e+002, 2.940474e+002
7.059283e+002, 2.952727e+002
7.064105e+002, 2.960589e+002
7.068926e+002, 2.961241e+002
7.073747e+002, 2.956801e+002
7.078568e+002, 2.951407e+002
7.083389e+002, 2.944834e+002
7.088210e+002, 2.940043e+002
7.093032e+002, 2.937413e+002
7.097853e+002, 2.937832e+002
7.102674e+002, 2.945160e+002
7.107495e+002, 2.957834e+002
7.112316e+002, 2.968972e+002
7.117137e+002, 2.974842e+002
7.121959e+002, 2.977772e+002
7.126780e+002, 2.978777e+002
7.131601e+002, 2.978075e+002
7.136422e+002, 2.976819e+002
7.141243e+002, 2.973689e+002
7.146064e+002, 2.971701e+002
7.150886e+002, 2.972978e+002
7.155707e+002, 2.977719e+002
7.160528e+002, 2.978020e+002
7.165349e+002, 2.972090e+002
7.170170e+002, 2.966336e+002
7.174991e+002, 2.965013e+002
7.179813e+002, 2.967669e+002
7.184634e+002, 2.970941e+002
7.189455e+002, 2.974798e+002
7.194276e+002, 2.978360e+002
7.199097e+002, 2.980716e+002
7.203918e+002, 2.982391e+002
7.208740e+002, 2.983960e+002
7.213561e+002, 2.985487e+002
7.218382e+002, 2.987100e+002
7.223203e+002, 2.988726e+002
7.228024e+002, 2.990523e+002
7.232845e+002, 2.992752e+002
7.237667e+002, 2.997118e+002
7.242488e+002, 2.998620e+002
7.247309e+002, 2.995487e+002
7.252130e+002, 2.991353e+002
7.256951e+002, 2.991208e+002
7.261772e+002, 2.995479e+002
7.266594e+002, 2.996994e+002
7.271415e+002, 2.994246e+002
7.276236e+002, 2.989637e+002
7.281057e+002, 2.985294e+002
7.285878e+002, 2.981718e+002
7.290699e+002, 2.980459e+002
7.295521e+002, 2.984187e+002
7.300342e+002, 2.986931e+002
7.305163e+002, 2.982714e+002
7.309984e+002, 2.975093e+002
7.314805e+002, 2.970397e+002
7.319626e+002, 2.971850e+002
7.324448e+002, 2.974482e+002
7.329269e+002, 2.977628e+002
7.334090e+002, 2.981244e+002
7.338911e+002, 2.985451e+002
7.343732e+002, 2.990700e+002
7.348553e+002, 2.994528e+002
7.353375e+002, 2.995982e+002
7.358196e+002, 2.995645e+002
7.363017e+002, 2.994156e+002
7.367838e+002, 2.991883e+002
7.372659e+002, 2.991049e+002
7.377480e+002, 2.995421e+002
7.382302e+002, 2.999880e+002
7.387123e+002, 2.997789e+002
7.391944e+002, 2.990800e+002
7.396765e+002, 2.987285e+002
7.401586e+002, 2.995063e+002
7.406407e+002, 3.002457e+002
7.411229e+002, 3.003471e+002
7.416050e+002, 2.998448e+002
7.420871e+002, 2.995394e+002
7.425692e+002, 2.994812e+002
7.430513e+002, 2.994971e+002
7.435334e+002, 2.994659e+002
7.440156e+002, 2.994160e+002
7.444977e+002, 2.996432e+002
7.449798e+002, 3.001483e+002
7.454619e+002, 3.006190e+002
7.459440e+002, 3.008892e+002
7.464261e+002, 3.009408e+002
7.469083e+002, 3.006390e+002
7.473904e+002, 2.999657e+002
7.478725e+002, 2.994436e+002
7.483546e+002, 2.994793e+002
7.488367e+002, 2.996329e+002
7.493188e+002, 2.995865e+002
7.498010e+002, 2.992228e+002
7.502831e+002, 2.990179e+002
7.507652e+002, 2.990537e+002
7.512473e+002, 2.991150e+002
7.517294e+002, 2.990604e+002
7.522115e+002, 2.988901e+002
7.526937e+002, 2.984366e+002
7.531758e+002, 2.976161e+002
7.536579e+002, 2.970245e+002
7.541400e+002, 2.977662e+002
7.546221e+002, 2.989985e+002
7.551042e+002, 2.991857e+002
7.555864e+002, 2.977517e+002
7.560685e+002, 2.964434e+002
7.565506e+002, 2.962900e+002
7.570327e+002, 2.966823e+002
7.575148e+002, 2.970190e+002
7.579969e+002, 2.971774e+002
7.584791e+002, 2.973716e+002
7.589612e+002, 2.976986e+002
7.594433e+002, 2.979518e+002
7.599254e+002, 2.977782e+002
7.604075e+002, 2.971443e+002
7.608896e+002, 2.968320e+002
7.613718e+002, 2.970600e+002
7.618539e+002, 2.973080e+002
7.623360e+002, 2.966744e+002
7.628181e+002, 2.955716e+002
7.633002e+002, 2.948793e+002
7.637823e+002, 2.949881e+002
7.642645e+002, 2.953159e+002
7.647466e+002, 2.956696e+002
7.652287e+002, 2.960018e+002
7.657108e+002, 2.962507e+002
7.661929e+002, 2.964715e+002
7.666750e+002, 2.964965e+002
7.671572e+002, 2.961793e+002
7.676393e+002, 2.957625e+002
7.681214e+002, 2.957924e+002
7.686035e+002, 2.963174e+002
7.690856e+002, 2.965693e+002
7.695677e+002, 2.963217e+002
7.700499e+002, 2.957723e+002
7.705320e+002, 2.950742e+002
7.710141e+002, 2.943161e+002
7.714962e+002, 2.937285e+002
7.719783e+002, 2.934202e+002
7.724604e+002, 2.932918e+002
7.729426e+002, 2.932852e+002
7.734247e+002, 2.934200e+002
7.739068e+002, 2.937649e+002
7.743889e+002, 2.947899e+002
7.748710e+002, 2.953337e+002
7.753531e+002, 2.950298e+002
7.758353e+002, 2.941950e+002
7.763174e+002, 2.937416e+002
7.767995e+002, 2.936911e+002
7.772816e+002, 2.936792e+002
7.777637e+002, 2.935432e+002
7.782458e+002, 2.934088e+002
7.787280e+002, 2.935424e+002
7.792101e+002, 2.938683e+002
7.796922e+002, 2.941359e+002
7.801743e+002, 2.943238e+002
7.806564e+002, 2.943299e+002
7.811385e+002, 2.939590e+002
7.816207e+002, 2.933251e+002
7.821028e+002, 2.929506e+002
7.825849e+002, 2.931253e+002
7.830670e+002, 2.931170e+002
7.835491e+002, 2.925845e+002
7.840313e+002, 2.917565e+002
7.845134e+002, 2.916576e+002
7.849955e+002, 2.922968e+002
7.854776e+002, 2.928403e+002
7.859597e+002, 2.928102e+002
7.864418e+002, 2.925136e+002
7.869240e+002, 2.924417e+002
7.874061e+002, 2.925319e+002
7.878882e+002, 2.925566e+002
7.883703e+002, 2.923228e+002
7.888524e+002, 2.920724e+002
7.893345e+002, 2.919275e+002
7.898167e+002, 2.918817e+002
7.902988e+002, 2.918443e+002
7.907809e+002, 2.918539e+002
7.912630e+002, 2.918076e+002
7.917451e+002, 2.916812e+002
7.922272e+002, 2.914740e+002
7.927094e+002, 2.910544e+002
7.931915e+002, 2.904439e+002
7.936736e+002, 2.900766e+002
7.941557e+002, 2.905082e+002
7.946378e+002, 2.911377e+002
7.951199e+002, 2.910154e+002
7.956021e+002, 2.903380e+002
7.960842e+002, 2.900152e+002
7.965663e+002, 2.910027e+002
7.970484e+002, 2.918924e+002
7.975305e+002, 2.919764e+002
7.980126e+002, 2.913375e+002
7.984948e+002, 2.906486e+002
7.989769e+002, 2.896896e+002
7.994590e+002, 2.892738e+002
7.999411e+002, 2.900122e+002
8.004232e+002, 2.914987e+002
8.009053e+002, 2.920515e+002
8.013875e+002, 2.917470e+002
8.018696e+002, 2.913349e+002
8.023517e+002, 2.913132e+002
8.028338e+002, 2.913648e+002
8.033159e+002, 2.909919e+002
8.037980e+002, 2.903238e+002
8.042802e+002, 2.901544e+002
8.047623e+002, 2.914433e+002
8.052444e+002, 2.925297e+002
8.057265e+002, 2.927219e+002
8.062086e+002, 2.921304e+002
8.066907e+002, 2.916501e+002
8.071729e+002, 2.911771e+002
8.076550e+002, 2.912901e+002
8.081371e+002, 2.928030e+002
8.086192e+002, 2.948735e+002
8.091013e+002, 2.949229e+002
8.095834e+002, 2.932816e+002
8.100656e+002, 2.918315e+002
8.105477e+002, 2.920584e+002
8.110298e+002, 2.925520e+002
8.115119e+002, 2.922167e+002
8.119940e+002, 2.911674e+002
8.124761e+002, 2.905407e+002
8.129583e+002, 2.908369e+002
8.134404e+002, 2.911698e+002
8.139225e+002, 2.912672e+002
8.144046e+002, 2.911815e+002
8.148867e+002, 2.912499e+002
8.153688e+002, 2.914818e+002
8.158510e+002, 2.916751e+002
8.163331e+002, 2.916648e+002
8.168152e+002, 2.915813e+002
8.172973e+002, 2.917161e+002
8.177794e+002, 2.919889e+002
8.182615e+002, 2.920865e+002
8.187437e+002, 2.915177e+002
8.192258e+002, 2.910552e+002
8.197079e+002, 2.911101e+002
8.201900e+002, 2.916318e+002
8.206721e+002, 2.921372e+002
8.211542e+002, 2.927340e+002
8.216364e+002, 2.930736e+002
8.221185e+002, 2.930059e+002
8.226006e+002, 2.926151e+002
8.230827e+002, 2.920417e+002
8.235648e+002, 2.913374e+002
8.240469e+002, 2.908688e+002
8.245291e+002, 2.910374e+002
8.250112e+002, 2.913737e+002
8.254933e+002, 2.914550e+002
8.259754e+002, 2.913350e+002
8.264575e+002, 2.911834e+002
8.269396e+002, 2.908621e+002
8.274218e+002, 2.907580e+002
8.279039e+002, 2.911341e+002
8.283860e+002, 2.917764e+002
8.288681e+002, 2.919437e+002
8.293502e+002, 2.915850e+002
8.298323e+002, 2.909948e+002
8.303145e+002, 2.900496e+002
8.307966e+002, 2.891968e+002
8.312787e+002, 2.895340e+002
8.317608e+002, 2.907242e+002
8.322429e+002, 2.917145e+002
8.327250e+002, 2.920334e+002
8.332072e+002, 2.920140e+002
8.336893e+002, 2.916731e+002
8.341714e+002, 2.911329e+002
8.346535e+002, 2.906915e+002
8.351356e+002, 2.901677e+002
8.356177e+002, 2.901479e+002
8.360999e+002, 2.909737e+002
8.365820e+002, 2.921461e+002
8.370641e+002, 2.924270e+002
8.375462e+002, 2.919010e+002
8.380283e+002, 2.915527e+002
8.385104e+002, 2.917945e+002
8.389926e+002, 2.921602e+002
8.394747e+002, 2.921625e+002
8.399568e+002, 2.919161e+002
8.404389e+002, 2.916207e+002
8.409210e+002, 2.911509e+002
8.414031e+002, 2.908707e+002
8.418853e+002, 2.908456e+002
8.423674e+002, 2.910569e+002
8.428495e+002, 2.916163e+002
8.433316e+002, 2.926941e+002
8.438137e+002, 2.931839e+002
8.442958e+002, 2.927806e+002
8.447780e+002, 2.920592e+002
8.452601e+002, 2.918150e+002
8.457422e+002, 2.919249e+002
8.462243e+002, 2.921096e+002
8.467064e+002, 2.923486e+002
8.471885e+002, 2.925110e+002
8.476707e+002, 2.924928e+002
8.481528e+002, 2.923722e+002
8.486349e+002, 2.922303e+002
8.491170e+002, 2.919301e+002
8.495991e+002, 2.919514e+002
8.500812e+002, 2.925504e+002
8.505634e+002, 2.930904e+002
8.510455e+002, 2.926287e+002
8.515276e+002, 2.913453e+002
8.520097e+002, 2.906894e+002
8.524918e+002, 2.909135e+002
8.529739e+002, 2.912906e+002
8.534561e+002, 2.910800e+002
8.539382e+002, 2.906885e+002
8.544203e+002, 2.906171e+002
8.549024e+002, 2.911035e+002
8.553845e+002, 2.913890e+002
8.558666e+002, 2.910880e+002
8.563488e+002, 2.907479e+002
8.568309e+002, 2.907735e+002
8.573130e+002, 2.912408e+002
8.577951e+002, 2.914059e+002
8.582772e+002, 2.912264e+002
8.587593e+002, 2.909815e+002
8.592415e+002, 2.909489e+002
8.597236e+002, 2.909999e+002
8.602057e+002, 2.908697e+002
8.606878e+002, 2.905388e+002
8.611699e+002, 2.903158e+002
8.616520e+002, 2.905999e+002
8.621342e+002, 2.908311e+002
8.626163e+002, 2.905900e+002
8.630984e+002, 2.898624e+002
8.635805e+002, 2.893079e+002
8.640626e+002, 2.889528e+002
8.645447e+002, 2.887245e+002
8.650269e+002, 2.886246e+002
8.655090e+002, 2.886203e+002
8.659911e+002, 2.885771e+002
8.664732e+002, 2.885106e+002
8.669553e+002, 2.885114e+002
8.674374e+002, 2.887502e+002
8.679196e+002, 2.889783e+002
8.684017e+002, 2.890284e+002
8.688838e+002, 2.889044e+002
8.693659e+002, 2.886734e+002
8.698480e+002, 2.882137e+002
8.703301e+002, 2.878636e+002
8.708123e+002, 2.877401e+002
8.712944e+002, 2.877768e+002
8.717765e+002, 2.876903e+002
8.722586e+002, 2.875057e+002
8.727407e+002, 2.875553e+002
8.732228e+002, 2.882725e+002
8.737050e+002, 2.889587e+002
8.741871e+002, 2.888355e+002
8.746692e+002, 2.881395e+002
8.751513e+002, 2.873803e+002
8.756334e+002, 2.864215e+002
8.761155e+002, 2.858211e+002
8.765977e+002, 2.858137e+002
8.770798e+002, 2.861079e+002
8.775619e+002, 2.861816e+002
8.780440e+002, 2.860235e+002
8.785261e+002, 2.858351e+002
8.790082e+002, 2.856489e+002
8.794904e+002, 2.854668e+002
8.799725e+002, 2.853352e+002
8.804546e+002, 2.851932e+002
8.809367e+002, 2.849250e+002
8.814188e+002, 2.844491e+002
8.819009e+002, 2.839506e+002
8.823831e+002, 2.833392e+002
8.828652e+002, 2.828319e+002
8.833473e+002, 2.827076e+002
8.838294e+002, 2.831653e+002
8.843115e+002, 2.831902e+002
8.847936e+002, 2.826757e+002
8.852758e+002, 2.820113e+002
8.857579e+002, 2.814584e+002
8.862400e+002, 2.810872e+002
8.867221e+002, 2.811696e+002
8.872042e+002, 2.817683e+002
8.876863e+002, 2.822443e+002
8.881685e+002, 2.821729e+002
8.886506e+002, 2.818947e+002
8.891327e+002, 2.816041e+002
8.896148e+002, 2.812948e+002
8.900969e+002, 2.811324e+002
8.905790e+002, 2.811712e+002
8.910612e+002, 2.811950e+002
8.915433e+002, 2.810024e+002
8.920254e+002, 2.806869e+002
8.925075e+002, 2.806433e+002
8.929896e+002, 2.808412e+002
8.934717e+002, 2.810592e+002
8.939539e+002, 2.813093e+002
8.944360e+002, 2.814025e+002
8.949181e+002, 2.812024e+002
8.954002e+002, 2.807242e+002
8.958823e+002, 2.800728e+002
8.963644e+002, 2.789914e+002
8.968466e+002, 2.782839e+002
8.973287e+002, 2.783043e+002
8.978108e+002, 2.787260e+002
8.982929e+002, 2.785506e+002
8.987750e+002, 2.779059e+002
8.992571e+002, 2.776163e+002
8.997393e+002, 2.782433e+002
9.002214e+002, 2.789699e+002
9.007035e+002, 2.791543e+002
9.011856e+002, 2.789533e+002
9.016677e+002, 2.786270e+002
9.021498e+002, 2.781883e+002
9.026320e+002, 2.776256e+002
9.031141e+002, 2.767308e+002
9.035962e+002, 2.759459e+002
9.040783e+002, 2.760859e+002
9.045604e+002, 2.770531e+002
9.050425e+002, 2.775360e+002
9.055247e+002, 2.773171e+002
9.060068e+002, 2.767716e+002
9.064889e+002, 2.759677e+002
9.069710e+002, 2.751915e+002
9.074531e+002, 2.747887e+002
9.079352e+002, 2.748968e+002
9.084174e+002, 2.750819e+002
9.088995e+002, 2.754590e+002
9.093816e+002, 2.756869e+002
9.098637e+002, 2.754735e+002
9.103458e+002, 2.748187e+002
9.108279e+002, 2.744598e+002
9.113101e+002, 2.743990e+002
9.117922e+002, 2.744669e+002
9.122743e+002, 2.746156e+002
9.127564e+002, 2.747741e+002
9.132385e+002, 2.749160e+002
9.137206e+002, 2.750158e+002
9.142028e+002, 2.749305e+002
9.146849e+002, 2.744299e+002
9.151670e+002, 2.739423e+002
9.156491e+002, 2.735454e+002
9.161312e+002, 2.732699e+002
9.166133e+002, 2.732951e+002
9.170955e+002, 2.736295e+002
9.175776e+002, 2.739249e+002
9.180597e+002, 2.740908e+002
9.185418e+002, 2.741079e+002
9.190239e+002, 2.738275e+002
9.195060e+002, 2.734001e+002
9.199882e+002, 2.731200e+002
9.204703e+002, 2.732047e+002
9.209524e+002, 2.732801e+002
9.214345e+002, 2.732928e+002
9.219166e+002, 2.732539e+002
9.223987e+002, 2.731654e+002
9.228809e+002, 2.730197e+002
9.233630e+002, 2.728522e+002
9.238451e+002, 2.726448e+002
9.243272e+002, 2.725233e+002
9.248093e+002, 2.728338e+002
9.252914e+002, 2.732134e+002
9.257736e+002, 2.730656e+002
9.262557e+002, 2.721781e+002
9.267378e+002, 2.716066e+002
9.272199e+002, 2.720898e+002
9.277020e+002, 2.725635e+002
9.281841e+002, 2.723874e+002
9.286663e+002, 2.715663e+002
9.291484e+002, 2.714464e+002
9.296305e+002, 2.720614e+002
9.301126e+002, 2.726317e+002
9.305947e+002, 2.726026e+002
9.310768e+002, 2.722863e+002
9.315590e+002, 2.720676e+002
9.320411e+002, 2.719136e+002
9.325232e+002, 2.716775e+002
9.330053e+002, 2.710683e+002
9.334874e+002, 2.706683e+002
9.339695e+002, 2.707216e+002
9.344517e+002, 2.710206e+002
9.349338e+002, 2.709599e+002
9.354159e+002, 2.705271e+002
9.358980e+002, 2.705331e+002
9.363801e+002, 2.713744e+002
9.368622e+002, 2.722697e+002
9.373444e+002, 2.720370e+002
9.378265e+002, 2.713279e+002
9.383086e+002, 2.711341e+002
9.387907e+002, 2.720803e+002
9.392728e+002, 2.728351e+002
9.397549e+002, 2.731987e+002
9.402371e+002, 2.732738e+002
9.407192e+002, 2.730540e+002
9.412013e+002, 2.725239e+002
9.416834e+002, 2.721789e+002
9.421655e+002, 2.720361e+002
9.426476e+002, 2.720306e+002
9.431298e+002, 2.722503e+002
9.436119e+002, 2.724862e+002
9.440940e+002, 2.724228e+002
9.445761e+002, 2.720627e+002
9.450582e+002, 2.719530e+002
9.455403e+002, 2.726457e+002
9.460225e+002, 2.730599e+002
9.465046e+002, 2.726590e+002
9.469867e+002, 2.717665e+002
9.474688e+002, 2.718725e+002
9.479509e+002, 2.729051e+002
9.484330e+002, 2.737536e+002
9.489152e+002, 2.738998e+002
9.493973e+002, 2.737313e+002
9.498794e+002, 2.735549e+002
9.503615e+002, 2.733442e+002
9.508436e+002, 2.730516e+002
9.513257e+002, 2.722735e+002
9.518079e+002, 2.720280e+002
9.522900e+002, 2.725693e+002
9.527721e+002, 2.733863e+002
9.532542e+002, 2.740070e+002
9.537363e+002, 2.743954e+002
9.542184e+002, 2.740438e+002
9.547006e+002, 2.728102e+002
9.551827e+002, 2.719253e+002
9.556648e+002, 2.729610e+002
9.561469e+002, 2.743861e+002
9.566290e+002, 2.747031e+002
9.571111e+002, 2.735852e+002
9.575933e+002, 2.731180e+002
9.580754e+002, 2.737560e+002
9.585575e+002, 2.742779e+002
9.590396e+002, 2.739857e+002
9.595217e+002, 2.731762e+002
9.600038e+002, 2.728687e+002
9.604860e+002, 2.730009e+002
9.609681e+002, 2.732505e+002
9.614502e+002, 2.735545e+002
9.619323e+002, 2.738114e+002
9.624144e+002, 2.739018e+002
9.628965e+002, 2.739075e+002
9.633787e+002, 2.739904e+002
9.638608e+002, 2.740824e+002
9.643429e+002, 2.745255e+002
9.648250e+002, 2.755577e+002
9.653071e+002, 2.764819e+002
9.657892e+002, 2.759391e+002
9.662714e+002, 2.745850e+002
9.667535e+002, 2.742281e+002
9.672356e+002, 2.753458e+002
9.677177e+002, 2.761825e+002
9.681998e+002, 2.753354e+002
9.686819e+002, 2.742015e+002
9.691641e+002, 2.738361e+002
9.696462e+002, 2.743177e+002
9.701283e+002, 2.744723e+002
9.706104e+002, 2.742397e+002
9.710925e+002, 2.740260e+002
9.715746e+002, 2.740986e+002
9.720568e+002, 2.743248e+002
9.725389e+002, 2.746091e+002
9.730210e+002, 2.748574e+002
9.735031e+002, 2.747509e+002
9.739852e+002, 2.737015e+002
9.744673e+002, 2.728254e+002
9.749495e+002, 2.725150e+002
9.754316e+002, 2.725243e+002
9.759137e+002, 2.724295e+002
9.763958e+002, 2.722158e+002
9.768779e+002, 2.722800e+002
9.773600e+002, 2.727755e+002
9.778422e+002, 2.731883e+002
9.783243e+002, 2.728520e+002
9.788064e+002, 2.721674e+002
9.792885e+002, 2.716415e+002
9.797706e+002, 2.713984e+002
9.802527e+002, 2.711118e+002
9.807349e+002, 2.705208e+002
9.812170e+002, 2.701576e+002
9.816991e+002, 2.704398e+002
9.821812e+002, 2.712376e+002
9.826633e+002, 2.715690e+002
9.831454e+002, 2.714525e+002
9.836276e+002, 2.711301e+002
9.841097e+002, 2.704800e+002
9.845918e+002, 2.699141e+002
9.850739e+002, 2.698219e+002
9.855560e+002, 2.700565e+002
9.860381e+002, 2.702267e+002
9.865203e+002, 2.702229e+002
9.870024e+002, 2.703167e+002
9.874845e+002, 2.705735e+002
9.879666e+002, 2.708837e+002
9.884487e+002, 2.712007e+002
9.889308e+002, 2.714379e+002
9.894130e+002, 2.712437e+002
9.898951e+002, 2.704898e+002
9.903772e+002, 2.698825e+002
9.908593e+002, 2.699670e+002
9.913414e+002, 2.702519e+002
9.918235e+002, 2.704066e+002
9.923057e+002, 2.704215e+002
9.927878e+002, 2.703307e+002
9.932699e+002, 2.701093e+002
9.937520e+002, 2.699234e+002
9.942341e+002, 2.698317e+002
9.947162e+002, 2.698527e+002
9.951984e+002, 2.700694e+002
9.956805e+002, 2.704269e+002
9.961626e+002, 2.707698e+002
9.966447e+002, 2.713549e+002
9.971268e+002, 2.714820e+002
9.976089e+002, 2.706513e+002
9.980911e+002, 2.695988e+002
9.985732e+002, 2.694347e+002
9.990553e+002, 2.701472e+002
9.995374e+002, 2.707939e+002
1.000020e+003, 2.712666e+002
1.000502e+003, 2.715065e+002
1.000984e+003, 2.712843e+002
1.001466e+003, 2.709088e+002
1.001948e+003, 2.706820e+002
1.002430e+003, 2.706534e+002
1.002912e+003, 2.706111e+002
1.003394e+003, 2.705723e+002
1.003876e+003, 2.704455e+002
1.004359e+003, 2.701263e+002
1.004841e+003, 2.697346e+002
1.005323e+003, 2.697084e+002
1.005805e+003, 2.699631e+002
1.006287e+003, 2.701469e+002
1.006769e+003, 2.700076e+002
1.007251e+003, 2.698948e+002
1.007733e+003, 2.700238e+002
1.008216e+003, 2.702748e+002
1.008698e+003, 2.704848e+002
1.009180e+003, 2.706675e+002
1.009662e+003, 2.707476e+002
1.010144e+003, 2.707106e+002
1.010626e+003, 2.706168e+002
1.011108e+003, 2.705696e+002
1.011590e+003, 2.704815e+002
1.012072e+003, 2.701171e+002
1.012555e+003, 2.694872e+002
1.013037e+003, 2.691048e+002
1.013519e+003, 2.692414e+002
1.014001e+003, 2.695709e+002
1.014483e+003, 2.700907e+002
1.014965e+003, 2.706834e+002
1.015447e+003, 2.709560e+002
1.015929e+003, 2.709237e+002
1.016411e+003, 2.706951e+002
1.016894e+003, 2.702277e+002
1.017376e+003, 2.697653e+002
1.017858e+003, 2.693812e+002
1.018340e+003, 2.691991e+002
1.018822e+003, 2.694410e+002
1.019304e+003, 2.705135e+002
1.019786e+003, 2.709826e+002
1.020268e+003, 2.706891e+002
1.020751e+003, 2.702251e+002
1.021233e+003, 2.700415e+002
1.021715e+003, 2.700395e+002
1.022197e+003, 2.698979e+002
1.022679e+003, 2.696609e+002
1.023161e+003, 2.696233e+002
1.023643e+003, 2.702868e+002
1.024125e+003, 2.707771e+002
1.024607e+003, 2.705969e+002
1.025090e+003, 2.700598e+002
1.025572e+003, 2.697591e+002
1.026054e+003, 2.696915e+002
1.026536e+003, 2.699621e+002
1.027018e+003, 2.706740e+002
1.027500e+003, 2.713326e+002
1.027982e+003, 2.713271e+002
1.028464e+003, 2.710164e+002
1.028947e+003, 2.708019e+002
1.029429e+003, 2.707615e+002
1.029911e+003, 2.707813e+002
1.030393e+003, 2.709589e+002
1.030875e+003, 2.709892e+002
1.031357e+003, 2.706162e+002
1.031839e+003, 2.700251e+002
1.032321e+003, 2.699391e+002
1.032803e+003, 2.702398e+002
1.033286e+003, 2.704118e+002
1.033768e+003, 2.699135e+002
1.034250e+003, 2.695613e+002
1.034732e+003, 2.698590e+002
1.035214e+003, 2.704520e+002
1.035696e+003, 2.707266e+002
1.036178e+003, 2.705011e+002
1.036660e+003, 2.711136e+002
1.037143e+003, 2.727903e+002
1.037625e+003, 2.744284e+002
1.038107e+003, 2.750707e+002
1.038589e+003, 2.750749e+002
1.039071e+003, 2.748164e+002
1.039553e+003, 2.743289e+002
1.040035e+003, 2.736336e+002
1.040517e+003, 2.724060e+002
1.041000e+003, 2.714870e+002
1.041482e+003, 2.711892e+002
1.041964e+003, 2.712853e+002
1.042446e+003, 2.712869e+002
1.042928e+003, 2.712191e+002
1.043410e+003, 2.711679e+002
1.043892e+003, 2.711418e+002
1.044374e+003, 2.711955e+002
1.044856e+003, 2.715672e+002
1.045339e+003, 2.718879e+002
1.045821e+003, 2.718143e+002
1.046303e+003, 2.713000e+002
1.046785e+003, 2.706458e+002
1.047267e+003, 2.697986e+002
1.047749e+003, 2.692910e+002
1.048231e+003, 2.697548e+002
1.048713e+003, 2.705751e+002
1.049195e+003, 2.711452e+002
1.049677e+003, 2.714167e+002
1.050160e+003, 2.712587e+002
1.050642e+003, 2.698949e+002
1.051124e+003, 2.691764e+002
1.051606e+003, 2.695026e+002
1.052088e+003, 2.702384e+002
1.052570e+003, 2.705562e+002
1.053052e+003, 2.705489e+002
1.053534e+003, 2.705695e+002
1.054017e+003, 2.706615e+002
1.054499e+003, 2.706906e+002
1.054981e+003, 2.705233e+002
1.055463e+003, 2.703121e+002
1.055945e+003, 2.702072e+002
1.056427e+003, 2.701625e+002
1.056909e+003, 2.697803e+002
1.057391e+003, 2.690075e+002
1.057874e+003, 2.685835e+002
1.058356e+003, 2.689032e+002
1.058838e+003, 2.693855e+002
1.059320e+003, 2.692123e+002
1.059802e+003, 2.687893e+002
1.060284e+003, 2.687440e+002
1.060766e+003, 2.696119e+002
1.061248e+003, 2.698459e+002
1.061730e+003, 2.691539e+002
1.062213e+003, 2.683109e+002
1.062695e+003, 2.677881e+002
1.063177e+003, 2.675645e+002
1.063659e+003, 2.676157e+002
1.064141e+003, 2.679019e+002
1.064623e+003, 2.682499e+002
1.065105e+003, 2.687262e+002
1.065587e+003, 2.690634e+002
1.066070e+003, 2.691825e+002
1.066552e+003, 2.690799e+002
1.067034e+003, 2.686137e+002
1.067516e+003, 2.677603e+002
1.067998e+003, 2.673174e+002
1.068480e+003, 2.674017e+002
1.068962e+003, 2.676859e+002
1.069444e+003, 2.680380e+002
1.069927e+003, 2.683369e+002
1.070409e+003, 2.685105e+002
1.070891e+003, 2.685379e+002
1.071373e+003, 2.682795e+002
1.071855e+003, 2.675612e+002
1.072337e+003, 2.670724e+002
1.072819e+003, 2.670997e+002
1.073301e+003, 2.673526e+002
1.073783e+003, 2.672713e+002
1.074266e+003, 2.670208e+002
1.074748e+003, 2.669836e+002
1.075230e+003, 2.674149e+002
1.075712e+003, 2.676250e+002
1.076194e+003, 2.671935e+002
1.076676e+003, 2.667564e+002
1.077158e+003, 2.667004e+002
1.077640e+003, 2.669908e+002
1.078122e+003, 2.673404e+002
1.078604e+003, 2.677260e+002
1.079087e+003, 2.679556e+002
1.079569e+003, 2.678595e+002
1.080051e+003, 2.676380e+002
1.080533e+003, 2.673131e+002
1.081015e+003, 2.669747e+002
1.081497e+003, 2.667086e+002
1.081979e+003, 2.664142e+002
1.082461e+003, 2.668464e+002
1.082944e+003, 2.681853e+002
1.083426e+003, 2.693919e+002
1.083908e+003, 2.692809e+002
1.084390e+003, 2.685847e+002
1.084872e+003, 2.680611e+002
1.085354e+003, 2.677726e+002
1.085836e+003, 2.677545e+002
1.086318e+003, 2.682850e+002
1.086801e+003, 2.685186e+002
1.087283e+003, 2.681500e+002
1.087765e+003, 2.675544e+002
1.088247e+003, 2.674457e+002
1.088729e+003, 2.676664e+002
1.089211e+003, 2.678173e+002
1.089693e+003, 2.678130e+002
1.090175e+003, 2.677420e+002
1.090657e+003, 2.676629e+002
1.091140e+003, 2.674886e+002
1.091622e+003, 2.670824e+002
1.092104e+003, 2.665166e+002
1.092586e+003, 2.664781e+002
1.093068e+003, 2.669221e+002
1.093550e+003, 2.673205e+002
1.094032e+003, 2.675218e+002
1.094514e+003, 2.674772e+002
1.094997e+003, 2.668983e+002
1.095479e+003, 2.661735e+002
1.095961e+003, 2.658376e+002
1.096443e+003, 2.660287e+002
1.096925e+003, 2.661624e+002
1.097407e+003, 2.662200e+002
1.097889e+003, 2.663281e+002
1.098371e+003, 2.666093e+002
1.098854e+003, 2.669792e+002
1.099336e+003, 2.674457e+002
1.099818e+003, 2.679229e+002
1.100300e+003, 2.680890e+002
1.100782e+003, 2.677466e+002
1.101264e+003, 2.672713e+002
1.101746e+003, 2.666253e+002
1.102228e+003, 2.660341e+002
1.102710e+003, 2.658761e+002
1.103193e+003, 2.660002e+002
1.103675e+003, 2.660468e+002
1.104157e+003, 2.659744e+002
1.104639e+003, 2.658414e+002
1.105121e+003, 2.653961e+002
1.105603e+003, 2.652508e+002
1.106085e+003, 2.658177e+002
1.106567e+003, 2.667441e+002
1.107049e+003, 2.668238e+002
1.107531e+003, 2.661725e+002
1.108014e+003, 2.657133e+002
1.108496e+003, 2.657363e+002
1.108978e+003, 2.658317e+002
1.109460e+003, 2.656489e+002
1.109942e+003, 2.654516e+002
1.110424e+003, 2.655037e+002
1.110906e+003, 2.658178e+002
1.111388e+003, 2.660162e+002
1.111871e+003, 2.661006e+002
1.112353e+003, 2.660298e+002
1.112835e+003, 2.657317e+002
1.113317e+003, 2.653373e+002
1.113799e+003, 2.646754e+002
1.114281e+003, 2.641232e+002
1.114763e+003, 2.643809e+002
1.115245e+003, 2.665358e+002
1.115728e+003, 2.672967e+002
1.116210e+003, 2.663042e+002
1.116692e+003, 2.651151e+002
1.117174e+003, 2.651133e+002
1.117656e+003, 2.657541e+002
1.118138e+003, 2.661547e+002
1.118620e+003, 2.663073e+002
1.119102e+003, 2.663016e+002
1.119584e+003, 2.659286e+002
1.120067e+003, 2.657402e+002
1.120549e+003, 2.659053e+002
1.121031e+003, 2.661406e+002
1.121513e+003, 2.658681e+002
1.121995e+003, 2.653481e+002
1.122477e+003, 2.656675e+002
1.122959e+003, 2.669051e+002
1.123441e+003, 2.678740e+002
1.123924e+003, 2.679475e+002
1.124406e+003, 2.675760e+002
1.124888e+003, 2.668147e+002
1.125370e+003, 2.658688e+002
1.125852e+003, 2.653345e+002
1.126334e+003, 2.651779e+002
1.126816e+003, 2.649919e+002
1.127298e+003, 2.646726e+002
1.127781e+003, 2.643797e+002
1.128263e+003, 2.641888e+002
1.128745e+003, 2.641153e+002
1.129227e+003, 2.642253e+002
1.129709e+003, 2.645028e+002
1.130191e+003, 2.646059e+002
1.130673e+003, 2.645162e+002
1.131155e+003, 2.645727e+002
1.131637e+003, 2.650183e+002
1.132120e+003, 2.654743e+002
1.132602e+003, 2.653929e+002
1.133084e+003, 2.651299e+002
1.133566e+003, 2.652551e+002
1.134048e+003, 2.661260e+002
1.134530e+003, 2.662693e+002
1.135012e+003, 2.654960e+002
1.135494e+003, 2.647472e+002
1.135976e+003, 2.648058e+002
1.136458e+003, 2.651499e+002
1.136941e+003, 2.648120e+002
1.137423e+003, 2.640895e+002
1.137905e+003, 2.637054e+002
1.138387e+003, 2.642880e+002
1.138869e+003, 2.645264e+002
1.139351e+003, 2.641838e+002
1.139833e+003, 2.638608e+002
1.140315e+003, 2.642631e+002
1.140798e+003, 2.650995e+002
1.141280e+003, 2.657870e+002
1.141762e+003, 2.662747e+002
1.142244e+003, 2.664257e+002
1.142726e+003, 2.658353e+002
1.143208e+003, 2.653467e+002
1.143690e+003, 2.651018e+002
1.144172e+003, 2.650957e+002
1.144655e+003, 2.655211e+002
1.145137e+003, 2.661928e+002
1.145619e+003, 2.662978e+002
1.146101e+003, 2.657311e+002
1.146583e+003, 2.651795e+002
1.147065e+003, 2.649173e+002
1.147547e+003, 2.649007e+002
1.148029e+003, 2.652552e+002
1.148511e+003, 2.657506e+002
1.148994e+003, 2.655639e+002
1.149476e+003, 2.648040e+002
1.149958e+003, 2.645239e+002
1.150440e+003, 2.650640e+002
1.150922e+003, 2.655942e+002
1.151404e+003, 2.654979e+002
1.151886e+003, 2.651606e+002
1.152368e+003, 2.647699e+002
1.152851e+003, 2.643695e+002
1.153333e+003, 2.644289e+002
1.153815e+003, 2.649471e+002
1.154297e+003, 2.653963e+002
1.154779e+003, 2.655138e+002
1.155261e+003, 2.656295e+002
1.155743e+003, 2.663300e+002
1.156225e+003, 2.670257e+002
1.156708e+003, 2.668394e+002
1.157190e+003, 2.655369e+002
1.157672e+003, 2.651961e+002
1.158154e+003, 2.659479e+002
1.158636e+003, 2.665349e+002
1.159118e+003, 2.660827e+002
1.159600e+003, 2.653080e+002
1.160082e+003, 2.649496e+002
1.160564e+003, 2.648559e+002
1.161047e+003, 2.647543e+002
1.161529e+003, 2.644776e+002
1.162011e+003, 2.645982e+002
1.162493e+003, 2.652635e+002
1.162975e+003, 2.657337e+002
1.163457e+003, 2.651845e+002
1.163939e+003, 2.642715e+002
1.164421e+003, 2.638128e+002
1.164903e+003, 2.637715e+002
1.165385e+003, 2.640153e+002
1.165868e+003, 2.648687e+002
1.166350e+003, 2.652901e+002
1.166832e+003, 2.650945e+002
1.167314e+003, 2.647331e+002
1.167796e+003, 2.646388e+002
1.168278e+003, 2.647210e+002
1.168760e+003, 2.647762e+002
1.169242e+003, 2.648344e+002
1.169725e+003, 2.651470e+002
1.170207e+003, 2.662043e+002
1.170689e+003, 2.669262e+002
1.171171e+003, 2.671497e+002
1.171653e+003, 2.669828e+002
1.172135e+003, 2.663536e+002
1.172617e+003, 2.655095e+002
1.173099e+003, 2.649240e+002
1.173582e+003, 2.646601e+002
1.174064e+003, 2.648074e+002
1.174546e+003, 2.659391e+002
1.175028e+003, 2.667964e+002
1.175510e+003, 2.670488e+002
1.175992e+003, 2.668490e+002
1.176474e+003, 2.662513e+002
1.176956e+003, 2.654684e+002
1.177438e+003, 2.652192e+002
1.177921e+003, 2.657071e+002
1.178403e+003, 2.660869e+002
1.178885e+003, 2.658799e+002
1.179367e+003, 2.656229e+002
1.179849e+003, 2.654043e+002
1.180331e+003, 2.653724e+002
1.180813e+003, 2.664349e+002
1.181295e+003, 2.681383e+002
1.181778e+003, 2.685994e+002
1.182260e+003, 2.668965e+002
1.182742e+003, 2.654139e+002
1.183224e+003, 2.653560e+002
1.183706e+003, 2.657242e+002
1.184188e+003, 2.660332e+002
1.184670e+003, 2.662827e+002
1.185152e+003, 2.664910e+002
1.185635e+003, 2.666348e+002
1.186117e+003, 2.665828e+002
1.186599e+003, 2.661314e+002
1.187081e+003, 2.657947e+002
1.187563e+003, 2.659605e+002
1.188045e+003, 2.662298e+002
1.188527e+003, 2.663182e+002
1.189009e+003, 2.662349e+002
1.189491e+003, 2.660144e+002
1.189974e+003, 2.656973e+002
1.190456e+003, 2.655818e+002
1.190938e+003, 2.660028e+002
1.191420e+003, 2.664085e+002
1.191902e+003, 2.664975e+002
1.192384e+003, 2.664608e+002
1.192866e+003, 2.664677e+002
1.193348e+003, 2.665177e+002
1.193830e+003, 2.666787e+002
1.194313e+003, 2.669439e+002
1.194795e+003, 2.672339e+002
1.195277e+003, 2.676842e+002
1.195759e+003, 2.679407e+002
1.196241e+003, 2.677302e+002
1.196723e+003, 2.672493e+002
1.197205e+003, 2.666585e+002
1.197687e+003, 2.659463e+002
1.198169e+003, 2.656895e+002
1.198652e+003, 2.659028e+002
1.199134e+003, 2.661804e+002
1.199616e+003, 2.662440e+002
1.200098e+003, 2.662956e+002
1.200580e+003, 2.665258e+002
1.201062e+003, 2.667906e+002
1.201544e+003, 2.668110e+002
1.202026e+003, 2.665775e+002
1.202509e+003, 2.665532e+002
1.202991e+003, 2.667803e+002
1.203473e+003, 2.669148e+002
1.203955e+003, 2.665327e+002
1.204437e+003, 2.661434e+002
1.204919e+003, 2.660459e+002
1.205401e+003, 2.661924e+002
1.205883e+003, 2.665664e+002
1.206365e+003, 2.671788e+002
1.206848e+003, 2.674492e+002
1.207330e+003, 2.672937e+002
1.207812e+003, 2.669073e+002
1.208294e+003, 2.659110e+002
1.208776e+003, 2.652263e+002
1.209258e+003, 2.659059e+002
1.209740e+003, 2.673619e+002
1.210222e+003, 2.679302e+002
1.210705e+003, 2.676083e+002
1.211187e+003, 2.674163e+002
1.211669e+003, 2.675733e+002
1.212151e+003, 2.675728e+002
1.212633e+003, 2.666241e+002
1.213115e+003, 2.657166e+002
1.213597e+003, 2.657872e+002
1.214079e+003, 2.665179e+002
1.214562e+003, 2.666607e+002
1.215044e+003, 2.662390e+002
1.215526e+003, 2.663646e+002
1.216008e+003, 2.674176e+002
1.216490e+003, 2.683629e+002
1.216972e+003, 2.682692e+002
1.217454e+003, 2.678399e+002
1.217936e+003, 2.675671e+002
1.218418e+003, 2.674308e+002
1.218901e+003, 2.672583e+002
1.219383e+003, 2.670519e+002
1.219865e+003, 2.669855e+002
1.220347e+003, 2.671444e+002
1.220829e+003, 2.672961e+002
1.221311e+003, 2.672455e+002
1.221793e+003, 2.671379e+002
1.222275e+003, 2.671306e+002
1.222757e+003, 2.671827e+002
1.223240e+003, 2.668082e+002
1.223722e+003, 2.660729e+002
1.224204e+003, 2.658700e+002
1.224686e+003, 2.667098e+002
1.225168e+003, 2.675322e+002
1.225650e+003, 2.675793e+002
1.226132e+003, 2.673688e+002
1.226614e+003, 2.673022e+002
1.227096e+003, 2.673651e+002
1.227579e+003, 2.674381e+002
1.228061e+003, 2.675063e+002
1.228543e+003, 2.674003e+002
1.229025e+003, 2.669176e+002
1.229507e+003, 2.665730e+002
1.229989e+003, 2.667482e+002
1.230471e+003, 2.671251e+002
1.230953e+003, 2.675269e+002
1.231436e+003, 2.679138e+002
1.231918e+003, 2.677953e+002
1.232400e+003, 2.672488e+002
1.232882e+003, 2.668095e+002
1.233364e+003, 2.666249e+002
1.233846e+003, 2.667268e+002
1.234328e+003, 2.676782e+002
1.234810e+003, 2.684015e+002
1.235292e+003, 2.678610e+002
1.235775e+003, 2.663223e+002
1.236257e+003, 2.660579e+002
1.236739e+003, 2.668556e+002
1.237221e+003, 2.675596e+002
1.237703e+003, 2.674888e+002
1.238185e+003, 2.675345e+002
1.238667e+003, 2.682496e+002
1.239149e+003, 2.689837e+002
1.239632e+003, 2.692916e+002
1.240114e+003, 2.692107e+002
1.240596e+003, 2.688932e+002
1.241078e+003, 2.684002e+002
1.241560e+003, 2.679777e+002
1.242042e+003, 2.676496e+002
1.242524e+003, 2.675477e+002
1.243006e+003, 2.677140e+002
1.243489e+003, 2.680858e+002
1.243971e+003, 2.687975e+002
1.244453e+003, 2.696730e+002
1.244935e+003, 2.698857e+002
1.245417e+003, 2.695677e+002
1.245899e+003, 2.692089e+002
1.246381e+003, 2.689735e+002
1.246863e+003, 2.687689e+002
1.247345e+003, 2.685702e+002
1.247828e+003, 2.684161e+002
1.248310e+003, 2.683666e+002
1.248792e+003, 2.683840e+002
1.249274e+003, 2.683188e+002
1.249756e+003, 2.682247e+002
1.250238e+003, 2.682821e+002
1.250720e+003, 2.688130e+002
1.251202e+003, 2.690868e+002
1.251684e+003, 2.689856e+002
1.252167e+003, 2.687792e+002
1.252649e+003, 2.686182e+002
1.253131e+003, 2.685542e+002
1.253613e+003, 2.687574e+002
1.254095e+003, 2.691465e+002
1.254577e+003, 2.694692e+002
1.255059e+003, 2.699045e+002
1.255541e+003, 2.696352e+002
1.256023e+003, 2.683145e+002
1.256506e+003, 2.673347e+002
1.256988e+003, 2.685224e+002
1.257470e+003, 2.703847e+002
1.257952e+003, 2.707270e+002
1.258434e+003, 2.699542e+002
1.258916e+003, 2.693963e+002
1.259398e+003, 2.693450e+002
1.259880e+003, 2.691110e+002
1.260363e+003, 2.686076e+002
1.260845e+003, 2.682252e+002
1.261327e+003, 2.684326e+002
1.261809e+003, 2.688110e+002
1.262291e+003, 2.689050e+002
1.262773e+003, 2.688215e+002
1.263255e+003, 2.689183e+002
1.263737e+003, 2.693191e+002
1.264219e+003, 2.692693e+002
1.264702e+003, 2.686819e+002
1.265184e+003, 2.681798e+002
1.265666e+003, 2.683512e+002
1.266148e+003, 2.686913e+002
1.266630e+003, 2.689535e+002
1.267112e+003, 2.690418e+002
1.267594e+003, 2.687201e+002
1.268076e+003, 2.679323e+002
1.268559e+003, 2.676940e+002
1.269041e+003, 2.680687e+002
1.269523e+003, 2.684735e+002
1.270005e+003, 2.685848e+002
1.270487e+003, 2.685289e+002
1.270969e+003, 2.682468e+002
1.271451e+003, 2.679139e+002
1.271933e+003, 2.677560e+002
1.272416e+003, 2.677662e+002
1.272898e+003, 2.679211e+002
1.273380e+003, 2.681965e+002
1.273862e+003, 2.683552e+002
1.274344e+003, 2.680866e+002
1.274826e+003, 2.678934e+002
1.275308e+003, 2.679492e+002
1.275790e+003, 2.681582e+002
1.276272e+003, 2.684194e+002
1.276755e+003, 2.687324e+002
1.277237e+003, 2.692173e+002
1.277719e+003, 2.698098e+002
1.278201e+003, 2.700700e+002
1.278683e+003, 2.694544e+002
1.279165e+003, 2.689554e+002
1.279647e+003, 2.687112e+002
1.280129e+003, 2.687147e+002
1.280611e+003, 2.692590e+002
1.281094e+003, 2.699152e+002
1.281576e+003, 2.695619e+002
1.282058e+003, 2.683882e+002
1.282540e+003, 2.675780e+002
1.283022e+003, 2.673216e+002
1.283504e+003, 2.678452e+002
1.283986e+003, 2.694616e+002
1.284468e+003, 2.708506e+002
1.284950e+003, 2.702554e+002
1.285433e+003, 2.689499e+002
1.285915e+003, 2.685436e+002
1.286397e+003, 2.689312e+002
1.286879e+003, 2.694859e+002
1.287361e+003, 2.703100e+002
1.287843e+003, 2.705372e+002
1.288325e+003, 2.700163e+002
1.288807e+003, 2.695244e+002
1.289290e+003, 2.699442e+002
1.289772e+003, 2.704881e+002
1.290254e+003, 2.703752e+002
1.290736e+003, 2.698804e+002
1.291218e+003, 2.697153e+002
1.291700e+003, 2.699026e+002
1.292182e+003, 2.701367e+002
1.292664e+003, 2.703938e+002
1.293146e+003, 2.705756e+002
1.293629e+003, 2.706154e+002
1.294111e+003, 2.705552e+002
1.294593e+003, 2.704106e+002
1.295075e+003, 2.701772e+002
1.295557e+003, 2.697975e+002
1.296039e+003, 2.692989e+002
1.296521e+003, 2.688090e+002
1.297003e+003, 2.683697e+002
1.297486e+003, 2.682990e+002
1.297968e+003, 2.692333e+002
1.298450e+003, 2.699785e+002
1.298932e+003, 2.702447e+002
1.299414e+003, 2.702337e+002
1.299896e+003, 2.701219e+002
1.300378e+003, 2.699259e+002
1.300860e+003, 2.695978e+002
1.301343e+003, 2.692204e+002
1.301825e+003, 2.690961e+002
##END=



