##NAMES=Fredrikssonite
##RRUFFID=R130112
##IDEAL CHEMISTRY=Mg_2_Mn^3+^O_2_(BO_3_)
##LOCALITY=Langban, Filipstad, Varmland, Sweden
##OWNER=RRUFF
##SOURCE=Rock Currier
##DESCRIPTION=Opaque reddish black striated prismatic crystals, associated with calcite and granular hausmannite.
##STATUS=The identification of this mineral has been confirmed by single-crystal X-ray diffraction.
##URL=rruff.info/R130112
8.936163e+001, 0.000000e+000
8.984375e+001, 6.320561e+001
9.032587e+001, 6.351458e+001
9.080798e+001, 6.358705e+001
9.129010e+001, 6.336968e+001
9.177222e+001, 6.297631e+001
9.225433e+001, 6.248022e+001
9.273645e+001, 6.189155e+001
9.321857e+001, 6.134301e+001
9.370068e+001, 6.113961e+001
9.418280e+001, 6.111507e+001
9.466492e+001, 6.070942e+001
9.514703e+001, 5.949754e+001
9.562915e+001, 5.782301e+001
9.611127e+001, 5.665919e+001
9.659338e+001, 5.607057e+001
9.707550e+001, 5.570946e+001
9.755762e+001, 5.517633e+001
9.803973e+001, 5.446566e+001
9.852185e+001, 5.373602e+001
9.900397e+001, 5.295861e+001
9.948608e+001, 5.212352e+001
9.996820e+001, 5.169713e+001
1.004503e+002, 5.185146e+001
1.009324e+002, 5.221217e+001
1.014146e+002, 5.195120e+001
1.018967e+002, 5.089503e+001
1.023788e+002, 4.970636e+001
1.028609e+002, 4.867791e+001
1.033430e+002, 4.779829e+001
1.038251e+002, 4.716405e+001
1.043073e+002, 4.688415e+001
1.047894e+002, 4.687395e+001
1.052715e+002, 4.668725e+001
1.057536e+002, 4.623325e+001
1.062357e+002, 4.570128e+001
1.067178e+002, 4.521448e+001
1.072000e+002, 4.481109e+001
1.076821e+002, 4.440385e+001
1.081642e+002, 4.398903e+001
1.086463e+002, 4.356765e+001
1.091284e+002, 4.312440e+001
1.096105e+002, 4.257575e+001
1.100927e+002, 4.204073e+001
1.105748e+002, 4.163566e+001
1.110569e+002, 4.160278e+001
1.115390e+002, 4.147368e+001
1.120211e+002, 4.109990e+001
1.125032e+002, 4.038418e+001
1.129854e+002, 3.976610e+001
1.134675e+002, 3.934129e+001
1.139496e+002, 3.904344e+001
1.144317e+002, 3.877103e+001
1.149138e+002, 3.846802e+001
1.153959e+002, 3.821325e+001
1.158781e+002, 3.808350e+001
1.163602e+002, 3.823246e+001
1.168423e+002, 3.820299e+001
1.173244e+002, 3.767842e+001
1.178065e+002, 3.683345e+001
1.182886e+002, 3.611271e+001
1.187708e+002, 3.583742e+001
1.192529e+002, 3.569218e+001
1.197350e+002, 3.542384e+001
1.202171e+002, 3.483784e+001
1.206992e+002, 3.426751e+001
1.211813e+002, 3.401152e+001
1.216635e+002, 3.400665e+001
1.221456e+002, 3.390976e+001
1.226277e+002, 3.336215e+001
1.231098e+002, 3.262786e+001
1.235919e+002, 3.205714e+001
1.240740e+002, 3.188344e+001
1.245562e+002, 3.186139e+001
1.250383e+002, 3.175868e+001
1.255204e+002, 3.157542e+001
1.260025e+002, 3.133863e+001
1.264846e+002, 3.102364e+001
1.269667e+002, 3.066711e+001
1.274489e+002, 3.036064e+001
1.279310e+002, 3.021900e+001
1.284131e+002, 3.014206e+001
1.288952e+002, 2.992936e+001
1.293773e+002, 2.956431e+001
1.298594e+002, 2.911231e+001
1.303416e+002, 2.855957e+001
1.308237e+002, 2.793971e+001
1.313058e+002, 2.746084e+001
1.317879e+002, 2.728235e+001
1.322700e+002, 2.735648e+001
1.327521e+002, 2.750271e+001
1.332343e+002, 2.778169e+001
1.337164e+002, 2.799578e+001
1.341985e+002, 2.764387e+001
1.346806e+002, 2.667622e+001
1.351627e+002, 2.579763e+001
1.356448e+002, 2.559212e+001
1.361270e+002, 2.607100e+001
1.366091e+002, 2.631146e+001
1.370912e+002, 2.614952e+001
1.375733e+002, 2.569926e+001
1.380554e+002, 2.532509e+001
1.385375e+002, 2.503895e+001
1.390197e+002, 2.479176e+001
1.395018e+002, 2.453591e+001
1.399839e+002, 2.426141e+001
1.404660e+002, 2.403784e+001
1.409481e+002, 2.390285e+001
1.414302e+002, 2.384467e+001
1.419124e+002, 2.368067e+001
1.423945e+002, 2.333814e+001
1.428766e+002, 2.299097e+001
1.433587e+002, 2.283437e+001
1.438408e+002, 2.299410e+001
1.443229e+002, 2.309015e+001
1.448051e+002, 2.303744e+001
1.452872e+002, 2.281869e+001
1.457693e+002, 2.256141e+001
1.462514e+002, 2.219625e+001
1.467335e+002, 2.183231e+001
1.472156e+002, 2.160989e+001
1.476978e+002, 2.164644e+001
1.481799e+002, 2.168373e+001
1.486620e+002, 2.167943e+001
1.491441e+002, 2.168107e+001
1.496262e+002, 2.150564e+001
1.501083e+002, 2.090622e+001
1.505905e+002, 2.017165e+001
1.510726e+002, 1.981020e+001
1.515547e+002, 2.036254e+001
1.520368e+002, 2.082386e+001
1.525189e+002, 2.086550e+001
1.530010e+002, 2.015299e+001
1.534832e+002, 1.958875e+001
1.539653e+002, 1.922356e+001
1.544474e+002, 1.904453e+001
1.549295e+002, 1.902062e+001
1.554116e+002, 1.947098e+001
1.558937e+002, 1.984227e+001
1.563759e+002, 1.986127e+001
1.568580e+002, 1.911836e+001
1.573401e+002, 1.852369e+001
1.578222e+002, 1.830215e+001
1.583043e+002, 1.838024e+001
1.587864e+002, 1.848691e+001
1.592686e+002, 1.863955e+001
1.597507e+002, 1.874496e+001
1.602328e+002, 1.874346e+001
1.607149e+002, 1.858355e+001
1.611970e+002, 1.835258e+001
1.616791e+002, 1.801901e+001
1.621613e+002, 1.761031e+001
1.626434e+002, 1.727623e+001
1.631255e+002, 1.707098e+001
1.636076e+002, 1.697393e+001
1.640897e+002, 1.696672e+001
1.645718e+002, 1.719960e+001
1.650540e+002, 1.739195e+001
1.655361e+002, 1.736099e+001
1.660182e+002, 1.711464e+001
1.665003e+002, 1.688283e+001
1.669824e+002, 1.681374e+001
1.674645e+002, 1.682203e+001
1.679467e+002, 1.680309e+001
1.684288e+002, 1.674355e+001
1.689109e+002, 1.662449e+001
1.693930e+002, 1.635166e+001
1.698751e+002, 1.590983e+001
1.703572e+002, 1.561404e+001
1.708394e+002, 1.586477e+001
1.713215e+002, 1.639003e+001
1.718036e+002, 1.672701e+001
1.722857e+002, 1.645860e+001
1.727678e+002, 1.601981e+001
1.732499e+002, 1.583305e+001
1.737321e+002, 1.593732e+001
1.742142e+002, 1.619634e+001
1.746963e+002, 1.656361e+001
1.751784e+002, 1.700459e+001
1.756605e+002, 1.743931e+001
1.761426e+002, 1.785440e+001
1.766248e+002, 1.822632e+001
1.771069e+002, 1.849753e+001
1.775890e+002, 1.864395e+001
1.780711e+002, 1.877557e+001
1.785532e+002, 1.896622e+001
1.790353e+002, 1.923004e+001
1.795175e+002, 1.960941e+001
1.799996e+002, 2.025265e+001
1.804817e+002, 2.101165e+001
1.809638e+002, 2.159237e+001
1.814459e+002, 2.192773e+001
1.819280e+002, 2.216999e+001
1.824102e+002, 2.249036e+001
1.828923e+002, 2.288472e+001
1.833744e+002, 2.336625e+001
1.838565e+002, 2.403192e+001
1.843386e+002, 2.479910e+001
1.848207e+002, 2.540429e+001
1.853029e+002, 2.580260e+001
1.857850e+002, 2.605441e+001
1.862671e+002, 2.621413e+001
1.867492e+002, 2.628692e+001
1.872313e+002, 2.639420e+001
1.877134e+002, 2.659961e+001
1.881956e+002, 2.690593e+001
1.886777e+002, 2.735182e+001
1.891598e+002, 2.802980e+001
1.896419e+002, 2.875518e+001
1.901240e+002, 2.903890e+001
1.906061e+002, 2.886187e+001
1.910883e+002, 2.872552e+001
1.915704e+002, 2.909614e+001
1.920525e+002, 2.991932e+001
1.925346e+002, 3.059880e+001
1.930167e+002, 3.095860e+001
1.934988e+002, 3.113656e+001
1.939810e+002, 3.150656e+001
1.944631e+002, 3.206834e+001
1.949452e+002, 3.267841e+001
1.954273e+002, 3.307741e+001
1.959094e+002, 3.327221e+001
1.963915e+002, 3.350479e+001
1.968737e+002, 3.382953e+001
1.973558e+002, 3.421936e+001
1.978379e+002, 3.462108e+001
1.983200e+002, 3.505730e+001
1.988021e+002, 3.540704e+001
1.992842e+002, 3.547327e+001
1.997664e+002, 3.523295e+001
2.002485e+002, 3.521018e+001
2.007306e+002, 3.561231e+001
2.012127e+002, 3.632162e+001
2.016948e+002, 3.664584e+001
2.021769e+002, 3.651160e+001
2.026591e+002, 3.624362e+001
2.031412e+002, 3.614595e+001
2.036233e+002, 3.623589e+001
2.041054e+002, 3.635299e+001
2.045875e+002, 3.650035e+001
2.050696e+002, 3.665944e+001
2.055518e+002, 3.656356e+001
2.060339e+002, 3.605957e+001
2.065160e+002, 3.564014e+001
2.069981e+002, 3.598978e+001
2.074802e+002, 3.735966e+001
2.079623e+002, 3.827998e+001
2.084445e+002, 3.824543e+001
2.089266e+002, 3.731136e+001
2.094087e+002, 3.687522e+001
2.098908e+002, 3.708543e+001
2.103729e+002, 3.750454e+001
2.108550e+002, 3.764494e+001
2.113372e+002, 3.742409e+001
2.118193e+002, 3.721116e+001
2.123014e+002, 3.706202e+001
2.127835e+002, 3.697596e+001
2.132656e+002, 3.710152e+001
2.137477e+002, 3.753687e+001
2.142299e+002, 3.804474e+001
2.147120e+002, 3.832619e+001
2.151941e+002, 3.830595e+001
2.156762e+002, 3.828084e+001
2.161583e+002, 3.833818e+001
2.166404e+002, 3.848524e+001
2.171226e+002, 3.855613e+001
2.176047e+002, 3.852742e+001
2.180868e+002, 3.845080e+001
2.185689e+002, 3.837125e+001
2.190510e+002, 3.824760e+001
2.195331e+002, 3.821957e+001
2.200153e+002, 3.834253e+001
2.204974e+002, 3.863380e+001
2.209795e+002, 3.891484e+001
2.214616e+002, 3.926754e+001
2.219437e+002, 3.953172e+001
2.224258e+002, 3.946013e+001
2.229080e+002, 3.884393e+001
2.233901e+002, 3.834279e+001
2.238722e+002, 3.814873e+001
2.243543e+002, 3.828625e+001
2.248364e+002, 3.848995e+001
2.253185e+002, 3.881919e+001
2.258007e+002, 3.915588e+001
2.262828e+002, 3.933866e+001
2.267649e+002, 3.927497e+001
2.272470e+002, 3.923635e+001
2.277291e+002, 3.931165e+001
2.282112e+002, 3.952646e+001
2.286934e+002, 3.965972e+001
2.291755e+002, 3.969938e+001
2.296576e+002, 3.966856e+001
2.301397e+002, 3.958435e+001
2.306218e+002, 3.939187e+001
2.311039e+002, 3.924455e+001
2.315861e+002, 3.917598e+001
2.320682e+002, 3.918398e+001
2.325503e+002, 3.930005e+001
2.330324e+002, 3.963470e+001
2.335145e+002, 3.998629e+001
2.339966e+002, 4.007230e+001
2.344788e+002, 3.968808e+001
2.349609e+002, 3.940814e+001
2.354430e+002, 3.942440e+001
2.359251e+002, 3.980145e+001
2.364072e+002, 4.001868e+001
2.368893e+002, 4.003276e+001
2.373715e+002, 3.992329e+001
2.378536e+002, 3.976079e+001
2.383357e+002, 3.941388e+001
2.388178e+002, 3.924380e+001
2.392999e+002, 3.939728e+001
2.397820e+002, 3.993323e+001
2.402642e+002, 4.032572e+001
2.407463e+002, 4.053294e+001
2.412284e+002, 4.063076e+001
2.417105e+002, 4.069751e+001
2.421926e+002, 4.068323e+001
2.426747e+002, 4.072949e+001
2.431569e+002, 4.090346e+001
2.436390e+002, 4.123663e+001
2.441211e+002, 4.142755e+001
2.446032e+002, 4.139738e+001
2.450853e+002, 4.129710e+001
2.455674e+002, 4.131371e+001
2.460496e+002, 4.154404e+001
2.465317e+002, 4.171159e+001
2.470138e+002, 4.173344e+001
2.474959e+002, 4.159193e+001
2.479780e+002, 4.151051e+001
2.484601e+002, 4.147917e+001
2.489423e+002, 4.151726e+001
2.494244e+002, 4.167854e+001
2.499065e+002, 4.211086e+001
2.503886e+002, 4.237281e+001
2.508707e+002, 4.232062e+001
2.513528e+002, 4.193813e+001
2.518350e+002, 4.162396e+001
2.523171e+002, 4.132458e+001
2.527992e+002, 4.115332e+001
2.532813e+002, 4.126834e+001
2.537634e+002, 4.184089e+001
2.542455e+002, 4.231902e+001
2.547277e+002, 4.254939e+001
2.552098e+002, 4.252618e+001
2.556919e+002, 4.265455e+001
2.561740e+002, 4.301754e+001
2.566561e+002, 4.342622e+001
2.571382e+002, 4.368702e+001
2.576204e+002, 4.373576e+001
2.581025e+002, 4.379607e+001
2.585846e+002, 4.391088e+001
2.590667e+002, 4.407769e+001
2.595488e+002, 4.423523e+001
2.600309e+002, 4.436658e+001
2.605131e+002, 4.450930e+001
2.609952e+002, 4.470365e+001
2.614773e+002, 4.498267e+001
2.619594e+002, 4.522023e+001
2.624415e+002, 4.535934e+001
2.629236e+002, 4.542235e+001
2.634058e+002, 4.564527e+001
2.638879e+002, 4.611603e+001
2.643700e+002, 4.660258e+001
2.648521e+002, 4.690198e+001
2.653342e+002, 4.692441e+001
2.658163e+002, 4.706470e+001
2.662985e+002, 4.742867e+001
2.667806e+002, 4.795993e+001
2.672627e+002, 4.834509e+001
2.677448e+002, 4.855619e+001
2.682269e+002, 4.867307e+001
2.687090e+002, 4.870343e+001
2.691912e+002, 4.858266e+001
2.696733e+002, 4.867027e+001
2.701554e+002, 4.907764e+001
2.706375e+002, 4.970922e+001
2.711196e+002, 5.014537e+001
2.716017e+002, 5.031891e+001
2.720839e+002, 5.048061e+001
2.725660e+002, 5.084303e+001
2.730481e+002, 5.146767e+001
2.735302e+002, 5.188689e+001
2.740123e+002, 5.201204e+001
2.744944e+002, 5.193653e+001
2.749766e+002, 5.193626e+001
2.754587e+002, 5.203104e+001
2.759408e+002, 5.212577e+001
2.764229e+002, 5.213231e+001
2.769050e+002, 5.203516e+001
2.773871e+002, 5.205277e+001
2.778693e+002, 5.221680e+001
2.783514e+002, 5.248537e+001
2.788335e+002, 5.276637e+001
2.793156e+002, 5.305872e+001
2.797977e+002, 5.338637e+001
2.802798e+002, 5.375562e+001
2.807620e+002, 5.416291e+001
2.812441e+002, 5.467102e+001
2.817262e+002, 5.532815e+001
2.822083e+002, 5.600446e+001
2.826904e+002, 5.638225e+001
2.831725e+002, 5.642979e+001
2.836547e+002, 5.662657e+001
2.841368e+002, 5.728468e+001
2.846189e+002, 5.835649e+001
2.851010e+002, 5.934532e+001
2.855831e+002, 6.023074e+001
2.860652e+002, 6.105918e+001
2.865474e+002, 6.189531e+001
2.870295e+002, 6.273862e+001
2.875116e+002, 6.356417e+001
2.879937e+002, 6.429172e+001
2.884758e+002, 6.497469e+001
2.889579e+002, 6.593609e+001
2.894401e+002, 6.723555e+001
2.899222e+002, 6.855515e+001
2.904043e+002, 6.942120e+001
2.908864e+002, 6.989639e+001
2.913685e+002, 7.048887e+001
2.918506e+002, 7.142569e+001
2.923328e+002, 7.261774e+001
2.928149e+002, 7.380282e+001
2.932970e+002, 7.498946e+001
2.937791e+002, 7.613801e+001
2.942612e+002, 7.719538e+001
2.947433e+002, 7.817185e+001
2.952255e+002, 7.908069e+001
2.957076e+002, 7.982590e+001
2.961897e+002, 8.055662e+001
2.966718e+002, 8.163648e+001
2.971539e+002, 8.305077e+001
2.976360e+002, 8.442578e+001
2.981182e+002, 8.526941e+001
2.986003e+002, 8.581239e+001
2.990824e+002, 8.667744e+001
2.995645e+002, 8.816490e+001
3.000466e+002, 8.991274e+001
3.005287e+002, 9.144920e+001
3.010109e+002, 9.278497e+001
3.014930e+002, 9.404874e+001
3.019751e+002, 9.532350e+001
3.024572e+002, 9.658141e+001
3.029393e+002, 9.772377e+001
3.034214e+002, 9.867851e+001
3.039036e+002, 9.963512e+001
3.043857e+002, 1.008780e+002
3.048678e+002, 1.023218e+002
3.053499e+002, 1.036810e+002
3.058320e+002, 1.046211e+002
3.063141e+002, 1.054304e+002
3.067963e+002, 1.064460e+002
3.072784e+002, 1.077670e+002
3.077605e+002, 1.092032e+002
3.082426e+002, 1.107607e+002
3.087247e+002, 1.123278e+002
3.092068e+002, 1.136376e+002
3.096890e+002, 1.143724e+002
3.101711e+002, 1.148938e+002
3.106532e+002, 1.154595e+002
3.111353e+002, 1.160773e+002
3.116174e+002, 1.168350e+002
3.120995e+002, 1.179540e+002
3.125817e+002, 1.192160e+002
3.130638e+002, 1.202860e+002
3.135459e+002, 1.209422e+002
3.140280e+002, 1.214373e+002
3.145101e+002, 1.219520e+002
3.149922e+002, 1.225076e+002
3.154744e+002, 1.229127e+002
3.159565e+002, 1.229506e+002
3.164386e+002, 1.228297e+002
3.169207e+002, 1.227869e+002
3.174028e+002, 1.232993e+002
3.178849e+002, 1.235413e+002
3.183671e+002, 1.229599e+002
3.188492e+002, 1.215990e+002
3.193313e+002, 1.205202e+002
3.198134e+002, 1.205324e+002
3.202955e+002, 1.207316e+002
3.207776e+002, 1.203988e+002
3.212598e+002, 1.188278e+002
3.217419e+002, 1.172908e+002
3.222240e+002, 1.161697e+002
3.227061e+002, 1.153675e+002
3.231882e+002, 1.143731e+002
3.236703e+002, 1.130587e+002
3.241525e+002, 1.115381e+002
3.246346e+002, 1.098736e+002
3.251167e+002, 1.077541e+002
3.255988e+002, 1.059089e+002
3.260809e+002, 1.046422e+002
3.265630e+002, 1.037187e+002
3.270452e+002, 1.024871e+002
3.275273e+002, 1.005134e+002
3.280094e+002, 9.858549e+001
3.284915e+002, 9.700948e+001
3.289736e+002, 9.607729e+001
3.294557e+002, 9.488241e+001
3.299379e+002, 9.322616e+001
3.304200e+002, 9.136305e+001
3.309021e+002, 8.971934e+001
3.313842e+002, 8.832683e+001
3.318663e+002, 8.709180e+001
3.323484e+002, 8.598852e+001
3.328306e+002, 8.503867e+001
3.333127e+002, 8.420439e+001
3.337948e+002, 8.353006e+001
3.342769e+002, 8.292790e+001
3.347590e+002, 8.229802e+001
3.352411e+002, 8.157634e+001
3.357233e+002, 8.096197e+001
3.362054e+002, 8.051390e+001
3.366875e+002, 8.022197e+001
3.371696e+002, 7.996868e+001
3.376517e+002, 7.974738e+001
3.381339e+002, 7.958086e+001
3.386160e+002, 7.948591e+001
3.390981e+002, 7.945908e+001
3.395802e+002, 7.955636e+001
3.400623e+002, 7.990095e+001
3.405444e+002, 8.032079e+001
3.410266e+002, 8.015031e+001
3.415087e+002, 7.928669e+001
3.419908e+002, 7.831609e+001
3.424729e+002, 7.756348e+001
3.429550e+002, 7.703328e+001
3.434371e+002, 7.666837e+001
3.439193e+002, 7.655837e+001
3.444014e+002, 7.643980e+001
3.448835e+002, 7.575529e+001
3.453656e+002, 7.450939e+001
3.458477e+002, 7.325488e+001
3.463298e+002, 7.237930e+001
3.468120e+002, 7.174709e+001
3.472941e+002, 7.073206e+001
3.477762e+002, 6.925232e+001
3.482583e+002, 6.771152e+001
3.487404e+002, 6.663755e+001
3.492225e+002, 6.593354e+001
3.497047e+002, 6.518543e+001
3.501868e+002, 6.419791e+001
3.506689e+002, 6.308802e+001
3.511510e+002, 6.200871e+001
3.516331e+002, 6.096576e+001
3.521152e+002, 6.001806e+001
3.525974e+002, 5.924066e+001
3.530795e+002, 5.858941e+001
3.535616e+002, 5.799968e+001
3.540437e+002, 5.753672e+001
3.545258e+002, 5.702369e+001
3.550079e+002, 5.618511e+001
3.554901e+002, 5.509768e+001
3.559722e+002, 5.408961e+001
3.564543e+002, 5.341499e+001
3.569364e+002, 5.289997e+001
3.574185e+002, 5.236874e+001
3.579006e+002, 5.179986e+001
3.583828e+002, 5.118815e+001
3.588649e+002, 5.036799e+001
3.593470e+002, 4.950262e+001
3.598291e+002, 4.891369e+001
3.603112e+002, 4.911602e+001
3.607933e+002, 4.935636e+001
3.612755e+002, 4.912689e+001
3.617576e+002, 4.831170e+001
3.622397e+002, 4.753965e+001
3.627218e+002, 4.710125e+001
3.632039e+002, 4.681301e+001
3.636860e+002, 4.647031e+001
3.641682e+002, 4.588599e+001
3.646503e+002, 4.536616e+001
3.651324e+002, 4.502624e+001
3.656145e+002, 4.485939e+001
3.660966e+002, 4.474294e+001
3.665787e+002, 4.475960e+001
3.670609e+002, 4.475629e+001
3.675430e+002, 4.463497e+001
3.680251e+002, 4.430967e+001
3.685072e+002, 4.395548e+001
3.689893e+002, 4.354938e+001
3.694714e+002, 4.311948e+001
3.699536e+002, 4.277129e+001
3.704357e+002, 4.255473e+001
3.709178e+002, 4.236665e+001
3.713999e+002, 4.216792e+001
3.718820e+002, 4.194349e+001
3.723641e+002, 4.174807e+001
3.728463e+002, 4.161528e+001
3.733284e+002, 4.149129e+001
3.738105e+002, 4.128369e+001
3.742926e+002, 4.095454e+001
3.747747e+002, 4.062381e+001
3.752568e+002, 4.031817e+001
3.757390e+002, 4.003624e+001
3.762211e+002, 3.977216e+001
3.767032e+002, 3.950379e+001
3.771853e+002, 3.929295e+001
3.776674e+002, 3.921859e+001
3.781495e+002, 3.929848e+001
3.786317e+002, 3.935350e+001
3.791138e+002, 3.934669e+001
3.795959e+002, 3.929457e+001
3.800780e+002, 3.923828e+001
3.805601e+002, 3.917645e+001
3.810422e+002, 3.913225e+001
3.815244e+002, 3.919502e+001
3.820065e+002, 3.931757e+001
3.824886e+002, 3.918783e+001
3.829707e+002, 3.871395e+001
3.834528e+002, 3.815773e+001
3.839349e+002, 3.786937e+001
3.844171e+002, 3.782399e+001
3.848992e+002, 3.787768e+001
3.853813e+002, 3.803112e+001
3.858634e+002, 3.821517e+001
3.863455e+002, 3.831273e+001
3.868276e+002, 3.831812e+001
3.873098e+002, 3.827174e+001
3.877919e+002, 3.816753e+001
3.882740e+002, 3.803978e+001
3.887561e+002, 3.795276e+001
3.892382e+002, 3.796693e+001
3.897203e+002, 3.798939e+001
3.902025e+002, 3.792456e+001
3.906846e+002, 3.779179e+001
3.911667e+002, 3.768201e+001
3.916488e+002, 3.772833e+001
3.921309e+002, 3.777507e+001
3.926130e+002, 3.766538e+001
3.930952e+002, 3.727277e+001
3.935773e+002, 3.694039e+001
3.940594e+002, 3.682410e+001
3.945415e+002, 3.686921e+001
3.950236e+002, 3.697417e+001
3.955057e+002, 3.717801e+001
3.959879e+002, 3.737541e+001
3.964700e+002, 3.752871e+001
3.969521e+002, 3.763457e+001
3.974342e+002, 3.770210e+001
3.979163e+002, 3.773021e+001
3.983984e+002, 3.772228e+001
3.988806e+002, 3.768144e+001
3.993627e+002, 3.754594e+001
3.998448e+002, 3.744762e+001
4.003269e+002, 3.737336e+001
4.008090e+002, 3.733545e+001
4.012911e+002, 3.743591e+001
4.017733e+002, 3.779488e+001
4.022554e+002, 3.815065e+001
4.027375e+002, 3.836700e+001
4.032196e+002, 3.840436e+001
4.037017e+002, 3.839993e+001
4.041838e+002, 3.835314e+001
4.046660e+002, 3.826704e+001
4.051481e+002, 3.812129e+001
4.056302e+002, 3.787368e+001
4.061123e+002, 3.772216e+001
4.065944e+002, 3.778158e+001
4.070765e+002, 3.803751e+001
4.075587e+002, 3.814072e+001
4.080408e+002, 3.805456e+001
4.085229e+002, 3.795698e+001
4.090050e+002, 3.807874e+001
4.094871e+002, 3.839868e+001
4.099692e+002, 3.860756e+001
4.104514e+002, 3.859297e+001
4.109335e+002, 3.848047e+001
4.114156e+002, 3.857381e+001
4.118977e+002, 3.885094e+001
4.123798e+002, 3.906640e+001
4.128619e+002, 3.897557e+001
4.133441e+002, 3.872148e+001
4.138262e+002, 3.856398e+001
4.143083e+002, 3.852661e+001
4.147904e+002, 3.861376e+001
4.152725e+002, 3.900288e+001
4.157546e+002, 3.951503e+001
4.162368e+002, 3.978786e+001
4.167189e+002, 3.943211e+001
4.172010e+002, 3.893084e+001
4.176831e+002, 3.869373e+001
4.181652e+002, 3.871207e+001
4.186473e+002, 3.868108e+001
4.191295e+002, 3.827427e+001
4.196116e+002, 3.782503e+001
4.200937e+002, 3.765026e+001
4.205758e+002, 3.804230e+001
4.210579e+002, 3.839901e+001
4.215400e+002, 3.853002e+001
4.220222e+002, 3.848404e+001
4.225043e+002, 3.838507e+001
4.229864e+002, 3.812061e+001
4.234685e+002, 3.793166e+001
4.239506e+002, 3.793628e+001
4.244327e+002, 3.821843e+001
4.249149e+002, 3.843548e+001
4.253970e+002, 3.857800e+001
4.258791e+002, 3.864938e+001
4.263612e+002, 3.864734e+001
4.268433e+002, 3.851491e+001
4.273254e+002, 3.839759e+001
4.278076e+002, 3.831007e+001
4.282897e+002, 3.825248e+001
4.287718e+002, 3.823677e+001
4.292539e+002, 3.827432e+001
4.297360e+002, 3.832894e+001
4.302181e+002, 3.839684e+001
4.307003e+002, 3.849269e+001
4.311824e+002, 3.850310e+001
4.316645e+002, 3.842347e+001
4.321466e+002, 3.825758e+001
4.326287e+002, 3.795155e+001
4.331108e+002, 3.750334e+001
4.335930e+002, 3.717099e+001
4.340751e+002, 3.708316e+001
4.345572e+002, 3.718368e+001
4.350393e+002, 3.733330e+001
4.355214e+002, 3.753535e+001
4.360035e+002, 3.766646e+001
4.364857e+002, 3.752205e+001
4.369678e+002, 3.722303e+001
4.374499e+002, 3.707869e+001
4.379320e+002, 3.721583e+001
4.384141e+002, 3.741092e+001
4.388962e+002, 3.736895e+001
4.393784e+002, 3.717353e+001
4.398605e+002, 3.707056e+001
4.403426e+002, 3.726445e+001
4.408247e+002, 3.756078e+001
4.413068e+002, 3.780878e+001
4.417889e+002, 3.799148e+001
4.422711e+002, 3.814730e+001
4.427532e+002, 3.833075e+001
4.432353e+002, 3.848214e+001
4.437174e+002, 3.853954e+001
4.441995e+002, 3.833757e+001
4.446816e+002, 3.819487e+001
4.451638e+002, 3.824740e+001
4.456459e+002, 3.844907e+001
4.461280e+002, 3.858750e+001
4.466101e+002, 3.854729e+001
4.470922e+002, 3.850759e+001
4.475743e+002, 3.857193e+001
4.480565e+002, 3.886529e+001
4.485386e+002, 3.893598e+001
4.490207e+002, 3.859610e+001
4.495028e+002, 3.815143e+001
4.499849e+002, 3.803973e+001
4.504670e+002, 3.848530e+001
4.509492e+002, 3.874140e+001
4.514313e+002, 3.854409e+001
4.519134e+002, 3.799237e+001
4.523955e+002, 3.788299e+001
4.528776e+002, 3.834402e+001
4.533597e+002, 3.881111e+001
4.538419e+002, 3.881620e+001
4.543240e+002, 3.837500e+001
4.548061e+002, 3.814931e+001
4.552882e+002, 3.822829e+001
4.557703e+002, 3.845201e+001
4.562524e+002, 3.860429e+001
4.567346e+002, 3.869196e+001
4.572167e+002, 3.874824e+001
4.576988e+002, 3.879290e+001
4.581809e+002, 3.881394e+001
4.586630e+002, 3.878245e+001
4.591451e+002, 3.870058e+001
4.596273e+002, 3.860397e+001
4.601094e+002, 3.845186e+001
4.605915e+002, 3.832561e+001
4.610736e+002, 3.834257e+001
4.615557e+002, 3.857145e+001
4.620378e+002, 3.885249e+001
4.625200e+002, 3.916730e+001
4.630021e+002, 3.945683e+001
4.634842e+002, 3.959874e+001
4.639663e+002, 3.941926e+001
4.644484e+002, 3.919241e+001
4.649305e+002, 3.903602e+001
4.654127e+002, 3.895864e+001
4.658948e+002, 3.892731e+001
4.663769e+002, 3.890545e+001
4.668590e+002, 3.894660e+001
4.673411e+002, 3.909061e+001
4.678232e+002, 3.951301e+001
4.683054e+002, 3.981031e+001
4.687875e+002, 3.989904e+001
4.692696e+002, 3.986493e+001
4.697517e+002, 3.991527e+001
4.702338e+002, 4.005774e+001
4.707159e+002, 4.027426e+001
4.711981e+002, 4.060123e+001
4.716802e+002, 4.104923e+001
4.721623e+002, 4.127599e+001
4.726444e+002, 4.118919e+001
4.731265e+002, 4.112379e+001
4.736086e+002, 4.146505e+001
4.740908e+002, 4.220546e+001
4.745729e+002, 4.289454e+001
4.750550e+002, 4.344631e+001
4.755371e+002, 4.391395e+001
4.760192e+002, 4.439200e+001
4.765013e+002, 4.487844e+001
4.769835e+002, 4.534167e+001
4.774656e+002, 4.570868e+001
4.779477e+002, 4.606453e+001
4.784298e+002, 4.657427e+001
4.789119e+002, 4.724820e+001
4.793940e+002, 4.793512e+001
4.798762e+002, 4.847836e+001
4.803583e+002, 4.897563e+001
4.808404e+002, 4.956628e+001
4.813225e+002, 5.040569e+001
4.818046e+002, 5.119767e+001
4.822867e+002, 5.169423e+001
4.827689e+002, 5.201954e+001
4.832510e+002, 5.249232e+001
4.837331e+002, 5.339213e+001
4.842152e+002, 5.431632e+001
4.846973e+002, 5.508654e+001
4.851794e+002, 5.567254e+001
4.856616e+002, 5.622410e+001
4.861437e+002, 5.683677e+001
4.866258e+002, 5.736795e+001
4.871079e+002, 5.768514e+001
4.875900e+002, 5.751053e+001
4.880721e+002, 5.764158e+001
4.885543e+002, 5.833989e+001
4.890364e+002, 5.932703e+001
4.895185e+002, 5.978226e+001
4.900006e+002, 5.961157e+001
4.904827e+002, 5.918780e+001
4.909648e+002, 5.862021e+001
4.914470e+002, 5.791432e+001
4.919291e+002, 5.721635e+001
4.924112e+002, 5.652052e+001
4.928933e+002, 5.587932e+001
4.933754e+002, 5.541834e+001
4.938575e+002, 5.507939e+001
4.943397e+002, 5.459988e+001
4.948218e+002, 5.390075e+001
4.953039e+002, 5.308952e+001
4.957860e+002, 5.225100e+001
4.962681e+002, 5.141753e+001
4.967502e+002, 5.070155e+001
4.972324e+002, 5.024285e+001
4.977145e+002, 4.987124e+001
4.981966e+002, 4.941152e+001
4.986787e+002, 4.884965e+001
4.991608e+002, 4.833540e+001
4.996429e+002, 4.796173e+001
5.001251e+002, 4.765936e+001
5.006072e+002, 4.735505e+001
5.010893e+002, 4.699535e+001
5.015714e+002, 4.668820e+001
5.020535e+002, 4.652316e+001
5.025356e+002, 4.642255e+001
5.030178e+002, 4.620790e+001
5.034999e+002, 4.568526e+001
5.039820e+002, 4.524308e+001
5.044641e+002, 4.504256e+001
5.049462e+002, 4.510247e+001
5.054283e+002, 4.489336e+001
5.059105e+002, 4.422685e+001
5.063926e+002, 4.358741e+001
5.068747e+002, 4.343107e+001
5.073568e+002, 4.387334e+001
5.078389e+002, 4.398945e+001
5.083210e+002, 4.363092e+001
5.088032e+002, 4.302531e+001
5.092853e+002, 4.247902e+001
5.097674e+002, 4.200069e+001
5.102495e+002, 4.175108e+001
5.107316e+002, 4.194435e+001
5.112137e+002, 4.234367e+001
5.116959e+002, 4.238595e+001
5.121780e+002, 4.209723e+001
5.126601e+002, 4.182940e+001
5.131422e+002, 4.194807e+001
5.136243e+002, 4.219614e+001
5.141064e+002, 4.219671e+001
5.145886e+002, 4.179755e+001
5.150707e+002, 4.146873e+001
5.155528e+002, 4.164556e+001
5.160349e+002, 4.204133e+001
5.165170e+002, 4.224389e+001
5.169991e+002, 4.186618e+001
5.174813e+002, 4.153636e+001
5.179634e+002, 4.148388e+001
5.184455e+002, 4.168281e+001
5.189276e+002, 4.188229e+001
5.194097e+002, 4.203679e+001
5.198918e+002, 4.220058e+001
5.203740e+002, 4.238013e+001
5.208561e+002, 4.254362e+001
5.213382e+002, 4.285134e+001
5.218203e+002, 4.341720e+001
5.223024e+002, 4.399423e+001
5.227845e+002, 4.423880e+001
5.232667e+002, 4.405804e+001
5.237488e+002, 4.407883e+001
5.242309e+002, 4.447889e+001
5.247130e+002, 4.510228e+001
5.251951e+002, 4.555284e+001
5.256772e+002, 4.583623e+001
5.261594e+002, 4.613529e+001
5.266415e+002, 4.656692e+001
5.271236e+002, 4.709136e+001
5.276057e+002, 4.762772e+001
5.280878e+002, 4.817213e+001
5.285699e+002, 4.870208e+001
5.290521e+002, 4.913894e+001
5.295342e+002, 4.956417e+001
5.300163e+002, 5.009874e+001
5.304984e+002, 5.084025e+001
5.309805e+002, 5.156629e+001
5.314626e+002, 5.208931e+001
5.319448e+002, 5.251058e+001
5.324269e+002, 5.302395e+001
5.329090e+002, 5.384333e+001
5.333911e+002, 5.461396e+001
5.338732e+002, 5.513085e+001
5.343553e+002, 5.536855e+001
5.348375e+002, 5.591040e+001
5.353196e+002, 5.694592e+001
5.358017e+002, 5.810241e+001
5.362838e+002, 5.918116e+001
5.367659e+002, 6.017784e+001
5.372480e+002, 6.112239e+001
5.377302e+002, 6.197903e+001
5.382123e+002, 6.282988e+001
5.386944e+002, 6.378559e+001
5.391765e+002, 6.486061e+001
5.396586e+002, 6.595464e+001
5.401407e+002, 6.701817e+001
5.406229e+002, 6.809232e+001
5.411050e+002, 6.926588e+001
5.415871e+002, 7.052840e+001
5.420692e+002, 7.176123e+001
5.425513e+002, 7.295203e+001
5.430334e+002, 7.406118e+001
5.435156e+002, 7.493665e+001
5.439977e+002, 7.555696e+001
5.444798e+002, 7.630965e+001
5.449619e+002, 7.762626e+001
5.454440e+002, 7.914664e+001
5.459261e+002, 8.047480e+001
5.464083e+002, 8.141482e+001
5.468904e+002, 8.227559e+001
5.473725e+002, 8.308519e+001
5.478546e+002, 8.387964e+001
5.483367e+002, 8.475452e+001
5.488188e+002, 8.586600e+001
5.493010e+002, 8.690348e+001
5.497831e+002, 8.776807e+001
5.502652e+002, 8.846170e+001
5.507473e+002, 8.916412e+001
5.512294e+002, 8.980769e+001
5.517115e+002, 9.057699e+001
5.521937e+002, 9.169939e+001
5.526758e+002, 9.325239e+001
5.531579e+002, 9.436190e+001
5.536400e+002, 9.488551e+001
5.541221e+002, 9.526321e+001
5.546042e+002, 9.615900e+001
5.550864e+002, 9.748148e+001
5.555685e+002, 9.864838e+001
5.560506e+002, 9.941067e+001
5.565327e+002, 1.000108e+002
5.570148e+002, 1.007234e+002
5.574969e+002, 1.015493e+002
5.579791e+002, 1.024991e+002
5.584612e+002, 1.037394e+002
5.589433e+002, 1.049860e+002
5.594254e+002, 1.059364e+002
5.599075e+002, 1.065694e+002
5.603896e+002, 1.072644e+002
5.608718e+002, 1.080785e+002
5.613539e+002, 1.090651e+002
5.618360e+002, 1.102771e+002
5.623181e+002, 1.120203e+002
5.628002e+002, 1.135426e+002
5.632823e+002, 1.146772e+002
5.637645e+002, 1.156305e+002
5.642466e+002, 1.167070e+002
5.647287e+002, 1.179241e+002
5.652108e+002, 1.192093e+002
5.656929e+002, 1.205700e+002
5.661750e+002, 1.219785e+002
5.666572e+002, 1.232986e+002
5.671393e+002, 1.244789e+002
5.676214e+002, 1.258916e+002
5.681035e+002, 1.280371e+002
5.685856e+002, 1.306290e+002
5.690677e+002, 1.325671e+002
5.695499e+002, 1.337673e+002
5.700320e+002, 1.347904e+002
5.705141e+002, 1.359619e+002
5.709962e+002, 1.373370e+002
5.714783e+002, 1.390743e+002
5.719604e+002, 1.414908e+002
5.724426e+002, 1.437239e+002
5.729247e+002, 1.451529e+002
5.734068e+002, 1.460379e+002
5.738889e+002, 1.468775e+002
5.743710e+002, 1.476305e+002
5.748531e+002, 1.485584e+002
5.753353e+002, 1.498960e+002
5.758174e+002, 1.515916e+002
5.762995e+002, 1.529753e+002
5.767816e+002, 1.538600e+002
5.772637e+002, 1.546205e+002
5.777458e+002, 1.554330e+002
5.782280e+002, 1.563257e+002
5.787101e+002, 1.570415e+002
5.791922e+002, 1.574566e+002
5.796743e+002, 1.579661e+002
5.801564e+002, 1.591477e+002
5.806385e+002, 1.609447e+002
5.811207e+002, 1.623963e+002
5.816028e+002, 1.632773e+002
5.820849e+002, 1.638491e+002
5.825670e+002, 1.644966e+002
5.830491e+002, 1.651609e+002
5.835313e+002, 1.656830e+002
5.840134e+002, 1.658152e+002
5.844955e+002, 1.658862e+002
5.849776e+002, 1.661844e+002
5.854597e+002, 1.666904e+002
5.859418e+002, 1.672847e+002
5.864240e+002, 1.680480e+002
5.869061e+002, 1.687738e+002
5.873882e+002, 1.693685e+002
5.878703e+002, 1.698248e+002
5.883524e+002, 1.701118e+002
5.888345e+002, 1.700908e+002
5.893167e+002, 1.699854e+002
5.897988e+002, 1.699558e+002
5.902809e+002, 1.699828e+002
5.907630e+002, 1.701734e+002
5.912451e+002, 1.706892e+002
5.917272e+002, 1.712184e+002
5.922094e+002, 1.709994e+002
5.926915e+002, 1.699678e+002
5.931736e+002, 1.692740e+002
5.936557e+002, 1.694676e+002
5.941378e+002, 1.701469e+002
5.946199e+002, 1.703118e+002
5.951021e+002, 1.700198e+002
5.955842e+002, 1.697505e+002
5.960663e+002, 1.699994e+002
5.965484e+002, 1.703450e+002
5.970305e+002, 1.702328e+002
5.975126e+002, 1.696037e+002
5.979948e+002, 1.689760e+002
5.984769e+002, 1.685713e+002
5.989590e+002, 1.683400e+002
5.994411e+002, 1.682747e+002
5.999232e+002, 1.687533e+002
6.004053e+002, 1.687728e+002
6.008875e+002, 1.678040e+002
6.013696e+002, 1.664275e+002
6.018517e+002, 1.654513e+002
6.023338e+002, 1.650668e+002
6.028159e+002, 1.647390e+002
6.032980e+002, 1.644373e+002
6.037802e+002, 1.641008e+002
6.042623e+002, 1.634021e+002
6.047444e+002, 1.622901e+002
6.052265e+002, 1.612981e+002
6.057086e+002, 1.608194e+002
6.061907e+002, 1.606814e+002
6.066729e+002, 1.602598e+002
6.071550e+002, 1.595602e+002
6.076371e+002, 1.587995e+002
6.081192e+002, 1.581741e+002
6.086013e+002, 1.575868e+002
6.090834e+002, 1.569111e+002
6.095656e+002, 1.560976e+002
6.100477e+002, 1.552898e+002
6.105298e+002, 1.546243e+002
6.110119e+002, 1.539877e+002
6.114940e+002, 1.532436e+002
6.119761e+002, 1.522519e+002
6.124583e+002, 1.512988e+002
6.129404e+002, 1.503774e+002
6.134225e+002, 1.495304e+002
6.139046e+002, 1.488611e+002
6.143867e+002, 1.485381e+002
6.148688e+002, 1.480604e+002
6.153510e+002, 1.472196e+002
6.158331e+002, 1.460913e+002
6.163152e+002, 1.451723e+002
6.167973e+002, 1.444883e+002
6.172794e+002, 1.437640e+002
6.177615e+002, 1.426447e+002
6.182437e+002, 1.413571e+002
6.187258e+002, 1.406676e+002
6.192079e+002, 1.406343e+002
6.196900e+002, 1.404776e+002
6.201721e+002, 1.393531e+002
6.206542e+002, 1.377865e+002
6.211364e+002, 1.364443e+002
6.216185e+002, 1.355216e+002
6.221006e+002, 1.347091e+002
6.225827e+002, 1.338389e+002
6.230648e+002, 1.329986e+002
6.235469e+002, 1.323103e+002
6.240291e+002, 1.320748e+002
6.245112e+002, 1.316584e+002
6.249933e+002, 1.308899e+002
6.254754e+002, 1.298856e+002
6.259575e+002, 1.290790e+002
6.264396e+002, 1.285679e+002
6.269218e+002, 1.279605e+002
6.274039e+002, 1.270770e+002
6.278860e+002, 1.259653e+002
6.283681e+002, 1.248738e+002
6.288502e+002, 1.237979e+002
6.293323e+002, 1.228415e+002
6.298145e+002, 1.221466e+002
6.302966e+002, 1.216105e+002
6.307787e+002, 1.210151e+002
6.312608e+002, 1.203336e+002
6.317429e+002, 1.196670e+002
6.322250e+002, 1.190857e+002
6.327072e+002, 1.185610e+002
6.331893e+002, 1.180684e+002
6.336714e+002, 1.177315e+002
6.341535e+002, 1.172140e+002
6.346356e+002, 1.162735e+002
6.351177e+002, 1.151429e+002
6.355999e+002, 1.141754e+002
6.360820e+002, 1.134050e+002
6.365641e+002, 1.127657e+002
6.370462e+002, 1.123148e+002
6.375283e+002, 1.119693e+002
6.380104e+002, 1.114033e+002
6.384926e+002, 1.105643e+002
6.389747e+002, 1.098178e+002
6.394568e+002, 1.094069e+002
6.399389e+002, 1.091965e+002
6.404210e+002, 1.087190e+002
6.409031e+002, 1.079837e+002
6.413853e+002, 1.071997e+002
6.418674e+002, 1.064190e+002
6.423495e+002, 1.057226e+002
6.428316e+002, 1.052642e+002
6.433137e+002, 1.050776e+002
6.437958e+002, 1.048880e+002
6.442780e+002, 1.045954e+002
6.447601e+002, 1.042109e+002
6.452422e+002, 1.037393e+002
6.457243e+002, 1.030495e+002
6.462064e+002, 1.024756e+002
6.466885e+002, 1.020458e+002
6.471707e+002, 1.017267e+002
6.476528e+002, 1.015033e+002
6.481349e+002, 1.014217e+002
6.486170e+002, 1.012684e+002
6.490991e+002, 1.009732e+002
6.495812e+002, 1.006115e+002
6.500634e+002, 1.003536e+002
6.505455e+002, 1.001927e+002
6.510276e+002, 1.000600e+002
6.515097e+002, 9.987611e+001
6.519918e+002, 9.972874e+001
6.524739e+002, 9.982833e+001
6.529561e+002, 1.001205e+002
6.534382e+002, 1.003253e+002
6.539203e+002, 1.003333e+002
6.544024e+002, 1.001538e+002
6.548845e+002, 9.968262e+001
6.553666e+002, 9.886902e+001
6.558488e+002, 9.831079e+001
6.563309e+002, 9.836086e+001
6.568130e+002, 9.854276e+001
6.572951e+002, 9.854619e+001
6.577772e+002, 9.820856e+001
6.582593e+002, 9.813818e+001
6.587415e+002, 9.838046e+001
6.592236e+002, 9.881709e+001
6.597057e+002, 9.942445e+001
6.601878e+002, 1.001914e+002
6.606699e+002, 1.006216e+002
6.611520e+002, 1.005465e+002
6.616342e+002, 1.002862e+002
6.621163e+002, 1.002432e+002
6.625984e+002, 1.003760e+002
6.630805e+002, 1.005760e+002
6.635626e+002, 1.008077e+002
6.640447e+002, 1.010816e+002
6.645269e+002, 1.014491e+002
6.650090e+002, 1.018676e+002
6.654911e+002, 1.022229e+002
6.659732e+002, 1.026550e+002
6.664553e+002, 1.028456e+002
6.669374e+002, 1.025763e+002
6.674196e+002, 1.018862e+002
6.679017e+002, 1.013029e+002
6.683838e+002, 1.008776e+002
6.688659e+002, 1.004592e+002
6.693480e+002, 1.000102e+002
6.698301e+002, 9.952876e+001
6.703123e+002, 9.881052e+001
6.707944e+002, 9.783743e+001
6.712765e+002, 9.674097e+001
6.717586e+002, 9.570074e+001
6.722407e+002, 9.459792e+001
6.727228e+002, 9.313695e+001
6.732050e+002, 9.122025e+001
6.736871e+002, 8.922960e+001
6.741692e+002, 8.742207e+001
6.746513e+002, 8.568309e+001
6.751334e+002, 8.389275e+001
6.756155e+002, 8.184744e+001
6.760977e+002, 7.997034e+001
6.765798e+002, 7.857689e+001
6.770619e+002, 7.736172e+001
6.775440e+002, 7.587373e+001
6.780261e+002, 7.396760e+001
6.785082e+002, 7.213151e+001
6.789904e+002, 7.045112e+001
6.794725e+002, 6.889509e+001
6.799546e+002, 6.730313e+001
6.804367e+002, 6.570011e+001
6.809188e+002, 6.421681e+001
6.814009e+002, 6.297457e+001
6.818831e+002, 6.186298e+001
6.823652e+002, 6.071077e+001
6.828473e+002, 5.952152e+001
6.833294e+002, 5.836755e+001
6.838115e+002, 5.725354e+001
6.842936e+002, 5.620699e+001
6.847758e+002, 5.523012e+001
6.852579e+002, 5.433111e+001
6.857400e+002, 5.345837e+001
6.862221e+002, 5.264960e+001
6.867042e+002, 5.183212e+001
6.871863e+002, 5.095994e+001
6.876685e+002, 5.002261e+001
6.881506e+002, 4.905428e+001
6.886327e+002, 4.796753e+001
6.891148e+002, 4.699358e+001
6.895969e+002, 4.642256e+001
6.900790e+002, 4.621567e+001
6.905612e+002, 4.584663e+001
6.910433e+002, 4.525022e+001
6.915254e+002, 4.455335e+001
6.920075e+002, 4.386914e+001
6.924896e+002, 4.320883e+001
6.929717e+002, 4.260170e+001
6.934539e+002, 4.207129e+001
6.939360e+002, 4.156680e+001
6.944181e+002, 4.108753e+001
6.949002e+002, 4.061382e+001
6.953823e+002, 4.011304e+001
6.958644e+002, 3.951479e+001
6.963466e+002, 3.897751e+001
6.968287e+002, 3.853519e+001
6.973108e+002, 3.816439e+001
6.977929e+002, 3.782320e+001
6.982750e+002, 3.752415e+001
6.987571e+002, 3.720892e+001
6.992393e+002, 3.684551e+001
6.997214e+002, 3.645985e+001
7.002035e+002, 3.607651e+001
7.006856e+002, 3.571326e+001
7.011677e+002, 3.554696e+001
7.016498e+002, 3.594767e+001
7.021320e+002, 3.643607e+001
7.026141e+002, 3.636975e+001
7.030962e+002, 3.580115e+001
7.035783e+002, 3.532727e+001
7.040604e+002, 3.531583e+001
7.045425e+002, 3.539848e+001
7.050247e+002, 3.536272e+001
7.055068e+002, 3.516151e+001
7.059889e+002, 3.501170e+001
7.064710e+002, 3.494491e+001
7.069531e+002, 3.488888e+001
7.074352e+002, 3.477530e+001
7.079174e+002, 3.458878e+001
7.083995e+002, 3.454667e+001
7.088816e+002, 3.467655e+001
7.093637e+002, 3.483646e+001
7.098458e+002, 3.488804e+001
7.103279e+002, 3.485405e+001
7.108101e+002, 3.479673e+001
7.112922e+002, 3.473417e+001
7.117743e+002, 3.461985e+001
7.122564e+002, 3.430607e+001
7.127385e+002, 3.396559e+001
7.132206e+002, 3.381352e+001
7.137028e+002, 3.418384e+001
7.141849e+002, 3.436347e+001
7.146670e+002, 3.396603e+001
7.151491e+002, 3.340977e+001
7.156312e+002, 3.329696e+001
7.161133e+002, 3.384308e+001
7.165955e+002, 3.423507e+001
7.170776e+002, 3.432457e+001
7.175597e+002, 3.419550e+001
7.180418e+002, 3.395583e+001
7.185239e+002, 3.362230e+001
7.190060e+002, 3.338209e+001
7.194882e+002, 3.331423e+001
7.199703e+002, 3.336830e+001
7.204524e+002, 3.357650e+001
7.209345e+002, 3.386511e+001
7.214166e+002, 3.402331e+001
7.218987e+002, 3.382777e+001
7.223809e+002, 3.359479e+001
7.228630e+002, 3.346574e+001
7.233451e+002, 3.343729e+001
7.238272e+002, 3.343807e+001
7.243093e+002, 3.351612e+001
7.247914e+002, 3.354585e+001
7.252736e+002, 3.346989e+001
7.257557e+002, 3.329786e+001
7.262378e+002, 3.313298e+001
7.267199e+002, 3.296955e+001
7.272020e+002, 3.285131e+001
7.276841e+002, 3.285603e+001
7.281663e+002, 3.291388e+001
7.286484e+002, 3.284486e+001
7.291305e+002, 3.264890e+001
7.296126e+002, 3.247428e+001
7.300947e+002, 3.242548e+001
7.305768e+002, 3.243688e+001
7.310590e+002, 3.247330e+001
7.315411e+002, 3.254559e+001
7.320232e+002, 3.255721e+001
7.325053e+002, 3.239945e+001
7.329874e+002, 3.224946e+001
7.334695e+002, 3.223451e+001
7.339517e+002, 3.243244e+001
7.344338e+002, 3.247450e+001
7.349159e+002, 3.232854e+001
7.353980e+002, 3.211849e+001
7.358801e+002, 3.194922e+001
7.363622e+002, 3.182506e+001
7.368444e+002, 3.177384e+001
7.373265e+002, 3.180894e+001
7.378086e+002, 3.187197e+001
7.382907e+002, 3.196482e+001
7.387728e+002, 3.203162e+001
7.392549e+002, 3.198437e+001
7.397371e+002, 3.167337e+001
7.402192e+002, 3.146608e+001
7.407013e+002, 3.153193e+001
7.411834e+002, 3.173234e+001
7.416655e+002, 3.188600e+001
7.421476e+002, 3.199643e+001
7.426298e+002, 3.205608e+001
7.431119e+002, 3.208662e+001
7.435940e+002, 3.203458e+001
7.440761e+002, 3.167571e+001
7.445582e+002, 3.106514e+001
7.450403e+002, 3.077477e+001
7.455225e+002, 3.109844e+001
7.460046e+002, 3.160357e+001
7.464867e+002, 3.178465e+001
7.469688e+002, 3.173757e+001
7.474509e+002, 3.166642e+001
7.479330e+002, 3.167518e+001
7.484152e+002, 3.165493e+001
7.488973e+002, 3.151112e+001
7.493794e+002, 3.130034e+001
7.498615e+002, 3.121726e+001
7.503436e+002, 3.135962e+001
7.508257e+002, 3.145595e+001
7.513079e+002, 3.142392e+001
7.517900e+002, 3.130420e+001
7.522721e+002, 3.123456e+001
7.527542e+002, 3.121481e+001
7.532363e+002, 3.123362e+001
7.537184e+002, 3.132943e+001
7.542006e+002, 3.143227e+001
7.546827e+002, 3.141983e+001
7.551648e+002, 3.131193e+001
7.556469e+002, 3.119125e+001
7.561290e+002, 3.106519e+001
7.566111e+002, 3.096872e+001
7.570933e+002, 3.091259e+001
7.575754e+002, 3.090006e+001
7.580575e+002, 3.095601e+001
7.585396e+002, 3.119956e+001
7.590217e+002, 3.132772e+001
7.595038e+002, 3.116465e+001
7.599860e+002, 3.075135e+001
7.604681e+002, 3.057324e+001
7.609502e+002, 3.064693e+001
7.614323e+002, 3.077059e+001
7.619144e+002, 3.081995e+001
7.623965e+002, 3.082488e+001
7.628787e+002, 3.085506e+001
7.633608e+002, 3.090599e+001
7.638429e+002, 3.090400e+001
7.643250e+002, 3.079518e+001
7.648071e+002, 3.062460e+001
7.652892e+002, 3.039104e+001
7.657714e+002, 3.007120e+001
7.662535e+002, 2.987496e+001
7.667356e+002, 2.983366e+001
7.672177e+002, 2.988679e+001
7.676998e+002, 3.003452e+001
7.681819e+002, 3.029004e+001
7.686641e+002, 3.041099e+001
7.691462e+002, 3.038027e+001
7.696283e+002, 3.033906e+001
7.701104e+002, 3.044995e+001
7.705925e+002, 3.062164e+001
7.710746e+002, 3.066144e+001
7.715568e+002, 3.054691e+001
7.720389e+002, 3.042267e+001
7.725210e+002, 3.041047e+001
7.730031e+002, 3.040318e+001
7.734852e+002, 3.028364e+001
7.739673e+002, 2.993532e+001
7.744495e+002, 2.982718e+001
7.749316e+002, 3.014797e+001
7.754137e+002, 3.049758e+001
7.758958e+002, 3.057920e+001
7.763779e+002, 3.037746e+001
7.768600e+002, 3.004464e+001
7.773422e+002, 2.955021e+001
7.778243e+002, 2.914063e+001
7.783064e+002, 2.916265e+001
7.787885e+002, 2.942171e+001
7.792706e+002, 2.956661e+001
7.797527e+002, 2.954162e+001
7.802349e+002, 2.939384e+001
7.807170e+002, 2.899919e+001
7.811991e+002, 2.858496e+001
7.816812e+002, 2.836146e+001
7.821633e+002, 2.850011e+001
7.826454e+002, 2.856355e+001
7.831276e+002, 2.852154e+001
7.836097e+002, 2.844055e+001
7.840918e+002, 2.838232e+001
7.845739e+002, 2.834719e+001
7.850560e+002, 2.832911e+001
7.855381e+002, 2.833583e+001
7.860203e+002, 2.831541e+001
7.865024e+002, 2.818417e+001
7.869845e+002, 2.799305e+001
7.874666e+002, 2.782783e+001
7.879487e+002, 2.771033e+001
7.884308e+002, 2.760758e+001
7.889130e+002, 2.749243e+001
7.893951e+002, 2.738681e+001
7.898772e+002, 2.731419e+001
7.903593e+002, 2.731257e+001
7.908414e+002, 2.727524e+001
7.913235e+002, 2.718869e+001
7.918057e+002, 2.708335e+001
7.922878e+002, 2.696955e+001
7.927699e+002, 2.685259e+001
7.932520e+002, 2.686929e+001
7.937341e+002, 2.706388e+001
7.942162e+002, 2.727909e+001
7.946984e+002, 2.741108e+001
7.951805e+002, 2.743053e+001
7.956626e+002, 2.727388e+001
7.961447e+002, 2.684079e+001
7.966268e+002, 2.642845e+001
7.971089e+002, 2.609129e+001
7.975911e+002, 2.585592e+001
7.980732e+002, 2.575325e+001
7.985553e+002, 2.585550e+001
7.990374e+002, 2.591049e+001
7.995195e+002, 2.588600e+001
8.000016e+002, 2.584851e+001
8.004838e+002, 2.589656e+001
8.009659e+002, 2.601391e+001
8.014480e+002, 2.610964e+001
8.019301e+002, 2.616822e+001
8.024122e+002, 2.619686e+001
8.028943e+002, 2.616267e+001
8.033765e+002, 2.611749e+001
8.038586e+002, 2.614294e+001
8.043407e+002, 2.638232e+001
8.048228e+002, 2.646815e+001
8.053049e+002, 2.611611e+001
8.057870e+002, 2.569833e+001
8.062692e+002, 2.562003e+001
8.067513e+002, 2.601234e+001
8.072334e+002, 2.619780e+001
8.077155e+002, 2.606723e+001
8.081976e+002, 2.585633e+001
8.086797e+002, 2.590540e+001
8.091619e+002, 2.612295e+001
8.096440e+002, 2.624454e+001
8.101261e+002, 2.620815e+001
8.106082e+002, 2.608974e+001
8.110903e+002, 2.587421e+001
8.115724e+002, 2.564210e+001
8.120546e+002, 2.548185e+001
8.125367e+002, 2.542167e+001
8.130188e+002, 2.543508e+001
8.135009e+002, 2.564596e+001
8.139830e+002, 2.580326e+001
8.144651e+002, 2.551707e+001
8.149473e+002, 2.473426e+001
8.154294e+002, 2.445888e+001
8.159115e+002, 2.487533e+001
8.163936e+002, 2.541047e+001
8.168757e+002, 2.532180e+001
8.173578e+002, 2.491250e+001
8.178400e+002, 2.473113e+001
8.183221e+002, 2.495842e+001
8.188042e+002, 2.519372e+001
8.192863e+002, 2.527609e+001
8.197684e+002, 2.525703e+001
8.202505e+002, 2.516675e+001
8.207327e+002, 2.489966e+001
8.212148e+002, 2.482288e+001
8.216969e+002, 2.500224e+001
8.221790e+002, 2.525215e+001
8.226611e+002, 2.540598e+001
8.231432e+002, 2.546231e+001
8.236254e+002, 2.536974e+001
8.241075e+002, 2.510845e+001
8.245896e+002, 2.482763e+001
8.250717e+002, 2.461748e+001
8.255538e+002, 2.448935e+001
8.260359e+002, 2.447551e+001
8.265181e+002, 2.461585e+001
8.270002e+002, 2.474689e+001
8.274823e+002, 2.490605e+001
8.279644e+002, 2.498389e+001
8.284465e+002, 2.487556e+001
8.289286e+002, 2.451594e+001
8.294108e+002, 2.430327e+001
8.298929e+002, 2.425560e+001
8.303750e+002, 2.428713e+001
8.308571e+002, 2.436011e+001
8.313392e+002, 2.444377e+001
8.318214e+002, 2.445469e+001
8.323035e+002, 2.438141e+001
8.327856e+002, 2.432934e+001
8.332677e+002, 2.444213e+001
8.337498e+002, 2.454633e+001
8.342319e+002, 2.446353e+001
8.347141e+002, 2.407022e+001
8.351962e+002, 2.397490e+001
8.356783e+002, 2.433273e+001
8.361604e+002, 2.472487e+001
8.366425e+002, 2.486031e+001
8.371246e+002, 2.475744e+001
8.376068e+002, 2.471096e+001
8.380889e+002, 2.472287e+001
8.385710e+002, 2.470173e+001
8.390531e+002, 2.451916e+001
8.395352e+002, 2.430265e+001
8.400173e+002, 2.419525e+001
8.404995e+002, 2.420508e+001
8.409816e+002, 2.423780e+001
8.414637e+002, 2.429939e+001
8.419458e+002, 2.433937e+001
8.424279e+002, 2.431864e+001
8.429100e+002, 2.423949e+001
8.433922e+002, 2.423759e+001
8.438743e+002, 2.431767e+001
8.443564e+002, 2.444787e+001
8.448385e+002, 2.466356e+001
8.453206e+002, 2.490079e+001
8.458027e+002, 2.499237e+001
8.462849e+002, 2.495729e+001
8.467670e+002, 2.489900e+001
8.472491e+002, 2.493764e+001
8.477312e+002, 2.491279e+001
8.482133e+002, 2.466235e+001
8.486954e+002, 2.422230e+001
8.491776e+002, 2.396032e+001
8.496597e+002, 2.393278e+001
8.501418e+002, 2.398831e+001
8.506239e+002, 2.410565e+001
8.511060e+002, 2.425533e+001
8.515881e+002, 2.434334e+001
8.520703e+002, 2.437086e+001
8.525524e+002, 2.434391e+001
8.530345e+002, 2.416940e+001
8.535166e+002, 2.403126e+001
8.539987e+002, 2.416579e+001
8.544808e+002, 2.446920e+001
8.549630e+002, 2.467882e+001
8.554451e+002, 2.466056e+001
8.559272e+002, 2.460538e+001
8.564093e+002, 2.457956e+001
8.568914e+002, 2.453050e+001
8.573735e+002, 2.427174e+001
8.578557e+002, 2.376931e+001
8.583378e+002, 2.348070e+001
8.588199e+002, 2.357822e+001
8.593020e+002, 2.383406e+001
8.597841e+002, 2.395668e+001
8.602662e+002, 2.397585e+001
8.607484e+002, 2.394253e+001
8.612305e+002, 2.378182e+001
8.617126e+002, 2.371155e+001
8.621947e+002, 2.392807e+001
8.626768e+002, 2.423431e+001
8.631589e+002, 2.433903e+001
8.636411e+002, 2.414243e+001
8.641232e+002, 2.404314e+001
8.646053e+002, 2.410690e+001
8.650874e+002, 2.420397e+001
8.655695e+002, 2.413110e+001
8.660516e+002, 2.394896e+001
8.665338e+002, 2.385703e+001
8.670159e+002, 2.390499e+001
8.674980e+002, 2.397561e+001
8.679801e+002, 2.395561e+001
8.684622e+002, 2.393505e+001
8.689443e+002, 2.401804e+001
8.694265e+002, 2.432922e+001
8.699086e+002, 2.447527e+001
8.703907e+002, 2.442640e+001
8.708728e+002, 2.425774e+001
8.713549e+002, 2.396032e+001
8.718370e+002, 2.355898e+001
8.723192e+002, 2.338406e+001
8.728013e+002, 2.344823e+001
8.732834e+002, 2.358942e+001
8.737655e+002, 2.374903e+001
8.742476e+002, 2.387038e+001
8.747297e+002, 2.386899e+001
8.752119e+002, 2.373411e+001
8.756940e+002, 2.363922e+001
8.761761e+002, 2.363327e+001
8.766582e+002, 2.367183e+001
8.771403e+002, 2.374807e+001
8.776224e+002, 2.385876e+001
8.781046e+002, 2.397540e+001
8.785867e+002, 2.410045e+001
8.790688e+002, 2.417490e+001
8.795509e+002, 2.417160e+001
8.800330e+002, 2.409054e+001
8.805151e+002, 2.381234e+001
8.809973e+002, 2.342865e+001
8.814794e+002, 2.328826e+001
8.819615e+002, 2.390755e+001
8.824436e+002, 2.439619e+001
8.829257e+002, 2.430833e+001
8.834078e+002, 2.385398e+001
8.838900e+002, 2.362847e+001
8.843721e+002, 2.368053e+001
8.848542e+002, 2.369170e+001
8.853363e+002, 2.353081e+001
8.858184e+002, 2.334617e+001
8.863005e+002, 2.345090e+001
8.867827e+002, 2.374175e+001
8.872648e+002, 2.395048e+001
8.877469e+002, 2.391718e+001
8.882290e+002, 2.387588e+001
8.887111e+002, 2.397947e+001
8.891932e+002, 2.411459e+001
8.896754e+002, 2.410733e+001
8.901575e+002, 2.387528e+001
8.906396e+002, 2.371779e+001
8.911217e+002, 2.367203e+001
8.916038e+002, 2.367493e+001
8.920859e+002, 2.363634e+001
8.925681e+002, 2.358151e+001
8.930502e+002, 2.360109e+001
8.935323e+002, 2.371960e+001
8.940144e+002, 2.383642e+001
8.944965e+002, 2.393073e+001
8.949786e+002, 2.395943e+001
8.954608e+002, 2.384981e+001
8.959429e+002, 2.351001e+001
8.964250e+002, 2.338638e+001
8.969071e+002, 2.358065e+001
8.973892e+002, 2.378855e+001
8.978713e+002, 2.374442e+001
8.983535e+002, 2.351527e+001
8.988356e+002, 2.356201e+001
8.993177e+002, 2.386431e+001
8.997998e+002, 2.408111e+001
9.002819e+002, 2.387882e+001
9.007640e+002, 2.358982e+001
9.012462e+002, 2.346838e+001
9.017283e+002, 2.351046e+001
9.022104e+002, 2.353272e+001
9.026925e+002, 2.350564e+001
9.031746e+002, 2.346608e+001
9.036567e+002, 2.338762e+001
9.041389e+002, 2.332468e+001
9.046210e+002, 2.354166e+001
9.051031e+002, 2.399194e+001
9.055852e+002, 2.425775e+001
9.060673e+002, 2.406602e+001
9.065494e+002, 2.376186e+001
9.070316e+002, 2.362440e+001
9.075137e+002, 2.360358e+001
9.079958e+002, 2.360994e+001
9.084779e+002, 2.366615e+001
9.089600e+002, 2.368053e+001
9.094421e+002, 2.359745e+001
9.099243e+002, 2.352101e+001
9.104064e+002, 2.363623e+001
9.108885e+002, 2.392684e+001
9.113706e+002, 2.409540e+001
9.118527e+002, 2.408786e+001
9.123348e+002, 2.402097e+001
9.128170e+002, 2.398338e+001
9.132991e+002, 2.396187e+001
9.137812e+002, 2.394164e+001
9.142633e+002, 2.391937e+001
9.147454e+002, 2.390269e+001
9.152275e+002, 2.388840e+001
9.157097e+002, 2.388490e+001
9.161918e+002, 2.389239e+001
9.166739e+002, 2.391133e+001
9.171560e+002, 2.400234e+001
9.176381e+002, 2.416588e+001
9.181202e+002, 2.425670e+001
9.186024e+002, 2.411089e+001
9.190845e+002, 2.388306e+001
9.195666e+002, 2.370906e+001
9.200487e+002, 2.359861e+001
9.205308e+002, 2.356069e+001
9.210129e+002, 2.366535e+001
9.214951e+002, 2.376397e+001
9.219772e+002, 2.381124e+001
9.224593e+002, 2.382958e+001
9.229414e+002, 2.390138e+001
9.234235e+002, 2.402414e+001
9.239056e+002, 2.409494e+001
9.243878e+002, 2.404554e+001
9.248699e+002, 2.399893e+001
9.253520e+002, 2.410551e+001
9.258341e+002, 2.430739e+001
9.263162e+002, 2.451872e+001
9.267983e+002, 2.484902e+001
9.272805e+002, 2.497068e+001
9.277626e+002, 2.474670e+001
9.282447e+002, 2.441976e+001
9.287268e+002, 2.422738e+001
9.292089e+002, 2.417067e+001
9.296910e+002, 2.416104e+001
9.301732e+002, 2.419249e+001
9.306553e+002, 2.427514e+001
9.311374e+002, 2.452798e+001
9.316195e+002, 2.477200e+001
9.321016e+002, 2.474152e+001
9.325837e+002, 2.439217e+001
9.330659e+002, 2.420497e+001
9.335480e+002, 2.448983e+001
9.340301e+002, 2.471551e+001
9.345122e+002, 2.462031e+001
9.349943e+002, 2.427750e+001
9.354764e+002, 2.424309e+001
9.359586e+002, 2.450707e+001
9.364407e+002, 2.471937e+001
9.369228e+002, 2.457768e+001
9.374049e+002, 2.442051e+001
9.378870e+002, 2.471391e+001
9.383691e+002, 2.525833e+001
9.388513e+002, 2.558576e+001
9.393334e+002, 2.534007e+001
9.398155e+002, 2.517323e+001
9.402976e+002, 2.517687e+001
9.407797e+002, 2.529450e+001
9.412618e+002, 2.551118e+001
9.417440e+002, 2.580582e+001
9.422261e+002, 2.581654e+001
9.427082e+002, 2.542063e+001
9.431903e+002, 2.508666e+001
9.436724e+002, 2.534561e+001
9.441545e+002, 2.585542e+001
9.446367e+002, 2.627616e+001
9.451188e+002, 2.653822e+001
9.456009e+002, 2.675146e+001
9.460830e+002, 2.690560e+001
9.465651e+002, 2.704868e+001
9.470472e+002, 2.723730e+001
9.475294e+002, 2.745087e+001
9.480115e+002, 2.745171e+001
9.484936e+002, 2.726091e+001
9.489757e+002, 2.712326e+001
9.494578e+002, 2.722016e+001
9.499399e+002, 2.740677e+001
9.504221e+002, 2.761521e+001
9.509042e+002, 2.782599e+001
9.513863e+002, 2.796343e+001
9.518684e+002, 2.795077e+001
9.523505e+002, 2.801515e+001
9.528326e+002, 2.823610e+001
9.533148e+002, 2.850415e+001
9.537969e+002, 2.860886e+001
9.542790e+002, 2.857710e+001
9.547611e+002, 2.853372e+001
9.552432e+002, 2.853165e+001
9.557253e+002, 2.844390e+001
9.562075e+002, 2.807462e+001
9.566896e+002, 2.763516e+001
9.571717e+002, 2.735144e+001
9.576538e+002, 2.732620e+001
9.581359e+002, 2.716233e+001
9.586180e+002, 2.679821e+001
9.591002e+002, 2.644574e+001
9.595823e+002, 2.632273e+001
9.600644e+002, 2.632614e+001
9.605465e+002, 2.607966e+001
9.610286e+002, 2.561851e+001
9.615107e+002, 2.526957e+001
9.619929e+002, 2.533807e+001
9.624750e+002, 2.544473e+001
9.629571e+002, 2.536643e+001
9.634392e+002, 2.515789e+001
9.639213e+002, 2.504865e+001
9.644034e+002, 2.508016e+001
9.648856e+002, 2.504067e+001
9.653677e+002, 2.485503e+001
9.658498e+002, 2.462439e+001
9.663319e+002, 2.445756e+001
9.668140e+002, 2.437632e+001
9.672961e+002, 2.445692e+001
9.677783e+002, 2.480900e+001
9.682604e+002, 2.507954e+001
9.687425e+002, 2.515868e+001
9.692246e+002, 2.507931e+001
9.697067e+002, 2.479733e+001
9.701888e+002, 2.423195e+001
9.706710e+002, 2.417150e+001
9.711531e+002, 2.467101e+001
9.716352e+002, 2.515229e+001
9.721173e+002, 2.506061e+001
9.725994e+002, 2.475281e+001
9.730815e+002, 2.470975e+001
9.735637e+002, 2.490098e+001
9.740458e+002, 2.504748e+001
9.745279e+002, 2.504729e+001
9.750100e+002, 2.499069e+001
9.754921e+002, 2.484177e+001
9.759742e+002, 2.468823e+001
9.764564e+002, 2.481003e+001
9.769385e+002, 2.518733e+001
9.774206e+002, 2.542173e+001
9.779027e+002, 2.539688e+001
9.783848e+002, 2.523642e+001
9.788669e+002, 2.487223e+001
9.793491e+002, 2.453077e+001
9.798312e+002, 2.452571e+001
9.803133e+002, 2.516094e+001
9.807954e+002, 2.546881e+001
9.812775e+002, 2.529321e+001
9.817596e+002, 2.501353e+001
9.822418e+002, 2.488334e+001
9.827239e+002, 2.487910e+001
9.832060e+002, 2.491257e+001
9.836881e+002, 2.497138e+001
9.841702e+002, 2.495847e+001
9.846523e+002, 2.471165e+001
9.851345e+002, 2.447363e+001
9.856166e+002, 2.435770e+001
9.860987e+002, 2.437450e+001
9.865808e+002, 2.454156e+001
9.870629e+002, 2.495713e+001
9.875450e+002, 2.517763e+001
9.880272e+002, 2.505194e+001
9.885093e+002, 2.485417e+001
9.889914e+002, 2.514139e+001
9.894735e+002, 2.563758e+001
9.899556e+002, 2.568988e+001
9.904377e+002, 2.500290e+001
9.909199e+002, 2.454187e+001
9.914020e+002, 2.500523e+001
9.918841e+002, 2.557835e+001
9.923662e+002, 2.568728e+001
9.928483e+002, 2.531267e+001
9.933304e+002, 2.514212e+001
9.938126e+002, 2.518838e+001
9.942947e+002, 2.521583e+001
9.947768e+002, 2.495197e+001
9.952589e+002, 2.467855e+001
9.957410e+002, 2.482066e+001
9.962231e+002, 2.523659e+001
9.967053e+002, 2.551725e+001
9.971874e+002, 2.542338e+001
9.976695e+002, 2.533958e+001
9.981516e+002, 2.531914e+001
9.986337e+002, 2.532898e+001
9.991158e+002, 2.531082e+001
9.995980e+002, 2.527272e+001
1.000080e+003, 2.528382e+001
1.000562e+003, 2.536132e+001
1.001044e+003, 2.542366e+001
1.001526e+003, 2.538360e+001
1.002009e+003, 2.532054e+001
1.002491e+003, 2.530548e+001
1.002973e+003, 2.535045e+001
1.003455e+003, 2.537863e+001
1.003937e+003, 2.539639e+001
1.004419e+003, 2.537241e+001
1.004901e+003, 2.524952e+001
1.005383e+003, 2.511285e+001
1.005865e+003, 2.520847e+001
1.006348e+003, 2.544810e+001
1.006830e+003, 2.558193e+001
1.007312e+003, 2.534487e+001
1.007794e+003, 2.517815e+001
1.008276e+003, 2.531143e+001
1.008758e+003, 2.552183e+001
1.009240e+003, 2.555587e+001
1.009722e+003, 2.538685e+001
1.010205e+003, 2.531513e+001
1.010687e+003, 2.536354e+001
1.011169e+003, 2.546403e+001
1.011651e+003, 2.562397e+001
1.012133e+003, 2.575772e+001
1.012615e+003, 2.573037e+001
1.013097e+003, 2.554722e+001
1.013579e+003, 2.547136e+001
1.014061e+003, 2.563354e+001
1.014544e+003, 2.575649e+001
1.015026e+003, 2.574943e+001
1.015508e+003, 2.566360e+001
1.015990e+003, 2.561227e+001
1.016472e+003, 2.559217e+001
1.016954e+003, 2.558393e+001
1.017436e+003, 2.556225e+001
1.017918e+003, 2.560068e+001
1.018401e+003, 2.583512e+001
1.018883e+003, 2.609448e+001
1.019365e+003, 2.619208e+001
1.019847e+003, 2.607145e+001
1.020329e+003, 2.608561e+001
1.020811e+003, 2.627114e+001
1.021293e+003, 2.639247e+001
1.021775e+003, 2.617284e+001
1.022257e+003, 2.584259e+001
1.022740e+003, 2.579422e+001
1.023222e+003, 2.596447e+001
1.023704e+003, 2.609055e+001
1.024186e+003, 2.601817e+001
1.024668e+003, 2.597197e+001
1.025150e+003, 2.602291e+001
1.025632e+003, 2.610092e+001
1.026114e+003, 2.604221e+001
1.026596e+003, 2.587654e+001
1.027079e+003, 2.591682e+001
1.027561e+003, 2.624404e+001
1.028043e+003, 2.651497e+001
1.028525e+003, 2.637754e+001
1.029007e+003, 2.611477e+001
1.029489e+003, 2.595295e+001
1.029971e+003, 2.591679e+001
1.030453e+003, 2.595648e+001
1.030936e+003, 2.609930e+001
1.031418e+003, 2.623133e+001
1.031900e+003, 2.631813e+001
1.032382e+003, 2.635077e+001
1.032864e+003, 2.625708e+001
1.033346e+003, 2.609860e+001
1.033828e+003, 2.602470e+001
1.034310e+003, 2.613762e+001
1.034792e+003, 2.626662e+001
1.035275e+003, 2.640760e+001
1.035757e+003, 2.651545e+001
1.036239e+003, 2.652995e+001
1.036721e+003, 2.645119e+001
1.037203e+003, 2.643737e+001
1.037685e+003, 2.649350e+001
1.038167e+003, 2.657865e+001
1.038649e+003, 2.665857e+001
1.039132e+003, 2.675940e+001
1.039614e+003, 2.698600e+001
1.040096e+003, 2.727166e+001
1.040578e+003, 2.728969e+001
1.041060e+003, 2.693610e+001
1.041542e+003, 2.653722e+001
1.042024e+003, 2.609467e+001
1.042506e+003, 2.575878e+001
1.042989e+003, 2.581276e+001
1.043471e+003, 2.612557e+001
1.043953e+003, 2.644746e+001
1.044435e+003, 2.675003e+001
1.044917e+003, 2.695992e+001
1.045399e+003, 2.694092e+001
1.045881e+003, 2.693616e+001
1.046363e+003, 2.709818e+001
1.046845e+003, 2.739046e+001
1.047328e+003, 2.751235e+001
1.047810e+003, 2.747136e+001
1.048292e+003, 2.737049e+001
1.048774e+003, 2.721520e+001
1.049256e+003, 2.707834e+001
1.049738e+003, 2.700188e+001
1.050220e+003, 2.698759e+001
1.050702e+003, 2.705067e+001
1.051184e+003, 2.727115e+001
1.051667e+003, 2.735494e+001
1.052149e+003, 2.726165e+001
1.052631e+003, 2.714431e+001
1.053113e+003, 2.716162e+001
1.053595e+003, 2.723892e+001
1.054077e+003, 2.720552e+001
1.054559e+003, 2.707678e+001
1.055041e+003, 2.700290e+001
1.055523e+003, 2.705476e+001
1.056006e+003, 2.717012e+001
1.056488e+003, 2.738587e+001
1.056970e+003, 2.760683e+001
1.057452e+003, 2.758055e+001
1.057934e+003, 2.734531e+001
1.058416e+003, 2.727908e+001
1.058898e+003, 2.747967e+001
1.059380e+003, 2.769068e+001
1.059863e+003, 2.764089e+001
1.060345e+003, 2.755709e+001
1.060827e+003, 2.767436e+001
1.061309e+003, 2.801197e+001
1.061791e+003, 2.815528e+001
1.062273e+003, 2.807282e+001
1.062755e+003, 2.793418e+001
1.063237e+003, 2.776999e+001
1.063719e+003, 2.764944e+001
1.064202e+003, 2.768863e+001
1.064684e+003, 2.784864e+001
1.065166e+003, 2.806282e+001
1.065648e+003, 2.840812e+001
1.066130e+003, 2.862133e+001
1.066612e+003, 2.862483e+001
1.067094e+003, 2.857769e+001
1.067576e+003, 2.864157e+001
1.068059e+003, 2.877707e+001
1.068541e+003, 2.870699e+001
1.069023e+003, 2.845704e+001
1.069505e+003, 2.826399e+001
1.069987e+003, 2.828585e+001
1.070469e+003, 2.838393e+001
1.070951e+003, 2.859303e+001
1.071433e+003, 2.879167e+001
1.071916e+003, 2.868810e+001
1.072398e+003, 2.822044e+001
1.072880e+003, 2.804230e+001
1.073362e+003, 2.827279e+001
1.073844e+003, 2.860011e+001
1.074326e+003, 2.872629e+001
1.074808e+003, 2.877049e+001
1.075290e+003, 2.888093e+001
1.075772e+003, 2.906948e+001
1.076255e+003, 2.912501e+001
1.076737e+003, 2.898273e+001
1.077219e+003, 2.882751e+001
1.077701e+003, 2.868777e+001
1.078183e+003, 2.861658e+001
1.078665e+003, 2.879621e+001
1.079147e+003, 2.911552e+001
1.079629e+003, 2.930450e+001
1.080111e+003, 2.924506e+001
1.080594e+003, 2.919545e+001
1.081076e+003, 2.923786e+001
1.081558e+003, 2.932742e+001
1.082040e+003, 2.948180e+001
1.082522e+003, 2.967811e+001
1.083004e+003, 2.961111e+001
1.083486e+003, 2.931116e+001
1.083968e+003, 2.907482e+001
1.084450e+003, 2.906034e+001
1.084933e+003, 2.916469e+001
1.085415e+003, 2.940975e+001
1.085897e+003, 2.969622e+001
1.086379e+003, 2.985455e+001
1.086861e+003, 2.981397e+001
1.087343e+003, 2.995700e+001
1.087825e+003, 3.033546e+001
1.088307e+003, 3.066605e+001
1.088790e+003, 3.064310e+001
1.089272e+003, 3.047106e+001
1.089754e+003, 3.039244e+001
1.090236e+003, 3.039873e+001
1.090718e+003, 3.036794e+001
1.091200e+003, 3.017457e+001
1.091682e+003, 3.014197e+001
1.092164e+003, 3.036718e+001
1.092646e+003, 3.069765e+001
1.093129e+003, 3.093584e+001
1.093611e+003, 3.108707e+001
1.094093e+003, 3.116088e+001
1.094575e+003, 3.115571e+001
1.095057e+003, 3.111729e+001
1.095539e+003, 3.099206e+001
1.096021e+003, 3.092422e+001
1.096503e+003, 3.100625e+001
1.096986e+003, 3.118139e+001
1.097468e+003, 3.121717e+001
1.097950e+003, 3.113160e+001
1.098432e+003, 3.107376e+001
1.098914e+003, 3.108610e+001
1.099396e+003, 3.115178e+001
1.099878e+003, 3.131548e+001
1.100360e+003, 3.148917e+001
1.100843e+003, 3.159168e+001
1.101325e+003, 3.162390e+001
1.101807e+003, 3.156560e+001
1.102289e+003, 3.140683e+001
1.102771e+003, 3.126079e+001
1.103253e+003, 3.116532e+001
1.103735e+003, 3.114336e+001
1.104217e+003, 3.128053e+001
1.104699e+003, 3.149841e+001
1.105182e+003, 3.164719e+001
1.105664e+003, 3.161681e+001
1.106146e+003, 3.167711e+001
1.106628e+003, 3.186810e+001
1.107110e+003, 3.206106e+001
1.107592e+003, 3.214241e+001
1.108074e+003, 3.214357e+001
1.108556e+003, 3.213646e+001
1.109038e+003, 3.211628e+001
1.109521e+003, 3.204450e+001
1.110003e+003, 3.174496e+001
1.110485e+003, 3.161659e+001
1.110967e+003, 3.178121e+001
1.111449e+003, 3.209576e+001
1.111931e+003, 3.237975e+001
1.112413e+003, 3.262807e+001
1.112895e+003, 3.280190e+001
1.113377e+003, 3.289712e+001
1.113860e+003, 3.299506e+001
1.114342e+003, 3.310701e+001
1.114824e+003, 3.328009e+001
1.115306e+003, 3.360340e+001
1.115788e+003, 3.399145e+001
1.116270e+003, 3.410855e+001
1.116752e+003, 3.396243e+001
1.117234e+003, 3.393242e+001
1.117717e+003, 3.413607e+001
1.118199e+003, 3.438903e+001
1.118681e+003, 3.456742e+001
1.119163e+003, 3.468922e+001
1.119645e+003, 3.476586e+001
1.120127e+003, 3.479917e+001
1.120609e+003, 3.477515e+001
1.121091e+003, 3.467153e+001
1.121573e+003, 3.465583e+001
1.122056e+003, 3.483713e+001
1.122538e+003, 3.507882e+001
1.123020e+003, 3.526630e+001
1.123502e+003, 3.537540e+001
1.123984e+003, 3.534465e+001
1.124466e+003, 3.497715e+001
1.124948e+003, 3.495784e+001
1.125430e+003, 3.542107e+001
1.125913e+003, 3.590389e+001
1.126395e+003, 3.608544e+001
1.126877e+003, 3.607545e+001
1.127359e+003, 3.607483e+001
1.127841e+003, 3.609581e+001
1.128323e+003, 3.617237e+001
1.128805e+003, 3.635124e+001
1.129287e+003, 3.654717e+001
1.129770e+003, 3.678529e+001
1.130252e+003, 3.698125e+001
1.130734e+003, 3.697172e+001
1.131216e+003, 3.684879e+001
1.131698e+003, 3.703179e+001
1.132180e+003, 3.749991e+001
1.132662e+003, 3.797696e+001
1.133144e+003, 3.850234e+001
1.133626e+003, 3.877110e+001
1.134109e+003, 3.855042e+001
1.134591e+003, 3.812870e+001
1.135073e+003, 3.793310e+001
1.135555e+003, 3.794970e+001
1.136037e+003, 3.798653e+001
1.136519e+003, 3.802150e+001
1.137001e+003, 3.812887e+001
1.137483e+003, 3.846976e+001
1.137965e+003, 3.879818e+001
1.138448e+003, 3.890361e+001
1.138930e+003, 3.887595e+001
1.139412e+003, 3.897826e+001
1.139894e+003, 3.921401e+001
1.140376e+003, 3.959301e+001
1.140858e+003, 4.016864e+001
1.141340e+003, 4.061305e+001
1.141822e+003, 4.047685e+001
1.142304e+003, 4.017561e+001
1.142787e+003, 4.007252e+001
1.143269e+003, 4.019895e+001
1.143751e+003, 4.044299e+001
1.144233e+003, 4.084019e+001
1.144715e+003, 4.113646e+001
1.145197e+003, 4.121275e+001
1.145679e+003, 4.121269e+001
1.146161e+003, 4.131303e+001
1.146644e+003, 4.144989e+001
1.147126e+003, 4.153456e+001
1.147608e+003, 4.152779e+001
1.148090e+003, 4.155312e+001
1.148572e+003, 4.159794e+001
1.149054e+003, 4.172551e+001
1.149536e+003, 4.201282e+001
1.150018e+003, 4.234797e+001
1.150500e+003, 4.246762e+001
1.150983e+003, 4.250417e+001
1.151465e+003, 4.274113e+001
1.151947e+003, 4.347469e+001
1.152429e+003, 4.393309e+001
1.152911e+003, 4.399057e+001
1.153393e+003, 4.393863e+001
1.153875e+003, 4.395846e+001
1.154357e+003, 4.402755e+001
1.154840e+003, 4.409886e+001
1.155322e+003, 4.416740e+001
1.155804e+003, 4.421409e+001
1.156286e+003, 4.418261e+001
1.156768e+003, 4.419101e+001
1.157250e+003, 4.418363e+001
1.157732e+003, 4.431531e+001
1.158214e+003, 4.486370e+001
1.158697e+003, 4.568074e+001
1.159179e+003, 4.609426e+001
1.159661e+003, 4.613722e+001
1.160143e+003, 4.609660e+001
1.160625e+003, 4.597998e+001
1.161107e+003, 4.598108e+001
1.161589e+003, 4.624785e+001
1.162071e+003, 4.656484e+001
1.162553e+003, 4.661721e+001
1.163036e+003, 4.645333e+001
1.163518e+003, 4.642587e+001
1.164000e+003, 4.655503e+001
1.164482e+003, 4.673180e+001
1.164964e+003, 4.687570e+001
1.165446e+003, 4.707551e+001
1.165928e+003, 4.751461e+001
1.166410e+003, 4.795602e+001
1.166892e+003, 4.778845e+001
1.167375e+003, 4.708263e+001
1.167857e+003, 4.694619e+001
1.168339e+003, 4.753983e+001
1.168821e+003, 4.828841e+001
1.169303e+003, 4.899352e+001
1.169785e+003, 4.950952e+001
1.170267e+003, 4.966510e+001
1.170749e+003, 4.957405e+001
1.171231e+003, 4.953030e+001
1.171714e+003, 4.953243e+001
1.172196e+003, 4.946365e+001
1.172678e+003, 4.929500e+001
1.173160e+003, 4.908613e+001
1.173642e+003, 4.869418e+001
1.174124e+003, 4.844318e+001
1.174606e+003, 4.873377e+001
1.175088e+003, 4.944671e+001
1.175571e+003, 4.986057e+001
1.176053e+003, 4.995934e+001
1.176535e+003, 5.017523e+001
1.177017e+003, 5.068574e+001
1.177499e+003, 5.116685e+001
1.177981e+003, 5.129844e+001
1.178463e+003, 5.125407e+001
1.178945e+003, 5.115340e+001
1.179427e+003, 5.100930e+001
1.179910e+003, 5.102065e+001
1.180392e+003, 5.120112e+001
1.180874e+003, 5.140316e+001
1.181356e+003, 5.158264e+001
1.181838e+003, 5.173589e+001
1.182320e+003, 5.187930e+001
1.182802e+003, 5.198238e+001
1.183284e+003, 5.197715e+001
1.183767e+003, 5.182863e+001
1.184249e+003, 5.187288e+001
1.184731e+003, 5.215246e+001
1.185213e+003, 5.232781e+001
1.185695e+003, 5.215741e+001
1.186177e+003, 5.193082e+001
1.186659e+003, 5.199573e+001
1.187141e+003, 5.221842e+001
1.187624e+003, 5.241679e+001
1.188106e+003, 5.257706e+001
1.188588e+003, 5.265922e+001
1.189070e+003, 5.264460e+001
1.189552e+003, 5.265739e+001
1.190034e+003, 5.275053e+001
1.190516e+003, 5.292979e+001
1.190998e+003, 5.334571e+001
1.191480e+003, 5.380566e+001
1.191963e+003, 5.395619e+001
1.192445e+003, 5.356594e+001
1.192927e+003, 5.332392e+001
1.193409e+003, 5.324311e+001
1.193891e+003, 5.324657e+001
1.194373e+003, 5.332090e+001
1.194855e+003, 5.341605e+001
1.195337e+003, 5.342755e+001
1.195819e+003, 5.341507e+001
1.196302e+003, 5.351914e+001
1.196784e+003, 5.384124e+001
1.197266e+003, 5.410529e+001
1.197748e+003, 5.431998e+001
1.198230e+003, 5.441716e+001
1.198712e+003, 5.424683e+001
1.199194e+003, 5.399346e+001
1.199676e+003, 5.392234e+001
1.200158e+003, 5.397632e+001
1.200641e+003, 5.398612e+001
1.201123e+003, 5.386939e+001
1.201605e+003, 5.383175e+001
1.202087e+003, 5.387721e+001
1.202569e+003, 5.403328e+001
1.203051e+003, 5.445854e+001
1.203533e+003, 5.491502e+001
1.204015e+003, 5.504087e+001
1.204498e+003, 5.491655e+001
1.204980e+003, 5.486612e+001
1.205462e+003, 5.498394e+001
1.205944e+003, 5.506340e+001
1.206426e+003, 5.508845e+001
1.206908e+003, 5.506889e+001
1.207390e+003, 5.503061e+001
1.207872e+003, 5.494292e+001
1.208354e+003, 5.466970e+001
1.208837e+003, 5.428770e+001
1.209319e+003, 5.419349e+001
1.209801e+003, 5.461857e+001
1.210283e+003, 5.478319e+001
1.210765e+003, 5.454100e+001
1.211247e+003, 5.423556e+001
1.211729e+003, 5.418410e+001
1.212211e+003, 5.430682e+001
1.212694e+003, 5.460526e+001
1.213176e+003, 5.501636e+001
1.213658e+003, 5.517408e+001
1.214140e+003, 5.495412e+001
1.214622e+003, 5.480530e+001
1.215104e+003, 5.480768e+001
1.215586e+003, 5.483158e+001
1.216068e+003, 5.476214e+001
1.216551e+003, 5.461705e+001
1.217033e+003, 5.436080e+001
1.217515e+003, 5.402531e+001
1.217997e+003, 5.385442e+001
1.218479e+003, 5.389547e+001
1.218961e+003, 5.397609e+001
1.219443e+003, 5.408189e+001
1.219925e+003, 5.415710e+001
1.220407e+003, 5.411823e+001
1.220890e+003, 5.402812e+001
1.221372e+003, 5.396538e+001
1.221854e+003, 5.392651e+001
1.222336e+003, 5.381033e+001
1.222818e+003, 5.356495e+001
1.223300e+003, 5.345458e+001
1.223782e+003, 5.355016e+001
1.224264e+003, 5.370021e+001
1.224746e+003, 5.374792e+001
1.225229e+003, 5.375528e+001
1.225711e+003, 5.378991e+001
1.226193e+003, 5.385276e+001
1.226675e+003, 5.388428e+001
1.227157e+003, 5.387214e+001
1.227639e+003, 5.391194e+001
1.228121e+003, 5.404315e+001
1.228603e+003, 5.413866e+001
1.229085e+003, 5.408104e+001
1.229568e+003, 5.390896e+001
1.230050e+003, 5.355023e+001
1.230532e+003, 5.306616e+001
1.231014e+003, 5.300946e+001
1.231496e+003, 5.345091e+001
1.231978e+003, 5.366870e+001
1.232460e+003, 5.346653e+001
1.232942e+003, 5.316109e+001
1.233425e+003, 5.295475e+001
1.233907e+003, 5.286364e+001
1.234389e+003, 5.301144e+001
1.234871e+003, 5.331606e+001
1.235353e+003, 5.323088e+001
1.235835e+003, 5.273385e+001
1.236317e+003, 5.241700e+001
1.236799e+003, 5.246651e+001
1.237281e+003, 5.248664e+001
1.237764e+003, 5.194325e+001
1.238246e+003, 5.140331e+001
1.238728e+003, 5.142717e+001
1.239210e+003, 5.185730e+001
1.239692e+003, 5.204906e+001
1.240174e+003, 5.200684e+001
1.240656e+003, 5.192201e+001
1.241138e+003, 5.184682e+001
1.241621e+003, 5.169327e+001
1.242103e+003, 5.128290e+001
1.242585e+003, 5.088381e+001
1.243067e+003, 5.070471e+001
1.243549e+003, 5.067491e+001
1.244031e+003, 5.049005e+001
1.244513e+003, 5.018652e+001
1.244995e+003, 5.011399e+001
1.245478e+003, 5.040060e+001
1.245960e+003, 5.061741e+001
1.246442e+003, 5.048896e+001
1.246924e+003, 5.021495e+001
1.247406e+003, 4.987032e+001
1.247888e+003, 4.950739e+001
1.248370e+003, 4.930330e+001
1.248852e+003, 4.923834e+001
1.249334e+003, 4.924816e+001
1.249817e+003, 4.933633e+001
1.250299e+003, 4.937578e+001
1.250781e+003, 4.928899e+001
1.251263e+003, 4.915157e+001
1.251745e+003, 4.896843e+001
1.252227e+003, 4.878331e+001
1.252709e+003, 4.873829e+001
1.253191e+003, 4.877680e+001
1.253673e+003, 4.871798e+001
1.254156e+003, 4.850817e+001
1.254638e+003, 4.834115e+001
1.255120e+003, 4.832618e+001
1.255602e+003, 4.829179e+001
1.256084e+003, 4.819084e+001
1.256566e+003, 4.802532e+001
1.257048e+003, 4.773845e+001
1.257530e+003, 4.740724e+001
1.258012e+003, 4.721995e+001
1.258495e+003, 4.722752e+001
1.258977e+003, 4.714493e+001
1.259459e+003, 4.687906e+001
1.259941e+003, 4.663861e+001
1.260423e+003, 4.648738e+001
1.260905e+003, 4.639829e+001
1.261387e+003, 4.639337e+001
1.261869e+003, 4.638999e+001
1.262352e+003, 4.622132e+001
1.262834e+003, 4.584923e+001
1.263316e+003, 4.567358e+001
1.263798e+003, 4.578173e+001
1.264280e+003, 4.581314e+001
1.264762e+003, 4.562305e+001
1.265244e+003, 4.544043e+001
1.265726e+003, 4.566282e+001
1.266208e+003, 4.596724e+001
1.266691e+003, 4.598109e+001
1.267173e+003, 4.566611e+001
1.267655e+003, 4.528829e+001
1.268137e+003, 4.482058e+001
1.268619e+003, 4.451075e+001
1.269101e+003, 4.444784e+001
1.269583e+003, 4.446043e+001
1.270065e+003, 4.447519e+001
1.270548e+003, 4.441875e+001
1.271030e+003, 4.416576e+001
1.271512e+003, 4.377765e+001
1.271994e+003, 4.352055e+001
1.272476e+003, 4.339284e+001
1.272958e+003, 4.323044e+001
1.273440e+003, 4.297507e+001
1.273922e+003, 4.285202e+001
1.274405e+003, 4.319298e+001
1.274887e+003, 4.354865e+001
1.275369e+003, 4.370395e+001
1.275851e+003, 4.365364e+001
1.276333e+003, 4.323157e+001
1.276815e+003, 4.255852e+001
1.277297e+003, 4.231895e+001
1.277779e+003, 4.267184e+001
1.278261e+003, 4.296711e+001
1.278744e+003, 4.279313e+001
1.279226e+003, 4.258665e+001
1.279708e+003, 4.252488e+001
1.280190e+003, 4.250172e+001
1.280672e+003, 4.228975e+001
1.281154e+003, 4.195066e+001
1.281636e+003, 4.161136e+001
1.282118e+003, 4.128709e+001
1.282600e+003, 4.108852e+001
1.283083e+003, 4.102904e+001
1.283565e+003, 4.117031e+001
1.284047e+003, 4.162085e+001
1.284529e+003, 4.205892e+001
1.285011e+003, 4.199338e+001
1.285493e+003, 4.162963e+001
1.285975e+003, 4.122519e+001
1.286457e+003, 4.081826e+001
1.286939e+003, 4.051127e+001
1.287422e+003, 4.030811e+001
1.287904e+003, 4.022920e+001
1.288386e+003, 4.030818e+001
1.288868e+003, 4.038031e+001
1.289350e+003, 4.020864e+001
1.289832e+003, 3.998651e+001
1.290314e+003, 3.998424e+001
1.290796e+003, 4.011883e+001
1.291279e+003, 3.989865e+001
1.291761e+003, 3.925982e+001
1.292243e+003, 3.896303e+001
1.292725e+003, 3.912998e+001
1.293207e+003, 3.938133e+001
1.293689e+003, 3.944952e+001
1.294171e+003, 3.946058e+001
1.294653e+003, 3.953634e+001
1.295135e+003, 3.959091e+001
1.295618e+003, 3.941906e+001
1.296100e+003, 3.905336e+001
1.296582e+003, 3.880983e+001
1.297064e+003, 3.871921e+001
1.297546e+003, 3.869942e+001
1.298028e+003, 3.876057e+001
1.298510e+003, 3.879402e+001
1.298992e+003, 3.876348e+001
1.299475e+003, 3.870550e+001
1.299957e+003, 3.866656e+001
1.300439e+003, 3.863995e+001
1.300921e+003, 3.857904e+001
1.301403e+003, 3.849992e+001
1.301885e+003, 3.848867e+001
##END=



