##NAMES=Fredrikssonite
##RRUFFID=R130112
##IDEAL CHEMISTRY=Mg_2_Mn^3+^O_2_(BO_3_)
##LOCALITY=Langban, Filipstad, Varmland, Sweden
##OWNER=RRUFF
##SOURCE=Rock Currier
##DESCRIPTION=Opaque reddish black striated prismatic crystals, associated with calcite and granular hausmannite.
##STATUS=The identification of this mineral has been confirmed by single-crystal X-ray diffraction.
##URL=rruff.info/R130112
8.975323e+001, 0.000000e+000
9.023535e+001, 3.468159e+002
9.071747e+001, 3.462026e+002
9.119958e+001, 3.446597e+002
9.168170e+001, 3.474955e+002
9.216382e+001, 3.486630e+002
9.264594e+001, 3.478951e+002
9.312805e+001, 3.463983e+002
9.361017e+001, 3.447758e+002
9.409229e+001, 3.419660e+002
9.457440e+001, 3.372376e+002
9.505651e+001, 3.325413e+002
9.553863e+001, 3.272118e+002
9.602074e+001, 3.224938e+002
9.650286e+001, 3.199306e+002
9.698498e+001, 3.199985e+002
9.746709e+001, 3.209922e+002
9.794921e+001, 3.199466e+002
9.843133e+001, 3.180713e+002
9.891344e+001, 3.137497e+002
9.939556e+001, 3.052301e+002
9.987768e+001, 2.936453e+002
1.003598e+002, 2.820816e+002
1.008419e+002, 2.719095e+002
1.013240e+002, 2.633812e+002
1.018061e+002, 2.563664e+002
1.022883e+002, 2.508435e+002
1.027704e+002, 2.467008e+002
1.032525e+002, 2.443384e+002
1.037346e+002, 2.440666e+002
1.042167e+002, 2.437986e+002
1.046988e+002, 2.416584e+002
1.051810e+002, 2.385609e+002
1.056631e+002, 2.358806e+002
1.061452e+002, 2.344444e+002
1.066273e+002, 2.339187e+002
1.071094e+002, 2.329208e+002
1.075915e+002, 2.311594e+002
1.080737e+002, 2.292115e+002
1.085558e+002, 2.271739e+002
1.090379e+002, 2.251320e+002
1.095200e+002, 2.232790e+002
1.100021e+002, 2.218541e+002
1.104842e+002, 2.209943e+002
1.109664e+002, 2.198676e+002
1.114485e+002, 2.182395e+002
1.119306e+002, 2.165588e+002
1.124127e+002, 2.148771e+002
1.128948e+002, 2.132851e+002
1.133769e+002, 2.119856e+002
1.138591e+002, 2.113316e+002
1.143412e+002, 2.120484e+002
1.148233e+002, 2.120820e+002
1.153054e+002, 2.109675e+002
1.157875e+002, 2.094158e+002
1.162696e+002, 2.081351e+002
1.167517e+002, 2.073833e+002
1.172339e+002, 2.068992e+002
1.177160e+002, 2.060346e+002
1.181981e+002, 2.045439e+002
1.186802e+002, 2.032475e+002
1.191623e+002, 2.024711e+002
1.196444e+002, 2.020842e+002
1.201266e+002, 2.017256e+002
1.206087e+002, 2.012310e+002
1.210908e+002, 2.006794e+002
1.215729e+002, 2.002660e+002
1.220550e+002, 2.001276e+002
1.225371e+002, 1.998923e+002
1.230193e+002, 1.990943e+002
1.235014e+002, 1.976408e+002
1.239835e+002, 1.963963e+002
1.244656e+002, 1.960827e+002
1.249477e+002, 1.960923e+002
1.254298e+002, 1.959011e+002
1.259120e+002, 1.953142e+002
1.263941e+002, 1.944524e+002
1.268762e+002, 1.935435e+002
1.273583e+002, 1.924034e+002
1.278404e+002, 1.915567e+002
1.283225e+002, 1.913440e+002
1.288047e+002, 1.914277e+002
1.292868e+002, 1.913536e+002
1.297689e+002, 1.908107e+002
1.302510e+002, 1.898391e+002
1.307331e+002, 1.890189e+002
1.312152e+002, 1.883384e+002
1.316974e+002, 1.878295e+002
1.321795e+002, 1.876183e+002
1.326616e+002, 1.876088e+002
1.331437e+002, 1.875761e+002
1.336258e+002, 1.872971e+002
1.341079e+002, 1.866868e+002
1.345901e+002, 1.864329e+002
1.350722e+002, 1.867454e+002
1.355543e+002, 1.871699e+002
1.360364e+002, 1.874392e+002
1.365185e+002, 1.875318e+002
1.370006e+002, 1.876100e+002
1.374828e+002, 1.878797e+002
1.379649e+002, 1.884060e+002
1.384470e+002, 1.887791e+002
1.389291e+002, 1.888624e+002
1.394112e+002, 1.888279e+002
1.398933e+002, 1.888119e+002
1.403755e+002, 1.888027e+002
1.408576e+002, 1.889794e+002
1.413397e+002, 1.897376e+002
1.418218e+002, 1.910227e+002
1.423039e+002, 1.921695e+002
1.427860e+002, 1.926269e+002
1.432681e+002, 1.926592e+002
1.437503e+002, 1.932697e+002
1.442324e+002, 1.949380e+002
1.447145e+002, 1.969921e+002
1.451966e+002, 1.987907e+002
1.456787e+002, 2.003220e+002
1.461608e+002, 2.018552e+002
1.466430e+002, 2.034181e+002
1.471251e+002, 2.049379e+002
1.476072e+002, 2.072407e+002
1.480893e+002, 2.109654e+002
1.485714e+002, 2.152957e+002
1.490535e+002, 2.201164e+002
1.495357e+002, 2.253238e+002
1.500178e+002, 2.304702e+002
1.504999e+002, 2.350422e+002
1.509820e+002, 2.396929e+002
1.514641e+002, 2.421644e+002
1.519462e+002, 2.430175e+002
1.524284e+002, 2.417582e+002
1.529105e+002, 2.374227e+002
1.533926e+002, 2.297636e+002
1.538747e+002, 2.200403e+002
1.543568e+002, 2.113698e+002
1.548389e+002, 2.037288e+002
1.553211e+002, 1.974828e+002
1.558032e+002, 1.931398e+002
1.562853e+002, 1.900162e+002
1.567674e+002, 1.873483e+002
1.572495e+002, 1.847469e+002
1.577316e+002, 1.823469e+002
1.582138e+002, 1.807986e+002
1.586959e+002, 1.804872e+002
1.591780e+002, 1.804412e+002
1.596601e+002, 1.804747e+002
1.601422e+002, 1.806096e+002
1.606243e+002, 1.809033e+002
1.611065e+002, 1.813755e+002
1.615886e+002, 1.820571e+002
1.620707e+002, 1.829810e+002
1.625528e+002, 1.845073e+002
1.630349e+002, 1.859162e+002
1.635170e+002, 1.864835e+002
1.639991e+002, 1.863275e+002
1.644813e+002, 1.866468e+002
1.649634e+002, 1.884995e+002
1.654455e+002, 1.913057e+002
1.659276e+002, 1.936549e+002
1.664097e+002, 1.951916e+002
1.668918e+002, 1.963914e+002
1.673740e+002, 1.978119e+002
1.678561e+002, 1.995229e+002
1.683382e+002, 2.011095e+002
1.688203e+002, 2.021922e+002
1.693024e+002, 2.030296e+002
1.697845e+002, 2.039434e+002
1.702667e+002, 2.051367e+002
1.707488e+002, 2.064259e+002
1.712309e+002, 2.075009e+002
1.717130e+002, 2.087139e+002
1.721951e+002, 2.089481e+002
1.726772e+002, 2.079997e+002
1.731594e+002, 2.059746e+002
1.736415e+002, 2.029719e+002
1.741236e+002, 1.990166e+002
1.746057e+002, 1.941487e+002
1.750878e+002, 1.885989e+002
1.755699e+002, 1.816839e+002
1.760521e+002, 1.747889e+002
1.765342e+002, 1.679255e+002
1.770163e+002, 1.613655e+002
1.774984e+002, 1.555968e+002
1.779805e+002, 1.509894e+002
1.784626e+002, 1.475433e+002
1.789448e+002, 1.443591e+002
1.794269e+002, 1.410710e+002
1.799090e+002, 1.383864e+002
1.803911e+002, 1.368207e+002
1.808732e+002, 1.361042e+002
1.813553e+002, 1.355678e+002
1.818375e+002, 1.346146e+002
1.823196e+002, 1.331542e+002
1.828017e+002, 1.322124e+002
1.832838e+002, 1.319611e+002
1.837659e+002, 1.319391e+002
1.842480e+002, 1.320731e+002
1.847301e+002, 1.322824e+002
1.852123e+002, 1.323563e+002
1.856944e+002, 1.320849e+002
1.861765e+002, 1.314090e+002
1.866586e+002, 1.307403e+002
1.871407e+002, 1.298975e+002
1.876228e+002, 1.291896e+002
1.881050e+002, 1.289325e+002
1.885871e+002, 1.291443e+002
1.890692e+002, 1.294536e+002
1.895513e+002, 1.295117e+002
1.900334e+002, 1.293199e+002
1.905155e+002, 1.291149e+002
1.909977e+002, 1.288484e+002
1.914798e+002, 1.286147e+002
1.919619e+002, 1.285905e+002
1.924440e+002, 1.288453e+002
1.929261e+002, 1.290471e+002
1.934082e+002, 1.286834e+002
1.938904e+002, 1.279484e+002
1.943725e+002, 1.274727e+002
1.948546e+002, 1.275950e+002
1.953367e+002, 1.280813e+002
1.958188e+002, 1.285038e+002
1.963009e+002, 1.288643e+002
1.967831e+002, 1.290741e+002
1.972652e+002, 1.290719e+002
1.977473e+002, 1.288886e+002
1.982294e+002, 1.285738e+002
1.987115e+002, 1.280241e+002
1.991936e+002, 1.273289e+002
1.996758e+002, 1.268673e+002
2.001579e+002, 1.266380e+002
2.006400e+002, 1.266983e+002
2.011221e+002, 1.272013e+002
2.016042e+002, 1.279925e+002
2.020863e+002, 1.286966e+002
2.025685e+002, 1.290720e+002
2.030506e+002, 1.291286e+002
2.035327e+002, 1.289893e+002
2.040148e+002, 1.282794e+002
2.044969e+002, 1.277707e+002
2.049790e+002, 1.279049e+002
2.054612e+002, 1.284927e+002
2.059433e+002, 1.290592e+002
2.064254e+002, 1.291884e+002
2.069075e+002, 1.288510e+002
2.073896e+002, 1.286385e+002
2.078717e+002, 1.286836e+002
2.083539e+002, 1.287398e+002
2.088360e+002, 1.287582e+002
2.093181e+002, 1.287256e+002
2.098002e+002, 1.286384e+002
2.102823e+002, 1.284940e+002
2.107644e+002, 1.282941e+002
2.112466e+002, 1.280278e+002
2.117287e+002, 1.276017e+002
2.122108e+002, 1.272038e+002
2.126929e+002, 1.269323e+002
2.131750e+002, 1.267649e+002
2.136571e+002, 1.266009e+002
2.141393e+002, 1.263387e+002
2.146214e+002, 1.259470e+002
2.151035e+002, 1.256893e+002
2.155856e+002, 1.257395e+002
2.160677e+002, 1.257403e+002
2.165498e+002, 1.254623e+002
2.170320e+002, 1.249418e+002
2.175141e+002, 1.243962e+002
2.179962e+002, 1.240229e+002
2.184783e+002, 1.238461e+002
2.189604e+002, 1.236825e+002
2.194425e+002, 1.235014e+002
2.199247e+002, 1.233547e+002
2.204068e+002, 1.232816e+002
2.208889e+002, 1.232794e+002
2.213710e+002, 1.233158e+002
2.218531e+002, 1.233828e+002
2.223352e+002, 1.234784e+002
2.228174e+002, 1.234731e+002
2.232995e+002, 1.232348e+002
2.237816e+002, 1.229923e+002
2.242637e+002, 1.228705e+002
2.247458e+002, 1.228841e+002
2.252279e+002, 1.230938e+002
2.257100e+002, 1.236563e+002
2.261922e+002, 1.245055e+002
2.266743e+002, 1.251127e+002
2.271564e+002, 1.250934e+002
2.276385e+002, 1.250376e+002
2.281206e+002, 1.254967e+002
2.286027e+002, 1.265027e+002
2.290849e+002, 1.277686e+002
2.295670e+002, 1.294010e+002
2.300491e+002, 1.311215e+002
2.305312e+002, 1.321630e+002
2.310133e+002, 1.317711e+002
2.314954e+002, 1.309854e+002
2.319776e+002, 1.310466e+002
2.324597e+002, 1.320612e+002
2.329418e+002, 1.331840e+002
2.334239e+002, 1.341724e+002
2.339060e+002, 1.348642e+002
2.343881e+002, 1.349017e+002
2.348703e+002, 1.339052e+002
2.353524e+002, 1.324588e+002
2.358345e+002, 1.313011e+002
2.363166e+002, 1.304440e+002
2.367987e+002, 1.298046e+002
2.372808e+002, 1.295518e+002
2.377630e+002, 1.294252e+002
2.382451e+002, 1.290966e+002
2.387272e+002, 1.283548e+002
2.392093e+002, 1.275290e+002
2.396914e+002, 1.271454e+002
2.401735e+002, 1.272669e+002
2.406557e+002, 1.276396e+002
2.411378e+002, 1.285279e+002
2.416199e+002, 1.294575e+002
2.421020e+002, 1.299315e+002
2.425841e+002, 1.297345e+002
2.430662e+002, 1.291581e+002
2.435484e+002, 1.286269e+002
2.440305e+002, 1.280493e+002
2.445126e+002, 1.277895e+002
2.449947e+002, 1.282280e+002
2.454768e+002, 1.288557e+002
2.459589e+002, 1.292296e+002
2.464410e+002, 1.291934e+002
2.469232e+002, 1.289481e+002
2.474053e+002, 1.288471e+002
2.478874e+002, 1.289771e+002
2.483695e+002, 1.290436e+002
2.488516e+002, 1.290804e+002
2.493337e+002, 1.289955e+002
2.498159e+002, 1.285933e+002
2.502980e+002, 1.278333e+002
2.507801e+002, 1.270591e+002
2.512622e+002, 1.269495e+002
2.517443e+002, 1.280478e+002
2.522264e+002, 1.285608e+002
2.527086e+002, 1.278765e+002
2.531907e+002, 1.269418e+002
2.536728e+002, 1.264207e+002
2.541549e+002, 1.264802e+002
2.546370e+002, 1.268352e+002
2.551191e+002, 1.270411e+002
2.556013e+002, 1.269358e+002
2.560834e+002, 1.270415e+002
2.565655e+002, 1.275561e+002
2.570476e+002, 1.281087e+002
2.575297e+002, 1.284138e+002
2.580118e+002, 1.284426e+002
2.584940e+002, 1.284177e+002
2.589761e+002, 1.286548e+002
2.594582e+002, 1.293067e+002
2.599403e+002, 1.298398e+002
2.604224e+002, 1.301694e+002
2.609045e+002, 1.304763e+002
2.613867e+002, 1.308748e+002
2.618688e+002, 1.313750e+002
2.623509e+002, 1.319025e+002
2.628330e+002, 1.323679e+002
2.633151e+002, 1.327268e+002
2.637972e+002, 1.331938e+002
2.642794e+002, 1.339499e+002
2.647615e+002, 1.346421e+002
2.652436e+002, 1.349420e+002
2.657257e+002, 1.349257e+002
2.662078e+002, 1.350131e+002
2.666899e+002, 1.356582e+002
2.671721e+002, 1.370022e+002
2.676542e+002, 1.379783e+002
2.681363e+002, 1.384656e+002
2.686184e+002, 1.387809e+002
2.691005e+002, 1.389898e+002
2.695826e+002, 1.391440e+002
2.700648e+002, 1.393391e+002
2.705469e+002, 1.396591e+002
2.710290e+002, 1.401068e+002
2.715111e+002, 1.405353e+002
2.719932e+002, 1.410949e+002
2.724753e+002, 1.414958e+002
2.729575e+002, 1.413976e+002
2.734396e+002, 1.410049e+002
2.739217e+002, 1.408995e+002
2.744038e+002, 1.415297e+002
2.748859e+002, 1.428090e+002
2.753680e+002, 1.436420e+002
2.758501e+002, 1.438233e+002
2.763322e+002, 1.439043e+002
2.768144e+002, 1.439223e+002
2.772965e+002, 1.439777e+002
2.777786e+002, 1.443158e+002
2.782607e+002, 1.451206e+002
2.787428e+002, 1.462349e+002
2.792249e+002, 1.469715e+002
2.797071e+002, 1.467488e+002
2.801892e+002, 1.469039e+002
2.806713e+002, 1.479740e+002
2.811534e+002, 1.496226e+002
2.816355e+002, 1.513105e+002
2.821176e+002, 1.528338e+002
2.825998e+002, 1.541776e+002
2.830819e+002, 1.552242e+002
2.835640e+002, 1.557884e+002
2.840461e+002, 1.564629e+002
2.845282e+002, 1.574337e+002
2.850103e+002, 1.585700e+002
2.854925e+002, 1.596696e+002
2.859746e+002, 1.606622e+002
2.864567e+002, 1.616387e+002
2.869388e+002, 1.627635e+002
2.874209e+002, 1.640348e+002
2.879030e+002, 1.654197e+002
2.883852e+002, 1.670269e+002
2.888673e+002, 1.686944e+002
2.893494e+002, 1.702001e+002
2.898315e+002, 1.714909e+002
2.903136e+002, 1.726860e+002
2.907957e+002, 1.739067e+002
2.912779e+002, 1.751326e+002
2.917600e+002, 1.765386e+002
2.922421e+002, 1.783008e+002
2.927242e+002, 1.801611e+002
2.932063e+002, 1.818721e+002
2.936884e+002, 1.834085e+002
2.941706e+002, 1.848577e+002
2.946527e+002, 1.862763e+002
2.951348e+002, 1.876675e+002
2.956169e+002, 1.891137e+002
2.960990e+002, 1.906878e+002
2.965811e+002, 1.922676e+002
2.970633e+002, 1.937913e+002
2.975454e+002, 1.952432e+002
2.980275e+002, 1.965553e+002
2.985096e+002, 1.975603e+002
2.989917e+002, 1.983814e+002
2.994738e+002, 1.996934e+002
2.999560e+002, 2.017813e+002
3.004381e+002, 2.040746e+002
3.009202e+002, 2.064495e+002
3.014023e+002, 2.088221e+002
3.018844e+002, 2.108226e+002
3.023665e+002, 2.121356e+002
3.028487e+002, 2.130373e+002
3.033308e+002, 2.143862e+002
3.038129e+002, 2.163923e+002
3.042950e+002, 2.184569e+002
3.047771e+002, 2.204483e+002
3.052592e+002, 2.223057e+002
3.057414e+002, 2.237868e+002
3.062235e+002, 2.246736e+002
3.067056e+002, 2.253734e+002
3.071877e+002, 2.267627e+002
3.076698e+002, 2.290224e+002
3.081519e+002, 2.310942e+002
3.086341e+002, 2.324951e+002
3.091162e+002, 2.335143e+002
3.095983e+002, 2.346439e+002
3.100804e+002, 2.360229e+002
3.105625e+002, 2.374469e+002
3.110446e+002, 2.385568e+002
3.115268e+002, 2.393332e+002
3.120089e+002, 2.403420e+002
3.124910e+002, 2.420786e+002
3.129731e+002, 2.439258e+002
3.134552e+002, 2.450854e+002
3.139373e+002, 2.454219e+002
3.144195e+002, 2.455305e+002
3.149016e+002, 2.460263e+002
3.153837e+002, 2.468509e+002
3.158658e+002, 2.472032e+002
3.163479e+002, 2.466858e+002
3.168300e+002, 2.459067e+002
3.173121e+002, 2.453887e+002
3.177943e+002, 2.451273e+002
3.182764e+002, 2.447983e+002
3.187585e+002, 2.441988e+002
3.192406e+002, 2.433396e+002
3.197227e+002, 2.423773e+002
3.202048e+002, 2.411967e+002
3.206870e+002, 2.400278e+002
3.211691e+002, 2.391018e+002
3.216512e+002, 2.383226e+002
3.221333e+002, 2.373612e+002
3.226154e+002, 2.361265e+002
3.230975e+002, 2.345417e+002
3.235797e+002, 2.324312e+002
3.240618e+002, 2.296611e+002
3.245439e+002, 2.267688e+002
3.250260e+002, 2.239153e+002
3.255081e+002, 2.210687e+002
3.259902e+002, 2.180277e+002
3.264724e+002, 2.146364e+002
3.269545e+002, 2.113717e+002
3.274366e+002, 2.091867e+002
3.279187e+002, 2.083160e+002
3.284008e+002, 2.069572e+002
3.288829e+002, 2.045398e+002
3.293651e+002, 2.015784e+002
3.298472e+002, 1.985627e+002
3.303293e+002, 1.955761e+002
3.308114e+002, 1.927244e+002
3.312935e+002, 1.900531e+002
3.317756e+002, 1.875872e+002
3.322578e+002, 1.855483e+002
3.327399e+002, 1.843079e+002
3.332220e+002, 1.832329e+002
3.337041e+002, 1.818036e+002
3.341862e+002, 1.800553e+002
3.346683e+002, 1.783750e+002
3.351505e+002, 1.770313e+002
3.356326e+002, 1.760022e+002
3.361147e+002, 1.750682e+002
3.365968e+002, 1.742591e+002
3.370789e+002, 1.734921e+002
3.375610e+002, 1.727499e+002
3.380432e+002, 1.720221e+002
3.385253e+002, 1.712850e+002
3.390074e+002, 1.705208e+002
3.394895e+002, 1.697597e+002
3.399716e+002, 1.691181e+002
3.404537e+002, 1.688545e+002
3.409359e+002, 1.682431e+002
3.414180e+002, 1.670257e+002
3.419001e+002, 1.654278e+002
3.423822e+002, 1.636354e+002
3.428643e+002, 1.617071e+002
3.433464e+002, 1.598712e+002
3.438286e+002, 1.584846e+002
3.443107e+002, 1.577859e+002
3.447928e+002, 1.568642e+002
3.452749e+002, 1.555261e+002
3.457570e+002, 1.541021e+002
3.462391e+002, 1.529031e+002
3.467213e+002, 1.519270e+002
3.472034e+002, 1.508773e+002
3.476855e+002, 1.494944e+002
3.481676e+002, 1.477540e+002
3.486497e+002, 1.460217e+002
3.491318e+002, 1.443762e+002
3.496140e+002, 1.426622e+002
3.500961e+002, 1.406164e+002
3.505782e+002, 1.384584e+002
3.510603e+002, 1.367214e+002
3.515424e+002, 1.357695e+002
3.520245e+002, 1.353836e+002
3.525067e+002, 1.346088e+002
3.529888e+002, 1.329617e+002
3.534709e+002, 1.315287e+002
3.539530e+002, 1.305092e+002
3.544351e+002, 1.297456e+002
3.549172e+002, 1.290647e+002
3.553994e+002, 1.284050e+002
3.558815e+002, 1.277817e+002
3.563636e+002, 1.272190e+002
3.568457e+002, 1.267561e+002
3.573278e+002, 1.262762e+002
3.578099e+002, 1.257046e+002
3.582920e+002, 1.251711e+002
3.587741e+002, 1.247879e+002
3.592563e+002, 1.245477e+002
3.597384e+002, 1.243348e+002
3.602205e+002, 1.239969e+002
3.607026e+002, 1.234765e+002
3.611847e+002, 1.234088e+002
3.616668e+002, 1.241182e+002
3.621490e+002, 1.249094e+002
3.626311e+002, 1.256787e+002
3.631132e+002, 1.263526e+002
3.635953e+002, 1.267807e+002
3.640774e+002, 1.268436e+002
3.645595e+002, 1.266821e+002
3.650417e+002, 1.269081e+002
3.655238e+002, 1.278657e+002
3.660059e+002, 1.287601e+002
3.664880e+002, 1.294191e+002
3.669701e+002, 1.300100e+002
3.674522e+002, 1.307994e+002
3.679344e+002, 1.318406e+002
3.684165e+002, 1.328063e+002
3.688986e+002, 1.331880e+002
3.693807e+002, 1.328839e+002
3.698628e+002, 1.322357e+002
3.703449e+002, 1.310935e+002
3.708271e+002, 1.297725e+002
3.713092e+002, 1.282925e+002
3.717913e+002, 1.267469e+002
3.722734e+002, 1.253352e+002
3.727555e+002, 1.242714e+002
3.732376e+002, 1.235464e+002
3.737198e+002, 1.227791e+002
3.742019e+002, 1.217970e+002
3.746840e+002, 1.209998e+002
3.751661e+002, 1.205074e+002
3.756482e+002, 1.202713e+002
3.761303e+002, 1.202568e+002
3.766125e+002, 1.204928e+002
3.770946e+002, 1.208287e+002
3.775767e+002, 1.208908e+002
3.780588e+002, 1.205440e+002
3.785409e+002, 1.203057e+002
3.790230e+002, 1.203276e+002
3.795052e+002, 1.205041e+002
3.799873e+002, 1.207835e+002
3.804694e+002, 1.211541e+002
3.809515e+002, 1.215817e+002
3.814336e+002, 1.221582e+002
3.819157e+002, 1.228741e+002
3.823979e+002, 1.231193e+002
3.828800e+002, 1.224267e+002
3.833621e+002, 1.216991e+002
3.838442e+002, 1.216297e+002
3.843263e+002, 1.220616e+002
3.848084e+002, 1.224079e+002
3.852906e+002, 1.220779e+002
3.857727e+002, 1.214903e+002
3.862548e+002, 1.217771e+002
3.867369e+002, 1.232356e+002
3.872190e+002, 1.244908e+002
3.877011e+002, 1.245413e+002
3.881833e+002, 1.239496e+002
3.886654e+002, 1.235016e+002
3.891475e+002, 1.234820e+002
3.896296e+002, 1.233816e+002
3.901117e+002, 1.227927e+002
3.905938e+002, 1.217315e+002
3.910760e+002, 1.202970e+002
3.915581e+002, 1.183799e+002
3.920402e+002, 1.162691e+002
3.925223e+002, 1.143984e+002
3.930044e+002, 1.127924e+002
3.934865e+002, 1.110880e+002
3.939687e+002, 1.089103e+002
3.944508e+002, 1.066245e+002
3.949329e+002, 1.048548e+002
3.954150e+002, 1.036942e+002
3.958971e+002, 1.028495e+002
3.963792e+002, 1.021470e+002
3.968614e+002, 1.015680e+002
3.973435e+002, 1.008862e+002
3.978256e+002, 9.979825e+001
3.983077e+002, 9.885354e+001
3.987898e+002, 9.851138e+001
3.992719e+002, 9.864353e+001
3.997540e+002, 9.879408e+001
4.002361e+002, 9.876214e+001
4.007183e+002, 9.855765e+001
4.012004e+002, 9.817355e+001
4.016825e+002, 9.739607e+001
4.021646e+002, 9.683701e+001
4.026467e+002, 9.670796e+001
4.031288e+002, 9.680373e+001
4.036110e+002, 9.692759e+001
4.040931e+002, 9.702535e+001
4.045752e+002, 9.708833e+001
4.050573e+002, 9.710833e+001
4.055394e+002, 9.708778e+001
4.060215e+002, 9.699915e+001
4.065037e+002, 9.665099e+001
4.069858e+002, 9.642439e+001
4.074679e+002, 9.654922e+001
4.079500e+002, 9.695369e+001
4.084321e+002, 9.744066e+001
4.089142e+002, 9.789884e+001
4.093964e+002, 9.832657e+001
4.098785e+002, 9.872536e+001
4.103606e+002, 9.909747e+001
4.108427e+002, 9.943069e+001
4.113248e+002, 9.959893e+001
4.118069e+002, 9.979536e+001
4.122891e+002, 1.002865e+002
4.127712e+002, 1.011053e+002
4.132533e+002, 1.019473e+002
4.137354e+002, 1.023547e+002
4.142175e+002, 1.021622e+002
4.146996e+002, 1.022054e+002
4.151818e+002, 1.026245e+002
4.156639e+002, 1.031572e+002
4.161460e+002, 1.037067e+002
4.166281e+002, 1.042932e+002
4.171102e+002, 1.049948e+002
4.175923e+002, 1.059128e+002
4.180745e+002, 1.069410e+002
4.185566e+002, 1.076581e+002
4.190387e+002, 1.077795e+002
4.195208e+002, 1.082248e+002
4.200029e+002, 1.095724e+002
4.204850e+002, 1.111871e+002
4.209672e+002, 1.125005e+002
4.214493e+002, 1.133745e+002
4.219314e+002, 1.140219e+002
4.224135e+002, 1.146577e+002
4.228956e+002, 1.152734e+002
4.233777e+002, 1.157096e+002
4.238599e+002, 1.158826e+002
4.243420e+002, 1.159442e+002
4.248241e+002, 1.160152e+002
4.253062e+002, 1.160848e+002
4.257883e+002, 1.161099e+002
4.262704e+002, 1.161362e+002
4.267526e+002, 1.160793e+002
4.272347e+002, 1.158922e+002
4.277168e+002, 1.155897e+002
4.281989e+002, 1.148431e+002
4.286810e+002, 1.132215e+002
4.291631e+002, 1.111601e+002
4.296453e+002, 1.096500e+002
4.301274e+002, 1.088603e+002
4.306095e+002, 1.082409e+002
4.310916e+002, 1.076513e+002
4.315737e+002, 1.070246e+002
4.320558e+002, 1.061858e+002
4.325380e+002, 1.050771e+002
4.330201e+002, 1.038769e+002
4.335022e+002, 1.027539e+002
4.339843e+002, 1.017068e+002
4.344664e+002, 1.008609e+002
4.349485e+002, 1.003033e+002
4.354307e+002, 9.987657e+001
4.359128e+002, 9.949547e+001
4.363949e+002, 9.915856e+001
4.368770e+002, 9.892124e+001
4.373591e+002, 9.884351e+001
4.378412e+002, 9.883479e+001
4.383234e+002, 9.854707e+001
4.388055e+002, 9.766460e+001
4.392876e+002, 9.690354e+001
4.397697e+002, 9.622576e+001
4.402518e+002, 9.574079e+001
4.407339e+002, 9.563810e+001
4.412160e+002, 9.591312e+001
4.416982e+002, 9.631389e+001
4.421803e+002, 9.658821e+001
4.426624e+002, 9.676357e+001
4.431445e+002, 9.661619e+001
4.436266e+002, 9.561420e+001
4.441087e+002, 9.484087e+001
4.445909e+002, 9.475253e+001
4.450730e+002, 9.509823e+001
4.455551e+002, 9.546109e+001
4.460372e+002, 9.563535e+001
4.465193e+002, 9.567078e+001
4.470014e+002, 9.569390e+001
4.474836e+002, 9.575843e+001
4.479657e+002, 9.564790e+001
4.484478e+002, 9.509950e+001
4.489299e+002, 9.452456e+001
4.494120e+002, 9.412943e+001
4.498941e+002, 9.394836e+001
4.503763e+002, 9.398152e+001
4.508584e+002, 9.438296e+001
4.513405e+002, 9.502928e+001
4.518226e+002, 9.532301e+001
4.523047e+002, 9.508706e+001
4.527868e+002, 9.491203e+001
4.532690e+002, 9.519642e+001
4.537511e+002, 9.575037e+001
4.542332e+002, 9.637243e+001
4.547153e+002, 9.714275e+001
4.551974e+002, 9.772837e+001
4.556795e+002, 9.765133e+001
4.561617e+002, 9.709516e+001
4.566438e+002, 9.689769e+001
4.571259e+002, 9.737206e+001
4.576080e+002, 9.812211e+001
4.580901e+002, 9.865389e+001
4.585722e+002, 9.897332e+001
4.590544e+002, 9.929028e+001
4.595365e+002, 9.958030e+001
4.600186e+002, 9.992641e+001
4.605007e+002, 1.004268e+002
4.609828e+002, 1.010647e+002
4.614649e+002, 1.017545e+002
4.619471e+002, 1.024852e+002
4.624292e+002, 1.031913e+002
4.629113e+002, 1.036053e+002
4.633934e+002, 1.033135e+002
4.638755e+002, 1.032908e+002
4.643576e+002, 1.037688e+002
4.648398e+002, 1.045025e+002
4.653219e+002, 1.052730e+002
4.658040e+002, 1.060249e+002
4.662861e+002, 1.067765e+002
4.667682e+002, 1.075442e+002
4.672503e+002, 1.083329e+002
4.677325e+002, 1.091467e+002
4.682146e+002, 1.099751e+002
4.686967e+002, 1.108409e+002
4.691788e+002, 1.117500e+002
4.696609e+002, 1.126992e+002
4.701430e+002, 1.136510e+002
4.706252e+002, 1.145846e+002
4.711073e+002, 1.155929e+002
4.715894e+002, 1.168597e+002
4.720715e+002, 1.184291e+002
4.725536e+002, 1.200526e+002
4.730357e+002, 1.215759e+002
4.735179e+002, 1.232556e+002
4.740000e+002, 1.253825e+002
4.744821e+002, 1.278318e+002
4.749642e+002, 1.301443e+002
4.754463e+002, 1.318677e+002
4.759284e+002, 1.333196e+002
4.764106e+002, 1.352523e+002
4.768927e+002, 1.377207e+002
4.773748e+002, 1.402618e+002
4.778569e+002, 1.425097e+002
4.783390e+002, 1.448088e+002
4.788211e+002, 1.477085e+002
4.793033e+002, 1.513719e+002
4.797854e+002, 1.550941e+002
4.802675e+002, 1.585147e+002
4.807496e+002, 1.617567e+002
4.812317e+002, 1.649820e+002
4.817138e+002, 1.682078e+002
4.821959e+002, 1.716403e+002
4.826780e+002, 1.755169e+002
4.831602e+002, 1.798355e+002
4.836423e+002, 1.841697e+002
4.841244e+002, 1.889013e+002
4.846065e+002, 1.932269e+002
4.850886e+002, 1.967830e+002
4.855707e+002, 1.997378e+002
4.860529e+002, 2.024021e+002
4.865350e+002, 2.049021e+002
4.870171e+002, 2.071195e+002
4.874992e+002, 2.089065e+002
4.879813e+002, 2.105633e+002
4.884634e+002, 2.109040e+002
4.889456e+002, 2.096769e+002
4.894277e+002, 2.076205e+002
4.899098e+002, 2.051968e+002
4.903919e+002, 2.022375e+002
4.908740e+002, 1.981612e+002
4.913561e+002, 1.925002e+002
4.918383e+002, 1.858727e+002
4.923204e+002, 1.800020e+002
4.928025e+002, 1.751847e+002
4.932846e+002, 1.703447e+002
4.937667e+002, 1.649764e+002
4.942488e+002, 1.597551e+002
4.947310e+002, 1.551637e+002
4.952131e+002, 1.512184e+002
4.956952e+002, 1.475525e+002
4.961773e+002, 1.439462e+002
4.966594e+002, 1.404542e+002
4.971415e+002, 1.372823e+002
4.976237e+002, 1.344727e+002
4.981058e+002, 1.317778e+002
4.985879e+002, 1.289420e+002
4.990700e+002, 1.261649e+002
4.995521e+002, 1.238175e+002
5.000342e+002, 1.219693e+002
5.005164e+002, 1.204052e+002
5.009985e+002, 1.192103e+002
5.014806e+002, 1.181657e+002
5.019627e+002, 1.168069e+002
5.024448e+002, 1.150390e+002
5.029269e+002, 1.132212e+002
5.034091e+002, 1.116815e+002
5.038912e+002, 1.104214e+002
5.043733e+002, 1.092960e+002
5.048554e+002, 1.084048e+002
5.053375e+002, 1.075220e+002
5.058196e+002, 1.065466e+002
5.063018e+002, 1.055330e+002
5.067839e+002, 1.045465e+002
5.072660e+002, 1.036157e+002
5.077481e+002, 1.027933e+002
5.082302e+002, 1.021916e+002
5.087123e+002, 1.018992e+002
5.091945e+002, 1.015048e+002
5.096766e+002, 1.007855e+002
5.101587e+002, 1.001881e+002
5.106408e+002, 9.989647e+001
5.111229e+002, 9.984991e+001
5.116050e+002, 9.994949e+001
5.120872e+002, 1.001840e+002
5.125693e+002, 1.004159e+002
5.130514e+002, 1.003234e+002
5.135335e+002, 9.983685e+001
5.140156e+002, 9.957601e+001
5.144977e+002, 9.987708e+001
5.149799e+002, 1.002437e+002
5.154620e+002, 1.002072e+002
5.159441e+002, 9.982906e+001
5.164262e+002, 9.954442e+001
5.169083e+002, 9.957253e+001
5.173904e+002, 9.977081e+001
5.178726e+002, 9.994053e+001
5.183547e+002, 1.000891e+002
5.188368e+002, 1.003943e+002
5.193189e+002, 1.010229e+002
5.198010e+002, 1.017601e+002
5.202831e+002, 1.020331e+002
5.207653e+002, 1.016053e+002
5.212474e+002, 1.014997e+002
5.217295e+002, 1.020606e+002
5.222116e+002, 1.028897e+002
5.226937e+002, 1.037585e+002
5.231758e+002, 1.045789e+002
5.236580e+002, 1.051795e+002
5.241401e+002, 1.053932e+002
5.246222e+002, 1.053369e+002
5.251043e+002, 1.056301e+002
5.255864e+002, 1.064690e+002
5.260685e+002, 1.074012e+002
5.265507e+002, 1.085855e+002
5.270328e+002, 1.097093e+002
5.275149e+002, 1.103998e+002
5.279970e+002, 1.106939e+002
5.284791e+002, 1.110624e+002
5.289612e+002, 1.120354e+002
5.294434e+002, 1.134600e+002
5.299255e+002, 1.143562e+002
5.304076e+002, 1.144928e+002
5.308897e+002, 1.146318e+002
5.313718e+002, 1.151786e+002
5.318539e+002, 1.158568e+002
5.323361e+002, 1.163089e+002
5.328182e+002, 1.164165e+002
5.333003e+002, 1.167684e+002
5.337824e+002, 1.178830e+002
5.342645e+002, 1.194910e+002
5.347466e+002, 1.211232e+002
5.352288e+002, 1.227418e+002
5.357109e+002, 1.240616e+002
5.361930e+002, 1.246895e+002
5.366751e+002, 1.248155e+002
5.371572e+002, 1.255906e+002
5.376393e+002, 1.274862e+002
5.381215e+002, 1.293929e+002
5.386036e+002, 1.310685e+002
5.390857e+002, 1.325579e+002
5.395678e+002, 1.338720e+002
5.400499e+002, 1.350338e+002
5.405320e+002, 1.361815e+002
5.410142e+002, 1.374830e+002
5.414963e+002, 1.389511e+002
5.419784e+002, 1.401076e+002
5.424604e+002, 1.401751e+002
5.429426e+002, 1.408687e+002
5.434247e+002, 1.430701e+002
5.439068e+002, 1.458097e+002
5.443889e+002, 1.479322e+002
5.448710e+002, 1.491474e+002
5.453531e+002, 1.501412e+002
5.458353e+002, 1.516277e+002
5.463174e+002, 1.535760e+002
5.467995e+002, 1.555483e+002
5.472816e+002, 1.575008e+002
5.477637e+002, 1.595115e+002
5.482458e+002, 1.617441e+002
5.487280e+002, 1.640392e+002
5.492101e+002, 1.661614e+002
5.496922e+002, 1.680721e+002
5.501743e+002, 1.697864e+002
5.506564e+002, 1.711685e+002
5.511385e+002, 1.723934e+002
5.516207e+002, 1.737941e+002
5.521028e+002, 1.754380e+002
5.525849e+002, 1.773724e+002
5.530670e+002, 1.797449e+002
5.535491e+002, 1.825652e+002
5.540313e+002, 1.848167e+002
5.545134e+002, 1.859215e+002
5.549955e+002, 1.872397e+002
5.554776e+002, 1.891233e+002
5.559597e+002, 1.914471e+002
5.564418e+002, 1.940916e+002
5.569240e+002, 1.970034e+002
5.574061e+002, 2.000202e+002
5.578882e+002, 2.029704e+002
5.583703e+002, 2.058303e+002
5.588524e+002, 2.088257e+002
5.593345e+002, 2.120889e+002
5.598167e+002, 2.152585e+002
5.602988e+002, 2.181395e+002
5.607809e+002, 2.209055e+002
5.612630e+002, 2.237129e+002
5.617451e+002, 2.265670e+002
5.622272e+002, 2.297409e+002
5.627094e+002, 2.337434e+002
5.631915e+002, 2.382743e+002
5.636736e+002, 2.422029e+002
5.641557e+002, 2.452830e+002
5.646378e+002, 2.484460e+002
5.651199e+002, 2.524140e+002
5.656021e+002, 2.570317e+002
5.660842e+002, 2.614935e+002
5.665663e+002, 2.655341e+002
5.670484e+002, 2.697947e+002
5.675305e+002, 2.746771e+002
5.680126e+002, 2.798106e+002
5.684948e+002, 2.848304e+002
5.689769e+002, 2.896171e+002
5.694590e+002, 2.941896e+002
5.699411e+002, 2.984489e+002
5.704232e+002, 3.024474e+002
5.709053e+002, 3.068471e+002
5.713875e+002, 3.117956e+002
5.718696e+002, 3.170066e+002
5.723517e+002, 3.227818e+002
5.728338e+002, 3.285919e+002
5.733159e+002, 3.338611e+002
5.737980e+002, 3.385705e+002
5.742802e+002, 3.432412e+002
5.747623e+002, 3.484202e+002
5.752444e+002, 3.539550e+002
5.757265e+002, 3.592467e+002
5.762086e+002, 3.643044e+002
5.766907e+002, 3.690369e+002
5.771729e+002, 3.730838e+002
5.776550e+002, 3.769102e+002
5.781371e+002, 3.812397e+002
5.786192e+002, 3.861548e+002
5.791013e+002, 3.912558e+002
5.795834e+002, 3.967153e+002
5.800656e+002, 4.020878e+002
5.805477e+002, 4.068239e+002
5.810298e+002, 4.109326e+002
5.815119e+002, 4.149468e+002
5.819940e+002, 4.192584e+002
5.824761e+002, 4.236118e+002
5.829583e+002, 4.271389e+002
5.834404e+002, 4.289905e+002
5.839225e+002, 4.313017e+002
5.844046e+002, 4.346614e+002
5.848867e+002, 4.380065e+002
5.853688e+002, 4.407032e+002
5.858510e+002, 4.427484e+002
5.863331e+002, 4.444059e+002
5.868152e+002, 4.458276e+002
5.872973e+002, 4.469848e+002
5.877794e+002, 4.477171e+002
5.882615e+002, 4.479507e+002
5.887437e+002, 4.482803e+002
5.892258e+002, 4.490163e+002
5.897079e+002, 4.497054e+002
5.901900e+002, 4.498793e+002
5.906721e+002, 4.496111e+002
5.911542e+002, 4.493559e+002
5.916364e+002, 4.495392e+002
5.921185e+002, 4.495519e+002
5.926006e+002, 4.487447e+002
5.930827e+002, 4.473345e+002
5.935648e+002, 4.459900e+002
5.940469e+002, 4.449680e+002
5.945291e+002, 4.439811e+002
5.950112e+002, 4.425868e+002
5.954933e+002, 4.406324e+002
5.959754e+002, 4.389753e+002
5.964575e+002, 4.383139e+002
5.969396e+002, 4.371406e+002
5.974218e+002, 4.345121e+002
5.979039e+002, 4.311855e+002
5.983860e+002, 4.283174e+002
5.988681e+002, 4.262815e+002
5.993502e+002, 4.243945e+002
5.998323e+002, 4.217355e+002
6.003145e+002, 4.183268e+002
6.007966e+002, 4.151450e+002
6.012787e+002, 4.123521e+002
6.017608e+002, 4.095445e+002
6.022429e+002, 4.067365e+002
6.027250e+002, 4.036870e+002
6.032072e+002, 3.999124e+002
6.036893e+002, 3.950013e+002
6.041714e+002, 3.903694e+002
6.046535e+002, 3.869468e+002
6.051356e+002, 3.841201e+002
6.056177e+002, 3.811003e+002
6.060999e+002, 3.777746e+002
6.065820e+002, 3.741478e+002
6.070641e+002, 3.701531e+002
6.075462e+002, 3.659713e+002
6.080283e+002, 3.623806e+002
6.085104e+002, 3.597421e+002
6.089926e+002, 3.572420e+002
6.094747e+002, 3.552245e+002
6.099568e+002, 3.530325e+002
6.104389e+002, 3.500431e+002
6.109210e+002, 3.464244e+002
6.114031e+002, 3.428426e+002
6.118853e+002, 3.396713e+002
6.123674e+002, 3.368689e+002
6.128495e+002, 3.344692e+002
6.133316e+002, 3.325215e+002
6.138137e+002, 3.301880e+002
6.142958e+002, 3.269978e+002
6.147780e+002, 3.236920e+002
6.152601e+002, 3.210507e+002
6.157422e+002, 3.189619e+002
6.162243e+002, 3.168248e+002
6.167064e+002, 3.144391e+002
6.171885e+002, 3.120491e+002
6.176707e+002, 3.097796e+002
6.181528e+002, 3.076256e+002
6.186349e+002, 3.055865e+002
6.191170e+002, 3.036572e+002
6.195991e+002, 3.017417e+002
6.200812e+002, 2.996706e+002
6.205634e+002, 2.973859e+002
6.210455e+002, 2.957136e+002
6.215276e+002, 2.953604e+002
6.220097e+002, 2.947626e+002
6.224918e+002, 2.935282e+002
6.229739e+002, 2.919424e+002
6.234561e+002, 2.902310e+002
6.239382e+002, 2.884722e+002
6.244203e+002, 2.867909e+002
6.249023e+002, 2.853617e+002
6.253845e+002, 2.840864e+002
6.258666e+002, 2.826571e+002
6.263487e+002, 2.810405e+002
6.268308e+002, 2.796176e+002
6.273129e+002, 2.787015e+002
6.277950e+002, 2.779391e+002
6.282772e+002, 2.765557e+002
6.287593e+002, 2.744063e+002
6.292414e+002, 2.724819e+002
6.297235e+002, 2.708917e+002
6.302056e+002, 2.695946e+002
6.306877e+002, 2.686253e+002
6.311699e+002, 2.679139e+002
6.316520e+002, 2.673419e+002
6.321341e+002, 2.668579e+002
6.326162e+002, 2.664036e+002
6.330983e+002, 2.659257e+002
6.335804e+002, 2.654753e+002
6.340626e+002, 2.646917e+002
6.345447e+002, 2.630941e+002
6.350268e+002, 2.618065e+002
6.355089e+002, 2.615086e+002
6.359910e+002, 2.617372e+002
6.364731e+002, 2.617396e+002
6.369553e+002, 2.612591e+002
6.374374e+002, 2.609134e+002
6.379195e+002, 2.612896e+002
6.384016e+002, 2.620580e+002
6.388837e+002, 2.625857e+002
6.393658e+002, 2.628042e+002
6.398480e+002, 2.629990e+002
6.403301e+002, 2.633349e+002
6.408122e+002, 2.638046e+002
6.412943e+002, 2.643922e+002
6.417764e+002, 2.651469e+002
6.422585e+002, 2.659504e+002
6.427407e+002, 2.668950e+002
6.432228e+002, 2.678024e+002
6.437049e+002, 2.684857e+002
6.441870e+002, 2.690413e+002
6.446691e+002, 2.696537e+002
6.451512e+002, 2.703636e+002
6.456334e+002, 2.714243e+002
6.461155e+002, 2.734872e+002
6.465976e+002, 2.765412e+002
6.470797e+002, 2.790967e+002
6.475618e+002, 2.808011e+002
6.480439e+002, 2.822357e+002
6.485261e+002, 2.836126e+002
6.490082e+002, 2.850715e+002
6.494903e+002, 2.870201e+002
6.499724e+002, 2.896850e+002
6.504545e+002, 2.925398e+002
6.509366e+002, 2.954517e+002
6.514188e+002, 2.983939e+002
6.519009e+002, 3.012295e+002
6.523830e+002, 3.040030e+002
6.528651e+002, 3.070351e+002
6.533472e+002, 3.106117e+002
6.538293e+002, 3.145167e+002
6.543115e+002, 3.178284e+002
6.547936e+002, 3.198143e+002
6.552757e+002, 3.229623e+002
6.557578e+002, 3.286169e+002
6.562399e+002, 3.346882e+002
6.567220e+002, 3.399729e+002
6.572042e+002, 3.447322e+002
6.576863e+002, 3.498771e+002
6.581684e+002, 3.558253e+002
6.586505e+002, 3.622004e+002
6.591326e+002, 3.688622e+002
6.596147e+002, 3.756510e+002
6.600969e+002, 3.821252e+002
6.605790e+002, 3.881620e+002
6.610611e+002, 3.942201e+002
6.615432e+002, 4.006801e+002
6.620253e+002, 4.075569e+002
6.625074e+002, 4.148548e+002
6.629896e+002, 4.234737e+002
6.634717e+002, 4.313134e+002
6.639538e+002, 4.377855e+002
6.644359e+002, 4.437662e+002
6.649180e+002, 4.500710e+002
6.654001e+002, 4.565932e+002
6.658823e+002, 4.626768e+002
6.663644e+002, 4.681164e+002
6.668465e+002, 4.726151e+002
6.673286e+002, 4.757378e+002
6.678107e+002, 4.774870e+002
6.682928e+002, 4.779478e+002
6.687750e+002, 4.771849e+002
6.692571e+002, 4.750148e+002
6.697392e+002, 4.710788e+002
6.702213e+002, 4.654033e+002
6.707034e+002, 4.591606e+002
6.711855e+002, 4.529007e+002
6.716677e+002, 4.454227e+002
6.721498e+002, 4.360638e+002
6.726319e+002, 4.255293e+002
6.731140e+002, 4.143539e+002
6.735961e+002, 4.027376e+002
6.740782e+002, 3.908063e+002
6.745604e+002, 3.785659e+002
6.750425e+002, 3.661000e+002
6.755246e+002, 3.535970e+002
6.760067e+002, 3.410537e+002
6.764888e+002, 3.284728e+002
6.769709e+002, 3.153343e+002
6.774531e+002, 3.026778e+002
6.779352e+002, 2.915321e+002
6.784173e+002, 2.815516e+002
6.788994e+002, 2.715756e+002
6.793815e+002, 2.612010e+002
6.798636e+002, 2.509508e+002
6.803458e+002, 2.409226e+002
6.808279e+002, 2.313083e+002
6.813100e+002, 2.223849e+002
6.817921e+002, 2.142007e+002
6.822742e+002, 2.063836e+002
6.827563e+002, 1.985801e+002
6.832385e+002, 1.909628e+002
6.837206e+002, 1.843997e+002
6.842027e+002, 1.794889e+002
6.846848e+002, 1.743495e+002
6.851669e+002, 1.684677e+002
6.856490e+002, 1.625615e+002
6.861312e+002, 1.568570e+002
6.866133e+002, 1.514746e+002
6.870954e+002, 1.466618e+002
6.875775e+002, 1.427207e+002
6.880596e+002, 1.390402e+002
6.885417e+002, 1.349218e+002
6.890239e+002, 1.306905e+002
6.895060e+002, 1.272789e+002
6.899881e+002, 1.248161e+002
6.904702e+002, 1.224285e+002
6.909523e+002, 1.193770e+002
6.914344e+002, 1.158448e+002
6.919166e+002, 1.126971e+002
6.923987e+002, 1.101449e+002
6.928808e+002, 1.076528e+002
6.933629e+002, 1.050119e+002
6.938450e+002, 1.025986e+002
6.943271e+002, 1.007644e+002
6.948093e+002, 9.933050e+001
6.952914e+002, 9.784949e+001
6.957735e+002, 9.613058e+001
6.962556e+002, 9.427869e+001
6.967377e+002, 9.219663e+001
6.972198e+002, 9.006113e+001
6.977020e+002, 8.861031e+001
6.981841e+002, 8.801308e+001
6.986662e+002, 8.735879e+001
6.991483e+002, 8.594720e+001
6.996304e+002, 8.402615e+001
7.001125e+002, 8.256086e+001
7.005947e+002, 8.196175e+001
7.010768e+002, 8.120846e+001
7.015589e+002, 7.996172e+001
7.020410e+002, 7.886189e+001
7.025231e+002, 7.848630e+001
7.030052e+002, 7.853934e+001
7.034874e+002, 7.832693e+001
7.039695e+002, 7.753841e+001
7.044516e+002, 7.655260e+001
7.049337e+002, 7.578475e+001
7.054158e+002, 7.522182e+001
7.058979e+002, 7.486409e+001
7.063801e+002, 7.476122e+001
7.068622e+002, 7.449841e+001
7.073442e+002, 7.373069e+001
7.078264e+002, 7.271371e+001
7.083085e+002, 7.210168e+001
7.087906e+002, 7.199280e+001
7.092727e+002, 7.200869e+001
7.097548e+002, 7.239690e+001
7.102369e+002, 7.263689e+001
7.107191e+002, 7.226255e+001
7.112012e+002, 7.156236e+001
7.116833e+002, 7.108352e+001
7.121654e+002, 7.101965e+001
7.126475e+002, 7.109359e+001
7.131296e+002, 7.098400e+001
7.136118e+002, 7.072814e+001
7.140939e+002, 7.052234e+001
7.145760e+002, 7.037270e+001
7.150581e+002, 7.028076e+001
7.155402e+002, 7.026393e+001
7.160223e+002, 7.029157e+001
7.165045e+002, 7.034946e+001
7.169866e+002, 7.047932e+001
7.174687e+002, 7.040010e+001
7.179508e+002, 6.974490e+001
7.184329e+002, 6.924201e+001
7.189150e+002, 6.936597e+001
7.193972e+002, 6.982372e+001
7.198793e+002, 7.024606e+001
7.203614e+002, 7.050465e+001
7.208435e+002, 7.056351e+001
7.213256e+002, 7.039474e+001
7.218077e+002, 6.999468e+001
7.222899e+002, 6.923582e+001
7.227720e+002, 6.803109e+001
7.232541e+002, 6.718500e+001
7.237362e+002, 6.710847e+001
7.242183e+002, 6.726352e+001
7.247004e+002, 6.705541e+001
7.251826e+002, 6.648676e+001
7.256647e+002, 6.581185e+001
7.261468e+002, 6.485580e+001
7.266289e+002, 6.401795e+001
7.271110e+002, 6.352525e+001
7.275931e+002, 6.317613e+001
7.280753e+002, 6.277774e+001
7.285574e+002, 6.228900e+001
7.290395e+002, 6.172520e+001
7.295216e+002, 6.106719e+001
7.300037e+002, 6.039787e+001
7.304858e+002, 5.990724e+001
7.309680e+002, 5.959991e+001
7.314501e+002, 5.938342e+001
7.319322e+002, 5.926842e+001
7.324143e+002, 5.917458e+001
7.328964e+002, 5.902987e+001
7.333785e+002, 5.884946e+001
7.338607e+002, 5.871695e+001
7.343428e+002, 5.875158e+001
7.348249e+002, 5.865100e+001
7.353070e+002, 5.828539e+001
7.357891e+002, 5.781542e+001
7.362712e+002, 5.725886e+001
7.367534e+002, 5.671824e+001
7.372355e+002, 5.641323e+001
7.377176e+002, 5.645883e+001
7.381997e+002, 5.670080e+001
7.386818e+002, 5.706266e+001
7.391639e+002, 5.748671e+001
7.396461e+002, 5.727091e+001
7.401282e+002, 5.617723e+001
7.406103e+002, 5.529755e+001
7.410924e+002, 5.532568e+001
7.415745e+002, 5.589548e+001
7.420566e+002, 5.623441e+001
7.425388e+002, 5.635294e+001
7.430209e+002, 5.624253e+001
7.435030e+002, 5.573696e+001
7.439851e+002, 5.517403e+001
7.444672e+002, 5.461890e+001
7.449493e+002, 5.416728e+001
7.454315e+002, 5.399697e+001
7.459136e+002, 5.413362e+001
7.463957e+002, 5.430772e+001
7.468778e+002, 5.426043e+001
7.473599e+002, 5.404781e+001
7.478420e+002, 5.382634e+001
7.483242e+002, 5.359505e+001
7.488063e+002, 5.338355e+001
7.492884e+002, 5.321096e+001
7.497705e+002, 5.303778e+001
7.502526e+002, 5.280323e+001
7.507347e+002, 5.250175e+001
7.512169e+002, 5.226956e+001
7.516990e+002, 5.212970e+001
7.521811e+002, 5.202320e+001
7.526632e+002, 5.196513e+001
7.531453e+002, 5.191428e+001
7.536274e+002, 5.187517e+001
7.541096e+002, 5.181432e+001
7.545917e+002, 5.160978e+001
7.550738e+002, 5.111500e+001
7.555559e+002, 5.060720e+001
7.560380e+002, 5.052643e+001
7.565201e+002, 5.078165e+001
7.570023e+002, 5.100094e+001
7.574844e+002, 5.112888e+001
7.579665e+002, 5.115187e+001
7.584486e+002, 5.104992e+001
7.589307e+002, 5.084476e+001
7.594128e+002, 5.060445e+001
7.598950e+002, 5.025331e+001
7.603771e+002, 5.000546e+001
7.608592e+002, 4.996770e+001
7.613413e+002, 4.991412e+001
7.618234e+002, 4.964500e+001
7.623055e+002, 4.932257e+001
7.627877e+002, 4.924317e+001
7.632698e+002, 4.949790e+001
7.637519e+002, 4.976440e+001
7.642340e+002, 4.970419e+001
7.647161e+002, 4.955714e+001
7.651982e+002, 4.979305e+001
7.656804e+002, 5.033943e+001
7.661625e+002, 5.073101e+001
7.666446e+002, 5.079424e+001
7.671267e+002, 5.058023e+001
7.676088e+002, 5.010960e+001
7.680909e+002, 4.935989e+001
7.685731e+002, 4.886132e+001
7.690552e+002, 4.880170e+001
7.695373e+002, 4.868404e+001
7.700194e+002, 4.824511e+001
7.705015e+002, 4.783111e+001
7.709836e+002, 4.774915e+001
7.714658e+002, 4.795871e+001
7.719479e+002, 4.817586e+001
7.724300e+002, 4.827819e+001
7.729121e+002, 4.839122e+001
7.733942e+002, 4.875399e+001
7.738763e+002, 4.911697e+001
7.743585e+002, 4.904353e+001
7.748406e+002, 4.852228e+001
7.753227e+002, 4.783958e+001
7.758048e+002, 4.715394e+001
7.762869e+002, 4.655928e+001
7.767690e+002, 4.632199e+001
7.772512e+002, 4.650488e+001
7.777333e+002, 4.663142e+001
7.782154e+002, 4.670047e+001
7.786975e+002, 4.665606e+001
7.791796e+002, 4.635845e+001
7.796617e+002, 4.597389e+001
7.801439e+002, 4.578346e+001
7.806260e+002, 4.581828e+001
7.811081e+002, 4.592183e+001
7.815902e+002, 4.627065e+001
7.820723e+002, 4.646199e+001
7.825544e+002, 4.613767e+001
7.830366e+002, 4.551135e+001
7.835187e+002, 4.488702e+001
7.840008e+002, 4.437540e+001
7.844829e+002, 4.403942e+001
7.849650e+002, 4.395076e+001
7.854471e+002, 4.407312e+001
7.859293e+002, 4.442672e+001
7.864114e+002, 4.501938e+001
7.868935e+002, 4.513926e+001
7.873756e+002, 4.447536e+001
7.878577e+002, 4.369840e+001
7.883398e+002, 4.342036e+001
7.888220e+002, 4.358652e+001
7.893040e+002, 4.374107e+001
7.897861e+002, 4.412001e+001
7.902682e+002, 4.415033e+001
7.907504e+002, 4.364467e+001
7.912325e+002, 4.291230e+001
7.917146e+002, 4.189221e+001
7.921967e+002, 4.085471e+001
7.926788e+002, 4.034274e+001
7.931609e+002, 4.059755e+001
7.936431e+002, 4.101001e+001
7.941252e+002, 4.104967e+001
7.946073e+002, 4.088197e+001
7.950894e+002, 4.082999e+001
7.955715e+002, 4.088628e+001
7.960536e+002, 4.084550e+001
7.965358e+002, 4.061309e+001
7.970179e+002, 4.035032e+001
7.975000e+002, 4.029442e+001
7.979821e+002, 4.045777e+001
7.984642e+002, 4.051891e+001
7.989464e+002, 4.047600e+001
7.994285e+002, 4.033456e+001
7.999106e+002, 4.002670e+001
8.003927e+002, 3.967391e+001
8.008748e+002, 3.926658e+001
8.013569e+002, 3.886952e+001
8.018391e+002, 3.877930e+001
8.023212e+002, 3.929462e+001
8.028033e+002, 3.980762e+001
8.032854e+002, 4.002484e+001
8.037675e+002, 4.005188e+001
8.042496e+002, 3.999717e+001
8.047318e+002, 3.987531e+001
8.052139e+002, 3.962748e+001
8.056960e+002, 3.921217e+001
8.061781e+002, 3.880843e+001
8.066602e+002, 3.878413e+001
8.071423e+002, 3.909726e+001
8.076245e+002, 3.922503e+001
8.081066e+002, 3.920287e+001
8.085887e+002, 3.858119e+001
8.090708e+002, 3.670552e+001
8.095529e+002, 3.475701e+001
8.100350e+002, 3.470850e+001
8.105172e+002, 3.698930e+001
8.109993e+002, 3.837465e+001
8.114814e+002, 3.838768e+001
8.119635e+002, 3.812511e+001
8.124456e+002, 3.771566e+001
8.129277e+002, 3.728175e+001
8.134099e+002, 3.687454e+001
8.138920e+002, 3.653693e+001
8.143741e+002, 3.638023e+001
8.148562e+002, 3.651281e+001
8.153383e+002, 3.673399e+001
8.158204e+002, 3.682825e+001
8.163026e+002, 3.685450e+001
8.167847e+002, 3.704340e+001
8.172668e+002, 3.736805e+001
8.177489e+002, 3.733846e+001
8.182310e+002, 3.663414e+001
8.187131e+002, 3.565680e+001
8.191953e+002, 3.519123e+001
8.196774e+002, 3.530900e+001
8.201595e+002, 3.549807e+001
8.206416e+002, 3.579440e+001
8.211237e+002, 3.609992e+001
8.216058e+002, 3.647873e+001
8.220880e+002, 3.677423e+001
8.225701e+002, 3.677588e+001
8.230522e+002, 3.649235e+001
8.235343e+002, 3.621654e+001
8.240164e+002, 3.586071e+001
8.244985e+002, 3.569892e+001
8.249807e+002, 3.610886e+001
8.254628e+002, 3.660667e+001
8.259449e+002, 3.653212e+001
8.264270e+002, 3.598341e+001
8.269091e+002, 3.565343e+001
8.273912e+002, 3.598359e+001
8.278734e+002, 3.644007e+001
8.283555e+002, 3.612703e+001
8.288376e+002, 3.527253e+001
8.293197e+002, 3.484495e+001
8.298018e+002, 3.493173e+001
8.302839e+002, 3.521301e+001
8.307661e+002, 3.557319e+001
8.312482e+002, 3.592444e+001
8.317303e+002, 3.613155e+001
8.322124e+002, 3.619314e+001
8.326945e+002, 3.610987e+001
8.331766e+002, 3.571804e+001
8.336588e+002, 3.541883e+001
8.341409e+002, 3.543618e+001
8.346230e+002, 3.547003e+001
8.351051e+002, 3.512178e+001
8.355872e+002, 3.452161e+001
8.360693e+002, 3.436349e+001
8.365515e+002, 3.526220e+001
8.370336e+002, 3.599535e+001
8.375157e+002, 3.565886e+001
8.379978e+002, 3.495921e+001
8.384799e+002, 3.469653e+001
8.389620e+002, 3.485944e+001
8.394442e+002, 3.510774e+001
8.399263e+002, 3.528206e+001
8.404084e+002, 3.537393e+001
8.408905e+002, 3.539658e+001
8.413726e+002, 3.533189e+001
8.418547e+002, 3.496313e+001
8.423369e+002, 3.425240e+001
8.428190e+002, 3.387144e+001
8.433011e+002, 3.412193e+001
8.437832e+002, 3.463977e+001
8.442653e+002, 3.506505e+001
8.447474e+002, 3.539428e+001
8.452296e+002, 3.542238e+001
8.457117e+002, 3.477068e+001
8.461938e+002, 3.437384e+001
8.466759e+002, 3.448236e+001
8.471580e+002, 3.470007e+001
8.476401e+002, 3.483065e+001
8.481223e+002, 3.486859e+001
8.486044e+002, 3.482196e+001
8.490865e+002, 3.466377e+001
8.495686e+002, 3.455243e+001
8.500507e+002, 3.473839e+001
8.505328e+002, 3.488042e+001
8.510150e+002, 3.448262e+001
8.514971e+002, 3.377987e+001
8.519792e+002, 3.334831e+001
8.524613e+002, 3.335954e+001
8.529434e+002, 3.358046e+001
8.534255e+002, 3.383863e+001
8.539077e+002, 3.408406e+001
8.543898e+002, 3.409973e+001
8.548719e+002, 3.388589e+001
8.553540e+002, 3.385902e+001
8.558361e+002, 3.416222e+001
8.563182e+002, 3.437893e+001
8.568004e+002, 3.412806e+001
8.572825e+002, 3.360591e+001
8.577646e+002, 3.346369e+001
8.582467e+002, 3.400230e+001
8.587288e+002, 3.426715e+001
8.592109e+002, 3.408308e+001
8.596931e+002, 3.383827e+001
8.601752e+002, 3.358685e+001
8.606573e+002, 3.339475e+001
8.611394e+002, 3.340362e+001
8.616215e+002, 3.360632e+001
8.621036e+002, 3.365092e+001
8.625858e+002, 3.311806e+001
8.630679e+002, 3.268024e+001
8.635500e+002, 3.300653e+001
8.640321e+002, 3.360268e+001
8.645142e+002, 3.370108e+001
8.649963e+002, 3.331558e+001
8.654785e+002, 3.302800e+001
8.659606e+002, 3.319030e+001
8.664427e+002, 3.350402e+001
8.669248e+002, 3.343401e+001
8.674069e+002, 3.308955e+001
8.678890e+002, 3.313205e+001
8.683712e+002, 3.361405e+001
8.688533e+002, 3.396299e+001
8.693354e+002, 3.393169e+001
8.698175e+002, 3.369489e+001
8.702996e+002, 3.344969e+001
8.707817e+002, 3.319367e+001
8.712639e+002, 3.315666e+001
8.717459e+002, 3.355612e+001
8.722280e+002, 3.379137e+001
8.727101e+002, 3.369562e+001
8.731923e+002, 3.346904e+001
8.736744e+002, 3.306189e+001
8.741565e+002, 3.263638e+001
8.746386e+002, 3.263340e+001
8.751207e+002, 3.334354e+001
8.756028e+002, 3.379913e+001
8.760850e+002, 3.337984e+001
8.765671e+002, 3.285701e+001
8.770492e+002, 3.279121e+001
8.775313e+002, 3.303109e+001
8.780134e+002, 3.332383e+001
8.784955e+002, 3.357362e+001
8.789777e+002, 3.368119e+001
8.794598e+002, 3.351207e+001
8.799419e+002, 3.322297e+001
8.804240e+002, 3.299433e+001
8.809061e+002, 3.286493e+001
8.813882e+002, 3.307159e+001
8.818704e+002, 3.362452e+001
8.823525e+002, 3.407751e+001
8.828346e+002, 3.415174e+001
8.833167e+002, 3.393183e+001
8.837988e+002, 3.350511e+001
8.842809e+002, 3.277760e+001
8.847631e+002, 3.261208e+001
8.852452e+002, 3.331855e+001
8.857273e+002, 3.381178e+001
8.862094e+002, 3.359169e+001
8.866915e+002, 3.312598e+001
8.871736e+002, 3.294032e+001
8.876558e+002, 3.301284e+001
8.881379e+002, 3.298747e+001
8.886200e+002, 3.284980e+001
8.891021e+002, 3.262058e+001
8.895842e+002, 3.209461e+001
8.900663e+002, 3.167327e+001
8.905485e+002, 3.173734e+001
8.910306e+002, 3.208748e+001
8.915127e+002, 3.232453e+001
8.919948e+002, 3.234082e+001
8.924769e+002, 3.223658e+001
8.929590e+002, 3.194201e+001
8.934412e+002, 3.167111e+001
8.939233e+002, 3.166372e+001
8.944054e+002, 3.185528e+001
8.948875e+002, 3.218488e+001
8.953696e+002, 3.258489e+001
8.958517e+002, 3.279027e+001
8.963339e+002, 3.256728e+001
8.968160e+002, 3.215336e+001
8.972981e+002, 3.201326e+001
8.977802e+002, 3.212967e+001
8.982623e+002, 3.241903e+001
8.987444e+002, 3.291223e+001
8.992266e+002, 3.302165e+001
8.997087e+002, 3.234956e+001
9.001908e+002, 3.150289e+001
9.006729e+002, 3.144388e+001
9.011550e+002, 3.222685e+001
9.016371e+002, 3.254043e+001
9.021193e+002, 3.201655e+001
9.026014e+002, 3.170887e+001
9.030835e+002, 3.191299e+001
9.035656e+002, 3.229608e+001
9.040477e+002, 3.282964e+001
9.045298e+002, 3.334492e+001
9.050120e+002, 3.334431e+001
9.054941e+002, 3.252228e+001
9.059762e+002, 3.191237e+001
9.064583e+002, 3.182292e+001
9.069404e+002, 3.195563e+001
9.074225e+002, 3.232116e+001
9.079047e+002, 3.270185e+001
9.083868e+002, 3.275183e+001
9.088689e+002, 3.247671e+001
9.093510e+002, 3.230302e+001
9.098331e+002, 3.256363e+001
9.103152e+002, 3.290021e+001
9.107974e+002, 3.293096e+001
9.112795e+002, 3.278397e+001
9.117616e+002, 3.272392e+001
9.122437e+002, 3.273816e+001
9.127258e+002, 3.255697e+001
9.132079e+002, 3.205175e+001
9.136901e+002, 3.159140e+001
9.141722e+002, 3.174735e+001
9.146543e+002, 3.239206e+001
9.151364e+002, 3.282806e+001
9.156185e+002, 3.305624e+001
9.161006e+002, 3.295749e+001
9.165828e+002, 3.239859e+001
9.170649e+002, 3.200196e+001
9.175470e+002, 3.234936e+001
9.180291e+002, 3.320568e+001
9.185112e+002, 3.371422e+001
9.189933e+002, 3.378569e+001
9.194755e+002, 3.373952e+001
9.199576e+002, 3.349863e+001
9.204397e+002, 3.325356e+001
9.209218e+002, 3.302236e+001
9.214039e+002, 3.286189e+001
9.218860e+002, 3.284454e+001
9.223682e+002, 3.296830e+001
9.228503e+002, 3.315942e+001
9.233324e+002, 3.348550e+001
9.238145e+002, 3.377259e+001
9.242966e+002, 3.399834e+001
9.247787e+002, 3.414274e+001
9.252609e+002, 3.416859e+001
9.257430e+002, 3.410617e+001
9.262251e+002, 3.399255e+001
9.267072e+002, 3.383551e+001
9.271893e+002, 3.373441e+001
9.276714e+002, 3.376086e+001
9.281536e+002, 3.386926e+001
9.286357e+002, 3.400871e+001
9.291178e+002, 3.419768e+001
9.295999e+002, 3.454616e+001
9.300820e+002, 3.501567e+001
9.305641e+002, 3.530907e+001
9.310463e+002, 3.520887e+001
9.315284e+002, 3.500317e+001
9.320105e+002, 3.517771e+001
9.324926e+002, 3.564054e+001
9.329747e+002, 3.606835e+001
9.334568e+002, 3.643172e+001
9.339390e+002, 3.648476e+001
9.344211e+002, 3.609425e+001
9.349032e+002, 3.581044e+001
9.353853e+002, 3.628154e+001
9.358674e+002, 3.735491e+001
9.363495e+002, 3.810799e+001
9.368317e+002, 3.844233e+001
9.373138e+002, 3.892089e+001
9.377959e+002, 3.974395e+001
9.382780e+002, 4.040104e+001
9.387601e+002, 4.048412e+001
9.392422e+002, 4.033953e+001
9.397244e+002, 4.061591e+001
9.402065e+002, 4.141056e+001
9.406886e+002, 4.204625e+001
9.411707e+002, 4.239624e+001
9.416528e+002, 4.276816e+001
9.421349e+002, 4.314717e+001
9.426171e+002, 4.363211e+001
9.430992e+002, 4.423100e+001
9.435813e+002, 4.500192e+001
9.440634e+002, 4.612043e+001
9.445455e+002, 4.773474e+001
9.450276e+002, 4.926281e+001
9.455098e+002, 5.039785e+001
9.459919e+002, 5.149696e+001
9.464740e+002, 5.276216e+001
9.469561e+002, 5.414397e+001
9.474382e+002, 5.552023e+001
9.479203e+002, 5.690535e+001
9.484025e+002, 5.848478e+001
9.488846e+002, 6.039978e+001
9.493667e+002, 6.243489e+001
9.498488e+002, 6.441672e+001
9.503309e+002, 6.637786e+001
9.508130e+002, 6.850725e+001
9.512952e+002, 7.067613e+001
9.517773e+002, 7.246428e+001
9.522594e+002, 7.374017e+001
9.527415e+002, 7.477898e+001
9.532236e+002, 7.595072e+001
9.537057e+002, 7.694855e+001
9.541878e+002, 7.698548e+001
9.546699e+002, 7.614244e+001
9.551520e+002, 7.491293e+001
9.556342e+002, 7.336039e+001
9.561163e+002, 7.153446e+001
9.565984e+002, 6.944109e+001
9.570805e+002, 6.715778e+001
9.575626e+002, 6.482793e+001
9.580447e+002, 6.243366e+001
9.585269e+002, 5.984451e+001
9.590090e+002, 5.695277e+001
9.594911e+002, 5.429117e+001
9.599732e+002, 5.200832e+001
9.604553e+002, 4.990263e+001
9.609374e+002, 4.781540e+001
9.614196e+002, 4.582863e+001
9.619017e+002, 4.418981e+001
9.623838e+002, 4.300949e+001
9.628659e+002, 4.183691e+001
9.633480e+002, 4.052376e+001
9.638301e+002, 3.942701e+001
9.643123e+002, 3.886427e+001
9.647944e+002, 3.837038e+001
9.652765e+002, 3.742597e+001
9.657586e+002, 3.616944e+001
9.662407e+002, 3.527375e+001
9.667228e+002, 3.493708e+001
9.672050e+002, 3.472221e+001
9.676871e+002, 3.463731e+001
9.681692e+002, 3.454088e+001
9.686513e+002, 3.433717e+001
9.691334e+002, 3.408213e+001
9.696155e+002, 3.381931e+001
9.700977e+002, 3.357541e+001
9.705798e+002, 3.345635e+001
9.710619e+002, 3.362906e+001
9.715440e+002, 3.374407e+001
9.720261e+002, 3.362125e+001
9.725082e+002, 3.329867e+001
9.729904e+002, 3.260206e+001
9.734725e+002, 3.179086e+001
9.739546e+002, 3.148703e+001
9.744367e+002, 3.183011e+001
9.749188e+002, 3.219387e+001
9.754009e+002, 3.204649e+001
9.758831e+002, 3.168952e+001
9.763652e+002, 3.146189e+001
9.768473e+002, 3.135425e+001
9.773294e+002, 3.141611e+001
9.778115e+002, 3.159461e+001
9.782936e+002, 3.161808e+001
9.787758e+002, 3.135848e+001
9.792579e+002, 3.105820e+001
9.797400e+002, 3.106594e+001
9.802221e+002, 3.125863e+001
9.807042e+002, 3.115600e+001
9.811863e+002, 3.081406e+001
9.816685e+002, 3.072610e+001
9.821506e+002, 3.098905e+001
9.826327e+002, 3.127282e+001
9.831148e+002, 3.136640e+001
9.835969e+002, 3.133713e+001
9.840790e+002, 3.135604e+001
9.845612e+002, 3.142643e+001
9.850433e+002, 3.103315e+001
9.855254e+002, 3.004304e+001
9.860075e+002, 2.938957e+001
9.864896e+002, 2.933960e+001
9.869717e+002, 2.962921e+001
9.874539e+002, 3.014482e+001
9.879360e+002, 3.074463e+001
9.884181e+002, 3.097965e+001
9.889002e+002, 3.079320e+001
9.893823e+002, 3.040189e+001
9.898644e+002, 2.953335e+001
9.903466e+002, 2.899439e+001
9.908287e+002, 2.917532e+001
9.913108e+002, 2.963442e+001
9.917929e+002, 3.005108e+001
9.922750e+002, 3.039677e+001
9.927571e+002, 3.048823e+001
9.932393e+002, 3.015895e+001
9.937214e+002, 2.987729e+001
9.942035e+002, 2.952987e+001
9.946856e+002, 2.937344e+001
9.951677e+002, 2.969336e+001
9.956498e+002, 3.012467e+001
9.961320e+002, 3.030468e+001
9.966141e+002, 3.022590e+001
9.970962e+002, 2.999802e+001
9.975783e+002, 2.943048e+001
9.980604e+002, 2.906737e+001
9.985425e+002, 2.915145e+001
9.990247e+002, 2.937086e+001
9.995068e+002, 2.965810e+001
9.999889e+002, 2.988955e+001
1.000471e+003, 2.982557e+001
1.000953e+003, 2.948978e+001
1.001435e+003, 2.934124e+001
1.001917e+003, 2.971324e+001
1.002399e+003, 3.009606e+001
1.002882e+003, 3.026968e+001
1.003364e+003, 3.027831e+001
1.003846e+003, 3.001229e+001
1.004328e+003, 2.966565e+001
1.004810e+003, 2.966845e+001
1.005292e+003, 3.007657e+001
1.005774e+003, 3.034465e+001
1.006256e+003, 2.998820e+001
1.006739e+003, 2.953990e+001
1.007221e+003, 2.948730e+001
1.007703e+003, 2.966443e+001
1.008185e+003, 2.996686e+001
1.008667e+003, 3.026867e+001
1.009149e+003, 3.022045e+001
1.009631e+003, 2.973945e+001
1.010113e+003, 2.936972e+001
1.010595e+003, 2.973193e+001
1.011078e+003, 3.032536e+001
1.011560e+003, 3.037961e+001
1.012042e+003, 3.007722e+001
1.012524e+003, 2.985053e+001
1.013006e+003, 2.971829e+001
1.013488e+003, 2.938830e+001
1.013970e+003, 2.874364e+001
1.014452e+003, 2.827696e+001
1.014935e+003, 2.868419e+001
1.015417e+003, 2.956422e+001
1.015899e+003, 2.988573e+001
1.016381e+003, 2.975991e+001
1.016863e+003, 2.972865e+001
1.017345e+003, 2.985377e+001
1.017827e+003, 2.977751e+001
1.018309e+003, 2.929918e+001
1.018791e+003, 2.884530e+001
1.019274e+003, 2.908440e+001
1.019756e+003, 2.983278e+001
1.020238e+003, 3.016934e+001
1.020720e+003, 3.010897e+001
1.021202e+003, 3.010461e+001
1.021684e+003, 3.024383e+001
1.022166e+003, 3.025008e+001
1.022648e+003, 2.995520e+001
1.023130e+003, 2.947482e+001
1.023613e+003, 2.893109e+001
1.024095e+003, 2.834978e+001
1.024577e+003, 2.823492e+001
1.025059e+003, 2.865075e+001
1.025541e+003, 2.899936e+001
1.026023e+003, 2.917422e+001
1.026505e+003, 2.925421e+001
1.026987e+003, 2.927413e+001
1.027469e+003, 2.925846e+001
1.027952e+003, 2.924282e+001
1.028434e+003, 2.922377e+001
1.028916e+003, 2.931354e+001
1.029398e+003, 2.958853e+001
1.029880e+003, 2.970570e+001
1.030362e+003, 2.959718e+001
1.030844e+003, 2.931396e+001
1.031326e+003, 2.880735e+001
1.031809e+003, 2.823253e+001
1.032291e+003, 2.787930e+001
1.032773e+003, 2.773498e+001
1.033255e+003, 2.794403e+001
1.033737e+003, 2.871720e+001
1.034219e+003, 2.939261e+001
1.034701e+003, 2.989289e+001
1.035183e+003, 3.019658e+001
1.035666e+003, 3.023286e+001
1.036148e+003, 3.009130e+001
1.036630e+003, 2.993951e+001
1.037112e+003, 2.975764e+001
1.037594e+003, 2.968268e+001
1.038076e+003, 2.991022e+001
1.038558e+003, 2.992512e+001
1.039040e+003, 2.939014e+001
1.039522e+003, 2.888923e+001
1.040005e+003, 2.881769e+001
1.040487e+003, 2.903732e+001
1.040969e+003, 2.927718e+001
1.041451e+003, 2.955045e+001
1.041933e+003, 2.977746e+001
1.042415e+003, 3.001809e+001
1.042897e+003, 3.012764e+001
1.043379e+003, 3.001948e+001
1.043861e+003, 2.983310e+001
1.044344e+003, 2.958445e+001
1.044826e+003, 2.934606e+001
1.045308e+003, 2.929333e+001
1.045790e+003, 2.948498e+001
1.046272e+003, 2.951965e+001
1.046754e+003, 2.907747e+001
1.047236e+003, 2.885788e+001
1.047718e+003, 2.929284e+001
1.048201e+003, 2.975033e+001
1.048683e+003, 2.969112e+001
1.049165e+003, 2.938071e+001
1.049647e+003, 2.941709e+001
1.050129e+003, 2.991797e+001
1.050611e+003, 3.011675e+001
1.051093e+003, 2.963027e+001
1.051575e+003, 2.914296e+001
1.052057e+003, 2.876574e+001
1.052540e+003, 2.854563e+001
1.053022e+003, 2.858941e+001
1.053504e+003, 2.878110e+001
1.053986e+003, 2.889108e+001
1.054468e+003, 2.888260e+001
1.054950e+003, 2.900865e+001
1.055432e+003, 2.952917e+001
1.055914e+003, 2.993271e+001
1.056396e+003, 3.003103e+001
1.056879e+003, 2.996266e+001
1.057361e+003, 2.967811e+001
1.057843e+003, 2.936725e+001
1.058325e+003, 2.938262e+001
1.058807e+003, 2.976824e+001
1.059289e+003, 3.006104e+001
1.059771e+003, 3.009735e+001
1.060253e+003, 3.003342e+001
1.060736e+003, 2.987423e+001
1.061218e+003, 2.969057e+001
1.061700e+003, 2.948428e+001
1.062182e+003, 2.931367e+001
1.062664e+003, 2.927546e+001
1.063146e+003, 2.937814e+001
1.063628e+003, 2.951946e+001
1.064110e+003, 2.970624e+001
1.064593e+003, 2.986347e+001
1.065075e+003, 3.006173e+001
1.065557e+003, 3.011896e+001
1.066039e+003, 2.972135e+001
1.066521e+003, 2.917636e+001
1.067003e+003, 2.898508e+001
1.067485e+003, 2.919049e+001
1.067967e+003, 2.942528e+001
1.068449e+003, 2.967939e+001
1.068932e+003, 2.971716e+001
1.069414e+003, 2.905392e+001
1.069896e+003, 2.851921e+001
1.070378e+003, 2.903333e+001
1.070860e+003, 2.990701e+001
1.071342e+003, 3.001040e+001
1.071824e+003, 2.934241e+001
1.072306e+003, 2.896011e+001
1.072788e+003, 2.943802e+001
1.073271e+003, 2.982182e+001
1.073753e+003, 2.946268e+001
1.074235e+003, 2.906350e+001
1.074717e+003, 2.911777e+001
1.075199e+003, 2.945350e+001
1.075681e+003, 2.996042e+001
1.076163e+003, 3.050370e+001
1.076645e+003, 3.065005e+001
1.077127e+003, 3.008327e+001
1.077610e+003, 2.965681e+001
1.078092e+003, 2.992194e+001
1.078574e+003, 3.029136e+001
1.079056e+003, 3.033959e+001
1.079538e+003, 3.028491e+001
1.080020e+003, 3.042330e+001
1.080502e+003, 3.073138e+001
1.080984e+003, 3.101406e+001
1.081467e+003, 3.121898e+001
1.081949e+003, 3.135465e+001
1.082431e+003, 3.127408e+001
1.082913e+003, 3.130163e+001
1.083395e+003, 3.173044e+001
1.083877e+003, 3.229686e+001
1.084359e+003, 3.280553e+001
1.084841e+003, 3.318199e+001
1.085323e+003, 3.326956e+001
1.085806e+003, 3.298135e+001
1.086288e+003, 3.287009e+001
1.086770e+003, 3.329313e+001
1.087252e+003, 3.379743e+001
1.087734e+003, 3.421030e+001
1.088216e+003, 3.454573e+001
1.088698e+003, 3.484082e+001
1.089180e+003, 3.506844e+001
1.089662e+003, 3.513808e+001
1.090145e+003, 3.503157e+001
1.090627e+003, 3.495374e+001
1.091109e+003, 3.495919e+001
1.091591e+003, 3.503823e+001
1.092073e+003, 3.529503e+001
1.092555e+003, 3.551923e+001
1.093037e+003, 3.547240e+001
1.093519e+003, 3.530795e+001
1.094002e+003, 3.540928e+001
1.094484e+003, 3.577849e+001
1.094966e+003, 3.571788e+001
1.095448e+003, 3.447902e+001
1.095930e+003, 3.356237e+001
1.096412e+003, 3.389291e+001
1.096894e+003, 3.423054e+001
1.097376e+003, 3.365799e+001
1.097859e+003, 3.268785e+001
1.098341e+003, 3.194500e+001
1.098823e+003, 3.152146e+001
1.099305e+003, 3.143637e+001
1.099787e+003, 3.193622e+001
1.100269e+003, 3.226625e+001
1.100751e+003, 3.206464e+001
1.101233e+003, 3.184825e+001
1.101715e+003, 3.192947e+001
1.102198e+003, 3.207917e+001
1.102680e+003, 3.199685e+001
1.103162e+003, 3.175421e+001
1.103644e+003, 3.170568e+001
1.104126e+003, 3.201873e+001
1.104608e+003, 3.215223e+001
1.105090e+003, 3.181476e+001
1.105572e+003, 3.153918e+001
1.106054e+003, 3.162405e+001
1.106537e+003, 3.173845e+001
1.107019e+003, 3.153834e+001
1.107501e+003, 3.117327e+001
1.107983e+003, 3.106631e+001
1.108465e+003, 3.132587e+001
1.108947e+003, 3.138950e+001
1.109429e+003, 3.097720e+001
1.109911e+003, 3.069393e+001
1.110394e+003, 3.071631e+001
1.110876e+003, 3.084205e+001
1.111358e+003, 3.097328e+001
1.111840e+003, 3.111786e+001
1.112322e+003, 3.132152e+001
1.112804e+003, 3.159326e+001
1.113286e+003, 3.172187e+001
1.113768e+003, 3.165690e+001
1.114250e+003, 3.152537e+001
1.114733e+003, 3.112486e+001
1.115215e+003, 3.095005e+001
1.115697e+003, 3.132029e+001
1.116179e+003, 3.192687e+001
1.116661e+003, 3.253992e+001
1.117143e+003, 3.309840e+001
1.117625e+003, 3.310796e+001
1.118107e+003, 3.214164e+001
1.118589e+003, 3.165471e+001
1.119072e+003, 3.182253e+001
1.119554e+003, 3.216749e+001
1.120036e+003, 3.269131e+001
1.120518e+003, 3.309301e+001
1.121000e+003, 3.306861e+001
1.121482e+003, 3.275808e+001
1.121964e+003, 3.256635e+001
1.122446e+003, 3.250188e+001
1.122929e+003, 3.250377e+001
1.123411e+003, 3.256863e+001
1.123893e+003, 3.273883e+001
1.124375e+003, 3.309646e+001
1.124857e+003, 3.332169e+001
1.125339e+003, 3.316461e+001
1.125821e+003, 3.285513e+001
1.126303e+003, 3.279388e+001
1.126786e+003, 3.296605e+001
1.127268e+003, 3.311132e+001
1.127750e+003, 3.323211e+001
1.128232e+003, 3.326487e+001
1.128714e+003, 3.317226e+001
1.129196e+003, 3.325180e+001
1.129678e+003, 3.367729e+001
1.130160e+003, 3.408400e+001
1.130642e+003, 3.401738e+001
1.131125e+003, 3.365577e+001
1.131607e+003, 3.368227e+001
1.132089e+003, 3.406401e+001
1.132571e+003, 3.416546e+001
1.133053e+003, 3.396066e+001
1.133535e+003, 3.388806e+001
1.134017e+003, 3.408142e+001
1.134499e+003, 3.429067e+001
1.134981e+003, 3.432683e+001
1.135464e+003, 3.423724e+001
1.135946e+003, 3.404394e+001
1.136428e+003, 3.380547e+001
1.136910e+003, 3.373977e+001
1.137392e+003, 3.384117e+001
1.137874e+003, 3.411085e+001
1.138356e+003, 3.451964e+001
1.138838e+003, 3.490611e+001
1.139321e+003, 3.518962e+001
1.139803e+003, 3.532576e+001
1.140285e+003, 3.516675e+001
1.140767e+003, 3.492297e+001
1.141249e+003, 3.505213e+001
1.141731e+003, 3.536813e+001
1.142213e+003, 3.541356e+001
1.142695e+003, 3.524504e+001
1.143177e+003, 3.519073e+001
1.143660e+003, 3.536421e+001
1.144142e+003, 3.577129e+001
1.144624e+003, 3.659069e+001
1.145106e+003, 3.722749e+001
1.145588e+003, 3.682188e+001
1.146070e+003, 3.606782e+001
1.146552e+003, 3.567931e+001
1.147034e+003, 3.568925e+001
1.147516e+003, 3.622265e+001
1.147999e+003, 3.711815e+001
1.148481e+003, 3.775981e+001
1.148963e+003, 3.788633e+001
1.149445e+003, 3.775666e+001
1.149927e+003, 3.730587e+001
1.150409e+003, 3.691544e+001
1.150891e+003, 3.689049e+001
1.151373e+003, 3.704679e+001
1.151856e+003, 3.727838e+001
1.152338e+003, 3.748812e+001
1.152820e+003, 3.744581e+001
1.153302e+003, 3.710670e+001
1.153784e+003, 3.702365e+001
1.154266e+003, 3.767979e+001
1.154748e+003, 3.819721e+001
1.155230e+003, 3.816276e+001
1.155713e+003, 3.803834e+001
1.156195e+003, 3.804655e+001
1.156677e+003, 3.817794e+001
1.157159e+003, 3.847016e+001
1.157641e+003, 3.887812e+001
1.158123e+003, 3.911576e+001
1.158605e+003, 3.911709e+001
1.159087e+003, 3.903747e+001
1.159569e+003, 3.867906e+001
1.160052e+003, 3.852829e+001
1.160534e+003, 3.881013e+001
1.161016e+003, 3.923380e+001
1.161498e+003, 3.962388e+001
1.161980e+003, 3.998583e+001
1.162462e+003, 4.035976e+001
1.162944e+003, 4.077465e+001
1.163426e+003, 4.087708e+001
1.163908e+003, 4.054353e+001
1.164391e+003, 4.023914e+001
1.164873e+003, 3.998115e+001
1.165355e+003, 3.991886e+001
1.165837e+003, 4.021616e+001
1.166319e+003, 4.047038e+001
1.166801e+003, 4.011574e+001
1.167283e+003, 3.941236e+001
1.167765e+003, 3.957056e+001
1.168247e+003, 4.063679e+001
1.168730e+003, 4.104333e+001
1.169212e+003, 4.070349e+001
1.169694e+003, 4.043651e+001
1.170176e+003, 4.046400e+001
1.170658e+003, 4.068639e+001
1.171140e+003, 4.106432e+001
1.171622e+003, 4.139026e+001
1.172104e+003, 4.121029e+001
1.172587e+003, 4.075175e+001
1.173069e+003, 4.090942e+001
1.173551e+003, 4.146370e+001
1.174033e+003, 4.148478e+001
1.174515e+003, 4.098676e+001
1.174997e+003, 4.070550e+001
1.175479e+003, 4.090804e+001
1.175961e+003, 4.124052e+001
1.176443e+003, 4.144157e+001
1.176926e+003, 4.155772e+001
1.177408e+003, 4.152779e+001
1.177890e+003, 4.153750e+001
1.178372e+003, 4.201044e+001
1.178854e+003, 4.267272e+001
1.179336e+003, 4.299384e+001
1.179818e+003, 4.290852e+001
1.180300e+003, 4.253839e+001
1.180782e+003, 4.187257e+001
1.181265e+003, 4.143998e+001
1.181747e+003, 4.167310e+001
1.182229e+003, 4.211405e+001
1.182711e+003, 4.267875e+001
1.183193e+003, 4.311689e+001
1.183675e+003, 4.300730e+001
1.184157e+003, 4.268029e+001
1.184639e+003, 4.288671e+001
1.185122e+003, 4.368166e+001
1.185604e+003, 4.405002e+001
1.186086e+003, 4.326631e+001
1.186568e+003, 4.284602e+001
1.187050e+003, 4.340761e+001
1.187532e+003, 4.392297e+001
1.188014e+003, 4.380152e+001
1.188496e+003, 4.358370e+001
1.188979e+003, 4.388971e+001
1.189461e+003, 4.446431e+001
1.189943e+003, 4.451601e+001
1.190425e+003, 4.389705e+001
1.190907e+003, 4.363518e+001
1.191389e+003, 4.383213e+001
1.191871e+003, 4.413469e+001
1.192353e+003, 4.458165e+001
1.192835e+003, 4.482326e+001
1.193318e+003, 4.461957e+001
1.193800e+003, 4.432135e+001
1.194282e+003, 4.437187e+001
1.194764e+003, 4.466812e+001
1.195246e+003, 4.482111e+001
1.195728e+003, 4.483296e+001
1.196210e+003, 4.469669e+001
1.196692e+003, 4.442553e+001
1.197174e+003, 4.431068e+001
1.197657e+003, 4.441290e+001
1.198139e+003, 4.440318e+001
1.198621e+003, 4.406101e+001
1.199103e+003, 4.375105e+001
1.199585e+003, 4.406460e+001
1.200067e+003, 4.466726e+001
1.200549e+003, 4.493499e+001
1.201031e+003, 4.494918e+001
1.201514e+003, 4.486042e+001
1.201996e+003, 4.469813e+001
1.202478e+003, 4.435857e+001
1.202960e+003, 4.389455e+001
1.203442e+003, 4.387207e+001
1.203924e+003, 4.483583e+001
1.204406e+003, 4.567663e+001
1.204888e+003, 4.537660e+001
1.205370e+003, 4.479677e+001
1.205853e+003, 4.465224e+001
1.206335e+003, 4.464582e+001
1.206817e+003, 4.423124e+001
1.207299e+003, 4.363567e+001
1.207781e+003, 4.361145e+001
1.208263e+003, 4.434450e+001
1.208745e+003, 4.493833e+001
1.209227e+003, 4.501539e+001
1.209709e+003, 4.517551e+001
1.210192e+003, 4.580541e+001
1.210674e+003, 4.623751e+001
1.211156e+003, 4.595938e+001
1.211638e+003, 4.547422e+001
1.212120e+003, 4.523695e+001
1.212602e+003, 4.522012e+001
1.213084e+003, 4.535423e+001
1.213566e+003, 4.572015e+001
1.214049e+003, 4.578330e+001
1.214531e+003, 4.540728e+001
1.215013e+003, 4.529739e+001
1.215495e+003, 4.563609e+001
1.215977e+003, 4.600328e+001
1.216459e+003, 4.617204e+001
1.216941e+003, 4.629884e+001
1.217423e+003, 4.660655e+001
1.217906e+003, 4.697060e+001
1.218388e+003, 4.700708e+001
1.218870e+003, 4.674766e+001
1.219352e+003, 4.621348e+001
1.219834e+003, 4.551404e+001
1.220316e+003, 4.522425e+001
1.220798e+003, 4.541325e+001
1.221280e+003, 4.557827e+001
1.221762e+003, 4.544259e+001
1.222245e+003, 4.534762e+001
1.222727e+003, 4.571470e+001
1.223209e+003, 4.622472e+001
1.223691e+003, 4.665746e+001
1.224173e+003, 4.689956e+001
1.224655e+003, 4.661919e+001
1.225137e+003, 4.610592e+001
1.225619e+003, 4.603273e+001
1.226101e+003, 4.639483e+001
1.226584e+003, 4.638038e+001
1.227066e+003, 4.548031e+001
1.227548e+003, 4.487152e+001
1.228030e+003, 4.520045e+001
1.228512e+003, 4.558221e+001
1.228994e+003, 4.578383e+001
1.229476e+003, 4.576061e+001
1.229958e+003, 4.525832e+001
1.230441e+003, 4.462984e+001
1.230923e+003, 4.456414e+001
1.231405e+003, 4.503625e+001
1.231887e+003, 4.515470e+001
1.232369e+003, 4.469987e+001
1.232851e+003, 4.459303e+001
1.233333e+003, 4.498825e+001
1.233815e+003, 4.532383e+001
1.234297e+003, 4.543239e+001
1.234780e+003, 4.542528e+001
1.235262e+003, 4.536799e+001
1.235744e+003, 4.530735e+001
1.236226e+003, 4.533925e+001
1.236708e+003, 4.542874e+001
1.237190e+003, 4.546025e+001
1.237672e+003, 4.541666e+001
1.238154e+003, 4.517108e+001
1.238636e+003, 4.476226e+001
1.239119e+003, 4.440165e+001
1.239601e+003, 4.415739e+001
1.240083e+003, 4.401442e+001
1.240565e+003, 4.398232e+001
1.241047e+003, 4.394871e+001
1.241529e+003, 4.371702e+001
1.242011e+003, 4.352459e+001
1.242493e+003, 4.368514e+001
1.242975e+003, 4.395872e+001
1.243458e+003, 4.413353e+001
1.243940e+003, 4.414159e+001
1.244422e+003, 4.379171e+001
1.244904e+003, 4.311140e+001
1.245386e+003, 4.280982e+001
1.245868e+003, 4.338007e+001
1.246350e+003, 4.376809e+001
1.246832e+003, 4.373489e+001
1.247315e+003, 4.357384e+001
1.247797e+003, 4.329177e+001
1.248279e+003, 4.302732e+001
1.248761e+003, 4.288395e+001
1.249243e+003, 4.281573e+001
1.249725e+003, 4.275827e+001
1.250207e+003, 4.270326e+001
1.250689e+003, 4.246726e+001
1.251172e+003, 4.201023e+001
1.251654e+003, 4.187404e+001
1.252136e+003, 4.211688e+001
1.252618e+003, 4.210445e+001
1.253100e+003, 4.164793e+001
1.253582e+003, 4.118983e+001
1.254064e+003, 4.102674e+001
1.254546e+003, 4.111296e+001
1.255028e+003, 4.155552e+001
1.255510e+003, 4.207837e+001
1.255993e+003, 4.206123e+001
1.256475e+003, 4.179182e+001
1.256957e+003, 4.191789e+001
1.257439e+003, 4.223619e+001
1.257921e+003, 4.207246e+001
1.258403e+003, 4.136316e+001
1.258885e+003, 4.063880e+001
1.259367e+003, 4.006710e+001
1.259850e+003, 3.973088e+001
1.260332e+003, 3.980730e+001
1.260814e+003, 3.994542e+001
1.261296e+003, 4.000014e+001
1.261778e+003, 4.003136e+001
1.262260e+003, 4.016673e+001
1.262742e+003, 4.026439e+001
1.263224e+003, 4.005107e+001
1.263707e+003, 3.957310e+001
1.264189e+003, 3.924194e+001
1.264671e+003, 3.913512e+001
1.265153e+003, 3.883855e+001
1.265635e+003, 3.819069e+001
1.266117e+003, 3.820852e+001
1.266599e+003, 3.926053e+001
1.267081e+003, 3.997707e+001
1.267563e+003, 3.956833e+001
1.268046e+003, 3.869382e+001
1.268528e+003, 3.803970e+001
1.269010e+003, 3.767109e+001
1.269492e+003, 3.793899e+001
1.269974e+003, 3.851896e+001
1.270456e+003, 3.854482e+001
1.270938e+003, 3.816674e+001
1.271420e+003, 3.784570e+001
1.271902e+003, 3.769722e+001
1.272385e+003, 3.779951e+001
1.272867e+003, 3.818381e+001
1.273349e+003, 3.840292e+001
1.273831e+003, 3.795321e+001
1.274313e+003, 3.760238e+001
1.274795e+003, 3.783288e+001
1.275277e+003, 3.817806e+001
1.275759e+003, 3.841476e+001
1.276242e+003, 3.852827e+001
1.276724e+003, 3.847587e+001
1.277206e+003, 3.830843e+001
1.277688e+003, 3.817284e+001
1.278170e+003, 3.806002e+001
1.278652e+003, 3.808810e+001
1.279134e+003, 3.834275e+001
1.279616e+003, 3.839525e+001
1.280099e+003, 3.814341e+001
1.280581e+003, 3.800665e+001
1.281063e+003, 3.814643e+001
1.281545e+003, 3.834185e+001
1.282027e+003, 3.841573e+001
1.282509e+003, 3.846041e+001
1.282991e+003, 3.872314e+001
1.283473e+003, 3.902532e+001
1.283955e+003, 3.899163e+001
##END=



