##NAMES=Gahnite
##RRUFFID=R170037
##IDEAL CHEMISTRY=Zn^2+^Al_2_O_4_
##LOCALITY=Silberberg mine, Bodenmais, Zwiesel, Bavarian Forest, Lower Bavaria, Bavaria, Germany
##OWNER=UAMM
##SOURCE=Rock Currier
##DESCRIPTION=Massive dark to bluish-green
##STATUS=The identification of this mineral is confirmed by single-crystal X-ray diffraction and chemical analysis.
##URL=rruff.info/R170037
##MEASURED CHEMISTRY=(Zn_0.57_Fe_0.22_Mg_0.21_Mn_0.02_)(Al_1.94_Fe_0.06_)O_4_
8.813672e+001, 1.274797e+002
8.861884e+001, 1.291332e+002
8.910095e+001, 1.308288e+002
8.958307e+001, 1.324631e+002
9.006519e+001, 1.343385e+002
9.054730e+001, 1.367644e+002
9.102942e+001, 1.398754e+002
9.151154e+001, 1.432082e+002
9.199365e+001, 1.475692e+002
9.247577e+001, 1.521083e+002
9.295789e+001, 1.543417e+002
9.344000e+001, 1.511544e+002
9.392212e+001, 1.449211e+002
9.440424e+001, 1.419099e+002
9.488635e+001, 1.429512e+002
9.536847e+001, 1.453441e+002
9.585059e+001, 1.452446e+002
9.633270e+001, 1.427609e+002
9.681482e+001, 1.400457e+002
9.729694e+001, 1.380244e+002
9.777905e+001, 1.366828e+002
9.826117e+001, 1.362377e+002
9.874329e+001, 1.368124e+002
9.922540e+001, 1.381447e+002
9.970752e+001, 1.399471e+002
1.001896e+002, 1.424722e+002
1.006718e+002, 1.444068e+002
1.011539e+002, 1.445914e+002
1.016360e+002, 1.425605e+002
1.021181e+002, 1.410233e+002
1.026002e+002, 1.403168e+002
1.030823e+002, 1.403772e+002
1.035645e+002, 1.407745e+002
1.040466e+002, 1.414340e+002
1.045287e+002, 1.425171e+002
1.050108e+002, 1.440625e+002
1.054929e+002, 1.454373e+002
1.059750e+002, 1.483791e+002
1.064572e+002, 1.538191e+002
1.069393e+002, 1.622235e+002
1.074214e+002, 1.688265e+002
1.079035e+002, 1.742950e+002
1.083856e+002, 1.777849e+002
1.088677e+002, 1.783041e+002
1.093499e+002, 1.724700e+002
1.098320e+002, 1.670115e+002
1.103141e+002, 1.632635e+002
1.107962e+002, 1.614646e+002
1.112783e+002, 1.604584e+002
1.117604e+002, 1.603894e+002
1.122426e+002, 1.609976e+002
1.127247e+002, 1.618941e+002
1.132068e+002, 1.628537e+002
1.136889e+002, 1.642121e+002
1.141710e+002, 1.660767e+002
1.146531e+002, 1.684199e+002
1.151353e+002, 1.713490e+002
1.156174e+002, 1.759028e+002
1.160995e+002, 1.812071e+002
1.165816e+002, 1.851027e+002
1.170637e+002, 1.857864e+002
1.175458e+002, 1.853442e+002
1.180280e+002, 1.852230e+002
1.185101e+002, 1.862899e+002
1.189922e+002, 1.870547e+002
1.194743e+002, 1.862965e+002
1.199564e+002, 1.843545e+002
1.204385e+002, 1.827760e+002
1.209207e+002, 1.822692e+002
1.214028e+002, 1.826560e+002
1.218849e+002, 1.837126e+002
1.223670e+002, 1.849981e+002
1.228491e+002, 1.872529e+002
1.233312e+002, 1.925042e+002
1.238134e+002, 2.005228e+002
1.242955e+002, 2.068024e+002
1.247776e+002, 2.063195e+002
1.252597e+002, 2.014304e+002
1.257418e+002, 1.969100e+002
1.262239e+002, 1.947941e+002
1.267061e+002, 1.942156e+002
1.271882e+002, 1.937497e+002
1.276703e+002, 1.933406e+002
1.281524e+002, 1.935596e+002
1.286345e+002, 1.956077e+002
1.291166e+002, 1.990695e+002
1.295988e+002, 2.020817e+002
1.300809e+002, 2.032175e+002
1.305630e+002, 2.031164e+002
1.310451e+002, 2.042739e+002
1.315272e+002, 2.071386e+002
1.320093e+002, 2.101255e+002
1.324915e+002, 2.106354e+002
1.329736e+002, 2.086633e+002
1.334557e+002, 2.064266e+002
1.339378e+002, 2.050325e+002
1.344199e+002, 2.044478e+002
1.349020e+002, 2.041805e+002
1.353842e+002, 2.041765e+002
1.358663e+002, 2.045045e+002
1.363484e+002, 2.054230e+002
1.368305e+002, 2.070277e+002
1.373126e+002, 2.087530e+002
1.377947e+002, 2.098772e+002
1.382769e+002, 2.100918e+002
1.387590e+002, 2.121794e+002
1.392411e+002, 2.174542e+002
1.397232e+002, 2.245513e+002
1.402053e+002, 2.276163e+002
1.406874e+002, 2.255499e+002
1.411696e+002, 2.217859e+002
1.416517e+002, 2.185859e+002
1.421338e+002, 2.159708e+002
1.426159e+002, 2.138660e+002
1.430980e+002, 2.123652e+002
1.435801e+002, 2.114373e+002
1.440623e+002, 2.105331e+002
1.445444e+002, 2.095904e+002
1.450265e+002, 2.087626e+002
1.455086e+002, 2.081559e+002
1.459907e+002, 2.075987e+002
1.464728e+002, 2.075637e+002
1.469550e+002, 2.084497e+002
1.474371e+002, 2.103665e+002
1.479192e+002, 2.113217e+002
1.484013e+002, 2.107513e+002
1.488834e+002, 2.095541e+002
1.493655e+002, 2.085418e+002
1.498477e+002, 2.078517e+002
1.503298e+002, 2.072026e+002
1.508119e+002, 2.064473e+002
1.512940e+002, 2.054785e+002
1.517761e+002, 2.049924e+002
1.522583e+002, 2.057293e+002
1.527404e+002, 2.067011e+002
1.532225e+002, 2.068726e+002
1.537046e+002, 2.044384e+002
1.541867e+002, 2.027830e+002
1.546688e+002, 2.033216e+002
1.551510e+002, 2.070319e+002
1.556331e+002, 2.092876e+002
1.561152e+002, 2.084628e+002
1.565973e+002, 2.059742e+002
1.570794e+002, 2.037231e+002
1.575615e+002, 2.020564e+002
1.580437e+002, 2.007171e+002
1.585258e+002, 1.996386e+002
1.590079e+002, 1.988712e+002
1.594900e+002, 1.981864e+002
1.599721e+002, 1.975461e+002
1.604542e+002, 1.969415e+002
1.609364e+002, 1.963568e+002
1.614185e+002, 1.953400e+002
1.619006e+002, 1.946421e+002
1.623827e+002, 1.948493e+002
1.628648e+002, 1.965461e+002
1.633469e+002, 1.979701e+002
1.638291e+002, 1.983571e+002
1.643112e+002, 1.978822e+002
1.647933e+002, 1.969707e+002
1.652754e+002, 1.952057e+002
1.657575e+002, 1.934160e+002
1.662396e+002, 1.922778e+002
1.667218e+002, 1.921629e+002
1.672039e+002, 1.922677e+002
1.676860e+002, 1.922701e+002
1.681681e+002, 1.921311e+002
1.686502e+002, 1.917233e+002
1.691323e+002, 1.903890e+002
1.696145e+002, 1.890018e+002
1.700966e+002, 1.885475e+002
1.705787e+002, 1.897702e+002
1.710608e+002, 1.912005e+002
1.715429e+002, 1.916415e+002
1.720250e+002, 1.912185e+002
1.725072e+002, 1.905300e+002
1.729893e+002, 1.897308e+002
1.734714e+002, 1.889472e+002
1.739535e+002, 1.883663e+002
1.744356e+002, 1.881084e+002
1.749177e+002, 1.879806e+002
1.753999e+002, 1.878357e+002
1.758820e+002, 1.876602e+002
1.763641e+002, 1.873746e+002
1.768462e+002, 1.866692e+002
1.773283e+002, 1.858300e+002
1.778104e+002, 1.854286e+002
1.782926e+002, 1.858472e+002
1.787747e+002, 1.865930e+002
1.792568e+002, 1.869740e+002
1.797389e+002, 1.870041e+002
1.802210e+002, 1.869644e+002
1.807031e+002, 1.871048e+002
1.811853e+002, 1.873650e+002
1.816674e+002, 1.875902e+002
1.821495e+002, 1.877812e+002
1.826316e+002, 1.878790e+002
1.831137e+002, 1.876209e+002
1.835958e+002, 1.869940e+002
1.840780e+002, 1.865189e+002
1.845601e+002, 1.868459e+002
1.850422e+002, 1.877917e+002
1.855243e+002, 1.886177e+002
1.860064e+002, 1.891196e+002
1.864885e+002, 1.893262e+002
1.869707e+002, 1.892349e+002
1.874528e+002, 1.888257e+002
1.879349e+002, 1.883154e+002
1.884170e+002, 1.879155e+002
1.888991e+002, 1.876157e+002
1.893812e+002, 1.873288e+002
1.898634e+002, 1.870437e+002
1.903455e+002, 1.867502e+002
1.908276e+002, 1.863637e+002
1.913097e+002, 1.858574e+002
1.917918e+002, 1.853870e+002
1.922739e+002, 1.850856e+002
1.927561e+002, 1.849505e+002
1.932382e+002, 1.850493e+002
1.937203e+002, 1.855546e+002
1.942024e+002, 1.863417e+002
1.946845e+002, 1.866508e+002
1.951666e+002, 1.863855e+002
1.956488e+002, 1.859445e+002
1.961309e+002, 1.858412e+002
1.966130e+002, 1.860968e+002
1.970951e+002, 1.862666e+002
1.975772e+002, 1.861852e+002
1.980593e+002, 1.858740e+002
1.985415e+002, 1.855617e+002
1.990236e+002, 1.852523e+002
1.995057e+002, 1.849469e+002
1.999878e+002, 1.846055e+002
2.004699e+002, 1.842051e+002
2.009520e+002, 1.840022e+002
2.014342e+002, 1.842528e+002
2.019163e+002, 1.849369e+002
2.023984e+002, 1.849521e+002
2.028805e+002, 1.841054e+002
2.033626e+002, 1.829893e+002
2.038447e+002, 1.824424e+002
2.043269e+002, 1.825883e+002
2.048090e+002, 1.827009e+002
2.052911e+002, 1.824825e+002
2.057732e+002, 1.819166e+002
2.062553e+002, 1.816387e+002
2.067374e+002, 1.817360e+002
2.072196e+002, 1.819725e+002
2.077017e+002, 1.819569e+002
2.081838e+002, 1.815471e+002
2.086659e+002, 1.813759e+002
2.091480e+002, 1.817764e+002
2.096301e+002, 1.828225e+002
2.101123e+002, 1.834254e+002
2.105944e+002, 1.835701e+002
2.110765e+002, 1.832934e+002
2.115586e+002, 1.825254e+002
2.120407e+002, 1.810213e+002
2.125228e+002, 1.797098e+002
2.130050e+002, 1.789018e+002
2.134871e+002, 1.786343e+002
2.139692e+002, 1.785561e+002
2.144513e+002, 1.787844e+002
2.149334e+002, 1.790732e+002
2.154155e+002, 1.790462e+002
2.158977e+002, 1.785674e+002
2.163798e+002, 1.781138e+002
2.168619e+002, 1.779204e+002
2.173440e+002, 1.780795e+002
2.178261e+002, 1.777154e+002
2.183082e+002, 1.765833e+002
2.187904e+002, 1.751850e+002
2.192725e+002, 1.742189e+002
2.197546e+002, 1.737981e+002
2.202367e+002, 1.735932e+002
2.207188e+002, 1.735700e+002
2.212009e+002, 1.737759e+002
2.216831e+002, 1.738519e+002
2.221652e+002, 1.737844e+002
2.226473e+002, 1.736055e+002
2.231294e+002, 1.733494e+002
2.236115e+002, 1.729755e+002
2.240936e+002, 1.726002e+002
2.245758e+002, 1.722209e+002
2.250579e+002, 1.718142e+002
2.255400e+002, 1.716084e+002
2.260221e+002, 1.717171e+002
2.265042e+002, 1.719248e+002
2.269863e+002, 1.719268e+002
2.274685e+002, 1.715633e+002
2.279506e+002, 1.712933e+002
2.284327e+002, 1.712839e+002
2.289148e+002, 1.715933e+002
2.293969e+002, 1.716822e+002
2.298790e+002, 1.714198e+002
2.303612e+002, 1.710428e+002
2.308433e+002, 1.708566e+002
2.313254e+002, 1.709991e+002
2.318075e+002, 1.710675e+002
2.322896e+002, 1.709103e+002
2.327717e+002, 1.704799e+002
2.332539e+002, 1.703040e+002
2.337360e+002, 1.706163e+002
2.342181e+002, 1.709812e+002
2.347002e+002, 1.708399e+002
2.351823e+002, 1.697418e+002
2.356644e+002, 1.689714e+002
2.361466e+002, 1.689638e+002
2.366287e+002, 1.698245e+002
2.371108e+002, 1.701581e+002
2.375929e+002, 1.696866e+002
2.380750e+002, 1.689473e+002
2.385571e+002, 1.685052e+002
2.390393e+002, 1.685166e+002
2.395214e+002, 1.685442e+002
2.400035e+002, 1.685030e+002
2.404856e+002, 1.683883e+002
2.409677e+002, 1.682962e+002
2.414498e+002, 1.682153e+002
2.419320e+002, 1.681648e+002
2.424141e+002, 1.681806e+002
2.428962e+002, 1.683630e+002
2.433783e+002, 1.684049e+002
2.438604e+002, 1.681886e+002
2.443425e+002, 1.677105e+002
2.448247e+002, 1.673771e+002
2.453068e+002, 1.672050e+002
2.457889e+002, 1.671508e+002
2.462710e+002, 1.671927e+002
2.467531e+002, 1.674037e+002
2.472352e+002, 1.675601e+002
2.477174e+002, 1.676153e+002
2.481995e+002, 1.675754e+002
2.486816e+002, 1.675492e+002
2.491637e+002, 1.675552e+002
2.496458e+002, 1.675624e+002
2.501279e+002, 1.675470e+002
2.506101e+002, 1.675031e+002
2.510922e+002, 1.674619e+002
2.515743e+002, 1.674001e+002
2.520564e+002, 1.673383e+002
2.525385e+002, 1.674539e+002
2.530206e+002, 1.678919e+002
2.535028e+002, 1.683201e+002
2.539849e+002, 1.684896e+002
2.544670e+002, 1.683122e+002
2.549491e+002, 1.680869e+002
2.554312e+002, 1.678210e+002
2.559133e+002, 1.675224e+002
2.563955e+002, 1.672043e+002
2.568776e+002, 1.667419e+002
2.573597e+002, 1.664345e+002
2.578418e+002, 1.665411e+002
2.583239e+002, 1.673379e+002
2.588061e+002, 1.677674e+002
2.592882e+002, 1.676186e+002
2.597703e+002, 1.670662e+002
2.602524e+002, 1.668166e+002
2.607345e+002, 1.670732e+002
2.612166e+002, 1.672634e+002
2.616988e+002, 1.669987e+002
2.621809e+002, 1.660518e+002
2.626630e+002, 1.654431e+002
2.631451e+002, 1.653182e+002
2.636272e+002, 1.655230e+002
2.641093e+002, 1.656775e+002
2.645915e+002, 1.658437e+002
2.650736e+002, 1.658376e+002
2.655557e+002, 1.654751e+002
2.660378e+002, 1.645854e+002
2.665199e+002, 1.641207e+002
2.670020e+002, 1.642688e+002
2.674842e+002, 1.647158e+002
2.679663e+002, 1.647249e+002
2.684484e+002, 1.640864e+002
2.689305e+002, 1.636138e+002
2.694126e+002, 1.637489e+002
2.698947e+002, 1.646435e+002
2.703769e+002, 1.652421e+002
2.708590e+002, 1.655012e+002
2.713411e+002, 1.655197e+002
2.718232e+002, 1.654320e+002
2.723053e+002, 1.652151e+002
2.727874e+002, 1.649597e+002
2.732696e+002, 1.646312e+002
2.737517e+002, 1.642093e+002
2.742338e+002, 1.641522e+002
2.747159e+002, 1.646084e+002
2.751980e+002, 1.651396e+002
2.756801e+002, 1.650469e+002
2.761623e+002, 1.642063e+002
2.766444e+002, 1.635013e+002
2.771265e+002, 1.632977e+002
2.776086e+002, 1.635494e+002
2.780907e+002, 1.634686e+002
2.785728e+002, 1.629786e+002
2.790550e+002, 1.623899e+002
2.795371e+002, 1.620297e+002
2.800192e+002, 1.619081e+002
2.805013e+002, 1.619210e+002
2.809834e+002, 1.620881e+002
2.814655e+002, 1.623713e+002
2.819477e+002, 1.625877e+002
2.824298e+002, 1.627429e+002
2.829119e+002, 1.627985e+002
2.833940e+002, 1.626201e+002
2.838761e+002, 1.622134e+002
2.843582e+002, 1.620487e+002
2.848404e+002, 1.623499e+002
2.853225e+002, 1.628884e+002
2.858046e+002, 1.628926e+002
2.862867e+002, 1.623171e+002
2.867688e+002, 1.616762e+002
2.872509e+002, 1.613873e+002
2.877331e+002, 1.614155e+002
2.882152e+002, 1.614612e+002
2.886973e+002, 1.614859e+002
2.891794e+002, 1.614878e+002
2.896615e+002, 1.614699e+002
2.901436e+002, 1.614318e+002
2.906258e+002, 1.613543e+002
2.911079e+002, 1.612527e+002
2.915900e+002, 1.611093e+002
2.920721e+002, 1.608086e+002
2.925542e+002, 1.602932e+002
2.930363e+002, 1.597342e+002
2.935185e+002, 1.593158e+002
2.940006e+002, 1.590518e+002
2.944827e+002, 1.590722e+002
2.949648e+002, 1.597495e+002
2.954469e+002, 1.607630e+002
2.959290e+002, 1.611853e+002
2.964112e+002, 1.608926e+002
2.968933e+002, 1.603190e+002
2.973754e+002, 1.599257e+002
2.978575e+002, 1.596876e+002
2.983396e+002, 1.595045e+002
2.988217e+002, 1.592728e+002
2.993039e+002, 1.590799e+002
2.997860e+002, 1.591477e+002
3.002681e+002, 1.594989e+002
3.007502e+002, 1.598567e+002
3.012323e+002, 1.599325e+002
3.017144e+002, 1.598043e+002
3.021966e+002, 1.596581e+002
3.026787e+002, 1.595923e+002
3.031608e+002, 1.595328e+002
3.036429e+002, 1.593669e+002
3.041250e+002, 1.591012e+002
3.046071e+002, 1.588325e+002
3.050893e+002, 1.587116e+002
3.055714e+002, 1.586244e+002
3.060535e+002, 1.583707e+002
3.065356e+002, 1.576651e+002
3.070177e+002, 1.570011e+002
3.074998e+002, 1.569949e+002
3.079820e+002, 1.575191e+002
3.084641e+002, 1.579000e+002
3.089462e+002, 1.575894e+002
3.094283e+002, 1.569616e+002
3.099104e+002, 1.563952e+002
3.103925e+002, 1.559086e+002
3.108747e+002, 1.556408e+002
3.113568e+002, 1.558517e+002
3.118389e+002, 1.563897e+002
3.123210e+002, 1.568288e+002
3.128031e+002, 1.570532e+002
3.132852e+002, 1.570448e+002
3.137674e+002, 1.566987e+002
3.142495e+002, 1.558398e+002
3.147316e+002, 1.551586e+002
3.152137e+002, 1.552338e+002
3.156958e+002, 1.556968e+002
3.161779e+002, 1.559180e+002
3.166601e+002, 1.553255e+002
3.171422e+002, 1.546921e+002
3.176243e+002, 1.544531e+002
3.181064e+002, 1.547042e+002
3.185885e+002, 1.549861e+002
3.190706e+002, 1.552703e+002
3.195528e+002, 1.554587e+002
3.200349e+002, 1.554396e+002
3.205170e+002, 1.549863e+002
3.209991e+002, 1.545096e+002
3.214812e+002, 1.541014e+002
3.219633e+002, 1.537648e+002
3.224455e+002, 1.535656e+002
3.229276e+002, 1.535547e+002
3.234097e+002, 1.536609e+002
3.238918e+002, 1.538305e+002
3.243739e+002, 1.543593e+002
3.248560e+002, 1.546151e+002
3.253382e+002, 1.542606e+002
3.258203e+002, 1.534271e+002
3.263024e+002, 1.530082e+002
3.267845e+002, 1.535482e+002
3.272666e+002, 1.541569e+002
3.277487e+002, 1.543997e+002
3.282309e+002, 1.538279e+002
3.287130e+002, 1.534941e+002
3.291951e+002, 1.535800e+002
3.296772e+002, 1.538987e+002
3.301593e+002, 1.539750e+002
3.306414e+002, 1.536172e+002
3.311236e+002, 1.532382e+002
3.316057e+002, 1.529777e+002
3.320878e+002, 1.528781e+002
3.325699e+002, 1.527703e+002
3.330520e+002, 1.526323e+002
3.335341e+002, 1.525039e+002
3.340163e+002, 1.524535e+002
3.344984e+002, 1.525367e+002
3.349805e+002, 1.525974e+002
3.354626e+002, 1.526093e+002
3.359447e+002, 1.525745e+002
3.364268e+002, 1.524248e+002
3.369090e+002, 1.520660e+002
3.373911e+002, 1.517364e+002
3.378732e+002, 1.517105e+002
3.383553e+002, 1.520757e+002
3.388374e+002, 1.523952e+002
3.393195e+002, 1.526332e+002
3.398017e+002, 1.527581e+002
3.402838e+002, 1.525457e+002
3.407659e+002, 1.518725e+002
3.412480e+002, 1.512856e+002
3.417301e+002, 1.512982e+002
3.422122e+002, 1.519429e+002
3.426944e+002, 1.522204e+002
3.431765e+002, 1.519382e+002
3.436586e+002, 1.513699e+002
3.441407e+002, 1.511221e+002
3.446228e+002, 1.512049e+002
3.451049e+002, 1.512269e+002
3.455871e+002, 1.508347e+002
3.460692e+002, 1.501474e+002
3.465513e+002, 1.498905e+002
3.470334e+002, 1.501369e+002
3.475155e+002, 1.505979e+002
3.479977e+002, 1.509956e+002
3.484798e+002, 1.513206e+002
3.489619e+002, 1.514899e+002
3.494440e+002, 1.513233e+002
3.499261e+002, 1.510287e+002
3.504082e+002, 1.511129e+002
3.508904e+002, 1.515738e+002
3.513725e+002, 1.519738e+002
3.518546e+002, 1.518138e+002
3.523367e+002, 1.513215e+002
3.528188e+002, 1.509906e+002
3.533009e+002, 1.510587e+002
3.537831e+002, 1.512197e+002
3.542652e+002, 1.511156e+002
3.547473e+002, 1.507942e+002
3.552294e+002, 1.504784e+002
3.557115e+002, 1.504568e+002
3.561936e+002, 1.504503e+002
3.566758e+002, 1.500717e+002
3.571579e+002, 1.490724e+002
3.576400e+002, 1.482128e+002
3.581221e+002, 1.481786e+002
3.586042e+002, 1.486663e+002
3.590863e+002, 1.490653e+002
3.595685e+002, 1.490024e+002
3.600506e+002, 1.488491e+002
3.605327e+002, 1.489093e+002
3.610148e+002, 1.492526e+002
3.614969e+002, 1.493709e+002
3.619790e+002, 1.487484e+002
3.624612e+002, 1.479055e+002
3.629433e+002, 1.473906e+002
3.634254e+002, 1.476954e+002
3.639075e+002, 1.480040e+002
3.643896e+002, 1.480078e+002
3.648717e+002, 1.477333e+002
3.653539e+002, 1.475797e+002
3.658360e+002, 1.478560e+002
3.663181e+002, 1.481204e+002
3.668002e+002, 1.481097e+002
3.672823e+002, 1.475183e+002
3.677644e+002, 1.470000e+002
3.682466e+002, 1.465769e+002
3.687287e+002, 1.462524e+002
3.692108e+002, 1.460403e+002
3.696929e+002, 1.460878e+002
3.701750e+002, 1.460934e+002
3.706571e+002, 1.459385e+002
3.711393e+002, 1.455459e+002
3.716214e+002, 1.452453e+002
3.721035e+002, 1.449954e+002
3.725856e+002, 1.448691e+002
3.730677e+002, 1.450069e+002
3.735498e+002, 1.456141e+002
3.740320e+002, 1.460544e+002
3.745141e+002, 1.461943e+002
3.749962e+002, 1.460428e+002
3.754783e+002, 1.456160e+002
3.759604e+002, 1.447823e+002
3.764425e+002, 1.439784e+002
3.769247e+002, 1.435954e+002
3.774068e+002, 1.436911e+002
3.778889e+002, 1.438075e+002
3.783710e+002, 1.439224e+002
3.788531e+002, 1.439898e+002
3.793352e+002, 1.438244e+002
3.798174e+002, 1.433992e+002
3.802995e+002, 1.430692e+002
3.807816e+002, 1.431039e+002
3.812637e+002, 1.434418e+002
3.817458e+002, 1.436993e+002
3.822279e+002, 1.438695e+002
3.827101e+002, 1.439160e+002
3.831922e+002, 1.436057e+002
3.836743e+002, 1.430588e+002
3.841564e+002, 1.428717e+002
3.846385e+002, 1.434477e+002
3.851206e+002, 1.444424e+002
3.856028e+002, 1.453900e+002
3.860849e+002, 1.462763e+002
3.865670e+002, 1.468273e+002
3.870491e+002, 1.464907e+002
3.875312e+002, 1.457542e+002
3.880133e+002, 1.454304e+002
3.884955e+002, 1.458256e+002
3.889776e+002, 1.464947e+002
3.894597e+002, 1.471961e+002
3.899418e+002, 1.478776e+002
3.904239e+002, 1.483869e+002
3.909060e+002, 1.484154e+002
3.913882e+002, 1.483882e+002
3.918703e+002, 1.486050e+002
3.923524e+002, 1.491017e+002
3.928345e+002, 1.498514e+002
3.933166e+002, 1.509271e+002
3.937987e+002, 1.522273e+002
3.942809e+002, 1.536071e+002
3.947630e+002, 1.552683e+002
3.952451e+002, 1.567699e+002
3.957272e+002, 1.578075e+002
3.962093e+002, 1.584171e+002
3.966914e+002, 1.593552e+002
3.971736e+002, 1.610645e+002
3.976557e+002, 1.629582e+002
3.981378e+002, 1.646856e+002
3.986199e+002, 1.660652e+002
3.991020e+002, 1.674352e+002
3.995841e+002, 1.688108e+002
4.000663e+002, 1.701836e+002
4.005484e+002, 1.715345e+002
4.010305e+002, 1.728355e+002
4.015126e+002, 1.741468e+002
4.019947e+002, 1.754693e+002
4.024768e+002, 1.767611e+002
4.029590e+002, 1.782378e+002
4.034411e+002, 1.799896e+002
4.039232e+002, 1.818240e+002
4.044053e+002, 1.834396e+002
4.048874e+002, 1.846523e+002
4.053695e+002, 1.863242e+002
4.058517e+002, 1.887156e+002
4.063338e+002, 1.916833e+002
4.068159e+002, 1.947001e+002
4.072980e+002, 1.977501e+002
4.077801e+002, 2.009492e+002
4.082622e+002, 2.043609e+002
4.087444e+002, 2.079895e+002
4.092265e+002, 2.117675e+002
4.097086e+002, 2.157875e+002
4.101907e+002, 2.197389e+002
4.106728e+002, 2.232422e+002
4.111549e+002, 2.263066e+002
4.116371e+002, 2.288996e+002
4.121192e+002, 2.314034e+002
4.126013e+002, 2.333058e+002
4.130834e+002, 2.336385e+002
4.135655e+002, 2.323880e+002
4.140476e+002, 2.295822e+002
4.145298e+002, 2.248018e+002
4.150119e+002, 2.185706e+002
4.154940e+002, 2.115412e+002
4.159761e+002, 2.035473e+002
4.164582e+002, 1.954535e+002
4.169403e+002, 1.878243e+002
4.174225e+002, 1.807141e+002
4.179046e+002, 1.743295e+002
4.183867e+002, 1.691224e+002
4.188688e+002, 1.645789e+002
4.193509e+002, 1.604194e+002
4.198330e+002, 1.565314e+002
4.203152e+002, 1.532354e+002
4.207973e+002, 1.508050e+002
4.212794e+002, 1.489456e+002
4.217615e+002, 1.473009e+002
4.222436e+002, 1.459131e+002
4.227257e+002, 1.446052e+002
4.232079e+002, 1.432858e+002
4.236900e+002, 1.419731e+002
4.241721e+002, 1.408427e+002
4.246542e+002, 1.397956e+002
4.251363e+002, 1.390124e+002
4.256184e+002, 1.386020e+002
4.261006e+002, 1.389145e+002
4.265827e+002, 1.389560e+002
4.270648e+002, 1.385813e+002
4.275469e+002, 1.380046e+002
4.280290e+002, 1.376549e+002
4.285111e+002, 1.377236e+002
4.289933e+002, 1.375723e+002
4.294754e+002, 1.368726e+002
4.299575e+002, 1.356501e+002
4.304396e+002, 1.350620e+002
4.309217e+002, 1.352665e+002
4.314038e+002, 1.356291e+002
4.318860e+002, 1.354608e+002
4.323681e+002, 1.347534e+002
4.328502e+002, 1.345630e+002
4.333323e+002, 1.352536e+002
4.338144e+002, 1.362232e+002
4.342965e+002, 1.361113e+002
4.347787e+002, 1.350070e+002
4.352608e+002, 1.340459e+002
4.357429e+002, 1.340842e+002
4.362250e+002, 1.346783e+002
4.367071e+002, 1.348248e+002
4.371892e+002, 1.344714e+002
4.376714e+002, 1.339075e+002
4.381535e+002, 1.332319e+002
4.386356e+002, 1.325637e+002
4.391177e+002, 1.321317e+002
4.395998e+002, 1.321683e+002
4.400819e+002, 1.322831e+002
4.405641e+002, 1.321513e+002
4.410462e+002, 1.318283e+002
4.415283e+002, 1.315109e+002
4.420104e+002, 1.313248e+002
4.424925e+002, 1.311649e+002
4.429746e+002, 1.309377e+002
4.434568e+002, 1.305853e+002
4.439389e+002, 1.303396e+002
4.444210e+002, 1.303973e+002
4.449031e+002, 1.305561e+002
4.453852e+002, 1.305738e+002
4.458673e+002, 1.302436e+002
4.463495e+002, 1.299327e+002
4.468316e+002, 1.297412e+002
4.473137e+002, 1.296553e+002
4.477958e+002, 1.294876e+002
4.482779e+002, 1.292370e+002
4.487600e+002, 1.289069e+002
4.492422e+002, 1.284953e+002
4.497243e+002, 1.279743e+002
4.502064e+002, 1.274070e+002
4.506885e+002, 1.266710e+002
4.511706e+002, 1.259941e+002
4.516527e+002, 1.258519e+002
4.521349e+002, 1.264131e+002
4.526170e+002, 1.267916e+002
4.530991e+002, 1.266230e+002
4.535812e+002, 1.260428e+002
4.540633e+002, 1.258838e+002
4.545454e+002, 1.261836e+002
4.550276e+002, 1.265819e+002
4.555097e+002, 1.267908e+002
4.559918e+002, 1.268450e+002
4.564739e+002, 1.269030e+002
4.569560e+002, 1.269870e+002
4.574381e+002, 1.270741e+002
4.579203e+002, 1.270863e+002
4.584024e+002, 1.270636e+002
4.588845e+002, 1.271407e+002
4.593666e+002, 1.273838e+002
4.598488e+002, 1.277559e+002
4.603309e+002, 1.283101e+002
4.608130e+002, 1.290207e+002
4.612951e+002, 1.295814e+002
4.617772e+002, 1.296612e+002
4.622593e+002, 1.295475e+002
4.627415e+002, 1.295242e+002
4.632236e+002, 1.297530e+002
4.637057e+002, 1.299107e+002
4.641878e+002, 1.298361e+002
4.646699e+002, 1.296066e+002
4.651520e+002, 1.293664e+002
4.656342e+002, 1.289330e+002
4.661163e+002, 1.287121e+002
4.665984e+002, 1.289434e+002
4.670805e+002, 1.297145e+002
4.675626e+002, 1.302326e+002
4.680447e+002, 1.302406e+002
4.685269e+002, 1.301842e+002
4.690090e+002, 1.303843e+002
4.694911e+002, 1.310356e+002
4.699732e+002, 1.315341e+002
4.704553e+002, 1.317983e+002
4.709374e+002, 1.319170e+002
4.714196e+002, 1.321026e+002
4.719017e+002, 1.323816e+002
4.723838e+002, 1.326270e+002
4.728659e+002, 1.328170e+002
4.733480e+002, 1.329427e+002
4.738301e+002, 1.328051e+002
4.743123e+002, 1.323453e+002
4.747944e+002, 1.320101e+002
4.752765e+002, 1.325164e+002
4.757586e+002, 1.335895e+002
4.762407e+002, 1.339375e+002
4.767228e+002, 1.330890e+002
4.772050e+002, 1.319267e+002
4.776871e+002, 1.316232e+002
4.781692e+002, 1.320035e+002
4.786513e+002, 1.325264e+002
4.791334e+002, 1.331568e+002
4.796155e+002, 1.336405e+002
4.800977e+002, 1.335769e+002
4.805798e+002, 1.329683e+002
4.810619e+002, 1.325125e+002
4.815440e+002, 1.328028e+002
4.820261e+002, 1.333366e+002
4.825082e+002, 1.336609e+002
4.829904e+002, 1.335580e+002
4.834725e+002, 1.334075e+002
4.839546e+002, 1.333132e+002
4.844367e+002, 1.332457e+002
4.849188e+002, 1.331436e+002
4.854009e+002, 1.327607e+002
4.858831e+002, 1.325896e+002
4.863652e+002, 1.329167e+002
4.868473e+002, 1.338081e+002
4.873294e+002, 1.341508e+002
4.878115e+002, 1.336161e+002
4.882936e+002, 1.329186e+002
4.887758e+002, 1.325792e+002
4.892579e+002, 1.327116e+002
4.897400e+002, 1.328044e+002
4.902221e+002, 1.328277e+002
4.907042e+002, 1.327835e+002
4.911863e+002, 1.326321e+002
4.916685e+002, 1.323608e+002
4.921506e+002, 1.321792e+002
4.926327e+002, 1.322283e+002
4.931148e+002, 1.324238e+002
4.935969e+002, 1.324758e+002
4.940790e+002, 1.323851e+002
4.945612e+002, 1.322394e+002
4.950433e+002, 1.320717e+002
4.955254e+002, 1.319053e+002
4.960075e+002, 1.317892e+002
4.964896e+002, 1.317463e+002
4.969717e+002, 1.317126e+002
4.974539e+002, 1.316335e+002
4.979360e+002, 1.315230e+002
4.984181e+002, 1.314097e+002
4.989002e+002, 1.312548e+002
4.993823e+002, 1.311417e+002
4.998644e+002, 1.310784e+002
5.003466e+002, 1.310759e+002
5.008287e+002, 1.312334e+002
5.013108e+002, 1.317455e+002
5.017929e+002, 1.323084e+002
5.022750e+002, 1.327309e+002
5.027571e+002, 1.328464e+002
5.032393e+002, 1.331329e+002
5.037214e+002, 1.338121e+002
5.042035e+002, 1.345611e+002
5.046856e+002, 1.349198e+002
5.051677e+002, 1.345804e+002
5.056498e+002, 1.344874e+002
5.061320e+002, 1.349242e+002
5.066141e+002, 1.357614e+002
5.070962e+002, 1.362665e+002
5.075783e+002, 1.363918e+002
5.080604e+002, 1.363826e+002
5.085425e+002, 1.363314e+002
5.090247e+002, 1.362500e+002
5.095068e+002, 1.363470e+002
5.099889e+002, 1.366870e+002
5.104710e+002, 1.368965e+002
5.109531e+002, 1.364211e+002
5.114352e+002, 1.354537e+002
5.119174e+002, 1.345419e+002
5.123995e+002, 1.337585e+002
5.128816e+002, 1.332304e+002
5.133637e+002, 1.332868e+002
5.138458e+002, 1.337498e+002
5.143279e+002, 1.340397e+002
5.148101e+002, 1.336815e+002
5.152922e+002, 1.331673e+002
5.157743e+002, 1.328410e+002
5.162564e+002, 1.327490e+002
5.167385e+002, 1.326766e+002
5.172206e+002, 1.324500e+002
5.177028e+002, 1.322685e+002
5.181849e+002, 1.322932e+002
5.186670e+002, 1.330058e+002
5.191491e+002, 1.333449e+002
5.196312e+002, 1.329433e+002
5.201133e+002, 1.321864e+002
5.205955e+002, 1.319323e+002
5.210776e+002, 1.325022e+002
5.215597e+002, 1.329759e+002
5.220418e+002, 1.330509e+002
5.225239e+002, 1.327436e+002
5.230060e+002, 1.324701e+002
5.234882e+002, 1.322145e+002
5.239703e+002, 1.320338e+002
5.244524e+002, 1.320928e+002
5.249345e+002, 1.323397e+002
5.254166e+002, 1.321558e+002
5.258987e+002, 1.313714e+002
5.263809e+002, 1.305194e+002
5.268630e+002, 1.303516e+002
5.273451e+002, 1.306928e+002
5.278272e+002, 1.309956e+002
5.283093e+002, 1.310563e+002
5.287914e+002, 1.309731e+002
5.292736e+002, 1.308438e+002
5.297557e+002, 1.306619e+002
5.302378e+002, 1.303981e+002
5.307199e+002, 1.299231e+002
5.312020e+002, 1.294418e+002
5.316841e+002, 1.290927e+002
5.321663e+002, 1.288925e+002
5.326484e+002, 1.288121e+002
5.331305e+002, 1.290457e+002
5.336126e+002, 1.292912e+002
5.340947e+002, 1.292598e+002
5.345768e+002, 1.285103e+002
5.350590e+002, 1.280400e+002
5.355411e+002, 1.280180e+002
5.360232e+002, 1.283011e+002
5.365053e+002, 1.285060e+002
5.369874e+002, 1.285962e+002
5.374695e+002, 1.286891e+002
5.379517e+002, 1.288586e+002
5.384338e+002, 1.290873e+002
5.389159e+002, 1.290910e+002
5.393980e+002, 1.288333e+002
5.398801e+002, 1.285660e+002
5.403622e+002, 1.285254e+002
5.408444e+002, 1.286647e+002
5.413265e+002, 1.288094e+002
5.418086e+002, 1.289516e+002
5.422907e+002, 1.290435e+002
5.427728e+002, 1.289752e+002
5.432549e+002, 1.288187e+002
5.437371e+002, 1.287290e+002
5.442192e+002, 1.286406e+002
5.447013e+002, 1.287573e+002
5.451834e+002, 1.294315e+002
5.456655e+002, 1.305007e+002
5.461476e+002, 1.312779e+002
5.466298e+002, 1.312090e+002
5.471119e+002, 1.310034e+002
5.475940e+002, 1.310735e+002
5.480761e+002, 1.315773e+002
5.485582e+002, 1.318658e+002
5.490403e+002, 1.315031e+002
5.495225e+002, 1.311703e+002
5.500046e+002, 1.314877e+002
5.504867e+002, 1.329683e+002
5.509688e+002, 1.339458e+002
5.514509e+002, 1.341251e+002
5.519330e+002, 1.338403e+002
5.524152e+002, 1.337908e+002
5.528973e+002, 1.339908e+002
5.533794e+002, 1.343056e+002
5.538615e+002, 1.347427e+002
5.543436e+002, 1.352419e+002
5.548257e+002, 1.355154e+002
5.553079e+002, 1.355695e+002
5.557900e+002, 1.357595e+002
5.562721e+002, 1.365505e+002
5.567542e+002, 1.375910e+002
5.572363e+002, 1.382939e+002
5.577184e+002, 1.385658e+002
5.582006e+002, 1.386548e+002
5.586827e+002, 1.386732e+002
5.591648e+002, 1.386438e+002
5.596469e+002, 1.385945e+002
5.601290e+002, 1.382955e+002
5.606111e+002, 1.382400e+002
5.610933e+002, 1.387906e+002
5.615754e+002, 1.397179e+002
5.620575e+002, 1.403913e+002
5.625396e+002, 1.404527e+002
5.630217e+002, 1.405300e+002
5.635038e+002, 1.408194e+002
5.639860e+002, 1.413339e+002
5.644681e+002, 1.417244e+002
5.649502e+002, 1.419291e+002
5.654323e+002, 1.421231e+002
5.659144e+002, 1.424795e+002
5.663965e+002, 1.430244e+002
5.668787e+002, 1.433262e+002
5.673608e+002, 1.433209e+002
5.678429e+002, 1.431734e+002
5.683250e+002, 1.430769e+002
5.688071e+002, 1.430267e+002
5.692892e+002, 1.430096e+002
5.697714e+002, 1.430306e+002
5.702535e+002, 1.430717e+002
5.707356e+002, 1.430634e+002
5.712177e+002, 1.430452e+002
5.716998e+002, 1.431476e+002
5.721819e+002, 1.436187e+002
5.726641e+002, 1.440949e+002
5.731462e+002, 1.442827e+002
5.736283e+002, 1.441619e+002
5.741104e+002, 1.440914e+002
5.745925e+002, 1.442921e+002
5.750746e+002, 1.445038e+002
5.755568e+002, 1.445386e+002
5.760389e+002, 1.441538e+002
5.765210e+002, 1.440096e+002
5.770031e+002, 1.441432e+002
5.774852e+002, 1.444919e+002
5.779673e+002, 1.450499e+002
5.784495e+002, 1.459728e+002
5.789316e+002, 1.465319e+002
5.794137e+002, 1.464227e+002
5.798958e+002, 1.459841e+002
5.803779e+002, 1.462343e+002
5.808600e+002, 1.471671e+002
5.813422e+002, 1.480269e+002
5.818243e+002, 1.482433e+002
5.823064e+002, 1.481407e+002
5.827885e+002, 1.485220e+002
5.832706e+002, 1.493733e+002
5.837527e+002, 1.500353e+002
5.842349e+002, 1.496877e+002
5.847170e+002, 1.490688e+002
5.851991e+002, 1.489814e+002
5.856812e+002, 1.496715e+002
5.861633e+002, 1.505522e+002
5.866454e+002, 1.517390e+002
5.871276e+002, 1.528419e+002
5.876097e+002, 1.533753e+002
5.880918e+002, 1.524669e+002
5.885739e+002, 1.519485e+002
5.890560e+002, 1.521548e+002
5.895381e+002, 1.529033e+002
5.900203e+002, 1.536684e+002
5.905024e+002, 1.544471e+002
5.909845e+002, 1.552807e+002
5.914666e+002, 1.563032e+002
5.919487e+002, 1.574424e+002
5.924308e+002, 1.578261e+002
5.929130e+002, 1.573653e+002
5.933951e+002, 1.568781e+002
5.938772e+002, 1.570584e+002
5.943593e+002, 1.577186e+002
5.948414e+002, 1.582905e+002
5.953235e+002, 1.586908e+002
5.958057e+002, 1.591729e+002
5.962878e+002, 1.602520e+002
5.967699e+002, 1.614875e+002
5.972520e+002, 1.621620e+002
5.977341e+002, 1.615816e+002
5.982162e+002, 1.611143e+002
5.986984e+002, 1.614849e+002
5.991805e+002, 1.624292e+002
5.996626e+002, 1.633962e+002
6.001447e+002, 1.642815e+002
6.006268e+002, 1.651690e+002
6.011089e+002, 1.660555e+002
6.015911e+002, 1.669509e+002
6.020732e+002, 1.679233e+002
6.025553e+002, 1.689659e+002
6.030374e+002, 1.700888e+002
6.035195e+002, 1.713433e+002
6.040016e+002, 1.727377e+002
6.044838e+002, 1.738854e+002
6.049659e+002, 1.747248e+002
6.054480e+002, 1.755645e+002
6.059301e+002, 1.766340e+002
6.064122e+002, 1.779522e+002
6.068943e+002, 1.796699e+002
6.073765e+002, 1.819152e+002
6.078586e+002, 1.842206e+002
6.083407e+002, 1.859061e+002
6.088228e+002, 1.873184e+002
6.093049e+002, 1.890515e+002
6.097870e+002, 1.918809e+002
6.102692e+002, 1.945845e+002
6.107513e+002, 1.964324e+002
6.112334e+002, 1.976515e+002
6.117155e+002, 1.990673e+002
6.121976e+002, 2.007657e+002
6.126797e+002, 2.027935e+002
6.131619e+002, 2.053343e+002
6.136440e+002, 2.084631e+002
6.141261e+002, 2.108784e+002
6.146082e+002, 2.123747e+002
6.150903e+002, 2.135829e+002
6.155724e+002, 2.149637e+002
6.160546e+002, 2.165175e+002
6.165367e+002, 2.178628e+002
6.170188e+002, 2.189558e+002
6.175009e+002, 2.199190e+002
6.179830e+002, 2.209121e+002
6.184651e+002, 2.218937e+002
6.189473e+002, 2.227529e+002
6.194294e+002, 2.234891e+002
6.199115e+002, 2.240400e+002
6.203936e+002, 2.243378e+002
6.208757e+002, 2.244159e+002
6.213578e+002, 2.243449e+002
6.218400e+002, 2.241248e+002
6.223221e+002, 2.237903e+002
6.228042e+002, 2.233969e+002
6.232863e+002, 2.229221e+002
6.237684e+002, 2.222172e+002
6.242505e+002, 2.211404e+002
6.247327e+002, 2.199784e+002
6.252148e+002, 2.189300e+002
6.256969e+002, 2.180567e+002
6.261790e+002, 2.164292e+002
6.266611e+002, 2.138133e+002
6.271432e+002, 2.110860e+002
6.276254e+002, 2.090592e+002
6.281075e+002, 2.076534e+002
6.285896e+002, 2.058980e+002
6.290717e+002, 2.036758e+002
6.295538e+002, 2.013754e+002
6.300359e+002, 1.994943e+002
6.305181e+002, 1.978741e+002
6.310002e+002, 1.961071e+002
6.314823e+002, 1.938866e+002
6.319644e+002, 1.918154e+002
6.324465e+002, 1.903591e+002
6.329286e+002, 1.893484e+002
6.334108e+002, 1.884646e+002
6.338929e+002, 1.876639e+002
6.343750e+002, 1.869020e+002
6.348571e+002, 1.861671e+002
6.353392e+002, 1.854488e+002
6.358214e+002, 1.847108e+002
6.363035e+002, 1.838235e+002
6.367856e+002, 1.830989e+002
6.372677e+002, 1.826578e+002
6.377498e+002, 1.824990e+002
6.382319e+002, 1.825831e+002
6.387141e+002, 1.829548e+002
6.391962e+002, 1.833180e+002
6.396783e+002, 1.832613e+002
6.401604e+002, 1.829880e+002
6.406425e+002, 1.832530e+002
6.411246e+002, 1.841944e+002
6.416068e+002, 1.852971e+002
6.420889e+002, 1.860582e+002
6.425710e+002, 1.867019e+002
6.430531e+002, 1.875331e+002
6.435352e+002, 1.887714e+002
6.440173e+002, 1.900130e+002
6.444995e+002, 1.910099e+002
6.449816e+002, 1.919254e+002
6.454637e+002, 1.930705e+002
6.459458e+002, 1.944594e+002
6.464279e+002, 1.961021e+002
6.469100e+002, 1.980429e+002
6.473922e+002, 2.002327e+002
6.478743e+002, 2.023833e+002
6.483564e+002, 2.044522e+002
6.488385e+002, 2.066865e+002
6.493206e+002, 2.093127e+002
6.498027e+002, 2.122181e+002
6.502849e+002, 2.146090e+002
6.507670e+002, 2.164970e+002
6.512491e+002, 2.183247e+002
6.517312e+002, 2.206051e+002
6.522133e+002, 2.229327e+002
6.526954e+002, 2.247011e+002
6.531776e+002, 2.258204e+002
6.536597e+002, 2.267477e+002
6.541418e+002, 2.278365e+002
6.546239e+002, 2.288427e+002
6.551060e+002, 2.295793e+002
6.555881e+002, 2.301997e+002
6.560703e+002, 2.302012e+002
6.565524e+002, 2.295650e+002
6.570345e+002, 2.282280e+002
6.575166e+002, 2.260914e+002
6.579987e+002, 2.230645e+002
6.584808e+002, 2.194162e+002
6.589630e+002, 2.150134e+002
6.594451e+002, 2.101318e+002
6.599272e+002, 2.053177e+002
6.604093e+002, 2.005685e+002
6.608914e+002, 1.957568e+002
6.613735e+002, 1.906052e+002
6.618557e+002, 1.855633e+002
6.623378e+002, 1.813542e+002
6.628199e+002, 1.778623e+002
6.633020e+002, 1.745674e+002
6.637841e+002, 1.710988e+002
6.642662e+002, 1.677860e+002
6.647484e+002, 1.648574e+002
6.652305e+002, 1.623530e+002
6.657126e+002, 1.600680e+002
6.661947e+002, 1.578170e+002
6.666768e+002, 1.559002e+002
6.671589e+002, 1.544720e+002
6.676411e+002, 1.536042e+002
6.681232e+002, 1.529968e+002
6.686053e+002, 1.528675e+002
6.690874e+002, 1.525937e+002
6.695695e+002, 1.513289e+002
6.700516e+002, 1.491141e+002
6.705338e+002, 1.477038e+002
6.710159e+002, 1.473907e+002
6.714980e+002, 1.475324e+002
6.719801e+002, 1.474293e+002
6.724622e+002, 1.471584e+002
6.729443e+002, 1.469007e+002
6.734265e+002, 1.467359e+002
6.739086e+002, 1.465638e+002
6.743907e+002, 1.462817e+002
6.748728e+002, 1.459548e+002
6.753549e+002, 1.457064e+002
6.758370e+002, 1.455710e+002
6.763192e+002, 1.455314e+002
6.768013e+002, 1.456584e+002
6.772834e+002, 1.458934e+002
6.777655e+002, 1.459970e+002
6.782476e+002, 1.458912e+002
6.787297e+002, 1.458298e+002
6.792119e+002, 1.458223e+002
6.796940e+002, 1.459281e+002
6.801761e+002, 1.466945e+002
6.806582e+002, 1.481397e+002
6.811403e+002, 1.494345e+002
6.816224e+002, 1.497913e+002
6.821046e+002, 1.496848e+002
6.825867e+002, 1.498992e+002
6.830688e+002, 1.504771e+002
6.835509e+002, 1.512126e+002
6.840330e+002, 1.522051e+002
6.845151e+002, 1.531552e+002
6.849973e+002, 1.537248e+002
6.854794e+002, 1.535752e+002
6.859615e+002, 1.539314e+002
6.864436e+002, 1.555240e+002
6.869257e+002, 1.573626e+002
6.874078e+002, 1.586236e+002
6.878900e+002, 1.590378e+002
6.883721e+002, 1.597323e+002
6.888542e+002, 1.608702e+002
6.893363e+002, 1.621487e+002
6.898184e+002, 1.630473e+002
6.903005e+002, 1.636115e+002
6.907827e+002, 1.642590e+002
6.912648e+002, 1.651250e+002
6.917469e+002, 1.660642e+002
6.922290e+002, 1.668221e+002
6.927111e+002, 1.675034e+002
6.931932e+002, 1.683217e+002
6.936754e+002, 1.694203e+002
6.941575e+002, 1.706265e+002
6.946396e+002, 1.719476e+002
6.951217e+002, 1.733184e+002
6.956038e+002, 1.745418e+002
6.960859e+002, 1.756917e+002
6.965681e+002, 1.765237e+002
6.970502e+002, 1.768600e+002
6.975323e+002, 1.767693e+002
6.980144e+002, 1.769528e+002
6.984965e+002, 1.774786e+002
6.989786e+002, 1.779886e+002
6.994608e+002, 1.782171e+002
6.999429e+002, 1.782593e+002
7.004250e+002, 1.785834e+002
7.009071e+002, 1.791777e+002
7.013892e+002, 1.795898e+002
7.018713e+002, 1.793798e+002
7.023535e+002, 1.788607e+002
7.028356e+002, 1.783305e+002
7.033177e+002, 1.778150e+002
7.037998e+002, 1.773747e+002
7.042819e+002, 1.770530e+002
7.047640e+002, 1.767946e+002
7.052462e+002, 1.765738e+002
7.057283e+002, 1.765102e+002
7.062104e+002, 1.761925e+002
7.066925e+002, 1.755001e+002
7.071746e+002, 1.746938e+002
7.076567e+002, 1.741045e+002
7.081389e+002, 1.737463e+002
7.086210e+002, 1.732003e+002
7.091031e+002, 1.723835e+002
7.095852e+002, 1.714192e+002
7.100673e+002, 1.703793e+002
7.105494e+002, 1.693315e+002
7.110316e+002, 1.684209e+002
7.115137e+002, 1.677617e+002
7.119958e+002, 1.671743e+002
7.124779e+002, 1.665524e+002
7.129600e+002, 1.659157e+002
7.134421e+002, 1.653080e+002
7.139243e+002, 1.647647e+002
7.144064e+002, 1.642195e+002
7.148885e+002, 1.635872e+002
7.153706e+002, 1.629521e+002
7.158527e+002, 1.626215e+002
7.163348e+002, 1.626790e+002
7.168170e+002, 1.627612e+002
7.172991e+002, 1.627722e+002
7.177812e+002, 1.627014e+002
7.182633e+002, 1.624495e+002
7.187454e+002, 1.620356e+002
7.192275e+002, 1.617104e+002
7.197097e+002, 1.615952e+002
7.201918e+002, 1.616488e+002
7.206739e+002, 1.618621e+002
7.211560e+002, 1.622180e+002
7.216381e+002, 1.626129e+002
7.221202e+002, 1.632861e+002
7.226024e+002, 1.637413e+002
7.230845e+002, 1.635491e+002
7.235666e+002, 1.625614e+002
7.240487e+002, 1.620968e+002
7.245308e+002, 1.623391e+002
7.250129e+002, 1.628201e+002
7.254951e+002, 1.632770e+002
7.259772e+002, 1.637127e+002
7.264593e+002, 1.642734e+002
7.269414e+002, 1.649985e+002
7.274235e+002, 1.655606e+002
7.279056e+002, 1.654320e+002
7.283878e+002, 1.649791e+002
7.288699e+002, 1.649279e+002
7.293520e+002, 1.654222e+002
7.298341e+002, 1.660281e+002
7.303162e+002, 1.665298e+002
7.307983e+002, 1.669670e+002
7.312805e+002, 1.673665e+002
7.317626e+002, 1.675591e+002
7.322447e+002, 1.680426e+002
7.327268e+002, 1.690898e+002
7.332089e+002, 1.702364e+002
7.336910e+002, 1.709031e+002
7.341732e+002, 1.709405e+002
7.346553e+002, 1.712558e+002
7.351374e+002, 1.719791e+002
7.356195e+002, 1.729516e+002
7.361016e+002, 1.738826e+002
7.365837e+002, 1.748486e+002
7.370659e+002, 1.761992e+002
7.375480e+002, 1.783498e+002
7.380301e+002, 1.803284e+002
7.385122e+002, 1.810980e+002
7.389943e+002, 1.811357e+002
7.394764e+002, 1.812511e+002
7.399586e+002, 1.816491e+002
7.404407e+002, 1.822087e+002
7.409228e+002, 1.829046e+002
7.414049e+002, 1.837464e+002
7.418870e+002, 1.847856e+002
7.423691e+002, 1.860287e+002
7.428513e+002, 1.874112e+002
7.433334e+002, 1.889487e+002
7.438155e+002, 1.905910e+002
7.442976e+002, 1.922704e+002
7.447797e+002, 1.939730e+002
7.452618e+002, 1.954987e+002
7.457440e+002, 1.967232e+002
7.462261e+002, 1.977581e+002
7.467082e+002, 1.985769e+002
7.471903e+002, 1.992822e+002
7.476724e+002, 2.002837e+002
7.481545e+002, 2.020780e+002
7.486367e+002, 2.038820e+002
7.491188e+002, 2.053256e+002
7.496009e+002, 2.064449e+002
7.500830e+002, 2.077139e+002
7.505651e+002, 2.093147e+002
7.510472e+002, 2.107179e+002
7.515294e+002, 2.116413e+002
7.520115e+002, 2.121542e+002
7.524936e+002, 2.126329e+002
7.529757e+002, 2.130806e+002
7.534578e+002, 2.135734e+002
7.539399e+002, 2.143663e+002
7.544221e+002, 2.151258e+002
7.549042e+002, 2.153411e+002
7.553863e+002, 2.150122e+002
7.558684e+002, 2.145199e+002
7.563505e+002, 2.140066e+002
7.568326e+002, 2.134183e+002
7.573148e+002, 2.126442e+002
7.577969e+002, 2.115928e+002
7.582790e+002, 2.109309e+002
7.587611e+002, 2.109364e+002
7.592432e+002, 2.108746e+002
7.597253e+002, 2.102480e+002
7.602075e+002, 2.090489e+002
7.606896e+002, 2.077914e+002
7.611717e+002, 2.064548e+002
7.616538e+002, 2.051587e+002
7.621359e+002, 2.040576e+002
7.626180e+002, 2.030267e+002
7.631002e+002, 2.018969e+002
7.635823e+002, 2.006483e+002
7.640644e+002, 1.993144e+002
7.645465e+002, 1.977045e+002
7.650286e+002, 1.961344e+002
7.655107e+002, 1.948651e+002
7.659929e+002, 1.939224e+002
7.664750e+002, 1.933238e+002
7.669571e+002, 1.933170e+002
7.674392e+002, 1.933200e+002
7.679213e+002, 1.927884e+002
7.684034e+002, 1.917151e+002
7.688856e+002, 1.904370e+002
7.693677e+002, 1.889370e+002
7.698498e+002, 1.875472e+002
7.703319e+002, 1.865982e+002
7.708140e+002, 1.860036e+002
7.712961e+002, 1.856721e+002
7.717783e+002, 1.856969e+002
7.722604e+002, 1.855739e+002
7.727425e+002, 1.849318e+002
7.732246e+002, 1.840615e+002
7.737067e+002, 1.832507e+002
7.741888e+002, 1.823543e+002
7.746710e+002, 1.818490e+002
7.751531e+002, 1.819604e+002
7.756352e+002, 1.822009e+002
7.761173e+002, 1.819618e+002
7.765994e+002, 1.812448e+002
7.770815e+002, 1.803945e+002
7.775637e+002, 1.794040e+002
7.780458e+002, 1.785081e+002
7.785279e+002, 1.780809e+002
7.790100e+002, 1.779311e+002
7.794921e+002, 1.777182e+002
7.799742e+002, 1.773514e+002
7.804564e+002, 1.768947e+002
7.809385e+002, 1.763495e+002
7.814206e+002, 1.757355e+002
7.819027e+002, 1.750507e+002
7.823848e+002, 1.739812e+002
7.828669e+002, 1.734731e+002
7.833491e+002, 1.738540e+002
7.838312e+002, 1.745180e+002
7.843133e+002, 1.744141e+002
7.847954e+002, 1.735871e+002
7.852775e+002, 1.728774e+002
7.857596e+002, 1.724881e+002
7.862418e+002, 1.722657e+002
7.867239e+002, 1.721029e+002
7.872060e+002, 1.719619e+002
7.876881e+002, 1.717632e+002
7.881702e+002, 1.713687e+002
7.886523e+002, 1.710763e+002
7.891345e+002, 1.711812e+002
7.896166e+002, 1.714021e+002
7.900987e+002, 1.712218e+002
7.905808e+002, 1.702883e+002
7.910629e+002, 1.697795e+002
7.915450e+002, 1.700516e+002
7.920272e+002, 1.705733e+002
7.925093e+002, 1.701771e+002
7.929914e+002, 1.690023e+002
7.934735e+002, 1.681990e+002
7.939556e+002, 1.682072e+002
7.944377e+002, 1.684741e+002
7.949199e+002, 1.684374e+002
7.954020e+002, 1.682098e+002
7.958841e+002, 1.679992e+002
7.963662e+002, 1.678835e+002
7.968483e+002, 1.677739e+002
7.973304e+002, 1.675040e+002
7.978126e+002, 1.672648e+002
7.982947e+002, 1.674792e+002
7.987768e+002, 1.684369e+002
7.992589e+002, 1.689003e+002
7.997410e+002, 1.685425e+002
8.002231e+002, 1.677519e+002
8.007053e+002, 1.671541e+002
8.011874e+002, 1.667423e+002
8.016695e+002, 1.664919e+002
8.021516e+002, 1.665116e+002
8.026337e+002, 1.665171e+002
8.031158e+002, 1.661911e+002
8.035980e+002, 1.657058e+002
8.040801e+002, 1.653465e+002
8.045622e+002, 1.653233e+002
8.050443e+002, 1.652818e+002
8.055264e+002, 1.651219e+002
8.060085e+002, 1.649337e+002
8.064907e+002, 1.649189e+002
8.069728e+002, 1.651252e+002
8.074549e+002, 1.651521e+002
8.079370e+002, 1.648233e+002
8.084191e+002, 1.644434e+002
8.089012e+002, 1.646541e+002
8.093834e+002, 1.652237e+002
8.098655e+002, 1.655135e+002
8.103476e+002, 1.650470e+002
8.108297e+002, 1.645845e+002
8.113118e+002, 1.646084e+002
8.117939e+002, 1.649258e+002
8.122761e+002, 1.652196e+002
8.127582e+002, 1.655526e+002
8.132403e+002, 1.656894e+002
8.137224e+002, 1.655416e+002
8.142045e+002, 1.652487e+002
8.146866e+002, 1.650494e+002
8.151688e+002, 1.649476e+002
8.156509e+002, 1.649182e+002
8.161330e+002, 1.650151e+002
8.166151e+002, 1.650396e+002
8.170972e+002, 1.646506e+002
8.175793e+002, 1.640224e+002
8.180615e+002, 1.634646e+002
8.185436e+002, 1.630197e+002
8.190257e+002, 1.627555e+002
8.195078e+002, 1.627406e+002
8.199899e+002, 1.629118e+002
8.204720e+002, 1.632068e+002
8.209542e+002, 1.638082e+002
8.214363e+002, 1.639930e+002
8.219184e+002, 1.635461e+002
8.224005e+002, 1.628674e+002
8.228826e+002, 1.625852e+002
8.233647e+002, 1.626293e+002
8.238469e+002, 1.627124e+002
8.243290e+002, 1.627802e+002
8.248111e+002, 1.628268e+002
8.252932e+002, 1.629235e+002
8.257753e+002, 1.629734e+002
8.262574e+002, 1.628371e+002
8.267396e+002, 1.621247e+002
8.272217e+002, 1.617619e+002
8.277038e+002, 1.620453e+002
8.281859e+002, 1.625283e+002
8.286681e+002, 1.626656e+002
8.291502e+002, 1.624134e+002
8.296323e+002, 1.621777e+002
8.301144e+002, 1.620007e+002
8.305966e+002, 1.618731e+002
8.310787e+002, 1.617071e+002
8.315608e+002, 1.615892e+002
8.320429e+002, 1.617279e+002
8.325250e+002, 1.622592e+002
8.330071e+002, 1.627525e+002
8.334893e+002, 1.631072e+002
8.339714e+002, 1.632497e+002
8.344535e+002, 1.630635e+002
8.349356e+002, 1.621896e+002
8.354177e+002, 1.618198e+002
8.358998e+002, 1.621485e+002
8.363820e+002, 1.626455e+002
8.368641e+002, 1.627554e+002
8.373462e+002, 1.625306e+002
8.378283e+002, 1.622950e+002
8.383104e+002, 1.620881e+002
8.387925e+002, 1.619003e+002
8.392747e+002, 1.616644e+002
8.397568e+002, 1.614738e+002
8.402389e+002, 1.614649e+002
8.407210e+002, 1.617408e+002
8.412031e+002, 1.618904e+002
8.416852e+002, 1.616929e+002
8.421674e+002, 1.614580e+002
8.426495e+002, 1.613882e+002
8.431316e+002, 1.615138e+002
8.436137e+002, 1.615439e+002
8.440958e+002, 1.614545e+002
8.445779e+002, 1.613929e+002
8.450601e+002, 1.616656e+002
8.455422e+002, 1.620010e+002
8.460243e+002, 1.617532e+002
8.465064e+002, 1.608662e+002
8.469885e+002, 1.602377e+002
8.474706e+002, 1.608327e+002
8.479528e+002, 1.614595e+002
8.484349e+002, 1.612129e+002
8.489170e+002, 1.599140e+002
8.493991e+002, 1.590892e+002
8.498812e+002, 1.588242e+002
8.503633e+002, 1.588232e+002
8.508455e+002, 1.590633e+002
8.513276e+002, 1.594456e+002
8.518097e+002, 1.593430e+002
8.522918e+002, 1.587874e+002
8.527739e+002, 1.582483e+002
8.532560e+002, 1.581508e+002
8.537382e+002, 1.581043e+002
8.542203e+002, 1.576893e+002
8.547024e+002, 1.569339e+002
8.551845e+002, 1.564240e+002
8.556666e+002, 1.564351e+002
8.561487e+002, 1.565228e+002
8.566309e+002, 1.565907e+002
8.571130e+002, 1.566246e+002
8.575951e+002, 1.565250e+002
8.580772e+002, 1.562903e+002
8.585593e+002, 1.560492e+002
8.590414e+002, 1.558967e+002
8.595236e+002, 1.557545e+002
8.600057e+002, 1.555076e+002
8.604878e+002, 1.551779e+002
8.609699e+002, 1.548302e+002
8.614520e+002, 1.544539e+002
8.619341e+002, 1.541024e+002
8.624163e+002, 1.537333e+002
8.628984e+002, 1.534043e+002
8.633805e+002, 1.533545e+002
8.638626e+002, 1.537338e+002
8.643447e+002, 1.537538e+002
8.648268e+002, 1.530950e+002
8.653090e+002, 1.521546e+002
8.657911e+002, 1.516843e+002
8.662732e+002, 1.515612e+002
8.667553e+002, 1.514431e+002
8.672374e+002, 1.511647e+002
8.677195e+002, 1.509096e+002
8.682017e+002, 1.507738e+002
8.686838e+002, 1.507315e+002
8.691659e+002, 1.507772e+002
8.696480e+002, 1.512088e+002
8.701301e+002, 1.510938e+002
8.706122e+002, 1.501722e+002
8.710944e+002, 1.489709e+002
8.715765e+002, 1.482209e+002
8.720586e+002, 1.478609e+002
8.725407e+002, 1.475069e+002
8.730228e+002, 1.470544e+002
8.735049e+002, 1.467736e+002
8.739871e+002, 1.472954e+002
8.744692e+002, 1.479203e+002
8.749513e+002, 1.478137e+002
8.754334e+002, 1.464583e+002
8.759155e+002, 1.452227e+002
8.763976e+002, 1.441338e+002
8.768798e+002, 1.433013e+002
8.773619e+002, 1.428619e+002
8.778440e+002, 1.428308e+002
8.783261e+002, 1.427823e+002
8.788082e+002, 1.427036e+002
8.792903e+002, 1.425947e+002
8.797725e+002, 1.425020e+002
8.802546e+002, 1.423522e+002
8.807367e+002, 1.420248e+002
8.812188e+002, 1.415067e+002
8.817009e+002, 1.409867e+002
8.821830e+002, 1.405114e+002
8.826652e+002, 1.400679e+002
8.831473e+002, 1.396680e+002
8.836294e+002, 1.393073e+002
8.841115e+002, 1.388513e+002
8.845936e+002, 1.382650e+002
8.850757e+002, 1.378191e+002
8.855579e+002, 1.377201e+002
8.860400e+002, 1.378329e+002
8.865221e+002, 1.380741e+002
8.870042e+002, 1.383462e+002
8.874863e+002, 1.382549e+002
8.879684e+002, 1.372785e+002
8.884506e+002, 1.362380e+002
8.889327e+002, 1.354259e+002
8.894148e+002, 1.348275e+002
8.898969e+002, 1.343960e+002
8.903790e+002, 1.341782e+002
8.908611e+002, 1.339793e+002
8.913433e+002, 1.337608e+002
8.918254e+002, 1.335122e+002
8.923075e+002, 1.332067e+002
8.927896e+002, 1.328501e+002
8.932717e+002, 1.324612e+002
8.937538e+002, 1.320230e+002
8.942360e+002, 1.315880e+002
8.947181e+002, 1.311844e+002
8.952002e+002, 1.308118e+002
8.956823e+002, 1.304956e+002
8.961644e+002, 1.304057e+002
8.966465e+002, 1.299233e+002
8.971287e+002, 1.288083e+002
8.976108e+002, 1.277165e+002
8.980929e+002, 1.277325e+002
8.985750e+002, 1.285117e+002
8.990571e+002, 1.286765e+002
8.995392e+002, 1.279613e+002
9.000214e+002, 1.271611e+002
9.005035e+002, 1.267477e+002
9.009856e+002, 1.265842e+002
9.014677e+002, 1.265666e+002
9.019498e+002, 1.267196e+002
9.024319e+002, 1.269282e+002
9.029141e+002, 1.273695e+002
9.033962e+002, 1.275430e+002
9.038783e+002, 1.269891e+002
9.043604e+002, 1.258258e+002
9.048425e+002, 1.249407e+002
9.053246e+002, 1.243171e+002
9.058068e+002, 1.238438e+002
9.062889e+002, 1.233041e+002
9.067710e+002, 1.229896e+002
9.072531e+002, 1.234564e+002
9.077352e+002, 1.245362e+002
9.082173e+002, 1.247783e+002
9.086995e+002, 1.233484e+002
9.091816e+002, 1.221106e+002
9.096637e+002, 1.216573e+002
9.101458e+002, 1.217162e+002
9.106279e+002, 1.214628e+002
9.111100e+002, 1.209293e+002
9.115922e+002, 1.203932e+002
9.120743e+002, 1.198856e+002
9.125564e+002, 1.195246e+002
9.130385e+002, 1.194941e+002
9.135206e+002, 1.196699e+002
9.140027e+002, 1.198371e+002
9.144849e+002, 1.201578e+002
9.149670e+002, 1.201321e+002
9.154491e+002, 1.195580e+002
9.159312e+002, 1.188168e+002
9.164133e+002, 1.184170e+002
9.168954e+002, 1.183370e+002
9.173776e+002, 1.181965e+002
9.178597e+002, 1.179366e+002
9.183418e+002, 1.176845e+002
9.188239e+002, 1.176299e+002
9.193060e+002, 1.176079e+002
9.197881e+002, 1.174064e+002
9.202703e+002, 1.169353e+002
9.207524e+002, 1.165746e+002
9.212345e+002, 1.164810e+002
9.217166e+002, 1.163728e+002
9.221987e+002, 1.160395e+002
9.226808e+002, 1.155078e+002
9.231630e+002, 1.153224e+002
9.236451e+002, 1.154826e+002
9.241272e+002, 1.156636e+002
9.246093e+002, 1.156899e+002
9.250914e+002, 1.156036e+002
9.255735e+002, 1.153729e+002
9.260557e+002, 1.150484e+002
9.265378e+002, 1.148370e+002
9.270199e+002, 1.149771e+002
9.275020e+002, 1.150017e+002
9.279841e+002, 1.147547e+002
9.284662e+002, 1.143593e+002
9.289484e+002, 1.141234e+002
9.294305e+002, 1.140390e+002
9.299126e+002, 1.140492e+002
9.303947e+002, 1.142279e+002
9.308768e+002, 1.142814e+002
9.313589e+002, 1.135985e+002
9.318411e+002, 1.126873e+002
9.323232e+002, 1.123175e+002
9.328053e+002, 1.132579e+002
9.332874e+002, 1.137824e+002
9.337695e+002, 1.136302e+002
9.342516e+002, 1.131902e+002
9.347338e+002, 1.127579e+002
9.352159e+002, 1.123380e+002
9.356980e+002, 1.121633e+002
9.361801e+002, 1.122576e+002
9.366622e+002, 1.124145e+002
9.371443e+002, 1.124225e+002
9.376265e+002, 1.124321e+002
9.381086e+002, 1.126707e+002
9.385907e+002, 1.131628e+002
9.390728e+002, 1.133861e+002
9.395549e+002, 1.131930e+002
9.400370e+002, 1.128011e+002
9.405192e+002, 1.121692e+002
9.410013e+002, 1.114193e+002
9.414834e+002, 1.112011e+002
9.419655e+002, 1.114663e+002
9.424476e+002, 1.117257e+002
9.429297e+002, 1.117167e+002
9.434119e+002, 1.116300e+002
9.438940e+002, 1.118149e+002
9.443761e+002, 1.120199e+002
9.448582e+002, 1.117137e+002
9.453403e+002, 1.099208e+002
9.458224e+002, 1.089728e+002
9.463046e+002, 1.093797e+002
9.467867e+002, 1.103033e+002
9.472688e+002, 1.104770e+002
9.477509e+002, 1.100516e+002
9.482330e+002, 1.099729e+002
9.487151e+002, 1.104329e+002
9.491973e+002, 1.108811e+002
9.496794e+002, 1.108425e+002
9.501615e+002, 1.105987e+002
9.506436e+002, 1.103630e+002
9.511257e+002, 1.101361e+002
9.516078e+002, 1.101282e+002
9.520900e+002, 1.105272e+002
9.525721e+002, 1.107551e+002
9.530542e+002, 1.103567e+002
9.535363e+002, 1.095326e+002
9.540184e+002, 1.091142e+002
9.545005e+002, 1.090695e+002
9.549827e+002, 1.091716e+002
9.554648e+002, 1.093807e+002
9.559469e+002, 1.096147e+002
9.564290e+002, 1.099327e+002
9.569111e+002, 1.102333e+002
9.573932e+002, 1.102145e+002
9.578754e+002, 1.097590e+002
9.583575e+002, 1.092247e+002
9.588396e+002, 1.085571e+002
9.593217e+002, 1.080771e+002
9.598038e+002, 1.086267e+002
9.602859e+002, 1.097596e+002
9.607681e+002, 1.102211e+002
9.612502e+002, 1.095787e+002
9.617323e+002, 1.088388e+002
9.622144e+002, 1.085242e+002
9.626965e+002, 1.083734e+002
9.631786e+002, 1.081690e+002
9.636608e+002, 1.078908e+002
9.641429e+002, 1.076156e+002
9.646250e+002, 1.073053e+002
9.651071e+002, 1.071878e+002
9.655892e+002, 1.076207e+002
9.660714e+002, 1.082767e+002
9.665535e+002, 1.085355e+002
9.670356e+002, 1.084344e+002
9.675177e+002, 1.082318e+002
9.679998e+002, 1.078878e+002
9.684819e+002, 1.076383e+002
9.689641e+002, 1.076416e+002
9.694462e+002, 1.077779e+002
9.699283e+002, 1.077437e+002
9.704104e+002, 1.075187e+002
9.708925e+002, 1.073605e+002
9.713746e+002, 1.073533e+002
9.718568e+002, 1.073551e+002
9.723389e+002, 1.071801e+002
9.728210e+002, 1.068992e+002
9.733031e+002, 1.066097e+002
9.737852e+002, 1.063108e+002
9.742673e+002, 1.060706e+002
9.747495e+002, 1.058728e+002
9.752316e+002, 1.057627e+002
9.757137e+002, 1.057597e+002
9.761958e+002, 1.058632e+002
9.766779e+002, 1.062423e+002
9.771600e+002, 1.068931e+002
9.776422e+002, 1.072801e+002
9.781243e+002, 1.066924e+002
9.786064e+002, 1.059603e+002
9.790885e+002, 1.058937e+002
9.795706e+002, 1.063729e+002
9.800527e+002, 1.067361e+002
9.805349e+002, 1.068517e+002
9.810170e+002, 1.069144e+002
9.814991e+002, 1.070190e+002
9.819812e+002, 1.070219e+002
9.824633e+002, 1.064057e+002
9.829454e+002, 1.053934e+002
9.834276e+002, 1.049885e+002
9.839097e+002, 1.056134e+002
9.843918e+002, 1.062789e+002
9.848739e+002, 1.062752e+002
9.853560e+002, 1.060088e+002
9.858381e+002, 1.058711e+002
9.863203e+002, 1.059187e+002
9.868024e+002, 1.059508e+002
9.872845e+002, 1.059681e+002
9.877666e+002, 1.059680e+002
9.882487e+002, 1.059270e+002
9.887308e+002, 1.058744e+002
9.892130e+002, 1.059046e+002
9.896951e+002, 1.059945e+002
9.901772e+002, 1.060283e+002
9.906593e+002, 1.059160e+002
9.911414e+002, 1.057749e+002
9.916235e+002, 1.056481e+002
9.921057e+002, 1.055229e+002
9.925878e+002, 1.053257e+002
9.930699e+002, 1.050304e+002
9.935520e+002, 1.049899e+002
9.940341e+002, 1.053410e+002
9.945162e+002, 1.057078e+002
9.949984e+002, 1.055552e+002
9.954805e+002, 1.051865e+002
9.959626e+002, 1.050211e+002
9.964447e+002, 1.051822e+002
9.969268e+002, 1.053493e+002
9.974089e+002, 1.054484e+002
9.978911e+002, 1.055797e+002
9.983732e+002, 1.059014e+002
9.988553e+002, 1.063325e+002
9.993374e+002, 1.060865e+002
9.998195e+002, 1.052483e+002
1.000302e+003, 1.046595e+002
1.000784e+003, 1.050348e+002
1.001266e+003, 1.056083e+002
1.001748e+003, 1.059569e+002
1.002230e+003, 1.060890e+002
1.002712e+003, 1.060209e+002
1.003194e+003, 1.056358e+002
1.003676e+003, 1.053875e+002
1.004159e+003, 1.053598e+002
1.004641e+003, 1.054119e+002
1.005123e+003, 1.053032e+002
1.005605e+003, 1.051355e+002
1.006087e+003, 1.052274e+002
1.006569e+003, 1.056741e+002
1.007051e+003, 1.059019e+002
1.007533e+003, 1.053555e+002
1.008016e+003, 1.047753e+002
1.008498e+003, 1.046015e+002
1.008980e+003, 1.048094e+002
1.009462e+003, 1.049817e+002
1.009944e+003, 1.051269e+002
1.010426e+003, 1.050956e+002
1.010908e+003, 1.046133e+002
1.011390e+003, 1.041543e+002
1.011872e+003, 1.044423e+002
1.012355e+003, 1.051532e+002
1.012837e+003, 1.056323e+002
1.013319e+003, 1.056265e+002
1.013801e+003, 1.054591e+002
1.014283e+003, 1.050779e+002
1.014765e+003, 1.046660e+002
1.015247e+003, 1.044051e+002
1.015729e+003, 1.042851e+002
1.016211e+003, 1.042696e+002
1.016694e+003, 1.043555e+002
1.017176e+003, 1.045187e+002
1.017658e+003, 1.049230e+002
1.018140e+003, 1.052419e+002
1.018622e+003, 1.051966e+002
1.019104e+003, 1.048234e+002
1.019586e+003, 1.044697e+002
1.020068e+003, 1.040485e+002
1.020551e+003, 1.040792e+002
1.021033e+003, 1.049447e+002
1.021515e+003, 1.059481e+002
1.021997e+003, 1.057812e+002
1.022479e+003, 1.049419e+002
1.022961e+003, 1.043797e+002
1.023443e+003, 1.044518e+002
1.023925e+003, 1.046379e+002
1.024407e+003, 1.049608e+002
1.024890e+003, 1.052076e+002
1.025372e+003, 1.051592e+002
1.025854e+003, 1.048172e+002
1.026336e+003, 1.047176e+002
1.026818e+003, 1.048578e+002
1.027300e+003, 1.050692e+002
1.027782e+003, 1.052714e+002
1.028264e+003, 1.054701e+002
1.028746e+003, 1.056825e+002
1.029229e+003, 1.058970e+002
1.029711e+003, 1.060943e+002
1.030193e+003, 1.063940e+002
1.030675e+003, 1.063263e+002
1.031157e+003, 1.056609e+002
1.031639e+003, 1.049409e+002
1.032121e+003, 1.050340e+002
1.032603e+003, 1.056560e+002
1.033086e+003, 1.061963e+002
1.033568e+003, 1.065704e+002
1.034050e+003, 1.067413e+002
1.034532e+003, 1.064896e+002
1.035014e+003, 1.062205e+002
1.035496e+003, 1.061857e+002
1.035978e+003, 1.063513e+002
1.036460e+003, 1.062885e+002
1.036943e+003, 1.060038e+002
1.037425e+003, 1.058645e+002
1.037907e+003, 1.061957e+002
1.038389e+003, 1.065637e+002
1.038871e+003, 1.065218e+002
1.039353e+003, 1.062313e+002
1.039835e+003, 1.059689e+002
1.040317e+003, 1.057898e+002
1.040799e+003, 1.056204e+002
1.041281e+003, 1.054361e+002
1.041764e+003, 1.053107e+002
1.042246e+003, 1.053231e+002
1.042728e+003, 1.054481e+002
1.043210e+003, 1.056884e+002
1.043692e+003, 1.060236e+002
1.044174e+003, 1.061968e+002
1.044656e+003, 1.059464e+002
1.045138e+003, 1.056511e+002
1.045621e+003, 1.054588e+002
1.046103e+003, 1.053463e+002
1.046585e+003, 1.052798e+002
1.047067e+003, 1.052629e+002
1.047549e+003, 1.051007e+002
1.048031e+003, 1.046943e+002
1.048513e+003, 1.043250e+002
1.048995e+003, 1.044106e+002
1.049478e+003, 1.046267e+002
1.049960e+003, 1.045711e+002
1.050442e+003, 1.040563e+002
1.050924e+003, 1.037968e+002
1.051406e+003, 1.039216e+002
1.051888e+003, 1.040004e+002
1.052370e+003, 1.036871e+002
1.052852e+003, 1.032062e+002
1.053334e+003, 1.032566e+002
1.053817e+003, 1.036686e+002
1.054299e+003, 1.038807e+002
1.054781e+003, 1.033489e+002
1.055263e+003, 1.029409e+002
1.055745e+003, 1.030600e+002
1.056227e+003, 1.033184e+002
1.056709e+003, 1.032347e+002
1.057191e+003, 1.028011e+002
1.057673e+003, 1.026539e+002
1.058156e+003, 1.028590e+002
1.058638e+003, 1.029304e+002
1.059120e+003, 1.022133e+002
1.059602e+003, 1.014049e+002
1.060084e+003, 1.011137e+002
1.060566e+003, 1.013346e+002
1.061048e+003, 1.015802e+002
1.061530e+003, 1.019074e+002
1.062013e+003, 1.020302e+002
1.062495e+003, 1.018268e+002
1.062977e+003, 1.014858e+002
1.063459e+003, 1.013057e+002
1.063941e+003, 1.012160e+002
1.064423e+003, 1.010547e+002
1.064905e+003, 1.007379e+002
1.065387e+003, 1.005312e+002
1.065870e+003, 1.006363e+002
1.066352e+003, 1.007495e+002
1.066834e+003, 1.007213e+002
1.067316e+003, 1.005636e+002
1.067798e+003, 1.003273e+002
1.068280e+003, 1.000278e+002
1.068762e+003, 9.981663e+001
1.069244e+003, 9.981418e+001
1.069726e+003, 9.987565e+001
1.070208e+003, 1.000151e+002
1.070691e+003, 1.001125e+002
1.071173e+003, 9.996836e+001
1.071655e+003, 9.951244e+001
1.072137e+003, 9.900512e+001
1.072619e+003, 9.839861e+001
1.073101e+003, 9.805275e+001
1.073583e+003, 9.868731e+001
1.074065e+003, 9.954102e+001
1.074548e+003, 9.942491e+001
1.075030e+003, 9.844373e+001
1.075512e+003, 9.788164e+001
1.075994e+003, 9.858902e+001
1.076476e+003, 9.888778e+001
1.076958e+003, 9.824046e+001
1.077440e+003, 9.726815e+001
1.077922e+003, 9.725529e+001
1.078405e+003, 9.789326e+001
1.078887e+003, 9.814036e+001
1.079369e+003, 9.772402e+001
1.079851e+003, 9.733462e+001
1.080333e+003, 9.746343e+001
1.080815e+003, 9.762115e+001
1.081297e+003, 9.744498e+001
1.081779e+003, 9.698858e+001
1.082261e+003, 9.693269e+001
1.082744e+003, 9.727042e+001
1.083226e+003, 9.735793e+001
1.083708e+003, 9.665498e+001
1.084190e+003, 9.597740e+001
1.084672e+003, 9.622289e+001
1.085154e+003, 9.692953e+001
1.085636e+003, 9.743005e+001
1.086118e+003, 9.770488e+001
1.086601e+003, 9.756843e+001
1.087083e+003, 9.689646e+001
1.087565e+003, 9.625950e+001
1.088047e+003, 9.627554e+001
1.088529e+003, 9.654977e+001
1.089011e+003, 9.623432e+001
1.089493e+003, 9.550551e+001
1.089975e+003, 9.514054e+001
1.090458e+003, 9.591495e+001
1.090940e+003, 9.641727e+001
1.091422e+003, 9.630627e+001
1.091904e+003, 9.592580e+001
1.092386e+003, 9.581493e+001
1.092868e+003, 9.588623e+001
1.093350e+003, 9.568858e+001
1.093832e+003, 9.515440e+001
1.094314e+003, 9.476717e+001
1.094797e+003, 9.504822e+001
1.095279e+003, 9.534810e+001
1.095761e+003, 9.520334e+001
1.096243e+003, 9.475610e+001
1.096725e+003, 9.464198e+001
1.097207e+003, 9.486913e+001
1.097689e+003, 9.500304e+001
1.098171e+003, 9.486907e+001
1.098653e+003, 9.472681e+001
1.099136e+003, 9.492561e+001
1.099618e+003, 9.520821e+001
1.100100e+003, 9.525662e+001
1.100582e+003, 9.495810e+001
1.101064e+003, 9.478209e+001
1.101546e+003, 9.474174e+001
1.102028e+003, 9.477738e+001
1.102510e+003, 9.491448e+001
1.102993e+003, 9.505582e+001
1.103475e+003, 9.505733e+001
1.103957e+003, 9.492490e+001
1.104439e+003, 9.466930e+001
1.104921e+003, 9.406136e+001
1.105403e+003, 9.368993e+001
1.105885e+003, 9.367770e+001
1.106367e+003, 9.378966e+001
1.106849e+003, 9.382947e+001
1.107332e+003, 9.380840e+001
1.107814e+003, 9.377626e+001
1.108296e+003, 9.373038e+001
1.108778e+003, 9.363146e+001
1.109260e+003, 9.337820e+001
1.109742e+003, 9.316393e+001
1.110224e+003, 9.312219e+001
1.110706e+003, 9.313602e+001
1.111188e+003, 9.296278e+001
1.111671e+003, 9.261301e+001
1.112153e+003, 9.246140e+001
1.112635e+003, 9.257442e+001
1.113117e+003, 9.269548e+001
1.113599e+003, 9.257414e+001
1.114081e+003, 9.240986e+001
1.114563e+003, 9.244487e+001
1.115045e+003, 9.262520e+001
1.115528e+003, 9.235587e+001
1.116010e+003, 9.148080e+001
1.116492e+003, 9.115415e+001
1.116974e+003, 9.186208e+001
1.117456e+003, 9.284834e+001
1.117938e+003, 9.323851e+001
1.118420e+003, 9.328950e+001
1.118902e+003, 9.332343e+001
1.119385e+003, 9.339748e+001
1.119867e+003, 9.340462e+001
1.120349e+003, 9.328381e+001
1.120831e+003, 9.325791e+001
1.121313e+003, 9.360677e+001
1.121795e+003, 9.397908e+001
1.122277e+003, 9.342567e+001
1.122759e+003, 9.231099e+001
1.123241e+003, 9.149895e+001
1.123724e+003, 9.132762e+001
1.124206e+003, 9.146458e+001
1.124688e+003, 9.208845e+001
1.125170e+003, 9.265571e+001
1.125652e+003, 9.264424e+001
1.126134e+003, 9.218359e+001
1.126616e+003, 9.191460e+001
1.127098e+003, 9.181687e+001
1.127580e+003, 9.170818e+001
1.128063e+003, 9.138464e+001
1.128545e+003, 9.115988e+001
1.129027e+003, 9.130530e+001
1.129509e+003, 9.152715e+001
1.129991e+003, 9.135335e+001
1.130473e+003, 9.080119e+001
1.130955e+003, 9.064315e+001
1.131437e+003, 9.095164e+001
1.131920e+003, 9.129998e+001
1.132402e+003, 9.139509e+001
1.132884e+003, 9.139280e+001
1.133366e+003, 9.137582e+001
1.133848e+003, 9.135116e+001
1.134330e+003, 9.133201e+001
1.134812e+003, 9.132121e+001
1.135294e+003, 9.126851e+001
1.135776e+003, 9.114101e+001
1.136259e+003, 9.107922e+001
1.136741e+003, 9.127654e+001
1.137223e+003, 9.158216e+001
1.137705e+003, 9.191210e+001
1.138187e+003, 9.225215e+001
1.138669e+003, 9.221432e+001
1.139151e+003, 9.161417e+001
1.139633e+003, 9.131465e+001
1.140115e+003, 9.172332e+001
1.140598e+003, 9.235168e+001
1.141080e+003, 9.259348e+001
1.141562e+003, 9.251753e+001
1.142044e+003, 9.216624e+001
1.142526e+003, 9.137267e+001
1.143008e+003, 9.097026e+001
1.143490e+003, 9.112919e+001
1.143972e+003, 9.142871e+001
1.144455e+003, 9.175974e+001
1.144937e+003, 9.199015e+001
1.145419e+003, 9.168001e+001
1.145901e+003, 9.101652e+001
1.146383e+003, 9.047085e+001
1.146865e+003, 9.024541e+001
1.147347e+003, 9.011643e+001
1.147829e+003, 9.007409e+001
1.148312e+003, 9.005956e+001
1.148794e+003, 9.000831e+001
1.149276e+003, 8.994260e+001
1.149758e+003, 8.997366e+001
1.150240e+003, 9.009566e+001
1.150722e+003, 9.027319e+001
1.151204e+003, 9.062590e+001
1.151686e+003, 9.085415e+001
1.152168e+003, 9.077151e+001
1.152651e+003, 9.059756e+001
1.153133e+003, 9.061491e+001
1.153615e+003, 9.079471e+001
1.154097e+003, 9.084806e+001
1.154579e+003, 9.075456e+001
1.155061e+003, 9.053188e+001
1.155543e+003, 8.997287e+001
1.156025e+003, 8.951234e+001
1.156507e+003, 8.944911e+001
1.156990e+003, 8.963232e+001
1.157472e+003, 8.982875e+001
1.157954e+003, 9.003897e+001
1.158436e+003, 9.018548e+001
1.158918e+003, 9.025171e+001
1.159400e+003, 9.033601e+001
1.159882e+003, 9.073122e+001
1.160364e+003, 9.099196e+001
1.160847e+003, 9.057148e+001
1.161329e+003, 8.966875e+001
1.161811e+003, 8.932947e+001
1.162293e+003, 8.959710e+001
1.162775e+003, 9.002748e+001
1.163257e+003, 9.060224e+001
1.163739e+003, 9.095423e+001
1.164221e+003, 9.044655e+001
1.164703e+003, 8.971696e+001
1.165186e+003, 8.946767e+001
1.165668e+003, 8.978504e+001
1.166150e+003, 8.980013e+001
1.166632e+003, 8.942215e+001
1.167114e+003, 8.930756e+001
1.167596e+003, 8.980676e+001
1.168078e+003, 9.044633e+001
1.168560e+003, 9.066411e+001
1.169042e+003, 9.061910e+001
1.169525e+003, 9.050551e+001
1.170007e+003, 9.033993e+001
1.170489e+003, 9.013047e+001
1.170971e+003, 8.981760e+001
1.171453e+003, 8.967716e+001
1.171935e+003, 8.985784e+001
1.172417e+003, 9.028189e+001
1.172899e+003, 9.112627e+001
1.173382e+003, 9.204210e+001
1.173864e+003, 9.235019e+001
1.174346e+003, 9.136359e+001
1.174828e+003, 9.080502e+001
1.175310e+003, 9.076631e+001
1.175792e+003, 9.094743e+001
1.176274e+003, 9.130679e+001
1.176756e+003, 9.164851e+001
1.177239e+003, 9.139767e+001
1.177721e+003, 9.083169e+001
1.178203e+003, 9.066888e+001
1.178685e+003, 9.174706e+001
1.179167e+003, 9.229540e+001
1.179649e+003, 9.208631e+001
1.180131e+003, 9.162075e+001
1.180613e+003, 9.120492e+001
1.181095e+003, 9.093250e+001
1.181578e+003, 9.124142e+001
1.182060e+003, 9.194592e+001
1.182542e+003, 9.221412e+001
1.183024e+003, 9.114854e+001
1.183506e+003, 9.048923e+001
1.183988e+003, 9.059933e+001
1.184470e+003, 9.096426e+001
1.184952e+003, 9.094957e+001
1.185434e+003, 9.072395e+001
1.185917e+003, 9.072375e+001
1.186399e+003, 9.095920e+001
1.186881e+003, 9.124299e+001
1.187363e+003, 9.168630e+001
1.187845e+003, 9.187674e+001
1.188327e+003, 9.160783e+001
1.188809e+003, 9.122803e+001
1.189291e+003, 9.136545e+001
1.189774e+003, 9.181786e+001
1.190256e+003, 9.191148e+001
1.190738e+003, 9.157648e+001
1.191220e+003, 9.134757e+001
1.191702e+003, 9.162723e+001
1.192184e+003, 9.182578e+001
1.192666e+003, 9.169267e+001
1.193148e+003, 9.145470e+001
1.193630e+003, 9.161790e+001
1.194113e+003, 9.206533e+001
1.194595e+003, 9.241562e+001
1.195077e+003, 9.260122e+001
1.195559e+003, 9.269423e+001
1.196041e+003, 9.273031e+001
1.196523e+003, 9.266175e+001
1.197005e+003, 9.243584e+001
1.197487e+003, 9.212513e+001
1.197969e+003, 9.192043e+001
1.198452e+003, 9.180177e+001
1.198934e+003, 9.167219e+001
1.199416e+003, 9.148565e+001
1.199898e+003, 9.141294e+001
1.200380e+003, 9.167350e+001
1.200862e+003, 9.190366e+001
1.201344e+003, 9.186875e+001
1.201826e+003, 9.170087e+001
1.202309e+003, 9.205439e+001
1.202791e+003, 9.273093e+001
1.203273e+003, 9.286143e+001
1.203755e+003, 9.198631e+001
1.204237e+003, 9.119398e+001
1.204719e+003, 9.097018e+001
1.205201e+003, 9.101502e+001
1.205683e+003, 9.124252e+001
1.206166e+003, 9.158851e+001
1.206648e+003, 9.179905e+001
1.207130e+003, 9.187171e+001
1.207612e+003, 9.177065e+001
1.208094e+003, 9.133201e+001
1.208576e+003, 9.105409e+001
1.209058e+003, 9.128036e+001
1.209540e+003, 9.162365e+001
1.210022e+003, 9.189010e+001
1.210505e+003, 9.206792e+001
1.210987e+003, 9.201310e+001
1.211469e+003, 9.177531e+001
1.211951e+003, 9.159143e+001
1.212433e+003, 9.157198e+001
1.212915e+003, 9.160503e+001
1.213397e+003, 9.153625e+001
1.213879e+003, 9.162227e+001
1.214361e+003, 9.222598e+001
1.214844e+003, 9.320383e+001
1.215326e+003, 9.338921e+001
1.215808e+003, 9.292315e+001
1.216290e+003, 9.253024e+001
1.216772e+003, 9.276832e+001
1.217254e+003, 9.285136e+001
1.217736e+003, 9.227406e+001
1.218218e+003, 9.173699e+001
1.218701e+003, 9.203829e+001
1.219183e+003, 9.296980e+001
1.219665e+003, 9.299236e+001
1.220147e+003, 9.225538e+001
1.220629e+003, 9.166309e+001
1.221111e+003, 9.170604e+001
1.221593e+003, 9.190585e+001
1.222075e+003, 9.227924e+001
1.222557e+003, 9.257045e+001
1.223040e+003, 9.242638e+001
1.223522e+003, 9.196324e+001
1.224004e+003, 9.175198e+001
1.224486e+003, 9.178211e+001
1.224968e+003, 9.188364e+001
1.225450e+003, 9.201663e+001
1.225932e+003, 9.215639e+001
1.226414e+003, 9.229241e+001
1.226896e+003, 9.243660e+001
1.227379e+003, 9.259048e+001
1.227861e+003, 9.276353e+001
1.228343e+003, 9.309781e+001
1.228825e+003, 9.353777e+001
1.229307e+003, 9.369341e+001
1.229789e+003, 9.303408e+001
1.230271e+003, 9.255193e+001
1.230753e+003, 9.249467e+001
1.231236e+003, 9.264448e+001
1.231718e+003, 9.276374e+001
1.232200e+003, 9.285825e+001
1.232682e+003, 9.296809e+001
1.233164e+003, 9.308170e+001
1.233646e+003, 9.308571e+001
1.234128e+003, 9.272121e+001
1.234610e+003, 9.256800e+001
1.235093e+003, 9.282748e+001
1.235575e+003, 9.316996e+001
1.236057e+003, 9.309438e+001
1.236539e+003, 9.278152e+001
1.237021e+003, 9.262621e+001
1.237503e+003, 9.265149e+001
1.237985e+003, 9.271741e+001
1.238467e+003, 9.271805e+001
1.238949e+003, 9.288412e+001
1.239432e+003, 9.333772e+001
1.239914e+003, 9.379192e+001
1.240396e+003, 9.377197e+001
1.240878e+003, 9.350141e+001
1.241360e+003, 9.329366e+001
1.241842e+003, 9.320039e+001
1.242324e+003, 9.352396e+001
1.242806e+003, 9.478423e+001
1.243288e+003, 9.543024e+001
1.243771e+003, 9.502409e+001
1.244253e+003, 9.431277e+001
1.244735e+003, 9.410648e+001
1.245217e+003, 9.432735e+001
1.245699e+003, 9.520833e+001
1.246181e+003, 9.665771e+001
1.246663e+003, 9.680435e+001
1.247145e+003, 9.482495e+001
1.247628e+003, 9.367543e+001
1.248110e+003, 9.414680e+001
1.248592e+003, 9.503264e+001
1.249074e+003, 9.478403e+001
1.249556e+003, 9.410154e+001
1.250038e+003, 9.373875e+001
1.250520e+003, 9.378893e+001
1.251002e+003, 9.421510e+001
1.251484e+003, 9.520075e+001
1.251967e+003, 9.566608e+001
1.252449e+003, 9.529399e+001
1.252931e+003, 9.462920e+001
1.253413e+003, 9.410738e+001
1.253895e+003, 9.371266e+001
1.254377e+003, 9.344022e+001
1.254859e+003, 9.329447e+001
1.255341e+003, 9.329346e+001
1.255823e+003, 9.346144e+001
1.256306e+003, 9.353877e+001
1.256788e+003, 9.344063e+001
1.257270e+003, 9.336382e+001
1.257752e+003, 9.363161e+001
1.258234e+003, 9.388730e+001
1.258716e+003, 9.370541e+001
1.259198e+003, 9.321072e+001
1.259680e+003, 9.302549e+001
1.260163e+003, 9.315189e+001
1.260645e+003, 9.358767e+001
1.261127e+003, 9.442852e+001
1.261609e+003, 9.498481e+001
1.262091e+003, 9.442097e+001
1.262573e+003, 9.367653e+001
1.263055e+003, 9.335976e+001
1.263537e+003, 9.339246e+001
1.264020e+003, 9.354306e+001
1.264502e+003, 9.379134e+001
1.264984e+003, 9.397000e+001
1.265466e+003, 9.403164e+001
1.265948e+003, 9.408295e+001
1.266430e+003, 9.436900e+001
1.266912e+003, 9.442999e+001
1.267394e+003, 9.393505e+001
1.267876e+003, 9.315382e+001
1.268359e+003, 9.278898e+001
1.268841e+003, 9.277242e+001
1.269323e+003, 9.291342e+001
1.269805e+003, 9.320502e+001
1.270287e+003, 9.335389e+001
1.270769e+003, 9.304790e+001
1.271251e+003, 9.281884e+001
1.271733e+003, 9.289163e+001
1.272215e+003, 9.308559e+001
1.272698e+003, 9.292168e+001
1.273180e+003, 9.259138e+001
1.273662e+003, 9.262373e+001
1.274144e+003, 9.319083e+001
1.274626e+003, 9.332631e+001
1.275108e+003, 9.259217e+001
1.275590e+003, 9.199008e+001
1.276072e+003, 9.185636e+001
1.276555e+003, 9.199483e+001
1.277037e+003, 9.216994e+001
1.277519e+003, 9.235901e+001
1.278001e+003, 9.255293e+001
1.278483e+003, 9.275033e+001
1.278965e+003, 9.278976e+001
1.279447e+003, 9.260543e+001
1.279929e+003, 9.249185e+001
1.280411e+003, 9.256272e+001
1.280894e+003, 9.266505e+001
1.281376e+003, 9.258778e+001
1.281858e+003, 9.245123e+001
1.282340e+003, 9.237285e+001
1.282822e+003, 9.236749e+001
1.283304e+003, 9.254942e+001
1.283786e+003, 9.297532e+001
1.284268e+003, 9.289420e+001
1.284750e+003, 9.196935e+001
1.285233e+003, 9.105673e+001
1.285715e+003, 9.098452e+001
1.286197e+003, 9.124387e+001
1.286679e+003, 9.149200e+001
1.287161e+003, 9.170339e+001
1.287643e+003, 9.183821e+001
1.288125e+003, 9.189722e+001
1.288607e+003, 9.182795e+001
1.289090e+003, 9.157603e+001
1.289572e+003, 9.148530e+001
1.290054e+003, 9.205274e+001
1.290536e+003, 9.251803e+001
1.291018e+003, 9.237199e+001
1.291500e+003, 9.192973e+001
1.291982e+003, 9.219215e+001
1.292464e+003, 9.293091e+001
1.292947e+003, 9.328240e+001
1.293429e+003, 9.304086e+001
1.293911e+003, 9.281837e+001
1.294393e+003, 9.304967e+001
1.294875e+003, 9.304025e+001
1.295357e+003, 9.241582e+001
1.295839e+003, 9.168213e+001
1.296321e+003, 9.202262e+001
1.296803e+003, 9.287256e+001
1.297286e+003, 9.306583e+001
1.297768e+003, 9.239595e+001
1.298250e+003, 9.210622e+001
1.298732e+003, 9.252331e+001
1.299214e+003, 9.280836e+001
1.299696e+003, 9.270672e+001
1.300178e+003, 9.252169e+001
1.300660e+003, 9.257513e+001
##END=



