##NAMES=Gahnite
##RRUFFID=R170037
##IDEAL CHEMISTRY=Zn^2+^Al_2_O_4_
##LOCALITY=Silberberg mine, Bodenmais, Zwiesel, Bavarian Forest, Lower Bavaria, Bavaria, Germany
##OWNER=UAMM
##SOURCE=Rock Currier
##DESCRIPTION=Massive dark to bluish-green
##STATUS=The identification of this mineral is confirmed by single-crystal X-ray diffraction and chemical analysis.
##URL=rruff.info/R170037
##MEASURED CHEMISTRY=(Zn_0.57_Fe_0.22_Mg_0.21_Mn_0.02_)(Al_1.94_Fe_0.06_)O_4_
8.758203e+001, 4.819798e+002
8.806415e+001, 4.843306e+002
8.854626e+001, 4.847799e+002
8.902838e+001, 4.825625e+002
8.951050e+001, 4.796877e+002
8.999261e+001, 4.765981e+002
9.047473e+001, 4.734484e+002
9.095685e+001, 4.707010e+002
9.143896e+001, 4.689458e+002
9.192108e+001, 4.681968e+002
9.240320e+001, 4.670548e+002
9.288531e+001, 4.599420e+002
9.336743e+001, 4.444703e+002
9.384955e+001, 4.233749e+002
9.433167e+001, 4.033103e+002
9.481378e+001, 3.838455e+002
9.529590e+001, 3.670228e+002
9.577802e+001, 3.525199e+002
9.626013e+001, 3.403239e+002
9.674225e+001, 3.307658e+002
9.722437e+001, 3.234750e+002
9.770648e+001, 3.164253e+002
9.818860e+001, 3.091290e+002
9.867072e+001, 3.019793e+002
9.915283e+001, 2.950590e+002
9.963495e+001, 2.883510e+002
1.001171e+002, 2.819650e+002
1.005992e+002, 2.760680e+002
1.010813e+002, 2.704422e+002
1.015634e+002, 2.655773e+002
1.020455e+002, 2.612232e+002
1.025277e+002, 2.573708e+002
1.030098e+002, 2.540284e+002
1.034919e+002, 2.511726e+002
1.039740e+002, 2.487400e+002
1.044561e+002, 2.466183e+002
1.049382e+002, 2.457643e+002
1.054204e+002, 2.440809e+002
1.059025e+002, 2.411481e+002
1.063846e+002, 2.372280e+002
1.068667e+002, 2.326476e+002
1.073488e+002, 2.274257e+002
1.078309e+002, 2.217658e+002
1.083131e+002, 2.172366e+002
1.087952e+002, 2.140647e+002
1.092773e+002, 2.115728e+002
1.097594e+002, 2.095757e+002
1.102415e+002, 2.080323e+002
1.107236e+002, 2.066613e+002
1.112058e+002, 2.053514e+002
1.116879e+002, 2.040500e+002
1.121700e+002, 2.025898e+002
1.126521e+002, 2.008022e+002
1.131342e+002, 1.988744e+002
1.136163e+002, 1.971930e+002
1.140985e+002, 1.959853e+002
1.145806e+002, 1.945846e+002
1.150627e+002, 1.923423e+002
1.155448e+002, 1.895674e+002
1.160269e+002, 1.869657e+002
1.165090e+002, 1.850992e+002
1.169912e+002, 1.839542e+002
1.174733e+002, 1.827100e+002
1.179554e+002, 1.811705e+002
1.184375e+002, 1.796725e+002
1.189196e+002, 1.783332e+002
1.194017e+002, 1.771598e+002
1.198839e+002, 1.761106e+002
1.203660e+002, 1.751338e+002
1.208481e+002, 1.742252e+002
1.213302e+002, 1.734099e+002
1.218123e+002, 1.730709e+002
1.222944e+002, 1.725532e+002
1.227766e+002, 1.712357e+002
1.232587e+002, 1.690137e+002
1.237408e+002, 1.664389e+002
1.242229e+002, 1.645709e+002
1.247050e+002, 1.640523e+002
1.251871e+002, 1.634603e+002
1.256693e+002, 1.627332e+002
1.261514e+002, 1.619320e+002
1.266335e+002, 1.611736e+002
1.271156e+002, 1.605280e+002
1.275977e+002, 1.598883e+002
1.280798e+002, 1.589019e+002
1.285620e+002, 1.574374e+002
1.290441e+002, 1.559298e+002
1.295262e+002, 1.545255e+002
1.300083e+002, 1.532115e+002
1.304904e+002, 1.519586e+002
1.309725e+002, 1.507689e+002
1.314547e+002, 1.496296e+002
1.319368e+002, 1.485038e+002
1.324189e+002, 1.473557e+002
1.329010e+002, 1.462641e+002
1.333831e+002, 1.453538e+002
1.338652e+002, 1.446698e+002
1.343474e+002, 1.439345e+002
1.348295e+002, 1.428320e+002
1.353116e+002, 1.416513e+002
1.357937e+002, 1.407041e+002
1.362758e+002, 1.401195e+002
1.367579e+002, 1.398359e+002
1.372401e+002, 1.397738e+002
1.377222e+002, 1.403455e+002
1.382043e+002, 1.404548e+002
1.386864e+002, 1.396551e+002
1.391685e+002, 1.382489e+002
1.396507e+002, 1.366594e+002
1.401328e+002, 1.351465e+002
1.406149e+002, 1.337036e+002
1.410970e+002, 1.323345e+002
1.415791e+002, 1.309443e+002
1.420612e+002, 1.297266e+002
1.425434e+002, 1.287808e+002
1.430255e+002, 1.280673e+002
1.435076e+002, 1.274743e+002
1.439897e+002, 1.269022e+002
1.444718e+002, 1.263434e+002
1.449539e+002, 1.258673e+002
1.454361e+002, 1.257372e+002
1.459182e+002, 1.254665e+002
1.464003e+002, 1.246466e+002
1.468824e+002, 1.232978e+002
1.473645e+002, 1.218847e+002
1.478466e+002, 1.209516e+002
1.483288e+002, 1.206729e+002
1.488109e+002, 1.203159e+002
1.492930e+002, 1.198072e+002
1.497751e+002, 1.192396e+002
1.502572e+002, 1.187042e+002
1.507393e+002, 1.182181e+002
1.512215e+002, 1.177718e+002
1.517036e+002, 1.173806e+002
1.521857e+002, 1.170464e+002
1.526678e+002, 1.166680e+002
1.531499e+002, 1.162503e+002
1.536320e+002, 1.157679e+002
1.541142e+002, 1.151408e+002
1.545963e+002, 1.142992e+002
1.550784e+002, 1.133767e+002
1.555605e+002, 1.124991e+002
1.560426e+002, 1.116694e+002
1.565247e+002, 1.108852e+002
1.570069e+002, 1.101363e+002
1.574890e+002, 1.094238e+002
1.579711e+002, 1.088040e+002
1.584532e+002, 1.083879e+002
1.589353e+002, 1.080009e+002
1.594174e+002, 1.075358e+002
1.598996e+002, 1.069771e+002
1.603817e+002, 1.063749e+002
1.608638e+002, 1.057807e+002
1.613459e+002, 1.051984e+002
1.618280e+002, 1.046118e+002
1.623102e+002, 1.040501e+002
1.627923e+002, 1.034669e+002
1.632744e+002, 1.028180e+002
1.637565e+002, 1.020908e+002
1.642386e+002, 1.013373e+002
1.647207e+002, 1.006213e+002
1.652029e+002, 9.982087e+001
1.656850e+002, 9.930338e+001
1.661671e+002, 9.929300e+001
1.666492e+002, 9.944765e+001
1.671313e+002, 9.946448e+001
1.676134e+002, 9.921267e+001
1.680956e+002, 9.876611e+001
1.685777e+002, 9.833775e+001
1.690598e+002, 9.800491e+001
1.695419e+002, 9.760042e+001
1.700240e+002, 9.702256e+001
1.705061e+002, 9.638278e+001
1.709883e+002, 9.583964e+001
1.714704e+002, 9.547751e+001
1.719525e+002, 9.525708e+001
1.724346e+002, 9.501817e+001
1.729167e+002, 9.483094e+001
1.733988e+002, 9.455556e+001
1.738810e+002, 9.400184e+001
1.743631e+002, 9.330505e+001
1.748452e+002, 9.284669e+001
1.753273e+002, 9.289725e+001
1.758094e+002, 9.331150e+001
1.762915e+002, 9.352143e+001
1.767737e+002, 9.347409e+001
1.772558e+002, 9.330534e+001
1.777379e+002, 9.301533e+001
1.782200e+002, 9.262330e+001
1.787021e+002, 9.235225e+001
1.791842e+002, 9.248446e+001
1.796664e+002, 9.275999e+001
1.801485e+002, 9.266396e+001
1.806306e+002, 9.192714e+001
1.811127e+002, 9.103218e+001
1.815948e+002, 9.053490e+001
1.820769e+002, 9.050017e+001
1.825591e+002, 9.049216e+001
1.830412e+002, 9.023034e+001
1.835233e+002, 8.988313e+001
1.840054e+002, 8.962915e+001
1.844875e+002, 8.954942e+001
1.849696e+002, 8.956820e+001
1.854518e+002, 8.955362e+001
1.859339e+002, 8.950010e+001
1.864160e+002, 8.942167e+001
1.868981e+002, 8.934749e+001
1.873802e+002, 8.924895e+001
1.878623e+002, 8.907028e+001
1.883445e+002, 8.875655e+001
1.888266e+002, 8.837930e+001
1.893087e+002, 8.821375e+001
1.897908e+002, 8.855887e+001
1.902729e+002, 8.868395e+001
1.907550e+002, 8.823218e+001
1.912372e+002, 8.751694e+001
1.917193e+002, 8.696756e+001
1.922014e+002, 8.685445e+001
1.926835e+002, 8.710465e+001
1.931656e+002, 8.722568e+001
1.936477e+002, 8.713203e+001
1.941299e+002, 8.697806e+001
1.946120e+002, 8.674660e+001
1.950941e+002, 8.647513e+001
1.955762e+002, 8.621985e+001
1.960583e+002, 8.602000e+001
1.965404e+002, 8.587132e+001
1.970226e+002, 8.569875e+001
1.975047e+002, 8.527176e+001
1.979868e+002, 8.505748e+001
1.984689e+002, 8.538787e+001
1.989510e+002, 8.605524e+001
1.994331e+002, 8.657076e+001
1.999153e+002, 8.656544e+001
2.003974e+002, 8.605686e+001
2.008795e+002, 8.579122e+001
2.013616e+002, 8.604453e+001
2.018437e+002, 8.621987e+001
2.023258e+002, 8.599752e+001
2.028080e+002, 8.544748e+001
2.032901e+002, 8.487695e+001
2.037722e+002, 8.450343e+001
2.042543e+002, 8.431443e+001
2.047364e+002, 8.403844e+001
2.052185e+002, 8.359295e+001
2.057007e+002, 8.313720e+001
2.061828e+002, 8.279385e+001
2.066649e+002, 8.255393e+001
2.071470e+002, 8.229589e+001
2.076291e+002, 8.191530e+001
2.081112e+002, 8.144405e+001
2.085934e+002, 8.104323e+001
2.090755e+002, 8.079182e+001
2.095576e+002, 8.056704e+001
2.100397e+002, 8.025588e+001
2.105218e+002, 7.985398e+001
2.110039e+002, 7.944365e+001
2.114861e+002, 7.904771e+001
2.119682e+002, 7.868729e+001
2.124503e+002, 7.840646e+001
2.129324e+002, 7.829046e+001
2.134145e+002, 7.820594e+001
2.138967e+002, 7.799231e+001
2.143788e+002, 7.763609e+001
2.148609e+002, 7.720832e+001
2.153430e+002, 7.661651e+001
2.158251e+002, 7.600401e+001
2.163072e+002, 7.557980e+001
2.167894e+002, 7.549116e+001
2.172715e+002, 7.554248e+001
2.177536e+002, 7.537798e+001
2.182357e+002, 7.492062e+001
2.187178e+002, 7.445762e+001
2.191999e+002, 7.398980e+001
2.196821e+002, 7.361938e+001
2.201642e+002, 7.354311e+001
2.206463e+002, 7.395938e+001
2.211284e+002, 7.454911e+001
2.216105e+002, 7.451279e+001
2.220926e+002, 7.342593e+001
2.225748e+002, 7.256628e+001
2.230569e+002, 7.242380e+001
2.235390e+002, 7.264751e+001
2.240211e+002, 7.289205e+001
2.245032e+002, 7.302348e+001
2.249853e+002, 7.302164e+001
2.254675e+002, 7.279208e+001
2.259496e+002, 7.208041e+001
2.264317e+002, 7.155761e+001
2.269138e+002, 7.140278e+001
2.273959e+002, 7.146846e+001
2.278780e+002, 7.163235e+001
2.283602e+002, 7.184605e+001
2.288423e+002, 7.205814e+001
2.293244e+002, 7.209866e+001
2.298065e+002, 7.183235e+001
2.302886e+002, 7.156210e+001
2.307707e+002, 7.130444e+001
2.312529e+002, 7.107027e+001
2.317350e+002, 7.086195e+001
2.322171e+002, 7.067995e+001
2.326992e+002, 7.053325e+001
2.331813e+002, 7.045483e+001
2.336634e+002, 7.058965e+001
2.341456e+002, 7.061510e+001
2.346277e+002, 7.039021e+001
2.351098e+002, 7.008540e+001
2.355919e+002, 6.991954e+001
2.360740e+002, 6.999418e+001
2.365561e+002, 7.020901e+001
2.370383e+002, 7.026711e+001
2.375204e+002, 6.994778e+001
2.380025e+002, 6.972436e+001
2.384846e+002, 6.974754e+001
2.389667e+002, 6.984119e+001
2.394488e+002, 6.977193e+001
2.399310e+002, 6.943853e+001
2.404131e+002, 6.894888e+001
2.408952e+002, 6.857232e+001
2.413773e+002, 6.828968e+001
2.418594e+002, 6.814612e+001
2.423415e+002, 6.831295e+001
2.428237e+002, 6.857202e+001
2.433058e+002, 6.861182e+001
2.437879e+002, 6.830492e+001
2.442700e+002, 6.782777e+001
2.447521e+002, 6.756604e+001
2.452342e+002, 6.766861e+001
2.457164e+002, 6.767198e+001
2.461985e+002, 6.739317e+001
2.466806e+002, 6.700810e+001
2.471627e+002, 6.677229e+001
2.476448e+002, 6.677773e+001
2.481269e+002, 6.689770e+001
2.486091e+002, 6.692154e+001
2.490912e+002, 6.685030e+001
2.495733e+002, 6.670970e+001
2.500554e+002, 6.650853e+001
2.505375e+002, 6.623868e+001
2.510196e+002, 6.585167e+001
2.515018e+002, 6.531271e+001
2.519839e+002, 6.476255e+001
2.524660e+002, 6.446012e+001
2.529481e+002, 6.442342e+001
2.534302e+002, 6.429047e+001
2.539123e+002, 6.378149e+001
2.543945e+002, 6.317583e+001
2.548766e+002, 6.296164e+001
2.553587e+002, 6.330724e+001
2.558408e+002, 6.379195e+001
2.563229e+002, 6.389669e+001
2.568051e+002, 6.367674e+001
2.572872e+002, 6.343101e+001
2.577693e+002, 6.323156e+001
2.582514e+002, 6.305942e+001
2.587335e+002, 6.288287e+001
2.592156e+002, 6.269641e+001
2.596978e+002, 6.251066e+001
2.601799e+002, 6.233757e+001
2.606620e+002, 6.217240e+001
2.611441e+002, 6.200751e+001
2.616262e+002, 6.180927e+001
2.621083e+002, 6.161792e+001
2.625905e+002, 6.151776e+001
2.630726e+002, 6.154102e+001
2.635547e+002, 6.155713e+001
2.640368e+002, 6.147533e+001
2.645189e+002, 6.131361e+001
2.650010e+002, 6.108631e+001
2.654832e+002, 6.077006e+001
2.659653e+002, 6.040274e+001
2.664474e+002, 6.004955e+001
2.669295e+002, 5.972330e+001
2.674116e+002, 5.936921e+001
2.678937e+002, 5.885894e+001
2.683759e+002, 5.831726e+001
2.688580e+002, 5.792889e+001
2.693401e+002, 5.777800e+001
2.698222e+002, 5.778439e+001
2.703043e+002, 5.787246e+001
2.707864e+002, 5.807621e+001
2.712686e+002, 5.821468e+001
2.717507e+002, 5.815936e+001
2.722328e+002, 5.800293e+001
2.727149e+002, 5.781525e+001
2.731970e+002, 5.758839e+001
2.736791e+002, 5.739087e+001
2.741613e+002, 5.735754e+001
2.746434e+002, 5.753607e+001
2.751255e+002, 5.762963e+001
2.756076e+002, 5.745621e+001
2.760897e+002, 5.717965e+001
2.765718e+002, 5.689611e+001
2.770540e+002, 5.661741e+001
2.775361e+002, 5.639273e+001
2.780182e+002, 5.632141e+001
2.785003e+002, 5.643887e+001
2.789824e+002, 5.646349e+001
2.794645e+002, 5.617589e+001
2.799467e+002, 5.586450e+001
2.804288e+002, 5.575085e+001
2.809109e+002, 5.586506e+001
2.813930e+002, 5.601783e+001
2.818751e+002, 5.598651e+001
2.823572e+002, 5.574878e+001
2.828394e+002, 5.560453e+001
2.833215e+002, 5.567079e+001
2.838036e+002, 5.579230e+001
2.842857e+002, 5.592251e+001
2.847678e+002, 5.604147e+001
2.852499e+002, 5.609282e+001
2.857321e+002, 5.596388e+001
2.862142e+002, 5.564702e+001
2.866963e+002, 5.549432e+001
2.871784e+002, 5.569046e+001
2.876605e+002, 5.589241e+001
2.881426e+002, 5.594445e+001
2.886248e+002, 5.586116e+001
2.891069e+002, 5.571914e+001
2.895890e+002, 5.555698e+001
2.900711e+002, 5.537730e+001
2.905532e+002, 5.523670e+001
2.910353e+002, 5.524485e+001
2.915175e+002, 5.514563e+001
2.919996e+002, 5.473672e+001
2.924817e+002, 5.416311e+001
2.929638e+002, 5.370209e+001
2.934459e+002, 5.354042e+001
2.939280e+002, 5.361620e+001
2.944102e+002, 5.365484e+001
2.948923e+002, 5.361540e+001
2.953744e+002, 5.360594e+001
2.958565e+002, 5.370372e+001
2.963386e+002, 5.383464e+001
2.968207e+002, 5.389375e+001
2.973029e+002, 5.382077e+001
2.977850e+002, 5.367701e+001
2.982671e+002, 5.361164e+001
2.987492e+002, 5.364197e+001
2.992313e+002, 5.372503e+001
2.997134e+002, 5.396014e+001
3.001956e+002, 5.418190e+001
3.006777e+002, 5.421759e+001
3.011598e+002, 5.400733e+001
3.016419e+002, 5.366558e+001
3.021240e+002, 5.336890e+001
3.026061e+002, 5.310499e+001
3.030883e+002, 5.292563e+001
3.035704e+002, 5.292596e+001
3.040525e+002, 5.294631e+001
3.045346e+002, 5.284035e+001
3.050167e+002, 5.259574e+001
3.054988e+002, 5.237062e+001
3.059810e+002, 5.242794e+001
3.064631e+002, 5.288776e+001
3.069452e+002, 5.306966e+001
3.074273e+002, 5.259083e+001
3.079094e+002, 5.209267e+001
3.083915e+002, 5.186958e+001
3.088737e+002, 5.191874e+001
3.093558e+002, 5.207218e+001
3.098379e+002, 5.220897e+001
3.103200e+002, 5.233332e+001
3.108021e+002, 5.235762e+001
3.112842e+002, 5.221294e+001
3.117664e+002, 5.202772e+001
3.122485e+002, 5.179613e+001
3.127306e+002, 5.155944e+001
3.132127e+002, 5.139388e+001
3.136948e+002, 5.136418e+001
3.141769e+002, 5.144892e+001
3.146591e+002, 5.152467e+001
3.151412e+002, 5.164439e+001
3.156233e+002, 5.167203e+001
3.161054e+002, 5.148146e+001
3.165875e+002, 5.121125e+001
3.170696e+002, 5.105336e+001
3.175518e+002, 5.111036e+001
3.180339e+002, 5.129891e+001
3.185160e+002, 5.142941e+001
3.189981e+002, 5.155373e+001
3.194802e+002, 5.149937e+001
3.199623e+002, 5.108188e+001
3.204445e+002, 5.057734e+001
3.209266e+002, 5.021857e+001
3.214087e+002, 5.007630e+001
3.218908e+002, 5.008994e+001
3.223729e+002, 5.018843e+001
3.228550e+002, 5.039478e+001
3.233372e+002, 5.060617e+001
3.238193e+002, 5.089904e+001
3.243014e+002, 5.112644e+001
3.247835e+002, 5.116900e+001
3.252656e+002, 5.102987e+001
3.257477e+002, 5.083723e+001
3.262299e+002, 5.073514e+001
3.267120e+002, 5.073964e+001
3.271941e+002, 5.065491e+001
3.276762e+002, 5.028412e+001
3.281583e+002, 5.000861e+001
3.286404e+002, 5.009009e+001
3.291226e+002, 5.041846e+001
3.296047e+002, 5.067207e+001
3.300868e+002, 5.058799e+001
3.305689e+002, 5.022345e+001
3.310510e+002, 4.996049e+001
3.315331e+002, 4.981665e+001
3.320153e+002, 4.976229e+001
3.324974e+002, 4.984750e+001
3.329795e+002, 4.998721e+001
3.334616e+002, 5.006334e+001
3.339437e+002, 5.002299e+001
3.344258e+002, 4.988484e+001
3.349080e+002, 4.965494e+001
3.353901e+002, 4.924645e+001
3.358722e+002, 4.897776e+001
3.363543e+002, 4.901326e+001
3.368365e+002, 4.918284e+001
3.373186e+002, 4.939166e+001
3.378007e+002, 4.962107e+001
3.382828e+002, 4.976722e+001
3.387649e+002, 4.964772e+001
3.392470e+002, 4.921615e+001
3.397292e+002, 4.886919e+001
3.402113e+002, 4.867875e+001
3.406934e+002, 4.860912e+001
3.411755e+002, 4.869196e+001
3.416576e+002, 4.890716e+001
3.421397e+002, 4.911244e+001
3.426219e+002, 4.917690e+001
3.431040e+002, 4.911370e+001
3.435861e+002, 4.907571e+001
3.440682e+002, 4.911528e+001
3.445503e+002, 4.911637e+001
3.450324e+002, 4.901311e+001
3.455146e+002, 4.882506e+001
3.459967e+002, 4.859440e+001
3.464788e+002, 4.826059e+001
3.469609e+002, 4.792598e+001
3.474430e+002, 4.789173e+001
3.479251e+002, 4.827824e+001
3.484073e+002, 4.863179e+001
3.488894e+002, 4.870462e+001
3.493715e+002, 4.862317e+001
3.498536e+002, 4.851968e+001
3.503357e+002, 4.842215e+001
3.508178e+002, 4.833158e+001
3.513000e+002, 4.826812e+001
3.517821e+002, 4.823646e+001
3.522642e+002, 4.814138e+001
3.527463e+002, 4.787768e+001
3.532284e+002, 4.759140e+001
3.537105e+002, 4.742762e+001
3.541927e+002, 4.739983e+001
3.546748e+002, 4.744658e+001
3.551569e+002, 4.761602e+001
3.556390e+002, 4.785066e+001
3.561211e+002, 4.785115e+001
3.566032e+002, 4.743073e+001
3.570854e+002, 4.699557e+001
3.575675e+002, 4.698660e+001
3.580496e+002, 4.731685e+001
3.585317e+002, 4.757480e+001
3.590138e+002, 4.755467e+001
3.594959e+002, 4.738271e+001
3.599781e+002, 4.724373e+001
3.604602e+002, 4.714591e+001
3.609423e+002, 4.709775e+001
3.614244e+002, 4.716928e+001
3.619065e+002, 4.728985e+001
3.623886e+002, 4.727480e+001
3.628708e+002, 4.694919e+001
3.633529e+002, 4.663472e+001
3.638350e+002, 4.664600e+001
3.643171e+002, 4.693581e+001
3.647992e+002, 4.718787e+001
3.652813e+002, 4.726978e+001
3.657635e+002, 4.722468e+001
3.662456e+002, 4.714814e+001
3.667277e+002, 4.704401e+001
3.672098e+002, 4.690474e+001
3.676919e+002, 4.668381e+001
3.681740e+002, 4.643269e+001
3.686562e+002, 4.624987e+001
3.691383e+002, 4.616207e+001
3.696204e+002, 4.613422e+001
3.701025e+002, 4.614594e+001
3.705846e+002, 4.620290e+001
3.710667e+002, 4.620818e+001
3.715489e+002, 4.612965e+001
3.720310e+002, 4.600797e+001
3.725131e+002, 4.583910e+001
3.729952e+002, 4.563762e+001
3.734773e+002, 4.552010e+001
3.739594e+002, 4.560156e+001
3.744416e+002, 4.585505e+001
3.749237e+002, 4.597011e+001
3.754058e+002, 4.587870e+001
3.758879e+002, 4.573976e+001
3.763700e+002, 4.555242e+001
3.768521e+002, 4.536725e+001
3.773343e+002, 4.530885e+001
3.778164e+002, 4.544580e+001
3.782985e+002, 4.567995e+001
3.787806e+002, 4.578041e+001
3.792627e+002, 4.566528e+001
3.797448e+002, 4.555116e+001
3.802270e+002, 4.541461e+001
3.807091e+002, 4.530575e+001
3.811912e+002, 4.528646e+001
3.816733e+002, 4.536206e+001
3.821554e+002, 4.547455e+001
3.826375e+002, 4.557022e+001
3.831197e+002, 4.566456e+001
3.836018e+002, 4.564597e+001
3.840839e+002, 4.535313e+001
3.845660e+002, 4.512341e+001
3.850481e+002, 4.517088e+001
3.855302e+002, 4.541216e+001
3.860124e+002, 4.561243e+001
3.864945e+002, 4.560955e+001
3.869766e+002, 4.545770e+001
3.874587e+002, 4.544838e+001
3.879408e+002, 4.579351e+001
3.884229e+002, 4.602978e+001
3.889051e+002, 4.605385e+001
3.893872e+002, 4.597516e+001
3.898693e+002, 4.587861e+001
3.903514e+002, 4.580037e+001
3.908335e+002, 4.577645e+001
3.913156e+002, 4.588223e+001
3.917978e+002, 4.618986e+001
3.922799e+002, 4.643080e+001
3.927620e+002, 4.652930e+001
3.932441e+002, 4.662893e+001
3.937262e+002, 4.680833e+001
3.942083e+002, 4.706040e+001
3.946905e+002, 4.733306e+001
3.951726e+002, 4.760263e+001
3.956547e+002, 4.786137e+001
3.961368e+002, 4.802460e+001
3.966189e+002, 4.804227e+001
3.971010e+002, 4.802818e+001
3.975832e+002, 4.798425e+001
3.980653e+002, 4.794512e+001
3.985474e+002, 4.794862e+001
3.990295e+002, 4.800669e+001
3.995116e+002, 4.812725e+001
3.999937e+002, 4.834100e+001
4.004759e+002, 4.866774e+001
4.009580e+002, 4.898409e+001
4.014401e+002, 4.929327e+001
4.019222e+002, 4.955418e+001
4.024043e+002, 4.964508e+001
4.028864e+002, 4.958792e+001
4.033686e+002, 4.969733e+001
4.038507e+002, 5.031548e+001
4.043328e+002, 5.131963e+001
4.048149e+002, 5.218762e+001
4.052970e+002, 5.289197e+001
4.057791e+002, 5.342521e+001
4.062613e+002, 5.362047e+001
4.067434e+002, 5.365343e+001
4.072255e+002, 5.390329e+001
4.077076e+002, 5.461058e+001
4.081897e+002, 5.546167e+001
4.086718e+002, 5.613420e+001
4.091540e+002, 5.663165e+001
4.096361e+002, 5.701691e+001
4.101182e+002, 5.734578e+001
4.106003e+002, 5.753434e+001
4.110824e+002, 5.748996e+001
4.115645e+002, 5.722498e+001
4.120467e+002, 5.671355e+001
4.125288e+002, 5.576308e+001
4.130109e+002, 5.460175e+001
4.134930e+002, 5.369155e+001
4.139751e+002, 5.315242e+001
4.144572e+002, 5.260369e+001
4.149394e+002, 5.160283e+001
4.154215e+002, 5.012500e+001
4.159036e+002, 4.887961e+001
4.163857e+002, 4.796528e+001
4.168678e+002, 4.723448e+001
4.173499e+002, 4.666657e+001
4.178321e+002, 4.622022e+001
4.183142e+002, 4.575478e+001
4.187963e+002, 4.517707e+001
4.192784e+002, 4.455891e+001
4.197605e+002, 4.415899e+001
4.202426e+002, 4.416956e+001
4.207248e+002, 4.412418e+001
4.212069e+002, 4.392510e+001
4.216890e+002, 4.367179e+001
4.221711e+002, 4.346916e+001
4.226532e+002, 4.333977e+001
4.231353e+002, 4.322734e+001
4.236175e+002, 4.305185e+001
4.240996e+002, 4.277212e+001
4.245817e+002, 4.264858e+001
4.250638e+002, 4.279449e+001
4.255459e+002, 4.295985e+001
4.260280e+002, 4.309484e+001
4.265102e+002, 4.316957e+001
4.269923e+002, 4.313734e+001
4.274744e+002, 4.296399e+001
4.279565e+002, 4.269213e+001
4.284386e+002, 4.246473e+001
4.289207e+002, 4.228092e+001
4.294029e+002, 4.214665e+001
4.298850e+002, 4.211354e+001
4.303671e+002, 4.208825e+001
4.308492e+002, 4.194636e+001
4.313313e+002, 4.169029e+001
4.318134e+002, 4.150189e+001
4.322956e+002, 4.167388e+001
4.327777e+002, 4.222301e+001
4.332598e+002, 4.241487e+001
4.337419e+002, 4.189831e+001
4.342241e+002, 4.146058e+001
4.347062e+002, 4.158506e+001
4.351883e+002, 4.202975e+001
4.356704e+002, 4.232461e+001
4.361525e+002, 4.223098e+001
4.366346e+002, 4.193594e+001
4.371168e+002, 4.171217e+001
4.375989e+002, 4.156332e+001
4.380810e+002, 4.144285e+001
4.385631e+002, 4.126390e+001
4.390452e+002, 4.117301e+001
4.395273e+002, 4.142118e+001
4.400095e+002, 4.206001e+001
4.404916e+002, 4.249690e+001
4.409737e+002, 4.224179e+001
4.414558e+002, 4.159545e+001
4.419379e+002, 4.120004e+001
4.424200e+002, 4.116350e+001
4.429022e+002, 4.119592e+001
4.433843e+002, 4.105866e+001
4.438664e+002, 4.078099e+001
4.443485e+002, 4.056156e+001
4.448306e+002, 4.040410e+001
4.453127e+002, 4.031206e+001
4.457949e+002, 4.030666e+001
4.462770e+002, 4.036883e+001
4.467591e+002, 4.044092e+001
4.472412e+002, 4.049450e+001
4.477233e+002, 4.057275e+001
4.482054e+002, 4.078160e+001
4.486876e+002, 4.129755e+001
4.491697e+002, 4.152946e+001
4.496518e+002, 4.121099e+001
4.501339e+002, 4.077675e+001
4.506160e+002, 4.056050e+001
4.510981e+002, 4.056696e+001
4.515803e+002, 4.060866e+001
4.520624e+002, 4.053320e+001
4.525445e+002, 4.035229e+001
4.530266e+002, 4.022206e+001
4.535087e+002, 4.012374e+001
4.539908e+002, 4.010550e+001
4.544730e+002, 4.027505e+001
4.549551e+002, 4.048395e+001
4.554372e+002, 4.053041e+001
4.559193e+002, 4.036391e+001
4.564014e+002, 4.016101e+001
4.568835e+002, 4.020037e+001
4.573657e+002, 4.055765e+001
4.578478e+002, 4.080999e+001
4.583299e+002, 4.082582e+001
4.588120e+002, 4.084618e+001
4.592941e+002, 4.102464e+001
4.597762e+002, 4.128651e+001
4.602584e+002, 4.144432e+001
4.607405e+002, 4.137273e+001
4.612226e+002, 4.116036e+001
4.617047e+002, 4.099045e+001
4.621868e+002, 4.087225e+001
4.626689e+002, 4.074608e+001
4.631511e+002, 4.053086e+001
4.636332e+002, 4.034256e+001
4.641153e+002, 4.030845e+001
4.645974e+002, 4.044462e+001
4.650795e+002, 4.061549e+001
4.655616e+002, 4.076408e+001
4.660438e+002, 4.088560e+001
4.665259e+002, 4.097777e+001
4.670080e+002, 4.104453e+001
4.674901e+002, 4.105080e+001
4.679722e+002, 4.092547e+001
4.684543e+002, 4.070815e+001
4.689365e+002, 4.059410e+001
4.694186e+002, 4.072258e+001
4.699007e+002, 4.082239e+001
4.703828e+002, 4.064924e+001
4.708649e+002, 4.035119e+001
4.713470e+002, 4.031311e+001
4.718292e+002, 4.069347e+001
4.723113e+002, 4.116433e+001
4.727934e+002, 4.118992e+001
4.732755e+002, 4.048951e+001
4.737576e+002, 4.016643e+001
4.742397e+002, 4.058456e+001
4.747219e+002, 4.104497e+001
4.752040e+002, 4.110810e+001
4.756861e+002, 4.084346e+001
4.761682e+002, 4.054400e+001
4.766503e+002, 4.039368e+001
4.771324e+002, 4.036177e+001
4.776146e+002, 4.032780e+001
4.780967e+002, 4.022950e+001
4.785788e+002, 4.023683e+001
4.790609e+002, 4.047223e+001
4.795430e+002, 4.073382e+001
4.800251e+002, 4.088113e+001
4.805073e+002, 4.088837e+001
4.809894e+002, 4.079398e+001
4.814715e+002, 4.057549e+001
4.819536e+002, 4.025355e+001
4.824357e+002, 4.012807e+001
4.829178e+002, 4.031639e+001
4.834000e+002, 4.050082e+001
4.838821e+002, 4.050501e+001
4.843642e+002, 4.043607e+001
4.848463e+002, 4.044769e+001
4.853284e+002, 4.060514e+001
4.858105e+002, 4.076617e+001
4.862927e+002, 4.076728e+001
4.867748e+002, 4.063707e+001
4.872569e+002, 4.055471e+001
4.877390e+002, 4.056421e+001
4.882211e+002, 4.061708e+001
4.887032e+002, 4.067558e+001
4.891854e+002, 4.073803e+001
4.896675e+002, 4.078988e+001
4.901496e+002, 4.083526e+001
4.906317e+002, 4.086368e+001
4.911138e+002, 4.086663e+001
4.915959e+002, 4.084516e+001
4.920781e+002, 4.080219e+001
4.925602e+002, 4.073808e+001
4.930423e+002, 4.065714e+001
4.935244e+002, 4.056826e+001
4.940065e+002, 4.047945e+001
4.944886e+002, 4.036568e+001
4.949708e+002, 4.018825e+001
4.954529e+002, 4.001401e+001
4.959350e+002, 3.988305e+001
4.964171e+002, 3.980158e+001
4.968992e+002, 3.976292e+001
4.973813e+002, 3.976259e+001
4.978635e+002, 3.979975e+001
4.983456e+002, 3.987389e+001
4.988277e+002, 4.002108e+001
4.993098e+002, 4.015150e+001
4.997919e+002, 4.033229e+001
5.002740e+002, 4.044284e+001
5.007562e+002, 4.030522e+001
5.012383e+002, 3.992218e+001
5.017204e+002, 3.956775e+001
5.022025e+002, 3.959394e+001
5.026846e+002, 3.995345e+001
5.031667e+002, 4.005693e+001
5.036489e+002, 3.975207e+001
5.041310e+002, 3.946870e+001
5.046131e+002, 3.946572e+001
5.050952e+002, 3.962015e+001
5.055773e+002, 3.976865e+001
5.060594e+002, 3.988240e+001
5.065416e+002, 3.996518e+001
5.070237e+002, 3.999965e+001
5.075058e+002, 4.000232e+001
5.079879e+002, 4.004975e+001
5.084700e+002, 4.018069e+001
5.089521e+002, 4.027946e+001
5.094343e+002, 4.020020e+001
5.099164e+002, 3.994177e+001
5.103985e+002, 3.972346e+001
5.108806e+002, 3.952311e+001
5.113627e+002, 3.939944e+001
5.118448e+002, 3.943589e+001
5.123270e+002, 3.957176e+001
5.128091e+002, 3.966969e+001
5.132912e+002, 3.966988e+001
5.137733e+002, 3.962123e+001
5.142554e+002, 3.961958e+001
5.147375e+002, 3.972926e+001
5.152197e+002, 3.972938e+001
5.157018e+002, 3.939552e+001
5.161839e+002, 3.917651e+001
5.166660e+002, 3.944799e+001
5.171481e+002, 4.002648e+001
5.176302e+002, 4.044344e+001
5.181124e+002, 4.040713e+001
5.185945e+002, 4.006963e+001
5.190766e+002, 3.980558e+001
5.195587e+002, 3.961543e+001
5.200408e+002, 3.949369e+001
5.205229e+002, 3.957084e+001
5.210051e+002, 3.961567e+001
5.214872e+002, 3.939262e+001
5.219693e+002, 3.894759e+001
5.224514e+002, 3.862548e+001
5.229335e+002, 3.872804e+001
5.234156e+002, 3.905336e+001
5.238978e+002, 3.924133e+001
5.243799e+002, 3.928603e+001
5.248620e+002, 3.924389e+001
5.253441e+002, 3.910513e+001
5.258262e+002, 3.892339e+001
5.263083e+002, 3.880883e+001
5.267905e+002, 3.876837e+001
5.272726e+002, 3.876487e+001
5.277547e+002, 3.884336e+001
5.282368e+002, 3.892255e+001
5.287189e+002, 3.889427e+001
5.292010e+002, 3.876044e+001
5.296832e+002, 3.861372e+001
5.301653e+002, 3.851517e+001
5.306474e+002, 3.846704e+001
5.311295e+002, 3.848185e+001
5.316116e+002, 3.860729e+001
5.320938e+002, 3.873826e+001
5.325759e+002, 3.887460e+001
5.330580e+002, 3.900702e+001
5.335401e+002, 3.914965e+001
5.340222e+002, 3.929061e+001
5.345043e+002, 3.937575e+001
5.349865e+002, 3.934752e+001
5.354686e+002, 3.921242e+001
5.359507e+002, 3.903709e+001
5.364328e+002, 3.875747e+001
5.369149e+002, 3.855954e+001
5.373970e+002, 3.860823e+001
5.378792e+002, 3.872023e+001
5.383613e+002, 3.866311e+001
5.388434e+002, 3.837290e+001
5.393255e+002, 3.814461e+001
5.398076e+002, 3.830962e+001
5.402897e+002, 3.869973e+001
5.407719e+002, 3.881039e+001
5.412540e+002, 3.853701e+001
5.417361e+002, 3.830217e+001
5.422182e+002, 3.846642e+001
5.427003e+002, 3.892752e+001
5.431824e+002, 3.916102e+001
5.436646e+002, 3.897692e+001
5.441467e+002, 3.881743e+001
5.446288e+002, 3.884846e+001
5.451109e+002, 3.898484e+001
5.455930e+002, 3.913917e+001
5.460751e+002, 3.928328e+001
5.465573e+002, 3.938433e+001
5.470394e+002, 3.940723e+001
5.475215e+002, 3.935017e+001
5.480036e+002, 3.926686e+001
5.484857e+002, 3.909206e+001
5.489678e+002, 3.896465e+001
5.494500e+002, 3.892292e+001
5.499321e+002, 3.893435e+001
5.504142e+002, 3.895743e+001
5.508963e+002, 3.898309e+001
5.513784e+002, 3.904335e+001
5.518605e+002, 3.922105e+001
5.523427e+002, 3.949958e+001
5.528248e+002, 3.960919e+001
5.533069e+002, 3.946055e+001
5.537890e+002, 3.930925e+001
5.542711e+002, 3.932253e+001
5.547532e+002, 3.941861e+001
5.552354e+002, 3.948745e+001
5.557175e+002, 3.951210e+001
5.561996e+002, 3.950533e+001
5.566817e+002, 3.946601e+001
5.571638e+002, 3.940305e+001
5.576459e+002, 3.930062e+001
5.581281e+002, 3.915399e+001
5.586102e+002, 3.910359e+001
5.590923e+002, 3.931840e+001
5.595744e+002, 3.977562e+001
5.600565e+002, 3.997921e+001
5.605386e+002, 3.966858e+001
5.610208e+002, 3.947012e+001
5.615029e+002, 3.961957e+001
5.619850e+002, 3.991177e+001
5.624671e+002, 4.014877e+001
5.629492e+002, 4.026904e+001
5.634313e+002, 4.025336e+001
5.639135e+002, 4.002089e+001
5.643956e+002, 3.958085e+001
5.648777e+002, 3.950514e+001
5.653598e+002, 4.014785e+001
5.658419e+002, 4.059089e+001
5.663240e+002, 4.039652e+001
5.668062e+002, 3.996766e+001
5.672883e+002, 3.971984e+001
5.677704e+002, 3.974276e+001
5.682525e+002, 3.986108e+001
5.687346e+002, 3.988494e+001
5.692167e+002, 3.990322e+001
5.696989e+002, 4.029296e+001
5.701810e+002, 4.116786e+001
5.706631e+002, 4.174691e+001
5.711452e+002, 4.139009e+001
5.716273e+002, 4.039876e+001
5.721094e+002, 3.984203e+001
5.725916e+002, 3.993209e+001
5.730737e+002, 4.003858e+001
5.735558e+002, 3.997321e+001
5.740379e+002, 3.985123e+001
5.745200e+002, 3.978704e+001
5.750021e+002, 3.979665e+001
5.754843e+002, 3.984804e+001
5.759664e+002, 3.991806e+001
5.764485e+002, 4.000479e+001
5.769306e+002, 4.010201e+001
5.774127e+002, 4.025584e+001
5.778948e+002, 4.034089e+001
5.783770e+002, 4.032341e+001
5.788591e+002, 4.025139e+001
5.793412e+002, 4.011011e+001
5.798233e+002, 3.993077e+001
5.803054e+002, 3.983977e+001
5.807875e+002, 3.997442e+001
5.812697e+002, 4.024596e+001
5.817518e+002, 4.043193e+001
5.822339e+002, 4.052600e+001
5.827161e+002, 4.060246e+001
5.831982e+002, 4.072438e+001
5.836803e+002, 4.080954e+001
5.841624e+002, 4.070240e+001
5.846445e+002, 4.037621e+001
5.851266e+002, 4.013096e+001
5.856088e+002, 4.008104e+001
5.860909e+002, 4.011724e+001
5.865730e+002, 4.014588e+001
5.870551e+002, 4.017383e+001
5.875372e+002, 4.026710e+001
5.880193e+002, 4.046696e+001
5.885015e+002, 4.070281e+001
5.889836e+002, 4.082068e+001
5.894657e+002, 4.081054e+001
5.899478e+002, 4.069740e+001
5.904299e+002, 4.031840e+001
5.909120e+002, 4.000535e+001
5.913942e+002, 3.992677e+001
5.918763e+002, 4.003863e+001
5.923584e+002, 4.024824e+001
5.928405e+002, 4.053385e+001
5.933226e+002, 4.081144e+001
5.938047e+002, 4.091736e+001
5.942869e+002, 4.085603e+001
5.947690e+002, 4.089848e+001
5.952511e+002, 4.115572e+001
5.957332e+002, 4.141354e+001
5.962153e+002, 4.143891e+001
5.966974e+002, 4.130120e+001
5.971796e+002, 4.123436e+001
5.976617e+002, 4.134149e+001
5.981438e+002, 4.145204e+001
5.986259e+002, 4.144411e+001
5.991080e+002, 4.138508e+001
5.995901e+002, 4.137984e+001
6.000723e+002, 4.145744e+001
6.005544e+002, 4.162592e+001
6.010365e+002, 4.192252e+001
6.015186e+002, 4.235523e+001
6.020007e+002, 4.258235e+001
6.024828e+002, 4.238667e+001
6.029650e+002, 4.224495e+001
6.034471e+002, 4.223809e+001
6.039292e+002, 4.232159e+001
6.044113e+002, 4.247183e+001
6.048934e+002, 4.267315e+001
6.053755e+002, 4.287225e+001
6.058577e+002, 4.300476e+001
6.063398e+002, 4.309635e+001
6.068219e+002, 4.321858e+001
6.073040e+002, 4.335360e+001
6.077861e+002, 4.364960e+001
6.082682e+002, 4.436800e+001
6.087504e+002, 4.514168e+001
6.092325e+002, 4.527433e+001
6.097146e+002, 4.461942e+001
6.101967e+002, 4.415666e+001
6.106788e+002, 4.423106e+001
6.111609e+002, 4.453618e+001
6.116431e+002, 4.486095e+001
6.121252e+002, 4.517347e+001
6.126073e+002, 4.545893e+001
6.130894e+002, 4.570937e+001
6.135715e+002, 4.593025e+001
6.140536e+002, 4.615003e+001
6.145358e+002, 4.644665e+001
6.150179e+002, 4.654528e+001
6.155000e+002, 4.621589e+001
6.159821e+002, 4.591899e+001
6.164642e+002, 4.585457e+001
6.169464e+002, 4.596223e+001
6.174285e+002, 4.610358e+001
6.179106e+002, 4.622246e+001
6.183927e+002, 4.637096e+001
6.188748e+002, 4.670109e+001
6.193569e+002, 4.714290e+001
6.198391e+002, 4.727985e+001
6.203212e+002, 4.698461e+001
6.208033e+002, 4.663105e+001
6.212854e+002, 4.650104e+001
6.217675e+002, 4.657170e+001
6.222496e+002, 4.666594e+001
6.227318e+002, 4.694041e+001
6.232139e+002, 4.703450e+001
6.236960e+002, 4.672865e+001
6.241781e+002, 4.626339e+001
6.246602e+002, 4.586760e+001
6.251423e+002, 4.558236e+001
6.256245e+002, 4.537400e+001
6.261066e+002, 4.522984e+001
6.265887e+002, 4.512307e+001
6.270708e+002, 4.490765e+001
6.275529e+002, 4.449044e+001
6.280350e+002, 4.419370e+001
6.285172e+002, 4.425343e+001
6.289993e+002, 4.432178e+001
6.294814e+002, 4.409880e+001
6.299635e+002, 4.364787e+001
6.304456e+002, 4.334135e+001
6.309277e+002, 4.343797e+001
6.314099e+002, 4.367754e+001
6.318920e+002, 4.384290e+001
6.323741e+002, 4.391496e+001
6.328562e+002, 4.376945e+001
6.333383e+002, 4.334036e+001
6.338204e+002, 4.285673e+001
6.343026e+002, 4.259290e+001
6.347847e+002, 4.257332e+001
6.352668e+002, 4.254999e+001
6.357489e+002, 4.247034e+001
6.362310e+002, 4.244894e+001
6.367131e+002, 4.252838e+001
6.371953e+002, 4.267886e+001
6.376774e+002, 4.293280e+001
6.381595e+002, 4.326028e+001
6.386416e+002, 4.345943e+001
6.391237e+002, 4.325708e+001
6.396058e+002, 4.275304e+001
6.400880e+002, 4.246926e+001
6.405701e+002, 4.244704e+001
6.410522e+002, 4.248564e+001
6.415343e+002, 4.252415e+001
6.420164e+002, 4.257487e+001
6.424985e+002, 4.264361e+001
6.429807e+002, 4.272808e+001
6.434628e+002, 4.286474e+001
6.439449e+002, 4.312551e+001
6.444270e+002, 4.339162e+001
6.449091e+002, 4.355293e+001
6.453912e+002, 4.364042e+001
6.458734e+002, 4.375287e+001
6.463555e+002, 4.392976e+001
6.468376e+002, 4.411922e+001
6.473197e+002, 4.423515e+001
6.478018e+002, 4.426246e+001
6.482839e+002, 4.430224e+001
6.487661e+002, 4.433042e+001
6.492482e+002, 4.440303e+001
6.497303e+002, 4.458159e+001
6.502124e+002, 4.479137e+001
6.506945e+002, 4.493081e+001
6.511766e+002, 4.497561e+001
6.516588e+002, 4.501751e+001
6.521409e+002, 4.518716e+001
6.526230e+002, 4.538331e+001
6.531051e+002, 4.535640e+001
6.535872e+002, 4.509974e+001
6.540693e+002, 4.487344e+001
6.545515e+002, 4.483044e+001
6.550336e+002, 4.486971e+001
6.555157e+002, 4.477508e+001
6.559978e+002, 4.447124e+001
6.564799e+002, 4.420424e+001
6.569620e+002, 4.409685e+001
6.574442e+002, 4.390789e+001
6.579263e+002, 4.334843e+001
6.584084e+002, 4.265506e+001
6.588905e+002, 4.229599e+001
6.593726e+002, 4.246131e+001
6.598547e+002, 4.276321e+001
6.603369e+002, 4.270695e+001
6.608190e+002, 4.231034e+001
6.613011e+002, 4.177277e+001
6.617832e+002, 4.098933e+001
6.622653e+002, 4.039352e+001
6.627474e+002, 4.034179e+001
6.632296e+002, 4.059034e+001
6.637117e+002, 4.064588e+001
6.641938e+002, 4.044601e+001
6.646759e+002, 4.023556e+001
6.651580e+002, 4.006871e+001
6.656401e+002, 3.993976e+001
6.661223e+002, 3.984517e+001
6.666044e+002, 3.978399e+001
6.670865e+002, 3.977897e+001
6.675686e+002, 3.984640e+001
6.680507e+002, 3.990722e+001
6.685328e+002, 3.978460e+001
6.690150e+002, 3.941168e+001
6.694971e+002, 3.913947e+001
6.699792e+002, 3.894757e+001
6.704613e+002, 3.889936e+001
6.709434e+002, 3.909925e+001
6.714255e+002, 3.941767e+001
6.719077e+002, 3.967536e+001
6.723898e+002, 3.984247e+001
6.728719e+002, 3.990949e+001
6.733540e+002, 3.982391e+001
6.738361e+002, 3.965647e+001
6.743182e+002, 3.948793e+001
6.748004e+002, 3.933547e+001
6.752825e+002, 3.925201e+001
6.757646e+002, 3.926940e+001
6.762467e+002, 3.937104e+001
6.767288e+002, 3.952942e+001
6.772109e+002, 3.981797e+001
6.776931e+002, 3.999027e+001
6.781752e+002, 3.992458e+001
6.786573e+002, 3.988063e+001
6.791394e+002, 3.996395e+001
6.796215e+002, 4.014503e+001
6.801036e+002, 4.039879e+001
6.805858e+002, 4.072549e+001
6.810679e+002, 4.098552e+001
6.815500e+002, 4.098014e+001
6.820321e+002, 4.080586e+001
6.825142e+002, 4.073060e+001
6.829963e+002, 4.077717e+001
6.834785e+002, 4.091871e+001
6.839606e+002, 4.118400e+001
6.844427e+002, 4.148501e+001
6.849248e+002, 4.160969e+001
6.854069e+002, 4.146103e+001
6.858890e+002, 4.136002e+001
6.863712e+002, 4.133420e+001
6.868533e+002, 4.133778e+001
6.873354e+002, 4.130728e+001
6.878175e+002, 4.129921e+001
6.882996e+002, 4.143146e+001
6.887817e+002, 4.174700e+001
6.892639e+002, 4.212725e+001
6.897460e+002, 4.245321e+001
6.902281e+002, 4.272476e+001
6.907102e+002, 4.291507e+001
6.911923e+002, 4.301093e+001
6.916744e+002, 4.307784e+001
6.921566e+002, 4.313383e+001
6.926387e+002, 4.319035e+001
6.931208e+002, 4.327409e+001
6.936029e+002, 4.339573e+001
6.940850e+002, 4.349442e+001
6.945671e+002, 4.350143e+001
6.950493e+002, 4.353782e+001
6.955314e+002, 4.369874e+001
6.960135e+002, 4.394383e+001
6.964956e+002, 4.422103e+001
6.969777e+002, 4.450240e+001
6.974598e+002, 4.470302e+001
6.979420e+002, 4.466246e+001
6.984241e+002, 4.439472e+001
6.989062e+002, 4.429499e+001
6.993883e+002, 4.444789e+001
6.998704e+002, 4.452799e+001
7.003525e+002, 4.432885e+001
7.008347e+002, 4.403181e+001
7.013168e+002, 4.388929e+001
7.017989e+002, 4.391649e+001
7.022810e+002, 4.393925e+001
7.027631e+002, 4.390671e+001
7.032452e+002, 4.385942e+001
7.037274e+002, 4.385825e+001
7.042095e+002, 4.385746e+001
7.046916e+002, 4.372396e+001
7.051737e+002, 4.343024e+001
7.056558e+002, 4.315988e+001
7.061379e+002, 4.315210e+001
7.066201e+002, 4.338819e+001
7.071022e+002, 4.352826e+001
7.075843e+002, 4.357714e+001
7.080664e+002, 4.351618e+001
7.085485e+002, 4.322880e+001
7.090306e+002, 4.290838e+001
7.095128e+002, 4.276632e+001
7.099949e+002, 4.278956e+001
7.104770e+002, 4.274120e+001
7.109591e+002, 4.244971e+001
7.114412e+002, 4.215385e+001
7.119233e+002, 4.205371e+001
7.124055e+002, 4.206909e+001
7.128876e+002, 4.205122e+001
7.133697e+002, 4.196152e+001
7.138518e+002, 4.183694e+001
7.143339e+002, 4.171143e+001
7.148160e+002, 4.158473e+001
7.152982e+002, 4.143952e+001
7.157803e+002, 4.120959e+001
7.162624e+002, 4.111798e+001
7.167445e+002, 4.129407e+001
7.172266e+002, 4.155451e+001
7.177087e+002, 4.182965e+001
7.181909e+002, 4.209018e+001
7.186730e+002, 4.223413e+001
7.191551e+002, 4.216077e+001
7.196372e+002, 4.205393e+001
7.201193e+002, 4.204523e+001
7.206014e+002, 4.208393e+001
7.210836e+002, 4.206963e+001
7.215657e+002, 4.199499e+001
7.220478e+002, 4.194707e+001
7.225299e+002, 4.199495e+001
7.230120e+002, 4.211178e+001
7.234941e+002, 4.221347e+001
7.239763e+002, 4.233777e+001
7.244584e+002, 4.233886e+001
7.249405e+002, 4.207328e+001
7.254226e+002, 4.181861e+001
7.259047e+002, 4.171154e+001
7.263868e+002, 4.172538e+001
7.268690e+002, 4.180329e+001
7.273511e+002, 4.194723e+001
7.278332e+002, 4.211015e+001
7.283153e+002, 4.232111e+001
7.287974e+002, 4.250279e+001
7.292795e+002, 4.250516e+001
7.297617e+002, 4.235673e+001
7.302438e+002, 4.224497e+001
7.307259e+002, 4.227018e+001
7.312080e+002, 4.240161e+001
7.316901e+002, 4.258889e+001
7.321722e+002, 4.284924e+001
7.326544e+002, 4.308992e+001
7.331365e+002, 4.331896e+001
7.336186e+002, 4.351720e+001
7.341007e+002, 4.367933e+001
7.345828e+002, 4.380737e+001
7.350649e+002, 4.390023e+001
7.355471e+002, 4.395681e+001
7.360292e+002, 4.399221e+001
7.365113e+002, 4.396595e+001
7.369934e+002, 4.395898e+001
7.374755e+002, 4.408842e+001
7.379576e+002, 4.430569e+001
7.384398e+002, 4.444118e+001
7.389219e+002, 4.443907e+001
7.394040e+002, 4.445366e+001
7.398861e+002, 4.469944e+001
7.403682e+002, 4.517117e+001
7.408503e+002, 4.550298e+001
7.413325e+002, 4.568700e+001
7.418146e+002, 4.574475e+001
7.422967e+002, 4.556384e+001
7.427788e+002, 4.534599e+001
7.432609e+002, 4.521272e+001
7.437430e+002, 4.518038e+001
7.442252e+002, 4.532005e+001
7.447073e+002, 4.582739e+001
7.451894e+002, 4.632953e+001
7.456715e+002, 4.660073e+001
7.461536e+002, 4.670172e+001
7.466357e+002, 4.665736e+001
7.471179e+002, 4.651443e+001
7.476000e+002, 4.647562e+001
7.480821e+002, 4.672173e+001
7.485642e+002, 4.713972e+001
7.490463e+002, 4.734618e+001
7.495284e+002, 4.728956e+001
7.500106e+002, 4.726175e+001
7.504927e+002, 4.731168e+001
7.509748e+002, 4.738382e+001
7.514569e+002, 4.751723e+001
7.519390e+002, 4.763473e+001
7.524211e+002, 4.752202e+001
7.529033e+002, 4.697615e+001
7.533854e+002, 4.662617e+001
7.538675e+002, 4.686796e+001
7.543496e+002, 4.727786e+001
7.548317e+002, 4.749541e+001
7.553138e+002, 4.752492e+001
7.557960e+002, 4.748409e+001
7.562781e+002, 4.742649e+001
7.567602e+002, 4.735842e+001
7.572423e+002, 4.729657e+001
7.577244e+002, 4.723964e+001
7.582065e+002, 4.712514e+001
7.586887e+002, 4.692720e+001
7.591708e+002, 4.675988e+001
7.596529e+002, 4.667964e+001
7.601350e+002, 4.665020e+001
7.606171e+002, 4.664443e+001
7.610992e+002, 4.667360e+001
7.615814e+002, 4.659616e+001
7.620635e+002, 4.624116e+001
7.625456e+002, 4.595021e+001
7.630277e+002, 4.597535e+001
7.635098e+002, 4.610665e+001
7.639919e+002, 4.604082e+001
7.644741e+002, 4.575196e+001
7.649562e+002, 4.547436e+001
7.654383e+002, 4.541279e+001
7.659204e+002, 4.545691e+001
7.664025e+002, 4.531417e+001
7.668846e+002, 4.499624e+001
7.673668e+002, 4.486871e+001
7.678489e+002, 4.505880e+001
7.683310e+002, 4.527094e+001
7.688131e+002, 4.525718e+001
7.692952e+002, 4.505565e+001
7.697773e+002, 4.488588e+001
7.702595e+002, 4.474308e+001
7.707416e+002, 4.463548e+001
7.712237e+002, 4.463892e+001
7.717058e+002, 4.460761e+001
7.721879e+002, 4.434546e+001
7.726700e+002, 4.399924e+001
7.731522e+002, 4.390842e+001
7.736343e+002, 4.421843e+001
7.741164e+002, 4.455558e+001
7.745985e+002, 4.457009e+001
7.750806e+002, 4.434845e+001
7.755627e+002, 4.400127e+001
7.760449e+002, 4.356267e+001
7.765270e+002, 4.332795e+001
7.770091e+002, 4.344849e+001
7.774912e+002, 4.372923e+001
7.779733e+002, 4.388563e+001
7.784554e+002, 4.390867e+001
7.789376e+002, 4.389401e+001
7.794197e+002, 4.387397e+001
7.799019e+002, 4.376846e+001
7.803840e+002, 4.344756e+001
7.808661e+002, 4.312041e+001
7.813482e+002, 4.296984e+001
7.818303e+002, 4.299501e+001
7.823124e+002, 4.309480e+001
7.827946e+002, 4.330553e+001
7.832767e+002, 4.347881e+001
7.837588e+002, 4.348324e+001
7.842409e+002, 4.336985e+001
7.847230e+002, 4.320751e+001
7.852051e+002, 4.301855e+001
7.856873e+002, 4.283762e+001
7.861694e+002, 4.268904e+001
7.866515e+002, 4.256735e+001
7.871336e+002, 4.243859e+001
7.876157e+002, 4.227496e+001
7.880978e+002, 4.228912e+001
7.885800e+002, 4.266253e+001
7.890621e+002, 4.292761e+001
7.895442e+002, 4.268439e+001
7.900263e+002, 4.223809e+001
7.905084e+002, 4.210894e+001
7.909905e+002, 4.240096e+001
7.914727e+002, 4.257964e+001
7.919548e+002, 4.237045e+001
7.924369e+002, 4.215242e+001
7.929190e+002, 4.222567e+001
7.934011e+002, 4.243236e+001
7.938832e+002, 4.246178e+001
7.943654e+002, 4.226058e+001
7.948475e+002, 4.208520e+001
7.953296e+002, 4.219975e+001
7.958117e+002, 4.247673e+001
7.962938e+002, 4.255831e+001
7.967759e+002, 4.244791e+001
7.972581e+002, 4.237449e+001
7.977402e+002, 4.240405e+001
7.982223e+002, 4.242416e+001
7.987044e+002, 4.230991e+001
7.991865e+002, 4.210252e+001
7.996686e+002, 4.204863e+001
8.001508e+002, 4.231271e+001
8.006329e+002, 4.249559e+001
8.011150e+002, 4.258376e+001
8.015971e+002, 4.259737e+001
8.020792e+002, 4.251031e+001
8.025613e+002, 4.236957e+001
8.030435e+002, 4.226812e+001
8.035256e+002, 4.224059e+001
8.040077e+002, 4.216616e+001
8.044898e+002, 4.184216e+001
8.049719e+002, 4.148677e+001
8.054540e+002, 4.148999e+001
8.059362e+002, 4.176764e+001
8.064183e+002, 4.191228e+001
8.069004e+002, 4.178017e+001
8.073825e+002, 4.156668e+001
8.078646e+002, 4.149004e+001
8.083467e+002, 4.154388e+001
8.088289e+002, 4.167394e+001
8.093110e+002, 4.197223e+001
8.097931e+002, 4.208620e+001
8.102752e+002, 4.177075e+001
8.107573e+002, 4.143309e+001
8.112394e+002, 4.147358e+001
8.117216e+002, 4.176135e+001
8.122037e+002, 4.185840e+001
8.126858e+002, 4.159828e+001
8.131679e+002, 4.134530e+001
8.136500e+002, 4.119855e+001
8.141321e+002, 4.112712e+001
8.146143e+002, 4.116404e+001
8.150964e+002, 4.124551e+001
8.155785e+002, 4.120631e+001
8.160606e+002, 4.098237e+001
8.165427e+002, 4.077739e+001
8.170248e+002, 4.088190e+001
8.175070e+002, 4.119402e+001
8.179891e+002, 4.133856e+001
8.184712e+002, 4.131041e+001
8.189533e+002, 4.131051e+001
8.194354e+002, 4.142425e+001
8.199175e+002, 4.153041e+001
8.203997e+002, 4.147272e+001
8.208818e+002, 4.125526e+001
8.213639e+002, 4.112850e+001
8.218460e+002, 4.121642e+001
8.223281e+002, 4.120998e+001
8.228102e+002, 4.090348e+001
8.232924e+002, 4.065539e+001
8.237745e+002, 4.077883e+001
8.242566e+002, 4.114354e+001
8.247387e+002, 4.140005e+001
8.252208e+002, 4.144429e+001
8.257029e+002, 4.138877e+001
8.261851e+002, 4.125290e+001
8.266672e+002, 4.108910e+001
8.271493e+002, 4.092655e+001
8.276314e+002, 4.079123e+001
8.281135e+002, 4.078674e+001
8.285956e+002, 4.094343e+001
8.290778e+002, 4.105224e+001
8.295599e+002, 4.077370e+001
8.300420e+002, 4.021253e+001
8.305241e+002, 4.017324e+001
8.310062e+002, 4.077093e+001
8.314883e+002, 4.110300e+001
8.319705e+002, 4.081687e+001
8.324526e+002, 4.040761e+001
8.329347e+002, 4.038103e+001
8.334168e+002, 4.067862e+001
8.338989e+002, 4.073625e+001
8.343810e+002, 4.027871e+001
8.348632e+002, 4.000378e+001
8.353453e+002, 4.004836e+001
8.358274e+002, 4.021950e+001
8.363095e+002, 4.047215e+001
8.367916e+002, 4.074004e+001
8.372737e+002, 4.094406e+001
8.377559e+002, 4.106484e+001
8.382380e+002, 4.105648e+001
8.387201e+002, 4.076059e+001
8.392022e+002, 4.039891e+001
8.396843e+002, 4.031084e+001
8.401664e+002, 4.042472e+001
8.406486e+002, 4.049910e+001
8.411307e+002, 4.045663e+001
8.416128e+002, 4.029296e+001
8.420949e+002, 3.996471e+001
8.425770e+002, 3.955132e+001
8.430591e+002, 3.944817e+001
8.435413e+002, 3.971346e+001
8.440234e+002, 4.001138e+001
8.445055e+002, 4.036652e+001
8.449876e+002, 4.059900e+001
8.454697e+002, 4.051844e+001
8.459518e+002, 4.023776e+001
8.464340e+002, 4.007865e+001
8.469161e+002, 4.004772e+001
8.473982e+002, 4.011374e+001
8.478803e+002, 4.048880e+001
8.483624e+002, 4.072654e+001
8.488445e+002, 4.048177e+001
8.493267e+002, 4.002448e+001
8.498088e+002, 3.969573e+001
8.502909e+002, 3.956655e+001
8.507730e+002, 3.956031e+001
8.512551e+002, 3.972138e+001
8.517372e+002, 3.988417e+001
8.522194e+002, 3.979823e+001
8.527015e+002, 3.956570e+001
8.531836e+002, 3.946064e+001
8.536657e+002, 3.951554e+001
8.541478e+002, 3.953661e+001
8.546299e+002, 3.938400e+001
8.551121e+002, 3.915609e+001
8.555942e+002, 3.908265e+001
8.560763e+002, 3.918456e+001
8.565584e+002, 3.928027e+001
8.570405e+002, 3.938997e+001
8.575226e+002, 3.941709e+001
8.580048e+002, 3.924515e+001
8.584869e+002, 3.903385e+001
8.589690e+002, 3.906869e+001
8.594511e+002, 3.937640e+001
8.599332e+002, 3.945789e+001
8.604153e+002, 3.904742e+001
8.608975e+002, 3.872807e+001
8.613796e+002, 3.876011e+001
8.618617e+002, 3.886838e+001
8.623438e+002, 3.876979e+001
8.628259e+002, 3.852784e+001
8.633080e+002, 3.843373e+001
8.637902e+002, 3.865705e+001
8.642723e+002, 3.884618e+001
8.647544e+002, 3.862427e+001
8.652365e+002, 3.822760e+001
8.657186e+002, 3.800233e+001
8.662007e+002, 3.794877e+001
8.666829e+002, 3.799938e+001
8.671650e+002, 3.812115e+001
8.676471e+002, 3.817091e+001
8.681292e+002, 3.793576e+001
8.686113e+002, 3.749063e+001
8.690934e+002, 3.731365e+001
8.695756e+002, 3.744874e+001
8.700577e+002, 3.753234e+001
8.705398e+002, 3.747627e+001
8.710219e+002, 3.738110e+001
8.715040e+002, 3.734253e+001
8.719861e+002, 3.732345e+001
8.724683e+002, 3.717359e+001
8.729504e+002, 3.671048e+001
8.734325e+002, 3.646243e+001
8.739146e+002, 3.662951e+001
8.743967e+002, 3.679019e+001
8.748788e+002, 3.675649e+001
8.753610e+002, 3.661881e+001
8.758431e+002, 3.647638e+001
8.763252e+002, 3.635140e+001
8.768073e+002, 3.628629e+001
8.772894e+002, 3.636338e+001
8.777715e+002, 3.644260e+001
8.782537e+002, 3.639281e+001
8.787358e+002, 3.628640e+001
8.792179e+002, 3.624194e+001
8.797000e+002, 3.625911e+001
8.801821e+002, 3.626793e+001
8.806642e+002, 3.623294e+001
8.811464e+002, 3.612706e+001
8.816285e+002, 3.587946e+001
8.821106e+002, 3.551745e+001
8.825927e+002, 3.515434e+001
8.830748e+002, 3.479212e+001
8.835569e+002, 3.462428e+001
8.840391e+002, 3.476332e+001
8.845212e+002, 3.496952e+001
8.850033e+002, 3.493850e+001
8.854854e+002, 3.469083e+001
8.859675e+002, 3.464727e+001
8.864496e+002, 3.495353e+001
8.869318e+002, 3.517672e+001
8.874139e+002, 3.530512e+001
8.878960e+002, 3.529091e+001
8.883781e+002, 3.502444e+001
8.888602e+002, 3.462261e+001
8.893423e+002, 3.430107e+001
8.898245e+002, 3.407386e+001
8.903066e+002, 3.396066e+001
8.907887e+002, 3.409239e+001
8.912708e+002, 3.420502e+001
8.917529e+002, 3.408775e+001
8.922350e+002, 3.388487e+001
8.927172e+002, 3.383155e+001
8.931993e+002, 3.392930e+001
8.936814e+002, 3.395428e+001
8.941635e+002, 3.374854e+001
8.946456e+002, 3.345752e+001
8.951277e+002, 3.318064e+001
8.956099e+002, 3.297422e+001
8.960920e+002, 3.304613e+001
8.965741e+002, 3.335950e+001
8.970562e+002, 3.357092e+001
8.975383e+002, 3.351456e+001
8.980204e+002, 3.332586e+001
8.985026e+002, 3.319903e+001
8.989847e+002, 3.312504e+001
8.994668e+002, 3.298195e+001
8.999489e+002, 3.275383e+001
9.004310e+002, 3.252105e+001
9.009131e+002, 3.225336e+001
9.013953e+002, 3.211533e+001
9.018774e+002, 3.234587e+001
9.023595e+002, 3.281022e+001
9.028416e+002, 3.287883e+001
9.033237e+002, 3.217408e+001
9.038058e+002, 3.176203e+001
9.042880e+002, 3.179973e+001
9.047701e+002, 3.193764e+001
9.052522e+002, 3.217620e+001
9.057343e+002, 3.235878e+001
9.062164e+002, 3.224728e+001
9.066985e+002, 3.184004e+001
9.071807e+002, 3.148617e+001
9.076628e+002, 3.121802e+001
9.081449e+002, 3.114228e+001
9.086270e+002, 3.152260e+001
9.091091e+002, 3.198334e+001
9.095912e+002, 3.208182e+001
9.100734e+002, 3.185836e+001
9.105555e+002, 3.156780e+001
9.110376e+002, 3.131638e+001
9.115197e+002, 3.117645e+001
9.120018e+002, 3.133615e+001
9.124839e+002, 3.161677e+001
9.129661e+002, 3.163093e+001
9.134482e+002, 3.141051e+001
9.139303e+002, 3.111911e+001
9.144124e+002, 3.080742e+001
9.148945e+002, 3.061108e+001
9.153766e+002, 3.066791e+001
9.158588e+002, 3.089102e+001
9.163409e+002, 3.101616e+001
9.168230e+002, 3.103979e+001
9.173051e+002, 3.098742e+001
9.177872e+002, 3.083347e+001
9.182693e+002, 3.069800e+001
9.187515e+002, 3.065362e+001
9.192336e+002, 3.064128e+001
9.197157e+002, 3.056399e+001
9.201978e+002, 3.041025e+001
9.206799e+002, 3.030164e+001
9.211620e+002, 3.017801e+001
9.216442e+002, 3.018581e+001
9.221263e+002, 3.058928e+001
9.226084e+002, 3.090176e+001
9.230905e+002, 3.062736e+001
9.235726e+002, 3.003976e+001
9.240547e+002, 2.982891e+001
9.245369e+002, 3.022478e+001
9.250190e+002, 3.056421e+001
9.255011e+002, 3.062043e+001
9.259832e+002, 3.053555e+001
9.264653e+002, 3.029570e+001
9.269474e+002, 3.003209e+001
9.274296e+002, 2.996251e+001
9.279117e+002, 3.007493e+001
9.283938e+002, 3.010841e+001
9.288759e+002, 2.985411e+001
9.293580e+002, 2.959749e+001
9.298401e+002, 2.973424e+001
9.303223e+002, 3.005923e+001
9.308044e+002, 3.017979e+001
9.312865e+002, 3.009965e+001
9.317686e+002, 2.999628e+001
9.322507e+002, 2.994254e+001
9.327328e+002, 2.991905e+001
9.332150e+002, 2.991275e+001
9.336971e+002, 2.991273e+001
9.341792e+002, 2.985330e+001
9.346613e+002, 2.973488e+001
9.351434e+002, 2.973223e+001
9.356255e+002, 2.990048e+001
9.361077e+002, 3.002401e+001
9.365898e+002, 2.995209e+001
9.370719e+002, 2.976083e+001
9.375540e+002, 2.962201e+001
9.380361e+002, 2.955649e+001
9.385182e+002, 2.941544e+001
9.390004e+002, 2.906529e+001
9.394825e+002, 2.890801e+001
9.399646e+002, 2.921754e+001
9.404467e+002, 2.960209e+001
9.409288e+002, 2.965053e+001
9.414109e+002, 2.945496e+001
9.418931e+002, 2.942796e+001
9.423752e+002, 2.974059e+001
9.428573e+002, 2.993119e+001
9.433394e+002, 2.992126e+001
9.438215e+002, 2.980461e+001
9.443036e+002, 2.954619e+001
9.447858e+002, 2.925537e+001
9.452679e+002, 2.900108e+001
9.457500e+002, 2.882309e+001
9.462321e+002, 2.891979e+001
9.467142e+002, 2.970816e+001
9.471964e+002, 3.036187e+001
9.476785e+002, 3.028013e+001
9.481606e+002, 2.987847e+001
9.486427e+002, 2.952232e+001
9.491248e+002, 2.927689e+001
9.496069e+002, 2.916177e+001
9.500891e+002, 2.918109e+001
9.505712e+002, 2.924763e+001
9.510533e+002, 2.933317e+001
9.515354e+002, 2.938235e+001
9.520175e+002, 2.928505e+001
9.524996e+002, 2.907715e+001
9.529818e+002, 2.882555e+001
9.534639e+002, 2.856044e+001
9.539460e+002, 2.839565e+001
9.544281e+002, 2.840875e+001
9.549102e+002, 2.850421e+001
9.553923e+002, 2.850730e+001
9.558745e+002, 2.843335e+001
9.563566e+002, 2.844285e+001
9.568387e+002, 2.854323e+001
9.573208e+002, 2.861349e+001
9.578029e+002, 2.862132e+001
9.582850e+002, 2.855532e+001
9.587672e+002, 2.837143e+001
9.592493e+002, 2.813770e+001
9.597314e+002, 2.816093e+001
9.602135e+002, 2.856287e+001
9.606956e+002, 2.876002e+001
9.611777e+002, 2.860523e+001
9.616599e+002, 2.850821e+001
9.621420e+002, 2.870303e+001
9.626241e+002, 2.897400e+001
9.631062e+002, 2.904247e+001
9.635883e+002, 2.890884e+001
9.640704e+002, 2.882067e+001
9.645526e+002, 2.883485e+001
9.650347e+002, 2.880784e+001
9.655168e+002, 2.866271e+001
9.659989e+002, 2.854181e+001
9.664810e+002, 2.858017e+001
9.669631e+002, 2.866642e+001
9.674453e+002, 2.859549e+001
9.679274e+002, 2.833658e+001
9.684095e+002, 2.816274e+001
9.688916e+002, 2.831532e+001
9.693737e+002, 2.836347e+001
9.698558e+002, 2.793567e+001
9.703380e+002, 2.746276e+001
9.708201e+002, 2.736077e+001
9.713022e+002, 2.757182e+001
9.717843e+002, 2.789459e+001
9.722664e+002, 2.827677e+001
9.727485e+002, 2.853106e+001
9.732307e+002, 2.844004e+001
9.737128e+002, 2.824490e+001
9.741949e+002, 2.816174e+001
9.746770e+002, 2.815359e+001
9.751591e+002, 2.814789e+001
9.756412e+002, 2.813536e+001
9.761234e+002, 2.815055e+001
9.766055e+002, 2.821693e+001
9.770876e+002, 2.828007e+001
9.775698e+002, 2.826153e+001
9.780519e+002, 2.819644e+001
9.785340e+002, 2.816962e+001
9.790161e+002, 2.816920e+001
9.794982e+002, 2.810706e+001
9.799803e+002, 2.797057e+001
9.804625e+002, 2.791052e+001
9.809446e+002, 2.806873e+001
9.814267e+002, 2.830518e+001
9.819088e+002, 2.827054e+001
9.823909e+002, 2.800363e+001
9.828730e+002, 2.790363e+001
9.833552e+002, 2.799852e+001
9.838373e+002, 2.808283e+001
9.843194e+002, 2.808031e+001
9.848015e+002, 2.805073e+001
9.852836e+002, 2.805936e+001
9.857657e+002, 2.809349e+001
9.862479e+002, 2.809212e+001
9.867300e+002, 2.805720e+001
9.872121e+002, 2.796654e+001
9.876942e+002, 2.778642e+001
9.881763e+002, 2.764002e+001
9.886584e+002, 2.757320e+001
9.891406e+002, 2.758814e+001
9.896227e+002, 2.770625e+001
9.901048e+002, 2.792697e+001
9.905869e+002, 2.809250e+001
9.910690e+002, 2.821783e+001
9.915511e+002, 2.825823e+001
9.920333e+002, 2.819476e+001
9.925154e+002, 2.806245e+001
9.929975e+002, 2.779008e+001
9.934796e+002, 2.750251e+001
9.939617e+002, 2.741343e+001
9.944438e+002, 2.754240e+001
9.949260e+002, 2.765726e+001
9.954081e+002, 2.779057e+001
9.958902e+002, 2.784285e+001
9.963723e+002, 2.769169e+001
9.968544e+002, 2.755146e+001
9.973365e+002, 2.759260e+001
9.978187e+002, 2.774223e+001
9.983008e+002, 2.786478e+001
9.987829e+002, 2.794496e+001
9.992650e+002, 2.793791e+001
9.997471e+002, 2.771569e+001
1.000229e+003, 2.754416e+001
1.000711e+003, 2.757203e+001
1.001193e+003, 2.768697e+001
1.001676e+003, 2.782934e+001
1.002158e+003, 2.795393e+001
1.002640e+003, 2.798633e+001
1.003122e+003, 2.790159e+001
1.003604e+003, 2.775361e+001
1.004086e+003, 2.748158e+001
1.004568e+003, 2.725179e+001
1.005050e+003, 2.722789e+001
1.005533e+003, 2.731191e+001
1.006015e+003, 2.734499e+001
1.006497e+003, 2.734463e+001
1.006979e+003, 2.749187e+001
1.007461e+003, 2.789111e+001
1.007943e+003, 2.819675e+001
1.008425e+003, 2.801275e+001
1.008907e+003, 2.763252e+001
1.009389e+003, 2.733428e+001
1.009872e+003, 2.717352e+001
1.010354e+003, 2.733118e+001
1.010836e+003, 2.775230e+001
1.011318e+003, 2.806071e+001
1.011800e+003, 2.803241e+001
1.012282e+003, 2.785474e+001
1.012764e+003, 2.771259e+001
1.013246e+003, 2.761255e+001
1.013729e+003, 2.759797e+001
1.014211e+003, 2.763913e+001
1.014693e+003, 2.761051e+001
1.015175e+003, 2.749331e+001
1.015657e+003, 2.739619e+001
1.016139e+003, 2.739445e+001
1.016621e+003, 2.745607e+001
1.017103e+003, 2.754252e+001
1.017585e+003, 2.764520e+001
1.018068e+003, 2.774526e+001
1.018550e+003, 2.783343e+001
1.019032e+003, 2.781102e+001
1.019514e+003, 2.765067e+001
1.019996e+003, 2.747787e+001
1.020478e+003, 2.738962e+001
1.020960e+003, 2.737522e+001
1.021442e+003, 2.743354e+001
1.021924e+003, 2.755963e+001
1.022407e+003, 2.762871e+001
1.022889e+003, 2.763580e+001
1.023371e+003, 2.759301e+001
1.023853e+003, 2.749940e+001
1.024335e+003, 2.737378e+001
1.024817e+003, 2.721039e+001
1.025299e+003, 2.706730e+001
1.025781e+003, 2.717761e+001
1.026264e+003, 2.760091e+001
1.026746e+003, 2.775439e+001
1.027228e+003, 2.756322e+001
1.027710e+003, 2.736452e+001
1.028192e+003, 2.725649e+001
1.028674e+003, 2.722560e+001
1.029156e+003, 2.728541e+001
1.029638e+003, 2.739328e+001
1.030120e+003, 2.735155e+001
1.030603e+003, 2.706933e+001
1.031085e+003, 2.699293e+001
1.031567e+003, 2.721920e+001
1.032049e+003, 2.743007e+001
1.032531e+003, 2.751282e+001
1.033013e+003, 2.754751e+001
1.033495e+003, 2.761574e+001
1.033977e+003, 2.770397e+001
1.034459e+003, 2.773835e+001
1.034942e+003, 2.766268e+001
1.035424e+003, 2.767163e+001
1.035906e+003, 2.784219e+001
1.036388e+003, 2.796728e+001
1.036870e+003, 2.796881e+001
1.037352e+003, 2.790179e+001
1.037834e+003, 2.778291e+001
1.038316e+003, 2.763533e+001
1.038799e+003, 2.760292e+001
1.039281e+003, 2.783392e+001
1.039763e+003, 2.789064e+001
1.040245e+003, 2.759510e+001
1.040727e+003, 2.735403e+001
1.041209e+003, 2.738262e+001
1.041691e+003, 2.745561e+001
1.042173e+003, 2.730747e+001
1.042656e+003, 2.700076e+001
1.043138e+003, 2.687711e+001
1.043620e+003, 2.707545e+001
1.044102e+003, 2.720222e+001
1.044584e+003, 2.716557e+001
1.045066e+003, 2.713939e+001
1.045548e+003, 2.719941e+001
1.046030e+003, 2.728892e+001
1.046512e+003, 2.740271e+001
1.046995e+003, 2.750321e+001
1.047477e+003, 2.742082e+001
1.047959e+003, 2.698294e+001
1.048441e+003, 2.672013e+001
1.048923e+003, 2.689377e+001
1.049405e+003, 2.703471e+001
1.049887e+003, 2.686249e+001
1.050369e+003, 2.663384e+001
1.050851e+003, 2.662530e+001
1.051334e+003, 2.680111e+001
1.051816e+003, 2.696850e+001
1.052298e+003, 2.715929e+001
1.052780e+003, 2.716345e+001
1.053262e+003, 2.671334e+001
1.053744e+003, 2.633152e+001
1.054226e+003, 2.629691e+001
1.054708e+003, 2.641766e+001
1.055191e+003, 2.655436e+001
1.055673e+003, 2.666299e+001
1.056155e+003, 2.663746e+001
1.056637e+003, 2.636068e+001
1.057119e+003, 2.627856e+001
1.057601e+003, 2.684840e+001
1.058083e+003, 2.725624e+001
1.058565e+003, 2.692574e+001
1.059047e+003, 2.636869e+001
1.059530e+003, 2.604263e+001
1.060012e+003, 2.596978e+001
1.060494e+003, 2.605404e+001
1.060976e+003, 2.630809e+001
1.061458e+003, 2.654834e+001
1.061940e+003, 2.678816e+001
1.062422e+003, 2.690660e+001
1.062904e+003, 2.672386e+001
1.063386e+003, 2.648276e+001
1.063869e+003, 2.644897e+001
1.064351e+003, 2.656405e+001
1.064833e+003, 2.661012e+001
1.065315e+003, 2.652808e+001
1.065797e+003, 2.641473e+001
1.066279e+003, 2.631332e+001
1.066761e+003, 2.618684e+001
1.067243e+003, 2.586697e+001
1.067726e+003, 2.563581e+001
1.068208e+003, 2.592933e+001
1.068690e+003, 2.650491e+001
1.069172e+003, 2.673657e+001
1.069654e+003, 2.645209e+001
1.070136e+003, 2.613778e+001
1.070618e+003, 2.598103e+001
1.071100e+003, 2.587543e+001
1.071583e+003, 2.572216e+001
1.072065e+003, 2.563074e+001
1.072547e+003, 2.578967e+001
1.073029e+003, 2.606620e+001
1.073511e+003, 2.619143e+001
1.073993e+003, 2.610294e+001
1.074475e+003, 2.589011e+001
1.074957e+003, 2.532146e+001
1.075439e+003, 2.498382e+001
1.075922e+003, 2.544390e+001
1.076404e+003, 2.601992e+001
1.076886e+003, 2.605044e+001
1.077368e+003, 2.576017e+001
1.077850e+003, 2.567163e+001
1.078332e+003, 2.586662e+001
1.078814e+003, 2.597787e+001
1.079296e+003, 2.578471e+001
1.079779e+003, 2.556109e+001
1.080261e+003, 2.534969e+001
1.080743e+003, 2.524648e+001
1.081225e+003, 2.541675e+001
1.081707e+003, 2.570857e+001
1.082189e+003, 2.589708e+001
1.082671e+003, 2.594744e+001
1.083153e+003, 2.594155e+001
1.083635e+003, 2.594035e+001
1.084118e+003, 2.583180e+001
1.084600e+003, 2.542592e+001
1.085082e+003, 2.503919e+001
1.085564e+003, 2.487757e+001
1.086046e+003, 2.489675e+001
1.086528e+003, 2.507677e+001
1.087010e+003, 2.536739e+001
1.087492e+003, 2.559783e+001
1.087974e+003, 2.573634e+001
1.088457e+003, 2.574913e+001
1.088939e+003, 2.548553e+001
1.089421e+003, 2.524652e+001
1.089903e+003, 2.530570e+001
1.090385e+003, 2.543303e+001
1.090867e+003, 2.535586e+001
1.091349e+003, 2.508672e+001
1.091831e+003, 2.474043e+001
1.092314e+003, 2.426004e+001
1.092796e+003, 2.407265e+001
1.093278e+003, 2.467317e+001
1.093760e+003, 2.519647e+001
1.094242e+003, 2.508389e+001
1.094724e+003, 2.477749e+001
1.095206e+003, 2.470631e+001
1.095688e+003, 2.481710e+001
1.096171e+003, 2.486680e+001
1.096653e+003, 2.479843e+001
1.097135e+003, 2.474014e+001
1.097617e+003, 2.469794e+001
1.098099e+003, 2.471475e+001
1.098581e+003, 2.491961e+001
1.099063e+003, 2.508418e+001
1.099545e+003, 2.495221e+001
1.100027e+003, 2.467529e+001
1.100510e+003, 2.455902e+001
1.100992e+003, 2.464790e+001
1.101474e+003, 2.474502e+001
1.101956e+003, 2.487904e+001
1.102438e+003, 2.491142e+001
1.102920e+003, 2.464459e+001
1.103402e+003, 2.443800e+001
1.103884e+003, 2.462344e+001
1.104366e+003, 2.494415e+001
1.104849e+003, 2.500094e+001
1.105331e+003, 2.478850e+001
1.105813e+003, 2.467038e+001
1.106295e+003, 2.479454e+001
1.106777e+003, 2.486622e+001
1.107259e+003, 2.480962e+001
1.107741e+003, 2.473564e+001
1.108223e+003, 2.468338e+001
1.108706e+003, 2.464614e+001
1.109188e+003, 2.460844e+001
1.109670e+003, 2.457561e+001
1.110152e+003, 2.457939e+001
1.110634e+003, 2.463871e+001
1.111116e+003, 2.469568e+001
1.111598e+003, 2.481127e+001
1.112080e+003, 2.483986e+001
1.112563e+003, 2.470493e+001
1.113045e+003, 2.449808e+001
1.113527e+003, 2.420703e+001
1.114009e+003, 2.391667e+001
1.114491e+003, 2.388482e+001
1.114973e+003, 2.420447e+001
1.115455e+003, 2.438116e+001
1.115937e+003, 2.431409e+001
1.116419e+003, 2.428117e+001
1.116901e+003, 2.435678e+001
1.117384e+003, 2.443972e+001
1.117866e+003, 2.445947e+001
1.118348e+003, 2.446017e+001
1.118830e+003, 2.454544e+001
1.119312e+003, 2.472272e+001
1.119794e+003, 2.465691e+001
1.120276e+003, 2.414040e+001
1.120758e+003, 2.394902e+001
1.121241e+003, 2.433724e+001
1.121723e+003, 2.464819e+001
1.122205e+003, 2.453367e+001
1.122687e+003, 2.429965e+001
1.123169e+003, 2.431710e+001
1.123651e+003, 2.453424e+001
1.124133e+003, 2.465462e+001
1.124615e+003, 2.466909e+001
1.125098e+003, 2.461651e+001
1.125580e+003, 2.446705e+001
1.126062e+003, 2.439928e+001
1.126544e+003, 2.450060e+001
1.127026e+003, 2.459528e+001
1.127508e+003, 2.453618e+001
1.127990e+003, 2.436327e+001
1.128472e+003, 2.412884e+001
1.128954e+003, 2.382431e+001
1.129437e+003, 2.384028e+001
1.129919e+003, 2.420110e+001
1.130401e+003, 2.452411e+001
1.130883e+003, 2.474028e+001
1.131365e+003, 2.477437e+001
1.131847e+003, 2.455947e+001
1.132329e+003, 2.428523e+001
1.132811e+003, 2.424900e+001
1.133293e+003, 2.439355e+001
1.133776e+003, 2.443432e+001
1.134258e+003, 2.439095e+001
1.134740e+003, 2.450129e+001
1.135222e+003, 2.476894e+001
1.135704e+003, 2.483620e+001
1.136186e+003, 2.456021e+001
1.136668e+003, 2.424558e+001
1.137150e+003, 2.418471e+001
1.137633e+003, 2.429334e+001
1.138115e+003, 2.448731e+001
1.138597e+003, 2.469170e+001
1.139079e+003, 2.458626e+001
1.139561e+003, 2.426487e+001
1.140043e+003, 2.421864e+001
1.140525e+003, 2.452180e+001
1.141007e+003, 2.475355e+001
1.141490e+003, 2.463954e+001
1.141972e+003, 2.438984e+001
1.142454e+003, 2.416620e+001
1.142936e+003, 2.403489e+001
1.143418e+003, 2.419038e+001
1.143900e+003, 2.448757e+001
1.144382e+003, 2.465071e+001
1.144864e+003, 2.464821e+001
1.145346e+003, 2.452951e+001
1.145828e+003, 2.431824e+001
1.146311e+003, 2.410851e+001
1.146793e+003, 2.392471e+001
1.147275e+003, 2.382966e+001
1.147757e+003, 2.394673e+001
1.148239e+003, 2.413491e+001
1.148721e+003, 2.425676e+001
1.149203e+003, 2.430364e+001
1.149685e+003, 2.426343e+001
1.150168e+003, 2.415560e+001
1.150650e+003, 2.411282e+001
1.151132e+003, 2.425044e+001
1.151614e+003, 2.432881e+001
1.152096e+003, 2.407197e+001
1.152578e+003, 2.388232e+001
1.153060e+003, 2.412891e+001
1.153542e+003, 2.452861e+001
1.154025e+003, 2.480057e+001
1.154507e+003, 2.490767e+001
1.154989e+003, 2.484045e+001
1.155471e+003, 2.455151e+001
1.155953e+003, 2.432317e+001
1.156435e+003, 2.420584e+001
1.156917e+003, 2.417857e+001
1.157399e+003, 2.429180e+001
1.157881e+003, 2.443468e+001
1.158364e+003, 2.453145e+001
1.158846e+003, 2.460797e+001
1.159328e+003, 2.474959e+001
1.159810e+003, 2.496219e+001
1.160292e+003, 2.497389e+001
1.160774e+003, 2.450110e+001
1.161256e+003, 2.435310e+001
1.161738e+003, 2.484558e+001
1.162220e+003, 2.519843e+001
1.162703e+003, 2.505091e+001
1.163185e+003, 2.475910e+001
1.163667e+003, 2.464971e+001
1.164149e+003, 2.466927e+001
1.164631e+003, 2.464079e+001
1.165113e+003, 2.455995e+001
1.165595e+003, 2.444578e+001
1.166077e+003, 2.427323e+001
1.166560e+003, 2.418650e+001
1.167042e+003, 2.423432e+001
1.167524e+003, 2.427109e+001
1.168006e+003, 2.419486e+001
1.168488e+003, 2.413001e+001
1.168970e+003, 2.429629e+001
1.169452e+003, 2.461434e+001
1.169934e+003, 2.463282e+001
1.170417e+003, 2.437885e+001
1.170899e+003, 2.423242e+001
1.171381e+003, 2.422994e+001
1.171863e+003, 2.439464e+001
1.172345e+003, 2.472136e+001
1.172827e+003, 2.486724e+001
1.173309e+003, 2.451250e+001
1.173791e+003, 2.400412e+001
1.174273e+003, 2.396346e+001
1.174755e+003, 2.419088e+001
1.175238e+003, 2.416898e+001
1.175720e+003, 2.400787e+001
1.176202e+003, 2.409872e+001
1.176684e+003, 2.444263e+001
1.177166e+003, 2.475379e+001
1.177648e+003, 2.490831e+001
1.178130e+003, 2.489693e+001
1.178612e+003, 2.456144e+001
1.179095e+003, 2.423554e+001
1.179577e+003, 2.433178e+001
1.180059e+003, 2.456770e+001
1.180541e+003, 2.459098e+001
1.181023e+003, 2.448124e+001
1.181505e+003, 2.445872e+001
1.181987e+003, 2.454778e+001
1.182469e+003, 2.460393e+001
1.182952e+003, 2.454078e+001
1.183434e+003, 2.452016e+001
1.183916e+003, 2.472456e+001
1.184398e+003, 2.485653e+001
1.184880e+003, 2.464788e+001
1.185362e+003, 2.437650e+001
1.185844e+003, 2.431089e+001
1.186326e+003, 2.440330e+001
1.186808e+003, 2.450698e+001
1.187291e+003, 2.461323e+001
1.187773e+003, 2.467486e+001
1.188255e+003, 2.461925e+001
1.188737e+003, 2.462660e+001
1.189219e+003, 2.475803e+001
1.189701e+003, 2.489957e+001
1.190183e+003, 2.504638e+001
1.190665e+003, 2.512797e+001
1.191147e+003, 2.504333e+001
1.191630e+003, 2.483677e+001
1.192112e+003, 2.469304e+001
1.192594e+003, 2.461405e+001
1.193076e+003, 2.459295e+001
1.193558e+003, 2.463655e+001
1.194040e+003, 2.470979e+001
1.194522e+003, 2.481228e+001
1.195004e+003, 2.491293e+001
1.195487e+003, 2.500750e+001
1.195969e+003, 2.500745e+001
1.196451e+003, 2.474729e+001
1.196933e+003, 2.432728e+001
1.197415e+003, 2.413480e+001
1.197897e+003, 2.413765e+001
1.198379e+003, 2.415476e+001
1.198861e+003, 2.418048e+001
1.199344e+003, 2.432940e+001
1.199826e+003, 2.461229e+001
1.200308e+003, 2.479706e+001
1.200790e+003, 2.471161e+001
1.201272e+003, 2.455938e+001
1.201754e+003, 2.460699e+001
1.202236e+003, 2.472152e+001
1.202718e+003, 2.468979e+001
1.203200e+003, 2.460196e+001
1.203682e+003, 2.464945e+001
1.204165e+003, 2.478676e+001
1.204647e+003, 2.480593e+001
1.205129e+003, 2.465980e+001
1.205611e+003, 2.456911e+001
1.206093e+003, 2.474137e+001
1.206575e+003, 2.484477e+001
1.207057e+003, 2.456511e+001
1.207539e+003, 2.431763e+001
1.208022e+003, 2.444120e+001
1.208504e+003, 2.471723e+001
1.208986e+003, 2.491483e+001
1.209468e+003, 2.501452e+001
1.209950e+003, 2.501707e+001
1.210432e+003, 2.488000e+001
1.210914e+003, 2.482621e+001
1.211396e+003, 2.494584e+001
1.211879e+003, 2.503412e+001
1.212361e+003, 2.504436e+001
1.212843e+003, 2.504942e+001
1.213325e+003, 2.509838e+001
1.213807e+003, 2.513598e+001
1.214289e+003, 2.506322e+001
1.214771e+003, 2.493602e+001
1.215253e+003, 2.507670e+001
1.215735e+003, 2.554363e+001
1.216218e+003, 2.571500e+001
1.216700e+003, 2.555991e+001
1.217182e+003, 2.530763e+001
1.217664e+003, 2.500311e+001
1.218146e+003, 2.480995e+001
1.218628e+003, 2.482898e+001
1.219110e+003, 2.494182e+001
1.219592e+003, 2.500640e+001
1.220074e+003, 2.503615e+001
1.220557e+003, 2.505028e+001
1.221039e+003, 2.505943e+001
1.221521e+003, 2.508895e+001
1.222003e+003, 2.514048e+001
1.222485e+003, 2.523082e+001
1.222967e+003, 2.534683e+001
1.223449e+003, 2.540468e+001
1.223931e+003, 2.535570e+001
1.224414e+003, 2.526125e+001
1.224896e+003, 2.514361e+001
1.225378e+003, 2.502868e+001
1.225860e+003, 2.491951e+001
1.226342e+003, 2.484033e+001
1.226824e+003, 2.480217e+001
1.227306e+003, 2.481949e+001
1.227788e+003, 2.495063e+001
1.228271e+003, 2.518794e+001
1.228753e+003, 2.533355e+001
1.229235e+003, 2.537666e+001
1.229717e+003, 2.527421e+001
1.230199e+003, 2.477104e+001
1.230681e+003, 2.446725e+001
1.231163e+003, 2.467617e+001
1.231645e+003, 2.498369e+001
1.232127e+003, 2.510914e+001
1.232609e+003, 2.511062e+001
1.233092e+003, 2.509741e+001
1.233574e+003, 2.506842e+001
1.234056e+003, 2.498127e+001
1.234538e+003, 2.481721e+001
1.235020e+003, 2.476374e+001
1.235502e+003, 2.484642e+001
1.235984e+003, 2.488851e+001
1.236466e+003, 2.482600e+001
1.236949e+003, 2.482951e+001
1.237431e+003, 2.504937e+001
1.237913e+003, 2.529729e+001
1.238395e+003, 2.521757e+001
1.238877e+003, 2.496208e+001
1.239359e+003, 2.489909e+001
1.239841e+003, 2.495608e+001
1.240323e+003, 2.490787e+001
1.240806e+003, 2.480760e+001
1.241288e+003, 2.498439e+001
1.241770e+003, 2.547021e+001
1.242252e+003, 2.572665e+001
1.242734e+003, 2.534952e+001
1.243216e+003, 2.495346e+001
1.243698e+003, 2.493854e+001
1.244180e+003, 2.504172e+001
1.244662e+003, 2.514755e+001
1.245145e+003, 2.522182e+001
1.245627e+003, 2.521721e+001
1.246109e+003, 2.516821e+001
1.246591e+003, 2.514617e+001
1.247073e+003, 2.515730e+001
1.247555e+003, 2.521247e+001
1.248037e+003, 2.535912e+001
1.248519e+003, 2.545802e+001
1.249001e+003, 2.548390e+001
1.249484e+003, 2.551150e+001
1.249966e+003, 2.560438e+001
1.250448e+003, 2.559314e+001
1.250930e+003, 2.529037e+001
1.251412e+003, 2.492256e+001
1.251894e+003, 2.495901e+001
1.252376e+003, 2.533387e+001
1.252858e+003, 2.558318e+001
1.253341e+003, 2.570508e+001
1.253823e+003, 2.561206e+001
1.254305e+003, 2.535033e+001
1.254787e+003, 2.532360e+001
1.255269e+003, 2.562729e+001
1.255751e+003, 2.591007e+001
1.256233e+003, 2.594340e+001
1.256715e+003, 2.584274e+001
1.257198e+003, 2.565732e+001
1.257680e+003, 2.547789e+001
1.258162e+003, 2.541960e+001
1.258644e+003, 2.541986e+001
1.259126e+003, 2.540217e+001
1.259608e+003, 2.537238e+001
1.260090e+003, 2.535972e+001
1.260572e+003, 2.536929e+001
1.261054e+003, 2.539278e+001
1.261536e+003, 2.542671e+001
1.262019e+003, 2.547692e+001
1.262501e+003, 2.554397e+001
1.262983e+003, 2.562912e+001
1.263465e+003, 2.579807e+001
1.263947e+003, 2.589640e+001
1.264429e+003, 2.578565e+001
1.264911e+003, 2.559891e+001
1.265393e+003, 2.555011e+001
1.265876e+003, 2.560614e+001
1.266358e+003, 2.550372e+001
1.266840e+003, 2.522581e+001
1.267322e+003, 2.514841e+001
1.267804e+003, 2.528547e+001
1.268286e+003, 2.539643e+001
1.268768e+003, 2.542395e+001
1.269250e+003, 2.541210e+001
1.269733e+003, 2.538546e+001
1.270215e+003, 2.533333e+001
1.270697e+003, 2.522165e+001
1.271179e+003, 2.511003e+001
1.271661e+003, 2.503077e+001
1.272143e+003, 2.504638e+001
1.272625e+003, 2.534051e+001
1.273107e+003, 2.574918e+001
1.273589e+003, 2.598820e+001
1.274072e+003, 2.603837e+001
1.274554e+003, 2.601445e+001
1.275036e+003, 2.593691e+001
1.275518e+003, 2.588070e+001
1.276000e+003, 2.589148e+001
1.276482e+003, 2.589157e+001
1.276964e+003, 2.580702e+001
1.277446e+003, 2.578314e+001
1.277929e+003, 2.595506e+001
1.278411e+003, 2.611946e+001
1.278893e+003, 2.603569e+001
1.279375e+003, 2.583763e+001
1.279857e+003, 2.591160e+001
1.280339e+003, 2.626381e+001
1.280821e+003, 2.652192e+001
1.281303e+003, 2.669087e+001
1.281786e+003, 2.668814e+001
1.282268e+003, 2.650066e+001
##END=



