##NAMES=Gaidonnayite
##RRUFFID=R140540
##IDEAL CHEMISTRY=Na_2_Zr^4+^Si_3_O_9_&#183;2H_2_O
##LOCALITY=Prefeitura quarry, Pocos de Caldas, Minas Gerais, Brazil
##OWNER=RRUFF
##SOURCE=Luiz Menezes
##DESCRIPTION=Isolated colorless or grey granular crystals
##STATUS=The identification of this mineral has been confirmed by single-crystal X-ray diffraction.
##URL=rruff.info/R140540
8.930109e+001, 0.000000e+000
8.978320e+001, 5.741951e+003
9.026532e+001, 5.713333e+003
9.074744e+001, 5.715575e+003
9.122955e+001, 5.762183e+003
9.171167e+001, 5.827141e+003
9.219379e+001, 5.877703e+003
9.267590e+001, 5.917793e+003
9.315802e+001, 5.946888e+003
9.364014e+001, 5.961670e+003
9.412225e+001, 5.965978e+003
9.460437e+001, 5.967225e+003
9.508649e+001, 5.967761e+003
9.556860e+001, 5.964795e+003
9.605072e+001, 5.956692e+003
9.653284e+001, 5.948464e+003
9.701495e+001, 5.940323e+003
9.749707e+001, 5.929730e+003
9.797919e+001, 5.916439e+003
9.846130e+001, 5.905763e+003
9.894342e+001, 5.899713e+003
9.942554e+001, 5.897894e+003
9.990765e+001, 5.895826e+003
1.003898e+002, 5.893363e+003
1.008719e+002, 5.890954e+003
1.013540e+002, 5.888888e+003
1.018361e+002, 5.886688e+003
1.023182e+002, 5.886127e+003
1.028004e+002, 5.888080e+003
1.032825e+002, 5.892931e+003
1.037646e+002, 5.899341e+003
1.042467e+002, 5.906920e+003
1.047288e+002, 5.916536e+003
1.052109e+002, 5.930170e+003
1.056931e+002, 5.949321e+003
1.061752e+002, 5.970937e+003
1.066573e+002, 5.994247e+003
1.071394e+002, 6.020805e+003
1.076215e+002, 6.047017e+003
1.081036e+002, 6.073148e+003
1.085858e+002, 6.099333e+003
1.090679e+002, 6.125149e+003
1.095500e+002, 6.150212e+003
1.100321e+002, 6.175708e+003
1.105142e+002, 6.202112e+003
1.109963e+002, 6.232215e+003
1.114785e+002, 6.260481e+003
1.119606e+002, 6.285885e+003
1.124427e+002, 6.308605e+003
1.129248e+002, 6.330860e+003
1.134069e+002, 6.351239e+003
1.138890e+002, 6.372096e+003
1.143712e+002, 6.395585e+003
1.148533e+002, 6.427034e+003
1.153354e+002, 6.456520e+003
1.158175e+002, 6.480688e+003
1.162996e+002, 6.499548e+003
1.167817e+002, 6.515795e+003
1.172639e+002, 6.529854e+003
1.177460e+002, 6.542239e+003
1.182281e+002, 6.553578e+003
1.187102e+002, 6.562884e+003
1.191923e+002, 6.572013e+003
1.196744e+002, 6.582042e+003
1.201566e+002, 6.593193e+003
1.206387e+002, 6.604306e+003
1.211208e+002, 6.613705e+003
1.216029e+002, 6.622268e+003
1.220850e+002, 6.631806e+003
1.225671e+002, 6.643508e+003
1.230493e+002, 6.656232e+003
1.235314e+002, 6.669176e+003
1.240135e+002, 6.682639e+003
1.244956e+002, 6.694651e+003
1.249777e+002, 6.702273e+003
1.254598e+002, 6.706219e+003
1.259420e+002, 6.709476e+003
1.264241e+002, 6.713957e+003
1.269062e+002, 6.718908e+003
1.273883e+002, 6.722862e+003
1.278704e+002, 6.724871e+003
1.283525e+002, 6.726444e+003
1.288347e+002, 6.730498e+003
1.293168e+002, 6.736869e+003
1.297989e+002, 6.742691e+003
1.302810e+002, 6.745044e+003
1.307631e+002, 6.744729e+003
1.312452e+002, 6.745228e+003
1.317274e+002, 6.747968e+003
1.322095e+002, 6.751917e+003
1.326916e+002, 6.754312e+003
1.331737e+002, 6.755147e+003
1.336558e+002, 6.755005e+003
1.341379e+002, 6.753707e+003
1.346201e+002, 6.751345e+003
1.351022e+002, 6.750667e+003
1.355843e+002, 6.752689e+003
1.360664e+002, 6.757205e+003
1.365485e+002, 6.762931e+003
1.370306e+002, 6.770419e+003
1.375128e+002, 6.777883e+003
1.379949e+002, 6.783116e+003
1.384770e+002, 6.785708e+003
1.389591e+002, 6.787965e+003
1.394412e+002, 6.790373e+003
1.399233e+002, 6.792779e+003
1.404055e+002, 6.796308e+003
1.408876e+002, 6.801570e+003
1.413697e+002, 6.807089e+003
1.418518e+002, 6.810228e+003
1.423339e+002, 6.809751e+003
1.428160e+002, 6.809418e+003
1.432982e+002, 6.810560e+003
1.437803e+002, 6.813445e+003
1.442624e+002, 6.816991e+003
1.447445e+002, 6.821822e+003
1.452266e+002, 6.827150e+003
1.457087e+002, 6.830921e+003
1.461909e+002, 6.832575e+003
1.466730e+002, 6.833617e+003
1.471551e+002, 6.834560e+003
1.476372e+002, 6.834495e+003
1.481193e+002, 6.836071e+003
1.486014e+002, 6.839797e+003
1.490836e+002, 6.845317e+003
1.495657e+002, 6.851503e+003
1.500478e+002, 6.859870e+003
1.505299e+002, 6.867586e+003
1.510120e+002, 6.873438e+003
1.514941e+002, 6.875373e+003
1.519763e+002, 6.877674e+003
1.524584e+002, 6.880866e+003
1.529405e+002, 6.884585e+003
1.534226e+002, 6.887292e+003
1.539047e+002, 6.887482e+003
1.543868e+002, 6.887447e+003
1.548690e+002, 6.888425e+003
1.553511e+002, 6.892505e+003
1.558332e+002, 6.895476e+003
1.563153e+002, 6.895729e+003
1.567974e+002, 6.893720e+003
1.572795e+002, 6.893111e+003
1.577617e+002, 6.896053e+003
1.582438e+002, 6.900072e+003
1.587259e+002, 6.903394e+003
1.592080e+002, 6.905021e+003
1.596901e+002, 6.906653e+003
1.601722e+002, 6.908276e+003
1.606544e+002, 6.910038e+003
1.611365e+002, 6.913618e+003
1.616186e+002, 6.921504e+003
1.621007e+002, 6.930655e+003
1.625828e+002, 6.938431e+003
1.630649e+002, 6.942115e+003
1.635471e+002, 6.945588e+003
1.640292e+002, 6.951172e+003
1.645113e+002, 6.958883e+003
1.649934e+002, 6.965385e+003
1.654755e+002, 6.967523e+003
1.659576e+002, 6.967776e+003
1.664398e+002, 6.969197e+003
1.669219e+002, 6.974995e+003
1.674040e+002, 6.980834e+003
1.678861e+002, 6.982800e+003
1.683682e+002, 6.980449e+003
1.688503e+002, 6.979317e+003
1.693325e+002, 6.984859e+003
1.698146e+002, 6.993845e+003
1.702967e+002, 7.000963e+003
1.707788e+002, 7.002707e+003
1.712609e+002, 7.002411e+003
1.717430e+002, 7.002981e+003
1.722252e+002, 7.004708e+003
1.727073e+002, 7.006778e+003
1.731894e+002, 7.008722e+003
1.736715e+002, 7.010555e+003
1.741536e+002, 7.012240e+003
1.746357e+002, 7.014263e+003
1.751179e+002, 7.015959e+003
1.756000e+002, 7.015553e+003
1.760821e+002, 7.012252e+003
1.765642e+002, 7.010475e+003
1.770463e+002, 7.017498e+003
1.775284e+002, 7.030339e+003
1.780106e+002, 7.039753e+003
1.784927e+002, 7.038166e+003
1.789748e+002, 7.030596e+003
1.794569e+002, 7.025178e+003
1.799390e+002, 7.022625e+003
1.804211e+002, 7.022455e+003
1.809033e+002, 7.025156e+003
1.813854e+002, 7.030237e+003
1.818675e+002, 7.035134e+003
1.823496e+002, 7.038063e+003
1.828317e+002, 7.039773e+003
1.833138e+002, 7.042167e+003
1.837960e+002, 7.045460e+003
1.842781e+002, 7.049286e+003
1.847602e+002, 7.053242e+003
1.852423e+002, 7.057293e+003
1.857244e+002, 7.061076e+003
1.862065e+002, 7.063859e+003
1.866887e+002, 7.066034e+003
1.871708e+002, 7.069328e+003
1.876529e+002, 7.074009e+003
1.881350e+002, 7.079488e+003
1.886171e+002, 7.084313e+003
1.890992e+002, 7.088546e+003
1.895814e+002, 7.093868e+003
1.900635e+002, 7.102446e+003
1.905456e+002, 7.113721e+003
1.910277e+002, 7.123240e+003
1.915098e+002, 7.130937e+003
1.919919e+002, 7.136182e+003
1.924741e+002, 7.135869e+003
1.929562e+002, 7.129716e+003
1.934383e+002, 7.124350e+003
1.939204e+002, 7.124856e+003
1.944025e+002, 7.130895e+003
1.948846e+002, 7.136855e+003
1.953668e+002, 7.142058e+003
1.958489e+002, 7.146820e+003
1.963310e+002, 7.152307e+003
1.968131e+002, 7.158723e+003
1.972952e+002, 7.164141e+003
1.977773e+002, 7.166162e+003
1.982595e+002, 7.164606e+003
1.987416e+002, 7.166481e+003
1.992237e+002, 7.174038e+003
1.997058e+002, 7.184408e+003
2.001879e+002, 7.188960e+003
2.006700e+002, 7.186778e+003
2.011522e+002, 7.183349e+003
2.016343e+002, 7.182563e+003
2.021164e+002, 7.184769e+003
2.025985e+002, 7.186270e+003
2.030806e+002, 7.185991e+003
2.035627e+002, 7.185051e+003
2.040449e+002, 7.187868e+003
2.045270e+002, 7.195672e+003
2.050091e+002, 7.203015e+003
2.054912e+002, 7.205365e+003
2.059733e+002, 7.201583e+003
2.064554e+002, 7.199552e+003
2.069376e+002, 7.200716e+003
2.074197e+002, 7.204103e+003
2.079018e+002, 7.205856e+003
2.083839e+002, 7.205381e+003
2.088660e+002, 7.204892e+003
2.093481e+002, 7.205839e+003
2.098303e+002, 7.208362e+003
2.103124e+002, 7.212209e+003
2.107945e+002, 7.217917e+003
2.112766e+002, 7.224954e+003
2.117587e+002, 7.230766e+003
2.122408e+002, 7.234424e+003
2.127230e+002, 7.238961e+003
2.132051e+002, 7.247147e+003
2.136872e+002, 7.260726e+003
2.141693e+002, 7.271468e+003
2.146514e+002, 7.277279e+003
2.151335e+002, 7.279381e+003
2.156157e+002, 7.283889e+003
2.160978e+002, 7.292136e+003
2.165799e+002, 7.299976e+003
2.170620e+002, 7.304206e+003
2.175441e+002, 7.302856e+003
2.180262e+002, 7.303542e+003
2.185084e+002, 7.308017e+003
2.189905e+002, 7.315160e+003
2.194726e+002, 7.318735e+003
2.199547e+002, 7.316664e+003
2.204368e+002, 7.314825e+003
2.209189e+002, 7.317745e+003
2.214011e+002, 7.328649e+003
2.218832e+002, 7.336068e+003
2.223653e+002, 7.337864e+003
2.228474e+002, 7.335603e+003
2.233295e+002, 7.336277e+003
2.238116e+002, 7.340966e+003
2.242938e+002, 7.346955e+003
2.247759e+002, 7.352542e+003
2.252580e+002, 7.356971e+003
2.257401e+002, 7.362750e+003
2.262222e+002, 7.371015e+003
2.267043e+002, 7.380678e+003
2.271865e+002, 7.387495e+003
2.276686e+002, 7.390054e+003
2.281507e+002, 7.391539e+003
2.286328e+002, 7.393829e+003
2.291149e+002, 7.397844e+003
2.295970e+002, 7.400454e+003
2.300792e+002, 7.401208e+003
2.305613e+002, 7.400475e+003
2.310434e+002, 7.399058e+003
2.315255e+002, 7.394767e+003
2.320076e+002, 7.393263e+003
2.324897e+002, 7.398694e+003
2.329719e+002, 7.416655e+003
2.334540e+002, 7.429030e+003
2.339361e+002, 7.433157e+003
2.344182e+002, 7.431507e+003
2.349003e+002, 7.432400e+003
2.353824e+002, 7.435562e+003
2.358646e+002, 7.441663e+003
2.363467e+002, 7.451698e+003
2.368288e+002, 7.468971e+003
2.373109e+002, 7.482422e+003
2.377930e+002, 7.490143e+003
2.382751e+002, 7.493972e+003
2.387573e+002, 7.499469e+003
2.392394e+002, 7.507566e+003
2.397215e+002, 7.515654e+003
2.402036e+002, 7.522529e+003
2.406857e+002, 7.527581e+003
2.411678e+002, 7.532463e+003
2.416500e+002, 7.537071e+003
2.421321e+002, 7.541420e+003
2.426142e+002, 7.545752e+003
2.430963e+002, 7.550320e+003
2.435784e+002, 7.554455e+003
2.440605e+002, 7.558052e+003
2.445427e+002, 7.561812e+003
2.450248e+002, 7.563290e+003
2.455069e+002, 7.561645e+003
2.459890e+002, 7.558157e+003
2.464711e+002, 7.555579e+003
2.469532e+002, 7.554201e+003
2.474354e+002, 7.553450e+003
2.479175e+002, 7.553463e+003
2.483996e+002, 7.555050e+003
2.488817e+002, 7.554922e+003
2.493638e+002, 7.551610e+003
2.498459e+002, 7.547602e+003
2.503281e+002, 7.547800e+003
2.508102e+002, 7.554741e+003
2.512923e+002, 7.561752e+003
2.517744e+002, 7.566946e+003
2.522565e+002, 7.570417e+003
2.527386e+002, 7.571350e+003
2.532208e+002, 7.567652e+003
2.537029e+002, 7.562977e+003
2.541850e+002, 7.563514e+003
2.546671e+002, 7.572193e+003
2.551492e+002, 7.580157e+003
2.556313e+002, 7.584151e+003
2.561135e+002, 7.583241e+003
2.565956e+002, 7.583760e+003
2.570777e+002, 7.585794e+003
2.575598e+002, 7.588877e+003
2.580419e+002, 7.592497e+003
2.585240e+002, 7.596603e+003
2.590062e+002, 7.600982e+003
2.594883e+002, 7.605956e+003
2.599704e+002, 7.611577e+003
2.604525e+002, 7.615185e+003
2.609346e+002, 7.616281e+003
2.614167e+002, 7.615981e+003
2.618989e+002, 7.615156e+003
2.623810e+002, 7.613040e+003
2.628631e+002, 7.612849e+003
2.633452e+002, 7.615848e+003
2.638273e+002, 7.622174e+003
2.643094e+002, 7.628683e+003
2.647916e+002, 7.636690e+003
2.652737e+002, 7.643338e+003
2.657558e+002, 7.644626e+003
2.662379e+002, 7.637693e+003
2.667200e+002, 7.635478e+003
2.672021e+002, 7.642599e+003
2.676843e+002, 7.657578e+003
2.681664e+002, 7.665365e+003
2.686485e+002, 7.663575e+003
2.691306e+002, 7.659377e+003
2.696127e+002, 7.658575e+003
2.700948e+002, 7.661532e+003
2.705770e+002, 7.665565e+003
2.710591e+002, 7.669880e+003
2.715412e+002, 7.674721e+003
2.720233e+002, 7.682541e+003
2.725054e+002, 7.694293e+003
2.729875e+002, 7.705717e+003
2.734697e+002, 7.713813e+003
2.739518e+002, 7.718425e+003
2.744339e+002, 7.720556e+003
2.749160e+002, 7.719321e+003
2.753981e+002, 7.716307e+003
2.758802e+002, 7.716318e+003
2.763624e+002, 7.719731e+003
2.768445e+002, 7.724997e+003
2.773266e+002, 7.732401e+003
2.778087e+002, 7.742361e+003
2.782908e+002, 7.748523e+003
2.787729e+002, 7.749531e+003
2.792551e+002, 7.747590e+003
2.797372e+002, 7.747915e+003
2.802193e+002, 7.750994e+003
2.807014e+002, 7.753403e+003
2.811835e+002, 7.752782e+003
2.816656e+002, 7.749198e+003
2.821478e+002, 7.746227e+003
2.826299e+002, 7.743511e+003
2.831120e+002, 7.742461e+003
2.835941e+002, 7.747159e+003
2.840762e+002, 7.758015e+003
2.845583e+002, 7.766678e+003
2.850405e+002, 7.767484e+003
2.855226e+002, 7.761588e+003
2.860047e+002, 7.760144e+003
2.864868e+002, 7.763905e+003
2.869689e+002, 7.769764e+003
2.874510e+002, 7.773440e+003
2.879332e+002, 7.775038e+003
2.884153e+002, 7.777187e+003
2.888974e+002, 7.781746e+003
2.893795e+002, 7.787650e+003
2.898616e+002, 7.789789e+003
2.903438e+002, 7.787546e+003
2.908259e+002, 7.785649e+003
2.913080e+002, 7.791053e+003
2.917901e+002, 7.802282e+003
2.922722e+002, 7.810782e+003
2.927543e+002, 7.812870e+003
2.932365e+002, 7.810756e+003
2.937186e+002, 7.808343e+003
2.942007e+002, 7.805608e+003
2.946828e+002, 7.805143e+003
2.951649e+002, 7.812310e+003
2.956470e+002, 7.824187e+003
2.961292e+002, 7.830932e+003
2.966113e+002, 7.828011e+003
2.970934e+002, 7.820843e+003
2.975755e+002, 7.818565e+003
2.980576e+002, 7.820709e+003
2.985397e+002, 7.822202e+003
2.990219e+002, 7.815893e+003
2.995040e+002, 7.806503e+003
2.999861e+002, 7.805374e+003
3.004682e+002, 7.817532e+003
3.009503e+002, 7.832940e+003
3.014324e+002, 7.839517e+003
3.019146e+002, 7.838790e+003
3.023967e+002, 7.837255e+003
3.028788e+002, 7.837903e+003
3.033609e+002, 7.840583e+003
3.038430e+002, 7.845497e+003
3.043251e+002, 7.853154e+003
3.048073e+002, 7.861151e+003
3.052894e+002, 7.867953e+003
3.057715e+002, 7.873361e+003
3.062536e+002, 7.877158e+003
3.067357e+002, 7.876786e+003
3.072178e+002, 7.875755e+003
3.077000e+002, 7.877484e+003
3.081821e+002, 7.882188e+003
3.086642e+002, 7.888928e+003
3.091463e+002, 7.898938e+003
3.096284e+002, 7.910068e+003
3.101105e+002, 7.919170e+003
3.105927e+002, 7.924008e+003
3.110748e+002, 7.926783e+003
3.115569e+002, 7.928593e+003
3.120390e+002, 7.929512e+003
3.125211e+002, 7.930577e+003
3.130032e+002, 7.932192e+003
3.134854e+002, 7.934471e+003
3.139675e+002, 7.937524e+003
3.144496e+002, 7.943964e+003
3.149317e+002, 7.949064e+003
3.154138e+002, 7.949467e+003
3.158959e+002, 7.946072e+003
3.163781e+002, 7.943986e+003
3.168602e+002, 7.947152e+003
3.173423e+002, 7.951636e+003
3.178244e+002, 7.954510e+003
3.183065e+002, 7.953900e+003
3.187886e+002, 7.953425e+003
3.192708e+002, 7.953065e+003
3.197529e+002, 7.953545e+003
3.202350e+002, 7.956940e+003
3.207171e+002, 7.967904e+003
3.211992e+002, 7.978726e+003
3.216813e+002, 7.985080e+003
3.221635e+002, 7.983868e+003
3.226456e+002, 7.983708e+003
3.231277e+002, 7.986317e+003
3.236098e+002, 7.990849e+003
3.240919e+002, 7.995948e+003
3.245740e+002, 8.001522e+003
3.250562e+002, 8.007369e+003
3.255383e+002, 8.013805e+003
3.260204e+002, 8.021421e+003
3.265025e+002, 8.027302e+003
3.269846e+002, 8.031034e+003
3.274667e+002, 8.033151e+003
3.279489e+002, 8.034275e+003
3.284310e+002, 8.033942e+003
3.289131e+002, 8.033423e+003
3.293952e+002, 8.032915e+003
3.298773e+002, 8.032484e+003
3.303594e+002, 8.032159e+003
3.308416e+002, 8.030504e+003
3.313237e+002, 8.030237e+003
3.318058e+002, 8.033586e+003
3.322879e+002, 8.044036e+003
3.327700e+002, 8.051985e+003
3.332521e+002, 8.055265e+003
3.337343e+002, 8.055189e+003
3.342164e+002, 8.058727e+003
3.346985e+002, 8.068370e+003
3.351806e+002, 8.077491e+003
3.356627e+002, 8.082242e+003
3.361448e+002, 8.080932e+003
3.366270e+002, 8.079854e+003
3.371091e+002, 8.078440e+003
3.375912e+002, 8.077876e+003
3.380733e+002, 8.081841e+003
3.385554e+002, 8.092553e+003
3.390375e+002, 8.100535e+003
3.395197e+002, 8.100039e+003
3.400018e+002, 8.090290e+003
3.404839e+002, 8.088109e+003
3.409660e+002, 8.095452e+003
3.414481e+002, 8.106160e+003
3.419302e+002, 8.112670e+003
3.424124e+002, 8.114862e+003
3.428945e+002, 8.114586e+003
3.433766e+002, 8.111646e+003
3.438587e+002, 8.106670e+003
3.443408e+002, 8.101998e+003
3.448229e+002, 8.097452e+003
3.453051e+002, 8.094487e+003
3.457872e+002, 8.095700e+003
3.462693e+002, 8.100303e+003
3.467514e+002, 8.102960e+003
3.472335e+002, 8.102082e+003
3.477156e+002, 8.099435e+003
3.481978e+002, 8.098621e+003
3.486799e+002, 8.099547e+003
3.491620e+002, 8.100263e+003
3.496441e+002, 8.099096e+003
3.501262e+002, 8.096879e+003
3.506083e+002, 8.095196e+003
3.510905e+002, 8.094022e+003
3.515726e+002, 8.094314e+003
3.520547e+002, 8.097798e+003
3.525368e+002, 8.103750e+003
3.530189e+002, 8.109990e+003
3.535010e+002, 8.114925e+003
3.539832e+002, 8.119717e+003
3.544653e+002, 8.126899e+003
3.549474e+002, 8.136775e+003
3.554295e+002, 8.144300e+003
3.559116e+002, 8.142205e+003
3.563937e+002, 8.135852e+003
3.568759e+002, 8.133344e+003
3.573580e+002, 8.141421e+003
3.578401e+002, 8.151119e+003
3.583222e+002, 8.155197e+003
3.588043e+002, 8.154800e+003
3.592864e+002, 8.156510e+003
3.597686e+002, 8.167151e+003
3.602507e+002, 8.179712e+003
3.607328e+002, 8.187872e+003
3.612149e+002, 8.188084e+003
3.616970e+002, 8.187409e+003
3.621791e+002, 8.187031e+003
3.626613e+002, 8.187664e+003
3.631434e+002, 8.191033e+003
3.636255e+002, 8.200461e+003
3.641076e+002, 8.210376e+003
3.645897e+002, 8.218396e+003
3.650718e+002, 8.223976e+003
3.655540e+002, 8.227926e+003
3.660361e+002, 8.230488e+003
3.665182e+002, 8.231467e+003
3.670003e+002, 8.230644e+003
3.674824e+002, 8.226731e+003
3.679645e+002, 8.222483e+003
3.684467e+002, 8.218181e+003
3.689288e+002, 8.213955e+003
3.694109e+002, 8.210926e+003
3.698930e+002, 8.207942e+003
3.703751e+002, 8.207305e+003
3.708572e+002, 8.211003e+003
3.713394e+002, 8.223588e+003
3.718215e+002, 8.232935e+003
3.723036e+002, 8.237309e+003
3.727857e+002, 8.237842e+003
3.732678e+002, 8.238533e+003
3.737499e+002, 8.239222e+003
3.742321e+002, 8.240136e+003
3.747142e+002, 8.241153e+003
3.751963e+002, 8.241901e+003
3.756784e+002, 8.244178e+003
3.761605e+002, 8.248483e+003
3.766426e+002, 8.253488e+003
3.771248e+002, 8.257001e+003
3.776069e+002, 8.258843e+003
3.780890e+002, 8.260342e+003
3.785711e+002, 8.262240e+003
3.790532e+002, 8.264277e+003
3.795353e+002, 8.263477e+003
3.800175e+002, 8.259129e+003
3.804996e+002, 8.255650e+003
3.809817e+002, 8.258855e+003
3.814638e+002, 8.267735e+003
3.819459e+002, 8.273409e+003
3.824280e+002, 8.272784e+003
3.829102e+002, 8.269625e+003
3.833923e+002, 8.271927e+003
3.838744e+002, 8.279100e+003
3.843565e+002, 8.285507e+003
3.848386e+002, 8.286071e+003
3.853207e+002, 8.283438e+003
3.858029e+002, 8.283229e+003
3.862850e+002, 8.286257e+003
3.867671e+002, 8.290148e+003
3.872492e+002, 8.292418e+003
3.877313e+002, 8.293700e+003
3.882134e+002, 8.295405e+003
3.886956e+002, 8.300725e+003
3.891777e+002, 8.305181e+003
3.896598e+002, 8.303226e+003
3.901419e+002, 8.295292e+003
3.906240e+002, 8.288519e+003
3.911061e+002, 8.288782e+003
3.915883e+002, 8.291938e+003
3.920704e+002, 8.293641e+003
3.925525e+002, 8.292164e+003
3.930346e+002, 8.289979e+003
3.935167e+002, 8.287401e+003
3.939988e+002, 8.284936e+003
3.944810e+002, 8.283885e+003
3.949631e+002, 8.284824e+003
3.954452e+002, 8.287197e+003
3.959273e+002, 8.290942e+003
3.964094e+002, 8.296452e+003
3.968915e+002, 8.301970e+003
3.973737e+002, 8.305883e+003
3.978558e+002, 8.309934e+003
3.983379e+002, 8.316268e+003
3.988200e+002, 8.329645e+003
3.993021e+002, 8.340204e+003
3.997842e+002, 8.344517e+003
4.002664e+002, 8.342528e+003
4.007485e+002, 8.343519e+003
4.012306e+002, 8.349465e+003
4.017127e+002, 8.356226e+003
4.021948e+002, 8.360869e+003
4.026769e+002, 8.361120e+003
4.031591e+002, 8.364498e+003
4.036412e+002, 8.374189e+003
4.041233e+002, 8.385941e+003
4.046054e+002, 8.388260e+003
4.050875e+002, 8.377982e+003
4.055696e+002, 8.367647e+003
4.060518e+002, 8.362621e+003
4.065339e+002, 8.363130e+003
4.070160e+002, 8.363487e+003
4.074981e+002, 8.363660e+003
4.079802e+002, 8.364209e+003
4.084623e+002, 8.366012e+003
4.089445e+002, 8.369148e+003
4.094266e+002, 8.372431e+003
4.099087e+002, 8.375864e+003
4.103908e+002, 8.379229e+003
4.108729e+002, 8.381680e+003
4.113550e+002, 8.383326e+003
4.118372e+002, 8.384944e+003
4.123193e+002, 8.386833e+003
4.128014e+002, 8.389149e+003
4.132835e+002, 8.392089e+003
4.137656e+002, 8.395532e+003
4.142477e+002, 8.400004e+003
4.147299e+002, 8.406063e+003
4.152120e+002, 8.413440e+003
4.156941e+002, 8.421450e+003
4.161762e+002, 8.431631e+003
4.166583e+002, 8.440871e+003
4.171404e+002, 8.444915e+003
4.176226e+002, 8.443861e+003
4.181047e+002, 8.444104e+003
4.185868e+002, 8.450165e+003
4.190689e+002, 8.458732e+003
4.195510e+002, 8.467019e+003
4.200331e+002, 8.476741e+003
4.205153e+002, 8.482565e+003
4.209974e+002, 8.479615e+003
4.214795e+002, 8.471038e+003
4.219616e+002, 8.464845e+003
4.224437e+002, 8.465528e+003
4.229258e+002, 8.467129e+003
4.234080e+002, 8.467387e+003
4.238901e+002, 8.466098e+003
4.243722e+002, 8.464322e+003
4.248543e+002, 8.461443e+003
4.253364e+002, 8.458745e+003
4.258185e+002, 8.457439e+003
4.263007e+002, 8.457612e+003
4.267828e+002, 8.459209e+003
4.272649e+002, 8.462359e+003
4.277470e+002, 8.466944e+003
4.282291e+002, 8.472838e+003
4.287112e+002, 8.481562e+003
4.291934e+002, 8.488676e+003
4.296755e+002, 8.491787e+003
4.301576e+002, 8.490443e+003
4.306397e+002, 8.486145e+003
4.311218e+002, 8.477667e+003
4.316039e+002, 8.468138e+003
4.320861e+002, 8.462124e+003
4.325682e+002, 8.459710e+003
4.330503e+002, 8.460083e+003
4.335324e+002, 8.463854e+003
4.340145e+002, 8.470073e+003
4.344966e+002, 8.476396e+003
4.349788e+002, 8.482998e+003
4.354609e+002, 8.486903e+003
4.359430e+002, 8.482254e+003
4.364251e+002, 8.472893e+003
4.369072e+002, 8.470207e+003
4.373893e+002, 8.477941e+003
4.378715e+002, 8.488561e+003
4.383536e+002, 8.492877e+003
4.388357e+002, 8.492962e+003
4.393178e+002, 8.494589e+003
4.397999e+002, 8.502142e+003
4.402820e+002, 8.511573e+003
4.407642e+002, 8.519379e+003
4.412463e+002, 8.525320e+003
4.417284e+002, 8.529907e+003
4.422105e+002, 8.532794e+003
4.426926e+002, 8.534614e+003
4.431747e+002, 8.535965e+003
4.436569e+002, 8.536556e+003
4.441390e+002, 8.537036e+003
4.446211e+002, 8.536691e+003
4.451032e+002, 8.536244e+003
4.455853e+002, 8.537848e+003
4.460674e+002, 8.546350e+003
4.465496e+002, 8.553235e+003
4.470317e+002, 8.554541e+003
4.475138e+002, 8.547602e+003
4.479959e+002, 8.544319e+003
4.484780e+002, 8.547816e+003
4.489601e+002, 8.553162e+003
4.494423e+002, 8.555243e+003
4.499244e+002, 8.551389e+003
4.504065e+002, 8.550376e+003
4.508886e+002, 8.554614e+003
4.513707e+002, 8.562639e+003
4.518528e+002, 8.568008e+003
4.523350e+002, 8.569763e+003
4.528171e+002, 8.571526e+003
4.532992e+002, 8.575618e+003
4.537813e+002, 8.581982e+003
4.542634e+002, 8.586505e+003
4.547455e+002, 8.588529e+003
4.552277e+002, 8.589976e+003
4.557098e+002, 8.593265e+003
4.561919e+002, 8.598144e+003
4.566740e+002, 8.603852e+003
4.571561e+002, 8.610864e+003
4.576382e+002, 8.617791e+003
4.581204e+002, 8.621564e+003
4.586025e+002, 8.622608e+003
4.590846e+002, 8.623502e+003
4.595667e+002, 8.626558e+003
4.600488e+002, 8.630448e+003
4.605309e+002, 8.633238e+003
4.610131e+002, 8.634428e+003
4.614952e+002, 8.635939e+003
4.619773e+002, 8.639982e+003
4.624594e+002, 8.645012e+003
4.629415e+002, 8.648793e+003
4.634236e+002, 8.649565e+003
4.639058e+002, 8.649685e+003
4.643879e+002, 8.649753e+003
4.648700e+002, 8.649849e+003
4.653521e+002, 8.650613e+003
4.658342e+002, 8.652547e+003
4.663163e+002, 8.654852e+003
4.667985e+002, 8.657144e+003
4.672806e+002, 8.659716e+003
4.677627e+002, 8.661509e+003
4.682448e+002, 8.661244e+003
4.687269e+002, 8.660673e+003
4.692090e+002, 8.662410e+003
4.696912e+002, 8.667862e+003
4.701733e+002, 8.673127e+003
4.706554e+002, 8.677799e+003
4.711375e+002, 8.681688e+003
4.716196e+002, 8.682430e+003
4.721017e+002, 8.678765e+003
4.725839e+002, 8.675400e+003
4.730660e+002, 8.675758e+003
4.735481e+002, 8.679888e+003
4.740302e+002, 8.684522e+003
4.745123e+002, 8.689797e+003
4.749944e+002, 8.694758e+003
4.754766e+002, 8.698475e+003
4.759587e+002, 8.700919e+003
4.764408e+002, 8.701267e+003
4.769229e+002, 8.697777e+003
4.774050e+002, 8.693065e+003
4.778871e+002, 8.690996e+003
4.783693e+002, 8.691608e+003
4.788514e+002, 8.694595e+003
4.793335e+002, 8.703190e+003
4.798156e+002, 8.712626e+003
4.802977e+002, 8.715788e+003
4.807798e+002, 8.708913e+003
4.812620e+002, 8.704221e+003
4.817441e+002, 8.711509e+003
4.822262e+002, 8.724729e+003
4.827083e+002, 8.734996e+003
4.831904e+002, 8.735232e+003
4.836725e+002, 8.735777e+003
4.841547e+002, 8.741203e+003
4.846368e+002, 8.751041e+003
4.851189e+002, 8.758917e+003
4.856010e+002, 8.762416e+003
4.860831e+002, 8.764800e+003
4.865652e+002, 8.767600e+003
4.870474e+002, 8.770774e+003
4.875295e+002, 8.774500e+003
4.880116e+002, 8.779554e+003
4.884937e+002, 8.784520e+003
4.889758e+002, 8.787074e+003
4.894579e+002, 8.786122e+003
4.899401e+002, 8.786261e+003
4.904222e+002, 8.789146e+003
4.909043e+002, 8.793912e+003
4.913864e+002, 8.796256e+003
4.918685e+002, 8.795837e+003
4.923506e+002, 8.795407e+003
4.928328e+002, 8.798003e+003
4.933149e+002, 8.802522e+003
4.937970e+002, 8.803297e+003
4.942791e+002, 8.799438e+003
4.947612e+002, 8.794498e+003
4.952433e+002, 8.792075e+003
4.957255e+002, 8.791796e+003
4.962076e+002, 8.792609e+003
4.966897e+002, 8.794688e+003
4.971718e+002, 8.797308e+003
4.976539e+002, 8.800094e+003
4.981360e+002, 8.802939e+003
4.986182e+002, 8.805356e+003
4.991003e+002, 8.806014e+003
4.995824e+002, 8.806896e+003
5.000645e+002, 8.809287e+003
5.005466e+002, 8.813420e+003
5.010287e+002, 8.818646e+003
5.015109e+002, 8.826024e+003
5.019930e+002, 8.833747e+003
5.024751e+002, 8.839934e+003
5.029572e+002, 8.842268e+003
5.034393e+002, 8.845350e+003
5.039214e+002, 8.849413e+003
5.044036e+002, 8.854479e+003
5.048857e+002, 8.860861e+003
5.053678e+002, 8.869229e+003
5.058499e+002, 8.877882e+003
5.063320e+002, 8.885672e+003
5.068141e+002, 8.892368e+003
5.072963e+002, 8.902603e+003
5.077784e+002, 8.917351e+003
5.082605e+002, 8.933525e+003
5.087426e+002, 8.948535e+003
5.092247e+002, 8.962401e+003
5.097068e+002, 8.975124e+003
5.101890e+002, 8.986089e+003
5.106711e+002, 8.996931e+003
5.111532e+002, 9.010140e+003
5.116353e+002, 9.025496e+003
5.121174e+002, 9.041710e+003
5.125995e+002, 9.056926e+003
5.130817e+002, 9.073342e+003
5.135638e+002, 9.094730e+003
5.140459e+002, 9.120897e+003
5.145280e+002, 9.146779e+003
5.150101e+002, 9.168022e+003
5.154922e+002, 9.188229e+003
5.159744e+002, 9.210831e+003
5.164565e+002, 9.238726e+003
5.169386e+002, 9.265310e+003
5.174207e+002, 9.286944e+003
5.179028e+002, 9.306309e+003
5.183849e+002, 9.327733e+003
5.188671e+002, 9.356454e+003
5.193492e+002, 9.382426e+003
5.198313e+002, 9.404247e+003
5.203134e+002, 9.421706e+003
5.207955e+002, 9.435028e+003
5.212776e+002, 9.445635e+003
5.217598e+002, 9.449804e+003
5.222419e+002, 9.445087e+003
5.227240e+002, 9.430720e+003
5.232061e+002, 9.410206e+003
5.236882e+002, 9.381741e+003
5.241703e+002, 9.350743e+003
5.246525e+002, 9.325686e+003
5.251346e+002, 9.305929e+003
5.256167e+002, 9.281781e+003
5.260988e+002, 9.249241e+003
5.265809e+002, 9.213066e+003
5.270630e+002, 9.180780e+003
5.275452e+002, 9.152545e+003
5.280273e+002, 9.128120e+003
5.285094e+002, 9.108314e+003
5.289915e+002, 9.091587e+003
5.294736e+002, 9.075547e+003
5.299557e+002, 9.059882e+003
5.304379e+002, 9.046966e+003
5.309200e+002, 9.040062e+003
5.314021e+002, 9.035399e+003
5.318842e+002, 9.029101e+003
5.323663e+002, 9.017886e+003
5.328484e+002, 9.008080e+003
5.333306e+002, 9.001609e+003
5.338127e+002, 8.997483e+003
5.342948e+002, 8.993905e+003
5.347769e+002, 8.991233e+003
5.352590e+002, 8.988439e+003
5.357411e+002, 8.985243e+003
5.362233e+002, 8.981743e+003
5.367054e+002, 8.978923e+003
5.371875e+002, 8.977487e+003
5.376696e+002, 8.975778e+003
5.381517e+002, 8.972201e+003
5.386339e+002, 8.966589e+003
5.391160e+002, 8.963219e+003
5.395981e+002, 8.962646e+003
5.400802e+002, 8.963714e+003
5.405623e+002, 8.966557e+003
5.410444e+002, 8.970310e+003
5.415266e+002, 8.969654e+003
5.420087e+002, 8.959931e+003
5.424908e+002, 8.948340e+003
5.429729e+002, 8.946109e+003
5.434550e+002, 8.951423e+003
5.439371e+002, 8.957040e+003
5.444193e+002, 8.959013e+003
5.449014e+002, 8.959405e+003
5.453835e+002, 8.959068e+003
5.458656e+002, 8.957907e+003
5.463477e+002, 8.959018e+003
5.468298e+002, 8.966177e+003
5.473120e+002, 8.974704e+003
5.477941e+002, 8.980688e+003
5.482762e+002, 8.981701e+003
5.487583e+002, 8.982567e+003
5.492404e+002, 8.984904e+003
5.497225e+002, 8.986884e+003
5.502047e+002, 8.985166e+003
5.506868e+002, 8.977996e+003
5.511689e+002, 8.970295e+003
5.516510e+002, 8.962416e+003
5.521331e+002, 8.954940e+003
5.526152e+002, 8.952770e+003
5.530974e+002, 8.957032e+003
5.535795e+002, 8.961592e+003
5.540616e+002, 8.962733e+003
5.545437e+002, 8.960907e+003
5.550258e+002, 8.957181e+003
5.555079e+002, 8.951244e+003
5.559901e+002, 8.946887e+003
5.564722e+002, 8.949375e+003
5.569543e+002, 8.956267e+003
5.574364e+002, 8.962388e+003
5.579185e+002, 8.965947e+003
5.584006e+002, 8.968703e+003
5.588828e+002, 8.972177e+003
5.593649e+002, 8.975774e+003
5.598470e+002, 8.978313e+003
5.603291e+002, 8.976743e+003
5.608112e+002, 8.975937e+003
5.612933e+002, 8.978796e+003
5.617755e+002, 8.985310e+003
5.622576e+002, 8.989799e+003
5.627397e+002, 8.989236e+003
5.632218e+002, 8.987980e+003
5.637039e+002, 8.988187e+003
5.641860e+002, 8.990609e+003
5.646682e+002, 8.992720e+003
5.651503e+002, 8.994849e+003
5.656324e+002, 8.996546e+003
5.661145e+002, 8.997297e+003
5.665966e+002, 8.997252e+003
5.670787e+002, 8.996280e+003
5.675609e+002, 8.994100e+003
5.680430e+002, 8.991722e+003
5.685251e+002, 8.991958e+003
5.690072e+002, 8.994476e+003
5.694893e+002, 8.995972e+003
5.699714e+002, 8.992469e+003
5.704536e+002, 8.987884e+003
5.709357e+002, 8.988636e+003
5.714178e+002, 8.994466e+003
5.718999e+002, 9.000204e+003
5.723820e+002, 9.001159e+003
5.728641e+002, 9.001123e+003
5.733463e+002, 9.004013e+003
5.738284e+002, 9.012556e+003
5.743105e+002, 9.018220e+003
5.747926e+002, 9.014792e+003
5.752747e+002, 9.008275e+003
5.757568e+002, 9.006324e+003
5.762390e+002, 9.014650e+003
5.767211e+002, 9.020465e+003
5.772032e+002, 9.020810e+003
5.776853e+002, 9.017740e+003
5.781674e+002, 9.019167e+003
5.786495e+002, 9.027515e+003
5.791317e+002, 9.033203e+003
5.796138e+002, 9.030400e+003
5.800959e+002, 9.020739e+003
5.805780e+002, 9.018365e+003
5.810601e+002, 9.023810e+003
5.815422e+002, 9.031075e+003
5.820244e+002, 9.035918e+003
5.825065e+002, 9.038732e+003
5.829886e+002, 9.040009e+003
5.834707e+002, 9.039604e+003
5.839528e+002, 9.039202e+003
5.844349e+002, 9.038928e+003
5.849171e+002, 9.039981e+003
5.853992e+002, 9.044210e+003
5.858813e+002, 9.057875e+003
5.863634e+002, 9.068672e+003
5.868455e+002, 9.069271e+003
5.873276e+002, 9.062802e+003
5.878098e+002, 9.057839e+003
5.882919e+002, 9.056310e+003
5.887740e+002, 9.056079e+003
5.892561e+002, 9.056673e+003
5.897382e+002, 9.058063e+003
5.902203e+002, 9.059498e+003
5.907025e+002, 9.061037e+003
5.911846e+002, 9.062432e+003
5.916667e+002, 9.063696e+003
5.921488e+002, 9.064915e+003
5.926309e+002, 9.065052e+003
5.931130e+002, 9.063990e+003
5.935952e+002, 9.062489e+003
5.940773e+002, 9.060878e+003
5.945594e+002, 9.059567e+003
5.950415e+002, 9.060252e+003
5.955236e+002, 9.064321e+003
5.960057e+002, 9.068941e+003
5.964879e+002, 9.069967e+003
5.969700e+002, 9.069062e+003
5.974521e+002, 9.070067e+003
5.979342e+002, 9.078971e+003
5.984163e+002, 9.086537e+003
5.988984e+002, 9.086088e+003
5.993806e+002, 9.078487e+003
5.998627e+002, 9.072902e+003
6.003448e+002, 9.073143e+003
6.008269e+002, 9.074290e+003
6.013090e+002, 9.073448e+003
6.017911e+002, 9.069051e+003
6.022733e+002, 9.068928e+003
6.027554e+002, 9.074971e+003
6.032375e+002, 9.082571e+003
6.037196e+002, 9.087400e+003
6.042017e+002, 9.089282e+003
6.046838e+002, 9.090460e+003
6.051660e+002, 9.090812e+003
6.056481e+002, 9.091578e+003
6.061302e+002, 9.095782e+003
6.066123e+002, 9.102534e+003
6.070944e+002, 9.107479e+003
6.075765e+002, 9.107775e+003
6.080587e+002, 9.106682e+003
6.085408e+002, 9.108027e+003
6.090229e+002, 9.111212e+003
6.095050e+002, 9.114230e+003
6.099871e+002, 9.115653e+003
6.104692e+002, 9.116755e+003
6.109514e+002, 9.117927e+003
6.114335e+002, 9.119109e+003
6.119156e+002, 9.121350e+003
6.123977e+002, 9.127585e+003
6.128798e+002, 9.132738e+003
6.133619e+002, 9.133339e+003
6.138441e+002, 9.125625e+003
6.143262e+002, 9.122804e+003
6.148083e+002, 9.126443e+003
6.152904e+002, 9.132943e+003
6.157725e+002, 9.139011e+003
6.162546e+002, 9.144954e+003
6.167368e+002, 9.145579e+003
6.172189e+002, 9.137969e+003
6.177010e+002, 9.128087e+003
6.181831e+002, 9.127558e+003
6.186652e+002, 9.134509e+003
6.191473e+002, 9.141449e+003
6.196295e+002, 9.145243e+003
6.201116e+002, 9.146886e+003
6.205937e+002, 9.146348e+003
6.210758e+002, 9.144140e+003
6.215579e+002, 9.142826e+003
6.220400e+002, 9.144866e+003
6.225222e+002, 9.147178e+003
6.230043e+002, 9.147100e+003
6.234864e+002, 9.143276e+003
6.239685e+002, 9.143581e+003
6.244506e+002, 9.154212e+003
6.249327e+002, 9.164595e+003
6.254149e+002, 9.166984e+003
6.258970e+002, 9.157186e+003
6.263791e+002, 9.152397e+003
6.268612e+002, 9.154745e+003
6.273433e+002, 9.159580e+003
6.278254e+002, 9.159717e+003
6.283076e+002, 9.155444e+003
6.287897e+002, 9.153259e+003
6.292718e+002, 9.155395e+003
6.297539e+002, 9.159417e+003
6.302360e+002, 9.161122e+003
6.307181e+002, 9.161385e+003
6.312003e+002, 9.162913e+003
6.316824e+002, 9.168829e+003
6.321645e+002, 9.175244e+003
6.326466e+002, 9.179844e+003
6.331287e+002, 9.182530e+003
6.336108e+002, 9.182747e+003
6.340930e+002, 9.175780e+003
6.345751e+002, 9.170124e+003
6.350572e+002, 9.171538e+003
6.355393e+002, 9.182659e+003
6.360214e+002, 9.187471e+003
6.365035e+002, 9.181747e+003
6.369857e+002, 9.174781e+003
6.374678e+002, 9.174024e+003
6.379499e+002, 9.180425e+003
6.384320e+002, 9.185797e+003
6.389141e+002, 9.189356e+003
6.393962e+002, 9.192384e+003
6.398784e+002, 9.197293e+003
6.403605e+002, 9.203335e+003
6.408426e+002, 9.207371e+003
6.413247e+002, 9.208157e+003
6.418068e+002, 9.207309e+003
6.422889e+002, 9.204665e+003
6.427711e+002, 9.201834e+003
6.432532e+002, 9.202335e+003
6.437353e+002, 9.211765e+003
6.442174e+002, 9.221129e+003
6.446995e+002, 9.226200e+003
6.451816e+002, 9.227310e+003
6.456638e+002, 9.227644e+003
6.461459e+002, 9.225547e+003
6.466280e+002, 9.224950e+003
6.471101e+002, 9.227749e+003
6.475922e+002, 9.234166e+003
6.480743e+002, 9.238487e+003
6.485565e+002, 9.239771e+003
6.490386e+002, 9.241010e+003
6.495207e+002, 9.244435e+003
6.500028e+002, 9.249771e+003
6.504849e+002, 9.255896e+003
6.509670e+002, 9.262878e+003
6.514492e+002, 9.268694e+003
6.519313e+002, 9.269708e+003
6.524134e+002, 9.268201e+003
6.528955e+002, 9.268828e+003
6.533776e+002, 9.274095e+003
6.538597e+002, 9.278830e+003
6.543419e+002, 9.279462e+003
6.548240e+002, 9.277671e+003
6.553061e+002, 9.276001e+003
6.557882e+002, 9.275373e+003
6.562703e+002, 9.274973e+003
6.567524e+002, 9.274640e+003
6.572346e+002, 9.274625e+003
6.577167e+002, 9.275448e+003
6.581988e+002, 9.277188e+003
6.586809e+002, 9.279915e+003
6.591630e+002, 9.283976e+003
6.596451e+002, 9.289047e+003
6.601273e+002, 9.293235e+003
6.606094e+002, 9.296471e+003
6.610915e+002, 9.299279e+003
6.615736e+002, 9.300732e+003
6.620557e+002, 9.302212e+003
6.625378e+002, 9.306938e+003
6.630200e+002, 9.314968e+003
6.635021e+002, 9.323659e+003
6.639842e+002, 9.331767e+003
6.644663e+002, 9.339245e+003
6.649484e+002, 9.346288e+003
6.654305e+002, 9.353752e+003
6.659127e+002, 9.358561e+003
6.663948e+002, 9.357598e+003
6.668769e+002, 9.355010e+003
6.673590e+002, 9.355156e+003
6.678411e+002, 9.360082e+003
6.683232e+002, 9.363634e+003
6.688054e+002, 9.364838e+003
6.692875e+002, 9.365115e+003
6.697696e+002, 9.366783e+003
6.702517e+002, 9.369831e+003
6.707338e+002, 9.373751e+003
6.712159e+002, 9.378611e+003
6.716981e+002, 9.383769e+003
6.721802e+002, 9.388872e+003
6.726623e+002, 9.393429e+003
6.731444e+002, 9.395924e+003
6.736265e+002, 9.392585e+003
6.741086e+002, 9.389299e+003
6.745908e+002, 9.391605e+003
6.750729e+002, 9.398615e+003
6.755550e+002, 9.403816e+003
6.760371e+002, 9.403154e+003
6.765192e+002, 9.402260e+003
6.770013e+002, 9.403562e+003
6.774835e+002, 9.407236e+003
6.779656e+002, 9.412329e+003
6.784477e+002, 9.419884e+003
6.789298e+002, 9.427096e+003
6.794119e+002, 9.430938e+003
6.798940e+002, 9.431374e+003
6.803762e+002, 9.436781e+003
6.808583e+002, 9.448379e+003
6.813404e+002, 9.458738e+003
6.818225e+002, 9.458215e+003
6.823046e+002, 9.451101e+003
6.827867e+002, 9.446240e+003
6.832689e+002, 9.445550e+003
6.837510e+002, 9.447098e+003
6.842331e+002, 9.451792e+003
6.847152e+002, 9.457170e+003
6.851973e+002, 9.459981e+003
6.856794e+002, 9.456054e+003
6.861616e+002, 9.453642e+003
6.866437e+002, 9.455189e+003
6.871258e+002, 9.458987e+003
6.876079e+002, 9.462267e+003
6.880900e+002, 9.465483e+003
6.885721e+002, 9.466583e+003
6.890543e+002, 9.463879e+003
6.895364e+002, 9.459380e+003
6.900185e+002, 9.459849e+003
6.905006e+002, 9.465040e+003
6.909827e+002, 9.469652e+003
6.914648e+002, 9.471600e+003
6.919470e+002, 9.470926e+003
6.924291e+002, 9.467548e+003
6.929112e+002, 9.461583e+003
6.933933e+002, 9.453813e+003
6.938754e+002, 9.438536e+003
6.943575e+002, 9.426449e+003
6.948397e+002, 9.427578e+003
6.953218e+002, 9.444119e+003
6.958039e+002, 9.453736e+003
6.962860e+002, 9.447192e+003
6.967681e+002, 9.439318e+003
6.972502e+002, 9.438041e+003
6.977324e+002, 9.445497e+003
6.982145e+002, 9.449204e+003
6.986966e+002, 9.448304e+003
6.991787e+002, 9.446264e+003
6.996608e+002, 9.446245e+003
7.001429e+002, 9.447976e+003
7.006251e+002, 9.450384e+003
7.011072e+002, 9.453417e+003
7.015893e+002, 9.456123e+003
7.020714e+002, 9.456618e+003
7.025535e+002, 9.456334e+003
7.030356e+002, 9.457474e+003
7.035178e+002, 9.461196e+003
7.039999e+002, 9.465221e+003
7.044820e+002, 9.468815e+003
7.049641e+002, 9.472038e+003
7.054462e+002, 9.475063e+003
7.059283e+002, 9.477755e+003
7.064105e+002, 9.480567e+003
7.068926e+002, 9.483878e+003
7.073747e+002, 9.487234e+003
7.078568e+002, 9.489578e+003
7.083389e+002, 9.490963e+003
7.088210e+002, 9.491422e+003
7.093032e+002, 9.490460e+003
7.097853e+002, 9.489183e+003
7.102674e+002, 9.490236e+003
7.107495e+002, 9.493116e+003
7.112316e+002, 9.495560e+003
7.117137e+002, 9.495698e+003
7.121959e+002, 9.495437e+003
7.126780e+002, 9.495713e+003
7.131601e+002, 9.496647e+003
7.136422e+002, 9.498849e+003
7.141243e+002, 9.503007e+003
7.146064e+002, 9.507987e+003
7.150886e+002, 9.513897e+003
7.155707e+002, 9.520873e+003
7.160528e+002, 9.525139e+003
7.165349e+002, 9.526011e+003
7.170170e+002, 9.526121e+003
7.174991e+002, 9.527562e+003
7.179813e+002, 9.529985e+003
7.184634e+002, 9.530049e+003
7.189455e+002, 9.527580e+003
7.194276e+002, 9.525382e+003
7.199097e+002, 9.525826e+003
7.203918e+002, 9.528019e+003
7.208740e+002, 9.530886e+003
7.213561e+002, 9.534333e+003
7.218382e+002, 9.537972e+003
7.223203e+002, 9.541699e+003
7.228024e+002, 9.545392e+003
7.232845e+002, 9.548911e+003
7.237667e+002, 9.551579e+003
7.242488e+002, 9.555165e+003
7.247309e+002, 9.560187e+003
7.252130e+002, 9.565491e+003
7.256951e+002, 9.570053e+003
7.261772e+002, 9.573912e+003
7.266594e+002, 9.575955e+003
7.271415e+002, 9.575605e+003
7.276236e+002, 9.574549e+003
7.281057e+002, 9.575831e+003
7.285878e+002, 9.578302e+003
7.290699e+002, 9.578729e+003
7.295521e+002, 9.574450e+003
7.300342e+002, 9.570513e+003
7.305163e+002, 9.571626e+003
7.309984e+002, 9.575266e+003
7.314805e+002, 9.576889e+003
7.319626e+002, 9.571855e+003
7.324448e+002, 9.569085e+003
7.329269e+002, 9.570743e+003
7.334090e+002, 9.575556e+003
7.338911e+002, 9.580156e+003
7.343732e+002, 9.584528e+003
7.348553e+002, 9.588629e+003
7.353375e+002, 9.592307e+003
7.358196e+002, 9.595813e+003
7.363017e+002, 9.600165e+003
7.367838e+002, 9.605129e+003
7.372659e+002, 9.609288e+003
7.377480e+002, 9.611046e+003
7.382302e+002, 9.612224e+003
7.387123e+002, 9.615405e+003
7.391944e+002, 9.619840e+003
7.396765e+002, 9.621873e+003
7.401586e+002, 9.617312e+003
7.406407e+002, 9.612699e+003
7.411229e+002, 9.610902e+003
7.416050e+002, 9.611813e+003
7.420871e+002, 9.613557e+003
7.425692e+002, 9.616493e+003
7.430513e+002, 9.619513e+003
7.435334e+002, 9.622272e+003
7.440156e+002, 9.624732e+003
7.444977e+002, 9.625994e+003
7.449798e+002, 9.626088e+003
7.454619e+002, 9.626245e+003
7.459440e+002, 9.625934e+003
7.464261e+002, 9.626982e+003
7.469083e+002, 9.633321e+003
7.473904e+002, 9.645354e+003
7.478725e+002, 9.654493e+003
7.483546e+002, 9.654387e+003
7.488367e+002, 9.651441e+003
7.493188e+002, 9.649498e+003
7.498010e+002, 9.648619e+003
7.502831e+002, 9.649576e+003
7.507652e+002, 9.654171e+003
7.512473e+002, 9.657592e+003
7.517294e+002, 9.654972e+003
7.522115e+002, 9.646439e+003
7.526937e+002, 9.640405e+003
7.531758e+002, 9.637513e+003
7.536579e+002, 9.636411e+003
7.541400e+002, 9.637924e+003
7.546221e+002, 9.639747e+003
7.551042e+002, 9.637344e+003
7.555864e+002, 9.628822e+003
7.560685e+002, 9.620994e+003
7.565506e+002, 9.619418e+003
7.570327e+002, 9.619558e+003
7.575148e+002, 9.616864e+003
7.579969e+002, 9.606078e+003
7.584791e+002, 9.599910e+003
7.589612e+002, 9.599947e+003
7.594433e+002, 9.602749e+003
7.599254e+002, 9.604203e+003
7.604075e+002, 9.604158e+003
7.608896e+002, 9.604389e+003
7.613718e+002, 9.605092e+003
7.618539e+002, 9.605974e+003
7.623360e+002, 9.606819e+003
7.628181e+002, 9.607504e+003
7.633002e+002, 9.608116e+003
7.637823e+002, 9.610118e+003
7.642645e+002, 9.609419e+003
7.647466e+002, 9.599604e+003
7.652287e+002, 9.587016e+003
7.657108e+002, 9.581025e+003
7.661929e+002, 9.588533e+003
7.666750e+002, 9.595643e+003
7.671572e+002, 9.602311e+003
7.676393e+002, 9.607300e+003
7.681214e+002, 9.607597e+003
7.686035e+002, 9.602885e+003
7.690856e+002, 9.597765e+003
7.695677e+002, 9.592527e+003
7.700499e+002, 9.588876e+003
7.705320e+002, 9.589976e+003
7.710141e+002, 9.594746e+003
7.714962e+002, 9.600565e+003
7.719783e+002, 9.610861e+003
7.724604e+002, 9.616979e+003
7.729426e+002, 9.609534e+003
7.734247e+002, 9.594794e+003
7.739068e+002, 9.587705e+003
7.743889e+002, 9.598549e+003
7.748710e+002, 9.604608e+003
7.753531e+002, 9.599779e+003
7.758353e+002, 9.588752e+003
7.763174e+002, 9.586234e+003
7.767995e+002, 9.592829e+003
7.772816e+002, 9.596851e+003
7.777637e+002, 9.592801e+003
7.782458e+002, 9.585280e+003
7.787280e+002, 9.581662e+003
7.792101e+002, 9.581144e+003
7.796922e+002, 9.581065e+003
7.801743e+002, 9.579214e+003
7.806564e+002, 9.578415e+003
7.811385e+002, 9.581420e+003
7.816207e+002, 9.587029e+003
7.821028e+002, 9.589684e+003
7.825849e+002, 9.585803e+003
7.830670e+002, 9.584096e+003
7.835491e+002, 9.587564e+003
7.840313e+002, 9.594593e+003
7.845134e+002, 9.599340e+003
7.849955e+002, 9.601740e+003
7.854776e+002, 9.602097e+003
7.859597e+002, 9.599782e+003
7.864418e+002, 9.595956e+003
7.869240e+002, 9.592224e+003
7.874061e+002, 9.588544e+003
7.878882e+002, 9.584876e+003
7.883703e+002, 9.581521e+003
7.888524e+002, 9.577987e+003
7.893345e+002, 9.573310e+003
7.898167e+002, 9.567984e+003
7.902988e+002, 9.565468e+003
7.907809e+002, 9.566603e+003
7.912630e+002, 9.569501e+003
7.917451e+002, 9.574888e+003
7.922272e+002, 9.581400e+003
7.927094e+002, 9.582486e+003
7.931915e+002, 9.578347e+003
7.936736e+002, 9.573359e+003
7.941557e+002, 9.569528e+003
7.946378e+002, 9.566578e+003
7.951199e+002, 9.564111e+003
7.956021e+002, 9.562238e+003
7.960842e+002, 9.561333e+003
7.965663e+002, 9.564052e+003
7.970484e+002, 9.565354e+003
7.975305e+002, 9.560968e+003
7.980126e+002, 9.552011e+003
7.984948e+002, 9.548663e+003
7.989769e+002, 9.552762e+003
7.994590e+002, 9.558253e+003
7.999411e+002, 9.563514e+003
8.004232e+002, 9.568051e+003
8.009053e+002, 9.568655e+003
8.013875e+002, 9.565755e+003
8.018696e+002, 9.563334e+003
8.023517e+002, 9.564455e+003
8.028338e+002, 9.566744e+003
8.033159e+002, 9.566624e+003
8.037980e+002, 9.564944e+003
8.042802e+002, 9.567034e+003
8.047623e+002, 9.582400e+003
8.052444e+002, 9.593267e+003
8.057265e+002, 9.590253e+003
8.062086e+002, 9.575618e+003
8.066907e+002, 9.571078e+003
8.071729e+002, 9.578790e+003
8.076550e+002, 9.586878e+003
8.081371e+002, 9.590757e+003
8.086192e+002, 9.590457e+003
8.091013e+002, 9.582900e+003
8.095834e+002, 9.569913e+003
8.100656e+002, 9.561814e+003
8.105477e+002, 9.571768e+003
8.110298e+002, 9.582870e+003
8.115119e+002, 9.581828e+003
8.119940e+002, 9.570214e+003
8.124761e+002, 9.562661e+003
8.129583e+002, 9.566298e+003
8.134404e+002, 9.568226e+003
8.139225e+002, 9.563200e+003
8.144046e+002, 9.553187e+003
8.148867e+002, 9.550363e+003
8.153688e+002, 9.555104e+003
8.158510e+002, 9.560170e+003
8.163331e+002, 9.561396e+003
8.168152e+002, 9.560728e+003
8.172973e+002, 9.560963e+003
8.177794e+002, 9.561959e+003
8.182615e+002, 9.563496e+003
8.187437e+002, 9.564156e+003
8.192258e+002, 9.566335e+003
8.197079e+002, 9.573364e+003
8.201900e+002, 9.583746e+003
8.206721e+002, 9.587365e+003
8.211542e+002, 9.581566e+003
8.216364e+002, 9.574677e+003
8.221185e+002, 9.569279e+003
8.226006e+002, 9.564893e+003
8.230827e+002, 9.559518e+003
8.235648e+002, 9.553356e+003
8.240469e+002, 9.547191e+003
8.245291e+002, 9.540141e+003
8.250112e+002, 9.534551e+003
8.254933e+002, 9.534787e+003
8.259754e+002, 9.538706e+003
8.264575e+002, 9.539271e+003
8.269396e+002, 9.529583e+003
8.274218e+002, 9.521876e+003
8.279039e+002, 9.520538e+003
8.283860e+002, 9.523434e+003
8.288681e+002, 9.523124e+003
8.293502e+002, 9.518962e+003
8.298323e+002, 9.515269e+003
8.303145e+002, 9.513614e+003
8.307966e+002, 9.513032e+003
8.312787e+002, 9.511704e+003
8.317608e+002, 9.509839e+003
8.322429e+002, 9.508238e+003
8.327250e+002, 9.507816e+003
8.332072e+002, 9.507113e+003
8.336893e+002, 9.505090e+003
8.341714e+002, 9.502222e+003
8.346535e+002, 9.499794e+003
8.351356e+002, 9.498576e+003
8.356177e+002, 9.496563e+003
8.360999e+002, 9.492596e+003
8.365820e+002, 9.488442e+003
8.370641e+002, 9.489041e+003
8.375462e+002, 9.493876e+003
8.380283e+002, 9.496663e+003
8.385104e+002, 9.494078e+003
8.389926e+002, 9.490998e+003
8.394747e+002, 9.492331e+003
8.399568e+002, 9.497029e+003
8.404389e+002, 9.503329e+003
8.409210e+002, 9.515514e+003
8.414031e+002, 9.523032e+003
8.418853e+002, 9.520085e+003
8.423674e+002, 9.512753e+003
8.428495e+002, 9.509627e+003
8.433316e+002, 9.511649e+003
8.438137e+002, 9.512792e+003
8.442958e+002, 9.512058e+003
8.447780e+002, 9.510092e+003
8.452601e+002, 9.507456e+003
8.457422e+002, 9.504374e+003
8.462243e+002, 9.501301e+003
8.467064e+002, 9.498310e+003
8.471885e+002, 9.495521e+003
8.476707e+002, 9.493257e+003
8.481528e+002, 9.491194e+003
8.486349e+002, 9.489007e+003
8.491170e+002, 9.487601e+003
8.495991e+002, 9.484408e+003
8.500812e+002, 9.478136e+003
8.505634e+002, 9.472448e+003
8.510455e+002, 9.472622e+003
8.515276e+002, 9.477801e+003
8.520097e+002, 9.480557e+003
8.524918e+002, 9.479813e+003
8.529739e+002, 9.478010e+003
8.534561e+002, 9.477216e+003
8.539382e+002, 9.476703e+003
8.544203e+002, 9.475099e+003
8.549024e+002, 9.470826e+003
8.553845e+002, 9.469912e+003
8.558666e+002, 9.476380e+003
8.563488e+002, 9.483735e+003
8.568309e+002, 9.486691e+003
8.573130e+002, 9.483831e+003
8.577951e+002, 9.487340e+003
8.582772e+002, 9.497874e+003
8.587593e+002, 9.509083e+003
8.592415e+002, 9.518428e+003
8.597236e+002, 9.523409e+003
8.602057e+002, 9.517229e+003
8.606878e+002, 9.499465e+003
8.611699e+002, 9.484350e+003
8.616520e+002, 9.481093e+003
8.621342e+002, 9.480702e+003
8.626163e+002, 9.478228e+003
8.630984e+002, 9.473668e+003
8.635805e+002, 9.467257e+003
8.640626e+002, 9.458112e+003
8.645447e+002, 9.450470e+003
8.650269e+002, 9.447885e+003
8.655090e+002, 9.448741e+003
8.659911e+002, 9.447186e+003
8.664732e+002, 9.443592e+003
8.669553e+002, 9.439842e+003
8.674374e+002, 9.435237e+003
8.679196e+002, 9.432529e+003
8.684017e+002, 9.435394e+003
8.688838e+002, 9.442719e+003
8.693659e+002, 9.446169e+003
8.698480e+002, 9.441190e+003
8.703301e+002, 9.438422e+003
8.708123e+002, 9.441033e+003
8.712944e+002, 9.447735e+003
8.717765e+002, 9.455566e+003
8.722586e+002, 9.464050e+003
8.727407e+002, 9.470269e+003
8.732228e+002, 9.473487e+003
8.737050e+002, 9.472963e+003
8.741871e+002, 9.465167e+003
8.746692e+002, 9.453373e+003
8.751513e+002, 9.444588e+003
8.756334e+002, 9.447114e+003
8.761155e+002, 9.445206e+003
8.765977e+002, 9.432636e+003
8.770798e+002, 9.416675e+003
8.775619e+002, 9.412130e+003
8.780440e+002, 9.420169e+003
8.785261e+002, 9.423093e+003
8.790082e+002, 9.415716e+003
8.794904e+002, 9.406584e+003
8.799725e+002, 9.408506e+003
8.804546e+002, 9.416076e+003
8.809367e+002, 9.419571e+003
8.814188e+002, 9.414415e+003
8.819009e+002, 9.409047e+003
8.823831e+002, 9.405972e+003
8.828652e+002, 9.404281e+003
8.833473e+002, 9.403438e+003
8.838294e+002, 9.404295e+003
8.843115e+002, 9.402421e+003
8.847936e+002, 9.397130e+003
8.852758e+002, 9.391502e+003
8.857579e+002, 9.387619e+003
8.862400e+002, 9.386097e+003
8.867221e+002, 9.389160e+003
8.872042e+002, 9.397347e+003
8.876863e+002, 9.405533e+003
8.881685e+002, 9.414521e+003
8.886506e+002, 9.419637e+003
8.891327e+002, 9.414775e+003
8.896148e+002, 9.397331e+003
8.900969e+002, 9.389947e+003
8.905790e+002, 9.394921e+003
8.910612e+002, 9.403374e+003
8.915433e+002, 9.411755e+003
8.920254e+002, 9.419018e+003
8.925075e+002, 9.420015e+003
8.929896e+002, 9.415404e+003
8.934717e+002, 9.411371e+003
8.939539e+002, 9.410629e+003
8.944360e+002, 9.412631e+003
8.949181e+002, 9.418841e+003
8.954002e+002, 9.428286e+003
8.958823e+002, 9.434625e+003
8.963644e+002, 9.438464e+003
8.968466e+002, 9.437685e+003
8.973287e+002, 9.429837e+003
8.978108e+002, 9.418913e+003
8.982929e+002, 9.415729e+003
8.987750e+002, 9.419450e+003
8.992571e+002, 9.424338e+003
8.997393e+002, 9.431078e+003
9.002214e+002, 9.433908e+003
9.007035e+002, 9.421735e+003
9.011856e+002, 9.403724e+003
9.016677e+002, 9.395522e+003
9.021498e+002, 9.410548e+003
9.026320e+002, 9.421467e+003
9.031141e+002, 9.425521e+003
9.035962e+002, 9.425853e+003
9.040783e+002, 9.425938e+003
9.045604e+002, 9.425792e+003
9.050425e+002, 9.426450e+003
9.055247e+002, 9.428043e+003
9.060068e+002, 9.430534e+003
9.064889e+002, 9.434191e+003
9.069710e+002, 9.438672e+003
9.074531e+002, 9.444106e+003
9.079352e+002, 9.451616e+003
9.084174e+002, 9.456300e+003
9.088995e+002, 9.455986e+003
9.093816e+002, 9.454796e+003
9.098637e+002, 9.454862e+003
9.103458e+002, 9.456190e+003
9.108279e+002, 9.458656e+003
9.113101e+002, 9.462193e+003
9.117922e+002, 9.468407e+003
9.122743e+002, 9.479833e+003
9.127564e+002, 9.493499e+003
9.132385e+002, 9.506902e+003
9.137206e+002, 9.519694e+003
9.142028e+002, 9.530833e+003
9.146849e+002, 9.538558e+003
9.151670e+002, 9.546128e+003
9.156491e+002, 9.554187e+003
9.161312e+002, 9.562994e+003
9.166133e+002, 9.573622e+003
9.170955e+002, 9.586229e+003
9.175776e+002, 9.599362e+003
9.180597e+002, 9.611778e+003
9.185418e+002, 9.625932e+003
9.190239e+002, 9.646196e+003
9.195060e+002, 9.670321e+003
9.199882e+002, 9.693581e+003
9.204703e+002, 9.714483e+003
9.209524e+002, 9.734428e+003
9.214345e+002, 9.752703e+003
9.219166e+002, 9.770465e+003
9.223987e+002, 9.789506e+003
9.228809e+002, 9.809980e+003
9.233630e+002, 9.829040e+003
9.238451e+002, 9.847153e+003
9.243272e+002, 9.859130e+003
9.248093e+002, 9.856212e+003
9.252914e+002, 9.845226e+003
9.257736e+002, 9.836224e+003
9.262557e+002, 9.832037e+003
9.267378e+002, 9.821335e+003
9.272199e+002, 9.797915e+003
9.277020e+002, 9.770018e+003
9.281841e+002, 9.740746e+003
9.286663e+002, 9.710297e+003
9.291484e+002, 9.681960e+003
9.296305e+002, 9.655620e+003
9.301126e+002, 9.629963e+003
9.305947e+002, 9.602614e+003
9.310768e+002, 9.576004e+003
9.315590e+002, 9.553325e+003
9.320411e+002, 9.534122e+003
9.325232e+002, 9.517774e+003
9.330053e+002, 9.508012e+003
9.334874e+002, 9.495575e+003
9.339695e+002, 9.476585e+003
9.344517e+002, 9.454188e+003
9.349338e+002, 9.435841e+003
9.354159e+002, 9.421809e+003
9.358980e+002, 9.407312e+003
9.363801e+002, 9.390459e+003
9.368622e+002, 9.375337e+003
9.373444e+002, 9.367971e+003
9.378265e+002, 9.365488e+003
9.383086e+002, 9.363874e+003
9.387907e+002, 9.364142e+003
9.392728e+002, 9.361016e+003
9.397549e+002, 9.351152e+003
9.402371e+002, 9.340098e+003
9.407192e+002, 9.332067e+003
9.412013e+002, 9.327107e+003
9.416834e+002, 9.322364e+003
9.421655e+002, 9.317656e+003
9.426476e+002, 9.313835e+003
9.431298e+002, 9.313051e+003
9.436119e+002, 9.312588e+003
9.440940e+002, 9.308987e+003
9.445761e+002, 9.302141e+003
9.450582e+002, 9.296132e+003
9.455403e+002, 9.293035e+003
9.460225e+002, 9.289560e+003
9.465046e+002, 9.284380e+003
9.469867e+002, 9.278176e+003
9.474688e+002, 9.274063e+003
9.479509e+002, 9.271900e+003
9.484330e+002, 9.268276e+003
9.489152e+002, 9.259409e+003
9.493973e+002, 9.251675e+003
9.498794e+002, 9.253654e+003
9.503615e+002, 9.260581e+003
9.508436e+002, 9.264022e+003
9.513257e+002, 9.259934e+003
9.518079e+002, 9.254783e+003
9.522900e+002, 9.248574e+003
9.527721e+002, 9.241963e+003
9.532542e+002, 9.235379e+003
9.537363e+002, 9.228994e+003
9.542184e+002, 9.224546e+003
9.547006e+002, 9.222466e+003
9.551827e+002, 9.219568e+003
9.556648e+002, 9.212174e+003
9.561469e+002, 9.203598e+003
9.566290e+002, 9.197418e+003
9.571111e+002, 9.194537e+003
9.575933e+002, 9.188328e+003
9.580754e+002, 9.175770e+003
9.585575e+002, 9.165638e+003
9.590396e+002, 9.163037e+003
9.595217e+002, 9.165783e+003
9.600038e+002, 9.166718e+003
9.604860e+002, 9.166047e+003
9.609681e+002, 9.164853e+003
9.614502e+002, 9.162021e+003
9.619323e+002, 9.160491e+003
9.624144e+002, 9.162463e+003
9.628965e+002, 9.166857e+003
9.633787e+002, 9.171454e+003
9.638608e+002, 9.177054e+003
9.643429e+002, 9.180335e+003
9.648250e+002, 9.180876e+003
9.653071e+002, 9.178941e+003
9.657892e+002, 9.171722e+003
9.662714e+002, 9.162768e+003
9.667535e+002, 9.162909e+003
9.672356e+002, 9.175605e+003
9.677177e+002, 9.184954e+003
9.681998e+002, 9.178473e+003
9.686819e+002, 9.168332e+003
9.691641e+002, 9.162974e+003
9.696462e+002, 9.162729e+003
9.701283e+002, 9.163890e+003
9.706104e+002, 9.166788e+003
9.710925e+002, 9.169248e+003
9.715746e+002, 9.170166e+003
9.720568e+002, 9.169693e+003
9.725389e+002, 9.167397e+003
9.730210e+002, 9.163845e+003
9.735031e+002, 9.161034e+003
9.739852e+002, 9.161800e+003
9.744673e+002, 9.160997e+003
9.749495e+002, 9.156887e+003
9.754316e+002, 9.150588e+003
9.759137e+002, 9.143209e+003
9.763958e+002, 9.134638e+003
9.768779e+002, 9.129046e+003
9.773600e+002, 9.127516e+003
9.778422e+002, 9.128089e+003
9.783243e+002, 9.131960e+003
9.788064e+002, 9.135083e+003
9.792885e+002, 9.130571e+003
9.797706e+002, 9.114657e+003
9.802527e+002, 9.105173e+003
9.807349e+002, 9.107999e+003
9.812170e+002, 9.113483e+003
9.816991e+002, 9.117513e+003
9.821812e+002, 9.119844e+003
9.826633e+002, 9.118124e+003
9.831454e+002, 9.112554e+003
9.836276e+002, 9.106415e+003
9.841097e+002, 9.097598e+003
9.845918e+002, 9.092446e+003
9.850739e+002, 9.100502e+003
9.855560e+002, 9.115770e+003
9.860381e+002, 9.121729e+003
9.865203e+002, 9.113028e+003
9.870024e+002, 9.103790e+003
9.874845e+002, 9.094828e+003
9.879666e+002, 9.087964e+003
9.884487e+002, 9.088650e+003
9.889308e+002, 9.093589e+003
9.894130e+002, 9.091639e+003
9.898951e+002, 9.079928e+003
9.903772e+002, 9.070011e+003
9.908593e+002, 9.071986e+003
9.913414e+002, 9.075697e+003
9.918235e+002, 9.072715e+003
9.923057e+002, 9.062437e+003
9.927878e+002, 9.057880e+003
9.932699e+002, 9.060051e+003
9.937520e+002, 9.061281e+003
9.942341e+002, 9.056214e+003
9.947162e+002, 9.048470e+003
9.951984e+002, 9.044563e+003
9.956805e+002, 9.043173e+003
9.961626e+002, 9.040863e+003
9.966447e+002, 9.034101e+003
9.971268e+002, 9.029113e+003
9.976089e+002, 9.027421e+003
9.980911e+002, 9.027846e+003
9.985732e+002, 9.029166e+003
9.990553e+002, 9.031360e+003
9.995374e+002, 9.033712e+003
1.000020e+003, 9.036386e+003
1.000502e+003, 9.036360e+003
1.000984e+003, 9.027184e+003
1.001466e+003, 9.016301e+003
1.001948e+003, 9.012024e+003
1.002430e+003, 9.016053e+003
1.002912e+003, 9.016494e+003
1.003394e+003, 9.011149e+003
1.003876e+003, 9.004894e+003
1.004359e+003, 8.999157e+003
1.004841e+003, 8.994382e+003
1.005323e+003, 8.992941e+003
1.005805e+003, 8.994035e+003
1.006287e+003, 8.994250e+003
1.006769e+003, 8.991308e+003
1.007251e+003, 8.988279e+003
1.007733e+003, 8.987421e+003
1.008216e+003, 8.987149e+003
1.008698e+003, 8.985010e+003
1.009180e+003, 8.979864e+003
1.009662e+003, 8.977099e+003
1.010144e+003, 8.977170e+003
1.010626e+003, 8.978498e+003
1.011108e+003, 8.980541e+003
1.011590e+003, 8.982263e+003
1.012072e+003, 8.982140e+003
1.012555e+003, 8.980031e+003
1.013037e+003, 8.976516e+003
1.013519e+003, 8.969145e+003
1.014001e+003, 8.963394e+003
1.014483e+003, 8.961048e+003
1.014965e+003, 8.961521e+003
1.015447e+003, 8.964181e+003
1.015929e+003, 8.968574e+003
1.016411e+003, 8.969292e+003
1.016894e+003, 8.963507e+003
1.017376e+003, 8.956104e+003
1.017858e+003, 8.949925e+003
1.018340e+003, 8.945366e+003
1.018822e+003, 8.943519e+003
1.019304e+003, 8.947580e+003
1.019786e+003, 8.945656e+003
1.020268e+003, 8.935408e+003
1.020751e+003, 8.925663e+003
1.021233e+003, 8.925901e+003
1.021715e+003, 8.931308e+003
1.022197e+003, 8.926756e+003
1.022679e+003, 8.914088e+003
1.023161e+003, 8.905640e+003
1.023643e+003, 8.911053e+003
1.024125e+003, 8.917956e+003
1.024607e+003, 8.922030e+003
1.025090e+003, 8.923872e+003
1.025572e+003, 8.924244e+003
1.026054e+003, 8.922897e+003
1.026536e+003, 8.923267e+003
1.027018e+003, 8.926655e+003
1.027500e+003, 8.928434e+003
1.027982e+003, 8.921690e+003
1.028464e+003, 8.911611e+003
1.028947e+003, 8.904722e+003
1.029429e+003, 8.903222e+003
1.029911e+003, 8.898416e+003
1.030393e+003, 8.886738e+003
1.030875e+003, 8.877816e+003
1.031357e+003, 8.878150e+003
1.031839e+003, 8.884575e+003
1.032321e+003, 8.885287e+003
1.032803e+003, 8.881875e+003
1.033286e+003, 8.880762e+003
1.033768e+003, 8.888944e+003
1.034250e+003, 8.895841e+003
1.034732e+003, 8.895065e+003
1.035214e+003, 8.890990e+003
1.035696e+003, 8.890069e+003
1.036178e+003, 8.892943e+003
1.036660e+003, 8.894575e+003
1.037143e+003, 8.894342e+003
1.037625e+003, 8.893873e+003
1.038107e+003, 8.895154e+003
1.038589e+003, 8.896627e+003
1.039071e+003, 8.895524e+003
1.039553e+003, 8.891880e+003
1.040035e+003, 8.890593e+003
1.040517e+003, 8.894304e+003
1.041000e+003, 8.898025e+003
1.041482e+003, 8.900724e+003
1.041964e+003, 8.902332e+003
1.042446e+003, 8.903027e+003
1.042928e+003, 8.902532e+003
1.043410e+003, 8.898705e+003
1.043892e+003, 8.889088e+003
1.044374e+003, 8.881848e+003
1.044856e+003, 8.886390e+003
1.045339e+003, 8.892668e+003
1.045821e+003, 8.890669e+003
1.046303e+003, 8.878482e+003
1.046785e+003, 8.872923e+003
1.047267e+003, 8.874716e+003
1.047749e+003, 8.876960e+003
1.048231e+003, 8.873334e+003
1.048713e+003, 8.868754e+003
1.049195e+003, 8.871248e+003
1.049677e+003, 8.878080e+003
1.050160e+003, 8.881359e+003
1.050642e+003, 8.872496e+003
1.051124e+003, 8.869150e+003
1.051606e+003, 8.875306e+003
1.052088e+003, 8.884382e+003
1.052570e+003, 8.887541e+003
1.053052e+003, 8.885965e+003
1.053534e+003, 8.883582e+003
1.054017e+003, 8.880784e+003
1.054499e+003, 8.879100e+003
1.054981e+003, 8.882151e+003
1.055463e+003, 8.884173e+003
1.055945e+003, 8.880720e+003
1.056427e+003, 8.872911e+003
1.056909e+003, 8.866921e+003
1.057391e+003, 8.863030e+003
1.057874e+003, 8.858596e+003
1.058356e+003, 8.852559e+003
1.058838e+003, 8.846170e+003
1.059320e+003, 8.842601e+003
1.059802e+003, 8.839099e+003
1.060284e+003, 8.831109e+003
1.060766e+003, 8.814225e+003
1.061248e+003, 8.801210e+003
1.061730e+003, 8.792922e+003
1.062213e+003, 8.787734e+003
1.062695e+003, 8.786731e+003
1.063177e+003, 8.787650e+003
1.063659e+003, 8.780453e+003
1.064141e+003, 8.766943e+003
1.064623e+003, 8.756152e+003
1.065105e+003, 8.754263e+003
1.065587e+003, 8.753878e+003
1.066070e+003, 8.753587e+003
1.066552e+003, 8.752057e+003
1.067034e+003, 8.746462e+003
1.067516e+003, 8.736575e+003
1.067998e+003, 8.728859e+003
1.068480e+003, 8.724170e+003
1.068962e+003, 8.721104e+003
1.069444e+003, 8.721304e+003
1.069927e+003, 8.720532e+003
1.070409e+003, 8.713246e+003
1.070891e+003, 8.699419e+003
1.071373e+003, 8.690952e+003
1.071855e+003, 8.690612e+003
1.072337e+003, 8.688790e+003
1.072819e+003, 8.681536e+003
1.073301e+003, 8.672826e+003
1.073783e+003, 8.670936e+003
1.074266e+003, 8.672744e+003
1.074748e+003, 8.671359e+003
1.075230e+003, 8.663581e+003
1.075712e+003, 8.656344e+003
1.076194e+003, 8.650215e+003
1.076676e+003, 8.646428e+003
1.077158e+003, 8.646729e+003
1.077640e+003, 8.650476e+003
1.078122e+003, 8.651329e+003
1.078604e+003, 8.649419e+003
1.079087e+003, 8.646019e+003
1.079569e+003, 8.640279e+003
1.080051e+003, 8.634871e+003
1.080533e+003, 8.630441e+003
1.081015e+003, 8.627848e+003
1.081497e+003, 8.628897e+003
1.081979e+003, 8.635108e+003
1.082461e+003, 8.637537e+003
1.082944e+003, 8.635348e+003
1.083426e+003, 8.630515e+003
1.083908e+003, 8.622262e+003
1.084390e+003, 8.614205e+003
1.084872e+003, 8.611698e+003
1.085354e+003, 8.614485e+003
1.085836e+003, 8.615587e+003
1.086318e+003, 8.612543e+003
1.086801e+003, 8.610942e+003
1.087283e+003, 8.613276e+003
1.087765e+003, 8.615949e+003
1.088247e+003, 8.610940e+003
1.088729e+003, 8.601032e+003
1.089211e+003, 8.593249e+003
1.089693e+003, 8.588928e+003
1.090175e+003, 8.587176e+003
1.090657e+003, 8.591069e+003
1.091140e+003, 8.593867e+003
1.091622e+003, 8.591324e+003
1.092104e+003, 8.584243e+003
1.092586e+003, 8.579537e+003
1.093068e+003, 8.576981e+003
1.093550e+003, 8.574229e+003
1.094032e+003, 8.570044e+003
1.094514e+003, 8.565550e+003
1.094997e+003, 8.560805e+003
1.095479e+003, 8.556646e+003
1.095961e+003, 8.554099e+003
1.096443e+003, 8.553215e+003
1.096925e+003, 8.554613e+003
1.097407e+003, 8.559027e+003
1.097889e+003, 8.561072e+003
1.098371e+003, 8.553362e+003
1.098854e+003, 8.543043e+003
1.099336e+003, 8.540449e+003
1.099818e+003, 8.543507e+003
1.100300e+003, 8.543399e+003
1.100782e+003, 8.535784e+003
1.101264e+003, 8.528847e+003
1.101746e+003, 8.523515e+003
1.102228e+003, 8.519436e+003
1.102710e+003, 8.516371e+003
1.103193e+003, 8.514244e+003
1.103675e+003, 8.513340e+003
1.104157e+003, 8.513735e+003
1.104639e+003, 8.512576e+003
1.105121e+003, 8.507782e+003
1.105603e+003, 8.501979e+003
1.106085e+003, 8.494974e+003
1.106567e+003, 8.488324e+003
1.107049e+003, 8.488750e+003
1.107531e+003, 8.494979e+003
1.108014e+003, 8.496612e+003
1.108496e+003, 8.489471e+003
1.108978e+003, 8.481812e+003
1.109460e+003, 8.477893e+003
1.109942e+003, 8.477098e+003
1.110424e+003, 8.480517e+003
1.110906e+003, 8.488416e+003
1.111388e+003, 8.486755e+003
1.111871e+003, 8.474644e+003
1.112353e+003, 8.465864e+003
1.112835e+003, 8.471307e+003
1.113317e+003, 8.478470e+003
1.113799e+003, 8.471946e+003
1.114281e+003, 8.458394e+003
1.114763e+003, 8.448739e+003
1.115245e+003, 8.447020e+003
1.115728e+003, 8.445242e+003
1.116210e+003, 8.443419e+003
1.116692e+003, 8.441929e+003
1.117174e+003, 8.440816e+003
1.117656e+003, 8.440468e+003
1.118138e+003, 8.442660e+003
1.118620e+003, 8.446419e+003
1.119102e+003, 8.447826e+003
1.119584e+003, 8.443702e+003
1.120067e+003, 8.439028e+003
1.120549e+003, 8.433771e+003
1.121031e+003, 8.429134e+003
1.121513e+003, 8.428136e+003
1.121995e+003, 8.429025e+003
1.122477e+003, 8.424650e+003
1.122959e+003, 8.414420e+003
1.123441e+003, 8.406809e+003
1.123924e+003, 8.410388e+003
1.124406e+003, 8.412925e+003
1.124888e+003, 8.408741e+003
1.125370e+003, 8.400149e+003
1.125852e+003, 8.393244e+003
1.126334e+003, 8.387956e+003
1.126816e+003, 8.382928e+003
1.127298e+003, 8.378140e+003
1.127781e+003, 8.372855e+003
1.128263e+003, 8.366516e+003
1.128745e+003, 8.359634e+003
1.129227e+003, 8.351705e+003
1.129709e+003, 8.342933e+003
1.130191e+003, 8.339422e+003
1.130673e+003, 8.341502e+003
1.131155e+003, 8.343007e+003
1.131637e+003, 8.340327e+003
1.132120e+003, 8.337890e+003
1.132602e+003, 8.342356e+003
1.133084e+003, 8.349060e+003
1.133566e+003, 8.350957e+003
1.134048e+003, 8.345196e+003
1.134530e+003, 8.341279e+003
1.135012e+003, 8.339219e+003
1.135494e+003, 8.338644e+003
1.135976e+003, 8.341144e+003
1.136458e+003, 8.343738e+003
1.136941e+003, 8.340143e+003
1.137423e+003, 8.332899e+003
1.137905e+003, 8.328180e+003
1.138387e+003, 8.331682e+003
1.138869e+003, 8.331158e+003
1.139351e+003, 8.324129e+003
1.139833e+003, 8.317102e+003
1.140315e+003, 8.317933e+003
1.140798e+003, 8.323217e+003
1.141280e+003, 8.324496e+003
1.141762e+003, 8.322080e+003
1.142244e+003, 8.320385e+003
1.142726e+003, 8.324041e+003
1.143208e+003, 8.324554e+003
1.143690e+003, 8.319205e+003
1.144172e+003, 8.311074e+003
1.144655e+003, 8.304402e+003
1.145137e+003, 8.299088e+003
1.145619e+003, 8.293827e+003
1.146101e+003, 8.288552e+003
1.146583e+003, 8.285123e+003
1.147065e+003, 8.287680e+003
1.147547e+003, 8.289023e+003
1.148029e+003, 8.285315e+003
1.148511e+003, 8.278487e+003
1.148994e+003, 8.274425e+003
1.149476e+003, 8.272671e+003
1.149958e+003, 8.267710e+003
1.150440e+003, 8.256863e+003
1.150922e+003, 8.249616e+003
1.151404e+003, 8.256946e+003
1.151886e+003, 8.266886e+003
1.152368e+003, 8.269352e+003
1.152851e+003, 8.265277e+003
1.153333e+003, 8.266809e+003
1.153815e+003, 8.273875e+003
1.154297e+003, 8.276846e+003
1.154779e+003, 8.269697e+003
1.155261e+003, 8.262325e+003
1.155743e+003, 8.267081e+003
1.156225e+003, 8.274788e+003
1.156708e+003, 8.274024e+003
1.157190e+003, 8.263272e+003
1.157672e+003, 8.253383e+003
1.158154e+003, 8.244307e+003
1.158636e+003, 8.236990e+003
1.159118e+003, 8.232446e+003
1.159600e+003, 8.229741e+003
1.160082e+003, 8.229473e+003
1.160564e+003, 8.230001e+003
1.161047e+003, 8.228296e+003
1.161529e+003, 8.223601e+003
1.162011e+003, 8.217643e+003
1.162493e+003, 8.209855e+003
1.162975e+003, 8.203498e+003
1.163457e+003, 8.201998e+003
1.163939e+003, 8.202761e+003
1.164421e+003, 8.202831e+003
1.164903e+003, 8.202021e+003
1.165385e+003, 8.199957e+003
1.165868e+003, 8.194851e+003
1.166350e+003, 8.191625e+003
1.166832e+003, 8.191211e+003
1.167314e+003, 8.190789e+003
1.167796e+003, 8.186556e+003
1.168278e+003, 8.180694e+003
1.168760e+003, 8.177825e+003
1.169242e+003, 8.177509e+003
1.169725e+003, 8.175399e+003
1.170207e+003, 8.167358e+003
1.170689e+003, 8.161879e+003
1.171171e+003, 8.160896e+003
1.171653e+003, 8.161921e+003
1.172135e+003, 8.160901e+003
1.172617e+003, 8.159376e+003
1.173099e+003, 8.162510e+003
1.173582e+003, 8.170639e+003
1.174064e+003, 8.173710e+003
1.174546e+003, 8.162234e+003
1.175028e+003, 8.152540e+003
1.175510e+003, 8.149122e+003
1.175992e+003, 8.149287e+003
1.176474e+003, 8.148010e+003
1.176956e+003, 8.145856e+003
1.177438e+003, 8.145022e+003
1.177921e+003, 8.146222e+003
1.178403e+003, 8.145892e+003
1.178885e+003, 8.141542e+003
1.179367e+003, 8.136359e+003
1.179849e+003, 8.130753e+003
1.180331e+003, 8.125869e+003
1.180813e+003, 8.126443e+003
1.181295e+003, 8.131068e+003
1.181778e+003, 8.134911e+003
1.182260e+003, 8.137606e+003
1.182742e+003, 8.135851e+003
1.183224e+003, 8.122802e+003
1.183706e+003, 8.110170e+003
1.184188e+003, 8.104326e+003
1.184670e+003, 8.104299e+003
1.185152e+003, 8.106884e+003
1.185635e+003, 8.111130e+003
1.186117e+003, 8.112183e+003
1.186599e+003, 8.106484e+003
1.187081e+003, 8.100731e+003
1.187563e+003, 8.099697e+003
1.188045e+003, 8.098490e+003
1.188527e+003, 8.092073e+003
1.189009e+003, 8.081398e+003
1.189491e+003, 8.079883e+003
1.189974e+003, 8.086242e+003
1.190456e+003, 8.090982e+003
1.190938e+003, 8.088535e+003
1.191420e+003, 8.084538e+003
1.191902e+003, 8.081014e+003
1.192384e+003, 8.077799e+003
1.192866e+003, 8.074767e+003
1.193348e+003, 8.071914e+003
1.193830e+003, 8.068689e+003
1.194313e+003, 8.065050e+003
1.194795e+003, 8.060845e+003
1.195277e+003, 8.055335e+003
1.195759e+003, 8.049877e+003
1.196241e+003, 8.045196e+003
1.196723e+003, 8.041065e+003
1.197205e+003, 8.037530e+003
1.197687e+003, 8.034676e+003
1.198169e+003, 8.030265e+003
1.198652e+003, 8.024355e+003
1.199134e+003, 8.018944e+003
1.199616e+003, 8.015074e+003
1.200098e+003, 8.012638e+003
1.200580e+003, 8.013025e+003
1.201062e+003, 8.014266e+003
1.201544e+003, 8.013220e+003
1.202026e+003, 8.009875e+003
1.202509e+003, 8.004537e+003
1.202991e+003, 7.997196e+003
1.203473e+003, 7.991715e+003
1.203955e+003, 7.991328e+003
1.204437e+003, 7.993106e+003
1.204919e+003, 7.997272e+003
1.205401e+003, 8.001393e+003
1.205883e+003, 7.999232e+003
1.206365e+003, 7.990492e+003
1.206848e+003, 7.985324e+003
1.207330e+003, 7.985126e+003
1.207812e+003, 7.986378e+003
1.208294e+003, 7.988732e+003
1.208776e+003, 7.989332e+003
1.209258e+003, 7.984688e+003
1.209740e+003, 7.976905e+003
1.210222e+003, 7.971968e+003
1.210705e+003, 7.969920e+003
1.211187e+003, 7.967221e+003
1.211669e+003, 7.963351e+003
1.212151e+003, 7.958588e+003
1.212633e+003, 7.953372e+003
1.213115e+003, 7.947372e+003
1.213597e+003, 7.939869e+003
1.214079e+003, 7.931530e+003
1.214562e+003, 7.923503e+003
1.215044e+003, 7.915913e+003
1.215526e+003, 7.913744e+003
1.216008e+003, 7.918813e+003
1.216490e+003, 7.925481e+003
1.216972e+003, 7.930154e+003
1.217454e+003, 7.933822e+003
1.217936e+003, 7.937878e+003
1.218418e+003, 7.941508e+003
1.218901e+003, 7.939563e+003
1.219383e+003, 7.932171e+003
1.219865e+003, 7.924392e+003
1.220347e+003, 7.917219e+003
1.220829e+003, 7.911447e+003
1.221311e+003, 7.910682e+003
1.221793e+003, 7.908745e+003
1.222275e+003, 7.899230e+003
1.222757e+003, 7.884007e+003
1.223240e+003, 7.878095e+003
1.223722e+003, 7.880694e+003
1.224204e+003, 7.880054e+003
1.224686e+003, 7.870828e+003
1.225168e+003, 7.862114e+003
1.225650e+003, 7.861482e+003
1.226132e+003, 7.862688e+003
1.226614e+003, 7.860962e+003
1.227096e+003, 7.856644e+003
1.227579e+003, 7.851693e+003
1.228061e+003, 7.846367e+003
1.228543e+003, 7.842908e+003
1.229025e+003, 7.842795e+003
1.229507e+003, 7.843181e+003
1.229989e+003, 7.842353e+003
1.230471e+003, 7.841291e+003
1.230953e+003, 7.841334e+003
1.231436e+003, 7.841954e+003
1.231918e+003, 7.837143e+003
1.232400e+003, 7.827932e+003
1.232882e+003, 7.822146e+003
1.233364e+003, 7.825708e+003
1.233846e+003, 7.828107e+003
1.234328e+003, 7.821669e+003
1.234810e+003, 7.814570e+003
1.235292e+003, 7.813677e+003
1.235775e+003, 7.817825e+003
1.236257e+003, 7.816717e+003
1.236739e+003, 7.811195e+003
1.237221e+003, 7.805438e+003
1.237703e+003, 7.799938e+003
1.238185e+003, 7.796701e+003
1.238667e+003, 7.799024e+003
1.239149e+003, 7.801403e+003
1.239632e+003, 7.799376e+003
1.240114e+003, 7.793890e+003
1.240596e+003, 7.790557e+003
1.241078e+003, 7.788909e+003
1.241560e+003, 7.786889e+003
1.242042e+003, 7.782409e+003
1.242524e+003, 7.779154e+003
1.243006e+003, 7.778271e+003
1.243489e+003, 7.778417e+003
1.243971e+003, 7.779135e+003
1.244453e+003, 7.779981e+003
1.244935e+003, 7.778768e+003
1.245417e+003, 7.775971e+003
1.245899e+003, 7.773416e+003
1.246381e+003, 7.773460e+003
1.246863e+003, 7.771077e+003
1.247345e+003, 7.764225e+003
1.247828e+003, 7.757692e+003
1.248310e+003, 7.757245e+003
1.248792e+003, 7.759880e+003
1.249274e+003, 7.755579e+003
1.249756e+003, 7.746919e+003
1.250238e+003, 7.742839e+003
1.250720e+003, 7.753823e+003
1.251202e+003, 7.757964e+003
1.251684e+003, 7.751904e+003
1.252167e+003, 7.743058e+003
1.252649e+003, 7.736666e+003
1.253131e+003, 7.732442e+003
1.253613e+003, 7.730645e+003
1.254095e+003, 7.730446e+003
1.254577e+003, 7.729490e+003
1.255059e+003, 7.726989e+003
1.255541e+003, 7.723347e+003
1.256023e+003, 7.717841e+003
1.256506e+003, 7.713633e+003
1.256988e+003, 7.716503e+003
1.257470e+003, 7.720369e+003
1.257952e+003, 7.715362e+003
1.258434e+003, 7.704199e+003
1.258916e+003, 7.695460e+003
1.259398e+003, 7.691158e+003
1.259880e+003, 7.685794e+003
1.260363e+003, 7.678300e+003
1.260845e+003, 7.674780e+003
1.261327e+003, 7.687274e+003
1.261809e+003, 7.700555e+003
1.262291e+003, 7.697305e+003
1.262773e+003, 7.682205e+003
1.263255e+003, 7.668597e+003
1.263737e+003, 7.656608e+003
1.264219e+003, 7.648702e+003
1.264702e+003, 7.645234e+003
1.265184e+003, 7.642979e+003
1.265666e+003, 7.639602e+003
1.266148e+003, 7.636248e+003
1.266630e+003, 7.634011e+003
1.267112e+003, 7.632433e+003
1.267594e+003, 7.630127e+003
1.268076e+003, 7.626921e+003
1.268559e+003, 7.627649e+003
1.269041e+003, 7.632577e+003
1.269523e+003, 7.634211e+003
1.270005e+003, 7.621973e+003
1.270487e+003, 7.610799e+003
1.270969e+003, 7.613093e+003
1.271451e+003, 7.619564e+003
1.271933e+003, 7.616213e+003
1.272416e+003, 7.604147e+003
1.272898e+003, 7.598795e+003
1.273380e+003, 7.600633e+003
1.273862e+003, 7.603349e+003
1.274344e+003, 7.604712e+003
1.274826e+003, 7.604390e+003
1.275308e+003, 7.601858e+003
1.275790e+003, 7.598275e+003
1.276272e+003, 7.594557e+003
1.276755e+003, 7.591052e+003
1.277237e+003, 7.589889e+003
1.277719e+003, 7.590638e+003
1.278201e+003, 7.589390e+003
1.278683e+003, 7.582753e+003
1.279165e+003, 7.576015e+003
1.279647e+003, 7.568982e+003
1.280129e+003, 7.564333e+003
1.280611e+003, 7.567022e+003
1.281094e+003, 7.573318e+003
1.281576e+003, 7.574912e+003
1.282058e+003, 7.572373e+003
1.282540e+003, 7.570782e+003
1.283022e+003, 7.574347e+003
1.283504e+003, 7.572406e+003
1.283986e+003, 7.562365e+003
1.284468e+003, 7.551878e+003
1.284950e+003, 7.549599e+003
1.285433e+003, 7.550742e+003
1.285915e+003, 7.548695e+003
1.286397e+003, 7.544479e+003
1.286879e+003, 7.543397e+003
1.287361e+003, 7.547172e+003
1.287843e+003, 7.548802e+003
1.288325e+003, 7.547665e+003
1.288807e+003, 7.544729e+003
1.289290e+003, 7.540095e+003
1.289772e+003, 7.534744e+003
1.290254e+003, 7.529050e+003
1.290736e+003, 7.523450e+003
1.291218e+003, 7.517944e+003
1.291700e+003, 7.512148e+003
1.292182e+003, 7.513157e+003
1.292664e+003, 7.521323e+003
1.293146e+003, 7.526813e+003
1.293629e+003, 7.520138e+003
1.294111e+003, 7.511600e+003
1.294593e+003, 7.507505e+003
1.295075e+003, 7.504579e+003
1.295557e+003, 7.498083e+003
1.296039e+003, 7.488728e+003
1.296521e+003, 7.482593e+003
1.297003e+003, 7.479594e+003
1.297486e+003, 7.477178e+003
1.297968e+003, 7.475177e+003
1.298450e+003, 7.473552e+003
1.298932e+003, 7.473328e+003
1.299414e+003, 7.472462e+003
1.299896e+003, 7.466942e+003
1.300378e+003, 7.459641e+003
1.300860e+003, 7.459843e+003
1.301343e+003, 7.466444e+003
1.301825e+003, 7.472264e+003
##END=



