##NAMES=Galeite
##RRUFFID=R130025
##IDEAL CHEMISTRY=Na_15_(S^6+^O_4_)_5_ClF_4_
##LOCALITY=Searles Lake, Trona, San Bernardino County, California, USA
##OWNER=RRUFF
##SOURCE=Marcus Origlieri
##DESCRIPTION=Colorless hexagonal prisms with tapering pyramidal terminations, associated with gaylussite
##STATUS=The identification of this mineral has been confirmed by single-crystal X-ray diffraction.
##URL=rruff.info/R130025
8.975323e+001, 0.000000e+000
9.023535e+001, 4.437262e+002
9.071747e+001, 4.387437e+002
9.119958e+001, 4.352714e+002
9.168170e+001, 4.427163e+002
9.216382e+001, 4.489003e+002
9.264594e+001, 4.515818e+002
9.312805e+001, 4.519200e+002
9.361017e+001, 4.513145e+002
9.409229e+001, 4.493577e+002
9.457440e+001, 4.455200e+002
9.505651e+001, 4.411755e+002
9.553863e+001, 4.360730e+002
9.602074e+001, 4.310952e+002
9.650286e+001, 4.271667e+002
9.698498e+001, 4.244070e+002
9.746709e+001, 4.215906e+002
9.794921e+001, 4.183324e+002
9.843133e+001, 4.142825e+002
9.891344e+001, 4.104390e+002
9.939556e+001, 4.068167e+002
9.987768e+001, 4.034237e+002
1.003598e+002, 4.004717e+002
1.008419e+002, 3.981139e+002
1.013240e+002, 3.962965e+002
1.018061e+002, 3.945700e+002
1.022883e+002, 3.928292e+002
1.027704e+002, 3.911757e+002
1.032525e+002, 3.896147e+002
1.037346e+002, 3.880536e+002
1.042167e+002, 3.868938e+002
1.046988e+002, 3.867380e+002
1.051810e+002, 3.870190e+002
1.056631e+002, 3.868862e+002
1.061452e+002, 3.857086e+002
1.066273e+002, 3.837691e+002
1.071094e+002, 3.823069e+002
1.075915e+002, 3.818822e+002
1.080737e+002, 3.812184e+002
1.085558e+002, 3.796613e+002
1.090379e+002, 3.774224e+002
1.095200e+002, 3.750489e+002
1.100021e+002, 3.728719e+002
1.104842e+002, 3.707567e+002
1.109664e+002, 3.696400e+002
1.114485e+002, 3.705150e+002
1.119306e+002, 3.714956e+002
1.124127e+002, 3.716310e+002
1.128948e+002, 3.708293e+002
1.133769e+002, 3.696787e+002
1.138591e+002, 3.690481e+002
1.143412e+002, 3.694979e+002
1.148233e+002, 3.694425e+002
1.153054e+002, 3.686906e+002
1.157875e+002, 3.675479e+002
1.162696e+002, 3.662256e+002
1.167517e+002, 3.647778e+002
1.172339e+002, 3.633165e+002
1.177160e+002, 3.621237e+002
1.181981e+002, 3.611265e+002
1.186802e+002, 3.604117e+002
1.191623e+002, 3.602921e+002
1.196444e+002, 3.605205e+002
1.201266e+002, 3.603701e+002
1.206087e+002, 3.593467e+002
1.210908e+002, 3.578603e+002
1.215729e+002, 3.568408e+002
1.220550e+002, 3.565439e+002
1.225371e+002, 3.562713e+002
1.230193e+002, 3.553505e+002
1.235014e+002, 3.537036e+002
1.239835e+002, 3.520531e+002
1.244656e+002, 3.507603e+002
1.249477e+002, 3.496447e+002
1.254298e+002, 3.485711e+002
1.259120e+002, 3.475230e+002
1.263941e+002, 3.464743e+002
1.268762e+002, 3.453814e+002
1.273583e+002, 3.442424e+002
1.278404e+002, 3.430528e+002
1.283225e+002, 3.417332e+002
1.288047e+002, 3.403838e+002
1.292868e+002, 3.391796e+002
1.297689e+002, 3.382818e+002
1.302510e+002, 3.376446e+002
1.307331e+002, 3.365793e+002
1.312152e+002, 3.346080e+002
1.316974e+002, 3.326332e+002
1.321795e+002, 3.307328e+002
1.326616e+002, 3.289938e+002
1.331437e+002, 3.275662e+002
1.336258e+002, 3.266099e+002
1.341079e+002, 3.262252e+002
1.345901e+002, 3.256465e+002
1.350722e+002, 3.247490e+002
1.355543e+002, 3.237986e+002
1.360364e+002, 3.229400e+002
1.365185e+002, 3.221909e+002
1.370006e+002, 3.214989e+002
1.374828e+002, 3.208462e+002
1.379649e+002, 3.202616e+002
1.384470e+002, 3.194960e+002
1.389291e+002, 3.184087e+002
1.394112e+002, 3.171819e+002
1.398933e+002, 3.159774e+002
1.403755e+002, 3.148062e+002
1.408576e+002, 3.137755e+002
1.413397e+002, 3.131669e+002
1.418218e+002, 3.129457e+002
1.423039e+002, 3.125696e+002
1.427860e+002, 3.116535e+002
1.432681e+002, 3.103647e+002
1.437503e+002, 3.093301e+002
1.442324e+002, 3.088441e+002
1.447145e+002, 3.084789e+002
1.451966e+002, 3.078678e+002
1.456787e+002, 3.070051e+002
1.461608e+002, 3.060041e+002
1.466430e+002, 3.048299e+002
1.471251e+002, 3.034257e+002
1.476072e+002, 3.023868e+002
1.480893e+002, 3.022901e+002
1.485714e+002, 3.023038e+002
1.490535e+002, 3.019129e+002
1.495357e+002, 3.010272e+002
1.500178e+002, 3.000152e+002
1.504999e+002, 2.995037e+002
1.509820e+002, 2.999139e+002
1.514641e+002, 2.998817e+002
1.519462e+002, 2.988538e+002
1.524284e+002, 2.976580e+002
1.529105e+002, 2.970972e+002
1.533926e+002, 2.974483e+002
1.538747e+002, 2.981812e+002
1.543568e+002, 2.979594e+002
1.548389e+002, 2.957332e+002
1.553211e+002, 2.937134e+002
1.558032e+002, 2.918886e+002
1.562853e+002, 2.903551e+002
1.567674e+002, 2.892773e+002
1.572495e+002, 2.887513e+002
1.577316e+002, 2.886588e+002
1.582138e+002, 2.885171e+002
1.586959e+002, 2.883310e+002
1.591780e+002, 2.880986e+002
1.596601e+002, 2.879204e+002
1.601422e+002, 2.877047e+002
1.606243e+002, 2.871999e+002
1.611065e+002, 2.861938e+002
1.615886e+002, 2.848243e+002
1.620707e+002, 2.837591e+002
1.625528e+002, 2.831924e+002
1.630349e+002, 2.827176e+002
1.635170e+002, 2.819893e+002
1.639991e+002, 2.810554e+002
1.644813e+002, 2.804407e+002
1.649634e+002, 2.807645e+002
1.654455e+002, 2.815712e+002
1.659276e+002, 2.817817e+002
1.664097e+002, 2.808515e+002
1.668918e+002, 2.796219e+002
1.673740e+002, 2.791700e+002
1.678561e+002, 2.796910e+002
1.683382e+002, 2.800627e+002
1.688203e+002, 2.793397e+002
1.693024e+002, 2.781413e+002
1.697845e+002, 2.772227e+002
1.702667e+002, 2.770086e+002
1.707488e+002, 2.771657e+002
1.712309e+002, 2.768719e+002
1.717130e+002, 2.758018e+002
1.721951e+002, 2.748773e+002
1.726772e+002, 2.746601e+002
1.731594e+002, 2.747526e+002
1.736415e+002, 2.745439e+002
1.741236e+002, 2.735628e+002
1.746057e+002, 2.720035e+002
1.750878e+002, 2.710801e+002
1.755699e+002, 2.714478e+002
1.760521e+002, 2.717671e+002
1.765342e+002, 2.717998e+002
1.770163e+002, 2.715260e+002
1.774984e+002, 2.709197e+002
1.779805e+002, 2.698997e+002
1.784626e+002, 2.684583e+002
1.789448e+002, 2.674082e+002
1.794269e+002, 2.670242e+002
1.799090e+002, 2.667538e+002
1.803911e+002, 2.664920e+002
1.808732e+002, 2.662151e+002
1.813553e+002, 2.659153e+002
1.818375e+002, 2.655702e+002
1.823196e+002, 2.651573e+002
1.828017e+002, 2.649372e+002
1.832838e+002, 2.651964e+002
1.837659e+002, 2.653508e+002
1.842480e+002, 2.650143e+002
1.847301e+002, 2.642417e+002
1.852123e+002, 2.634366e+002
1.856944e+002, 2.630056e+002
1.861765e+002, 2.630235e+002
1.866586e+002, 2.627255e+002
1.871407e+002, 2.617916e+002
1.876228e+002, 2.607842e+002
1.881050e+002, 2.601164e+002
1.885871e+002, 2.598328e+002
1.890692e+002, 2.597318e+002
1.895513e+002, 2.597405e+002
1.900334e+002, 2.598361e+002
1.905155e+002, 2.595522e+002
1.909977e+002, 2.584930e+002
1.914798e+002, 2.571903e+002
1.919619e+002, 2.562361e+002
1.924440e+002, 2.557221e+002
1.929261e+002, 2.554216e+002
1.934082e+002, 2.551889e+002
1.938904e+002, 2.550093e+002
1.943725e+002, 2.548531e+002
1.948546e+002, 2.548504e+002
1.953367e+002, 2.548430e+002
1.958188e+002, 2.544735e+002
1.963009e+002, 2.535935e+002
1.967831e+002, 2.526061e+002
1.972652e+002, 2.516791e+002
1.977473e+002, 2.508550e+002
1.982294e+002, 2.503076e+002
1.987115e+002, 2.502708e+002
1.991936e+002, 2.506191e+002
1.996758e+002, 2.507913e+002
2.001579e+002, 2.506089e+002
2.006400e+002, 2.504836e+002
2.011221e+002, 2.507662e+002
2.016042e+002, 2.512892e+002
2.020863e+002, 2.516307e+002
2.025685e+002, 2.513938e+002
2.030506e+002, 2.506230e+002
2.035327e+002, 2.500956e+002
2.040148e+002, 2.499351e+002
2.044969e+002, 2.499245e+002
2.049790e+002, 2.501970e+002
2.054612e+002, 2.505744e+002
2.059433e+002, 2.506504e+002
2.064254e+002, 2.499414e+002
2.069075e+002, 2.483724e+002
2.073896e+002, 2.474842e+002
2.078717e+002, 2.478808e+002
2.083539e+002, 2.484510e+002
2.088360e+002, 2.490197e+002
2.093181e+002, 2.494926e+002
2.098002e+002, 2.497730e+002
2.102823e+002, 2.497688e+002
2.107644e+002, 2.494658e+002
2.112466e+002, 2.490020e+002
2.117287e+002, 2.481659e+002
2.122108e+002, 2.473841e+002
2.126929e+002, 2.467462e+002
2.131750e+002, 2.463003e+002
2.136571e+002, 2.461342e+002
2.141393e+002, 2.463928e+002
2.146214e+002, 2.472126e+002
2.151035e+002, 2.474517e+002
2.155856e+002, 2.466444e+002
2.160677e+002, 2.458088e+002
2.165498e+002, 2.454718e+002
2.170320e+002, 2.456087e+002
2.175141e+002, 2.458777e+002
2.179962e+002, 2.460006e+002
2.184783e+002, 2.459692e+002
2.189604e+002, 2.456980e+002
2.194425e+002, 2.448056e+002
2.199247e+002, 2.440063e+002
2.204068e+002, 2.438662e+002
2.208889e+002, 2.443379e+002
2.213710e+002, 2.448315e+002
2.218531e+002, 2.448350e+002
2.223352e+002, 2.443002e+002
2.228174e+002, 2.438308e+002
2.232995e+002, 2.433465e+002
2.237816e+002, 2.429808e+002
2.242637e+002, 2.430031e+002
2.247458e+002, 2.433887e+002
2.252279e+002, 2.435659e+002
2.257100e+002, 2.429708e+002
2.261922e+002, 2.416855e+002
2.266743e+002, 2.405681e+002
2.271564e+002, 2.397455e+002
2.276385e+002, 2.390659e+002
2.281206e+002, 2.383240e+002
2.286027e+002, 2.375012e+002
2.290849e+002, 2.369582e+002
2.295670e+002, 2.372379e+002
2.300491e+002, 2.380103e+002
2.305312e+002, 2.383500e+002
2.310133e+002, 2.377714e+002
2.314954e+002, 2.368782e+002
2.319776e+002, 2.363200e+002
2.324597e+002, 2.361191e+002
2.329418e+002, 2.360989e+002
2.334239e+002, 2.363233e+002
2.339060e+002, 2.366278e+002
2.343881e+002, 2.367393e+002
2.348703e+002, 2.364715e+002
2.353524e+002, 2.360805e+002
2.358345e+002, 2.359319e+002
2.363166e+002, 2.360779e+002
2.367987e+002, 2.362458e+002
2.372808e+002, 2.363650e+002
2.377630e+002, 2.364055e+002
2.382451e+002, 2.363108e+002
2.387272e+002, 2.360409e+002
2.392093e+002, 2.356602e+002
2.396914e+002, 2.352585e+002
2.401735e+002, 2.348232e+002
2.406557e+002, 2.344035e+002
2.411378e+002, 2.340342e+002
2.416199e+002, 2.336827e+002
2.421020e+002, 2.333194e+002
2.425841e+002, 2.329346e+002
2.430662e+002, 2.325379e+002
2.435484e+002, 2.321221e+002
2.440305e+002, 2.316367e+002
2.445126e+002, 2.312810e+002
2.449947e+002, 2.311061e+002
2.454768e+002, 2.310726e+002
2.459589e+002, 2.312341e+002
2.464410e+002, 2.316263e+002
2.469232e+002, 2.320115e+002
2.474053e+002, 2.319440e+002
2.478874e+002, 2.312242e+002
2.483695e+002, 2.305111e+002
2.488516e+002, 2.299595e+002
2.493337e+002, 2.294388e+002
2.498159e+002, 2.287800e+002
2.502980e+002, 2.279421e+002
2.507801e+002, 2.271477e+002
2.512622e+002, 2.268024e+002
2.517443e+002, 2.271385e+002
2.522264e+002, 2.274145e+002
2.527086e+002, 2.276566e+002
2.531907e+002, 2.277666e+002
2.536728e+002, 2.275851e+002
2.541549e+002, 2.271058e+002
2.546370e+002, 2.265701e+002
2.551191e+002, 2.263974e+002
2.556013e+002, 2.269314e+002
2.560834e+002, 2.270744e+002
2.565655e+002, 2.265746e+002
2.570476e+002, 2.259257e+002
2.575297e+002, 2.253861e+002
2.580118e+002, 2.250332e+002
2.584940e+002, 2.248547e+002
2.589761e+002, 2.248833e+002
2.594582e+002, 2.253533e+002
2.599403e+002, 2.254123e+002
2.604224e+002, 2.245841e+002
2.609045e+002, 2.237973e+002
2.613867e+002, 2.237249e+002
2.618688e+002, 2.243730e+002
2.623509e+002, 2.252201e+002
2.628330e+002, 2.257054e+002
2.633151e+002, 2.258331e+002
2.637972e+002, 2.255049e+002
2.642794e+002, 2.242407e+002
2.647615e+002, 2.230145e+002
2.652436e+002, 2.223277e+002
2.657257e+002, 2.222107e+002
2.662078e+002, 2.224694e+002
2.666899e+002, 2.229799e+002
2.671721e+002, 2.238443e+002
2.676542e+002, 2.242460e+002
2.681363e+002, 2.239216e+002
2.686184e+002, 2.234783e+002
2.691005e+002, 2.231243e+002
2.695826e+002, 2.229030e+002
2.700648e+002, 2.228629e+002
2.705469e+002, 2.231011e+002
2.710290e+002, 2.236409e+002
2.715111e+002, 2.236485e+002
2.719932e+002, 2.224939e+002
2.724753e+002, 2.215409e+002
2.729575e+002, 2.215175e+002
2.734396e+002, 2.222018e+002
2.739217e+002, 2.229318e+002
2.744038e+002, 2.232800e+002
2.748859e+002, 2.232682e+002
2.753680e+002, 2.231359e+002
2.758501e+002, 2.228161e+002
2.763322e+002, 2.224805e+002
2.768144e+002, 2.221235e+002
2.772965e+002, 2.217912e+002
2.777786e+002, 2.216040e+002
2.782607e+002, 2.216529e+002
2.787428e+002, 2.218593e+002
2.792249e+002, 2.218763e+002
2.797071e+002, 2.215466e+002
2.801892e+002, 2.212537e+002
2.806713e+002, 2.209713e+002
2.811534e+002, 2.208039e+002
2.816355e+002, 2.210415e+002
2.821176e+002, 2.218789e+002
2.825998e+002, 2.229673e+002
2.830819e+002, 2.233432e+002
2.835640e+002, 2.226674e+002
2.840461e+002, 2.220571e+002
2.845282e+002, 2.217605e+002
2.850103e+002, 2.216580e+002
2.854925e+002, 2.215830e+002
2.859746e+002, 2.214823e+002
2.864567e+002, 2.213881e+002
2.869388e+002, 2.213779e+002
2.874209e+002, 2.215159e+002
2.879030e+002, 2.215198e+002
2.883852e+002, 2.211968e+002
2.888673e+002, 2.207755e+002
2.893494e+002, 2.205321e+002
2.898315e+002, 2.205303e+002
2.903136e+002, 2.206737e+002
2.907957e+002, 2.209040e+002
2.912779e+002, 2.212525e+002
2.917600e+002, 2.214000e+002
2.922421e+002, 2.211800e+002
2.927242e+002, 2.208194e+002
2.932063e+002, 2.205412e+002
2.936884e+002, 2.203721e+002
2.941706e+002, 2.201934e+002
2.946527e+002, 2.198294e+002
2.951348e+002, 2.192933e+002
2.956169e+002, 2.190949e+002
2.960990e+002, 2.195302e+002
2.965811e+002, 2.201086e+002
2.970633e+002, 2.204640e+002
2.975454e+002, 2.205879e+002
2.980275e+002, 2.206581e+002
2.985096e+002, 2.208418e+002
2.989917e+002, 2.210684e+002
2.994738e+002, 2.209924e+002
2.999560e+002, 2.203817e+002
3.004381e+002, 2.196889e+002
3.009202e+002, 2.190369e+002
3.014023e+002, 2.184789e+002
3.018844e+002, 2.182682e+002
3.023665e+002, 2.186432e+002
3.028487e+002, 2.193858e+002
3.033308e+002, 2.198524e+002
3.038129e+002, 2.201382e+002
3.042950e+002, 2.200532e+002
3.047771e+002, 2.191351e+002
3.052592e+002, 2.177533e+002
3.057414e+002, 2.169403e+002
3.062235e+002, 2.172061e+002
3.067056e+002, 2.179959e+002
3.071877e+002, 2.182034e+002
3.076698e+002, 2.177095e+002
3.081519e+002, 2.172736e+002
3.086341e+002, 2.171348e+002
3.091162e+002, 2.172137e+002
3.095983e+002, 2.174254e+002
3.100804e+002, 2.177787e+002
3.105625e+002, 2.181289e+002
3.110446e+002, 2.182675e+002
3.115268e+002, 2.181986e+002
3.120089e+002, 2.180720e+002
3.124910e+002, 2.178368e+002
3.129731e+002, 2.175947e+002
3.134552e+002, 2.174651e+002
3.139373e+002, 2.174662e+002
3.144195e+002, 2.175505e+002
3.149016e+002, 2.177183e+002
3.153837e+002, 2.179563e+002
3.158658e+002, 2.180846e+002
3.163479e+002, 2.180444e+002
3.168300e+002, 2.179200e+002
3.173121e+002, 2.177955e+002
3.177943e+002, 2.176668e+002
3.182764e+002, 2.174335e+002
3.187585e+002, 2.169524e+002
3.192406e+002, 2.163228e+002
3.197227e+002, 2.159819e+002
3.202048e+002, 2.162013e+002
3.206870e+002, 2.164299e+002
3.211691e+002, 2.162000e+002
3.216512e+002, 2.156858e+002
3.221333e+002, 2.155852e+002
3.226154e+002, 2.163873e+002
3.230975e+002, 2.176048e+002
3.235797e+002, 2.179434e+002
3.240618e+002, 2.170839e+002
3.245439e+002, 2.162291e+002
3.250260e+002, 2.157530e+002
3.255081e+002, 2.155757e+002
3.259902e+002, 2.155886e+002
3.264724e+002, 2.157921e+002
3.269545e+002, 2.160508e+002
3.274366e+002, 2.161285e+002
3.279187e+002, 2.159860e+002
3.284008e+002, 2.159228e+002
3.288829e+002, 2.161399e+002
3.293651e+002, 2.163958e+002
3.298472e+002, 2.163745e+002
3.303293e+002, 2.160205e+002
3.308114e+002, 2.155614e+002
3.312935e+002, 2.151672e+002
3.317756e+002, 2.148463e+002
3.322578e+002, 2.147688e+002
3.327399e+002, 2.153314e+002
3.332220e+002, 2.158413e+002
3.337041e+002, 2.156252e+002
3.341862e+002, 2.147650e+002
3.346683e+002, 2.140332e+002
3.351505e+002, 2.140264e+002
3.356326e+002, 2.146183e+002
3.361147e+002, 2.148249e+002
3.365968e+002, 2.142186e+002
3.370789e+002, 2.137252e+002
3.375610e+002, 2.138330e+002
3.380432e+002, 2.143546e+002
3.385253e+002, 2.148561e+002
3.390074e+002, 2.151514e+002
3.394895e+002, 2.152729e+002
3.399716e+002, 2.152670e+002
3.404537e+002, 2.149450e+002
3.409359e+002, 2.148510e+002
3.414180e+002, 2.153034e+002
3.419001e+002, 2.159638e+002
3.423822e+002, 2.163164e+002
3.428643e+002, 2.162119e+002
3.433464e+002, 2.160554e+002
3.438286e+002, 2.164583e+002
3.443107e+002, 2.177710e+002
3.447928e+002, 2.186026e+002
3.452749e+002, 2.184433e+002
3.457570e+002, 2.181426e+002
3.462391e+002, 2.183522e+002
3.467213e+002, 2.191115e+002
3.472034e+002, 2.201175e+002
3.476855e+002, 2.211564e+002
3.481676e+002, 2.222446e+002
3.486497e+002, 2.228965e+002
3.491318e+002, 2.227663e+002
3.496140e+002, 2.226283e+002
3.500961e+002, 2.227594e+002
3.505782e+002, 2.231417e+002
3.510603e+002, 2.237370e+002
3.515424e+002, 2.245584e+002
3.520245e+002, 2.254931e+002
3.525067e+002, 2.260488e+002
3.529888e+002, 2.260113e+002
3.534709e+002, 2.258621e+002
3.539530e+002, 2.255088e+002
3.544351e+002, 2.251306e+002
3.549172e+002, 2.249183e+002
3.553994e+002, 2.249408e+002
3.558815e+002, 2.251668e+002
3.563636e+002, 2.255890e+002
3.568457e+002, 2.265980e+002
3.573278e+002, 2.269464e+002
3.578099e+002, 2.262701e+002
3.582920e+002, 2.252711e+002
3.587741e+002, 2.243023e+002
3.592563e+002, 2.234630e+002
3.597384e+002, 2.228149e+002
3.602205e+002, 2.224420e+002
3.607026e+002, 2.223852e+002
3.611847e+002, 2.222060e+002
3.616668e+002, 2.218768e+002
3.621490e+002, 2.214651e+002
3.626311e+002, 2.208107e+002
3.631132e+002, 2.201022e+002
3.635953e+002, 2.197658e+002
3.640774e+002, 2.201094e+002
3.645595e+002, 2.208696e+002
3.650417e+002, 2.208946e+002
3.655238e+002, 2.194196e+002
3.660059e+002, 2.182318e+002
3.664880e+002, 2.177100e+002
3.669701e+002, 2.174746e+002
3.674522e+002, 2.171350e+002
3.679344e+002, 2.165729e+002
3.684165e+002, 2.159695e+002
3.688986e+002, 2.156624e+002
3.693807e+002, 2.158855e+002
3.698628e+002, 2.157589e+002
3.703449e+002, 2.148275e+002
3.708271e+002, 2.139205e+002
3.713092e+002, 2.136090e+002
3.717913e+002, 2.137964e+002
3.722734e+002, 2.138876e+002
3.727555e+002, 2.132861e+002
3.732376e+002, 2.120232e+002
3.737198e+002, 2.110737e+002
3.742019e+002, 2.106857e+002
3.746840e+002, 2.103266e+002
3.751661e+002, 2.097402e+002
3.756482e+002, 2.090810e+002
3.761303e+002, 2.086328e+002
3.766125e+002, 2.085784e+002
3.770946e+002, 2.086965e+002
3.775767e+002, 2.084277e+002
3.780588e+002, 2.075553e+002
3.785409e+002, 2.069124e+002
3.790230e+002, 2.069179e+002
3.795052e+002, 2.071214e+002
3.799873e+002, 2.071784e+002
3.804694e+002, 2.070207e+002
3.809515e+002, 2.068321e+002
3.814336e+002, 2.069189e+002
3.819157e+002, 2.072677e+002
3.823979e+002, 2.071513e+002
3.828800e+002, 2.061242e+002
3.833621e+002, 2.050155e+002
3.838442e+002, 2.043852e+002
3.843263e+002, 2.041516e+002
3.848084e+002, 2.039850e+002
3.852906e+002, 2.036960e+002
3.857727e+002, 2.033570e+002
3.862548e+002, 2.031743e+002
3.867369e+002, 2.032154e+002
3.872190e+002, 2.031696e+002
3.877011e+002, 2.027356e+002
3.881833e+002, 2.021349e+002
3.886654e+002, 2.016884e+002
3.891475e+002, 2.015164e+002
3.896296e+002, 2.014011e+002
3.901117e+002, 2.010995e+002
3.905938e+002, 2.006491e+002
3.910760e+002, 2.003640e+002
3.915581e+002, 2.004029e+002
3.920402e+002, 2.005885e+002
3.925223e+002, 2.007045e+002
3.930044e+002, 2.007619e+002
3.934865e+002, 2.007013e+002
3.939687e+002, 2.003526e+002
3.944508e+002, 1.999189e+002
3.949329e+002, 1.998025e+002
3.954150e+002, 2.000921e+002
3.958971e+002, 2.003400e+002
3.963792e+002, 2.000763e+002
3.968614e+002, 1.993545e+002
3.973435e+002, 1.988913e+002
3.978256e+002, 1.987557e+002
3.983077e+002, 1.988470e+002
3.987898e+002, 1.992910e+002
3.992719e+002, 1.999491e+002
3.997540e+002, 2.003323e+002
4.002361e+002, 2.001639e+002
4.007183e+002, 1.996127e+002
4.012004e+002, 1.991450e+002
4.016825e+002, 1.986818e+002
4.021646e+002, 1.984154e+002
4.026467e+002, 1.985459e+002
4.031288e+002, 1.988150e+002
4.036110e+002, 1.988736e+002
4.040931e+002, 1.986581e+002
4.045752e+002, 1.984582e+002
4.050573e+002, 1.986503e+002
4.055394e+002, 1.993738e+002
4.060215e+002, 1.997779e+002
4.065037e+002, 1.997645e+002
4.069858e+002, 1.995727e+002
4.074679e+002, 1.992554e+002
4.079500e+002, 1.988554e+002
4.084321e+002, 1.984335e+002
4.089142e+002, 1.980208e+002
4.093964e+002, 1.976192e+002
4.098785e+002, 1.972240e+002
4.103606e+002, 1.965945e+002
4.108427e+002, 1.963087e+002
4.113248e+002, 1.966001e+002
4.118069e+002, 1.971444e+002
4.122891e+002, 1.977090e+002
4.127712e+002, 1.982025e+002
4.132533e+002, 1.985541e+002
4.137354e+002, 1.986759e+002
4.142175e+002, 1.985654e+002
4.146996e+002, 1.982286e+002
4.151818e+002, 1.972972e+002
4.156639e+002, 1.964816e+002
4.161460e+002, 1.960354e+002
4.166281e+002, 1.959319e+002
4.171102e+002, 1.960896e+002
4.175923e+002, 1.965367e+002
4.180745e+002, 1.971307e+002
4.185566e+002, 1.973079e+002
4.190387e+002, 1.967435e+002
4.195208e+002, 1.964912e+002
4.200029e+002, 1.971027e+002
4.204850e+002, 1.980285e+002
4.209672e+002, 1.988409e+002
4.214493e+002, 1.994437e+002
4.219314e+002, 1.997952e+002
4.224135e+002, 1.997222e+002
4.228956e+002, 1.992533e+002
4.233777e+002, 1.990014e+002
4.238599e+002, 1.992206e+002
4.243420e+002, 1.994501e+002
4.248241e+002, 1.993421e+002
4.253062e+002, 1.989550e+002
4.257883e+002, 1.984893e+002
4.262704e+002, 1.978391e+002
4.267526e+002, 1.972442e+002
4.272347e+002, 1.971880e+002
4.277168e+002, 1.977095e+002
4.281989e+002, 1.981072e+002
4.286810e+002, 1.979722e+002
4.291631e+002, 1.974807e+002
4.296453e+002, 1.970763e+002
4.301274e+002, 1.967962e+002
4.306095e+002, 1.965199e+002
4.310916e+002, 1.960553e+002
4.315737e+002, 1.955723e+002
4.320558e+002, 1.954438e+002
4.325380e+002, 1.957815e+002
4.330201e+002, 1.963519e+002
4.335022e+002, 1.969741e+002
4.339843e+002, 1.976799e+002
4.344664e+002, 1.980036e+002
4.349485e+002, 1.976688e+002
4.354307e+002, 1.971672e+002
4.359128e+002, 1.967574e+002
4.363949e+002, 1.964559e+002
4.368770e+002, 1.962448e+002
4.373591e+002, 1.961265e+002
4.378412e+002, 1.960661e+002
4.383234e+002, 1.959326e+002
4.388055e+002, 1.955585e+002
4.392876e+002, 1.953285e+002
4.397697e+002, 1.953786e+002
4.402518e+002, 1.955233e+002
4.407339e+002, 1.955585e+002
4.412160e+002, 1.954602e+002
4.416982e+002, 1.953948e+002
4.421803e+002, 1.955734e+002
4.426624e+002, 1.960478e+002
4.431445e+002, 1.963958e+002
4.436266e+002, 1.964769e+002
4.441087e+002, 1.965761e+002
4.445909e+002, 1.967889e+002
4.450730e+002, 1.970755e+002
4.455551e+002, 1.973577e+002
4.460372e+002, 1.975898e+002
4.465193e+002, 1.978148e+002
4.470014e+002, 1.981465e+002
4.474836e+002, 1.986427e+002
4.479657e+002, 1.990719e+002
4.484478e+002, 1.991256e+002
4.489299e+002, 1.992980e+002
4.494120e+002, 2.000938e+002
4.498941e+002, 2.014460e+002
4.503763e+002, 2.026306e+002
4.508584e+002, 2.028401e+002
4.513405e+002, 2.023726e+002
4.518226e+002, 2.025197e+002
4.523047e+002, 2.034321e+002
4.527868e+002, 2.046358e+002
4.532690e+002, 2.059837e+002
4.537511e+002, 2.074162e+002
4.542332e+002, 2.088583e+002
4.547153e+002, 2.102778e+002
4.551974e+002, 2.117222e+002
4.556795e+002, 2.131331e+002
4.561617e+002, 2.145738e+002
4.566438e+002, 2.164678e+002
4.571259e+002, 2.191493e+002
4.576080e+002, 2.218705e+002
4.580901e+002, 2.234824e+002
4.585722e+002, 2.240013e+002
4.590544e+002, 2.247537e+002
4.595365e+002, 2.259585e+002
4.600186e+002, 2.275012e+002
4.605007e+002, 2.295586e+002
4.609828e+002, 2.319730e+002
4.614649e+002, 2.339494e+002
4.619471e+002, 2.349149e+002
4.624292e+002, 2.351703e+002
4.629113e+002, 2.359965e+002
4.633934e+002, 2.381054e+002
4.638755e+002, 2.398137e+002
4.643576e+002, 2.405576e+002
4.648398e+002, 2.410268e+002
4.653219e+002, 2.418649e+002
4.658040e+002, 2.432248e+002
4.662861e+002, 2.449792e+002
4.667682e+002, 2.470932e+002
4.672503e+002, 2.497011e+002
4.677325e+002, 2.514962e+002
4.682146e+002, 2.518862e+002
4.686967e+002, 2.520733e+002
4.691788e+002, 2.525215e+002
4.696609e+002, 2.529196e+002
4.701430e+002, 2.528547e+002
4.706252e+002, 2.521577e+002
4.711073e+002, 2.507564e+002
4.715894e+002, 2.484295e+002
4.720715e+002, 2.450332e+002
4.725536e+002, 2.413657e+002
4.730357e+002, 2.374105e+002
4.735179e+002, 2.333173e+002
4.740000e+002, 2.291085e+002
4.744821e+002, 2.248417e+002
4.749642e+002, 2.205838e+002
4.754463e+002, 2.161843e+002
4.759284e+002, 2.119189e+002
4.764106e+002, 2.083083e+002
4.768927e+002, 2.053691e+002
4.773748e+002, 2.030907e+002
4.778569e+002, 2.017572e+002
4.783390e+002, 2.009647e+002
4.788211e+002, 2.000885e+002
4.793033e+002, 1.991174e+002
4.797854e+002, 1.980191e+002
4.802675e+002, 1.964885e+002
4.807496e+002, 1.948914e+002
4.812317e+002, 1.939522e+002
4.817138e+002, 1.938123e+002
4.821959e+002, 1.940018e+002
4.826780e+002, 1.942106e+002
4.831602e+002, 1.944154e+002
4.836423e+002, 1.942426e+002
4.841244e+002, 1.933847e+002
4.846065e+002, 1.925093e+002
4.850886e+002, 1.917824e+002
4.855707e+002, 1.912414e+002
4.860529e+002, 1.909647e+002
4.865350e+002, 1.909780e+002
4.870171e+002, 1.911595e+002
4.874992e+002, 1.912989e+002
4.879813e+002, 1.913043e+002
4.884634e+002, 1.915357e+002
4.889456e+002, 1.923310e+002
4.894277e+002, 1.929928e+002
4.899098e+002, 1.931589e+002
4.903919e+002, 1.929162e+002
4.908740e+002, 1.924384e+002
4.913561e+002, 1.917569e+002
4.918383e+002, 1.911214e+002
4.923204e+002, 1.913752e+002
4.928025e+002, 1.930322e+002
4.932846e+002, 1.941546e+002
4.937667e+002, 1.938155e+002
4.942488e+002, 1.931743e+002
4.947310e+002, 1.929218e+002
4.952131e+002, 1.931171e+002
4.956952e+002, 1.935219e+002
4.961773e+002, 1.942075e+002
4.966594e+002, 1.949581e+002
4.971415e+002, 1.950853e+002
4.976237e+002, 1.944532e+002
4.981058e+002, 1.937702e+002
4.985879e+002, 1.933808e+002
4.990700e+002, 1.932041e+002
4.995521e+002, 1.930901e+002
5.000342e+002, 1.930800e+002
5.005164e+002, 1.930111e+002
5.009985e+002, 1.926130e+002
5.014806e+002, 1.921504e+002
5.019627e+002, 1.921787e+002
5.024448e+002, 1.928172e+002
5.029269e+002, 1.935843e+002
5.034091e+002, 1.941008e+002
5.038912e+002, 1.943604e+002
5.043733e+002, 1.940635e+002
5.048554e+002, 1.927571e+002
5.053375e+002, 1.914692e+002
5.058196e+002, 1.905480e+002
5.063018e+002, 1.898844e+002
5.067839e+002, 1.893419e+002
5.072660e+002, 1.888614e+002
5.077481e+002, 1.883638e+002
5.082302e+002, 1.876999e+002
5.087123e+002, 1.867607e+002
5.091945e+002, 1.860479e+002
5.096766e+002, 1.857795e+002
5.101587e+002, 1.855216e+002
5.106408e+002, 1.851176e+002
5.111229e+002, 1.846009e+002
5.116050e+002, 1.840615e+002
5.120872e+002, 1.835472e+002
5.125693e+002, 1.830186e+002
5.130514e+002, 1.823662e+002
5.135335e+002, 1.815558e+002
5.140156e+002, 1.808702e+002
5.144977e+002, 1.804277e+002
5.149799e+002, 1.800738e+002
5.154620e+002, 1.797223e+002
5.159441e+002, 1.793581e+002
5.164262e+002, 1.789008e+002
5.169083e+002, 1.782571e+002
5.173904e+002, 1.775331e+002
5.178726e+002, 1.767361e+002
5.183547e+002, 1.759006e+002
5.188368e+002, 1.754963e+002
5.193189e+002, 1.759003e+002
5.198010e+002, 1.766833e+002
5.202831e+002, 1.768075e+002
5.207653e+002, 1.760363e+002
5.212474e+002, 1.754499e+002
5.217295e+002, 1.754038e+002
5.222116e+002, 1.754931e+002
5.226937e+002, 1.754208e+002
5.231758e+002, 1.751445e+002
5.236580e+002, 1.746362e+002
5.241401e+002, 1.738138e+002
5.246222e+002, 1.728325e+002
5.251043e+002, 1.725106e+002
5.255864e+002, 1.734915e+002
5.260685e+002, 1.742388e+002
5.265507e+002, 1.745101e+002
5.270328e+002, 1.745871e+002
5.275149e+002, 1.747937e+002
5.279970e+002, 1.751042e+002
5.284791e+002, 1.751154e+002
5.289612e+002, 1.742590e+002
5.294434e+002, 1.727618e+002
5.299255e+002, 1.720961e+002
5.304076e+002, 1.726352e+002
5.308897e+002, 1.731455e+002
5.313718e+002, 1.730110e+002
5.318539e+002, 1.726192e+002
5.323361e+002, 1.723271e+002
5.328182e+002, 1.721841e+002
5.333003e+002, 1.721663e+002
5.337824e+002, 1.723990e+002
5.342645e+002, 1.727186e+002
5.347466e+002, 1.727155e+002
5.352288e+002, 1.723150e+002
5.357109e+002, 1.719003e+002
5.361930e+002, 1.717675e+002
5.366751e+002, 1.718715e+002
5.371572e+002, 1.719058e+002
5.376393e+002, 1.717187e+002
5.381215e+002, 1.716523e+002
5.386036e+002, 1.719551e+002
5.390857e+002, 1.723618e+002
5.395678e+002, 1.725381e+002
5.400499e+002, 1.724189e+002
5.405320e+002, 1.721482e+002
5.410142e+002, 1.718508e+002
5.414963e+002, 1.715210e+002
5.419784e+002, 1.713469e+002
5.424604e+002, 1.715062e+002
5.429426e+002, 1.716145e+002
5.434247e+002, 1.716146e+002
5.439068e+002, 1.715143e+002
5.443889e+002, 1.712899e+002
5.448710e+002, 1.709442e+002
5.453531e+002, 1.705991e+002
5.458353e+002, 1.704081e+002
5.463174e+002, 1.703560e+002
5.467995e+002, 1.702636e+002
5.472816e+002, 1.700821e+002
5.477637e+002, 1.699432e+002
5.482458e+002, 1.699927e+002
5.487280e+002, 1.701263e+002
5.492101e+002, 1.701805e+002
5.496922e+002, 1.701288e+002
5.501743e+002, 1.699943e+002
5.506564e+002, 1.696633e+002
5.511385e+002, 1.692830e+002
5.516207e+002, 1.692296e+002
5.521028e+002, 1.695900e+002
5.525849e+002, 1.699835e+002
5.530670e+002, 1.700705e+002
5.535491e+002, 1.698488e+002
5.540313e+002, 1.694905e+002
5.545134e+002, 1.688179e+002
5.549955e+002, 1.682439e+002
5.554776e+002, 1.678344e+002
5.559597e+002, 1.676043e+002
5.564418e+002, 1.676602e+002
5.569240e+002, 1.679869e+002
5.574061e+002, 1.683005e+002
5.578882e+002, 1.682165e+002
5.583703e+002, 1.677101e+002
5.588524e+002, 1.675203e+002
5.593345e+002, 1.679117e+002
5.598167e+002, 1.682446e+002
5.602988e+002, 1.682658e+002
5.607809e+002, 1.681308e+002
5.612630e+002, 1.680656e+002
5.617451e+002, 1.681431e+002
5.622272e+002, 1.680984e+002
5.627094e+002, 1.674478e+002
5.631915e+002, 1.664716e+002
5.636736e+002, 1.662138e+002
5.641557e+002, 1.669079e+002
5.646378e+002, 1.677580e+002
5.651199e+002, 1.683655e+002
5.656021e+002, 1.686396e+002
5.660842e+002, 1.683332e+002
5.665663e+002, 1.667363e+002
5.670484e+002, 1.655748e+002
5.675305e+002, 1.657929e+002
5.680126e+002, 1.666030e+002
5.684948e+002, 1.670480e+002
5.689769e+002, 1.669535e+002
5.694590e+002, 1.666496e+002
5.699411e+002, 1.664251e+002
5.704232e+002, 1.662774e+002
5.709053e+002, 1.661687e+002
5.713875e+002, 1.662412e+002
5.718696e+002, 1.661541e+002
5.723517e+002, 1.655625e+002
5.728338e+002, 1.649767e+002
5.733159e+002, 1.650045e+002
5.737980e+002, 1.656668e+002
5.742802e+002, 1.662872e+002
5.747623e+002, 1.661421e+002
5.752444e+002, 1.654485e+002
5.757265e+002, 1.651793e+002
5.762086e+002, 1.654645e+002
5.766907e+002, 1.656185e+002
5.771729e+002, 1.651699e+002
5.776550e+002, 1.644841e+002
5.781371e+002, 1.641430e+002
5.786192e+002, 1.641960e+002
5.791013e+002, 1.644127e+002
5.795834e+002, 1.648500e+002
5.800656e+002, 1.653208e+002
5.805477e+002, 1.655576e+002
5.810298e+002, 1.655821e+002
5.815119e+002, 1.656820e+002
5.819940e+002, 1.660586e+002
5.824761e+002, 1.666059e+002
5.829583e+002, 1.669666e+002
5.834404e+002, 1.670795e+002
5.839225e+002, 1.670813e+002
5.844046e+002, 1.670173e+002
5.848867e+002, 1.668132e+002
5.853688e+002, 1.662541e+002
5.858510e+002, 1.654930e+002
5.863331e+002, 1.649807e+002
5.868152e+002, 1.650439e+002
5.872973e+002, 1.654454e+002
5.877794e+002, 1.656426e+002
5.882615e+002, 1.656025e+002
5.887437e+002, 1.655871e+002
5.892258e+002, 1.657104e+002
5.897079e+002, 1.658199e+002
5.901900e+002, 1.657443e+002
5.906721e+002, 1.655151e+002
5.911542e+002, 1.653357e+002
5.916364e+002, 1.651994e+002
5.921185e+002, 1.651964e+002
5.926006e+002, 1.655434e+002
5.930827e+002, 1.660988e+002
5.935648e+002, 1.664019e+002
5.940469e+002, 1.662697e+002
5.945291e+002, 1.660105e+002
5.950112e+002, 1.660779e+002
5.954933e+002, 1.665992e+002
5.959754e+002, 1.668714e+002
5.964575e+002, 1.667168e+002
5.969396e+002, 1.665527e+002
5.974218e+002, 1.665335e+002
5.979039e+002, 1.665945e+002
5.983860e+002, 1.666276e+002
5.988681e+002, 1.665967e+002
5.993502e+002, 1.665517e+002
5.998323e+002, 1.665257e+002
6.003145e+002, 1.665215e+002
6.007966e+002, 1.666409e+002
6.012787e+002, 1.669014e+002
6.017608e+002, 1.672538e+002
6.022429e+002, 1.678064e+002
6.027250e+002, 1.683895e+002
6.032072e+002, 1.686947e+002
6.036893e+002, 1.685875e+002
6.041714e+002, 1.684972e+002
6.046535e+002, 1.688065e+002
6.051356e+002, 1.691927e+002
6.056177e+002, 1.690655e+002
6.060999e+002, 1.684155e+002
6.065820e+002, 1.678638e+002
6.070641e+002, 1.678956e+002
6.075462e+002, 1.683449e+002
6.080283e+002, 1.684520e+002
6.085104e+002, 1.678001e+002
6.089926e+002, 1.673983e+002
6.094747e+002, 1.674504e+002
6.099568e+002, 1.676221e+002
6.104389e+002, 1.675601e+002
6.109210e+002, 1.673799e+002
6.114031e+002, 1.675940e+002
6.118853e+002, 1.687042e+002
6.123674e+002, 1.701114e+002
6.128495e+002, 1.704048e+002
6.133316e+002, 1.694676e+002
6.138137e+002, 1.687840e+002
6.142958e+002, 1.686157e+002
6.147780e+002, 1.689508e+002
6.152601e+002, 1.700218e+002
6.157422e+002, 1.716854e+002
6.162243e+002, 1.730532e+002
6.167064e+002, 1.736436e+002
6.171885e+002, 1.741821e+002
6.176707e+002, 1.749478e+002
6.181528e+002, 1.760311e+002
6.186349e+002, 1.777250e+002
6.191170e+002, 1.800927e+002
6.195991e+002, 1.826026e+002
6.200812e+002, 1.845756e+002
6.205634e+002, 1.859523e+002
6.210455e+002, 1.878139e+002
6.215276e+002, 1.908562e+002
6.220097e+002, 1.935329e+002
6.224918e+002, 1.952959e+002
6.229739e+002, 1.966663e+002
6.234561e+002, 1.982474e+002
6.239382e+002, 2.001177e+002
6.244203e+002, 2.017552e+002
6.249023e+002, 2.023956e+002
6.253845e+002, 2.025204e+002
6.258666e+002, 2.034351e+002
6.263487e+002, 2.052030e+002
6.268308e+002, 2.073919e+002
6.273129e+002, 2.099518e+002
6.277950e+002, 2.126900e+002
6.282772e+002, 2.153064e+002
6.287593e+002, 2.178298e+002
6.292414e+002, 2.201257e+002
6.297235e+002, 2.220843e+002
6.302056e+002, 2.238977e+002
6.306877e+002, 2.255467e+002
6.311699e+002, 2.271804e+002
6.316520e+002, 2.291955e+002
6.321341e+002, 2.317661e+002
6.326162e+002, 2.344781e+002
6.330983e+002, 2.367792e+002
6.335804e+002, 2.388346e+002
6.340626e+002, 2.396781e+002
6.345447e+002, 2.392614e+002
6.350268e+002, 2.375813e+002
6.355089e+002, 2.346570e+002
6.359910e+002, 2.306172e+002
6.364731e+002, 2.255565e+002
6.369553e+002, 2.194181e+002
6.374374e+002, 2.127097e+002
6.379195e+002, 2.052581e+002
6.384016e+002, 1.977005e+002
6.388837e+002, 1.911654e+002
6.393658e+002, 1.858039e+002
6.398480e+002, 1.810937e+002
6.403301e+002, 1.766998e+002
6.408122e+002, 1.727063e+002
6.412943e+002, 1.693618e+002
6.417764e+002, 1.667282e+002
6.422585e+002, 1.647452e+002
6.427407e+002, 1.637821e+002
6.432228e+002, 1.631391e+002
6.437049e+002, 1.624655e+002
6.441870e+002, 1.617281e+002
6.446691e+002, 1.609809e+002
6.451512e+002, 1.602572e+002
6.456334e+002, 1.595344e+002
6.461155e+002, 1.586889e+002
6.465976e+002, 1.577250e+002
6.470797e+002, 1.571680e+002
6.475618e+002, 1.572468e+002
6.480439e+002, 1.574309e+002
6.485261e+002, 1.573247e+002
6.490082e+002, 1.570015e+002
6.494903e+002, 1.566889e+002
6.499724e+002, 1.563883e+002
6.504545e+002, 1.561244e+002
6.509366e+002, 1.559610e+002
6.514188e+002, 1.558109e+002
6.519009e+002, 1.555533e+002
6.523830e+002, 1.551885e+002
6.528651e+002, 1.548024e+002
6.533472e+002, 1.544451e+002
6.538293e+002, 1.541445e+002
6.543115e+002, 1.540100e+002
6.547936e+002, 1.540770e+002
6.552757e+002, 1.542234e+002
6.557578e+002, 1.545502e+002
6.562399e+002, 1.548510e+002
6.567220e+002, 1.550119e+002
6.572042e+002, 1.550510e+002
6.576863e+002, 1.550381e+002
6.581684e+002, 1.549899e+002
6.586505e+002, 1.549158e+002
6.591326e+002, 1.548948e+002
6.596147e+002, 1.548537e+002
6.600969e+002, 1.544893e+002
6.605790e+002, 1.537250e+002
6.610611e+002, 1.530590e+002
6.615432e+002, 1.529809e+002
6.620253e+002, 1.534134e+002
6.625074e+002, 1.535200e+002
6.629896e+002, 1.529251e+002
6.634717e+002, 1.525002e+002
6.639538e+002, 1.524666e+002
6.644359e+002, 1.525166e+002
6.649180e+002, 1.523874e+002
6.654001e+002, 1.521006e+002
6.658823e+002, 1.518565e+002
6.663644e+002, 1.517949e+002
6.668465e+002, 1.518179e+002
6.673286e+002, 1.517111e+002
6.678107e+002, 1.514818e+002
6.682928e+002, 1.514098e+002
6.687750e+002, 1.516175e+002
6.692571e+002, 1.518543e+002
6.697392e+002, 1.519182e+002
6.702213e+002, 1.518015e+002
6.707034e+002, 1.515314e+002
6.711855e+002, 1.509666e+002
6.716677e+002, 1.504218e+002
6.721498e+002, 1.499769e+002
6.726319e+002, 1.496162e+002
6.731140e+002, 1.492424e+002
6.735961e+002, 1.489024e+002
6.740782e+002, 1.488803e+002
6.745604e+002, 1.494850e+002
6.750425e+002, 1.504129e+002
6.755246e+002, 1.505769e+002
6.760067e+002, 1.497510e+002
6.764888e+002, 1.491704e+002
6.769709e+002, 1.491682e+002
6.774531e+002, 1.493802e+002
6.779352e+002, 1.496309e+002
6.784173e+002, 1.498638e+002
6.788994e+002, 1.498587e+002
6.793815e+002, 1.494758e+002
6.798636e+002, 1.489609e+002
6.803458e+002, 1.482882e+002
6.808279e+002, 1.476428e+002
6.813100e+002, 1.473282e+002
6.817921e+002, 1.473851e+002
6.822742e+002, 1.476758e+002
6.827563e+002, 1.481435e+002
6.832385e+002, 1.486835e+002
6.837206e+002, 1.487439e+002
6.842027e+002, 1.480415e+002
6.846848e+002, 1.474770e+002
6.851669e+002, 1.472368e+002
6.856490e+002, 1.471089e+002
6.861312e+002, 1.470576e+002
6.866133e+002, 1.470225e+002
6.870954e+002, 1.468308e+002
6.875775e+002, 1.462849e+002
6.880596e+002, 1.458001e+002
6.885417e+002, 1.457887e+002
6.890239e+002, 1.461133e+002
6.895060e+002, 1.465377e+002
6.899881e+002, 1.470112e+002
6.904702e+002, 1.472958e+002
6.909523e+002, 1.471687e+002
6.914344e+002, 1.467286e+002
6.919166e+002, 1.464773e+002
6.923987e+002, 1.466529e+002
6.928808e+002, 1.466349e+002
6.933629e+002, 1.462810e+002
6.938450e+002, 1.458435e+002
6.943271e+002, 1.454026e+002
6.948093e+002, 1.450075e+002
6.952914e+002, 1.447502e+002
6.957735e+002, 1.446960e+002
6.962556e+002, 1.447102e+002
6.967377e+002, 1.445658e+002
6.972198e+002, 1.443582e+002
6.977020e+002, 1.445459e+002
6.981841e+002, 1.452356e+002
6.986662e+002, 1.457205e+002
6.991483e+002, 1.454367e+002
6.996304e+002, 1.446075e+002
7.001125e+002, 1.440856e+002
7.005947e+002, 1.440761e+002
7.010768e+002, 1.440746e+002
7.015589e+002, 1.441651e+002
7.020410e+002, 1.441811e+002
7.025231e+002, 1.438462e+002
7.030052e+002, 1.433859e+002
7.034874e+002, 1.433888e+002
7.039695e+002, 1.441696e+002
7.044516e+002, 1.449105e+002
7.049337e+002, 1.442563e+002
7.054158e+002, 1.425988e+002
7.058979e+002, 1.420015e+002
7.063801e+002, 1.427986e+002
7.068622e+002, 1.436570e+002
7.073442e+002, 1.438011e+002
7.078264e+002, 1.434896e+002
7.083085e+002, 1.433990e+002
7.087906e+002, 1.437189e+002
7.092727e+002, 1.437605e+002
7.097548e+002, 1.431341e+002
7.102369e+002, 1.425503e+002
7.107191e+002, 1.425360e+002
7.112012e+002, 1.428368e+002
7.116833e+002, 1.429118e+002
7.121654e+002, 1.425720e+002
7.126475e+002, 1.422139e+002
7.131296e+002, 1.423990e+002
7.136118e+002, 1.429974e+002
7.140939e+002, 1.433004e+002
7.145760e+002, 1.432776e+002
7.150581e+002, 1.429942e+002
7.155402e+002, 1.423211e+002
7.160223e+002, 1.415677e+002
7.165045e+002, 1.412819e+002
7.169866e+002, 1.415206e+002
7.174687e+002, 1.418192e+002
7.179508e+002, 1.421843e+002
7.184329e+002, 1.425538e+002
7.189150e+002, 1.429745e+002
7.193972e+002, 1.433466e+002
7.198793e+002, 1.435484e+002
7.203614e+002, 1.435421e+002
7.208435e+002, 1.433354e+002
7.213256e+002, 1.428246e+002
7.218077e+002, 1.421419e+002
7.222899e+002, 1.418571e+002
7.227720e+002, 1.420140e+002
7.232541e+002, 1.421881e+002
7.237362e+002, 1.422415e+002
7.242183e+002, 1.422661e+002
7.247004e+002, 1.423966e+002
7.251826e+002, 1.426298e+002
7.256647e+002, 1.427431e+002
7.261468e+002, 1.426745e+002
7.266289e+002, 1.425466e+002
7.271110e+002, 1.422535e+002
7.275931e+002, 1.420134e+002
7.280753e+002, 1.421861e+002
7.285574e+002, 1.427201e+002
7.290395e+002, 1.431438e+002
7.295216e+002, 1.430928e+002
7.300037e+002, 1.427434e+002
7.304858e+002, 1.424653e+002
7.309680e+002, 1.422591e+002
7.314501e+002, 1.421369e+002
7.319322e+002, 1.421159e+002
7.324143e+002, 1.421511e+002
7.328964e+002, 1.422878e+002
7.333785e+002, 1.424571e+002
7.338607e+002, 1.423248e+002
7.343428e+002, 1.415451e+002
7.348249e+002, 1.410005e+002
7.353070e+002, 1.410064e+002
7.357891e+002, 1.412027e+002
7.362712e+002, 1.413444e+002
7.367534e+002, 1.414075e+002
7.372355e+002, 1.414520e+002
7.377176e+002, 1.415142e+002
7.381997e+002, 1.415095e+002
7.386818e+002, 1.412309e+002
7.391639e+002, 1.407251e+002
7.396461e+002, 1.404661e+002
7.401282e+002, 1.405342e+002
7.406103e+002, 1.406561e+002
7.410924e+002, 1.406751e+002
7.415745e+002, 1.406571e+002
7.420566e+002, 1.407875e+002
7.425388e+002, 1.411853e+002
7.430209e+002, 1.413176e+002
7.435030e+002, 1.408824e+002
7.439851e+002, 1.404418e+002
7.444672e+002, 1.403366e+002
7.449493e+002, 1.404048e+002
7.454315e+002, 1.403323e+002
7.459136e+002, 1.400495e+002
7.463957e+002, 1.398266e+002
7.468778e+002, 1.400468e+002
7.473599e+002, 1.405101e+002
7.478420e+002, 1.405317e+002
7.483242e+002, 1.400984e+002
7.488063e+002, 1.397485e+002
7.492884e+002, 1.396592e+002
7.497705e+002, 1.397259e+002
7.502526e+002, 1.398490e+002
7.507347e+002, 1.400315e+002
7.512169e+002, 1.401965e+002
7.516990e+002, 1.403862e+002
7.521811e+002, 1.405047e+002
7.526632e+002, 1.405667e+002
7.531453e+002, 1.405234e+002
7.536274e+002, 1.402029e+002
7.541096e+002, 1.397121e+002
7.545917e+002, 1.394799e+002
7.550738e+002, 1.398679e+002
7.555559e+002, 1.403737e+002
7.560380e+002, 1.401387e+002
7.565201e+002, 1.393773e+002
7.570023e+002, 1.391426e+002
7.574844e+002, 1.396433e+002
7.579665e+002, 1.400252e+002
7.584486e+002, 1.396142e+002
7.589307e+002, 1.386972e+002
7.594128e+002, 1.382393e+002
7.598950e+002, 1.384901e+002
7.603771e+002, 1.387562e+002
7.608592e+002, 1.391945e+002
7.613413e+002, 1.394807e+002
7.618234e+002, 1.393017e+002
7.623055e+002, 1.389257e+002
7.627877e+002, 1.388501e+002
7.632698e+002, 1.392286e+002
7.637519e+002, 1.394822e+002
7.642340e+002, 1.389218e+002
7.647161e+002, 1.381015e+002
7.651982e+002, 1.379769e+002
7.656804e+002, 1.384641e+002
7.661625e+002, 1.389229e+002
7.666446e+002, 1.391140e+002
7.671267e+002, 1.391160e+002
7.676088e+002, 1.390262e+002
7.680909e+002, 1.388437e+002
7.685731e+002, 1.385391e+002
7.690552e+002, 1.378358e+002
7.695373e+002, 1.374668e+002
7.700194e+002, 1.378942e+002
7.705015e+002, 1.384602e+002
7.709836e+002, 1.386379e+002
7.714658e+002, 1.384688e+002
7.719479e+002, 1.383209e+002
7.724300e+002, 1.382454e+002
7.729121e+002, 1.383310e+002
7.733942e+002, 1.389002e+002
7.738763e+002, 1.395576e+002
7.743585e+002, 1.395639e+002
7.748406e+002, 1.389282e+002
7.753227e+002, 1.383358e+002
7.758048e+002, 1.382475e+002
7.762869e+002, 1.384368e+002
7.767690e+002, 1.383433e+002
7.772512e+002, 1.379076e+002
7.777333e+002, 1.376051e+002
7.782154e+002, 1.375488e+002
7.786975e+002, 1.374710e+002
7.791796e+002, 1.370926e+002
7.796617e+002, 1.366628e+002
7.801439e+002, 1.366354e+002
7.806260e+002, 1.371091e+002
7.811081e+002, 1.375489e+002
7.815902e+002, 1.379367e+002
7.820723e+002, 1.381385e+002
7.825544e+002, 1.380178e+002
7.830366e+002, 1.376685e+002
7.835187e+002, 1.371460e+002
7.840008e+002, 1.365183e+002
7.844829e+002, 1.360865e+002
7.849650e+002, 1.362249e+002
7.854471e+002, 1.367100e+002
7.859293e+002, 1.368296e+002
7.864114e+002, 1.365766e+002
7.868935e+002, 1.364120e+002
7.873756e+002, 1.364509e+002
7.878577e+002, 1.366155e+002
7.883398e+002, 1.369045e+002
7.888220e+002, 1.372757e+002
7.893040e+002, 1.373572e+002
7.897861e+002, 1.369013e+002
7.902682e+002, 1.365284e+002
7.907504e+002, 1.363425e+002
7.912325e+002, 1.361999e+002
7.917146e+002, 1.360400e+002
7.921967e+002, 1.358429e+002
7.926788e+002, 1.355441e+002
7.931609e+002, 1.350972e+002
7.936431e+002, 1.347621e+002
7.941252e+002, 1.348787e+002
7.946073e+002, 1.352155e+002
7.950894e+002, 1.352743e+002
7.955715e+002, 1.350898e+002
7.960536e+002, 1.351352e+002
7.965358e+002, 1.356284e+002
7.970179e+002, 1.361956e+002
7.975000e+002, 1.363087e+002
7.979821e+002, 1.359466e+002
7.984642e+002, 1.356135e+002
7.989464e+002, 1.352440e+002
7.994285e+002, 1.350189e+002
7.999106e+002, 1.351530e+002
8.003927e+002, 1.353149e+002
8.008748e+002, 1.351595e+002
8.013569e+002, 1.347826e+002
8.018391e+002, 1.346802e+002
8.023212e+002, 1.351413e+002
8.028033e+002, 1.356700e+002
8.032854e+002, 1.360970e+002
8.037675e+002, 1.363952e+002
8.042496e+002, 1.364281e+002
8.047318e+002, 1.362882e+002
8.052139e+002, 1.363472e+002
8.056960e+002, 1.368236e+002
8.061781e+002, 1.373438e+002
8.066602e+002, 1.371139e+002
8.071423e+002, 1.362310e+002
8.076245e+002, 1.362351e+002
8.081066e+002, 1.374298e+002
8.085887e+002, 1.382035e+002
8.090708e+002, 1.375846e+002
8.095529e+002, 1.365336e+002
8.100350e+002, 1.365806e+002
8.105172e+002, 1.379827e+002
8.109993e+002, 1.387975e+002
8.114814e+002, 1.388446e+002
8.119635e+002, 1.385446e+002
8.124456e+002, 1.376905e+002
8.129277e+002, 1.367691e+002
8.134099e+002, 1.363129e+002
8.138920e+002, 1.362569e+002
8.143741e+002, 1.360928e+002
8.148562e+002, 1.355266e+002
8.153383e+002, 1.348454e+002
8.158204e+002, 1.342339e+002
8.163026e+002, 1.337674e+002
8.167847e+002, 1.337214e+002
8.172668e+002, 1.340690e+002
8.177489e+002, 1.343392e+002
8.182310e+002, 1.342590e+002
8.187131e+002, 1.339684e+002
8.191953e+002, 1.337180e+002
8.196774e+002, 1.334983e+002
8.201595e+002, 1.333908e+002
8.206416e+002, 1.334999e+002
8.211237e+002, 1.335153e+002
8.216058e+002, 1.331154e+002
8.220880e+002, 1.327116e+002
8.225701e+002, 1.327713e+002
8.230522e+002, 1.332878e+002
8.235343e+002, 1.339118e+002
8.240164e+002, 1.351055e+002
8.244985e+002, 1.357551e+002
8.249807e+002, 1.349012e+002
8.254628e+002, 1.335602e+002
8.259449e+002, 1.328112e+002
8.264270e+002, 1.327193e+002
8.269091e+002, 1.328908e+002
8.273912e+002, 1.331679e+002
8.278734e+002, 1.333148e+002
8.283555e+002, 1.327867e+002
8.288376e+002, 1.318189e+002
8.293197e+002, 1.315008e+002
8.298018e+002, 1.319320e+002
8.302839e+002, 1.323094e+002
8.307661e+002, 1.322253e+002
8.312482e+002, 1.319061e+002
8.317303e+002, 1.317115e+002
8.322124e+002, 1.316524e+002
8.326945e+002, 1.316469e+002
8.331766e+002, 1.318181e+002
8.336588e+002, 1.318610e+002
8.341409e+002, 1.316880e+002
8.346230e+002, 1.313852e+002
8.351051e+002, 1.308598e+002
8.355872e+002, 1.302282e+002
8.360693e+002, 1.300016e+002
8.365515e+002, 1.306140e+002
8.370336e+002, 1.312136e+002
8.375157e+002, 1.312960e+002
8.379978e+002, 1.311456e+002
8.384799e+002, 1.309540e+002
8.389620e+002, 1.308428e+002
8.394442e+002, 1.311329e+002
8.399263e+002, 1.319794e+002
8.404084e+002, 1.328450e+002
8.408905e+002, 1.328661e+002
8.413726e+002, 1.322175e+002
8.418547e+002, 1.318924e+002
8.423369e+002, 1.319167e+002
8.428190e+002, 1.321364e+002
8.433011e+002, 1.325330e+002
8.437832e+002, 1.330076e+002
8.442653e+002, 1.334671e+002
8.447474e+002, 1.339095e+002
8.452296e+002, 1.342149e+002
8.457117e+002, 1.340233e+002
8.461938e+002, 1.342279e+002
8.466759e+002, 1.350667e+002
8.471580e+002, 1.361588e+002
8.476401e+002, 1.375924e+002
8.481223e+002, 1.390392e+002
8.486044e+002, 1.396802e+002
8.490865e+002, 1.390420e+002
8.495686e+002, 1.387911e+002
8.500507e+002, 1.402802e+002
8.505328e+002, 1.422345e+002
8.510150e+002, 1.434315e+002
8.514971e+002, 1.440086e+002
8.519792e+002, 1.443687e+002
8.524613e+002, 1.446855e+002
8.529434e+002, 1.452298e+002
8.534255e+002, 1.463981e+002
8.539077e+002, 1.478759e+002
8.543898e+002, 1.485912e+002
8.548719e+002, 1.485462e+002
8.553540e+002, 1.485262e+002
8.558361e+002, 1.487193e+002
8.563182e+002, 1.487851e+002
8.568004e+002, 1.483837e+002
8.572825e+002, 1.477252e+002
8.577646e+002, 1.475268e+002
8.582467e+002, 1.483211e+002
8.587288e+002, 1.484106e+002
8.592109e+002, 1.470469e+002
8.596931e+002, 1.458725e+002
8.601752e+002, 1.460161e+002
8.606573e+002, 1.463465e+002
8.611394e+002, 1.452184e+002
8.616215e+002, 1.425478e+002
8.621036e+002, 1.403377e+002
8.625858e+002, 1.398244e+002
8.630679e+002, 1.395466e+002
8.635500e+002, 1.384105e+002
8.640321e+002, 1.369429e+002
8.645142e+002, 1.359203e+002
8.649963e+002, 1.353681e+002
8.654785e+002, 1.348468e+002
8.659606e+002, 1.340891e+002
8.664427e+002, 1.333233e+002
8.669248e+002, 1.329842e+002
8.674069e+002, 1.329714e+002
8.678890e+002, 1.327439e+002
8.683712e+002, 1.322669e+002
8.688533e+002, 1.316729e+002
8.693354e+002, 1.309794e+002
8.698175e+002, 1.303102e+002
8.702996e+002, 1.298354e+002
8.707817e+002, 1.295547e+002
8.712639e+002, 1.293641e+002
8.717459e+002, 1.293822e+002
8.722280e+002, 1.292813e+002
8.727101e+002, 1.287929e+002
8.731923e+002, 1.283733e+002
8.736744e+002, 1.285185e+002
8.741565e+002, 1.289169e+002
8.746386e+002, 1.287251e+002
8.751207e+002, 1.275335e+002
8.756028e+002, 1.266038e+002
8.760850e+002, 1.265426e+002
8.765671e+002, 1.267432e+002
8.770492e+002, 1.268858e+002
8.775313e+002, 1.269230e+002
8.780134e+002, 1.268290e+002
8.784955e+002, 1.266048e+002
8.789777e+002, 1.262802e+002
8.794598e+002, 1.257568e+002
8.799419e+002, 1.252906e+002
8.804240e+002, 1.254488e+002
8.809061e+002, 1.260345e+002
8.813882e+002, 1.263143e+002
8.818704e+002, 1.261790e+002
8.823525e+002, 1.258860e+002
8.828346e+002, 1.255763e+002
8.833167e+002, 1.253018e+002
8.837988e+002, 1.252265e+002
8.842809e+002, 1.254204e+002
8.847631e+002, 1.252427e+002
8.852452e+002, 1.244990e+002
8.857273e+002, 1.238496e+002
8.862094e+002, 1.234309e+002
8.866915e+002, 1.232988e+002
8.871736e+002, 1.236926e+002
8.876558e+002, 1.245541e+002
8.881379e+002, 1.249899e+002
8.886200e+002, 1.246056e+002
8.891021e+002, 1.243158e+002
8.895842e+002, 1.243312e+002
8.900663e+002, 1.244385e+002
8.905485e+002, 1.246143e+002
8.910306e+002, 1.247347e+002
8.915127e+002, 1.245365e+002
8.919948e+002, 1.239319e+002
8.924769e+002, 1.233754e+002
8.929590e+002, 1.231769e+002
8.934412e+002, 1.231541e+002
8.939233e+002, 1.231748e+002
8.944054e+002, 1.232033e+002
8.948875e+002, 1.231603e+002
8.953696e+002, 1.230450e+002
8.958517e+002, 1.229797e+002
8.963339e+002, 1.230808e+002
8.968160e+002, 1.231992e+002
8.972981e+002, 1.229165e+002
8.977802e+002, 1.223048e+002
8.982623e+002, 1.221550e+002
8.987444e+002, 1.225785e+002
8.992266e+002, 1.229694e+002
8.997087e+002, 1.230504e+002
9.001908e+002, 1.229301e+002
9.006729e+002, 1.227522e+002
9.011550e+002, 1.225122e+002
9.016371e+002, 1.223016e+002
9.021193e+002, 1.220778e+002
9.026014e+002, 1.219590e+002
9.030835e+002, 1.219292e+002
9.035656e+002, 1.220520e+002
9.040477e+002, 1.225455e+002
9.045298e+002, 1.232034e+002
9.050120e+002, 1.234828e+002
9.054941e+002, 1.232510e+002
9.059762e+002, 1.228577e+002
9.064583e+002, 1.220491e+002
9.069404e+002, 1.214632e+002
9.074225e+002, 1.217649e+002
9.079047e+002, 1.223850e+002
9.083868e+002, 1.223669e+002
9.088689e+002, 1.216956e+002
9.093510e+002, 1.214191e+002
9.098331e+002, 1.224355e+002
9.103152e+002, 1.236550e+002
9.107974e+002, 1.239082e+002
9.112795e+002, 1.235973e+002
9.117616e+002, 1.234757e+002
9.122437e+002, 1.235612e+002
9.127258e+002, 1.234165e+002
9.132079e+002, 1.228335e+002
9.136901e+002, 1.221890e+002
9.141722e+002, 1.220064e+002
9.146543e+002, 1.222108e+002
9.151364e+002, 1.223668e+002
9.156185e+002, 1.224709e+002
9.161006e+002, 1.226543e+002
9.165828e+002, 1.230000e+002
9.170649e+002, 1.231848e+002
9.175470e+002, 1.228814e+002
9.180291e+002, 1.222590e+002
9.185112e+002, 1.219554e+002
9.189933e+002, 1.221800e+002
9.194755e+002, 1.221778e+002
9.199576e+002, 1.217670e+002
9.204397e+002, 1.213905e+002
9.209218e+002, 1.212353e+002
9.214039e+002, 1.211945e+002
9.218860e+002, 1.211491e+002
9.223682e+002, 1.211016e+002
9.228503e+002, 1.211484e+002
9.233324e+002, 1.214477e+002
9.238145e+002, 1.216472e+002
9.242966e+002, 1.215789e+002
9.247787e+002, 1.214354e+002
9.252609e+002, 1.213931e+002
9.257430e+002, 1.213896e+002
9.262251e+002, 1.212458e+002
9.267072e+002, 1.209044e+002
9.271893e+002, 1.205844e+002
9.276714e+002, 1.203018e+002
9.281536e+002, 1.202237e+002
9.286357e+002, 1.206892e+002
9.291178e+002, 1.214270e+002
9.295999e+002, 1.220138e+002
9.300820e+002, 1.223240e+002
9.305641e+002, 1.222061e+002
9.310463e+002, 1.215057e+002
9.315284e+002, 1.206724e+002
9.320105e+002, 1.205009e+002
9.324926e+002, 1.208165e+002
9.329747e+002, 1.208617e+002
9.334568e+002, 1.206153e+002
9.339390e+002, 1.204331e+002
9.344211e+002, 1.204441e+002
9.349032e+002, 1.206114e+002
9.353853e+002, 1.209306e+002
9.358674e+002, 1.213497e+002
9.363495e+002, 1.215487e+002
9.368317e+002, 1.214867e+002
9.373138e+002, 1.213756e+002
9.377959e+002, 1.212068e+002
9.382780e+002, 1.210616e+002
9.387601e+002, 1.209793e+002
9.392422e+002, 1.209507e+002
9.397244e+002, 1.209902e+002
9.402065e+002, 1.211426e+002
9.406886e+002, 1.210906e+002
9.411707e+002, 1.204912e+002
9.416528e+002, 1.201605e+002
9.421349e+002, 1.206253e+002
9.426171e+002, 1.210725e+002
9.430992e+002, 1.207131e+002
9.435813e+002, 1.198794e+002
9.440634e+002, 1.195238e+002
9.445455e+002, 1.199676e+002
9.450276e+002, 1.203634e+002
9.455098e+002, 1.203210e+002
9.459919e+002, 1.202323e+002
9.464740e+002, 1.204204e+002
9.469561e+002, 1.206874e+002
9.474382e+002, 1.207512e+002
9.479203e+002, 1.205874e+002
9.484025e+002, 1.203290e+002
9.488846e+002, 1.199852e+002
9.493667e+002, 1.197319e+002
9.498488e+002, 1.197930e+002
9.503309e+002, 1.200185e+002
9.508130e+002, 1.201547e+002
9.512952e+002, 1.202371e+002
9.517773e+002, 1.205244e+002
9.522594e+002, 1.210722e+002
9.527415e+002, 1.214740e+002
9.532236e+002, 1.212611e+002
9.537057e+002, 1.207259e+002
9.541878e+002, 1.205895e+002
9.546699e+002, 1.207984e+002
9.551520e+002, 1.210330e+002
9.556342e+002, 1.212484e+002
9.561163e+002, 1.213612e+002
9.565984e+002, 1.213180e+002
9.570805e+002, 1.212011e+002
9.575626e+002, 1.211336e+002
9.580447e+002, 1.211156e+002
9.585269e+002, 1.211744e+002
9.590090e+002, 1.213557e+002
9.594911e+002, 1.213996e+002
9.599732e+002, 1.211720e+002
9.604553e+002, 1.209764e+002
9.609374e+002, 1.210496e+002
9.614196e+002, 1.213183e+002
9.619017e+002, 1.215913e+002
9.623838e+002, 1.219190e+002
9.628659e+002, 1.220907e+002
9.633480e+002, 1.220097e+002
9.638301e+002, 1.218980e+002
9.643123e+002, 1.218069e+002
9.647944e+002, 1.217148e+002
9.652765e+002, 1.214657e+002
9.657586e+002, 1.211723e+002
9.662407e+002, 1.213776e+002
9.667228e+002, 1.226413e+002
9.672050e+002, 1.234006e+002
9.676871e+002, 1.228294e+002
9.681692e+002, 1.222013e+002
9.686513e+002, 1.223179e+002
9.691334e+002, 1.227796e+002
9.696155e+002, 1.230313e+002
9.700977e+002, 1.230091e+002
9.705798e+002, 1.229420e+002
9.710619e+002, 1.228292e+002
9.715440e+002, 1.228629e+002
9.720261e+002, 1.232835e+002
9.725082e+002, 1.238195e+002
9.729904e+002, 1.242147e+002
9.734725e+002, 1.244703e+002
9.739546e+002, 1.245530e+002
9.744367e+002, 1.244992e+002
9.749188e+002, 1.247285e+002
9.754009e+002, 1.257439e+002
9.758831e+002, 1.270313e+002
9.763652e+002, 1.278675e+002
9.768473e+002, 1.284593e+002
9.773294e+002, 1.292445e+002
9.778115e+002, 1.302653e+002
9.782936e+002, 1.313632e+002
9.787758e+002, 1.324685e+002
9.792579e+002, 1.336418e+002
9.797400e+002, 1.349238e+002
9.802221e+002, 1.363522e+002
9.807042e+002, 1.381099e+002
9.811863e+002, 1.401404e+002
9.816685e+002, 1.419616e+002
9.821506e+002, 1.434727e+002
9.826327e+002, 1.450177e+002
9.831148e+002, 1.467767e+002
9.835969e+002, 1.488716e+002
9.840790e+002, 1.514878e+002
9.845612e+002, 1.546182e+002
9.850433e+002, 1.584166e+002
9.855254e+002, 1.627903e+002
9.860075e+002, 1.684013e+002
9.864896e+002, 1.754319e+002
9.869717e+002, 1.836852e+002
9.874539e+002, 1.927693e+002
9.879360e+002, 2.031650e+002
9.884181e+002, 2.164240e+002
9.889002e+002, 2.326971e+002
9.893823e+002, 2.510746e+002
9.898644e+002, 2.713379e+002
9.903466e+002, 2.941859e+002
9.908287e+002, 3.201813e+002
9.913108e+002, 3.486785e+002
9.917929e+002, 3.800049e+002
9.922750e+002, 4.135616e+002
9.927571e+002, 4.456438e+002
9.932393e+002, 4.792615e+002
9.937214e+002, 5.058674e+002
9.942035e+002, 5.237648e+002
9.946856e+002, 5.367130e+002
9.951677e+002, 5.451763e+002
9.956498e+002, 5.500327e+002
9.961320e+002, 5.526385e+002
9.966141e+002, 5.526863e+002
9.970962e+002, 5.476074e+002
9.975783e+002, 5.367112e+002
9.980604e+002, 5.210032e+002
9.985425e+002, 4.983492e+002
9.990247e+002, 4.734922e+002
9.995068e+002, 4.478189e+002
9.999889e+002, 4.228531e+002
1.000471e+003, 4.001330e+002
1.000953e+003, 3.799971e+002
1.001435e+003, 3.630728e+002
1.001917e+003, 3.499967e+002
1.002399e+003, 3.397365e+002
1.002882e+003, 3.340903e+002
1.003364e+003, 3.289867e+002
1.003846e+003, 3.220206e+002
1.004328e+003, 3.120529e+002
1.004810e+003, 2.968832e+002
1.005292e+003, 2.764215e+002
1.005774e+003, 2.547732e+002
1.006256e+003, 2.330405e+002
1.006739e+003, 2.130039e+002
1.007221e+003, 1.960741e+002
1.007703e+003, 1.821083e+002
1.008185e+003, 1.714784e+002
1.008667e+003, 1.636254e+002
1.009149e+003, 1.572752e+002
1.009631e+003, 1.519589e+002
1.010113e+003, 1.476265e+002
1.010595e+003, 1.445390e+002
1.011078e+003, 1.421234e+002
1.011560e+003, 1.394438e+002
1.012042e+003, 1.367911e+002
1.012524e+003, 1.349427e+002
1.013006e+003, 1.338496e+002
1.013488e+003, 1.328398e+002
1.013970e+003, 1.316137e+002
1.014452e+003, 1.304065e+002
1.014935e+003, 1.294288e+002
1.015417e+003, 1.287029e+002
1.015899e+003, 1.284672e+002
1.016381e+003, 1.285608e+002
1.016863e+003, 1.281132e+002
1.017345e+003, 1.270603e+002
1.017827e+003, 1.262262e+002
1.018309e+003, 1.260469e+002
1.018791e+003, 1.260712e+002
1.019274e+003, 1.256780e+002
1.019756e+003, 1.249523e+002
1.020238e+003, 1.241720e+002
1.020720e+003, 1.233607e+002
1.021202e+003, 1.232087e+002
1.021684e+003, 1.238754e+002
1.022166e+003, 1.244359e+002
1.022648e+003, 1.243414e+002
1.023130e+003, 1.239330e+002
1.023613e+003, 1.237758e+002
1.024095e+003, 1.238409e+002
1.024577e+003, 1.236300e+002
1.025059e+003, 1.231077e+002
1.025541e+003, 1.225600e+002
1.026023e+003, 1.219734e+002
1.026505e+003, 1.216788e+002
1.026987e+003, 1.219487e+002
1.027469e+003, 1.224948e+002
1.027952e+003, 1.228112e+002
1.028434e+003, 1.229001e+002
1.028916e+003, 1.227090e+002
1.029398e+003, 1.221736e+002
1.029880e+003, 1.215466e+002
1.030362e+003, 1.207551e+002
1.030844e+003, 1.201735e+002
1.031326e+003, 1.201152e+002
1.031809e+003, 1.203513e+002
1.032291e+003, 1.204028e+002
1.032773e+003, 1.202263e+002
1.033255e+003, 1.202577e+002
1.033737e+003, 1.206553e+002
1.034219e+003, 1.209209e+002
1.034701e+003, 1.209703e+002
1.035183e+003, 1.208494e+002
1.035666e+003, 1.204975e+002
1.036148e+003, 1.200501e+002
1.036630e+003, 1.198106e+002
1.037112e+003, 1.198357e+002
1.037594e+003, 1.197453e+002
1.038076e+003, 1.194460e+002
1.038558e+003, 1.191766e+002
1.039040e+003, 1.189204e+002
1.039522e+003, 1.187661e+002
1.040005e+003, 1.188073e+002
1.040487e+003, 1.189787e+002
1.040969e+003, 1.191426e+002
1.041451e+003, 1.192896e+002
1.041933e+003, 1.194790e+002
1.042415e+003, 1.201225e+002
1.042897e+003, 1.202328e+002
1.043379e+003, 1.190622e+002
1.043861e+003, 1.178713e+002
1.044344e+003, 1.175774e+002
1.044826e+003, 1.178070e+002
1.045308e+003, 1.178291e+002
1.045790e+003, 1.175810e+002
1.046272e+003, 1.172575e+002
1.046754e+003, 1.165911e+002
1.047236e+003, 1.162524e+002
1.047718e+003, 1.168310e+002
1.048201e+003, 1.173759e+002
1.048683e+003, 1.170268e+002
1.049165e+003, 1.162519e+002
1.049647e+003, 1.160071e+002
1.050129e+003, 1.164486e+002
1.050611e+003, 1.168029e+002
1.051093e+003, 1.169118e+002
1.051575e+003, 1.169239e+002
1.052057e+003, 1.168226e+002
1.052540e+003, 1.166950e+002
1.053022e+003, 1.165585e+002
1.053504e+003, 1.164565e+002
1.053986e+003, 1.165035e+002
1.054468e+003, 1.167217e+002
1.054950e+003, 1.167930e+002
1.055432e+003, 1.166191e+002
1.055914e+003, 1.163057e+002
1.056396e+003, 1.154711e+002
1.056879e+003, 1.149155e+002
1.057361e+003, 1.156700e+002
1.057843e+003, 1.169489e+002
1.058325e+003, 1.172601e+002
1.058807e+003, 1.163969e+002
1.059289e+003, 1.157136e+002
1.059771e+003, 1.158467e+002
1.060253e+003, 1.159700e+002
1.060736e+003, 1.159418e+002
1.061218e+003, 1.156190e+002
1.061700e+003, 1.144845e+002
1.062182e+003, 1.131682e+002
1.062664e+003, 1.128386e+002
1.063146e+003, 1.135938e+002
1.063628e+003, 1.141371e+002
1.064110e+003, 1.138266e+002
1.064593e+003, 1.134664e+002
1.065075e+003, 1.134335e+002
1.065557e+003, 1.134300e+002
1.066039e+003, 1.131343e+002
1.066521e+003, 1.127609e+002
1.067003e+003, 1.126661e+002
1.067485e+003, 1.128867e+002
1.067967e+003, 1.132057e+002
1.068449e+003, 1.136743e+002
1.068932e+003, 1.139959e+002
1.069414e+003, 1.140147e+002
1.069896e+003, 1.138596e+002
1.070378e+003, 1.134993e+002
1.070860e+003, 1.131006e+002
1.071342e+003, 1.128577e+002
1.071824e+003, 1.128006e+002
1.072306e+003, 1.128691e+002
1.072788e+003, 1.129885e+002
1.073271e+003, 1.133485e+002
1.073753e+003, 1.144563e+002
1.074235e+003, 1.153984e+002
1.074717e+003, 1.154658e+002
1.075199e+003, 1.149932e+002
1.075681e+003, 1.143009e+002
1.076163e+003, 1.135385e+002
1.076645e+003, 1.130014e+002
1.077127e+003, 1.128203e+002
1.077610e+003, 1.127694e+002
1.078092e+003, 1.127485e+002
1.078574e+003, 1.128172e+002
1.079056e+003, 1.131480e+002
1.079538e+003, 1.134999e+002
1.080020e+003, 1.135806e+002
1.080502e+003, 1.134116e+002
1.080984e+003, 1.131454e+002
1.081467e+003, 1.127690e+002
1.081949e+003, 1.126066e+002
1.082431e+003, 1.129488e+002
1.082913e+003, 1.133797e+002
1.083395e+003, 1.137125e+002
1.083877e+003, 1.139491e+002
1.084359e+003, 1.140477e+002
1.084841e+003, 1.140717e+002
1.085323e+003, 1.141900e+002
1.085806e+003, 1.144607e+002
1.086288e+003, 1.146769e+002
1.086770e+003, 1.147500e+002
1.087252e+003, 1.147478e+002
1.087734e+003, 1.144265e+002
1.088216e+003, 1.142876e+002
1.088698e+003, 1.150432e+002
1.089180e+003, 1.162737e+002
1.089662e+003, 1.170272e+002
1.090145e+003, 1.171114e+002
1.090627e+003, 1.171363e+002
1.091109e+003, 1.172452e+002
1.091591e+003, 1.174579e+002
1.092073e+003, 1.177757e+002
1.092555e+003, 1.182080e+002
1.093037e+003, 1.189056e+002
1.093519e+003, 1.196534e+002
1.094002e+003, 1.199919e+002
1.094484e+003, 1.199099e+002
1.094966e+003, 1.201553e+002
1.095448e+003, 1.212237e+002
1.095930e+003, 1.222662e+002
1.096412e+003, 1.228608e+002
1.096894e+003, 1.234978e+002
1.097376e+003, 1.245553e+002
1.097859e+003, 1.258131e+002
1.098341e+003, 1.270474e+002
1.098823e+003, 1.281908e+002
1.099305e+003, 1.290640e+002
1.099787e+003, 1.293908e+002
1.100269e+003, 1.299404e+002
1.100751e+003, 1.314130e+002
1.101233e+003, 1.325509e+002
1.101715e+003, 1.325576e+002
1.102198e+003, 1.320589e+002
1.102680e+003, 1.316261e+002
1.103162e+003, 1.312996e+002
1.103644e+003, 1.310482e+002
1.104126e+003, 1.309804e+002
1.104608e+003, 1.306232e+002
1.105090e+003, 1.296020e+002
1.105572e+003, 1.286601e+002
1.106054e+003, 1.279080e+002
1.106537e+003, 1.274668e+002
1.107019e+003, 1.276106e+002
1.107501e+003, 1.280928e+002
1.107983e+003, 1.283181e+002
1.108465e+003, 1.281988e+002
1.108947e+003, 1.280797e+002
1.109429e+003, 1.277226e+002
1.109911e+003, 1.277491e+002
1.110394e+003, 1.289153e+002
1.110876e+003, 1.298316e+002
1.111358e+003, 1.292727e+002
1.111840e+003, 1.281118e+002
1.112322e+003, 1.278540e+002
1.112804e+003, 1.285691e+002
1.113286e+003, 1.290503e+002
1.113768e+003, 1.290878e+002
1.114250e+003, 1.292406e+002
1.114733e+003, 1.297200e+002
1.115215e+003, 1.300795e+002
1.115697e+003, 1.300630e+002
1.116179e+003, 1.298931e+002
1.116661e+003, 1.297796e+002
1.117143e+003, 1.297353e+002
1.117625e+003, 1.298434e+002
1.118107e+003, 1.300261e+002
1.118589e+003, 1.305599e+002
1.119072e+003, 1.315801e+002
1.119554e+003, 1.327040e+002
1.120036e+003, 1.339209e+002
1.120518e+003, 1.350021e+002
1.121000e+003, 1.355595e+002
1.121482e+003, 1.359775e+002
1.121964e+003, 1.374429e+002
1.122446e+003, 1.401550e+002
1.122929e+003, 1.426953e+002
1.123411e+003, 1.450032e+002
1.123893e+003, 1.473922e+002
1.124375e+003, 1.499793e+002
1.124857e+003, 1.524969e+002
1.125339e+003, 1.547487e+002
1.125821e+003, 1.568872e+002
1.126303e+003, 1.591910e+002
1.126786e+003, 1.616341e+002
1.127268e+003, 1.639563e+002
1.127750e+003, 1.663070e+002
1.128232e+003, 1.670450e+002
1.128714e+003, 1.658806e+002
1.129196e+003, 1.635299e+002
1.129678e+003, 1.602201e+002
1.130160e+003, 1.564428e+002
1.130642e+003, 1.527095e+002
1.131125e+003, 1.490407e+002
1.131607e+003, 1.454583e+002
1.132089e+003, 1.419861e+002
1.132571e+003, 1.390817e+002
1.133053e+003, 1.367442e+002
1.133535e+003, 1.346792e+002
1.134017e+003, 1.327935e+002
1.134499e+003, 1.310892e+002
1.134981e+003, 1.295819e+002
1.135464e+003, 1.281825e+002
1.135946e+003, 1.266338e+002
1.136428e+003, 1.250649e+002
1.136910e+003, 1.240772e+002
1.137392e+003, 1.235546e+002
1.137874e+003, 1.228536e+002
1.138356e+003, 1.219039e+002
1.138838e+003, 1.211733e+002
1.139321e+003, 1.208985e+002
1.139803e+003, 1.208207e+002
1.140285e+003, 1.208140e+002
1.140767e+003, 1.206497e+002
1.141249e+003, 1.195221e+002
1.141731e+003, 1.180667e+002
1.142213e+003, 1.179176e+002
1.142695e+003, 1.188137e+002
1.143177e+003, 1.193125e+002
1.143660e+003, 1.189867e+002
1.144142e+003, 1.184874e+002
1.144624e+003, 1.182398e+002
1.145106e+003, 1.180929e+002
1.145588e+003, 1.179812e+002
1.146070e+003, 1.178039e+002
1.146552e+003, 1.173033e+002
1.147034e+003, 1.166997e+002
1.147516e+003, 1.164668e+002
1.147999e+003, 1.165787e+002
1.148481e+003, 1.165157e+002
1.148963e+003, 1.159879e+002
1.149445e+003, 1.156991e+002
1.149927e+003, 1.163541e+002
1.150409e+003, 1.171093e+002
1.150891e+003, 1.174169e+002
1.151373e+003, 1.174505e+002
1.151856e+003, 1.172866e+002
1.152338e+003, 1.170607e+002
1.152820e+003, 1.170117e+002
1.153302e+003, 1.171890e+002
1.153784e+003, 1.174230e+002
1.154266e+003, 1.178322e+002
1.154748e+003, 1.180403e+002
1.155230e+003, 1.178851e+002
1.155713e+003, 1.175346e+002
1.156195e+003, 1.169346e+002
1.156677e+003, 1.163040e+002
1.157159e+003, 1.158809e+002
1.157641e+003, 1.156774e+002
1.158123e+003, 1.156465e+002
1.158605e+003, 1.158127e+002
1.159087e+003, 1.160885e+002
1.159569e+003, 1.169253e+002
1.160052e+003, 1.172336e+002
1.160534e+003, 1.161979e+002
1.161016e+003, 1.151385e+002
1.161498e+003, 1.151183e+002
1.161980e+003, 1.157068e+002
1.162462e+003, 1.159414e+002
1.162944e+003, 1.157596e+002
1.163426e+003, 1.159220e+002
1.163908e+003, 1.165743e+002
1.164391e+003, 1.171235e+002
1.164873e+003, 1.174108e+002
1.165355e+003, 1.178361e+002
1.165837e+003, 1.186350e+002
1.166319e+003, 1.195393e+002
1.166801e+003, 1.202408e+002
1.167283e+003, 1.207756e+002
1.167765e+003, 1.213543e+002
1.168247e+003, 1.219909e+002
1.168730e+003, 1.222407e+002
1.169212e+003, 1.220836e+002
1.169694e+003, 1.214969e+002
1.170176e+003, 1.204657e+002
1.170658e+003, 1.194873e+002
1.171140e+003, 1.189191e+002
1.171622e+003, 1.184855e+002
1.172104e+003, 1.177217e+002
1.172587e+003, 1.167377e+002
1.173069e+003, 1.157795e+002
1.173551e+003, 1.149290e+002
1.174033e+003, 1.145459e+002
1.174515e+003, 1.146091e+002
1.174997e+003, 1.147924e+002
1.175479e+003, 1.149684e+002
1.175961e+003, 1.152221e+002
1.176443e+003, 1.157311e+002
1.176926e+003, 1.161109e+002
1.177408e+003, 1.157371e+002
1.177890e+003, 1.150376e+002
1.178372e+003, 1.145400e+002
1.178854e+003, 1.142527e+002
1.179336e+003, 1.140662e+002
1.179818e+003, 1.139982e+002
1.180300e+003, 1.142582e+002
1.180782e+003, 1.149835e+002
1.181265e+003, 1.156190e+002
1.181747e+003, 1.159970e+002
1.182229e+003, 1.159681e+002
1.182711e+003, 1.151002e+002
1.183193e+003, 1.140775e+002
1.183675e+003, 1.134743e+002
1.184157e+003, 1.132441e+002
1.184639e+003, 1.132165e+002
1.185122e+003, 1.133604e+002
1.185604e+003, 1.136166e+002
1.186086e+003, 1.141103e+002
1.186568e+003, 1.144916e+002
1.187050e+003, 1.146312e+002
1.187532e+003, 1.147357e+002
1.188014e+003, 1.148938e+002
1.188496e+003, 1.150524e+002
1.188979e+003, 1.152077e+002
1.189461e+003, 1.153118e+002
1.189943e+003, 1.152111e+002
1.190425e+003, 1.148707e+002
1.190907e+003, 1.145167e+002
1.191389e+003, 1.140880e+002
1.191871e+003, 1.138441e+002
1.192353e+003, 1.139078e+002
1.192835e+003, 1.139002e+002
1.193318e+003, 1.135831e+002
1.193800e+003, 1.132639e+002
1.194282e+003, 1.133678e+002
1.194764e+003, 1.137246e+002
1.195246e+003, 1.135764e+002
1.195728e+003, 1.129539e+002
1.196210e+003, 1.127586e+002
1.196692e+003, 1.130046e+002
1.197174e+003, 1.130881e+002
1.197657e+003, 1.128606e+002
1.198139e+003, 1.124633e+002
1.198621e+003, 1.119630e+002
1.199103e+003, 1.116253e+002
1.199585e+003, 1.118162e+002
1.200067e+003, 1.124054e+002
1.200549e+003, 1.134519e+002
1.201031e+003, 1.145633e+002
1.201514e+003, 1.147137e+002
1.201996e+003, 1.141320e+002
1.202478e+003, 1.137706e+002
1.202960e+003, 1.138784e+002
1.203442e+003, 1.140881e+002
1.203924e+003, 1.142253e+002
1.204406e+003, 1.142824e+002
1.204888e+003, 1.142761e+002
1.205370e+003, 1.141647e+002
1.205853e+003, 1.138288e+002
1.206335e+003, 1.134323e+002
1.206817e+003, 1.129447e+002
1.207299e+003, 1.126148e+002
1.207781e+003, 1.132564e+002
1.208263e+003, 1.151337e+002
1.208745e+003, 1.160470e+002
1.209227e+003, 1.144851e+002
1.209709e+003, 1.133844e+002
1.210192e+003, 1.137240e+002
1.210674e+003, 1.142178e+002
1.211156e+003, 1.142765e+002
1.211638e+003, 1.141305e+002
1.212120e+003, 1.139271e+002
1.212602e+003, 1.137304e+002
1.213084e+003, 1.138293e+002
1.213566e+003, 1.143516e+002
1.214049e+003, 1.144729e+002
1.214531e+003, 1.140339e+002
1.215013e+003, 1.138530e+002
1.215495e+003, 1.141348e+002
1.215977e+003, 1.144507e+002
1.216459e+003, 1.145877e+002
1.216941e+003, 1.145725e+002
1.217423e+003, 1.144016e+002
1.217906e+003, 1.141637e+002
1.218388e+003, 1.141319e+002
1.218870e+003, 1.142833e+002
1.219352e+003, 1.145642e+002
1.219834e+003, 1.149248e+002
1.220316e+003, 1.151188e+002
1.220798e+003, 1.151158e+002
1.221280e+003, 1.151054e+002
1.221762e+003, 1.151875e+002
1.222245e+003, 1.153512e+002
1.222727e+003, 1.156458e+002
1.223209e+003, 1.159546e+002
1.223691e+003, 1.161052e+002
1.224173e+003, 1.162192e+002
1.224655e+003, 1.165611e+002
1.225137e+003, 1.169471e+002
1.225619e+003, 1.169354e+002
1.226101e+003, 1.165284e+002
1.226584e+003, 1.161989e+002
1.227066e+003, 1.160594e+002
1.227548e+003, 1.161680e+002
1.228030e+003, 1.169889e+002
1.228512e+003, 1.174797e+002
1.228994e+003, 1.168539e+002
1.229476e+003, 1.160732e+002
1.229958e+003, 1.159018e+002
1.230441e+003, 1.160906e+002
1.230923e+003, 1.161332e+002
1.231405e+003, 1.160405e+002
1.231887e+003, 1.162213e+002
1.232369e+003, 1.168840e+002
1.232851e+003, 1.171338e+002
1.233333e+003, 1.167770e+002
1.233815e+003, 1.165617e+002
1.234297e+003, 1.167227e+002
1.234780e+003, 1.170425e+002
1.235262e+003, 1.173849e+002
1.235744e+003, 1.177094e+002
1.236226e+003, 1.179744e+002
1.236708e+003, 1.181480e+002
1.237190e+003, 1.180035e+002
1.237672e+003, 1.176480e+002
1.238154e+003, 1.175849e+002
1.238636e+003, 1.178083e+002
1.239119e+003, 1.180401e+002
1.239601e+003, 1.181878e+002
1.240083e+003, 1.182698e+002
1.240565e+003, 1.182959e+002
1.241047e+003, 1.182699e+002
1.241529e+003, 1.181166e+002
1.242011e+003, 1.179972e+002
1.242493e+003, 1.180478e+002
1.242975e+003, 1.182442e+002
1.243458e+003, 1.186930e+002
1.243940e+003, 1.192060e+002
1.244422e+003, 1.193542e+002
1.244904e+003, 1.191048e+002
1.245386e+003, 1.189945e+002
1.245868e+003, 1.193791e+002
1.246350e+003, 1.195103e+002
1.246832e+003, 1.190115e+002
1.247315e+003, 1.185779e+002
1.247797e+003, 1.183661e+002
1.248279e+003, 1.183879e+002
1.248761e+003, 1.186858e+002
1.249243e+003, 1.191993e+002
1.249725e+003, 1.199061e+002
1.250207e+003, 1.207617e+002
1.250689e+003, 1.209633e+002
1.251172e+003, 1.204321e+002
1.251654e+003, 1.200980e+002
1.252136e+003, 1.200369e+002
1.252618e+003, 1.199237e+002
1.253100e+003, 1.196615e+002
1.253582e+003, 1.195363e+002
1.254064e+003, 1.197456e+002
1.254546e+003, 1.201804e+002
1.255028e+003, 1.209274e+002
1.255510e+003, 1.216136e+002
1.255993e+003, 1.213080e+002
1.256475e+003, 1.205430e+002
1.256957e+003, 1.202544e+002
1.257439e+003, 1.204133e+002
1.257921e+003, 1.208365e+002
1.258403e+003, 1.213606e+002
1.258885e+003, 1.214347e+002
1.259367e+003, 1.206412e+002
1.259850e+003, 1.200833e+002
1.260332e+003, 1.205448e+002
1.260814e+003, 1.210049e+002
1.261296e+003, 1.207026e+002
1.261778e+003, 1.204965e+002
1.262260e+003, 1.213698e+002
1.262742e+003, 1.225927e+002
1.263224e+003, 1.229175e+002
1.263707e+003, 1.224532e+002
1.264189e+003, 1.221433e+002
1.264671e+003, 1.220395e+002
1.265153e+003, 1.218758e+002
1.265635e+003, 1.215698e+002
1.266117e+003, 1.216216e+002
1.266599e+003, 1.221984e+002
1.267081e+003, 1.227679e+002
1.267563e+003, 1.230391e+002
1.268046e+003, 1.231074e+002
1.268528e+003, 1.230542e+002
1.269010e+003, 1.229452e+002
1.269492e+003, 1.228130e+002
1.269974e+003, 1.227960e+002
1.270456e+003, 1.234487e+002
1.270938e+003, 1.244748e+002
1.271420e+003, 1.250029e+002
1.271902e+003, 1.250026e+002
1.272385e+003, 1.251023e+002
1.272867e+003, 1.255419e+002
1.273349e+003, 1.256281e+002
1.273831e+003, 1.245366e+002
1.274313e+003, 1.235613e+002
1.274795e+003, 1.233213e+002
1.275277e+003, 1.234399e+002
1.275759e+003, 1.239478e+002
1.276242e+003, 1.244526e+002
1.276724e+003, 1.243607e+002
1.277206e+003, 1.239377e+002
1.277688e+003, 1.241713e+002
1.278170e+003, 1.252122e+002
1.278652e+003, 1.254650e+002
1.279134e+003, 1.246396e+002
1.279616e+003, 1.240877e+002
1.280099e+003, 1.239848e+002
1.280581e+003, 1.239883e+002
1.281063e+003, 1.239859e+002
1.281545e+003, 1.239456e+002
1.282027e+003, 1.238408e+002
1.282509e+003, 1.236861e+002
1.282991e+003, 1.235017e+002
1.283473e+003, 1.232874e+002
1.283955e+003, 1.230696e+002
##END=



