##NAMES=Gamagarite
##RRUFFID=R130111
##IDEAL CHEMISTRY=Ba_2_Fe^3+^(V^5+^O_4_)_2_(OH)
##LOCALITY=Molinello mine, Graveglia Valley, Genova Province, Liguria, Italy
##OWNER=RRUFF
##SOURCE=Don Doell (Small piece), Rock Currier (Large piece)
##DESCRIPTION=Dark reddish brown massive
##STATUS=The identification of this mineral has been confirmed only by single crystal X-ray diffraction.
##URL=rruff.info/R130111
8.936163e+001, 0.000000e+000
8.984375e+001, 3.796990e+002
9.032587e+001, 3.831459e+002
9.080798e+001, 3.838502e+002
9.129010e+001, 3.808691e+002
9.177222e+001, 3.762345e+002
9.225433e+001, 3.723326e+002
9.273645e+001, 3.690805e+002
9.321857e+001, 3.657520e+002
9.370068e+001, 3.615675e+002
9.418280e+001, 3.567866e+002
9.466492e+001, 3.523125e+002
9.514703e+001, 3.485103e+002
9.562915e+001, 3.452199e+002
9.611127e+001, 3.418685e+002
9.659338e+001, 3.384532e+002
9.707550e+001, 3.350947e+002
9.755762e+001, 3.319855e+002
9.803973e+001, 3.291190e+002
9.852185e+001, 3.261440e+002
9.900397e+001, 3.225581e+002
9.948608e+001, 3.183119e+002
9.996820e+001, 3.154611e+002
1.004503e+002, 3.145107e+002
1.009324e+002, 3.143434e+002
1.014146e+002, 3.125052e+002
1.018967e+002, 3.085105e+002
1.023788e+002, 3.041862e+002
1.028609e+002, 3.003629e+002
1.033430e+002, 2.970955e+002
1.038251e+002, 2.943325e+002
1.043073e+002, 2.924432e+002
1.047894e+002, 2.911263e+002
1.052715e+002, 2.887101e+002
1.057536e+002, 2.843249e+002
1.062357e+002, 2.797753e+002
1.067178e+002, 2.763244e+002
1.072000e+002, 2.751493e+002
1.076821e+002, 2.733951e+002
1.081642e+002, 2.703785e+002
1.086463e+002, 2.659486e+002
1.091284e+002, 2.623666e+002
1.096105e+002, 2.605618e+002
1.100927e+002, 2.591974e+002
1.105748e+002, 2.570505e+002
1.110569e+002, 2.529767e+002
1.115390e+002, 2.491769e+002
1.120211e+002, 2.463112e+002
1.125032e+002, 2.447402e+002
1.129854e+002, 2.428528e+002
1.134675e+002, 2.401486e+002
1.139496e+002, 2.370645e+002
1.144317e+002, 2.341927e+002
1.149138e+002, 2.314367e+002
1.153959e+002, 2.291228e+002
1.158781e+002, 2.275340e+002
1.163602e+002, 2.271547e+002
1.168423e+002, 2.265247e+002
1.173244e+002, 2.248687e+002
1.178065e+002, 2.225344e+002
1.182886e+002, 2.204067e+002
1.187708e+002, 2.189206e+002
1.192529e+002, 2.177542e+002
1.197350e+002, 2.167249e+002
1.202171e+002, 2.161579e+002
1.206992e+002, 2.152600e+002
1.211813e+002, 2.133532e+002
1.216635e+002, 2.105751e+002
1.221456e+002, 2.077193e+002
1.226277e+002, 2.052542e+002
1.231098e+002, 2.030125e+002
1.235919e+002, 2.007684e+002
1.240740e+002, 1.982207e+002
1.245562e+002, 1.957599e+002
1.250383e+002, 1.938999e+002
1.255204e+002, 1.926282e+002
1.260025e+002, 1.915379e+002
1.264846e+002, 1.903622e+002
1.269667e+002, 1.891050e+002
1.274489e+002, 1.877766e+002
1.279310e+002, 1.861912e+002
1.284131e+002, 1.845680e+002
1.288952e+002, 1.835272e+002
1.293773e+002, 1.832178e+002
1.298594e+002, 1.828250e+002
1.303416e+002, 1.810325e+002
1.308237e+002, 1.780466e+002
1.313058e+002, 1.752511e+002
1.317879e+002, 1.734550e+002
1.322700e+002, 1.725020e+002
1.327521e+002, 1.716604e+002
1.332343e+002, 1.708967e+002
1.337164e+002, 1.701826e+002
1.341985e+002, 1.694342e+002
1.346806e+002, 1.686490e+002
1.351627e+002, 1.678587e+002
1.356448e+002, 1.672687e+002
1.361270e+002, 1.668898e+002
1.366091e+002, 1.658081e+002
1.370912e+002, 1.636341e+002
1.375733e+002, 1.608214e+002
1.380554e+002, 1.588445e+002
1.385375e+002, 1.579083e+002
1.390197e+002, 1.571998e+002
1.395018e+002, 1.559826e+002
1.399839e+002, 1.540674e+002
1.404660e+002, 1.525393e+002
1.409481e+002, 1.516788e+002
1.414302e+002, 1.514320e+002
1.419124e+002, 1.510484e+002
1.423945e+002, 1.505610e+002
1.428766e+002, 1.498973e+002
1.433587e+002, 1.489594e+002
1.438408e+002, 1.476543e+002
1.443229e+002, 1.462749e+002
1.448051e+002, 1.448464e+002
1.452872e+002, 1.433163e+002
1.457693e+002, 1.420223e+002
1.462514e+002, 1.410895e+002
1.467335e+002, 1.402974e+002
1.472156e+002, 1.393370e+002
1.476978e+002, 1.380357e+002
1.481799e+002, 1.367946e+002
1.486620e+002, 1.357519e+002
1.491441e+002, 1.350974e+002
1.496262e+002, 1.341339e+002
1.501083e+002, 1.323222e+002
1.505905e+002, 1.303005e+002
1.510726e+002, 1.291925e+002
1.515547e+002, 1.301637e+002
1.520368e+002, 1.310497e+002
1.525189e+002, 1.311963e+002
1.530010e+002, 1.302525e+002
1.534832e+002, 1.291414e+002
1.539653e+002, 1.276808e+002
1.544474e+002, 1.260775e+002
1.549295e+002, 1.248284e+002
1.554116e+002, 1.243302e+002
1.558937e+002, 1.239554e+002
1.563759e+002, 1.234230e+002
1.568580e+002, 1.225409e+002
1.573401e+002, 1.217052e+002
1.578222e+002, 1.210208e+002
1.583043e+002, 1.204507e+002
1.587864e+002, 1.198583e+002
1.592686e+002, 1.191776e+002
1.597507e+002, 1.184800e+002
1.602328e+002, 1.178102e+002
1.607149e+002, 1.171219e+002
1.611970e+002, 1.165200e+002
1.616791e+002, 1.160335e+002
1.621613e+002, 1.156662e+002
1.626434e+002, 1.153958e+002
1.631255e+002, 1.153164e+002
1.636076e+002, 1.152908e+002
1.640897e+002, 1.151974e+002
1.645718e+002, 1.152199e+002
1.650540e+002, 1.149809e+002
1.655361e+002, 1.142464e+002
1.660182e+002, 1.130208e+002
1.665003e+002, 1.115818e+002
1.669824e+002, 1.096454e+002
1.674645e+002, 1.076770e+002
1.679467e+002, 1.062738e+002
1.684288e+002, 1.059643e+002
1.689109e+002, 1.060743e+002
1.693930e+002, 1.062306e+002
1.698751e+002, 1.064265e+002
1.703572e+002, 1.065058e+002
1.708394e+002, 1.062754e+002
1.713215e+002, 1.058633e+002
1.718036e+002, 1.054897e+002
1.722857e+002, 1.051663e+002
1.727678e+002, 1.049674e+002
1.732499e+002, 1.051322e+002
1.737321e+002, 1.057569e+002
1.742142e+002, 1.061195e+002
1.746963e+002, 1.053277e+002
1.751784e+002, 1.037813e+002
1.756605e+002, 1.024216e+002
1.761426e+002, 1.017564e+002
1.766248e+002, 1.015615e+002
1.771069e+002, 1.016496e+002
1.775890e+002, 1.020826e+002
1.780711e+002, 1.024615e+002
1.785532e+002, 1.020305e+002
1.790353e+002, 1.010736e+002
1.795175e+002, 1.006228e+002
1.799996e+002, 1.017873e+002
1.804817e+002, 1.037776e+002
1.809638e+002, 1.050205e+002
1.814459e+002, 1.052021e+002
1.819280e+002, 1.049606e+002
1.824102e+002, 1.051200e+002
1.828923e+002, 1.056250e+002
1.833744e+002, 1.061435e+002
1.838565e+002, 1.063180e+002
1.843386e+002, 1.063267e+002
1.848207e+002, 1.067387e+002
1.853029e+002, 1.077583e+002
1.857850e+002, 1.089802e+002
1.862671e+002, 1.097634e+002
1.867492e+002, 1.101160e+002
1.872313e+002, 1.103081e+002
1.877134e+002, 1.102344e+002
1.881956e+002, 1.100583e+002
1.886777e+002, 1.107525e+002
1.891598e+002, 1.129315e+002
1.896419e+002, 1.155271e+002
1.901240e+002, 1.159532e+002
1.906061e+002, 1.141212e+002
1.910883e+002, 1.120436e+002
1.915704e+002, 1.113671e+002
1.920525e+002, 1.119357e+002
1.925346e+002, 1.121942e+002
1.930167e+002, 1.116607e+002
1.934988e+002, 1.107089e+002
1.939810e+002, 1.103942e+002
1.944631e+002, 1.107196e+002
1.949452e+002, 1.112943e+002
1.954273e+002, 1.113035e+002
1.959094e+002, 1.107657e+002
1.963915e+002, 1.104324e+002
1.968737e+002, 1.105338e+002
1.973558e+002, 1.109048e+002
1.978379e+002, 1.109450e+002
1.983200e+002, 1.106199e+002
1.988021e+002, 1.101572e+002
1.992842e+002, 1.097069e+002
1.997664e+002, 1.092593e+002
2.002485e+002, 1.089583e+002
2.007306e+002, 1.088309e+002
2.012127e+002, 1.088704e+002
2.016948e+002, 1.090962e+002
2.021769e+002, 1.095759e+002
2.026591e+002, 1.100397e+002
2.031412e+002, 1.101572e+002
2.036233e+002, 1.098642e+002
2.041054e+002, 1.097276e+002
2.045875e+002, 1.098609e+002
2.050696e+002, 1.102519e+002
2.055518e+002, 1.108697e+002
2.060339e+002, 1.117841e+002
2.065160e+002, 1.127599e+002
2.069981e+002, 1.134941e+002
2.074802e+002, 1.138798e+002
2.079623e+002, 1.144925e+002
2.084445e+002, 1.155389e+002
2.089266e+002, 1.169980e+002
2.094087e+002, 1.182799e+002
2.098908e+002, 1.193987e+002
2.103729e+002, 1.203395e+002
2.108550e+002, 1.210762e+002
2.113372e+002, 1.215817e+002
2.118193e+002, 1.219661e+002
2.123014e+002, 1.222716e+002
2.127835e+002, 1.224979e+002
2.132656e+002, 1.224800e+002
2.137477e+002, 1.220822e+002
2.142299e+002, 1.216308e+002
2.147120e+002, 1.215569e+002
2.151941e+002, 1.220188e+002
2.156762e+002, 1.223822e+002
2.161583e+002, 1.223182e+002
2.166404e+002, 1.217565e+002
2.171226e+002, 1.222431e+002
2.176047e+002, 1.245693e+002
2.180868e+002, 1.270063e+002
2.185689e+002, 1.272625e+002
2.190510e+002, 1.243051e+002
2.195331e+002, 1.216047e+002
2.200153e+002, 1.200336e+002
2.204974e+002, 1.196839e+002
2.209795e+002, 1.194074e+002
2.214616e+002, 1.192785e+002
2.219437e+002, 1.191474e+002
2.224258e+002, 1.187871e+002
2.229080e+002, 1.180458e+002
2.233901e+002, 1.174098e+002
2.238722e+002, 1.170291e+002
2.243543e+002, 1.169224e+002
2.248364e+002, 1.168326e+002
2.253185e+002, 1.166585e+002
2.258007e+002, 1.165904e+002
2.262828e+002, 1.169004e+002
2.267649e+002, 1.177469e+002
2.272470e+002, 1.186555e+002
2.277291e+002, 1.195558e+002
2.282112e+002, 1.205090e+002
2.286934e+002, 1.210394e+002
2.291755e+002, 1.209470e+002
2.296576e+002, 1.206077e+002
2.301397e+002, 1.205158e+002
2.306218e+002, 1.208049e+002
2.311039e+002, 1.210883e+002
2.315861e+002, 1.211789e+002
2.320682e+002, 1.209775e+002
2.325503e+002, 1.213365e+002
2.330324e+002, 1.225485e+002
2.335145e+002, 1.240728e+002
2.339966e+002, 1.252350e+002
2.344788e+002, 1.258405e+002
2.349609e+002, 1.264177e+002
2.354430e+002, 1.270407e+002
2.359251e+002, 1.276675e+002
2.364072e+002, 1.286925e+002
2.368893e+002, 1.304629e+002
2.373715e+002, 1.323448e+002
2.378536e+002, 1.334868e+002
2.383357e+002, 1.334177e+002
2.388178e+002, 1.334592e+002
2.392999e+002, 1.340482e+002
2.397820e+002, 1.353119e+002
2.402642e+002, 1.360433e+002
2.407463e+002, 1.358241e+002
2.412284e+002, 1.354190e+002
2.417105e+002, 1.358476e+002
2.421926e+002, 1.377369e+002
2.426747e+002, 1.392987e+002
2.431569e+002, 1.399608e+002
2.436390e+002, 1.395666e+002
2.441211e+002, 1.396160e+002
2.446032e+002, 1.404343e+002
2.450853e+002, 1.414058e+002
2.455674e+002, 1.417787e+002
2.460496e+002, 1.412108e+002
2.465317e+002, 1.406865e+002
2.470138e+002, 1.404876e+002
2.474959e+002, 1.406696e+002
2.479780e+002, 1.405589e+002
2.484601e+002, 1.401409e+002
2.489423e+002, 1.394559e+002
2.494244e+002, 1.385152e+002
2.499065e+002, 1.371893e+002
2.503886e+002, 1.358618e+002
2.508707e+002, 1.345296e+002
2.513528e+002, 1.331846e+002
2.518350e+002, 1.322929e+002
2.523171e+002, 1.320339e+002
2.527992e+002, 1.320402e+002
2.532813e+002, 1.319626e+002
2.537634e+002, 1.318114e+002
2.542455e+002, 1.315336e+002
2.547277e+002, 1.309832e+002
2.552098e+002, 1.301436e+002
2.556919e+002, 1.298903e+002
2.561740e+002, 1.303307e+002
2.566561e+002, 1.312126e+002
2.571382e+002, 1.323108e+002
2.576204e+002, 1.336606e+002
2.581025e+002, 1.351880e+002
2.585846e+002, 1.370560e+002
2.590667e+002, 1.392243e+002
2.595488e+002, 1.405348e+002
2.600309e+002, 1.406492e+002
2.605131e+002, 1.403682e+002
2.609952e+002, 1.404413e+002
2.614773e+002, 1.411333e+002
2.619594e+002, 1.414432e+002
2.624415e+002, 1.411726e+002
2.629236e+002, 1.403572e+002
2.634058e+002, 1.393508e+002
2.638879e+002, 1.380720e+002
2.643700e+002, 1.367257e+002
2.648521e+002, 1.354774e+002
2.653342e+002, 1.344326e+002
2.658163e+002, 1.331224e+002
2.662985e+002, 1.312863e+002
2.667806e+002, 1.291175e+002
2.672627e+002, 1.277308e+002
2.677448e+002, 1.273121e+002
2.682269e+002, 1.273044e+002
2.687090e+002, 1.273136e+002
2.691912e+002, 1.273008e+002
2.696733e+002, 1.274712e+002
2.701554e+002, 1.278692e+002
2.706375e+002, 1.284622e+002
2.711196e+002, 1.291223e+002
2.716017e+002, 1.298602e+002
2.720839e+002, 1.306292e+002
2.725660e+002, 1.314187e+002
2.730481e+002, 1.322601e+002
2.735302e+002, 1.328999e+002
2.740123e+002, 1.331963e+002
2.744944e+002, 1.333587e+002
2.749766e+002, 1.341076e+002
2.754587e+002, 1.355990e+002
2.759408e+002, 1.370663e+002
2.764229e+002, 1.380195e+002
2.769050e+002, 1.384383e+002
2.773871e+002, 1.386878e+002
2.778693e+002, 1.387808e+002
2.783514e+002, 1.387356e+002
2.788335e+002, 1.385486e+002
2.793156e+002, 1.381900e+002
2.797977e+002, 1.378589e+002
2.802798e+002, 1.376591e+002
2.807620e+002, 1.375921e+002
2.812441e+002, 1.376295e+002
2.817262e+002, 1.378336e+002
2.822083e+002, 1.380239e+002
2.826904e+002, 1.377629e+002
2.831725e+002, 1.370070e+002
2.836547e+002, 1.364063e+002
2.841368e+002, 1.363100e+002
2.846189e+002, 1.366857e+002
2.851010e+002, 1.372036e+002
2.855831e+002, 1.379127e+002
2.860652e+002, 1.386042e+002
2.865474e+002, 1.388053e+002
2.870295e+002, 1.385320e+002
2.875116e+002, 1.385748e+002
2.879937e+002, 1.394517e+002
2.884758e+002, 1.410133e+002
2.889579e+002, 1.422805e+002
2.894401e+002, 1.432159e+002
2.899222e+002, 1.441219e+002
2.904043e+002, 1.453329e+002
2.908864e+002, 1.468362e+002
2.913685e+002, 1.485434e+002
2.918506e+002, 1.505114e+002
2.923328e+002, 1.526453e+002
2.928149e+002, 1.545625e+002
2.932970e+002, 1.562550e+002
2.937791e+002, 1.579444e+002
2.942612e+002, 1.600451e+002
2.947433e+002, 1.623881e+002
2.952255e+002, 1.642674e+002
2.957076e+002, 1.654179e+002
2.961897e+002, 1.659657e+002
2.966718e+002, 1.661684e+002
2.971539e+002, 1.660239e+002
2.976360e+002, 1.653398e+002
2.981182e+002, 1.636146e+002
2.986003e+002, 1.612126e+002
2.990824e+002, 1.590310e+002
2.995645e+002, 1.574682e+002
3.000466e+002, 1.560615e+002
3.005287e+002, 1.541069e+002
3.010109e+002, 1.516689e+002
3.014930e+002, 1.491214e+002
3.019751e+002, 1.465212e+002
3.024572e+002, 1.440471e+002
3.029393e+002, 1.421274e+002
3.034214e+002, 1.410318e+002
3.039036e+002, 1.401423e+002
3.043857e+002, 1.385558e+002
3.048678e+002, 1.365301e+002
3.053499e+002, 1.349782e+002
3.058320e+002, 1.349067e+002
3.063141e+002, 1.354656e+002
3.067963e+002, 1.355859e+002
3.072784e+002, 1.349549e+002
3.077605e+002, 1.342803e+002
3.082426e+002, 1.341476e+002
3.087247e+002, 1.344236e+002
3.092068e+002, 1.347901e+002
3.096890e+002, 1.350735e+002
3.101711e+002, 1.353791e+002
3.106532e+002, 1.357972e+002
3.111353e+002, 1.363415e+002
3.116174e+002, 1.369559e+002
3.120995e+002, 1.376368e+002
3.125817e+002, 1.383505e+002
3.130638e+002, 1.390530e+002
3.135459e+002, 1.396168e+002
3.140280e+002, 1.402525e+002
3.145101e+002, 1.411262e+002
3.149922e+002, 1.422578e+002
3.154744e+002, 1.434211e+002
3.159565e+002, 1.444165e+002
3.164386e+002, 1.454160e+002
3.169207e+002, 1.466011e+002
3.174028e+002, 1.483301e+002
3.178849e+002, 1.499967e+002
3.183671e+002, 1.513950e+002
3.188492e+002, 1.525326e+002
3.193313e+002, 1.534201e+002
3.198134e+002, 1.537209e+002
3.202955e+002, 1.539537e+002
3.207776e+002, 1.545260e+002
3.212598e+002, 1.560869e+002
3.217419e+002, 1.574017e+002
3.222240e+002, 1.582705e+002
3.227061e+002, 1.586836e+002
3.231882e+002, 1.586107e+002
3.236703e+002, 1.574007e+002
3.241525e+002, 1.561414e+002
3.246346e+002, 1.554423e+002
3.251167e+002, 1.556875e+002
3.255988e+002, 1.560442e+002
3.260809e+002, 1.563706e+002
3.265630e+002, 1.567516e+002
3.270452e+002, 1.574223e+002
3.275273e+002, 1.582348e+002
3.280094e+002, 1.594758e+002
3.284915e+002, 1.613082e+002
3.289736e+002, 1.640189e+002
3.294557e+002, 1.666442e+002
3.299379e+002, 1.692353e+002
3.304200e+002, 1.717344e+002
3.309021e+002, 1.740048e+002
3.313842e+002, 1.759185e+002
3.318663e+002, 1.777915e+002
3.323484e+002, 1.797177e+002
3.328306e+002, 1.816707e+002
3.333127e+002, 1.836622e+002
3.337948e+002, 1.860098e+002
3.342769e+002, 1.881141e+002
3.347590e+002, 1.892791e+002
3.352411e+002, 1.893244e+002
3.357233e+002, 1.888436e+002
3.362054e+002, 1.878625e+002
3.366875e+002, 1.864020e+002
3.371696e+002, 1.849268e+002
3.376517e+002, 1.834885e+002
3.381339e+002, 1.819507e+002
3.386160e+002, 1.801598e+002
3.390981e+002, 1.780171e+002
3.395802e+002, 1.760193e+002
3.400623e+002, 1.741222e+002
3.405444e+002, 1.724753e+002
3.410266e+002, 1.718771e+002
3.415087e+002, 1.725330e+002
3.419908e+002, 1.731918e+002
3.424729e+002, 1.725873e+002
3.429550e+002, 1.707365e+002
3.434371e+002, 1.708184e+002
3.439193e+002, 1.736230e+002
3.444014e+002, 1.774386e+002
3.448835e+002, 1.791434e+002
3.453656e+002, 1.787490e+002
3.458477e+002, 1.777163e+002
3.463298e+002, 1.764830e+002
3.468120e+002, 1.751494e+002
3.472941e+002, 1.743529e+002
3.477762e+002, 1.742097e+002
3.482583e+002, 1.740232e+002
3.487404e+002, 1.727244e+002
3.492225e+002, 1.705806e+002
3.497047e+002, 1.687273e+002
3.501868e+002, 1.677870e+002
3.506689e+002, 1.673282e+002
3.511510e+002, 1.663798e+002
3.516331e+002, 1.649643e+002
3.521152e+002, 1.639841e+002
3.525974e+002, 1.646655e+002
3.530795e+002, 1.662550e+002
3.535616e+002, 1.672959e+002
3.540437e+002, 1.669902e+002
3.545258e+002, 1.664872e+002
3.550079e+002, 1.671919e+002
3.554901e+002, 1.688292e+002
3.559722e+002, 1.701751e+002
3.564543e+002, 1.705088e+002
3.569364e+002, 1.701545e+002
3.574185e+002, 1.694493e+002
3.579006e+002, 1.684755e+002
3.583828e+002, 1.671086e+002
3.588649e+002, 1.652054e+002
3.593470e+002, 1.628451e+002
3.598291e+002, 1.601761e+002
3.603112e+002, 1.568927e+002
3.607933e+002, 1.535992e+002
3.612755e+002, 1.505836e+002
3.617576e+002, 1.478711e+002
3.622397e+002, 1.454545e+002
3.627218e+002, 1.436418e+002
3.632039e+002, 1.420112e+002
3.636860e+002, 1.400925e+002
3.641682e+002, 1.372320e+002
3.646503e+002, 1.345628e+002
3.651324e+002, 1.325822e+002
3.656145e+002, 1.312508e+002
3.660966e+002, 1.298899e+002
3.665787e+002, 1.283033e+002
3.670609e+002, 1.267062e+002
3.675430e+002, 1.252367e+002
3.680251e+002, 1.239927e+002
3.685072e+002, 1.227654e+002
3.689893e+002, 1.214538e+002
3.694714e+002, 1.201419e+002
3.699536e+002, 1.191498e+002
3.704357e+002, 1.185560e+002
3.709178e+002, 1.182014e+002
3.713999e+002, 1.180987e+002
3.718820e+002, 1.185266e+002
3.723641e+002, 1.184486e+002
3.728463e+002, 1.175604e+002
3.733284e+002, 1.163674e+002
3.738105e+002, 1.156310e+002
3.742926e+002, 1.154200e+002
3.747747e+002, 1.155209e+002
3.752568e+002, 1.159541e+002
3.757390e+002, 1.167255e+002
3.762211e+002, 1.173503e+002
3.767032e+002, 1.178199e+002
3.771853e+002, 1.181705e+002
3.776674e+002, 1.183667e+002
3.781495e+002, 1.183654e+002
3.786317e+002, 1.186465e+002
3.791138e+002, 1.194423e+002
3.795959e+002, 1.204975e+002
3.800780e+002, 1.209419e+002
3.805601e+002, 1.207182e+002
3.810422e+002, 1.205025e+002
3.815244e+002, 1.207939e+002
3.820065e+002, 1.215162e+002
3.824886e+002, 1.222492e+002
3.829707e+002, 1.229774e+002
3.834528e+002, 1.236519e+002
3.839349e+002, 1.242856e+002
3.844171e+002, 1.248460e+002
3.848992e+002, 1.251605e+002
3.853813e+002, 1.251384e+002
3.858634e+002, 1.248269e+002
3.863455e+002, 1.242514e+002
3.868276e+002, 1.234066e+002
3.873098e+002, 1.224678e+002
3.877919e+002, 1.216690e+002
3.882740e+002, 1.208563e+002
3.887561e+002, 1.197542e+002
3.892382e+002, 1.180426e+002
3.897203e+002, 1.162165e+002
3.902025e+002, 1.147025e+002
3.906846e+002, 1.134593e+002
3.911667e+002, 1.122557e+002
3.916488e+002, 1.110005e+002
3.921309e+002, 1.097223e+002
3.926130e+002, 1.084214e+002
3.930952e+002, 1.070590e+002
3.935773e+002, 1.058020e+002
3.940594e+002, 1.047288e+002
3.945415e+002, 1.038218e+002
3.950236e+002, 1.030478e+002
3.955057e+002, 1.023665e+002
3.959879e+002, 1.018448e+002
3.964700e+002, 1.015479e+002
3.969521e+002, 1.015132e+002
3.974342e+002, 1.014872e+002
3.979163e+002, 1.014923e+002
3.983984e+002, 1.014605e+002
3.988806e+002, 1.013294e+002
3.993627e+002, 1.008519e+002
3.998448e+002, 1.005548e+002
4.003269e+002, 1.005298e+002
4.008090e+002, 1.007517e+002
4.012911e+002, 1.010424e+002
4.017733e+002, 1.015417e+002
4.022554e+002, 1.019475e+002
4.027375e+002, 1.020587e+002
4.032196e+002, 1.016473e+002
4.037017e+002, 1.015333e+002
4.041838e+002, 1.018377e+002
4.046660e+002, 1.023591e+002
4.051481e+002, 1.026546e+002
4.056302e+002, 1.026082e+002
4.061123e+002, 1.027765e+002
4.065944e+002, 1.034549e+002
4.070765e+002, 1.046125e+002
4.075587e+002, 1.054804e+002
4.080408e+002, 1.060227e+002
4.085229e+002, 1.064314e+002
4.090050e+002, 1.069162e+002
4.094871e+002, 1.074631e+002
4.099692e+002, 1.078968e+002
4.104514e+002, 1.081387e+002
4.109335e+002, 1.082932e+002
4.114156e+002, 1.085132e+002
4.118977e+002, 1.088065e+002
4.123798e+002, 1.092968e+002
4.128619e+002, 1.103554e+002
4.133441e+002, 1.116098e+002
4.138262e+002, 1.122933e+002
4.143083e+002, 1.122588e+002
4.147904e+002, 1.119697e+002
4.152725e+002, 1.118423e+002
4.157546e+002, 1.117995e+002
4.162368e+002, 1.116773e+002
4.167189e+002, 1.113304e+002
4.172010e+002, 1.109295e+002
4.176831e+002, 1.106421e+002
4.181652e+002, 1.104612e+002
4.186473e+002, 1.101902e+002
4.191295e+002, 1.097420e+002
4.196116e+002, 1.091471e+002
4.200937e+002, 1.084242e+002
4.205758e+002, 1.074091e+002
4.210579e+002, 1.065009e+002
4.215400e+002, 1.057957e+002
4.220222e+002, 1.052837e+002
4.225043e+002, 1.049200e+002
4.229864e+002, 1.047461e+002
4.234685e+002, 1.046820e+002
4.239506e+002, 1.046994e+002
4.244327e+002, 1.047983e+002
4.249149e+002, 1.049818e+002
4.253970e+002, 1.053023e+002
4.258791e+002, 1.056765e+002
4.263612e+002, 1.060247e+002
4.268433e+002, 1.063071e+002
4.273254e+002, 1.066142e+002
4.278076e+002, 1.069034e+002
4.282897e+002, 1.072100e+002
4.287718e+002, 1.077870e+002
4.292539e+002, 1.086854e+002
4.297360e+002, 1.097279e+002
4.302181e+002, 1.108768e+002
4.307003e+002, 1.121930e+002
4.311824e+002, 1.131608e+002
4.316645e+002, 1.136691e+002
4.321466e+002, 1.139740e+002
4.326287e+002, 1.145877e+002
4.331108e+002, 1.155172e+002
4.335930e+002, 1.161692e+002
4.340751e+002, 1.161405e+002
4.345572e+002, 1.156857e+002
4.350393e+002, 1.157765e+002
4.355214e+002, 1.164313e+002
4.360035e+002, 1.169684e+002
4.364857e+002, 1.166768e+002
4.369678e+002, 1.158025e+002
4.374499e+002, 1.149301e+002
4.379320e+002, 1.141991e+002
4.384141e+002, 1.134898e+002
4.388962e+002, 1.126187e+002
4.393784e+002, 1.116504e+002
4.398605e+002, 1.107760e+002
4.403426e+002, 1.100819e+002
4.408247e+002, 1.095353e+002
4.413068e+002, 1.091166e+002
4.417889e+002, 1.088322e+002
4.422711e+002, 1.086128e+002
4.427532e+002, 1.082088e+002
4.432353e+002, 1.079395e+002
4.437174e+002, 1.081368e+002
4.441995e+002, 1.096671e+002
4.446816e+002, 1.108613e+002
4.451638e+002, 1.111145e+002
4.456459e+002, 1.105953e+002
4.461280e+002, 1.101101e+002
4.466101e+002, 1.096243e+002
4.470922e+002, 1.093212e+002
4.475743e+002, 1.093241e+002
4.480565e+002, 1.098202e+002
4.485386e+002, 1.101342e+002
4.490207e+002, 1.100953e+002
4.495028e+002, 1.099804e+002
4.499849e+002, 1.101807e+002
4.504670e+002, 1.108998e+002
4.509492e+002, 1.114761e+002
4.514313e+002, 1.117220e+002
4.519134e+002, 1.116921e+002
4.523955e+002, 1.117324e+002
4.528776e+002, 1.118166e+002
4.533597e+002, 1.120613e+002
4.538419e+002, 1.126888e+002
4.543240e+002, 1.136776e+002
4.548061e+002, 1.142831e+002
4.552882e+002, 1.143780e+002
4.557703e+002, 1.142311e+002
4.562524e+002, 1.143439e+002
4.567346e+002, 1.146383e+002
4.572167e+002, 1.145955e+002
4.576988e+002, 1.138744e+002
4.581809e+002, 1.127325e+002
4.586630e+002, 1.115111e+002
4.591451e+002, 1.102279e+002
4.596273e+002, 1.090076e+002
4.601094e+002, 1.079365e+002
4.605915e+002, 1.070018e+002
4.610736e+002, 1.061948e+002
4.615557e+002, 1.055164e+002
4.620378e+002, 1.049391e+002
4.625200e+002, 1.043734e+002
4.630021e+002, 1.038974e+002
4.634842e+002, 1.036754e+002
4.639663e+002, 1.040584e+002
4.644484e+002, 1.044624e+002
4.649305e+002, 1.045160e+002
4.654127e+002, 1.041703e+002
4.658948e+002, 1.040912e+002
4.663769e+002, 1.046254e+002
4.668590e+002, 1.053498e+002
4.673411e+002, 1.059570e+002
4.678232e+002, 1.062948e+002
4.683054e+002, 1.067094e+002
4.687875e+002, 1.072892e+002
4.692696e+002, 1.079344e+002
4.697517e+002, 1.083779e+002
4.702338e+002, 1.084757e+002
4.707159e+002, 1.086333e+002
4.711981e+002, 1.090201e+002
4.716802e+002, 1.096477e+002
4.721623e+002, 1.102070e+002
4.726444e+002, 1.107005e+002
4.731265e+002, 1.111010e+002
4.736086e+002, 1.114147e+002
4.740908e+002, 1.116383e+002
4.745729e+002, 1.115534e+002
4.750550e+002, 1.110141e+002
4.755371e+002, 1.103118e+002
4.760192e+002, 1.101079e+002
4.765013e+002, 1.103228e+002
4.769835e+002, 1.103531e+002
4.774656e+002, 1.096738e+002
4.779477e+002, 1.086613e+002
4.784298e+002, 1.079145e+002
4.789119e+002, 1.074625e+002
4.793940e+002, 1.071462e+002
4.798762e+002, 1.068443e+002
4.803583e+002, 1.066021e+002
4.808404e+002, 1.064729e+002
4.813225e+002, 1.064251e+002
4.818046e+002, 1.065560e+002
4.822867e+002, 1.071950e+002
4.827689e+002, 1.080750e+002
4.832510e+002, 1.085058e+002
4.837331e+002, 1.078282e+002
4.842152e+002, 1.070269e+002
4.846973e+002, 1.064164e+002
4.851794e+002, 1.059328e+002
4.856616e+002, 1.060733e+002
4.861437e+002, 1.074361e+002
4.866258e+002, 1.091042e+002
4.871079e+002, 1.103889e+002
4.875900e+002, 1.110754e+002
4.880721e+002, 1.117469e+002
4.885543e+002, 1.123943e+002
4.890364e+002, 1.130759e+002
4.895185e+002, 1.140041e+002
4.900006e+002, 1.152614e+002
4.904827e+002, 1.164693e+002
4.909648e+002, 1.174134e+002
4.914470e+002, 1.181133e+002
4.919291e+002, 1.189849e+002
4.924112e+002, 1.200901e+002
4.928933e+002, 1.210428e+002
4.933754e+002, 1.214396e+002
4.938575e+002, 1.213447e+002
4.943397e+002, 1.209526e+002
4.948218e+002, 1.201661e+002
4.953039e+002, 1.193784e+002
4.957860e+002, 1.192796e+002
4.962681e+002, 1.196839e+002
4.967502e+002, 1.199524e+002
4.972324e+002, 1.196343e+002
4.977145e+002, 1.190925e+002
4.981966e+002, 1.186834e+002
4.986787e+002, 1.184233e+002
4.991608e+002, 1.180755e+002
4.996429e+002, 1.171834e+002
5.001251e+002, 1.163167e+002
5.006072e+002, 1.159743e+002
5.010893e+002, 1.166727e+002
5.015714e+002, 1.173477e+002
5.020535e+002, 1.176415e+002
5.025356e+002, 1.177577e+002
5.030178e+002, 1.181656e+002
5.034999e+002, 1.193084e+002
5.039820e+002, 1.203127e+002
5.044641e+002, 1.209299e+002
5.049462e+002, 1.211489e+002
5.054283e+002, 1.213606e+002
5.059105e+002, 1.215593e+002
5.063926e+002, 1.217624e+002
5.068747e+002, 1.220190e+002
5.073568e+002, 1.223632e+002
5.078389e+002, 1.224889e+002
5.083210e+002, 1.222702e+002
5.088032e+002, 1.219894e+002
5.092853e+002, 1.221909e+002
5.097674e+002, 1.228482e+002
5.102495e+002, 1.235434e+002
5.107316e+002, 1.243247e+002
5.112137e+002, 1.249370e+002
5.116959e+002, 1.246704e+002
5.121780e+002, 1.235825e+002
5.126601e+002, 1.224152e+002
5.131422e+002, 1.218841e+002
5.136243e+002, 1.215254e+002
5.141064e+002, 1.207111e+002
5.145886e+002, 1.192493e+002
5.150707e+002, 1.176352e+002
5.155528e+002, 1.159654e+002
5.160349e+002, 1.143968e+002
5.165170e+002, 1.131278e+002
5.169991e+002, 1.126327e+002
5.174813e+002, 1.120363e+002
5.179634e+002, 1.108988e+002
5.184455e+002, 1.093126e+002
5.189276e+002, 1.080554e+002
5.194097e+002, 1.074221e+002
5.198918e+002, 1.069725e+002
5.203740e+002, 1.065598e+002
5.208561e+002, 1.061961e+002
5.213382e+002, 1.058118e+002
5.218203e+002, 1.053659e+002
5.223024e+002, 1.049428e+002
5.227845e+002, 1.046611e+002
5.232667e+002, 1.045552e+002
5.237488e+002, 1.043590e+002
5.242309e+002, 1.039407e+002
5.247130e+002, 1.034741e+002
5.251951e+002, 1.034602e+002
5.256772e+002, 1.038911e+002
5.261594e+002, 1.043521e+002
5.266415e+002, 1.046239e+002
5.271236e+002, 1.047599e+002
5.276057e+002, 1.048930e+002
5.280878e+002, 1.050298e+002
5.285699e+002, 1.050709e+002
5.290521e+002, 1.047770e+002
5.295342e+002, 1.043918e+002
5.300163e+002, 1.042585e+002
5.304984e+002, 1.045896e+002
5.309805e+002, 1.049649e+002
5.314626e+002, 1.051395e+002
5.319448e+002, 1.051938e+002
5.324269e+002, 1.052836e+002
5.329090e+002, 1.055099e+002
5.333911e+002, 1.057230e+002
5.338732e+002, 1.058190e+002
5.343553e+002, 1.057852e+002
5.348375e+002, 1.059489e+002
5.353196e+002, 1.064725e+002
5.358017e+002, 1.070331e+002
5.362838e+002, 1.074623e+002
5.367659e+002, 1.077576e+002
5.372480e+002, 1.079007e+002
5.377302e+002, 1.077992e+002
5.382123e+002, 1.076699e+002
5.386944e+002, 1.079082e+002
5.391765e+002, 1.085536e+002
5.396586e+002, 1.090285e+002
5.401407e+002, 1.091257e+002
5.406229e+002, 1.089976e+002
5.411050e+002, 1.089568e+002
5.415871e+002, 1.090048e+002
5.420692e+002, 1.091425e+002
5.425513e+002, 1.096451e+002
5.430334e+002, 1.101385e+002
5.435156e+002, 1.098951e+002
5.439977e+002, 1.088401e+002
5.444798e+002, 1.078613e+002
5.449619e+002, 1.077309e+002
5.454440e+002, 1.079584e+002
5.459261e+002, 1.080003e+002
5.464083e+002, 1.075423e+002
5.468904e+002, 1.071203e+002
5.473725e+002, 1.067951e+002
5.478546e+002, 1.066389e+002
5.483367e+002, 1.067986e+002
5.488188e+002, 1.077270e+002
5.493010e+002, 1.085118e+002
5.497831e+002, 1.088537e+002
5.502652e+002, 1.087607e+002
5.507473e+002, 1.088901e+002
5.512294e+002, 1.093372e+002
5.517115e+002, 1.098466e+002
5.521937e+002, 1.102887e+002
5.526758e+002, 1.106701e+002
5.531579e+002, 1.109154e+002
5.536400e+002, 1.109915e+002
5.541221e+002, 1.110219e+002
5.546042e+002, 1.111466e+002
5.550864e+002, 1.113654e+002
5.555685e+002, 1.116949e+002
5.560506e+002, 1.122194e+002
5.565327e+002, 1.127479e+002
5.570148e+002, 1.130562e+002
5.574969e+002, 1.131427e+002
5.579791e+002, 1.130033e+002
5.584612e+002, 1.123523e+002
5.589433e+002, 1.116668e+002
5.594254e+002, 1.113257e+002
5.599075e+002, 1.113538e+002
5.603896e+002, 1.116017e+002
5.608718e+002, 1.122990e+002
5.613539e+002, 1.130117e+002
5.618360e+002, 1.134089e+002
5.623181e+002, 1.131771e+002
5.628002e+002, 1.130302e+002
5.632823e+002, 1.129526e+002
5.637645e+002, 1.130060e+002
5.642466e+002, 1.133085e+002
5.647287e+002, 1.139601e+002
5.652108e+002, 1.146384e+002
5.656929e+002, 1.152984e+002
5.661750e+002, 1.159237e+002
5.666572e+002, 1.164569e+002
5.671393e+002, 1.168879e+002
5.676214e+002, 1.172756e+002
5.681035e+002, 1.176632e+002
5.685856e+002, 1.180363e+002
5.690677e+002, 1.184224e+002
5.695499e+002, 1.188324e+002
5.700320e+002, 1.190216e+002
5.705141e+002, 1.186103e+002
5.709962e+002, 1.178569e+002
5.714783e+002, 1.171954e+002
5.719604e+002, 1.167891e+002
5.724426e+002, 1.163652e+002
5.729247e+002, 1.157321e+002
5.734068e+002, 1.149603e+002
5.738889e+002, 1.141612e+002
5.743710e+002, 1.133568e+002
5.748531e+002, 1.125558e+002
5.753353e+002, 1.116905e+002
5.758174e+002, 1.107881e+002
5.762995e+002, 1.101496e+002
5.767816e+002, 1.100520e+002
5.772637e+002, 1.099061e+002
5.777458e+002, 1.094030e+002
5.782280e+002, 1.084333e+002
5.787101e+002, 1.076845e+002
5.791922e+002, 1.071498e+002
5.796743e+002, 1.068494e+002
5.801564e+002, 1.069297e+002
5.806385e+002, 1.073600e+002
5.811207e+002, 1.075581e+002
5.816028e+002, 1.073680e+002
5.820849e+002, 1.070239e+002
5.825670e+002, 1.068119e+002
5.830491e+002, 1.067325e+002
5.835313e+002, 1.067794e+002
5.840134e+002, 1.071175e+002
5.844955e+002, 1.074614e+002
5.849776e+002, 1.075519e+002
5.854597e+002, 1.074109e+002
5.859418e+002, 1.071698e+002
5.864240e+002, 1.065794e+002
5.869061e+002, 1.061472e+002
5.873882e+002, 1.062816e+002
5.878703e+002, 1.072666e+002
5.883524e+002, 1.078635e+002
5.888345e+002, 1.076488e+002
5.893167e+002, 1.071687e+002
5.897988e+002, 1.068128e+002
5.902809e+002, 1.065292e+002
5.907630e+002, 1.065227e+002
5.912451e+002, 1.069315e+002
5.917272e+002, 1.074982e+002
5.922094e+002, 1.076737e+002
5.926915e+002, 1.074250e+002
5.931736e+002, 1.072999e+002
5.936557e+002, 1.075374e+002
5.941378e+002, 1.079837e+002
5.946199e+002, 1.082177e+002
5.951021e+002, 1.082753e+002
5.955842e+002, 1.084645e+002
5.960663e+002, 1.092981e+002
5.965484e+002, 1.102078e+002
5.970305e+002, 1.104208e+002
5.975126e+002, 1.098516e+002
5.979948e+002, 1.093397e+002
5.984769e+002, 1.093462e+002
5.989590e+002, 1.096255e+002
5.994411e+002, 1.099798e+002
5.999232e+002, 1.104579e+002
6.004053e+002, 1.108699e+002
6.008875e+002, 1.111635e+002
6.013696e+002, 1.113812e+002
6.018517e+002, 1.115653e+002
6.023338e+002, 1.116470e+002
6.028159e+002, 1.118473e+002
6.032980e+002, 1.122992e+002
6.037802e+002, 1.128713e+002
6.042623e+002, 1.129758e+002
6.047444e+002, 1.125305e+002
6.052265e+002, 1.123083e+002
6.057086e+002, 1.129123e+002
6.061907e+002, 1.140591e+002
6.066729e+002, 1.147925e+002
6.071550e+002, 1.151138e+002
6.076371e+002, 1.152030e+002
6.081192e+002, 1.149836e+002
6.086013e+002, 1.147030e+002
6.090834e+002, 1.146937e+002
6.095656e+002, 1.150370e+002
6.100477e+002, 1.155402e+002
6.105298e+002, 1.163062e+002
6.110119e+002, 1.170888e+002
6.114940e+002, 1.176198e+002
6.119761e+002, 1.175197e+002
6.124583e+002, 1.175405e+002
6.129404e+002, 1.179089e+002
6.134225e+002, 1.184575e+002
6.139046e+002, 1.188271e+002
6.143867e+002, 1.189684e+002
6.148688e+002, 1.190094e+002
6.153510e+002, 1.188993e+002
6.158331e+002, 1.187081e+002
6.163152e+002, 1.189116e+002
6.167973e+002, 1.195303e+002
6.172794e+002, 1.203005e+002
6.177615e+002, 1.211881e+002
6.182437e+002, 1.220702e+002
6.187258e+002, 1.225267e+002
6.192079e+002, 1.225199e+002
6.196900e+002, 1.225466e+002
6.201721e+002, 1.230948e+002
6.206542e+002, 1.238967e+002
6.211364e+002, 1.246423e+002
6.216185e+002, 1.253393e+002
6.221006e+002, 1.258115e+002
6.225827e+002, 1.257053e+002
6.230648e+002, 1.254212e+002
6.235469e+002, 1.255185e+002
6.240291e+002, 1.265087e+002
6.245112e+002, 1.273905e+002
6.249933e+002, 1.279273e+002
6.254754e+002, 1.282676e+002
6.259575e+002, 1.289824e+002
6.264396e+002, 1.303208e+002
6.269218e+002, 1.313050e+002
6.274039e+002, 1.313466e+002
6.278860e+002, 1.306831e+002
6.283681e+002, 1.308435e+002
6.288502e+002, 1.318517e+002
6.293323e+002, 1.330289e+002
6.298145e+002, 1.338510e+002
6.302966e+002, 1.344851e+002
6.307787e+002, 1.352673e+002
6.312608e+002, 1.362328e+002
6.317429e+002, 1.372801e+002
6.322250e+002, 1.382377e+002
6.327072e+002, 1.392770e+002
6.331893e+002, 1.406466e+002
6.336714e+002, 1.427957e+002
6.341535e+002, 1.445855e+002
6.346356e+002, 1.454282e+002
6.351177e+002, 1.458028e+002
6.355999e+002, 1.464774e+002
6.360820e+002, 1.473728e+002
6.365641e+002, 1.487402e+002
6.370462e+002, 1.507787e+002
6.375283e+002, 1.532773e+002
6.380104e+002, 1.555222e+002
6.384926e+002, 1.574815e+002
6.389747e+002, 1.595104e+002
6.394568e+002, 1.617906e+002
6.399389e+002, 1.642884e+002
6.404210e+002, 1.667679e+002
6.409031e+002, 1.692671e+002
6.413853e+002, 1.720571e+002
6.418674e+002, 1.752010e+002
6.423495e+002, 1.788284e+002
6.428316e+002, 1.831990e+002
6.433137e+002, 1.884536e+002
6.437958e+002, 1.936358e+002
6.442780e+002, 1.978540e+002
6.447601e+002, 2.020820e+002
6.452422e+002, 2.071301e+002
6.457243e+002, 2.132210e+002
6.462064e+002, 2.200520e+002
6.466885e+002, 2.278140e+002
6.471707e+002, 2.361418e+002
6.476528e+002, 2.443035e+002
6.481349e+002, 2.520543e+002
6.486170e+002, 2.606242e+002
6.490991e+002, 2.703472e+002
6.495812e+002, 2.810385e+002
6.500634e+002, 2.925669e+002
6.505455e+002, 3.050201e+002
6.510276e+002, 3.182056e+002
6.515097e+002, 3.323252e+002
6.519918e+002, 3.471263e+002
6.524739e+002, 3.624156e+002
6.529561e+002, 3.779990e+002
6.534382e+002, 3.940265e+002
6.539203e+002, 4.103520e+002
6.544024e+002, 4.270278e+002
6.548845e+002, 4.442464e+002
6.553666e+002, 4.619401e+002
6.558488e+002, 4.801906e+002
6.563309e+002, 4.990946e+002
6.568130e+002, 5.185231e+002
6.572951e+002, 5.383245e+002
6.577772e+002, 5.583264e+002
6.582593e+002, 5.792689e+002
6.587415e+002, 6.014845e+002
6.592236e+002, 6.241059e+002
6.597057e+002, 6.464026e+002
6.601878e+002, 6.682745e+002
6.606699e+002, 6.893148e+002
6.611520e+002, 7.092218e+002
6.616342e+002, 7.278842e+002
6.621163e+002, 7.452296e+002
6.625984e+002, 7.611139e+002
6.630805e+002, 7.752026e+002
6.635626e+002, 7.884987e+002
6.640447e+002, 7.987679e+002
6.645269e+002, 8.058234e+002
6.650090e+002, 8.086953e+002
6.654911e+002, 8.047944e+002
6.659732e+002, 7.912090e+002
6.664553e+002, 7.727940e+002
6.669374e+002, 7.508203e+002
6.674196e+002, 7.253440e+002
6.679017e+002, 6.962744e+002
6.683838e+002, 6.619825e+002
6.688659e+002, 6.267045e+002
6.693480e+002, 5.917066e+002
6.698301e+002, 5.570127e+002
6.703123e+002, 5.243177e+002
6.707944e+002, 4.934433e+002
6.712765e+002, 4.651245e+002
6.717586e+002, 4.398414e+002
6.722407e+002, 4.171854e+002
6.727228e+002, 3.966412e+002
6.732050e+002, 3.779256e+002
6.736871e+002, 3.613912e+002
6.741692e+002, 3.476832e+002
6.746513e+002, 3.358643e+002
6.751334e+002, 3.250403e+002
6.756155e+002, 3.151884e+002
6.760977e+002, 3.057551e+002
6.765798e+002, 2.966081e+002
6.770619e+002, 2.879738e+002
6.775440e+002, 2.803556e+002
6.780261e+002, 2.743883e+002
6.785082e+002, 2.682618e+002
6.789904e+002, 2.616210e+002
6.794725e+002, 2.546905e+002
6.799546e+002, 2.477762e+002
6.804367e+002, 2.409918e+002
6.809188e+002, 2.343185e+002
6.814009e+002, 2.278949e+002
6.818831e+002, 2.215660e+002
6.823652e+002, 2.149479e+002
6.828473e+002, 2.081501e+002
6.833294e+002, 2.020353e+002
6.838115e+002, 1.971178e+002
6.842936e+002, 1.929942e+002
6.847758e+002, 1.894113e+002
6.852579e+002, 1.863742e+002
6.857400e+002, 1.833642e+002
6.862221e+002, 1.802173e+002
6.867042e+002, 1.771304e+002
6.871863e+002, 1.740837e+002
6.876685e+002, 1.709226e+002
6.881506e+002, 1.685865e+002
6.886327e+002, 1.672483e+002
6.891148e+002, 1.663010e+002
6.895969e+002, 1.652673e+002
6.900790e+002, 1.641381e+002
6.905612e+002, 1.628671e+002
6.910433e+002, 1.613961e+002
6.915254e+002, 1.600540e+002
6.920075e+002, 1.594461e+002
6.924896e+002, 1.592251e+002
6.929717e+002, 1.587083e+002
6.934539e+002, 1.574617e+002
6.939360e+002, 1.563763e+002
6.944181e+002, 1.562538e+002
6.949002e+002, 1.565605e+002
6.953823e+002, 1.564671e+002
6.958644e+002, 1.549493e+002
6.963466e+002, 1.540865e+002
6.968287e+002, 1.544053e+002
6.973108e+002, 1.555019e+002
6.977929e+002, 1.563928e+002
6.982750e+002, 1.571358e+002
6.987571e+002, 1.574319e+002
6.992393e+002, 1.569761e+002
6.997214e+002, 1.561291e+002
7.002035e+002, 1.560382e+002
7.006856e+002, 1.566378e+002
7.011677e+002, 1.573714e+002
7.016498e+002, 1.579350e+002
7.021320e+002, 1.584437e+002
7.026141e+002, 1.588646e+002
7.030962e+002, 1.592633e+002
7.035783e+002, 1.601327e+002
7.040604e+002, 1.621177e+002
7.045425e+002, 1.643065e+002
7.050247e+002, 1.662348e+002
7.055068e+002, 1.678815e+002
7.059889e+002, 1.691005e+002
7.064710e+002, 1.695464e+002
7.069531e+002, 1.700129e+002
7.074352e+002, 1.710333e+002
7.079174e+002, 1.726491e+002
7.083995e+002, 1.743245e+002
7.088816e+002, 1.760813e+002
7.093637e+002, 1.777551e+002
7.098458e+002, 1.792088e+002
7.103279e+002, 1.804401e+002
7.108101e+002, 1.814981e+002
7.112922e+002, 1.824064e+002
7.117743e+002, 1.830459e+002
7.122564e+002, 1.833949e+002
7.127385e+002, 1.834066e+002
7.132206e+002, 1.830158e+002
7.137028e+002, 1.820258e+002
7.141849e+002, 1.808874e+002
7.146670e+002, 1.796980e+002
7.151491e+002, 1.784065e+002
7.156312e+002, 1.769369e+002
7.161133e+002, 1.753449e+002
7.165955e+002, 1.733968e+002
7.170776e+002, 1.709202e+002
7.175597e+002, 1.682424e+002
7.180418e+002, 1.661761e+002
7.185239e+002, 1.646500e+002
7.190060e+002, 1.631302e+002
7.194882e+002, 1.612284e+002
7.199703e+002, 1.594196e+002
7.204524e+002, 1.584663e+002
7.209345e+002, 1.581115e+002
7.214166e+002, 1.575672e+002
7.218987e+002, 1.562053e+002
7.223809e+002, 1.548210e+002
7.228630e+002, 1.537590e+002
7.233451e+002, 1.530238e+002
7.238272e+002, 1.525233e+002
7.243093e+002, 1.523125e+002
7.247914e+002, 1.522492e+002
7.252736e+002, 1.523340e+002
7.257557e+002, 1.525485e+002
7.262378e+002, 1.526500e+002
7.267199e+002, 1.526368e+002
7.272020e+002, 1.525473e+002
7.276841e+002, 1.523106e+002
7.281663e+002, 1.520410e+002
7.286484e+002, 1.520427e+002
7.291305e+002, 1.523160e+002
7.296126e+002, 1.525924e+002
7.300947e+002, 1.527339e+002
7.305768e+002, 1.527724e+002
7.310590e+002, 1.526947e+002
7.315411e+002, 1.524576e+002
7.320232e+002, 1.523244e+002
7.325053e+002, 1.523854e+002
7.329874e+002, 1.525263e+002
7.334695e+002, 1.526777e+002
7.339517e+002, 1.528168e+002
7.344338e+002, 1.530900e+002
7.349159e+002, 1.535808e+002
7.353980e+002, 1.539693e+002
7.358801e+002, 1.538003e+002
7.363622e+002, 1.532118e+002
7.368444e+002, 1.528323e+002
7.373265e+002, 1.528153e+002
7.378086e+002, 1.527320e+002
7.382907e+002, 1.519899e+002
7.387728e+002, 1.510159e+002
7.392549e+002, 1.504138e+002
7.397371e+002, 1.507825e+002
7.402192e+002, 1.507829e+002
7.407013e+002, 1.495176e+002
7.411834e+002, 1.479037e+002
7.416655e+002, 1.471737e+002
7.421476e+002, 1.477462e+002
7.426298e+002, 1.482252e+002
7.431119e+002, 1.484489e+002
7.435940e+002, 1.484987e+002
7.440761e+002, 1.484619e+002
7.445582e+002, 1.483530e+002
7.450403e+002, 1.483613e+002
7.455225e+002, 1.486170e+002
7.460046e+002, 1.488795e+002
7.464867e+002, 1.487979e+002
7.469688e+002, 1.484996e+002
7.474509e+002, 1.482607e+002
7.479330e+002, 1.482714e+002
7.484152e+002, 1.482828e+002
7.488973e+002, 1.482061e+002
7.493794e+002, 1.480538e+002
7.498615e+002, 1.478773e+002
7.503436e+002, 1.476686e+002
7.508257e+002, 1.474426e+002
7.513079e+002, 1.471337e+002
7.517900e+002, 1.468413e+002
7.522721e+002, 1.470559e+002
7.527542e+002, 1.477791e+002
7.532363e+002, 1.483219e+002
7.537184e+002, 1.482268e+002
7.542006e+002, 1.478269e+002
7.546827e+002, 1.475401e+002
7.551648e+002, 1.473855e+002
7.556469e+002, 1.474519e+002
7.561290e+002, 1.480992e+002
7.566111e+002, 1.486934e+002
7.570933e+002, 1.487851e+002
7.575754e+002, 1.483974e+002
7.580575e+002, 1.483042e+002
7.585396e+002, 1.487043e+002
7.590217e+002, 1.491616e+002
7.595038e+002, 1.495669e+002
7.599860e+002, 1.499015e+002
7.604681e+002, 1.499122e+002
7.609502e+002, 1.495664e+002
7.614323e+002, 1.492741e+002
7.619144e+002, 1.493256e+002
7.623965e+002, 1.496074e+002
7.628787e+002, 1.498686e+002
7.633608e+002, 1.501197e+002
7.638429e+002, 1.505972e+002
7.643250e+002, 1.519892e+002
7.648071e+002, 1.532341e+002
7.652892e+002, 1.534454e+002
7.657714e+002, 1.523926e+002
7.662535e+002, 1.516710e+002
7.667356e+002, 1.514476e+002
7.672177e+002, 1.514702e+002
7.676998e+002, 1.515986e+002
7.681819e+002, 1.518280e+002
7.686641e+002, 1.523948e+002
7.691462e+002, 1.533585e+002
7.696283e+002, 1.541747e+002
7.701104e+002, 1.542158e+002
7.705925e+002, 1.538308e+002
7.710746e+002, 1.537150e+002
7.715568e+002, 1.539438e+002
7.720389e+002, 1.541523e+002
7.725210e+002, 1.539678e+002
7.730031e+002, 1.537672e+002
7.734852e+002, 1.539108e+002
7.739673e+002, 1.546715e+002
7.744495e+002, 1.549997e+002
7.749316e+002, 1.545618e+002
7.754137e+002, 1.540469e+002
7.758958e+002, 1.540015e+002
7.763779e+002, 1.544684e+002
7.768600e+002, 1.548607e+002
7.773422e+002, 1.551606e+002
7.778243e+002, 1.553851e+002
7.783064e+002, 1.554560e+002
7.787885e+002, 1.554895e+002
7.792706e+002, 1.557958e+002
7.797527e+002, 1.564999e+002
7.802349e+002, 1.569776e+002
7.807170e+002, 1.566719e+002
7.811991e+002, 1.560813e+002
7.816812e+002, 1.556231e+002
7.821633e+002, 1.552836e+002
7.826454e+002, 1.552686e+002
7.831276e+002, 1.556817e+002
7.836097e+002, 1.562990e+002
7.840918e+002, 1.569201e+002
7.845739e+002, 1.575423e+002
7.850560e+002, 1.581912e+002
7.855381e+002, 1.588852e+002
7.860203e+002, 1.594849e+002
7.865024e+002, 1.599102e+002
7.869845e+002, 1.601092e+002
7.874666e+002, 1.598553e+002
7.879487e+002, 1.588028e+002
7.884308e+002, 1.582675e+002
7.889130e+002, 1.594794e+002
7.893951e+002, 1.612126e+002
7.898772e+002, 1.622051e+002
7.903593e+002, 1.619494e+002
7.908414e+002, 1.616492e+002
7.913235e+002, 1.611977e+002
7.918057e+002, 1.608637e+002
7.922878e+002, 1.610600e+002
7.927699e+002, 1.617497e+002
7.932520e+002, 1.623405e+002
7.937341e+002, 1.627465e+002
7.942162e+002, 1.630590e+002
7.946984e+002, 1.633851e+002
7.951805e+002, 1.636882e+002
7.956626e+002, 1.639051e+002
7.961447e+002, 1.640014e+002
7.966268e+002, 1.640676e+002
7.971089e+002, 1.640843e+002
7.975911e+002, 1.641187e+002
7.980732e+002, 1.642606e+002
7.985553e+002, 1.646411e+002
7.990374e+002, 1.648026e+002
7.995195e+002, 1.646425e+002
8.000016e+002, 1.644123e+002
8.004838e+002, 1.645064e+002
8.009659e+002, 1.648488e+002
8.014480e+002, 1.649521e+002
8.019301e+002, 1.646672e+002
8.024122e+002, 1.643856e+002
8.028943e+002, 1.644400e+002
8.033765e+002, 1.647486e+002
8.038586e+002, 1.652343e+002
8.043407e+002, 1.661075e+002
8.048228e+002, 1.667320e+002
8.053049e+002, 1.668285e+002
8.057870e+002, 1.667001e+002
8.062692e+002, 1.665749e+002
8.067513e+002, 1.663505e+002
8.072334e+002, 1.666386e+002
8.077155e+002, 1.676631e+002
8.081976e+002, 1.687117e+002
8.086797e+002, 1.686839e+002
8.091619e+002, 1.679215e+002
8.096440e+002, 1.673998e+002
8.101261e+002, 1.673199e+002
8.106082e+002, 1.675313e+002
8.110903e+002, 1.682789e+002
8.115724e+002, 1.690885e+002
8.120546e+002, 1.694079e+002
8.125367e+002, 1.684487e+002
8.130188e+002, 1.681662e+002
8.135009e+002, 1.690473e+002
8.139830e+002, 1.702307e+002
8.144651e+002, 1.707144e+002
8.149473e+002, 1.704501e+002
8.154294e+002, 1.704515e+002
8.159115e+002, 1.708773e+002
8.163936e+002, 1.713301e+002
8.168757e+002, 1.712173e+002
8.173578e+002, 1.708480e+002
8.178400e+002, 1.707870e+002
8.183221e+002, 1.712324e+002
8.188042e+002, 1.717145e+002
8.192863e+002, 1.719308e+002
8.197684e+002, 1.721155e+002
8.202505e+002, 1.725081e+002
8.207327e+002, 1.732369e+002
8.212148e+002, 1.738825e+002
8.216969e+002, 1.744456e+002
8.221790e+002, 1.749169e+002
8.226611e+002, 1.752310e+002
8.231432e+002, 1.754194e+002
8.236254e+002, 1.757015e+002
8.241075e+002, 1.761206e+002
8.245896e+002, 1.764589e+002
8.250717e+002, 1.762936e+002
8.255538e+002, 1.760487e+002
8.260359e+002, 1.762967e+002
8.265181e+002, 1.773647e+002
8.270002e+002, 1.781221e+002
8.274823e+002, 1.780615e+002
8.279644e+002, 1.778153e+002
8.284465e+002, 1.777954e+002
8.289286e+002, 1.780714e+002
8.294108e+002, 1.782456e+002
8.298929e+002, 1.782994e+002
8.303750e+002, 1.783467e+002
8.308571e+002, 1.783997e+002
8.313392e+002, 1.785469e+002
8.318214e+002, 1.790873e+002
8.323035e+002, 1.800627e+002
8.327856e+002, 1.809177e+002
8.332677e+002, 1.812031e+002
8.337498e+002, 1.812906e+002
8.342319e+002, 1.814244e+002
8.347141e+002, 1.816105e+002
8.351962e+002, 1.819639e+002
8.356783e+002, 1.826241e+002
8.361604e+002, 1.832044e+002
8.366425e+002, 1.832950e+002
8.371246e+002, 1.829584e+002
8.376068e+002, 1.832915e+002
8.380889e+002, 1.843036e+002
8.385710e+002, 1.853281e+002
8.390531e+002, 1.857278e+002
8.395352e+002, 1.859479e+002
8.400173e+002, 1.865519e+002
8.404995e+002, 1.875722e+002
8.409816e+002, 1.883774e+002
8.414637e+002, 1.883450e+002
8.419458e+002, 1.884654e+002
8.424279e+002, 1.892539e+002
8.429100e+002, 1.906938e+002
8.433922e+002, 1.919171e+002
8.438743e+002, 1.929422e+002
8.443564e+002, 1.936381e+002
8.448385e+002, 1.938223e+002
8.453206e+002, 1.936471e+002
8.458027e+002, 1.932548e+002
8.462849e+002, 1.927429e+002
8.467670e+002, 1.926808e+002
8.472491e+002, 1.940087e+002
8.477312e+002, 1.953081e+002
8.482133e+002, 1.956687e+002
8.486954e+002, 1.951648e+002
8.491776e+002, 1.948658e+002
8.496597e+002, 1.948339e+002
8.501418e+002, 1.949522e+002
8.506239e+002, 1.952017e+002
8.511060e+002, 1.955673e+002
8.515881e+002, 1.961358e+002
8.520703e+002, 1.968489e+002
8.525524e+002, 1.971920e+002
8.530345e+002, 1.964165e+002
8.535166e+002, 1.956115e+002
8.539987e+002, 1.958594e+002
8.544808e+002, 1.968616e+002
8.549630e+002, 1.978653e+002
8.554451e+002, 1.990137e+002
8.559272e+002, 1.996228e+002
8.564093e+002, 1.991322e+002
8.568914e+002, 1.982302e+002
8.573735e+002, 1.987555e+002
8.578557e+002, 2.008840e+002
8.583378e+002, 2.022465e+002
8.588199e+002, 2.020483e+002
8.593020e+002, 2.011650e+002
8.597841e+002, 2.007253e+002
8.602662e+002, 2.006072e+002
8.607484e+002, 2.005683e+002
8.612305e+002, 2.005097e+002
8.617126e+002, 2.005430e+002
8.621947e+002, 2.007506e+002
8.626768e+002, 2.010643e+002
8.631589e+002, 2.014160e+002
8.636411e+002, 2.019519e+002
8.641232e+002, 2.020280e+002
8.646053e+002, 2.014057e+002
8.650874e+002, 2.007464e+002
8.655695e+002, 2.009856e+002
8.660516e+002, 2.019110e+002
8.665338e+002, 2.029312e+002
8.670159e+002, 2.040114e+002
8.674980e+002, 2.048269e+002
8.679801e+002, 2.048537e+002
8.684622e+002, 2.046830e+002
8.689443e+002, 2.048873e+002
8.694265e+002, 2.056447e+002
8.699086e+002, 2.066418e+002
8.703907e+002, 2.081019e+002
8.708728e+002, 2.094435e+002
8.713549e+002, 2.099922e+002
8.718370e+002, 2.098548e+002
8.723192e+002, 2.103240e+002
8.728013e+002, 2.114624e+002
8.732834e+002, 2.127499e+002
8.737655e+002, 2.140002e+002
8.742476e+002, 2.150306e+002
8.747297e+002, 2.154943e+002
8.752119e+002, 2.153473e+002
8.756940e+002, 2.155164e+002
8.761761e+002, 2.168522e+002
8.766582e+002, 2.178686e+002
8.771403e+002, 2.178722e+002
8.776224e+002, 2.169491e+002
8.781046e+002, 2.162923e+002
8.785867e+002, 2.159174e+002
8.790688e+002, 2.155305e+002
8.795509e+002, 2.148293e+002
8.800330e+002, 2.141003e+002
8.805151e+002, 2.137949e+002
8.809973e+002, 2.138385e+002
8.814794e+002, 2.139330e+002
8.819615e+002, 2.140685e+002
8.824436e+002, 2.141131e+002
8.829257e+002, 2.139204e+002
8.834078e+002, 2.136126e+002
8.838900e+002, 2.134980e+002
8.843721e+002, 2.135605e+002
8.848542e+002, 2.139641e+002
8.853363e+002, 2.149464e+002
8.858184e+002, 2.159783e+002
8.863005e+002, 2.158105e+002
8.867827e+002, 2.149453e+002
8.872648e+002, 2.147181e+002
8.877469e+002, 2.162997e+002
8.882290e+002, 2.175700e+002
8.887111e+002, 2.172519e+002
8.891932e+002, 2.161948e+002
8.896754e+002, 2.156548e+002
8.901575e+002, 2.158801e+002
8.906396e+002, 2.159949e+002
8.911217e+002, 2.158245e+002
8.916038e+002, 2.157882e+002
8.920859e+002, 2.166741e+002
8.925681e+002, 2.181263e+002
8.930502e+002, 2.189408e+002
8.935323e+002, 2.188238e+002
8.940144e+002, 2.187820e+002
8.944965e+002, 2.198246e+002
8.949786e+002, 2.210342e+002
8.954608e+002, 2.215957e+002
8.959429e+002, 2.212168e+002
8.964250e+002, 2.208438e+002
8.969071e+002, 2.202626e+002
8.973892e+002, 2.201207e+002
8.978713e+002, 2.211845e+002
8.983535e+002, 2.231675e+002
8.988356e+002, 2.241832e+002
8.993177e+002, 2.242870e+002
8.997998e+002, 2.244756e+002
9.002819e+002, 2.257322e+002
9.007640e+002, 2.270811e+002
9.012462e+002, 2.275408e+002
9.017283e+002, 2.272254e+002
9.022104e+002, 2.277092e+002
9.026925e+002, 2.295975e+002
9.031746e+002, 2.315082e+002
9.036567e+002, 2.330918e+002
9.041389e+002, 2.343936e+002
9.046210e+002, 2.356476e+002
9.051031e+002, 2.368234e+002
9.055852e+002, 2.376927e+002
9.060673e+002, 2.380689e+002
9.065494e+002, 2.382281e+002
9.070316e+002, 2.382707e+002
9.075137e+002, 2.383029e+002
9.079958e+002, 2.385158e+002
9.084779e+002, 2.394112e+002
9.089600e+002, 2.398342e+002
9.094421e+002, 2.395324e+002
9.099243e+002, 2.388902e+002
9.104064e+002, 2.383343e+002
9.108885e+002, 2.378761e+002
9.113706e+002, 2.377113e+002
9.118527e+002, 2.379064e+002
9.123348e+002, 2.381612e+002
9.128170e+002, 2.383567e+002
9.132991e+002, 2.383624e+002
9.137812e+002, 2.378441e+002
9.142633e+002, 2.364210e+002
9.147454e+002, 2.359480e+002
9.152275e+002, 2.375190e+002
9.157097e+002, 2.391083e+002
9.161918e+002, 2.393504e+002
9.166739e+002, 2.382796e+002
9.171560e+002, 2.382568e+002
9.176381e+002, 2.392885e+002
9.181202e+002, 2.405044e+002
9.186024e+002, 2.415378e+002
9.190845e+002, 2.422713e+002
9.195666e+002, 2.423619e+002
9.200487e+002, 2.419491e+002
9.205308e+002, 2.418313e+002
9.210129e+002, 2.426916e+002
9.214951e+002, 2.433068e+002
9.219772e+002, 2.432053e+002
9.224593e+002, 2.427145e+002
9.229414e+002, 2.428418e+002
9.234235e+002, 2.435756e+002
9.239056e+002, 2.445067e+002
9.243878e+002, 2.456356e+002
9.248699e+002, 2.466366e+002
9.253520e+002, 2.470115e+002
9.258341e+002, 2.470546e+002
9.263162e+002, 2.472350e+002
9.267983e+002, 2.475600e+002
9.272805e+002, 2.482469e+002
9.277626e+002, 2.494260e+002
9.282447e+002, 2.508515e+002
9.287268e+002, 2.522845e+002
9.292089e+002, 2.537226e+002
9.296910e+002, 2.552507e+002
9.301732e+002, 2.568739e+002
9.306553e+002, 2.584931e+002
9.311374e+002, 2.597406e+002
9.316195e+002, 2.610945e+002
9.321016e+002, 2.633661e+002
9.325837e+002, 2.666590e+002
9.330659e+002, 2.693728e+002
9.335480e+002, 2.706572e+002
9.340301e+002, 2.718339e+002
9.345122e+002, 2.734840e+002
9.349943e+002, 2.754662e+002
9.354764e+002, 2.768241e+002
9.359586e+002, 2.775615e+002
9.364407e+002, 2.776249e+002
9.369228e+002, 2.770447e+002
9.374049e+002, 2.757296e+002
9.378870e+002, 2.732696e+002
9.383691e+002, 2.700185e+002
9.388513e+002, 2.668578e+002
9.393334e+002, 2.637760e+002
9.398155e+002, 2.611244e+002
9.402976e+002, 2.590909e+002
9.407797e+002, 2.573887e+002
9.412618e+002, 2.555369e+002
9.417440e+002, 2.535825e+002
9.422261e+002, 2.521323e+002
9.427082e+002, 2.513037e+002
9.431903e+002, 2.508456e+002
9.436724e+002, 2.506655e+002
9.441545e+002, 2.506418e+002
9.446367e+002, 2.506558e+002
9.451188e+002, 2.506910e+002
9.456009e+002, 2.507385e+002
9.460830e+002, 2.508260e+002
9.465651e+002, 2.508554e+002
9.470472e+002, 2.506485e+002
9.475294e+002, 2.502823e+002
9.480115e+002, 2.505673e+002
9.484936e+002, 2.514472e+002
9.489757e+002, 2.522951e+002
9.494578e+002, 2.526023e+002
9.499399e+002, 2.528275e+002
9.504221e+002, 2.532829e+002
9.509042e+002, 2.539622e+002
9.513863e+002, 2.548069e+002
9.518684e+002, 2.560232e+002
9.523505e+002, 2.569778e+002
9.528326e+002, 2.573908e+002
9.533148e+002, 2.577328e+002
9.537969e+002, 2.588664e+002
9.542790e+002, 2.607101e+002
9.547611e+002, 2.629891e+002
9.552432e+002, 2.657432e+002
9.557253e+002, 2.684503e+002
9.562075e+002, 2.703780e+002
9.566896e+002, 2.722672e+002
9.571717e+002, 2.749595e+002
9.576538e+002, 2.788407e+002
9.581359e+002, 2.824003e+002
9.586180e+002, 2.854284e+002
9.591002e+002, 2.886788e+002
9.595823e+002, 2.927900e+002
9.600644e+002, 2.975509e+002
9.605465e+002, 3.022596e+002
9.610286e+002, 3.069579e+002
9.615107e+002, 3.118995e+002
9.619929e+002, 3.171451e+002
9.624750e+002, 3.228168e+002
9.629571e+002, 3.291161e+002
9.634392e+002, 3.359331e+002
9.639213e+002, 3.430900e+002
9.644034e+002, 3.506011e+002
9.648856e+002, 3.580870e+002
9.653677e+002, 3.653412e+002
9.658498e+002, 3.728212e+002
9.663319e+002, 3.812112e+002
9.668140e+002, 3.904565e+002
9.672961e+002, 4.002032e+002
9.677783e+002, 4.103356e+002
9.682604e+002, 4.212796e+002
9.687425e+002, 4.341328e+002
9.692246e+002, 4.472635e+002
9.697067e+002, 4.596239e+002
9.701888e+002, 4.709429e+002
9.706710e+002, 4.822725e+002
9.711531e+002, 4.936556e+002
9.716352e+002, 5.037594e+002
9.721173e+002, 5.118608e+002
9.725994e+002, 5.177164e+002
9.730815e+002, 5.211246e+002
9.735637e+002, 5.220397e+002
9.740458e+002, 5.204557e+002
9.745279e+002, 5.147979e+002
9.750100e+002, 5.083950e+002
9.754921e+002, 5.015699e+002
9.759742e+002, 4.948343e+002
9.764564e+002, 4.895402e+002
9.769385e+002, 4.855903e+002
9.774206e+002, 4.816132e+002
9.779027e+002, 4.768512e+002
9.783848e+002, 4.733704e+002
9.788669e+002, 4.732678e+002
9.793491e+002, 4.755370e+002
9.798312e+002, 4.789406e+002
9.803133e+002, 4.830954e+002
9.807954e+002, 4.890192e+002
9.812775e+002, 4.969633e+002
9.817596e+002, 5.063441e+002
9.822418e+002, 5.169733e+002
9.827239e+002, 5.287825e+002
9.832060e+002, 5.415084e+002
9.836881e+002, 5.551166e+002
9.841702e+002, 5.693837e+002
9.846523e+002, 5.837858e+002
9.851345e+002, 5.991624e+002
9.856166e+002, 6.167220e+002
9.860987e+002, 6.358417e+002
9.865808e+002, 6.542766e+002
9.870629e+002, 6.720772e+002
9.875450e+002, 6.889490e+002
9.880272e+002, 7.048266e+002
9.885093e+002, 7.198387e+002
9.889914e+002, 7.339456e+002
9.894735e+002, 7.472264e+002
9.899556e+002, 7.595322e+002
9.904377e+002, 7.705644e+002
9.909199e+002, 7.818284e+002
9.914020e+002, 7.936601e+002
9.918841e+002, 8.062431e+002
9.923662e+002, 8.198685e+002
9.928483e+002, 8.343559e+002
9.933304e+002, 8.489127e+002
9.938126e+002, 8.635693e+002
9.942947e+002, 8.777861e+002
9.947768e+002, 8.923948e+002
9.952589e+002, 9.055063e+002
9.957410e+002, 9.154644e+002
9.962231e+002, 9.221640e+002
9.967053e+002, 9.256680e+002
9.971874e+002, 9.252429e+002
9.976695e+002, 9.221426e+002
9.981516e+002, 9.158987e+002
9.986337e+002, 9.078326e+002
9.991158e+002, 9.002925e+002
9.995980e+002, 8.928059e+002
1.000080e+003, 8.829805e+002
1.000562e+003, 8.704266e+002
1.001044e+003, 8.546649e+002
1.001526e+003, 8.345226e+002
1.002009e+003, 8.113673e+002
1.002491e+003, 7.864133e+002
1.002973e+003, 7.594700e+002
1.003455e+003, 7.303914e+002
1.003937e+003, 6.981113e+002
1.004419e+003, 6.671786e+002
1.004901e+003, 6.394238e+002
1.005383e+003, 6.142843e+002
1.005865e+003, 5.897413e+002
1.006348e+003, 5.663531e+002
1.006830e+003, 5.449880e+002
1.007312e+003, 5.261639e+002
1.007794e+003, 5.096059e+002
1.008276e+003, 4.956338e+002
1.008758e+003, 4.833910e+002
1.009240e+003, 4.719924e+002
1.009722e+003, 4.615219e+002
1.010205e+003, 4.515582e+002
1.010687e+003, 4.419488e+002
1.011169e+003, 4.329368e+002
1.011651e+003, 4.247930e+002
1.012133e+003, 4.171708e+002
1.012615e+003, 4.096621e+002
1.013097e+003, 4.022675e+002
1.013579e+003, 3.949673e+002
1.014061e+003, 3.874184e+002
1.014544e+003, 3.805131e+002
1.015026e+003, 3.745553e+002
1.015508e+003, 3.694466e+002
1.015990e+003, 3.649857e+002
1.016472e+003, 3.610659e+002
1.016954e+003, 3.572408e+002
1.017436e+003, 3.532492e+002
1.017918e+003, 3.495348e+002
1.018401e+003, 3.464928e+002
1.018883e+003, 3.437916e+002
1.019365e+003, 3.410016e+002
1.019847e+003, 3.379674e+002
1.020329e+003, 3.356083e+002
1.020811e+003, 3.340224e+002
1.021293e+003, 3.325879e+002
1.021775e+003, 3.307907e+002
1.022257e+003, 3.289045e+002
1.022740e+003, 3.273130e+002
1.023222e+003, 3.259884e+002
1.023704e+003, 3.247982e+002
1.024186e+003, 3.236319e+002
1.024668e+003, 3.227097e+002
1.025150e+003, 3.222455e+002
1.025632e+003, 3.218688e+002
1.026114e+003, 3.208169e+002
1.026596e+003, 3.192048e+002
1.027079e+003, 3.180319e+002
1.027561e+003, 3.175194e+002
1.028043e+003, 3.169268e+002
1.028525e+003, 3.152154e+002
1.029007e+003, 3.134755e+002
1.029489e+003, 3.128351e+002
1.029971e+003, 3.134620e+002
1.030453e+003, 3.134963e+002
1.030936e+003, 3.127267e+002
1.031418e+003, 3.120841e+002
1.031900e+003, 3.120193e+002
1.032382e+003, 3.122579e+002
1.032864e+003, 3.121334e+002
1.033346e+003, 3.118844e+002
1.033828e+003, 3.120947e+002
1.034310e+003, 3.133415e+002
1.034792e+003, 3.144947e+002
1.035275e+003, 3.151581e+002
1.035757e+003, 3.157311e+002
1.036239e+003, 3.165157e+002
1.036721e+003, 3.175071e+002
1.037203e+003, 3.189935e+002
1.037685e+003, 3.209588e+002
1.038167e+003, 3.227482e+002
1.038649e+003, 3.234642e+002
1.039132e+003, 3.241564e+002
1.039614e+003, 3.257783e+002
1.040096e+003, 3.281889e+002
1.040578e+003, 3.304733e+002
1.041060e+003, 3.325611e+002
1.041542e+003, 3.346031e+002
1.042024e+003, 3.366180e+002
1.042506e+003, 3.386886e+002
1.042989e+003, 3.409755e+002
1.043471e+003, 3.434359e+002
1.043953e+003, 3.459351e+002
1.044435e+003, 3.484160e+002
1.044917e+003, 3.512974e+002
1.045399e+003, 3.549637e+002
1.045881e+003, 3.588871e+002
1.046363e+003, 3.626982e+002
1.046845e+003, 3.664806e+002
1.047328e+003, 3.709966e+002
1.047810e+003, 3.762639e+002
1.048292e+003, 3.815924e+002
1.048774e+003, 3.870415e+002
1.049256e+003, 3.919944e+002
1.049738e+003, 3.964468e+002
1.050220e+003, 3.999581e+002
1.050702e+003, 4.017308e+002
1.051184e+003, 4.014193e+002
1.051667e+003, 4.004054e+002
1.052149e+003, 3.988632e+002
1.052631e+003, 3.961156e+002
1.053113e+003, 3.909520e+002
1.053595e+003, 3.843419e+002
1.054077e+003, 3.779892e+002
1.054559e+003, 3.719573e+002
1.055041e+003, 3.660536e+002
1.055523e+003, 3.600074e+002
1.056006e+003, 3.543304e+002
1.056488e+003, 3.490733e+002
1.056970e+003, 3.442523e+002
1.057452e+003, 3.399302e+002
1.057934e+003, 3.360927e+002
1.058416e+003, 3.325584e+002
1.058898e+003, 3.292721e+002
1.059380e+003, 3.264137e+002
1.059863e+003, 3.244032e+002
1.060345e+003, 3.227538e+002
1.060827e+003, 3.209870e+002
1.061309e+003, 3.190528e+002
1.061791e+003, 3.179205e+002
1.062273e+003, 3.177459e+002
1.062755e+003, 3.176481e+002
1.063237e+003, 3.173795e+002
1.063719e+003, 3.167891e+002
1.064202e+003, 3.151967e+002
1.064684e+003, 3.131980e+002
1.065166e+003, 3.119595e+002
1.065648e+003, 3.124835e+002
1.066130e+003, 3.126533e+002
1.066612e+003, 3.121188e+002
1.067094e+003, 3.113873e+002
1.067576e+003, 3.106829e+002
1.068059e+003, 3.101030e+002
1.068541e+003, 3.105787e+002
1.069023e+003, 3.119452e+002
1.069505e+003, 3.127971e+002
1.069987e+003, 3.117614e+002
1.070469e+003, 3.105560e+002
1.070951e+003, 3.099775e+002
1.071433e+003, 3.098891e+002
1.071916e+003, 3.101111e+002
1.072398e+003, 3.106888e+002
1.072880e+003, 3.112021e+002
1.073362e+003, 3.116213e+002
1.073844e+003, 3.117736e+002
1.074326e+003, 3.109773e+002
1.074808e+003, 3.101561e+002
1.075290e+003, 3.105695e+002
1.075772e+003, 3.123222e+002
1.076255e+003, 3.131808e+002
1.076737e+003, 3.125104e+002
1.077219e+003, 3.121409e+002
1.077701e+003, 3.127775e+002
1.078183e+003, 3.138797e+002
1.078665e+003, 3.145807e+002
1.079147e+003, 3.148781e+002
1.079629e+003, 3.146479e+002
1.080111e+003, 3.135198e+002
1.080594e+003, 3.128787e+002
1.081076e+003, 3.135347e+002
1.081558e+003, 3.145230e+002
1.082040e+003, 3.153302e+002
1.082522e+003, 3.159772e+002
1.083004e+003, 3.167711e+002
1.083486e+003, 3.176684e+002
1.083968e+003, 3.182064e+002
1.084450e+003, 3.175558e+002
1.084933e+003, 3.170966e+002
1.085415e+003, 3.182048e+002
1.085897e+003, 3.198580e+002
1.086379e+003, 3.203594e+002
1.086861e+003, 3.192596e+002
1.087343e+003, 3.187787e+002
1.087825e+003, 3.190965e+002
1.088307e+003, 3.195055e+002
1.088790e+003, 3.193473e+002
1.089272e+003, 3.189608e+002
1.089754e+003, 3.187101e+002
1.090236e+003, 3.186063e+002
1.090718e+003, 3.185770e+002
1.091200e+003, 3.183940e+002
1.091682e+003, 3.187163e+002
1.092164e+003, 3.198061e+002
1.092646e+003, 3.211688e+002
1.093129e+003, 3.221619e+002
1.093611e+003, 3.228030e+002
1.094093e+003, 3.230937e+002
1.094575e+003, 3.230114e+002
1.095057e+003, 3.229127e+002
1.095539e+003, 3.229469e+002
1.096021e+003, 3.230053e+002
1.096503e+003, 3.230321e+002
1.096986e+003, 3.230463e+002
1.097468e+003, 3.231388e+002
1.097950e+003, 3.233007e+002
1.098432e+003, 3.234164e+002
1.098914e+003, 3.233652e+002
1.099396e+003, 3.234938e+002
1.099878e+003, 3.242435e+002
1.100360e+003, 3.251747e+002
1.100843e+003, 3.258882e+002
1.101325e+003, 3.263890e+002
1.101807e+003, 3.264821e+002
1.102289e+003, 3.261055e+002
1.102771e+003, 3.259936e+002
1.103253e+003, 3.267072e+002
1.103735e+003, 3.277613e+002
1.104217e+003, 3.288020e+002
1.104699e+003, 3.297014e+002
1.105182e+003, 3.302091e+002
1.105664e+003, 3.299633e+002
1.106146e+003, 3.299063e+002
1.106628e+003, 3.301006e+002
1.107110e+003, 3.303775e+002
1.107592e+003, 3.305196e+002
1.108074e+003, 3.306629e+002
1.108556e+003, 3.311709e+002
1.109038e+003, 3.319835e+002
1.109521e+003, 3.327285e+002
1.110003e+003, 3.333607e+002
1.110485e+003, 3.337568e+002
1.110967e+003, 3.338052e+002
1.111449e+003, 3.337325e+002
1.111931e+003, 3.339258e+002
1.112413e+003, 3.343087e+002
1.112895e+003, 3.345038e+002
1.113377e+003, 3.344654e+002
1.113860e+003, 3.344560e+002
1.114342e+003, 3.345863e+002
1.114824e+003, 3.348499e+002
1.115306e+003, 3.352883e+002
1.115788e+003, 3.358425e+002
1.116270e+003, 3.362998e+002
1.116752e+003, 3.366686e+002
1.117234e+003, 3.371772e+002
1.117717e+003, 3.379473e+002
1.118199e+003, 3.386075e+002
1.118681e+003, 3.387617e+002
1.119163e+003, 3.386917e+002
1.119645e+003, 3.386212e+002
1.120127e+003, 3.385628e+002
1.120609e+003, 3.385582e+002
1.121091e+003, 3.385734e+002
1.121573e+003, 3.388481e+002
1.122056e+003, 3.395606e+002
1.122538e+003, 3.404513e+002
1.123020e+003, 3.415063e+002
1.123502e+003, 3.424111e+002
1.123984e+003, 3.426098e+002
1.124466e+003, 3.413753e+002
1.124948e+003, 3.409260e+002
1.125430e+003, 3.414815e+002
1.125913e+003, 3.423360e+002
1.126395e+003, 3.431697e+002
1.126877e+003, 3.439060e+002
1.127359e+003, 3.442351e+002
1.127841e+003, 3.443257e+002
1.128323e+003, 3.446359e+002
1.128805e+003, 3.457007e+002
1.129287e+003, 3.464738e+002
1.129770e+003, 3.467859e+002
1.130252e+003, 3.468409e+002
1.130734e+003, 3.467794e+002
1.131216e+003, 3.466280e+002
1.131698e+003, 3.463686e+002
1.132180e+003, 3.460600e+002
1.132662e+003, 3.461508e+002
1.133144e+003, 3.472004e+002
1.133626e+003, 3.483082e+002
1.134109e+003, 3.491783e+002
1.134591e+003, 3.498999e+002
1.135073e+003, 3.506420e+002
1.135555e+003, 3.513803e+002
1.136037e+003, 3.519347e+002
1.136519e+003, 3.522891e+002
1.137001e+003, 3.523632e+002
1.137483e+003, 3.516387e+002
1.137965e+003, 3.510653e+002
1.138448e+003, 3.515802e+002
1.138930e+003, 3.527234e+002
1.139412e+003, 3.529075e+002
1.139894e+003, 3.520660e+002
1.140376e+003, 3.518109e+002
1.140858e+003, 3.525384e+002
1.141340e+003, 3.536201e+002
1.141822e+003, 3.547654e+002
1.142304e+003, 3.557827e+002
1.142787e+003, 3.564476e+002
1.143269e+003, 3.567447e+002
1.143751e+003, 3.571326e+002
1.144233e+003, 3.576404e+002
1.144715e+003, 3.580158e+002
1.145197e+003, 3.581235e+002
1.145679e+003, 3.581422e+002
1.146161e+003, 3.581535e+002
1.146644e+003, 3.582799e+002
1.147126e+003, 3.587310e+002
1.147608e+003, 3.596624e+002
1.148090e+003, 3.604310e+002
1.148572e+003, 3.610178e+002
1.149054e+003, 3.614667e+002
1.149536e+003, 3.618234e+002
1.150018e+003, 3.620315e+002
1.150500e+003, 3.615584e+002
1.150983e+003, 3.609641e+002
1.151465e+003, 3.614497e+002
1.151947e+003, 3.644103e+002
1.152429e+003, 3.661587e+002
1.152911e+003, 3.661255e+002
1.153393e+003, 3.655971e+002
1.153875e+003, 3.653053e+002
1.154357e+003, 3.652447e+002
1.154840e+003, 3.655410e+002
1.155322e+003, 3.660679e+002
1.155804e+003, 3.664090e+002
1.156286e+003, 3.659781e+002
1.156768e+003, 3.659967e+002
1.157250e+003, 3.668708e+002
1.157732e+003, 3.678559e+002
1.158214e+003, 3.681785e+002
1.158697e+003, 3.680185e+002
1.159179e+003, 3.681161e+002
1.159661e+003, 3.684704e+002
1.160143e+003, 3.689504e+002
1.160625e+003, 3.696195e+002
1.161107e+003, 3.702317e+002
1.161589e+003, 3.706316e+002
1.162071e+003, 3.710154e+002
1.162553e+003, 3.717453e+002
1.163036e+003, 3.727263e+002
1.163518e+003, 3.732453e+002
1.164000e+003, 3.732787e+002
1.164482e+003, 3.732828e+002
1.164964e+003, 3.736549e+002
1.165446e+003, 3.739276e+002
1.165928e+003, 3.736804e+002
1.166410e+003, 3.733102e+002
1.166892e+003, 3.736465e+002
1.167375e+003, 3.746365e+002
1.167857e+003, 3.753936e+002
1.168339e+003, 3.757947e+002
1.168821e+003, 3.762305e+002
1.169303e+003, 3.769825e+002
1.169785e+003, 3.778600e+002
1.170267e+003, 3.788593e+002
1.170749e+003, 3.798669e+002
1.171231e+003, 3.805931e+002
1.171714e+003, 3.810378e+002
1.172196e+003, 3.811736e+002
1.172678e+003, 3.809399e+002
1.173160e+003, 3.807269e+002
1.173642e+003, 3.809372e+002
1.174124e+003, 3.812456e+002
1.174606e+003, 3.812313e+002
1.175088e+003, 3.810274e+002
1.175571e+003, 3.816877e+002
1.176053e+003, 3.832898e+002
1.176535e+003, 3.842513e+002
1.177017e+003, 3.839423e+002
1.177499e+003, 3.835379e+002
1.177981e+003, 3.843500e+002
1.178463e+003, 3.854975e+002
1.178945e+003, 3.859984e+002
1.179427e+003, 3.858080e+002
1.179910e+003, 3.863273e+002
1.180392e+003, 3.876472e+002
1.180874e+003, 3.888031e+002
1.181356e+003, 3.894730e+002
1.181838e+003, 3.897460e+002
1.182320e+003, 3.892152e+002
1.182802e+003, 3.886296e+002
1.183284e+003, 3.890735e+002
1.183767e+003, 3.908499e+002
1.184249e+003, 3.917157e+002
1.184731e+003, 3.915472e+002
1.185213e+003, 3.913640e+002
1.185695e+003, 3.916162e+002
1.186177e+003, 3.921408e+002
1.186659e+003, 3.930672e+002
1.187141e+003, 3.940105e+002
1.187624e+003, 3.942943e+002
1.188106e+003, 3.935205e+002
1.188588e+003, 3.934427e+002
1.189070e+003, 3.941682e+002
1.189552e+003, 3.950028e+002
1.190034e+003, 3.955581e+002
1.190516e+003, 3.960013e+002
1.190998e+003, 3.966150e+002
1.191480e+003, 3.972395e+002
1.191963e+003, 3.975786e+002
1.192445e+003, 3.973910e+002
1.192927e+003, 3.973699e+002
1.193409e+003, 3.974788e+002
1.193891e+003, 3.979025e+002
1.194373e+003, 3.988463e+002
1.194855e+003, 4.001102e+002
1.195337e+003, 4.016616e+002
1.195819e+003, 4.032870e+002
1.196302e+003, 4.044795e+002
1.196784e+003, 4.049793e+002
1.197266e+003, 4.054986e+002
1.197748e+003, 4.060679e+002
1.198230e+003, 4.065749e+002
1.198712e+003, 4.068250e+002
1.199194e+003, 4.070326e+002
1.199676e+003, 4.075620e+002
1.200158e+003, 4.082860e+002
1.200641e+003, 4.088354e+002
1.201123e+003, 4.091193e+002
1.201605e+003, 4.093117e+002
1.202087e+003, 4.094092e+002
1.202569e+003, 4.094874e+002
1.203051e+003, 4.094827e+002
1.203533e+003, 4.095898e+002
1.204015e+003, 4.101043e+002
1.204498e+003, 4.109594e+002
1.204980e+003, 4.119361e+002
1.205462e+003, 4.131492e+002
1.205944e+003, 4.141566e+002
1.206426e+003, 4.149748e+002
1.206908e+003, 4.153923e+002
1.207390e+003, 4.147344e+002
1.207872e+003, 4.138717e+002
1.208354e+003, 4.140546e+002
1.208837e+003, 4.151032e+002
1.209319e+003, 4.159478e+002
1.209801e+003, 4.163462e+002
1.210283e+003, 4.168272e+002
1.210765e+003, 4.174559e+002
1.211247e+003, 4.181826e+002
1.211729e+003, 4.191314e+002
1.212211e+003, 4.200420e+002
1.212694e+003, 4.204453e+002
1.213176e+003, 4.204414e+002
1.213658e+003, 4.207525e+002
1.214140e+003, 4.216231e+002
1.214622e+003, 4.222579e+002
1.215104e+003, 4.225282e+002
1.215586e+003, 4.226316e+002
1.216068e+003, 4.227879e+002
1.216551e+003, 4.229078e+002
1.217033e+003, 4.226734e+002
1.217515e+003, 4.222159e+002
1.217997e+003, 4.225846e+002
1.218479e+003, 4.241339e+002
1.218961e+003, 4.253592e+002
1.219443e+003, 4.259397e+002
1.219925e+003, 4.264549e+002
1.220407e+003, 4.276555e+002
1.220890e+003, 4.290786e+002
1.221372e+003, 4.301644e+002
1.221854e+003, 4.309011e+002
1.222336e+003, 4.318848e+002
1.222818e+003, 4.333360e+002
1.223300e+003, 4.340439e+002
1.223782e+003, 4.335983e+002
1.224264e+003, 4.331499e+002
1.224746e+003, 4.346279e+002
1.225229e+003, 4.362920e+002
1.225711e+003, 4.358539e+002
1.226193e+003, 4.334683e+002
1.226675e+003, 4.328055e+002
1.227157e+003, 4.342367e+002
1.227639e+003, 4.355503e+002
1.228121e+003, 4.362885e+002
1.228603e+003, 4.367394e+002
1.229085e+003, 4.368264e+002
1.229568e+003, 4.370558e+002
1.230050e+003, 4.382238e+002
1.230532e+003, 4.401654e+002
1.231014e+003, 4.410114e+002
1.231496e+003, 4.406320e+002
1.231978e+003, 4.402656e+002
1.232460e+003, 4.401427e+002
1.232942e+003, 4.403657e+002
1.233425e+003, 4.413932e+002
1.233907e+003, 4.425223e+002
1.234389e+003, 4.430697e+002
1.234871e+003, 4.431211e+002
1.235353e+003, 4.432684e+002
1.235835e+003, 4.435014e+002
1.236317e+003, 4.441729e+002
1.236799e+003, 4.454676e+002
1.237281e+003, 4.466588e+002
1.237764e+003, 4.469095e+002
1.238246e+003, 4.470126e+002
1.238728e+003, 4.476513e+002
1.239210e+003, 4.487003e+002
1.239692e+003, 4.496805e+002
1.240174e+003, 4.505699e+002
1.240656e+003, 4.511137e+002
1.241138e+003, 4.511626e+002
1.241621e+003, 4.513470e+002
1.242103e+003, 4.523365e+002
1.242585e+003, 4.534238e+002
1.243067e+003, 4.541539e+002
1.243549e+003, 4.545811e+002
1.244031e+003, 4.548659e+002
1.244513e+003, 4.550257e+002
1.244995e+003, 4.551774e+002
1.245478e+003, 4.553221e+002
1.245960e+003, 4.556207e+002
1.246442e+003, 4.560967e+002
1.246924e+003, 4.568946e+002
1.247406e+003, 4.583040e+002
1.247888e+003, 4.599142e+002
1.248370e+003, 4.600892e+002
1.248852e+003, 4.592378e+002
1.249334e+003, 4.591924e+002
1.249817e+003, 4.604892e+002
1.250299e+003, 4.617684e+002
1.250781e+003, 4.624802e+002
1.251263e+003, 4.628868e+002
1.251745e+003, 4.629826e+002
1.252227e+003, 4.629721e+002
1.252709e+003, 4.633402e+002
1.253191e+003, 4.640270e+002
1.253673e+003, 4.648945e+002
1.254156e+003, 4.659440e+002
1.254638e+003, 4.669671e+002
1.255120e+003, 4.680580e+002
1.255602e+003, 4.688378e+002
1.256084e+003, 4.690146e+002
1.256566e+003, 4.690206e+002
1.257048e+003, 4.698927e+002
1.257530e+003, 4.712006e+002
1.258012e+003, 4.719250e+002
1.258495e+003, 4.717889e+002
1.258977e+003, 4.722630e+002
1.259459e+003, 4.739039e+002
1.259941e+003, 4.752834e+002
1.260423e+003, 4.758109e+002
1.260905e+003, 4.761411e+002
1.261387e+003, 4.777956e+002
1.261869e+003, 4.796979e+002
1.262352e+003, 4.799132e+002
1.262834e+003, 4.780252e+002
1.263316e+003, 4.776147e+002
1.263798e+003, 4.792914e+002
1.264280e+003, 4.808782e+002
1.264762e+003, 4.818082e+002
1.265244e+003, 4.821741e+002
1.265726e+003, 4.813919e+002
1.266208e+003, 4.805825e+002
1.266691e+003, 4.813468e+002
1.267173e+003, 4.837576e+002
1.267655e+003, 4.848420e+002
1.268137e+003, 4.844007e+002
1.268619e+003, 4.843680e+002
1.269101e+003, 4.853293e+002
1.269583e+003, 4.864687e+002
1.270065e+003, 4.869975e+002
1.270548e+003, 4.873763e+002
1.271030e+003, 4.881654e+002
1.271512e+003, 4.891857e+002
1.271994e+003, 4.893463e+002
1.272476e+003, 4.886806e+002
1.272958e+003, 4.887853e+002
1.273440e+003, 4.901180e+002
1.273922e+003, 4.914810e+002
1.274405e+003, 4.918752e+002
1.274887e+003, 4.921918e+002
1.275369e+003, 4.930599e+002
1.275851e+003, 4.942198e+002
1.276333e+003, 4.948974e+002
1.276815e+003, 4.951822e+002
1.277297e+003, 4.955500e+002
1.277779e+003, 4.960905e+002
1.278261e+003, 4.965931e+002
1.278744e+003, 4.966073e+002
1.279226e+003, 4.970131e+002
1.279708e+003, 4.982861e+002
1.280190e+003, 4.998927e+002
1.280672e+003, 5.009024e+002
1.281154e+003, 5.014309e+002
1.281636e+003, 5.017180e+002
1.282118e+003, 5.017969e+002
1.282600e+003, 5.019749e+002
1.283083e+003, 5.024128e+002
1.283565e+003, 5.028373e+002
1.284047e+003, 5.031915e+002
1.284529e+003, 5.035103e+002
1.285011e+003, 5.037044e+002
1.285493e+003, 5.039765e+002
1.285975e+003, 5.048219e+002
1.286457e+003, 5.062111e+002
1.286939e+003, 5.069525e+002
1.287422e+003, 5.066465e+002
1.287904e+003, 5.069316e+002
1.288386e+003, 5.082689e+002
1.288868e+003, 5.095665e+002
1.289350e+003, 5.092587e+002
1.289832e+003, 5.086182e+002
1.290314e+003, 5.089408e+002
1.290796e+003, 5.101519e+002
1.291279e+003, 5.114044e+002
1.291761e+003, 5.127211e+002
1.292243e+003, 5.136486e+002
1.292725e+003, 5.140900e+002
1.293207e+003, 5.145702e+002
1.293689e+003, 5.156495e+002
1.294171e+003, 5.167585e+002
1.294653e+003, 5.176203e+002
1.295135e+003, 5.181737e+002
1.295618e+003, 5.180458e+002
1.296100e+003, 5.173658e+002
1.296582e+003, 5.175037e+002
1.297064e+003, 5.186021e+002
1.297546e+003, 5.198659e+002
1.298028e+003, 5.208719e+002
1.298510e+003, 5.216677e+002
1.298992e+003, 5.222336e+002
1.299475e+003, 5.227835e+002
1.299957e+003, 5.234940e+002
1.300439e+003, 5.244479e+002
1.300921e+003, 5.260662e+002
1.301403e+003, 5.281996e+002
1.301885e+003, 5.298876e+002
##END=



