##NAMES=Georgerobinsonite
##RRUFFID=R110148
##IDEAL CHEMISTRY=Pb^2+^_4_(Cr^6+^O_4_)_2_(OH)_2_FCl
##LOCALITY=Mammoth mine, Tiger, Pinal County, Arizona, USA
##OWNER=RRUFF
##SOURCE=The University of Arizona Mineral Museum
##DESCRIPTION=Red tabular crystal, resembling wulfenite, associated with quartz, cerussite, caledonite, and matlockite (R140538).
##STATUS=The identification of this mineral has been confirmed only by single crystal X-ray diffraction.
##URL=rruff.info/R110148
8.930109e+001, 0.000000e+000
8.978320e+001, 1.670851e+002
9.026532e+001, 1.651109e+002
9.074744e+001, 1.649253e+002
9.122955e+001, 1.670584e+002
9.171167e+001, 1.704276e+002
9.219379e+001, 1.737510e+002
9.267590e+001, 1.771275e+002
9.315802e+001, 1.805080e+002
9.364014e+001, 1.837124e+002
9.412225e+001, 1.868711e+002
9.460437e+001, 1.902639e+002
9.508649e+001, 1.940233e+002
9.556860e+001, 1.979376e+002
9.605072e+001, 2.017224e+002
9.653284e+001, 2.054827e+002
9.701495e+001, 2.095262e+002
9.749707e+001, 2.142201e+002
9.797919e+001, 2.195475e+002
9.846130e+001, 2.249551e+002
9.894342e+001, 2.303188e+002
9.942554e+001, 2.356643e+002
9.990765e+001, 2.410231e+002
1.003898e+002, 2.464562e+002
1.008719e+002, 2.518827e+002
1.013540e+002, 2.573543e+002
1.018361e+002, 2.631356e+002
1.023182e+002, 2.682304e+002
1.028004e+002, 2.724037e+002
1.032825e+002, 2.756905e+002
1.037646e+002, 2.780231e+002
1.042467e+002, 2.792496e+002
1.047288e+002, 2.796781e+002
1.052109e+002, 2.800071e+002
1.056931e+002, 2.804866e+002
1.061752e+002, 2.805933e+002
1.066573e+002, 2.801388e+002
1.071394e+002, 2.793239e+002
1.076215e+002, 2.777515e+002
1.081036e+002, 2.754166e+002
1.085858e+002, 2.723764e+002
1.090679e+002, 2.687899e+002
1.095500e+002, 2.642259e+002
1.100321e+002, 2.594558e+002
1.105142e+002, 2.549247e+002
1.109963e+002, 2.512966e+002
1.114785e+002, 2.471774e+002
1.119606e+002, 2.420282e+002
1.124427e+002, 2.359082e+002
1.129248e+002, 2.305879e+002
1.134069e+002, 2.268340e+002
1.138890e+002, 2.236952e+002
1.143712e+002, 2.203618e+002
1.148533e+002, 2.162254e+002
1.153354e+002, 2.123001e+002
1.158175e+002, 2.090348e+002
1.162996e+002, 2.064545e+002
1.167817e+002, 2.038199e+002
1.172639e+002, 2.006571e+002
1.177460e+002, 1.973088e+002
1.182281e+002, 1.942104e+002
1.187102e+002, 1.912274e+002
1.191923e+002, 1.887235e+002
1.196744e+002, 1.871174e+002
1.201566e+002, 1.866245e+002
1.206387e+002, 1.861712e+002
1.211208e+002, 1.854043e+002
1.216029e+002, 1.842071e+002
1.220850e+002, 1.823432e+002
1.225671e+002, 1.792495e+002
1.230493e+002, 1.756140e+002
1.235314e+002, 1.720838e+002
1.240135e+002, 1.687115e+002
1.244956e+002, 1.655499e+002
1.249777e+002, 1.627183e+002
1.254598e+002, 1.601704e+002
1.259420e+002, 1.577959e+002
1.264241e+002, 1.555037e+002
1.269062e+002, 1.533342e+002
1.273883e+002, 1.513762e+002
1.278704e+002, 1.496852e+002
1.283525e+002, 1.481607e+002
1.288347e+002, 1.466261e+002
1.293168e+002, 1.450828e+002
1.297989e+002, 1.436853e+002
1.302810e+002, 1.426772e+002
1.307631e+002, 1.419536e+002
1.312452e+002, 1.410145e+002
1.317274e+002, 1.395924e+002
1.322095e+002, 1.379439e+002
1.326916e+002, 1.368056e+002
1.331737e+002, 1.362182e+002
1.336558e+002, 1.358276e+002
1.341379e+002, 1.352195e+002
1.346201e+002, 1.344010e+002
1.351022e+002, 1.337958e+002
1.355843e+002, 1.336430e+002
1.360664e+002, 1.338553e+002
1.365485e+002, 1.337061e+002
1.370306e+002, 1.330738e+002
1.375128e+002, 1.323666e+002
1.379949e+002, 1.321081e+002
1.384770e+002, 1.323833e+002
1.389591e+002, 1.326849e+002
1.394412e+002, 1.328428e+002
1.399233e+002, 1.328404e+002
1.404055e+002, 1.328667e+002
1.408876e+002, 1.328856e+002
1.413697e+002, 1.329674e+002
1.418518e+002, 1.332370e+002
1.423339e+002, 1.337305e+002
1.428160e+002, 1.343207e+002
1.432982e+002, 1.349647e+002
1.437803e+002, 1.356462e+002
1.442624e+002, 1.364266e+002
1.447445e+002, 1.373703e+002
1.452266e+002, 1.383942e+002
1.457087e+002, 1.392497e+002
1.461909e+002, 1.397829e+002
1.466730e+002, 1.403637e+002
1.471551e+002, 1.411551e+002
1.476372e+002, 1.422977e+002
1.481193e+002, 1.434066e+002
1.486014e+002, 1.444958e+002
1.490836e+002, 1.455545e+002
1.495657e+002, 1.465857e+002
1.500478e+002, 1.475330e+002
1.505299e+002, 1.484760e+002
1.510120e+002, 1.494563e+002
1.514941e+002, 1.503595e+002
1.519763e+002, 1.514178e+002
1.524584e+002, 1.526132e+002
1.529405e+002, 1.539580e+002
1.534226e+002, 1.555370e+002
1.539047e+002, 1.578149e+002
1.543868e+002, 1.600293e+002
1.548690e+002, 1.617648e+002
1.553511e+002, 1.624743e+002
1.558332e+002, 1.632341e+002
1.563153e+002, 1.643301e+002
1.567974e+002, 1.656961e+002
1.572795e+002, 1.667829e+002
1.577617e+002, 1.671693e+002
1.582438e+002, 1.673969e+002
1.587259e+002, 1.678572e+002
1.592080e+002, 1.689945e+002
1.596901e+002, 1.700398e+002
1.601722e+002, 1.708429e+002
1.606544e+002, 1.713943e+002
1.611365e+002, 1.715898e+002
1.616186e+002, 1.713519e+002
1.621007e+002, 1.707594e+002
1.625828e+002, 1.698772e+002
1.630649e+002, 1.685872e+002
1.635471e+002, 1.671277e+002
1.640292e+002, 1.656295e+002
1.645113e+002, 1.640958e+002
1.649934e+002, 1.623712e+002
1.654755e+002, 1.603332e+002
1.659576e+002, 1.580594e+002
1.664398e+002, 1.556769e+002
1.669219e+002, 1.530667e+002
1.674040e+002, 1.504451e+002
1.678861e+002, 1.480344e+002
1.683682e+002, 1.458472e+002
1.688503e+002, 1.436049e+002
1.693325e+002, 1.410084e+002
1.698146e+002, 1.382424e+002
1.702967e+002, 1.356451e+002
1.707788e+002, 1.332909e+002
1.712609e+002, 1.311769e+002
1.717430e+002, 1.294079e+002
1.722252e+002, 1.280136e+002
1.727073e+002, 1.266562e+002
1.731894e+002, 1.249829e+002
1.736715e+002, 1.231233e+002
1.741536e+002, 1.214260e+002
1.746357e+002, 1.202173e+002
1.751179e+002, 1.191638e+002
1.756000e+002, 1.177839e+002
1.760821e+002, 1.159895e+002
1.765642e+002, 1.142188e+002
1.770463e+002, 1.129282e+002
1.775284e+002, 1.120196e+002
1.780106e+002, 1.112117e+002
1.784927e+002, 1.104471e+002
1.789748e+002, 1.096604e+002
1.794569e+002, 1.087058e+002
1.799390e+002, 1.075099e+002
1.804211e+002, 1.063445e+002
1.809033e+002, 1.055933e+002
1.813854e+002, 1.051758e+002
1.818675e+002, 1.047281e+002
1.823496e+002, 1.039546e+002
1.828317e+002, 1.030019e+002
1.833138e+002, 1.021665e+002
1.837960e+002, 1.014829e+002
1.842781e+002, 1.009334e+002
1.847602e+002, 1.005765e+002
1.852423e+002, 1.003849e+002
1.857244e+002, 1.001609e+002
1.862065e+002, 9.975295e+001
1.866887e+002, 9.920481e+001
1.871708e+002, 9.867094e+001
1.876529e+002, 9.816358e+001
1.881350e+002, 9.768510e+001
1.886171e+002, 9.723455e+001
1.890992e+002, 9.680920e+001
1.895814e+002, 9.646152e+001
1.900635e+002, 9.628165e+001
1.905456e+002, 9.623489e+001
1.910277e+002, 9.608698e+001
1.915098e+002, 9.578271e+001
1.919919e+002, 9.541038e+001
1.924741e+002, 9.521232e+001
1.929562e+002, 9.520232e+001
1.934383e+002, 9.509483e+001
1.939204e+002, 9.458434e+001
1.944025e+002, 9.370540e+001
1.948846e+002, 9.309165e+001
1.953668e+002, 9.289340e+001
1.958489e+002, 9.291402e+001
1.963310e+002, 9.266471e+001
1.968131e+002, 9.211588e+001
1.972952e+002, 9.152203e+001
1.977773e+002, 9.104227e+001
1.982595e+002, 9.068154e+001
1.987416e+002, 9.034502e+001
1.992237e+002, 9.002793e+001
1.997058e+002, 8.972808e+001
2.001879e+002, 8.945235e+001
2.006700e+002, 8.920583e+001
2.011522e+002, 8.895193e+001
2.016343e+002, 8.866296e+001
2.021164e+002, 8.833653e+001
2.025985e+002, 8.800529e+001
2.030806e+002, 8.768294e+001
2.035627e+002, 8.735625e+001
2.040449e+002, 8.697185e+001
2.045270e+002, 8.650729e+001
2.050091e+002, 8.605656e+001
2.054912e+002, 8.571152e+001
2.059733e+002, 8.550379e+001
2.064554e+002, 8.520138e+001
2.069376e+002, 8.474854e+001
2.074197e+002, 8.419157e+001
2.079018e+002, 8.365067e+001
2.083839e+002, 8.307030e+001
2.088660e+002, 8.264816e+001
2.093481e+002, 8.259783e+001
2.098303e+002, 8.303777e+001
2.103124e+002, 8.331360e+001
2.107945e+002, 8.332663e+001
2.112766e+002, 8.312842e+001
2.117587e+002, 8.292982e+001
2.122408e+002, 8.275025e+001
2.127230e+002, 8.252889e+001
2.132051e+002, 8.219895e+001
2.136872e+002, 8.170570e+001
2.141693e+002, 8.129279e+001
2.146514e+002, 8.101224e+001
2.151335e+002, 8.082985e+001
2.156157e+002, 8.059319e+001
2.160978e+002, 8.025593e+001
2.165799e+002, 7.994153e+001
2.170620e+002, 7.974275e+001
2.175441e+002, 7.971336e+001
2.180262e+002, 7.963879e+001
2.185084e+002, 7.949418e+001
2.189905e+002, 7.928597e+001
2.194726e+002, 7.906475e+001
2.199547e+002, 7.885096e+001
2.204368e+002, 7.858597e+001
2.209189e+002, 7.820188e+001
2.214011e+002, 7.758194e+001
2.218832e+002, 7.715557e+001
2.223653e+002, 7.701169e+001
2.228474e+002, 7.708955e+001
2.233295e+002, 7.711288e+001
2.238116e+002, 7.707573e+001
2.242938e+002, 7.699474e+001
2.247759e+002, 7.687527e+001
2.252580e+002, 7.670657e+001
2.257401e+002, 7.652898e+001
2.262222e+002, 7.635911e+001
2.267043e+002, 7.618192e+001
2.271865e+002, 7.590749e+001
2.276686e+002, 7.545412e+001
2.281507e+002, 7.503165e+001
2.286328e+002, 7.477232e+001
2.291149e+002, 7.474171e+001
2.295970e+002, 7.472662e+001
2.300792e+002, 7.474588e+001
2.305613e+002, 7.477230e+001
2.310434e+002, 7.468607e+001
2.315255e+002, 7.442304e+001
2.320076e+002, 7.414658e+001
2.324897e+002, 7.394749e+001
2.329719e+002, 7.385410e+001
2.334540e+002, 7.377637e+001
2.339361e+002, 7.369941e+001
2.344182e+002, 7.363724e+001
2.349003e+002, 7.364018e+001
2.353824e+002, 7.373629e+001
2.358646e+002, 7.385741e+001
2.363467e+002, 7.398154e+001
2.368288e+002, 7.415297e+001
2.373109e+002, 7.422228e+001
2.377930e+002, 7.415401e+001
2.382751e+002, 7.398423e+001
2.387573e+002, 7.382777e+001
2.392394e+002, 7.370522e+001
2.397215e+002, 7.356253e+001
2.402036e+002, 7.335955e+001
2.406857e+002, 7.302097e+001
2.411678e+002, 7.279343e+001
2.416500e+002, 7.271194e+001
2.421321e+002, 7.273125e+001
2.426142e+002, 7.274020e+001
2.430963e+002, 7.274210e+001
2.435784e+002, 7.272807e+001
2.440605e+002, 7.268967e+001
2.445427e+002, 7.260642e+001
2.450248e+002, 7.255492e+001
2.455069e+002, 7.255758e+001
2.459890e+002, 7.258399e+001
2.464711e+002, 7.257174e+001
2.469532e+002, 7.253129e+001
2.474354e+002, 7.243592e+001
2.479175e+002, 7.225246e+001
2.483996e+002, 7.191199e+001
2.488817e+002, 7.172505e+001
2.493638e+002, 7.180760e+001
2.498459e+002, 7.197987e+001
2.503281e+002, 7.187858e+001
2.508102e+002, 7.130798e+001
2.512923e+002, 7.080497e+001
2.517744e+002, 7.054859e+001
2.522565e+002, 7.057746e+001
2.527386e+002, 7.071957e+001
2.532208e+002, 7.106924e+001
2.537029e+002, 7.146269e+001
2.541850e+002, 7.162869e+001
2.546671e+002, 7.144913e+001
2.551492e+002, 7.127211e+001
2.556313e+002, 7.122739e+001
2.561135e+002, 7.135338e+001
2.565956e+002, 7.133495e+001
2.570777e+002, 7.110649e+001
2.575598e+002, 7.079472e+001
2.580419e+002, 7.054784e+001
2.585240e+002, 7.032630e+001
2.590062e+002, 7.027296e+001
2.594883e+002, 7.052627e+001
2.599704e+002, 7.112571e+001
2.604525e+002, 7.132378e+001
2.609346e+002, 7.096114e+001
2.614167e+002, 7.039333e+001
2.618989e+002, 7.000840e+001
2.623810e+002, 6.982644e+001
2.628631e+002, 6.979773e+001
2.633452e+002, 6.998649e+001
2.638273e+002, 7.039315e+001
2.643094e+002, 7.054080e+001
2.647916e+002, 7.037245e+001
2.652737e+002, 7.004630e+001
2.657558e+002, 6.965296e+001
2.662379e+002, 6.910327e+001
2.667200e+002, 6.880660e+001
2.672021e+002, 6.891924e+001
2.676843e+002, 6.938838e+001
2.681664e+002, 6.969448e+001
2.686485e+002, 6.981125e+001
2.691306e+002, 6.981799e+001
2.696127e+002, 6.974936e+001
2.700948e+002, 6.957298e+001
2.705770e+002, 6.946358e+001
2.710591e+002, 6.945827e+001
2.715412e+002, 6.954007e+001
2.720233e+002, 6.964002e+001
2.725054e+002, 6.976271e+001
2.729875e+002, 6.988332e+001
2.734697e+002, 7.000053e+001
2.739518e+002, 7.012769e+001
2.744339e+002, 7.016032e+001
2.749160e+002, 7.006680e+001
2.753981e+002, 6.988327e+001
2.758802e+002, 6.969522e+001
2.763624e+002, 6.949093e+001
2.768445e+002, 6.934269e+001
2.773266e+002, 6.932335e+001
2.778087e+002, 6.944460e+001
2.782908e+002, 6.953438e+001
2.787729e+002, 6.959239e+001
2.792551e+002, 6.959724e+001
2.797372e+002, 6.945022e+001
2.802193e+002, 6.911758e+001
2.807014e+002, 6.885371e+001
2.811835e+002, 6.882700e+001
2.816656e+002, 6.903371e+001
2.821478e+002, 6.921144e+001
2.826299e+002, 6.934975e+001
2.831120e+002, 6.945579e+001
2.835941e+002, 6.953671e+001
2.840762e+002, 6.959205e+001
2.845583e+002, 6.963558e+001
2.850405e+002, 6.965414e+001
2.855226e+002, 6.965583e+001
2.860047e+002, 6.974466e+001
2.864868e+002, 6.995065e+001
2.869689e+002, 7.014490e+001
2.874510e+002, 7.008486e+001
2.879332e+002, 6.978715e+001
2.884153e+002, 6.959753e+001
2.888974e+002, 6.969703e+001
2.893795e+002, 7.001536e+001
2.898616e+002, 7.033632e+001
2.903438e+002, 7.067508e+001
2.908259e+002, 7.090920e+001
2.913080e+002, 7.078145e+001
2.917901e+002, 7.036953e+001
2.922722e+002, 7.015171e+001
2.927543e+002, 7.042687e+001
2.932365e+002, 7.093299e+001
2.937186e+002, 7.094459e+001
2.942007e+002, 7.045256e+001
2.946828e+002, 7.001330e+001
2.951649e+002, 7.028551e+001
2.956470e+002, 7.104551e+001
2.961292e+002, 7.154460e+001
2.966113e+002, 7.148453e+001
2.970934e+002, 7.117710e+001
2.975755e+002, 7.112462e+001
2.980576e+002, 7.130666e+001
2.985397e+002, 7.150280e+001
2.990219e+002, 7.149101e+001
2.995040e+002, 7.138116e+001
2.999861e+002, 7.143722e+001
3.004682e+002, 7.177757e+001
3.009503e+002, 7.216164e+001
3.014324e+002, 7.223203e+001
3.019146e+002, 7.206684e+001
3.023967e+002, 7.199554e+001
3.028788e+002, 7.232926e+001
3.033609e+002, 7.285133e+001
3.038430e+002, 7.323759e+001
3.043251e+002, 7.342408e+001
3.048073e+002, 7.354847e+001
3.052894e+002, 7.371457e+001
3.057715e+002, 7.391538e+001
3.062536e+002, 7.413942e+001
3.067357e+002, 7.441287e+001
3.072178e+002, 7.468649e+001
3.077000e+002, 7.489005e+001
3.081821e+002, 7.500922e+001
3.086642e+002, 7.513643e+001
3.091463e+002, 7.526804e+001
3.096284e+002, 7.546120e+001
3.101105e+002, 7.580928e+001
3.105927e+002, 7.643885e+001
3.110748e+002, 7.716916e+001
3.115569e+002, 7.796265e+001
3.120390e+002, 7.881095e+001
3.125211e+002, 7.947370e+001
3.130032e+002, 7.962138e+001
3.134854e+002, 7.959523e+001
3.139675e+002, 7.975584e+001
3.144496e+002, 8.035083e+001
3.149317e+002, 8.104530e+001
3.154138e+002, 8.164173e+001
3.158959e+002, 8.217725e+001
3.163781e+002, 8.289031e+001
3.168602e+002, 8.408568e+001
3.173423e+002, 8.537586e+001
3.178244e+002, 8.644798e+001
3.183065e+002, 8.690175e+001
3.187886e+002, 8.760281e+001
3.192708e+002, 8.898387e+001
3.197529e+002, 9.084620e+001
3.202350e+002, 9.263779e+001
3.207171e+002, 9.408324e+001
3.211992e+002, 9.548042e+001
3.216813e+002, 9.698001e+001
3.221635e+002, 9.865907e+001
3.226456e+002, 1.003044e+002
3.231277e+002, 1.017337e+002
3.236098e+002, 1.031239e+002
3.240919e+002, 1.047788e+002
3.245740e+002, 1.067400e+002
3.250562e+002, 1.089556e+002
3.255383e+002, 1.114287e+002
3.260204e+002, 1.141875e+002
3.265025e+002, 1.170858e+002
3.269846e+002, 1.202247e+002
3.274667e+002, 1.234478e+002
3.279489e+002, 1.266275e+002
3.284310e+002, 1.296362e+002
3.289131e+002, 1.327526e+002
3.293952e+002, 1.360245e+002
3.298773e+002, 1.394528e+002
3.303594e+002, 1.430837e+002
3.308416e+002, 1.471167e+002
3.313237e+002, 1.511445e+002
3.318058e+002, 1.548550e+002
3.322879e+002, 1.580680e+002
3.327700e+002, 1.612775e+002
3.332521e+002, 1.644802e+002
3.337343e+002, 1.677297e+002
3.342164e+002, 1.713553e+002
3.346985e+002, 1.755872e+002
3.351806e+002, 1.797704e+002
3.356627e+002, 1.834538e+002
3.361448e+002, 1.862304e+002
3.366270e+002, 1.896716e+002
3.371091e+002, 1.939005e+002
3.375912e+002, 1.987071e+002
3.380733e+002, 2.037479e+002
3.385554e+002, 2.089502e+002
3.390375e+002, 2.144617e+002
3.395197e+002, 2.203556e+002
3.400018e+002, 2.265834e+002
3.404839e+002, 2.331070e+002
3.409660e+002, 2.396578e+002
3.414481e+002, 2.468229e+002
3.419302e+002, 2.552453e+002
3.424124e+002, 2.650404e+002
3.428945e+002, 2.754966e+002
3.433766e+002, 2.866227e+002
3.438587e+002, 2.982482e+002
3.443408e+002, 3.101030e+002
3.448229e+002, 3.221158e+002
3.453051e+002, 3.344522e+002
3.457872e+002, 3.476447e+002
3.462693e+002, 3.614278e+002
3.467514e+002, 3.745598e+002
3.472335e+002, 3.867715e+002
3.477156e+002, 3.980409e+002
3.481978e+002, 4.085327e+002
3.486799e+002, 4.181437e+002
3.491620e+002, 4.255131e+002
3.496441e+002, 4.300844e+002
3.501262e+002, 4.317281e+002
3.506083e+002, 4.300761e+002
3.510905e+002, 4.249995e+002
3.515726e+002, 4.168879e+002
3.520547e+002, 4.054529e+002
3.525368e+002, 3.912056e+002
3.530189e+002, 3.756968e+002
3.535010e+002, 3.589383e+002
3.539832e+002, 3.417029e+002
3.544653e+002, 3.247065e+002
3.549474e+002, 3.078047e+002
3.554295e+002, 2.918417e+002
3.559116e+002, 2.772000e+002
3.563937e+002, 2.638742e+002
3.568759e+002, 2.520529e+002
3.573580e+002, 2.419662e+002
3.578401e+002, 2.331161e+002
3.583222e+002, 2.252725e+002
3.588043e+002, 2.183606e+002
3.592864e+002, 2.123725e+002
3.597686e+002, 2.075913e+002
3.602507e+002, 2.035471e+002
3.607328e+002, 1.998559e+002
3.612149e+002, 1.961442e+002
3.616970e+002, 1.931937e+002
3.621791e+002, 1.914107e+002
3.626613e+002, 1.906189e+002
3.631434e+002, 1.904144e+002
3.636255e+002, 1.903348e+002
3.641076e+002, 1.910779e+002
3.645897e+002, 1.930390e+002
3.650718e+002, 1.963808e+002
3.655540e+002, 2.003982e+002
3.660361e+002, 2.047708e+002
3.665182e+002, 2.098170e+002
3.670003e+002, 2.159189e+002
3.674824e+002, 2.233674e+002
3.679645e+002, 2.316214e+002
3.684467e+002, 2.408991e+002
3.689288e+002, 2.511010e+002
3.694109e+002, 2.611668e+002
3.698930e+002, 2.715755e+002
3.703751e+002, 2.814902e+002
3.708572e+002, 2.905324e+002
3.713394e+002, 2.998932e+002
3.718215e+002, 3.063226e+002
3.723036e+002, 3.101536e+002
3.727857e+002, 3.108504e+002
3.732678e+002, 3.063047e+002
3.737499e+002, 2.949088e+002
3.742321e+002, 2.810226e+002
3.747142e+002, 2.661524e+002
3.751963e+002, 2.494339e+002
3.756784e+002, 2.349572e+002
3.761605e+002, 2.228774e+002
3.766426e+002, 2.129714e+002
3.771248e+002, 2.055418e+002
3.776069e+002, 2.007409e+002
3.780890e+002, 1.969632e+002
3.785711e+002, 1.938244e+002
3.790532e+002, 1.912962e+002
3.795353e+002, 1.896537e+002
3.800175e+002, 1.890888e+002
3.804996e+002, 1.883694e+002
3.809817e+002, 1.866429e+002
3.814638e+002, 1.838714e+002
3.819459e+002, 1.794344e+002
3.824280e+002, 1.728919e+002
3.829102e+002, 1.650892e+002
3.833923e+002, 1.573440e+002
3.838744e+002, 1.496621e+002
3.843565e+002, 1.427813e+002
3.848386e+002, 1.372767e+002
3.853207e+002, 1.329016e+002
3.858029e+002, 1.293554e+002
3.862850e+002, 1.265722e+002
3.867671e+002, 1.246166e+002
3.872492e+002, 1.237961e+002
3.877313e+002, 1.238446e+002
3.882134e+002, 1.241788e+002
3.886956e+002, 1.243790e+002
3.891777e+002, 1.248383e+002
3.896598e+002, 1.259882e+002
3.901419e+002, 1.278099e+002
3.906240e+002, 1.299059e+002
3.911061e+002, 1.321066e+002
3.915883e+002, 1.344477e+002
3.920704e+002, 1.369825e+002
3.925525e+002, 1.398174e+002
3.930346e+002, 1.427188e+002
3.935167e+002, 1.455937e+002
3.939988e+002, 1.484843e+002
3.944810e+002, 1.515390e+002
3.949631e+002, 1.548043e+002
3.954452e+002, 1.582518e+002
3.959273e+002, 1.618085e+002
3.964094e+002, 1.653405e+002
3.968915e+002, 1.693882e+002
3.973737e+002, 1.739836e+002
3.978558e+002, 1.791690e+002
3.983379e+002, 1.849961e+002
3.988200e+002, 1.912093e+002
3.993021e+002, 1.983459e+002
3.997842e+002, 2.066243e+002
4.002664e+002, 2.160341e+002
4.007485e+002, 2.259492e+002
4.012306e+002, 2.362981e+002
4.017127e+002, 2.470895e+002
4.021948e+002, 2.583462e+002
4.026769e+002, 2.702930e+002
4.031591e+002, 2.823062e+002
4.036412e+002, 2.948914e+002
4.041233e+002, 3.072446e+002
4.046054e+002, 3.178459e+002
4.050875e+002, 3.267113e+002
4.055696e+002, 3.335209e+002
4.060518e+002, 3.386298e+002
4.065339e+002, 3.421229e+002
4.070160e+002, 3.408322e+002
4.074981e+002, 3.344833e+002
4.079802e+002, 3.242252e+002
4.084623e+002, 3.106909e+002
4.089445e+002, 2.938595e+002
4.094266e+002, 2.758593e+002
4.099087e+002, 2.567835e+002
4.103908e+002, 2.373117e+002
4.108729e+002, 2.188553e+002
4.113550e+002, 2.013666e+002
4.118372e+002, 1.856464e+002
4.123193e+002, 1.723018e+002
4.128014e+002, 1.609902e+002
4.132835e+002, 1.508240e+002
4.137656e+002, 1.416293e+002
4.142477e+002, 1.334863e+002
4.147299e+002, 1.268244e+002
4.152120e+002, 1.213324e+002
4.156941e+002, 1.164503e+002
4.161762e+002, 1.117310e+002
4.166583e+002, 1.075497e+002
4.171404e+002, 1.044160e+002
4.176226e+002, 1.022767e+002
4.181047e+002, 1.003492e+002
4.185868e+002, 9.814365e+001
4.190689e+002, 9.592583e+001
4.195510e+002, 9.391990e+001
4.200331e+002, 9.230662e+001
4.205153e+002, 9.077499e+001
4.209974e+002, 8.918624e+001
4.214795e+002, 8.760098e+001
4.219616e+002, 8.623795e+001
4.224437e+002, 8.518713e+001
4.229258e+002, 8.432497e+001
4.234080e+002, 8.366184e+001
4.238901e+002, 8.329355e+001
4.243722e+002, 8.275292e+001
4.248543e+002, 8.177549e+001
4.253364e+002, 8.072219e+001
4.258185e+002, 7.995808e+001
4.263007e+002, 7.972875e+001
4.267828e+002, 7.941994e+001
4.272649e+002, 7.892232e+001
4.277470e+002, 7.826762e+001
4.282291e+002, 7.762669e+001
4.287112e+002, 7.694801e+001
4.291934e+002, 7.637988e+001
4.296755e+002, 7.602531e+001
4.301576e+002, 7.593918e+001
4.306397e+002, 7.579819e+001
4.311218e+002, 7.559692e+001
4.316039e+002, 7.533313e+001
4.320861e+002, 7.497105e+001
4.325682e+002, 7.450217e+001
4.330503e+002, 7.406072e+001
4.335324e+002, 7.364839e+001
4.340145e+002, 7.330434e+001
4.344966e+002, 7.322775e+001
4.349788e+002, 7.342770e+001
4.354609e+002, 7.363766e+001
4.359430e+002, 7.358344e+001
4.364251e+002, 7.336229e+001
4.369072e+002, 7.327368e+001
4.373893e+002, 7.342810e+001
4.378715e+002, 7.358311e+001
4.383536e+002, 7.345768e+001
4.388357e+002, 7.310650e+001
4.393178e+002, 7.268211e+001
4.397999e+002, 7.224663e+001
4.402820e+002, 7.178011e+001
4.407642e+002, 7.122396e+001
4.412463e+002, 7.056934e+001
4.417284e+002, 7.001311e+001
4.422105e+002, 6.981475e+001
4.426926e+002, 6.968941e+001
4.431747e+002, 6.935484e+001
4.436569e+002, 6.844185e+001
4.441390e+002, 6.765947e+001
4.446211e+002, 6.734417e+001
4.451032e+002, 6.734212e+001
4.455853e+002, 6.721861e+001
4.460674e+002, 6.681374e+001
4.465496e+002, 6.634366e+001
4.470317e+002, 6.585659e+001
4.475138e+002, 6.529802e+001
4.479959e+002, 6.492426e+001
4.484780e+002, 6.487862e+001
4.489601e+002, 6.491869e+001
4.494423e+002, 6.480049e+001
4.499244e+002, 6.444515e+001
4.504065e+002, 6.410036e+001
4.508886e+002, 6.379598e+001
4.513707e+002, 6.353189e+001
4.518528e+002, 6.330462e+001
4.523350e+002, 6.312660e+001
4.528171e+002, 6.294125e+001
4.532992e+002, 6.269210e+001
4.537813e+002, 6.237557e+001
4.542634e+002, 6.214075e+001
4.547455e+002, 6.199699e+001
4.552277e+002, 6.190371e+001
4.557098e+002, 6.181085e+001
4.561919e+002, 6.172052e+001
4.566740e+002, 6.165122e+001
4.571561e+002, 6.164726e+001
4.576382e+002, 6.163663e+001
4.581204e+002, 6.145089e+001
4.586025e+002, 6.111452e+001
4.590846e+002, 6.081571e+001
4.595667e+002, 6.079401e+001
4.600488e+002, 6.083882e+001
4.605309e+002, 6.061732e+001
4.610131e+002, 6.001556e+001
4.614952e+002, 5.947264e+001
4.619773e+002, 5.935379e+001
4.624594e+002, 5.948212e+001
4.629415e+002, 5.959815e+001
4.634236e+002, 5.969260e+001
4.639058e+002, 5.967163e+001
4.643879e+002, 5.942530e+001
4.648700e+002, 5.898469e+001
4.653521e+002, 5.861483e+001
4.658342e+002, 5.835612e+001
4.663163e+002, 5.819976e+001
4.667985e+002, 5.815409e+001
4.672806e+002, 5.833158e+001
4.677627e+002, 5.840983e+001
4.682448e+002, 5.829343e+001
4.687269e+002, 5.811295e+001
4.692090e+002, 5.806292e+001
4.696912e+002, 5.825082e+001
4.701733e+002, 5.837189e+001
4.706554e+002, 5.834943e+001
4.711375e+002, 5.819530e+001
4.716196e+002, 5.800038e+001
4.721017e+002, 5.772606e+001
4.725839e+002, 5.751833e+001
4.730660e+002, 5.752909e+001
4.735481e+002, 5.776156e+001
4.740302e+002, 5.783808e+001
4.745123e+002, 5.769923e+001
4.749944e+002, 5.748278e+001
4.754766e+002, 5.742031e+001
4.759587e+002, 5.748177e+001
4.764408e+002, 5.746419e+001
4.769229e+002, 5.718413e+001
4.774050e+002, 5.684001e+001
4.778871e+002, 5.680721e+001
4.783693e+002, 5.705631e+001
4.788514e+002, 5.731593e+001
4.793335e+002, 5.740412e+001
4.798156e+002, 5.739151e+001
4.802977e+002, 5.734835e+001
4.807798e+002, 5.727195e+001
4.812620e+002, 5.721790e+001
4.817441e+002, 5.727823e+001
4.822262e+002, 5.736721e+001
4.827083e+002, 5.735863e+001
4.831904e+002, 5.701601e+001
4.836725e+002, 5.675504e+001
4.841547e+002, 5.678301e+001
4.846368e+002, 5.707881e+001
4.851189e+002, 5.731416e+001
4.856010e+002, 5.746967e+001
4.860831e+002, 5.753081e+001
4.865652e+002, 5.747780e+001
4.870474e+002, 5.720909e+001
4.875295e+002, 5.704430e+001
4.880116e+002, 5.701638e+001
4.884937e+002, 5.706965e+001
4.889758e+002, 5.714577e+001
4.894579e+002, 5.727993e+001
4.899401e+002, 5.732372e+001
4.904222e+002, 5.721444e+001
4.909043e+002, 5.699118e+001
4.913864e+002, 5.680860e+001
4.918685e+002, 5.665860e+001
4.923506e+002, 5.660493e+001
4.928328e+002, 5.677012e+001
4.933149e+002, 5.708812e+001
4.937970e+002, 5.725947e+001
4.942791e+002, 5.725709e+001
4.947612e+002, 5.713272e+001
4.952433e+002, 5.684399e+001
4.957255e+002, 5.647536e+001
4.962076e+002, 5.624490e+001
4.966897e+002, 5.634013e+001
4.971718e+002, 5.650224e+001
4.976539e+002, 5.645641e+001
4.981360e+002, 5.625546e+001
4.986182e+002, 5.610192e+001
4.991003e+002, 5.616965e+001
4.995824e+002, 5.627724e+001
5.000645e+002, 5.628591e+001
5.005466e+002, 5.615240e+001
5.010287e+002, 5.604536e+001
5.015109e+002, 5.603205e+001
5.019930e+002, 5.605968e+001
5.024751e+002, 5.607589e+001
5.029572e+002, 5.617658e+001
5.034393e+002, 5.613672e+001
5.039214e+002, 5.582011e+001
5.044036e+002, 5.533924e+001
5.048857e+002, 5.508955e+001
5.053678e+002, 5.517341e+001
5.058499e+002, 5.531055e+001
5.063320e+002, 5.541229e+001
5.068141e+002, 5.548323e+001
5.072963e+002, 5.542939e+001
5.077784e+002, 5.520903e+001
5.082605e+002, 5.497369e+001
5.087426e+002, 5.490791e+001
5.092247e+002, 5.499675e+001
5.097068e+002, 5.499526e+001
5.101890e+002, 5.482084e+001
5.106711e+002, 5.460610e+001
5.111532e+002, 5.464879e+001
5.116353e+002, 5.488213e+001
5.121174e+002, 5.498723e+001
5.125995e+002, 5.469568e+001
5.130817e+002, 5.424107e+001
5.135638e+002, 5.388047e+001
5.140459e+002, 5.362011e+001
5.145280e+002, 5.342632e+001
5.150101e+002, 5.327552e+001
5.154922e+002, 5.318260e+001
5.159744e+002, 5.317993e+001
5.164565e+002, 5.335796e+001
5.169386e+002, 5.345987e+001
5.174207e+002, 5.338842e+001
5.179028e+002, 5.319118e+001
5.183849e+002, 5.294587e+001
5.188671e+002, 5.252749e+001
5.193492e+002, 5.221128e+001
5.198313e+002, 5.206810e+001
5.203134e+002, 5.208989e+001
5.207955e+002, 5.215664e+001
5.212776e+002, 5.233624e+001
5.217598e+002, 5.245943e+001
5.222419e+002, 5.240302e+001
5.227240e+002, 5.211663e+001
5.232061e+002, 5.192020e+001
5.236882e+002, 5.183189e+001
5.241703e+002, 5.180325e+001
5.246525e+002, 5.179226e+001
5.251346e+002, 5.179575e+001
5.256167e+002, 5.175777e+001
5.260988e+002, 5.166219e+001
5.265809e+002, 5.151989e+001
5.270630e+002, 5.131088e+001
5.275452e+002, 5.105526e+001
5.280273e+002, 5.086078e+001
5.285094e+002, 5.085645e+001
5.289915e+002, 5.091248e+001
5.294736e+002, 5.087375e+001
5.299557e+002, 5.072592e+001
5.304379e+002, 5.056532e+001
5.309200e+002, 5.041886e+001
5.314021e+002, 5.030047e+001
5.318842e+002, 5.023146e+001
5.323663e+002, 5.033601e+001
5.328484e+002, 5.031746e+001
5.333306e+002, 4.993734e+001
5.338127e+002, 4.939438e+001
5.342948e+002, 4.912196e+001
5.347769e+002, 4.946540e+001
5.352590e+002, 4.971734e+001
5.357411e+002, 4.968206e+001
5.362233e+002, 4.937128e+001
5.367054e+002, 4.916375e+001
5.371875e+002, 4.909841e+001
5.376696e+002, 4.906629e+001
5.381517e+002, 4.901294e+001
5.386339e+002, 4.894279e+001
5.391160e+002, 4.878187e+001
5.395981e+002, 4.849450e+001
5.400802e+002, 4.820868e+001
5.405623e+002, 4.815123e+001
5.410444e+002, 4.826967e+001
5.415266e+002, 4.824923e+001
5.420087e+002, 4.789988e+001
5.424908e+002, 4.746902e+001
5.429729e+002, 4.731923e+001
5.434550e+002, 4.740588e+001
5.439371e+002, 4.754478e+001
5.444193e+002, 4.773885e+001
5.449014e+002, 4.787049e+001
5.453835e+002, 4.777225e+001
5.458656e+002, 4.741376e+001
5.463477e+002, 4.718363e+001
5.468298e+002, 4.745405e+001
5.473120e+002, 4.779882e+001
5.477941e+002, 4.786061e+001
5.482762e+002, 4.724405e+001
5.487583e+002, 4.680922e+001
5.492404e+002, 4.674752e+001
5.497225e+002, 4.686586e+001
5.502047e+002, 4.682656e+001
5.506868e+002, 4.651234e+001
5.511689e+002, 4.626981e+001
5.516510e+002, 4.621108e+001
5.521331e+002, 4.630201e+001
5.526152e+002, 4.631297e+001
5.530974e+002, 4.622884e+001
5.535795e+002, 4.614286e+001
5.540616e+002, 4.616690e+001
5.545437e+002, 4.626151e+001
5.550258e+002, 4.613848e+001
5.555079e+002, 4.574895e+001
5.559901e+002, 4.538203e+001
5.564722e+002, 4.540249e+001
5.569543e+002, 4.566089e+001
5.574364e+002, 4.585017e+001
5.579185e+002, 4.588327e+001
5.584006e+002, 4.581673e+001
5.588828e+002, 4.564780e+001
5.593649e+002, 4.541336e+001
5.598470e+002, 4.519568e+001
5.603291e+002, 4.500900e+001
5.608112e+002, 4.486182e+001
5.612933e+002, 4.476816e+001
5.617755e+002, 4.472778e+001
5.622576e+002, 4.468119e+001
5.627397e+002, 4.459239e+001
5.632218e+002, 4.451816e+001
5.637039e+002, 4.449646e+001
5.641860e+002, 4.458210e+001
5.646682e+002, 4.457372e+001
5.651503e+002, 4.444768e+001
5.656324e+002, 4.425832e+001
5.661145e+002, 4.404773e+001
5.665966e+002, 4.380142e+001
5.670787e+002, 4.367541e+001
5.675609e+002, 4.374107e+001
5.680430e+002, 4.389972e+001
5.685251e+002, 4.393359e+001
5.690072e+002, 4.385613e+001
5.694893e+002, 4.376942e+001
5.699714e+002, 4.377680e+001
5.704536e+002, 4.378567e+001
5.709357e+002, 4.362319e+001
5.714178e+002, 4.329966e+001
5.718999e+002, 4.300577e+001
5.723820e+002, 4.280278e+001
5.728641e+002, 4.272217e+001
5.733463e+002, 4.284139e+001
5.738284e+002, 4.330436e+001
5.743105e+002, 4.360814e+001
5.747926e+002, 4.346238e+001
5.752747e+002, 4.312476e+001
5.757568e+002, 4.292100e+001
5.762390e+002, 4.300039e+001
5.767211e+002, 4.304875e+001
5.772032e+002, 4.304094e+001
5.776853e+002, 4.297611e+001
5.781674e+002, 4.281843e+001
5.786495e+002, 4.249503e+001
5.791317e+002, 4.229687e+001
5.796138e+002, 4.239241e+001
5.800959e+002, 4.273910e+001
5.805780e+002, 4.300438e+001
5.810601e+002, 4.319311e+001
5.815422e+002, 4.327325e+001
5.820244e+002, 4.317301e+001
5.825065e+002, 4.294724e+001
5.829886e+002, 4.271653e+001
5.834707e+002, 4.248259e+001
5.839528e+002, 4.230709e+001
5.844349e+002, 4.223551e+001
5.849171e+002, 4.225960e+001
5.853992e+002, 4.236967e+001
5.858813e+002, 4.273283e+001
5.863634e+002, 4.299617e+001
5.868455e+002, 4.292551e+001
5.873276e+002, 4.263515e+001
5.878098e+002, 4.243921e+001
5.882919e+002, 4.247272e+001
5.887740e+002, 4.253238e+001
5.892561e+002, 4.255528e+001
5.897382e+002, 4.254008e+001
5.902203e+002, 4.256672e+001
5.907025e+002, 4.267719e+001
5.911846e+002, 4.275344e+001
5.916667e+002, 4.268927e+001
5.921488e+002, 4.246864e+001
5.926309e+002, 4.234935e+001
5.931130e+002, 4.235530e+001
5.935952e+002, 4.240476e+001
5.940773e+002, 4.240847e+001
5.945594e+002, 4.237319e+001
5.950415e+002, 4.231183e+001
5.955236e+002, 4.219227e+001
5.960057e+002, 4.211689e+001
5.964879e+002, 4.228069e+001
5.969700e+002, 4.257976e+001
5.974521e+002, 4.276828e+001
5.979342e+002, 4.264094e+001
5.984163e+002, 4.245233e+001
5.988984e+002, 4.230927e+001
5.993806e+002, 4.221887e+001
5.998627e+002, 4.220795e+001
6.003448e+002, 4.240379e+001
6.008269e+002, 4.257600e+001
6.013090e+002, 4.259470e+001
6.017911e+002, 4.238930e+001
6.022733e+002, 4.232340e+001
6.027554e+002, 4.248668e+001
6.032375e+002, 4.266309e+001
6.037196e+002, 4.259869e+001
6.042017e+002, 4.225288e+001
6.046838e+002, 4.209888e+001
6.051660e+002, 4.222517e+001
6.056481e+002, 4.248473e+001
6.061302e+002, 4.269292e+001
6.066123e+002, 4.284013e+001
6.070944e+002, 4.287402e+001
6.075765e+002, 4.270324e+001
6.080587e+002, 4.248265e+001
6.085408e+002, 4.236895e+001
6.090229e+002, 4.235403e+001
6.095050e+002, 4.240501e+001
6.099871e+002, 4.258524e+001
6.104692e+002, 4.276126e+001
6.109514e+002, 4.283647e+001
6.114335e+002, 4.279883e+001
6.119156e+002, 4.278518e+001
6.123977e+002, 4.282253e+001
6.128798e+002, 4.289280e+001
6.133619e+002, 4.298869e+001
6.138441e+002, 4.313664e+001
6.143262e+002, 4.324764e+001
6.148083e+002, 4.331024e+001
6.152904e+002, 4.335331e+001
6.157725e+002, 4.344786e+001
6.162546e+002, 4.360615e+001
6.167368e+002, 4.357200e+001
6.172189e+002, 4.320973e+001
6.177010e+002, 4.278173e+001
6.181831e+002, 4.282447e+001
6.186652e+002, 4.323751e+001
6.191473e+002, 4.362162e+001
6.196295e+002, 4.377630e+001
6.201116e+002, 4.380964e+001
6.205937e+002, 4.380841e+001
6.210758e+002, 4.377593e+001
6.215579e+002, 4.372605e+001
6.220400e+002, 4.358874e+001
6.225222e+002, 4.349775e+001
6.230043e+002, 4.358546e+001
6.234864e+002, 4.392879e+001
6.239685e+002, 4.406393e+001
6.244506e+002, 4.373182e+001
6.249327e+002, 4.335735e+001
6.254149e+002, 4.323264e+001
6.258970e+002, 4.346685e+001
6.263791e+002, 4.360717e+001
6.268612e+002, 4.358678e+001
6.273433e+002, 4.355678e+001
6.278254e+002, 4.380812e+001
6.283076e+002, 4.431993e+001
6.287897e+002, 4.461369e+001
6.292718e+002, 4.448604e+001
6.297539e+002, 4.422154e+001
6.302360e+002, 4.432541e+001
6.307181e+002, 4.468563e+001
6.312003e+002, 4.494596e+001
6.316824e+002, 4.484971e+001
6.321645e+002, 4.464547e+001
6.326466e+002, 4.450545e+001
6.331287e+002, 4.442568e+001
6.336108e+002, 4.435894e+001
6.340930e+002, 4.416499e+001
6.345751e+002, 4.408273e+001
6.350572e+002, 4.429890e+001
6.355393e+002, 4.491954e+001
6.360214e+002, 4.530132e+001
6.365035e+002, 4.531268e+001
6.369857e+002, 4.524564e+001
6.374678e+002, 4.534993e+001
6.379499e+002, 4.567112e+001
6.384320e+002, 4.581453e+001
6.389141e+002, 4.572515e+001
6.393962e+002, 4.553879e+001
6.398784e+002, 4.537733e+001
6.403605e+002, 4.526165e+001
6.408426e+002, 4.529004e+001
6.413247e+002, 4.553661e+001
6.418068e+002, 4.585234e+001
6.422889e+002, 4.612069e+001
6.427711e+002, 4.633419e+001
6.432532e+002, 4.648246e+001
6.437353e+002, 4.658372e+001
6.442174e+002, 4.659473e+001
6.446995e+002, 4.639188e+001
6.451816e+002, 4.603184e+001
6.456638e+002, 4.588172e+001
6.461459e+002, 4.618038e+001
6.466280e+002, 4.651215e+001
6.471101e+002, 4.674620e+001
6.475922e+002, 4.687505e+001
6.480743e+002, 4.700906e+001
6.485565e+002, 4.716226e+001
6.490386e+002, 4.727985e+001
6.495207e+002, 4.726682e+001
6.500028e+002, 4.715017e+001
6.504849e+002, 4.720972e+001
6.509670e+002, 4.748775e+001
6.514492e+002, 4.777830e+001
6.519313e+002, 4.780989e+001
6.524134e+002, 4.770440e+001
6.528955e+002, 4.769031e+001
6.533776e+002, 4.783686e+001
6.538597e+002, 4.805907e+001
6.543419e+002, 4.841812e+001
6.548240e+002, 4.879205e+001
6.553061e+002, 4.898748e+001
6.557882e+002, 4.879454e+001
6.562703e+002, 4.859921e+001
6.567524e+002, 4.839104e+001
6.572346e+002, 4.824226e+001
6.577167e+002, 4.841830e+001
6.581988e+002, 4.910440e+001
6.586809e+002, 4.969218e+001
6.591630e+002, 4.993888e+001
6.596451e+002, 4.991306e+001
6.601273e+002, 5.004845e+001
6.606094e+002, 5.035758e+001
6.610915e+002, 5.060164e+001
6.615736e+002, 5.054044e+001
6.620557e+002, 5.032600e+001
6.625378e+002, 5.023761e+001
6.630200e+002, 5.028973e+001
6.635021e+002, 5.045928e+001
6.639842e+002, 5.086444e+001
6.644663e+002, 5.130428e+001
6.649484e+002, 5.155884e+001
6.654305e+002, 5.149812e+001
6.659127e+002, 5.153176e+001
6.663948e+002, 5.187316e+001
6.668769e+002, 5.229530e+001
6.673590e+002, 5.256159e+001
6.678411e+002, 5.255973e+001
6.683232e+002, 5.263910e+001
6.688054e+002, 5.285677e+001
6.692875e+002, 5.313110e+001
6.697696e+002, 5.334969e+001
6.702517e+002, 5.351399e+001
6.707338e+002, 5.350764e+001
6.712159e+002, 5.318965e+001
6.716981e+002, 5.282307e+001
6.721802e+002, 5.295557e+001
6.726623e+002, 5.346012e+001
6.731444e+002, 5.388615e+001
6.736265e+002, 5.392448e+001
6.741086e+002, 5.385278e+001
6.745908e+002, 5.387452e+001
6.750729e+002, 5.397566e+001
6.755550e+002, 5.403135e+001
6.760371e+002, 5.393133e+001
6.765192e+002, 5.384338e+001
6.770013e+002, 5.385152e+001
6.774835e+002, 5.396717e+001
6.779656e+002, 5.404225e+001
6.784477e+002, 5.400702e+001
6.789298e+002, 5.405875e+001
6.794119e+002, 5.425117e+001
6.798940e+002, 5.458719e+001
6.803762e+002, 5.568276e+001
6.808583e+002, 5.774507e+001
6.813404e+002, 5.945625e+001
6.818225e+002, 5.900658e+001
6.823046e+002, 5.728443e+001
6.827867e+002, 5.615637e+001
6.832689e+002, 5.612439e+001
6.837510e+002, 5.635930e+001
6.842331e+002, 5.632423e+001
6.847152e+002, 5.618482e+001
6.851973e+002, 5.615253e+001
6.856794e+002, 5.640306e+001
6.861616e+002, 5.662260e+001
6.866437e+002, 5.667955e+001
6.871258e+002, 5.669197e+001
6.876079e+002, 5.689896e+001
6.880900e+002, 5.741690e+001
6.885721e+002, 5.781340e+001
6.890543e+002, 5.795509e+001
6.895364e+002, 5.792165e+001
6.900185e+002, 5.794029e+001
6.905006e+002, 5.800903e+001
6.909827e+002, 5.808178e+001
6.914648e+002, 5.812477e+001
6.919470e+002, 5.816271e+001
6.924291e+002, 5.820206e+001
6.929112e+002, 5.825837e+001
6.933933e+002, 5.841752e+001
6.938754e+002, 5.886855e+001
6.943575e+002, 5.932902e+001
6.948397e+002, 5.959763e+001
6.953218e+002, 5.964503e+001
6.958039e+002, 5.971306e+001
6.962860e+002, 5.988765e+001
6.967681e+002, 6.004315e+001
6.972502e+002, 6.010059e+001
6.977324e+002, 6.002120e+001
6.982145e+002, 6.004784e+001
6.986966e+002, 6.020330e+001
6.991787e+002, 6.040162e+001
6.996608e+002, 6.053597e+001
7.001429e+002, 6.063198e+001
7.006251e+002, 6.085107e+001
7.011072e+002, 6.123671e+001
7.015893e+002, 6.161333e+001
7.020714e+002, 6.173117e+001
7.025535e+002, 6.175014e+001
7.030356e+002, 6.191109e+001
7.035178e+002, 6.234234e+001
7.039999e+002, 6.281504e+001
7.044820e+002, 6.334535e+001
7.049641e+002, 6.383229e+001
7.054462e+002, 6.411581e+001
7.059283e+002, 6.404913e+001
7.064105e+002, 6.400764e+001
7.068926e+002, 6.403169e+001
7.073747e+002, 6.411193e+001
7.078568e+002, 6.420323e+001
7.083389e+002, 6.429713e+001
7.088210e+002, 6.452850e+001
7.093032e+002, 6.498788e+001
7.097853e+002, 6.557268e+001
7.102674e+002, 6.612224e+001
7.107495e+002, 6.662466e+001
7.112316e+002, 6.700797e+001
7.117137e+002, 6.714110e+001
7.121959e+002, 6.721712e+001
7.126780e+002, 6.732807e+001
7.131601e+002, 6.749056e+001
7.136422e+002, 6.777961e+001
7.141243e+002, 6.844348e+001
7.146064e+002, 6.901664e+001
7.150886e+002, 6.923313e+001
7.155707e+002, 6.907625e+001
7.160528e+002, 6.929964e+001
7.165349e+002, 7.007110e+001
7.170170e+002, 7.080007e+001
7.174991e+002, 7.099309e+001
7.179813e+002, 7.074895e+001
7.184634e+002, 7.093315e+001
7.189455e+002, 7.158086e+001
7.194276e+002, 7.227980e+001
7.199097e+002, 7.266357e+001
7.203918e+002, 7.288994e+001
7.208740e+002, 7.314411e+001
7.213561e+002, 7.345002e+001
7.218382e+002, 7.382239e+001
7.223203e+002, 7.427229e+001
7.228024e+002, 7.479251e+001
7.232845e+002, 7.539513e+001
7.237667e+002, 7.630199e+001
7.242488e+002, 7.688052e+001
7.247309e+002, 7.695646e+001
7.252130e+002, 7.689483e+001
7.256951e+002, 7.714110e+001
7.261772e+002, 7.771556e+001
7.266594e+002, 7.827872e+001
7.271415e+002, 7.878514e+001
7.276236e+002, 7.922274e+001
7.281057e+002, 7.951927e+001
7.285878e+002, 7.973443e+001
7.290699e+002, 8.003390e+001
7.295521e+002, 8.053304e+001
7.300342e+002, 8.103502e+001
7.305163e+002, 8.136952e+001
7.309984e+002, 8.162228e+001
7.314805e+002, 8.194587e+001
7.319626e+002, 8.247095e+001
7.324448e+002, 8.295802e+001
7.329269e+002, 8.334527e+001
7.334090e+002, 8.367212e+001
7.338911e+002, 8.406048e+001
7.343732e+002, 8.455141e+001
7.348553e+002, 8.490115e+001
7.353375e+002, 8.494027e+001
7.358196e+002, 8.486153e+001
7.363017e+002, 8.523521e+001
7.367838e+002, 8.599284e+001
7.372659e+002, 8.671629e+001
7.377480e+002, 8.720865e+001
7.382302e+002, 8.753812e+001
7.387123e+002, 8.768694e+001
7.391944e+002, 8.770522e+001
7.396765e+002, 8.782737e+001
7.401586e+002, 8.828884e+001
7.406407e+002, 8.873118e+001
7.411229e+002, 8.893851e+001
7.416050e+002, 8.892832e+001
7.420871e+002, 8.911087e+001
7.425692e+002, 8.956046e+001
7.430513e+002, 9.002924e+001
7.435334e+002, 9.034486e+001
7.440156e+002, 9.054711e+001
7.444977e+002, 9.096564e+001
7.449798e+002, 9.160159e+001
7.454619e+002, 9.233527e+001
7.459440e+002, 9.322007e+001
7.464261e+002, 9.406437e+001
7.469083e+002, 9.455985e+001
7.473904e+002, 9.467366e+001
7.478725e+002, 9.486282e+001
7.483546e+002, 9.534530e+001
7.488367e+002, 9.596941e+001
7.493188e+002, 9.664790e+001
7.498010e+002, 9.736460e+001
7.502831e+002, 9.813132e+001
7.507652e+002, 9.901015e+001
7.512473e+002, 9.984213e+001
7.517294e+002, 1.004496e+002
7.522115e+002, 1.008329e+002
7.526937e+002, 1.014403e+002
7.531758e+002, 1.023227e+002
7.536579e+002, 1.032832e+002
7.541400e+002, 1.040947e+002
7.546221e+002, 1.048561e+002
7.551042e+002, 1.057810e+002
7.555864e+002, 1.069636e+002
7.560685e+002, 1.080582e+002
7.565506e+002, 1.086726e+002
7.570327e+002, 1.092098e+002
7.575148e+002, 1.100542e+002
7.579969e+002, 1.114011e+002
7.584791e+002, 1.128869e+002
7.589612e+002, 1.146251e+002
7.594433e+002, 1.163758e+002
7.599254e+002, 1.177375e+002
7.604075e+002, 1.186936e+002
7.608896e+002, 1.199000e+002
7.613718e+002, 1.214902e+002
7.618539e+002, 1.232475e+002
7.623360e+002, 1.249022e+002
7.628181e+002, 1.265067e+002
7.633002e+002, 1.281554e+002
7.637823e+002, 1.298482e+002
7.642645e+002, 1.316790e+002
7.647466e+002, 1.337912e+002
7.652287e+002, 1.360369e+002
7.657108e+002, 1.382540e+002
7.661929e+002, 1.402778e+002
7.666750e+002, 1.424521e+002
7.671572e+002, 1.448186e+002
7.676393e+002, 1.473329e+002
7.681214e+002, 1.499799e+002
7.686035e+002, 1.527689e+002
7.690856e+002, 1.555566e+002
7.695677e+002, 1.583459e+002
7.700499e+002, 1.610867e+002
7.705320e+002, 1.636277e+002
7.710141e+002, 1.660542e+002
7.714962e+002, 1.685878e+002
7.719783e+002, 1.714234e+002
7.724604e+002, 1.742926e+002
7.729426e+002, 1.771435e+002
7.734247e+002, 1.799026e+002
7.739068e+002, 1.823568e+002
7.743889e+002, 1.842585e+002
7.748710e+002, 1.861946e+002
7.753531e+002, 1.883529e+002
7.758353e+002, 1.905708e+002
7.763174e+002, 1.924033e+002
7.767995e+002, 1.938336e+002
7.772816e+002, 1.949434e+002
7.777637e+002, 1.956550e+002
7.782458e+002, 1.961811e+002
7.787280e+002, 1.969334e+002
7.792101e+002, 1.978176e+002
7.796922e+002, 1.985150e+002
7.801743e+002, 1.989221e+002
7.806564e+002, 1.990651e+002
7.811385e+002, 1.987828e+002
7.816207e+002, 1.982057e+002
7.821028e+002, 1.979058e+002
7.825849e+002, 1.980239e+002
7.830670e+002, 1.982513e+002
7.835491e+002, 1.986018e+002
7.840313e+002, 1.989751e+002
7.845134e+002, 1.989018e+002
7.849955e+002, 1.983713e+002
7.854776e+002, 1.979031e+002
7.859597e+002, 1.978144e+002
7.864418e+002, 1.978740e+002
7.869240e+002, 1.976475e+002
7.874061e+002, 1.972320e+002
7.878882e+002, 1.969903e+002
7.883703e+002, 1.970454e+002
7.888524e+002, 1.973815e+002
7.893345e+002, 1.982633e+002
7.898167e+002, 1.995514e+002
7.902988e+002, 2.001204e+002
7.907809e+002, 1.993959e+002
7.912630e+002, 1.989981e+002
7.917451e+002, 1.995291e+002
7.922272e+002, 2.008094e+002
7.927094e+002, 2.022696e+002
7.931915e+002, 2.038802e+002
7.936736e+002, 2.051636e+002
7.941557e+002, 2.053993e+002
7.946378e+002, 2.054153e+002
7.951199e+002, 2.064194e+002
7.956021e+002, 2.081924e+002
7.960842e+002, 2.097725e+002
7.965663e+002, 2.102307e+002
7.970484e+002, 2.108804e+002
7.975305e+002, 2.125147e+002
7.980126e+002, 2.149810e+002
7.984948e+002, 2.169040e+002
7.989769e+002, 2.179306e+002
7.994590e+002, 2.192866e+002
7.999411e+002, 2.216289e+002
8.004232e+002, 2.246608e+002
8.009053e+002, 2.270383e+002
8.013875e+002, 2.288289e+002
8.018696e+002, 2.306863e+002
8.023517e+002, 2.331071e+002
8.028338e+002, 2.357472e+002
8.033159e+002, 2.381772e+002
8.037980e+002, 2.404707e+002
8.042802e+002, 2.430512e+002
8.047623e+002, 2.461242e+002
8.052444e+002, 2.494422e+002
8.057265e+002, 2.529281e+002
8.062086e+002, 2.565623e+002
8.066907e+002, 2.601410e+002
8.071729e+002, 2.635773e+002
8.076550e+002, 2.673727e+002
8.081371e+002, 2.718957e+002
8.086192e+002, 2.769280e+002
8.091013e+002, 2.818422e+002
8.095834e+002, 2.867021e+002
8.100656e+002, 2.918736e+002
8.105477e+002, 2.972527e+002
8.110298e+002, 3.032950e+002
8.115119e+002, 3.104364e+002
8.119940e+002, 3.186262e+002
8.124761e+002, 3.273790e+002
8.129583e+002, 3.365277e+002
8.134404e+002, 3.463643e+002
8.139225e+002, 3.570032e+002
8.144046e+002, 3.683708e+002
8.148867e+002, 3.803826e+002
8.153688e+002, 3.928907e+002
8.158510e+002, 4.070605e+002
8.163331e+002, 4.235176e+002
8.168152e+002, 4.420437e+002
8.172973e+002, 4.621398e+002
8.177794e+002, 4.838254e+002
8.182615e+002, 5.069964e+002
8.187437e+002, 5.308097e+002
8.192258e+002, 5.565305e+002
8.197079e+002, 5.845903e+002
8.201900e+002, 6.153881e+002
8.206721e+002, 6.491569e+002
8.211542e+002, 6.863251e+002
8.216364e+002, 7.258759e+002
8.221185e+002, 7.677716e+002
8.226006e+002, 8.114875e+002
8.230827e+002, 8.576216e+002
8.235648e+002, 9.059627e+002
8.240469e+002, 9.580066e+002
8.245291e+002, 1.014719e+003
8.250112e+002, 1.075204e+003
8.254933e+002, 1.140301e+003
8.259754e+002, 1.209164e+003
8.264575e+002, 1.279859e+003
8.269396e+002, 1.350171e+003
8.274218e+002, 1.424167e+003
8.279039e+002, 1.502023e+003
8.283860e+002, 1.584140e+003
8.288681e+002, 1.670164e+003
8.293502e+002, 1.761715e+003
8.298323e+002, 1.852205e+003
8.303145e+002, 1.939779e+003
8.307966e+002, 2.024792e+003
8.312787e+002, 2.107982e+003
8.317608e+002, 2.189574e+003
8.322429e+002, 2.267554e+003
8.327250e+002, 2.344824e+003
8.332072e+002, 2.415655e+003
8.336893e+002, 2.479069e+003
8.341714e+002, 2.533851e+003
8.346535e+002, 2.576234e+003
8.351356e+002, 2.606865e+003
8.356177e+002, 2.625587e+003
8.360999e+002, 2.632853e+003
8.365820e+002, 2.627942e+003
8.370641e+002, 2.608838e+003
8.375462e+002, 2.575798e+003
8.380283e+002, 2.531566e+003
8.385104e+002, 2.476224e+003
8.389926e+002, 2.411469e+003
8.394747e+002, 2.337741e+003
8.399568e+002, 2.256524e+003
8.404389e+002, 2.169228e+003
8.409210e+002, 2.073871e+003
8.414031e+002, 1.975955e+003
8.418853e+002, 1.874853e+003
8.423674e+002, 1.773473e+003
8.428495e+002, 1.676520e+003
8.433316e+002, 1.584504e+003
8.438137e+002, 1.494153e+003
8.442958e+002, 1.404563e+003
8.447780e+002, 1.317475e+003
8.452601e+002, 1.234373e+003
8.457422e+002, 1.156194e+003
8.462243e+002, 1.083235e+003
8.467064e+002, 1.015682e+003
8.471885e+002, 9.533824e+002
8.476707e+002, 8.969706e+002
8.481528e+002, 8.454480e+002
8.486349e+002, 7.976780e+002
8.491170e+002, 7.542023e+002
8.495991e+002, 7.138342e+002
8.500812e+002, 6.765330e+002
8.505634e+002, 6.423285e+002
8.510455e+002, 6.108682e+002
8.515276e+002, 5.821246e+002
8.520097e+002, 5.560541e+002
8.524918e+002, 5.326655e+002
8.529739e+002, 5.111696e+002
8.534561e+002, 4.911477e+002
8.539382e+002, 4.723775e+002
8.544203e+002, 4.546823e+002
8.549024e+002, 4.378885e+002
8.553845e+002, 4.225076e+002
8.558666e+002, 4.086190e+002
8.563488e+002, 3.959084e+002
8.568309e+002, 3.845051e+002
8.573130e+002, 3.743391e+002
8.577951e+002, 3.652440e+002
8.582772e+002, 3.573956e+002
8.587593e+002, 3.498902e+002
8.592415e+002, 3.415731e+002
8.597236e+002, 3.332595e+002
8.602057e+002, 3.262806e+002
8.606878e+002, 3.207797e+002
8.611699e+002, 3.156806e+002
8.616520e+002, 3.101190e+002
8.621342e+002, 3.050331e+002
8.626163e+002, 3.011423e+002
8.630984e+002, 2.984987e+002
8.635805e+002, 2.956378e+002
8.640626e+002, 2.924523e+002
8.645447e+002, 2.894319e+002
8.650269e+002, 2.869404e+002
8.655090e+002, 2.848181e+002
8.659911e+002, 2.824954e+002
8.664732e+002, 2.800460e+002
8.669553e+002, 2.778925e+002
8.674374e+002, 2.762221e+002
8.679196e+002, 2.750270e+002
8.684017e+002, 2.746292e+002
8.688838e+002, 2.748658e+002
8.693659e+002, 2.745475e+002
8.698480e+002, 2.729583e+002
8.703301e+002, 2.718470e+002
8.708123e+002, 2.717554e+002
8.712944e+002, 2.724727e+002
8.717765e+002, 2.733270e+002
8.722586e+002, 2.743089e+002
8.727407e+002, 2.754920e+002
8.732228e+002, 2.769559e+002
8.737050e+002, 2.785612e+002
8.741871e+002, 2.800565e+002
8.746692e+002, 2.815869e+002
8.751513e+002, 2.834979e+002
8.756334e+002, 2.858770e+002
8.761155e+002, 2.886977e+002
8.765977e+002, 2.920339e+002
8.770798e+002, 2.957375e+002
8.775619e+002, 2.995547e+002
8.780440e+002, 3.034859e+002
8.785261e+002, 3.075503e+002
8.790082e+002, 3.118192e+002
8.794904e+002, 3.161855e+002
8.799725e+002, 3.205792e+002
8.804546e+002, 3.250364e+002
8.809367e+002, 3.295983e+002
8.814188e+002, 3.341824e+002
8.819009e+002, 3.390771e+002
8.823831e+002, 3.446434e+002
8.828652e+002, 3.504572e+002
8.833473e+002, 3.560070e+002
8.838294e+002, 3.614123e+002
8.843115e+002, 3.663490e+002
8.847936e+002, 3.708299e+002
8.852758e+002, 3.747722e+002
8.857579e+002, 3.785264e+002
8.862400e+002, 3.815977e+002
8.867221e+002, 3.828938e+002
8.872042e+002, 3.822653e+002
8.876863e+002, 3.799818e+002
8.881685e+002, 3.760346e+002
8.886506e+002, 3.706054e+002
8.891327e+002, 3.637723e+002
8.896148e+002, 3.555340e+002
8.900969e+002, 3.457518e+002
8.905790e+002, 3.340903e+002
8.910612e+002, 3.214619e+002
8.915433e+002, 3.079725e+002
8.920254e+002, 2.939514e+002
8.925075e+002, 2.807293e+002
8.929896e+002, 2.682487e+002
8.934717e+002, 2.565461e+002
8.939539e+002, 2.452300e+002
8.944360e+002, 2.348681e+002
8.949181e+002, 2.259495e+002
8.954002e+002, 2.183321e+002
8.958823e+002, 2.114626e+002
8.963644e+002, 2.051239e+002
8.968466e+002, 1.996965e+002
8.973287e+002, 1.953838e+002
8.978108e+002, 1.919131e+002
8.982929e+002, 1.884550e+002
8.987750e+002, 1.850669e+002
8.992571e+002, 1.820197e+002
8.997393e+002, 1.795159e+002
9.002214e+002, 1.772459e+002
9.007035e+002, 1.749050e+002
9.011856e+002, 1.726513e+002
9.016677e+002, 1.708001e+002
9.021498e+002, 1.696997e+002
9.026320e+002, 1.686117e+002
9.031141e+002, 1.675588e+002
9.035962e+002, 1.664028e+002
9.040783e+002, 1.649616e+002
9.045604e+002, 1.632362e+002
9.050425e+002, 1.613840e+002
9.055247e+002, 1.594094e+002
9.060068e+002, 1.574240e+002
9.064889e+002, 1.556075e+002
9.069710e+002, 1.538014e+002
9.074531e+002, 1.518252e+002
9.079352e+002, 1.495916e+002
9.084174e+002, 1.473367e+002
9.088995e+002, 1.449753e+002
9.093816e+002, 1.427339e+002
9.098637e+002, 1.408090e+002
9.103458e+002, 1.391762e+002
9.108279e+002, 1.375376e+002
9.113101e+002, 1.358920e+002
9.117922e+002, 1.342708e+002
9.122743e+002, 1.327108e+002
9.127564e+002, 1.311763e+002
9.132385e+002, 1.295959e+002
9.137206e+002, 1.279864e+002
9.142028e+002, 1.264839e+002
9.146849e+002, 1.251966e+002
9.151670e+002, 1.239510e+002
9.156491e+002, 1.227136e+002
9.161312e+002, 1.214771e+002
9.166133e+002, 1.202041e+002
9.170955e+002, 1.188901e+002
9.175776e+002, 1.175801e+002
9.180597e+002, 1.162633e+002
9.185418e+002, 1.149818e+002
9.190239e+002, 1.137056e+002
9.195060e+002, 1.125121e+002
9.199882e+002, 1.115674e+002
9.204703e+002, 1.111972e+002
9.209524e+002, 1.107044e+002
9.214345e+002, 1.099053e+002
9.219166e+002, 1.089933e+002
9.223987e+002, 1.082220e+002
9.228809e+002, 1.076008e+002
9.233630e+002, 1.068794e+002
9.238451e+002, 1.060069e+002
9.243272e+002, 1.051325e+002
9.248093e+002, 1.044853e+002
9.252914e+002, 1.039072e+002
9.257736e+002, 1.031760e+002
9.262557e+002, 1.022223e+002
9.267378e+002, 1.013346e+002
9.272199e+002, 1.006645e+002
9.277020e+002, 1.000294e+002
9.281841e+002, 9.929366e+001
9.286663e+002, 9.846206e+001
9.291484e+002, 9.798447e+001
9.296305e+002, 9.787169e+001
9.301126e+002, 9.779785e+001
9.305947e+002, 9.766814e+001
9.310768e+002, 9.738171e+001
9.315590e+002, 9.670383e+001
9.320411e+002, 9.572313e+001
9.325232e+002, 9.485188e+001
9.330053e+002, 9.420704e+001
9.334874e+002, 9.370375e+001
9.339695e+002, 9.334123e+001
9.344517e+002, 9.308028e+001
9.349338e+002, 9.282593e+001
9.354159e+002, 9.258082e+001
9.358980e+002, 9.235035e+001
9.363801e+002, 9.218302e+001
9.368622e+002, 9.192245e+001
9.373444e+002, 9.121273e+001
9.378265e+002, 9.035312e+001
9.383086e+002, 8.978719e+001
9.387907e+002, 8.976951e+001
9.392728e+002, 8.980117e+001
9.397549e+002, 8.995989e+001
9.402371e+002, 8.997817e+001
9.407192e+002, 8.951659e+001
9.412013e+002, 8.855085e+001
9.416834e+002, 8.806226e+001
9.421655e+002, 8.810486e+001
9.426476e+002, 8.818882e+001
9.431298e+002, 8.773575e+001
9.436119e+002, 8.721785e+001
9.440940e+002, 8.726002e+001
9.445761e+002, 8.786855e+001
9.450582e+002, 8.821166e+001
9.455403e+002, 8.788570e+001
9.460225e+002, 8.751681e+001
9.465046e+002, 8.731192e+001
9.469867e+002, 8.721164e+001
9.474688e+002, 8.692496e+001
9.479509e+002, 8.647108e+001
9.484330e+002, 8.608679e+001
9.489152e+002, 8.585416e+001
9.493973e+002, 8.575838e+001
9.498794e+002, 8.596375e+001
9.503615e+002, 8.625521e+001
9.508436e+002, 8.625110e+001
9.513257e+002, 8.534119e+001
9.518079e+002, 8.491222e+001
9.522900e+002, 8.527874e+001
9.527721e+002, 8.582204e+001
9.532542e+002, 8.576131e+001
9.537363e+002, 8.517155e+001
9.542184e+002, 8.454973e+001
9.547006e+002, 8.393163e+001
9.551827e+002, 8.353101e+001
9.556648e+002, 8.383171e+001
9.561469e+002, 8.420393e+001
9.566290e+002, 8.403622e+001
9.571111e+002, 8.319186e+001
9.575933e+002, 8.248499e+001
9.580754e+002, 8.196476e+001
9.585575e+002, 8.155860e+001
9.590396e+002, 8.133686e+001
9.595217e+002, 8.117027e+001
9.600038e+002, 8.045904e+001
9.604860e+002, 7.932226e+001
9.609681e+002, 7.837661e+001
9.614502e+002, 7.812645e+001
9.619323e+002, 7.799393e+001
9.624144e+002, 7.770499e+001
9.628965e+002, 7.727991e+001
9.633787e+002, 7.677613e+001
9.638608e+002, 7.617004e+001
9.643429e+002, 7.553177e+001
9.648250e+002, 7.482903e+001
9.653071e+002, 7.418009e+001
9.657892e+002, 7.374193e+001
9.662714e+002, 7.349275e+001
9.667535e+002, 7.342932e+001
9.672356e+002, 7.358805e+001
9.677177e+002, 7.364938e+001
9.681998e+002, 7.348020e+001
9.686819e+002, 7.310973e+001
9.691641e+002, 7.249989e+001
9.696462e+002, 7.162155e+001
9.701283e+002, 7.093977e+001
9.706104e+002, 7.045244e+001
9.710925e+002, 7.012196e+001
9.715746e+002, 6.996090e+001
9.720568e+002, 6.991724e+001
9.725389e+002, 6.999947e+001
9.730210e+002, 7.012972e+001
9.735031e+002, 7.004832e+001
9.739852e+002, 6.932277e+001
9.744673e+002, 6.876258e+001
9.749495e+002, 6.869090e+001
9.754316e+002, 6.886754e+001
9.759137e+002, 6.890990e+001
9.763958e+002, 6.881466e+001
9.768779e+002, 6.865864e+001
9.773600e+002, 6.844986e+001
9.778422e+002, 6.820798e+001
9.783243e+002, 6.790743e+001
9.788064e+002, 6.760681e+001
9.792885e+002, 6.740961e+001
9.797706e+002, 6.737321e+001
9.802527e+002, 6.722415e+001
9.807349e+002, 6.679905e+001
9.812170e+002, 6.641787e+001
9.816991e+002, 6.629323e+001
9.821812e+002, 6.637656e+001
9.826633e+002, 6.626202e+001
9.831454e+002, 6.597149e+001
9.836276e+002, 6.575862e+001
9.841097e+002, 6.589052e+001
9.845918e+002, 6.604772e+001
9.850739e+002, 6.592140e+001
9.855560e+002, 6.563117e+001
9.860381e+002, 6.551234e+001
9.865203e+002, 6.565719e+001
9.870024e+002, 6.585172e+001
9.874845e+002, 6.614161e+001
9.879666e+002, 6.633232e+001
9.884487e+002, 6.597311e+001
9.889308e+002, 6.529118e+001
9.894130e+002, 6.500710e+001
9.898951e+002, 6.529921e+001
9.903772e+002, 6.554133e+001
9.908593e+002, 6.522289e+001
9.913414e+002, 6.483479e+001
9.918235e+002, 6.479637e+001
9.923057e+002, 6.513897e+001
9.927878e+002, 6.515126e+001
9.932699e+002, 6.477982e+001
9.937520e+002, 6.441145e+001
9.942341e+002, 6.426111e+001
9.947162e+002, 6.423766e+001
9.951984e+002, 6.417663e+001
9.956805e+002, 6.411260e+001
9.961626e+002, 6.414211e+001
9.966447e+002, 6.444028e+001
9.971268e+002, 6.465941e+001
9.976089e+002, 6.474704e+001
9.980911e+002, 6.470815e+001
9.985732e+002, 6.448679e+001
9.990553e+002, 6.408511e+001
9.995374e+002, 6.385964e+001
1.000020e+003, 6.386794e+001
1.000502e+003, 6.395897e+001
1.000984e+003, 6.412073e+001
1.001466e+003, 6.421413e+001
1.001948e+003, 6.402473e+001
1.002430e+003, 6.349266e+001
1.002912e+003, 6.322728e+001
1.003394e+003, 6.339909e+001
1.003876e+003, 6.357946e+001
1.004359e+003, 6.360297e+001
1.004841e+003, 6.350113e+001
1.005323e+003, 6.332206e+001
1.005805e+003, 6.309233e+001
1.006287e+003, 6.293151e+001
1.006769e+003, 6.304038e+001
1.007251e+003, 6.303364e+001
1.007733e+003, 6.254469e+001
1.008216e+003, 6.190089e+001
1.008698e+003, 6.157776e+001
1.009180e+003, 6.168057e+001
1.009662e+003, 6.169226e+001
1.010144e+003, 6.156873e+001
1.010626e+003, 6.144071e+001
1.011108e+003, 6.155029e+001
1.011590e+003, 6.168478e+001
1.012072e+003, 6.145197e+001
1.012555e+003, 6.084808e+001
1.013037e+003, 6.033816e+001
1.013519e+003, 6.016186e+001
1.014001e+003, 6.001656e+001
1.014483e+003, 5.978150e+001
1.014965e+003, 5.951107e+001
1.015447e+003, 5.942395e+001
1.015929e+003, 5.949975e+001
1.016411e+003, 5.953056e+001
1.016894e+003, 5.945788e+001
1.017376e+003, 5.929741e+001
1.017858e+003, 5.897182e+001
1.018340e+003, 5.860911e+001
1.018822e+003, 5.838834e+001
1.019304e+003, 5.844434e+001
1.019786e+003, 5.832734e+001
1.020268e+003, 5.797092e+001
1.020751e+003, 5.761992e+001
1.021233e+003, 5.752476e+001
1.021715e+003, 5.756560e+001
1.022197e+003, 5.738621e+001
1.022679e+003, 5.702187e+001
1.023161e+003, 5.672041e+001
1.023643e+003, 5.661683e+001
1.024125e+003, 5.658934e+001
1.024607e+003, 5.665721e+001
1.025090e+003, 5.674131e+001
1.025572e+003, 5.668426e+001
1.026054e+003, 5.648157e+001
1.026536e+003, 5.613035e+001
1.027018e+003, 5.558671e+001
1.027500e+003, 5.507793e+001
1.027982e+003, 5.487059e+001
1.028464e+003, 5.482104e+001
1.028947e+003, 5.475829e+001
1.029429e+003, 5.463900e+001
1.029911e+003, 5.462060e+001
1.030393e+003, 5.478100e+001
1.030875e+003, 5.491333e+001
1.031357e+003, 5.492987e+001
1.031839e+003, 5.483372e+001
1.032321e+003, 5.456466e+001
1.032803e+003, 5.417332e+001
1.033286e+003, 5.386172e+001
1.033768e+003, 5.383639e+001
1.034250e+003, 5.379584e+001
1.034732e+003, 5.351476e+001
1.035214e+003, 5.318380e+001
1.035696e+003, 5.309965e+001
1.036178e+003, 5.332512e+001
1.036660e+003, 5.346304e+001
1.037143e+003, 5.349480e+001
1.037625e+003, 5.338485e+001
1.038107e+003, 5.288023e+001
1.038589e+003, 5.234627e+001
1.039071e+003, 5.234830e+001
1.039553e+003, 5.288054e+001
1.040035e+003, 5.320158e+001
1.040517e+003, 5.299741e+001
1.041000e+003, 5.281096e+001
1.041482e+003, 5.280846e+001
1.041964e+003, 5.289861e+001
1.042446e+003, 5.284735e+001
1.042928e+003, 5.269250e+001
1.043410e+003, 5.260880e+001
1.043892e+003, 5.270251e+001
1.044374e+003, 5.271329e+001
1.044856e+003, 5.236039e+001
1.045339e+003, 5.194188e+001
1.045821e+003, 5.173116e+001
1.046303e+003, 5.176186e+001
1.046785e+003, 5.178666e+001
1.047267e+003, 5.180722e+001
1.047749e+003, 5.180842e+001
1.048231e+003, 5.178478e+001
1.048713e+003, 5.173256e+001
1.049195e+003, 5.162599e+001
1.049677e+003, 5.148537e+001
1.050160e+003, 5.137175e+001
1.050642e+003, 5.134603e+001
1.051124e+003, 5.129203e+001
1.051606e+003, 5.122058e+001
1.052088e+003, 5.108051e+001
1.052570e+003, 5.070501e+001
1.053052e+003, 5.019278e+001
1.053534e+003, 4.999369e+001
1.054017e+003, 5.016825e+001
1.054499e+003, 5.037024e+001
1.054981e+003, 5.040306e+001
1.055463e+003, 5.037766e+001
1.055945e+003, 5.037682e+001
1.056427e+003, 5.038546e+001
1.056909e+003, 5.028232e+001
1.057391e+003, 5.006046e+001
1.057874e+003, 4.978987e+001
1.058356e+003, 4.942668e+001
1.058838e+003, 4.917106e+001
1.059320e+003, 4.911724e+001
1.059802e+003, 4.939105e+001
1.060284e+003, 5.031536e+001
1.060766e+003, 5.289952e+001
1.061248e+003, 5.367103e+001
1.061730e+003, 5.174178e+001
1.062213e+003, 4.956143e+001
1.062695e+003, 4.899253e+001
1.063177e+003, 4.957486e+001
1.063659e+003, 4.969392e+001
1.064141e+003, 4.941780e+001
1.064623e+003, 4.908460e+001
1.065105e+003, 4.874102e+001
1.065587e+003, 4.851390e+001
1.066070e+003, 4.850854e+001
1.066552e+003, 4.861812e+001
1.067034e+003, 4.871616e+001
1.067516e+003, 4.880442e+001
1.067998e+003, 4.880598e+001
1.068480e+003, 4.870831e+001
1.068962e+003, 4.855982e+001
1.069444e+003, 4.832520e+001
1.069927e+003, 4.811878e+001
1.070409e+003, 4.807399e+001
1.070891e+003, 4.820006e+001
1.071373e+003, 4.826181e+001
1.071855e+003, 4.825880e+001
1.072337e+003, 4.816883e+001
1.072819e+003, 4.795606e+001
1.073301e+003, 4.769997e+001
1.073783e+003, 4.749783e+001
1.074266e+003, 4.736773e+001
1.074748e+003, 4.737200e+001
1.075230e+003, 4.762194e+001
1.075712e+003, 4.773496e+001
1.076194e+003, 4.745510e+001
1.076676e+003, 4.718659e+001
1.077158e+003, 4.722974e+001
1.077640e+003, 4.753159e+001
1.078122e+003, 4.746719e+001
1.078604e+003, 4.708731e+001
1.079087e+003, 4.682426e+001
1.079569e+003, 4.712074e+001
1.080051e+003, 4.739696e+001
1.080533e+003, 4.726620e+001
1.081015e+003, 4.689498e+001
1.081497e+003, 4.660049e+001
1.081979e+003, 4.640714e+001
1.082461e+003, 4.618250e+001
1.082944e+003, 4.590374e+001
1.083426e+003, 4.568629e+001
1.083908e+003, 4.564968e+001
1.084390e+003, 4.573501e+001
1.084872e+003, 4.589825e+001
1.085354e+003, 4.612907e+001
1.085836e+003, 4.636676e+001
1.086318e+003, 4.674446e+001
1.086801e+003, 4.684489e+001
1.087283e+003, 4.647194e+001
1.087765e+003, 4.592643e+001
1.088247e+003, 4.581530e+001
1.088729e+003, 4.597382e+001
1.089211e+003, 4.594341e+001
1.089693e+003, 4.557453e+001
1.090175e+003, 4.529487e+001
1.090657e+003, 4.531078e+001
1.091140e+003, 4.545544e+001
1.091622e+003, 4.570562e+001
1.092104e+003, 4.601733e+001
1.092586e+003, 4.597077e+001
1.093068e+003, 4.559573e+001
1.093550e+003, 4.525543e+001
1.094032e+003, 4.508809e+001
1.094514e+003, 4.504177e+001
1.094997e+003, 4.516896e+001
1.095479e+003, 4.535231e+001
1.095961e+003, 4.542714e+001
1.096443e+003, 4.534287e+001
1.096925e+003, 4.532287e+001
1.097407e+003, 4.538158e+001
1.097889e+003, 4.541714e+001
1.098371e+003, 4.527964e+001
1.098854e+003, 4.512143e+001
1.099336e+003, 4.517442e+001
1.099818e+003, 4.538568e+001
1.100300e+003, 4.553366e+001
1.100782e+003, 4.555736e+001
1.101264e+003, 4.552935e+001
1.101746e+003, 4.544378e+001
1.102228e+003, 4.533823e+001
1.102710e+003, 4.529564e+001
1.103193e+003, 4.526677e+001
1.103675e+003, 4.506771e+001
1.104157e+003, 4.467934e+001
1.104639e+003, 4.444836e+001
1.105121e+003, 4.472750e+001
1.105603e+003, 4.496123e+001
1.106085e+003, 4.491099e+001
1.106567e+003, 4.467807e+001
1.107049e+003, 4.455439e+001
1.107531e+003, 4.453409e+001
1.108014e+003, 4.459726e+001
1.108496e+003, 4.477018e+001
1.108978e+003, 4.491125e+001
1.109460e+003, 4.491407e+001
1.109942e+003, 4.484304e+001
1.110424e+003, 4.472991e+001
1.110906e+003, 4.457082e+001
1.111388e+003, 4.454311e+001
1.111871e+003, 4.465797e+001
1.112353e+003, 4.474294e+001
1.112835e+003, 4.471711e+001
1.113317e+003, 4.461362e+001
1.113799e+003, 4.439659e+001
1.114281e+003, 4.415102e+001
1.114763e+003, 4.401807e+001
1.115245e+003, 4.404922e+001
1.115728e+003, 4.414936e+001
1.116210e+003, 4.433496e+001
1.116692e+003, 4.453523e+001
1.117174e+003, 4.470121e+001
1.117656e+003, 4.483546e+001
1.118138e+003, 4.496988e+001
1.118620e+003, 4.508220e+001
1.119102e+003, 4.508311e+001
1.119584e+003, 4.481952e+001
1.120067e+003, 4.460649e+001
1.120549e+003, 4.449451e+001
1.121031e+003, 4.444447e+001
1.121513e+003, 4.442310e+001
1.121995e+003, 4.441874e+001
1.122477e+003, 4.437498e+001
1.122959e+003, 4.428802e+001
1.123441e+003, 4.425435e+001
1.123924e+003, 4.440264e+001
1.124406e+003, 4.452670e+001
1.124888e+003, 4.451790e+001
1.125370e+003, 4.443343e+001
1.125852e+003, 4.444298e+001
1.126334e+003, 4.453659e+001
1.126816e+003, 4.460254e+001
1.127298e+003, 4.462292e+001
1.127781e+003, 4.457472e+001
1.128263e+003, 4.431121e+001
1.128745e+003, 4.407476e+001
1.129227e+003, 4.411460e+001
1.129709e+003, 4.441379e+001
1.130191e+003, 4.456145e+001
1.130673e+003, 4.454921e+001
1.131155e+003, 4.453328e+001
1.131637e+003, 4.457519e+001
1.132120e+003, 4.464400e+001
1.132602e+003, 4.471217e+001
1.133084e+003, 4.478432e+001
1.133566e+003, 4.488466e+001
1.134048e+003, 4.508777e+001
1.134530e+003, 4.502272e+001
1.135012e+003, 4.460213e+001
1.135494e+003, 4.426520e+001
1.135976e+003, 4.442059e+001
1.136458e+003, 4.475286e+001
1.136941e+003, 4.465725e+001
1.137423e+003, 4.433373e+001
1.137905e+003, 4.426883e+001
1.138387e+003, 4.502433e+001
1.138869e+003, 4.535707e+001
1.139351e+003, 4.506415e+001
1.139833e+003, 4.464669e+001
1.140315e+003, 4.456303e+001
1.140798e+003, 4.474064e+001
1.141280e+003, 4.512713e+001
1.141762e+003, 4.565692e+001
1.142244e+003, 4.595754e+001
1.142726e+003, 4.569448e+001
1.143208e+003, 4.541511e+001
1.143690e+003, 4.521681e+001
1.144172e+003, 4.509608e+001
1.144655e+003, 4.505740e+001
1.145137e+003, 4.509090e+001
1.145619e+003, 4.516054e+001
1.146101e+003, 4.526238e+001
1.146583e+003, 4.537638e+001
1.147065e+003, 4.557314e+001
1.147547e+003, 4.568419e+001
1.148029e+003, 4.557935e+001
1.148511e+003, 4.536656e+001
1.148994e+003, 4.537643e+001
1.149476e+003, 4.558418e+001
1.149958e+003, 4.577664e+001
1.150440e+003, 4.591682e+001
1.150922e+003, 4.597997e+001
1.151404e+003, 4.579435e+001
1.151886e+003, 4.565821e+001
1.152368e+003, 4.584628e+001
1.152851e+003, 4.631288e+001
1.153333e+003, 4.667736e+001
1.153815e+003, 4.693940e+001
1.154297e+003, 4.698465e+001
1.154779e+003, 4.669304e+001
1.155261e+003, 4.634164e+001
1.155743e+003, 4.616357e+001
1.156225e+003, 4.608333e+001
1.156708e+003, 4.600100e+001
1.157190e+003, 4.588023e+001
1.157672e+003, 4.598495e+001
1.158154e+003, 4.634179e+001
1.158636e+003, 4.669883e+001
1.159118e+003, 4.693796e+001
1.159600e+003, 4.707851e+001
1.160082e+003, 4.708282e+001
1.160564e+003, 4.702119e+001
1.161047e+003, 4.701744e+001
1.161529e+003, 4.711060e+001
1.162011e+003, 4.721294e+001
1.162493e+003, 4.732845e+001
1.162975e+003, 4.743975e+001
1.163457e+003, 4.753948e+001
1.163939e+003, 4.762304e+001
1.164421e+003, 4.767289e+001
1.164903e+003, 4.769989e+001
1.165385e+003, 4.773699e+001
1.165868e+003, 4.778852e+001
1.166350e+003, 4.784728e+001
1.166832e+003, 4.789883e+001
1.167314e+003, 4.799269e+001
1.167796e+003, 4.824481e+001
1.168278e+003, 4.854263e+001
1.168760e+003, 4.866947e+001
1.169242e+003, 4.863704e+001
1.169725e+003, 4.859821e+001
1.170207e+003, 4.853369e+001
1.170689e+003, 4.858479e+001
1.171171e+003, 4.882828e+001
1.171653e+003, 4.909057e+001
1.172135e+003, 4.907695e+001
1.172617e+003, 4.890567e+001
1.173099e+003, 4.883695e+001
1.173582e+003, 4.889988e+001
1.174064e+003, 4.900630e+001
1.174546e+003, 4.919453e+001
1.175028e+003, 4.932052e+001
1.175510e+003, 4.930354e+001
1.175992e+003, 4.925660e+001
1.176474e+003, 4.946389e+001
1.176956e+003, 4.982470e+001
1.177438e+003, 4.999654e+001
1.177921e+003, 4.987868e+001
1.178403e+003, 4.991055e+001
1.178885e+003, 5.055923e+001
1.179367e+003, 5.105421e+001
1.179849e+003, 5.102419e+001
1.180331e+003, 5.067076e+001
1.180813e+003, 5.059009e+001
1.181295e+003, 5.073199e+001
1.181778e+003, 5.092977e+001
1.182260e+003, 5.117651e+001
1.182742e+003, 5.132885e+001
1.183224e+003, 5.121366e+001
1.183706e+003, 5.109602e+001
1.184188e+003, 5.113650e+001
1.184670e+003, 5.129774e+001
1.185152e+003, 5.135809e+001
1.185635e+003, 5.134163e+001
1.186117e+003, 5.138124e+001
1.186599e+003, 5.156155e+001
1.187081e+003, 5.173317e+001
1.187563e+003, 5.178445e+001
1.188045e+003, 5.183231e+001
1.188527e+003, 5.199493e+001
1.189009e+003, 5.225154e+001
1.189491e+003, 5.228648e+001
1.189974e+003, 5.213786e+001
1.190456e+003, 5.208641e+001
1.190938e+003, 5.239270e+001
1.191420e+003, 5.266527e+001
1.191902e+003, 5.266041e+001
1.192384e+003, 5.256444e+001
1.192866e+003, 5.257975e+001
1.193348e+003, 5.271080e+001
1.193830e+003, 5.270934e+001
1.194313e+003, 5.258218e+001
1.194795e+003, 5.242159e+001
1.195277e+003, 5.214553e+001
1.195759e+003, 5.200357e+001
1.196241e+003, 5.223244e+001
1.196723e+003, 5.262006e+001
1.197205e+003, 5.295293e+001
1.197687e+003, 5.323730e+001
1.198169e+003, 5.317463e+001
1.198652e+003, 5.276416e+001
1.199134e+003, 5.232766e+001
1.199616e+003, 5.203857e+001
1.200098e+003, 5.184164e+001
1.200580e+003, 5.174497e+001
1.201062e+003, 5.170544e+001
1.201544e+003, 5.167576e+001
1.202026e+003, 5.165906e+001
1.202509e+003, 5.150144e+001
1.202991e+003, 5.118814e+001
1.203473e+003, 5.091442e+001
1.203955e+003, 5.085187e+001
1.204437e+003, 5.084282e+001
1.204919e+003, 5.077092e+001
1.205401e+003, 5.068032e+001
1.205883e+003, 5.071390e+001
1.206365e+003, 5.087712e+001
1.206848e+003, 5.083734e+001
1.207330e+003, 5.053973e+001
1.207812e+003, 5.022952e+001
1.208294e+003, 5.007892e+001
1.208776e+003, 4.999471e+001
1.209258e+003, 4.994798e+001
1.209740e+003, 4.991142e+001
1.210222e+003, 4.984378e+001
1.210705e+003, 4.974513e+001
1.211187e+003, 4.943892e+001
1.211669e+003, 4.886034e+001
1.212151e+003, 4.838625e+001
1.212633e+003, 4.841003e+001
1.213115e+003, 4.857815e+001
1.213597e+003, 4.867609e+001
1.214079e+003, 4.869777e+001
1.214562e+003, 4.861107e+001
1.215044e+003, 4.841927e+001
1.215526e+003, 4.824393e+001
1.216008e+003, 4.809320e+001
1.216490e+003, 4.806590e+001
1.216972e+003, 4.843446e+001
1.217454e+003, 4.878313e+001
1.217936e+003, 4.874454e+001
1.218418e+003, 4.840192e+001
1.218901e+003, 4.816471e+001
1.219383e+003, 4.802537e+001
1.219865e+003, 4.784771e+001
1.220347e+003, 4.755561e+001
1.220829e+003, 4.736599e+001
1.221311e+003, 4.757153e+001
1.221793e+003, 4.782889e+001
1.222275e+003, 4.787421e+001
1.222757e+003, 4.773489e+001
1.223240e+003, 4.757668e+001
1.223722e+003, 4.741278e+001
1.224204e+003, 4.743558e+001
1.224686e+003, 4.778431e+001
1.225168e+003, 4.811346e+001
1.225650e+003, 4.826173e+001
1.226132e+003, 4.822784e+001
1.226614e+003, 4.800106e+001
1.227096e+003, 4.760525e+001
1.227579e+003, 4.719113e+001
1.228061e+003, 4.677660e+001
1.228543e+003, 4.651337e+001
1.229025e+003, 4.644781e+001
1.229507e+003, 4.657827e+001
1.229989e+003, 4.714252e+001
1.230471e+003, 4.769373e+001
1.230953e+003, 4.788161e+001
1.231436e+003, 4.774015e+001
1.231918e+003, 4.751470e+001
1.232400e+003, 4.722845e+001
1.232882e+003, 4.705316e+001
1.233364e+003, 4.711306e+001
1.233846e+003, 4.719307e+001
1.234328e+003, 4.719947e+001
1.234810e+003, 4.717566e+001
1.235292e+003, 4.714573e+001
1.235775e+003, 4.711295e+001
1.236257e+003, 4.710720e+001
1.236739e+003, 4.712262e+001
1.237221e+003, 4.712196e+001
1.237703e+003, 4.701092e+001
1.238185e+003, 4.700996e+001
1.238667e+003, 4.736619e+001
1.239149e+003, 4.769827e+001
1.239632e+003, 4.769691e+001
1.240114e+003, 4.742646e+001
1.240596e+003, 4.720736e+001
1.241078e+003, 4.706259e+001
1.241560e+003, 4.708508e+001
1.242042e+003, 4.754346e+001
1.242524e+003, 4.784071e+001
1.243006e+003, 4.782405e+001
1.243489e+003, 4.762127e+001
1.243971e+003, 4.721652e+001
1.244453e+003, 4.670805e+001
1.244935e+003, 4.656188e+001
1.245417e+003, 4.670102e+001
1.245899e+003, 4.684187e+001
1.246381e+003, 4.692468e+001
1.246863e+003, 4.689874e+001
1.247345e+003, 4.671068e+001
1.247828e+003, 4.651887e+001
1.248310e+003, 4.651060e+001
1.248792e+003, 4.658872e+001
1.249274e+003, 4.648460e+001
1.249756e+003, 4.623154e+001
1.250238e+003, 4.595404e+001
1.250720e+003, 4.558176e+001
1.251202e+003, 4.538612e+001
1.251684e+003, 4.543345e+001
1.252167e+003, 4.553869e+001
1.252649e+003, 4.557749e+001
1.253131e+003, 4.554256e+001
1.253613e+003, 4.537846e+001
1.254095e+003, 4.512645e+001
1.254577e+003, 4.492082e+001
1.255059e+003, 4.478332e+001
1.255541e+003, 4.474306e+001
1.256023e+003, 4.485397e+001
1.256506e+003, 4.488187e+001
1.256988e+003, 4.450061e+001
1.257470e+003, 4.399349e+001
1.257952e+003, 4.373165e+001
1.258434e+003, 4.368707e+001
1.258916e+003, 4.378141e+001
1.259398e+003, 4.411051e+001
1.259880e+003, 4.422527e+001
1.260363e+003, 4.407141e+001
1.260845e+003, 4.387968e+001
1.261327e+003, 4.387556e+001
1.261809e+003, 4.390623e+001
1.262291e+003, 4.378377e+001
1.262773e+003, 4.357195e+001
1.263255e+003, 4.345567e+001
1.263737e+003, 4.346770e+001
1.264219e+003, 4.343986e+001
1.264702e+003, 4.335852e+001
1.265184e+003, 4.327821e+001
1.265666e+003, 4.329834e+001
1.266148e+003, 4.327984e+001
1.266630e+003, 4.299201e+001
1.267112e+003, 4.263347e+001
1.267594e+003, 4.264447e+001
1.268076e+003, 4.305886e+001
1.268559e+003, 4.333255e+001
1.269041e+003, 4.342896e+001
1.269523e+003, 4.336908e+001
1.270005e+003, 4.301276e+001
1.270487e+003, 4.267114e+001
1.270969e+003, 4.249438e+001
1.271451e+003, 4.246729e+001
1.271933e+003, 4.266343e+001
1.272416e+003, 4.304802e+001
1.272898e+003, 4.315584e+001
1.273380e+003, 4.297471e+001
1.273862e+003, 4.273064e+001
1.274344e+003, 4.238818e+001
1.274826e+003, 4.222876e+001
1.275308e+003, 4.243132e+001
1.275790e+003, 4.275071e+001
1.276272e+003, 4.289103e+001
1.276755e+003, 4.288681e+001
1.277237e+003, 4.287086e+001
1.277719e+003, 4.284488e+001
1.278201e+003, 4.275928e+001
1.278683e+003, 4.247065e+001
1.279165e+003, 4.230929e+001
1.279647e+003, 4.238032e+001
1.280129e+003, 4.249974e+001
1.280611e+003, 4.245139e+001
1.281094e+003, 4.230268e+001
1.281576e+003, 4.218623e+001
1.282058e+003, 4.210376e+001
1.282540e+003, 4.202823e+001
1.283022e+003, 4.191254e+001
1.283504e+003, 4.189669e+001
1.283986e+003, 4.202468e+001
1.284468e+003, 4.214865e+001
1.284950e+003, 4.212269e+001
1.285433e+003, 4.200324e+001
1.285915e+003, 4.178233e+001
1.286397e+003, 4.152890e+001
1.286879e+003, 4.151923e+001
1.287361e+003, 4.187492e+001
1.287843e+003, 4.201693e+001
1.288325e+003, 4.187196e+001
1.288807e+003, 4.169919e+001
1.289290e+003, 4.181725e+001
1.289772e+003, 4.191666e+001
1.290254e+003, 4.163935e+001
1.290736e+003, 4.115805e+001
1.291218e+003, 4.089509e+001
1.291700e+003, 4.086392e+001
1.292182e+003, 4.089445e+001
1.292664e+003, 4.097411e+001
1.293146e+003, 4.101960e+001
1.293629e+003, 4.093866e+001
1.294111e+003, 4.084367e+001
1.294593e+003, 4.080833e+001
1.295075e+003, 4.078934e+001
1.295557e+003, 4.074414e+001
1.296039e+003, 4.066969e+001
1.296521e+003, 4.053773e+001
1.297003e+003, 4.034822e+001
1.297486e+003, 4.011925e+001
1.297968e+003, 3.972223e+001
1.298450e+003, 3.950879e+001
1.298932e+003, 3.965478e+001
1.299414e+003, 3.985522e+001
1.299896e+003, 3.974443e+001
1.300378e+003, 3.942919e+001
1.300860e+003, 3.914832e+001
1.301343e+003, 3.893627e+001
1.301825e+003, 3.885965e+001
##END=



