##NAMES=Georgerobinsonite
##RRUFFID=R110148
##IDEAL CHEMISTRY=Pb^2+^_4_(Cr^6+^O_4_)_2_(OH)_2_FCl
##LOCALITY=Mammoth mine, Tiger, Pinal County, Arizona, USA
##OWNER=RRUFF
##SOURCE=The University of Arizona Mineral Museum
##DESCRIPTION=Red tabular crystal, resembling wulfenite, associated with quartz, cerussite, caledonite, and matlockite (R140538).
##STATUS=The identification of this mineral has been confirmed only by single crystal X-ray diffraction.
##URL=rruff.info/R110148
9.059570e+001, 1.236053e+002
9.107782e+001, 1.156175e+002
9.155994e+001, 1.127831e+002
9.204205e+001, 1.182997e+002
9.252417e+001, 1.268316e+002
9.300629e+001, 1.365898e+002
9.348840e+001, 1.462280e+002
9.397052e+001, 1.548212e+002
9.445264e+001, 1.619931e+002
9.493475e+001, 1.698326e+002
9.541687e+001, 1.777782e+002
9.589898e+001, 1.856817e+002
9.638110e+001, 1.938651e+002
9.686321e+001, 2.026455e+002
9.734533e+001, 2.120120e+002
9.782745e+001, 2.213893e+002
9.830956e+001, 2.310323e+002
9.879168e+001, 2.416511e+002
9.927380e+001, 2.519205e+002
9.975591e+001, 2.625913e+002
1.002380e+002, 2.729325e+002
1.007201e+002, 2.807677e+002
1.012023e+002, 2.849292e+002
1.016844e+002, 2.851950e+002
1.021665e+002, 2.832116e+002
1.026486e+002, 2.783304e+002
1.031307e+002, 2.716815e+002
1.036128e+002, 2.637458e+002
1.040950e+002, 2.541308e+002
1.045771e+002, 2.449863e+002
1.050592e+002, 2.378430e+002
1.055413e+002, 2.319942e+002
1.060234e+002, 2.266443e+002
1.065055e+002, 2.215708e+002
1.069877e+002, 2.167118e+002
1.074698e+002, 2.119157e+002
1.079519e+002, 2.079426e+002
1.084340e+002, 2.029410e+002
1.089161e+002, 1.962317e+002
1.093982e+002, 1.879672e+002
1.098804e+002, 1.786287e+002
1.103625e+002, 1.683287e+002
1.108446e+002, 1.567606e+002
1.113267e+002, 1.460623e+002
1.118088e+002, 1.361100e+002
1.122909e+002, 1.269824e+002
1.127731e+002, 1.187266e+002
1.132552e+002, 1.113822e+002
1.137373e+002, 1.048977e+002
1.142194e+002, 9.930699e+001
1.147015e+002, 9.501899e+001
1.151836e+002, 9.096180e+001
1.156658e+002, 8.696291e+001
1.161479e+002, 8.323560e+001
1.166300e+002, 7.999239e+001
1.171121e+002, 7.730203e+001
1.175942e+002, 7.507702e+001
1.180763e+002, 7.321718e+001
1.185584e+002, 7.176992e+001
1.190406e+002, 7.045968e+001
1.195227e+002, 6.928903e+001
1.200048e+002, 6.821108e+001
1.204869e+002, 6.707658e+001
1.209690e+002, 6.578978e+001
1.214511e+002, 6.443658e+001
1.219333e+002, 6.321305e+001
1.224154e+002, 6.222199e+001
1.228975e+002, 6.118452e+001
1.233796e+002, 5.981268e+001
1.238617e+002, 5.805992e+001
1.243438e+002, 5.633918e+001
1.248260e+002, 5.476072e+001
1.253081e+002, 5.335694e+001
1.257902e+002, 5.222613e+001
1.262723e+002, 5.149506e+001
1.267544e+002, 5.095766e+001
1.272365e+002, 5.012721e+001
1.277187e+002, 4.874044e+001
1.282008e+002, 4.749596e+001
1.286829e+002, 4.657365e+001
1.291650e+002, 4.589502e+001
1.296471e+002, 4.537664e+001
1.301292e+002, 4.498712e+001
1.306114e+002, 4.471407e+001
1.310935e+002, 4.437341e+001
1.315756e+002, 4.388299e+001
1.320577e+002, 4.339779e+001
1.325398e+002, 4.295760e+001
1.330219e+002, 4.255526e+001
1.335041e+002, 4.215619e+001
1.339862e+002, 4.171476e+001
1.344683e+002, 4.119733e+001
1.349504e+002, 4.089099e+001
1.354325e+002, 4.101475e+001
1.359146e+002, 4.113329e+001
1.363968e+002, 4.092797e+001
1.368789e+002, 4.039684e+001
1.373610e+002, 3.984314e+001
1.378431e+002, 3.964716e+001
1.383252e+002, 3.991184e+001
1.388073e+002, 4.000751e+001
1.392895e+002, 3.971476e+001
1.397716e+002, 3.930786e+001
1.402537e+002, 3.910763e+001
1.407358e+002, 3.919585e+001
1.412179e+002, 3.945050e+001
1.417000e+002, 3.979396e+001
1.421821e+002, 4.022180e+001
1.426643e+002, 4.053670e+001
1.431464e+002, 4.056475e+001
1.436285e+002, 4.039225e+001
1.441106e+002, 4.034730e+001
1.445927e+002, 4.059138e+001
1.450748e+002, 4.088248e+001
1.455570e+002, 4.101229e+001
1.460391e+002, 4.097761e+001
1.465212e+002, 4.086831e+001
1.470033e+002, 4.072593e+001
1.474854e+002, 4.053949e+001
1.479675e+002, 4.042659e+001
1.484497e+002, 4.044595e+001
1.489318e+002, 4.052681e+001
1.494139e+002, 4.064477e+001
1.498960e+002, 4.079241e+001
1.503781e+002, 4.096518e+001
1.508602e+002, 4.115057e+001
1.513424e+002, 4.133339e+001
1.518245e+002, 4.157239e+001
1.523066e+002, 4.188032e+001
1.527887e+002, 4.222962e+001
1.532708e+002, 4.260266e+001
1.537529e+002, 4.299068e+001
1.542351e+002, 4.339801e+001
1.547172e+002, 4.383778e+001
1.551993e+002, 4.444396e+001
1.556814e+002, 4.490971e+001
1.561635e+002, 4.505811e+001
1.566456e+002, 4.510777e+001
1.571278e+002, 4.533271e+001
1.576099e+002, 4.587650e+001
1.580920e+002, 4.665837e+001
1.585741e+002, 4.733886e+001
1.590562e+002, 4.797924e+001
1.595383e+002, 4.847290e+001
1.600205e+002, 4.873880e+001
1.605026e+002, 4.883085e+001
1.609847e+002, 4.887519e+001
1.614668e+002, 4.894985e+001
1.619489e+002, 4.902184e+001
1.624310e+002, 4.896909e+001
1.629131e+002, 4.880296e+001
1.633953e+002, 4.852006e+001
1.638774e+002, 4.811444e+001
1.643595e+002, 4.758753e+001
1.648416e+002, 4.694880e+001
1.653237e+002, 4.613795e+001
1.658058e+002, 4.522826e+001
1.662880e+002, 4.439475e+001
1.667701e+002, 4.369578e+001
1.672522e+002, 4.304393e+001
1.677343e+002, 4.233991e+001
1.682164e+002, 4.157316e+001
1.686985e+002, 4.081020e+001
1.691807e+002, 4.008050e+001
1.696628e+002, 3.938341e+001
1.701449e+002, 3.872160e+001
1.706270e+002, 3.810670e+001
1.711091e+002, 3.752490e+001
1.715912e+002, 3.692554e+001
1.720734e+002, 3.623236e+001
1.725555e+002, 3.567664e+001
1.730376e+002, 3.539331e+001
1.735197e+002, 3.526539e+001
1.740018e+002, 3.512720e+001
1.744839e+002, 3.487932e+001
1.749661e+002, 3.454289e+001
1.754482e+002, 3.424746e+001
1.759303e+002, 3.399680e+001
1.764124e+002, 3.379140e+001
1.768945e+002, 3.366109e+001
1.773766e+002, 3.357336e+001
1.778588e+002, 3.347071e+001
1.783409e+002, 3.330235e+001
1.788230e+002, 3.306688e+001
1.793051e+002, 3.291667e+001
1.797872e+002, 3.293174e+001
1.802693e+002, 3.295221e+001
1.807515e+002, 3.292295e+001
1.812336e+002, 3.285725e+001
1.817157e+002, 3.280233e+001
1.821978e+002, 3.280123e+001
1.826799e+002, 3.286202e+001
1.831620e+002, 3.289586e+001
1.836441e+002, 3.283639e+001
1.841263e+002, 3.281286e+001
1.846084e+002, 3.296579e+001
1.850905e+002, 3.325290e+001
1.855726e+002, 3.344575e+001
1.860547e+002, 3.329232e+001
1.865368e+002, 3.272287e+001
1.870190e+002, 3.244232e+001
1.875011e+002, 3.267231e+001
1.879832e+002, 3.302219e+001
1.884653e+002, 3.321391e+001
1.889474e+002, 3.321702e+001
1.894296e+002, 3.315628e+001
1.899117e+002, 3.314220e+001
1.903938e+002, 3.317411e+001
1.908759e+002, 3.319959e+001
1.913580e+002, 3.320411e+001
1.918401e+002, 3.320377e+001
1.923223e+002, 3.325578e+001
1.928044e+002, 3.339181e+001
1.932865e+002, 3.344542e+001
1.937686e+002, 3.311601e+001
1.942507e+002, 3.253205e+001
1.947328e+002, 3.210662e+001
1.952150e+002, 3.206867e+001
1.956971e+002, 3.225624e+001
1.961792e+002, 3.236643e+001
1.966613e+002, 3.238667e+001
1.971434e+002, 3.229717e+001
1.976255e+002, 3.200789e+001
1.981077e+002, 3.159404e+001
1.985898e+002, 3.125815e+001
1.990719e+002, 3.115635e+001
1.995540e+002, 3.123024e+001
2.000361e+002, 3.123030e+001
2.005182e+002, 3.112725e+001
2.010004e+002, 3.097474e+001
2.014825e+002, 3.077904e+001
2.019646e+002, 3.056094e+001
2.024467e+002, 3.037362e+001
2.029288e+002, 3.028724e+001
2.034109e+002, 3.029041e+001
2.038930e+002, 3.018014e+001
2.043752e+002, 2.980946e+001
2.048573e+002, 2.947485e+001
2.053394e+002, 2.932074e+001
2.058215e+002, 2.929871e+001
2.063036e+002, 2.927796e+001
2.067857e+002, 2.914407e+001
2.072679e+002, 2.888887e+001
2.077500e+002, 2.868138e+001
2.082321e+002, 2.860020e+001
2.087142e+002, 2.849683e+001
2.091963e+002, 2.829441e+001
2.096784e+002, 2.802318e+001
2.101606e+002, 2.777230e+001
2.106427e+002, 2.762828e+001
2.111248e+002, 2.760957e+001
2.116069e+002, 2.753970e+001
2.120890e+002, 2.732034e+001
2.125711e+002, 2.714515e+001
2.130533e+002, 2.714351e+001
2.135354e+002, 2.727117e+001
2.140175e+002, 2.737259e+001
2.144996e+002, 2.729810e+001
2.149817e+002, 2.701384e+001
2.154638e+002, 2.678364e+001
2.159460e+002, 2.663787e+001
2.164281e+002, 2.650548e+001
2.169102e+002, 2.634387e+001
2.173923e+002, 2.615837e+001
2.178744e+002, 2.598265e+001
2.183565e+002, 2.584592e+001
2.188387e+002, 2.575171e+001
2.193208e+002, 2.569680e+001
2.198029e+002, 2.574816e+001
2.202850e+002, 2.578017e+001
2.207671e+002, 2.567512e+001
2.212492e+002, 2.544869e+001
2.217314e+002, 2.525646e+001
2.222135e+002, 2.525278e+001
2.226956e+002, 2.545153e+001
2.231777e+002, 2.553516e+001
2.236598e+002, 2.540505e+001
2.241419e+002, 2.523387e+001
2.246240e+002, 2.516256e+001
2.251062e+002, 2.519470e+001
2.255883e+002, 2.522310e+001
2.260704e+002, 2.514998e+001
2.265525e+002, 2.498894e+001
2.270346e+002, 2.486633e+001
2.275167e+002, 2.479538e+001
2.279989e+002, 2.476272e+001
2.284810e+002, 2.478304e+001
2.289631e+002, 2.485966e+001
2.294452e+002, 2.490324e+001
2.299273e+002, 2.481800e+001
2.304094e+002, 2.464801e+001
2.308916e+002, 2.451677e+001
2.313737e+002, 2.449414e+001
2.318558e+002, 2.449168e+001
2.323379e+002, 2.437602e+001
2.328200e+002, 2.412278e+001
2.333021e+002, 2.392874e+001
2.337843e+002, 2.401718e+001
2.342664e+002, 2.422969e+001
2.347485e+002, 2.431099e+001
2.352306e+002, 2.408585e+001
2.357127e+002, 2.379651e+001
2.361948e+002, 2.383041e+001
2.366770e+002, 2.428265e+001
2.371591e+002, 2.466323e+001
2.376412e+002, 2.463642e+001
2.381233e+002, 2.442280e+001
2.386054e+002, 2.425040e+001
2.390875e+002, 2.419909e+001
2.395697e+002, 2.420419e+001
2.400518e+002, 2.416757e+001
2.405339e+002, 2.408332e+001
2.410160e+002, 2.397415e+001
2.414981e+002, 2.378555e+001
2.419802e+002, 2.360335e+001
2.424624e+002, 2.352059e+001
2.429445e+002, 2.357881e+001
2.434266e+002, 2.371873e+001
2.439087e+002, 2.384183e+001
2.443908e+002, 2.393878e+001
2.448729e+002, 2.404378e+001
2.453550e+002, 2.420441e+001
2.458372e+002, 2.435730e+001
2.463193e+002, 2.443292e+001
2.468014e+002, 2.440419e+001
2.472835e+002, 2.433518e+001
2.477656e+002, 2.435923e+001
2.482477e+002, 2.456804e+001
2.487299e+002, 2.464213e+001
2.492120e+002, 2.442191e+001
2.496941e+002, 2.412491e+001
2.501762e+002, 2.389985e+001
2.506583e+002, 2.379436e+001
2.511404e+002, 2.378606e+001
2.516226e+002, 2.384637e+001
2.521047e+002, 2.400335e+001
2.525868e+002, 2.416850e+001
2.530689e+002, 2.441150e+001
2.535510e+002, 2.461000e+001
2.540331e+002, 2.464191e+001
2.545153e+002, 2.449008e+001
2.549974e+002, 2.427721e+001
2.554795e+002, 2.419608e+001
2.559616e+002, 2.432497e+001
2.564437e+002, 2.442202e+001
2.569258e+002, 2.448138e+001
2.574080e+002, 2.451504e+001
2.578901e+002, 2.452172e+001
2.583722e+002, 2.450570e+001
2.588543e+002, 2.448424e+001
2.593364e+002, 2.448240e+001
2.598185e+002, 2.451464e+001
2.603007e+002, 2.452942e+001
2.607828e+002, 2.448135e+001
2.612649e+002, 2.445358e+001
2.617470e+002, 2.452778e+001
2.622291e+002, 2.469461e+001
2.627112e+002, 2.485508e+001
2.631934e+002, 2.488707e+001
2.636755e+002, 2.473336e+001
2.641576e+002, 2.465911e+001
2.646397e+002, 2.470062e+001
2.651218e+002, 2.477395e+001
2.656039e+002, 2.483668e+001
2.660861e+002, 2.488572e+001
2.665682e+002, 2.494175e+001
2.670503e+002, 2.502925e+001
2.675324e+002, 2.515914e+001
2.680145e+002, 2.524483e+001
2.684966e+002, 2.526418e+001
2.689788e+002, 2.526951e+001
2.694609e+002, 2.527437e+001
2.699430e+002, 2.528559e+001
2.704251e+002, 2.531489e+001
2.709072e+002, 2.537455e+001
2.713893e+002, 2.546565e+001
2.718715e+002, 2.554509e+001
2.723536e+002, 2.559027e+001
2.728357e+002, 2.564807e+001
2.733178e+002, 2.576632e+001
2.737999e+002, 2.591785e+001
2.742820e+002, 2.602088e+001
2.747642e+002, 2.600931e+001
2.752463e+002, 2.589832e+001
2.757284e+002, 2.587976e+001
2.762105e+002, 2.602479e+001
2.766926e+002, 2.616135e+001
2.771747e+002, 2.620881e+001
2.776568e+002, 2.620373e+001
2.781389e+002, 2.623447e+001
2.786211e+002, 2.635388e+001
2.791032e+002, 2.653823e+001
2.795853e+002, 2.668692e+001
2.800674e+002, 2.679424e+001
2.805495e+002, 2.688209e+001
2.810316e+002, 2.693962e+001
2.815138e+002, 2.698328e+001
2.819959e+002, 2.705276e+001
2.824780e+002, 2.717223e+001
2.829601e+002, 2.730436e+001
2.834422e+002, 2.734151e+001
2.839243e+002, 2.723035e+001
2.844065e+002, 2.714218e+001
2.848886e+002, 2.710052e+001
2.853707e+002, 2.710534e+001
2.858528e+002, 2.717386e+001
2.863349e+002, 2.731915e+001
2.868170e+002, 2.748379e+001
2.872992e+002, 2.755228e+001
2.877813e+002, 2.746683e+001
2.882634e+002, 2.748574e+001
2.887455e+002, 2.772069e+001
2.892276e+002, 2.805272e+001
2.897097e+002, 2.835505e+001
2.901919e+002, 2.860083e+001
2.906740e+002, 2.878423e+001
2.911561e+002, 2.889063e+001
2.916382e+002, 2.891267e+001
2.921203e+002, 2.890134e+001
2.926024e+002, 2.878831e+001
2.930846e+002, 2.868505e+001
2.935667e+002, 2.872098e+001
2.940488e+002, 2.891069e+001
2.945309e+002, 2.913364e+001
2.950130e+002, 2.926431e+001
2.954951e+002, 2.930528e+001
2.959773e+002, 2.945010e+001
2.964594e+002, 2.978922e+001
2.969415e+002, 3.017384e+001
2.974236e+002, 3.049988e+001
2.979057e+002, 3.076162e+001
2.983878e+002, 3.098435e+001
2.988700e+002, 3.116595e+001
2.993521e+002, 3.132164e+001
2.998342e+002, 3.153769e+001
3.003163e+002, 3.185333e+001
3.007984e+002, 3.218987e+001
3.012805e+002, 3.252470e+001
3.017627e+002, 3.284966e+001
3.022448e+002, 3.313030e+001
3.027269e+002, 3.333422e+001
3.032090e+002, 3.349295e+001
3.036911e+002, 3.369857e+001
3.041732e+002, 3.393351e+001
3.046554e+002, 3.423536e+001
3.051375e+002, 3.468530e+001
3.056196e+002, 3.521998e+001
3.061017e+002, 3.565698e+001
3.065838e+002, 3.589856e+001
3.070659e+002, 3.606492e+001
3.075481e+002, 3.638205e+001
3.080302e+002, 3.684723e+001
3.085123e+002, 3.740215e+001
3.089944e+002, 3.809591e+001
3.094765e+002, 3.885306e+001
3.099586e+002, 3.952480e+001
3.104408e+002, 4.005933e+001
3.109229e+002, 4.055386e+001
3.114050e+002, 4.115214e+001
3.118871e+002, 4.186292e+001
3.123692e+002, 4.249818e+001
3.128513e+002, 4.288104e+001
3.133335e+002, 4.323298e+001
3.138156e+002, 4.384980e+001
3.142977e+002, 4.477876e+001
3.147798e+002, 4.580458e+001
3.152619e+002, 4.674988e+001
3.157440e+002, 4.762006e+001
3.162262e+002, 4.849077e+001
3.167083e+002, 4.933920e+001
3.171904e+002, 5.021053e+001
3.176725e+002, 5.114178e+001
3.181546e+002, 5.213626e+001
3.186367e+002, 5.315646e+001
3.191188e+002, 5.413937e+001
3.196010e+002, 5.514172e+001
3.200831e+002, 5.638210e+001
3.205652e+002, 5.809409e+001
3.210473e+002, 5.981015e+001
3.215294e+002, 6.115684e+001
3.220115e+002, 6.226106e+001
3.224937e+002, 6.361407e+001
3.229758e+002, 6.546977e+001
3.234579e+002, 6.767594e+001
3.239400e+002, 6.979216e+001
3.244221e+002, 7.176380e+001
3.249042e+002, 7.379178e+001
3.253864e+002, 7.601158e+001
3.258685e+002, 7.833055e+001
3.263506e+002, 8.057712e+001
3.268327e+002, 8.268542e+001
3.273148e+002, 8.476268e+001
3.277969e+002, 8.696300e+001
3.282791e+002, 8.926208e+001
3.287612e+002, 9.174318e+001
3.292433e+002, 9.456398e+001
3.297254e+002, 9.750243e+001
3.302075e+002, 1.004385e+002
3.306896e+002, 1.033520e+002
3.311718e+002, 1.058585e+002
3.316539e+002, 1.074044e+002
3.321360e+002, 1.078943e+002
3.326181e+002, 1.089496e+002
3.331002e+002, 1.109834e+002
3.335823e+002, 1.133136e+002
3.340645e+002, 1.153420e+002
3.345466e+002, 1.171137e+002
3.350287e+002, 1.191980e+002
3.355108e+002, 1.219013e+002
3.359929e+002, 1.252924e+002
3.364750e+002, 1.294506e+002
3.369572e+002, 1.344835e+002
3.374393e+002, 1.400998e+002
3.379214e+002, 1.460133e+002
3.384035e+002, 1.524250e+002
3.388856e+002, 1.597454e+002
3.393677e+002, 1.681552e+002
3.398499e+002, 1.775778e+002
3.403320e+002, 1.879015e+002
3.408141e+002, 1.991270e+002
3.412962e+002, 2.110138e+002
3.417783e+002, 2.231632e+002
3.422604e+002, 2.360909e+002
3.427426e+002, 2.504974e+002
3.432247e+002, 2.665247e+002
3.437068e+002, 2.837086e+002
3.441889e+002, 3.013428e+002
3.446710e+002, 3.192744e+002
3.451531e+002, 3.384823e+002
3.456353e+002, 3.600360e+002
3.461174e+002, 3.819838e+002
3.465995e+002, 4.032398e+002
3.470816e+002, 4.234144e+002
3.475637e+002, 4.425044e+002
3.480458e+002, 4.604289e+002
3.485280e+002, 4.772567e+002
3.490101e+002, 4.909935e+002
3.494922e+002, 5.047155e+002
3.499743e+002, 5.129691e+002
3.504564e+002, 5.136736e+002
3.509385e+002, 5.070104e+002
3.514207e+002, 4.931270e+002
3.519028e+002, 4.717515e+002
3.523849e+002, 4.441470e+002
3.528670e+002, 4.152397e+002
3.533491e+002, 3.832550e+002
3.538312e+002, 3.522559e+002
3.543134e+002, 3.216322e+002
3.547955e+002, 2.927273e+002
3.552776e+002, 2.669746e+002
3.557597e+002, 2.449122e+002
3.562418e+002, 2.259280e+002
3.567239e+002, 2.088569e+002
3.572061e+002, 1.940170e+002
3.576882e+002, 1.808120e+002
3.581703e+002, 1.692294e+002
3.586524e+002, 1.590862e+002
3.591345e+002, 1.504293e+002
3.596166e+002, 1.431508e+002
3.600987e+002, 1.370638e+002
3.605808e+002, 1.319522e+002
3.610630e+002, 1.278095e+002
3.615451e+002, 1.247773e+002
3.620272e+002, 1.233885e+002
3.625093e+002, 1.224750e+002
3.629914e+002, 1.215260e+002
3.634735e+002, 1.207783e+002
3.639557e+002, 1.207438e+002
3.644378e+002, 1.217357e+002
3.649199e+002, 1.236569e+002
3.654020e+002, 1.260860e+002
3.658841e+002, 1.288607e+002
3.663662e+002, 1.324769e+002
3.668484e+002, 1.369383e+002
3.673305e+002, 1.422177e+002
3.678126e+002, 1.482490e+002
3.682947e+002, 1.549984e+002
3.687768e+002, 1.626021e+002
3.692589e+002, 1.713645e+002
3.697411e+002, 1.814980e+002
3.702232e+002, 1.922483e+002
3.707053e+002, 2.053901e+002
3.711874e+002, 2.176354e+002
3.716695e+002, 2.287434e+002
3.721516e+002, 2.377154e+002
3.726338e+002, 2.424019e+002
3.731159e+002, 2.407574e+002
3.735980e+002, 2.328736e+002
3.740801e+002, 2.209126e+002
3.745622e+002, 2.013894e+002
3.750443e+002, 1.818078e+002
3.755265e+002, 1.634743e+002
3.760086e+002, 1.469276e+002
3.764907e+002, 1.330068e+002
3.769728e+002, 1.220889e+002
3.774549e+002, 1.138553e+002
3.779370e+002, 1.077492e+002
3.784192e+002, 1.041690e+002
3.789013e+002, 1.016420e+002
3.793834e+002, 1.004923e+002
3.798655e+002, 9.977714e+001
3.803476e+002, 9.901468e+001
3.808297e+002, 9.809241e+001
3.813119e+002, 9.656393e+001
3.817940e+002, 9.389838e+001
3.822761e+002, 9.010737e+001
3.827582e+002, 8.584854e+001
3.832403e+002, 8.062762e+001
3.837224e+002, 7.565440e+001
3.842046e+002, 7.155891e+001
3.846867e+002, 6.832143e+001
3.851688e+002, 6.572997e+001
3.856509e+002, 6.373324e+001
3.861330e+002, 6.232478e+001
3.866151e+002, 6.156084e+001
3.870973e+002, 6.154802e+001
3.875794e+002, 6.180470e+001
3.880615e+002, 6.201843e+001
3.885436e+002, 6.235432e+001
3.890257e+002, 6.307579e+001
3.895078e+002, 6.424984e+001
3.899900e+002, 6.578777e+001
3.904721e+002, 6.775562e+001
3.909542e+002, 7.010152e+001
3.914363e+002, 7.232954e+001
3.919184e+002, 7.417806e+001
3.924005e+002, 7.596880e+001
3.928827e+002, 7.813053e+001
3.933648e+002, 8.066022e+001
3.938469e+002, 8.338488e+001
3.943290e+002, 8.593480e+001
3.948111e+002, 8.873029e+001
3.952932e+002, 9.243102e+001
3.957754e+002, 9.718506e+001
3.962575e+002, 1.026031e+002
3.967396e+002, 1.083854e+002
3.972217e+002, 1.145998e+002
3.977038e+002, 1.215077e+002
3.981859e+002, 1.292061e+002
3.986681e+002, 1.376026e+002
3.991501e+002, 1.465311e+002
3.996323e+002, 1.560905e+002
4.001144e+002, 1.666143e+002
4.005965e+002, 1.782352e+002
4.010786e+002, 1.909648e+002
4.015607e+002, 2.047718e+002
4.020428e+002, 2.194209e+002
4.025250e+002, 2.353343e+002
4.030071e+002, 2.530627e+002
4.034892e+002, 2.718952e+002
4.039713e+002, 2.916302e+002
4.044534e+002, 3.119637e+002
4.049355e+002, 3.314886e+002
4.054177e+002, 3.490487e+002
4.058998e+002, 3.653398e+002
4.063819e+002, 3.742751e+002
4.068640e+002, 3.767982e+002
4.073461e+002, 3.721973e+002
4.078282e+002, 3.585373e+002
4.083104e+002, 3.373941e+002
4.087925e+002, 3.118414e+002
4.092746e+002, 2.831923e+002
4.097567e+002, 2.523636e+002
4.102388e+002, 2.230231e+002
4.107209e+002, 1.939340e+002
4.112031e+002, 1.683891e+002
4.116852e+002, 1.470260e+002
4.121673e+002, 1.290076e+002
4.126494e+002, 1.137956e+002
4.131315e+002, 1.011193e+002
4.136136e+002, 9.050199e+001
4.140958e+002, 8.146010e+001
4.145779e+002, 7.413234e+001
4.150600e+002, 6.768826e+001
4.155421e+002, 6.238307e+001
4.160242e+002, 5.779104e+001
4.165063e+002, 5.395656e+001
4.169885e+002, 5.071751e+001
4.174706e+002, 4.781997e+001
4.179527e+002, 4.506145e+001
4.184348e+002, 4.252863e+001
4.189169e+002, 4.051452e+001
4.193990e+002, 3.919145e+001
4.198812e+002, 3.804148e+001
4.203633e+002, 3.704251e+001
4.208454e+002, 3.606659e+001
4.213275e+002, 3.497406e+001
4.218096e+002, 3.372896e+001
4.222917e+002, 3.248751e+001
4.227739e+002, 3.139853e+001
4.232560e+002, 3.046113e+001
4.237381e+002, 2.960568e+001
4.242202e+002, 2.879708e+001
4.247023e+002, 2.811525e+001
4.251844e+002, 2.763600e+001
4.256666e+002, 2.732258e+001
4.261487e+002, 2.704248e+001
4.266308e+002, 2.677182e+001
4.271129e+002, 2.648783e+001
4.275950e+002, 2.614193e+001
4.280771e+002, 2.572714e+001
4.285593e+002, 2.533442e+001
4.290414e+002, 2.501511e+001
4.295235e+002, 2.475161e+001
4.300056e+002, 2.448908e+001
4.304877e+002, 2.420510e+001
4.309698e+002, 2.397277e+001
4.314520e+002, 2.383799e+001
4.319341e+002, 2.377982e+001
4.324162e+002, 2.378570e+001
4.328983e+002, 2.386595e+001
4.333804e+002, 2.390790e+001
4.338625e+002, 2.372467e+001
4.343447e+002, 2.326325e+001
4.348268e+002, 2.308286e+001
4.353089e+002, 2.340898e+001
4.357910e+002, 2.384476e+001
4.362731e+002, 2.414480e+001
4.367552e+002, 2.432516e+001
4.372374e+002, 2.452817e+001
4.377195e+002, 2.485842e+001
4.382016e+002, 2.522949e+001
4.386837e+002, 2.530221e+001
4.391658e+002, 2.484698e+001
4.396479e+002, 2.438008e+001
4.401301e+002, 2.391376e+001
4.406122e+002, 2.346354e+001
4.410943e+002, 2.305840e+001
4.415764e+002, 2.269910e+001
4.420585e+002, 2.234167e+001
4.425406e+002, 2.193122e+001
4.430227e+002, 2.145079e+001
4.435049e+002, 2.103536e+001
4.439870e+002, 2.076313e+001
4.444691e+002, 2.047681e+001
4.449512e+002, 2.013142e+001
4.454333e+002, 1.974106e+001
4.459154e+002, 1.930123e+001
4.463976e+002, 1.879783e+001
4.468797e+002, 1.832291e+001
4.473618e+002, 1.811813e+001
4.478439e+002, 1.830120e+001
4.483260e+002, 1.840362e+001
4.488081e+002, 1.834492e+001
4.492903e+002, 1.817264e+001
4.497724e+002, 1.784898e+001
4.502545e+002, 1.740170e+001
4.507366e+002, 1.699458e+001
4.512187e+002, 1.680313e+001
4.517008e+002, 1.676556e+001
4.521830e+002, 1.660263e+001
4.526651e+002, 1.624990e+001
4.531472e+002, 1.592273e+001
4.536293e+002, 1.580293e+001
4.541114e+002, 1.577613e+001
4.545935e+002, 1.566887e+001
4.550757e+002, 1.539080e+001
4.555578e+002, 1.513202e+001
4.560399e+002, 1.509557e+001
4.565220e+002, 1.522664e+001
4.570041e+002, 1.527308e+001
4.574862e+002, 1.513952e+001
4.579684e+002, 1.494956e+001
4.584505e+002, 1.488822e+001
4.589326e+002, 1.495690e+001
4.594147e+002, 1.494183e+001
4.598968e+002, 1.468595e+001
4.603789e+002, 1.441702e+001
4.608611e+002, 1.436879e+001
4.613432e+002, 1.451510e+001
4.618253e+002, 1.465255e+001
4.623074e+002, 1.466162e+001
4.627895e+002, 1.456192e+001
4.632716e+002, 1.443142e+001
4.637538e+002, 1.419627e+001
4.642359e+002, 1.402866e+001
4.647180e+002, 1.399507e+001
4.652001e+002, 1.401133e+001
4.656822e+002, 1.398083e+001
4.661643e+002, 1.389048e+001
4.666465e+002, 1.381095e+001
4.671286e+002, 1.382619e+001
4.676107e+002, 1.395030e+001
4.680928e+002, 1.403352e+001
4.685749e+002, 1.402257e+001
4.690570e+002, 1.402711e+001
4.695392e+002, 1.415001e+001
4.700213e+002, 1.428650e+001
4.705034e+002, 1.424599e+001
4.709855e+002, 1.393658e+001
4.714676e+002, 1.354322e+001
4.719497e+002, 1.341794e+001
4.724319e+002, 1.363412e+001
4.729140e+002, 1.379512e+001
4.733961e+002, 1.377923e+001
4.738782e+002, 1.374916e+001
4.743603e+002, 1.382182e+001
4.748424e+002, 1.397128e+001
4.753246e+002, 1.407522e+001
4.758067e+002, 1.403734e+001
4.762888e+002, 1.391311e+001
4.767709e+002, 1.381207e+001
4.772530e+002, 1.373199e+001
4.777351e+002, 1.369338e+001
4.782173e+002, 1.372768e+001
4.786994e+002, 1.379959e+001
4.791815e+002, 1.385898e+001
4.796636e+002, 1.391098e+001
4.801457e+002, 1.392430e+001
4.806278e+002, 1.383690e+001
4.811100e+002, 1.371166e+001
4.815920e+002, 1.366680e+001
4.820742e+002, 1.372440e+001
4.825563e+002, 1.383309e+001
4.830384e+002, 1.397680e+001
4.835205e+002, 1.414736e+001
4.840026e+002, 1.418181e+001
4.844847e+002, 1.394506e+001
4.849669e+002, 1.372748e+001
4.854490e+002, 1.365410e+001
4.859311e+002, 1.367821e+001
4.864132e+002, 1.371745e+001
4.868953e+002, 1.374077e+001
4.873774e+002, 1.376048e+001
4.878596e+002, 1.380195e+001
4.883417e+002, 1.389825e+001
4.888238e+002, 1.392289e+001
4.893059e+002, 1.386878e+001
4.897880e+002, 1.376331e+001
4.902701e+002, 1.354535e+001
4.907523e+002, 1.328938e+001
4.912344e+002, 1.316601e+001
4.917165e+002, 1.329909e+001
4.921986e+002, 1.357272e+001
4.926807e+002, 1.365163e+001
4.931628e+002, 1.345125e+001
4.936450e+002, 1.328985e+001
4.941271e+002, 1.325928e+001
4.946092e+002, 1.327252e+001
4.950913e+002, 1.329035e+001
4.955734e+002, 1.330354e+001
4.960555e+002, 1.329419e+001
4.965377e+002, 1.322545e+001
4.970198e+002, 1.312673e+001
4.975019e+002, 1.308741e+001
4.979840e+002, 1.312163e+001
4.984661e+002, 1.315550e+001
4.989482e+002, 1.313596e+001
4.994304e+002, 1.309559e+001
4.999125e+002, 1.310446e+001
5.003946e+002, 1.319848e+001
5.008767e+002, 1.326229e+001
5.013588e+002, 1.320576e+001
5.018409e+002, 1.308944e+001
5.023231e+002, 1.302912e+001
5.028052e+002, 1.304919e+001
5.032873e+002, 1.307718e+001
5.037694e+002, 1.304094e+001
5.042515e+002, 1.293721e+001
5.047336e+002, 1.286226e+001
5.052158e+002, 1.282566e+001
5.056979e+002, 1.280352e+001
5.061800e+002, 1.280136e+001
5.066621e+002, 1.280399e+001
5.071442e+002, 1.278589e+001
5.076263e+002, 1.273874e+001
5.081085e+002, 1.268191e+001
5.085906e+002, 1.264253e+001
5.090727e+002, 1.261700e+001
5.095548e+002, 1.262195e+001
5.100369e+002, 1.275136e+001
5.105190e+002, 1.281679e+001
5.110012e+002, 1.267632e+001
5.114833e+002, 1.242809e+001
5.119654e+002, 1.227281e+001
5.124475e+002, 1.232728e+001
5.129296e+002, 1.246537e+001
5.134117e+002, 1.243869e+001
5.138939e+002, 1.221793e+001
5.143760e+002, 1.206220e+001
5.148581e+002, 1.208789e+001
5.153402e+002, 1.213484e+001
5.158223e+002, 1.204849e+001
5.163044e+002, 1.185066e+001
5.167866e+002, 1.169380e+001
5.172687e+002, 1.169644e+001
5.177508e+002, 1.174287e+001
5.182329e+002, 1.166659e+001
5.187150e+002, 1.147540e+001
5.191971e+002, 1.130376e+001
5.196793e+002, 1.121439e+001
5.201614e+002, 1.118293e+001
5.206435e+002, 1.116104e+001
5.211256e+002, 1.114977e+001
5.216077e+002, 1.114195e+001
5.220898e+002, 1.113301e+001
5.225720e+002, 1.112938e+001
5.230541e+002, 1.116034e+001
5.235362e+002, 1.121043e+001
5.240183e+002, 1.120474e+001
5.245004e+002, 1.107947e+001
5.249825e+002, 1.086757e+001
5.254647e+002, 1.073818e+001
5.259468e+002, 1.074995e+001
5.264289e+002, 1.076718e+001
5.269110e+002, 1.078218e+001
5.273931e+002, 1.079453e+001
5.278752e+002, 1.082219e+001
5.283574e+002, 1.085574e+001
5.288395e+002, 1.084266e+001
5.293216e+002, 1.070523e+001
5.298037e+002, 1.047606e+001
5.302858e+002, 1.036403e+001
5.307679e+002, 1.041468e+001
5.312501e+002, 1.047802e+001
5.317322e+002, 1.049427e+001
5.322143e+002, 1.048817e+001
5.326964e+002, 1.048904e+001
5.331785e+002, 1.050539e+001
5.336606e+002, 1.049810e+001
5.341428e+002, 1.042958e+001
5.346249e+002, 1.032153e+001
5.351070e+002, 1.021652e+001
5.355891e+002, 1.011953e+001
5.360712e+002, 1.002815e+001
5.365533e+002, 9.930807e+000
5.370355e+002, 9.838099e+000
5.375176e+002, 9.807695e+000
5.379997e+002, 9.895675e+000
5.384818e+002, 9.971288e+000
5.389639e+002, 1.001495e+001
5.394460e+002, 1.001828e+001
5.399282e+002, 9.942095e+000
5.404103e+002, 9.792089e+000
5.408924e+002, 9.661424e+000
5.413745e+002, 9.658600e+000
5.418566e+002, 9.789178e+000
5.423387e+002, 9.854251e+000
5.428209e+002, 9.804885e+000
5.433029e+002, 9.743910e+000
5.437850e+002, 9.708869e+000
5.442672e+002, 9.664682e+000
5.447493e+002, 9.555236e+000
5.452314e+002, 9.369688e+000
5.457135e+002, 9.182092e+000
5.461956e+002, 9.067132e+000
5.466777e+002, 9.022573e+000
5.471599e+002, 9.038336e+000
5.476420e+002, 9.145623e+000
5.481241e+002, 9.245488e+000
5.486062e+002, 9.290351e+000
5.490883e+002, 9.283689e+000
5.495704e+002, 9.208381e+000
5.500526e+002, 9.008251e+000
5.505347e+002, 8.853914e+000
5.510168e+002, 8.903098e+000
5.514989e+002, 9.065876e+000
5.519810e+002, 9.151875e+000
5.524631e+002, 9.120576e+000
5.529453e+002, 9.049369e+000
5.534274e+002, 9.014317e+000
5.539095e+002, 9.015317e+000
5.543916e+002, 8.951708e+000
5.548737e+002, 8.732219e+000
5.553558e+002, 8.567010e+000
5.558380e+002, 8.536866e+000
5.563201e+002, 8.581543e+000
5.568022e+002, 8.629233e+000
5.572843e+002, 8.660215e+000
5.577664e+002, 8.699219e+000
5.582485e+002, 8.796412e+000
5.587307e+002, 8.958204e+000
5.592128e+002, 8.977054e+000
5.596949e+002, 8.720270e+000
5.601770e+002, 8.509815e+000
5.606591e+002, 8.484317e+000
5.611412e+002, 8.545624e+000
5.616234e+002, 8.574951e+000
5.621055e+002, 8.540685e+000
5.625876e+002, 8.494890e+000
5.630697e+002, 8.480358e+000
5.635518e+002, 8.490753e+000
5.640339e+002, 8.507087e+000
5.645161e+002, 8.528722e+000
5.649982e+002, 8.551682e+000
5.654803e+002, 8.595037e+000
5.659624e+002, 8.634624e+000
5.664445e+002, 8.579667e+000
5.669266e+002, 8.350689e+000
5.674088e+002, 8.141166e+000
5.678909e+002, 7.994384e+000
5.683730e+002, 7.914224e+000
5.688551e+002, 7.933246e+000
5.693372e+002, 8.042418e+000
5.698193e+002, 8.153163e+000
5.703015e+002, 8.178102e+000
5.707836e+002, 8.123311e+000
5.712657e+002, 8.106772e+000
5.717478e+002, 8.204123e+000
5.722299e+002, 8.235883e+000
5.727120e+002, 8.087915e+000
5.731942e+002, 7.918931e+000
5.736763e+002, 7.901593e+000
5.741584e+002, 8.048417e+000
5.746405e+002, 8.201852e+000
5.751226e+002, 8.214064e+000
5.756047e+002, 8.117503e+000
5.760869e+002, 8.042256e+000
5.765690e+002, 7.987831e+000
5.770511e+002, 7.959517e+000
5.775332e+002, 7.989942e+000
5.780153e+002, 8.030631e+000
5.784974e+002, 7.992717e+000
5.789796e+002, 7.849518e+000
5.794617e+002, 7.742584e+000
5.799438e+002, 7.755875e+000
5.804259e+002, 7.815157e+000
5.809080e+002, 7.838654e+000
5.813901e+002, 7.821790e+000
5.818723e+002, 7.793397e+000
5.823544e+002, 7.769732e+000
5.828365e+002, 7.751647e+000
5.833186e+002, 7.742269e+000
5.838007e+002, 7.754426e+000
5.842828e+002, 7.755631e+000
5.847650e+002, 7.714494e+000
5.852471e+002, 7.688751e+000
5.857292e+002, 7.751276e+000
5.862113e+002, 7.867426e+000
5.866934e+002, 7.917876e+000
5.871755e+002, 7.805608e+000
5.876577e+002, 7.623551e+000
5.881398e+002, 7.604959e+000
5.886219e+002, 7.778992e+000
5.891040e+002, 7.919621e+000
5.895861e+002, 7.985748e+000
5.900682e+002, 7.984046e+000
5.905504e+002, 7.885419e+000
5.910325e+002, 7.711645e+000
5.915146e+002, 7.609191e+000
5.919967e+002, 7.690462e+000
5.924788e+002, 7.803429e+000
5.929609e+002, 7.815790e+000
5.934431e+002, 7.752285e+000
5.939252e+002, 7.685874e+000
5.944073e+002, 7.641403e+000
5.948894e+002, 7.620048e+000
5.953715e+002, 7.628208e+000
5.958536e+002, 7.679428e+000
5.963358e+002, 7.697899e+000
5.968179e+002, 7.662903e+000
5.973000e+002, 7.623334e+000
5.977821e+002, 7.589396e+000
5.982642e+002, 7.564090e+000
5.987463e+002, 7.545541e+000
5.992285e+002, 7.533797e+000
5.997106e+002, 7.541559e+000
6.001927e+002, 7.596883e+000
6.006748e+002, 7.697299e+000
6.011569e+002, 7.770473e+000
6.016390e+002, 7.816852e+000
6.021212e+002, 7.827738e+000
6.026033e+002, 7.757546e+000
6.030854e+002, 7.660440e+000
6.035675e+002, 7.625488e+000
6.040496e+002, 7.680998e+000
6.045317e+002, 7.744739e+000
6.050139e+002, 7.775715e+000
6.054960e+002, 7.789357e+000
6.059781e+002, 7.811839e+000
6.064602e+002, 7.844221e+000
6.069423e+002, 7.865305e+000
6.074244e+002, 7.860947e+000
6.079066e+002, 7.831896e+000
6.083887e+002, 7.780333e+000
6.088708e+002, 7.685130e+000
6.093529e+002, 7.597123e+000
6.098350e+002, 7.461272e+000
6.103171e+002, 7.378930e+000
6.107993e+002, 7.478419e+000
6.112814e+002, 7.706191e+000
6.117635e+002, 7.870158e+000
6.122456e+002, 7.832931e+000
6.127277e+002, 7.684676e+000
6.132098e+002, 7.620909e+000
6.136920e+002, 7.650856e+000
6.141741e+002, 7.647048e+000
6.146562e+002, 7.550351e+000
6.151383e+002, 7.446970e+000
6.156204e+002, 7.438014e+000
6.161025e+002, 7.506182e+000
6.165847e+002, 7.549117e+000
6.170668e+002, 7.526915e+000
6.175489e+002, 7.492383e+000
6.180310e+002, 7.463238e+000
6.185131e+002, 7.449176e+000
6.189952e+002, 7.480794e+000
6.194774e+002, 7.564848e+000
6.199595e+002, 7.650505e+000
6.204416e+002, 7.678490e+000
6.209237e+002, 7.646549e+000
6.214058e+002, 7.591087e+000
6.218879e+002, 7.432726e+000
6.223701e+002, 7.351640e+000
6.228522e+002, 7.468288e+000
6.233343e+002, 7.631906e+000
6.238164e+002, 7.671713e+000
6.242985e+002, 7.562005e+000
6.247806e+002, 7.437477e+000
6.252628e+002, 7.409785e+000
6.257448e+002, 7.450239e+000
6.262269e+002, 7.496373e+000
6.267090e+002, 7.550748e+000
6.271912e+002, 7.554634e+000
6.276733e+002, 7.447472e+000
6.281554e+002, 7.306532e+000
6.286375e+002, 7.295606e+000
6.291196e+002, 7.444005e+000
6.296017e+002, 7.552938e+000
6.300839e+002, 7.558581e+000
6.305660e+002, 7.546960e+000
6.310481e+002, 7.593062e+000
6.315302e+002, 7.669826e+000
6.320123e+002, 7.694244e+000
6.324944e+002, 7.627994e+000
6.329766e+002, 7.534148e+000
6.334587e+002, 7.527404e+000
6.339408e+002, 7.630100e+000
6.344229e+002, 7.705738e+000
6.349050e+002, 7.747200e+000
6.353871e+002, 7.766299e+000
6.358693e+002, 7.774172e+000
6.363514e+002, 7.763727e+000
6.368335e+002, 7.714082e+000
6.373156e+002, 7.608476e+000
6.377977e+002, 7.518914e+000
6.382798e+002, 7.520135e+000
6.387620e+002, 7.565970e+000
6.392441e+002, 7.554124e+000
6.397262e+002, 7.476346e+000
6.402083e+002, 7.432352e+000
6.406904e+002, 7.500780e+000
6.411725e+002, 7.635090e+000
6.416547e+002, 7.678663e+000
6.421368e+002, 7.519969e+000
6.426189e+002, 7.433654e+000
6.431010e+002, 7.459867e+000
6.435831e+002, 7.522189e+000
6.440652e+002, 7.591528e+000
6.445474e+002, 7.655036e+000
6.450295e+002, 7.700032e+000
6.455116e+002, 7.720571e+000
6.459937e+002, 7.715373e+000
6.464758e+002, 7.670242e+000
6.469579e+002, 7.585690e+000
6.474401e+002, 7.518225e+000
6.479222e+002, 7.462265e+000
6.484043e+002, 7.455581e+000
6.488864e+002, 7.566976e+000
6.493685e+002, 7.752374e+000
6.498506e+002, 7.871363e+000
6.503328e+002, 7.904274e+000
6.508149e+002, 7.884073e+000
6.512970e+002, 7.761636e+000
6.517791e+002, 7.626711e+000
6.522612e+002, 7.599113e+000
6.527433e+002, 7.681734e+000
6.532255e+002, 7.794027e+000
6.537076e+002, 7.881752e+000
6.541897e+002, 7.941202e+000
6.546718e+002, 7.960658e+000
6.551539e+002, 7.945595e+000
6.556360e+002, 7.876538e+000
6.561182e+002, 7.608931e+000
6.566003e+002, 7.410325e+000
6.570824e+002, 7.502127e+000
6.575645e+002, 7.793925e+000
6.580466e+002, 7.992345e+000
6.585287e+002, 7.940134e+000
6.590109e+002, 7.830353e+000
6.594930e+002, 7.868606e+000
6.599751e+002, 7.994433e+000
6.604572e+002, 8.022818e+000
6.609393e+002, 7.911474e+000
6.614214e+002, 7.782446e+000
6.619036e+002, 7.740541e+000
6.623857e+002, 7.778877e+000
6.628678e+002, 7.822642e+000
6.633499e+002, 7.887184e+000
6.638320e+002, 7.936715e+000
6.643141e+002, 7.973653e+000
6.647963e+002, 7.990611e+000
6.652784e+002, 7.968814e+000
6.657605e+002, 7.919330e+000
6.662426e+002, 7.882154e+000
6.667247e+002, 7.886991e+000
6.672068e+002, 7.909423e+000
6.676890e+002, 7.907136e+000
6.681711e+002, 7.880487e+000
6.686532e+002, 7.828068e+000
6.691353e+002, 7.721940e+000
6.696174e+002, 7.660050e+000
6.700995e+002, 7.787469e+000
6.705817e+002, 8.071265e+000
6.710638e+002, 8.181477e+000
6.715459e+002, 7.911592e+000
6.720280e+002, 7.715709e+000
6.725101e+002, 7.803209e+000
6.729922e+002, 7.998472e+000
6.734744e+002, 8.137122e+000
6.739565e+002, 8.183384e+000
6.744386e+002, 8.144635e+000
6.749207e+002, 8.008283e+000
6.754028e+002, 7.821418e+000
6.758849e+002, 7.746762e+000
6.763671e+002, 7.810432e+000
6.768492e+002, 7.871909e+000
6.773313e+002, 7.912410e+000
6.778134e+002, 7.933311e+000
6.782955e+002, 7.918306e+000
6.787776e+002, 7.882998e+000
6.792598e+002, 7.886564e+000
6.797419e+002, 7.990911e+000
6.802240e+002, 8.075124e+000
6.807061e+002, 8.033611e+000
6.811882e+002, 7.939222e+000
6.816703e+002, 7.915691e+000
6.821525e+002, 7.978305e+000
6.826346e+002, 8.045976e+000
6.831167e+002, 8.048508e+000
6.835988e+002, 8.005809e+000
6.840809e+002, 8.023404e+000
6.845630e+002, 8.152654e+000
6.850452e+002, 8.229654e+000
6.855273e+002, 8.192199e+000
6.860094e+002, 8.131531e+000
6.864915e+002, 8.092999e+000
6.869736e+002, 8.074508e+000
6.874557e+002, 8.058824e+000
6.879379e+002, 8.033883e+000
6.884200e+002, 8.019926e+000
6.889021e+002, 8.048591e+000
6.893842e+002, 8.099768e+000
6.898663e+002, 8.124569e+000
6.903484e+002, 8.114553e+000
6.908306e+002, 8.090951e+000
6.913127e+002, 8.064461e+000
6.917948e+002, 8.042618e+000
6.922769e+002, 8.064703e+000
6.927590e+002, 8.169713e+000
6.932411e+002, 8.257277e+000
6.937233e+002, 8.319038e+000
6.942054e+002, 8.366343e+000
6.946875e+002, 8.418636e+000
6.951696e+002, 8.461902e+000
6.956517e+002, 8.458486e+000
6.961339e+002, 8.385502e+000
6.966160e+002, 8.281026e+000
6.970981e+002, 8.158114e+000
6.975802e+002, 8.036896e+000
6.980623e+002, 8.000903e+000
6.985444e+002, 8.067706e+000
6.990266e+002, 8.148480e+000
6.995087e+002, 8.179621e+000
6.999908e+002, 8.177518e+000
7.004729e+002, 8.204143e+000
7.009550e+002, 8.267996e+000
7.014371e+002, 8.348838e+000
7.019193e+002, 8.470076e+000
7.024014e+002, 8.586276e+000
7.028835e+002, 8.673026e+000
7.033656e+002, 8.732064e+000
7.038477e+002, 8.772861e+000
7.043298e+002, 8.798746e+000
7.048120e+002, 8.811651e+000
7.052941e+002, 8.801757e+000
7.057762e+002, 8.777954e+000
7.062583e+002, 8.787210e+000
7.067404e+002, 8.837147e+000
7.072225e+002, 8.900535e+000
7.077046e+002, 8.974179e+000
7.081867e+002, 9.041794e+000
7.086688e+002, 9.060581e+000
7.091509e+002, 9.022006e+000
7.096331e+002, 8.959685e+000
7.101152e+002, 8.796024e+000
7.105973e+002, 8.686443e+000
7.110794e+002, 8.763113e+000
7.115615e+002, 8.948741e+000
7.120436e+002, 9.108129e+000
7.125258e+002, 9.191916e+000
7.130079e+002, 9.225001e+000
7.134900e+002, 9.200091e+000
7.139721e+002, 9.140989e+000
7.144542e+002, 9.214743e+000
7.149363e+002, 9.458820e+000
7.154185e+002, 9.617514e+000
7.159006e+002, 9.534509e+000
7.163827e+002, 9.341755e+000
7.168648e+002, 9.249993e+000
7.173469e+002, 9.260391e+000
7.178290e+002, 9.345734e+000
7.183112e+002, 9.607593e+000
7.187933e+002, 9.833374e+000
7.192754e+002, 9.899049e+000
7.197575e+002, 9.869516e+000
7.202396e+002, 9.830385e+000
7.207217e+002, 9.810271e+000
7.212039e+002, 9.813503e+000
7.216860e+002, 9.851081e+000
7.221681e+002, 9.914045e+000
7.226502e+002, 9.959576e+000
7.231323e+002, 9.982046e+000
7.236144e+002, 1.004261e+001
7.240966e+002, 1.018612e+001
7.245787e+002, 1.033632e+001
7.250608e+002, 1.037767e+001
7.255429e+002, 1.031435e+001
7.260250e+002, 1.034411e+001
7.265071e+002, 1.057985e+001
7.269893e+002, 1.078785e+001
7.274714e+002, 1.086003e+001
7.279535e+002, 1.087471e+001
7.284356e+002, 1.090765e+001
7.289177e+002, 1.097609e+001
7.293998e+002, 1.107528e+001
7.298820e+002, 1.120818e+001
7.303641e+002, 1.135749e+001
7.308462e+002, 1.148193e+001
7.313283e+002, 1.158019e+001
7.318104e+002, 1.168864e+001
7.322925e+002, 1.182749e+001
7.327747e+002, 1.194612e+001
7.332568e+002, 1.199214e+001
7.337389e+002, 1.197979e+001
7.342210e+002, 1.199108e+001
7.347031e+002, 1.204287e+001
7.351852e+002, 1.209157e+001
7.356674e+002, 1.208350e+001
7.361495e+002, 1.210511e+001
7.366316e+002, 1.228011e+001
7.371137e+002, 1.254760e+001
7.375958e+002, 1.272340e+001
7.380779e+002, 1.271192e+001
7.385601e+002, 1.262731e+001
7.390422e+002, 1.263965e+001
7.395243e+002, 1.273820e+001
7.400064e+002, 1.281504e+001
7.404885e+002, 1.285338e+001
7.409706e+002, 1.290659e+001
7.414528e+002, 1.300066e+001
7.419349e+002, 1.313093e+001
7.424170e+002, 1.330740e+001
7.428991e+002, 1.358121e+001
7.433812e+002, 1.372586e+001
7.438633e+002, 1.358026e+001
7.443455e+002, 1.345010e+001
7.448276e+002, 1.351111e+001
7.453097e+002, 1.368834e+001
7.457918e+002, 1.386073e+001
7.462739e+002, 1.399132e+001
7.467560e+002, 1.411051e+001
7.472382e+002, 1.423388e+001
7.477203e+002, 1.437024e+001
7.482024e+002, 1.456733e+001
7.486845e+002, 1.482823e+001
7.491666e+002, 1.502587e+001
7.496487e+002, 1.509807e+001
7.501309e+002, 1.514021e+001
7.506130e+002, 1.527180e+001
7.510951e+002, 1.549952e+001
7.515772e+002, 1.567969e+001
7.520593e+002, 1.578935e+001
7.525414e+002, 1.588480e+001
7.530236e+002, 1.593620e+001
7.535057e+002, 1.600927e+001
7.539878e+002, 1.615747e+001
7.544699e+002, 1.638451e+001
7.549520e+002, 1.668073e+001
7.554341e+002, 1.706833e+001
7.559163e+002, 1.746687e+001
7.563984e+002, 1.776030e+001
7.568805e+002, 1.796560e+001
7.573626e+002, 1.813067e+001
7.578447e+002, 1.825814e+001
7.583268e+002, 1.844128e+001
7.588090e+002, 1.876577e+001
7.592911e+002, 1.917718e+001
7.597732e+002, 1.949100e+001
7.602553e+002, 1.961503e+001
7.607374e+002, 1.981202e+001
7.612195e+002, 2.009683e+001
7.617017e+002, 2.043292e+001
7.621838e+002, 2.081481e+001
7.626659e+002, 2.123203e+001
7.631480e+002, 2.165653e+001
7.636301e+002, 2.207652e+001
7.641122e+002, 2.258303e+001
7.645944e+002, 2.335648e+001
7.650765e+002, 2.420025e+001
7.655586e+002, 2.471464e+001
7.660407e+002, 2.497172e+001
7.665228e+002, 2.541761e+001
7.670049e+002, 2.622948e+001
7.674871e+002, 2.724756e+001
7.679692e+002, 2.827470e+001
7.684513e+002, 2.932089e+001
7.689334e+002, 3.029963e+001
7.694155e+002, 3.118787e+001
7.698976e+002, 3.205089e+001
7.703798e+002, 3.286294e+001
7.708619e+002, 3.368907e+001
7.713440e+002, 3.458977e+001
7.718261e+002, 3.555011e+001
7.723082e+002, 3.648719e+001
7.727903e+002, 3.739905e+001
7.732725e+002, 3.824253e+001
7.737546e+002, 3.895663e+001
7.742367e+002, 3.959165e+001
7.747188e+002, 4.022960e+001
7.752009e+002, 4.087634e+001
7.756830e+002, 4.150309e+001
7.761652e+002, 4.210621e+001
7.766473e+002, 4.261883e+001
7.771294e+002, 4.284716e+001
7.776115e+002, 4.274279e+001
7.780936e+002, 4.270068e+001
7.785757e+002, 4.284529e+001
7.790579e+002, 4.286828e+001
7.795400e+002, 4.253572e+001
7.800221e+002, 4.200243e+001
7.805042e+002, 4.150185e+001
7.809863e+002, 4.101379e+001
7.814684e+002, 4.067329e+001
7.819506e+002, 4.065889e+001
7.824327e+002, 4.065566e+001
7.829148e+002, 4.049066e+001
7.833969e+002, 4.018502e+001
7.838790e+002, 3.974708e+001
7.843611e+002, 3.920488e+001
7.848433e+002, 3.870587e+001
7.853254e+002, 3.841000e+001
7.858075e+002, 3.824560e+001
7.862896e+002, 3.796065e+001
7.867717e+002, 3.755198e+001
7.872538e+002, 3.734238e+001
7.877360e+002, 3.746922e+001
7.882181e+002, 3.763609e+001
7.887002e+002, 3.753062e+001
7.891823e+002, 3.720733e+001
7.896644e+002, 3.713449e+001
7.901465e+002, 3.753570e+001
7.906286e+002, 3.785352e+001
7.911107e+002, 3.797139e+001
7.915928e+002, 3.806426e+001
7.920750e+002, 3.822279e+001
7.925571e+002, 3.845094e+001
7.930392e+002, 3.874443e+001
7.935213e+002, 3.910682e+001
7.940034e+002, 3.948309e+001
7.944855e+002, 3.979674e+001
7.949677e+002, 4.010335e+001
7.954498e+002, 4.054792e+001
7.959319e+002, 4.110824e+001
7.964140e+002, 4.154051e+001
7.968961e+002, 4.173116e+001
7.973782e+002, 4.190999e+001
7.978604e+002, 4.242070e+001
7.983425e+002, 4.328719e+001
7.988246e+002, 4.395384e+001
7.993067e+002, 4.426845e+001
7.997888e+002, 4.466211e+001
8.002709e+002, 4.526986e+001
8.007531e+002, 4.597205e+001
8.012352e+002, 4.668148e+001
8.017173e+002, 4.740536e+001
8.021994e+002, 4.818793e+001
8.026815e+002, 4.911917e+001
8.031636e+002, 4.999600e+001
8.036458e+002, 5.065851e+001
8.041279e+002, 5.123488e+001
8.046100e+002, 5.184182e+001
8.050921e+002, 5.250685e+001
8.055742e+002, 5.325082e+001
8.060563e+002, 5.407930e+001
8.065385e+002, 5.500352e+001
8.070206e+002, 5.602942e+001
8.075027e+002, 5.716012e+001
8.079848e+002, 5.845016e+001
8.084669e+002, 5.994954e+001
8.089490e+002, 6.137903e+001
8.094312e+002, 6.256061e+001
8.099133e+002, 6.367430e+001
8.103954e+002, 6.499121e+001
8.108775e+002, 6.654545e+001
8.113596e+002, 6.809460e+001
8.118417e+002, 6.953240e+001
8.123239e+002, 7.109183e+001
8.128060e+002, 7.271048e+001
8.132881e+002, 7.456454e+001
8.137702e+002, 7.680666e+001
8.142523e+002, 7.943045e+001
8.147344e+002, 8.232845e+001
8.152166e+002, 8.544501e+001
8.156987e+002, 8.880678e+001
8.161808e+002, 9.235976e+001
8.166629e+002, 9.616348e+001
8.171450e+002, 1.002477e+002
8.176271e+002, 1.046652e+002
8.181093e+002, 1.097778e+002
8.185914e+002, 1.158131e+002
8.190735e+002, 1.225306e+002
8.195556e+002, 1.293871e+002
8.200377e+002, 1.362477e+002
8.205198e+002, 1.441509e+002
8.210020e+002, 1.531798e+002
8.214841e+002, 1.632129e+002
8.219662e+002, 1.740562e+002
8.224483e+002, 1.860012e+002
8.229304e+002, 1.990938e+002
8.234125e+002, 2.133735e+002
8.238947e+002, 2.293553e+002
8.243768e+002, 2.473257e+002
8.248589e+002, 2.667001e+002
8.253410e+002, 2.869277e+002
8.258231e+002, 3.087271e+002
8.263052e+002, 3.332347e+002
8.267874e+002, 3.601043e+002
8.272695e+002, 3.877075e+002
8.277516e+002, 4.152535e+002
8.282337e+002, 4.432282e+002
8.287158e+002, 4.722121e+002
8.291979e+002, 5.022609e+002
8.296801e+002, 5.338801e+002
8.301622e+002, 5.669440e+002
8.306443e+002, 6.007698e+002
8.311264e+002, 6.353269e+002
8.316085e+002, 6.691350e+002
8.320906e+002, 6.999462e+002
8.325728e+002, 7.272325e+002
8.330549e+002, 7.543372e+002
8.335370e+002, 7.838578e+002
8.340191e+002, 8.090280e+002
8.345012e+002, 8.289782e+002
8.349833e+002, 8.436227e+002
8.354655e+002, 8.530471e+002
8.359476e+002, 8.571912e+002
8.364297e+002, 8.560696e+002
8.369118e+002, 8.493084e+002
8.373939e+002, 8.379210e+002
8.378760e+002, 8.223076e+002
8.383582e+002, 8.024144e+002
8.388403e+002, 7.773104e+002
8.393224e+002, 7.478172e+002
8.398045e+002, 7.157658e+002
8.402866e+002, 6.820558e+002
8.407687e+002, 6.480750e+002
8.412509e+002, 6.166662e+002
8.417330e+002, 5.871348e+002
8.422151e+002, 5.553801e+002
8.426972e+002, 5.213442e+002
8.431793e+002, 4.875201e+002
8.436614e+002, 4.547708e+002
8.441436e+002, 4.234406e+002
8.446257e+002, 3.942084e+002
8.451078e+002, 3.670000e+002
8.455899e+002, 3.410231e+002
8.460720e+002, 3.159818e+002
8.465541e+002, 2.928502e+002
8.470363e+002, 2.717446e+002
8.475184e+002, 2.524111e+002
8.480005e+002, 2.347514e+002
8.484826e+002, 2.186385e+002
8.489647e+002, 2.037336e+002
8.494468e+002, 1.899065e+002
8.499290e+002, 1.775155e+002
8.504111e+002, 1.671705e+002
8.508932e+002, 1.579590e+002
8.513753e+002, 1.489117e+002
8.518574e+002, 1.401490e+002
8.523395e+002, 1.321327e+002
8.528217e+002, 1.250268e+002
8.533038e+002, 1.184547e+002
8.537859e+002, 1.121189e+002
8.542680e+002, 1.061007e+002
8.547501e+002, 1.008470e+002
8.552322e+002, 9.634702e+001
8.557144e+002, 9.185570e+001
8.561965e+002, 8.716993e+001
8.566786e+002, 8.281157e+001
8.571607e+002, 7.925993e+001
8.576428e+002, 7.630082e+001
8.581249e+002, 7.320374e+001
8.586071e+002, 6.973640e+001
8.590892e+002, 6.665778e+001
8.595713e+002, 6.409437e+001
8.600534e+002, 6.175971e+001
8.605355e+002, 5.953373e+001
8.610176e+002, 5.748244e+001
8.614998e+002, 5.572129e+001
8.619819e+002, 5.424779e+001
8.624640e+002, 5.286034e+001
8.629461e+002, 5.141611e+001
8.634282e+002, 5.007732e+001
8.639103e+002, 4.899274e+001
8.643925e+002, 4.806504e+001
8.648746e+002, 4.716929e+001
8.653567e+002, 4.628991e+001
8.658388e+002, 4.551937e+001
8.663209e+002, 4.492680e+001
8.668030e+002, 4.434287e+001
8.672852e+002, 4.345665e+001
8.677673e+002, 4.234106e+001
8.682494e+002, 4.135128e+001
8.687315e+002, 4.050886e+001
8.692136e+002, 3.984788e+001
8.696957e+002, 3.940525e+001
8.701779e+002, 3.906206e+001
8.706600e+002, 3.865985e+001
8.711421e+002, 3.819655e+001
8.716242e+002, 3.783680e+001
8.721063e+002, 3.771332e+001
8.725884e+002, 3.745922e+001
8.730705e+002, 3.680188e+001
8.735526e+002, 3.619801e+001
8.740347e+002, 3.593159e+001
8.745168e+002, 3.593037e+001
8.749990e+002, 3.602380e+001
8.754811e+002, 3.624853e+001
8.759632e+002, 3.637076e+001
8.764453e+002, 3.620597e+001
8.769274e+002, 3.600818e+001
8.774095e+002, 3.588997e+001
8.778917e+002, 3.590157e+001
8.783738e+002, 3.611810e+001
8.788559e+002, 3.654315e+001
8.793380e+002, 3.708252e+001
8.798201e+002, 3.770175e+001
8.803022e+002, 3.834803e+001
8.807844e+002, 3.888654e+001
8.812665e+002, 3.937710e+001
8.817486e+002, 4.003607e+001
8.822307e+002, 4.089539e+001
8.827128e+002, 4.185946e+001
8.831949e+002, 4.285677e+001
8.836771e+002, 4.395757e+001
8.841592e+002, 4.534192e+001
8.846413e+002, 4.707063e+001
8.851234e+002, 4.862498e+001
8.856055e+002, 4.990744e+001
8.860876e+002, 5.126894e+001
8.865698e+002, 5.293830e+001
8.870519e+002, 5.463292e+001
8.875340e+002, 5.603221e+001
8.880161e+002, 5.715072e+001
8.884982e+002, 5.829151e+001
8.889803e+002, 5.993990e+001
8.894625e+002, 6.093597e+001
8.899446e+002, 6.094853e+001
8.904267e+002, 6.037754e+001
8.909088e+002, 5.940311e+001
8.913909e+002, 5.807975e+001
8.918730e+002, 5.644375e+001
8.923552e+002, 5.449157e+001
8.928373e+002, 5.232703e+001
8.933194e+002, 4.991586e+001
8.938015e+002, 4.740334e+001
8.942836e+002, 4.477767e+001
8.947657e+002, 4.222471e+001
8.952479e+002, 4.022217e+001
8.957300e+002, 3.881449e+001
8.962121e+002, 3.751098e+001
8.966942e+002, 3.592533e+001
8.971763e+002, 3.433545e+001
8.976584e+002, 3.338317e+001
8.981406e+002, 3.300608e+001
8.986227e+002, 3.254140e+001
8.991048e+002, 3.192392e+001
8.995869e+002, 3.128604e+001
9.000690e+002, 3.065148e+001
9.005511e+002, 3.013474e+001
9.010333e+002, 2.993883e+001
9.015154e+002, 3.008485e+001
9.019975e+002, 3.007049e+001
9.024796e+002, 2.980072e+001
9.029617e+002, 2.954674e+001
9.034438e+002, 2.938606e+001
9.039260e+002, 2.922876e+001
9.044081e+002, 2.902233e+001
9.048902e+002, 2.877228e+001
9.053723e+002, 2.850209e+001
9.058544e+002, 2.823829e+001
9.063365e+002, 2.788793e+001
9.068187e+002, 2.738560e+001
9.073008e+002, 2.683722e+001
9.077829e+002, 2.630990e+001
9.082650e+002, 2.577908e+001
9.087471e+002, 2.518237e+001
9.092292e+002, 2.452717e+001
9.097114e+002, 2.390484e+001
9.101935e+002, 2.338168e+001
9.106756e+002, 2.290000e+001
9.111577e+002, 2.239440e+001
9.116398e+002, 2.188774e+001
9.121219e+002, 2.144719e+001
9.126041e+002, 2.105842e+001
9.130862e+002, 2.059591e+001
9.135683e+002, 2.000038e+001
9.140504e+002, 1.943268e+001
9.145325e+002, 1.916141e+001
9.150146e+002, 1.911212e+001
9.154968e+002, 1.880756e+001
9.159789e+002, 1.823636e+001
9.164610e+002, 1.772999e+001
9.169431e+002, 1.736945e+001
9.174252e+002, 1.708725e+001
9.179073e+002, 1.683815e+001
9.183895e+002, 1.660984e+001
9.188716e+002, 1.635943e+001
9.193537e+002, 1.609564e+001
9.198358e+002, 1.577609e+001
9.203179e+002, 1.531816e+001
9.208000e+002, 1.492305e+001
9.212822e+002, 1.469975e+001
9.217643e+002, 1.455985e+001
9.222464e+002, 1.443177e+001
9.227285e+002, 1.431102e+001
9.232106e+002, 1.414954e+001
9.236927e+002, 1.392765e+001
9.241749e+002, 1.368204e+001
9.246570e+002, 1.335258e+001
9.251391e+002, 1.306660e+001
9.256212e+002, 1.296519e+001
9.261033e+002, 1.297635e+001
9.265854e+002, 1.294542e+001
9.270676e+002, 1.282707e+001
9.275497e+002, 1.267595e+001
9.280318e+002, 1.251844e+001
9.285139e+002, 1.235530e+001
9.289960e+002, 1.214439e+001
9.294781e+002, 1.194219e+001
9.299603e+002, 1.189470e+001
9.304424e+002, 1.198989e+001
9.309245e+002, 1.202539e+001
9.314066e+002, 1.186094e+001
9.318887e+002, 1.163824e+001
9.323708e+002, 1.161768e+001
9.328530e+002, 1.173424e+001
9.333351e+002, 1.170350e+001
9.338172e+002, 1.151813e+001
9.342993e+002, 1.130339e+001
9.347814e+002, 1.109691e+001
9.352635e+002, 1.098619e+001
9.357457e+002, 1.109141e+001
9.362278e+002, 1.136149e+001
9.367099e+002, 1.149779e+001
9.371920e+002, 1.148731e+001
9.376741e+002, 1.138741e+001
9.381563e+002, 1.116015e+001
9.386384e+002, 1.093999e+001
9.391205e+002, 1.078580e+001
9.396026e+002, 1.069427e+001
9.400847e+002, 1.067053e+001
9.405668e+002, 1.073274e+001
9.410490e+002, 1.075560e+001
9.415311e+002, 1.075735e+001
9.420132e+002, 1.069696e+001
9.424953e+002, 1.046882e+001
9.429774e+002, 1.026419e+001
9.434595e+002, 1.024109e+001
9.439417e+002, 1.035171e+001
9.444238e+002, 1.046870e+001
9.449059e+002, 1.058332e+001
9.453880e+002, 1.064312e+001
9.458701e+002, 1.052132e+001
9.463522e+002, 1.045367e+001
9.468344e+002, 1.068362e+001
9.473165e+002, 1.101556e+001
9.477986e+002, 1.116481e+001
9.482807e+002, 1.111805e+001
9.487628e+002, 1.107358e+001
9.492449e+002, 1.114316e+001
9.497271e+002, 1.123558e+001
9.502092e+002, 1.124330e+001
9.506913e+002, 1.122942e+001
9.511734e+002, 1.129407e+001
9.516555e+002, 1.142922e+001
9.521376e+002, 1.159687e+001
9.526198e+002, 1.177807e+001
9.531019e+002, 1.192621e+001
9.535840e+002, 1.198459e+001
9.540661e+002, 1.199438e+001
9.545482e+002, 1.204742e+001
9.550303e+002, 1.214273e+001
9.555124e+002, 1.231104e+001
9.559945e+002, 1.255622e+001
9.564766e+002, 1.268236e+001
9.569587e+002, 1.257653e+001
9.574409e+002, 1.234119e+001
9.579230e+002, 1.213621e+001
9.584051e+002, 1.195927e+001
9.588872e+002, 1.176514e+001
9.593693e+002, 1.155670e+001
9.598514e+002, 1.130952e+001
9.603336e+002, 1.099969e+001
9.608157e+002, 1.069626e+001
9.612978e+002, 1.046945e+001
9.617799e+002, 1.027897e+001
9.622620e+002, 1.000218e+001
9.627441e+002, 9.579221e+000
9.632263e+002, 9.256060e+000
9.637084e+002, 9.072118e+000
9.641905e+002, 8.937421e+000
9.646726e+002, 8.859127e+000
9.651547e+002, 8.793712e+000
9.656368e+002, 8.709167e+000
9.661190e+002, 8.604931e+000
9.666011e+002, 8.477285e+000
9.670832e+002, 8.260692e+000
9.675653e+002, 8.152497e+000
9.680474e+002, 8.327936e+000
9.685295e+002, 8.478735e+000
9.690117e+002, 8.401875e+000
9.694938e+002, 8.208309e+000
9.699759e+002, 8.036014e+000
9.704580e+002, 7.910170e+000
9.709401e+002, 7.819430e+000
9.714222e+002, 7.755807e+000
9.719044e+002, 7.731827e+000
9.723865e+002, 7.811533e+000
9.728686e+002, 7.890968e+000
9.733507e+002, 7.854758e+000
9.738328e+002, 7.724952e+000
9.743149e+002, 7.539380e+000
9.747971e+002, 7.324613e+000
9.752792e+002, 7.196386e+000
9.757613e+002, 7.317943e+000
9.762434e+002, 7.497812e+000
9.767255e+002, 7.455503e+000
9.772076e+002, 7.283683e+000
9.776898e+002, 7.172010e+000
9.781719e+002, 7.139153e+000
9.786540e+002, 7.129967e+000
9.791361e+002, 7.118010e+000
9.796182e+002, 7.123254e+000
9.801003e+002, 7.189604e+000
9.805825e+002, 7.286479e+000
9.810646e+002, 7.301129e+000
9.815467e+002, 7.242959e+000
9.820288e+002, 7.178337e+000
9.825109e+002, 7.120769e+000
9.829930e+002, 7.102575e+000
9.834752e+002, 7.151041e+000
9.839573e+002, 7.222982e+000
9.844394e+002, 7.236067e+000
9.849215e+002, 7.190045e+000
9.854036e+002, 7.120906e+000
9.858857e+002, 7.016871e+000
9.863679e+002, 6.965392e+000
9.868500e+002, 6.999637e+000
9.873321e+002, 7.058214e+000
9.878142e+002, 7.091150e+000
9.882963e+002, 7.110570e+000
9.887784e+002, 7.158558e+000
9.892606e+002, 7.253317e+000
9.897427e+002, 7.310832e+000
9.902248e+002, 7.321548e+000
9.907069e+002, 7.311639e+000
9.911890e+002, 7.269645e+000
9.916711e+002, 7.231755e+000
9.921533e+002, 7.236985e+000
9.926354e+002, 7.278130e+000
9.931175e+002, 7.312642e+000
9.935996e+002, 7.340501e+000
9.940817e+002, 7.361714e+000
9.945638e+002, 7.398344e+000
9.950460e+002, 7.402045e+000
9.955281e+002, 7.299557e+000
9.960102e+002, 7.192761e+000
9.964923e+002, 7.206819e+000
9.969744e+002, 7.329721e+000
9.974565e+002, 7.430950e+000
9.979387e+002, 7.468766e+000
9.984208e+002, 7.511955e+000
9.989029e+002, 7.597129e+000
9.993850e+002, 7.672183e+000
9.998671e+002, 7.699882e+000
1.000349e+003, 7.698455e+000
1.000831e+003, 7.684382e+000
1.001313e+003, 7.665857e+000
1.001796e+003, 7.676964e+000
1.002278e+003, 7.771103e+000
1.002760e+003, 7.838017e+000
1.003242e+003, 7.803277e+000
1.003724e+003, 7.726707e+000
1.004206e+003, 7.602153e+000
1.004688e+003, 7.500734e+000
1.005170e+003, 7.590066e+000
1.005653e+003, 7.883532e+000
1.006135e+003, 8.105898e+000
1.006617e+003, 8.037271e+000
1.007099e+003, 7.888866e+000
1.007581e+003, 7.869294e+000
1.008063e+003, 7.888187e+000
1.008545e+003, 7.793756e+000
1.009027e+003, 7.620396e+000
1.009509e+003, 7.508958e+000
1.009992e+003, 7.506094e+000
1.010474e+003, 7.530144e+000
1.010956e+003, 7.522097e+000
1.011438e+003, 7.485888e+000
1.011920e+003, 7.417365e+000
1.012402e+003, 7.328113e+000
1.012884e+003, 7.240799e+000
1.013366e+003, 7.159965e+000
1.013849e+003, 7.088610e+000
1.014331e+003, 7.027726e+000
1.014813e+003, 6.974192e+000
1.015295e+003, 6.912543e+000
1.015777e+003, 6.864818e+000
1.016259e+003, 6.919887e+000
1.016741e+003, 7.044352e+000
1.017223e+003, 7.062799e+000
1.017705e+003, 6.959206e+000
1.018188e+003, 6.865454e+000
1.018670e+003, 6.849443e+000
1.019152e+003, 6.873648e+000
1.019634e+003, 6.905897e+000
1.020116e+003, 6.928006e+000
1.020598e+003, 6.810420e+000
1.021080e+003, 6.562781e+000
1.021562e+003, 6.456894e+000
1.022044e+003, 6.547148e+000
1.022527e+003, 6.644074e+000
1.023009e+003, 6.642846e+000
1.023491e+003, 6.565637e+000
1.023973e+003, 6.429415e+000
1.024455e+003, 6.242508e+000
1.024937e+003, 6.161788e+000
1.025419e+003, 6.203515e+000
1.025901e+003, 6.217988e+000
1.026384e+003, 6.178111e+000
1.026866e+003, 6.097780e+000
1.027348e+003, 5.965911e+000
1.027830e+003, 5.843938e+000
1.028312e+003, 5.864421e+000
1.028794e+003, 6.038196e+000
1.029276e+003, 6.074554e+000
1.029758e+003, 5.927267e+000
1.030240e+003, 5.799947e+000
1.030723e+003, 5.714620e+000
1.031205e+003, 5.699628e+000
1.031687e+003, 5.808226e+000
1.032169e+003, 5.960420e+000
1.032651e+003, 5.979710e+000
1.033133e+003, 5.837530e+000
1.033615e+003, 5.811690e+000
1.034097e+003, 5.992428e+000
1.034579e+003, 6.088529e+000
1.035062e+003, 6.000504e+000
1.035544e+003, 5.884374e+000
1.036026e+003, 5.850414e+000
1.036508e+003, 5.853539e+000
1.036990e+003, 5.789499e+000
1.037472e+003, 5.633109e+000
1.037954e+003, 5.551986e+000
1.038436e+003, 5.592006e+000
1.038919e+003, 5.634718e+000
1.039401e+003, 5.658748e+000
1.039883e+003, 5.681191e+000
1.040365e+003, 5.733824e+000
1.040847e+003, 5.786117e+000
1.041329e+003, 5.757823e+000
1.041811e+003, 5.618912e+000
1.042293e+003, 5.558865e+000
1.042776e+003, 5.643425e+000
1.043258e+003, 5.719402e+000
1.043740e+003, 5.804001e+000
1.044222e+003, 5.826732e+000
1.044704e+003, 5.669174e+000
1.045186e+003, 5.441711e+000
1.045668e+003, 5.375705e+000
1.046150e+003, 5.514736e+000
1.046632e+003, 5.606477e+000
1.047115e+003, 5.575064e+000
1.047597e+003, 5.561328e+000
1.048079e+003, 5.650917e+000
1.048561e+003, 5.718770e+000
1.049043e+003, 5.639365e+000
1.049525e+003, 5.491049e+000
1.050007e+003, 5.423606e+000
1.050489e+003, 5.458420e+000
1.050971e+003, 5.519356e+000
1.051454e+003, 5.648460e+000
1.051936e+003, 5.724357e+000
1.052418e+003, 5.669502e+000
1.052900e+003, 5.589057e+000
1.053382e+003, 5.557431e+000
1.053864e+003, 5.556211e+000
1.054346e+003, 5.543874e+000
1.054828e+003, 5.514238e+000
1.055311e+003, 5.484985e+000
1.055793e+003, 5.450214e+000
1.056275e+003, 5.430871e+000
1.056757e+003, 5.456592e+000
1.057239e+003, 5.478582e+000
1.057721e+003, 5.439325e+000
1.058203e+003, 5.379194e+000
1.058685e+003, 5.378780e+000
1.059167e+003, 5.448851e+000
1.059650e+003, 5.503206e+000
1.060132e+003, 5.506472e+000
1.060614e+003, 5.499183e+000
1.061096e+003, 5.488722e+000
1.061578e+003, 5.481321e+000
1.062060e+003, 5.495730e+000
1.062542e+003, 5.509874e+000
1.063024e+003, 5.474884e+000
1.063506e+003, 5.389349e+000
1.063989e+003, 5.335751e+000
1.064471e+003, 5.377665e+000
1.064953e+003, 5.408705e+000
1.065435e+003, 5.359120e+000
1.065917e+003, 5.307806e+000
1.066399e+003, 5.322707e+000
1.066881e+003, 5.372942e+000
1.067363e+003, 5.413664e+000
1.067846e+003, 5.434536e+000
1.068328e+003, 5.429730e+000
1.068810e+003, 5.399067e+000
1.069292e+003, 5.338879e+000
1.069774e+003, 5.153120e+000
1.070256e+003, 5.033109e+000
1.070738e+003, 5.221480e+000
1.071220e+003, 5.511135e+000
1.071703e+003, 5.572443e+000
1.072185e+003, 5.402799e+000
1.072667e+003, 5.299268e+000
1.073149e+003, 5.417020e+000
1.073631e+003, 5.508447e+000
1.074113e+003, 5.428275e+000
1.074595e+003, 5.311743e+000
1.075077e+003, 5.231596e+000
1.075559e+003, 5.190904e+000
1.076042e+003, 5.200394e+000
1.076524e+003, 5.246720e+000
1.077006e+003, 5.273090e+000
1.077488e+003, 5.246270e+000
1.077970e+003, 5.242813e+000
1.078452e+003, 5.332442e+000
1.078934e+003, 5.420172e+000
1.079416e+003, 5.440865e+000
1.079898e+003, 5.423993e+000
1.080380e+003, 5.405909e+000
1.080863e+003, 5.387910e+000
1.081345e+003, 5.347061e+000
1.081827e+003, 5.263540e+000
1.082309e+003, 5.222669e+000
1.082791e+003, 5.315538e+000
1.083273e+003, 5.401137e+000
1.083755e+003, 5.389841e+000
1.084237e+003, 5.328872e+000
1.084720e+003, 5.237588e+000
1.085202e+003, 5.150022e+000
1.085684e+003, 5.141253e+000
1.086166e+003, 5.238481e+000
1.086648e+003, 5.337432e+000
1.087130e+003, 5.431964e+000
1.087612e+003, 5.469992e+000
1.088094e+003, 5.379574e+000
1.088577e+003, 5.259624e+000
1.089059e+003, 5.208269e+000
1.089541e+003, 5.199637e+000
1.090023e+003, 5.143916e+000
1.090505e+003, 5.021931e+000
1.090987e+003, 4.983679e+000
1.091469e+003, 5.181712e+000
1.091951e+003, 5.346201e+000
1.092433e+003, 5.349566e+000
1.092916e+003, 5.286990e+000
1.093398e+003, 5.185342e+000
1.093880e+003, 5.093728e+000
1.094362e+003, 5.097475e+000
1.094844e+003, 5.199781e+000
1.095326e+003, 5.276475e+000
1.095808e+003, 5.312126e+000
1.096290e+003, 5.281234e+000
1.096772e+003, 5.078527e+000
1.097255e+003, 4.910921e+000
1.097737e+003, 4.936861e+000
1.098219e+003, 5.060714e+000
1.098701e+003, 5.174533e+000
1.099183e+003, 5.256447e+000
1.099665e+003, 5.272711e+000
1.100147e+003, 5.174769e+000
1.100629e+003, 5.096141e+000
1.101112e+003, 5.095712e+000
1.101594e+003, 5.093382e+000
1.102076e+003, 5.041723e+000
1.102558e+003, 4.974195e+000
1.103040e+003, 4.915895e+000
1.103522e+003, 4.874688e+000
1.104004e+003, 4.867914e+000
1.104486e+003, 4.902582e+000
1.104969e+003, 4.956996e+000
1.105451e+003, 5.073723e+000
1.105933e+003, 5.149064e+000
1.106415e+003, 5.127512e+000
1.106897e+003, 5.068852e+000
1.107379e+003, 5.006410e+000
1.107861e+003, 4.948245e+000
1.108343e+003, 4.902990e+000
1.108825e+003, 4.865930e+000
1.109307e+003, 4.872164e+000
1.109790e+003, 4.987684e+000
1.110272e+003, 5.057022e+000
1.110754e+003, 5.011113e+000
1.111236e+003, 4.950548e+000
1.111718e+003, 4.936020e+000
1.112200e+003, 4.945505e+000
1.112682e+003, 4.949363e+000
1.113164e+003, 4.948563e+000
1.113647e+003, 4.911407e+000
1.114129e+003, 4.748194e+000
1.114611e+003, 4.701212e+000
1.115093e+003, 4.914191e+000
1.115575e+003, 5.069300e+000
1.116057e+003, 4.964097e+000
1.116539e+003, 4.797982e+000
1.117021e+003, 4.818579e+000
1.117504e+003, 4.993463e+000
1.117986e+003, 5.080090e+000
1.118468e+003, 5.036559e+000
1.118950e+003, 5.004551e+000
1.119432e+003, 4.998571e+000
1.119914e+003, 4.973669e+000
1.120396e+003, 4.892554e+000
1.120878e+003, 4.828345e+000
1.121360e+003, 4.861180e+000
1.121843e+003, 4.945903e+000
1.122325e+003, 4.941041e+000
1.122807e+003, 4.821057e+000
1.123289e+003, 4.771248e+000
1.123771e+003, 4.812368e+000
1.124253e+003, 4.851102e+000
1.124735e+003, 4.862614e+000
1.125217e+003, 4.886834e+000
1.125699e+003, 4.956632e+000
1.126182e+003, 5.038606e+000
1.126664e+003, 5.077873e+000
1.127146e+003, 5.074634e+000
1.127628e+003, 5.014399e+000
1.128110e+003, 4.881851e+000
1.128592e+003, 4.847361e+000
1.129074e+003, 4.947978e+000
1.129556e+003, 5.032594e+000
1.130039e+003, 5.031013e+000
1.130521e+003, 4.994316e+000
1.131003e+003, 4.977347e+000
1.131485e+003, 4.977126e+000
1.131967e+003, 4.991859e+000
1.132449e+003, 5.018886e+000
1.132931e+003, 5.000548e+000
1.133413e+003, 4.935303e+000
1.133896e+003, 4.892746e+000
1.134378e+003, 4.894131e+000
1.134860e+003, 4.921746e+000
1.135342e+003, 4.964337e+000
1.135824e+003, 5.011952e+000
1.136306e+003, 5.059217e+000
1.136788e+003, 5.094623e+000
1.137270e+003, 5.049963e+000
1.137752e+003, 4.948204e+000
1.138234e+003, 4.905970e+000
1.138717e+003, 4.938982e+000
1.139199e+003, 4.995374e+000
1.139681e+003, 5.048952e+000
1.140163e+003, 5.071548e+000
1.140645e+003, 5.002925e+000
1.141127e+003, 4.909785e+000
1.141609e+003, 4.934281e+000
1.142091e+003, 5.021313e+000
1.142574e+003, 5.046468e+000
1.143056e+003, 5.015258e+000
1.143538e+003, 5.004556e+000
1.144020e+003, 5.033173e+000
1.144502e+003, 5.031709e+000
1.144984e+003, 4.925021e+000
1.145466e+003, 4.830845e+000
1.145948e+003, 4.906281e+000
1.146431e+003, 5.037971e+000
1.146913e+003, 5.091856e+000
1.147395e+003, 5.087893e+000
1.147877e+003, 5.084728e+000
1.148359e+003, 5.083545e+000
1.148841e+003, 5.028813e+000
1.149323e+003, 4.882710e+000
1.149805e+003, 4.770450e+000
1.150287e+003, 4.796684e+000
1.150770e+003, 4.855735e+000
1.151252e+003, 4.866020e+000
1.151734e+003, 4.872710e+000
1.152216e+003, 4.954937e+000
1.152698e+003, 5.068664e+000
1.153180e+003, 5.091798e+000
1.153662e+003, 4.999515e+000
1.154144e+003, 4.939280e+000
1.154626e+003, 4.977830e+000
1.155109e+003, 5.031389e+000
1.155591e+003, 5.098611e+000
1.156073e+003, 5.143633e+000
1.156555e+003, 5.138396e+000
1.157037e+003, 5.101960e+000
1.157519e+003, 5.046013e+000
1.158001e+003, 4.979141e+000
1.158483e+003, 4.946756e+000
1.158966e+003, 4.966346e+000
1.159448e+003, 4.991345e+000
1.159930e+003, 5.028062e+000
1.160412e+003, 5.057572e+000
1.160894e+003, 5.084363e+000
1.161376e+003, 5.091683e+000
1.161858e+003, 5.060701e+000
1.162340e+003, 5.004316e+000
1.162822e+003, 4.941090e+000
1.163305e+003, 4.862776e+000
1.163787e+003, 4.873136e+000
1.164269e+003, 5.018395e+000
1.164751e+003, 5.112845e+000
1.165233e+003, 5.113507e+000
1.165715e+003, 5.119614e+000
1.166197e+003, 5.187640e+000
1.166679e+003, 5.256299e+000
1.167161e+003, 5.251715e+000
1.167644e+003, 5.188782e+000
1.168126e+003, 5.115234e+000
1.168608e+003, 5.028542e+000
1.169090e+003, 5.019705e+000
1.169572e+003, 5.094544e+000
1.170054e+003, 5.179983e+000
1.170536e+003, 5.256883e+000
1.171018e+003, 5.293920e+000
1.171500e+003, 5.264590e+000
1.171983e+003, 5.218394e+000
1.172465e+003, 5.247804e+000
1.172947e+003, 5.320431e+000
1.173429e+003, 5.328677e+000
1.173911e+003, 5.283281e+000
1.174393e+003, 5.212426e+000
1.174875e+003, 5.128669e+000
1.175357e+003, 5.050949e+000
1.175840e+003, 4.991300e+000
1.176322e+003, 5.009029e+000
1.176804e+003, 5.187015e+000
1.177286e+003, 5.388175e+000
1.177768e+003, 5.439926e+000
1.178250e+003, 5.407832e+000
1.178732e+003, 5.364826e+000
1.179214e+003, 5.323279e+000
1.179697e+003, 5.290792e+000
1.180179e+003, 5.269013e+000
1.180661e+003, 5.258478e+000
1.181143e+003, 5.259664e+000
1.181625e+003, 5.269374e+000
1.182107e+003, 5.311662e+000
1.182589e+003, 5.330438e+000
1.183071e+003, 5.231656e+000
1.183553e+003, 5.143087e+000
1.184036e+003, 5.231112e+000
1.184518e+003, 5.403049e+000
1.185000e+003, 5.463473e+000
1.185482e+003, 5.390710e+000
1.185964e+003, 5.342186e+000
1.186446e+003, 5.354225e+000
1.186928e+003, 5.391599e+000
1.187410e+003, 5.478884e+000
1.187892e+003, 5.552644e+000
1.188375e+003, 5.618293e+000
1.188857e+003, 5.628517e+000
1.189339e+003, 5.493193e+000
1.189821e+003, 5.282363e+000
1.190303e+003, 5.207100e+000
1.190785e+003, 5.293665e+000
1.191267e+003, 5.364622e+000
1.191749e+003, 5.430656e+000
1.192232e+003, 5.441844e+000
1.192714e+003, 5.362031e+000
1.193196e+003, 5.313769e+000
1.193678e+003, 5.368576e+000
1.194160e+003, 5.454216e+000
1.194642e+003, 5.483528e+000
1.195124e+003, 5.468439e+000
1.195606e+003, 5.460267e+000
1.196089e+003, 5.457414e+000
1.196571e+003, 5.394249e+000
1.197053e+003, 5.274165e+000
1.197535e+003, 5.231365e+000
1.198017e+003, 5.295507e+000
1.198499e+003, 5.370125e+000
1.198981e+003, 5.397468e+000
1.199463e+003, 5.376675e+000
1.199945e+003, 5.276572e+000
1.200427e+003, 5.150923e+000
1.200910e+003, 5.108087e+000
1.201392e+003, 5.123199e+000
1.201874e+003, 5.156720e+000
1.202356e+003, 5.192969e+000
1.202838e+003, 5.208800e+000
1.203320e+003, 5.198048e+000
1.203802e+003, 5.164049e+000
1.204284e+003, 5.093231e+000
1.204767e+003, 5.047230e+000
1.205249e+003, 5.113521e+000
1.205731e+003, 5.180381e+000
1.206213e+003, 5.146921e+000
1.206695e+003, 5.065460e+000
1.207177e+003, 4.990787e+000
1.207659e+003, 4.930486e+000
1.208141e+003, 4.873773e+000
1.208624e+003, 4.815989e+000
1.209106e+003, 4.811883e+000
1.209588e+003, 4.945175e+000
1.210070e+003, 5.027405e+000
1.210552e+003, 4.976321e+000
1.211034e+003, 4.917061e+000
1.211516e+003, 4.928930e+000
1.211998e+003, 4.946716e+000
1.212480e+003, 4.885149e+000
1.212963e+003, 4.778563e+000
1.213445e+003, 4.767862e+000
1.213927e+003, 4.887944e+000
1.214409e+003, 4.924340e+000
1.214891e+003, 4.859672e+000
1.215373e+003, 4.770766e+000
1.215855e+003, 4.658395e+000
1.216337e+003, 4.594377e+000
1.216819e+003, 4.623998e+000
1.217302e+003, 4.681962e+000
1.217784e+003, 4.687730e+000
1.218266e+003, 4.659896e+000
1.218748e+003, 4.644782e+000
1.219230e+003, 4.647622e+000
1.219712e+003, 4.734642e+000
1.220194e+003, 4.873277e+000
1.220676e+003, 4.853177e+000
1.221159e+003, 4.657180e+000
1.221641e+003, 4.503511e+000
1.222123e+003, 4.509540e+000
1.222605e+003, 4.591554e+000
1.223087e+003, 4.726697e+000
1.223569e+003, 4.831067e+000
1.224051e+003, 4.766898e+000
1.224533e+003, 4.645178e+000
1.225016e+003, 4.609833e+000
1.225498e+003, 4.635284e+000
1.225980e+003, 4.645320e+000
1.226462e+003, 4.629916e+000
1.226944e+003, 4.630685e+000
1.227426e+003, 4.675110e+000
1.227908e+003, 4.697277e+000
1.228390e+003, 4.662099e+000
1.228872e+003, 4.616438e+000
1.229354e+003, 4.556705e+000
1.229837e+003, 4.516872e+000
1.230319e+003, 4.528306e+000
1.230801e+003, 4.575326e+000
1.231283e+003, 4.637002e+000
1.231765e+003, 4.712174e+000
1.232247e+003, 4.754427e+000
1.232729e+003, 4.766313e+000
1.233211e+003, 4.726072e+000
1.233694e+003, 4.599357e+000
1.234176e+003, 4.549826e+000
1.234658e+003, 4.644735e+000
1.235140e+003, 4.750306e+000
1.235622e+003, 4.774347e+000
1.236104e+003, 4.731917e+000
1.236586e+003, 4.621673e+000
1.237068e+003, 4.480877e+000
1.237551e+003, 4.481844e+000
1.238033e+003, 4.594193e+000
1.238515e+003, 4.696304e+000
1.238997e+003, 4.772367e+000
1.239479e+003, 4.819493e+000
1.239961e+003, 4.840775e+000
1.240443e+003, 4.866307e+000
1.240925e+003, 4.921990e+000
1.241407e+003, 4.951470e+000
1.241890e+003, 4.873492e+000
1.242372e+003, 4.771673e+000
1.242854e+003, 4.722188e+000
1.243336e+003, 4.701745e+000
1.243818e+003, 4.680875e+000
1.244300e+003, 4.661766e+000
1.244782e+003, 4.650365e+000
1.245264e+003, 4.650160e+000
1.245746e+003, 4.689557e+000
1.246229e+003, 4.842094e+000
1.246711e+003, 4.911811e+000
1.247193e+003, 4.789442e+000
1.247675e+003, 4.682746e+000
1.248157e+003, 4.669784e+000
1.248639e+003, 4.686759e+000
1.249121e+003, 4.701713e+000
1.249603e+003, 4.704669e+000
1.250085e+003, 4.670492e+000
1.250568e+003, 4.603569e+000
1.251050e+003, 4.585770e+000
1.251532e+003, 4.623375e+000
1.252014e+003, 4.642307e+000
1.252496e+003, 4.636825e+000
1.252978e+003, 4.610587e+000
1.253460e+003, 4.564918e+000
1.253942e+003, 4.534954e+000
1.254425e+003, 4.544378e+000
1.254907e+003, 4.587277e+000
1.255389e+003, 4.690725e+000
1.255871e+003, 4.795128e+000
1.256353e+003, 4.755633e+000
1.256835e+003, 4.651177e+000
1.257317e+003, 4.633037e+000
1.257799e+003, 4.680624e+000
1.258281e+003, 4.704445e+000
1.258764e+003, 4.690231e+000
1.259246e+003, 4.689429e+000
1.259728e+003, 4.729071e+000
1.260210e+003, 4.764127e+000
1.260692e+003, 4.784151e+000
1.261174e+003, 4.780913e+000
1.261656e+003, 4.703253e+000
1.262138e+003, 4.648913e+000
1.262620e+003, 4.756308e+000
1.263103e+003, 4.898266e+000
1.263585e+003, 4.836792e+000
1.264067e+003, 4.606194e+000
1.264549e+003, 4.511912e+000
1.265031e+003, 4.613485e+000
1.265513e+003, 4.638652e+000
1.265995e+003, 4.557014e+000
1.266477e+003, 4.543013e+000
1.266960e+003, 4.650719e+000
1.267442e+003, 4.716078e+000
1.267924e+003, 4.642903e+000
1.268406e+003, 4.526280e+000
1.268888e+003, 4.466679e+000
1.269370e+003, 4.469193e+000
1.269852e+003, 4.606180e+000
1.270334e+003, 4.787910e+000
1.270817e+003, 4.747011e+000
1.271299e+003, 4.560901e+000
1.271781e+003, 4.469028e+000
1.272263e+003, 4.492678e+000
1.272745e+003, 4.519689e+000
1.273227e+003, 4.507388e+000
1.273709e+003, 4.497094e+000
1.274191e+003, 4.539696e+000
1.274673e+003, 4.554114e+000
1.275156e+003, 4.427968e+000
1.275638e+003, 4.341528e+000
1.276120e+003, 4.474527e+000
1.276602e+003, 4.665180e+000
1.277084e+003, 4.711623e+000
1.277566e+003, 4.657567e+000
1.278048e+003, 4.655206e+000
1.278530e+003, 4.696921e+000
1.279012e+003, 4.894289e+000
1.279495e+003, 5.356997e+000
1.279977e+003, 5.544115e+000
1.280459e+003, 5.340081e+000
1.280941e+003, 5.170342e+000
1.281423e+003, 5.188207e+000
1.281905e+003, 5.295799e+000
1.282387e+003, 5.430785e+000
1.282869e+003, 5.525234e+000
1.283352e+003, 5.427167e+000
1.283834e+003, 5.221480e+000
1.284316e+003, 5.089666e+000
1.284798e+003, 5.031913e+000
##END=



