##NAMES=Gerhardtite
##RRUFFID=R120082
##IDEAL CHEMISTRY=Cu^2+^_2_N^5+^O_3_(OH)_3_
##LOCALITY=Tonapah-Belmont mine, Marizopa County, Arizona, USA
##OWNER=RRUFF
##SOURCE=Joe Ruiz
##DESCRIPTION=Light blue crystalline associated with green malachite
##STATUS=The identification of this mineral has been confirmed by single-crystal X-ray diffraction.
##URL=rruff.info/R120082
9.112140e+001, 0.000000e+000
9.160352e+001, 4.453483e+002
9.208563e+001, 4.365021e+002
9.256775e+001, 4.354578e+002
9.304987e+001, 4.462611e+002
9.353198e+001, 4.596561e+002
9.401410e+001, 4.677312e+002
9.449622e+001, 4.705388e+002
9.497833e+001, 4.702364e+002
9.546045e+001, 4.686245e+002
9.594257e+001, 4.657180e+002
9.642468e+001, 4.619735e+002
9.690680e+001, 4.573338e+002
9.738892e+001, 4.526996e+002
9.787103e+001, 4.484492e+002
9.835315e+001, 4.440236e+002
9.883527e+001, 4.388639e+002
9.931738e+001, 4.335728e+002
9.979950e+001, 4.280291e+002
1.002816e+002, 4.233791e+002
1.007637e+002, 4.198871e+002
1.012458e+002, 4.168435e+002
1.017280e+002, 4.136005e+002
1.022101e+002, 4.099144e+002
1.026922e+002, 4.061830e+002
1.031743e+002, 4.030775e+002
1.036564e+002, 4.005660e+002
1.041385e+002, 3.979918e+002
1.046207e+002, 3.948320e+002
1.051028e+002, 3.913305e+002
1.055849e+002, 3.883713e+002
1.060670e+002, 3.864976e+002
1.065491e+002, 3.848911e+002
1.070313e+002, 3.826322e+002
1.075134e+002, 3.795855e+002
1.079955e+002, 3.763169e+002
1.084776e+002, 3.733818e+002
1.089597e+002, 3.708128e+002
1.094418e+002, 3.683638e+002
1.099240e+002, 3.661187e+002
1.104061e+002, 3.638708e+002
1.108882e+002, 3.615051e+002
1.113703e+002, 3.589799e+002
1.118524e+002, 3.562708e+002
1.123345e+002, 3.532849e+002
1.128167e+002, 3.496231e+002
1.132988e+002, 3.462113e+002
1.137809e+002, 3.430776e+002
1.142630e+002, 3.402785e+002
1.147451e+002, 3.378302e+002
1.152272e+002, 3.357559e+002
1.157094e+002, 3.340435e+002
1.161915e+002, 3.328812e+002
1.166736e+002, 3.330315e+002
1.171557e+002, 3.328830e+002
1.176378e+002, 3.316819e+002
1.181199e+002, 3.296180e+002
1.186021e+002, 3.274525e+002
1.190842e+002, 3.258177e+002
1.195663e+002, 3.247719e+002
1.200484e+002, 3.236808e+002
1.205305e+002, 3.225357e+002
1.210126e+002, 3.213412e+002
1.214948e+002, 3.200544e+002
1.219769e+002, 3.186505e+002
1.224590e+002, 3.173020e+002
1.229411e+002, 3.162291e+002
1.234232e+002, 3.153693e+002
1.239053e+002, 3.145893e+002
1.243875e+002, 3.136706e+002
1.248696e+002, 3.127874e+002
1.253517e+002, 3.125031e+002
1.258338e+002, 3.132400e+002
1.263159e+002, 3.141114e+002
1.267980e+002, 3.144555e+002
1.272802e+002, 3.143499e+002
1.277623e+002, 3.141681e+002
1.282444e+002, 3.141599e+002
1.287265e+002, 3.143253e+002
1.292086e+002, 3.146674e+002
1.296907e+002, 3.151486e+002
1.301729e+002, 3.158544e+002
1.306550e+002, 3.170369e+002
1.311371e+002, 3.186360e+002
1.316192e+002, 3.202118e+002
1.321013e+002, 3.210298e+002
1.325834e+002, 3.202484e+002
1.330656e+002, 3.204368e+002
1.335477e+002, 3.220582e+002
1.340298e+002, 3.242256e+002
1.345119e+002, 3.261623e+002
1.349940e+002, 3.276280e+002
1.354761e+002, 3.290757e+002
1.359583e+002, 3.315425e+002
1.364404e+002, 3.363496e+002
1.369225e+002, 3.405737e+002
1.374046e+002, 3.436326e+002
1.378867e+002, 3.461197e+002
1.383688e+002, 3.487870e+002
1.388510e+002, 3.519787e+002
1.393331e+002, 3.556283e+002
1.398152e+002, 3.595268e+002
1.402973e+002, 3.639640e+002
1.407794e+002, 3.682054e+002
1.412615e+002, 3.718878e+002
1.417437e+002, 3.750767e+002
1.422258e+002, 3.781294e+002
1.427079e+002, 3.811295e+002
1.431900e+002, 3.841361e+002
1.436721e+002, 3.873026e+002
1.441542e+002, 3.908387e+002
1.446364e+002, 3.942915e+002
1.451185e+002, 3.971571e+002
1.456006e+002, 3.993541e+002
1.460827e+002, 4.014481e+002
1.465648e+002, 4.038279e+002
1.470469e+002, 4.062413e+002
1.475291e+002, 4.084979e+002
1.480112e+002, 4.106966e+002
1.484933e+002, 4.125299e+002
1.489754e+002, 4.132304e+002
1.494575e+002, 4.123277e+002
1.499396e+002, 4.109889e+002
1.504218e+002, 4.092642e+002
1.509039e+002, 4.074924e+002
1.513860e+002, 4.062140e+002
1.518681e+002, 4.058711e+002
1.523502e+002, 4.062753e+002
1.528323e+002, 4.058109e+002
1.533145e+002, 4.034590e+002
1.537966e+002, 4.011395e+002
1.542787e+002, 3.994500e+002
1.547608e+002, 3.980840e+002
1.552429e+002, 3.963415e+002
1.557250e+002, 3.936012e+002
1.562072e+002, 3.897664e+002
1.566893e+002, 3.864286e+002
1.571714e+002, 3.838343e+002
1.576535e+002, 3.813813e+002
1.581356e+002, 3.787731e+002
1.586177e+002, 3.760394e+002
1.590999e+002, 3.734283e+002
1.595820e+002, 3.712383e+002
1.600641e+002, 3.695702e+002
1.605462e+002, 3.673727e+002
1.610283e+002, 3.640267e+002
1.615104e+002, 3.606093e+002
1.619926e+002, 3.580370e+002
1.624747e+002, 3.564283e+002
1.629568e+002, 3.550743e+002
1.634389e+002, 3.532620e+002
1.639210e+002, 3.510122e+002
1.644031e+002, 3.487955e+002
1.648853e+002, 3.465756e+002
1.653674e+002, 3.444684e+002
1.658495e+002, 3.427733e+002
1.663316e+002, 3.416577e+002
1.668137e+002, 3.405846e+002
1.672958e+002, 3.390192e+002
1.677780e+002, 3.370615e+002
1.682601e+002, 3.350196e+002
1.687422e+002, 3.331738e+002
1.692243e+002, 3.313966e+002
1.697064e+002, 3.291598e+002
1.701885e+002, 3.261158e+002
1.706707e+002, 3.229565e+002
1.711528e+002, 3.200616e+002
1.716349e+002, 3.174289e+002
1.721170e+002, 3.149825e+002
1.725991e+002, 3.127469e+002
1.730812e+002, 3.107383e+002
1.735634e+002, 3.085991e+002
1.740455e+002, 3.064384e+002
1.745276e+002, 3.039926e+002
1.750097e+002, 3.011204e+002
1.754918e+002, 2.978332e+002
1.759739e+002, 2.942505e+002
1.764561e+002, 2.904269e+002
1.769382e+002, 2.861324e+002
1.774203e+002, 2.822996e+002
1.779024e+002, 2.792813e+002
1.783845e+002, 2.763976e+002
1.788666e+002, 2.734201e+002
1.793488e+002, 2.702721e+002
1.798309e+002, 2.668693e+002
1.803130e+002, 2.631206e+002
1.807951e+002, 2.588434e+002
1.812772e+002, 2.546138e+002
1.817593e+002, 2.505224e+002
1.822415e+002, 2.464276e+002
1.827236e+002, 2.422055e+002
1.832057e+002, 2.378384e+002
1.836878e+002, 2.334626e+002
1.841699e+002, 2.292908e+002
1.846520e+002, 2.254584e+002
1.851342e+002, 2.215905e+002
1.856163e+002, 2.177545e+002
1.860984e+002, 2.138632e+002
1.865805e+002, 2.097202e+002
1.870626e+002, 2.052444e+002
1.875447e+002, 2.007737e+002
1.880269e+002, 1.969748e+002
1.885090e+002, 1.940013e+002
1.889911e+002, 1.909038e+002
1.894732e+002, 1.873798e+002
1.899553e+002, 1.836131e+002
1.904374e+002, 1.799389e+002
1.909196e+002, 1.763908e+002
1.914017e+002, 1.730225e+002
1.918838e+002, 1.698525e+002
1.923659e+002, 1.668714e+002
1.928480e+002, 1.640760e+002
1.933301e+002, 1.616130e+002
1.938123e+002, 1.593737e+002
1.942944e+002, 1.569293e+002
1.947765e+002, 1.541120e+002
1.952586e+002, 1.511165e+002
1.957407e+002, 1.480571e+002
1.962228e+002, 1.449355e+002
1.967050e+002, 1.420770e+002
1.971871e+002, 1.399252e+002
1.976692e+002, 1.384366e+002
1.981513e+002, 1.365808e+002
1.986334e+002, 1.336891e+002
1.991155e+002, 1.307689e+002
1.995977e+002, 1.285195e+002
2.000798e+002, 1.269686e+002
2.005619e+002, 1.256914e+002
2.010440e+002, 1.243220e+002
2.015261e+002, 1.228503e+002
2.020082e+002, 1.212996e+002
2.024904e+002, 1.195385e+002
2.029725e+002, 1.177867e+002
2.034546e+002, 1.161180e+002
2.039367e+002, 1.145544e+002
2.044188e+002, 1.131069e+002
2.049009e+002, 1.118543e+002
2.053831e+002, 1.109414e+002
2.058652e+002, 1.097735e+002
2.063473e+002, 1.080207e+002
2.068294e+002, 1.062618e+002
2.073115e+002, 1.048736e+002
2.077936e+002, 1.038980e+002
2.082758e+002, 1.030845e+002
2.087579e+002, 1.020958e+002
2.092400e+002, 1.008539e+002
2.097221e+002, 9.959416e+001
2.102042e+002, 9.812626e+001
2.106863e+002, 9.677482e+001
2.111685e+002, 9.581301e+001
2.116506e+002, 9.526822e+001
2.121327e+002, 9.491006e+001
2.126148e+002, 9.441183e+001
2.130969e+002, 9.375839e+001
2.135790e+002, 9.296388e+001
2.140612e+002, 9.185191e+001
2.145433e+002, 9.072002e+001
2.150254e+002, 8.988146e+001
2.155075e+002, 8.939080e+001
2.159896e+002, 8.891183e+001
2.164717e+002, 8.793823e+001
2.169539e+002, 8.609495e+001
2.174360e+002, 8.464593e+001
2.179181e+002, 8.387434e+001
2.184002e+002, 8.337261e+001
2.188823e+002, 8.269221e+001
2.193644e+002, 8.172518e+001
2.198466e+002, 8.077013e+001
2.203287e+002, 8.030873e+001
2.208108e+002, 8.046448e+001
2.212929e+002, 8.038235e+001
2.217750e+002, 7.978622e+001
2.222571e+002, 7.895389e+001
2.227393e+002, 7.823563e+001
2.232214e+002, 7.771631e+001
2.237035e+002, 7.724538e+001
2.241856e+002, 7.663783e+001
2.246677e+002, 7.590860e+001
2.251498e+002, 7.515406e+001
2.256320e+002, 7.423271e+001
2.261141e+002, 7.334119e+001
2.265962e+002, 7.287356e+001
2.270783e+002, 7.299686e+001
2.275604e+002, 7.324300e+001
2.280425e+002, 7.320580e+001
2.285247e+002, 7.292390e+001
2.290068e+002, 7.242805e+001
2.294889e+002, 7.155315e+001
2.299710e+002, 7.048959e+001
2.304531e+002, 6.965704e+001
2.309352e+002, 6.912863e+001
2.314174e+002, 6.878451e+001
2.318995e+002, 6.861002e+001
2.323816e+002, 6.854602e+001
2.328637e+002, 6.842973e+001
2.333458e+002, 6.816502e+001
2.338279e+002, 6.778567e+001
2.343101e+002, 6.740188e+001
2.347922e+002, 6.704829e+001
2.352743e+002, 6.663426e+001
2.357564e+002, 6.606925e+001
2.362385e+002, 6.541641e+001
2.367206e+002, 6.479739e+001
2.372028e+002, 6.427634e+001
2.376849e+002, 6.384679e+001
2.381670e+002, 6.348303e+001
2.386491e+002, 6.324813e+001
2.391312e+002, 6.298523e+001
2.396133e+002, 6.257295e+001
2.400955e+002, 6.209792e+001
2.405776e+002, 6.172546e+001
2.410597e+002, 6.162768e+001
2.415418e+002, 6.169228e+001
2.420239e+002, 6.132546e+001
2.425060e+002, 5.996906e+001
2.429882e+002, 5.895325e+001
2.434703e+002, 5.879749e+001
2.439524e+002, 5.916472e+001
2.444345e+002, 5.962456e+001
2.449166e+002, 5.999310e+001
2.453987e+002, 6.019259e+001
2.458809e+002, 5.980256e+001
2.463630e+002, 5.808725e+001
2.468451e+002, 5.671955e+001
2.473272e+002, 5.618729e+001
2.478093e+002, 5.613873e+001
2.482914e+002, 5.614798e+001
2.487736e+002, 5.599308e+001
2.492557e+002, 5.569093e+001
2.497378e+002, 5.530397e+001
2.502199e+002, 5.460799e+001
2.507020e+002, 5.411481e+001
2.511841e+002, 5.400034e+001
2.516663e+002, 5.408460e+001
2.521484e+002, 5.418513e+001
2.526305e+002, 5.421630e+001
2.531126e+002, 5.416460e+001
2.535947e+002, 5.398005e+001
2.540768e+002, 5.338621e+001
2.545590e+002, 5.299965e+001
2.550411e+002, 5.302929e+001
2.555232e+002, 5.321630e+001
2.560053e+002, 5.326257e+001
2.564874e+002, 5.304256e+001
2.569695e+002, 5.266682e+001
2.574517e+002, 5.240341e+001
2.579338e+002, 5.247430e+001
2.584159e+002, 5.238943e+001
2.588980e+002, 5.204201e+001
2.593801e+002, 5.158142e+001
2.598622e+002, 5.112180e+001
2.603444e+002, 5.070713e+001
2.608265e+002, 5.038393e+001
2.613086e+002, 5.024731e+001
2.617907e+002, 5.047799e+001
2.622728e+002, 5.061927e+001
2.627549e+002, 5.053609e+001
2.632371e+002, 5.042384e+001
2.637192e+002, 5.059130e+001
2.642013e+002, 5.110390e+001
2.646834e+002, 5.156553e+001
2.651655e+002, 5.133001e+001
2.656476e+002, 4.990428e+001
2.661298e+002, 4.897636e+001
2.666119e+002, 4.886707e+001
2.670940e+002, 4.910691e+001
2.675761e+002, 4.931991e+001
2.680582e+002, 4.942332e+001
2.685403e+002, 4.944440e+001
2.690225e+002, 4.941291e+001
2.695046e+002, 4.932336e+001
2.699867e+002, 4.917286e+001
2.704688e+002, 4.877046e+001
2.709509e+002, 4.842629e+001
2.714330e+002, 4.851283e+001
2.719152e+002, 4.904815e+001
2.723973e+002, 4.958596e+001
2.728794e+002, 4.968510e+001
2.733615e+002, 4.929970e+001
2.738436e+002, 4.897746e+001
2.743257e+002, 4.877710e+001
2.748079e+002, 4.860567e+001
2.752900e+002, 4.830305e+001
2.757721e+002, 4.788649e+001
2.762542e+002, 4.769615e+001
2.767363e+002, 4.812148e+001
2.772184e+002, 4.905251e+001
2.777006e+002, 4.950514e+001
2.781827e+002, 4.919118e+001
2.786648e+002, 4.862022e+001
2.791469e+002, 4.799590e+001
2.796290e+002, 4.736042e+001
2.801111e+002, 4.698290e+001
2.805933e+002, 4.712547e+001
2.810754e+002, 4.763335e+001
2.815575e+002, 4.790684e+001
2.820396e+002, 4.777501e+001
2.825217e+002, 4.761898e+001
2.830038e+002, 4.767292e+001
2.834860e+002, 4.790901e+001
2.839681e+002, 4.821588e+001
2.844502e+002, 4.865886e+001
2.849323e+002, 4.902993e+001
2.854144e+002, 4.889663e+001
2.858965e+002, 4.803664e+001
2.863787e+002, 4.723465e+001
2.868608e+002, 4.694329e+001
2.873429e+002, 4.707042e+001
2.878250e+002, 4.734840e+001
2.883071e+002, 4.787146e+001
2.887892e+002, 4.824534e+001
2.892714e+002, 4.774123e+001
2.897535e+002, 4.621754e+001
2.902356e+002, 4.504101e+001
2.907177e+002, 4.517878e+001
2.911998e+002, 4.615879e+001
2.916819e+002, 4.667207e+001
2.921641e+002, 4.628126e+001
2.926462e+002, 4.565618e+001
2.931283e+002, 4.559372e+001
2.936104e+002, 4.602086e+001
2.940925e+002, 4.636852e+001
2.945746e+002, 4.632549e+001
2.950568e+002, 4.606473e+001
2.955389e+002, 4.594867e+001
2.960210e+002, 4.606054e+001
2.965031e+002, 4.619331e+001
2.969852e+002, 4.618164e+001
2.974673e+002, 4.605343e+001
2.979495e+002, 4.585295e+001
2.984316e+002, 4.554624e+001
2.989137e+002, 4.519449e+001
2.993958e+002, 4.486002e+001
2.998779e+002, 4.452546e+001
3.003600e+002, 4.430329e+001
3.008422e+002, 4.437377e+001
3.013243e+002, 4.459665e+001
3.018064e+002, 4.474051e+001
3.022885e+002, 4.478003e+001
3.027706e+002, 4.469716e+001
3.032527e+002, 4.443250e+001
3.037349e+002, 4.397261e+001
3.042170e+002, 4.349875e+001
3.046991e+002, 4.301322e+001
3.051812e+002, 4.261065e+001
3.056633e+002, 4.243279e+001
3.061454e+002, 4.254960e+001
3.066276e+002, 4.276685e+001
3.071097e+002, 4.299519e+001
3.075918e+002, 4.322386e+001
3.080739e+002, 4.324348e+001
3.085560e+002, 4.285983e+001
3.090381e+002, 4.233728e+001
3.095203e+002, 4.196164e+001
3.100024e+002, 4.174182e+001
3.104845e+002, 4.163472e+001
3.109666e+002, 4.164461e+001
3.114487e+002, 4.175384e+001
3.119308e+002, 4.188206e+001
3.124130e+002, 4.203008e+001
3.128951e+002, 4.216807e+001
3.133772e+002, 4.229597e+001
3.138593e+002, 4.240632e+001
3.143414e+002, 4.243038e+001
3.148235e+002, 4.220790e+001
3.153057e+002, 4.187827e+001
3.157878e+002, 4.183910e+001
3.162699e+002, 4.222031e+001
3.167520e+002, 4.266034e+001
3.172341e+002, 4.287128e+001
3.177162e+002, 4.293697e+001
3.181984e+002, 4.303567e+001
3.186805e+002, 4.327092e+001
3.191626e+002, 4.355695e+001
3.196447e+002, 4.374457e+001
3.201268e+002, 4.381261e+001
3.206089e+002, 4.388917e+001
3.210911e+002, 4.407190e+001
3.215732e+002, 4.430272e+001
3.220553e+002, 4.450698e+001
3.225374e+002, 4.468204e+001
3.230195e+002, 4.480827e+001
3.235016e+002, 4.481812e+001
3.239838e+002, 4.470988e+001
3.244659e+002, 4.469249e+001
3.249480e+002, 4.488203e+001
3.254301e+002, 4.518468e+001
3.259122e+002, 4.548782e+001
3.263943e+002, 4.579266e+001
3.268765e+002, 4.607368e+001
3.273586e+002, 4.624624e+001
3.278407e+002, 4.635247e+001
3.283228e+002, 4.666920e+001
3.288049e+002, 4.743084e+001
3.292870e+002, 4.817721e+001
3.297692e+002, 4.838791e+001
3.302513e+002, 4.810914e+001
3.307334e+002, 4.782704e+001
3.312155e+002, 4.774042e+001
3.316976e+002, 4.782116e+001
3.321797e+002, 4.802305e+001
3.326619e+002, 4.836744e+001
3.331440e+002, 4.876065e+001
3.336261e+002, 4.918610e+001
3.341082e+002, 4.960799e+001
3.345903e+002, 4.992263e+001
3.350724e+002, 5.002687e+001
3.355546e+002, 5.004015e+001
3.360367e+002, 5.014209e+001
3.365188e+002, 5.034834e+001
3.370009e+002, 5.046751e+001
3.374830e+002, 5.023240e+001
3.379651e+002, 4.989084e+001
3.384473e+002, 4.992125e+001
3.389294e+002, 5.052771e+001
3.394115e+002, 5.127395e+001
3.398936e+002, 5.178804e+001
3.403757e+002, 5.211056e+001
3.408578e+002, 5.255721e+001
3.413400e+002, 5.335608e+001
3.418221e+002, 5.422054e+001
3.423042e+002, 5.469543e+001
3.427863e+002, 5.472087e+001
3.432684e+002, 5.473467e+001
3.437505e+002, 5.486660e+001
3.442327e+002, 5.514773e+001
3.447148e+002, 5.569481e+001
3.451969e+002, 5.659017e+001
3.456790e+002, 5.759988e+001
3.461611e+002, 5.848224e+001
3.466432e+002, 5.925502e+001
3.471254e+002, 5.996791e+001
3.476075e+002, 6.067552e+001
3.480896e+002, 6.130853e+001
3.485717e+002, 6.165196e+001
3.490538e+002, 6.167218e+001
3.495359e+002, 6.187725e+001
3.500181e+002, 6.272629e+001
3.505002e+002, 6.410392e+001
3.509823e+002, 6.537769e+001
3.514644e+002, 6.670799e+001
3.519465e+002, 6.775241e+001
3.524286e+002, 6.811269e+001
3.529108e+002, 6.791772e+001
3.533929e+002, 6.778792e+001
3.538750e+002, 6.801692e+001
3.543571e+002, 6.850484e+001
3.548392e+002, 6.898534e+001
3.553214e+002, 6.940050e+001
3.558035e+002, 6.992689e+001
3.562856e+002, 7.073031e+001
3.567677e+002, 7.166757e+001
3.572498e+002, 7.250819e+001
3.577319e+002, 7.319833e+001
3.582141e+002, 7.372045e+001
3.586962e+002, 7.405273e+001
3.591783e+002, 7.420176e+001
3.596604e+002, 7.412795e+001
3.601425e+002, 7.387941e+001
3.606246e+002, 7.337219e+001
3.611068e+002, 7.233424e+001
3.615889e+002, 7.079835e+001
3.620710e+002, 6.942419e+001
3.625531e+002, 6.882043e+001
3.630352e+002, 6.897918e+001
3.635173e+002, 6.883926e+001
3.639995e+002, 6.835748e+001
3.644816e+002, 6.765372e+001
3.649637e+002, 6.673104e+001
3.654458e+002, 6.562890e+001
3.659279e+002, 6.436936e+001
3.664100e+002, 6.291521e+001
3.668922e+002, 6.142698e+001
3.673743e+002, 6.048293e+001
3.678564e+002, 6.078086e+001
3.683385e+002, 6.060044e+001
3.688206e+002, 5.942486e+001
3.693027e+002, 5.778239e+001
3.697849e+002, 5.617249e+001
3.702670e+002, 5.476246e+001
3.707491e+002, 5.364433e+001
3.712312e+002, 5.301926e+001
3.717133e+002, 5.324403e+001
3.721954e+002, 5.284623e+001
3.726776e+002, 5.131950e+001
3.731597e+002, 4.964780e+001
3.736418e+002, 4.829995e+001
3.741239e+002, 4.735179e+001
3.746060e+002, 4.679308e+001
3.750881e+002, 4.667163e+001
3.755703e+002, 4.696553e+001
3.760524e+002, 4.687081e+001
3.765345e+002, 4.609985e+001
3.770166e+002, 4.528048e+001
3.774987e+002, 4.442710e+001
3.779808e+002, 4.364215e+001
3.784630e+002, 4.306622e+001
3.789451e+002, 4.276498e+001
3.794272e+002, 4.265735e+001
3.799093e+002, 4.256289e+001
3.803914e+002, 4.255363e+001
3.808735e+002, 4.242675e+001
3.813557e+002, 4.214634e+001
3.818378e+002, 4.178140e+001
3.823199e+002, 4.132605e+001
3.828020e+002, 4.080979e+001
3.832841e+002, 4.034307e+001
3.837662e+002, 4.004381e+001
3.842484e+002, 3.991608e+001
3.847305e+002, 3.992241e+001
3.852126e+002, 4.030237e+001
3.856947e+002, 4.058754e+001
3.861768e+002, 4.061671e+001
3.866589e+002, 4.043534e+001
3.871411e+002, 4.014671e+001
3.876232e+002, 3.979743e+001
3.881053e+002, 3.940783e+001
3.885874e+002, 3.902390e+001
3.890695e+002, 3.850395e+001
3.895516e+002, 3.827947e+001
3.900338e+002, 3.876665e+001
3.905159e+002, 3.937712e+001
3.909980e+002, 3.943041e+001
3.914801e+002, 3.874978e+001
3.919622e+002, 3.804436e+001
3.924443e+002, 3.847343e+001
3.929265e+002, 4.025297e+001
3.934086e+002, 4.104334e+001
3.938907e+002, 3.955582e+001
3.943728e+002, 3.792737e+001
3.948549e+002, 3.741777e+001
3.953370e+002, 3.787267e+001
3.958192e+002, 3.848475e+001
3.963013e+002, 3.867372e+001
3.967834e+002, 3.862829e+001
3.972655e+002, 3.907927e+001
3.977476e+002, 4.031007e+001
3.982297e+002, 4.129713e+001
3.987119e+002, 4.126904e+001
3.991940e+002, 4.074709e+001
3.996761e+002, 4.032117e+001
4.001582e+002, 4.006306e+001
4.006403e+002, 4.010834e+001
4.011224e+002, 4.076481e+001
4.016046e+002, 4.199303e+001
4.020867e+002, 4.299080e+001
4.025688e+002, 4.332903e+001
4.030509e+002, 4.355313e+001
4.035330e+002, 4.429261e+001
4.040151e+002, 4.554593e+001
4.044973e+002, 4.700537e+001
4.049794e+002, 4.874348e+001
4.054615e+002, 5.054284e+001
4.059436e+002, 5.194470e+001
4.064257e+002, 5.284009e+001
4.069078e+002, 5.373442e+001
4.073900e+002, 5.508419e+001
4.078721e+002, 5.679502e+001
4.083542e+002, 5.835668e+001
4.088363e+002, 5.978130e+001
4.093184e+002, 6.100124e+001
4.098005e+002, 6.186808e+001
4.102827e+002, 6.246409e+001
4.107648e+002, 6.311686e+001
4.112469e+002, 6.404644e+001
4.117290e+002, 6.496581e+001
4.122111e+002, 6.514848e+001
4.126932e+002, 6.439468e+001
4.131754e+002, 6.354883e+001
4.136575e+002, 6.277522e+001
4.141396e+002, 6.196791e+001
4.146217e+002, 6.102185e+001
4.151038e+002, 5.991784e+001
4.155859e+002, 5.865883e+001
4.160681e+002, 5.721318e+001
4.165502e+002, 5.554811e+001
4.170323e+002, 5.408164e+001
4.175144e+002, 5.295733e+001
4.179965e+002, 5.184824e+001
4.184786e+002, 5.046691e+001
4.189608e+002, 4.902240e+001
4.194429e+002, 4.800742e+001
4.199250e+002, 4.770494e+001
4.204071e+002, 4.774856e+001
4.208892e+002, 4.708296e+001
4.213713e+002, 4.479876e+001
4.218535e+002, 4.319078e+001
4.223356e+002, 4.271820e+001
4.228177e+002, 4.261562e+001
4.232998e+002, 4.237154e+001
4.237819e+002, 4.187875e+001
4.242640e+002, 4.125584e+001
4.247462e+002, 4.061683e+001
4.252283e+002, 3.996003e+001
4.257104e+002, 3.926969e+001
4.261925e+002, 3.837223e+001
4.266746e+002, 3.763900e+001
4.271567e+002, 3.723522e+001
4.276389e+002, 3.704951e+001
4.281210e+002, 3.694504e+001
4.286031e+002, 3.688006e+001
4.290852e+002, 3.676606e+001
4.295673e+002, 3.632653e+001
4.300494e+002, 3.536579e+001
4.305316e+002, 3.478049e+001
4.310137e+002, 3.543420e+001
4.314958e+002, 3.609024e+001
4.319779e+002, 3.575145e+001
4.324600e+002, 3.443676e+001
4.329421e+002, 3.322982e+001
4.334243e+002, 3.302519e+001
4.339064e+002, 3.362874e+001
4.343885e+002, 3.428733e+001
4.348706e+002, 3.515528e+001
4.353527e+002, 3.563637e+001
4.358348e+002, 3.492438e+001
4.363170e+002, 3.363646e+001
4.367991e+002, 3.281475e+001
4.372812e+002, 3.289438e+001
4.377633e+002, 3.326652e+001
4.382454e+002, 3.339308e+001
4.387275e+002, 3.330711e+001
4.392097e+002, 3.323420e+001
4.396918e+002, 3.325070e+001
4.401739e+002, 3.331477e+001
4.406560e+002, 3.344215e+001
4.411381e+002, 3.367825e+001
4.416202e+002, 3.360463e+001
4.421024e+002, 3.278341e+001
4.425845e+002, 3.176754e+001
4.430666e+002, 3.120407e+001
4.435487e+002, 3.114100e+001
4.440308e+002, 3.125501e+001
4.445129e+002, 3.133081e+001
4.449951e+002, 3.137183e+001
4.454772e+002, 3.141746e+001
4.459593e+002, 3.141463e+001
4.464414e+002, 3.147570e+001
4.469235e+002, 3.164815e+001
4.474056e+002, 3.190244e+001
4.478878e+002, 3.225811e+001
4.483699e+002, 3.271466e+001
4.488520e+002, 3.309093e+001
4.493341e+002, 3.308393e+001
4.498162e+002, 3.249342e+001
4.502983e+002, 3.207818e+001
4.507805e+002, 3.190472e+001
4.512626e+002, 3.181701e+001
4.517447e+002, 3.181590e+001
4.522268e+002, 3.183485e+001
4.527089e+002, 3.172701e+001
4.531910e+002, 3.137709e+001
4.536732e+002, 3.086060e+001
4.541553e+002, 3.049811e+001
4.546374e+002, 3.034082e+001
4.551195e+002, 3.026320e+001
4.556016e+002, 3.018541e+001
4.560837e+002, 3.020164e+001
4.565659e+002, 3.050500e+001
4.570480e+002, 3.108609e+001
4.575301e+002, 3.156406e+001
4.580122e+002, 3.144327e+001
4.584943e+002, 3.073815e+001
4.589764e+002, 3.027453e+001
4.594586e+002, 3.023267e+001
4.599407e+002, 3.020553e+001
4.604228e+002, 2.989875e+001
4.609049e+002, 2.947199e+001
4.613870e+002, 2.923362e+001
4.618691e+002, 2.937803e+001
4.623513e+002, 2.961038e+001
4.628334e+002, 2.952071e+001
4.633155e+002, 2.912468e+001
4.637976e+002, 2.884565e+001
4.642797e+002, 2.886287e+001
4.647618e+002, 2.899726e+001
4.652440e+002, 2.900086e+001
4.657261e+002, 2.886973e+001
4.662082e+002, 2.880646e+001
4.666903e+002, 2.895102e+001
4.671724e+002, 2.916145e+001
4.676545e+002, 2.929538e+001
4.681367e+002, 2.933611e+001
4.686188e+002, 2.924395e+001
4.691009e+002, 2.895516e+001
4.695830e+002, 2.852116e+001
4.700651e+002, 2.819614e+001
4.705472e+002, 2.792845e+001
4.710294e+002, 2.781719e+001
4.715115e+002, 2.807805e+001
4.719936e+002, 2.843063e+001
4.724757e+002, 2.846771e+001
4.729578e+002, 2.810229e+001
4.734399e+002, 2.763272e+001
4.739221e+002, 2.741509e+001
4.744042e+002, 2.748986e+001
4.748863e+002, 2.759174e+001
4.753684e+002, 2.767708e+001
4.758505e+002, 2.783199e+001
4.763326e+002, 2.830042e+001
4.768148e+002, 2.881735e+001
4.772969e+002, 2.888340e+001
4.777790e+002, 2.824315e+001
4.782611e+002, 2.725130e+001
4.787432e+002, 2.664960e+001
4.792253e+002, 2.650871e+001
4.797075e+002, 2.657259e+001
4.801896e+002, 2.725822e+001
4.806717e+002, 2.777406e+001
4.811538e+002, 2.743501e+001
4.816359e+002, 2.643792e+001
4.821180e+002, 2.569404e+001
4.826002e+002, 2.596623e+001
4.830823e+002, 2.689105e+001
4.835644e+002, 2.743363e+001
4.840465e+002, 2.750697e+001
4.845286e+002, 2.749985e+001
4.850107e+002, 2.750551e+001
4.854929e+002, 2.756183e+001
4.859750e+002, 2.780261e+001
4.864571e+002, 2.832663e+001
4.869392e+002, 2.858196e+001
4.874213e+002, 2.791730e+001
4.879034e+002, 2.678579e+001
4.883856e+002, 2.627790e+001
4.888677e+002, 2.662030e+001
4.893498e+002, 2.711147e+001
4.898319e+002, 2.708121e+001
4.903140e+002, 2.660267e+001
4.907961e+002, 2.659981e+001
4.912783e+002, 2.765909e+001
4.917604e+002, 2.857064e+001
4.922425e+002, 2.874534e+001
4.927246e+002, 2.839402e+001
4.932067e+002, 2.783966e+001
4.936888e+002, 2.719721e+001
4.941710e+002, 2.661153e+001
4.946531e+002, 2.631334e+001
4.951352e+002, 2.634799e+001
4.956173e+002, 2.656107e+001
4.960994e+002, 2.715549e+001
4.965815e+002, 2.770546e+001
4.970637e+002, 2.802441e+001
4.975458e+002, 2.813291e+001
4.980279e+002, 2.808907e+001
4.985100e+002, 2.791101e+001
4.989921e+002, 2.767607e+001
4.994742e+002, 2.760438e+001
4.999564e+002, 2.781333e+001
5.004385e+002, 2.788578e+001
5.009206e+002, 2.761993e+001
5.014027e+002, 2.731348e+001
5.018848e+002, 2.710652e+001
5.023669e+002, 2.702222e+001
5.028491e+002, 2.707452e+001
5.033312e+002, 2.745810e+001
5.038133e+002, 2.794394e+001
5.042954e+002, 2.774532e+001
5.047775e+002, 2.665468e+001
5.052596e+002, 2.586468e+001
5.057418e+002, 2.599616e+001
5.062239e+002, 2.673547e+001
5.067060e+002, 2.775992e+001
5.071881e+002, 2.923685e+001
5.076702e+002, 3.021131e+001
5.081523e+002, 2.982016e+001
5.086345e+002, 2.874047e+001
5.091166e+002, 2.808339e+001
5.095987e+002, 2.801297e+001
5.100808e+002, 2.818381e+001
5.105629e+002, 2.833825e+001
5.110450e+002, 2.848543e+001
5.115272e+002, 2.872792e+001
5.120093e+002, 2.918516e+001
5.124914e+002, 2.958424e+001
5.129735e+002, 2.980403e+001
5.134556e+002, 2.993794e+001
5.139377e+002, 3.015520e+001
5.144199e+002, 3.048386e+001
5.149020e+002, 3.073956e+001
5.153841e+002, 3.064908e+001
5.158662e+002, 3.012766e+001
5.163483e+002, 2.984361e+001
5.168304e+002, 2.999512e+001
5.173126e+002, 3.018349e+001
5.177947e+002, 3.024104e+001
5.182768e+002, 3.028491e+001
5.187589e+002, 3.054844e+001
5.192410e+002, 3.113773e+001
5.197231e+002, 3.176382e+001
5.202053e+002, 3.198383e+001
5.206874e+002, 3.176900e+001
5.211695e+002, 3.155402e+001
5.216516e+002, 3.141989e+001
5.221337e+002, 3.126138e+001
5.226158e+002, 3.093535e+001
5.230980e+002, 3.052362e+001
5.235801e+002, 3.027242e+001
5.240622e+002, 3.040994e+001
5.245443e+002, 3.060655e+001
5.250264e+002, 3.050122e+001
5.255085e+002, 3.013338e+001
5.259907e+002, 2.970208e+001
5.264728e+002, 2.921412e+001
5.269549e+002, 2.882843e+001
5.274370e+002, 2.885040e+001
5.279191e+002, 2.936680e+001
5.284012e+002, 2.971175e+001
5.288834e+002, 2.983851e+001
5.293655e+002, 2.975781e+001
5.298476e+002, 2.933277e+001
5.303297e+002, 2.869543e+001
5.308118e+002, 2.821121e+001
5.312939e+002, 2.808547e+001
5.317761e+002, 2.817214e+001
5.322582e+002, 2.808901e+001
5.327403e+002, 2.765487e+001
5.332224e+002, 2.738604e+001
5.337045e+002, 2.753810e+001
5.341866e+002, 2.762178e+001
5.346688e+002, 2.718913e+001
5.351509e+002, 2.640796e+001
5.356330e+002, 2.585894e+001
5.361151e+002, 2.600104e+001
5.365972e+002, 2.652652e+001
5.370793e+002, 2.651182e+001
5.375615e+002, 2.574752e+001
5.380436e+002, 2.531730e+001
5.385257e+002, 2.592215e+001
5.390078e+002, 2.669104e+001
5.394899e+002, 2.680647e+001
5.399720e+002, 2.627464e+001
5.404542e+002, 2.575857e+001
5.409363e+002, 2.556483e+001
5.414184e+002, 2.558514e+001
5.419005e+002, 2.572714e+001
5.423826e+002, 2.597521e+001
5.428647e+002, 2.617739e+001
5.433469e+002, 2.629083e+001
5.438290e+002, 2.627080e+001
5.443111e+002, 2.595101e+001
5.447932e+002, 2.514774e+001
5.452753e+002, 2.452350e+001
5.457574e+002, 2.423042e+001
5.462396e+002, 2.410760e+001
5.467217e+002, 2.404719e+001
5.472038e+002, 2.402700e+001
5.476859e+002, 2.404403e+001
5.481680e+002, 2.409469e+001
5.486501e+002, 2.418332e+001
5.491323e+002, 2.431957e+001
5.496144e+002, 2.441606e+001
5.500965e+002, 2.472553e+001
5.505786e+002, 2.565651e+001
5.510607e+002, 2.649365e+001
5.515428e+002, 2.655621e+001
5.520250e+002, 2.592846e+001
5.525071e+002, 2.536860e+001
5.529892e+002, 2.555398e+001
5.534713e+002, 2.617358e+001
5.539534e+002, 2.623898e+001
5.544355e+002, 2.561343e+001
5.549177e+002, 2.513358e+001
5.553998e+002, 2.528428e+001
5.558819e+002, 2.564110e+001
5.563640e+002, 2.559045e+001
5.568461e+002, 2.506817e+001
5.573282e+002, 2.460056e+001
5.578104e+002, 2.431935e+001
5.582925e+002, 2.424072e+001
5.587746e+002, 2.450661e+001
5.592567e+002, 2.506268e+001
5.597388e+002, 2.550641e+001
5.602209e+002, 2.559787e+001
5.607031e+002, 2.540528e+001
5.611852e+002, 2.514459e+001
5.616673e+002, 2.441528e+001
5.621494e+002, 2.420306e+001
5.626315e+002, 2.508327e+001
5.631136e+002, 2.604601e+001
5.635958e+002, 2.630877e+001
5.640779e+002, 2.593707e+001
5.645600e+002, 2.546411e+001
5.650421e+002, 2.525705e+001
5.655242e+002, 2.524375e+001
5.660063e+002, 2.521592e+001
5.664885e+002, 2.523649e+001
5.669706e+002, 2.505710e+001
5.674527e+002, 2.419084e+001
5.679348e+002, 2.343036e+001
5.684169e+002, 2.345276e+001
5.688990e+002, 2.418716e+001
5.693812e+002, 2.490077e+001
5.698633e+002, 2.509895e+001
5.703454e+002, 2.510878e+001
5.708275e+002, 2.550756e+001
5.713096e+002, 2.625561e+001
5.717917e+002, 2.670443e+001
5.722739e+002, 2.649593e+001
5.727560e+002, 2.598401e+001
5.732381e+002, 2.579011e+001
5.737202e+002, 2.595430e+001
5.742023e+002, 2.624564e+001
5.746844e+002, 2.683949e+001
5.751666e+002, 2.738558e+001
5.756487e+002, 2.764944e+001
5.761308e+002, 2.766233e+001
5.766129e+002, 2.751439e+001
5.770950e+002, 2.724222e+001
5.775771e+002, 2.695090e+001
5.780593e+002, 2.689350e+001
5.785414e+002, 2.718281e+001
5.790235e+002, 2.739835e+001
5.795056e+002, 2.736524e+001
5.799877e+002, 2.740044e+001
5.804698e+002, 2.781602e+001
5.809520e+002, 2.840360e+001
5.814341e+002, 2.863075e+001
5.819162e+002, 2.809988e+001
5.823983e+002, 2.744214e+001
5.828804e+002, 2.783438e+001
5.833625e+002, 2.910845e+001
5.838447e+002, 2.929590e+001
5.843268e+002, 2.761144e+001
5.848089e+002, 2.547335e+001
5.852910e+002, 2.429399e+001
5.857731e+002, 2.400303e+001
5.862552e+002, 2.389684e+001
5.867374e+002, 2.400280e+001
5.872195e+002, 2.418913e+001
5.877016e+002, 2.443362e+001
5.881837e+002, 2.470015e+001
5.886658e+002, 2.498406e+001
5.891479e+002, 2.527081e+001
5.896301e+002, 2.539339e+001
5.901122e+002, 2.508203e+001
5.905943e+002, 2.424955e+001
5.910764e+002, 2.382694e+001
5.915585e+002, 2.430039e+001
5.920406e+002, 2.462418e+001
5.925228e+002, 2.443426e+001
5.930049e+002, 2.401839e+001
5.934870e+002, 2.372868e+001
5.939691e+002, 2.365323e+001
5.944512e+002, 2.361109e+001
5.949333e+002, 2.332386e+001
5.954155e+002, 2.290446e+001
5.958976e+002, 2.295759e+001
5.963797e+002, 2.365744e+001
5.968618e+002, 2.418683e+001
5.973439e+002, 2.395379e+001
5.978260e+002, 2.325889e+001
5.983082e+002, 2.286466e+001
5.987903e+002, 2.284964e+001
5.992724e+002, 2.293572e+001
5.997545e+002, 2.317516e+001
6.002366e+002, 2.338449e+001
6.007188e+002, 2.330409e+001
6.012009e+002, 2.296329e+001
6.016830e+002, 2.265284e+001
6.021651e+002, 2.258118e+001
6.026472e+002, 2.265780e+001
6.031293e+002, 2.253864e+001
6.036115e+002, 2.208959e+001
6.040936e+002, 2.168707e+001
6.045757e+002, 2.115560e+001
6.050578e+002, 2.084554e+001
6.055399e+002, 2.110941e+001
6.060220e+002, 2.180300e+001
6.065042e+002, 2.246569e+001
6.069863e+002, 2.287717e+001
6.074684e+002, 2.306218e+001
6.079505e+002, 2.295632e+001
6.084326e+002, 2.257084e+001
6.089147e+002, 2.243714e+001
6.093969e+002, 2.288173e+001
6.098790e+002, 2.326780e+001
6.103611e+002, 2.259804e+001
6.108432e+002, 2.100206e+001
6.113253e+002, 2.027498e+001
6.118074e+002, 2.144508e+001
6.122896e+002, 2.265177e+001
6.127717e+002, 2.290513e+001
6.132538e+002, 2.253400e+001
6.137359e+002, 2.206939e+001
6.142180e+002, 2.168784e+001
6.147001e+002, 2.138745e+001
6.151823e+002, 2.115451e+001
6.156644e+002, 2.098437e+001
6.161465e+002, 2.099354e+001
6.166286e+002, 2.143506e+001
6.171107e+002, 2.170278e+001
6.175928e+002, 2.142862e+001
6.180750e+002, 2.103801e+001
6.185571e+002, 2.098056e+001
6.190392e+002, 2.133732e+001
6.195213e+002, 2.183891e+001
6.200034e+002, 2.246131e+001
6.204855e+002, 2.303968e+001
6.209677e+002, 2.313660e+001
6.214498e+002, 2.272078e+001
6.219319e+002, 2.220640e+001
6.224140e+002, 2.170600e+001
6.228961e+002, 2.132809e+001
6.233782e+002, 2.139463e+001
6.238604e+002, 2.214837e+001
6.243425e+002, 2.252629e+001
6.248246e+002, 2.208364e+001
6.253067e+002, 2.151579e+001
6.257888e+002, 2.123178e+001
6.262709e+002, 2.121738e+001
6.267531e+002, 2.136084e+001
6.272352e+002, 2.161151e+001
6.277173e+002, 2.187338e+001
6.281994e+002, 2.194885e+001
6.286815e+002, 2.179459e+001
6.291636e+002, 2.170521e+001
6.296458e+002, 2.184192e+001
6.301279e+002, 2.184981e+001
6.306100e+002, 2.137183e+001
6.310921e+002, 2.070165e+001
6.315742e+002, 2.039536e+001
6.320563e+002, 2.068692e+001
6.325385e+002, 2.106735e+001
6.330206e+002, 2.121085e+001
6.335027e+002, 2.117288e+001
6.339848e+002, 2.099287e+001
6.344669e+002, 2.068544e+001
6.349490e+002, 2.050812e+001
6.354312e+002, 2.068821e+001
6.359133e+002, 2.112537e+001
6.363954e+002, 2.134317e+001
6.368775e+002, 2.091187e+001
6.373596e+002, 2.084244e+001
6.378417e+002, 2.162638e+001
6.383239e+002, 2.240739e+001
6.388060e+002, 2.239096e+001
6.392881e+002, 2.179025e+001
6.397702e+002, 2.150686e+001
6.402523e+002, 2.219516e+001
6.407344e+002, 2.320397e+001
6.412166e+002, 2.314344e+001
6.416987e+002, 2.195563e+001
6.421808e+002, 2.098494e+001
6.426629e+002, 2.045279e+001
6.431450e+002, 2.026099e+001
6.436271e+002, 2.051390e+001
6.441093e+002, 2.107425e+001
6.445914e+002, 2.142949e+001
6.450735e+002, 2.126622e+001
6.455556e+002, 2.116165e+001
6.460377e+002, 2.161904e+001
6.465198e+002, 2.220310e+001
6.470020e+002, 2.219001e+001
6.474841e+002, 2.150119e+001
6.479662e+002, 2.070230e+001
6.484483e+002, 2.028735e+001
6.489304e+002, 2.021414e+001
6.494125e+002, 2.016709e+001
6.498947e+002, 2.010996e+001
6.503768e+002, 2.015166e+001
6.508589e+002, 2.040272e+001
6.513410e+002, 2.068051e+001
6.518231e+002, 2.092425e+001
6.523052e+002, 2.109257e+001
6.527874e+002, 2.104861e+001
6.532695e+002, 2.045107e+001
6.537516e+002, 1.986771e+001
6.542337e+002, 2.026411e+001
6.547158e+002, 2.137200e+001
6.551979e+002, 2.183631e+001
6.556801e+002, 2.118523e+001
6.561622e+002, 2.030539e+001
6.566443e+002, 2.019585e+001
6.571264e+002, 2.091017e+001
6.576085e+002, 2.138585e+001
6.580906e+002, 2.166179e+001
6.585728e+002, 2.168890e+001
6.590549e+002, 2.114899e+001
6.595370e+002, 2.053940e+001
6.600191e+002, 2.045969e+001
6.605012e+002, 2.092880e+001
6.609833e+002, 2.139208e+001
6.614655e+002, 2.132167e+001
6.619476e+002, 2.094119e+001
6.624297e+002, 2.106456e+001
6.629118e+002, 2.180035e+001
6.633939e+002, 2.215345e+001
6.638760e+002, 2.162879e+001
6.643582e+002, 2.081949e+001
6.648403e+002, 2.036830e+001
6.653224e+002, 2.025155e+001
6.658045e+002, 2.037002e+001
6.662866e+002, 2.112614e+001
6.667687e+002, 2.167771e+001
6.672509e+002, 2.138832e+001
6.677330e+002, 2.063305e+001
6.682151e+002, 1.994669e+001
6.686972e+002, 1.950545e+001
6.691793e+002, 1.936295e+001
6.696614e+002, 1.961560e+001
6.701436e+002, 2.023417e+001
6.706257e+002, 2.081069e+001
6.711078e+002, 2.144133e+001
6.715899e+002, 2.183353e+001
6.720720e+002, 2.178175e+001
6.725541e+002, 2.154515e+001
6.730363e+002, 2.121573e+001
6.735184e+002, 2.083840e+001
6.740005e+002, 2.068444e+001
6.744826e+002, 2.102794e+001
6.749647e+002, 2.151954e+001
6.754468e+002, 2.195111e+001
6.759290e+002, 2.224517e+001
6.764111e+002, 2.204356e+001
6.768932e+002, 2.122238e+001
6.773753e+002, 2.042871e+001
6.778574e+002, 2.047226e+001
6.783395e+002, 2.139605e+001
6.788217e+002, 2.205908e+001
6.793038e+002, 2.240653e+001
6.797859e+002, 2.254253e+001
6.802680e+002, 2.231894e+001
6.807501e+002, 2.200277e+001
6.812322e+002, 2.180122e+001
6.817144e+002, 2.174919e+001
6.821965e+002, 2.181254e+001
6.826786e+002, 2.204014e+001
6.831607e+002, 2.232153e+001
6.836428e+002, 2.243955e+001
6.841249e+002, 2.241926e+001
6.846071e+002, 2.250924e+001
6.850892e+002, 2.282864e+001
6.855713e+002, 2.309583e+001
6.860534e+002, 2.284553e+001
6.865355e+002, 2.200157e+001
6.870176e+002, 2.212741e+001
6.874998e+002, 2.428051e+001
6.879819e+002, 2.598225e+001
6.884640e+002, 2.625658e+001
6.889461e+002, 2.600222e+001
6.894282e+002, 2.606709e+001
6.899103e+002, 2.659526e+001
6.903925e+002, 2.733418e+001
6.908746e+002, 2.811292e+001
6.913567e+002, 2.894549e+001
6.918388e+002, 3.002443e+001
6.923209e+002, 3.138300e+001
6.928030e+002, 3.209802e+001
6.932852e+002, 3.178846e+001
6.937673e+002, 3.101062e+001
6.942494e+002, 3.019582e+001
6.947315e+002, 2.936271e+001
6.952136e+002, 2.877953e+001
6.956957e+002, 2.870853e+001
6.961779e+002, 2.857986e+001
6.966600e+002, 2.814836e+001
6.971421e+002, 2.758689e+001
6.976242e+002, 2.699695e+001
6.981063e+002, 2.645835e+001
6.985884e+002, 2.616960e+001
6.990706e+002, 2.633180e+001
6.995527e+002, 2.676544e+001
7.000348e+002, 2.696626e+001
7.005169e+002, 2.691403e+001
7.009990e+002, 2.672540e+001
7.014811e+002, 2.628712e+001
7.019633e+002, 2.590765e+001
7.024454e+002, 2.587428e+001
7.029275e+002, 2.611667e+001
7.034096e+002, 2.642653e+001
7.038917e+002, 2.679956e+001
7.043738e+002, 2.720415e+001
7.048560e+002, 2.781082e+001
7.053381e+002, 2.834057e+001
7.058202e+002, 2.826918e+001
7.063023e+002, 2.770074e+001
7.067844e+002, 2.738328e+001
7.072665e+002, 2.784490e+001
7.077487e+002, 2.885298e+001
7.082308e+002, 2.976437e+001
7.087129e+002, 3.052868e+001
7.091950e+002, 3.145928e+001
7.096771e+002, 3.284538e+001
7.101592e+002, 3.406511e+001
7.106414e+002, 3.447031e+001
7.111235e+002, 3.446337e+001
7.116056e+002, 3.494995e+001
7.120877e+002, 3.631377e+001
7.125698e+002, 3.762564e+001
7.130519e+002, 3.845184e+001
7.135341e+002, 3.896211e+001
7.140162e+002, 3.938475e+001
7.144983e+002, 3.969807e+001
7.149804e+002, 3.969946e+001
7.154625e+002, 3.926234e+001
7.159446e+002, 3.851109e+001
7.164268e+002, 3.772889e+001
7.169089e+002, 3.697151e+001
7.173910e+002, 3.589617e+001
7.178731e+002, 3.418746e+001
7.183552e+002, 3.256465e+001
7.188373e+002, 3.138349e+001
7.193195e+002, 3.047671e+001
7.198016e+002, 2.962876e+001
7.202837e+002, 2.881290e+001
7.207658e+002, 2.800825e+001
7.212479e+002, 2.704135e+001
7.217300e+002, 2.619628e+001
7.222122e+002, 2.593555e+001
7.226943e+002, 2.609521e+001
7.231764e+002, 2.601247e+001
7.236585e+002, 2.539382e+001
7.241406e+002, 2.464059e+001
7.246227e+002, 2.440840e+001
7.251049e+002, 2.477477e+001
7.255870e+002, 2.490703e+001
7.260691e+002, 2.467887e+001
7.265512e+002, 2.441742e+001
7.270333e+002, 2.422412e+001
7.275154e+002, 2.405812e+001
7.279976e+002, 2.386552e+001
7.284797e+002, 2.364466e+001
7.289618e+002, 2.348815e+001
7.294439e+002, 2.342067e+001
7.299260e+002, 2.344733e+001
7.304081e+002, 2.368523e+001
7.308903e+002, 2.400776e+001
7.313724e+002, 2.408179e+001
7.318545e+002, 2.382208e+001
7.323366e+002, 2.347896e+001
7.328187e+002, 2.330843e+001
7.333008e+002, 2.330113e+001
7.337830e+002, 2.336590e+001
7.342651e+002, 2.364458e+001
7.347472e+002, 2.368654e+001
7.352293e+002, 2.305705e+001
7.357114e+002, 2.243222e+001
7.361935e+002, 2.236678e+001
7.366757e+002, 2.275475e+001
7.371578e+002, 2.305411e+001
7.376399e+002, 2.316266e+001
7.381220e+002, 2.305350e+001
7.386041e+002, 2.238119e+001
7.390862e+002, 2.161080e+001
7.395684e+002, 2.166987e+001
7.400505e+002, 2.256551e+001
7.405326e+002, 2.335927e+001
7.410147e+002, 2.334215e+001
7.414968e+002, 2.281427e+001
7.419789e+002, 2.271534e+001
7.424611e+002, 2.318731e+001
7.429432e+002, 2.357374e+001
7.434253e+002, 2.387756e+001
7.439074e+002, 2.399771e+001
7.443895e+002, 2.373788e+001
7.448716e+002, 2.330191e+001
7.453538e+002, 2.309434e+001
7.458359e+002, 2.326294e+001
7.463180e+002, 2.337956e+001
7.468001e+002, 2.320352e+001
7.472822e+002, 2.291662e+001
7.477643e+002, 2.258965e+001
7.482465e+002, 2.231887e+001
7.487286e+002, 2.236462e+001
7.492107e+002, 2.284651e+001
7.496928e+002, 2.351106e+001
7.501749e+002, 2.410675e+001
7.506570e+002, 2.466463e+001
7.511392e+002, 2.433425e+001
7.516213e+002, 2.253943e+001
7.521034e+002, 2.118288e+001
7.525855e+002, 2.128006e+001
7.530676e+002, 2.202845e+001
7.535497e+002, 2.243134e+001
7.540319e+002, 2.246192e+001
7.545140e+002, 2.265950e+001
7.549961e+002, 2.357187e+001
7.554782e+002, 2.424994e+001
7.559603e+002, 2.385978e+001
7.564424e+002, 2.296276e+001
7.569246e+002, 2.242582e+001
7.574067e+002, 2.242611e+001
7.578888e+002, 2.259827e+001
7.583709e+002, 2.262909e+001
7.588530e+002, 2.258732e+001
7.593351e+002, 2.274356e+001
7.598173e+002, 2.313384e+001
7.602994e+002, 2.339404e+001
7.607815e+002, 2.337164e+001
7.612636e+002, 2.333491e+001
7.617457e+002, 2.351874e+001
7.622278e+002, 2.388536e+001
7.627100e+002, 2.424711e+001
7.631921e+002, 2.485036e+001
7.636742e+002, 2.505861e+001
7.641563e+002, 2.424162e+001
7.646384e+002, 2.336682e+001
7.651205e+002, 2.345086e+001
7.656027e+002, 2.416277e+001
7.660848e+002, 2.438711e+001
7.665669e+002, 2.358282e+001
7.670490e+002, 2.250439e+001
7.675311e+002, 2.216282e+001
7.680132e+002, 2.243711e+001
7.684954e+002, 2.264650e+001
7.689775e+002, 2.273544e+001
7.694596e+002, 2.292494e+001
7.699417e+002, 2.340983e+001
7.704238e+002, 2.392619e+001
7.709059e+002, 2.397194e+001
7.713881e+002, 2.337083e+001
7.718702e+002, 2.299832e+001
7.723523e+002, 2.292992e+001
7.728344e+002, 2.298915e+001
7.733165e+002, 2.325058e+001
7.737986e+002, 2.352881e+001
7.742808e+002, 2.356505e+001
7.747629e+002, 2.336506e+001
7.752450e+002, 2.324846e+001
7.757271e+002, 2.354313e+001
7.762092e+002, 2.393102e+001
7.766913e+002, 2.392258e+001
7.771735e+002, 2.358789e+001
7.776556e+002, 2.314126e+001
7.781377e+002, 2.261900e+001
7.786198e+002, 2.231643e+001
7.791019e+002, 2.256773e+001
7.795840e+002, 2.319456e+001
7.800662e+002, 2.321539e+001
7.805483e+002, 2.184680e+001
7.810304e+002, 2.136856e+001
7.815125e+002, 2.297528e+001
7.819946e+002, 2.441721e+001
7.824767e+002, 2.442733e+001
7.829589e+002, 2.353249e+001
7.834410e+002, 2.274087e+001
7.839231e+002, 2.226019e+001
7.844052e+002, 2.208167e+001
7.848873e+002, 2.249009e+001
7.853694e+002, 2.300408e+001
7.858516e+002, 2.288099e+001
7.863337e+002, 2.230552e+001
7.868158e+002, 2.203473e+001
7.872979e+002, 2.237015e+001
7.877800e+002, 2.300964e+001
7.882621e+002, 2.362783e+001
7.887443e+002, 2.421200e+001
7.892264e+002, 2.443011e+001
7.897085e+002, 2.414560e+001
7.901906e+002, 2.387749e+001
7.906727e+002, 2.383600e+001
7.911548e+002, 2.380961e+001
7.916370e+002, 2.358397e+001
7.921191e+002, 2.317970e+001
7.926012e+002, 2.273818e+001
7.930833e+002, 2.205689e+001
7.935654e+002, 2.161661e+001
7.940475e+002, 2.171703e+001
7.945297e+002, 2.206653e+001
7.950118e+002, 2.246772e+001
7.954939e+002, 2.283344e+001
7.959760e+002, 2.302197e+001
7.964581e+002, 2.293707e+001
7.969402e+002, 2.276106e+001
7.974224e+002, 2.270680e+001
7.979045e+002, 2.278967e+001
7.983866e+002, 2.322339e+001
7.988687e+002, 2.408776e+001
7.993508e+002, 2.468249e+001
7.998329e+002, 2.454085e+001
8.003151e+002, 2.409683e+001
8.007972e+002, 2.422557e+001
8.012793e+002, 2.526098e+001
8.017614e+002, 2.554009e+001
8.022435e+002, 2.438632e+001
8.027256e+002, 2.338065e+001
8.032078e+002, 2.303422e+001
8.036899e+002, 2.302712e+001
8.041720e+002, 2.303325e+001
8.046541e+002, 2.301272e+001
8.051362e+002, 2.308079e+001
8.056183e+002, 2.342394e+001
8.061005e+002, 2.373675e+001
8.065826e+002, 2.356524e+001
8.070647e+002, 2.314780e+001
8.075468e+002, 2.302381e+001
8.080289e+002, 2.327775e+001
8.085110e+002, 2.373746e+001
8.089932e+002, 2.431833e+001
8.094753e+002, 2.489939e+001
8.099574e+002, 2.515559e+001
8.104395e+002, 2.504276e+001
8.109216e+002, 2.476840e+001
8.114037e+002, 2.410689e+001
8.118859e+002, 2.367817e+001
8.123680e+002, 2.396746e+001
8.128501e+002, 2.459961e+001
8.133322e+002, 2.505198e+001
8.138143e+002, 2.528467e+001
8.142964e+002, 2.546940e+001
8.147786e+002, 2.573020e+001
8.152607e+002, 2.586495e+001
8.157428e+002, 2.568224e+001
8.162249e+002, 2.533375e+001
8.167070e+002, 2.497439e+001
8.171891e+002, 2.467311e+001
8.176713e+002, 2.454224e+001
8.181534e+002, 2.472410e+001
8.186355e+002, 2.504468e+001
8.191176e+002, 2.516693e+001
8.195997e+002, 2.511062e+001
8.200818e+002, 2.498345e+001
8.205640e+002, 2.477850e+001
8.210461e+002, 2.476492e+001
8.215282e+002, 2.521262e+001
8.220103e+002, 2.590208e+001
8.224924e+002, 2.615376e+001
8.229745e+002, 2.576332e+001
8.234567e+002, 2.539018e+001
8.239388e+002, 2.494960e+001
8.244209e+002, 2.462137e+001
8.249030e+002, 2.459531e+001
8.253851e+002, 2.465194e+001
8.258672e+002, 2.447499e+001
8.263494e+002, 2.402490e+001
8.268315e+002, 2.363498e+001
8.273136e+002, 2.340357e+001
8.277957e+002, 2.334961e+001
8.282778e+002, 2.362488e+001
8.287599e+002, 2.404552e+001
8.292421e+002, 2.424974e+001
8.297242e+002, 2.419447e+001
8.302063e+002, 2.413285e+001
8.306884e+002, 2.426300e+001
8.311705e+002, 2.450459e+001
8.316526e+002, 2.465840e+001
8.321348e+002, 2.472074e+001
8.326169e+002, 2.479162e+001
8.330990e+002, 2.490182e+001
8.335811e+002, 2.495328e+001
8.340632e+002, 2.487123e+001
8.345453e+002, 2.470348e+001
8.350275e+002, 2.452222e+001
8.355096e+002, 2.422567e+001
8.359917e+002, 2.424316e+001
8.364738e+002, 2.485450e+001
8.369559e+002, 2.545284e+001
8.374380e+002, 2.594541e+001
8.379202e+002, 2.622893e+001
8.384023e+002, 2.609027e+001
8.388844e+002, 2.558370e+001
8.393665e+002, 2.517396e+001
8.398486e+002, 2.511794e+001
8.403307e+002, 2.525797e+001
8.408129e+002, 2.560644e+001
8.412950e+002, 2.598016e+001
8.417771e+002, 2.595258e+001
8.422592e+002, 2.550926e+001
8.427413e+002, 2.495341e+001
8.432234e+002, 2.445425e+001
8.437056e+002, 2.411665e+001
8.441877e+002, 2.427503e+001
8.446698e+002, 2.500281e+001
8.451519e+002, 2.524570e+001
8.456340e+002, 2.476891e+001
8.461161e+002, 2.438330e+001
8.465983e+002, 2.441577e+001
8.470804e+002, 2.472693e+001
8.475625e+002, 2.527368e+001
8.480446e+002, 2.610521e+001
8.485267e+002, 2.635365e+001
8.490089e+002, 2.537213e+001
8.494910e+002, 2.459142e+001
8.499731e+002, 2.450728e+001
8.504552e+002, 2.471684e+001
8.509373e+002, 2.490052e+001
8.514194e+002, 2.503244e+001
8.519016e+002, 2.521028e+001
8.523837e+002, 2.550834e+001
8.528658e+002, 2.575017e+001
8.533479e+002, 2.572596e+001
8.538300e+002, 2.556005e+001
8.543121e+002, 2.546178e+001
8.547943e+002, 2.543762e+001
8.552764e+002, 2.547972e+001
8.557585e+002, 2.558753e+001
8.562406e+002, 2.551507e+001
8.567227e+002, 2.479746e+001
8.572048e+002, 2.354067e+001
8.576870e+002, 2.323568e+001
8.581691e+002, 2.418802e+001
8.586512e+002, 2.488729e+001
8.591333e+002, 2.489199e+001
8.596154e+002, 2.464507e+001
8.600975e+002, 2.451637e+001
8.605797e+002, 2.446861e+001
8.610618e+002, 2.428491e+001
8.615439e+002, 2.374692e+001
8.620260e+002, 2.344053e+001
8.625081e+002, 2.352423e+001
8.629902e+002, 2.375738e+001
8.634724e+002, 2.413671e+001
8.639545e+002, 2.451328e+001
8.644366e+002, 2.463498e+001
8.649187e+002, 2.444852e+001
8.654008e+002, 2.426487e+001
8.658829e+002, 2.431794e+001
8.663651e+002, 2.445899e+001
8.668472e+002, 2.446725e+001
8.673293e+002, 2.443460e+001
8.678114e+002, 2.466629e+001
8.682935e+002, 2.518211e+001
8.687756e+002, 2.558575e+001
8.692578e+002, 2.555707e+001
8.697399e+002, 2.526802e+001
8.702220e+002, 2.513450e+001
8.707041e+002, 2.516261e+001
8.711862e+002, 2.525309e+001
8.716683e+002, 2.544368e+001
8.721505e+002, 2.550541e+001
8.726326e+002, 2.521619e+001
8.731147e+002, 2.485276e+001
8.735968e+002, 2.493839e+001
8.740789e+002, 2.562406e+001
8.745610e+002, 2.593986e+001
8.750432e+002, 2.560053e+001
8.755253e+002, 2.528270e+001
8.760074e+002, 2.496088e+001
8.764895e+002, 2.486240e+001
8.769716e+002, 2.539119e+001
8.774537e+002, 2.633217e+001
8.779359e+002, 2.689765e+001
8.784180e+002, 2.675002e+001
8.789001e+002, 2.637034e+001
8.793822e+002, 2.593579e+001
8.798643e+002, 2.551189e+001
8.803464e+002, 2.505633e+001
8.808286e+002, 2.468624e+001
8.813107e+002, 2.477039e+001
8.817928e+002, 2.540946e+001
8.822749e+002, 2.610394e+001
8.827570e+002, 2.632895e+001
8.832391e+002, 2.617896e+001
8.837213e+002, 2.586013e+001
8.842034e+002, 2.539208e+001
8.846855e+002, 2.515886e+001
8.851676e+002, 2.528180e+001
8.856497e+002, 2.541480e+001
8.861318e+002, 2.527344e+001
8.866140e+002, 2.494903e+001
8.870961e+002, 2.476546e+001
8.875782e+002, 2.483401e+001
8.880603e+002, 2.474825e+001
8.885424e+002, 2.433706e+001
8.890245e+002, 2.400497e+001
8.895067e+002, 2.388733e+001
8.899888e+002, 2.394844e+001
8.904709e+002, 2.425859e+001
8.909530e+002, 2.481179e+001
8.914351e+002, 2.507271e+001
8.919172e+002, 2.456568e+001
8.923994e+002, 2.420263e+001
8.928815e+002, 2.459916e+001
8.933636e+002, 2.512812e+001
8.938457e+002, 2.508788e+001
8.943278e+002, 2.461268e+001
8.948099e+002, 2.434505e+001
8.952921e+002, 2.459782e+001
8.957742e+002, 2.477587e+001
8.962563e+002, 2.405057e+001
8.967384e+002, 2.301421e+001
8.972205e+002, 2.276741e+001
8.977026e+002, 2.318191e+001
8.981848e+002, 2.347877e+001
8.986669e+002, 2.343584e+001
8.991490e+002, 2.373312e+001
8.996311e+002, 2.523770e+001
9.001132e+002, 2.734867e+001
9.005953e+002, 2.752897e+001
9.010775e+002, 2.556731e+001
9.015596e+002, 2.405409e+001
9.020417e+002, 2.332405e+001
9.025238e+002, 2.318732e+001
9.030059e+002, 2.378403e+001
9.034880e+002, 2.464699e+001
9.039702e+002, 2.477511e+001
9.044523e+002, 2.392949e+001
9.049344e+002, 2.330388e+001
9.054165e+002, 2.257782e+001
9.058986e+002, 2.248893e+001
9.063807e+002, 2.401510e+001
9.068629e+002, 2.560110e+001
9.073450e+002, 2.566897e+001
9.078271e+002, 2.453678e+001
9.083092e+002, 2.382653e+001
9.087913e+002, 2.418627e+001
9.092734e+002, 2.452744e+001
9.097556e+002, 2.418864e+001
9.102377e+002, 2.377331e+001
9.107198e+002, 2.388799e+001
9.112019e+002, 2.433056e+001
9.116840e+002, 2.470371e+001
9.121661e+002, 2.485872e+001
9.126483e+002, 2.467968e+001
9.131304e+002, 2.377219e+001
9.136125e+002, 2.273550e+001
9.140946e+002, 2.262317e+001
9.145767e+002, 2.321575e+001
9.150588e+002, 2.396382e+001
9.155410e+002, 2.471469e+001
9.160231e+002, 2.500076e+001
9.165052e+002, 2.446836e+001
9.169873e+002, 2.364301e+001
9.174694e+002, 2.370675e+001
9.179515e+002, 2.471941e+001
9.184337e+002, 2.478613e+001
9.189158e+002, 2.359706e+001
9.193979e+002, 2.288803e+001
9.198800e+002, 2.340664e+001
9.203621e+002, 2.431194e+001
9.208442e+002, 2.469578e+001
9.213264e+002, 2.463128e+001
9.218085e+002, 2.489010e+001
9.222906e+002, 2.594584e+001
9.227727e+002, 2.654937e+001
9.232548e+002, 2.628048e+001
9.237369e+002, 2.596736e+001
9.242191e+002, 2.603548e+001
9.247012e+002, 2.628703e+001
9.251833e+002, 2.639211e+001
9.256654e+002, 2.630522e+001
9.261475e+002, 2.628733e+001
9.266296e+002, 2.647912e+001
9.271118e+002, 2.668417e+001
9.275939e+002, 2.673895e+001
9.280760e+002, 2.680043e+001
9.285581e+002, 2.704843e+001
9.290402e+002, 2.747108e+001
9.295223e+002, 2.802098e+001
9.300045e+002, 2.873509e+001
9.304866e+002, 2.918692e+001
9.309687e+002, 2.872564e+001
9.314508e+002, 2.791444e+001
9.319329e+002, 2.756268e+001
9.324150e+002, 2.765399e+001
9.328972e+002, 2.805625e+001
9.333793e+002, 2.869995e+001
9.338614e+002, 2.942364e+001
9.343435e+002, 3.015769e+001
9.348256e+002, 3.070623e+001
9.353077e+002, 3.035966e+001
9.357899e+002, 2.921282e+001
9.362720e+002, 2.870355e+001
9.367541e+002, 2.902419e+001
9.372362e+002, 2.960022e+001
9.377183e+002, 3.022597e+001
9.382004e+002, 3.072833e+001
9.386826e+002, 3.085547e+001
9.391647e+002, 3.060482e+001
9.396468e+002, 2.997914e+001
9.401289e+002, 2.858948e+001
9.406110e+002, 2.779853e+001
9.410931e+002, 2.824137e+001
9.415753e+002, 2.885612e+001
9.420574e+002, 2.879035e+001
9.425395e+002, 2.835514e+001
9.430216e+002, 2.847193e+001
9.435037e+002, 2.950131e+001
9.439858e+002, 2.998060e+001
9.444680e+002, 2.923199e+001
9.449501e+002, 2.859890e+001
9.454322e+002, 2.885325e+001
9.459143e+002, 2.927363e+001
9.463964e+002, 2.895191e+001
9.468785e+002, 2.802756e+001
9.473607e+002, 2.748231e+001
9.478428e+002, 2.770045e+001
9.483249e+002, 2.821581e+001
9.488070e+002, 2.914101e+001
9.492891e+002, 2.993655e+001
9.497712e+002, 2.997925e+001
9.502534e+002, 2.952160e+001
9.507355e+002, 2.902640e+001
9.512176e+002, 2.866177e+001
9.516997e+002, 2.855088e+001
9.521818e+002, 2.892371e+001
9.526639e+002, 2.942556e+001
9.531461e+002, 2.954804e+001
9.536282e+002, 2.942732e+001
9.541103e+002, 2.937056e+001
9.545924e+002, 2.940840e+001
9.550745e+002, 2.938428e+001
9.555566e+002, 2.921522e+001
9.560388e+002, 2.921919e+001
9.565209e+002, 3.003360e+001
9.570030e+002, 3.138684e+001
9.574851e+002, 3.166930e+001
9.579672e+002, 3.089219e+001
9.584493e+002, 3.083225e+001
9.589315e+002, 3.200052e+001
9.594136e+002, 3.301736e+001
9.598957e+002, 3.279352e+001
9.603778e+002, 3.185521e+001
9.608599e+002, 3.156063e+001
9.613420e+002, 3.202501e+001
9.618242e+002, 3.258524e+001
9.623063e+002, 3.335269e+001
9.627884e+002, 3.393082e+001
9.632705e+002, 3.413326e+001
9.637526e+002, 3.416324e+001
9.642347e+002, 3.415569e+001
9.647169e+002, 3.413767e+001
9.651990e+002, 3.431225e+001
9.656811e+002, 3.522973e+001
9.661632e+002, 3.548599e+001
9.666453e+002, 3.437508e+001
9.671274e+002, 3.341046e+001
9.676096e+002, 3.333576e+001
9.680917e+002, 3.369838e+001
9.685738e+002, 3.402266e+001
9.690559e+002, 3.424744e+001
9.695380e+002, 3.418429e+001
9.700201e+002, 3.352181e+001
9.705023e+002, 3.291893e+001
9.709844e+002, 3.253273e+001
9.714665e+002, 3.236409e+001
9.719486e+002, 3.263916e+001
9.724307e+002, 3.305861e+001
9.729128e+002, 3.306348e+001
9.733950e+002, 3.250941e+001
9.738771e+002, 3.171218e+001
9.743592e+002, 3.054563e+001
9.748413e+002, 2.952356e+001
9.753234e+002, 2.912899e+001
9.758055e+002, 2.914832e+001
9.762877e+002, 2.947582e+001
9.767698e+002, 2.990665e+001
9.772519e+002, 2.990455e+001
9.777340e+002, 2.920975e+001
9.782161e+002, 2.827455e+001
9.786982e+002, 2.739886e+001
9.791804e+002, 2.671912e+001
9.796625e+002, 2.671842e+001
9.801446e+002, 2.715469e+001
9.806267e+002, 2.714132e+001
9.811088e+002, 2.653167e+001
9.815909e+002, 2.586065e+001
9.820731e+002, 2.547955e+001
9.825552e+002, 2.533951e+001
9.830373e+002, 2.541822e+001
9.835194e+002, 2.567629e+001
9.840015e+002, 2.577749e+001
9.844836e+002, 2.571419e+001
9.849658e+002, 2.591415e+001
9.854479e+002, 2.656231e+001
9.859300e+002, 2.702675e+001
9.864121e+002, 2.667681e+001
9.868942e+002, 2.575462e+001
9.873763e+002, 2.507780e+001
9.878585e+002, 2.461837e+001
9.883406e+002, 2.467720e+001
9.888227e+002, 2.547153e+001
9.893048e+002, 2.607837e+001
9.897869e+002, 2.605934e+001
9.902690e+002, 2.579348e+001
9.907512e+002, 2.572572e+001
9.912333e+002, 2.583387e+001
9.917154e+002, 2.584793e+001
9.921975e+002, 2.580954e+001
9.926796e+002, 2.557907e+001
9.931617e+002, 2.500950e+001
9.936439e+002, 2.443558e+001
9.941260e+002, 2.388140e+001
9.946081e+002, 2.348893e+001
9.950902e+002, 2.352504e+001
9.955723e+002, 2.400699e+001
9.960544e+002, 2.438709e+001
9.965366e+002, 2.482294e+001
9.970187e+002, 2.490258e+001
9.975008e+002, 2.390995e+001
9.979829e+002, 2.320459e+001
9.984650e+002, 2.411014e+001
9.989471e+002, 2.566687e+001
9.994293e+002, 2.601360e+001
9.999114e+002, 2.483149e+001
1.000393e+003, 2.423044e+001
1.000876e+003, 2.546225e+001
1.001358e+003, 2.653298e+001
1.001840e+003, 2.646522e+001
1.002322e+003, 2.599771e+001
1.002804e+003, 2.558868e+001
1.003286e+003, 2.538807e+001
1.003768e+003, 2.567783e+001
1.004250e+003, 2.657691e+001
1.004733e+003, 2.715531e+001
1.005215e+003, 2.633494e+001
1.005697e+003, 2.562983e+001
1.006179e+003, 2.653476e+001
1.006661e+003, 2.800437e+001
1.007143e+003, 2.865661e+001
1.007625e+003, 2.852384e+001
1.008107e+003, 2.836969e+001
1.008589e+003, 2.850959e+001
1.009072e+003, 2.869148e+001
1.009554e+003, 2.850613e+001
1.010036e+003, 2.840866e+001
1.010518e+003, 2.921701e+001
1.011000e+003, 3.043674e+001
1.011482e+003, 3.103904e+001
1.011964e+003, 3.094676e+001
1.012446e+003, 3.070587e+001
1.012929e+003, 3.058065e+001
1.013411e+003, 3.074649e+001
1.013893e+003, 3.147069e+001
1.014375e+003, 3.260574e+001
1.014857e+003, 3.405607e+001
1.015339e+003, 3.564693e+001
1.015821e+003, 3.682700e+001
1.016303e+003, 3.749147e+001
1.016785e+003, 3.786582e+001
1.017268e+003, 3.804574e+001
1.017750e+003, 3.839137e+001
1.018232e+003, 3.965932e+001
1.018714e+003, 4.160852e+001
1.019196e+003, 4.318886e+001
1.019678e+003, 4.442556e+001
1.020160e+003, 4.586927e+001
1.020642e+003, 4.768284e+001
1.021125e+003, 4.984639e+001
1.021607e+003, 5.239389e+001
1.022089e+003, 5.516078e+001
1.022571e+003, 5.776070e+001
1.023053e+003, 6.022425e+001
1.023535e+003, 6.278741e+001
1.024017e+003, 6.545965e+001
1.024499e+003, 6.804977e+001
1.024981e+003, 7.039307e+001
1.025464e+003, 7.353386e+001
1.025946e+003, 7.856847e+001
1.026428e+003, 8.483322e+001
1.026910e+003, 8.997115e+001
1.027392e+003, 9.368124e+001
1.027874e+003, 9.927903e+001
1.028356e+003, 1.071326e+002
1.028838e+003, 1.155907e+002
1.029321e+003, 1.240201e+002
1.029803e+003, 1.330687e+002
1.030285e+003, 1.434796e+002
1.030767e+003, 1.551264e+002
1.031249e+003, 1.674009e+002
1.031731e+003, 1.803571e+002
1.032213e+003, 1.938779e+002
1.032695e+003, 2.079151e+002
1.033177e+003, 2.227595e+002
1.033660e+003, 2.386000e+002
1.034142e+003, 2.551194e+002
1.034624e+003, 2.722600e+002
1.035106e+003, 2.898454e+002
1.035588e+003, 3.059716e+002
1.036070e+003, 3.201677e+002
1.036552e+003, 3.341508e+002
1.037034e+003, 3.492774e+002
1.037516e+003, 3.619529e+002
1.037999e+003, 3.711641e+002
1.038481e+003, 3.768710e+002
1.038963e+003, 3.791529e+002
1.039445e+003, 3.779218e+002
1.039927e+003, 3.724776e+002
1.040409e+003, 3.624272e+002
1.040891e+003, 3.488152e+002
1.041373e+003, 3.305476e+002
1.041855e+003, 3.102083e+002
1.042338e+003, 2.878689e+002
1.042820e+003, 2.647112e+002
1.043302e+003, 2.412613e+002
1.043784e+003, 2.178288e+002
1.044266e+003, 1.960358e+002
1.044748e+003, 1.759092e+002
1.045230e+003, 1.575910e+002
1.045712e+003, 1.410330e+002
1.046195e+003, 1.264607e+002
1.046677e+003, 1.144380e+002
1.047159e+003, 1.040340e+002
1.047641e+003, 9.434477e+001
1.048123e+003, 8.536507e+001
1.048605e+003, 7.713801e+001
1.049087e+003, 6.918649e+001
1.049569e+003, 6.278933e+001
1.050052e+003, 5.888700e+001
1.050534e+003, 5.571949e+001
1.051016e+003, 5.274546e+001
1.051498e+003, 4.991202e+001
1.051980e+003, 4.711369e+001
1.052462e+003, 4.441632e+001
1.052944e+003, 4.215594e+001
1.053426e+003, 4.039272e+001
1.053908e+003, 3.904943e+001
1.054391e+003, 3.858980e+001
1.054873e+003, 3.800142e+001
1.055355e+003, 3.649336e+001
1.055837e+003, 3.477135e+001
1.056319e+003, 3.367257e+001
1.056801e+003, 3.315980e+001
1.057283e+003, 3.262277e+001
1.057765e+003, 3.182772e+001
1.058248e+003, 3.122712e+001
1.058730e+003, 3.128532e+001
1.059212e+003, 3.119186e+001
1.059694e+003, 3.023246e+001
1.060176e+003, 2.905865e+001
1.060658e+003, 2.838681e+001
1.061140e+003, 2.823192e+001
1.061622e+003, 2.830929e+001
1.062104e+003, 2.866102e+001
1.062587e+003, 2.890151e+001
1.063069e+003, 2.893212e+001
1.063551e+003, 2.876605e+001
1.064033e+003, 2.818842e+001
1.064515e+003, 2.757355e+001
1.064997e+003, 2.749588e+001
1.065479e+003, 2.779025e+001
1.065961e+003, 2.766724e+001
1.066443e+003, 2.678183e+001
1.066926e+003, 2.589827e+001
1.067408e+003, 2.501770e+001
1.067890e+003, 2.458330e+001
1.068372e+003, 2.533166e+001
1.068854e+003, 2.632765e+001
1.069336e+003, 2.646009e+001
1.069818e+003, 2.585370e+001
1.070300e+003, 2.528669e+001
1.070782e+003, 2.495039e+001
1.071265e+003, 2.481388e+001
1.071747e+003, 2.513294e+001
1.072229e+003, 2.533329e+001
1.072711e+003, 2.496458e+001
1.073193e+003, 2.437375e+001
1.073675e+003, 2.376496e+001
1.074157e+003, 2.330958e+001
1.074639e+003, 2.343117e+001
1.075122e+003, 2.435774e+001
1.075604e+003, 2.498990e+001
1.076086e+003, 2.455158e+001
1.076568e+003, 2.399881e+001
1.077050e+003, 2.369784e+001
1.077532e+003, 2.371911e+001
1.078014e+003, 2.436777e+001
1.078496e+003, 2.533421e+001
1.078979e+003, 2.591799e+001
1.079461e+003, 2.593959e+001
1.079943e+003, 2.561030e+001
1.080425e+003, 2.454815e+001
1.080907e+003, 2.374670e+001
1.081389e+003, 2.404179e+001
1.081871e+003, 2.461307e+001
1.082353e+003, 2.480552e+001
1.082835e+003, 2.459772e+001
1.083318e+003, 2.389993e+001
1.083800e+003, 2.271432e+001
1.084282e+003, 2.222135e+001
1.084764e+003, 2.363238e+001
1.085246e+003, 2.496234e+001
1.085728e+003, 2.515851e+001
1.086210e+003, 2.490699e+001
1.086692e+003, 2.474228e+001
1.087175e+003, 2.460699e+001
1.087657e+003, 2.426348e+001
1.088139e+003, 2.368625e+001
1.088621e+003, 2.315818e+001
1.089103e+003, 2.263717e+001
1.089585e+003, 2.240434e+001
1.090067e+003, 2.289584e+001
1.090549e+003, 2.340959e+001
1.091031e+003, 2.329153e+001
1.091514e+003, 2.289380e+001
1.091996e+003, 2.284426e+001
1.092478e+003, 2.317114e+001
1.092960e+003, 2.332676e+001
1.093442e+003, 2.302286e+001
1.093924e+003, 2.272018e+001
1.094406e+003, 2.246304e+001
1.094888e+003, 2.239851e+001
1.095370e+003, 2.290253e+001
1.095853e+003, 2.347415e+001
1.096335e+003, 2.344892e+001
1.096817e+003, 2.285538e+001
1.097299e+003, 2.215692e+001
1.097781e+003, 2.121093e+001
1.098263e+003, 2.085221e+001
1.098745e+003, 2.200566e+001
1.099227e+003, 2.303370e+001
1.099709e+003, 2.279954e+001
1.100192e+003, 2.221396e+001
1.100674e+003, 2.234236e+001
1.101156e+003, 2.301536e+001
1.101638e+003, 2.336170e+001
1.102120e+003, 2.311616e+001
1.102602e+003, 2.292797e+001
1.103084e+003, 2.315746e+001
1.103566e+003, 2.321236e+001
1.104049e+003, 2.247173e+001
1.104531e+003, 2.180419e+001
1.105013e+003, 2.225462e+001
1.105495e+003, 2.329197e+001
1.105977e+003, 2.351506e+001
1.106459e+003, 2.260792e+001
1.106941e+003, 2.192096e+001
1.107423e+003, 2.191099e+001
1.107906e+003, 2.182078e+001
1.108388e+003, 2.114763e+001
1.108870e+003, 2.064314e+001
1.109352e+003, 2.112199e+001
1.109834e+003, 2.196850e+001
1.110316e+003, 2.198644e+001
1.110798e+003, 2.105797e+001
1.111280e+003, 2.056144e+001
1.111762e+003, 2.073496e+001
1.112245e+003, 2.114784e+001
1.112727e+003, 2.221235e+001
1.113209e+003, 2.297403e+001
1.113691e+003, 2.271349e+001
1.114173e+003, 2.205393e+001
1.114655e+003, 2.179285e+001
1.115137e+003, 2.189804e+001
1.115619e+003, 2.187485e+001
1.116102e+003, 2.153139e+001
1.116584e+003, 2.140251e+001
1.117066e+003, 2.162813e+001
1.117548e+003, 2.187042e+001
1.118030e+003, 2.199734e+001
1.118512e+003, 2.211865e+001
1.118994e+003, 2.243913e+001
1.119476e+003, 2.282869e+001
1.119958e+003, 2.272468e+001
1.120441e+003, 2.187720e+001
1.120923e+003, 2.131953e+001
1.121405e+003, 2.102259e+001
1.121887e+003, 2.112668e+001
1.122369e+003, 2.191666e+001
1.122851e+003, 2.266046e+001
1.123333e+003, 2.280750e+001
1.123815e+003, 2.253955e+001
1.124297e+003, 2.221624e+001
1.124780e+003, 2.181300e+001
1.125262e+003, 2.170610e+001
1.125744e+003, 2.199469e+001
1.126226e+003, 2.221664e+001
1.126708e+003, 2.228878e+001
1.127190e+003, 2.230033e+001
1.127672e+003, 2.229403e+001
1.128154e+003, 2.226121e+001
1.128636e+003, 2.215811e+001
1.129119e+003, 2.202047e+001
1.129601e+003, 2.222061e+001
1.130083e+003, 2.281810e+001
1.130565e+003, 2.306839e+001
1.131047e+003, 2.286149e+001
1.131529e+003, 2.263972e+001
1.132011e+003, 2.258383e+001
1.132493e+003, 2.256942e+001
1.132976e+003, 2.250803e+001
1.133458e+003, 2.231173e+001
1.133940e+003, 2.140557e+001
1.134422e+003, 1.994222e+001
1.134904e+003, 2.025747e+001
1.135386e+003, 2.233697e+001
1.135868e+003, 2.373930e+001
1.136350e+003, 2.380547e+001
1.136833e+003, 2.327925e+001
1.137315e+003, 2.262119e+001
1.137797e+003, 2.210308e+001
1.138279e+003, 2.234112e+001
1.138761e+003, 2.306584e+001
1.139243e+003, 2.345332e+001
1.139725e+003, 2.347497e+001
1.140207e+003, 2.276188e+001
1.140689e+003, 2.145923e+001
1.141172e+003, 2.088579e+001
1.141654e+003, 2.165542e+001
1.142136e+003, 2.265252e+001
1.142618e+003, 2.268029e+001
1.143100e+003, 2.218665e+001
1.143582e+003, 2.187144e+001
1.144064e+003, 2.163433e+001
1.144546e+003, 2.121063e+001
1.145029e+003, 2.066785e+001
1.145511e+003, 2.016995e+001
1.145993e+003, 1.982732e+001
1.146475e+003, 2.005598e+001
1.146957e+003, 2.137359e+001
1.147439e+003, 2.276468e+001
1.147921e+003, 2.330136e+001
1.148403e+003, 2.328567e+001
1.148885e+003, 2.288590e+001
1.149368e+003, 2.229676e+001
1.149850e+003, 2.167009e+001
1.150332e+003, 2.113778e+001
1.150814e+003, 2.103165e+001
1.151296e+003, 2.155621e+001
1.151778e+003, 2.211449e+001
1.152260e+003, 2.244874e+001
1.152742e+003, 2.257652e+001
1.153224e+003, 2.263086e+001
1.153707e+003, 2.238798e+001
1.154189e+003, 2.120026e+001
1.154671e+003, 1.963974e+001
1.155153e+003, 1.905465e+001
1.155635e+003, 1.972263e+001
1.156117e+003, 2.046803e+001
1.156599e+003, 2.120312e+001
1.157081e+003, 2.155900e+001
1.157563e+003, 2.117263e+001
1.158046e+003, 2.064457e+001
1.158528e+003, 2.012947e+001
1.159010e+003, 1.983216e+001
1.159492e+003, 2.022175e+001
1.159974e+003, 2.116430e+001
1.160456e+003, 2.144589e+001
1.160938e+003, 2.031179e+001
1.161420e+003, 1.979494e+001
1.161903e+003, 2.041818e+001
1.162385e+003, 2.103481e+001
1.162867e+003, 2.138834e+001
1.163349e+003, 2.156289e+001
1.163831e+003, 2.156352e+001
1.164313e+003, 2.146492e+001
1.164795e+003, 2.142972e+001
1.165277e+003, 2.144094e+001
1.165760e+003, 2.170619e+001
1.166242e+003, 2.241043e+001
1.166724e+003, 2.274331e+001
1.167206e+003, 2.247191e+001
1.167688e+003, 2.215725e+001
1.168170e+003, 2.206569e+001
1.168652e+003, 2.214832e+001
1.169134e+003, 2.241162e+001
1.169616e+003, 2.273445e+001
1.170099e+003, 2.240547e+001
1.170581e+003, 2.141077e+001
1.171063e+003, 2.099163e+001
1.171545e+003, 2.122695e+001
1.172027e+003, 2.139646e+001
1.172509e+003, 2.128063e+001
1.172991e+003, 2.109476e+001
1.173473e+003, 2.101336e+001
1.173956e+003, 2.089754e+001
1.174438e+003, 2.027436e+001
1.174920e+003, 1.948049e+001
1.175402e+003, 1.987224e+001
1.175884e+003, 2.106831e+001
1.176366e+003, 2.168355e+001
1.176848e+003, 2.157310e+001
1.177330e+003, 2.122055e+001
1.177813e+003, 2.084514e+001
1.178295e+003, 2.050907e+001
1.178777e+003, 2.018477e+001
1.179259e+003, 2.004574e+001
1.179741e+003, 2.054957e+001
1.180223e+003, 2.120327e+001
1.180705e+003, 2.123668e+001
1.181187e+003, 2.085739e+001
1.181669e+003, 2.060252e+001
1.182151e+003, 2.055665e+001
1.182634e+003, 2.043851e+001
1.183116e+003, 2.003672e+001
1.183598e+003, 1.986872e+001
1.184080e+003, 2.033197e+001
1.184562e+003, 2.102266e+001
1.185044e+003, 2.197375e+001
1.185526e+003, 2.276181e+001
1.186008e+003, 2.286079e+001
1.186490e+003, 2.247970e+001
1.186973e+003, 2.221440e+001
1.187455e+003, 2.218266e+001
1.187937e+003, 2.187762e+001
1.188419e+003, 2.065338e+001
1.188901e+003, 1.996194e+001
1.189383e+003, 2.042364e+001
1.189865e+003, 2.107984e+001
1.190347e+003, 2.168188e+001
1.190830e+003, 2.204625e+001
1.191312e+003, 2.182533e+001
1.191794e+003, 2.118730e+001
1.192276e+003, 2.099688e+001
1.192758e+003, 2.148515e+001
1.193240e+003, 2.161844e+001
1.193722e+003, 2.128275e+001
1.194204e+003, 2.088274e+001
1.194687e+003, 2.039671e+001
1.195169e+003, 2.027359e+001
1.195651e+003, 2.089210e+001
1.196133e+003, 2.177544e+001
1.196615e+003, 2.217649e+001
1.197097e+003, 2.214918e+001
1.197579e+003, 2.210761e+001
1.198061e+003, 2.202173e+001
1.198543e+003, 2.104014e+001
1.199026e+003, 1.919455e+001
1.199508e+003, 1.820928e+001
1.199990e+003, 1.864903e+001
1.200472e+003, 1.973557e+001
1.200954e+003, 2.095929e+001
1.201436e+003, 2.195630e+001
1.201918e+003, 2.188278e+001
1.202400e+003, 2.136042e+001
1.202883e+003, 2.201138e+001
1.203365e+003, 2.310933e+001
1.203847e+003, 2.263444e+001
1.204329e+003, 2.081395e+001
1.204811e+003, 1.941721e+001
1.205293e+003, 1.911178e+001
1.205775e+003, 1.944968e+001
1.206257e+003, 2.062172e+001
1.206740e+003, 2.163618e+001
1.207222e+003, 2.152867e+001
1.207704e+003, 2.117793e+001
1.208186e+003, 2.158123e+001
1.208668e+003, 2.215906e+001
1.209150e+003, 2.169059e+001
1.209632e+003, 2.041524e+001
1.210114e+003, 2.012281e+001
1.210596e+003, 2.165843e+001
1.211078e+003, 2.268799e+001
1.211561e+003, 2.245723e+001
1.212043e+003, 2.207437e+001
1.212525e+003, 2.171060e+001
1.213007e+003, 2.147423e+001
1.213489e+003, 2.149408e+001
1.213971e+003, 2.163050e+001
1.214453e+003, 2.168444e+001
1.214935e+003, 2.165569e+001
1.215417e+003, 2.150863e+001
1.215900e+003, 2.112465e+001
1.216382e+003, 2.110230e+001
1.216864e+003, 2.154825e+001
1.217346e+003, 2.207923e+001
1.217828e+003, 2.264152e+001
1.218310e+003, 2.285142e+001
1.218792e+003, 2.233687e+001
1.219274e+003, 2.161873e+001
1.219757e+003, 2.184055e+001
1.220239e+003, 2.267067e+001
1.220721e+003, 2.235504e+001
1.221203e+003, 2.114805e+001
1.221685e+003, 2.011896e+001
1.222167e+003, 1.950536e+001
1.222649e+003, 1.986897e+001
1.223131e+003, 2.128609e+001
1.223614e+003, 2.242710e+001
1.224096e+003, 2.219539e+001
1.224578e+003, 2.153826e+001
1.225060e+003, 2.146571e+001
1.225542e+003, 2.158298e+001
1.226024e+003, 2.135434e+001
1.226506e+003, 2.102603e+001
1.226988e+003, 2.105750e+001
1.227470e+003, 2.137611e+001
1.227953e+003, 2.158894e+001
1.228435e+003, 2.158147e+001
1.228917e+003, 2.163242e+001
1.229399e+003, 2.202273e+001
1.229881e+003, 2.223606e+001
1.230363e+003, 2.179818e+001
1.230845e+003, 2.148503e+001
1.231327e+003, 2.219068e+001
1.231810e+003, 2.294563e+001
1.232292e+003, 2.224502e+001
1.232774e+003, 2.058674e+001
1.233256e+003, 2.002961e+001
1.233738e+003, 2.089267e+001
1.234220e+003, 2.153619e+001
1.234702e+003, 2.206367e+001
1.235184e+003, 2.191318e+001
1.235667e+003, 2.072873e+001
1.236149e+003, 1.991983e+001
1.236631e+003, 2.031953e+001
1.237113e+003, 2.089121e+001
1.237595e+003, 2.024235e+001
1.238077e+003, 1.907418e+001
1.238559e+003, 1.991507e+001
1.239041e+003, 2.217069e+001
1.239523e+003, 2.259361e+001
1.240005e+003, 2.143048e+001
1.240488e+003, 2.053012e+001
1.240970e+003, 2.029464e+001
1.241452e+003, 2.039934e+001
1.241934e+003, 2.068671e+001
1.242416e+003, 2.099493e+001
1.242898e+003, 2.114737e+001
1.243380e+003, 2.128085e+001
1.243862e+003, 2.165042e+001
1.244344e+003, 2.197538e+001
1.244827e+003, 2.187909e+001
1.245309e+003, 2.153681e+001
1.245791e+003, 2.120057e+001
1.246273e+003, 2.094987e+001
1.246755e+003, 2.089560e+001
1.247237e+003, 2.108072e+001
1.247719e+003, 2.141216e+001
1.248201e+003, 2.203206e+001
1.248684e+003, 2.256754e+001
1.249166e+003, 2.302029e+001
1.249648e+003, 2.321245e+001
1.250130e+003, 2.283995e+001
1.250612e+003, 2.235646e+001
1.251094e+003, 2.239080e+001
1.251576e+003, 2.286260e+001
1.252058e+003, 2.328619e+001
1.252541e+003, 2.369294e+001
1.253023e+003, 2.374118e+001
1.253505e+003, 2.337045e+001
1.253987e+003, 2.338164e+001
1.254469e+003, 2.397464e+001
1.254951e+003, 2.419757e+001
1.255433e+003, 2.347033e+001
1.255915e+003, 2.273490e+001
1.256397e+003, 2.337333e+001
1.256880e+003, 2.444593e+001
1.257362e+003, 2.376334e+001
1.257844e+003, 2.233096e+001
1.258326e+003, 2.227117e+001
1.258808e+003, 2.315579e+001
1.259290e+003, 2.364699e+001
1.259772e+003, 2.354037e+001
1.260254e+003, 2.336899e+001
1.260737e+003, 2.335988e+001
1.261219e+003, 2.319968e+001
1.261701e+003, 2.263568e+001
1.262183e+003, 2.199847e+001
1.262665e+003, 2.084178e+001
1.263147e+003, 2.030906e+001
1.263629e+003, 2.174053e+001
1.264111e+003, 2.397662e+001
1.264594e+003, 2.563094e+001
1.265076e+003, 2.659448e+001
1.265558e+003, 2.651511e+001
1.266040e+003, 2.489052e+001
1.266522e+003, 2.406837e+001
1.267004e+003, 2.422989e+001
1.267486e+003, 2.464649e+001
1.267968e+003, 2.532480e+001
1.268450e+003, 2.541304e+001
1.268932e+003, 2.435988e+001
1.269415e+003, 2.334464e+001
1.269897e+003, 2.378850e+001
1.270379e+003, 2.501323e+001
1.270861e+003, 2.546821e+001
1.271343e+003, 2.531592e+001
1.271825e+003, 2.477682e+001
1.272307e+003, 2.413127e+001
1.272789e+003, 2.432951e+001
1.273271e+003, 2.524383e+001
1.273754e+003, 2.564946e+001
1.274236e+003, 2.510784e+001
1.274718e+003, 2.467016e+001
1.275200e+003, 2.515431e+001
1.275682e+003, 2.574008e+001
1.276164e+003, 2.606019e+001
1.276646e+003, 2.617635e+001
1.277128e+003, 2.605762e+001
1.277611e+003, 2.581729e+001
1.278093e+003, 2.543691e+001
1.278575e+003, 2.505597e+001
1.279057e+003, 2.518792e+001
1.279539e+003, 2.595908e+001
1.280021e+003, 2.624410e+001
1.280503e+003, 2.572271e+001
1.280985e+003, 2.565814e+001
1.281468e+003, 2.633149e+001
1.281950e+003, 2.690437e+001
1.282432e+003, 2.706447e+001
1.282914e+003, 2.702797e+001
1.283396e+003, 2.693470e+001
1.283878e+003, 2.693541e+001
1.284360e+003, 2.740215e+001
1.284842e+003, 2.813949e+001
1.285324e+003, 2.859739e+001
##END=



