##NAMES=Gerhardtite
##RRUFFID=R120082
##IDEAL CHEMISTRY=Cu^2+^_2_N^5+^O_3_(OH)_3_
##LOCALITY=Tonapah-Belmont mine, Marizopa County, Arizona, USA
##OWNER=RRUFF
##SOURCE=Joe Ruiz
##DESCRIPTION=Light blue crystalline associated with green malachite
##STATUS=The identification of this mineral has been confirmed by single-crystal X-ray diffraction.
##URL=rruff.info/R120082
9.001007e+001, 0.000000e+000
9.049219e+001, 2.364390e+001
9.097430e+001, 2.403543e+001
9.145642e+001, 2.389707e+001
9.193854e+001, 2.328309e+001
9.242065e+001, 2.264583e+001
9.290277e+001, 2.235748e+001
9.338489e+001, 2.231854e+001
9.386700e+001, 2.230320e+001
9.434912e+001, 2.223893e+001
9.483124e+001, 2.214743e+001
9.531335e+001, 2.210830e+001
9.579547e+001, 2.213675e+001
9.627759e+001, 2.210390e+001
9.675970e+001, 2.178000e+001
9.724182e+001, 2.119141e+001
9.772394e+001, 2.068533e+001
9.820605e+001, 2.048188e+001
9.868817e+001, 2.054620e+001
9.917029e+001, 2.042912e+001
9.965240e+001, 2.006901e+001
1.001345e+002, 1.961637e+001
1.006166e+002, 1.938985e+001
1.010988e+002, 1.943560e+001
1.015809e+002, 1.949647e+001
1.020630e+002, 1.947692e+001
1.025451e+002, 1.940542e+001
1.030272e+002, 1.901386e+001
1.035093e+002, 1.792937e+001
1.039915e+002, 1.654586e+001
1.044736e+002, 1.676146e+001
1.049557e+002, 1.973494e+001
1.054378e+002, 2.262769e+001
1.059199e+002, 2.333196e+001
1.064020e+002, 2.031979e+001
1.068842e+002, 1.796567e+001
1.073663e+002, 1.692971e+001
1.078484e+002, 1.723748e+001
1.083305e+002, 1.745308e+001
1.088126e+002, 1.762617e+001
1.092947e+002, 1.767645e+001
1.097769e+002, 1.752670e+001
1.102590e+002, 1.670954e+001
1.107411e+002, 1.616717e+001
1.112232e+002, 1.625191e+001
1.117053e+002, 1.724391e+001
1.121874e+002, 1.764114e+001
1.126696e+002, 1.676067e+001
1.131517e+002, 1.537647e+001
1.136338e+002, 1.449147e+001
1.141159e+002, 1.467016e+001
1.145980e+002, 1.503215e+001
1.150801e+002, 1.528023e+001
1.155623e+002, 1.535292e+001
1.160444e+002, 1.536952e+001
1.165265e+002, 1.531999e+001
1.170086e+002, 1.523501e+001
1.174907e+002, 1.518008e+001
1.179728e+002, 1.536961e+001
1.184550e+002, 1.547944e+001
1.189371e+002, 1.526086e+001
1.194192e+002, 1.439463e+001
1.199013e+002, 1.360669e+001
1.203834e+002, 1.334059e+001
1.208655e+002, 1.349611e+001
1.213477e+002, 1.368185e+001
1.218298e+002, 1.365424e+001
1.223119e+002, 1.355328e+001
1.227940e+002, 1.353794e+001
1.232761e+002, 1.382152e+001
1.237582e+002, 1.406011e+001
1.242404e+002, 1.387115e+001
1.247225e+002, 1.328787e+001
1.252046e+002, 1.271879e+001
1.256867e+002, 1.256059e+001
1.261688e+002, 1.263468e+001
1.266509e+002, 1.261867e+001
1.271331e+002, 1.226226e+001
1.276152e+002, 1.178677e+001
1.280973e+002, 1.153119e+001
1.285794e+002, 1.150576e+001
1.290615e+002, 1.157630e+001
1.295436e+002, 1.161128e+001
1.300258e+002, 1.162398e+001
1.305079e+002, 1.167084e+001
1.309900e+002, 1.185397e+001
1.314721e+002, 1.209800e+001
1.319542e+002, 1.218486e+001
1.324363e+002, 1.210853e+001
1.329185e+002, 1.187069e+001
1.334006e+002, 1.128697e+001
1.338827e+002, 1.035637e+001
1.343648e+002, 9.746284e+000
1.348469e+002, 1.007905e+001
1.353290e+002, 1.125968e+001
1.358112e+002, 1.185212e+001
1.362933e+002, 1.162481e+001
1.367754e+002, 1.090973e+001
1.372575e+002, 1.039376e+001
1.377396e+002, 1.006919e+001
1.382217e+002, 9.976824e+000
1.387039e+002, 1.027014e+001
1.391860e+002, 1.105097e+001
1.396681e+002, 1.147097e+001
1.401502e+002, 1.133060e+001
1.406323e+002, 1.077906e+001
1.411144e+002, 1.047074e+001
1.415966e+002, 1.047953e+001
1.420787e+002, 1.059049e+001
1.425608e+002, 1.068231e+001
1.430429e+002, 1.082784e+001
1.435250e+002, 1.073251e+001
1.440071e+002, 1.023181e+001
1.444893e+002, 9.357496e+000
1.449714e+002, 8.826834e+000
1.454535e+002, 8.760006e+000
1.459356e+002, 8.925719e+000
1.464177e+002, 9.118647e+000
1.468998e+002, 9.368907e+000
1.473820e+002, 9.606446e+000
1.478641e+002, 9.854892e+000
1.483462e+002, 1.014046e+001
1.488283e+002, 1.022882e+001
1.493104e+002, 9.861965e+000
1.497925e+002, 9.419013e+000
1.502747e+002, 9.347147e+000
1.507568e+002, 1.026828e+001
1.512389e+002, 1.092060e+001
1.517210e+002, 1.091811e+001
1.522031e+002, 9.938594e+000
1.526852e+002, 9.331977e+000
1.531674e+002, 9.208323e+000
1.536495e+002, 9.444304e+000
1.541316e+002, 9.857123e+000
1.546137e+002, 1.052784e+001
1.550958e+002, 1.129239e+001
1.555779e+002, 1.213308e+001
1.560601e+002, 1.314084e+001
1.565422e+002, 1.400200e+001
1.570243e+002, 1.444839e+001
1.575064e+002, 1.472270e+001
1.579885e+002, 1.529483e+001
1.584706e+002, 1.638799e+001
1.589528e+002, 1.771217e+001
1.594349e+002, 1.910055e+001
1.599170e+002, 2.032599e+001
1.603991e+002, 2.197369e+001
1.608812e+002, 2.409743e+001
1.613633e+002, 2.674999e+001
1.618455e+002, 3.006987e+001
1.623276e+002, 3.451171e+001
1.628097e+002, 3.936435e+001
1.632918e+002, 4.424177e+001
1.637739e+002, 4.870717e+001
1.642560e+002, 5.360372e+001
1.647382e+002, 5.934211e+001
1.652203e+002, 6.583098e+001
1.657024e+002, 7.272071e+001
1.661845e+002, 7.985890e+001
1.666666e+002, 8.734969e+001
1.671487e+002, 9.519495e+001
1.676309e+002, 1.034818e+002
1.681130e+002, 1.121566e+002
1.685951e+002, 1.212183e+002
1.690772e+002, 1.306506e+002
1.695593e+002, 1.401240e+002
1.700414e+002, 1.496819e+002
1.705236e+002, 1.591410e+002
1.710057e+002, 1.681641e+002
1.714878e+002, 1.769317e+002
1.719699e+002, 1.851325e+002
1.724520e+002, 1.922818e+002
1.729341e+002, 1.984562e+002
1.734163e+002, 2.041837e+002
1.738984e+002, 2.103342e+002
1.743805e+002, 2.162812e+002
1.748626e+002, 2.208220e+002
1.753447e+002, 2.227363e+002
1.758268e+002, 2.235391e+002
1.763090e+002, 2.248841e+002
1.767911e+002, 2.267646e+002
1.772732e+002, 2.286789e+002
1.777553e+002, 2.294026e+002
1.782374e+002, 2.288022e+002
1.787195e+002, 2.276550e+002
1.792017e+002, 2.260404e+002
1.796838e+002, 2.242187e+002
1.801659e+002, 2.225227e+002
1.806480e+002, 2.209265e+002
1.811301e+002, 2.196521e+002
1.816122e+002, 2.189937e+002
1.820944e+002, 2.188396e+002
1.825765e+002, 2.188338e+002
1.830586e+002, 2.188693e+002
1.835407e+002, 2.189365e+002
1.840228e+002, 2.190933e+002
1.845049e+002, 2.193823e+002
1.849871e+002, 2.195094e+002
1.854692e+002, 2.188949e+002
1.859513e+002, 2.176870e+002
1.864334e+002, 2.167341e+002
1.869155e+002, 2.165837e+002
1.873976e+002, 2.170034e+002
1.878798e+002, 2.173478e+002
1.883619e+002, 2.176685e+002
1.888440e+002, 2.176297e+002
1.893261e+002, 2.166061e+002
1.898082e+002, 2.146502e+002
1.902903e+002, 2.125402e+002
1.907725e+002, 2.105233e+002
1.912546e+002, 2.086145e+002
1.917367e+002, 2.071972e+002
1.922188e+002, 2.064199e+002
1.927009e+002, 2.057734e+002
1.931830e+002, 2.043727e+002
1.936652e+002, 2.022248e+002
1.941473e+002, 1.999529e+002
1.946294e+002, 1.978875e+002
1.951115e+002, 1.960129e+002
1.955936e+002, 1.941731e+002
1.960757e+002, 1.923845e+002
1.965579e+002, 1.905813e+002
1.970400e+002, 1.885841e+002
1.975221e+002, 1.863682e+002
1.980042e+002, 1.842255e+002
1.984863e+002, 1.822820e+002
1.989684e+002, 1.805463e+002
1.994506e+002, 1.789749e+002
1.999327e+002, 1.776204e+002
2.004148e+002, 1.763817e+002
2.008969e+002, 1.750357e+002
2.013790e+002, 1.735413e+002
2.018611e+002, 1.720958e+002
2.023433e+002, 1.708294e+002
2.028254e+002, 1.697570e+002
2.033075e+002, 1.686492e+002
2.037896e+002, 1.674345e+002
2.042717e+002, 1.662316e+002
2.047538e+002, 1.653869e+002
2.052360e+002, 1.649535e+002
2.057181e+002, 1.646637e+002
2.062002e+002, 1.643906e+002
2.066823e+002, 1.641438e+002
2.071644e+002, 1.638412e+002
2.076465e+002, 1.634975e+002
2.081287e+002, 1.630798e+002
2.086108e+002, 1.624164e+002
2.090929e+002, 1.613908e+002
2.095750e+002, 1.604327e+002
2.100571e+002, 1.598615e+002
2.105392e+002, 1.597726e+002
2.110214e+002, 1.595976e+002
2.115035e+002, 1.592686e+002
2.119856e+002, 1.588316e+002
2.124677e+002, 1.584312e+002
2.129498e+002, 1.580822e+002
2.134319e+002, 1.577446e+002
2.139140e+002, 1.574936e+002
2.143962e+002, 1.575203e+002
2.148783e+002, 1.568978e+002
2.153604e+002, 1.552731e+002
2.158425e+002, 1.529809e+002
2.163246e+002, 1.515187e+002
2.168067e+002, 1.512502e+002
2.172889e+002, 1.510800e+002
2.177710e+002, 1.501800e+002
2.182531e+002, 1.480243e+002
2.187352e+002, 1.467593e+002
2.192173e+002, 1.469475e+002
2.196994e+002, 1.481584e+002
2.201816e+002, 1.482812e+002
2.206637e+002, 1.468078e+002
2.211458e+002, 1.451271e+002
2.216279e+002, 1.441706e+002
2.221100e+002, 1.442849e+002
2.225921e+002, 1.441697e+002
2.230743e+002, 1.436403e+002
2.235564e+002, 1.428002e+002
2.240385e+002, 1.421062e+002
2.245206e+002, 1.416293e+002
2.250027e+002, 1.412150e+002
2.254848e+002, 1.408013e+002
2.259670e+002, 1.404770e+002
2.264491e+002, 1.399322e+002
2.269312e+002, 1.389970e+002
2.274133e+002, 1.378120e+002
2.278954e+002, 1.370287e+002
2.283775e+002, 1.368208e+002
2.288597e+002, 1.367827e+002
2.293418e+002, 1.367178e+002
2.298239e+002, 1.367390e+002
2.303060e+002, 1.364374e+002
2.307881e+002, 1.355626e+002
2.312702e+002, 1.343104e+002
2.317524e+002, 1.337175e+002
2.322345e+002, 1.342064e+002
2.327166e+002, 1.347558e+002
2.331987e+002, 1.347558e+002
2.336808e+002, 1.339797e+002
2.341629e+002, 1.331347e+002
2.346451e+002, 1.321555e+002
2.351272e+002, 1.311266e+002
2.356093e+002, 1.304347e+002
2.360914e+002, 1.302872e+002
2.365735e+002, 1.301918e+002
2.370556e+002, 1.298575e+002
2.375378e+002, 1.291183e+002
2.380199e+002, 1.285154e+002
2.385020e+002, 1.281470e+002
2.389841e+002, 1.279396e+002
2.394662e+002, 1.275999e+002
2.399483e+002, 1.270668e+002
2.404305e+002, 1.264928e+002
2.409126e+002, 1.259529e+002
2.413947e+002, 1.254647e+002
2.418768e+002, 1.249780e+002
2.423589e+002, 1.244859e+002
2.428410e+002, 1.239974e+002
2.433232e+002, 1.235353e+002
2.438053e+002, 1.231203e+002
2.442874e+002, 1.227039e+002
2.447695e+002, 1.222453e+002
2.452516e+002, 1.216400e+002
2.457337e+002, 1.212193e+002
2.462159e+002, 1.210597e+002
2.466980e+002, 1.210778e+002
2.471801e+002, 1.210362e+002
2.476622e+002, 1.210090e+002
2.481443e+002, 1.208059e+002
2.486264e+002, 1.202526e+002
2.491086e+002, 1.189547e+002
2.495907e+002, 1.182845e+002
2.500728e+002, 1.185742e+002
2.505549e+002, 1.194175e+002
2.510370e+002, 1.197063e+002
2.515191e+002, 1.191809e+002
2.520013e+002, 1.185182e+002
2.524834e+002, 1.179864e+002
2.529655e+002, 1.175865e+002
2.534476e+002, 1.173373e+002
2.539297e+002, 1.172666e+002
2.544118e+002, 1.173361e+002
2.548940e+002, 1.174943e+002
2.553761e+002, 1.178729e+002
2.558582e+002, 1.181061e+002
2.563403e+002, 1.179919e+002
2.568224e+002, 1.173718e+002
2.573046e+002, 1.169382e+002
2.577867e+002, 1.167818e+002
2.582688e+002, 1.167539e+002
2.587509e+002, 1.165388e+002
2.592330e+002, 1.160040e+002
2.597151e+002, 1.155556e+002
2.601973e+002, 1.154083e+002
2.606794e+002, 1.156946e+002
2.611615e+002, 1.156648e+002
2.616436e+002, 1.151607e+002
2.621257e+002, 1.144803e+002
2.626078e+002, 1.141778e+002
2.630900e+002, 1.144589e+002
2.635721e+002, 1.146377e+002
2.640542e+002, 1.144397e+002
2.645363e+002, 1.137889e+002
2.650184e+002, 1.132813e+002
2.655005e+002, 1.129771e+002
2.659827e+002, 1.127399e+002
2.664648e+002, 1.123336e+002
2.669469e+002, 1.116691e+002
2.674290e+002, 1.111048e+002
2.679111e+002, 1.107629e+002
2.683932e+002, 1.106575e+002
2.688754e+002, 1.105307e+002
2.693575e+002, 1.103135e+002
2.698396e+002, 1.101754e+002
2.703217e+002, 1.104741e+002
2.708038e+002, 1.114330e+002
2.712859e+002, 1.119257e+002
2.717681e+002, 1.114494e+002
2.722502e+002, 1.100533e+002
2.727323e+002, 1.092211e+002
2.732144e+002, 1.091022e+002
2.736965e+002, 1.092721e+002
2.741786e+002, 1.092835e+002
2.746608e+002, 1.090971e+002
2.751429e+002, 1.089799e+002
2.756250e+002, 1.090648e+002
2.761071e+002, 1.092951e+002
2.765892e+002, 1.091650e+002
2.770714e+002, 1.085688e+002
2.775535e+002, 1.079211e+002
2.780356e+002, 1.076478e+002
2.785177e+002, 1.077883e+002
2.789998e+002, 1.078912e+002
2.794819e+002, 1.078745e+002
2.799641e+002, 1.077477e+002
2.804462e+002, 1.075130e+002
2.809283e+002, 1.071344e+002
2.814104e+002, 1.067975e+002
2.818925e+002, 1.066171e+002
2.823746e+002, 1.065923e+002
2.828568e+002, 1.068399e+002
2.833389e+002, 1.075473e+002
2.838210e+002, 1.084111e+002
2.843031e+002, 1.084529e+002
2.847852e+002, 1.075869e+002
2.852673e+002, 1.066499e+002
2.857495e+002, 1.062512e+002
2.862316e+002, 1.063536e+002
2.867137e+002, 1.064829e+002
2.871958e+002, 1.066227e+002
2.876779e+002, 1.066994e+002
2.881600e+002, 1.064376e+002
2.886422e+002, 1.058287e+002
2.891243e+002, 1.053865e+002
2.896064e+002, 1.056563e+002
2.900885e+002, 1.064534e+002
2.905706e+002, 1.067566e+002
2.910527e+002, 1.063811e+002
2.915349e+002, 1.057062e+002
2.920170e+002, 1.052927e+002
2.924991e+002, 1.051283e+002
2.929812e+002, 1.050534e+002
2.934633e+002, 1.049639e+002
2.939454e+002, 1.048938e+002
2.944276e+002, 1.049956e+002
2.949097e+002, 1.053083e+002
2.953918e+002, 1.056504e+002
2.958739e+002, 1.057569e+002
2.963560e+002, 1.056747e+002
2.968381e+002, 1.056276e+002
2.973203e+002, 1.057729e+002
2.978024e+002, 1.060175e+002
2.982845e+002, 1.061930e+002
2.987666e+002, 1.063002e+002
2.992487e+002, 1.063048e+002
2.997308e+002, 1.060535e+002
3.002130e+002, 1.056530e+002
3.006951e+002, 1.054173e+002
3.011772e+002, 1.056612e+002
3.016593e+002, 1.060474e+002
3.021414e+002, 1.060828e+002
3.026235e+002, 1.057715e+002
3.031057e+002, 1.053158e+002
3.035878e+002, 1.048495e+002
3.040699e+002, 1.043613e+002
3.045520e+002, 1.038299e+002
3.050341e+002, 1.031459e+002
3.055162e+002, 1.025121e+002
3.059984e+002, 1.021915e+002
3.064805e+002, 1.021487e+002
3.069626e+002, 1.021206e+002
3.074447e+002, 1.019941e+002
3.079268e+002, 1.017561e+002
3.084089e+002, 1.013592e+002
3.088911e+002, 1.006510e+002
3.093732e+002, 9.999889e+001
3.098553e+002, 9.978542e+001
3.103374e+002, 9.989936e+001
3.108195e+002, 9.996069e+001
3.113016e+002, 9.965229e+001
3.117838e+002, 9.924765e+001
3.122659e+002, 9.898527e+001
3.127480e+002, 9.892809e+001
3.132301e+002, 9.898038e+001
3.137122e+002, 9.916502e+001
3.141943e+002, 9.941776e+001
3.146765e+002, 9.959960e+001
3.151586e+002, 9.958176e+001
3.156407e+002, 9.952058e+001
3.161228e+002, 9.947335e+001
3.166049e+002, 9.940976e+001
3.170870e+002, 9.953043e+001
3.175692e+002, 1.000881e+002
3.180513e+002, 1.008466e+002
3.185334e+002, 1.014727e+002
3.190155e+002, 1.017906e+002
3.194976e+002, 1.020132e+002
3.199797e+002, 1.022146e+002
3.204619e+002, 1.024001e+002
3.209440e+002, 1.025708e+002
3.214261e+002, 1.026574e+002
3.219082e+002, 1.027562e+002
3.223903e+002, 1.029583e+002
3.228724e+002, 1.032658e+002
3.233546e+002, 1.036930e+002
3.238367e+002, 1.042627e+002
3.243188e+002, 1.049711e+002
3.248009e+002, 1.057394e+002
3.252830e+002, 1.066796e+002
3.257651e+002, 1.075932e+002
3.262473e+002, 1.083496e+002
3.267294e+002, 1.088662e+002
3.272115e+002, 1.093122e+002
3.276936e+002, 1.096821e+002
3.281757e+002, 1.099869e+002
3.286578e+002, 1.102907e+002
3.291400e+002, 1.105134e+002
3.296221e+002, 1.108075e+002
3.301042e+002, 1.112591e+002
3.305863e+002, 1.121291e+002
3.310684e+002, 1.127188e+002
3.315505e+002, 1.128207e+002
3.320327e+002, 1.126757e+002
3.325148e+002, 1.128311e+002
3.329969e+002, 1.135133e+002
3.334790e+002, 1.141854e+002
3.339611e+002, 1.146512e+002
3.344432e+002, 1.148275e+002
3.349254e+002, 1.151292e+002
3.354075e+002, 1.156441e+002
3.358896e+002, 1.162005e+002
3.363717e+002, 1.165172e+002
3.368538e+002, 1.164249e+002
3.373359e+002, 1.164950e+002
3.378180e+002, 1.169176e+002
3.383001e+002, 1.176844e+002
3.387823e+002, 1.184101e+002
3.392644e+002, 1.190792e+002
3.397465e+002, 1.197280e+002
3.402286e+002, 1.204253e+002
3.407107e+002, 1.212006e+002
3.411928e+002, 1.218087e+002
3.416750e+002, 1.221100e+002
3.421571e+002, 1.222339e+002
3.426392e+002, 1.226581e+002
3.431213e+002, 1.234052e+002
3.436034e+002, 1.243550e+002
3.440855e+002, 1.255154e+002
3.445677e+002, 1.268652e+002
3.450498e+002, 1.280759e+002
3.455319e+002, 1.290244e+002
3.460140e+002, 1.299410e+002
3.464961e+002, 1.313813e+002
3.469782e+002, 1.333158e+002
3.474604e+002, 1.351581e+002
3.479425e+002, 1.363322e+002
3.484246e+002, 1.371031e+002
3.489067e+002, 1.384858e+002
3.493888e+002, 1.406194e+002
3.498709e+002, 1.429387e+002
3.503531e+002, 1.447410e+002
3.508352e+002, 1.461392e+002
3.513173e+002, 1.475464e+002
3.517994e+002, 1.490660e+002
3.522815e+002, 1.507423e+002
3.527636e+002, 1.528130e+002
3.532458e+002, 1.552755e+002
3.537279e+002, 1.575672e+002
3.542100e+002, 1.590080e+002
3.546921e+002, 1.599812e+002
3.551742e+002, 1.611591e+002
3.556563e+002, 1.629279e+002
3.561385e+002, 1.648102e+002
3.566206e+002, 1.663573e+002
3.571027e+002, 1.676218e+002
3.575848e+002, 1.688269e+002
3.580669e+002, 1.701746e+002
3.585490e+002, 1.715079e+002
3.590312e+002, 1.726530e+002
3.595133e+002, 1.735180e+002
3.599954e+002, 1.743585e+002
3.604775e+002, 1.755282e+002
3.609596e+002, 1.767894e+002
3.614417e+002, 1.776203e+002
3.619239e+002, 1.776402e+002
3.624060e+002, 1.773199e+002
3.628881e+002, 1.769601e+002
3.633702e+002, 1.766562e+002
3.638523e+002, 1.759711e+002
3.643344e+002, 1.746317e+002
3.648166e+002, 1.728830e+002
3.652987e+002, 1.709892e+002
3.657808e+002, 1.689054e+002
3.662629e+002, 1.668395e+002
3.667450e+002, 1.649775e+002
3.672271e+002, 1.633143e+002
3.677093e+002, 1.612553e+002
3.681914e+002, 1.585245e+002
3.686735e+002, 1.555043e+002
3.691556e+002, 1.524136e+002
3.696377e+002, 1.490169e+002
3.701198e+002, 1.459447e+002
3.706020e+002, 1.433580e+002
3.710841e+002, 1.411309e+002
3.715662e+002, 1.387886e+002
3.720483e+002, 1.361606e+002
3.725304e+002, 1.336552e+002
3.730125e+002, 1.314444e+002
3.734947e+002, 1.296135e+002
3.739768e+002, 1.278839e+002
3.744589e+002, 1.262710e+002
3.749410e+002, 1.247272e+002
3.754231e+002, 1.231966e+002
3.759052e+002, 1.216567e+002
3.763874e+002, 1.201698e+002
3.768695e+002, 1.187813e+002
3.773516e+002, 1.174739e+002
3.778337e+002, 1.161564e+002
3.783158e+002, 1.147817e+002
3.787979e+002, 1.134846e+002
3.792801e+002, 1.123913e+002
3.797622e+002, 1.114928e+002
3.802443e+002, 1.108498e+002
3.807264e+002, 1.105661e+002
3.812085e+002, 1.104596e+002
3.816906e+002, 1.099862e+002
3.821728e+002, 1.091399e+002
3.826549e+002, 1.082888e+002
3.831370e+002, 1.076941e+002
3.836191e+002, 1.073046e+002
3.841012e+002, 1.069511e+002
3.845833e+002, 1.066116e+002
3.850655e+002, 1.062993e+002
3.855476e+002, 1.060716e+002
3.860297e+002, 1.058961e+002
3.865118e+002, 1.056702e+002
3.869939e+002, 1.052941e+002
3.874760e+002, 1.048562e+002
3.879582e+002, 1.044755e+002
3.884403e+002, 1.041524e+002
3.889224e+002, 1.038775e+002
3.894045e+002, 1.036458e+002
3.898866e+002, 1.034608e+002
3.903687e+002, 1.033252e+002
3.908509e+002, 1.032256e+002
3.913330e+002, 1.031970e+002
3.918151e+002, 1.033018e+002
3.922972e+002, 1.035122e+002
3.927793e+002, 1.037138e+002
3.932614e+002, 1.037291e+002
3.937436e+002, 1.037896e+002
3.942257e+002, 1.040542e+002
3.947078e+002, 1.045513e+002
3.951899e+002, 1.052494e+002
3.956720e+002, 1.063232e+002
3.961541e+002, 1.075572e+002
3.966363e+002, 1.086061e+002
3.971184e+002, 1.093364e+002
3.976005e+002, 1.099130e+002
3.980826e+002, 1.102706e+002
3.985647e+002, 1.103428e+002
3.990468e+002, 1.107691e+002
3.995290e+002, 1.117557e+002
4.000111e+002, 1.130402e+002
4.004932e+002, 1.144132e+002
4.009753e+002, 1.158898e+002
4.014574e+002, 1.174326e+002
4.019395e+002, 1.189484e+002
4.024217e+002, 1.205048e+002
4.029038e+002, 1.224279e+002
4.033859e+002, 1.249539e+002
4.038680e+002, 1.275014e+002
4.043501e+002, 1.297180e+002
4.048322e+002, 1.313323e+002
4.053144e+002, 1.335245e+002
4.057965e+002, 1.363818e+002
4.062786e+002, 1.396798e+002
4.067607e+002, 1.431414e+002
4.072428e+002, 1.468292e+002
4.077249e+002, 1.503484e+002
4.082071e+002, 1.535045e+002
4.086892e+002, 1.563555e+002
4.091713e+002, 1.591285e+002
4.096534e+002, 1.618089e+002
4.101355e+002, 1.645611e+002
4.106176e+002, 1.678535e+002
4.110998e+002, 1.714978e+002
4.115819e+002, 1.743227e+002
4.120640e+002, 1.761246e+002
4.125461e+002, 1.769671e+002
4.130282e+002, 1.769748e+002
4.135103e+002, 1.761376e+002
4.139925e+002, 1.744373e+002
4.144746e+002, 1.717594e+002
4.149567e+002, 1.682235e+002
4.154388e+002, 1.638658e+002
4.159209e+002, 1.585714e+002
4.164030e+002, 1.532048e+002
4.168852e+002, 1.483257e+002
4.173673e+002, 1.438322e+002
4.178494e+002, 1.395393e+002
4.183315e+002, 1.350924e+002
4.188136e+002, 1.310188e+002
4.192957e+002, 1.277343e+002
4.197779e+002, 1.251773e+002
4.202600e+002, 1.227240e+002
4.207421e+002, 1.200232e+002
4.212242e+002, 1.173772e+002
4.217063e+002, 1.150700e+002
4.221884e+002, 1.131517e+002
4.226706e+002, 1.114894e+002
4.231527e+002, 1.101077e+002
4.236348e+002, 1.089417e+002
4.241169e+002, 1.078605e+002
4.245990e+002, 1.067837e+002
4.250811e+002, 1.058311e+002
4.255633e+002, 1.051196e+002
4.260454e+002, 1.047170e+002
4.265275e+002, 1.040395e+002
4.270096e+002, 1.027339e+002
4.274917e+002, 1.014216e+002
4.279738e+002, 1.006565e+002
4.284560e+002, 1.008226e+002
4.289381e+002, 1.007048e+002
4.294202e+002, 1.000036e+002
4.299023e+002, 9.896369e+001
4.303844e+002, 9.850209e+001
4.308665e+002, 9.888677e+001
4.313487e+002, 9.909395e+001
4.318308e+002, 9.838504e+001
4.323129e+002, 9.668290e+001
4.327950e+002, 9.582964e+001
4.332771e+002, 9.603735e+001
4.337592e+002, 9.658791e+001
4.342414e+002, 9.649460e+001
4.347235e+002, 9.581799e+001
4.352056e+002, 9.529665e+001
4.356877e+002, 9.526586e+001
4.361698e+002, 9.546752e+001
4.366519e+002, 9.528875e+001
4.371341e+002, 9.475216e+001
4.376162e+002, 9.426244e+001
4.380983e+002, 9.414664e+001
4.385804e+002, 9.426897e+001
4.390625e+002, 9.442342e+001
4.395446e+002, 9.460535e+001
4.400268e+002, 9.471613e+001
4.405089e+002, 9.459772e+001
4.409910e+002, 9.434431e+001
4.414731e+002, 9.415095e+001
4.419552e+002, 9.421134e+001
4.424373e+002, 9.427345e+001
4.429195e+002, 9.405660e+001
4.434016e+002, 9.356978e+001
4.438837e+002, 9.336873e+001
4.443658e+002, 9.402717e+001
4.448479e+002, 9.487061e+001
4.453300e+002, 9.535500e+001
4.458122e+002, 9.496117e+001
4.462943e+002, 9.474632e+001
4.467764e+002, 9.497485e+001
4.472585e+002, 9.551122e+001
4.477406e+002, 9.601001e+001
4.482227e+002, 9.654615e+001
4.487049e+002, 9.694265e+001
4.491870e+002, 9.711372e+001
4.496691e+002, 9.700750e+001
4.501512e+002, 9.699552e+001
4.506333e+002, 9.716592e+001
4.511154e+002, 9.733752e+001
4.515976e+002, 9.729123e+001
4.520797e+002, 9.690062e+001
4.525618e+002, 9.674027e+001
4.530439e+002, 9.697850e+001
4.535260e+002, 9.746413e+001
4.540081e+002, 9.774039e+001
4.544903e+002, 9.778807e+001
4.549724e+002, 9.775837e+001
4.554545e+002, 9.765725e+001
4.559366e+002, 9.751943e+001
4.564187e+002, 9.766835e+001
4.569008e+002, 9.816611e+001
4.573830e+002, 9.865136e+001
4.578651e+002, 9.864816e+001
4.583472e+002, 9.826812e+001
4.588293e+002, 9.787041e+001
4.593114e+002, 9.757246e+001
4.597935e+002, 9.730698e+001
4.602757e+002, 9.699596e+001
4.607578e+002, 9.664074e+001
4.612399e+002, 9.624691e+001
4.617220e+002, 9.577867e+001
4.622041e+002, 9.529423e+001
4.626862e+002, 9.486797e+001
4.631684e+002, 9.453151e+001
4.636505e+002, 9.416756e+001
4.641326e+002, 9.361533e+001
4.646147e+002, 9.303728e+001
4.650968e+002, 9.263555e+001
4.655789e+002, 9.270996e+001
4.660611e+002, 9.274026e+001
4.665432e+002, 9.256438e+001
4.670253e+002, 9.219365e+001
4.675074e+002, 9.178739e+001
4.679895e+002, 9.136468e+001
4.684716e+002, 9.090944e+001
4.689538e+002, 9.038026e+001
4.694359e+002, 8.956386e+001
4.699180e+002, 8.918526e+001
4.704001e+002, 8.954020e+001
4.708822e+002, 9.012369e+001
4.713643e+002, 9.012778e+001
4.718465e+002, 8.932907e+001
4.723286e+002, 8.859589e+001
4.728107e+002, 8.815874e+001
4.732928e+002, 8.797441e+001
4.737749e+002, 8.774205e+001
4.742570e+002, 8.743678e+001
4.747392e+002, 8.721931e+001
4.752213e+002, 8.731412e+001
4.757034e+002, 8.765200e+001
4.761855e+002, 8.772513e+001
4.766676e+002, 8.743726e+001
4.771497e+002, 8.702801e+001
4.776319e+002, 8.681696e+001
4.781140e+002, 8.675598e+001
4.785961e+002, 8.669056e+001
4.790782e+002, 8.653343e+001
4.795603e+002, 8.635001e+001
4.800424e+002, 8.623742e+001
4.805246e+002, 8.618255e+001
4.810067e+002, 8.608421e+001
4.814888e+002, 8.569548e+001
4.819709e+002, 8.533492e+001
4.824530e+002, 8.533431e+001
4.829352e+002, 8.592419e+001
4.834173e+002, 8.645470e+001
4.838994e+002, 8.662021e+001
4.843815e+002, 8.657558e+001
4.848636e+002, 8.655563e+001
4.853457e+002, 8.652909e+001
4.858279e+002, 8.661796e+001
4.863100e+002, 8.699585e+001
4.867921e+002, 8.765896e+001
4.872742e+002, 8.789677e+001
4.877563e+002, 8.727940e+001
4.882384e+002, 8.667800e+001
4.887206e+002, 8.663624e+001
4.892027e+002, 8.750159e+001
4.896848e+002, 8.794823e+001
4.901669e+002, 8.776137e+001
4.906490e+002, 8.736915e+001
4.911311e+002, 8.756303e+001
4.916133e+002, 8.846618e+001
4.920954e+002, 8.907707e+001
4.925775e+002, 8.897977e+001
4.930596e+002, 8.838191e+001
4.935417e+002, 8.808275e+001
4.940238e+002, 8.808678e+001
4.945060e+002, 8.809429e+001
4.949881e+002, 8.775289e+001
4.954702e+002, 8.725049e+001
4.959523e+002, 8.710458e+001
4.964344e+002, 8.744178e+001
4.969165e+002, 8.786129e+001
4.973987e+002, 8.797112e+001
4.978808e+002, 8.787659e+001
4.983629e+002, 8.777426e+001
4.988450e+002, 8.784672e+001
4.993271e+002, 8.785436e+001
4.998092e+002, 8.756917e+001
5.002914e+002, 8.704646e+001
5.007735e+002, 8.661251e+001
5.012556e+002, 8.655620e+001
5.017377e+002, 8.650096e+001
5.022198e+002, 8.616200e+001
5.027019e+002, 8.525487e+001
5.031841e+002, 8.472159e+001
5.036662e+002, 8.514485e+001
5.041483e+002, 8.580763e+001
5.046304e+002, 8.583235e+001
5.051125e+002, 8.450677e+001
5.055946e+002, 8.372054e+001
5.060768e+002, 8.398149e+001
5.065589e+002, 8.502713e+001
5.070410e+002, 8.551592e+001
5.075231e+002, 8.531352e+001
5.080052e+002, 8.493084e+001
5.084873e+002, 8.454967e+001
5.089695e+002, 8.417280e+001
5.094516e+002, 8.405515e+001
5.099337e+002, 8.423232e+001
5.104158e+002, 8.452244e+001
5.108979e+002, 8.475852e+001
5.113800e+002, 8.493899e+001
5.118622e+002, 8.504172e+001
5.123443e+002, 8.503667e+001
5.128264e+002, 8.498721e+001
5.133085e+002, 8.494323e+001
5.137906e+002, 8.491908e+001
5.142728e+002, 8.496577e+001
5.147549e+002, 8.532038e+001
5.152370e+002, 8.562395e+001
5.157191e+002, 8.545930e+001
5.162012e+002, 8.476731e+001
5.166833e+002, 8.422277e+001
5.171655e+002, 8.418035e+001
5.176476e+002, 8.439722e+001
5.181297e+002, 8.466810e+001
5.186118e+002, 8.503669e+001
5.190939e+002, 8.535036e+001
5.195760e+002, 8.559245e+001
5.200582e+002, 8.576115e+001
5.205403e+002, 8.585806e+001
5.210224e+002, 8.578819e+001
5.215045e+002, 8.578191e+001
5.219866e+002, 8.595573e+001
5.224688e+002, 8.630872e+001
5.229509e+002, 8.641035e+001
5.234330e+002, 8.619892e+001
5.239151e+002, 8.587968e+001
5.243972e+002, 8.563564e+001
5.248793e+002, 8.547168e+001
5.253615e+002, 8.510090e+001
5.258436e+002, 8.444630e+001
5.263257e+002, 8.371123e+001
5.268078e+002, 8.316018e+001
5.272899e+002, 8.278603e+001
5.277720e+002, 8.258279e+001
5.282542e+002, 8.269906e+001
5.287363e+002, 8.286919e+001
5.292184e+002, 8.272157e+001
5.297005e+002, 8.229423e+001
5.301826e+002, 8.178823e+001
5.306647e+002, 8.117864e+001
5.311469e+002, 8.063662e+001
5.316290e+002, 8.037621e+001
5.321111e+002, 8.051930e+001
5.325932e+002, 8.049537e+001
5.330753e+002, 7.984889e+001
5.335574e+002, 7.902322e+001
5.340396e+002, 7.848888e+001
5.345217e+002, 7.861062e+001
5.350038e+002, 7.869064e+001
5.354859e+002, 7.853830e+001
5.359680e+002, 7.826796e+001
5.364501e+002, 7.828240e+001
5.369323e+002, 7.887023e+001
5.374144e+002, 7.924671e+001
5.378965e+002, 7.902812e+001
5.383786e+002, 7.819474e+001
5.388607e+002, 7.766586e+001
5.393428e+002, 7.746006e+001
5.398250e+002, 7.751180e+001
5.403071e+002, 7.802854e+001
5.407892e+002, 7.889950e+001
5.412713e+002, 7.898512e+001
5.417534e+002, 7.792368e+001
5.422355e+002, 7.654700e+001
5.427177e+002, 7.600904e+001
5.431998e+002, 7.612485e+001
5.436819e+002, 7.632290e+001
5.441640e+002, 7.642589e+001
5.446461e+002, 7.642882e+001
5.451282e+002, 7.627519e+001
5.456104e+002, 7.599165e+001
5.460925e+002, 7.573837e+001
5.465746e+002, 7.553043e+001
5.470567e+002, 7.542969e+001
5.475388e+002, 7.553159e+001
5.480209e+002, 7.596213e+001
5.485031e+002, 7.620731e+001
5.489852e+002, 7.595226e+001
5.494673e+002, 7.556051e+001
5.499494e+002, 7.542065e+001
5.504315e+002, 7.572961e+001
5.509136e+002, 7.599876e+001
5.513958e+002, 7.622371e+001
5.518779e+002, 7.636462e+001
5.523600e+002, 7.624373e+001
5.528421e+002, 7.575089e+001
5.533242e+002, 7.538588e+001
5.538063e+002, 7.547594e+001
5.542885e+002, 7.592286e+001
5.547706e+002, 7.584704e+001
5.552527e+002, 7.520042e+001
5.557348e+002, 7.454227e+001
5.562169e+002, 7.436889e+001
5.566990e+002, 7.456311e+001
5.571812e+002, 7.485990e+001
5.576633e+002, 7.525862e+001
5.581454e+002, 7.559527e+001
5.586275e+002, 7.569432e+001
5.591096e+002, 7.562322e+001
5.595917e+002, 7.550220e+001
5.600739e+002, 7.537991e+001
5.605560e+002, 7.522095e+001
5.610381e+002, 7.491228e+001
5.615202e+002, 7.452323e+001
5.620023e+002, 7.434325e+001
5.624844e+002, 7.450171e+001
5.629666e+002, 7.483672e+001
5.634487e+002, 7.537508e+001
5.639308e+002, 7.623451e+001
5.644129e+002, 7.666661e+001
5.648950e+002, 7.644319e+001
5.653771e+002, 7.604032e+001
5.658593e+002, 7.585042e+001
5.663414e+002, 7.592556e+001
5.668235e+002, 7.599333e+001
5.673056e+002, 7.603575e+001
5.677877e+002, 7.604701e+001
5.682698e+002, 7.597547e+001
5.687520e+002, 7.583084e+001
5.692341e+002, 7.578413e+001
5.697162e+002, 7.592234e+001
5.701983e+002, 7.618449e+001
5.706804e+002, 7.650884e+001
5.711625e+002, 7.688039e+001
5.716447e+002, 7.719884e+001
5.721268e+002, 7.730435e+001
5.726089e+002, 7.738156e+001
5.730910e+002, 7.766653e+001
5.735731e+002, 7.823204e+001
5.740552e+002, 7.865370e+001
5.745374e+002, 7.851368e+001
5.750195e+002, 7.825423e+001
5.755016e+002, 7.828793e+001
5.759837e+002, 7.884919e+001
5.764658e+002, 7.951496e+001
5.769479e+002, 8.046998e+001
5.774301e+002, 8.145537e+001
5.779122e+002, 8.191875e+001
5.783943e+002, 8.153555e+001
5.788764e+002, 8.128869e+001
5.793585e+002, 8.151549e+001
5.798406e+002, 8.212016e+001
5.803228e+002, 8.238956e+001
5.808049e+002, 8.227310e+001
5.812870e+002, 8.214605e+001
5.817691e+002, 8.246840e+001
5.822512e+002, 8.302492e+001
5.827333e+002, 8.282939e+001
5.832155e+002, 8.176594e+001
5.836975e+002, 8.054675e+001
5.841796e+002, 7.989657e+001
5.846617e+002, 7.951734e+001
5.851439e+002, 7.890645e+001
5.856260e+002, 7.788002e+001
5.861081e+002, 7.667878e+001
5.865902e+002, 7.517606e+001
5.870723e+002, 7.362594e+001
5.875544e+002, 7.254246e+001
5.880366e+002, 7.234903e+001
5.885187e+002, 7.233244e+001
5.890008e+002, 7.227158e+001
5.894829e+002, 7.216978e+001
5.899650e+002, 7.222018e+001
5.904471e+002, 7.264941e+001
5.909293e+002, 7.292974e+001
5.914114e+002, 7.273801e+001
5.918935e+002, 7.196890e+001
5.923756e+002, 7.148415e+001
5.928577e+002, 7.132877e+001
5.933398e+002, 7.133430e+001
5.938220e+002, 7.140031e+001
5.943041e+002, 7.150272e+001
5.947862e+002, 7.141714e+001
5.952683e+002, 7.104781e+001
5.957504e+002, 7.062645e+001
5.962325e+002, 7.044761e+001
5.967147e+002, 7.045529e+001
5.971968e+002, 7.050415e+001
5.976789e+002, 7.064158e+001
5.981610e+002, 7.070490e+001
5.986431e+002, 7.047072e+001
5.991252e+002, 7.002315e+001
5.996074e+002, 6.974641e+001
6.000895e+002, 6.984737e+001
6.005716e+002, 7.008859e+001
6.010537e+002, 7.043499e+001
6.015358e+002, 7.096580e+001
6.020179e+002, 7.115137e+001
6.025001e+002, 7.081131e+001
6.029822e+002, 7.029881e+001
6.034643e+002, 6.983772e+001
6.039464e+002, 6.938763e+001
6.044285e+002, 6.908830e+001
6.049106e+002, 6.885609e+001
6.053928e+002, 6.893814e+001
6.058749e+002, 7.014905e+001
6.063570e+002, 7.234521e+001
6.068391e+002, 7.351429e+001
6.073212e+002, 7.261934e+001
6.078033e+002, 7.092692e+001
6.082855e+002, 7.038074e+001
6.087676e+002, 7.072495e+001
6.092497e+002, 7.099777e+001
6.097318e+002, 7.050407e+001
6.102139e+002, 6.984795e+001
6.106960e+002, 6.950724e+001
6.111782e+002, 6.949718e+001
6.116603e+002, 6.951845e+001
6.121424e+002, 6.942494e+001
6.126245e+002, 6.935932e+001
6.131066e+002, 6.942358e+001
6.135887e+002, 6.971986e+001
6.140709e+002, 6.992228e+001
6.145530e+002, 6.994315e+001
6.150351e+002, 6.995335e+001
6.155172e+002, 7.022697e+001
6.159993e+002, 7.093166e+001
6.164814e+002, 7.108155e+001
6.169636e+002, 7.036063e+001
6.174457e+002, 6.928539e+001
6.179278e+002, 6.888827e+001
6.184099e+002, 6.911010e+001
6.188920e+002, 6.932380e+001
6.193741e+002, 6.918641e+001
6.198563e+002, 6.895029e+001
6.203384e+002, 6.902461e+001
6.208205e+002, 6.935455e+001
6.213026e+002, 6.966858e+001
6.217847e+002, 6.987378e+001
6.222668e+002, 6.995744e+001
6.227490e+002, 6.984899e+001
6.232311e+002, 6.951993e+001
6.237132e+002, 6.929225e+001
6.241953e+002, 6.943606e+001
6.246774e+002, 6.958613e+001
6.251595e+002, 6.947155e+001
6.256417e+002, 6.884056e+001
6.261238e+002, 6.844715e+001
6.266059e+002, 6.838220e+001
6.270880e+002, 6.846203e+001
6.275701e+002, 6.842156e+001
6.280522e+002, 6.823603e+001
6.285344e+002, 6.818183e+001
6.290165e+002, 6.833720e+001
6.294986e+002, 6.862411e+001
6.299807e+002, 6.901896e+001
6.304628e+002, 6.946137e+001
6.309449e+002, 6.962308e+001
6.314271e+002, 6.904572e+001
6.319092e+002, 6.829792e+001
6.323913e+002, 6.797578e+001
6.328734e+002, 6.804630e+001
6.333555e+002, 6.828083e+001
6.338376e+002, 6.882820e+001
6.343198e+002, 6.929667e+001
6.348019e+002, 6.939745e+001
6.352840e+002, 6.901089e+001
6.357661e+002, 6.874332e+001
6.362482e+002, 6.872495e+001
6.367303e+002, 6.878649e+001
6.372125e+002, 6.882163e+001
6.376946e+002, 6.883177e+001
6.381767e+002, 6.879163e+001
6.386588e+002, 6.864957e+001
6.391409e+002, 6.854651e+001
6.396230e+002, 6.879240e+001
6.401052e+002, 6.935221e+001
6.405873e+002, 6.964283e+001
6.410694e+002, 6.944676e+001
6.415515e+002, 6.903062e+001
6.420336e+002, 6.868124e+001
6.425157e+002, 6.843191e+001
6.429979e+002, 6.837687e+001
6.434800e+002, 6.878188e+001
6.439621e+002, 6.921706e+001
6.444442e+002, 6.936298e+001
6.449263e+002, 6.925620e+001
6.454084e+002, 6.913662e+001
6.458906e+002, 6.913006e+001
6.463727e+002, 6.908485e+001
6.468548e+002, 6.884915e+001
6.473369e+002, 6.834922e+001
6.478190e+002, 6.826906e+001
6.483011e+002, 6.889566e+001
6.487833e+002, 6.951318e+001
6.492654e+002, 6.948813e+001
6.497475e+002, 6.874289e+001
6.502296e+002, 6.835165e+001
6.507117e+002, 6.842669e+001
6.511938e+002, 6.864895e+001
6.516760e+002, 6.860880e+001
6.521581e+002, 6.838921e+001
6.526402e+002, 6.824975e+001
6.531223e+002, 6.827190e+001
6.536044e+002, 6.836404e+001
6.540865e+002, 6.847299e+001
6.545687e+002, 6.858871e+001
6.550508e+002, 6.869268e+001
6.555329e+002, 6.872556e+001
6.560150e+002, 6.880063e+001
6.564971e+002, 6.907148e+001
6.569792e+002, 6.945771e+001
6.574614e+002, 6.952834e+001
6.579435e+002, 6.894764e+001
6.584256e+002, 6.850671e+001
6.589077e+002, 6.852394e+001
6.593898e+002, 6.897349e+001
6.598719e+002, 6.922732e+001
6.603541e+002, 6.927695e+001
6.608362e+002, 6.917071e+001
6.613183e+002, 6.875375e+001
6.618004e+002, 6.818591e+001
6.622825e+002, 6.822700e+001
6.627646e+002, 6.895730e+001
6.632468e+002, 6.960710e+001
6.637289e+002, 6.917293e+001
6.642110e+002, 6.837679e+001
6.646931e+002, 6.827100e+001
6.651752e+002, 6.946104e+001
6.656573e+002, 7.035442e+001
6.661395e+002, 6.993449e+001
6.666216e+002, 6.895775e+001
6.671037e+002, 6.835498e+001
6.675858e+002, 6.850821e+001
6.680679e+002, 6.875163e+001
6.685500e+002, 6.917415e+001
6.690322e+002, 6.959654e+001
6.695143e+002, 6.955624e+001
6.699964e+002, 6.894553e+001
6.704785e+002, 6.839381e+001
6.709606e+002, 6.807900e+001
6.714427e+002, 6.796129e+001
6.719249e+002, 6.797070e+001
6.724070e+002, 6.809621e+001
6.728891e+002, 6.825404e+001
6.733712e+002, 6.839967e+001
6.738533e+002, 6.854697e+001
6.743354e+002, 6.873119e+001
6.748176e+002, 6.894537e+001
6.752997e+002, 6.910641e+001
6.757818e+002, 6.922520e+001
6.762639e+002, 6.923656e+001
6.767460e+002, 6.903883e+001
6.772281e+002, 6.851115e+001
6.777103e+002, 6.824389e+001
6.781924e+002, 6.839238e+001
6.786745e+002, 6.866628e+001
6.791566e+002, 6.885862e+001
6.796387e+002, 6.894941e+001
6.801208e+002, 6.905379e+001
6.806030e+002, 6.917811e+001
6.810851e+002, 6.931750e+001
6.815672e+002, 6.946053e+001
6.820493e+002, 6.961297e+001
6.825314e+002, 6.982323e+001
6.830135e+002, 7.013630e+001
6.834957e+002, 7.042457e+001
6.839778e+002, 7.051160e+001
6.844599e+002, 7.048010e+001
6.849420e+002, 7.048289e+001
6.854241e+002, 7.060036e+001
6.859063e+002, 7.073943e+001
6.863884e+002, 7.083566e+001
6.868705e+002, 7.092260e+001
6.873526e+002, 7.111838e+001
6.878347e+002, 7.144843e+001
6.883168e+002, 7.186293e+001
6.887990e+002, 7.236636e+001
6.892811e+002, 7.294870e+001
6.897632e+002, 7.349345e+001
6.902453e+002, 7.399228e+001
6.907274e+002, 7.450166e+001
6.912095e+002, 7.506467e+001
6.916917e+002, 7.565611e+001
6.921738e+002, 7.624874e+001
6.926559e+002, 7.682932e+001
6.931380e+002, 7.729314e+001
6.936201e+002, 7.741036e+001
6.941022e+002, 7.745991e+001
6.945844e+002, 7.775667e+001
6.950665e+002, 7.838589e+001
6.955486e+002, 7.893362e+001
6.960307e+002, 7.924001e+001
6.965128e+002, 7.941672e+001
6.969949e+002, 7.954339e+001
6.974771e+002, 7.953320e+001
6.979592e+002, 7.967470e+001
6.984413e+002, 8.003266e+001
6.989234e+002, 8.046001e+001
6.994055e+002, 8.077089e+001
6.998876e+002, 8.096397e+001
7.003698e+002, 8.116972e+001
7.008519e+002, 8.139165e+001
7.013340e+002, 8.168377e+001
7.018161e+002, 8.220425e+001
7.022982e+002, 8.285643e+001
7.027803e+002, 8.338366e+001
7.032625e+002, 8.350111e+001
7.037446e+002, 8.369868e+001
7.042267e+002, 8.429866e+001
7.047088e+002, 8.521722e+001
7.051909e+002, 8.627211e+001
7.056730e+002, 8.736993e+001
7.061552e+002, 8.864172e+001
7.066373e+002, 9.014102e+001
7.071194e+002, 9.183485e+001
7.076015e+002, 9.359281e+001
7.080836e+002, 9.540994e+001
7.085657e+002, 9.726270e+001
7.090479e+002, 9.913638e+001
7.095300e+002, 1.010470e+002
7.100121e+002, 1.030823e+002
7.104942e+002, 1.052467e+002
7.109763e+002, 1.074455e+002
7.114584e+002, 1.096664e+002
7.119406e+002, 1.118877e+002
7.124227e+002, 1.142093e+002
7.129048e+002, 1.166272e+002
7.133869e+002, 1.186474e+002
7.138690e+002, 1.201225e+002
7.143511e+002, 1.210496e+002
7.148333e+002, 1.214641e+002
7.153154e+002, 1.213866e+002
7.157975e+002, 1.206597e+002
7.162796e+002, 1.194337e+002
7.167617e+002, 1.173832e+002
7.172438e+002, 1.139271e+002
7.177260e+002, 1.089076e+002
7.182081e+002, 1.045414e+002
7.186902e+002, 1.010578e+002
7.191723e+002, 9.797244e+001
7.196544e+002, 9.471380e+001
7.201365e+002, 9.145251e+001
7.206187e+002, 8.868053e+001
7.211008e+002, 8.659174e+001
7.215829e+002, 8.466611e+001
7.220650e+002, 8.224480e+001
7.225471e+002, 7.981655e+001
7.230292e+002, 7.798648e+001
7.235114e+002, 7.750912e+001
7.239935e+002, 7.698689e+001
7.244756e+002, 7.606409e+001
7.249577e+002, 7.501609e+001
7.254398e+002, 7.433318e+001
7.259219e+002, 7.418369e+001
7.264041e+002, 7.386313e+001
7.268862e+002, 7.312060e+001
7.273683e+002, 7.222032e+001
7.278504e+002, 7.191451e+001
7.283325e+002, 7.211561e+001
7.288146e+002, 7.222842e+001
7.292968e+002, 7.186848e+001
7.297789e+002, 7.138475e+001
7.302610e+002, 7.117691e+001
7.307431e+002, 7.118187e+001
7.312252e+002, 7.119016e+001
7.317073e+002, 7.115038e+001
7.321895e+002, 7.105767e+001
7.326716e+002, 7.085184e+001
7.331537e+002, 7.055322e+001
7.336358e+002, 7.043045e+001
7.341179e+002, 7.060571e+001
7.346000e+002, 7.074901e+001
7.350822e+002, 7.072075e+001
7.355643e+002, 7.053598e+001
7.360464e+002, 7.030608e+001
7.365285e+002, 7.002658e+001
7.370106e+002, 6.979967e+001
7.374927e+002, 6.974555e+001
7.379749e+002, 6.977505e+001
7.384570e+002, 6.971885e+001
7.389391e+002, 6.957252e+001
7.394212e+002, 6.946153e+001
7.399033e+002, 6.936366e+001
7.403854e+002, 6.939733e+001
7.408676e+002, 6.974670e+001
7.413497e+002, 7.062132e+001
7.418318e+002, 7.100347e+001
7.423139e+002, 7.049708e+001
7.427960e+002, 6.987774e+001
7.432781e+002, 6.970973e+001
7.437603e+002, 7.008773e+001
7.442424e+002, 7.021350e+001
7.447245e+002, 7.002162e+001
7.452066e+002, 6.976816e+001
7.456887e+002, 6.968179e+001
7.461708e+002, 6.974657e+001
7.466530e+002, 6.995892e+001
7.471351e+002, 7.035298e+001
7.476172e+002, 7.070657e+001
7.480993e+002, 7.083755e+001
7.485814e+002, 7.084647e+001
7.490635e+002, 7.084675e+001
7.495457e+002, 7.092365e+001
7.500278e+002, 7.089098e+001
7.505099e+002, 7.058691e+001
7.509920e+002, 7.025289e+001
7.514741e+002, 7.018647e+001
7.519562e+002, 7.044933e+001
7.524384e+002, 7.073161e+001
7.529205e+002, 7.101453e+001
7.534026e+002, 7.124463e+001
7.538847e+002, 7.135532e+001
7.543668e+002, 7.134003e+001
7.548489e+002, 7.113719e+001
7.553311e+002, 7.056071e+001
7.558132e+002, 7.010638e+001
7.562953e+002, 7.040327e+001
7.567774e+002, 7.109684e+001
7.572595e+002, 7.155846e+001
7.577416e+002, 7.140649e+001
7.582238e+002, 7.122518e+001
7.587059e+002, 7.109148e+001
7.591880e+002, 7.103217e+001
7.596701e+002, 7.113763e+001
7.601522e+002, 7.149722e+001
7.606343e+002, 7.174361e+001
7.611165e+002, 7.179159e+001
7.615986e+002, 7.166627e+001
7.620807e+002, 7.129552e+001
7.625628e+002, 7.075095e+001
7.630449e+002, 7.045496e+001
7.635270e+002, 7.083323e+001
7.640092e+002, 7.134229e+001
7.644913e+002, 7.148495e+001
7.649734e+002, 7.133685e+001
7.654555e+002, 7.113836e+001
7.659376e+002, 7.076662e+001
7.664197e+002, 7.058084e+001
7.669019e+002, 7.088985e+001
7.673840e+002, 7.153054e+001
7.678661e+002, 7.170687e+001
7.683482e+002, 7.125974e+001
7.688303e+002, 7.081029e+001
7.693124e+002, 7.060683e+001
7.697946e+002, 7.059006e+001
7.702767e+002, 7.054142e+001
7.707588e+002, 7.046944e+001
7.712409e+002, 7.045403e+001
7.717230e+002, 7.068579e+001
7.722051e+002, 7.089835e+001
7.726873e+002, 7.069516e+001
7.731694e+002, 7.015336e+001
7.736515e+002, 6.987892e+001
7.741336e+002, 7.033512e+001
7.746157e+002, 7.086199e+001
7.750978e+002, 7.116912e+001
7.755800e+002, 7.126447e+001
7.760621e+002, 7.145391e+001
7.765442e+002, 7.182653e+001
7.770263e+002, 7.203844e+001
7.775084e+002, 7.178854e+001
7.779905e+002, 7.120783e+001
7.784727e+002, 7.093559e+001
7.789548e+002, 7.095878e+001
7.794369e+002, 7.105047e+001
7.799190e+002, 7.108707e+001
7.804011e+002, 7.108709e+001
7.808832e+002, 7.105779e+001
7.813654e+002, 7.100057e+001
7.818475e+002, 7.095493e+001
7.823296e+002, 7.089940e+001
7.828117e+002, 7.089263e+001
7.832938e+002, 7.099765e+001
7.837759e+002, 7.123988e+001
7.842581e+002, 7.125542e+001
7.847402e+002, 7.094736e+001
7.852223e+002, 7.071955e+001
7.857044e+002, 7.096167e+001
7.861865e+002, 7.152563e+001
7.866686e+002, 7.182370e+001
7.871508e+002, 7.184171e+001
7.876329e+002, 7.175654e+001
7.881150e+002, 7.160066e+001
7.885971e+002, 7.146863e+001
7.890792e+002, 7.149189e+001
7.895613e+002, 7.170933e+001
7.900435e+002, 7.182605e+001
7.905256e+002, 7.159879e+001
7.910077e+002, 7.140440e+001
7.914898e+002, 7.146975e+001
7.919719e+002, 7.185029e+001
7.924540e+002, 7.206979e+001
7.929362e+002, 7.209254e+001
7.934183e+002, 7.208101e+001
7.939004e+002, 7.220641e+001
7.943825e+002, 7.240005e+001
7.948646e+002, 7.245030e+001
7.953467e+002, 7.234135e+001
7.958289e+002, 7.220304e+001
7.963110e+002, 7.216211e+001
7.967931e+002, 7.211451e+001
7.972752e+002, 7.190137e+001
7.977573e+002, 7.138181e+001
7.982394e+002, 7.127464e+001
7.987216e+002, 7.196543e+001
7.992037e+002, 7.274379e+001
7.996858e+002, 7.317339e+001
8.001679e+002, 7.322079e+001
8.006500e+002, 7.315333e+001
8.011321e+002, 7.295084e+001
8.016143e+002, 7.275703e+001
8.020964e+002, 7.265620e+001
8.025785e+002, 7.266866e+001
8.030606e+002, 7.288958e+001
8.035427e+002, 7.334478e+001
8.040248e+002, 7.374429e+001
8.045070e+002, 7.385723e+001
8.049891e+002, 7.388950e+001
8.054712e+002, 7.401048e+001
8.059533e+002, 7.430303e+001
8.064354e+002, 7.445289e+001
8.069175e+002, 7.432637e+001
8.073997e+002, 7.424898e+001
8.078818e+002, 7.458396e+001
8.083639e+002, 7.531062e+001
8.088460e+002, 7.548716e+001
8.093281e+002, 7.504124e+001
8.098102e+002, 7.455098e+001
8.102924e+002, 7.459624e+001
8.107745e+002, 7.489072e+001
8.112566e+002, 7.501009e+001
8.117387e+002, 7.486913e+001
8.122208e+002, 7.485606e+001
8.127029e+002, 7.526291e+001
8.131851e+002, 7.575716e+001
8.136672e+002, 7.612768e+001
8.141493e+002, 7.638051e+001
8.146314e+002, 7.644704e+001
8.151135e+002, 7.626306e+001
8.155956e+002, 7.605139e+001
8.160778e+002, 7.597691e+001
8.165599e+002, 7.602597e+001
8.170420e+002, 7.619704e+001
8.175241e+002, 7.649384e+001
8.180062e+002, 7.668926e+001
8.184883e+002, 7.644910e+001
8.189705e+002, 7.611850e+001
8.194526e+002, 7.609299e+001
8.199347e+002, 7.648203e+001
8.204168e+002, 7.668594e+001
8.208989e+002, 7.645960e+001
8.213810e+002, 7.612103e+001
8.218632e+002, 7.579069e+001
8.223453e+002, 7.545374e+001
8.228274e+002, 7.532980e+001
8.233095e+002, 7.546410e+001
8.237916e+002, 7.555560e+001
8.242737e+002, 7.523399e+001
8.247559e+002, 7.473819e+001
8.252380e+002, 7.461066e+001
8.257201e+002, 7.487342e+001
8.262022e+002, 7.510976e+001
8.266843e+002, 7.496452e+001
8.271664e+002, 7.478710e+001
8.276486e+002, 7.483110e+001
8.281307e+002, 7.515861e+001
8.286128e+002, 7.542821e+001
8.290949e+002, 7.561398e+001
8.295770e+002, 7.578600e+001
8.300591e+002, 7.599828e+001
8.305413e+002, 7.624013e+001
8.310234e+002, 7.642913e+001
8.315055e+002, 7.656388e+001
8.319876e+002, 7.657913e+001
8.324697e+002, 7.631806e+001
8.329518e+002, 7.598328e+001
8.334340e+002, 7.574978e+001
8.339161e+002, 7.563641e+001
8.343982e+002, 7.569817e+001
8.348803e+002, 7.623156e+001
8.353624e+002, 7.666731e+001
8.358445e+002, 7.670489e+001
8.363267e+002, 7.636852e+001
8.368088e+002, 7.624338e+001
8.372909e+002, 7.636906e+001
8.377730e+002, 7.653064e+001
8.382551e+002, 7.658156e+001
8.387372e+002, 7.659105e+001
8.392194e+002, 7.678086e+001
8.397015e+002, 7.711441e+001
8.401836e+002, 7.737833e+001
8.406657e+002, 7.735867e+001
8.411478e+002, 7.731214e+001
8.416299e+002, 7.740635e+001
8.421121e+002, 7.763071e+001
8.425942e+002, 7.783398e+001
8.430763e+002, 7.806454e+001
8.435584e+002, 7.817129e+001
8.440405e+002, 7.807785e+001
8.445226e+002, 7.783273e+001
8.450048e+002, 7.755641e+001
8.454869e+002, 7.726270e+001
8.459690e+002, 7.717766e+001
8.464511e+002, 7.767395e+001
8.469332e+002, 7.821799e+001
8.474153e+002, 7.814591e+001
8.478975e+002, 7.763945e+001
8.483796e+002, 7.721206e+001
8.488617e+002, 7.700980e+001
8.493438e+002, 7.695885e+001
8.498259e+002, 7.714380e+001
8.503080e+002, 7.743580e+001
8.507902e+002, 7.744377e+001
8.512723e+002, 7.709074e+001
8.517544e+002, 7.695200e+001
8.522365e+002, 7.729104e+001
8.527186e+002, 7.777357e+001
8.532007e+002, 7.776416e+001
8.536829e+002, 7.740638e+001
8.541650e+002, 7.709126e+001
8.546471e+002, 7.693652e+001
8.551292e+002, 7.690127e+001
8.556113e+002, 7.706399e+001
8.560934e+002, 7.730898e+001
8.565756e+002, 7.741338e+001
8.570577e+002, 7.723316e+001
8.575398e+002, 7.721889e+001
8.580219e+002, 7.750900e+001
8.585040e+002, 7.784506e+001
8.589861e+002, 7.769633e+001
8.594683e+002, 7.717667e+001
8.599504e+002, 7.691982e+001
8.604325e+002, 7.711098e+001
8.609146e+002, 7.748362e+001
8.613967e+002, 7.807555e+001
8.618788e+002, 7.858437e+001
8.623610e+002, 7.860252e+001
8.628431e+002, 7.751469e+001
8.633252e+002, 7.687832e+001
8.638073e+002, 7.703489e+001
8.642894e+002, 7.745584e+001
8.647715e+002, 7.766812e+001
8.652537e+002, 7.767024e+001
8.657358e+002, 7.743684e+001
8.662179e+002, 7.691348e+001
8.667000e+002, 7.650814e+001
8.671821e+002, 7.675619e+001
8.676642e+002, 7.733423e+001
8.681464e+002, 7.778625e+001
8.686285e+002, 7.804218e+001
8.691106e+002, 7.821825e+001
8.695927e+002, 7.823889e+001
8.700748e+002, 7.829907e+001
8.705569e+002, 7.854325e+001
8.710391e+002, 7.900942e+001
8.715212e+002, 7.937557e+001
8.720033e+002, 7.962478e+001
8.724854e+002, 7.982188e+001
8.729675e+002, 7.987285e+001
8.734496e+002, 7.993544e+001
8.739318e+002, 8.055359e+001
8.744139e+002, 8.167702e+001
8.748960e+002, 8.256513e+001
8.753781e+002, 8.256145e+001
8.758602e+002, 8.237472e+001
8.763423e+002, 8.241478e+001
8.768245e+002, 8.271061e+001
8.773066e+002, 8.303428e+001
8.777887e+002, 8.343007e+001
8.782708e+002, 8.376502e+001
8.787529e+002, 8.400469e+001
8.792350e+002, 8.414025e+001
8.797172e+002, 8.406348e+001
8.801993e+002, 8.381711e+001
8.806814e+002, 8.365951e+001
8.811635e+002, 8.390705e+001
8.816456e+002, 8.413873e+001
8.821277e+002, 8.390370e+001
8.826099e+002, 8.338860e+001
8.830920e+002, 8.316210e+001
8.835741e+002, 8.375858e+001
8.840562e+002, 8.403911e+001
8.845383e+002, 8.377975e+001
8.850204e+002, 8.313659e+001
8.855026e+002, 8.244482e+001
8.859847e+002, 8.169508e+001
8.864668e+002, 8.072078e+001
8.869489e+002, 7.933598e+001
8.874310e+002, 7.802346e+001
8.879131e+002, 7.738663e+001
8.883953e+002, 7.716679e+001
8.888774e+002, 7.697793e+001
8.893595e+002, 7.690247e+001
8.898416e+002, 7.655579e+001
8.903237e+002, 7.573545e+001
8.908058e+002, 7.476109e+001
8.912880e+002, 7.394413e+001
8.917701e+002, 7.330026e+001
8.922522e+002, 7.265756e+001
8.927343e+002, 7.198757e+001
8.932164e+002, 7.138380e+001
8.936985e+002, 7.089733e+001
8.941807e+002, 7.055994e+001
8.946628e+002, 7.050266e+001
8.951449e+002, 7.081477e+001
8.956270e+002, 7.087981e+001
8.961091e+002, 7.022039e+001
8.965912e+002, 6.946485e+001
8.970734e+002, 6.900679e+001
8.975555e+002, 6.888544e+001
8.980376e+002, 6.858814e+001
8.985197e+002, 6.807801e+001
8.990018e+002, 6.763619e+001
8.994839e+002, 6.756002e+001
8.999661e+002, 6.765125e+001
9.004482e+002, 6.747547e+001
9.009303e+002, 6.708096e+001
9.014124e+002, 6.683294e+001
9.018945e+002, 6.717677e+001
9.023766e+002, 6.744423e+001
9.028588e+002, 6.723647e+001
9.033409e+002, 6.666042e+001
9.038230e+002, 6.615585e+001
9.043051e+002, 6.566100e+001
9.047872e+002, 6.549681e+001
9.052693e+002, 6.590878e+001
9.057515e+002, 6.653726e+001
9.062336e+002, 6.664507e+001
9.067157e+002, 6.635467e+001
9.071978e+002, 6.601689e+001
9.076799e+002, 6.564394e+001
9.081620e+002, 6.542416e+001
9.086442e+002, 6.557848e+001
9.091263e+002, 6.589639e+001
9.096084e+002, 6.603343e+001
9.100905e+002, 6.596288e+001
9.105726e+002, 6.576029e+001
9.110547e+002, 6.540926e+001
9.115369e+002, 6.497987e+001
9.120190e+002, 6.441653e+001
9.125011e+002, 6.385531e+001
9.129832e+002, 6.377745e+001
9.134653e+002, 6.434629e+001
9.139474e+002, 6.484765e+001
9.144296e+002, 6.478533e+001
9.149117e+002, 6.448763e+001
9.153938e+002, 6.420896e+001
9.158759e+002, 6.396077e+001
9.163580e+002, 6.377848e+001
9.168401e+002, 6.367986e+001
9.173223e+002, 6.360059e+001
9.178044e+002, 6.347620e+001
9.182865e+002, 6.333526e+001
9.187686e+002, 6.331395e+001
9.192507e+002, 6.339722e+001
9.197328e+002, 6.343726e+001
9.202150e+002, 6.321979e+001
9.206971e+002, 6.304162e+001
9.211792e+002, 6.315761e+001
9.216613e+002, 6.352096e+001
9.221434e+002, 6.369575e+001
9.226255e+002, 6.355226e+001
9.231077e+002, 6.350786e+001
9.235898e+002, 6.369694e+001
9.240719e+002, 6.404309e+001
9.245540e+002, 6.448501e+001
9.250361e+002, 6.495390e+001
9.255182e+002, 6.513129e+001
9.260004e+002, 6.463657e+001
9.264825e+002, 6.425298e+001
9.269646e+002, 6.468685e+001
9.274467e+002, 6.546698e+001
9.279288e+002, 6.585480e+001
9.284109e+002, 6.550391e+001
9.288931e+002, 6.542195e+001
9.293752e+002, 6.577817e+001
9.298573e+002, 6.615941e+001
9.303394e+002, 6.595075e+001
9.308215e+002, 6.536582e+001
9.313036e+002, 6.525559e+001
9.317858e+002, 6.575373e+001
9.322679e+002, 6.619147e+001
9.327500e+002, 6.589473e+001
9.332321e+002, 6.551121e+001
9.337142e+002, 6.561971e+001
9.341964e+002, 6.636779e+001
9.346785e+002, 6.673622e+001
9.351606e+002, 6.662138e+001
9.356427e+002, 6.637353e+001
9.361248e+002, 6.614850e+001
9.366069e+002, 6.593709e+001
9.370891e+002, 6.575866e+001
9.375712e+002, 6.558820e+001
9.380533e+002, 6.531072e+001
9.385354e+002, 6.461789e+001
9.390175e+002, 6.404382e+001
9.394996e+002, 6.401315e+001
9.399818e+002, 6.433949e+001
9.404639e+002, 6.447504e+001
9.409460e+002, 6.434690e+001
9.414281e+002, 6.417278e+001
9.419102e+002, 6.399311e+001
9.423923e+002, 6.377703e+001
9.428745e+002, 6.339579e+001
9.433566e+002, 6.293623e+001
9.438387e+002, 6.267758e+001
9.443208e+002, 6.272866e+001
9.448029e+002, 6.284012e+001
9.452850e+002, 6.299212e+001
9.457672e+002, 6.306208e+001
9.462493e+002, 6.287825e+001
9.467314e+002, 6.229842e+001
9.472135e+002, 6.212829e+001
9.476956e+002, 6.250805e+001
9.481777e+002, 6.282283e+001
9.486599e+002, 6.238467e+001
9.491420e+002, 6.157708e+001
9.496241e+002, 6.140588e+001
9.501062e+002, 6.182180e+001
9.505883e+002, 6.221851e+001
9.510704e+002, 6.225536e+001
9.515526e+002, 6.220513e+001
9.520347e+002, 6.219521e+001
9.525168e+002, 6.221207e+001
9.529989e+002, 6.219303e+001
9.534810e+002, 6.213689e+001
9.539631e+002, 6.203371e+001
9.544453e+002, 6.183727e+001
9.549274e+002, 6.167117e+001
9.554095e+002, 6.179293e+001
9.558916e+002, 6.209501e+001
9.563737e+002, 6.234101e+001
9.568558e+002, 6.238839e+001
9.573380e+002, 6.250153e+001
9.578201e+002, 6.296896e+001
9.583022e+002, 6.340864e+001
9.587843e+002, 6.339093e+001
9.592664e+002, 6.276280e+001
9.597485e+002, 6.260334e+001
9.602307e+002, 6.299422e+001
9.607128e+002, 6.347933e+001
9.611949e+002, 6.357502e+001
9.616770e+002, 6.355450e+001
9.621591e+002, 6.384618e+001
9.626412e+002, 6.446099e+001
9.631234e+002, 6.502509e+001
9.636055e+002, 6.540193e+001
9.640876e+002, 6.572093e+001
9.645697e+002, 6.610783e+001
9.650518e+002, 6.646911e+001
9.655339e+002, 6.626797e+001
9.660161e+002, 6.550325e+001
9.664982e+002, 6.498602e+001
9.669803e+002, 6.514332e+001
9.674624e+002, 6.549145e+001
9.679445e+002, 6.555738e+001
9.684266e+002, 6.541899e+001
9.689088e+002, 6.520419e+001
9.693909e+002, 6.493648e+001
9.698730e+002, 6.459917e+001
9.703551e+002, 6.416059e+001
9.708372e+002, 6.369479e+001
9.713193e+002, 6.327347e+001
9.718015e+002, 6.289319e+001
9.722836e+002, 6.243801e+001
9.727657e+002, 6.189673e+001
9.732478e+002, 6.147555e+001
9.737299e+002, 6.145298e+001
9.742120e+002, 6.152645e+001
9.746942e+002, 6.144011e+001
9.751763e+002, 6.117136e+001
9.756584e+002, 6.091643e+001
9.761405e+002, 6.068994e+001
9.766226e+002, 6.045989e+001
9.771047e+002, 6.020570e+001
9.775869e+002, 5.994535e+001
9.780690e+002, 5.967013e+001
9.785511e+002, 5.942774e+001
9.790332e+002, 5.940808e+001
9.795153e+002, 5.993432e+001
9.799974e+002, 6.034000e+001
9.804796e+002, 6.015987e+001
9.809617e+002, 5.968841e+001
9.814438e+002, 5.936643e+001
9.819259e+002, 5.932058e+001
9.824080e+002, 5.899398e+001
9.828901e+002, 5.826845e+001
9.833723e+002, 5.760801e+001
9.838544e+002, 5.751001e+001
9.843365e+002, 5.779806e+001
9.848186e+002, 5.827062e+001
9.853007e+002, 5.889361e+001
9.857828e+002, 5.922493e+001
9.862650e+002, 5.877715e+001
9.867471e+002, 5.830186e+001
9.872292e+002, 5.811815e+001
9.877113e+002, 5.818647e+001
9.881934e+002, 5.837734e+001
9.886755e+002, 5.870501e+001
9.891577e+002, 5.876572e+001
9.896398e+002, 5.822824e+001
9.901219e+002, 5.764532e+001
9.906040e+002, 5.780514e+001
9.910861e+002, 5.835476e+001
9.915682e+002, 5.869596e+001
9.920504e+002, 5.846235e+001
9.925325e+002, 5.831353e+001
9.930146e+002, 5.832991e+001
9.934967e+002, 5.840670e+001
9.939788e+002, 5.844014e+001
9.944609e+002, 5.844028e+001
9.949431e+002, 5.852076e+001
9.954252e+002, 5.868732e+001
9.959073e+002, 5.879924e+001
9.963894e+002, 5.865486e+001
9.968715e+002, 5.850091e+001
9.973536e+002, 5.856572e+001
9.978358e+002, 5.883297e+001
9.983179e+002, 5.894915e+001
9.988000e+002, 5.882520e+001
9.992821e+002, 5.878249e+001
9.997642e+002, 5.896747e+001
1.000246e+003, 5.921016e+001
1.000728e+003, 5.913025e+001
1.001211e+003, 5.882868e+001
1.001693e+003, 5.856055e+001
1.002175e+003, 5.839791e+001
1.002657e+003, 5.829104e+001
1.003139e+003, 5.812079e+001
1.003621e+003, 5.807625e+001
1.004103e+003, 5.837514e+001
1.004585e+003, 5.912775e+001
1.005068e+003, 5.954237e+001
1.005550e+003, 5.959207e+001
1.006032e+003, 5.959169e+001
1.006514e+003, 5.979883e+001
1.006996e+003, 6.008222e+001
1.007478e+003, 6.025123e+001
1.007960e+003, 6.033289e+001
1.008442e+003, 6.051263e+001
1.008924e+003, 6.110474e+001
1.009407e+003, 6.143092e+001
1.009889e+003, 6.120658e+001
1.010371e+003, 6.078259e+001
1.010853e+003, 6.098274e+001
1.011335e+003, 6.170126e+001
1.011817e+003, 6.216634e+001
1.012299e+003, 6.211720e+001
1.012781e+003, 6.216452e+001
1.013263e+003, 6.306981e+001
1.013746e+003, 6.410808e+001
1.014228e+003, 6.443607e+001
1.014710e+003, 6.373938e+001
1.015192e+003, 6.388935e+001
1.015674e+003, 6.513802e+001
1.016156e+003, 6.641672e+001
1.016638e+003, 6.696838e+001
1.017120e+003, 6.715901e+001
1.017603e+003, 6.774124e+001
1.018085e+003, 6.866197e+001
1.018567e+003, 6.971762e+001
1.019049e+003, 7.087782e+001
1.019531e+003, 7.208644e+001
1.020013e+003, 7.329496e+001
1.020495e+003, 7.456868e+001
1.020977e+003, 7.605811e+001
1.021459e+003, 7.776955e+001
1.021942e+003, 7.930108e+001
1.022424e+003, 8.057430e+001
1.022906e+003, 8.192099e+001
1.023388e+003, 8.361377e+001
1.023870e+003, 8.558044e+001
1.024352e+003, 8.765311e+001
1.024834e+003, 8.979093e+001
1.025316e+003, 9.266650e+001
1.025799e+003, 9.634199e+001
1.026281e+003, 1.005836e+002
1.026763e+003, 1.051159e+002
1.027245e+003, 1.103063e+002
1.027727e+003, 1.173050e+002
1.028209e+003, 1.259966e+002
1.028691e+003, 1.359844e+002
1.029173e+003, 1.470010e+002
1.029656e+003, 1.595189e+002
1.030138e+003, 1.734048e+002
1.030620e+003, 1.890947e+002
1.031102e+003, 2.069743e+002
1.031584e+003, 2.271743e+002
1.032066e+003, 2.491989e+002
1.032548e+003, 2.730981e+002
1.033030e+003, 2.991783e+002
1.033512e+003, 3.272050e+002
1.033995e+003, 3.576471e+002
1.034477e+003, 3.900498e+002
1.034959e+003, 4.246380e+002
1.035441e+003, 4.637897e+002
1.035923e+003, 5.088687e+002
1.036405e+003, 5.574068e+002
1.036887e+003, 6.089763e+002
1.037369e+003, 6.643010e+002
1.037851e+003, 7.273490e+002
1.038334e+003, 7.959548e+002
1.038816e+003, 8.671202e+002
1.039298e+003, 9.415828e+002
1.039780e+003, 1.012415e+003
1.040262e+003, 1.083899e+003
1.040744e+003, 1.144239e+003
1.041226e+003, 1.186355e+003
1.041708e+003, 1.211612e+003
1.042191e+003, 1.210062e+003
1.042673e+003, 1.181369e+003
1.043155e+003, 1.129272e+003
1.043637e+003, 1.047217e+003
1.044119e+003, 9.496472e+002
1.044601e+003, 8.484424e+002
1.045083e+003, 7.471973e+002
1.045565e+003, 6.579791e+002
1.046047e+003, 5.853178e+002
1.046530e+003, 5.236823e+002
1.047012e+003, 4.753439e+002
1.047494e+003, 4.339930e+002
1.047976e+003, 3.935177e+002
1.048458e+003, 3.536513e+002
1.048940e+003, 3.154976e+002
1.049422e+003, 2.789843e+002
1.049904e+003, 2.453788e+002
1.050386e+003, 2.144674e+002
1.050869e+003, 1.871807e+002
1.051351e+003, 1.642846e+002
1.051833e+003, 1.454616e+002
1.052315e+003, 1.306859e+002
1.052797e+003, 1.202224e+002
1.053279e+003, 1.116586e+002
1.053761e+003, 1.043141e+002
1.054243e+003, 9.822024e+001
1.054726e+003, 9.352451e+001
1.055208e+003, 9.001181e+001
1.055690e+003, 8.752787e+001
1.056172e+003, 8.645065e+001
1.056654e+003, 8.509494e+001
1.057136e+003, 8.333853e+001
1.057618e+003, 8.123459e+001
1.058100e+003, 7.864050e+001
1.058583e+003, 7.575459e+001
1.059065e+003, 7.327112e+001
1.059547e+003, 7.119176e+001
1.060029e+003, 6.951122e+001
1.060511e+003, 6.848675e+001
1.060993e+003, 6.761434e+001
1.061475e+003, 6.671793e+001
1.061957e+003, 6.584492e+001
1.062439e+003, 6.506827e+001
1.062922e+003, 6.439626e+001
1.063404e+003, 6.375531e+001
1.063886e+003, 6.314644e+001
1.064368e+003, 6.253746e+001
1.064850e+003, 6.180380e+001
1.065332e+003, 6.111755e+001
1.065814e+003, 6.072539e+001
1.066296e+003, 6.061148e+001
1.066778e+003, 6.029347e+001
1.067261e+003, 5.952116e+001
1.067743e+003, 5.903518e+001
1.068225e+003, 5.912048e+001
1.068707e+003, 5.942556e+001
1.069189e+003, 5.938760e+001
1.069671e+003, 5.904567e+001
1.070153e+003, 5.840278e+001
1.070635e+003, 5.731242e+001
1.071118e+003, 5.650342e+001
1.071600e+003, 5.641248e+001
1.072082e+003, 5.659803e+001
1.072564e+003, 5.691380e+001
1.073046e+003, 5.732294e+001
1.073528e+003, 5.728398e+001
1.074010e+003, 5.683338e+001
1.074492e+003, 5.648226e+001
1.074974e+003, 5.663812e+001
1.075457e+003, 5.684277e+001
1.075939e+003, 5.675184e+001
1.076421e+003, 5.648174e+001
1.076903e+003, 5.621751e+001
1.077385e+003, 5.593923e+001
1.077867e+003, 5.578412e+001
1.078349e+003, 5.578356e+001
1.078831e+003, 5.579849e+001
1.079313e+003, 5.569952e+001
1.079796e+003, 5.553334e+001
1.080278e+003, 5.532516e+001
1.080760e+003, 5.509679e+001
1.081242e+003, 5.498466e+001
1.081724e+003, 5.522279e+001
1.082206e+003, 5.531579e+001
1.082688e+003, 5.510938e+001
1.083170e+003, 5.477781e+001
1.083652e+003, 5.464394e+001
1.084135e+003, 5.466352e+001
1.084617e+003, 5.467803e+001
1.085099e+003, 5.465879e+001
1.085581e+003, 5.462756e+001
1.086063e+003, 5.463659e+001
1.086545e+003, 5.459831e+001
1.087027e+003, 5.442387e+001
1.087509e+003, 5.413866e+001
1.087992e+003, 5.401425e+001
1.088474e+003, 5.405270e+001
1.088956e+003, 5.408201e+001
1.089438e+003, 5.402250e+001
1.089920e+003, 5.394243e+001
1.090402e+003, 5.397302e+001
1.090884e+003, 5.399664e+001
1.091366e+003, 5.380783e+001
1.091849e+003, 5.312097e+001
1.092331e+003, 5.300337e+001
1.092813e+003, 5.361839e+001
1.093295e+003, 5.424982e+001
1.093777e+003, 5.432660e+001
1.094259e+003, 5.408382e+001
1.094741e+003, 5.391805e+001
1.095223e+003, 5.382094e+001
1.095705e+003, 5.374303e+001
1.096188e+003, 5.359312e+001
1.096670e+003, 5.357432e+001
1.097152e+003, 5.376039e+001
1.097634e+003, 5.402540e+001
1.098116e+003, 5.431390e+001
1.098598e+003, 5.455621e+001
1.099080e+003, 5.431780e+001
1.099562e+003, 5.356807e+001
1.100044e+003, 5.290791e+001
1.100527e+003, 5.273606e+001
1.101009e+003, 5.273029e+001
1.101491e+003, 5.280027e+001
1.101973e+003, 5.287906e+001
1.102455e+003, 5.269844e+001
1.102937e+003, 5.225384e+001
1.103419e+003, 5.201734e+001
1.103901e+003, 5.214492e+001
1.104384e+003, 5.235939e+001
1.104866e+003, 5.243648e+001
1.105348e+003, 5.243657e+001
1.105830e+003, 5.238382e+001
1.106312e+003, 5.226055e+001
1.106794e+003, 5.234091e+001
1.107276e+003, 5.268768e+001
1.107758e+003, 5.299028e+001
1.108240e+003, 5.310897e+001
1.108723e+003, 5.310258e+001
1.109205e+003, 5.299509e+001
1.109687e+003, 5.285290e+001
1.110169e+003, 5.280558e+001
1.110651e+003, 5.294390e+001
1.111133e+003, 5.308910e+001
1.111615e+003, 5.327108e+001
1.112097e+003, 5.338029e+001
1.112579e+003, 5.328138e+001
1.113062e+003, 5.304588e+001
1.113544e+003, 5.294389e+001
1.114026e+003, 5.294767e+001
1.114508e+003, 5.291724e+001
1.114990e+003, 5.281380e+001
1.115472e+003, 5.261745e+001
1.115954e+003, 5.215264e+001
1.116436e+003, 5.173988e+001
1.116919e+003, 5.189903e+001
1.117401e+003, 5.257795e+001
1.117883e+003, 5.304045e+001
1.118365e+003, 5.322284e+001
1.118847e+003, 5.319086e+001
1.119329e+003, 5.274883e+001
1.119811e+003, 5.233558e+001
1.120293e+003, 5.229298e+001
1.120776e+003, 5.252333e+001
1.121258e+003, 5.269589e+001
1.121740e+003, 5.281100e+001
1.122222e+003, 5.284615e+001
1.122704e+003, 5.277930e+001
1.123186e+003, 5.270348e+001
1.123668e+003, 5.265370e+001
1.124150e+003, 5.268300e+001
1.124632e+003, 5.289846e+001
1.125115e+003, 5.333706e+001
1.125597e+003, 5.357537e+001
1.126079e+003, 5.354328e+001
1.126561e+003, 5.353585e+001
1.127043e+003, 5.369009e+001
1.127525e+003, 5.388924e+001
1.128007e+003, 5.388506e+001
1.128489e+003, 5.380713e+001
1.128971e+003, 5.390501e+001
1.129454e+003, 5.438213e+001
1.129936e+003, 5.462421e+001
1.130418e+003, 5.444904e+001
1.130900e+003, 5.428896e+001
1.131382e+003, 5.445406e+001
1.131864e+003, 5.481434e+001
1.132346e+003, 5.497174e+001
1.132828e+003, 5.497712e+001
1.133311e+003, 5.499865e+001
1.133793e+003, 5.494267e+001
1.134275e+003, 5.515400e+001
1.134757e+003, 5.595115e+001
1.135239e+003, 5.677111e+001
1.135721e+003, 5.701456e+001
1.136203e+003, 5.676015e+001
1.136685e+003, 5.671639e+001
1.137167e+003, 5.688546e+001
1.137650e+003, 5.706974e+001
1.138132e+003, 5.721162e+001
1.138614e+003, 5.727168e+001
1.139096e+003, 5.715757e+001
1.139578e+003, 5.698268e+001
1.140060e+003, 5.691368e+001
1.140542e+003, 5.695134e+001
1.141024e+003, 5.709209e+001
1.141506e+003, 5.734009e+001
1.141989e+003, 5.762059e+001
1.142471e+003, 5.801234e+001
1.142953e+003, 5.829637e+001
1.143435e+003, 5.821803e+001
1.143917e+003, 5.786643e+001
1.144399e+003, 5.771349e+001
1.144881e+003, 5.779757e+001
1.145363e+003, 5.784613e+001
1.145846e+003, 5.781745e+001
1.146328e+003, 5.765783e+001
1.146810e+003, 5.713166e+001
1.147292e+003, 5.655783e+001
1.147774e+003, 5.632545e+001
1.148256e+003, 5.651532e+001
1.148738e+003, 5.650258e+001
1.149220e+003, 5.623029e+001
1.149703e+003, 5.591903e+001
1.150185e+003, 5.562765e+001
1.150667e+003, 5.537133e+001
1.151149e+003, 5.525393e+001
1.151631e+003, 5.515287e+001
1.152113e+003, 5.484241e+001
1.152595e+003, 5.417411e+001
1.153077e+003, 5.366050e+001
1.153559e+003, 5.333969e+001
1.154042e+003, 5.316539e+001
1.154524e+003, 5.319487e+001
1.155006e+003, 5.328613e+001
1.155488e+003, 5.310365e+001
1.155970e+003, 5.272506e+001
1.156452e+003, 5.234486e+001
1.156934e+003, 5.203025e+001
1.157416e+003, 5.169532e+001
1.157898e+003, 5.124466e+001
1.158381e+003, 5.090485e+001
1.158863e+003, 5.093480e+001
1.159345e+003, 5.121366e+001
1.159827e+003, 5.124760e+001
1.160309e+003, 5.108290e+001
1.160791e+003, 5.090597e+001
1.161273e+003, 5.089312e+001
1.161755e+003, 5.074668e+001
1.162238e+003, 5.030353e+001
1.162720e+003, 4.980039e+001
1.163202e+003, 4.943915e+001
1.163684e+003, 4.923211e+001
1.164166e+003, 4.931955e+001
1.164648e+003, 4.967363e+001
1.165130e+003, 4.998854e+001
1.165612e+003, 5.015715e+001
1.166094e+003, 5.016786e+001
1.166577e+003, 5.000411e+001
1.167059e+003, 4.969106e+001
1.167541e+003, 4.914027e+001
1.168023e+003, 4.839498e+001
1.168505e+003, 4.814274e+001
1.168987e+003, 4.845544e+001
1.169469e+003, 4.876116e+001
1.169951e+003, 4.859375e+001
1.170433e+003, 4.836669e+001
1.170916e+003, 4.840240e+001
1.171398e+003, 4.854922e+001
1.171880e+003, 4.832712e+001
1.172362e+003, 4.774345e+001
1.172844e+003, 4.753393e+001
1.173326e+003, 4.788422e+001
1.173808e+003, 4.825093e+001
1.174290e+003, 4.808367e+001
1.174773e+003, 4.783244e+001
1.175255e+003, 4.791021e+001
1.175737e+003, 4.823852e+001
1.176219e+003, 4.836923e+001
1.176701e+003, 4.829712e+001
1.177183e+003, 4.814134e+001
1.177665e+003, 4.791082e+001
1.178147e+003, 4.768816e+001
1.178630e+003, 4.747047e+001
1.179112e+003, 4.735655e+001
1.179594e+003, 4.752451e+001
1.180076e+003, 4.797383e+001
1.180558e+003, 4.817444e+001
1.181040e+003, 4.811332e+001
1.181522e+003, 4.792463e+001
1.182004e+003, 4.758801e+001
1.182486e+003, 4.730103e+001
1.182969e+003, 4.738241e+001
1.183451e+003, 4.757843e+001
1.183933e+003, 4.754736e+001
1.184415e+003, 4.719798e+001
1.184897e+003, 4.703597e+001
1.185379e+003, 4.708952e+001
1.185861e+003, 4.713804e+001
1.186343e+003, 4.704531e+001
1.186825e+003, 4.692189e+001
1.187308e+003, 4.693793e+001
1.187790e+003, 4.699752e+001
1.188272e+003, 4.691854e+001
1.188754e+003, 4.651294e+001
1.189236e+003, 4.655743e+001
1.189718e+003, 4.716646e+001
1.190200e+003, 4.763458e+001
1.190682e+003, 4.737180e+001
1.191165e+003, 4.682299e+001
1.191647e+003, 4.651892e+001
1.192129e+003, 4.637664e+001
1.192611e+003, 4.622032e+001
1.193093e+003, 4.594185e+001
1.193575e+003, 4.585804e+001
1.194057e+003, 4.602104e+001
1.194539e+003, 4.618346e+001
1.195021e+003, 4.612013e+001
1.195504e+003, 4.596238e+001
1.195986e+003, 4.590511e+001
1.196468e+003, 4.590401e+001
1.196950e+003, 4.580890e+001
1.197432e+003, 4.542492e+001
1.197914e+003, 4.532783e+001
1.198396e+003, 4.557694e+001
1.198878e+003, 4.602654e+001
1.199360e+003, 4.681236e+001
1.199843e+003, 4.753703e+001
1.200325e+003, 4.742438e+001
1.200807e+003, 4.668719e+001
1.201289e+003, 4.629054e+001
1.201771e+003, 4.659822e+001
1.202253e+003, 4.680865e+001
1.202735e+003, 4.683602e+001
1.203217e+003, 4.674448e+001
1.203700e+003, 4.649459e+001
1.204182e+003, 4.623647e+001
1.204664e+003, 4.624626e+001
1.205146e+003, 4.648687e+001
1.205628e+003, 4.658613e+001
1.206110e+003, 4.634750e+001
1.206592e+003, 4.632320e+001
1.207074e+003, 4.669050e+001
1.207557e+003, 4.702703e+001
1.208039e+003, 4.666154e+001
1.208521e+003, 4.600592e+001
1.209003e+003, 4.560260e+001
1.209485e+003, 4.550123e+001
1.209967e+003, 4.566077e+001
1.210449e+003, 4.620167e+001
1.210931e+003, 4.667042e+001
1.211413e+003, 4.700729e+001
1.211896e+003, 4.715619e+001
1.212378e+003, 4.698128e+001
1.212860e+003, 4.661158e+001
1.213342e+003, 4.619055e+001
1.213824e+003, 4.573457e+001
1.214306e+003, 4.539977e+001
1.214788e+003, 4.515308e+001
1.215270e+003, 4.515345e+001
1.215752e+003, 4.551539e+001
1.216235e+003, 4.595658e+001
1.216717e+003, 4.605582e+001
1.217199e+003, 4.598358e+001
1.217681e+003, 4.603461e+001
1.218163e+003, 4.627026e+001
1.218645e+003, 4.618753e+001
1.219127e+003, 4.561590e+001
1.219609e+003, 4.516283e+001
1.220092e+003, 4.502303e+001
1.220574e+003, 4.507750e+001
1.221056e+003, 4.522051e+001
1.221538e+003, 4.540505e+001
1.222020e+003, 4.558145e+001
1.222502e+003, 4.574675e+001
1.222984e+003, 4.579121e+001
1.223466e+003, 4.566524e+001
1.223948e+003, 4.557761e+001
1.224431e+003, 4.561813e+001
1.224913e+003, 4.570416e+001
1.225395e+003, 4.574539e+001
1.225877e+003, 4.574025e+001
1.226359e+003, 4.564712e+001
1.226841e+003, 4.540307e+001
1.227323e+003, 4.546068e+001
1.227805e+003, 4.591444e+001
1.228287e+003, 4.629397e+001
1.228770e+003, 4.640552e+001
1.229252e+003, 4.634174e+001
1.229734e+003, 4.615749e+001
1.230216e+003, 4.591380e+001
1.230698e+003, 4.566414e+001
1.231180e+003, 4.537716e+001
1.231662e+003, 4.537844e+001
1.232144e+003, 4.573606e+001
1.232627e+003, 4.598999e+001
1.233109e+003, 4.590869e+001
1.233591e+003, 4.566121e+001
1.234073e+003, 4.533272e+001
1.234555e+003, 4.502350e+001
1.235037e+003, 4.490480e+001
1.235519e+003, 4.504662e+001
1.236001e+003, 4.498719e+001
1.236484e+003, 4.470400e+001
1.236966e+003, 4.441581e+001
1.237448e+003, 4.412905e+001
1.237930e+003, 4.404819e+001
1.238412e+003, 4.462073e+001
1.238894e+003, 4.540336e+001
1.239376e+003, 4.574043e+001
1.239858e+003, 4.553370e+001
1.240340e+003, 4.554707e+001
1.240823e+003, 4.579499e+001
1.241305e+003, 4.590605e+001
1.241787e+003, 4.558363e+001
1.242269e+003, 4.518373e+001
1.242751e+003, 4.490178e+001
1.243233e+003, 4.478979e+001
1.243715e+003, 4.495232e+001
1.244197e+003, 4.542841e+001
1.244679e+003, 4.572201e+001
1.245162e+003, 4.583532e+001
1.245644e+003, 4.575623e+001
1.246126e+003, 4.521195e+001
1.246608e+003, 4.482899e+001
1.247090e+003, 4.533147e+001
1.247572e+003, 4.601849e+001
1.248054e+003, 4.604784e+001
1.248536e+003, 4.539032e+001
1.249019e+003, 4.494120e+001
1.249501e+003, 4.470007e+001
1.249983e+003, 4.465089e+001
1.250465e+003, 4.500005e+001
1.250947e+003, 4.527248e+001
1.251429e+003, 4.509027e+001
1.251911e+003, 4.481866e+001
1.252393e+003, 4.482037e+001
1.252875e+003, 4.507439e+001
1.253358e+003, 4.518608e+001
1.253840e+003, 4.517049e+001
1.254322e+003, 4.513869e+001
1.254804e+003, 4.524015e+001
1.255286e+003, 4.520564e+001
1.255768e+003, 4.472181e+001
1.256250e+003, 4.429514e+001
1.256732e+003, 4.450569e+001
1.257214e+003, 4.518666e+001
1.257697e+003, 4.523289e+001
1.258179e+003, 4.476836e+001
1.258661e+003, 4.438214e+001
1.259143e+003, 4.433383e+001
1.259625e+003, 4.441460e+001
1.260107e+003, 4.462736e+001
1.260589e+003, 4.486913e+001
1.261071e+003, 4.505725e+001
1.261554e+003, 4.520407e+001
1.262036e+003, 4.536237e+001
1.262518e+003, 4.551447e+001
1.263000e+003, 4.560496e+001
1.263482e+003, 4.556492e+001
1.263964e+003, 4.551986e+001
1.264446e+003, 4.544762e+001
1.264928e+003, 4.544629e+001
1.265411e+003, 4.571626e+001
1.265893e+003, 4.604944e+001
1.266375e+003, 4.592345e+001
1.266857e+003, 4.553001e+001
1.267339e+003, 4.540007e+001
1.267821e+003, 4.592369e+001
1.268303e+003, 4.625939e+001
1.268785e+003, 4.636960e+001
1.269267e+003, 4.637326e+001
1.269750e+003, 4.630017e+001
1.270232e+003, 4.622438e+001
1.270714e+003, 4.607369e+001
1.271196e+003, 4.602637e+001
1.271678e+003, 4.662770e+001
1.272160e+003, 4.850975e+001
1.272642e+003, 4.891696e+001
1.273124e+003, 4.762129e+001
1.273606e+003, 4.622696e+001
1.274089e+003, 4.581437e+001
1.274571e+003, 4.589130e+001
1.275053e+003, 4.628335e+001
1.275535e+003, 4.675668e+001
1.276017e+003, 4.688301e+001
1.276499e+003, 4.656413e+001
1.276981e+003, 4.656578e+001
1.277463e+003, 4.689778e+001
1.277946e+003, 4.719902e+001
1.278428e+003, 4.725673e+001
1.278910e+003, 4.718324e+001
1.279392e+003, 4.695869e+001
1.279874e+003, 4.669822e+001
1.280356e+003, 4.649647e+001
1.280838e+003, 4.635971e+001
1.281320e+003, 4.649875e+001
1.281802e+003, 4.688506e+001
1.282285e+003, 4.725267e+001
1.282767e+003, 4.740701e+001
1.283249e+003, 4.758753e+001
1.283731e+003, 4.793545e+001
1.284213e+003, 4.828421e+001
1.284695e+003, 4.850886e+001
1.285177e+003, 4.860799e+001
1.285659e+003, 4.847535e+001
1.286141e+003, 4.819271e+001
1.286624e+003, 4.809519e+001
1.287106e+003, 4.840683e+001
1.287588e+003, 4.883405e+001
1.288070e+003, 4.943014e+001
1.288552e+003, 4.991297e+001
1.289034e+003, 4.988979e+001
1.289516e+003, 4.965000e+001
1.289998e+003, 4.993916e+001
1.290481e+003, 5.055214e+001
1.290963e+003, 5.095443e+001
1.291445e+003, 5.081496e+001
1.291927e+003, 5.076593e+001
1.292409e+003, 5.082279e+001
1.292891e+003, 5.091893e+001
1.293373e+003, 5.090033e+001
1.293855e+003, 5.098087e+001
1.294338e+003, 5.161290e+001
1.294820e+003, 5.249000e+001
1.295302e+003, 5.298544e+001
1.295784e+003, 5.293978e+001
1.296266e+003, 5.304527e+001
1.296748e+003, 5.330515e+001
1.297230e+003, 5.365779e+001
1.297712e+003, 5.409820e+001
1.298194e+003, 5.457936e+001
1.298677e+003, 5.520248e+001
1.299159e+003, 5.573762e+001
1.299641e+003, 5.586567e+001
1.300123e+003, 5.557102e+001
1.300605e+003, 5.554482e+001
1.301087e+003, 5.576440e+001
1.301569e+003, 5.603158e+001
1.302051e+003, 5.623211e+001
1.302533e+003, 5.646124e+001
1.303016e+003, 5.675135e+001
##END=



