##NAMES=Gerstmannite
##RRUFFID=R130646
##IDEAL CHEMISTRY=Mn^2+^MgZn^2+^SiO_4_(OH)_2_
##LOCALITY=Sterling mine, Sterling Hill, Ogdensburg, Franklin Mining District, Sussex County, New Jersey, USA
##OWNER=RRUFF
##SOURCE=Rock Currier
##DESCRIPTION=Sprays of pale-pink bunched prismatic crystals associated with white willemite, brown sphalerite,  and dark-brown to black franklinite
##STATUS=The identification of this mineral is confirmed by single-crystal X-ray diffraction and chemical analysis.
##URL=rruff.info/R130646
##MEASURED CHEMISTRY=(Mn_0.80_Mg_0.20_)Mg_1.00_Zn_1.03_Si_0.99_O_4_(OH_1.42_F_0.58_) ;(Probed together with R170038)
8.806445e+001, 2.190876e+003
8.854657e+001, 2.145146e+003
8.902869e+001, 2.129361e+003
8.951080e+001, 2.157303e+003
8.999292e+001, 2.208904e+003
9.047504e+001, 2.266696e+003
9.095715e+001, 2.327812e+003
9.143927e+001, 2.388561e+003
9.192139e+001, 2.443536e+003
9.240350e+001, 2.492776e+003
9.288562e+001, 2.541362e+003
9.336774e+001, 2.575446e+003
9.384985e+001, 2.577820e+003
9.433197e+001, 2.545160e+003
9.481409e+001, 2.510112e+003
9.529620e+001, 2.469196e+003
9.577832e+001, 2.434264e+003
9.626044e+001, 2.407151e+003
9.674255e+001, 2.384916e+003
9.722467e+001, 2.363279e+003
9.770679e+001, 2.340500e+003
9.818890e+001, 2.321665e+003
9.867102e+001, 2.307720e+003
9.915314e+001, 2.296579e+003
9.963525e+001, 2.286561e+003
1.001174e+002, 2.276814e+003
1.005995e+002, 2.267417e+003
1.010816e+002, 2.258947e+003
1.015637e+002, 2.250817e+003
1.020458e+002, 2.243913e+003
1.025280e+002, 2.238369e+003
1.030101e+002, 2.233479e+003
1.034922e+002, 2.228005e+003
1.039743e+002, 2.220832e+003
1.044564e+002, 2.211874e+003
1.049385e+002, 2.206674e+003
1.054207e+002, 2.207397e+003
1.059028e+002, 2.208746e+003
1.063849e+002, 2.208280e+003
1.068670e+002, 2.205754e+003
1.073491e+002, 2.201659e+003
1.078312e+002, 2.195573e+003
1.083134e+002, 2.187670e+003
1.087955e+002, 2.181719e+003
1.092776e+002, 2.178497e+003
1.097597e+002, 2.177363e+003
1.102418e+002, 2.177974e+003
1.107239e+002, 2.181152e+003
1.112061e+002, 2.183978e+003
1.116882e+002, 2.184052e+003
1.121703e+002, 2.181742e+003
1.126524e+002, 2.177955e+003
1.131345e+002, 2.173859e+003
1.136166e+002, 2.169272e+003
1.140988e+002, 2.161213e+003
1.145809e+002, 2.146731e+003
1.150630e+002, 2.130452e+003
1.155451e+002, 2.114003e+003
1.160272e+002, 2.097761e+003
1.165093e+002, 2.082687e+003
1.169915e+002, 2.070233e+003
1.174736e+002, 2.061603e+003
1.179557e+002, 2.052505e+003
1.184378e+002, 2.041618e+003
1.189199e+002, 2.030851e+003
1.194020e+002, 2.021223e+003
1.198842e+002, 2.013135e+003
1.203663e+002, 2.006698e+003
1.208484e+002, 2.002141e+003
1.213305e+002, 2.000801e+003
1.218126e+002, 2.000120e+003
1.222947e+002, 2.000884e+003
1.227769e+002, 2.002058e+003
1.232590e+002, 2.002178e+003
1.237411e+002, 2.000378e+003
1.242232e+002, 1.997213e+003
1.247053e+002, 1.995284e+003
1.251874e+002, 1.994460e+003
1.256696e+002, 1.994617e+003
1.261517e+002, 1.996047e+003
1.266338e+002, 1.998557e+003
1.271159e+002, 2.001494e+003
1.275980e+002, 2.004984e+003
1.280801e+002, 2.008390e+003
1.285623e+002, 2.010092e+003
1.290444e+002, 2.010155e+003
1.295265e+002, 2.008423e+003
1.300086e+002, 2.004677e+003
1.304907e+002, 1.998866e+003
1.309728e+002, 1.991303e+003
1.314550e+002, 1.980765e+003
1.319371e+002, 1.968807e+003
1.324192e+002, 1.957506e+003
1.329013e+002, 1.947467e+003
1.333834e+002, 1.938699e+003
1.338655e+002, 1.931258e+003
1.343477e+002, 1.925327e+003
1.348298e+002, 1.920699e+003
1.353119e+002, 1.917756e+003
1.357940e+002, 1.915878e+003
1.362761e+002, 1.913919e+003
1.367582e+002, 1.910775e+003
1.372404e+002, 1.906392e+003
1.377225e+002, 1.903609e+003
1.382046e+002, 1.904778e+003
1.386867e+002, 1.905573e+003
1.391688e+002, 1.904632e+003
1.396509e+002, 1.902015e+003
1.401331e+002, 1.898486e+003
1.406152e+002, 1.894663e+003
1.410973e+002, 1.890270e+003
1.415794e+002, 1.886818e+003
1.420615e+002, 1.884789e+003
1.425436e+002, 1.883131e+003
1.430258e+002, 1.880865e+003
1.435079e+002, 1.877952e+003
1.439900e+002, 1.875465e+003
1.444721e+002, 1.874977e+003
1.449542e+002, 1.877555e+003
1.454363e+002, 1.879540e+003
1.459185e+002, 1.880496e+003
1.464006e+002, 1.880907e+003
1.468827e+002, 1.881222e+003
1.473648e+002, 1.881507e+003
1.478469e+002, 1.881928e+003
1.483290e+002, 1.882749e+003
1.488112e+002, 1.883859e+003
1.492933e+002, 1.885439e+003
1.497754e+002, 1.887968e+003
1.502575e+002, 1.891068e+003
1.507396e+002, 1.893633e+003
1.512217e+002, 1.895160e+003
1.517039e+002, 1.896166e+003
1.521860e+002, 1.897399e+003
1.526681e+002, 1.898918e+003
1.531502e+002, 1.900311e+003
1.536323e+002, 1.901449e+003
1.541144e+002, 1.902352e+003
1.545966e+002, 1.902516e+003
1.550787e+002, 1.901618e+003
1.555608e+002, 1.899966e+003
1.560429e+002, 1.897586e+003
1.565250e+002, 1.894458e+003
1.570071e+002, 1.890976e+003
1.574893e+002, 1.887555e+003
1.579714e+002, 1.884005e+003
1.584535e+002, 1.881086e+003
1.589356e+002, 1.879358e+003
1.594177e+002, 1.877969e+003
1.598998e+002, 1.876244e+003
1.603820e+002, 1.873933e+003
1.608641e+002, 1.871310e+003
1.613462e+002, 1.868997e+003
1.618283e+002, 1.866702e+003
1.623104e+002, 1.865248e+003
1.627925e+002, 1.865138e+003
1.632747e+002, 1.865679e+003
1.637568e+002, 1.866259e+003
1.642389e+002, 1.866589e+003
1.647210e+002, 1.866596e+003
1.652031e+002, 1.865918e+003
1.656852e+002, 1.863856e+003
1.661674e+002, 1.861926e+003
1.666495e+002, 1.859545e+003
1.671316e+002, 1.857519e+003
1.676137e+002, 1.857521e+003
1.680958e+002, 1.860828e+003
1.685779e+002, 1.866700e+003
1.690601e+002, 1.870390e+003
1.695422e+002, 1.870434e+003
1.700243e+002, 1.870301e+003
1.705064e+002, 1.871444e+003
1.709885e+002, 1.873628e+003
1.714706e+002, 1.875799e+003
1.719528e+002, 1.877205e+003
1.724349e+002, 1.878092e+003
1.729170e+002, 1.879592e+003
1.733991e+002, 1.882474e+003
1.738812e+002, 1.885350e+003
1.743633e+002, 1.887231e+003
1.748455e+002, 1.888109e+003
1.753276e+002, 1.888341e+003
1.758097e+002, 1.887843e+003
1.762918e+002, 1.886881e+003
1.767739e+002, 1.885920e+003
1.772560e+002, 1.885089e+003
1.777382e+002, 1.884285e+003
1.782203e+002, 1.883402e+003
1.787024e+002, 1.882483e+003
1.791845e+002, 1.881367e+003
1.796666e+002, 1.879979e+003
1.801487e+002, 1.878370e+003
1.806309e+002, 1.876627e+003
1.811130e+002, 1.874959e+003
1.815951e+002, 1.873075e+003
1.820772e+002, 1.869988e+003
1.825593e+002, 1.864831e+003
1.830414e+002, 1.859880e+003
1.835236e+002, 1.855575e+003
1.840057e+002, 1.851996e+003
1.844878e+002, 1.849345e+003
1.849699e+002, 1.847914e+003
1.854520e+002, 1.847462e+003
1.859341e+002, 1.846470e+003
1.864163e+002, 1.844651e+003
1.868984e+002, 1.842523e+003
1.873805e+002, 1.839865e+003
1.878626e+002, 1.837006e+003
1.883447e+002, 1.834370e+003
1.888268e+002, 1.832157e+003
1.893090e+002, 1.830402e+003
1.897911e+002, 1.829986e+003
1.902732e+002, 1.832957e+003
1.907553e+002, 1.835213e+003
1.912374e+002, 1.835130e+003
1.917195e+002, 1.833395e+003
1.922017e+002, 1.831714e+003
1.926838e+002, 1.831427e+003
1.931659e+002, 1.832611e+003
1.936480e+002, 1.833350e+003
1.941301e+002, 1.833486e+003
1.946122e+002, 1.833451e+003
1.950944e+002, 1.833455e+003
1.955765e+002, 1.833463e+003
1.960586e+002, 1.833292e+003
1.965407e+002, 1.832786e+003
1.970228e+002, 1.831908e+003
1.975049e+002, 1.830930e+003
1.979871e+002, 1.828824e+003
1.984692e+002, 1.827413e+003
1.989513e+002, 1.828400e+003
1.994334e+002, 1.831598e+003
1.999155e+002, 1.834812e+003
2.003976e+002, 1.836312e+003
2.008798e+002, 1.836077e+003
2.013619e+002, 1.835673e+003
2.018440e+002, 1.834950e+003
2.023261e+002, 1.834205e+003
2.028082e+002, 1.833685e+003
2.032903e+002, 1.833412e+003
2.037725e+002, 1.833337e+003
2.042546e+002, 1.833510e+003
2.047367e+002, 1.833883e+003
2.052188e+002, 1.834309e+003
2.057009e+002, 1.834805e+003
2.061830e+002, 1.835337e+003
2.066652e+002, 1.835880e+003
2.071473e+002, 1.836458e+003
2.076294e+002, 1.836978e+003
2.081115e+002, 1.837323e+003
2.085936e+002, 1.837574e+003
2.090757e+002, 1.837857e+003
2.095579e+002, 1.838276e+003
2.100400e+002, 1.838724e+003
2.105221e+002, 1.838855e+003
2.110042e+002, 1.838317e+003
2.114863e+002, 1.838282e+003
2.119685e+002, 1.840193e+003
2.124506e+002, 1.842778e+003
2.129327e+002, 1.844019e+003
2.134148e+002, 1.842393e+003
2.138969e+002, 1.839037e+003
2.143790e+002, 1.837643e+003
2.148612e+002, 1.839575e+003
2.153433e+002, 1.841279e+003
2.158254e+002, 1.842008e+003
2.163075e+002, 1.841676e+003
2.167896e+002, 1.840031e+003
2.172717e+002, 1.836724e+003
2.177539e+002, 1.832160e+003
2.182360e+002, 1.828141e+003
2.187181e+002, 1.824396e+003
2.192002e+002, 1.821728e+003
2.196823e+002, 1.821123e+003
2.201644e+002, 1.821463e+003
2.206466e+002, 1.821190e+003
2.211287e+002, 1.819317e+003
2.216108e+002, 1.816167e+003
2.220929e+002, 1.813611e+003
2.225750e+002, 1.812270e+003
2.230571e+002, 1.810887e+003
2.235393e+002, 1.809125e+003
2.240214e+002, 1.807227e+003
2.245035e+002, 1.805558e+003
2.249856e+002, 1.804347e+003
2.254677e+002, 1.803541e+003
2.259498e+002, 1.802836e+003
2.264320e+002, 1.802088e+003
2.269141e+002, 1.801617e+003
2.273962e+002, 1.801909e+003
2.278783e+002, 1.802451e+003
2.283604e+002, 1.802380e+003
2.288425e+002, 1.801145e+003
2.293247e+002, 1.799012e+003
2.298068e+002, 1.797506e+003
2.302889e+002, 1.796460e+003
2.307710e+002, 1.796158e+003
2.312531e+002, 1.797404e+003
2.317352e+002, 1.799372e+003
2.322174e+002, 1.800549e+003
2.326995e+002, 1.800033e+003
2.331816e+002, 1.798289e+003
2.336637e+002, 1.797396e+003
2.341458e+002, 1.797250e+003
2.346279e+002, 1.797844e+003
2.351101e+002, 1.799720e+003
2.355922e+002, 1.802320e+003
2.360743e+002, 1.804683e+003
2.365564e+002, 1.806439e+003
2.370385e+002, 1.807469e+003
2.375206e+002, 1.807166e+003
2.380028e+002, 1.804496e+003
2.384849e+002, 1.802401e+003
2.389670e+002, 1.802417e+003
2.394491e+002, 1.803757e+003
2.399312e+002, 1.804471e+003
2.404133e+002, 1.803453e+003
2.408955e+002, 1.801802e+003
2.413776e+002, 1.802123e+003
2.418597e+002, 1.805133e+003
2.423418e+002, 1.807930e+003
2.428239e+002, 1.808829e+003
2.433060e+002, 1.808519e+003
2.437882e+002, 1.809102e+003
2.442703e+002, 1.811761e+003
2.447524e+002, 1.814974e+003
2.452345e+002, 1.816119e+003
2.457166e+002, 1.814875e+003
2.461987e+002, 1.813556e+003
2.466809e+002, 1.813381e+003
2.471630e+002, 1.814049e+003
2.476451e+002, 1.814582e+003
2.481272e+002, 1.814736e+003
2.486093e+002, 1.814609e+003
2.490914e+002, 1.814219e+003
2.495736e+002, 1.813551e+003
2.500557e+002, 1.813128e+003
2.505378e+002, 1.813550e+003
2.510199e+002, 1.814541e+003
2.515020e+002, 1.814976e+003
2.519841e+002, 1.814557e+003
2.524663e+002, 1.813593e+003
2.529484e+002, 1.812316e+003
2.534305e+002, 1.810765e+003
2.539126e+002, 1.809199e+003
2.543947e+002, 1.808069e+003
2.548768e+002, 1.807148e+003
2.553590e+002, 1.805205e+003
2.558411e+002, 1.801185e+003
2.563232e+002, 1.797423e+003
2.568053e+002, 1.795812e+003
2.572874e+002, 1.795853e+003
2.577695e+002, 1.795754e+003
2.582516e+002, 1.794779e+003
2.587338e+002, 1.792854e+003
2.592159e+002, 1.789344e+003
2.596980e+002, 1.782722e+003
2.601801e+002, 1.776724e+003
2.606622e+002, 1.773887e+003
2.611443e+002, 1.773104e+003
2.616265e+002, 1.771885e+003
2.621086e+002, 1.768475e+003
2.625907e+002, 1.763394e+003
2.630728e+002, 1.759124e+003
2.635549e+002, 1.756010e+003
2.640370e+002, 1.753210e+003
2.645192e+002, 1.750605e+003
2.650013e+002, 1.747992e+003
2.654834e+002, 1.744986e+003
2.659655e+002, 1.741192e+003
2.664476e+002, 1.736965e+003
2.669297e+002, 1.733573e+003
2.674119e+002, 1.731632e+003
2.678940e+002, 1.729586e+003
2.683761e+002, 1.726787e+003
2.688582e+002, 1.723692e+003
2.693403e+002, 1.720885e+003
2.698224e+002, 1.718705e+003
2.703046e+002, 1.716888e+003
2.707867e+002, 1.714622e+003
2.712688e+002, 1.711325e+003
2.717509e+002, 1.708676e+003
2.722330e+002, 1.707352e+003
2.727151e+002, 1.706578e+003
2.731973e+002, 1.705610e+003
2.736794e+002, 1.704152e+003
2.741615e+002, 1.702336e+003
2.746436e+002, 1.700358e+003
2.751257e+002, 1.697914e+003
2.756078e+002, 1.695914e+003
2.760900e+002, 1.694714e+003
2.765721e+002, 1.693763e+003
2.770542e+002, 1.692431e+003
2.775363e+002, 1.690577e+003
2.780184e+002, 1.688841e+003
2.785005e+002, 1.688487e+003
2.789827e+002, 1.690558e+003
2.794648e+002, 1.691665e+003
2.799469e+002, 1.691173e+003
2.804290e+002, 1.690169e+003
2.809111e+002, 1.689354e+003
2.813932e+002, 1.688859e+003
2.818754e+002, 1.688368e+003
2.823575e+002, 1.687355e+003
2.828396e+002, 1.685360e+003
2.833217e+002, 1.684230e+003
2.838038e+002, 1.684722e+003
2.842859e+002, 1.685342e+003
2.847681e+002, 1.685215e+003
2.852502e+002, 1.684365e+003
2.857323e+002, 1.683434e+003
2.862144e+002, 1.683160e+003
2.866965e+002, 1.683775e+003
2.871786e+002, 1.683684e+003
2.876608e+002, 1.681916e+003
2.881429e+002, 1.680413e+003
2.886250e+002, 1.680486e+003
2.891071e+002, 1.681611e+003
2.895892e+002, 1.682121e+003
2.900714e+002, 1.680467e+003
2.905535e+002, 1.676601e+003
2.910356e+002, 1.674405e+003
2.915177e+002, 1.675330e+003
2.919998e+002, 1.676407e+003
2.924819e+002, 1.677041e+003
2.929641e+002, 1.677230e+003
2.934462e+002, 1.677120e+003
2.939283e+002, 1.676791e+003
2.944104e+002, 1.676258e+003
2.948925e+002, 1.675587e+003
2.953746e+002, 1.674670e+003
2.958568e+002, 1.673721e+003
2.963389e+002, 1.672700e+003
2.968210e+002, 1.671670e+003
2.973031e+002, 1.670574e+003
2.977852e+002, 1.669363e+003
2.982673e+002, 1.668328e+003
2.987495e+002, 1.668379e+003
2.992316e+002, 1.671503e+003
2.997137e+002, 1.673191e+003
3.001958e+002, 1.672760e+003
3.006779e+002, 1.671070e+003
3.011600e+002, 1.668707e+003
3.016422e+002, 1.665929e+003
3.021243e+002, 1.663117e+003
3.026064e+002, 1.660983e+003
3.030885e+002, 1.659812e+003
3.035706e+002, 1.658910e+003
3.040527e+002, 1.658581e+003
3.045349e+002, 1.658297e+003
3.050170e+002, 1.657516e+003
3.054991e+002, 1.656222e+003
3.059812e+002, 1.655004e+003
3.064633e+002, 1.654687e+003
3.069454e+002, 1.655821e+003
3.074276e+002, 1.655895e+003
3.079097e+002, 1.653786e+003
3.083918e+002, 1.651777e+003
3.088739e+002, 1.651218e+003
3.093560e+002, 1.652019e+003
3.098381e+002, 1.653284e+003
3.103203e+002, 1.654327e+003
3.108024e+002, 1.655177e+003
3.112845e+002, 1.655267e+003
3.117666e+002, 1.654019e+003
3.122487e+002, 1.652732e+003
3.127308e+002, 1.651793e+003
3.132130e+002, 1.651164e+003
3.136951e+002, 1.650753e+003
3.141772e+002, 1.650554e+003
3.146593e+002, 1.650448e+003
3.151414e+002, 1.649611e+003
3.156235e+002, 1.647096e+003
3.161057e+002, 1.644914e+003
3.165878e+002, 1.642990e+003
3.170699e+002, 1.641691e+003
3.175520e+002, 1.641801e+003
3.180341e+002, 1.643689e+003
3.185162e+002, 1.646433e+003
3.189984e+002, 1.647660e+003
3.194805e+002, 1.646117e+003
3.199626e+002, 1.644546e+003
3.204447e+002, 1.642646e+003
3.209268e+002, 1.640929e+003
3.214089e+002, 1.639972e+003
3.218911e+002, 1.639892e+003
3.223732e+002, 1.640241e+003
3.228553e+002, 1.640424e+003
3.233374e+002, 1.640668e+003
3.238195e+002, 1.640102e+003
3.243016e+002, 1.638254e+003
3.247838e+002, 1.636096e+003
3.252659e+002, 1.634097e+003
3.257480e+002, 1.632359e+003
3.262301e+002, 1.630901e+003
3.267122e+002, 1.629752e+003
3.271943e+002, 1.628958e+003
3.276765e+002, 1.628098e+003
3.281586e+002, 1.626700e+003
3.286407e+002, 1.625683e+003
3.291228e+002, 1.625990e+003
3.296049e+002, 1.626956e+003
3.300870e+002, 1.627034e+003
3.305692e+002, 1.625073e+003
3.310513e+002, 1.621411e+003
3.315334e+002, 1.618712e+003
3.320155e+002, 1.617455e+003
3.324976e+002, 1.616685e+003
3.329797e+002, 1.616664e+003
3.334619e+002, 1.616948e+003
3.339440e+002, 1.616973e+003
3.344261e+002, 1.616490e+003
3.349082e+002, 1.615740e+003
3.353904e+002, 1.615317e+003
3.358725e+002, 1.615858e+003
3.363546e+002, 1.615737e+003
3.368367e+002, 1.614628e+003
3.373188e+002, 1.613088e+003
3.378009e+002, 1.611406e+003
3.382831e+002, 1.609726e+003
3.387652e+002, 1.608234e+003
3.392473e+002, 1.607225e+003
3.397294e+002, 1.606879e+003
3.402115e+002, 1.606459e+003
3.406936e+002, 1.605907e+003
3.411758e+002, 1.605333e+003
3.416579e+002, 1.604621e+003
3.421400e+002, 1.603890e+003
3.426221e+002, 1.603473e+003
3.431042e+002, 1.603674e+003
3.435863e+002, 1.604484e+003
3.440685e+002, 1.605407e+003
3.445506e+002, 1.607167e+003
3.450327e+002, 1.608245e+003
3.455148e+002, 1.607933e+003
3.459969e+002, 1.606765e+003
3.464790e+002, 1.605492e+003
3.469612e+002, 1.604477e+003
3.474433e+002, 1.603799e+003
3.479254e+002, 1.603753e+003
3.484075e+002, 1.604845e+003
3.488896e+002, 1.605766e+003
3.493717e+002, 1.606341e+003
3.498539e+002, 1.606676e+003
3.503360e+002, 1.606869e+003
3.508181e+002, 1.606948e+003
3.513002e+002, 1.606882e+003
3.517823e+002, 1.606495e+003
3.522644e+002, 1.605492e+003
3.527466e+002, 1.605166e+003
3.532287e+002, 1.606341e+003
3.537108e+002, 1.607585e+003
3.541929e+002, 1.608012e+003
3.546750e+002, 1.607727e+003
3.551571e+002, 1.607529e+003
3.556393e+002, 1.608205e+003
3.561214e+002, 1.609753e+003
3.566035e+002, 1.611071e+003
3.570856e+002, 1.612344e+003
3.575677e+002, 1.613109e+003
3.580498e+002, 1.613051e+003
3.585320e+002, 1.612432e+003
3.590141e+002, 1.611631e+003
3.594962e+002, 1.610758e+003
3.599783e+002, 1.609976e+003
3.604604e+002, 1.609708e+003
3.609425e+002, 1.609917e+003
3.614247e+002, 1.610749e+003
3.619068e+002, 1.612868e+003
3.623889e+002, 1.615238e+003
3.628710e+002, 1.616777e+003
3.633531e+002, 1.617163e+003
3.638352e+002, 1.617334e+003
3.643174e+002, 1.618451e+003
3.647995e+002, 1.620600e+003
3.652816e+002, 1.622820e+003
3.657637e+002, 1.625133e+003
3.662458e+002, 1.627291e+003
3.667279e+002, 1.629226e+003
3.672101e+002, 1.630901e+003
3.676922e+002, 1.632171e+003
3.681743e+002, 1.632633e+003
3.686564e+002, 1.632533e+003
3.691385e+002, 1.632997e+003
3.696206e+002, 1.634224e+003
3.701028e+002, 1.635748e+003
3.705849e+002, 1.637522e+003
3.710670e+002, 1.639357e+003
3.715491e+002, 1.640806e+003
3.720312e+002, 1.641308e+003
3.725133e+002, 1.641783e+003
3.729955e+002, 1.643756e+003
3.734776e+002, 1.647382e+003
3.739597e+002, 1.650955e+003
3.744418e+002, 1.653659e+003
3.749239e+002, 1.656006e+003
3.754060e+002, 1.658499e+003
3.758882e+002, 1.661075e+003
3.763703e+002, 1.664224e+003
3.768524e+002, 1.668647e+003
3.773345e+002, 1.674025e+003
3.778166e+002, 1.678885e+003
3.782987e+002, 1.682405e+003
3.787809e+002, 1.686247e+003
3.792630e+002, 1.692565e+003
3.797451e+002, 1.701063e+003
3.802272e+002, 1.709657e+003
3.807093e+002, 1.717547e+003
3.811914e+002, 1.725188e+003
3.816736e+002, 1.732829e+003
3.821557e+002, 1.740399e+003
3.826378e+002, 1.749176e+003
3.831199e+002, 1.760758e+003
3.836020e+002, 1.774352e+003
3.840841e+002, 1.786211e+003
3.845663e+002, 1.794913e+003
3.850484e+002, 1.803262e+003
3.855305e+002, 1.813177e+003
3.860126e+002, 1.824109e+003
3.864947e+002, 1.834649e+003
3.869768e+002, 1.844497e+003
3.874590e+002, 1.853043e+003
3.879411e+002, 1.858764e+003
3.884232e+002, 1.861870e+003
3.889053e+002, 1.862522e+003
3.893874e+002, 1.860770e+003
3.898695e+002, 1.856561e+003
3.903517e+002, 1.849508e+003
3.908338e+002, 1.839559e+003
3.913159e+002, 1.827818e+003
3.917980e+002, 1.815198e+003
3.922801e+002, 1.801604e+003
3.927622e+002, 1.787582e+003
3.932444e+002, 1.772942e+003
3.937265e+002, 1.758109e+003
3.942086e+002, 1.742686e+003
3.946907e+002, 1.727241e+003
3.951728e+002, 1.712953e+003
3.956549e+002, 1.700669e+003
3.961371e+002, 1.689932e+003
3.966192e+002, 1.679349e+003
3.971013e+002, 1.667525e+003
3.975834e+002, 1.657650e+003
3.980655e+002, 1.650488e+003
3.985476e+002, 1.645154e+003
3.990298e+002, 1.641018e+003
3.995119e+002, 1.637835e+003
3.999940e+002, 1.635322e+003
4.004761e+002, 1.633149e+003
4.009582e+002, 1.631414e+003
4.014403e+002, 1.629693e+003
4.019225e+002, 1.627590e+003
4.024046e+002, 1.625867e+003
4.028867e+002, 1.624934e+003
4.033688e+002, 1.624685e+003
4.038509e+002, 1.624758e+003
4.043330e+002, 1.624881e+003
4.048152e+002, 1.625134e+003
4.052973e+002, 1.625937e+003
4.057794e+002, 1.627114e+003
4.062615e+002, 1.629206e+003
4.067436e+002, 1.632649e+003
4.072257e+002, 1.636774e+003
4.077079e+002, 1.640920e+003
4.081900e+002, 1.644900e+003
4.086721e+002, 1.648900e+003
4.091542e+002, 1.653367e+003
4.096363e+002, 1.658573e+003
4.101184e+002, 1.662913e+003
4.106006e+002, 1.665907e+003
4.110827e+002, 1.668223e+003
4.115648e+002, 1.670460e+003
4.120469e+002, 1.672389e+003
4.125290e+002, 1.673174e+003
4.130111e+002, 1.672282e+003
4.134933e+002, 1.669852e+003
4.139754e+002, 1.666062e+003
4.144575e+002, 1.660396e+003
4.149396e+002, 1.654777e+003
4.154217e+002, 1.650328e+003
4.159038e+002, 1.646383e+003
4.163860e+002, 1.642312e+003
4.168681e+002, 1.638061e+003
4.173502e+002, 1.633354e+003
4.178323e+002, 1.627889e+003
4.183144e+002, 1.621699e+003
4.187965e+002, 1.615153e+003
4.192787e+002, 1.607883e+003
4.197608e+002, 1.600918e+003
4.202429e+002, 1.595600e+003
4.207250e+002, 1.591783e+003
4.212071e+002, 1.587836e+003
4.216892e+002, 1.582534e+003
4.221714e+002, 1.577060e+003
4.226535e+002, 1.573310e+003
4.231356e+002, 1.571421e+003
4.236177e+002, 1.569545e+003
4.240998e+002, 1.566199e+003
4.245819e+002, 1.561926e+003
4.250641e+002, 1.559115e+003
4.255462e+002, 1.559155e+003
4.260283e+002, 1.558892e+003
4.265104e+002, 1.556209e+003
4.269925e+002, 1.552387e+003
4.274746e+002, 1.550333e+003
4.279568e+002, 1.551186e+003
4.284389e+002, 1.552678e+003
4.289210e+002, 1.551318e+003
4.294031e+002, 1.545832e+003
4.298852e+002, 1.540786e+003
4.303673e+002, 1.535800e+003
4.308495e+002, 1.531531e+003
4.313316e+002, 1.528665e+003
4.318137e+002, 1.527001e+003
4.322958e+002, 1.525695e+003
4.327779e+002, 1.524181e+003
4.332600e+002, 1.522448e+003
4.337422e+002, 1.520465e+003
4.342243e+002, 1.517731e+003
4.347064e+002, 1.515325e+003
4.351885e+002, 1.513537e+003
4.356706e+002, 1.512061e+003
4.361527e+002, 1.510479e+003
4.366349e+002, 1.508696e+003
4.371170e+002, 1.507112e+003
4.375991e+002, 1.506489e+003
4.380812e+002, 1.507362e+003
4.385633e+002, 1.507199e+003
4.390454e+002, 1.505592e+003
4.395276e+002, 1.503308e+003
4.400097e+002, 1.500026e+003
4.404918e+002, 1.496310e+003
4.409739e+002, 1.493242e+003
4.414560e+002, 1.491585e+003
4.419381e+002, 1.490943e+003
4.424203e+002, 1.490196e+003
4.429024e+002, 1.489370e+003
4.433845e+002, 1.488402e+003
4.438666e+002, 1.487082e+003
4.443487e+002, 1.485742e+003
4.448308e+002, 1.484697e+003
4.453130e+002, 1.484004e+003
4.457951e+002, 1.483340e+003
4.462772e+002, 1.482326e+003
4.467593e+002, 1.481072e+003
4.472414e+002, 1.480159e+003
4.477235e+002, 1.479676e+003
4.482057e+002, 1.479497e+003
4.486878e+002, 1.480020e+003
4.491699e+002, 1.480792e+003
4.496520e+002, 1.480610e+003
4.501341e+002, 1.478404e+003
4.506162e+002, 1.475826e+003
4.510984e+002, 1.474493e+003
4.515805e+002, 1.474224e+003
4.520626e+002, 1.473856e+003
4.525447e+002, 1.472825e+003
4.530268e+002, 1.471582e+003
4.535089e+002, 1.471099e+003
4.539911e+002, 1.471539e+003
4.544732e+002, 1.471738e+003
4.549553e+002, 1.471210e+003
4.554374e+002, 1.470442e+003
4.559195e+002, 1.469979e+003
4.564016e+002, 1.469854e+003
4.568838e+002, 1.469744e+003
4.573659e+002, 1.469424e+003
4.578480e+002, 1.468888e+003
4.583301e+002, 1.468007e+003
4.588122e+002, 1.466105e+003
4.592943e+002, 1.464703e+003
4.597765e+002, 1.464683e+003
4.602586e+002, 1.465187e+003
4.607407e+002, 1.464933e+003
4.612228e+002, 1.463540e+003
4.617049e+002, 1.461857e+003
4.621870e+002, 1.461240e+003
4.626692e+002, 1.462271e+003
4.631513e+002, 1.462536e+003
4.636334e+002, 1.461444e+003
4.641155e+002, 1.460237e+003
4.645976e+002, 1.459429e+003
4.650797e+002, 1.458933e+003
4.655619e+002, 1.458389e+003
4.660440e+002, 1.457538e+003
4.665261e+002, 1.456602e+003
4.670082e+002, 1.456307e+003
4.674903e+002, 1.457009e+003
4.679724e+002, 1.457370e+003
4.684546e+002, 1.456924e+003
4.689367e+002, 1.456097e+003
4.694188e+002, 1.455015e+003
4.699009e+002, 1.453730e+003
4.703830e+002, 1.452619e+003
4.708651e+002, 1.451874e+003
4.713473e+002, 1.451513e+003
4.718294e+002, 1.451845e+003
4.723115e+002, 1.453235e+003
4.727936e+002, 1.454199e+003
4.732757e+002, 1.453295e+003
4.737578e+002, 1.451359e+003
4.742400e+002, 1.449925e+003
4.747221e+002, 1.449250e+003
4.752042e+002, 1.449041e+003
4.756863e+002, 1.449390e+003
4.761684e+002, 1.450065e+003
4.766505e+002, 1.450465e+003
4.771327e+002, 1.450466e+003
4.776148e+002, 1.449960e+003
4.780969e+002, 1.448700e+003
4.785790e+002, 1.446584e+003
4.790611e+002, 1.444474e+003
4.795432e+002, 1.442010e+003
4.800254e+002, 1.439945e+003
4.805075e+002, 1.439086e+003
4.809896e+002, 1.439076e+003
4.814717e+002, 1.438713e+003
4.819538e+002, 1.437267e+003
4.824359e+002, 1.435349e+003
4.829181e+002, 1.434738e+003
4.834002e+002, 1.437119e+003
4.838823e+002, 1.438356e+003
4.843644e+002, 1.437559e+003
4.848465e+002, 1.436296e+003
4.853286e+002, 1.435633e+003
4.858108e+002, 1.435654e+003
4.862929e+002, 1.435894e+003
4.867750e+002, 1.435951e+003
4.872571e+002, 1.435860e+003
4.877392e+002, 1.435976e+003
4.882213e+002, 1.436350e+003
4.887035e+002, 1.436843e+003
4.891856e+002, 1.437518e+003
4.896677e+002, 1.438207e+003
4.901498e+002, 1.438856e+003
4.906319e+002, 1.439446e+003
4.911140e+002, 1.439612e+003
4.915962e+002, 1.438730e+003
4.920783e+002, 1.436953e+003
4.925604e+002, 1.435534e+003
4.930425e+002, 1.434535e+003
4.935246e+002, 1.434052e+003
4.940067e+002, 1.434587e+003
4.944889e+002, 1.435684e+003
4.949710e+002, 1.436309e+003
4.954531e+002, 1.436115e+003
4.959352e+002, 1.435518e+003
4.964173e+002, 1.434656e+003
4.968994e+002, 1.433632e+003
4.973816e+002, 1.432855e+003
4.978637e+002, 1.432523e+003
4.983458e+002, 1.432309e+003
4.988279e+002, 1.431676e+003
4.993100e+002, 1.430461e+003
4.997921e+002, 1.429677e+003
5.002743e+002, 1.429612e+003
5.007564e+002, 1.429801e+003
5.012385e+002, 1.430180e+003
5.017206e+002, 1.430568e+003
5.022027e+002, 1.430512e+003
5.026848e+002, 1.429736e+003
5.031670e+002, 1.428459e+003
5.036491e+002, 1.427301e+003
5.041312e+002, 1.425887e+003
5.046133e+002, 1.425252e+003
5.050954e+002, 1.425556e+003
5.055775e+002, 1.426455e+003
5.060597e+002, 1.428007e+003
5.065418e+002, 1.430000e+003
5.070239e+002, 1.431845e+003
5.075060e+002, 1.433079e+003
5.079881e+002, 1.433791e+003
5.084702e+002, 1.434443e+003
5.089524e+002, 1.435202e+003
5.094345e+002, 1.435518e+003
5.099166e+002, 1.434502e+003
5.103987e+002, 1.433380e+003
5.108808e+002, 1.433267e+003
5.113629e+002, 1.434338e+003
5.118451e+002, 1.436009e+003
5.123271e+002, 1.438487e+003
5.128093e+002, 1.441212e+003
5.132914e+002, 1.442395e+003
5.137735e+002, 1.441687e+003
5.142556e+002, 1.440440e+003
5.147377e+002, 1.439623e+003
5.152198e+002, 1.438959e+003
5.157020e+002, 1.437615e+003
5.161841e+002, 1.435920e+003
5.166662e+002, 1.433038e+003
5.171483e+002, 1.427853e+003
5.176304e+002, 1.421442e+003
5.181125e+002, 1.415286e+003
5.185947e+002, 1.409771e+003
5.190768e+002, 1.405245e+003
5.195589e+002, 1.402203e+003
5.200410e+002, 1.400824e+003
5.205231e+002, 1.399069e+003
5.210052e+002, 1.396647e+003
5.214874e+002, 1.394234e+003
5.219695e+002, 1.391888e+003
5.224516e+002, 1.389724e+003
5.229337e+002, 1.388014e+003
5.234158e+002, 1.386826e+003
5.238979e+002, 1.385778e+003
5.243801e+002, 1.384198e+003
5.248622e+002, 1.381922e+003
5.253443e+002, 1.380055e+003
5.258264e+002, 1.379053e+003
5.263085e+002, 1.378006e+003
5.267906e+002, 1.376563e+003
5.272728e+002, 1.374793e+003
5.277549e+002, 1.372731e+003
5.282370e+002, 1.370151e+003
5.287191e+002, 1.367812e+003
5.292012e+002, 1.366925e+003
5.296833e+002, 1.367381e+003
5.301655e+002, 1.367653e+003
5.306476e+002, 1.367415e+003
5.311297e+002, 1.366779e+003
5.316118e+002, 1.365788e+003
5.320939e+002, 1.364482e+003
5.325760e+002, 1.363018e+003
5.330582e+002, 1.360943e+003
5.335403e+002, 1.359134e+003
5.340224e+002, 1.358380e+003
5.345045e+002, 1.358477e+003
5.349866e+002, 1.358837e+003
5.354688e+002, 1.359246e+003
5.359509e+002, 1.359560e+003
5.364330e+002, 1.359483e+003
5.369151e+002, 1.358828e+003
5.373972e+002, 1.358228e+003
5.378793e+002, 1.357772e+003
5.383615e+002, 1.357288e+003
5.388436e+002, 1.356610e+003
5.393257e+002, 1.355829e+003
5.398078e+002, 1.355135e+003
5.402899e+002, 1.354626e+003
5.407720e+002, 1.354299e+003
5.412542e+002, 1.354210e+003
5.417363e+002, 1.354477e+003
5.422184e+002, 1.354557e+003
5.427005e+002, 1.354505e+003
5.431826e+002, 1.354087e+003
5.436647e+002, 1.352832e+003
5.441469e+002, 1.351002e+003
5.446290e+002, 1.349572e+003
5.451111e+002, 1.349063e+003
5.455932e+002, 1.349203e+003
5.460753e+002, 1.350028e+003
5.465574e+002, 1.351478e+003
5.470396e+002, 1.351790e+003
5.475217e+002, 1.349952e+003
5.480038e+002, 1.347148e+003
5.484859e+002, 1.345130e+003
5.489680e+002, 1.343901e+003
5.494501e+002, 1.342988e+003
5.499323e+002, 1.342751e+003
5.504144e+002, 1.342449e+003
5.508965e+002, 1.341421e+003
5.513786e+002, 1.339792e+003
5.518607e+002, 1.337993e+003
5.523428e+002, 1.336210e+003
5.528250e+002, 1.334655e+003
5.533071e+002, 1.333901e+003
5.537892e+002, 1.334573e+003
5.542713e+002, 1.334932e+003
5.547534e+002, 1.334821e+003
5.552355e+002, 1.334587e+003
5.557177e+002, 1.334556e+003
5.561998e+002, 1.334581e+003
5.566819e+002, 1.334126e+003
5.571640e+002, 1.332680e+003
5.576461e+002, 1.330989e+003
5.581282e+002, 1.330966e+003
5.586104e+002, 1.332967e+003
5.590925e+002, 1.334317e+003
5.595746e+002, 1.334116e+003
5.600567e+002, 1.333266e+003
5.605388e+002, 1.332224e+003
5.610209e+002, 1.331126e+003
5.615031e+002, 1.330914e+003
5.619852e+002, 1.332543e+003
5.624673e+002, 1.334790e+003
5.629494e+002, 1.336180e+003
5.634315e+002, 1.336965e+003
5.639136e+002, 1.338625e+003
5.643958e+002, 1.341969e+003
5.648779e+002, 1.345885e+003
5.653600e+002, 1.348598e+003
5.658421e+002, 1.350046e+003
5.663242e+002, 1.350088e+003
5.668063e+002, 1.347316e+003
5.672885e+002, 1.344488e+003
5.677706e+002, 1.342763e+003
5.682527e+002, 1.342237e+003
5.687348e+002, 1.343035e+003
5.692169e+002, 1.345256e+003
5.696990e+002, 1.348078e+003
5.701812e+002, 1.349730e+003
5.706633e+002, 1.349699e+003
5.711454e+002, 1.350587e+003
5.716275e+002, 1.353581e+003
5.721096e+002, 1.356531e+003
5.725917e+002, 1.358077e+003
5.730739e+002, 1.358771e+003
5.735560e+002, 1.359962e+003
5.740381e+002, 1.362318e+003
5.745202e+002, 1.365112e+003
5.750023e+002, 1.367560e+003
5.754844e+002, 1.369722e+003
5.759666e+002, 1.371943e+003
5.764487e+002, 1.374373e+003
5.769308e+002, 1.376689e+003
5.774129e+002, 1.378537e+003
5.778950e+002, 1.379894e+003
5.783771e+002, 1.381173e+003
5.788593e+002, 1.382471e+003
5.793414e+002, 1.383594e+003
5.798235e+002, 1.384781e+003
5.803056e+002, 1.385629e+003
5.807877e+002, 1.385233e+003
5.812698e+002, 1.383403e+003
5.817520e+002, 1.381321e+003
5.822341e+002, 1.380692e+003
5.827162e+002, 1.381826e+003
5.831984e+002, 1.381308e+003
5.836805e+002, 1.378029e+003
5.841626e+002, 1.374391e+003
5.846447e+002, 1.370704e+003
5.851268e+002, 1.367198e+003
5.856089e+002, 1.364333e+003
5.860911e+002, 1.362240e+003
5.865732e+002, 1.359986e+003
5.870553e+002, 1.356439e+003
5.875374e+002, 1.351975e+003
5.880195e+002, 1.348198e+003
5.885016e+002, 1.345345e+003
5.889838e+002, 1.342571e+003
5.894659e+002, 1.339168e+003
5.899480e+002, 1.335520e+003
5.904301e+002, 1.332731e+003
5.909122e+002, 1.331098e+003
5.913943e+002, 1.329712e+003
5.918765e+002, 1.328560e+003
5.923586e+002, 1.327356e+003
5.928407e+002, 1.325535e+003
5.933228e+002, 1.323224e+003
5.938049e+002, 1.321355e+003
5.942870e+002, 1.320678e+003
5.947692e+002, 1.320895e+003
5.952513e+002, 1.320575e+003
5.957334e+002, 1.319393e+003
5.962155e+002, 1.318235e+003
5.966976e+002, 1.316884e+003
5.971797e+002, 1.315831e+003
5.976619e+002, 1.315775e+003
5.981440e+002, 1.316419e+003
5.986261e+002, 1.316490e+003
5.991082e+002, 1.314818e+003
5.995903e+002, 1.312472e+003
6.000724e+002, 1.311641e+003
6.005546e+002, 1.312327e+003
6.010367e+002, 1.312534e+003
6.015188e+002, 1.311527e+003
6.020009e+002, 1.309933e+003
6.024830e+002, 1.308609e+003
6.029651e+002, 1.307552e+003
6.034473e+002, 1.305856e+003
6.039294e+002, 1.303129e+003
6.044115e+002, 1.299987e+003
6.048936e+002, 1.296202e+003
6.053757e+002, 1.292402e+003
6.058578e+002, 1.290043e+003
6.063400e+002, 1.289631e+003
6.068221e+002, 1.289805e+003
6.073042e+002, 1.288494e+003
6.077863e+002, 1.285301e+003
6.082684e+002, 1.283315e+003
6.087505e+002, 1.283799e+003
6.092327e+002, 1.284075e+003
6.097148e+002, 1.283267e+003
6.101969e+002, 1.281884e+003
6.106790e+002, 1.280625e+003
6.111611e+002, 1.279691e+003
6.116432e+002, 1.278599e+003
6.121254e+002, 1.276654e+003
6.126075e+002, 1.274204e+003
6.130896e+002, 1.272386e+003
6.135717e+002, 1.271308e+003
6.140538e+002, 1.270598e+003
6.145359e+002, 1.270208e+003
6.150181e+002, 1.269937e+003
6.155002e+002, 1.269156e+003
6.159823e+002, 1.267479e+003
6.164644e+002, 1.266188e+003
6.169465e+002, 1.265977e+003
6.174286e+002, 1.265923e+003
6.179108e+002, 1.265012e+003
6.183929e+002, 1.263464e+003
6.188750e+002, 1.262415e+003
6.193571e+002, 1.262656e+003
6.198392e+002, 1.263499e+003
6.203214e+002, 1.262987e+003
6.208035e+002, 1.260500e+003
6.212856e+002, 1.258589e+003
6.217677e+002, 1.258228e+003
6.222498e+002, 1.257843e+003
6.227319e+002, 1.256191e+003
6.232141e+002, 1.253876e+003
6.236962e+002, 1.252591e+003
6.241783e+002, 1.253535e+003
6.246604e+002, 1.254719e+003
6.251425e+002, 1.253810e+003
6.256246e+002, 1.251492e+003
6.261068e+002, 1.250168e+003
6.265889e+002, 1.250428e+003
6.270710e+002, 1.251096e+003
6.275531e+002, 1.251109e+003
6.280352e+002, 1.250497e+003
6.285173e+002, 1.249942e+003
6.289995e+002, 1.249595e+003
6.294816e+002, 1.249103e+003
6.299637e+002, 1.248175e+003
6.304458e+002, 1.247198e+003
6.309279e+002, 1.246471e+003
6.314100e+002, 1.246074e+003
6.318922e+002, 1.246078e+003
6.323743e+002, 1.246730e+003
6.328564e+002, 1.247674e+003
6.333385e+002, 1.247345e+003
6.338206e+002, 1.245257e+003
6.343027e+002, 1.243896e+003
6.347849e+002, 1.244514e+003
6.352670e+002, 1.245618e+003
6.357491e+002, 1.245649e+003
6.362312e+002, 1.244721e+003
6.367133e+002, 1.244057e+003
6.371954e+002, 1.244811e+003
6.376776e+002, 1.245281e+003
6.381597e+002, 1.243621e+003
6.386418e+002, 1.240634e+003
6.391239e+002, 1.238455e+003
6.396060e+002, 1.237794e+003
6.400881e+002, 1.237528e+003
6.405703e+002, 1.236223e+003
6.410524e+002, 1.233771e+003
6.415345e+002, 1.231688e+003
6.420166e+002, 1.229870e+003
6.424987e+002, 1.228624e+003
6.429808e+002, 1.228365e+003
6.434630e+002, 1.228517e+003
6.439451e+002, 1.228516e+003
6.444272e+002, 1.228257e+003
6.449093e+002, 1.227959e+003
6.453914e+002, 1.227975e+003
6.458735e+002, 1.228034e+003
6.463557e+002, 1.227309e+003
6.468378e+002, 1.225750e+003
6.473199e+002, 1.224359e+003
6.478020e+002, 1.223407e+003
6.482841e+002, 1.223020e+003
6.487662e+002, 1.223702e+003
6.492484e+002, 1.225840e+003
6.497305e+002, 1.226813e+003
6.502126e+002, 1.225523e+003
6.506947e+002, 1.223904e+003
6.511768e+002, 1.222915e+003
6.516589e+002, 1.222372e+003
6.521411e+002, 1.221809e+003
6.526232e+002, 1.221074e+003
6.531053e+002, 1.220477e+003
6.535874e+002, 1.220489e+003
6.540695e+002, 1.221117e+003
6.545516e+002, 1.221606e+003
6.550338e+002, 1.221920e+003
6.555159e+002, 1.222155e+003
6.559980e+002, 1.222545e+003
6.564801e+002, 1.222771e+003
6.569622e+002, 1.222350e+003
6.574443e+002, 1.221169e+003
6.579265e+002, 1.220069e+003
6.584086e+002, 1.219477e+003
6.588907e+002, 1.219120e+003
6.593728e+002, 1.218657e+003
6.598549e+002, 1.218139e+003
6.603370e+002, 1.217873e+003
6.608192e+002, 1.218011e+003
6.613013e+002, 1.218377e+003
6.617834e+002, 1.218694e+003
6.622655e+002, 1.219034e+003
6.627476e+002, 1.219069e+003
6.632297e+002, 1.218160e+003
6.637119e+002, 1.217658e+003
6.641940e+002, 1.218319e+003
6.646761e+002, 1.219491e+003
6.651582e+002, 1.220423e+003
6.656403e+002, 1.220919e+003
6.661224e+002, 1.220881e+003
6.666046e+002, 1.219662e+003
6.670867e+002, 1.217978e+003
6.675688e+002, 1.217804e+003
6.680509e+002, 1.219263e+003
6.685330e+002, 1.220514e+003
6.690151e+002, 1.220656e+003
6.694973e+002, 1.220040e+003
6.699794e+002, 1.219277e+003
6.704615e+002, 1.218116e+003
6.709436e+002, 1.217545e+003
6.714257e+002, 1.218074e+003
6.719078e+002, 1.218692e+003
6.723900e+002, 1.218869e+003
6.728721e+002, 1.218764e+003
6.733542e+002, 1.218777e+003
6.738363e+002, 1.219032e+003
6.743184e+002, 1.219158e+003
6.748005e+002, 1.218345e+003
6.752827e+002, 1.216788e+003
6.757648e+002, 1.216726e+003
6.762469e+002, 1.218722e+003
6.767290e+002, 1.220356e+003
6.772111e+002, 1.220340e+003
6.776932e+002, 1.219342e+003
6.781754e+002, 1.218579e+003
6.786575e+002, 1.218123e+003
6.791396e+002, 1.217519e+003
6.796217e+002, 1.216360e+003
6.801038e+002, 1.215286e+003
6.805859e+002, 1.214858e+003
6.810681e+002, 1.214903e+003
6.815502e+002, 1.214762e+003
6.820323e+002, 1.214209e+003
6.825144e+002, 1.214166e+003
6.829965e+002, 1.216646e+003
6.834786e+002, 1.222010e+003
6.839608e+002, 1.223527e+003
6.844429e+002, 1.219032e+003
6.849250e+002, 1.214570e+003
6.854071e+002, 1.212888e+003
6.858892e+002, 1.212324e+003
6.863713e+002, 1.210998e+003
6.868535e+002, 1.208665e+003
6.873356e+002, 1.206992e+003
6.878177e+002, 1.207293e+003
6.882998e+002, 1.208155e+003
6.887819e+002, 1.208120e+003
6.892640e+002, 1.207365e+003
6.897462e+002, 1.206781e+003
6.902283e+002, 1.206717e+003
6.907104e+002, 1.206602e+003
6.911925e+002, 1.205548e+003
6.916746e+002, 1.203408e+003
6.921567e+002, 1.201674e+003
6.926389e+002, 1.200846e+003
6.931210e+002, 1.199735e+003
6.936031e+002, 1.197493e+003
6.940852e+002, 1.195168e+003
6.945673e+002, 1.194077e+003
6.950494e+002, 1.194282e+003
6.955316e+002, 1.194206e+003
6.960137e+002, 1.192760e+003
6.964958e+002, 1.190622e+003
6.969779e+002, 1.188419e+003
6.974600e+002, 1.186276e+003
6.979421e+002, 1.184740e+003
6.984243e+002, 1.184052e+003
6.989064e+002, 1.183672e+003
6.993885e+002, 1.182946e+003
6.998706e+002, 1.181854e+003
7.003527e+002, 1.180697e+003
7.008348e+002, 1.178907e+003
7.013170e+002, 1.177773e+003
7.017991e+002, 1.178186e+003
7.022812e+002, 1.178920e+003
7.027633e+002, 1.179083e+003
7.032454e+002, 1.178462e+003
7.037275e+002, 1.176896e+003
7.042097e+002, 1.173487e+003
7.046918e+002, 1.169742e+003
7.051739e+002, 1.168410e+003
7.056560e+002, 1.169059e+003
7.061381e+002, 1.168823e+003
7.066202e+002, 1.166753e+003
7.071024e+002, 1.164497e+003
7.075845e+002, 1.163810e+003
7.080666e+002, 1.164651e+003
7.085487e+002, 1.165003e+003
7.090308e+002, 1.164932e+003
7.095129e+002, 1.164299e+003
7.099951e+002, 1.162242e+003
7.104772e+002, 1.160238e+003
7.109593e+002, 1.159771e+003
7.114414e+002, 1.160613e+003
7.119235e+002, 1.161395e+003
7.124056e+002, 1.161448e+003
7.128878e+002, 1.160795e+003
7.133699e+002, 1.159165e+003
7.138520e+002, 1.156728e+003
7.143341e+002, 1.154778e+003
7.148162e+002, 1.153596e+003
7.152983e+002, 1.152702e+003
7.157805e+002, 1.151642e+003
7.162626e+002, 1.150550e+003
7.167447e+002, 1.150168e+003
7.172268e+002, 1.152010e+003
7.177089e+002, 1.152377e+003
7.181910e+002, 1.149566e+003
7.186732e+002, 1.146408e+003
7.191553e+002, 1.144929e+003
7.196374e+002, 1.144826e+003
7.201195e+002, 1.144880e+003
7.206016e+002, 1.144534e+003
7.210837e+002, 1.143978e+003
7.215659e+002, 1.143306e+003
7.220480e+002, 1.142600e+003
7.225301e+002, 1.142530e+003
7.230122e+002, 1.143330e+003
7.234943e+002, 1.143649e+003
7.239764e+002, 1.142575e+003
7.244586e+002, 1.140554e+003
7.249407e+002, 1.138583e+003
7.254228e+002, 1.136127e+003
7.259049e+002, 1.135033e+003
7.263870e+002, 1.136955e+003
7.268691e+002, 1.138701e+003
7.273513e+002, 1.138248e+003
7.278334e+002, 1.136488e+003
7.283155e+002, 1.135088e+003
7.287976e+002, 1.134599e+003
7.292797e+002, 1.134311e+003
7.297618e+002, 1.133357e+003
7.302440e+002, 1.132001e+003
7.307261e+002, 1.131361e+003
7.312082e+002, 1.131536e+003
7.316903e+002, 1.131337e+003
7.321724e+002, 1.130179e+003
7.326545e+002, 1.128611e+003
7.331367e+002, 1.127448e+003
7.336188e+002, 1.126813e+003
7.341009e+002, 1.125889e+003
7.345830e+002, 1.123862e+003
7.350651e+002, 1.122509e+003
7.355472e+002, 1.122863e+003
7.360294e+002, 1.123969e+003
7.365115e+002, 1.125126e+003
7.369936e+002, 1.125971e+003
7.374757e+002, 1.125716e+003
7.379578e+002, 1.123055e+003
7.384399e+002, 1.119594e+003
7.389221e+002, 1.119052e+003
7.394042e+002, 1.121200e+003
7.398863e+002, 1.122397e+003
7.403684e+002, 1.121628e+003
7.408505e+002, 1.120151e+003
7.413326e+002, 1.118946e+003
7.418148e+002, 1.118037e+003
7.422969e+002, 1.117742e+003
7.427790e+002, 1.119031e+003
7.432611e+002, 1.119543e+003
7.437432e+002, 1.118288e+003
7.442253e+002, 1.116769e+003
7.447075e+002, 1.116194e+003
7.451896e+002, 1.116340e+003
7.456717e+002, 1.116280e+003
7.461538e+002, 1.115549e+003
7.466359e+002, 1.114603e+003
7.471180e+002, 1.113861e+003
7.476002e+002, 1.113360e+003
7.480823e+002, 1.113385e+003
7.485644e+002, 1.114000e+003
7.490465e+002, 1.114369e+003
7.495286e+002, 1.114029e+003
7.500107e+002, 1.113071e+003
7.504929e+002, 1.111651e+003
7.509750e+002, 1.109363e+003
7.514571e+002, 1.107617e+003
7.519392e+002, 1.106379e+003
7.524213e+002, 1.105675e+003
7.529034e+002, 1.105578e+003
7.533856e+002, 1.105988e+003
7.538677e+002, 1.107119e+003
7.543498e+002, 1.108928e+003
7.548319e+002, 1.110059e+003
7.553140e+002, 1.108959e+003
7.557961e+002, 1.106822e+003
7.562783e+002, 1.105667e+003
7.567604e+002, 1.105353e+003
7.572425e+002, 1.104647e+003
7.577246e+002, 1.103055e+003
7.582067e+002, 1.101854e+003
7.586888e+002, 1.102711e+003
7.591710e+002, 1.105607e+003
7.596531e+002, 1.107559e+003
7.601352e+002, 1.108411e+003
7.606173e+002, 1.108492e+003
7.610994e+002, 1.107374e+003
7.615815e+002, 1.105949e+003
7.620637e+002, 1.104649e+003
7.625458e+002, 1.103603e+003
7.630279e+002, 1.103070e+003
7.635100e+002, 1.103395e+003
7.639921e+002, 1.103817e+003
7.644742e+002, 1.103677e+003
7.649564e+002, 1.103217e+003
7.654385e+002, 1.102899e+003
7.659206e+002, 1.102762e+003
7.664027e+002, 1.102557e+003
7.668848e+002, 1.102112e+003
7.673669e+002, 1.101584e+003
7.678491e+002, 1.101465e+003
7.683312e+002, 1.102092e+003
7.688133e+002, 1.101800e+003
7.692954e+002, 1.099595e+003
7.697775e+002, 1.097840e+003
7.702596e+002, 1.097958e+003
7.707418e+002, 1.098913e+003
7.712239e+002, 1.099398e+003
7.717060e+002, 1.099244e+003
7.721881e+002, 1.098979e+003
7.726702e+002, 1.098887e+003
7.731523e+002, 1.098686e+003
7.736345e+002, 1.098031e+003
7.741166e+002, 1.097120e+003
7.745987e+002, 1.096338e+003
7.750808e+002, 1.095799e+003
7.755629e+002, 1.095434e+003
7.760450e+002, 1.095266e+003
7.765272e+002, 1.095164e+003
7.770093e+002, 1.094346e+003
7.774914e+002, 1.092596e+003
7.779735e+002, 1.091325e+003
7.784556e+002, 1.090995e+003
7.789377e+002, 1.091006e+003
7.794199e+002, 1.090809e+003
7.799020e+002, 1.090493e+003
7.803841e+002, 1.090498e+003
7.808662e+002, 1.091125e+003
7.813483e+002, 1.091644e+003
7.818304e+002, 1.091974e+003
7.823126e+002, 1.092046e+003
7.827947e+002, 1.091709e+003
7.832768e+002, 1.091068e+003
7.837589e+002, 1.090283e+003
7.842410e+002, 1.089406e+003
7.847231e+002, 1.088787e+003
7.852053e+002, 1.089046e+003
7.856874e+002, 1.089937e+003
7.861695e+002, 1.090646e+003
7.866516e+002, 1.091156e+003
7.871337e+002, 1.090746e+003
7.876158e+002, 1.088819e+003
7.880980e+002, 1.086496e+003
7.885801e+002, 1.085500e+003
7.890622e+002, 1.086068e+003
7.895443e+002, 1.086524e+003
7.900264e+002, 1.087369e+003
7.905085e+002, 1.087478e+003
7.909907e+002, 1.086012e+003
7.914728e+002, 1.084134e+003
7.919549e+002, 1.082866e+003
7.924370e+002, 1.082241e+003
7.929191e+002, 1.081757e+003
7.934012e+002, 1.081254e+003
7.938834e+002, 1.080665e+003
7.943655e+002, 1.079844e+003
7.948476e+002, 1.078900e+003
7.953297e+002, 1.077950e+003
7.958118e+002, 1.077061e+003
7.962939e+002, 1.076726e+003
7.967761e+002, 1.077368e+003
7.972582e+002, 1.078341e+003
7.977403e+002, 1.078014e+003
7.982224e+002, 1.076038e+003
7.987045e+002, 1.074212e+003
7.991866e+002, 1.072493e+003
7.996688e+002, 1.071061e+003
8.001509e+002, 1.069464e+003
8.006330e+002, 1.068488e+003
8.011151e+002, 1.069624e+003
8.015972e+002, 1.073172e+003
8.020793e+002, 1.075739e+003
8.025615e+002, 1.076051e+003
8.030436e+002, 1.075472e+003
8.035257e+002, 1.074329e+003
8.040078e+002, 1.073081e+003
8.044899e+002, 1.072535e+003
8.049720e+002, 1.072688e+003
8.054542e+002, 1.072567e+003
8.059363e+002, 1.071292e+003
8.064184e+002, 1.069464e+003
8.069005e+002, 1.068373e+003
8.073826e+002, 1.067997e+003
8.078647e+002, 1.068199e+003
8.083469e+002, 1.069145e+003
8.088290e+002, 1.069751e+003
8.093111e+002, 1.069157e+003
8.097932e+002, 1.067727e+003
8.102753e+002, 1.066554e+003
8.107574e+002, 1.065378e+003
8.112396e+002, 1.065013e+003
8.117217e+002, 1.066437e+003
8.122038e+002, 1.067566e+003
8.126859e+002, 1.067209e+003
8.131680e+002, 1.066184e+003
8.136501e+002, 1.065747e+003
8.141323e+002, 1.066101e+003
8.146144e+002, 1.066179e+003
8.150965e+002, 1.064896e+003
8.155786e+002, 1.063328e+003
8.160607e+002, 1.062763e+003
8.165428e+002, 1.062925e+003
8.170250e+002, 1.063119e+003
8.175071e+002, 1.063163e+003
8.179892e+002, 1.063117e+003
8.184713e+002, 1.063012e+003
8.189534e+002, 1.062873e+003
8.194355e+002, 1.062787e+003
8.199177e+002, 1.062732e+003
8.203998e+002, 1.062811e+003
8.208819e+002, 1.063122e+003
8.213640e+002, 1.063422e+003
8.218461e+002, 1.063623e+003
8.223282e+002, 1.063693e+003
8.228104e+002, 1.063452e+003
8.232925e+002, 1.062645e+003
8.237746e+002, 1.062529e+003
8.242567e+002, 1.063860e+003
8.247388e+002, 1.065426e+003
8.252209e+002, 1.066894e+003
8.257031e+002, 1.067997e+003
8.261852e+002, 1.068284e+003
8.266673e+002, 1.067761e+003
8.271494e+002, 1.067050e+003
8.276315e+002, 1.066392e+003
8.281136e+002, 1.066086e+003
8.285958e+002, 1.066965e+003
8.290779e+002, 1.068725e+003
8.295600e+002, 1.069839e+003
8.300421e+002, 1.069993e+003
8.305242e+002, 1.069937e+003
8.310063e+002, 1.070191e+003
8.314885e+002, 1.070675e+003
8.319706e+002, 1.071103e+003
8.324527e+002, 1.071199e+003
8.329348e+002, 1.071986e+003
8.334169e+002, 1.074462e+003
8.338990e+002, 1.076348e+003
8.343812e+002, 1.076176e+003
8.348633e+002, 1.075271e+003
8.353454e+002, 1.075290e+003
8.358275e+002, 1.076406e+003
8.363096e+002, 1.077709e+003
8.367917e+002, 1.079135e+003
8.372739e+002, 1.080411e+003
8.377560e+002, 1.081056e+003
8.382381e+002, 1.081610e+003
8.387202e+002, 1.083057e+003
8.392023e+002, 1.085327e+003
8.396844e+002, 1.087250e+003
8.401666e+002, 1.087905e+003
8.406487e+002, 1.088224e+003
8.411308e+002, 1.089944e+003
8.416129e+002, 1.092867e+003
8.420950e+002, 1.095412e+003
8.425771e+002, 1.097343e+003
8.430593e+002, 1.099932e+003
8.435414e+002, 1.104001e+003
8.440235e+002, 1.108862e+003
8.445056e+002, 1.113270e+003
8.449877e+002, 1.117038e+003
8.454698e+002, 1.121226e+003
8.459520e+002, 1.125876e+003
8.464341e+002, 1.130933e+003
8.469162e+002, 1.135863e+003
8.473983e+002, 1.141569e+003
8.478804e+002, 1.149187e+003
8.483625e+002, 1.158455e+003
8.488447e+002, 1.167783e+003
8.493268e+002, 1.176451e+003
8.498089e+002, 1.185394e+003
8.502910e+002, 1.195379e+003
8.507731e+002, 1.205802e+003
8.512552e+002, 1.215440e+003
8.517374e+002, 1.224822e+003
8.522195e+002, 1.236052e+003
8.527016e+002, 1.250089e+003
8.531837e+002, 1.265373e+003
8.536658e+002, 1.279892e+003
8.541479e+002, 1.293874e+003
8.546301e+002, 1.308696e+003
8.551122e+002, 1.324296e+003
8.555943e+002, 1.340743e+003
8.560764e+002, 1.358207e+003
8.565585e+002, 1.375625e+003
8.570406e+002, 1.391997e+003
8.575228e+002, 1.407255e+003
8.580049e+002, 1.421258e+003
8.584870e+002, 1.434057e+003
8.589691e+002, 1.445348e+003
8.594512e+002, 1.455934e+003
8.599333e+002, 1.464243e+003
8.604155e+002, 1.469142e+003
8.608976e+002, 1.471284e+003
8.613797e+002, 1.472230e+003
8.618618e+002, 1.472543e+003
8.623439e+002, 1.469903e+003
8.628260e+002, 1.462036e+003
8.633082e+002, 1.452088e+003
8.637903e+002, 1.442163e+003
8.642724e+002, 1.432082e+003
8.647545e+002, 1.421052e+003
8.652366e+002, 1.408998e+003
8.657188e+002, 1.396824e+003
8.662009e+002, 1.385269e+003
8.666830e+002, 1.373766e+003
8.671651e+002, 1.360881e+003
8.676472e+002, 1.346889e+003
8.681293e+002, 1.333834e+003
8.686115e+002, 1.322075e+003
8.690936e+002, 1.310202e+003
8.695757e+002, 1.297243e+003
8.700578e+002, 1.283992e+003
8.705399e+002, 1.272122e+003
8.710220e+002, 1.262124e+003
8.715042e+002, 1.251097e+003
8.719863e+002, 1.238238e+003
8.724684e+002, 1.225753e+003
8.729505e+002, 1.214318e+003
8.734326e+002, 1.203589e+003
8.739147e+002, 1.193548e+003
8.743969e+002, 1.184074e+003
8.748790e+002, 1.174557e+003
8.753611e+002, 1.164922e+003
8.758432e+002, 1.155185e+003
8.763253e+002, 1.144212e+003
8.768074e+002, 1.134059e+003
8.772896e+002, 1.126976e+003
8.777717e+002, 1.122081e+003
8.782538e+002, 1.117175e+003
8.787359e+002, 1.111443e+003
8.792180e+002, 1.105517e+003
8.797001e+002, 1.099643e+003
8.801823e+002, 1.094097e+003
8.806644e+002, 1.089466e+003
8.811465e+002, 1.085627e+003
8.816286e+002, 1.082181e+003
8.821107e+002, 1.079002e+003
8.825928e+002, 1.075563e+003
8.830750e+002, 1.071346e+003
8.835571e+002, 1.066721e+003
8.840392e+002, 1.062981e+003
8.845213e+002, 1.060200e+003
8.850034e+002, 1.058078e+003
8.854855e+002, 1.057055e+003
8.859677e+002, 1.055606e+003
8.864498e+002, 1.052338e+003
8.869319e+002, 1.048663e+003
8.874140e+002, 1.047234e+003
8.878961e+002, 1.048506e+003
8.883782e+002, 1.049067e+003
8.888604e+002, 1.047940e+003
8.893425e+002, 1.047265e+003
8.898246e+002, 1.048066e+003
8.903067e+002, 1.049226e+003
8.907888e+002, 1.050151e+003
8.912709e+002, 1.050549e+003
8.917531e+002, 1.049716e+003
8.922352e+002, 1.046933e+003
8.927173e+002, 1.044449e+003
8.931994e+002, 1.044262e+003
8.936815e+002, 1.044868e+003
8.941636e+002, 1.044636e+003
8.946458e+002, 1.043644e+003
8.951279e+002, 1.042545e+003
8.956100e+002, 1.041509e+003
8.960921e+002, 1.040026e+003
8.965742e+002, 1.037493e+003
8.970563e+002, 1.034248e+003
8.975385e+002, 1.031137e+003
8.980206e+002, 1.028139e+003
8.985027e+002, 1.025103e+003
8.989848e+002, 1.022005e+003
8.994669e+002, 1.018756e+003
8.999490e+002, 1.015164e+003
9.004312e+002, 1.011566e+003
9.009133e+002, 1.008783e+003
9.013954e+002, 1.007092e+003
9.018775e+002, 1.004891e+003
9.023596e+002, 1.001598e+003
9.028417e+002, 9.987652e+002
9.033239e+002, 9.969053e+002
9.038060e+002, 9.956882e+002
9.042881e+002, 9.952537e+002
9.047702e+002, 9.953453e+002
9.052523e+002, 9.943176e+002
9.057344e+002, 9.905712e+002
9.062166e+002, 9.877797e+002
9.066987e+002, 9.874244e+002
9.071808e+002, 9.877393e+002
9.076629e+002, 9.877107e+002
9.081450e+002, 9.873268e+002
9.086271e+002, 9.868284e+002
9.091093e+002, 9.862728e+002
9.095914e+002, 9.853981e+002
9.100735e+002, 9.836727e+002
9.105556e+002, 9.818420e+002
9.110377e+002, 9.809429e+002
9.115198e+002, 9.805009e+002
9.120020e+002, 9.795264e+002
9.124841e+002, 9.778965e+002
9.129662e+002, 9.759905e+002
9.134483e+002, 9.739908e+002
9.139304e+002, 9.722457e+002
9.144125e+002, 9.715511e+002
9.148947e+002, 9.717348e+002
9.153768e+002, 9.713593e+002
9.158589e+002, 9.703546e+002
9.163410e+002, 9.691474e+002
9.168231e+002, 9.678466e+002
9.173052e+002, 9.665822e+002
9.177874e+002, 9.654634e+002
9.182695e+002, 9.645169e+002
9.187516e+002, 9.641087e+002
9.192337e+002, 9.648496e+002
9.197158e+002, 9.646229e+002
9.201979e+002, 9.623969e+002
9.206801e+002, 9.602422e+002
9.211622e+002, 9.596318e+002
9.216443e+002, 9.596747e+002
9.221264e+002, 9.588521e+002
9.226085e+002, 9.569330e+002
9.230906e+002, 9.555128e+002
9.235728e+002, 9.548074e+002
9.240549e+002, 9.546293e+002
9.245370e+002, 9.555008e+002
9.250191e+002, 9.564113e+002
9.255012e+002, 9.563795e+002
9.259833e+002, 9.555133e+002
9.264655e+002, 9.544091e+002
9.269476e+002, 9.531768e+002
9.274297e+002, 9.521917e+002
9.279118e+002, 9.518989e+002
9.283939e+002, 9.518369e+002
9.288760e+002, 9.514781e+002
9.293582e+002, 9.509252e+002
9.298403e+002, 9.505816e+002
9.303224e+002, 9.504901e+002
9.308045e+002, 9.500971e+002
9.312866e+002, 9.487687e+002
9.317687e+002, 9.472754e+002
9.322509e+002, 9.473033e+002
9.327330e+002, 9.484940e+002
9.332151e+002, 9.492006e+002
9.336972e+002, 9.492566e+002
9.341793e+002, 9.491642e+002
9.346614e+002, 9.491530e+002
9.351436e+002, 9.492604e+002
9.356257e+002, 9.495333e+002
9.361078e+002, 9.499737e+002
9.365899e+002, 9.505892e+002
9.370720e+002, 9.514122e+002
9.375541e+002, 9.523008e+002
9.380363e+002, 9.533806e+002
9.385184e+002, 9.541379e+002
9.390005e+002, 9.538824e+002
9.394826e+002, 9.531562e+002
9.399647e+002, 9.535242e+002
9.404468e+002, 9.553287e+002
9.409290e+002, 9.572727e+002
9.414111e+002, 9.595179e+002
9.418932e+002, 9.616943e+002
9.423753e+002, 9.640179e+002
9.428574e+002, 9.659827e+002
9.433395e+002, 9.666566e+002
9.438217e+002, 9.664391e+002
9.443038e+002, 9.673022e+002
9.447859e+002, 9.702828e+002
9.452680e+002, 9.732360e+002
9.457501e+002, 9.752933e+002
9.462322e+002, 9.771470e+002
9.467144e+002, 9.789914e+002
9.471965e+002, 9.811456e+002
9.476786e+002, 9.844551e+002
9.481607e+002, 9.888664e+002
9.486428e+002, 9.924914e+002
9.491249e+002, 9.933460e+002
9.496071e+002, 9.938868e+002
9.500892e+002, 9.969459e+002
9.505713e+002, 1.001232e+003
9.510534e+002, 1.004778e+003
9.515355e+002, 1.007360e+003
9.520176e+002, 1.009270e+003
9.524998e+002, 1.010649e+003
9.529819e+002, 1.011807e+003
9.534640e+002, 1.013308e+003
9.539461e+002, 1.014810e+003
9.544282e+002, 1.014652e+003
9.549103e+002, 1.013236e+003
9.553925e+002, 1.014575e+003
9.558746e+002, 1.019536e+003
9.563567e+002, 1.022595e+003
9.568388e+002, 1.019810e+003
9.573209e+002, 1.012998e+003
9.578030e+002, 1.005535e+003
9.582852e+002, 9.972089e+002
9.587673e+002, 9.907306e+002
9.592494e+002, 9.863323e+002
9.597315e+002, 9.831112e+002
9.602136e+002, 9.813636e+002
9.606957e+002, 9.794699e+002
9.611779e+002, 9.756532e+002
9.616600e+002, 9.703854e+002
9.621421e+002, 9.663123e+002
9.626242e+002, 9.644855e+002
9.631063e+002, 9.617709e+002
9.635884e+002, 9.572938e+002
9.640706e+002, 9.530172e+002
9.645527e+002, 9.497834e+002
9.650348e+002, 9.470385e+002
9.655169e+002, 9.442053e+002
9.659990e+002, 9.412744e+002
9.664811e+002, 9.384269e+002
9.669633e+002, 9.351915e+002
9.674454e+002, 9.327606e+002
9.679275e+002, 9.320675e+002
9.684096e+002, 9.315853e+002
9.688917e+002, 9.301309e+002
9.693738e+002, 9.282219e+002
9.698560e+002, 9.269994e+002
9.703381e+002, 9.266392e+002
9.708202e+002, 9.257535e+002
9.713023e+002, 9.229473e+002
9.717844e+002, 9.202415e+002
9.722665e+002, 9.191246e+002
9.727487e+002, 9.187629e+002
9.732308e+002, 9.182687e+002
9.737129e+002, 9.175928e+002
9.741950e+002, 9.170338e+002
9.746771e+002, 9.167070e+002
9.751592e+002, 9.162988e+002
9.756414e+002, 9.154672e+002
9.761235e+002, 9.144347e+002
9.766056e+002, 9.135126e+002
9.770877e+002, 9.126400e+002
9.775698e+002, 9.115084e+002
9.780519e+002, 9.101872e+002
9.785341e+002, 9.094359e+002
9.790162e+002, 9.097624e+002
9.794983e+002, 9.102234e+002
9.799804e+002, 9.089891e+002
9.804625e+002, 9.067436e+002
9.809446e+002, 9.065373e+002
9.814268e+002, 9.081601e+002
9.819089e+002, 9.089643e+002
9.823910e+002, 9.082518e+002
9.828731e+002, 9.065657e+002
9.833552e+002, 9.041632e+002
9.838373e+002, 9.016508e+002
9.843195e+002, 9.006434e+002
9.848016e+002, 9.012031e+002
9.852837e+002, 9.020345e+002
9.857658e+002, 9.032392e+002
9.862479e+002, 9.039259e+002
9.867300e+002, 9.037955e+002
9.872122e+002, 9.029578e+002
9.876943e+002, 9.013114e+002
9.881764e+002, 8.991169e+002
9.886585e+002, 8.978109e+002
9.891406e+002, 8.975558e+002
9.896227e+002, 8.977388e+002
9.901049e+002, 8.985989e+002
9.905870e+002, 8.994221e+002
9.910691e+002, 8.999348e+002
9.915512e+002, 9.002538e+002
9.920333e+002, 9.005751e+002
9.925154e+002, 9.008859e+002
9.929976e+002, 9.007968e+002
9.934797e+002, 8.996278e+002
9.939618e+002, 8.991011e+002
9.944439e+002, 9.003344e+002
9.949260e+002, 9.010768e+002
9.954081e+002, 8.995925e+002
9.958903e+002, 8.973516e+002
9.963724e+002, 8.965741e+002
9.968545e+002, 8.973616e+002
9.973366e+002, 8.974217e+002
9.978187e+002, 8.953854e+002
9.983008e+002, 8.938508e+002
9.987830e+002, 8.937961e+002
9.992651e+002, 8.942465e+002
9.997472e+002, 8.949487e+002
1.000229e+003, 8.954651e+002
1.000711e+003, 8.950479e+002
1.001194e+003, 8.935778e+002
1.001676e+003, 8.921069e+002
1.002158e+003, 8.908302e+002
1.002640e+003, 8.899960e+002
1.003122e+003, 8.900787e+002
1.003604e+003, 8.904200e+002
1.004086e+003, 8.905278e+002
1.004568e+003, 8.902659e+002
1.005050e+003, 8.894303e+002
1.005533e+003, 8.879727e+002
1.006015e+003, 8.864864e+002
1.006497e+003, 8.853210e+002
1.006979e+003, 8.843821e+002
1.007461e+003, 8.837030e+002
1.007943e+003, 8.831198e+002
1.008425e+003, 8.821752e+002
1.008907e+003, 8.810650e+002
1.009390e+003, 8.807239e+002
1.009872e+003, 8.815377e+002
1.010354e+003, 8.823589e+002
1.010836e+003, 8.818629e+002
1.011318e+003, 8.807930e+002
1.011800e+003, 8.803422e+002
1.012282e+003, 8.803072e+002
1.012764e+003, 8.802162e+002
1.013246e+003, 8.799809e+002
1.013729e+003, 8.796729e+002
1.014211e+003, 8.793302e+002
1.014693e+003, 8.788605e+002
1.015175e+003, 8.780126e+002
1.015657e+003, 8.769786e+002
1.016139e+003, 8.762766e+002
1.016621e+003, 8.759043e+002
1.017103e+003, 8.760396e+002
1.017586e+003, 8.766456e+002
1.018068e+003, 8.767595e+002
1.018550e+003, 8.757537e+002
1.019032e+003, 8.742878e+002
1.019514e+003, 8.735242e+002
1.019996e+003, 8.733270e+002
1.020478e+003, 8.724862e+002
1.020960e+003, 8.710416e+002
1.021442e+003, 8.707143e+002
1.021925e+003, 8.719514e+002
1.022407e+003, 8.734255e+002
1.022889e+003, 8.742541e+002
1.023371e+003, 8.746037e+002
1.023853e+003, 8.748358e+002
1.024335e+003, 8.749485e+002
1.024817e+003, 8.744817e+002
1.025299e+003, 8.733490e+002
1.025781e+003, 8.722202e+002
1.026264e+003, 8.712145e+002
1.026746e+003, 8.703217e+002
1.027228e+003, 8.694133e+002
1.027710e+003, 8.688441e+002
1.028192e+003, 8.698098e+002
1.028674e+003, 8.727951e+002
1.029156e+003, 8.730368e+002
1.029638e+003, 8.693929e+002
1.030120e+003, 8.669774e+002
1.030603e+003, 8.676343e+002
1.031085e+003, 8.685416e+002
1.031567e+003, 8.672205e+002
1.032049e+003, 8.648019e+002
1.032531e+003, 8.644246e+002
1.033013e+003, 8.667637e+002
1.033495e+003, 8.681213e+002
1.033977e+003, 8.682783e+002
1.034460e+003, 8.679055e+002
1.034942e+003, 8.669196e+002
1.035424e+003, 8.658141e+002
1.035906e+003, 8.649744e+002
1.036388e+003, 8.643148e+002
1.036870e+003, 8.635343e+002
1.037352e+003, 8.624166e+002
1.037834e+003, 8.619788e+002
1.038317e+003, 8.631268e+002
1.038799e+003, 8.635536e+002
1.039281e+003, 8.620232e+002
1.039763e+003, 8.603087e+002
1.040245e+003, 8.597514e+002
1.040727e+003, 8.600482e+002
1.041209e+003, 8.603724e+002
1.041691e+003, 8.608227e+002
1.042173e+003, 8.609764e+002
1.042656e+003, 8.609200e+002
1.043138e+003, 8.604366e+002
1.043620e+003, 8.592170e+002
1.044102e+003, 8.577829e+002
1.044584e+003, 8.562921e+002
1.045066e+003, 8.549254e+002
1.045548e+003, 8.540964e+002
1.046030e+003, 8.538075e+002
1.046512e+003, 8.541551e+002
1.046995e+003, 8.564404e+002
1.047477e+003, 8.576517e+002
1.047959e+003, 8.556376e+002
1.048441e+003, 8.533665e+002
1.048923e+003, 8.537250e+002
1.049405e+003, 8.555536e+002
1.049887e+003, 8.557299e+002
1.050369e+003, 8.534883e+002
1.050852e+003, 8.517164e+002
1.051334e+003, 8.506378e+002
1.051816e+003, 8.505345e+002
1.052298e+003, 8.526891e+002
1.052780e+003, 8.547815e+002
1.053262e+003, 8.546094e+002
1.053744e+003, 8.529943e+002
1.054226e+003, 8.520635e+002
1.054708e+003, 8.522629e+002
1.055191e+003, 8.521887e+002
1.055673e+003, 8.512839e+002
1.056155e+003, 8.502725e+002
1.056637e+003, 8.493191e+002
1.057119e+003, 8.484755e+002
1.057601e+003, 8.475050e+002
1.058083e+003, 8.467538e+002
1.058565e+003, 8.472106e+002
1.059047e+003, 8.491621e+002
1.059530e+003, 8.502133e+002
1.060012e+003, 8.486727e+002
1.060494e+003, 8.472361e+002
1.060976e+003, 8.475374e+002
1.061458e+003, 8.479630e+002
1.061940e+003, 8.468587e+002
1.062422e+003, 8.449592e+002
1.062904e+003, 8.439640e+002
1.063387e+003, 8.441927e+002
1.063869e+003, 8.441689e+002
1.064351e+003, 8.430862e+002
1.064833e+003, 8.419764e+002
1.065315e+003, 8.411154e+002
1.065797e+003, 8.405930e+002
1.066279e+003, 8.406469e+002
1.066761e+003, 8.410260e+002
1.067244e+003, 8.414265e+002
1.067726e+003, 8.417546e+002
1.068208e+003, 8.416420e+002
1.068690e+003, 8.396895e+002
1.069172e+003, 8.389434e+002
1.069654e+003, 8.427767e+002
1.070136e+003, 8.464568e+002
1.070618e+003, 8.454074e+002
1.071100e+003, 8.418556e+002
1.071583e+003, 8.396955e+002
1.072065e+003, 8.394922e+002
1.072547e+003, 8.394736e+002
1.073029e+003, 8.390432e+002
1.073511e+003, 8.384854e+002
1.073993e+003, 8.377140e+002
1.074475e+003, 8.370865e+002
1.074957e+003, 8.371622e+002
1.075439e+003, 8.374081e+002
1.075922e+003, 8.368871e+002
1.076404e+003, 8.356392e+002
1.076886e+003, 8.347112e+002
1.077368e+003, 8.345887e+002
1.077850e+003, 8.346236e+002
1.078332e+003, 8.344650e+002
1.078814e+003, 8.344002e+002
1.079297e+003, 8.347455e+002
1.079779e+003, 8.352424e+002
1.080261e+003, 8.357197e+002
1.080743e+003, 8.360209e+002
1.081225e+003, 8.356509e+002
1.081707e+003, 8.341989e+002
1.082189e+003, 8.328975e+002
1.082671e+003, 8.321603e+002
1.083153e+003, 8.319250e+002
1.083635e+003, 8.324625e+002
1.084118e+003, 8.332620e+002
1.084600e+003, 8.340609e+002
1.085082e+003, 8.345748e+002
1.085564e+003, 8.339486e+002
1.086046e+003, 8.316025e+002
1.086528e+003, 8.300281e+002
1.087010e+003, 8.313312e+002
1.087492e+003, 8.324389e+002
1.087975e+003, 8.310361e+002
1.088457e+003, 8.290872e+002
1.088939e+003, 8.287504e+002
1.089421e+003, 8.295682e+002
1.089903e+003, 8.300217e+002
1.090385e+003, 8.297726e+002
1.090867e+003, 8.290466e+002
1.091349e+003, 8.275172e+002
1.091832e+003, 8.260603e+002
1.092314e+003, 8.249846e+002
1.092796e+003, 8.242402e+002
1.093278e+003, 8.238882e+002
1.093760e+003, 8.237916e+002
1.094242e+003, 8.237488e+002
1.094724e+003, 8.237211e+002
1.095206e+003, 8.236566e+002
1.095688e+003, 8.236797e+002
1.096171e+003, 8.234645e+002
1.096653e+003, 8.225287e+002
1.097135e+003, 8.216946e+002
1.097617e+003, 8.216321e+002
1.098099e+003, 8.219802e+002
1.098581e+003, 8.222801e+002
1.099063e+003, 8.224391e+002
1.099545e+003, 8.222425e+002
1.100027e+003, 8.212579e+002
1.100510e+003, 8.205559e+002
1.100992e+003, 8.205859e+002
1.101474e+003, 8.207588e+002
1.101956e+003, 8.209689e+002
1.102438e+003, 8.209955e+002
1.102920e+003, 8.202191e+002
1.103402e+003, 8.189630e+002
1.103884e+003, 8.189155e+002
1.104367e+003, 8.210686e+002
1.104849e+003, 8.226074e+002
1.105331e+003, 8.226056e+002
1.105813e+003, 8.224604e+002
1.106295e+003, 8.224315e+002
1.106777e+003, 8.227263e+002
1.107259e+003, 8.243420e+002
1.107741e+003, 8.263238e+002
1.108224e+003, 8.256815e+002
1.108706e+003, 8.212284e+002
1.109188e+003, 8.180370e+002
1.109670e+003, 8.172990e+002
1.110152e+003, 8.168250e+002
1.110634e+003, 8.160961e+002
1.111116e+003, 8.154885e+002
1.111598e+003, 8.152370e+002
1.112080e+003, 8.152850e+002
1.112563e+003, 8.157100e+002
1.113045e+003, 8.166508e+002
1.113527e+003, 8.166613e+002
1.114009e+003, 8.151905e+002
1.114491e+003, 8.136749e+002
1.114973e+003, 8.118640e+002
1.115455e+003, 8.105467e+002
1.115937e+003, 8.099980e+002
1.116419e+003, 8.102509e+002
1.116902e+003, 8.117286e+002
1.117384e+003, 8.142398e+002
1.117866e+003, 8.154271e+002
1.118348e+003, 8.144516e+002
1.118830e+003, 8.141509e+002
1.119312e+003, 8.151010e+002
1.119794e+003, 8.157254e+002
1.120276e+003, 8.152399e+002
1.120759e+003, 8.146006e+002
1.121241e+003, 8.148412e+002
1.121723e+003, 8.155693e+002
1.122205e+003, 8.153062e+002
1.122687e+003, 8.136705e+002
1.123169e+003, 8.128256e+002
1.123651e+003, 8.130258e+002
1.124133e+003, 8.130958e+002
1.124615e+003, 8.126083e+002
1.125098e+003, 8.123983e+002
1.125580e+003, 8.131935e+002
1.126062e+003, 8.143341e+002
1.126544e+003, 8.144901e+002
1.127026e+003, 8.136873e+002
1.127508e+003, 8.130128e+002
1.127990e+003, 8.124466e+002
1.128472e+003, 8.122897e+002
1.128954e+003, 8.126635e+002
1.129437e+003, 8.128746e+002
1.129919e+003, 8.125539e+002
1.130401e+003, 8.120732e+002
1.130883e+003, 8.118895e+002
1.131365e+003, 8.119250e+002
1.131847e+003, 8.118900e+002
1.132329e+003, 8.117809e+002
1.132811e+003, 8.115955e+002
1.133294e+003, 8.113276e+002
1.133776e+003, 8.108591e+002
1.134258e+003, 8.101495e+002
1.134740e+003, 8.093334e+002
1.135222e+003, 8.084803e+002
1.135704e+003, 8.077843e+002
1.136186e+003, 8.076993e+002
1.136668e+003, 8.081052e+002
1.137151e+003, 8.087566e+002
1.137633e+003, 8.094747e+002
1.138115e+003, 8.091444e+002
1.138597e+003, 8.077520e+002
1.139079e+003, 8.070637e+002
1.139561e+003, 8.080847e+002
1.140043e+003, 8.093387e+002
1.140525e+003, 8.089127e+002
1.141007e+003, 8.076119e+002
1.141490e+003, 8.066555e+002
1.141972e+003, 8.061544e+002
1.142454e+003, 8.066285e+002
1.142936e+003, 8.078096e+002
1.143418e+003, 8.087838e+002
1.143900e+003, 8.091921e+002
1.144382e+003, 8.089099e+002
1.144864e+003, 8.074592e+002
1.145346e+003, 8.060293e+002
1.145829e+003, 8.059640e+002
1.146311e+003, 8.066151e+002
1.146793e+003, 8.076328e+002
1.147275e+003, 8.085187e+002
1.147757e+003, 8.082054e+002
1.148239e+003, 8.068340e+002
1.148721e+003, 8.058948e+002
1.149203e+003, 8.061469e+002
1.149686e+003, 8.065118e+002
1.150168e+003, 8.063171e+002
1.150650e+003, 8.059769e+002
1.151132e+003, 8.058039e+002
1.151614e+003, 8.056552e+002
1.152096e+003, 8.052122e+002
1.152578e+003, 8.046793e+002
1.153060e+003, 8.045956e+002
1.153542e+003, 8.050900e+002
1.154025e+003, 8.056989e+002
1.154507e+003, 8.069553e+002
1.154989e+003, 8.073187e+002
1.155471e+003, 8.052249e+002
1.155953e+003, 8.031526e+002
1.156435e+003, 8.030446e+002
1.156917e+003, 8.037313e+002
1.157399e+003, 8.032250e+002
1.157881e+003, 8.016532e+002
1.158364e+003, 8.013643e+002
1.158846e+003, 8.039173e+002
1.159328e+003, 8.052061e+002
1.159810e+003, 8.039647e+002
1.160292e+003, 8.027883e+002
1.160774e+003, 8.024151e+002
1.161256e+003, 8.023862e+002
1.161738e+003, 8.024991e+002
1.162221e+003, 8.026286e+002
1.162703e+003, 8.024853e+002
1.163185e+003, 8.020800e+002
1.163667e+003, 8.012777e+002
1.164149e+003, 7.997405e+002
1.164631e+003, 7.988225e+002
1.165113e+003, 7.987917e+002
1.165595e+003, 7.992872e+002
1.166078e+003, 8.003572e+002
1.166560e+003, 8.012873e+002
1.167042e+003, 8.011343e+002
1.167524e+003, 8.001290e+002
1.168006e+003, 7.992601e+002
1.168488e+003, 7.985065e+002
1.168970e+003, 7.984082e+002
1.169452e+003, 7.990151e+002
1.169934e+003, 7.994684e+002
1.170417e+003, 7.995218e+002
1.170899e+003, 7.993469e+002
1.171381e+003, 7.990527e+002
1.171863e+003, 7.987068e+002
1.172345e+003, 7.983997e+002
1.172827e+003, 7.981403e+002
1.173309e+003, 7.980298e+002
1.173791e+003, 7.979966e+002
1.174273e+003, 7.977267e+002
1.174756e+003, 7.972236e+002
1.175238e+003, 7.966684e+002
1.175720e+003, 7.961544e+002
1.176202e+003, 7.959685e+002
1.176684e+003, 7.965793e+002
1.177166e+003, 7.971994e+002
1.177648e+003, 7.967953e+002
1.178130e+003, 7.957992e+002
1.178613e+003, 7.947239e+002
1.179095e+003, 7.936209e+002
1.179577e+003, 7.921231e+002
1.180059e+003, 7.905173e+002
1.180541e+003, 7.902938e+002
1.181023e+003, 7.923712e+002
1.181505e+003, 7.941339e+002
1.181987e+003, 7.940251e+002
1.182469e+003, 7.930375e+002
1.182952e+003, 7.907031e+002
1.183434e+003, 7.888047e+002
1.183916e+003, 7.897255e+002
1.184398e+003, 7.921447e+002
1.184880e+003, 7.933001e+002
1.185362e+003, 7.928019e+002
1.185844e+003, 7.920959e+002
1.186326e+003, 7.911452e+002
1.186808e+003, 7.905827e+002
1.187291e+003, 7.908431e+002
1.187773e+003, 7.911119e+002
1.188255e+003, 7.913217e+002
1.188737e+003, 7.911162e+002
1.189219e+003, 7.896963e+002
1.189701e+003, 7.877031e+002
1.190183e+003, 7.872127e+002
1.190665e+003, 7.886334e+002
1.191148e+003, 7.894297e+002
1.191630e+003, 7.894737e+002
1.192112e+003, 7.892162e+002
1.192594e+003, 7.885961e+002
1.193076e+003, 7.881021e+002
1.193558e+003, 7.880182e+002
1.194040e+003, 7.880920e+002
1.194522e+003, 7.879896e+002
1.195005e+003, 7.877894e+002
1.195487e+003, 7.879464e+002
1.195969e+003, 7.884252e+002
1.196451e+003, 7.880871e+002
1.196933e+003, 7.869238e+002
1.197415e+003, 7.860291e+002
1.197897e+003, 7.856923e+002
1.198379e+003, 7.858929e+002
1.198861e+003, 7.866564e+002
1.199344e+003, 7.874651e+002
1.199826e+003, 7.877309e+002
1.200308e+003, 7.874759e+002
1.200790e+003, 7.861794e+002
1.201272e+003, 7.846384e+002
1.201754e+003, 7.851107e+002
1.202236e+003, 7.869742e+002
1.202718e+003, 7.875789e+002
1.203200e+003, 7.863386e+002
1.203683e+003, 7.851238e+002
1.204165e+003, 7.850580e+002
1.204647e+003, 7.853280e+002
1.205129e+003, 7.855843e+002
1.205611e+003, 7.856428e+002
1.206093e+003, 7.852874e+002
1.206575e+003, 7.846857e+002
1.207057e+003, 7.838113e+002
1.207540e+003, 7.829252e+002
1.208022e+003, 7.826928e+002
1.208504e+003, 7.833088e+002
1.208986e+003, 7.837654e+002
1.209468e+003, 7.834343e+002
1.209950e+003, 7.834988e+002
1.210432e+003, 7.850400e+002
1.210914e+003, 7.860609e+002
1.211396e+003, 7.851188e+002
1.211879e+003, 7.835095e+002
1.212361e+003, 7.823683e+002
1.212843e+003, 7.817164e+002
1.213325e+003, 7.817831e+002
1.213807e+003, 7.829560e+002
1.214289e+003, 7.827440e+002
1.214771e+003, 7.804375e+002
1.215253e+003, 7.798709e+002
1.215735e+003, 7.822413e+002
1.216218e+003, 7.842410e+002
1.216700e+003, 7.840602e+002
1.217182e+003, 7.827795e+002
1.217664e+003, 7.816033e+002
1.218146e+003, 7.806102e+002
1.218628e+003, 7.800106e+002
1.219110e+003, 7.797997e+002
1.219592e+003, 7.800826e+002
1.220075e+003, 7.807448e+002
1.220557e+003, 7.811829e+002
1.221039e+003, 7.812998e+002
1.221521e+003, 7.815664e+002
1.222003e+003, 7.822575e+002
1.222485e+003, 7.828098e+002
1.222967e+003, 7.826614e+002
1.223449e+003, 7.820651e+002
1.223932e+003, 7.808731e+002
1.224414e+003, 7.797472e+002
1.224896e+003, 7.797770e+002
1.225378e+003, 7.804768e+002
1.225860e+003, 7.808805e+002
1.226342e+003, 7.807743e+002
1.226824e+003, 7.801466e+002
1.227306e+003, 7.786183e+002
1.227788e+003, 7.776496e+002
1.228271e+003, 7.779670e+002
1.228753e+003, 7.786299e+002
1.229235e+003, 7.798998e+002
1.229717e+003, 7.807058e+002
1.230199e+003, 7.798323e+002
1.230681e+003, 7.780878e+002
1.231163e+003, 7.767953e+002
1.231645e+003, 7.759644e+002
1.232127e+003, 7.761199e+002
1.232610e+003, 7.779442e+002
1.233092e+003, 7.786072e+002
1.233574e+003, 7.777372e+002
1.234056e+003, 7.764386e+002
1.234538e+003, 7.748544e+002
1.235020e+003, 7.738531e+002
1.235502e+003, 7.741805e+002
1.235984e+003, 7.750328e+002
1.236467e+003, 7.748560e+002
1.236949e+003, 7.740884e+002
1.237431e+003, 7.748928e+002
1.237913e+003, 7.768076e+002
1.238395e+003, 7.778342e+002
1.238877e+003, 7.778300e+002
1.239359e+003, 7.771574e+002
1.239841e+003, 7.760236e+002
1.240323e+003, 7.748722e+002
1.240806e+003, 7.739234e+002
1.241288e+003, 7.733928e+002
1.241770e+003, 7.740599e+002
1.242252e+003, 7.746409e+002
1.242734e+003, 7.734665e+002
1.243216e+003, 7.717627e+002
1.243698e+003, 7.711963e+002
1.244180e+003, 7.713393e+002
1.244662e+003, 7.708205e+002
1.245145e+003, 7.694980e+002
1.245627e+003, 7.688467e+002
1.246109e+003, 7.699251e+002
1.246591e+003, 7.704642e+002
1.247073e+003, 7.694557e+002
1.247555e+003, 7.687204e+002
1.248037e+003, 7.692601e+002
1.248519e+003, 7.697872e+002
1.249002e+003, 7.691555e+002
1.249484e+003, 7.681790e+002
1.249966e+003, 7.684872e+002
1.250448e+003, 7.699550e+002
1.250930e+003, 7.703787e+002
1.251412e+003, 7.696948e+002
1.251894e+003, 7.683807e+002
1.252376e+003, 7.664119e+002
1.252859e+003, 7.655349e+002
1.253341e+003, 7.662698e+002
1.253823e+003, 7.674412e+002
1.254305e+003, 7.682953e+002
1.254787e+003, 7.686455e+002
1.255269e+003, 7.678975e+002
1.255751e+003, 7.667247e+002
1.256233e+003, 7.663671e+002
1.256715e+003, 7.665177e+002
1.257198e+003, 7.665809e+002
1.257680e+003, 7.666416e+002
1.258162e+003, 7.673231e+002
1.258644e+003, 7.685149e+002
1.259126e+003, 7.688544e+002
1.259608e+003, 7.674802e+002
1.260090e+003, 7.663271e+002
1.260572e+003, 7.668005e+002
1.261054e+003, 7.670455e+002
1.261537e+003, 7.656175e+002
1.262019e+003, 7.642043e+002
1.262501e+003, 7.642953e+002
1.262983e+003, 7.651444e+002
1.263465e+003, 7.655388e+002
1.263947e+003, 7.655223e+002
1.264429e+003, 7.655322e+002
1.264911e+003, 7.656193e+002
1.265394e+003, 7.655020e+002
1.265876e+003, 7.650621e+002
1.266358e+003, 7.649844e+002
1.266840e+003, 7.654795e+002
1.267322e+003, 7.658412e+002
1.267804e+003, 7.656397e+002
1.268286e+003, 7.655497e+002
1.268768e+003, 7.666247e+002
1.269250e+003, 7.679119e+002
1.269733e+003, 7.668062e+002
1.270215e+003, 7.643906e+002
1.270697e+003, 7.633293e+002
1.271179e+003, 7.633536e+002
1.271661e+003, 7.634409e+002
1.272143e+003, 7.633712e+002
1.272625e+003, 7.631459e+002
1.273107e+003, 7.627698e+002
1.273589e+003, 7.627701e+002
1.274072e+003, 7.638414e+002
1.274554e+003, 7.648394e+002
1.275036e+003, 7.653458e+002
1.275518e+003, 7.654142e+002
1.276000e+003, 7.642550e+002
1.276482e+003, 7.633104e+002
1.276964e+003, 7.650870e+002
1.277446e+003, 7.683712e+002
1.277929e+003, 7.686646e+002
1.278411e+003, 7.655265e+002
1.278893e+003, 7.640793e+002
1.279375e+003, 7.649816e+002
1.279857e+003, 7.651882e+002
1.280339e+003, 7.643290e+002
1.280821e+003, 7.630159e+002
1.281303e+003, 7.613977e+002
1.281786e+003, 7.606253e+002
1.282268e+003, 7.614647e+002
##END=



