##NAMES=Getchellite
##RRUFFID=R060109
##IDEAL CHEMISTRY=SbAsS_3_
##LOCALITY=Getchell mine, Humboldt County, Nevada, USA
##OWNER=RRUFF
##SOURCE=University of Arizona Mineral Museum
##DESCRIPTION=Dark blood-red micaceous lamellae
##STATUS=The identification of this mineral has been confirmed by X-ray diffraction and chemical analysis
##URL=rruff.info/R060109
##MEASURED CHEMISTRY=Sb_1.00_As_1.00_S_3.00_
9.001007e+001, 0.000000e+000
9.049219e+001, 1.828808e+000
9.097430e+001, 1.355111e+000
9.145642e+001, 1.600438e+000
9.193854e+001, 2.473588e+000
9.242065e+001, 3.214845e+000
9.290277e+001, 3.080737e+000
9.338489e+001, 2.349585e+000
9.386700e+001, 1.663698e+000
9.434912e+001, 1.272113e+000
9.483124e+001, 1.063647e+000
9.531335e+001, 7.895827e-001
9.579547e+001, 4.324683e-001
9.627759e+001, 1.310063e-001
9.675970e+001, -1.112916e-001
9.724182e+001, -2.616889e-001
9.772394e+001, 8.083244e-002
9.820605e+001, 1.778820e+000
9.868817e+001, 4.599772e+000
9.917029e+001, 5.374940e+000
9.965240e+001, 3.614193e+000
1.001345e+002, 5.533177e-001
1.006166e+002, -1.540881e+000
1.010988e+002, -2.614948e+000
1.015809e+002, -3.035863e+000
1.020630e+002, -2.809276e+000
1.025451e+002, -1.731747e+000
1.030272e+002, -1.040151e+000
1.035093e+002, -9.348767e-001
1.039915e+002, -1.258416e+000
1.044736e+002, -1.343147e+000
1.049557e+002, -1.118704e+000
1.054378e+002, -7.545254e-001
1.059199e+002, -3.339556e-001
1.064020e+002, 2.938718e-001
1.068842e+002, 6.929445e-001
1.073663e+002, 6.733329e-001
1.078484e+002, 2.247246e-001
1.083305e+002, 1.673697e-001
1.088126e+002, 8.381932e-001
1.092947e+002, 1.710495e+000
1.097769e+002, 2.305738e+000
1.102590e+002, 2.938572e+000
1.107411e+002, 2.970674e+000
1.112232e+002, 1.995813e+000
1.117053e+002, -3.892199e-001
1.121874e+002, -2.004046e+000
1.126696e+002, -2.371186e+000
1.131517e+002, -1.968008e+000
1.136338e+002, -1.413181e+000
1.141159e+002, -8.332720e-001
1.145980e+002, -9.210403e-002
1.150801e+002, 1.026645e+000
1.155623e+002, 2.991583e+000
1.160444e+002, 4.222711e+000
1.165265e+002, 3.680234e+000
1.170086e+002, 2.095338e+000
1.174907e+002, 1.004516e+000
1.179728e+002, 1.692187e+000
1.184550e+002, 2.584314e+000
1.189371e+002, 2.590793e+000
1.194192e+002, 8.026956e-001
1.199013e+002, -8.510514e-001
1.203834e+002, -1.116697e+000
1.208655e+002, -3.110360e-001
1.213477e+002, 3.284953e-001
1.218298e+002, -2.765031e-001
1.223119e+002, -1.266754e+000
1.227940e+002, -1.706395e+000
1.232761e+002, -8.456545e-001
1.237582e+002, 2.511169e-001
1.242404e+002, 6.597319e-001
1.247225e+002, 4.206215e-001
1.252046e+002, 3.231547e-002
1.256867e+002, -1.613867e-001
1.261688e+002, -2.335975e-001
1.266509e+002, -3.150112e-001
1.271331e+002, -5.269739e-001
1.276152e+002, -7.530606e-001
1.280973e+002, -7.625814e-001
1.285794e+002, -5.365237e-001
1.290615e+002, -3.242730e-001
1.295436e+002, -5.548744e-001
1.300258e+002, -1.093314e+000
1.305079e+002, -1.347151e+000
1.309900e+002, -6.817189e-001
1.314721e+002, 5.084797e-001
1.319542e+002, 8.889705e-001
1.324363e+002, 2.536568e-001
1.329185e+002, -6.817533e-001
1.334006e+002, -7.183350e-001
1.338827e+002, 1.425207e-001
1.343648e+002, 8.751405e-001
1.348469e+002, 7.736678e-001
1.353290e+002, -8.723845e-002
1.358112e+002, -5.824846e-001
1.362933e+002, -5.372751e-001
1.367754e+002, -1.961317e-001
1.372575e+002, -1.470060e-001
1.377396e+002, -4.566560e-001
1.382217e+002, -7.572266e-001
1.387039e+002, -7.950007e-001
1.391860e+002, -5.282349e-001
1.396681e+002, -2.808830e-001
1.401502e+002, -5.903654e-002
1.406323e+002, 1.134223e-001
1.411144e+002, 8.527592e-002
1.415966e+002, -2.792361e-001
1.420787e+002, -5.842565e-001
1.425608e+002, -4.478535e-001
1.430429e+002, 3.855368e-001
1.435250e+002, 9.303350e-001
1.440071e+002, 9.777537e-001
1.444893e+002, 5.479128e-001
1.449714e+002, 1.489978e-001
1.454535e+002, -2.069009e-001
1.459356e+002, -5.416114e-001
1.464177e+002, -8.812017e-001
1.468998e+002, -1.348014e+000
1.473820e+002, -1.635085e+000
1.478641e+002, -1.655201e+000
1.483462e+002, -1.370696e+000
1.488283e+002, -1.081856e+000
1.493104e+002, -8.680400e-001
1.497925e+002, -6.120328e-001
1.502747e+002, -1.559346e-001
1.507568e+002, 1.141158e+000
1.512389e+002, 1.967442e+000
1.517210e+002, 1.853741e+000
1.522031e+002, 3.238433e-001
1.526852e+002, -6.261994e-001
1.531674e+002, -6.960657e-001
1.536495e+002, -2.353915e-001
1.541316e+002, 2.452904e-001
1.546137e+002, 8.016493e-001
1.550958e+002, 1.292605e+000
1.555779e+002, 1.706285e+000
1.560601e+002, 2.134112e+000
1.565422e+002, 2.265838e+000
1.570243e+002, 1.837381e+000
1.575064e+002, 1.089840e+000
1.579885e+002, 4.901371e-001
1.584706e+002, -7.122263e-002
1.589528e+002, -3.086935e-001
1.594349e+002, -3.162738e-002
1.599170e+002, 1.124704e+000
1.603991e+002, 2.199149e+000
1.608812e+002, 2.739370e+000
1.613633e+002, 2.973560e+000
1.618455e+002, 3.500798e+000
1.623276e+002, 5.033257e+000
1.628097e+002, 6.612968e+000
1.632918e+002, 7.605386e+000
1.637739e+002, 7.269063e+000
1.642560e+002, 7.131619e+000
1.647382e+002, 7.940552e+000
1.652203e+002, 9.528100e+000
1.657024e+002, 1.125208e+001
1.661845e+002, 1.292909e+001
1.666666e+002, 1.455770e+001
1.671487e+002, 1.611858e+001
1.676309e+002, 1.764558e+001
1.681130e+002, 1.908820e+001
1.685951e+002, 2.038070e+001
1.690772e+002, 2.154118e+001
1.695593e+002, 2.264198e+001
1.700414e+002, 2.357987e+001
1.705236e+002, 2.452953e+001
1.710057e+002, 2.569526e+001
1.714878e+002, 2.746881e+001
1.719699e+002, 2.925032e+001
1.724520e+002, 3.055534e+001
1.729341e+002, 3.140290e+001
1.734163e+002, 3.193195e+001
1.738984e+002, 3.187720e+001
1.743805e+002, 3.161285e+001
1.748626e+002, 3.175718e+001
1.753447e+002, 3.293146e+001
1.758268e+002, 3.442262e+001
1.763090e+002, 3.541063e+001
1.767911e+002, 3.588316e+001
1.772732e+002, 3.624424e+001
1.777553e+002, 3.681515e+001
1.782374e+002, 3.737450e+001
1.787195e+002, 3.758993e+001
1.792017e+002, 3.701467e+001
1.796838e+002, 3.614569e+001
1.801659e+002, 3.572437e+001
1.806480e+002, 3.575542e+001
1.811301e+002, 3.608738e+001
1.816122e+002, 3.658384e+001
1.820944e+002, 3.725865e+001
1.825765e+002, 3.814955e+001
1.830586e+002, 3.959623e+001
1.835407e+002, 4.122166e+001
1.840228e+002, 4.215085e+001
1.845049e+002, 4.227202e+001
1.849871e+002, 4.225204e+001
1.854692e+002, 4.284566e+001
1.859513e+002, 4.398775e+001
1.864334e+002, 4.531629e+001
1.869155e+002, 4.695607e+001
1.873976e+002, 4.868899e+001
1.878798e+002, 4.974599e+001
1.883619e+002, 5.003575e+001
1.888440e+002, 4.992187e+001
1.893261e+002, 4.979533e+001
1.898082e+002, 4.966061e+001
1.902903e+002, 4.960657e+001
1.907725e+002, 4.973989e+001
1.912546e+002, 5.001810e+001
1.917367e+002, 5.017291e+001
1.922188e+002, 5.017479e+001
1.927009e+002, 5.010204e+001
1.931830e+002, 5.005166e+001
1.936652e+002, 5.002243e+001
1.941473e+002, 5.006578e+001
1.946294e+002, 5.023772e+001
1.951115e+002, 5.052700e+001
1.955936e+002, 5.073475e+001
1.960757e+002, 5.075214e+001
1.965579e+002, 5.084663e+001
1.970400e+002, 5.178943e+001
1.975221e+002, 5.369433e+001
1.980042e+002, 5.524284e+001
1.984863e+002, 5.557705e+001
1.989684e+002, 5.468351e+001
1.994506e+002, 5.372855e+001
1.999327e+002, 5.267236e+001
2.004148e+002, 5.175169e+001
2.008969e+002, 5.158854e+001
2.013790e+002, 5.228244e+001
2.018611e+002, 5.317845e+001
2.023433e+002, 5.408626e+001
2.028254e+002, 5.506763e+001
2.033075e+002, 5.525888e+001
2.037896e+002, 5.433027e+001
2.042717e+002, 5.281118e+001
2.047538e+002, 5.209996e+001
2.052360e+002, 5.234627e+001
2.057181e+002, 5.283165e+001
2.062002e+002, 5.312704e+001
2.066823e+002, 5.318433e+001
2.071644e+002, 5.335929e+001
2.076465e+002, 5.368737e+001
2.081287e+002, 5.414379e+001
2.086108e+002, 5.471662e+001
2.090929e+002, 5.548326e+001
2.095750e+002, 5.615481e+001
2.100571e+002, 5.648533e+001
2.105392e+002, 5.636897e+001
2.110214e+002, 5.645180e+001
2.115035e+002, 5.690601e+001
2.119856e+002, 5.755944e+001
2.124677e+002, 5.775266e+001
2.129498e+002, 5.727691e+001
2.134319e+002, 5.681292e+001
2.139140e+002, 5.680866e+001
2.143962e+002, 5.740747e+001
2.148783e+002, 5.798860e+001
2.153604e+002, 5.861327e+001
2.158425e+002, 5.916769e+001
2.163246e+002, 5.905327e+001
2.168067e+002, 5.790242e+001
2.172889e+002, 5.678841e+001
2.177710e+002, 5.643060e+001
2.182531e+002, 5.714168e+001
2.187352e+002, 5.764779e+001
2.192173e+002, 5.768551e+001
2.196994e+002, 5.743689e+001
2.201816e+002, 5.783004e+001
2.206637e+002, 5.923405e+001
2.211458e+002, 6.064810e+001
2.216279e+002, 6.137713e+001
2.221100e+002, 6.110394e+001
2.225921e+002, 6.101251e+001
2.230743e+002, 6.127691e+001
2.235564e+002, 6.179914e+001
2.240385e+002, 6.211184e+001
2.245206e+002, 6.209254e+001
2.250027e+002, 6.204999e+001
2.254848e+002, 6.218624e+001
2.259670e+002, 6.259706e+001
2.264491e+002, 6.294523e+001
2.269312e+002, 6.313931e+001
2.274133e+002, 6.324506e+001
2.278954e+002, 6.363428e+001
2.283775e+002, 6.450813e+001
2.288597e+002, 6.536170e+001
2.293418e+002, 6.585791e+001
2.298239e+002, 6.582072e+001
2.303060e+002, 6.582018e+001
2.307881e+002, 6.583127e+001
2.312702e+002, 6.590125e+001
2.317524e+002, 6.629321e+001
2.322345e+002, 6.718952e+001
2.327166e+002, 6.813680e+001
2.331987e+002, 6.885384e+001
2.336808e+002, 6.922763e+001
2.341629e+002, 6.961631e+001
2.346451e+002, 7.005964e+001
2.351272e+002, 7.053604e+001
2.356093e+002, 7.092307e+001
2.360914e+002, 7.100819e+001
2.365735e+002, 7.129347e+001
2.370556e+002, 7.210961e+001
2.375378e+002, 7.378449e+001
2.380199e+002, 7.527421e+001
2.385020e+002, 7.647849e+001
2.389841e+002, 7.746448e+001
2.394662e+002, 7.843176e+001
2.399483e+002, 7.929610e+001
2.404305e+002, 8.026268e+001
2.409126e+002, 8.146761e+001
2.413947e+002, 8.303687e+001
2.418768e+002, 8.455854e+001
2.423589e+002, 8.591982e+001
2.428410e+002, 8.722037e+001
2.433232e+002, 8.887418e+001
2.438053e+002, 9.104682e+001
2.442874e+002, 9.333750e+001
2.447695e+002, 9.549036e+001
2.452516e+002, 9.730870e+001
2.457337e+002, 9.946506e+001
2.462159e+002, 1.020866e+002
2.466980e+002, 1.050539e+002
2.471801e+002, 1.079078e+002
2.476622e+002, 1.105110e+002
2.481443e+002, 1.132454e+002
2.486264e+002, 1.162859e+002
2.491086e+002, 1.198015e+002
2.495907e+002, 1.232493e+002
2.500728e+002, 1.265607e+002
2.505549e+002, 1.298162e+002
2.510370e+002, 1.332137e+002
2.515191e+002, 1.367249e+002
2.520013e+002, 1.404356e+002
2.524834e+002, 1.444360e+002
2.529655e+002, 1.487279e+002
2.534476e+002, 1.532072e+002
2.539297e+002, 1.579151e+002
2.544118e+002, 1.627844e+002
2.548940e+002, 1.677664e+002
2.553761e+002, 1.728258e+002
2.558582e+002, 1.780860e+002
2.563403e+002, 1.836533e+002
2.568224e+002, 1.897325e+002
2.573046e+002, 1.953297e+002
2.577867e+002, 2.001296e+002
2.582688e+002, 2.045887e+002
2.587509e+002, 2.096397e+002
2.592330e+002, 2.155589e+002
2.597151e+002, 2.213872e+002
2.601973e+002, 2.268093e+002
2.606794e+002, 2.316914e+002
2.611615e+002, 2.363493e+002
2.616436e+002, 2.408065e+002
2.621257e+002, 2.449706e+002
2.626078e+002, 2.486320e+002
2.630900e+002, 2.516510e+002
2.635721e+002, 2.544429e+002
2.640542e+002, 2.571151e+002
2.645363e+002, 2.597170e+002
2.650184e+002, 2.621519e+002
2.655005e+002, 2.645518e+002
2.659827e+002, 2.666969e+002
2.664648e+002, 2.682316e+002
2.669469e+002, 2.689498e+002
2.674290e+002, 2.696333e+002
2.679111e+002, 2.705694e+002
2.683932e+002, 2.717822e+002
2.688754e+002, 2.726663e+002
2.693575e+002, 2.730092e+002
2.698396e+002, 2.733366e+002
2.703217e+002, 2.744664e+002
2.708038e+002, 2.766937e+002
2.712859e+002, 2.785090e+002
2.717681e+002, 2.792579e+002
2.722502e+002, 2.789923e+002
2.727323e+002, 2.794274e+002
2.732144e+002, 2.804893e+002
2.736965e+002, 2.823871e+002
2.741786e+002, 2.854937e+002
2.746608e+002, 2.900175e+002
2.751429e+002, 2.948010e+002
2.756250e+002, 2.996363e+002
2.761071e+002, 3.044923e+002
2.765892e+002, 3.093276e+002
2.770714e+002, 3.140514e+002
2.775535e+002, 3.187977e+002
2.780356e+002, 3.236693e+002
2.785177e+002, 3.286687e+002
2.789998e+002, 3.338149e+002
2.794819e+002, 3.393550e+002
2.799641e+002, 3.450131e+002
2.804462e+002, 3.492461e+002
2.809283e+002, 3.518884e+002
2.814104e+002, 3.538584e+002
2.818925e+002, 3.559581e+002
2.823746e+002, 3.581982e+002
2.828568e+002, 3.599807e+002
2.833389e+002, 3.612493e+002
2.838210e+002, 3.619844e+002
2.843031e+002, 3.620839e+002
2.847852e+002, 3.615362e+002
2.852673e+002, 3.605255e+002
2.857495e+002, 3.589113e+002
2.862316e+002, 3.567736e+002
2.867137e+002, 3.550928e+002
2.871958e+002, 3.539949e+002
2.876779e+002, 3.534149e+002
2.881600e+002, 3.532413e+002
2.886422e+002, 3.534728e+002
2.891243e+002, 3.540825e+002
2.896064e+002, 3.550494e+002
2.900885e+002, 3.563669e+002
2.905706e+002, 3.580030e+002
2.910527e+002, 3.599541e+002
2.915349e+002, 3.621992e+002
2.920170e+002, 3.651088e+002
2.924991e+002, 3.685428e+002
2.929812e+002, 3.712846e+002
2.934633e+002, 3.724366e+002
2.939454e+002, 3.723349e+002
2.944276e+002, 3.721464e+002
2.949097e+002, 3.720551e+002
2.953918e+002, 3.713509e+002
2.958739e+002, 3.691354e+002
2.963560e+002, 3.655269e+002
2.968381e+002, 3.609571e+002
2.973203e+002, 3.554858e+002
2.978024e+002, 3.492783e+002
2.982845e+002, 3.425768e+002
2.987666e+002, 3.353562e+002
2.992487e+002, 3.276769e+002
2.997308e+002, 3.192502e+002
3.002130e+002, 3.102579e+002
3.006951e+002, 3.013535e+002
3.011772e+002, 2.925324e+002
3.016593e+002, 2.840961e+002
3.021414e+002, 2.765246e+002
3.026235e+002, 2.698648e+002
3.031057e+002, 2.633784e+002
3.035878e+002, 2.564850e+002
3.040699e+002, 2.493739e+002
3.045520e+002, 2.425051e+002
3.050341e+002, 2.357917e+002
3.055162e+002, 2.296169e+002
3.059984e+002, 2.244990e+002
3.064805e+002, 2.203750e+002
3.069626e+002, 2.164748e+002
3.074447e+002, 2.121492e+002
3.079268e+002, 2.078087e+002
3.084089e+002, 2.040771e+002
3.088911e+002, 2.012802e+002
3.093732e+002, 1.988688e+002
3.098553e+002, 1.963958e+002
3.103374e+002, 1.939465e+002
3.108195e+002, 1.917581e+002
3.113016e+002, 1.902577e+002
3.117838e+002, 1.889604e+002
3.122659e+002, 1.873791e+002
3.127480e+002, 1.852982e+002
3.132301e+002, 1.832357e+002
3.137122e+002, 1.814494e+002
3.141943e+002, 1.798814e+002
3.146765e+002, 1.784513e+002
3.151586e+002, 1.771694e+002
3.156407e+002, 1.759834e+002
3.161228e+002, 1.748958e+002
3.166049e+002, 1.739667e+002
3.170870e+002, 1.729045e+002
3.175692e+002, 1.713936e+002
3.180513e+002, 1.697222e+002
3.185334e+002, 1.683023e+002
3.190155e+002, 1.676557e+002
3.194976e+002, 1.669551e+002
3.199797e+002, 1.657268e+002
3.204619e+002, 1.638782e+002
3.209440e+002, 1.622807e+002
3.214261e+002, 1.612731e+002
3.219082e+002, 1.606126e+002
3.223903e+002, 1.600751e+002
3.228724e+002, 1.600934e+002
3.233546e+002, 1.597425e+002
3.238367e+002, 1.585918e+002
3.243188e+002, 1.566728e+002
3.248009e+002, 1.549503e+002
3.252830e+002, 1.538364e+002
3.257651e+002, 1.528265e+002
3.262473e+002, 1.515984e+002
3.267294e+002, 1.498710e+002
3.272115e+002, 1.482218e+002
3.276936e+002, 1.467034e+002
3.281757e+002, 1.453184e+002
3.286578e+002, 1.439976e+002
3.291400e+002, 1.428853e+002
3.296221e+002, 1.417197e+002
3.301042e+002, 1.403685e+002
3.305863e+002, 1.386251e+002
3.310684e+002, 1.370316e+002
3.315505e+002, 1.356335e+002
3.320327e+002, 1.343818e+002
3.325148e+002, 1.331903e+002
3.329969e+002, 1.320883e+002
3.334790e+002, 1.309938e+002
3.339611e+002, 1.298580e+002
3.344432e+002, 1.286652e+002
3.349254e+002, 1.274763e+002
3.354075e+002, 1.263283e+002
3.358896e+002, 1.251601e+002
3.363717e+002, 1.238553e+002
3.368538e+002, 1.223095e+002
3.373359e+002, 1.209092e+002
3.378180e+002, 1.198177e+002
3.383001e+002, 1.190336e+002
3.387823e+002, 1.180943e+002
3.392644e+002, 1.169208e+002
3.397465e+002, 1.157735e+002
3.402286e+002, 1.149782e+002
3.407107e+002, 1.146324e+002
3.411928e+002, 1.141280e+002
3.416750e+002, 1.134145e+002
3.421571e+002, 1.124491e+002
3.426392e+002, 1.109301e+002
3.431213e+002, 1.087122e+002
3.436034e+002, 1.066503e+002
3.440855e+002, 1.055529e+002
3.445677e+002, 1.053753e+002
3.450498e+002, 1.047134e+002
3.455319e+002, 1.033117e+002
3.460140e+002, 1.015094e+002
3.464961e+002, 9.995516e+001
3.469782e+002, 9.864381e+001
3.474604e+002, 9.727586e+001
3.479425e+002, 9.550024e+001
3.484246e+002, 9.350407e+001
3.489067e+002, 9.213554e+001
3.493888e+002, 9.152799e+001
3.498709e+002, 9.110207e+001
3.503531e+002, 9.012712e+001
3.508352e+002, 8.872635e+001
3.513173e+002, 8.736340e+001
3.517994e+002, 8.638249e+001
3.522815e+002, 8.550309e+001
3.527636e+002, 8.412601e+001
3.532458e+002, 8.225118e+001
3.537279e+002, 8.046136e+001
3.542100e+002, 7.930347e+001
3.546921e+002, 7.855775e+001
3.551742e+002, 7.786668e+001
3.556563e+002, 7.724426e+001
3.561385e+002, 7.648523e+001
3.566206e+002, 7.520177e+001
3.571027e+002, 7.351614e+001
3.575848e+002, 7.207242e+001
3.580669e+002, 7.138944e+001
3.585490e+002, 7.104789e+001
3.590312e+002, 7.069010e+001
3.595133e+002, 7.030964e+001
3.599954e+002, 6.974718e+001
3.604775e+002, 6.876710e+001
3.609596e+002, 6.753476e+001
3.614417e+002, 6.641747e+001
3.619239e+002, 6.549123e+001
3.624060e+002, 6.476446e+001
3.628881e+002, 6.435112e+001
3.633702e+002, 6.436632e+001
3.638523e+002, 6.412935e+001
3.643344e+002, 6.317527e+001
3.648166e+002, 6.193762e+001
3.652987e+002, 6.090252e+001
3.657808e+002, 6.033712e+001
3.662629e+002, 5.985930e+001
3.667450e+002, 5.943793e+001
3.672271e+002, 5.906743e+001
3.677093e+002, 5.854681e+001
3.681914e+002, 5.776417e+001
3.686735e+002, 5.687908e+001
3.691556e+002, 5.598556e+001
3.696377e+002, 5.490482e+001
3.701198e+002, 5.407176e+001
3.706020e+002, 5.359844e+001
3.710841e+002, 5.339756e+001
3.715662e+002, 5.316050e+001
3.720483e+002, 5.291938e+001
3.725304e+002, 5.260465e+001
3.730125e+002, 5.214383e+001
3.734947e+002, 5.138903e+001
3.739768e+002, 5.094749e+001
3.744589e+002, 5.096988e+001
3.749410e+002, 5.117972e+001
3.754231e+002, 5.113030e+001
3.759052e+002, 5.075363e+001
3.763874e+002, 5.031285e+001
3.768695e+002, 4.990387e+001
3.773516e+002, 4.951814e+001
3.778337e+002, 4.895513e+001
3.783158e+002, 4.813386e+001
3.787979e+002, 4.734139e+001
3.792801e+002, 4.695332e+001
3.797622e+002, 4.699308e+001
3.802443e+002, 4.684219e+001
3.807264e+002, 4.632765e+001
3.812085e+002, 4.558757e+001
3.816906e+002, 4.493017e+001
3.821728e+002, 4.435493e+001
3.826549e+002, 4.394291e+001
3.831370e+002, 4.380223e+001
3.836191e+002, 4.388349e+001
3.841012e+002, 4.404252e+001
3.845833e+002, 4.430555e+001
3.850655e+002, 4.450353e+001
3.855476e+002, 4.433018e+001
3.860297e+002, 4.387576e+001
3.865118e+002, 4.347865e+001
3.869939e+002, 4.347816e+001
3.874760e+002, 4.355759e+001
3.879582e+002, 4.305730e+001
3.884403e+002, 4.195446e+001
3.889224e+002, 4.114636e+001
3.894045e+002, 4.177312e+001
3.898866e+002, 4.304777e+001
3.903687e+002, 4.385822e+001
3.908509e+002, 4.364756e+001
3.913330e+002, 4.305769e+001
3.918151e+002, 4.226007e+001
3.922972e+002, 4.137910e+001
3.927793e+002, 4.090124e+001
3.932614e+002, 4.148775e+001
3.937436e+002, 4.230049e+001
3.942257e+002, 4.273352e+001
3.947078e+002, 4.254601e+001
3.951899e+002, 4.229579e+001
3.956720e+002, 4.217810e+001
3.961541e+002, 4.212221e+001
3.966363e+002, 4.201469e+001
3.971184e+002, 4.167875e+001
3.976005e+002, 4.142517e+001
3.980826e+002, 4.140874e+001
3.985647e+002, 4.167525e+001
3.990468e+002, 4.183999e+001
3.995290e+002, 4.172198e+001
4.000111e+002, 4.156885e+001
4.004932e+002, 4.158268e+001
4.009753e+002, 4.197304e+001
4.014574e+002, 4.224979e+001
4.019395e+002, 4.233732e+001
4.024217e+002, 4.227143e+001
4.029038e+002, 4.222302e+001
4.033859e+002, 4.224648e+001
4.038680e+002, 4.220801e+001
4.043501e+002, 4.201596e+001
4.048322e+002, 4.159632e+001
4.053144e+002, 4.128881e+001
4.057965e+002, 4.111010e+001
4.062786e+002, 4.102726e+001
4.067607e+002, 4.100596e+001
4.072428e+002, 4.105744e+001
4.077249e+002, 4.111406e+001
4.082071e+002, 4.119025e+001
4.086892e+002, 4.126047e+001
4.091713e+002, 4.109894e+001
4.096534e+002, 4.066265e+001
4.101355e+002, 4.023988e+001
4.106176e+002, 4.016578e+001
4.110998e+002, 4.036990e+001
4.115819e+002, 4.042122e+001
4.120640e+002, 4.017675e+001
4.125461e+002, 3.984282e+001
4.130282e+002, 3.977856e+001
4.135103e+002, 3.994518e+001
4.139925e+002, 4.011047e+001
4.144746e+002, 4.011871e+001
4.149567e+002, 4.004705e+001
4.154388e+002, 4.000797e+001
4.159209e+002, 4.000974e+001
4.164030e+002, 4.004628e+001
4.168852e+002, 4.014605e+001
4.173673e+002, 4.027198e+001
4.178494e+002, 4.036400e+001
4.183315e+002, 4.051720e+001
4.188136e+002, 4.053368e+001
4.192957e+002, 4.015596e+001
4.197779e+002, 3.946067e+001
4.202600e+002, 3.892468e+001
4.207421e+002, 3.891895e+001
4.212242e+002, 3.906576e+001
4.217063e+002, 3.907951e+001
4.221884e+002, 3.878640e+001
4.226706e+002, 3.859115e+001
4.231527e+002, 3.868048e+001
4.236348e+002, 3.892286e+001
4.241169e+002, 3.907047e+001
4.245990e+002, 3.906067e+001
4.250811e+002, 3.897763e+001
4.255633e+002, 3.874609e+001
4.260454e+002, 3.828811e+001
4.265275e+002, 3.825061e+001
4.270096e+002, 3.902448e+001
4.274917e+002, 3.990864e+001
4.279738e+002, 4.032890e+001
4.284560e+002, 4.013837e+001
4.289381e+002, 3.975814e+001
4.294202e+002, 3.906619e+001
4.299023e+002, 3.825441e+001
4.303844e+002, 3.802209e+001
4.308665e+002, 3.854595e+001
4.313487e+002, 3.915281e+001
4.318308e+002, 3.952759e+001
4.323129e+002, 3.966347e+001
4.327950e+002, 3.971693e+001
4.332771e+002, 3.970654e+001
4.337592e+002, 3.956425e+001
4.342414e+002, 3.903566e+001
4.347235e+002, 3.817583e+001
4.352056e+002, 3.766713e+001
4.356877e+002, 3.783998e+001
4.361698e+002, 3.841771e+001
4.366519e+002, 3.886439e+001
4.371341e+002, 3.918251e+001
4.376162e+002, 3.942546e+001
4.380983e+002, 3.974241e+001
4.385804e+002, 3.999020e+001
4.390625e+002, 3.984603e+001
4.395446e+002, 3.914779e+001
4.400268e+002, 3.842603e+001
4.405089e+002, 3.821164e+001
4.409910e+002, 3.832038e+001
4.414731e+002, 3.837785e+001
4.419552e+002, 3.819074e+001
4.424373e+002, 3.791670e+001
4.429195e+002, 3.762447e+001
4.434016e+002, 3.731959e+001
4.438837e+002, 3.705925e+001
4.443658e+002, 3.680986e+001
4.448479e+002, 3.664511e+001
4.453300e+002, 3.662861e+001
4.458122e+002, 3.690181e+001
4.462943e+002, 3.715232e+001
4.467764e+002, 3.736315e+001
4.472585e+002, 3.751591e+001
4.477406e+002, 3.756358e+001
4.482227e+002, 3.748836e+001
4.487049e+002, 3.731881e+001
4.491870e+002, 3.700248e+001
4.496691e+002, 3.647679e+001
4.501512e+002, 3.621093e+001
4.506333e+002, 3.632378e+001
4.511154e+002, 3.657044e+001
4.515976e+002, 3.674245e+001
4.520797e+002, 3.685295e+001
4.525618e+002, 3.682587e+001
4.530439e+002, 3.658284e+001
4.535260e+002, 3.623053e+001
4.540081e+002, 3.609655e+001
4.544903e+002, 3.620283e+001
4.549724e+002, 3.638631e+001
4.554545e+002, 3.659967e+001
4.559366e+002, 3.682734e+001
4.564187e+002, 3.698351e+001
4.569008e+002, 3.706944e+001
4.573830e+002, 3.705252e+001
4.578651e+002, 3.683493e+001
4.583472e+002, 3.647073e+001
4.588293e+002, 3.614345e+001
4.593114e+002, 3.590436e+001
4.597935e+002, 3.573513e+001
4.602757e+002, 3.558932e+001
4.607578e+002, 3.548077e+001
4.612399e+002, 3.547546e+001
4.617220e+002, 3.566704e+001
4.622041e+002, 3.595191e+001
4.626862e+002, 3.628843e+001
4.631684e+002, 3.672850e+001
4.636505e+002, 3.695434e+001
4.641326e+002, 3.654409e+001
4.646147e+002, 3.589917e+001
4.650968e+002, 3.553311e+001
4.655789e+002, 3.602960e+001
4.660611e+002, 3.639861e+001
4.665432e+002, 3.626050e+001
4.670253e+002, 3.565985e+001
4.675074e+002, 3.516701e+001
4.679895e+002, 3.486633e+001
4.684716e+002, 3.467311e+001
4.689538e+002, 3.454539e+001
4.694359e+002, 3.445101e+001
4.699180e+002, 3.450553e+001
4.704001e+002, 3.480689e+001
4.708822e+002, 3.518960e+001
4.713643e+002, 3.538762e+001
4.718465e+002, 3.532196e+001
4.723286e+002, 3.530922e+001
4.728107e+002, 3.548389e+001
4.732928e+002, 3.578233e+001
4.737749e+002, 3.579948e+001
4.742570e+002, 3.548710e+001
4.747392e+002, 3.514331e+001
4.752213e+002, 3.503683e+001
4.757034e+002, 3.512012e+001
4.761855e+002, 3.503428e+001
4.766676e+002, 3.470111e+001
4.771497e+002, 3.433401e+001
4.776319e+002, 3.432043e+001
4.781140e+002, 3.453577e+001
4.785961e+002, 3.457008e+001
4.790782e+002, 3.395360e+001
4.795603e+002, 3.324314e+001
4.800424e+002, 3.317218e+001
4.805246e+002, 3.367163e+001
4.810067e+002, 3.417739e+001
4.814888e+002, 3.440740e+001
4.819709e+002, 3.444603e+001
4.824530e+002, 3.433590e+001
4.829352e+002, 3.400871e+001
4.834173e+002, 3.372582e+001
4.838994e+002, 3.349759e+001
4.843815e+002, 3.339796e+001
4.848636e+002, 3.354131e+001
4.853457e+002, 3.445592e+001
4.858279e+002, 3.509877e+001
4.863100e+002, 3.502256e+001
4.867921e+002, 3.422210e+001
4.872742e+002, 3.378543e+001
4.877563e+002, 3.399299e+001
4.882384e+002, 3.427638e+001
4.887206e+002, 3.429518e+001
4.892027e+002, 3.387322e+001
4.896848e+002, 3.368734e+001
4.901669e+002, 3.385212e+001
4.906490e+002, 3.414064e+001
4.911311e+002, 3.416350e+001
4.916133e+002, 3.387603e+001
4.920954e+002, 3.363123e+001
4.925775e+002, 3.354494e+001
4.930596e+002, 3.358179e+001
4.935417e+002, 3.362188e+001
4.940238e+002, 3.366498e+001
4.945060e+002, 3.369484e+001
4.949881e+002, 3.370273e+001
4.954702e+002, 3.368699e+001
4.959523e+002, 3.363794e+001
4.964344e+002, 3.354833e+001
4.969165e+002, 3.345140e+001
4.973987e+002, 3.334761e+001
4.978808e+002, 3.326274e+001
4.983629e+002, 3.324780e+001
4.988450e+002, 3.349206e+001
4.993271e+002, 3.367162e+001
4.998092e+002, 3.348611e+001
5.002914e+002, 3.300614e+001
5.007735e+002, 3.263704e+001
5.012556e+002, 3.256748e+001
5.017377e+002, 3.262681e+001
5.022198e+002, 3.271274e+001
5.027019e+002, 3.279045e+001
5.031841e+002, 3.295721e+001
5.036662e+002, 3.336740e+001
5.041483e+002, 3.381423e+001
5.046304e+002, 3.405196e+001
5.051125e+002, 3.398303e+001
5.055946e+002, 3.385904e+001
5.060768e+002, 3.370868e+001
5.065589e+002, 3.353141e+001
5.070410e+002, 3.328917e+001
5.075231e+002, 3.291523e+001
5.080052e+002, 3.266282e+001
5.084873e+002, 3.268139e+001
5.089695e+002, 3.297258e+001
5.094516e+002, 3.338871e+001
5.099337e+002, 3.397409e+001
5.104158e+002, 3.449306e+001
5.108979e+002, 3.466743e+001
5.113800e+002, 3.453777e+001
5.118622e+002, 3.423739e+001
5.123443e+002, 3.366106e+001
5.128264e+002, 3.313883e+001
5.133085e+002, 3.321704e+001
5.137906e+002, 3.375418e+001
5.142728e+002, 3.424266e+001
5.147549e+002, 3.431499e+001
5.152370e+002, 3.426882e+001
5.157191e+002, 3.436485e+001
5.162012e+002, 3.463052e+001
5.166833e+002, 3.490098e+001
5.171655e+002, 3.516657e+001
5.176476e+002, 3.537065e+001
5.181297e+002, 3.546313e+001
5.186118e+002, 3.531498e+001
5.190939e+002, 3.520335e+001
5.195760e+002, 3.528017e+001
5.200582e+002, 3.541532e+001
5.205403e+002, 3.528638e+001
5.210224e+002, 3.455917e+001
5.215045e+002, 3.404332e+001
5.219866e+002, 3.404571e+001
5.224688e+002, 3.456529e+001
5.229509e+002, 3.478035e+001
5.234330e+002, 3.458276e+001
5.239151e+002, 3.433484e+001
5.243972e+002, 3.432799e+001
5.248793e+002, 3.456760e+001
5.253615e+002, 3.479289e+001
5.258436e+002, 3.498220e+001
5.263257e+002, 3.515019e+001
5.268078e+002, 3.528962e+001
5.272899e+002, 3.541541e+001
5.277720e+002, 3.560285e+001
5.282542e+002, 3.594434e+001
5.287363e+002, 3.631128e+001
5.292184e+002, 3.650916e+001
5.297005e+002, 3.656394e+001
5.301826e+002, 3.662739e+001
5.306647e+002, 3.693877e+001
5.311469e+002, 3.721009e+001
5.316290e+002, 3.715318e+001
5.321111e+002, 3.666356e+001
5.325932e+002, 3.616861e+001
5.330753e+002, 3.581092e+001
5.335574e+002, 3.554366e+001
5.340396e+002, 3.532404e+001
5.345217e+002, 3.498944e+001
5.350038e+002, 3.488389e+001
5.354859e+002, 3.520911e+001
5.359680e+002, 3.580576e+001
5.364501e+002, 3.617605e+001
5.369323e+002, 3.625807e+001
5.374144e+002, 3.621464e+001
5.378965e+002, 3.605495e+001
5.383786e+002, 3.577306e+001
5.388607e+002, 3.566708e+001
5.393428e+002, 3.577912e+001
5.398250e+002, 3.593853e+001
5.403071e+002, 3.599730e+001
5.407892e+002, 3.596090e+001
5.412713e+002, 3.585294e+001
5.417534e+002, 3.563094e+001
5.422355e+002, 3.546667e+001
5.427177e+002, 3.567422e+001
5.431998e+002, 3.615514e+001
5.436819e+002, 3.659116e+001
5.441640e+002, 3.694573e+001
5.446461e+002, 3.710788e+001
5.451282e+002, 3.681199e+001
5.456104e+002, 3.614799e+001
5.460925e+002, 3.566457e+001
5.465746e+002, 3.588199e+001
5.470567e+002, 3.621221e+001
5.475388e+002, 3.620285e+001
5.480209e+002, 3.562305e+001
5.485031e+002, 3.528001e+001
5.489852e+002, 3.562040e+001
5.494673e+002, 3.614357e+001
5.499494e+002, 3.630867e+001
5.504315e+002, 3.575039e+001
5.509136e+002, 3.539030e+001
5.513958e+002, 3.534799e+001
5.518779e+002, 3.555809e+001
5.523600e+002, 3.585656e+001
5.528421e+002, 3.628565e+001
5.533242e+002, 3.666034e+001
5.538063e+002, 3.689946e+001
5.542885e+002, 3.701415e+001
5.547706e+002, 3.708982e+001
5.552527e+002, 3.712710e+001
5.557348e+002, 3.712059e+001
5.562169e+002, 3.701623e+001
5.566990e+002, 3.686647e+001
5.571812e+002, 3.682747e+001
5.576633e+002, 3.695394e+001
5.581454e+002, 3.707733e+001
5.586275e+002, 3.694102e+001
5.591096e+002, 3.670187e+001
5.595917e+002, 3.663363e+001
5.600739e+002, 3.707402e+001
5.605560e+002, 3.749794e+001
5.610381e+002, 3.761945e+001
5.615202e+002, 3.749174e+001
5.620023e+002, 3.736470e+001
5.624844e+002, 3.720657e+001
5.629666e+002, 3.714344e+001
5.634487e+002, 3.731657e+001
5.639308e+002, 3.784755e+001
5.644129e+002, 3.798239e+001
5.648950e+002, 3.746628e+001
5.653771e+002, 3.683178e+001
5.658593e+002, 3.651857e+001
5.663414e+002, 3.659098e+001
5.668235e+002, 3.672980e+001
5.673056e+002, 3.694851e+001
5.677877e+002, 3.715404e+001
5.682698e+002, 3.708378e+001
5.687520e+002, 3.676389e+001
5.692341e+002, 3.665034e+001
5.697162e+002, 3.699447e+001
5.701983e+002, 3.759850e+001
5.706804e+002, 3.827950e+001
5.711625e+002, 3.897799e+001
5.716447e+002, 3.930538e+001
5.721268e+002, 3.865001e+001
5.726089e+002, 3.770906e+001
5.730910e+002, 3.720616e+001
5.735731e+002, 3.727251e+001
5.740552e+002, 3.734236e+001
5.745374e+002, 3.701738e+001
5.750195e+002, 3.664243e+001
5.755016e+002, 3.653822e+001
5.759837e+002, 3.697205e+001
5.764658e+002, 3.742605e+001
5.769479e+002, 3.802325e+001
5.774301e+002, 3.857401e+001
5.779122e+002, 3.866090e+001
5.783943e+002, 3.798728e+001
5.788764e+002, 3.743611e+001
5.793585e+002, 3.724456e+001
5.798406e+002, 3.737882e+001
5.803228e+002, 3.769924e+001
5.808049e+002, 3.826319e+001
5.812870e+002, 3.864103e+001
5.817691e+002, 3.834788e+001
5.822512e+002, 3.759762e+001
5.827333e+002, 3.731628e+001
5.832155e+002, 3.759371e+001
5.836975e+002, 3.797216e+001
5.841796e+002, 3.802446e+001
5.846617e+002, 3.788801e+001
5.851439e+002, 3.780019e+001
5.856260e+002, 3.788264e+001
5.861081e+002, 3.792620e+001
5.865902e+002, 3.765706e+001
5.870723e+002, 3.727327e+001
5.875544e+002, 3.715916e+001
5.880366e+002, 3.779028e+001
5.885187e+002, 3.833325e+001
5.890008e+002, 3.844365e+001
5.894829e+002, 3.814303e+001
5.899650e+002, 3.801826e+001
5.904471e+002, 3.818057e+001
5.909293e+002, 3.837348e+001
5.914114e+002, 3.848531e+001
5.918935e+002, 3.851377e+001
5.923756e+002, 3.843969e+001
5.928577e+002, 3.819970e+001
5.933398e+002, 3.802791e+001
5.938220e+002, 3.833012e+001
5.943041e+002, 3.900842e+001
5.947862e+002, 3.924648e+001
5.952683e+002, 3.880733e+001
5.957504e+002, 3.811905e+001
5.962325e+002, 3.760018e+001
5.967147e+002, 3.726545e+001
5.971968e+002, 3.715813e+001
5.976789e+002, 3.750118e+001
5.981610e+002, 3.790437e+001
5.986431e+002, 3.807344e+001
5.991252e+002, 3.805055e+001
5.996074e+002, 3.804351e+001
6.000895e+002, 3.821525e+001
6.005716e+002, 3.834573e+001
6.010537e+002, 3.827288e+001
6.015358e+002, 3.789608e+001
6.020179e+002, 3.777909e+001
6.025001e+002, 3.817812e+001
6.029822e+002, 3.858908e+001
6.034643e+002, 3.858184e+001
6.039464e+002, 3.797786e+001
6.044285e+002, 3.768011e+001
6.049106e+002, 3.780328e+001
6.053928e+002, 3.813163e+001
6.058749e+002, 3.840928e+001
6.063570e+002, 3.862737e+001
6.068391e+002, 3.863144e+001
6.073212e+002, 3.823142e+001
6.078033e+002, 3.777666e+001
6.082855e+002, 3.790552e+001
6.087676e+002, 3.847105e+001
6.092497e+002, 3.893756e+001
6.097318e+002, 3.900584e+001
6.102139e+002, 3.885541e+001
6.106960e+002, 3.849037e+001
6.111782e+002, 3.793286e+001
6.116603e+002, 3.764221e+001
6.121424e+002, 3.802272e+001
6.126245e+002, 3.854085e+001
6.131066e+002, 3.887781e+001
6.135887e+002, 3.898975e+001
6.140709e+002, 3.894994e+001
6.145530e+002, 3.858252e+001
6.150351e+002, 3.822239e+001
6.155172e+002, 3.831014e+001
6.159993e+002, 3.903081e+001
6.164814e+002, 3.933037e+001
6.169636e+002, 3.896479e+001
6.174457e+002, 3.825124e+001
6.179278e+002, 3.768905e+001
6.184099e+002, 3.728984e+001
6.188920e+002, 3.716294e+001
6.193741e+002, 3.752435e+001
6.198563e+002, 3.805478e+001
6.203384e+002, 3.827052e+001
6.208205e+002, 3.821848e+001
6.213026e+002, 3.813457e+001
6.217847e+002, 3.812078e+001
6.222668e+002, 3.815147e+001
6.227490e+002, 3.823520e+001
6.232311e+002, 3.838269e+001
6.237132e+002, 3.845830e+001
6.241953e+002, 3.829416e+001
6.246774e+002, 3.813728e+001
6.251595e+002, 3.818030e+001
6.256417e+002, 3.868715e+001
6.261238e+002, 3.886389e+001
6.266059e+002, 3.857759e+001
6.270880e+002, 3.810751e+001
6.275701e+002, 3.780778e+001
6.280522e+002, 3.768827e+001
6.285344e+002, 3.764258e+001
6.290165e+002, 3.764161e+001
6.294986e+002, 3.771247e+001
6.299807e+002, 3.801073e+001
6.304628e+002, 3.847364e+001
6.309449e+002, 3.875807e+001
6.314271e+002, 3.850993e+001
6.319092e+002, 3.811876e+001
6.323913e+002, 3.800758e+001
6.328734e+002, 3.814648e+001
6.333555e+002, 3.833173e+001
6.338376e+002, 3.857804e+001
6.343198e+002, 3.874798e+001
6.348019e+002, 3.876632e+001
6.352840e+002, 3.862178e+001
6.357661e+002, 3.833313e+001
6.362482e+002, 3.768221e+001
6.367303e+002, 3.706995e+001
6.372125e+002, 3.677289e+001
6.376946e+002, 3.686444e+001
6.381767e+002, 3.710928e+001
6.386588e+002, 3.760485e+001
6.391409e+002, 3.806815e+001
6.396230e+002, 3.799406e+001
6.401052e+002, 3.742379e+001
6.405873e+002, 3.697848e+001
6.410694e+002, 3.683491e+001
6.415515e+002, 3.686302e+001
6.420336e+002, 3.695072e+001
6.425157e+002, 3.706065e+001
6.429979e+002, 3.708384e+001
6.434800e+002, 3.689731e+001
6.439621e+002, 3.666148e+001
6.444442e+002, 3.637904e+001
6.449263e+002, 3.610144e+001
6.454084e+002, 3.611694e+001
6.458906e+002, 3.705690e+001
6.463727e+002, 3.784193e+001
6.468548e+002, 3.783476e+001
6.473369e+002, 3.688967e+001
6.478190e+002, 3.632005e+001
6.483011e+002, 3.626974e+001
6.487833e+002, 3.638680e+001
6.492654e+002, 3.641343e+001
6.497475e+002, 3.633685e+001
6.502296e+002, 3.634774e+001
6.507117e+002, 3.647279e+001
6.511938e+002, 3.662299e+001
6.516760e+002, 3.668306e+001
6.521581e+002, 3.667621e+001
6.526402e+002, 3.667675e+001
6.531223e+002, 3.671888e+001
6.536044e+002, 3.674223e+001
6.540865e+002, 3.664298e+001
6.545687e+002, 3.649142e+001
6.550508e+002, 3.642211e+001
6.555329e+002, 3.676022e+001
6.560150e+002, 3.690574e+001
6.564971e+002, 3.641693e+001
6.569792e+002, 3.546963e+001
6.574614e+002, 3.500079e+001
6.579435e+002, 3.536340e+001
6.584256e+002, 3.576369e+001
6.589077e+002, 3.599834e+001
6.593898e+002, 3.606392e+001
6.598719e+002, 3.577149e+001
6.603541e+002, 3.501361e+001
6.608362e+002, 3.440205e+001
6.613183e+002, 3.451408e+001
6.618004e+002, 3.514790e+001
6.622825e+002, 3.548881e+001
6.627646e+002, 3.548146e+001
6.632468e+002, 3.537676e+001
6.637289e+002, 3.537461e+001
6.642110e+002, 3.541703e+001
6.646931e+002, 3.543615e+001
6.651752e+002, 3.543173e+001
6.656573e+002, 3.536432e+001
6.661395e+002, 3.503596e+001
6.666216e+002, 3.470368e+001
6.671037e+002, 3.468367e+001
6.675858e+002, 3.553774e+001
6.680679e+002, 3.603715e+001
6.685500e+002, 3.597972e+001
6.690322e+002, 3.556071e+001
6.695143e+002, 3.511895e+001
6.699964e+002, 3.457145e+001
6.704785e+002, 3.443348e+001
6.709606e+002, 3.505778e+001
6.714427e+002, 3.606242e+001
6.719249e+002, 3.634552e+001
6.724070e+002, 3.597316e+001
6.728891e+002, 3.545700e+001
6.733712e+002, 3.499512e+001
6.738533e+002, 3.461575e+001
6.743354e+002, 3.436470e+001
6.748176e+002, 3.423780e+001
6.752997e+002, 3.419726e+001
6.757818e+002, 3.427502e+001
6.762639e+002, 3.439546e+001
6.767460e+002, 3.448734e+001
6.772281e+002, 3.448983e+001
6.777103e+002, 3.470559e+001
6.781924e+002, 3.549939e+001
6.786745e+002, 3.614700e+001
6.791566e+002, 3.602089e+001
6.796387e+002, 3.488637e+001
6.801208e+002, 3.407617e+001
6.806030e+002, 3.364708e+001
6.810851e+002, 3.355973e+001
6.815672e+002, 3.400289e+001
6.820493e+002, 3.479474e+001
6.825314e+002, 3.510937e+001
6.830135e+002, 3.458361e+001
6.834957e+002, 3.390058e+001
6.839778e+002, 3.378457e+001
6.844599e+002, 3.402942e+001
6.849420e+002, 3.424981e+001
6.854241e+002, 3.433733e+001
6.859063e+002, 3.433751e+001
6.863884e+002, 3.414362e+001
6.868705e+002, 3.385911e+001
6.873526e+002, 3.385667e+001
6.878347e+002, 3.452109e+001
6.883168e+002, 3.491780e+001
6.887990e+002, 3.465901e+001
6.892811e+002, 3.389303e+001
6.897632e+002, 3.369189e+001
6.902453e+002, 3.413310e+001
6.907274e+002, 3.460467e+001
6.912095e+002, 3.477978e+001
6.916917e+002, 3.470801e+001
6.921738e+002, 3.448738e+001
6.926559e+002, 3.412700e+001
6.931380e+002, 3.375924e+001
6.936201e+002, 3.344027e+001
6.941022e+002, 3.318636e+001
6.945844e+002, 3.306509e+001
6.950665e+002, 3.312671e+001
6.955486e+002, 3.302553e+001
6.960307e+002, 3.223369e+001
6.965128e+002, 3.149827e+001
6.969949e+002, 3.146670e+001
6.974771e+002, 3.283617e+001
6.979592e+002, 3.340637e+001
6.984413e+002, 3.285279e+001
6.989234e+002, 3.191105e+001
6.994055e+002, 3.146335e+001
6.998876e+002, 3.151793e+001
7.003698e+002, 3.164118e+001
7.008519e+002, 3.178133e+001
7.013340e+002, 3.190265e+001
7.018161e+002, 3.197885e+001
7.022982e+002, 3.199639e+001
7.027803e+002, 3.190942e+001
7.032625e+002, 3.154628e+001
7.037446e+002, 3.126319e+001
7.042267e+002, 3.144687e+001
7.047088e+002, 3.187955e+001
7.051909e+002, 3.208105e+001
7.056730e+002, 3.179100e+001
7.061552e+002, 3.138975e+001
7.066373e+002, 3.078347e+001
7.071194e+002, 3.011227e+001
7.076015e+002, 3.013407e+001
7.080836e+002, 3.112683e+001
7.085657e+002, 3.196448e+001
7.090479e+002, 3.214877e+001
7.095300e+002, 3.181530e+001
7.100121e+002, 3.148099e+001
7.104942e+002, 3.114772e+001
7.109763e+002, 3.089298e+001
7.114584e+002, 3.081269e+001
7.119406e+002, 3.081374e+001
7.124227e+002, 3.078773e+001
7.129048e+002, 3.072832e+001
7.133869e+002, 3.065552e+001
7.138690e+002, 3.050458e+001
7.143511e+002, 3.039937e+001
7.148333e+002, 3.046230e+001
7.153154e+002, 3.082983e+001
7.157975e+002, 3.092371e+001
7.162796e+002, 3.049605e+001
7.167617e+002, 3.009667e+001
7.172438e+002, 3.032098e+001
7.177260e+002, 3.128973e+001
7.182081e+002, 3.141200e+001
7.186902e+002, 3.042577e+001
7.191723e+002, 2.928299e+001
7.196544e+002, 2.926763e+001
7.201365e+002, 2.996947e+001
7.206187e+002, 3.032023e+001
7.211008e+002, 2.998152e+001
7.215829e+002, 2.956932e+001
7.220650e+002, 2.950897e+001
7.225471e+002, 2.966888e+001
7.230292e+002, 2.987251e+001
7.235114e+002, 3.029053e+001
7.239935e+002, 3.046994e+001
7.244756e+002, 3.014618e+001
7.249577e+002, 2.961507e+001
7.254398e+002, 2.939852e+001
7.259219e+002, 2.964004e+001
7.264041e+002, 2.975725e+001
7.268862e+002, 2.960917e+001
7.273683e+002, 2.927762e+001
7.278504e+002, 2.879906e+001
7.283325e+002, 2.824253e+001
7.288146e+002, 2.811671e+001
7.292968e+002, 2.911638e+001
7.297789e+002, 3.026624e+001
7.302610e+002, 3.027676e+001
7.307431e+002, 2.946618e+001
7.312252e+002, 2.889010e+001
7.317073e+002, 2.938988e+001
7.321895e+002, 2.984576e+001
7.326716e+002, 2.963158e+001
7.331537e+002, 2.880191e+001
7.336358e+002, 2.841317e+001
7.341179e+002, 2.867763e+001
7.346000e+002, 2.902100e+001
7.350822e+002, 2.922532e+001
7.355643e+002, 2.930094e+001
7.360464e+002, 2.933537e+001
7.365285e+002, 2.932951e+001
7.370106e+002, 2.926922e+001
7.374927e+002, 2.907393e+001
7.379749e+002, 2.884401e+001
7.384570e+002, 2.875323e+001
7.389391e+002, 2.880958e+001
7.394212e+002, 2.893419e+001
7.399033e+002, 2.927963e+001
7.403854e+002, 2.953369e+001
7.408676e+002, 2.939268e+001
7.413497e+002, 2.864806e+001
7.418318e+002, 2.823471e+001
7.423139e+002, 2.843863e+001
7.427960e+002, 2.871924e+001
7.432781e+002, 2.868744e+001
7.437603e+002, 2.828273e+001
7.442424e+002, 2.797198e+001
7.447245e+002, 2.775088e+001
7.452066e+002, 2.769019e+001
7.456887e+002, 2.799051e+001
7.461708e+002, 2.850119e+001
7.466530e+002, 2.883731e+001
7.471351e+002, 2.893484e+001
7.476172e+002, 2.885015e+001
7.480993e+002, 2.848065e+001
7.485814e+002, 2.801421e+001
7.490635e+002, 2.766302e+001
7.495457e+002, 2.748505e+001
7.500278e+002, 2.740265e+001
7.505099e+002, 2.737518e+001
7.509920e+002, 2.745601e+001
7.514741e+002, 2.778743e+001
7.519562e+002, 2.850721e+001
7.524384e+002, 2.883612e+001
7.529205e+002, 2.857448e+001
7.534026e+002, 2.807929e+001
7.538847e+002, 2.795027e+001
7.543668e+002, 2.808990e+001
7.548489e+002, 2.808088e+001
7.553311e+002, 2.767879e+001
7.558132e+002, 2.730741e+001
7.562953e+002, 2.750908e+001
7.567774e+002, 2.797376e+001
7.572595e+002, 2.815342e+001
7.577416e+002, 2.754841e+001
7.582238e+002, 2.702844e+001
7.587059e+002, 2.680156e+001
7.591880e+002, 2.678406e+001
7.596701e+002, 2.683129e+001
7.601522e+002, 2.698760e+001
7.606343e+002, 2.704770e+001
7.611165e+002, 2.688778e+001
7.615986e+002, 2.667438e+001
7.620807e+002, 2.696186e+001
7.625628e+002, 2.763750e+001
7.630449e+002, 2.803586e+001
7.635270e+002, 2.757012e+001
7.640092e+002, 2.693748e+001
7.644913e+002, 2.680813e+001
7.649734e+002, 2.705608e+001
7.654555e+002, 2.728560e+001
7.659376e+002, 2.751356e+001
7.664197e+002, 2.752903e+001
7.669019e+002, 2.714048e+001
7.673840e+002, 2.645216e+001
7.678661e+002, 2.589489e+001
7.683482e+002, 2.542140e+001
7.688303e+002, 2.523438e+001
7.693124e+002, 2.553741e+001
7.697946e+002, 2.614972e+001
7.702767e+002, 2.640328e+001
7.707588e+002, 2.633498e+001
7.712409e+002, 2.628942e+001
7.717230e+002, 2.663544e+001
7.722051e+002, 2.699312e+001
7.726873e+002, 2.689594e+001
7.731694e+002, 2.640497e+001
7.736515e+002, 2.604121e+001
7.741336e+002, 2.604295e+001
7.746157e+002, 2.615919e+001
7.750978e+002, 2.635561e+001
7.755800e+002, 2.662053e+001
7.760621e+002, 2.659048e+001
7.765442e+002, 2.613596e+001
7.770263e+002, 2.575483e+001
7.775084e+002, 2.576270e+001
7.779905e+002, 2.607611e+001
7.784727e+002, 2.633585e+001
7.789548e+002, 2.654120e+001
7.794369e+002, 2.668146e+001
7.799190e+002, 2.671368e+001
7.804011e+002, 2.669951e+001
7.808832e+002, 2.672960e+001
7.813654e+002, 2.680633e+001
7.818475e+002, 2.676548e+001
7.823296e+002, 2.632564e+001
7.828117e+002, 2.596731e+001
7.832938e+002, 2.598259e+001
7.837759e+002, 2.642745e+001
7.842581e+002, 2.656197e+001
7.847402e+002, 2.628677e+001
7.852223e+002, 2.601096e+001
7.857044e+002, 2.611061e+001
7.861865e+002, 2.645227e+001
7.866686e+002, 2.643796e+001
7.871508e+002, 2.605621e+001
7.876329e+002, 2.572680e+001
7.881150e+002, 2.594419e+001
7.885971e+002, 2.624753e+001
7.890792e+002, 2.610965e+001
7.895613e+002, 2.540499e+001
7.900435e+002, 2.492793e+001
7.905256e+002, 2.503571e+001
7.910077e+002, 2.527293e+001
7.914898e+002, 2.537760e+001
7.919719e+002, 2.529456e+001
7.924540e+002, 2.552965e+001
7.929362e+002, 2.616925e+001
7.934183e+002, 2.675181e+001
7.939004e+002, 2.679749e+001
7.943825e+002, 2.648444e+001
7.948646e+002, 2.627690e+001
7.953467e+002, 2.620617e+001
7.958289e+002, 2.627208e+001
7.963110e+002, 2.679340e+001
7.967931e+002, 2.723896e+001
7.972752e+002, 2.698529e+001
7.977573e+002, 2.564247e+001
7.982394e+002, 2.506992e+001
7.987216e+002, 2.611601e+001
7.992037e+002, 2.726637e+001
7.996858e+002, 2.754065e+001
8.001679e+002, 2.681426e+001
8.006500e+002, 2.609992e+001
8.011321e+002, 2.535289e+001
8.016143e+002, 2.483374e+001
8.020964e+002, 2.492568e+001
8.025785e+002, 2.536890e+001
8.030606e+002, 2.566558e+001
8.035427e+002, 2.575141e+001
8.040248e+002, 2.582248e+001
8.045070e+002, 2.609395e+001
8.049891e+002, 2.633025e+001
8.054712e+002, 2.630765e+001
8.059533e+002, 2.584534e+001
8.064354e+002, 2.563931e+001
8.069175e+002, 2.576429e+001
8.073997e+002, 2.604123e+001
8.078818e+002, 2.640167e+001
8.083639e+002, 2.683752e+001
8.088460e+002, 2.711847e+001
8.093281e+002, 2.723895e+001
8.098102e+002, 2.717745e+001
8.102924e+002, 2.668808e+001
8.107745e+002, 2.610788e+001
8.112566e+002, 2.596018e+001
8.117387e+002, 2.636072e+001
8.122208e+002, 2.671737e+001
8.127029e+002, 2.683899e+001
8.131851e+002, 2.678941e+001
8.136672e+002, 2.656527e+001
8.141493e+002, 2.607779e+001
8.146314e+002, 2.583762e+001
8.151135e+002, 2.589508e+001
8.155956e+002, 2.607942e+001
8.160778e+002, 2.626984e+001
8.165599e+002, 2.647177e+001
8.170420e+002, 2.676349e+001
8.175241e+002, 2.715386e+001
8.180062e+002, 2.739953e+001
8.184883e+002, 2.722737e+001
8.189705e+002, 2.687138e+001
8.194526e+002, 2.649054e+001
8.199347e+002, 2.607078e+001
8.204168e+002, 2.591613e+001
8.208989e+002, 2.642141e+001
8.213810e+002, 2.690392e+001
8.218632e+002, 2.699786e+001
8.223453e+002, 2.665814e+001
8.228274e+002, 2.633706e+001
8.233095e+002, 2.602042e+001
8.237916e+002, 2.584239e+001
8.242737e+002, 2.605361e+001
8.247559e+002, 2.644206e+001
8.252380e+002, 2.655822e+001
8.257201e+002, 2.638036e+001
8.262022e+002, 2.614834e+001
8.266843e+002, 2.589165e+001
8.271664e+002, 2.572135e+001
8.276486e+002, 2.573696e+001
8.281307e+002, 2.597815e+001
8.286128e+002, 2.620684e+001
8.290949e+002, 2.647791e+001
8.295770e+002, 2.663843e+001
8.300591e+002, 2.651013e+001
8.305413e+002, 2.614495e+001
8.310234e+002, 2.622258e+001
8.315055e+002, 2.673590e+001
8.319876e+002, 2.715972e+001
8.324697e+002, 2.696951e+001
8.329518e+002, 2.658937e+001
8.334340e+002, 2.658277e+001
8.339161e+002, 2.693627e+001
8.343982e+002, 2.700145e+001
8.348803e+002, 2.606875e+001
8.353624e+002, 2.528405e+001
8.358445e+002, 2.523443e+001
8.363267e+002, 2.587665e+001
8.368088e+002, 2.615548e+001
8.372909e+002, 2.599183e+001
8.377730e+002, 2.582280e+001
8.382551e+002, 2.599178e+001
8.387372e+002, 2.630050e+001
8.392194e+002, 2.611356e+001
8.397015e+002, 2.553560e+001
8.401836e+002, 2.517186e+001
8.406657e+002, 2.564166e+001
8.411478e+002, 2.619224e+001
8.416299e+002, 2.633868e+001
8.421121e+002, 2.610706e+001
8.425942e+002, 2.590763e+001
8.430763e+002, 2.570898e+001
8.435584e+002, 2.564624e+001
8.440405e+002, 2.579074e+001
8.445226e+002, 2.609391e+001
8.450048e+002, 2.643342e+001
8.454869e+002, 2.679563e+001
8.459690e+002, 2.697199e+001
8.464511e+002, 2.674967e+001
8.469332e+002, 2.637871e+001
8.474153e+002, 2.604547e+001
8.478975e+002, 2.578066e+001
8.483796e+002, 2.567094e+001
8.488617e+002, 2.587363e+001
8.493438e+002, 2.609650e+001
8.498259e+002, 2.632639e+001
8.503080e+002, 2.650205e+001
8.507902e+002, 2.637622e+001
8.512723e+002, 2.585765e+001
8.517544e+002, 2.561952e+001
8.522365e+002, 2.593545e+001
8.527186e+002, 2.650319e+001
8.532007e+002, 2.686941e+001
8.536829e+002, 2.704716e+001
8.541650e+002, 2.707563e+001
8.546471e+002, 2.691162e+001
8.551292e+002, 2.667884e+001
8.556113e+002, 2.627599e+001
8.560934e+002, 2.588381e+001
8.565756e+002, 2.584902e+001
8.570577e+002, 2.640185e+001
8.575398e+002, 2.686182e+001
8.580219e+002, 2.718328e+001
8.585040e+002, 2.734825e+001
8.589861e+002, 2.727118e+001
8.594683e+002, 2.699188e+001
8.599504e+002, 2.670472e+001
8.604325e+002, 2.642917e+001
8.609146e+002, 2.625164e+001
8.613967e+002, 2.634889e+001
8.618788e+002, 2.655160e+001
8.623610e+002, 2.664422e+001
8.628431e+002, 2.645079e+001
8.633252e+002, 2.637630e+001
8.638073e+002, 2.652403e+001
8.642894e+002, 2.672708e+001
8.647715e+002, 2.681377e+001
8.652537e+002, 2.677723e+001
8.657358e+002, 2.680106e+001
8.662179e+002, 2.691900e+001
8.667000e+002, 2.696520e+001
8.671821e+002, 2.659778e+001
8.676642e+002, 2.612491e+001
8.681464e+002, 2.606680e+001
8.686285e+002, 2.657217e+001
8.691106e+002, 2.697941e+001
8.695927e+002, 2.705235e+001
8.700748e+002, 2.691967e+001
8.705569e+002, 2.660584e+001
8.710391e+002, 2.603408e+001
8.715212e+002, 2.586034e+001
8.720033e+002, 2.615955e+001
8.724854e+002, 2.656268e+001
8.729675e+002, 2.678379e+001
8.734496e+002, 2.690047e+001
8.739318e+002, 2.718236e+001
8.744139e+002, 2.760152e+001
8.748960e+002, 2.775809e+001
8.753781e+002, 2.709200e+001
8.758602e+002, 2.636986e+001
8.763423e+002, 2.611967e+001
8.768245e+002, 2.636819e+001
8.773066e+002, 2.641774e+001
8.777887e+002, 2.612041e+001
8.782708e+002, 2.598096e+001
8.787529e+002, 2.633079e+001
8.792350e+002, 2.693700e+001
8.797172e+002, 2.689649e+001
8.801993e+002, 2.631279e+001
8.806814e+002, 2.585271e+001
8.811635e+002, 2.605072e+001
8.816456e+002, 2.635206e+001
8.821277e+002, 2.626092e+001
8.826099e+002, 2.593264e+001
8.830920e+002, 2.584215e+001
8.835741e+002, 2.631095e+001
8.840562e+002, 2.669398e+001
8.845383e+002, 2.685535e+001
8.850204e+002, 2.690528e+001
8.855026e+002, 2.713958e+001
8.859847e+002, 2.753476e+001
8.864668e+002, 2.775015e+001
8.869489e+002, 2.768118e+001
8.874310e+002, 2.740920e+001
8.879131e+002, 2.685118e+001
8.883953e+002, 2.620720e+001
8.888774e+002, 2.577117e+001
8.893595e+002, 2.560556e+001
8.898416e+002, 2.570490e+001
8.903237e+002, 2.629652e+001
8.908058e+002, 2.694967e+001
8.912880e+002, 2.722906e+001
8.917701e+002, 2.711600e+001
8.922522e+002, 2.674956e+001
8.927343e+002, 2.607699e+001
8.932164e+002, 2.554713e+001
8.936985e+002, 2.586354e+001
8.941807e+002, 2.652259e+001
8.946628e+002, 2.674652e+001
8.951449e+002, 2.634887e+001
8.956270e+002, 2.600793e+001
8.961091e+002, 2.599961e+001
8.965912e+002, 2.609790e+001
8.970734e+002, 2.619308e+001
8.975555e+002, 2.629550e+001
8.980376e+002, 2.623243e+001
8.985197e+002, 2.597738e+001
8.990018e+002, 2.572354e+001
8.994839e+002, 2.557560e+001
8.999661e+002, 2.553596e+001
9.004482e+002, 2.565912e+001
9.009303e+002, 2.591827e+001
9.014124e+002, 2.614038e+001
9.018945e+002, 2.620724e+001
9.023766e+002, 2.625223e+001
9.028588e+002, 2.635750e+001
9.033409e+002, 2.649933e+001
9.038230e+002, 2.657928e+001
9.043051e+002, 2.661117e+001
9.047872e+002, 2.650480e+001
9.052693e+002, 2.614432e+001
9.057515e+002, 2.573157e+001
9.062336e+002, 2.574045e+001
9.067157e+002, 2.604443e+001
9.071978e+002, 2.627400e+001
9.076799e+002, 2.614832e+001
9.081620e+002, 2.607697e+001
9.086442e+002, 2.631144e+001
9.091263e+002, 2.669803e+001
9.096084e+002, 2.699086e+001
9.100905e+002, 2.720571e+001
9.105726e+002, 2.726130e+001
9.110547e+002, 2.712539e+001
9.115369e+002, 2.689301e+001
9.120190e+002, 2.669058e+001
9.125011e+002, 2.649359e+001
9.129832e+002, 2.617771e+001
9.134653e+002, 2.567918e+001
9.139474e+002, 2.535323e+001
9.144296e+002, 2.558961e+001
9.149117e+002, 2.598589e+001
9.153938e+002, 2.618647e+001
9.158759e+002, 2.610163e+001
9.163580e+002, 2.611238e+001
9.168401e+002, 2.624581e+001
9.173223e+002, 2.640676e+001
9.178044e+002, 2.655827e+001
9.182865e+002, 2.668318e+001
9.187686e+002, 2.672868e+001
9.192507e+002, 2.669374e+001
9.197328e+002, 2.657443e+001
9.202150e+002, 2.624564e+001
9.206971e+002, 2.594317e+001
9.211792e+002, 2.585130e+001
9.216613e+002, 2.594217e+001
9.221434e+002, 2.593829e+001
9.226255e+002, 2.575086e+001
9.231077e+002, 2.566974e+001
9.235898e+002, 2.581558e+001
9.240719e+002, 2.607856e+001
9.245540e+002, 2.622870e+001
9.250361e+002, 2.627472e+001
9.255182e+002, 2.624309e+001
9.260004e+002, 2.608496e+001
9.264825e+002, 2.594863e+001
9.269646e+002, 2.595772e+001
9.274467e+002, 2.603534e+001
9.279288e+002, 2.606011e+001
9.284109e+002, 2.594669e+001
9.288931e+002, 2.595430e+001
9.293752e+002, 2.614555e+001
9.298573e+002, 2.635538e+001
9.303394e+002, 2.632815e+001
9.308215e+002, 2.615869e+001
9.313036e+002, 2.622057e+001
9.317858e+002, 2.657141e+001
9.322679e+002, 2.694382e+001
9.327500e+002, 2.739640e+001
9.332321e+002, 2.761636e+001
9.337142e+002, 2.720148e+001
9.341964e+002, 2.598229e+001
9.346785e+002, 2.545504e+001
9.351606e+002, 2.589599e+001
9.356427e+002, 2.636166e+001
9.361248e+002, 2.632751e+001
9.366069e+002, 2.594793e+001
9.370891e+002, 2.566090e+001
9.375712e+002, 2.548265e+001
9.380533e+002, 2.551922e+001
9.385354e+002, 2.608410e+001
9.390175e+002, 2.662238e+001
9.394996e+002, 2.681659e+001
9.399818e+002, 2.673136e+001
9.404639e+002, 2.654893e+001
9.409460e+002, 2.616349e+001
9.414281e+002, 2.602051e+001
9.419102e+002, 2.629175e+001
9.423923e+002, 2.665992e+001
9.428745e+002, 2.650505e+001
9.433566e+002, 2.602296e+001
9.438387e+002, 2.580445e+001
9.443208e+002, 2.604671e+001
9.448029e+002, 2.636577e+001
9.452850e+002, 2.667486e+001
9.457672e+002, 2.687751e+001
9.462493e+002, 2.684044e+001
9.467314e+002, 2.646003e+001
9.472135e+002, 2.630957e+001
9.476956e+002, 2.644903e+001
9.481777e+002, 2.661505e+001
9.486599e+002, 2.655588e+001
9.491420e+002, 2.638212e+001
9.496241e+002, 2.636718e+001
9.501062e+002, 2.650403e+001
9.505883e+002, 2.667397e+001
9.510704e+002, 2.694700e+001
9.515526e+002, 2.710630e+001
9.520347e+002, 2.697342e+001
9.525168e+002, 2.662700e+001
9.529989e+002, 2.631077e+001
9.534810e+002, 2.598547e+001
9.539631e+002, 2.592055e+001
9.544453e+002, 2.631960e+001
9.549274e+002, 2.678771e+001
9.554095e+002, 2.652141e+001
9.558916e+002, 2.584397e+001
9.563737e+002, 2.545251e+001
9.568558e+002, 2.567711e+001
9.573380e+002, 2.600755e+001
9.578201e+002, 2.638791e+001
9.583022e+002, 2.671642e+001
9.587843e+002, 2.688807e+001
9.592664e+002, 2.687558e+001
9.597485e+002, 2.686796e+001
9.602307e+002, 2.687700e+001
9.607128e+002, 2.684707e+001
9.611949e+002, 2.666521e+001
9.616770e+002, 2.644573e+001
9.621591e+002, 2.642761e+001
9.626412e+002, 2.660185e+001
9.631234e+002, 2.657226e+001
9.636055e+002, 2.589698e+001
9.640876e+002, 2.533120e+001
9.645697e+002, 2.515923e+001
9.650518e+002, 2.530254e+001
9.655339e+002, 2.539206e+001
9.660161e+002, 2.542848e+001
9.664982e+002, 2.561547e+001
9.669803e+002, 2.612242e+001
9.674624e+002, 2.666299e+001
9.679445e+002, 2.693339e+001
9.684266e+002, 2.700496e+001
9.689088e+002, 2.699046e+001
9.693909e+002, 2.690719e+001
9.698730e+002, 2.673928e+001
9.703551e+002, 2.638743e+001
9.708372e+002, 2.607919e+001
9.713193e+002, 2.613905e+001
9.718015e+002, 2.650608e+001
9.722836e+002, 2.652665e+001
9.727657e+002, 2.613975e+001
9.732478e+002, 2.581093e+001
9.737299e+002, 2.599108e+001
9.742120e+002, 2.631664e+001
9.746942e+002, 2.643806e+001
9.751763e+002, 2.633088e+001
9.756584e+002, 2.651235e+001
9.761405e+002, 2.731696e+001
9.766226e+002, 2.769655e+001
9.771047e+002, 2.704120e+001
9.775869e+002, 2.588720e+001
9.780690e+002, 2.586059e+001
9.785511e+002, 2.668064e+001
9.790332e+002, 2.728648e+001
9.795153e+002, 2.712769e+001
9.799974e+002, 2.683779e+001
9.804796e+002, 2.681083e+001
9.809617e+002, 2.682797e+001
9.814438e+002, 2.653423e+001
9.819259e+002, 2.565955e+001
9.824080e+002, 2.532287e+001
9.828901e+002, 2.564924e+001
9.833723e+002, 2.622762e+001
9.838544e+002, 2.685504e+001
9.843365e+002, 2.736754e+001
9.848186e+002, 2.730975e+001
9.853007e+002, 2.666762e+001
9.857828e+002, 2.622343e+001
9.862650e+002, 2.661809e+001
9.867471e+002, 2.696418e+001
9.872292e+002, 2.678664e+001
9.877113e+002, 2.622639e+001
9.881934e+002, 2.606675e+001
9.886755e+002, 2.632492e+001
9.891577e+002, 2.657272e+001
9.896398e+002, 2.663255e+001
9.901219e+002, 2.662589e+001
9.906040e+002, 2.672713e+001
9.910861e+002, 2.685583e+001
9.915682e+002, 2.687261e+001
9.920504e+002, 2.653388e+001
9.925325e+002, 2.642086e+001
9.930146e+002, 2.675982e+001
9.934967e+002, 2.708805e+001
9.939788e+002, 2.690569e+001
9.944609e+002, 2.628073e+001
9.949431e+002, 2.572644e+001
9.954252e+002, 2.527097e+001
9.959073e+002, 2.513043e+001
9.963894e+002, 2.577966e+001
9.968715e+002, 2.653406e+001
9.973536e+002, 2.686819e+001
9.978358e+002, 2.677921e+001
9.983179e+002, 2.674662e+001
9.988000e+002, 2.681251e+001
9.992821e+002, 2.685499e+001
9.997642e+002, 2.684079e+001
1.000246e+003, 2.678018e+001
1.000728e+003, 2.665274e+001
1.001211e+003, 2.649871e+001
1.001693e+003, 2.643836e+001
1.002175e+003, 2.657201e+001
1.002657e+003, 2.666194e+001
1.003139e+003, 2.659449e+001
1.003621e+003, 2.644093e+001
1.004103e+003, 2.622351e+001
1.004585e+003, 2.587552e+001
1.005068e+003, 2.592090e+001
1.005550e+003, 2.640014e+001
1.006032e+003, 2.687934e+001
1.006514e+003, 2.711653e+001
1.006996e+003, 2.711068e+001
1.007478e+003, 2.666616e+001
1.007960e+003, 2.590649e+001
1.008442e+003, 2.550898e+001
1.008924e+003, 2.604560e+001
1.009407e+003, 2.646541e+001
1.009889e+003, 2.654036e+001
1.010371e+003, 2.640365e+001
1.010853e+003, 2.634189e+001
1.011335e+003, 2.633049e+001
1.011817e+003, 2.619705e+001
1.012299e+003, 2.587536e+001
1.012781e+003, 2.554243e+001
1.013263e+003, 2.531988e+001
1.013746e+003, 2.515572e+001
1.014228e+003, 2.494813e+001
1.014710e+003, 2.460847e+001
1.015192e+003, 2.476028e+001
1.015674e+003, 2.557823e+001
1.016156e+003, 2.631605e+001
1.016638e+003, 2.642340e+001
1.017120e+003, 2.618736e+001
1.017603e+003, 2.630077e+001
1.018085e+003, 2.663548e+001
1.018567e+003, 2.673606e+001
1.019049e+003, 2.603831e+001
1.019531e+003, 2.551648e+001
1.020013e+003, 2.554510e+001
1.020495e+003, 2.584474e+001
1.020977e+003, 2.600672e+001
1.021459e+003, 2.602434e+001
1.021942e+003, 2.624551e+001
1.022424e+003, 2.675550e+001
1.022906e+003, 2.714338e+001
1.023388e+003, 2.683895e+001
1.023870e+003, 2.635058e+001
1.024352e+003, 2.619495e+001
1.024834e+003, 2.645076e+001
1.025316e+003, 2.675973e+001
1.025799e+003, 2.722518e+001
1.026281e+003, 2.744197e+001
1.026763e+003, 2.707542e+001
1.027245e+003, 2.649827e+001
1.027727e+003, 2.701078e+001
1.028209e+003, 2.818731e+001
1.028691e+003, 2.854345e+001
1.029173e+003, 2.671659e+001
1.029656e+003, 2.520543e+001
1.030138e+003, 2.557791e+001
1.030620e+003, 2.660443e+001
1.031102e+003, 2.698207e+001
1.031584e+003, 2.660016e+001
1.032066e+003, 2.611387e+001
1.032548e+003, 2.550884e+001
1.033030e+003, 2.504386e+001
1.033512e+003, 2.497364e+001
1.033995e+003, 2.514094e+001
1.034477e+003, 2.545150e+001
1.034959e+003, 2.585782e+001
1.035441e+003, 2.613477e+001
1.035923e+003, 2.624261e+001
1.036405e+003, 2.617430e+001
1.036887e+003, 2.582932e+001
1.037369e+003, 2.542534e+001
1.037851e+003, 2.538418e+001
1.038334e+003, 2.565295e+001
1.038816e+003, 2.611357e+001
1.039298e+003, 2.684815e+001
1.039780e+003, 2.726794e+001
1.040262e+003, 2.665024e+001
1.040744e+003, 2.585155e+001
1.041226e+003, 2.558688e+001
1.041708e+003, 2.589588e+001
1.042191e+003, 2.611340e+001
1.042673e+003, 2.624314e+001
1.043155e+003, 2.627707e+001
1.043637e+003, 2.619923e+001
1.044119e+003, 2.603418e+001
1.044601e+003, 2.567452e+001
1.045083e+003, 2.526568e+001
1.045565e+003, 2.515267e+001
1.046047e+003, 2.578413e+001
1.046530e+003, 2.620902e+001
1.047012e+003, 2.627927e+001
1.047494e+003, 2.621934e+001
1.047976e+003, 2.622661e+001
1.048458e+003, 2.631573e+001
1.048940e+003, 2.666159e+001
1.049422e+003, 2.726356e+001
1.049904e+003, 2.762474e+001
1.050386e+003, 2.717333e+001
1.050869e+003, 2.662997e+001
1.051351e+003, 2.646960e+001
1.051833e+003, 2.659717e+001
1.052315e+003, 2.660531e+001
1.052797e+003, 2.648003e+001
1.053279e+003, 2.632562e+001
1.053761e+003, 2.614402e+001
1.054243e+003, 2.600865e+001
1.054726e+003, 2.612136e+001
1.055208e+003, 2.629181e+001
1.055690e+003, 2.621610e+001
1.056172e+003, 2.569408e+001
1.056654e+003, 2.537962e+001
1.057136e+003, 2.534596e+001
1.057618e+003, 2.547375e+001
1.058100e+003, 2.572236e+001
1.058583e+003, 2.606991e+001
1.059065e+003, 2.655272e+001
1.059547e+003, 2.709195e+001
1.060029e+003, 2.732332e+001
1.060511e+003, 2.672416e+001
1.060993e+003, 2.615868e+001
1.061475e+003, 2.603784e+001
1.061957e+003, 2.613817e+001
1.062439e+003, 2.614638e+001
1.062922e+003, 2.603911e+001
1.063404e+003, 2.605941e+001
1.063886e+003, 2.623302e+001
1.064368e+003, 2.647021e+001
1.064850e+003, 2.685407e+001
1.065332e+003, 2.714693e+001
1.065814e+003, 2.700438e+001
1.066296e+003, 2.645361e+001
1.066778e+003, 2.612682e+001
1.067261e+003, 2.614841e+001
1.067743e+003, 2.622545e+001
1.068225e+003, 2.628886e+001
1.068707e+003, 2.635807e+001
1.069189e+003, 2.654414e+001
1.069671e+003, 2.675238e+001
1.070153e+003, 2.674623e+001
1.070635e+003, 2.643489e+001
1.071118e+003, 2.603160e+001
1.071600e+003, 2.542926e+001
1.072082e+003, 2.495685e+001
1.072564e+003, 2.479860e+001
1.073046e+003, 2.494524e+001
1.073528e+003, 2.531758e+001
1.074010e+003, 2.590152e+001
1.074492e+003, 2.654624e+001
1.074974e+003, 2.745660e+001
1.075457e+003, 2.806751e+001
1.075939e+003, 2.765386e+001
1.076421e+003, 2.675930e+001
1.076903e+003, 2.632939e+001
1.077385e+003, 2.659103e+001
1.077867e+003, 2.676873e+001
1.078349e+003, 2.683047e+001
1.078831e+003, 2.679764e+001
1.079313e+003, 2.657116e+001
1.079796e+003, 2.632672e+001
1.080278e+003, 2.638936e+001
1.080760e+003, 2.672322e+001
1.081242e+003, 2.697692e+001
1.081724e+003, 2.700035e+001
1.082206e+003, 2.698586e+001
1.082688e+003, 2.698949e+001
1.083170e+003, 2.695003e+001
1.083652e+003, 2.664696e+001
1.084135e+003, 2.619172e+001
1.084617e+003, 2.607027e+001
1.085099e+003, 2.641992e+001
1.085581e+003, 2.674469e+001
1.086063e+003, 2.678512e+001
1.086545e+003, 2.667190e+001
1.087027e+003, 2.645942e+001
1.087509e+003, 2.616580e+001
1.087992e+003, 2.591454e+001
1.088474e+003, 2.570430e+001
1.088956e+003, 2.566298e+001
1.089438e+003, 2.590414e+001
1.089920e+003, 2.622788e+001
1.090402e+003, 2.654522e+001
1.090884e+003, 2.677828e+001
1.091366e+003, 2.678197e+001
1.091849e+003, 2.633256e+001
1.092331e+003, 2.627665e+001
1.092813e+003, 2.674266e+001
1.093295e+003, 2.716705e+001
1.093777e+003, 2.703692e+001
1.094259e+003, 2.663214e+001
1.094741e+003, 2.647079e+001
1.095223e+003, 2.650023e+001
1.095705e+003, 2.651410e+001
1.096188e+003, 2.638634e+001
1.096670e+003, 2.630846e+001
1.097152e+003, 2.632446e+001
1.097634e+003, 2.638218e+001
1.098116e+003, 2.642757e+001
1.098598e+003, 2.645729e+001
1.099080e+003, 2.642613e+001
1.099562e+003, 2.633221e+001
1.100044e+003, 2.631667e+001
1.100527e+003, 2.673304e+001
1.101009e+003, 2.697418e+001
1.101491e+003, 2.651325e+001
1.101973e+003, 2.565552e+001
1.102455e+003, 2.540543e+001
1.102937e+003, 2.576706e+001
1.103419e+003, 2.614154e+001
1.103901e+003, 2.638470e+001
1.104384e+003, 2.658077e+001
1.104866e+003, 2.682703e+001
1.105348e+003, 2.705222e+001
1.105830e+003, 2.716693e+001
1.106312e+003, 2.714349e+001
1.106794e+003, 2.720778e+001
1.107276e+003, 2.741508e+001
1.107758e+003, 2.748483e+001
1.108240e+003, 2.725400e+001
1.108723e+003, 2.685593e+001
1.109205e+003, 2.638792e+001
1.109687e+003, 2.593179e+001
1.110169e+003, 2.564288e+001
1.110651e+003, 2.560331e+001
1.111133e+003, 2.569508e+001
1.111615e+003, 2.603785e+001
1.112097e+003, 2.626809e+001
1.112579e+003, 2.587862e+001
1.113062e+003, 2.517045e+001
1.113544e+003, 2.536572e+001
1.114026e+003, 2.628967e+001
1.114508e+003, 2.704878e+001
1.114990e+003, 2.719485e+001
1.115472e+003, 2.711258e+001
1.115954e+003, 2.680428e+001
1.116436e+003, 2.643684e+001
1.116919e+003, 2.622162e+001
1.117401e+003, 2.614922e+001
1.117883e+003, 2.608375e+001
1.118365e+003, 2.601337e+001
1.118847e+003, 2.607381e+001
1.119329e+003, 2.665007e+001
1.119811e+003, 2.712115e+001
1.120293e+003, 2.691140e+001
1.120776e+003, 2.625273e+001
1.121258e+003, 2.598557e+001
1.121740e+003, 2.616187e+001
1.122222e+003, 2.616636e+001
1.122704e+003, 2.580318e+001
1.123186e+003, 2.553206e+001
1.123668e+003, 2.601607e+001
1.124150e+003, 2.671655e+001
1.124632e+003, 2.706147e+001
1.125115e+003, 2.694552e+001
1.125597e+003, 2.676970e+001
1.126079e+003, 2.646574e+001
1.126561e+003, 2.637447e+001
1.127043e+003, 2.672895e+001
1.127525e+003, 2.719850e+001
1.128007e+003, 2.730578e+001
1.128489e+003, 2.711964e+001
1.128971e+003, 2.669202e+001
1.129454e+003, 2.577616e+001
1.129936e+003, 2.539019e+001
1.130418e+003, 2.587623e+001
1.130900e+003, 2.638568e+001
1.131382e+003, 2.633674e+001
1.131864e+003, 2.594973e+001
1.132346e+003, 2.594612e+001
1.132828e+003, 2.620072e+001
1.133311e+003, 2.630082e+001
1.133793e+003, 2.586981e+001
1.134275e+003, 2.552404e+001
1.134757e+003, 2.539334e+001
1.135239e+003, 2.540222e+001
1.135721e+003, 2.552037e+001
1.136203e+003, 2.573095e+001
1.136685e+003, 2.592145e+001
1.137167e+003, 2.608391e+001
1.137650e+003, 2.617180e+001
1.138132e+003, 2.609020e+001
1.138614e+003, 2.600088e+001
1.139096e+003, 2.599022e+001
1.139578e+003, 2.601919e+001
1.140060e+003, 2.601211e+001
1.140542e+003, 2.596687e+001
1.141024e+003, 2.603093e+001
1.141506e+003, 2.622648e+001
1.141989e+003, 2.640812e+001
1.142471e+003, 2.637278e+001
1.142953e+003, 2.635749e+001
1.143435e+003, 2.667277e+001
1.143917e+003, 2.719025e+001
1.144399e+003, 2.723860e+001
1.144881e+003, 2.672908e+001
1.145363e+003, 2.635369e+001
1.145846e+003, 2.628086e+001
1.146328e+003, 2.632786e+001
1.146810e+003, 2.635349e+001
1.147292e+003, 2.635740e+001
1.147774e+003, 2.630066e+001
1.148256e+003, 2.617085e+001
1.148738e+003, 2.628174e+001
1.149220e+003, 2.677573e+001
1.149703e+003, 2.697543e+001
1.150185e+003, 2.652817e+001
1.150667e+003, 2.590285e+001
1.151149e+003, 2.577594e+001
1.151631e+003, 2.595168e+001
1.152113e+003, 2.613426e+001
1.152595e+003, 2.628079e+001
1.153077e+003, 2.635909e+001
1.153559e+003, 2.635786e+001
1.154042e+003, 2.631370e+001
1.154524e+003, 2.619098e+001
1.155006e+003, 2.608496e+001
1.155488e+003, 2.632616e+001
1.155970e+003, 2.674706e+001
1.156452e+003, 2.693175e+001
1.156934e+003, 2.666571e+001
1.157416e+003, 2.626929e+001
1.157898e+003, 2.562573e+001
1.158381e+003, 2.513720e+001
1.158863e+003, 2.516879e+001
1.159345e+003, 2.560457e+001
1.159827e+003, 2.604639e+001
1.160309e+003, 2.647730e+001
1.160791e+003, 2.682156e+001
1.161273e+003, 2.720626e+001
1.161755e+003, 2.726175e+001
1.162238e+003, 2.674477e+001
1.162720e+003, 2.605039e+001
1.163202e+003, 2.546011e+001
1.163684e+003, 2.503279e+001
1.164166e+003, 2.532600e+001
1.164648e+003, 2.626903e+001
1.165130e+003, 2.698352e+001
1.165612e+003, 2.678282e+001
1.166094e+003, 2.645424e+001
1.166577e+003, 2.629016e+001
1.167059e+003, 2.623015e+001
1.167541e+003, 2.622629e+001
1.168023e+003, 2.626472e+001
1.168505e+003, 2.610158e+001
1.168987e+003, 2.570953e+001
1.169469e+003, 2.544707e+001
1.169951e+003, 2.582096e+001
1.170433e+003, 2.614531e+001
1.170916e+003, 2.581312e+001
1.171398e+003, 2.516585e+001
1.171880e+003, 2.513427e+001
1.172362e+003, 2.570718e+001
1.172844e+003, 2.604146e+001
1.173326e+003, 2.595156e+001
1.173808e+003, 2.581493e+001
1.174290e+003, 2.585295e+001
1.174773e+003, 2.604520e+001
1.175255e+003, 2.653454e+001
1.175737e+003, 2.719907e+001
1.176219e+003, 2.731489e+001
1.176701e+003, 2.685102e+001
1.177183e+003, 2.651344e+001
1.177665e+003, 2.650912e+001
1.178147e+003, 2.662492e+001
1.178630e+003, 2.671554e+001
1.179112e+003, 2.678391e+001
1.179594e+003, 2.685847e+001
1.180076e+003, 2.693992e+001
1.180558e+003, 2.680265e+001
1.181040e+003, 2.640583e+001
1.181522e+003, 2.619121e+001
1.182004e+003, 2.637742e+001
1.182486e+003, 2.670567e+001
1.182969e+003, 2.698873e+001
1.183451e+003, 2.720059e+001
1.183933e+003, 2.733450e+001
1.184415e+003, 2.742389e+001
1.184897e+003, 2.712264e+001
1.185379e+003, 2.633502e+001
1.185861e+003, 2.575365e+001
1.186343e+003, 2.581742e+001
1.186825e+003, 2.615478e+001
1.187308e+003, 2.644392e+001
1.187790e+003, 2.666482e+001
1.188272e+003, 2.676439e+001
1.188754e+003, 2.667130e+001
1.189236e+003, 2.668202e+001
1.189718e+003, 2.682636e+001
1.190200e+003, 2.692100e+001
1.190682e+003, 2.678162e+001
1.191165e+003, 2.658078e+001
1.191647e+003, 2.652190e+001
1.192129e+003, 2.657532e+001
1.192611e+003, 2.669025e+001
1.193093e+003, 2.692178e+001
1.193575e+003, 2.709341e+001
1.194057e+003, 2.723599e+001
1.194539e+003, 2.718170e+001
1.195021e+003, 2.653216e+001
1.195504e+003, 2.579299e+001
1.195986e+003, 2.571980e+001
1.196468e+003, 2.613997e+001
1.196950e+003, 2.653572e+001
1.197432e+003, 2.690867e+001
1.197914e+003, 2.702563e+001
1.198396e+003, 2.681844e+001
1.198878e+003, 2.654842e+001
1.199360e+003, 2.650279e+001
1.199843e+003, 2.652553e+001
1.200325e+003, 2.637554e+001
1.200807e+003, 2.608741e+001
1.201289e+003, 2.582571e+001
1.201771e+003, 2.550277e+001
1.202253e+003, 2.549229e+001
1.202735e+003, 2.589023e+001
1.203217e+003, 2.643521e+001
1.203700e+003, 2.696812e+001
1.204182e+003, 2.738342e+001
1.204664e+003, 2.748715e+001
1.205146e+003, 2.730524e+001
1.205628e+003, 2.708370e+001
1.206110e+003, 2.681190e+001
1.206592e+003, 2.661591e+001
1.207074e+003, 2.651604e+001
1.207557e+003, 2.648949e+001
1.208039e+003, 2.649080e+001
1.208521e+003, 2.655440e+001
1.209003e+003, 2.680688e+001
1.209485e+003, 2.723300e+001
1.209967e+003, 2.742040e+001
1.210449e+003, 2.722460e+001
1.210931e+003, 2.702736e+001
1.211413e+003, 2.688086e+001
1.211896e+003, 2.683277e+001
1.212378e+003, 2.707613e+001
1.212860e+003, 2.738860e+001
1.213342e+003, 2.738911e+001
1.213824e+003, 2.703698e+001
1.214306e+003, 2.684410e+001
1.214788e+003, 2.697136e+001
1.215270e+003, 2.693270e+001
1.215752e+003, 2.652314e+001
1.216235e+003, 2.609147e+001
1.216717e+003, 2.622474e+001
1.217199e+003, 2.661455e+001
1.217681e+003, 2.681515e+001
1.218163e+003, 2.675347e+001
1.218645e+003, 2.668189e+001
1.219127e+003, 2.665960e+001
1.219609e+003, 2.650359e+001
1.220092e+003, 2.609201e+001
1.220574e+003, 2.566094e+001
1.221056e+003, 2.552736e+001
1.221538e+003, 2.561664e+001
1.222020e+003, 2.589006e+001
1.222502e+003, 2.638490e+001
1.222984e+003, 2.658514e+001
1.223466e+003, 2.634640e+001
1.223948e+003, 2.626063e+001
1.224431e+003, 2.663042e+001
1.224913e+003, 2.707846e+001
1.225395e+003, 2.697114e+001
1.225877e+003, 2.663112e+001
1.226359e+003, 2.652162e+001
1.226841e+003, 2.678546e+001
1.227323e+003, 2.695215e+001
1.227805e+003, 2.701792e+001
1.228287e+003, 2.698151e+001
1.228770e+003, 2.681820e+001
1.229252e+003, 2.659657e+001
1.229734e+003, 2.623025e+001
1.230216e+003, 2.595584e+001
1.230698e+003, 2.622287e+001
1.231180e+003, 2.731675e+001
1.231662e+003, 2.762124e+001
1.232144e+003, 2.698800e+001
1.232627e+003, 2.644164e+001
1.233109e+003, 2.651860e+001
1.233591e+003, 2.678903e+001
1.234073e+003, 2.648129e+001
1.234555e+003, 2.617503e+001
1.235037e+003, 2.691566e+001
1.235519e+003, 2.917117e+001
1.236001e+003, 2.979035e+001
1.236484e+003, 2.858854e+001
1.236966e+003, 2.735574e+001
1.237448e+003, 2.696852e+001
1.237930e+003, 2.698090e+001
1.238412e+003, 2.720190e+001
1.238894e+003, 2.740865e+001
1.239376e+003, 2.722345e+001
1.239858e+003, 2.654870e+001
1.240340e+003, 2.623277e+001
1.240823e+003, 2.629460e+001
1.241305e+003, 2.638051e+001
1.241787e+003, 2.626668e+001
1.242269e+003, 2.615499e+001
1.242751e+003, 2.621795e+001
1.243233e+003, 2.638553e+001
1.243715e+003, 2.659103e+001
1.244197e+003, 2.684857e+001
1.244679e+003, 2.694766e+001
1.245162e+003, 2.689054e+001
1.245644e+003, 2.674264e+001
1.246126e+003, 2.636892e+001
1.246608e+003, 2.614192e+001
1.247090e+003, 2.653971e+001
1.247572e+003, 2.706628e+001
1.248054e+003, 2.712289e+001
1.248536e+003, 2.668848e+001
1.249019e+003, 2.639015e+001
1.249501e+003, 2.623692e+001
1.249983e+003, 2.632849e+001
1.250465e+003, 2.703909e+001
1.250947e+003, 2.760888e+001
1.251429e+003, 2.741956e+001
1.251911e+003, 2.708059e+001
1.252393e+003, 2.724541e+001
1.252875e+003, 2.786422e+001
1.253358e+003, 2.791412e+001
1.253840e+003, 2.746609e+001
1.254322e+003, 2.700568e+001
1.254804e+003, 2.670832e+001
1.255286e+003, 2.654720e+001
1.255768e+003, 2.664555e+001
1.256250e+003, 2.673376e+001
1.256732e+003, 2.649195e+001
1.257214e+003, 2.602048e+001
1.257697e+003, 2.596863e+001
1.258179e+003, 2.627332e+001
1.258661e+003, 2.662854e+001
1.259143e+003, 2.717083e+001
1.259625e+003, 2.731635e+001
1.260107e+003, 2.674175e+001
1.260589e+003, 2.613126e+001
1.261071e+003, 2.616224e+001
1.261554e+003, 2.659954e+001
1.262036e+003, 2.667886e+001
1.262518e+003, 2.649218e+001
1.263000e+003, 2.637712e+001
1.263482e+003, 2.651237e+001
1.263964e+003, 2.664903e+001
1.264446e+003, 2.676346e+001
1.264928e+003, 2.687513e+001
1.265411e+003, 2.710987e+001
1.265893e+003, 2.729319e+001
1.266375e+003, 2.687616e+001
1.266857e+003, 2.613583e+001
1.267339e+003, 2.583327e+001
1.267821e+003, 2.655859e+001
1.268303e+003, 2.702324e+001
1.268785e+003, 2.717598e+001
1.269267e+003, 2.716350e+001
1.269750e+003, 2.696332e+001
1.270232e+003, 2.677121e+001
1.270714e+003, 2.696808e+001
1.271196e+003, 2.735038e+001
1.271678e+003, 2.741214e+001
1.272160e+003, 2.698926e+001
1.272642e+003, 2.661356e+001
1.273124e+003, 2.627267e+001
1.273606e+003, 2.620588e+001
1.274089e+003, 2.696138e+001
1.274571e+003, 2.770496e+001
1.275053e+003, 2.757460e+001
1.275535e+003, 2.694268e+001
1.276017e+003, 2.644550e+001
1.276499e+003, 2.606376e+001
1.276981e+003, 2.623932e+001
1.277463e+003, 2.696794e+001
1.277946e+003, 2.741222e+001
1.278428e+003, 2.659272e+001
1.278910e+003, 2.579686e+001
1.279392e+003, 2.588041e+001
1.279874e+003, 2.640711e+001
1.280356e+003, 2.698083e+001
1.280838e+003, 2.758278e+001
1.281320e+003, 2.756922e+001
1.281802e+003, 2.700379e+001
1.282285e+003, 2.650726e+001
1.282767e+003, 2.643646e+001
1.283249e+003, 2.646917e+001
1.283731e+003, 2.651133e+001
1.284213e+003, 2.658386e+001
1.284695e+003, 2.671895e+001
1.285177e+003, 2.690252e+001
1.285659e+003, 2.703946e+001
1.286141e+003, 2.715795e+001
1.286624e+003, 2.737044e+001
1.287106e+003, 2.809761e+001
1.287588e+003, 2.830645e+001
1.288070e+003, 2.770512e+001
1.288552e+003, 2.696302e+001
1.289034e+003, 2.652787e+001
1.289516e+003, 2.640395e+001
1.289998e+003, 2.673624e+001
1.290481e+003, 2.737621e+001
1.290963e+003, 2.795223e+001
1.291445e+003, 2.867807e+001
1.291927e+003, 2.857623e+001
1.292409e+003, 2.738488e+001
1.292891e+003, 2.638513e+001
1.293373e+003, 2.686372e+001
1.293855e+003, 2.775588e+001
1.294338e+003, 2.764627e+001
1.294820e+003, 2.697415e+001
1.295302e+003, 2.658093e+001
1.295784e+003, 2.660307e+001
1.296266e+003, 2.655021e+001
1.296748e+003, 2.641040e+001
1.297230e+003, 2.641433e+001
1.297712e+003, 2.692257e+001
1.298194e+003, 2.737177e+001
1.298677e+003, 2.720424e+001
1.299159e+003, 2.678518e+001
1.299641e+003, 2.655331e+001
1.300123e+003, 2.650934e+001
1.300605e+003, 2.664318e+001
1.301087e+003, 2.692577e+001
1.301569e+003, 2.709473e+001
1.302051e+003, 2.694768e+001
1.302533e+003, 2.676244e+001
1.303016e+003, 2.662316e+001
##END=



