##NAMES=Getchellite
##RRUFFID=R050156
##IDEAL CHEMISTRY=SbAsS_3_
##LOCALITY=Khaidarkan, Kyrgyzstan
##OWNER=RRUFF
##SOURCE=Jim McGlasson
##DESCRIPTION=Red platy crystals
##STATUS=The identification of this mineral has been confirmed by single-crystal X-ray diffraction.
##URL=rruff.info/R050156
9.001007e+001, 0.000000e+000
9.049219e+001, 9.419195e+000
9.097430e+001, 8.993099e+000
9.145642e+001, 9.206587e+000
9.193854e+001, 9.980124e+000
9.242065e+001, 1.065115e+001
9.290277e+001, 1.043566e+001
9.338489e+001, 9.701231e+000
9.386700e+001, 9.326381e+000
9.434912e+001, 9.995844e+000
9.483124e+001, 1.110804e+001
9.531335e+001, 1.128121e+001
9.579547e+001, 1.042169e+001
9.627759e+001, 9.290915e+000
9.675970e+001, 8.764586e+000
9.724182e+001, 8.807774e+000
9.772394e+001, 8.890704e+000
9.820605e+001, 8.722335e+000
9.868817e+001, 8.338252e+000
9.917029e+001, 8.206445e+000
9.965240e+001, 8.378151e+000
1.001345e+002, 8.726706e+000
1.006166e+002, 9.098868e+000
1.010988e+002, 9.565766e+000
1.015809e+002, 9.757974e+000
1.020630e+002, 9.332122e+000
1.025451e+002, 8.081954e+000
1.030272e+002, 7.257854e+000
1.035093e+002, 7.078559e+000
1.039915e+002, 7.366809e+000
1.044736e+002, 7.301895e+000
1.049557e+002, 6.565652e+000
1.054378e+002, 5.938547e+000
1.059199e+002, 6.000132e+000
1.064020e+002, 7.180689e+000
1.068842e+002, 8.267392e+000
1.073663e+002, 9.232587e+000
1.078484e+002, 1.007432e+001
1.083305e+002, 1.038641e+001
1.088126e+002, 9.919077e+000
1.092947e+002, 9.059115e+000
1.097769e+002, 8.153762e+000
1.102590e+002, 6.470775e+000
1.107411e+002, 5.488875e+000
1.112232e+002, 5.740712e+000
1.117053e+002, 7.636882e+000
1.121874e+002, 8.969445e+000
1.126696e+002, 9.209959e+000
1.131517e+002, 8.902145e+000
1.136338e+002, 8.750650e+000
1.141159e+002, 9.175690e+000
1.145980e+002, 9.515573e+000
1.150801e+002, 9.486640e+000
1.155623e+002, 8.866774e+000
1.160444e+002, 8.336535e+000
1.165265e+002, 8.084352e+000
1.170086e+002, 8.045156e+000
1.174907e+002, 8.093305e+000
1.179728e+002, 8.494147e+000
1.184550e+002, 8.777737e+000
1.189371e+002, 8.566947e+000
1.194192e+002, 7.307477e+000
1.199013e+002, 6.278186e+000
1.203834e+002, 6.399720e+000
1.208655e+002, 7.405797e+000
1.213477e+002, 8.257611e+000
1.218298e+002, 8.322087e+000
1.223119e+002, 7.949479e+000
1.227940e+002, 7.488936e+000
1.232761e+002, 6.864295e+000
1.237582e+002, 6.353650e+000
1.242404e+002, 6.236829e+000
1.247225e+002, 6.494080e+000
1.252046e+002, 6.882683e+000
1.256867e+002, 7.337571e+000
1.261688e+002, 7.785902e+000
1.266509e+002, 8.090661e+000
1.271331e+002, 8.076235e+000
1.276152e+002, 7.929677e+000
1.280973e+002, 8.081125e+000
1.285794e+002, 8.576586e+000
1.290615e+002, 8.812130e+000
1.295436e+002, 7.633114e+000
1.300258e+002, 5.433016e+000
1.305079e+002, 3.956658e+000
1.309900e+002, 4.647353e+000
1.314721e+002, 6.729801e+000
1.319542e+002, 7.769457e+000
1.324363e+002, 7.557021e+000
1.329185e+002, 6.703850e+000
1.334006e+002, 5.935807e+000
1.338827e+002, 5.249939e+000
1.343648e+002, 4.836531e+000
1.348469e+002, 4.859738e+000
1.353290e+002, 5.294206e+000
1.358112e+002, 5.783384e+000
1.362933e+002, 6.310475e+000
1.367754e+002, 6.862324e+000
1.372575e+002, 7.523098e+000
1.377396e+002, 8.395427e+000
1.382217e+002, 8.915320e+000
1.387039e+002, 8.460257e+000
1.391860e+002, 6.787888e+000
1.396681e+002, 5.920459e+000
1.401502e+002, 6.334921e+000
1.406323e+002, 7.675048e+000
1.411144e+002, 8.382670e+000
1.415966e+002, 8.285311e+000
1.420787e+002, 7.882852e+000
1.425608e+002, 7.521459e+000
1.430429e+002, 7.189658e+000
1.435250e+002, 6.938671e+000
1.440071e+002, 6.805311e+000
1.444893e+002, 6.783987e+000
1.449714e+002, 6.701075e+000
1.454535e+002, 6.544954e+000
1.459356e+002, 6.338037e+000
1.464177e+002, 6.070285e+000
1.468998e+002, 5.477958e+000
1.473820e+002, 5.243427e+000
1.478641e+002, 5.673935e+000
1.483462e+002, 6.944690e+000
1.488283e+002, 7.614281e+000
1.493104e+002, 7.131802e+000
1.497925e+002, 6.309762e+000
1.502747e+002, 6.097547e+000
1.507568e+002, 7.342122e+000
1.512389e+002, 8.327003e+000
1.517210e+002, 8.599807e+000
1.522031e+002, 7.872262e+000
1.526852e+002, 7.349866e+000
1.531674e+002, 7.061220e+000
1.536495e+002, 6.981045e+000
1.541316e+002, 7.068571e+000
1.546137e+002, 7.562093e+000
1.550958e+002, 8.015851e+000
1.555779e+002, 8.227641e+000
1.560601e+002, 7.937253e+000
1.565422e+002, 7.981286e+000
1.570243e+002, 8.667565e+000
1.575064e+002, 9.759683e+000
1.579885e+002, 1.079979e+001
1.584706e+002, 1.152038e+001
1.589528e+002, 1.229070e+001
1.594349e+002, 1.328076e+001
1.599170e+002, 1.455292e+001
1.603991e+002, 1.598178e+001
1.608812e+002, 1.743793e+001
1.613633e+002, 1.901209e+001
1.618455e+002, 2.094235e+001
1.623276e+002, 2.338540e+001
1.628097e+002, 2.615181e+001
1.632918e+002, 2.917345e+001
1.637739e+002, 3.239378e+001
1.642560e+002, 3.588779e+001
1.647382e+002, 3.961520e+001
1.652203e+002, 4.361898e+001
1.657024e+002, 4.806352e+001
1.661845e+002, 5.333981e+001
1.666666e+002, 5.897557e+001
1.671487e+002, 6.446822e+001
1.676309e+002, 6.940721e+001
1.681130e+002, 7.453774e+001
1.685951e+002, 8.035041e+001
1.690772e+002, 8.678358e+001
1.695593e+002, 9.332446e+001
1.700414e+002, 1.003346e+002
1.705236e+002, 1.071130e+002
1.710057e+002, 1.127155e+002
1.714878e+002, 1.161767e+002
1.719699e+002, 1.189370e+002
1.724520e+002, 1.221554e+002
1.729341e+002, 1.258008e+002
1.734163e+002, 1.293034e+002
1.738984e+002, 1.326054e+002
1.743805e+002, 1.354696e+002
1.748626e+002, 1.374208e+002
1.753447e+002, 1.373864e+002
1.758268e+002, 1.368721e+002
1.763090e+002, 1.376125e+002
1.767911e+002, 1.396092e+002
1.772732e+002, 1.420515e+002
1.777553e+002, 1.436298e+002
1.782374e+002, 1.444620e+002
1.787195e+002, 1.454950e+002
1.792017e+002, 1.474956e+002
1.796838e+002, 1.498295e+002
1.801659e+002, 1.512301e+002
1.806480e+002, 1.516284e+002
1.811301e+002, 1.522497e+002
1.816122e+002, 1.546194e+002
1.820944e+002, 1.583044e+002
1.825765e+002, 1.618195e+002
1.830586e+002, 1.643258e+002
1.835407e+002, 1.662576e+002
1.840228e+002, 1.686065e+002
1.845049e+002, 1.713659e+002
1.849871e+002, 1.745469e+002
1.854692e+002, 1.785355e+002
1.859513e+002, 1.831449e+002
1.864334e+002, 1.871297e+002
1.869155e+002, 1.898027e+002
1.873976e+002, 1.914131e+002
1.878798e+002, 1.927221e+002
1.883619e+002, 1.936956e+002
1.888440e+002, 1.945977e+002
1.893261e+002, 1.959000e+002
1.898082e+002, 1.975679e+002
1.902903e+002, 1.989928e+002
1.907725e+002, 1.996243e+002
1.912546e+002, 1.996579e+002
1.917367e+002, 2.002351e+002
1.922188e+002, 2.015034e+002
1.927009e+002, 2.030696e+002
1.931830e+002, 2.043680e+002
1.936652e+002, 2.053992e+002
1.941473e+002, 2.061194e+002
1.946294e+002, 2.062836e+002
1.951115e+002, 2.059593e+002
1.955936e+002, 2.061206e+002
1.960757e+002, 2.069680e+002
1.965579e+002, 2.080655e+002
1.970400e+002, 2.085783e+002
1.975221e+002, 2.084777e+002
1.980042e+002, 2.081402e+002
1.984863e+002, 2.075551e+002
1.989684e+002, 2.067146e+002
1.994506e+002, 2.066326e+002
1.999327e+002, 2.076435e+002
2.004148e+002, 2.091073e+002
2.008969e+002, 2.094851e+002
2.013790e+002, 2.085911e+002
2.018611e+002, 2.076486e+002
2.023433e+002, 2.073651e+002
2.028254e+002, 2.077822e+002
2.033075e+002, 2.083400e+002
2.037896e+002, 2.089907e+002
2.042717e+002, 2.097540e+002
2.047538e+002, 2.106903e+002
2.052360e+002, 2.118161e+002
2.057181e+002, 2.130372e+002
2.062002e+002, 2.144547e+002
2.066823e+002, 2.161989e+002
2.071644e+002, 2.172328e+002
2.076465e+002, 2.173108e+002
2.081287e+002, 2.167142e+002
2.086108e+002, 2.161756e+002
2.090929e+002, 2.155754e+002
2.095750e+002, 2.153490e+002
2.100571e+002, 2.158728e+002
2.105392e+002, 2.173298e+002
2.110214e+002, 2.187082e+002
2.115035e+002, 2.200287e+002
2.119856e+002, 2.211820e+002
2.124677e+002, 2.217188e+002
2.129498e+002, 2.213916e+002
2.134319e+002, 2.210196e+002
2.139140e+002, 2.211609e+002
2.143962e+002, 2.220202e+002
2.148783e+002, 2.226760e+002
2.153604e+002, 2.230262e+002
2.158425e+002, 2.231213e+002
2.163246e+002, 2.231307e+002
2.168067e+002, 2.230269e+002
2.172889e+002, 2.228876e+002
2.177710e+002, 2.226683e+002
2.182531e+002, 2.221510e+002
2.187352e+002, 2.222211e+002
2.192173e+002, 2.231197e+002
2.196994e+002, 2.246663e+002
2.201816e+002, 2.259591e+002
2.206637e+002, 2.269100e+002
2.211458e+002, 2.277845e+002
2.216279e+002, 2.287040e+002
2.221100e+002, 2.296090e+002
2.225921e+002, 2.307438e+002
2.230743e+002, 2.322258e+002
2.235564e+002, 2.339571e+002
2.240385e+002, 2.355421e+002
2.245206e+002, 2.368638e+002
2.250027e+002, 2.381783e+002
2.254848e+002, 2.396709e+002
2.259670e+002, 2.414776e+002
2.264491e+002, 2.431009e+002
2.269312e+002, 2.443971e+002
2.274133e+002, 2.454743e+002
2.278954e+002, 2.469485e+002
2.283775e+002, 2.489721e+002
2.288597e+002, 2.511301e+002
2.293418e+002, 2.531003e+002
2.298239e+002, 2.546092e+002
2.303060e+002, 2.565825e+002
2.307881e+002, 2.593096e+002
2.312702e+002, 2.625778e+002
2.317524e+002, 2.652080e+002
2.322345e+002, 2.667172e+002
2.327166e+002, 2.682141e+002
2.331987e+002, 2.703517e+002
2.336808e+002, 2.734431e+002
2.341629e+002, 2.764700e+002
2.346451e+002, 2.794802e+002
2.351272e+002, 2.823924e+002
2.356093e+002, 2.848223e+002
2.360914e+002, 2.862220e+002
2.365735e+002, 2.878876e+002
2.370556e+002, 2.905787e+002
2.375378e+002, 2.946927e+002
2.380199e+002, 2.989960e+002
2.385020e+002, 3.035582e+002
2.389841e+002, 3.082937e+002
2.394662e+002, 3.126225e+002
2.399483e+002, 3.162573e+002
2.404305e+002, 3.199050e+002
2.409126e+002, 3.238876e+002
2.413947e+002, 3.279212e+002
2.418768e+002, 3.329667e+002
2.423589e+002, 3.393684e+002
2.428410e+002, 3.467673e+002
2.433232e+002, 3.540381e+002
2.438053e+002, 3.609478e+002
2.442874e+002, 3.680099e+002
2.447695e+002, 3.753677e+002
2.452516e+002, 3.829513e+002
2.457337e+002, 3.910683e+002
2.462159e+002, 3.997849e+002
2.466980e+002, 4.090601e+002
2.471801e+002, 4.185610e+002
2.476622e+002, 4.282435e+002
2.481443e+002, 4.383400e+002
2.486264e+002, 4.489136e+002
2.491086e+002, 4.602946e+002
2.495907e+002, 4.715389e+002
2.500728e+002, 4.828203e+002
2.505549e+002, 4.939071e+002
2.510370e+002, 5.041820e+002
2.515191e+002, 5.136199e+002
2.520013e+002, 5.223298e+002
2.524834e+002, 5.305385e+002
2.529655e+002, 5.384528e+002
2.534476e+002, 5.451238e+002
2.539297e+002, 5.503481e+002
2.544118e+002, 5.544214e+002
2.548940e+002, 5.580838e+002
2.553761e+002, 5.613224e+002
2.558582e+002, 5.641855e+002
2.563403e+002, 5.667205e+002
2.568224e+002, 5.690419e+002
2.573046e+002, 5.705996e+002
2.577867e+002, 5.712823e+002
2.582688e+002, 5.712441e+002
2.587509e+002, 5.705452e+002
2.592330e+002, 5.684836e+002
2.597151e+002, 5.671946e+002
2.601973e+002, 5.678271e+002
2.606794e+002, 5.710646e+002
2.611615e+002, 5.729141e+002
2.616436e+002, 5.725138e+002
2.621257e+002, 5.714568e+002
2.626078e+002, 5.726749e+002
2.630900e+002, 5.771635e+002
2.635721e+002, 5.815426e+002
2.640542e+002, 5.843951e+002
2.645363e+002, 5.853734e+002
2.650184e+002, 5.875449e+002
2.655005e+002, 5.912852e+002
2.659827e+002, 5.958326e+002
2.664648e+002, 6.001568e+002
2.669469e+002, 6.040864e+002
2.674290e+002, 6.081960e+002
2.679111e+002, 6.125519e+002
2.683932e+002, 6.170864e+002
2.688754e+002, 6.226619e+002
2.693575e+002, 6.293160e+002
2.698396e+002, 6.369073e+002
2.703217e+002, 6.449857e+002
2.708038e+002, 6.532258e+002
2.712859e+002, 6.630409e+002
2.717681e+002, 6.748824e+002
2.722502e+002, 6.886428e+002
2.727323e+002, 7.034161e+002
2.732144e+002, 7.190961e+002
2.736965e+002, 7.354852e+002
2.741786e+002, 7.524039e+002
2.746608e+002, 7.701334e+002
2.751429e+002, 7.877686e+002
2.756250e+002, 8.053479e+002
2.761071e+002, 8.226608e+002
2.765892e+002, 8.389772e+002
2.770714e+002, 8.542469e+002
2.775535e+002, 8.679255e+002
2.780356e+002, 8.795956e+002
2.785177e+002, 8.892985e+002
2.789998e+002, 8.965287e+002
2.794819e+002, 9.010784e+002
2.799641e+002, 9.031188e+002
2.804462e+002, 9.028993e+002
2.809283e+002, 9.001520e+002
2.814104e+002, 8.962630e+002
2.818925e+002, 8.921394e+002
2.823746e+002, 8.877844e+002
2.828568e+002, 8.833184e+002
2.833389e+002, 8.786459e+002
2.838210e+002, 8.740002e+002
2.843031e+002, 8.699417e+002
2.847852e+002, 8.664671e+002
2.852673e+002, 8.636874e+002
2.857495e+002, 8.618580e+002
2.862316e+002, 8.609254e+002
2.867137e+002, 8.602843e+002
2.871958e+002, 8.603232e+002
2.876779e+002, 8.599547e+002
2.881600e+002, 8.572923e+002
2.886422e+002, 8.523427e+002
2.891243e+002, 8.446614e+002
2.896064e+002, 8.333815e+002
2.900885e+002, 8.189453e+002
2.905706e+002, 8.040137e+002
2.910527e+002, 7.887656e+002
2.915349e+002, 7.731826e+002
2.920170e+002, 7.566533e+002
2.924991e+002, 7.394542e+002
2.929812e+002, 7.231243e+002
2.934633e+002, 7.088527e+002
2.939454e+002, 6.962424e+002
2.944276e+002, 6.842080e+002
2.949097e+002, 6.727728e+002
2.953918e+002, 6.620778e+002
2.958739e+002, 6.525953e+002
2.963560e+002, 6.442245e+002
2.968381e+002, 6.360195e+002
2.973203e+002, 6.275458e+002
2.978024e+002, 6.190416e+002
2.982845e+002, 6.108130e+002
2.987666e+002, 6.028199e+002
2.992487e+002, 5.953015e+002
2.997308e+002, 5.885643e+002
3.002130e+002, 5.824069e+002
3.006951e+002, 5.763528e+002
3.011772e+002, 5.699841e+002
3.016593e+002, 5.637305e+002
3.021414e+002, 5.583419e+002
3.026235e+002, 5.538403e+002
3.031057e+002, 5.492597e+002
3.035878e+002, 5.438649e+002
3.040699e+002, 5.378481e+002
3.045520e+002, 5.316634e+002
3.050341e+002, 5.254157e+002
3.055162e+002, 5.191254e+002
3.059984e+002, 5.129263e+002
3.064805e+002, 5.067912e+002
3.069626e+002, 5.001148e+002
3.074447e+002, 4.920535e+002
3.079268e+002, 4.833856e+002
3.084089e+002, 4.752692e+002
3.088911e+002, 4.682220e+002
3.093732e+002, 4.614490e+002
3.098553e+002, 4.545578e+002
3.103374e+002, 4.475049e+002
3.108195e+002, 4.399734e+002
3.113016e+002, 4.316965e+002
3.117838e+002, 4.230181e+002
3.122659e+002, 4.140385e+002
3.127480e+002, 4.045670e+002
3.132301e+002, 3.954100e+002
3.137122e+002, 3.870175e+002
3.141943e+002, 3.791771e+002
3.146765e+002, 3.716314e+002
3.151586e+002, 3.641560e+002
3.156407e+002, 3.570284e+002
3.161228e+002, 3.502555e+002
3.166049e+002, 3.437895e+002
3.170870e+002, 3.380779e+002
3.175692e+002, 3.338792e+002
3.180513e+002, 3.304741e+002
3.185334e+002, 3.268844e+002
3.190155e+002, 3.229827e+002
3.194976e+002, 3.186683e+002
3.199797e+002, 3.134791e+002
3.204619e+002, 3.072309e+002
3.209440e+002, 3.021271e+002
3.214261e+002, 2.998678e+002
3.219082e+002, 2.986456e+002
3.223903e+002, 2.967606e+002
3.228724e+002, 2.932813e+002
3.233546e+002, 2.896722e+002
3.238367e+002, 2.862937e+002
3.243188e+002, 2.831458e+002
3.248009e+002, 2.799444e+002
3.252830e+002, 2.761730e+002
3.257651e+002, 2.726602e+002
3.262473e+002, 2.699552e+002
3.267294e+002, 2.690200e+002
3.272115e+002, 2.678526e+002
3.276936e+002, 2.662293e+002
3.281757e+002, 2.642281e+002
3.286578e+002, 2.621509e+002
3.291400e+002, 2.597379e+002
3.296221e+002, 2.574793e+002
3.301042e+002, 2.555957e+002
3.305863e+002, 2.545621e+002
3.310684e+002, 2.530981e+002
3.315505e+002, 2.509022e+002
3.320327e+002, 2.483347e+002
3.325148e+002, 2.462696e+002
3.329969e+002, 2.453296e+002
3.334790e+002, 2.440198e+002
3.339611e+002, 2.416012e+002
3.344432e+002, 2.375337e+002
3.349254e+002, 2.345624e+002
3.354075e+002, 2.332852e+002
3.358896e+002, 2.326201e+002
3.363717e+002, 2.309591e+002
3.368538e+002, 2.277253e+002
3.373359e+002, 2.249420e+002
3.378180e+002, 2.233787e+002
3.383001e+002, 2.230139e+002
3.387823e+002, 2.219230e+002
3.392644e+002, 2.199491e+002
3.397465e+002, 2.175984e+002
3.402286e+002, 2.152529e+002
3.407107e+002, 2.128832e+002
3.411928e+002, 2.108651e+002
3.416750e+002, 2.094353e+002
3.421571e+002, 2.083902e+002
3.426392e+002, 2.069757e+002
3.431213e+002, 2.051212e+002
3.436034e+002, 2.032220e+002
3.440855e+002, 2.015973e+002
3.445677e+002, 2.002436e+002
3.450498e+002, 1.987114e+002
3.455319e+002, 1.969643e+002
3.460140e+002, 1.950077e+002
3.464961e+002, 1.927166e+002
3.469782e+002, 1.901182e+002
3.474604e+002, 1.876616e+002
3.479425e+002, 1.856609e+002
3.484246e+002, 1.840229e+002
3.489067e+002, 1.825032e+002
3.493888e+002, 1.810971e+002
3.498709e+002, 1.797640e+002
3.503531e+002, 1.784523e+002
3.508352e+002, 1.771703e+002
3.513173e+002, 1.759551e+002
3.517994e+002, 1.748788e+002
3.522815e+002, 1.738476e+002
3.527636e+002, 1.726309e+002
3.532458e+002, 1.712275e+002
3.537279e+002, 1.699190e+002
3.542100e+002, 1.691451e+002
3.546921e+002, 1.685969e+002
3.551742e+002, 1.677279e+002
3.556563e+002, 1.661632e+002
3.561385e+002, 1.644136e+002
3.566206e+002, 1.628777e+002
3.571027e+002, 1.615453e+002
3.575848e+002, 1.604051e+002
3.580669e+002, 1.597316e+002
3.585490e+002, 1.590933e+002
3.590312e+002, 1.580505e+002
3.595133e+002, 1.563738e+002
3.599954e+002, 1.545901e+002
3.604775e+002, 1.528000e+002
3.609596e+002, 1.511182e+002
3.614417e+002, 1.498131e+002
3.619239e+002, 1.492332e+002
3.624060e+002, 1.488591e+002
3.628881e+002, 1.484620e+002
3.633702e+002, 1.480444e+002
3.638523e+002, 1.474584e+002
3.643344e+002, 1.465750e+002
3.648166e+002, 1.455267e+002
3.652987e+002, 1.444558e+002
3.657808e+002, 1.433246e+002
3.662629e+002, 1.422739e+002
3.667450e+002, 1.413155e+002
3.672271e+002, 1.404512e+002
3.677093e+002, 1.397627e+002
3.681914e+002, 1.395659e+002
3.686735e+002, 1.393534e+002
3.691556e+002, 1.387859e+002
3.696377e+002, 1.372952e+002
3.701198e+002, 1.361623e+002
3.706020e+002, 1.355903e+002
3.710841e+002, 1.354305e+002
3.715662e+002, 1.351541e+002
3.720483e+002, 1.347690e+002
3.725304e+002, 1.342604e+002
3.730125e+002, 1.336280e+002
3.734947e+002, 1.329016e+002
3.739768e+002, 1.319271e+002
3.744589e+002, 1.304605e+002
3.749410e+002, 1.289298e+002
3.754231e+002, 1.281284e+002
3.759052e+002, 1.283586e+002
3.763874e+002, 1.284546e+002
3.768695e+002, 1.280128e+002
3.773516e+002, 1.270462e+002
3.778337e+002, 1.263296e+002
3.783158e+002, 1.259378e+002
3.787979e+002, 1.255714e+002
3.792801e+002, 1.248726e+002
3.797622e+002, 1.238131e+002
3.802443e+002, 1.229355e+002
3.807264e+002, 1.223498e+002
3.812085e+002, 1.219972e+002
3.816906e+002, 1.218016e+002
3.821728e+002, 1.217687e+002
3.826549e+002, 1.216147e+002
3.831370e+002, 1.209576e+002
3.836191e+002, 1.199750e+002
3.841012e+002, 1.194696e+002
3.845833e+002, 1.196076e+002
3.850655e+002, 1.199136e+002
3.855476e+002, 1.197176e+002
3.860297e+002, 1.191353e+002
3.865118e+002, 1.186012e+002
3.869939e+002, 1.183794e+002
3.874760e+002, 1.183040e+002
3.879582e+002, 1.181133e+002
3.884403e+002, 1.177997e+002
3.889224e+002, 1.175220e+002
3.894045e+002, 1.176229e+002
3.898866e+002, 1.177917e+002
3.903687e+002, 1.175591e+002
3.908509e+002, 1.163857e+002
3.913330e+002, 1.151889e+002
3.918151e+002, 1.145819e+002
3.922972e+002, 1.144957e+002
3.927793e+002, 1.146285e+002
3.932614e+002, 1.150364e+002
3.937436e+002, 1.154756e+002
3.942257e+002, 1.158155e+002
3.947078e+002, 1.161070e+002
3.951899e+002, 1.161005e+002
3.956720e+002, 1.154216e+002
3.961541e+002, 1.144361e+002
3.966363e+002, 1.137326e+002
3.971184e+002, 1.136709e+002
3.976005e+002, 1.137099e+002
3.980826e+002, 1.136889e+002
3.985647e+002, 1.135949e+002
3.990468e+002, 1.134718e+002
3.995290e+002, 1.132860e+002
4.000111e+002, 1.130938e+002
4.004932e+002, 1.129428e+002
4.009753e+002, 1.129383e+002
4.014574e+002, 1.128328e+002
4.019395e+002, 1.125701e+002
4.024217e+002, 1.121839e+002
4.029038e+002, 1.118113e+002
4.033859e+002, 1.113361e+002
4.038680e+002, 1.110460e+002
4.043501e+002, 1.111417e+002
4.048322e+002, 1.117964e+002
4.053144e+002, 1.122325e+002
4.057965e+002, 1.124305e+002
4.062786e+002, 1.124282e+002
4.067607e+002, 1.122588e+002
4.072428e+002, 1.119039e+002
4.077249e+002, 1.114605e+002
4.082071e+002, 1.108407e+002
4.086892e+002, 1.101339e+002
4.091713e+002, 1.100644e+002
4.096534e+002, 1.107319e+002
4.101355e+002, 1.114548e+002
4.106176e+002, 1.115496e+002
4.110998e+002, 1.111180e+002
4.115819e+002, 1.107733e+002
4.120640e+002, 1.106975e+002
4.125461e+002, 1.106517e+002
4.130282e+002, 1.100961e+002
4.135103e+002, 1.091360e+002
4.139925e+002, 1.083798e+002
4.144746e+002, 1.082913e+002
4.149567e+002, 1.085901e+002
4.154388e+002, 1.089505e+002
4.159209e+002, 1.093862e+002
4.164030e+002, 1.095497e+002
4.168852e+002, 1.087844e+002
4.173673e+002, 1.076156e+002
4.178494e+002, 1.068964e+002
4.183315e+002, 1.074685e+002
4.188136e+002, 1.081677e+002
4.192957e+002, 1.082416e+002
4.197779e+002, 1.077582e+002
4.202600e+002, 1.071886e+002
4.207421e+002, 1.065010e+002
4.212242e+002, 1.059615e+002
4.217063e+002, 1.058283e+002
4.221884e+002, 1.064609e+002
4.226706e+002, 1.068960e+002
4.231527e+002, 1.066763e+002
4.236348e+002, 1.061297e+002
4.241169e+002, 1.058725e+002
4.245990e+002, 1.066131e+002
4.250811e+002, 1.070591e+002
4.255633e+002, 1.066508e+002
4.260454e+002, 1.052027e+002
4.265275e+002, 1.041970e+002
4.270096e+002, 1.037118e+002
4.274917e+002, 1.035951e+002
4.279738e+002, 1.037966e+002
4.284560e+002, 1.046924e+002
4.289381e+002, 1.050767e+002
4.294202e+002, 1.045780e+002
4.299023e+002, 1.035230e+002
4.303844e+002, 1.031026e+002
4.308665e+002, 1.035749e+002
4.313487e+002, 1.039547e+002
4.318308e+002, 1.036071e+002
4.323129e+002, 1.024776e+002
4.327950e+002, 1.018109e+002
4.332771e+002, 1.016797e+002
4.337592e+002, 1.018625e+002
4.342414e+002, 1.021954e+002
4.347235e+002, 1.026537e+002
4.352056e+002, 1.029226e+002
4.356877e+002, 1.028551e+002
4.361698e+002, 1.025720e+002
4.366519e+002, 1.023728e+002
4.371341e+002, 1.022431e+002
4.376162e+002, 1.019406e+002
4.380983e+002, 1.009345e+002
4.385804e+002, 9.971342e+001
4.390625e+002, 9.916299e+001
4.395446e+002, 9.951604e+001
4.400268e+002, 1.002563e+002
4.405089e+002, 1.014167e+002
4.409910e+002, 1.026133e+002
4.414731e+002, 1.030498e+002
4.419552e+002, 1.015378e+002
4.424373e+002, 9.981298e+001
4.429195e+002, 9.905300e+001
4.434016e+002, 9.927428e+001
4.438837e+002, 9.950278e+001
4.443658e+002, 9.934681e+001
4.448479e+002, 9.902785e+001
4.453300e+002, 9.871658e+001
4.458122e+002, 9.836136e+001
4.462943e+002, 9.812167e+001
4.467764e+002, 9.806016e+001
4.472585e+002, 9.813213e+001
4.477406e+002, 9.822542e+001
4.482227e+002, 9.858606e+001
4.487049e+002, 9.871066e+001
4.491870e+002, 9.837777e+001
4.496691e+002, 9.748238e+001
4.501512e+002, 9.678256e+001
4.506333e+002, 9.632703e+001
4.511154e+002, 9.602444e+001
4.515976e+002, 9.578295e+001
4.520797e+002, 9.557643e+001
4.525618e+002, 9.554973e+001
4.530439e+002, 9.580123e+001
4.535260e+002, 9.620958e+001
4.540081e+002, 9.641917e+001
4.544903e+002, 9.642010e+001
4.549724e+002, 9.629052e+001
4.554545e+002, 9.600871e+001
4.559366e+002, 9.560730e+001
4.564187e+002, 9.527666e+001
4.569008e+002, 9.501184e+001
4.573830e+002, 9.488705e+001
4.578651e+002, 9.505081e+001
4.583472e+002, 9.543888e+001
4.588293e+002, 9.586621e+001
4.593114e+002, 9.644473e+001
4.597935e+002, 9.685638e+001
4.602757e+002, 9.650090e+001
4.607578e+002, 9.553011e+001
4.612399e+002, 9.471182e+001
4.617220e+002, 9.483110e+001
4.622041e+002, 9.515673e+001
4.626862e+002, 9.487711e+001
4.631684e+002, 9.369971e+001
4.636505e+002, 9.272881e+001
4.641326e+002, 9.269583e+001
4.646147e+002, 9.316258e+001
4.650968e+002, 9.356450e+001
4.655789e+002, 9.366549e+001
4.660611e+002, 9.374342e+001
4.665432e+002, 9.402862e+001
4.670253e+002, 9.446568e+001
4.675074e+002, 9.444703e+001
4.679895e+002, 9.337157e+001
4.684716e+002, 9.225338e+001
4.689538e+002, 9.158665e+001
4.694359e+002, 9.160842e+001
4.699180e+002, 9.156711e+001
4.704001e+002, 9.137614e+001
4.708822e+002, 9.117960e+001
4.713643e+002, 9.124899e+001
4.718465e+002, 9.174717e+001
4.723286e+002, 9.202170e+001
4.728107e+002, 9.183283e+001
4.732928e+002, 9.127579e+001
4.737749e+002, 9.088230e+001
4.742570e+002, 9.066750e+001
4.747392e+002, 9.054691e+001
4.752213e+002, 9.049863e+001
4.757034e+002, 9.050642e+001
4.761855e+002, 9.045589e+001
4.766676e+002, 9.032999e+001
4.771497e+002, 9.016380e+001
4.776319e+002, 8.991817e+001
4.781140e+002, 8.965504e+001
4.785961e+002, 8.958305e+001
4.790782e+002, 9.004452e+001
4.795603e+002, 9.059005e+001
4.800424e+002, 9.062334e+001
4.805246e+002, 9.020161e+001
4.810067e+002, 8.979270e+001
4.814888e+002, 8.970473e+001
4.819709e+002, 8.975148e+001
4.824530e+002, 8.978948e+001
4.829352e+002, 8.982961e+001
4.834173e+002, 8.975968e+001
4.838994e+002, 8.939864e+001
4.843815e+002, 8.892717e+001
4.848636e+002, 8.862453e+001
4.853457e+002, 8.881847e+001
4.858279e+002, 8.891544e+001
4.863100e+002, 8.869670e+001
4.867921e+002, 8.815832e+001
4.872742e+002, 8.774755e+001
4.877563e+002, 8.746172e+001
4.882384e+002, 8.730468e+001
4.887206e+002, 8.729609e+001
4.892027e+002, 8.749765e+001
4.896848e+002, 8.770337e+001
4.901669e+002, 8.797246e+001
4.906490e+002, 8.818037e+001
4.911311e+002, 8.802944e+001
4.916133e+002, 8.743311e+001
4.920954e+002, 8.710084e+001
4.925775e+002, 8.735039e+001
4.930596e+002, 8.800418e+001
4.935417e+002, 8.845188e+001
4.940238e+002, 8.869195e+001
4.945060e+002, 8.872324e+001
4.949881e+002, 8.840182e+001
4.954702e+002, 8.787548e+001
4.959523e+002, 8.751035e+001
4.964344e+002, 8.736732e+001
4.969165e+002, 8.733007e+001
4.973987e+002, 8.737721e+001
4.978808e+002, 8.743834e+001
4.983629e+002, 8.738000e+001
4.988450e+002, 8.688355e+001
4.993271e+002, 8.647246e+001
4.998092e+002, 8.663746e+001
5.002914e+002, 8.726220e+001
5.007735e+002, 8.768569e+001
5.012556e+002, 8.750140e+001
5.017377e+002, 8.715913e+001
5.022198e+002, 8.691247e+001
5.027019e+002, 8.680440e+001
5.031841e+002, 8.675632e+001
5.036662e+002, 8.674986e+001
5.041483e+002, 8.680454e+001
5.046304e+002, 8.695866e+001
5.051125e+002, 8.739930e+001
5.055946e+002, 8.762310e+001
5.060768e+002, 8.745519e+001
5.065589e+002, 8.700011e+001
5.070410e+002, 8.681863e+001
5.075231e+002, 8.701498e+001
5.080052e+002, 8.718910e+001
5.084873e+002, 8.703978e+001
5.089695e+002, 8.656328e+001
5.094516e+002, 8.646468e+001
5.099337e+002, 8.680022e+001
5.104158e+002, 8.729221e+001
5.108979e+002, 8.774875e+001
5.113800e+002, 8.812471e+001
5.118622e+002, 8.815820e+001
5.123443e+002, 8.762798e+001
5.128264e+002, 8.694853e+001
5.133085e+002, 8.675552e+001
5.137906e+002, 8.691062e+001
5.142728e+002, 8.691685e+001
5.147549e+002, 8.617458e+001
5.152370e+002, 8.537182e+001
5.157191e+002, 8.518875e+001
5.162012e+002, 8.570761e+001
5.166833e+002, 8.619372e+001
5.171655e+002, 8.619016e+001
5.176476e+002, 8.606913e+001
5.181297e+002, 8.615287e+001
5.186118e+002, 8.685618e+001
5.190939e+002, 8.733501e+001
5.195760e+002, 8.731893e+001
5.200582e+002, 8.699511e+001
5.205403e+002, 8.681484e+001
5.210224e+002, 8.682656e+001
5.215045e+002, 8.692176e+001
5.219866e+002, 8.712711e+001
5.224688e+002, 8.744181e+001
5.229509e+002, 8.750076e+001
5.234330e+002, 8.719193e+001
5.239151e+002, 8.688577e+001
5.243972e+002, 8.697392e+001
5.248793e+002, 8.747000e+001
5.253615e+002, 8.750821e+001
5.258436e+002, 8.687095e+001
5.263257e+002, 8.614453e+001
5.268078e+002, 8.641431e+001
5.272899e+002, 8.745237e+001
5.277720e+002, 8.816630e+001
5.282542e+002, 8.795226e+001
5.287363e+002, 8.731171e+001
5.292184e+002, 8.677754e+001
5.297005e+002, 8.637263e+001
5.301826e+002, 8.619462e+001
5.306647e+002, 8.653899e+001
5.311469e+002, 8.699585e+001
5.316290e+002, 8.724215e+001
5.321111e+002, 8.723355e+001
5.325932e+002, 8.700349e+001
5.330753e+002, 8.625567e+001
5.335574e+002, 8.542814e+001
5.340396e+002, 8.498717e+001
5.345217e+002, 8.533074e+001
5.350038e+002, 8.569119e+001
5.354859e+002, 8.610051e+001
5.359680e+002, 8.646046e+001
5.364501e+002, 8.642073e+001
5.369323e+002, 8.571061e+001
5.374144e+002, 8.505367e+001
5.378965e+002, 8.465598e+001
5.383786e+002, 8.451283e+001
5.388607e+002, 8.489059e+001
5.393428e+002, 8.595309e+001
5.398250e+002, 8.701844e+001
5.403071e+002, 8.741688e+001
5.407892e+002, 8.719920e+001
5.412713e+002, 8.683398e+001
5.417534e+002, 8.632578e+001
5.422355e+002, 8.587190e+001
5.427177e+002, 8.580052e+001
5.431998e+002, 8.602359e+001
5.436819e+002, 8.626406e+001
5.441640e+002, 8.638490e+001
5.446461e+002, 8.646880e+001
5.451282e+002, 8.662864e+001
5.456104e+002, 8.684035e+001
5.460925e+002, 8.695885e+001
5.465746e+002, 8.679623e+001
5.470567e+002, 8.659476e+001
5.475388e+002, 8.655236e+001
5.480209e+002, 8.678934e+001
5.485031e+002, 8.686700e+001
5.489852e+002, 8.647166e+001
5.494673e+002, 8.597890e+001
5.499494e+002, 8.579640e+001
5.504315e+002, 8.624423e+001
5.509136e+002, 8.650671e+001
5.513958e+002, 8.644887e+001
5.518779e+002, 8.616312e+001
5.523600e+002, 8.588335e+001
5.528421e+002, 8.555161e+001
5.533242e+002, 8.542670e+001
5.538063e+002, 8.572890e+001
5.542885e+002, 8.637513e+001
5.547706e+002, 8.667673e+001
5.552527e+002, 8.661312e+001
5.557348e+002, 8.642698e+001
5.562169e+002, 8.633930e+001
5.566990e+002, 8.629382e+001
5.571812e+002, 8.610032e+001
5.576633e+002, 8.567850e+001
5.581454e+002, 8.530651e+001
5.586275e+002, 8.523320e+001
5.591096e+002, 8.540126e+001
5.595917e+002, 8.570842e+001
5.600739e+002, 8.641304e+001
5.605560e+002, 8.696104e+001
5.610381e+002, 8.703282e+001
5.615202e+002, 8.669617e+001
5.620023e+002, 8.626482e+001
5.624844e+002, 8.549564e+001
5.629666e+002, 8.492311e+001
5.634487e+002, 8.488712e+001
5.639308e+002, 8.554700e+001
5.644129e+002, 8.591649e+001
5.648950e+002, 8.580823e+001
5.653771e+002, 8.561287e+001
5.658593e+002, 8.572288e+001
5.663414e+002, 8.629787e+001
5.668235e+002, 8.643409e+001
5.673056e+002, 8.590141e+001
5.677877e+002, 8.511296e+001
5.682698e+002, 8.486015e+001
5.687520e+002, 8.511124e+001
5.692341e+002, 8.535256e+001
5.697162e+002, 8.529677e+001
5.701983e+002, 8.517439e+001
5.706804e+002, 8.555497e+001
5.711625e+002, 8.634912e+001
5.716447e+002, 8.693994e+001
5.721268e+002, 8.679691e+001
5.726089e+002, 8.633243e+001
5.730910e+002, 8.589342e+001
5.735731e+002, 8.550199e+001
5.740552e+002, 8.525817e+001
5.745374e+002, 8.528365e+001
5.750195e+002, 8.543669e+001
5.755016e+002, 8.558400e+001
5.759837e+002, 8.559785e+001
5.764658e+002, 8.573124e+001
5.769479e+002, 8.616078e+001
5.774301e+002, 8.668663e+001
5.779122e+002, 8.690009e+001
5.783943e+002, 8.663857e+001
5.788764e+002, 8.639529e+001
5.793585e+002, 8.636857e+001
5.798406e+002, 8.648662e+001
5.803228e+002, 8.609821e+001
5.808049e+002, 8.508580e+001
5.812870e+002, 8.432639e+001
5.817691e+002, 8.468471e+001
5.822512e+002, 8.583159e+001
5.827333e+002, 8.637434e+001
5.832155e+002, 8.619432e+001
5.836975e+002, 8.582731e+001
5.841796e+002, 8.573788e+001
5.846617e+002, 8.581446e+001
5.851439e+002, 8.587115e+001
5.856260e+002, 8.585166e+001
5.861081e+002, 8.581406e+001
5.865902e+002, 8.589429e+001
5.870723e+002, 8.597131e+001
5.875544e+002, 8.581292e+001
5.880366e+002, 8.482141e+001
5.885187e+002, 8.411776e+001
5.890008e+002, 8.424710e+001
5.894829e+002, 8.515930e+001
5.899650e+002, 8.569843e+001
5.904471e+002, 8.564874e+001
5.909293e+002, 8.549950e+001
5.914114e+002, 8.546387e+001
5.918935e+002, 8.554862e+001
5.923756e+002, 8.573113e+001
5.928577e+002, 8.608092e+001
5.933398e+002, 8.633922e+001
5.938220e+002, 8.611768e+001
5.943041e+002, 8.549659e+001
5.947862e+002, 8.513457e+001
5.952683e+002, 8.521382e+001
5.957504e+002, 8.542503e+001
5.962325e+002, 8.526591e+001
5.967147e+002, 8.490931e+001
5.971968e+002, 8.480407e+001
5.976789e+002, 8.562710e+001
5.981610e+002, 8.637359e+001
5.986431e+002, 8.612563e+001
5.991252e+002, 8.509699e+001
5.996074e+002, 8.429521e+001
6.000895e+002, 8.428954e+001
6.005716e+002, 8.441090e+001
6.010537e+002, 8.427602e+001
6.015358e+002, 8.373293e+001
6.020179e+002, 8.358743e+001
6.025001e+002, 8.419945e+001
6.029822e+002, 8.486112e+001
6.034643e+002, 8.499645e+001
6.039464e+002, 8.441348e+001
6.044285e+002, 8.410893e+001
6.049106e+002, 8.425127e+001
6.053928e+002, 8.448571e+001
6.058749e+002, 8.408403e+001
6.063570e+002, 8.312234e+001
6.068391e+002, 8.265749e+001
6.073212e+002, 8.323283e+001
6.078033e+002, 8.418497e+001
6.082855e+002, 8.453924e+001
6.087676e+002, 8.439732e+001
6.092497e+002, 8.414795e+001
6.097318e+002, 8.392927e+001
6.102139e+002, 8.374252e+001
6.106960e+002, 8.364225e+001
6.111782e+002, 8.362138e+001
6.116603e+002, 8.347130e+001
6.121424e+002, 8.285174e+001
6.126245e+002, 8.227238e+001
6.131066e+002, 8.207009e+001
6.135887e+002, 8.245844e+001
6.140709e+002, 8.277550e+001
6.145530e+002, 8.287682e+001
6.150351e+002, 8.304325e+001
6.155172e+002, 8.372211e+001
6.159993e+002, 8.518609e+001
6.164814e+002, 8.591293e+001
6.169636e+002, 8.556717e+001
6.174457e+002, 8.456603e+001
6.179278e+002, 8.351372e+001
6.184099e+002, 8.244181e+001
6.188920e+002, 8.166833e+001
6.193741e+002, 8.140571e+001
6.198563e+002, 8.144350e+001
6.203384e+002, 8.152707e+001
6.208205e+002, 8.165354e+001
6.213026e+002, 8.181194e+001
6.217847e+002, 8.216903e+001
6.222668e+002, 8.243108e+001
6.227490e+002, 8.228915e+001
6.232311e+002, 8.167310e+001
6.237132e+002, 8.119878e+001
6.241953e+002, 8.117248e+001
6.246774e+002, 8.124927e+001
6.251595e+002, 8.118490e+001
6.256417e+002, 8.087055e+001
6.261238e+002, 8.062878e+001
6.266059e+002, 8.049550e+001
6.270880e+002, 8.040154e+001
6.275701e+002, 8.022265e+001
6.280522e+002, 7.993571e+001
6.285344e+002, 7.981621e+001
6.290165e+002, 7.998239e+001
6.294986e+002, 8.025594e+001
6.299807e+002, 8.025159e+001
6.304628e+002, 8.001993e+001
6.309449e+002, 7.983717e+001
6.314271e+002, 8.003069e+001
6.319092e+002, 8.021635e+001
6.323913e+002, 7.984480e+001
6.328734e+002, 7.901002e+001
6.333555e+002, 7.833170e+001
6.338376e+002, 7.808508e+001
6.343198e+002, 7.810818e+001
6.348019e+002, 7.837892e+001
6.352840e+002, 7.897529e+001
6.357661e+002, 7.938605e+001
6.362482e+002, 7.948290e+001
6.367303e+002, 7.944775e+001
6.372125e+002, 7.943102e+001
6.376946e+002, 7.955722e+001
6.381767e+002, 7.928646e+001
6.386588e+002, 7.846902e+001
6.391409e+002, 7.748024e+001
6.396230e+002, 7.686976e+001
6.401052e+002, 7.661504e+001
6.405873e+002, 7.640610e+001
6.410694e+002, 7.613492e+001
6.415515e+002, 7.592982e+001
6.420336e+002, 7.597894e+001
6.425157e+002, 7.625574e+001
6.429979e+002, 7.668777e+001
6.434800e+002, 7.773119e+001
6.439621e+002, 7.850368e+001
6.444442e+002, 7.807824e+001
6.449263e+002, 7.668201e+001
6.454084e+002, 7.567880e+001
6.458906e+002, 7.568466e+001
6.463727e+002, 7.603403e+001
6.468548e+002, 7.651008e+001
6.473369e+002, 7.714554e+001
6.478190e+002, 7.758912e+001
6.483011e+002, 7.790920e+001
6.487833e+002, 7.792881e+001
6.492654e+002, 7.733909e+001
6.497475e+002, 7.604039e+001
6.502296e+002, 7.538436e+001
6.507117e+002, 7.554952e+001
6.511938e+002, 7.594610e+001
6.516760e+002, 7.571817e+001
6.521581e+002, 7.510789e+001
6.526402e+002, 7.492661e+001
6.531223e+002, 7.557583e+001
6.536044e+002, 7.631246e+001
6.540865e+002, 7.656461e+001
6.545687e+002, 7.641641e+001
6.550508e+002, 7.603799e+001
6.555329e+002, 7.517614e+001
6.560150e+002, 7.441587e+001
6.564971e+002, 7.400642e+001
6.569792e+002, 7.389772e+001
6.574614e+002, 7.379269e+001
6.579435e+002, 7.351492e+001
6.584256e+002, 7.347775e+001
6.589077e+002, 7.397751e+001
6.593898e+002, 7.496794e+001
6.598719e+002, 7.520760e+001
6.603541e+002, 7.456567e+001
6.608362e+002, 7.378774e+001
6.613183e+002, 7.333984e+001
6.618004e+002, 7.318436e+001
6.622825e+002, 7.316297e+001
6.627646e+002, 7.326970e+001
6.632468e+002, 7.346585e+001
6.637289e+002, 7.387206e+001
6.642110e+002, 7.428718e+001
6.646931e+002, 7.441764e+001
6.651752e+002, 7.409410e+001
6.656573e+002, 7.376534e+001
6.661395e+002, 7.365982e+001
6.666216e+002, 7.364625e+001
6.671037e+002, 7.356282e+001
6.675858e+002, 7.333769e+001
6.680679e+002, 7.309964e+001
6.685500e+002, 7.284225e+001
6.690322e+002, 7.258530e+001
6.695143e+002, 7.237344e+001
6.699964e+002, 7.220291e+001
6.704785e+002, 7.208546e+001
6.709606e+002, 7.201566e+001
6.714427e+002, 7.200701e+001
6.719249e+002, 7.216700e+001
6.724070e+002, 7.246549e+001
6.728891e+002, 7.265496e+001
6.733712e+002, 7.256431e+001
6.738533e+002, 7.229871e+001
6.743354e+002, 7.181963e+001
6.748176e+002, 7.118034e+001
6.752997e+002, 7.089440e+001
6.757818e+002, 7.175557e+001
6.762639e+002, 7.264668e+001
6.767460e+002, 7.277075e+001
6.772281e+002, 7.173917e+001
6.777103e+002, 7.115703e+001
6.781924e+002, 7.139014e+001
6.786745e+002, 7.177374e+001
6.791566e+002, 7.179500e+001
6.796387e+002, 7.134626e+001
6.801208e+002, 7.105769e+001
6.806030e+002, 7.098555e+001
6.810851e+002, 7.100495e+001
6.815672e+002, 7.087751e+001
6.820493e+002, 7.068162e+001
6.825314e+002, 7.082568e+001
6.830135e+002, 7.158078e+001
6.834957e+002, 7.228934e+001
6.839778e+002, 7.209595e+001
6.844599e+002, 7.137203e+001
6.849420e+002, 7.082552e+001
6.854241e+002, 7.104540e+001
6.859063e+002, 7.114005e+001
6.863884e+002, 7.056738e+001
6.868705e+002, 6.957370e+001
6.873526e+002, 6.902941e+001
6.878347e+002, 6.927290e+001
6.883168e+002, 6.953315e+001
6.887990e+002, 6.963392e+001
6.892811e+002, 6.958453e+001
6.897632e+002, 6.940894e+001
6.902453e+002, 6.909372e+001
6.907274e+002, 6.875422e+001
6.912095e+002, 6.839572e+001
6.916917e+002, 6.807161e+001
6.921738e+002, 6.801479e+001
6.926559e+002, 6.821349e+001
6.931380e+002, 6.834033e+001
6.936201e+002, 6.807026e+001
6.941022e+002, 6.766192e+001
6.945844e+002, 6.736002e+001
6.950665e+002, 6.720933e+001
6.955486e+002, 6.708433e+001
6.960307e+002, 6.693694e+001
6.965128e+002, 6.680111e+001
6.969949e+002, 6.673472e+001
6.974771e+002, 6.703000e+001
6.979592e+002, 6.672778e+001
6.984413e+002, 6.551365e+001
6.989234e+002, 6.411091e+001
6.994055e+002, 6.341810e+001
6.998876e+002, 6.344649e+001
7.003698e+002, 6.356907e+001
7.008519e+002, 6.364059e+001
7.013340e+002, 6.387097e+001
7.018161e+002, 6.497256e+001
7.022982e+002, 6.647350e+001
7.027803e+002, 6.714778e+001
7.032625e+002, 6.587817e+001
7.037446e+002, 6.444598e+001
7.042267e+002, 6.406593e+001
7.047088e+002, 6.440249e+001
7.051909e+002, 6.472763e+001
7.056730e+002, 6.488831e+001
7.061552e+002, 6.496873e+001
7.066373e+002, 6.497091e+001
7.071194e+002, 6.490760e+001
7.076015e+002, 6.485818e+001
7.080836e+002, 6.486521e+001
7.085657e+002, 6.474429e+001
7.090479e+002, 6.434885e+001
7.095300e+002, 6.377063e+001
7.100121e+002, 6.341336e+001
7.104942e+002, 6.326980e+001
7.109763e+002, 6.319585e+001
7.114584e+002, 6.310821e+001
7.119406e+002, 6.302454e+001
7.124227e+002, 6.293103e+001
7.129048e+002, 6.283225e+001
7.133869e+002, 6.286300e+001
7.138690e+002, 6.350610e+001
7.143511e+002, 6.399487e+001
7.148333e+002, 6.371938e+001
7.153154e+002, 6.222886e+001
7.157975e+002, 6.124894e+001
7.162796e+002, 6.091715e+001
7.167617e+002, 6.093022e+001
7.172438e+002, 6.109887e+001
7.177260e+002, 6.143778e+001
7.182081e+002, 6.183712e+001
7.186902e+002, 6.235390e+001
7.191723e+002, 6.266027e+001
7.196544e+002, 6.208562e+001
7.201365e+002, 6.100785e+001
7.206187e+002, 6.042501e+001
7.211008e+002, 6.067333e+001
7.215829e+002, 6.108369e+001
7.220650e+002, 6.120044e+001
7.225471e+002, 6.115493e+001
7.230292e+002, 6.112573e+001
7.235114e+002, 6.133403e+001
7.239935e+002, 6.134509e+001
7.244756e+002, 6.087480e+001
7.249577e+002, 6.024594e+001
7.254398e+002, 6.005208e+001
7.259219e+002, 6.050709e+001
7.264041e+002, 6.070934e+001
7.268862e+002, 6.035028e+001
7.273683e+002, 5.974432e+001
7.278504e+002, 5.974702e+001
7.283325e+002, 6.026514e+001
7.288146e+002, 6.067200e+001
7.292968e+002, 6.068035e+001
7.297789e+002, 6.043440e+001
7.302610e+002, 5.990800e+001
7.307431e+002, 5.923190e+001
7.312252e+002, 5.883958e+001
7.317073e+002, 5.919839e+001
7.321895e+002, 5.960891e+001
7.326716e+002, 5.980553e+001
7.331537e+002, 5.977787e+001
7.336358e+002, 5.960848e+001
7.341179e+002, 5.912648e+001
7.346000e+002, 5.880206e+001
7.350822e+002, 5.893503e+001
7.355643e+002, 5.944840e+001
7.360464e+002, 5.948387e+001
7.365285e+002, 5.901720e+001
7.370106e+002, 5.856460e+001
7.374927e+002, 5.848299e+001
7.379749e+002, 5.866337e+001
7.384570e+002, 5.904572e+001
7.389391e+002, 5.960672e+001
7.394212e+002, 5.992647e+001
7.399033e+002, 5.952338e+001
7.403854e+002, 5.895153e+001
7.408676e+002, 5.861179e+001
7.413497e+002, 5.861135e+001
7.418318e+002, 5.859932e+001
7.423139e+002, 5.854154e+001
7.427960e+002, 5.847509e+001
7.432781e+002, 5.841901e+001
7.437603e+002, 5.837025e+001
7.442424e+002, 5.835641e+001
7.447245e+002, 5.838154e+001
7.452066e+002, 5.843011e+001
7.456887e+002, 5.850991e+001
7.461708e+002, 5.860010e+001
7.466530e+002, 5.865734e+001
7.471351e+002, 5.868526e+001
7.476172e+002, 5.862553e+001
7.480993e+002, 5.837390e+001
7.485814e+002, 5.803762e+001
7.490635e+002, 5.773457e+001
7.495457e+002, 5.743505e+001
7.500278e+002, 5.725905e+001
7.505099e+002, 5.732999e+001
7.509920e+002, 5.746026e+001
7.514741e+002, 5.739777e+001
7.519562e+002, 5.705208e+001
7.524384e+002, 5.694500e+001
7.529205e+002, 5.725003e+001
7.534026e+002, 5.759700e+001
7.538847e+002, 5.714129e+001
7.543668e+002, 5.615653e+001
7.548489e+002, 5.579538e+001
7.553311e+002, 5.671904e+001
7.558132e+002, 5.779523e+001
7.562953e+002, 5.805457e+001
7.567774e+002, 5.776219e+001
7.572595e+002, 5.737842e+001
7.577416e+002, 5.681117e+001
7.582238e+002, 5.644404e+001
7.587059e+002, 5.651665e+001
7.591880e+002, 5.680625e+001
7.596701e+002, 5.683464e+001
7.601522e+002, 5.651270e+001
7.606343e+002, 5.621974e+001
7.611165e+002, 5.604637e+001
7.615986e+002, 5.596391e+001
7.620807e+002, 5.588011e+001
7.625628e+002, 5.581101e+001
7.630449e+002, 5.585381e+001
7.635270e+002, 5.624481e+001
7.640092e+002, 5.659707e+001
7.644913e+002, 5.642514e+001
7.649734e+002, 5.589720e+001
7.654555e+002, 5.553526e+001
7.659376e+002, 5.570518e+001
7.664197e+002, 5.588816e+001
7.669019e+002, 5.591549e+001
7.673840e+002, 5.580810e+001
7.678661e+002, 5.565144e+001
7.683482e+002, 5.542657e+001
7.688303e+002, 5.520147e+001
7.693124e+002, 5.496360e+001
7.697946e+002, 5.476159e+001
7.702767e+002, 5.482735e+001
7.707588e+002, 5.512994e+001
7.712409e+002, 5.538062e+001
7.717230e+002, 5.528473e+001
7.722051e+002, 5.513670e+001
7.726873e+002, 5.536523e+001
7.731694e+002, 5.589005e+001
7.736515e+002, 5.607607e+001
7.741336e+002, 5.531550e+001
7.746157e+002, 5.454184e+001
7.750978e+002, 5.413720e+001
7.755800e+002, 5.409346e+001
7.760621e+002, 5.422896e+001
7.765442e+002, 5.464078e+001
7.770263e+002, 5.495684e+001
7.775084e+002, 5.494518e+001
7.779905e+002, 5.466442e+001
7.784727e+002, 5.428075e+001
7.789548e+002, 5.381188e+001
7.794369e+002, 5.357841e+001
7.799190e+002, 5.406139e+001
7.804011e+002, 5.472511e+001
7.808832e+002, 5.505674e+001
7.813654e+002, 5.501772e+001
7.818475e+002, 5.486670e+001
7.823296e+002, 5.448267e+001
7.828117e+002, 5.419557e+001
7.832938e+002, 5.424277e+001
7.837759e+002, 5.468746e+001
7.842581e+002, 5.465822e+001
7.847402e+002, 5.398059e+001
7.852223e+002, 5.337909e+001
7.857044e+002, 5.348878e+001
7.861865e+002, 5.410089e+001
7.866686e+002, 5.434844e+001
7.871508e+002, 5.421199e+001
7.876329e+002, 5.407079e+001
7.881150e+002, 5.423148e+001
7.885971e+002, 5.451014e+001
7.890792e+002, 5.478844e+001
7.895613e+002, 5.508053e+001
7.900435e+002, 5.512392e+001
7.905256e+002, 5.456001e+001
7.910077e+002, 5.398816e+001
7.914898e+002, 5.371730e+001
7.919719e+002, 5.378329e+001
7.924540e+002, 5.396913e+001
7.929362e+002, 5.433617e+001
7.934183e+002, 5.455336e+001
7.939004e+002, 5.408644e+001
7.943825e+002, 5.326758e+001
7.948646e+002, 5.321819e+001
7.953467e+002, 5.402834e+001
7.958289e+002, 5.465150e+001
7.963110e+002, 5.403241e+001
7.967931e+002, 5.308997e+001
7.972752e+002, 5.260081e+001
7.977573e+002, 5.275146e+001
7.982394e+002, 5.295668e+001
7.987216e+002, 5.321538e+001
7.992037e+002, 5.343551e+001
7.996858e+002, 5.355273e+001
8.001679e+002, 5.355713e+001
8.006500e+002, 5.350328e+001
8.011321e+002, 5.336602e+001
8.016143e+002, 5.332365e+001
8.020964e+002, 5.375406e+001
8.025785e+002, 5.433306e+001
8.030606e+002, 5.431128e+001
8.035427e+002, 5.355999e+001
8.040248e+002, 5.295604e+001
8.045070e+002, 5.311683e+001
8.049891e+002, 5.355812e+001
8.054712e+002, 5.396346e+001
8.059533e+002, 5.437926e+001
8.064354e+002, 5.443685e+001
8.069175e+002, 5.392143e+001
8.073997e+002, 5.335966e+001
8.078818e+002, 5.318533e+001
8.083639e+002, 5.338825e+001
8.088460e+002, 5.341130e+001
8.093281e+002, 5.322376e+001
8.098102e+002, 5.300811e+001
8.102924e+002, 5.294592e+001
8.107745e+002, 5.294909e+001
8.112566e+002, 5.285958e+001
8.117387e+002, 5.263596e+001
8.122208e+002, 5.255107e+001
8.127029e+002, 5.290807e+001
8.131851e+002, 5.330100e+001
8.136672e+002, 5.341262e+001
8.141493e+002, 5.312855e+001
8.146314e+002, 5.308190e+001
8.151135e+002, 5.336021e+001
8.155956e+002, 5.365822e+001
8.160778e+002, 5.376059e+001
8.165599e+002, 5.367621e+001
8.170420e+002, 5.332839e+001
8.175241e+002, 5.270321e+001
8.180062e+002, 5.227229e+001
8.184883e+002, 5.269408e+001
8.189705e+002, 5.330434e+001
8.194526e+002, 5.335876e+001
8.199347e+002, 5.265874e+001
8.204168e+002, 5.225078e+001
8.208989e+002, 5.277056e+001
8.213810e+002, 5.324812e+001
8.218632e+002, 5.310932e+001
8.223453e+002, 5.224940e+001
8.228274e+002, 5.187122e+001
8.233095e+002, 5.204789e+001
8.237916e+002, 5.230064e+001
8.242737e+002, 5.215362e+001
8.247559e+002, 5.183992e+001
8.252380e+002, 5.193943e+001
8.257201e+002, 5.246681e+001
8.262022e+002, 5.281092e+001
8.266843e+002, 5.249870e+001
8.271664e+002, 5.195479e+001
8.276486e+002, 5.131717e+001
8.281307e+002, 5.050954e+001
8.286128e+002, 5.047102e+001
8.290949e+002, 5.170637e+001
8.295770e+002, 5.283388e+001
8.300591e+002, 5.297654e+001
8.305413e+002, 5.224614e+001
8.310234e+002, 5.195541e+001
8.315055e+002, 5.209888e+001
8.319876e+002, 5.229094e+001
8.324697e+002, 5.221214e+001
8.329518e+002, 5.206460e+001
8.334340e+002, 5.209681e+001
8.339161e+002, 5.230782e+001
8.343982e+002, 5.247006e+001
8.348803e+002, 5.248723e+001
8.353624e+002, 5.245280e+001
8.358445e+002, 5.239858e+001
8.363267e+002, 5.232656e+001
8.368088e+002, 5.225452e+001
8.372909e+002, 5.216005e+001
8.377730e+002, 5.217541e+001
8.382551e+002, 5.245968e+001
8.387372e+002, 5.288130e+001
8.392194e+002, 5.314416e+001
8.397015e+002, 5.324797e+001
8.401836e+002, 5.319015e+001
8.406657e+002, 5.270176e+001
8.411478e+002, 5.229035e+001
8.416299e+002, 5.240984e+001
8.421121e+002, 5.298330e+001
8.425942e+002, 5.321724e+001
8.430763e+002, 5.292476e+001
8.435584e+002, 5.253547e+001
8.440405e+002, 5.208297e+001
8.445226e+002, 5.166721e+001
8.450048e+002, 5.183726e+001
8.454869e+002, 5.254491e+001
8.459690e+002, 5.305084e+001
8.464511e+002, 5.277716e+001
8.469332e+002, 5.228567e+001
8.474153e+002, 5.224812e+001
8.478975e+002, 5.249811e+001
8.483796e+002, 5.256432e+001
8.488617e+002, 5.202380e+001
8.493438e+002, 5.157907e+001
8.498259e+002, 5.150256e+001
8.503080e+002, 5.164089e+001
8.507902e+002, 5.155753e+001
8.512723e+002, 5.118736e+001
8.517544e+002, 5.101040e+001
8.522365e+002, 5.121676e+001
8.527186e+002, 5.160399e+001
8.532007e+002, 5.190235e+001
8.536829e+002, 5.208749e+001
8.541650e+002, 5.209127e+001
8.546471e+002, 5.172323e+001
8.551292e+002, 5.137906e+001
8.556113e+002, 5.115812e+001
8.560934e+002, 5.111128e+001
8.565756e+002, 5.136976e+001
8.570577e+002, 5.230168e+001
8.575398e+002, 5.273919e+001
8.580219e+002, 5.243444e+001
8.585040e+002, 5.178318e+001
8.589861e+002, 5.128594e+001
8.594683e+002, 5.097444e+001
8.599504e+002, 5.116534e+001
8.604325e+002, 5.213917e+001
8.609146e+002, 5.293649e+001
8.613967e+002, 5.238995e+001
8.618788e+002, 5.127248e+001
8.623610e+002, 5.053564e+001
8.628431e+002, 5.061402e+001
8.633252e+002, 5.071272e+001
8.638073e+002, 5.068840e+001
8.642894e+002, 5.072390e+001
8.647715e+002, 5.109123e+001
8.652537e+002, 5.182468e+001
8.657358e+002, 5.215541e+001
8.662179e+002, 5.199120e+001
8.667000e+002, 5.169053e+001
8.671821e+002, 5.164740e+001
8.676642e+002, 5.168846e+001
8.681464e+002, 5.148475e+001
8.686285e+002, 5.091474e+001
8.691106e+002, 5.061320e+001
8.695927e+002, 5.109048e+001
8.700748e+002, 5.170120e+001
8.705569e+002, 5.201276e+001
8.710391e+002, 5.197438e+001
8.715212e+002, 5.197004e+001
8.720033e+002, 5.200726e+001
8.724854e+002, 5.204091e+001
8.729675e+002, 5.193220e+001
8.734496e+002, 5.181558e+001
8.739318e+002, 5.222135e+001
8.744139e+002, 5.308732e+001
8.748960e+002, 5.355048e+001
8.753781e+002, 5.265416e+001
8.758602e+002, 5.158266e+001
8.763423e+002, 5.101144e+001
8.768245e+002, 5.100352e+001
8.773066e+002, 5.128127e+001
8.777887e+002, 5.208720e+001
8.782708e+002, 5.261784e+001
8.787529e+002, 5.243196e+001
8.792350e+002, 5.178300e+001
8.797172e+002, 5.157084e+001
8.801993e+002, 5.172610e+001
8.806814e+002, 5.177325e+001
8.811635e+002, 5.131365e+001
8.816456e+002, 5.077748e+001
8.821277e+002, 5.037380e+001
8.826099e+002, 5.014527e+001
8.830920e+002, 5.021961e+001
8.835741e+002, 5.105629e+001
8.840562e+002, 5.157465e+001
8.845383e+002, 5.154066e+001
8.850204e+002, 5.114862e+001
8.855026e+002, 5.070222e+001
8.859847e+002, 5.022383e+001
8.864668e+002, 5.009950e+001
8.869489e+002, 5.055320e+001
8.874310e+002, 5.113903e+001
8.879131e+002, 5.141877e+001
8.883953e+002, 5.148481e+001
8.888774e+002, 5.147589e+001
8.893595e+002, 5.137715e+001
8.898416e+002, 5.128824e+001
8.903237e+002, 5.124361e+001
8.908058e+002, 5.119899e+001
8.912880e+002, 5.107097e+001
8.917701e+002, 5.084076e+001
8.922522e+002, 5.080842e+001
8.927343e+002, 5.101837e+001
8.932164e+002, 5.130269e+001
8.936985e+002, 5.154839e+001
8.941807e+002, 5.172932e+001
8.946628e+002, 5.178794e+001
8.951449e+002, 5.169589e+001
8.956270e+002, 5.162362e+001
8.961091e+002, 5.165049e+001
8.965912e+002, 5.170116e+001
8.970734e+002, 5.174081e+001
8.975555e+002, 5.177349e+001
8.980376e+002, 5.171406e+001
8.985197e+002, 5.153573e+001
8.990018e+002, 5.143537e+001
8.994839e+002, 5.163533e+001
8.999661e+002, 5.197484e+001
9.004482e+002, 5.223022e+001
9.009303e+002, 5.237318e+001
9.014124e+002, 5.226220e+001
9.018945e+002, 5.158995e+001
9.023766e+002, 5.088139e+001
9.028588e+002, 5.029451e+001
9.033409e+002, 4.986772e+001
9.038230e+002, 4.982374e+001
9.043051e+002, 5.031312e+001
9.047872e+002, 5.055417e+001
9.052693e+002, 5.014675e+001
9.057515e+002, 4.951520e+001
9.062336e+002, 4.957203e+001
9.067157e+002, 5.013279e+001
9.071978e+002, 5.066924e+001
9.076799e+002, 5.107637e+001
9.081620e+002, 5.126691e+001
9.086442e+002, 5.105617e+001
9.091263e+002, 5.065040e+001
9.096084e+002, 5.038425e+001
9.100905e+002, 5.026011e+001
9.105726e+002, 5.032425e+001
9.110547e+002, 5.065496e+001
9.115369e+002, 5.099904e+001
9.120190e+002, 5.094285e+001
9.125011e+002, 5.063348e+001
9.129832e+002, 5.051579e+001
9.134653e+002, 5.069662e+001
9.139474e+002, 5.086382e+001
9.144296e+002, 5.075642e+001
9.149117e+002, 5.059138e+001
9.153938e+002, 5.054938e+001
9.158759e+002, 5.065403e+001
9.163580e+002, 5.085246e+001
9.168401e+002, 5.120406e+001
9.173223e+002, 5.150016e+001
9.178044e+002, 5.156280e+001
9.182865e+002, 5.145177e+001
9.187686e+002, 5.137632e+001
9.192507e+002, 5.133838e+001
9.197328e+002, 5.132994e+001
9.202150e+002, 5.137856e+001
9.206971e+002, 5.142687e+001
9.211792e+002, 5.147335e+001
9.216613e+002, 5.149847e+001
9.221434e+002, 5.138059e+001
9.226255e+002, 5.102863e+001
9.231077e+002, 5.074483e+001
9.235898e+002, 5.061710e+001
9.240719e+002, 5.060938e+001
9.245540e+002, 5.067732e+001
9.250361e+002, 5.079673e+001
9.255182e+002, 5.086897e+001
9.260004e+002, 5.084926e+001
9.264825e+002, 5.078416e+001
9.269646e+002, 5.065765e+001
9.274467e+002, 5.051821e+001
9.279288e+002, 5.044966e+001
9.284109e+002, 5.054255e+001
9.288931e+002, 5.049929e+001
9.293752e+002, 5.023218e+001
9.298573e+002, 4.997954e+001
9.303394e+002, 5.011172e+001
9.308215e+002, 5.049142e+001
9.313036e+002, 5.058235e+001
9.317858e+002, 5.030440e+001
9.322679e+002, 5.002775e+001
9.327500e+002, 4.998626e+001
9.332321e+002, 5.006766e+001
9.337142e+002, 5.026202e+001
9.341964e+002, 5.061299e+001
9.346785e+002, 5.055832e+001
9.351606e+002, 4.988541e+001
9.356427e+002, 4.933710e+001
9.361248e+002, 4.940108e+001
9.366069e+002, 4.986239e+001
9.370891e+002, 4.993457e+001
9.375712e+002, 4.970396e+001
9.380533e+002, 4.960030e+001
9.385354e+002, 5.017202e+001
9.390175e+002, 5.062243e+001
9.394996e+002, 5.037333e+001
9.399818e+002, 4.964519e+001
9.404639e+002, 4.907952e+001
9.409460e+002, 4.865816e+001
9.414281e+002, 4.853288e+001
9.419102e+002, 4.880082e+001
9.423923e+002, 4.924504e+001
9.428745e+002, 4.953246e+001
9.433566e+002, 4.970708e+001
9.438387e+002, 4.990334e+001
9.443208e+002, 5.017973e+001
9.448029e+002, 5.037695e+001
9.452850e+002, 5.025481e+001
9.457672e+002, 5.010860e+001
9.462493e+002, 5.028746e+001
9.467314e+002, 5.099758e+001
9.472135e+002, 5.116314e+001
9.476956e+002, 5.066389e+001
9.481777e+002, 5.003364e+001
9.486599e+002, 4.969384e+001
9.491420e+002, 4.953659e+001
9.496241e+002, 4.922837e+001
9.501062e+002, 4.880808e+001
9.505883e+002, 4.864115e+001
9.510704e+002, 4.924045e+001
9.515526e+002, 4.983314e+001
9.520347e+002, 4.991508e+001
9.525168e+002, 4.964948e+001
9.529989e+002, 4.972263e+001
9.534810e+002, 5.026869e+001
9.539631e+002, 5.048908e+001
9.544453e+002, 5.006469e+001
9.549274e+002, 4.936458e+001
9.554095e+002, 4.879903e+001
9.558916e+002, 4.845699e+001
9.563737e+002, 4.856273e+001
9.568558e+002, 4.952017e+001
9.573380e+002, 5.030371e+001
9.578201e+002, 5.059950e+001
9.583022e+002, 5.053340e+001
9.587843e+002, 5.010245e+001
9.592664e+002, 4.913289e+001
9.597485e+002, 4.885889e+001
9.602307e+002, 4.938014e+001
9.607128e+002, 5.011617e+001
9.611949e+002, 5.076061e+001
9.616770e+002, 5.119350e+001
9.621591e+002, 5.115908e+001
9.626412e+002, 5.066691e+001
9.631234e+002, 5.014430e+001
9.636055e+002, 4.957347e+001
9.640876e+002, 4.918438e+001
9.645697e+002, 4.905935e+001
9.650518e+002, 4.917016e+001
9.655339e+002, 4.949012e+001
9.660161e+002, 5.001901e+001
9.664982e+002, 5.028503e+001
9.669803e+002, 4.998246e+001
9.674624e+002, 4.954348e+001
9.679445e+002, 4.943580e+001
9.684266e+002, 4.953474e+001
9.689088e+002, 4.963654e+001
9.693909e+002, 4.965561e+001
9.698730e+002, 4.972062e+001
9.703551e+002, 4.983809e+001
9.708372e+002, 5.000532e+001
9.713193e+002, 5.032743e+001
9.718015e+002, 5.075213e+001
9.722836e+002, 5.073195e+001
9.727657e+002, 5.021509e+001
9.732478e+002, 4.960961e+001
9.737299e+002, 4.913223e+001
9.742120e+002, 4.877406e+001
9.746942e+002, 4.844157e+001
9.751763e+002, 4.814150e+001
9.756584e+002, 4.838493e+001
9.761405e+002, 4.951073e+001
9.766226e+002, 5.048764e+001
9.771047e+002, 5.097285e+001
9.775869e+002, 5.102820e+001
9.780690e+002, 5.061415e+001
9.785511e+002, 4.987494e+001
9.790332e+002, 4.934824e+001
9.795153e+002, 4.936732e+001
9.799974e+002, 4.947299e+001
9.804796e+002, 4.945206e+001
9.809617e+002, 4.935490e+001
9.814438e+002, 4.925707e+001
9.819259e+002, 4.917107e+001
9.824080e+002, 4.903543e+001
9.828901e+002, 4.882644e+001
9.833723e+002, 4.864628e+001
9.838544e+002, 4.857092e+001
9.843365e+002, 4.860738e+001
9.848186e+002, 4.885736e+001
9.853007e+002, 4.931655e+001
9.857828e+002, 4.958466e+001
9.862650e+002, 4.920371e+001
9.867471e+002, 4.890210e+001
9.872292e+002, 4.911662e+001
9.877113e+002, 4.968575e+001
9.881934e+002, 4.961343e+001
9.886755e+002, 4.885748e+001
9.891577e+002, 4.849186e+001
9.896398e+002, 4.915858e+001
9.901219e+002, 5.002085e+001
9.906040e+002, 5.004106e+001
9.910861e+002, 4.955703e+001
9.915682e+002, 4.913786e+001
9.920504e+002, 4.892318e+001
9.925325e+002, 4.881443e+001
9.930146e+002, 4.878257e+001
9.934967e+002, 4.886892e+001
9.939788e+002, 4.922240e+001
9.944609e+002, 4.978155e+001
9.949431e+002, 4.994476e+001
9.954252e+002, 4.968287e+001
9.959073e+002, 4.938133e+001
9.963894e+002, 4.930268e+001
9.968715e+002, 4.930861e+001
9.973536e+002, 4.934209e+001
9.978358e+002, 4.938204e+001
9.983179e+002, 4.926763e+001
9.988000e+002, 4.887543e+001
9.992821e+002, 4.866597e+001
9.997642e+002, 4.883909e+001
1.000246e+003, 4.917268e+001
1.000728e+003, 4.921404e+001
1.001211e+003, 4.904858e+001
1.001693e+003, 4.887638e+001
1.002175e+003, 4.870242e+001
1.002657e+003, 4.865550e+001
1.003139e+003, 4.893328e+001
1.003621e+003, 4.926696e+001
1.004103e+003, 4.941704e+001
1.004585e+003, 4.936351e+001
1.005068e+003, 4.919816e+001
1.005550e+003, 4.890027e+001
1.006032e+003, 4.867588e+001
1.006514e+003, 4.864245e+001
1.006996e+003, 4.879383e+001
1.007478e+003, 4.932502e+001
1.007960e+003, 5.010792e+001
1.008442e+003, 5.045045e+001
1.008924e+003, 4.964180e+001
1.009407e+003, 4.905534e+001
1.009889e+003, 4.904862e+001
1.010371e+003, 4.933160e+001
1.010853e+003, 4.927728e+001
1.011335e+003, 4.894120e+001
1.011817e+003, 4.870192e+001
1.012299e+003, 4.866502e+001
1.012781e+003, 4.865713e+001
1.013263e+003, 4.862572e+001
1.013746e+003, 4.851159e+001
1.014228e+003, 4.817704e+001
1.014710e+003, 4.749971e+001
1.015192e+003, 4.731450e+001
1.015674e+003, 4.774492e+001
1.016156e+003, 4.827617e+001
1.016638e+003, 4.870531e+001
1.017120e+003, 4.896915e+001
1.017603e+003, 4.877803e+001
1.018085e+003, 4.827259e+001
1.018567e+003, 4.795687e+001
1.019049e+003, 4.826991e+001
1.019531e+003, 4.854108e+001
1.020013e+003, 4.849461e+001
1.020495e+003, 4.834383e+001
1.020977e+003, 4.842644e+001
1.021459e+003, 4.874908e+001
1.021942e+003, 4.898519e+001
1.022424e+003, 4.909471e+001
1.022906e+003, 4.910683e+001
1.023388e+003, 4.904549e+001
1.023870e+003, 4.890569e+001
1.024352e+003, 4.859339e+001
1.024834e+003, 4.807429e+001
1.025316e+003, 4.794881e+001
1.025799e+003, 4.845324e+001
1.026281e+003, 4.891670e+001
1.026763e+003, 4.904443e+001
1.027245e+003, 4.897880e+001
1.027727e+003, 4.914805e+001
1.028209e+003, 4.945975e+001
1.028691e+003, 4.960350e+001
1.029173e+003, 4.943081e+001
1.029656e+003, 4.910838e+001
1.030138e+003, 4.846353e+001
1.030620e+003, 4.787017e+001
1.031102e+003, 4.774681e+001
1.031584e+003, 4.819767e+001
1.032066e+003, 4.855863e+001
1.032548e+003, 4.882235e+001
1.033030e+003, 4.894543e+001
1.033512e+003, 4.874023e+001
1.033995e+003, 4.847249e+001
1.034477e+003, 4.851463e+001
1.034959e+003, 4.882182e+001
1.035441e+003, 4.901662e+001
1.035923e+003, 4.899221e+001
1.036405e+003, 4.887122e+001
1.036887e+003, 4.863757e+001
1.037369e+003, 4.836686e+001
1.037851e+003, 4.816801e+001
1.038334e+003, 4.805559e+001
1.038816e+003, 4.808598e+001
1.039298e+003, 4.829302e+001
1.039780e+003, 4.855047e+001
1.040262e+003, 4.899644e+001
1.040744e+003, 4.929149e+001
1.041226e+003, 4.906638e+001
1.041708e+003, 4.827363e+001
1.042191e+003, 4.792651e+001
1.042673e+003, 4.805920e+001
1.043155e+003, 4.830507e+001
1.043637e+003, 4.858146e+001
1.044119e+003, 4.875745e+001
1.044601e+003, 4.849712e+001
1.045083e+003, 4.800872e+001
1.045565e+003, 4.777822e+001
1.046047e+003, 4.826258e+001
1.046530e+003, 4.854866e+001
1.047012e+003, 4.848251e+001
1.047494e+003, 4.830990e+001
1.047976e+003, 4.829797e+001
1.048458e+003, 4.841994e+001
1.048940e+003, 4.854281e+001
1.049422e+003, 4.865754e+001
1.049904e+003, 4.881440e+001
1.050386e+003, 4.935507e+001
1.050869e+003, 4.966040e+001
1.051351e+003, 4.904542e+001
1.051833e+003, 4.783815e+001
1.052315e+003, 4.740878e+001
1.052797e+003, 4.784907e+001
1.053279e+003, 4.840155e+001
1.053761e+003, 4.891582e+001
1.054243e+003, 4.933446e+001
1.054726e+003, 4.964433e+001
1.055208e+003, 4.979003e+001
1.055690e+003, 4.964167e+001
1.056172e+003, 4.900835e+001
1.056654e+003, 4.864074e+001
1.057136e+003, 4.875210e+001
1.057618e+003, 4.884267e+001
1.058100e+003, 4.855003e+001
1.058583e+003, 4.800744e+001
1.059065e+003, 4.771257e+001
1.059547e+003, 4.764488e+001
1.060029e+003, 4.770974e+001
1.060511e+003, 4.803815e+001
1.060993e+003, 4.828169e+001
1.061475e+003, 4.814338e+001
1.061957e+003, 4.791276e+001
1.062439e+003, 4.804734e+001
1.062922e+003, 4.862208e+001
1.063404e+003, 4.883015e+001
1.063886e+003, 4.857154e+001
1.064368e+003, 4.829948e+001
1.064850e+003, 4.855268e+001
1.065332e+003, 4.889607e+001
1.065814e+003, 4.879197e+001
1.066296e+003, 4.826056e+001
1.066778e+003, 4.807051e+001
1.067261e+003, 4.855322e+001
1.067743e+003, 4.872144e+001
1.068225e+003, 4.815863e+001
1.068707e+003, 4.742866e+001
1.069189e+003, 4.782116e+001
1.069671e+003, 4.883841e+001
1.070153e+003, 4.923037e+001
1.070635e+003, 4.847930e+001
1.071118e+003, 4.789501e+001
1.071600e+003, 4.815738e+001
1.072082e+003, 4.861649e+001
1.072564e+003, 4.895179e+001
1.073046e+003, 4.916176e+001
1.073528e+003, 4.927633e+001
1.074010e+003, 4.928844e+001
1.074492e+003, 4.908601e+001
1.074974e+003, 4.828838e+001
1.075457e+003, 4.762133e+001
1.075939e+003, 4.785860e+001
1.076421e+003, 4.851172e+001
1.076903e+003, 4.871542e+001
1.077385e+003, 4.820732e+001
1.077867e+003, 4.795032e+001
1.078349e+003, 4.802647e+001
1.078831e+003, 4.818299e+001
1.079313e+003, 4.823198e+001
1.079796e+003, 4.818652e+001
1.080278e+003, 4.801108e+001
1.080760e+003, 4.773385e+001
1.081242e+003, 4.755233e+001
1.081724e+003, 4.750210e+001
1.082206e+003, 4.762051e+001
1.082688e+003, 4.801081e+001
1.083170e+003, 4.845574e+001
1.083652e+003, 4.847094e+001
1.084135e+003, 4.818487e+001
1.084617e+003, 4.812839e+001
1.085099e+003, 4.844297e+001
1.085581e+003, 4.866660e+001
1.086063e+003, 4.846087e+001
1.086545e+003, 4.813263e+001
1.087027e+003, 4.780795e+001
1.087509e+003, 4.751525e+001
1.087992e+003, 4.762687e+001
1.088474e+003, 4.815015e+001
1.088956e+003, 4.842305e+001
1.089438e+003, 4.800983e+001
1.089920e+003, 4.752925e+001
1.090402e+003, 4.760741e+001
1.090884e+003, 4.798663e+001
1.091366e+003, 4.833948e+001
1.091849e+003, 4.871770e+001
1.092331e+003, 4.874442e+001
1.092813e+003, 4.829443e+001
1.093295e+003, 4.791719e+001
1.093777e+003, 4.816984e+001
1.094259e+003, 4.869407e+001
1.094741e+003, 4.878724e+001
1.095223e+003, 4.855141e+001
1.095705e+003, 4.837103e+001
1.096188e+003, 4.855976e+001
1.096670e+003, 4.855573e+001
1.097152e+003, 4.814989e+001
1.097634e+003, 4.767867e+001
1.098116e+003, 4.763433e+001
1.098598e+003, 4.791451e+001
1.099080e+003, 4.804449e+001
1.099562e+003, 4.798163e+001
1.100044e+003, 4.784816e+001
1.100527e+003, 4.759178e+001
1.101009e+003, 4.741729e+001
1.101491e+003, 4.752381e+001
1.101973e+003, 4.778364e+001
1.102455e+003, 4.773182e+001
1.102937e+003, 4.736366e+001
1.103419e+003, 4.721416e+001
1.103901e+003, 4.745306e+001
1.104384e+003, 4.779641e+001
1.104866e+003, 4.796597e+001
1.105348e+003, 4.810141e+001
1.105830e+003, 4.840690e+001
1.106312e+003, 4.894960e+001
1.106794e+003, 4.910367e+001
1.107276e+003, 4.876530e+001
1.107758e+003, 4.845024e+001
1.108240e+003, 4.841586e+001
1.108723e+003, 4.850861e+001
1.109205e+003, 4.842488e+001
1.109687e+003, 4.829454e+001
1.110169e+003, 4.837944e+001
1.110651e+003, 4.899622e+001
1.111133e+003, 4.937397e+001
1.111615e+003, 4.941870e+001
1.112097e+003, 4.930563e+001
1.112579e+003, 4.909543e+001
1.113062e+003, 4.884448e+001
1.113544e+003, 4.881170e+001
1.114026e+003, 4.894363e+001
1.114508e+003, 4.897696e+001
1.114990e+003, 4.876371e+001
1.115472e+003, 4.843911e+001
1.115954e+003, 4.779182e+001
1.116436e+003, 4.727560e+001
1.116919e+003, 4.772809e+001
1.117401e+003, 4.903986e+001
1.117883e+003, 4.950651e+001
1.118365e+003, 4.897928e+001
1.118847e+003, 4.832885e+001
1.119329e+003, 4.822800e+001
1.119811e+003, 4.816738e+001
1.120293e+003, 4.756443e+001
1.120776e+003, 4.672810e+001
1.121258e+003, 4.690472e+001
1.121740e+003, 4.825146e+001
1.122222e+003, 4.900379e+001
1.122704e+003, 4.870321e+001
1.123186e+003, 4.811252e+001
1.123668e+003, 4.789094e+001
1.124150e+003, 4.787353e+001
1.124632e+003, 4.789004e+001
1.125115e+003, 4.792033e+001
1.125597e+003, 4.805125e+001
1.126079e+003, 4.831094e+001
1.126561e+003, 4.859660e+001
1.127043e+003, 4.894179e+001
1.127525e+003, 4.917787e+001
1.128007e+003, 4.893061e+001
1.128489e+003, 4.841130e+001
1.128971e+003, 4.796186e+001
1.129454e+003, 4.761551e+001
1.129936e+003, 4.752081e+001
1.130418e+003, 4.782890e+001
1.130900e+003, 4.810053e+001
1.131382e+003, 4.803344e+001
1.131864e+003, 4.774408e+001
1.132346e+003, 4.753024e+001
1.132828e+003, 4.739877e+001
1.133311e+003, 4.737275e+001
1.133793e+003, 4.773206e+001
1.134275e+003, 4.781447e+001
1.134757e+003, 4.719655e+001
1.135239e+003, 4.655151e+001
1.135721e+003, 4.657872e+001
1.136203e+003, 4.718987e+001
1.136685e+003, 4.771161e+001
1.137167e+003, 4.811187e+001
1.137650e+003, 4.827294e+001
1.138132e+003, 4.787682e+001
1.138614e+003, 4.749644e+001
1.139096e+003, 4.748055e+001
1.139578e+003, 4.762752e+001
1.140060e+003, 4.759285e+001
1.140542e+003, 4.737020e+001
1.141024e+003, 4.734820e+001
1.141506e+003, 4.758080e+001
1.141989e+003, 4.777142e+001
1.142471e+003, 4.765011e+001
1.142953e+003, 4.742780e+001
1.143435e+003, 4.718803e+001
1.143917e+003, 4.698317e+001
1.144399e+003, 4.699533e+001
1.144881e+003, 4.724152e+001
1.145363e+003, 4.765517e+001
1.145846e+003, 4.829293e+001
1.146328e+003, 4.875484e+001
1.146810e+003, 4.825444e+001
1.147292e+003, 4.755788e+001
1.147774e+003, 4.761272e+001
1.148256e+003, 4.860685e+001
1.148738e+003, 4.898516e+001
1.149220e+003, 4.854854e+001
1.149703e+003, 4.812517e+001
1.150185e+003, 4.799105e+001
1.150667e+003, 4.803630e+001
1.151149e+003, 4.815373e+001
1.151631e+003, 4.831736e+001
1.152113e+003, 4.853135e+001
1.152595e+003, 4.890906e+001
1.153077e+003, 4.885049e+001
1.153559e+003, 4.810855e+001
1.154042e+003, 4.746241e+001
1.154524e+003, 4.737649e+001
1.155006e+003, 4.761324e+001
1.155488e+003, 4.759721e+001
1.155970e+003, 4.747689e+001
1.156452e+003, 4.763132e+001
1.156934e+003, 4.853307e+001
1.157416e+003, 4.905928e+001
1.157898e+003, 4.899677e+001
1.158381e+003, 4.870409e+001
1.158863e+003, 4.830603e+001
1.159345e+003, 4.790642e+001
1.159827e+003, 4.802168e+001
1.160309e+003, 4.854064e+001
1.160791e+003, 4.901387e+001
1.161273e+003, 4.933828e+001
1.161755e+003, 4.944598e+001
1.162238e+003, 4.932766e+001
1.162720e+003, 4.899669e+001
1.163202e+003, 4.822593e+001
1.163684e+003, 4.718377e+001
1.164166e+003, 4.718126e+001
1.164648e+003, 4.814443e+001
1.165130e+003, 4.884157e+001
1.165612e+003, 4.829955e+001
1.166094e+003, 4.764506e+001
1.166577e+003, 4.728356e+001
1.167059e+003, 4.715031e+001
1.167541e+003, 4.718990e+001
1.168023e+003, 4.739315e+001
1.168505e+003, 4.769669e+001
1.168987e+003, 4.809747e+001
1.169469e+003, 4.831264e+001
1.169951e+003, 4.788350e+001
1.170433e+003, 4.746849e+001
1.170916e+003, 4.760735e+001
1.171398e+003, 4.802504e+001
1.171880e+003, 4.793929e+001
1.172362e+003, 4.736018e+001
1.172844e+003, 4.717524e+001
1.173326e+003, 4.759629e+001
1.173808e+003, 4.806838e+001
1.174290e+003, 4.811026e+001
1.174773e+003, 4.803227e+001
1.175255e+003, 4.803270e+001
1.175737e+003, 4.812510e+001
1.176219e+003, 4.845410e+001
1.176701e+003, 4.905038e+001
1.177183e+003, 4.921740e+001
1.177665e+003, 4.864641e+001
1.178147e+003, 4.803069e+001
1.178630e+003, 4.807908e+001
1.179112e+003, 4.837654e+001
1.179594e+003, 4.858730e+001
1.180076e+003, 4.868715e+001
1.180558e+003, 4.838165e+001
1.181040e+003, 4.758907e+001
1.181522e+003, 4.721053e+001
1.182004e+003, 4.775628e+001
1.182486e+003, 4.849473e+001
1.182969e+003, 4.873447e+001
1.183451e+003, 4.865539e+001
1.183933e+003, 4.839793e+001
1.184415e+003, 4.790523e+001
1.184897e+003, 4.782542e+001
1.185379e+003, 4.824515e+001
1.185861e+003, 4.849722e+001
1.186343e+003, 4.802877e+001
1.186825e+003, 4.750494e+001
1.187308e+003, 4.786105e+001
1.187790e+003, 4.864264e+001
1.188272e+003, 4.915125e+001
1.188754e+003, 4.931349e+001
1.189236e+003, 4.903117e+001
1.189718e+003, 4.818963e+001
1.190200e+003, 4.751090e+001
1.190682e+003, 4.763810e+001
1.191165e+003, 4.804675e+001
1.191647e+003, 4.805957e+001
1.192129e+003, 4.783937e+001
1.192611e+003, 4.771912e+001
1.193093e+003, 4.784908e+001
1.193575e+003, 4.784459e+001
1.194057e+003, 4.764940e+001
1.194539e+003, 4.753048e+001
1.195021e+003, 4.783074e+001
1.195504e+003, 4.823806e+001
1.195986e+003, 4.828955e+001
1.196468e+003, 4.808775e+001
1.196950e+003, 4.794314e+001
1.197432e+003, 4.785418e+001
1.197914e+003, 4.798646e+001
1.198396e+003, 4.842811e+001
1.198878e+003, 4.880650e+001
1.199360e+003, 4.860828e+001
1.199843e+003, 4.822479e+001
1.200325e+003, 4.838525e+001
1.200807e+003, 4.890491e+001
1.201289e+003, 4.887610e+001
1.201771e+003, 4.758073e+001
1.202253e+003, 4.709698e+001
1.202735e+003, 4.782602e+001
1.203217e+003, 4.885513e+001
1.203700e+003, 4.930432e+001
1.204182e+003, 4.933252e+001
1.204664e+003, 4.895492e+001
1.205146e+003, 4.829540e+001
1.205628e+003, 4.813895e+001
1.206110e+003, 4.905650e+001
1.206592e+003, 4.937315e+001
1.207074e+003, 4.867479e+001
1.207557e+003, 4.774097e+001
1.208039e+003, 4.745186e+001
1.208521e+003, 4.760514e+001
1.209003e+003, 4.807425e+001
1.209485e+003, 4.879988e+001
1.209967e+003, 4.909998e+001
1.210449e+003, 4.869485e+001
1.210931e+003, 4.838621e+001
1.211413e+003, 4.835804e+001
1.211896e+003, 4.843547e+001
1.212378e+003, 4.838385e+001
1.212860e+003, 4.828278e+001
1.213342e+003, 4.822468e+001
1.213824e+003, 4.822178e+001
1.214306e+003, 4.838571e+001
1.214788e+003, 4.890001e+001
1.215270e+003, 4.906676e+001
1.215752e+003, 4.859677e+001
1.216235e+003, 4.797400e+001
1.216717e+003, 4.793160e+001
1.217199e+003, 4.816335e+001
1.217681e+003, 4.819033e+001
1.218163e+003, 4.792412e+001
1.218645e+003, 4.787198e+001
1.219127e+003, 4.814129e+001
1.219609e+003, 4.839196e+001
1.220092e+003, 4.851113e+001
1.220574e+003, 4.857823e+001
1.221056e+003, 4.871512e+001
1.221538e+003, 4.887579e+001
1.222020e+003, 4.897046e+001
1.222502e+003, 4.896242e+001
1.222984e+003, 4.913826e+001
1.223466e+003, 4.963950e+001
1.223948e+003, 4.983320e+001
1.224431e+003, 4.933886e+001
1.224913e+003, 4.873103e+001
1.225395e+003, 4.901025e+001
1.225877e+003, 4.963182e+001
1.226359e+003, 4.980860e+001
1.226841e+003, 4.928524e+001
1.227323e+003, 4.895968e+001
1.227805e+003, 4.889518e+001
1.228287e+003, 4.879908e+001
1.228770e+003, 4.855101e+001
1.229252e+003, 4.820716e+001
1.229734e+003, 4.764935e+001
1.230216e+003, 4.714459e+001
1.230698e+003, 4.714378e+001
1.231180e+003, 4.787397e+001
1.231662e+003, 4.817363e+001
1.232144e+003, 4.795296e+001
1.232627e+003, 4.783835e+001
1.233109e+003, 4.817884e+001
1.233591e+003, 4.865623e+001
1.234073e+003, 4.895632e+001
1.234555e+003, 4.912706e+001
1.235037e+003, 4.922213e+001
1.235519e+003, 4.923932e+001
1.236001e+003, 4.928000e+001
1.236484e+003, 4.935913e+001
1.236966e+003, 4.933266e+001
1.237448e+003, 4.912363e+001
1.237930e+003, 4.878578e+001
1.238412e+003, 4.812444e+001
1.238894e+003, 4.749154e+001
1.239376e+003, 4.744354e+001
1.239858e+003, 4.807273e+001
1.240340e+003, 4.858797e+001
1.240823e+003, 4.898144e+001
1.241305e+003, 4.923632e+001
1.241787e+003, 4.929736e+001
1.242269e+003, 4.927110e+001
1.242751e+003, 4.929865e+001
1.243233e+003, 4.925198e+001
1.243715e+003, 4.892816e+001
1.244197e+003, 4.827699e+001
1.244679e+003, 4.789007e+001
1.245162e+003, 4.776328e+001
1.245644e+003, 4.782855e+001
1.246126e+003, 4.819368e+001
1.246608e+003, 4.854685e+001
1.247090e+003, 4.875965e+001
1.247572e+003, 4.878308e+001
1.248054e+003, 4.851518e+001
1.248536e+003, 4.793007e+001
1.249019e+003, 4.781593e+001
1.249501e+003, 4.813163e+001
1.249983e+003, 4.842459e+001
1.250465e+003, 4.839644e+001
1.250947e+003, 4.834236e+001
1.251429e+003, 4.837073e+001
1.251911e+003, 4.848095e+001
1.252393e+003, 4.868911e+001
1.252875e+003, 4.898762e+001
1.253358e+003, 4.937053e+001
1.253840e+003, 4.977970e+001
1.254322e+003, 4.985068e+001
1.254804e+003, 4.900207e+001
1.255286e+003, 4.828456e+001
1.255768e+003, 4.800918e+001
1.256250e+003, 4.805575e+001
1.256732e+003, 4.850087e+001
1.257214e+003, 4.922825e+001
1.257697e+003, 4.950854e+001
1.258179e+003, 4.939839e+001
1.258661e+003, 4.916941e+001
1.259143e+003, 4.864344e+001
1.259625e+003, 4.847779e+001
1.260107e+003, 4.895929e+001
1.260589e+003, 4.953041e+001
1.261071e+003, 4.979751e+001
1.261554e+003, 4.976125e+001
1.262036e+003, 4.922505e+001
1.262518e+003, 4.837036e+001
1.263000e+003, 4.779227e+001
1.263482e+003, 4.788059e+001
1.263964e+003, 4.801469e+001
1.264446e+003, 4.810891e+001
1.264928e+003, 4.829301e+001
1.265411e+003, 4.881917e+001
1.265893e+003, 4.942936e+001
1.266375e+003, 4.958199e+001
1.266857e+003, 4.940510e+001
1.267339e+003, 4.925319e+001
1.267821e+003, 4.916925e+001
1.268303e+003, 4.925438e+001
1.268785e+003, 4.958582e+001
1.269267e+003, 4.980525e+001
1.269750e+003, 4.951690e+001
1.270232e+003, 4.903922e+001
1.270714e+003, 4.875328e+001
1.271196e+003, 4.860686e+001
1.271678e+003, 4.845313e+001
1.272160e+003, 4.813935e+001
1.272642e+003, 4.833758e+001
1.273124e+003, 4.914150e+001
1.273606e+003, 4.977293e+001
1.274089e+003, 4.946839e+001
1.274571e+003, 4.893501e+001
1.275053e+003, 4.870985e+001
1.275535e+003, 4.874304e+001
1.276017e+003, 4.896088e+001
1.276499e+003, 4.943158e+001
1.276981e+003, 4.951503e+001
1.277463e+003, 4.920491e+001
1.277946e+003, 4.889779e+001
1.278428e+003, 4.881733e+001
1.278910e+003, 4.886398e+001
1.279392e+003, 4.911237e+001
1.279874e+003, 4.936583e+001
1.280356e+003, 4.938838e+001
1.280838e+003, 4.918539e+001
1.281320e+003, 4.891689e+001
1.281802e+003, 4.860987e+001
1.282285e+003, 4.844898e+001
1.282767e+003, 4.857059e+001
1.283249e+003, 4.882292e+001
1.283731e+003, 4.943795e+001
1.284213e+003, 4.984661e+001
1.284695e+003, 4.923410e+001
1.285177e+003, 4.795760e+001
1.285659e+003, 4.792244e+001
1.286141e+003, 4.885141e+001
1.286624e+003, 4.955565e+001
1.287106e+003, 4.924794e+001
1.287588e+003, 4.909516e+001
1.288070e+003, 4.931068e+001
1.288552e+003, 4.958453e+001
1.289034e+003, 4.962487e+001
1.289516e+003, 4.955421e+001
1.289998e+003, 4.975100e+001
1.290481e+003, 5.006025e+001
1.290963e+003, 5.007454e+001
1.291445e+003, 4.917196e+001
1.291927e+003, 4.899327e+001
1.292409e+003, 4.975634e+001
1.292891e+003, 5.040826e+001
1.293373e+003, 4.987223e+001
1.293855e+003, 4.905887e+001
1.294338e+003, 4.919041e+001
1.294820e+003, 4.987587e+001
1.295302e+003, 5.039846e+001
1.295784e+003, 5.073561e+001
1.296266e+003, 5.072155e+001
1.296748e+003, 5.033110e+001
1.297230e+003, 5.004487e+001
1.297712e+003, 5.039722e+001
1.298194e+003, 5.068390e+001
1.298677e+003, 5.005861e+001
1.299159e+003, 4.924273e+001
1.299641e+003, 4.919043e+001
1.300123e+003, 4.993035e+001
1.300605e+003, 5.010101e+001
1.301087e+003, 4.976693e+001
1.301569e+003, 4.951267e+001
1.302051e+003, 4.970201e+001
1.302533e+003, 4.990838e+001
1.303016e+003, 4.999652e+001
##END=



