##NAMES=Getchellite
##RRUFFID=R050156
##IDEAL CHEMISTRY=SbAsS_3_
##LOCALITY=Khaidarkan, Kyrgyzstan
##OWNER=RRUFF
##SOURCE=Jim McGlasson
##DESCRIPTION=Red platy crystals
##STATUS=The identification of this mineral has been confirmed by single-crystal X-ray diffraction.
##URL=rruff.info/R050156
9.015717e+001, 0.000000e+000
9.063928e+001, 0.000000e+000
9.112140e+001, 0.000000e+000
9.160352e+001, 3.190410e+003
9.208563e+001, 3.144986e+003
9.256775e+001, 3.140345e+003
9.304987e+001, 3.202119e+003
9.353198e+001, 3.269404e+003
9.401410e+001, 3.286065e+003
9.449622e+001, 3.258090e+003
9.497833e+001, 3.207425e+003
9.546045e+001, 3.151316e+003
9.594257e+001, 3.090089e+003
9.642468e+001, 3.019606e+003
9.690680e+001, 2.935268e+003
9.738892e+001, 2.851948e+003
9.787103e+001, 2.772433e+003
9.835315e+001, 2.694771e+003
9.883527e+001, 2.617971e+003
9.931738e+001, 2.547842e+003
9.979950e+001, 2.483652e+003
1.002816e+002, 2.433542e+003
1.007637e+002, 2.398384e+003
1.012458e+002, 2.373534e+003
1.017280e+002, 2.355547e+003
1.022101e+002, 2.343164e+003
1.026922e+002, 2.336498e+003
1.031743e+002, 2.337307e+003
1.036564e+002, 2.344614e+003
1.041385e+002, 2.354919e+003
1.046207e+002, 2.366851e+003
1.051028e+002, 2.380576e+003
1.055849e+002, 2.396677e+003
1.060670e+002, 2.413062e+003
1.065491e+002, 2.433805e+003
1.070313e+002, 2.461403e+003
1.075134e+002, 2.495846e+003
1.079955e+002, 2.537590e+003
1.084776e+002, 2.587723e+003
1.089597e+002, 2.647103e+003
1.094418e+002, 2.711114e+003
1.099240e+002, 2.779739e+003
1.104061e+002, 2.851285e+003
1.108882e+002, 2.924986e+003
1.113703e+002, 3.000775e+003
1.118524e+002, 3.077435e+003
1.123345e+002, 3.151554e+003
1.128167e+002, 3.220462e+003
1.132988e+002, 3.290296e+003
1.137809e+002, 3.362300e+003
1.142630e+002, 3.435499e+003
1.147451e+002, 3.508777e+003
1.152272e+002, 3.580569e+003
1.157094e+002, 3.651785e+003
1.161915e+002, 3.728697e+003
1.166736e+002, 3.813065e+003
1.171557e+002, 3.900777e+003
1.176378e+002, 3.988467e+003
1.181199e+002, 4.077702e+003
1.186021e+002, 4.173314e+003
1.190842e+002, 4.278729e+003
1.195663e+002, 4.395453e+003
1.200484e+002, 4.520193e+003
1.205305e+002, 4.654575e+003
1.210126e+002, 4.796117e+003
1.214948e+002, 4.944023e+003
1.219769e+002, 5.098783e+003
1.224590e+002, 5.255239e+003
1.229411e+002, 5.413165e+003
1.234232e+002, 5.570249e+003
1.239053e+002, 5.711711e+003
1.243875e+002, 5.838040e+003
1.248696e+002, 5.945172e+003
1.253517e+002, 6.021338e+003
1.258338e+002, 6.065281e+003
1.263159e+002, 6.072345e+003
1.267980e+002, 6.046694e+003
1.272802e+002, 5.989496e+003
1.277623e+002, 5.906711e+003
1.282444e+002, 5.799807e+003
1.287265e+002, 5.668322e+003
1.292086e+002, 5.522650e+003
1.296907e+002, 5.356471e+003
1.301729e+002, 5.179992e+003
1.306550e+002, 4.994089e+003
1.311371e+002, 4.800430e+003
1.316192e+002, 4.604104e+003
1.321013e+002, 4.411886e+003
1.325834e+002, 4.219408e+003
1.330656e+002, 4.037632e+003
1.335477e+002, 3.861580e+003
1.340298e+002, 3.696838e+003
1.345119e+002, 3.548206e+003
1.349940e+002, 3.417396e+003
1.354761e+002, 3.301251e+003
1.359583e+002, 3.194354e+003
1.364404e+002, 3.096403e+003
1.369225e+002, 3.009811e+003
1.374046e+002, 2.936318e+003
1.378867e+002, 2.873739e+003
1.383688e+002, 2.820296e+003
1.388510e+002, 2.775022e+003
1.393331e+002, 2.737955e+003
1.398152e+002, 2.709365e+003
1.402973e+002, 2.685612e+003
1.407794e+002, 2.672132e+003
1.412615e+002, 2.672123e+003
1.417437e+002, 2.684707e+003
1.422258e+002, 2.705923e+003
1.427079e+002, 2.733376e+003
1.431900e+002, 2.769825e+003
1.436721e+002, 2.817344e+003
1.441542e+002, 2.877491e+003
1.446364e+002, 2.947183e+003
1.451185e+002, 3.026774e+003
1.456006e+002, 3.118224e+003
1.460827e+002, 3.207427e+003
1.465648e+002, 3.290788e+003
1.470469e+002, 3.367266e+003
1.475291e+002, 3.434397e+003
1.480112e+002, 3.490666e+003
1.484933e+002, 3.537804e+003
1.489754e+002, 3.578992e+003
1.494575e+002, 3.612309e+003
1.499396e+002, 3.642726e+003
1.504218e+002, 3.674921e+003
1.509039e+002, 3.705450e+003
1.513860e+002, 3.730100e+003
1.518681e+002, 3.747013e+003
1.523502e+002, 3.755969e+003
1.528323e+002, 3.754493e+003
1.533145e+002, 3.736276e+003
1.537966e+002, 3.712201e+003
1.542787e+002, 3.682529e+003
1.547608e+002, 3.648390e+003
1.552429e+002, 3.610333e+003
1.557250e+002, 3.567606e+003
1.562072e+002, 3.519324e+003
1.566893e+002, 3.481780e+003
1.571714e+002, 3.451997e+003
1.576535e+002, 3.432741e+003
1.581356e+002, 3.426203e+003
1.586177e+002, 3.431759e+003
1.590999e+002, 3.446613e+003
1.595820e+002, 3.468506e+003
1.600641e+002, 3.498597e+003
1.605462e+002, 3.534506e+003
1.610283e+002, 3.579985e+003
1.615104e+002, 3.628177e+003
1.619926e+002, 3.676388e+003
1.624747e+002, 3.723980e+003
1.629568e+002, 3.766590e+003
1.634389e+002, 3.800558e+003
1.639210e+002, 3.825891e+003
1.644031e+002, 3.835969e+003
1.648853e+002, 3.829088e+003
1.653674e+002, 3.806299e+003
1.658495e+002, 3.768408e+003
1.663316e+002, 3.714321e+003
1.668137e+002, 3.647193e+003
1.672958e+002, 3.567482e+003
1.677780e+002, 3.477362e+003
1.682601e+002, 3.382372e+003
1.687422e+002, 3.282485e+003
1.692243e+002, 3.179100e+003
1.697064e+002, 3.079593e+003
1.701885e+002, 2.985184e+003
1.706707e+002, 2.894980e+003
1.711528e+002, 2.806774e+003
1.716349e+002, 2.721081e+003
1.721170e+002, 2.639301e+003
1.725991e+002, 2.563275e+003
1.730812e+002, 2.493205e+003
1.735634e+002, 2.424560e+003
1.740455e+002, 2.355188e+003
1.745276e+002, 2.288606e+003
1.750097e+002, 2.227585e+003
1.754918e+002, 2.171504e+003
1.759739e+002, 2.117527e+003
1.764561e+002, 2.062899e+003
1.769382e+002, 2.006396e+003
1.774203e+002, 1.952112e+003
1.779024e+002, 1.899729e+003
1.783845e+002, 1.849555e+003
1.788666e+002, 1.801419e+003
1.793488e+002, 1.755785e+003
1.798309e+002, 1.713444e+003
1.803130e+002, 1.676383e+003
1.807951e+002, 1.646971e+003
1.812772e+002, 1.618270e+003
1.817593e+002, 1.588136e+003
1.822415e+002, 1.559984e+003
1.827236e+002, 1.536516e+003
1.832057e+002, 1.518335e+003
1.836878e+002, 1.504290e+003
1.841699e+002, 1.492999e+003
1.846520e+002, 1.487120e+003
1.851342e+002, 1.478713e+003
1.856163e+002, 1.467870e+003
1.860984e+002, 1.454393e+003
1.865805e+002, 1.437935e+003
1.870626e+002, 1.418364e+003
1.875447e+002, 1.396154e+003
1.880269e+002, 1.371590e+003
1.885090e+002, 1.344512e+003
1.889911e+002, 1.316375e+003
1.894732e+002, 1.286226e+003
1.899553e+002, 1.255415e+003
1.904374e+002, 1.226816e+003
1.909196e+002, 1.201289e+003
1.914017e+002, 1.177516e+003
1.918838e+002, 1.152694e+003
1.923659e+002, 1.126554e+003
1.928480e+002, 1.102562e+003
1.933301e+002, 1.082481e+003
1.938123e+002, 1.065903e+003
1.942944e+002, 1.051224e+003
1.947765e+002, 1.038252e+003
1.952586e+002, 1.027115e+003
1.957407e+002, 1.017551e+003
1.962228e+002, 1.009594e+003
1.967050e+002, 1.002706e+003
1.971871e+002, 9.969211e+002
1.976692e+002, 9.921810e+002
1.981513e+002, 9.871232e+002
1.986334e+002, 9.812084e+002
1.991155e+002, 9.751271e+002
1.995977e+002, 9.694230e+002
2.000798e+002, 9.641002e+002
2.005619e+002, 9.587474e+002
2.010440e+002, 9.529394e+002
2.015261e+002, 9.465941e+002
2.020082e+002, 9.401335e+002
2.024904e+002, 9.328568e+002
2.029725e+002, 9.260069e+002
2.034546e+002, 9.202883e+002
2.039367e+002, 9.157483e+002
2.044188e+002, 9.118674e+002
2.049009e+002, 9.079359e+002
2.053831e+002, 9.036190e+002
2.058652e+002, 9.003603e+002
2.063473e+002, 8.990714e+002
2.068294e+002, 8.980992e+002
2.073115e+002, 8.962956e+002
2.077936e+002, 8.935910e+002
2.082758e+002, 8.909069e+002
2.087579e+002, 8.896377e+002
2.092400e+002, 8.906666e+002
2.097221e+002, 8.912307e+002
2.102042e+002, 8.907131e+002
2.106863e+002, 8.902337e+002
2.111685e+002, 8.904512e+002
2.116506e+002, 8.915354e+002
2.121327e+002, 8.933890e+002
2.126148e+002, 8.960719e+002
2.130969e+002, 9.010270e+002
2.135790e+002, 9.034299e+002
2.140612e+002, 9.007435e+002
2.145433e+002, 8.972610e+002
2.150254e+002, 8.964581e+002
2.155075e+002, 8.991171e+002
2.159896e+002, 9.035443e+002
2.164718e+002, 9.074386e+002
2.169539e+002, 9.107190e+002
2.174360e+002, 9.135235e+002
2.179181e+002, 9.152394e+002
2.184002e+002, 9.167898e+002
2.188823e+002, 9.189433e+002
2.193645e+002, 9.218777e+002
2.198466e+002, 9.256965e+002
2.203287e+002, 9.309203e+002
2.208108e+002, 9.380038e+002
2.212929e+002, 9.440064e+002
2.217750e+002, 9.477193e+002
2.222572e+002, 9.504589e+002
2.227393e+002, 9.538307e+002
2.232214e+002, 9.581849e+002
2.237035e+002, 9.630336e+002
2.241856e+002, 9.679069e+002
2.246677e+002, 9.727935e+002
2.251499e+002, 9.775290e+002
2.256320e+002, 9.817238e+002
2.261141e+002, 9.858250e+002
2.265962e+002, 9.906761e+002
2.270783e+002, 9.965971e+002
2.275604e+002, 1.002753e+003
2.280426e+002, 1.007962e+003
2.285247e+002, 1.012506e+003
2.290068e+002, 1.018025e+003
2.294889e+002, 1.026086e+003
2.299710e+002, 1.035433e+003
2.304531e+002, 1.043080e+003
2.309353e+002, 1.048000e+003
2.314174e+002, 1.052687e+003
2.318995e+002, 1.059230e+003
2.323816e+002, 1.067068e+003
2.328637e+002, 1.074716e+003
2.333458e+002, 1.081094e+003
2.338280e+002, 1.086693e+003
2.343101e+002, 1.093242e+003
2.347922e+002, 1.100909e+003
2.352743e+002, 1.109307e+003
2.357564e+002, 1.118025e+003
2.362385e+002, 1.127161e+003
2.367207e+002, 1.137034e+003
2.372028e+002, 1.147850e+003
2.376849e+002, 1.159496e+003
2.381670e+002, 1.171853e+003
2.386491e+002, 1.185828e+003
2.391312e+002, 1.199100e+003
2.396134e+002, 1.209506e+003
2.400955e+002, 1.218838e+003
2.405776e+002, 1.230253e+003
2.410597e+002, 1.245662e+003
2.415418e+002, 1.264581e+003
2.420239e+002, 1.284238e+003
2.425061e+002, 1.303776e+003
2.429882e+002, 1.325649e+003
2.434703e+002, 1.350857e+003
2.439524e+002, 1.378565e+003
2.444345e+002, 1.407420e+003
2.449166e+002, 1.436353e+003
2.453988e+002, 1.466152e+003
2.458809e+002, 1.499902e+003
2.463630e+002, 1.537997e+003
2.468451e+002, 1.580297e+003
2.473272e+002, 1.626897e+003
2.478093e+002, 1.677314e+003
2.482915e+002, 1.730565e+003
2.487736e+002, 1.786127e+003
2.492557e+002, 1.844438e+003
2.497378e+002, 1.906432e+003
2.502199e+002, 1.969909e+003
2.507020e+002, 2.041242e+003
2.511842e+002, 2.123177e+003
2.516663e+002, 2.212132e+003
2.521484e+002, 2.302876e+003
2.526305e+002, 2.393352e+003
2.531126e+002, 2.484816e+003
2.535947e+002, 2.583679e+003
2.540769e+002, 2.690213e+003
2.545590e+002, 2.804252e+003
2.550411e+002, 2.927893e+003
2.555232e+002, 3.058143e+003
2.560053e+002, 3.192628e+003
2.564874e+002, 3.329900e+003
2.569695e+002, 3.471055e+003
2.574517e+002, 3.618460e+003
2.579338e+002, 3.780584e+003
2.584159e+002, 3.940017e+003
2.588980e+002, 4.096861e+003
2.593801e+002, 4.251173e+003
2.598622e+002, 4.405248e+003
2.603444e+002, 4.559656e+003
2.608265e+002, 4.711710e+003
2.613086e+002, 4.856069e+003
2.617907e+002, 4.992227e+003
2.622728e+002, 5.121306e+003
2.627549e+002, 5.244503e+003
2.632371e+002, 5.360648e+003
2.637192e+002, 5.468981e+003
2.642013e+002, 5.569496e+003
2.646834e+002, 5.659859e+003
2.651655e+002, 5.736303e+003
2.656476e+002, 5.794739e+003
2.661298e+002, 5.845370e+003
2.666119e+002, 5.889808e+003
2.670940e+002, 5.926037e+003
2.675761e+002, 5.950046e+003
2.680582e+002, 5.961548e+003
2.685403e+002, 5.966792e+003
2.690225e+002, 5.972408e+003
2.695046e+002, 5.978415e+003
2.699867e+002, 5.985298e+003
2.704688e+002, 5.988245e+003
2.709509e+002, 5.995107e+003
2.714330e+002, 6.010731e+003
2.719152e+002, 6.036018e+003
2.723973e+002, 6.073104e+003
2.728794e+002, 6.123336e+003
2.733615e+002, 6.188831e+003
2.738436e+002, 6.270011e+003
2.743257e+002, 6.366275e+003
2.748079e+002, 6.479069e+003
2.752900e+002, 6.610552e+003
2.757721e+002, 6.760745e+003
2.762542e+002, 6.922900e+003
2.767363e+002, 7.095319e+003
2.772184e+002, 7.276805e+003
2.777006e+002, 7.460037e+003
2.781827e+002, 7.645712e+003
2.786648e+002, 7.831203e+003
2.791469e+002, 8.017831e+003
2.796290e+002, 8.203772e+003
2.801111e+002, 8.379537e+003
2.805933e+002, 8.542335e+003
2.810754e+002, 8.687250e+003
2.815575e+002, 8.810229e+003
2.820396e+002, 8.909772e+003
2.825217e+002, 8.989738e+003
2.830038e+002, 9.051027e+003
2.834860e+002, 9.094248e+003
2.839681e+002, 9.121894e+003
2.844502e+002, 9.130409e+003
2.849323e+002, 9.127076e+003
2.854144e+002, 9.126465e+003
2.858965e+002, 9.124676e+003
2.863787e+002, 9.134125e+003
2.868608e+002, 9.156939e+003
2.873429e+002, 9.195390e+003
2.878250e+002, 9.258215e+003
2.883071e+002, 9.348760e+003
2.887892e+002, 9.466322e+003
2.892714e+002, 9.608190e+003
2.897535e+002, 9.773743e+003
2.902356e+002, 9.954862e+003
2.907177e+002, 1.015342e+004
2.911998e+002, 1.036493e+004
2.916819e+002, 1.058364e+004
2.921641e+002, 1.081578e+004
2.926462e+002, 1.104017e+004
2.931283e+002, 1.124249e+004
2.936104e+002, 1.142361e+004
2.940925e+002, 1.156635e+004
2.945746e+002, 1.167188e+004
2.950568e+002, 1.173243e+004
2.955389e+002, 1.173139e+004
2.960210e+002, 1.166460e+004
2.965031e+002, 1.154227e+004
2.969852e+002, 1.136068e+004
2.974673e+002, 1.113033e+004
2.979495e+002, 1.086340e+004
2.984316e+002, 1.055296e+004
2.989137e+002, 1.021341e+004
2.993958e+002, 9.862309e+003
2.998779e+002, 9.497566e+003
3.003600e+002, 9.132767e+003
3.008422e+002, 8.774142e+003
3.013243e+002, 8.422639e+003
3.018064e+002, 8.086576e+003
3.022885e+002, 7.764126e+003
3.027706e+002, 7.456959e+003
3.032527e+002, 7.165994e+003
3.037349e+002, 6.890134e+003
3.042170e+002, 6.629517e+003
3.046991e+002, 6.384119e+003
3.051812e+002, 6.155767e+003
3.056633e+002, 5.946915e+003
3.061454e+002, 5.759818e+003
3.066276e+002, 5.589507e+003
3.071097e+002, 5.434155e+003
3.075918e+002, 5.293654e+003
3.080739e+002, 5.160494e+003
3.085560e+002, 5.032673e+003
3.090381e+002, 4.913667e+003
3.095203e+002, 4.806920e+003
3.100024e+002, 4.712637e+003
3.104845e+002, 4.624530e+003
3.109666e+002, 4.539657e+003
3.114487e+002, 4.457797e+003
3.119308e+002, 4.378514e+003
3.124130e+002, 4.301867e+003
3.128951e+002, 4.228488e+003
3.133772e+002, 4.159314e+003
3.138593e+002, 4.093860e+003
3.143414e+002, 4.031653e+003
3.148235e+002, 3.973416e+003
3.153057e+002, 3.918095e+003
3.157878e+002, 3.861987e+003
3.162699e+002, 3.804482e+003
3.167520e+002, 3.747575e+003
3.172341e+002, 3.692895e+003
3.177162e+002, 3.640155e+003
3.181984e+002, 3.588607e+003
3.186805e+002, 3.539010e+003
3.191626e+002, 3.490233e+003
3.196447e+002, 3.440254e+003
3.201268e+002, 3.388763e+003
3.206089e+002, 3.337823e+003
3.210911e+002, 3.288760e+003
3.215732e+002, 3.240664e+003
3.220553e+002, 3.192845e+003
3.225374e+002, 3.145786e+003
3.230195e+002, 3.097540e+003
3.235016e+002, 3.045960e+003
3.239838e+002, 2.990726e+003
3.244659e+002, 2.935079e+003
3.249480e+002, 2.879967e+003
3.254301e+002, 2.825435e+003
3.259122e+002, 2.771660e+003
3.263943e+002, 2.717916e+003
3.268765e+002, 2.666328e+003
3.273586e+002, 2.618163e+003
3.278407e+002, 2.573177e+003
3.283228e+002, 2.530964e+003
3.288049e+002, 2.490832e+003
3.292870e+002, 2.454673e+003
3.297692e+002, 2.424421e+003
3.302513e+002, 2.399754e+003
3.307334e+002, 2.377761e+003
3.312155e+002, 2.356591e+003
3.316976e+002, 2.337228e+003
3.321797e+002, 2.322013e+003
3.326619e+002, 2.311367e+003
3.331440e+002, 2.304413e+003
3.336261e+002, 2.300372e+003
3.341082e+002, 2.299307e+003
3.345903e+002, 2.302594e+003
3.350724e+002, 2.311877e+003
3.355546e+002, 2.325110e+003
3.360367e+002, 2.339089e+003
3.365188e+002, 2.353426e+003
3.370009e+002, 2.372090e+003
3.374831e+002, 2.400263e+003
3.379652e+002, 2.433620e+003
3.384473e+002, 2.463884e+003
3.389294e+002, 2.489896e+003
3.394115e+002, 2.513120e+003
3.398936e+002, 2.536834e+003
3.403758e+002, 2.560030e+003
3.408579e+002, 2.574511e+003
3.413400e+002, 2.577703e+003
3.418221e+002, 2.569332e+003
3.423042e+002, 2.551511e+003
3.427863e+002, 2.524620e+003
3.432685e+002, 2.488074e+003
3.437506e+002, 2.438973e+003
3.442327e+002, 2.380082e+003
3.447148e+002, 2.317196e+003
3.451969e+002, 2.250603e+003
3.456790e+002, 2.182763e+003
3.461612e+002, 2.115835e+003
3.466433e+002, 2.049750e+003
3.471254e+002, 1.985022e+003
3.476075e+002, 1.920680e+003
3.480896e+002, 1.858393e+003
3.485717e+002, 1.801856e+003
3.490539e+002, 1.751252e+003
3.495360e+002, 1.702985e+003
3.500181e+002, 1.653897e+003
3.505002e+002, 1.604879e+003
3.509823e+002, 1.559306e+003
3.514644e+002, 1.520412e+003
3.519466e+002, 1.482657e+003
3.524287e+002, 1.442268e+003
3.529108e+002, 1.399753e+003
3.533929e+002, 1.356557e+003
3.538750e+002, 1.313316e+003
3.543571e+002, 1.270182e+003
3.548393e+002, 1.227359e+003
3.553214e+002, 1.184612e+003
3.558035e+002, 1.142705e+003
3.562856e+002, 1.101109e+003
3.567677e+002, 1.060826e+003
3.572498e+002, 1.023909e+003
3.577320e+002, 9.910408e+002
3.582141e+002, 9.608440e+002
3.586962e+002, 9.309023e+002
3.591783e+002, 9.007454e+002
3.596604e+002, 8.737495e+002
3.601425e+002, 8.511849e+002
3.606247e+002, 8.312631e+002
3.611068e+002, 8.130951e+002
3.615889e+002, 7.962512e+002
3.620710e+002, 7.796705e+002
3.625531e+002, 7.622521e+002
3.630352e+002, 7.440291e+002
3.635174e+002, 7.275701e+002
3.639995e+002, 7.143698e+002
3.644816e+002, 7.011926e+002
3.649637e+002, 6.861259e+002
3.654458e+002, 6.698580e+002
3.659279e+002, 6.541148e+002
3.664101e+002, 6.397230e+002
3.668922e+002, 6.266483e+002
3.673743e+002, 6.151301e+002
3.678564e+002, 6.064142e+002
3.683385e+002, 5.973489e+002
3.688206e+002, 5.873104e+002
3.693028e+002, 5.767992e+002
3.697849e+002, 5.663537e+002
3.702670e+002, 5.561783e+002
3.707491e+002, 5.462536e+002
3.712312e+002, 5.366276e+002
3.717133e+002, 5.276474e+002
3.721955e+002, 5.180195e+002
3.726776e+002, 5.074970e+002
3.731597e+002, 4.966389e+002
3.736418e+002, 4.856088e+002
3.741239e+002, 4.745003e+002
3.746060e+002, 4.634868e+002
3.750882e+002, 4.526552e+002
3.755703e+002, 4.420185e+002
3.760524e+002, 4.305924e+002
3.765345e+002, 4.171103e+002
3.770166e+002, 4.042414e+002
3.774987e+002, 3.927251e+002
3.779809e+002, 3.821172e+002
3.784630e+002, 3.716317e+002
3.789451e+002, 3.609030e+002
3.794272e+002, 3.502939e+002
3.799093e+002, 3.406660e+002
3.803914e+002, 3.320986e+002
3.808736e+002, 3.244558e+002
3.813557e+002, 3.177818e+002
3.818378e+002, 3.118681e+002
3.823199e+002, 3.066322e+002
3.828020e+002, 3.019885e+002
3.832841e+002, 2.977924e+002
3.837663e+002, 2.938656e+002
3.842484e+002, 2.901390e+002
3.847305e+002, 2.870642e+002
3.852126e+002, 2.854106e+002
3.856947e+002, 2.836750e+002
3.861768e+002, 2.812201e+002
3.866590e+002, 2.783280e+002
3.871411e+002, 2.756339e+002
3.876232e+002, 2.735443e+002
3.881053e+002, 2.718678e+002
3.885874e+002, 2.699229e+002
3.890695e+002, 2.675315e+002
3.895517e+002, 2.652088e+002
3.900338e+002, 2.628928e+002
3.905159e+002, 2.607704e+002
3.909980e+002, 2.591496e+002
3.914801e+002, 2.581020e+002
3.919622e+002, 2.571380e+002
3.924444e+002, 2.555282e+002
3.929265e+002, 2.531720e+002
3.934086e+002, 2.511789e+002
3.938907e+002, 2.497858e+002
3.943728e+002, 2.487367e+002
3.948549e+002, 2.481756e+002
3.953371e+002, 2.479030e+002
3.958192e+002, 2.472443e+002
3.963013e+002, 2.455060e+002
3.967834e+002, 2.430556e+002
3.972655e+002, 2.411196e+002
3.977477e+002, 2.397971e+002
3.982298e+002, 2.387448e+002
3.987119e+002, 2.379861e+002
3.991940e+002, 2.373237e+002
3.996761e+002, 2.364953e+002
4.001582e+002, 2.353956e+002
4.006404e+002, 2.341988e+002
4.011225e+002, 2.330325e+002
4.016046e+002, 2.318930e+002
4.020867e+002, 2.309040e+002
4.025688e+002, 2.301805e+002
4.030509e+002, 2.295369e+002
4.035331e+002, 2.287217e+002
4.040152e+002, 2.277298e+002
4.044973e+002, 2.268017e+002
4.049794e+002, 2.263456e+002
4.054615e+002, 2.259368e+002
4.059436e+002, 2.246337e+002
4.064258e+002, 2.222252e+002
4.069079e+002, 2.198422e+002
4.073900e+002, 2.185311e+002
4.078721e+002, 2.180915e+002
4.083542e+002, 2.173428e+002
4.088363e+002, 2.160762e+002
4.093185e+002, 2.146018e+002
4.098006e+002, 2.128646e+002
4.102827e+002, 2.110354e+002
4.107648e+002, 2.097916e+002
4.112469e+002, 2.095340e+002
4.117290e+002, 2.098241e+002
4.122112e+002, 2.097010e+002
4.126933e+002, 2.091666e+002
4.131754e+002, 2.083163e+002
4.136575e+002, 2.068563e+002
4.141396e+002, 2.052532e+002
4.146217e+002, 2.039503e+002
4.151039e+002, 2.030363e+002
4.155860e+002, 2.024474e+002
4.160681e+002, 2.022200e+002
4.165502e+002, 2.024419e+002
4.170323e+002, 2.019393e+002
4.175144e+002, 2.002474e+002
4.179966e+002, 1.984451e+002
4.184787e+002, 1.967133e+002
4.189608e+002, 1.952218e+002
4.194429e+002, 1.942498e+002
4.199250e+002, 1.939583e+002
4.204071e+002, 1.941428e+002
4.208893e+002, 1.942652e+002
4.213714e+002, 1.946265e+002
4.218535e+002, 1.944187e+002
4.223356e+002, 1.930063e+002
4.228177e+002, 1.914845e+002
4.232998e+002, 1.909325e+002
4.237820e+002, 1.913346e+002
4.242641e+002, 1.916424e+002
4.247462e+002, 1.906325e+002
4.252283e+002, 1.881617e+002
4.257104e+002, 1.864511e+002
4.261925e+002, 1.860387e+002
4.266747e+002, 1.858657e+002
4.271568e+002, 1.858909e+002
4.276389e+002, 1.858956e+002
4.281210e+002, 1.854848e+002
4.286031e+002, 1.843906e+002
4.290852e+002, 1.831091e+002
4.295674e+002, 1.828274e+002
4.300495e+002, 1.839815e+002
4.305316e+002, 1.845605e+002
4.310137e+002, 1.835996e+002
4.314958e+002, 1.822284e+002
4.319779e+002, 1.810541e+002
4.324601e+002, 1.801454e+002
4.329422e+002, 1.793835e+002
4.334243e+002, 1.787848e+002
4.339064e+002, 1.782818e+002
4.343885e+002, 1.775046e+002
4.348706e+002, 1.762481e+002
4.353528e+002, 1.751520e+002
4.358349e+002, 1.748719e+002
4.363170e+002, 1.749869e+002
4.367991e+002, 1.747442e+002
4.372812e+002, 1.736518e+002
4.377633e+002, 1.725833e+002
4.382455e+002, 1.726174e+002
4.387276e+002, 1.735560e+002
4.392097e+002, 1.739643e+002
4.396918e+002, 1.731811e+002
4.401739e+002, 1.719056e+002
4.406560e+002, 1.711658e+002
4.411382e+002, 1.709613e+002
4.416203e+002, 1.708811e+002
4.421024e+002, 1.708952e+002
4.425845e+002, 1.709307e+002
4.430666e+002, 1.708887e+002
4.435487e+002, 1.707661e+002
4.440309e+002, 1.706623e+002
4.445130e+002, 1.706759e+002
4.449951e+002, 1.707798e+002
4.454772e+002, 1.707222e+002
4.459593e+002, 1.702892e+002
4.464414e+002, 1.699679e+002
4.469236e+002, 1.702299e+002
4.474057e+002, 1.706029e+002
4.478878e+002, 1.702010e+002
4.483699e+002, 1.687440e+002
4.488520e+002, 1.670312e+002
4.493341e+002, 1.663502e+002
4.498163e+002, 1.673365e+002
4.502984e+002, 1.675499e+002
4.507805e+002, 1.664793e+002
4.512626e+002, 1.652325e+002
4.517447e+002, 1.643746e+002
4.522268e+002, 1.638346e+002
4.527090e+002, 1.632170e+002
4.531911e+002, 1.622209e+002
4.536732e+002, 1.610252e+002
4.541553e+002, 1.604567e+002
4.546374e+002, 1.611434e+002
4.551195e+002, 1.613798e+002
4.556017e+002, 1.606927e+002
4.560838e+002, 1.596405e+002
4.565659e+002, 1.585741e+002
4.570480e+002, 1.575975e+002
4.575301e+002, 1.568438e+002
4.580122e+002, 1.564935e+002
4.584944e+002, 1.565390e+002
4.589765e+002, 1.567076e+002
4.594586e+002, 1.573392e+002
4.599407e+002, 1.575428e+002
4.604228e+002, 1.565167e+002
4.609049e+002, 1.548554e+002
4.613871e+002, 1.536226e+002
4.618692e+002, 1.532549e+002
4.623513e+002, 1.533542e+002
4.628334e+002, 1.536199e+002
4.633155e+002, 1.540341e+002
4.637976e+002, 1.541306e+002
4.642798e+002, 1.537643e+002
4.647619e+002, 1.530011e+002
4.652440e+002, 1.516854e+002
4.657261e+002, 1.497792e+002
4.662082e+002, 1.485428e+002
4.666903e+002, 1.488839e+002
4.671725e+002, 1.498559e+002
4.676546e+002, 1.504000e+002
4.681367e+002, 1.504266e+002
4.686188e+002, 1.501184e+002
4.691009e+002, 1.495335e+002
4.695830e+002, 1.487272e+002
4.700652e+002, 1.479643e+002
4.705473e+002, 1.471049e+002
4.710294e+002, 1.464599e+002
4.715115e+002, 1.462906e+002
4.719936e+002, 1.463035e+002
4.724757e+002, 1.461109e+002
4.729579e+002, 1.456201e+002
4.734400e+002, 1.450189e+002
4.739221e+002, 1.445130e+002
4.744042e+002, 1.440890e+002
4.748863e+002, 1.438505e+002
4.753684e+002, 1.438548e+002
4.758506e+002, 1.439563e+002
4.763327e+002, 1.443723e+002
4.768148e+002, 1.447941e+002
4.772969e+002, 1.446787e+002
4.777790e+002, 1.437535e+002
4.782611e+002, 1.423518e+002
4.787433e+002, 1.411393e+002
4.792254e+002, 1.400908e+002
4.797075e+002, 1.393249e+002
4.801896e+002, 1.390751e+002
4.806717e+002, 1.389350e+002
4.811538e+002, 1.387285e+002
4.816360e+002, 1.384384e+002
4.821181e+002, 1.380870e+002
4.826002e+002, 1.376042e+002
4.830823e+002, 1.370990e+002
4.835644e+002, 1.370174e+002
4.840465e+002, 1.375893e+002
4.845287e+002, 1.377224e+002
4.850108e+002, 1.364662e+002
4.854929e+002, 1.347451e+002
4.859750e+002, 1.336789e+002
4.864571e+002, 1.334821e+002
4.869392e+002, 1.334360e+002
4.874214e+002, 1.331333e+002
4.879035e+002, 1.326646e+002
4.883856e+002, 1.322055e+002
4.888677e+002, 1.317698e+002
4.893498e+002, 1.314424e+002
4.898319e+002, 1.314199e+002
4.903141e+002, 1.316288e+002
4.907962e+002, 1.313301e+002
4.912783e+002, 1.300224e+002
4.917604e+002, 1.287403e+002
4.922425e+002, 1.278052e+002
4.927246e+002, 1.272499e+002
4.932068e+002, 1.272920e+002
4.936889e+002, 1.280089e+002
4.941710e+002, 1.287859e+002
4.946531e+002, 1.285789e+002
4.951352e+002, 1.267796e+002
4.956173e+002, 1.259447e+002
4.960995e+002, 1.269828e+002
4.965816e+002, 1.279589e+002
4.970637e+002, 1.278142e+002
4.975458e+002, 1.268766e+002
4.980279e+002, 1.260258e+002
4.985100e+002, 1.257735e+002
4.989922e+002, 1.258183e+002
4.994743e+002, 1.252652e+002
4.999564e+002, 1.235877e+002
5.004385e+002, 1.226665e+002
5.009206e+002, 1.236227e+002
5.014027e+002, 1.247258e+002
5.018849e+002, 1.248557e+002
5.023670e+002, 1.240674e+002
5.028491e+002, 1.231787e+002
5.033312e+002, 1.227218e+002
5.038133e+002, 1.225773e+002
5.042954e+002, 1.224758e+002
5.047776e+002, 1.224549e+002
5.052597e+002, 1.222879e+002
5.057418e+002, 1.216547e+002
5.062239e+002, 1.209400e+002
5.067060e+002, 1.207673e+002
5.071881e+002, 1.213298e+002
5.076703e+002, 1.217502e+002
5.081524e+002, 1.215453e+002
5.086345e+002, 1.209289e+002
5.091166e+002, 1.201157e+002
5.095987e+002, 1.191337e+002
5.100808e+002, 1.184175e+002
5.105630e+002, 1.183871e+002
5.110451e+002, 1.189791e+002
5.115272e+002, 1.193846e+002
5.120093e+002, 1.197254e+002
5.124914e+002, 1.197669e+002
5.129735e+002, 1.190875e+002
5.134556e+002, 1.182140e+002
5.139377e+002, 1.178801e+002
5.144199e+002, 1.182628e+002
5.149020e+002, 1.189385e+002
5.153841e+002, 1.194070e+002
5.158662e+002, 1.196676e+002
5.163483e+002, 1.197251e+002
5.168304e+002, 1.192299e+002
5.173126e+002, 1.189031e+002
5.177947e+002, 1.191658e+002
5.182768e+002, 1.196587e+002
5.187589e+002, 1.197786e+002
5.192410e+002, 1.192659e+002
5.197231e+002, 1.186285e+002
5.202053e+002, 1.187245e+002
5.206874e+002, 1.196306e+002
5.211695e+002, 1.201102e+002
5.216516e+002, 1.197560e+002
5.221337e+002, 1.192461e+002
5.226158e+002, 1.190348e+002
5.230980e+002, 1.190470e+002
5.235801e+002, 1.190710e+002
5.240622e+002, 1.190338e+002
5.245443e+002, 1.189762e+002
5.250264e+002, 1.188376e+002
5.255085e+002, 1.186724e+002
5.259907e+002, 1.188898e+002
5.264728e+002, 1.197707e+002
5.269549e+002, 1.207878e+002
5.274370e+002, 1.210619e+002
5.279191e+002, 1.204329e+002
5.284012e+002, 1.201570e+002
5.288834e+002, 1.207259e+002
5.293655e+002, 1.213706e+002
5.298476e+002, 1.215791e+002
5.303297e+002, 1.214055e+002
5.308118e+002, 1.210505e+002
5.312939e+002, 1.205966e+002
5.317761e+002, 1.201873e+002
5.322582e+002, 1.202263e+002
5.327403e+002, 1.211510e+002
5.332224e+002, 1.217129e+002
5.337045e+002, 1.219575e+002
5.341866e+002, 1.218277e+002
5.346688e+002, 1.209633e+002
5.351509e+002, 1.196606e+002
5.356330e+002, 1.187428e+002
5.361151e+002, 1.188395e+002
5.365972e+002, 1.195619e+002
5.370793e+002, 1.197859e+002
5.375615e+002, 1.193064e+002
5.380436e+002, 1.191756e+002
5.385257e+002, 1.199468e+002
5.390078e+002, 1.210094e+002
5.394899e+002, 1.219516e+002
5.399720e+002, 1.227409e+002
5.404542e+002, 1.232002e+002
5.409363e+002, 1.229945e+002
5.414184e+002, 1.225302e+002
5.419005e+002, 1.224086e+002
5.423826e+002, 1.226366e+002
5.428647e+002, 1.228941e+002
5.433469e+002, 1.230406e+002
5.438290e+002, 1.230838e+002
5.443111e+002, 1.230296e+002
5.447932e+002, 1.228515e+002
5.452753e+002, 1.226555e+002
5.457574e+002, 1.222091e+002
5.462396e+002, 1.219249e+002
5.467217e+002, 1.223349e+002
5.472038e+002, 1.233101e+002
5.476859e+002, 1.242133e+002
5.481680e+002, 1.246129e+002
5.486501e+002, 1.245592e+002
5.491323e+002, 1.242379e+002
5.496144e+002, 1.233471e+002
5.500965e+002, 1.227210e+002
5.505786e+002, 1.223449e+002
5.510607e+002, 1.223020e+002
5.515428e+002, 1.228504e+002
5.520250e+002, 1.238696e+002
5.525071e+002, 1.247673e+002
5.529892e+002, 1.249530e+002
5.534713e+002, 1.247535e+002
5.539534e+002, 1.253596e+002
5.544355e+002, 1.270695e+002
5.549177e+002, 1.280018e+002
5.553998e+002, 1.267326e+002
5.558819e+002, 1.247842e+002
5.563640e+002, 1.243419e+002
5.568461e+002, 1.256346e+002
5.573282e+002, 1.267774e+002
5.578104e+002, 1.268101e+002
5.582925e+002, 1.264454e+002
5.587746e+002, 1.265794e+002
5.592567e+002, 1.272087e+002
5.597388e+002, 1.277394e+002
5.602209e+002, 1.277912e+002
5.607031e+002, 1.275331e+002
5.611852e+002, 1.275073e+002
5.616673e+002, 1.282155e+002
5.621494e+002, 1.284356e+002
5.626315e+002, 1.275147e+002
5.631136e+002, 1.265994e+002
5.635958e+002, 1.266654e+002
5.640779e+002, 1.275665e+002
5.645600e+002, 1.284606e+002
5.650421e+002, 1.287390e+002
5.655242e+002, 1.285982e+002
5.660063e+002, 1.287301e+002
5.664885e+002, 1.292870e+002
5.669706e+002, 1.296693e+002
5.674527e+002, 1.296644e+002
5.679348e+002, 1.294811e+002
5.684169e+002, 1.290689e+002
5.688990e+002, 1.285216e+002
5.693812e+002, 1.283592e+002
5.698633e+002, 1.293634e+002
5.703454e+002, 1.306450e+002
5.708275e+002, 1.307864e+002
5.713096e+002, 1.298505e+002
5.717917e+002, 1.288808e+002
5.722739e+002, 1.282702e+002
5.727560e+002, 1.279158e+002
5.732381e+002, 1.276281e+002
5.737202e+002, 1.273630e+002
5.742023e+002, 1.273228e+002
5.746844e+002, 1.277186e+002
5.751666e+002, 1.281788e+002
5.756487e+002, 1.285306e+002
5.761308e+002, 1.287309e+002
5.766129e+002, 1.286880e+002
5.770950e+002, 1.283403e+002
5.775771e+002, 1.278798e+002
5.780593e+002, 1.277088e+002
5.785414e+002, 1.278182e+002
5.790235e+002, 1.282441e+002
5.795056e+002, 1.295067e+002
5.799877e+002, 1.306035e+002
5.804698e+002, 1.310627e+002
5.809520e+002, 1.309965e+002
5.814341e+002, 1.307077e+002
5.819162e+002, 1.302729e+002
5.823983e+002, 1.297943e+002
5.828804e+002, 1.292747e+002
5.833625e+002, 1.287567e+002
5.838447e+002, 1.288555e+002
5.843268e+002, 1.300037e+002
5.848090e+002, 1.311345e+002
5.852911e+002, 1.308657e+002
5.857732e+002, 1.293810e+002
5.862553e+002, 1.286166e+002
5.867374e+002, 1.293978e+002
5.872195e+002, 1.302493e+002
5.877017e+002, 1.303753e+002
5.881838e+002, 1.300597e+002
5.886659e+002, 1.298195e+002
5.891480e+002, 1.298103e+002
5.896301e+002, 1.298351e+002
5.901122e+002, 1.295959e+002
5.905944e+002, 1.290145e+002
5.910765e+002, 1.289393e+002
5.915586e+002, 1.300142e+002
5.920407e+002, 1.308499e+002
5.925228e+002, 1.310050e+002
5.930049e+002, 1.308008e+002
5.934871e+002, 1.305997e+002
5.939692e+002, 1.304978e+002
5.944513e+002, 1.304136e+002
5.949334e+002, 1.303034e+002
5.954155e+002, 1.301505e+002
5.958976e+002, 1.298247e+002
5.963798e+002, 1.292475e+002
5.968619e+002, 1.288152e+002
5.973440e+002, 1.287425e+002
5.978261e+002, 1.289975e+002
5.983082e+002, 1.295086e+002
5.987903e+002, 1.305326e+002
5.992725e+002, 1.311663e+002
5.997546e+002, 1.307396e+002
6.002367e+002, 1.300152e+002
6.007188e+002, 1.298169e+002
6.012009e+002, 1.301745e+002
6.016830e+002, 1.306978e+002
6.021652e+002, 1.311561e+002
6.026473e+002, 1.315029e+002
6.031294e+002, 1.315370e+002
6.036115e+002, 1.309731e+002
6.040936e+002, 1.306225e+002
6.045757e+002, 1.308037e+002
6.050579e+002, 1.309610e+002
6.055400e+002, 1.305835e+002
6.060221e+002, 1.298598e+002
6.065042e+002, 1.294823e+002
6.069863e+002, 1.300221e+002
6.074684e+002, 1.308326e+002
6.079506e+002, 1.307005e+002
6.084327e+002, 1.296573e+002
6.089148e+002, 1.290036e+002
6.093969e+002, 1.291417e+002
6.098790e+002, 1.296605e+002
6.103611e+002, 1.302948e+002
6.108433e+002, 1.310149e+002
6.113254e+002, 1.313063e+002
6.118075e+002, 1.305646e+002
6.122896e+002, 1.299562e+002
6.127717e+002, 1.304130e+002
6.132538e+002, 1.313290e+002
6.137360e+002, 1.315504e+002
6.142181e+002, 1.307743e+002
6.147002e+002, 1.297862e+002
6.151823e+002, 1.295647e+002
6.156644e+002, 1.301684e+002
6.161465e+002, 1.302881e+002
6.166287e+002, 1.293395e+002
6.171108e+002, 1.287145e+002
6.175929e+002, 1.289955e+002
6.180750e+002, 1.296190e+002
6.185571e+002, 1.300015e+002
6.190392e+002, 1.300352e+002
6.195214e+002, 1.300276e+002
6.200035e+002, 1.302313e+002
6.204856e+002, 1.305547e+002
6.209677e+002, 1.308961e+002
6.214498e+002, 1.312624e+002
6.219319e+002, 1.311913e+002
6.224141e+002, 1.302773e+002
6.228962e+002, 1.289789e+002
6.233783e+002, 1.283106e+002
6.238604e+002, 1.284830e+002
6.243425e+002, 1.285316e+002
6.248246e+002, 1.280651e+002
6.253068e+002, 1.276939e+002
6.257889e+002, 1.280306e+002
6.262710e+002, 1.287924e+002
6.267531e+002, 1.292088e+002
6.272352e+002, 1.288918e+002
6.277173e+002, 1.282590e+002
6.281995e+002, 1.281814e+002
6.286816e+002, 1.288698e+002
6.291637e+002, 1.288797e+002
6.296458e+002, 1.273420e+002
6.301279e+002, 1.261536e+002
6.306100e+002, 1.267609e+002
6.310922e+002, 1.281964e+002
6.315743e+002, 1.286398e+002
6.320564e+002, 1.273331e+002
6.325385e+002, 1.259139e+002
6.330206e+002, 1.256098e+002
6.335027e+002, 1.260173e+002
6.339849e+002, 1.264639e+002
6.344670e+002, 1.268369e+002
6.349491e+002, 1.268983e+002
6.354312e+002, 1.264241e+002
6.359133e+002, 1.255326e+002
6.363954e+002, 1.247739e+002
6.368776e+002, 1.242760e+002
6.373597e+002, 1.237506e+002
6.378418e+002, 1.231666e+002
6.383239e+002, 1.225737e+002
6.388060e+002, 1.219443e+002
6.392881e+002, 1.213330e+002
6.397703e+002, 1.208807e+002
6.402524e+002, 1.206798e+002
6.407345e+002, 1.206608e+002
6.412166e+002, 1.206843e+002
6.416987e+002, 1.207460e+002
6.421808e+002, 1.210002e+002
6.426630e+002, 1.216656e+002
6.431451e+002, 1.222258e+002
6.436272e+002, 1.220623e+002
6.441093e+002, 1.213745e+002
6.445914e+002, 1.208777e+002
6.450735e+002, 1.209270e+002
6.455557e+002, 1.208927e+002
6.460378e+002, 1.202217e+002
6.465199e+002, 1.193958e+002
6.470020e+002, 1.193289e+002
6.474841e+002, 1.200706e+002
6.479662e+002, 1.205889e+002
6.484484e+002, 1.198840e+002
6.489305e+002, 1.181846e+002
6.494126e+002, 1.170851e+002
6.498947e+002, 1.167517e+002
6.503768e+002, 1.167391e+002
6.508589e+002, 1.174773e+002
6.513411e+002, 1.180905e+002
6.518232e+002, 1.177181e+002
6.523053e+002, 1.165515e+002
6.527874e+002, 1.157315e+002
6.532695e+002, 1.161688e+002
6.537516e+002, 1.169083e+002
6.542338e+002, 1.166842e+002
6.547159e+002, 1.156928e+002
6.551980e+002, 1.148342e+002
6.556801e+002, 1.143659e+002
6.561622e+002, 1.140818e+002
6.566443e+002, 1.137505e+002
6.571265e+002, 1.133624e+002
6.576086e+002, 1.131421e+002
6.580907e+002, 1.133189e+002
6.585728e+002, 1.133540e+002
6.590549e+002, 1.129962e+002
6.595370e+002, 1.125086e+002
6.600192e+002, 1.122458e+002
6.605013e+002, 1.122021e+002
6.609834e+002, 1.119615e+002
6.614655e+002, 1.109885e+002
6.619476e+002, 1.096675e+002
6.624297e+002, 1.093936e+002
6.629119e+002, 1.103361e+002
6.633940e+002, 1.109689e+002
6.638761e+002, 1.106770e+002
6.643582e+002, 1.100575e+002
6.648403e+002, 1.098510e+002
6.653224e+002, 1.100173e+002
6.658046e+002, 1.100181e+002
6.662867e+002, 1.095769e+002
6.667688e+002, 1.091502e+002
6.672509e+002, 1.091562e+002
6.677330e+002, 1.092940e+002
6.682151e+002, 1.089444e+002
6.686973e+002, 1.080016e+002
6.691794e+002, 1.070833e+002
6.696615e+002, 1.068637e+002
6.701436e+002, 1.072858e+002
6.706257e+002, 1.075103e+002
6.711078e+002, 1.074528e+002
6.715900e+002, 1.073733e+002
6.720721e+002, 1.075238e+002
6.725542e+002, 1.075494e+002
6.730363e+002, 1.069587e+002
6.735184e+002, 1.058286e+002
6.740005e+002, 1.050809e+002
6.744827e+002, 1.054554e+002
6.749648e+002, 1.061055e+002
6.754469e+002, 1.061780e+002
6.759290e+002, 1.058189e+002
6.764111e+002, 1.054221e+002
6.768932e+002, 1.051043e+002
6.773754e+002, 1.050310e+002
6.778575e+002, 1.054796e+002
6.783396e+002, 1.064908e+002
6.788217e+002, 1.069674e+002
6.793038e+002, 1.063741e+002
6.797859e+002, 1.059168e+002
6.802681e+002, 1.059937e+002
6.807502e+002, 1.061604e+002
6.812323e+002, 1.059726e+002
6.817144e+002, 1.054231e+002
6.821965e+002, 1.048640e+002
6.826786e+002, 1.045240e+002
6.831608e+002, 1.043181e+002
6.836429e+002, 1.041512e+002
6.841250e+002, 1.040108e+002
6.846071e+002, 1.038214e+002
6.850892e+002, 1.035861e+002
6.855714e+002, 1.031634e+002
6.860535e+002, 1.022243e+002
6.865356e+002, 1.006938e+002
6.870177e+002, 1.001644e+002
6.874998e+002, 1.017795e+002
6.879819e+002, 1.028635e+002
6.884641e+002, 1.021224e+002
6.889462e+002, 1.009200e+002
6.894283e+002, 1.009285e+002
6.899104e+002, 1.021254e+002
6.903925e+002, 1.029041e+002
6.908746e+002, 1.018576e+002
6.913568e+002, 9.973695e+001
6.918389e+002, 9.828312e+001
6.923210e+002, 9.751194e+001
6.928031e+002, 9.708303e+001
6.932852e+002, 9.713219e+001
6.937673e+002, 9.707045e+001
6.942495e+002, 9.610043e+001
6.947316e+002, 9.430652e+001
6.952137e+002, 9.308065e+001
6.956958e+002, 9.284206e+001
6.961779e+002, 9.272541e+001
6.966600e+002, 9.254464e+001
6.971422e+002, 9.226639e+001
6.976243e+002, 9.172934e+001
6.981064e+002, 9.101297e+001
6.985885e+002, 9.055360e+001
6.990706e+002, 9.076235e+001
6.995527e+002, 9.132789e+001
7.000349e+002, 9.126121e+001
7.005170e+002, 9.041817e+001
7.009991e+002, 8.991009e+001
7.014812e+002, 9.021256e+001
7.019633e+002, 9.053892e+001
7.024454e+002, 9.009632e+001
7.029276e+002, 8.911162e+001
7.034097e+002, 8.832510e+001
7.038918e+002, 8.804871e+001
7.043739e+002, 8.768913e+001
7.048560e+002, 8.680629e+001
7.053381e+002, 8.581126e+001
7.058203e+002, 8.515469e+001
7.063024e+002, 8.489523e+001
7.067845e+002, 8.492715e+001
7.072666e+002, 8.520703e+001
7.077487e+002, 8.562072e+001
7.082308e+002, 8.590830e+001
7.087130e+002, 8.613309e+001
7.091951e+002, 8.589336e+001
7.096772e+002, 8.476655e+001
7.101593e+002, 8.366308e+001
7.106414e+002, 8.321572e+001
7.111235e+002, 8.320350e+001
7.116057e+002, 8.318325e+001
7.120878e+002, 8.311142e+001
7.125699e+002, 8.295829e+001
7.130520e+002, 8.276109e+001
7.135341e+002, 8.244521e+001
7.140162e+002, 8.173936e+001
7.144984e+002, 8.078094e+001
7.149805e+002, 8.017635e+001
7.154626e+002, 8.028769e+001
7.159447e+002, 8.082481e+001
7.164268e+002, 8.123534e+001
7.169089e+002, 8.157924e+001
7.173911e+002, 8.149211e+001
7.178732e+002, 8.048212e+001
7.183553e+002, 7.970576e+001
7.188374e+002, 7.989730e+001
7.193195e+002, 8.055869e+001
7.198016e+002, 8.098537e+001
7.202838e+002, 8.105039e+001
7.207659e+002, 8.104562e+001
7.212480e+002, 8.127912e+001
7.217301e+002, 8.139418e+001
7.222122e+002, 8.086598e+001
7.226943e+002, 7.984812e+001
7.231765e+002, 7.888596e+001
7.236586e+002, 7.821392e+001
7.241407e+002, 7.783071e+001
7.246228e+002, 7.781804e+001
7.251049e+002, 7.825705e+001
7.255870e+002, 7.826680e+001
7.260692e+002, 7.755391e+001
7.265513e+002, 7.688515e+001
7.270334e+002, 7.654940e+001
7.275155e+002, 7.636389e+001
7.279976e+002, 7.611413e+001
7.284797e+002, 7.578914e+001
7.289619e+002, 7.566846e+001
7.294440e+002, 7.595882e+001
7.299261e+002, 7.642754e+001
7.304082e+002, 7.714954e+001
7.308903e+002, 7.784653e+001
7.313724e+002, 7.772672e+001
7.318546e+002, 7.660631e+001
7.323367e+002, 7.531620e+001
7.328188e+002, 7.473014e+001
7.333009e+002, 7.479562e+001
7.337830e+002, 7.488196e+001
7.342651e+002, 7.506866e+001
7.347473e+002, 7.510424e+001
7.352294e+002, 7.479320e+001
7.357115e+002, 7.442521e+001
7.361936e+002, 7.421461e+001
7.366757e+002, 7.413302e+001
7.371578e+002, 7.401835e+001
7.376400e+002, 7.385118e+001
7.381221e+002, 7.359777e+001
7.386042e+002, 7.311537e+001
7.390863e+002, 7.258096e+001
7.395684e+002, 7.238624e+001
7.400505e+002, 7.251675e+001
7.405327e+002, 7.242508e+001
7.410148e+002, 7.163818e+001
7.414969e+002, 7.056300e+001
7.419790e+002, 7.058623e+001
7.424611e+002, 7.217887e+001
7.429432e+002, 7.311831e+001
7.434254e+002, 7.291739e+001
7.439075e+002, 7.236645e+001
7.443896e+002, 7.173804e+001
7.448717e+002, 7.113472e+001
7.453538e+002, 7.078462e+001
7.458359e+002, 7.081603e+001
7.463181e+002, 7.079360e+001
7.468002e+002, 7.030460e+001
7.472823e+002, 6.982468e+001
7.477644e+002, 7.010477e+001
7.482465e+002, 7.085908e+001
7.487286e+002, 7.099735e+001
7.492108e+002, 7.002198e+001
7.496929e+002, 6.872535e+001
7.501750e+002, 6.841014e+001
7.506571e+002, 6.914986e+001
7.511392e+002, 6.926164e+001
7.516213e+002, 6.849731e+001
7.521035e+002, 6.766409e+001
7.525856e+002, 6.690221e+001
7.530677e+002, 6.635976e+001
7.535498e+002, 6.631619e+001
7.540319e+002, 6.679084e+001
7.545140e+002, 6.707822e+001
7.549962e+002, 6.679168e+001
7.554783e+002, 6.649839e+001
7.559604e+002, 6.674670e+001
7.564425e+002, 6.712765e+001
7.569246e+002, 6.689323e+001
7.574067e+002, 6.596346e+001
7.578889e+002, 6.499891e+001
7.583710e+002, 6.456400e+001
7.588531e+002, 6.452306e+001
7.593352e+002, 6.442775e+001
7.598173e+002, 6.427009e+001
7.602994e+002, 6.414468e+001
7.607816e+002, 6.413139e+001
7.612637e+002, 6.404516e+001
7.617458e+002, 6.362536e+001
7.622279e+002, 6.298188e+001
7.627100e+002, 6.264471e+001
7.631921e+002, 6.284355e+001
7.636743e+002, 6.301160e+001
7.641564e+002, 6.296277e+001
7.646385e+002, 6.287996e+001
7.651206e+002, 6.299204e+001
7.656027e+002, 6.319780e+001
7.660848e+002, 6.315302e+001
7.665670e+002, 6.268240e+001
7.670491e+002, 6.216147e+001
7.675312e+002, 6.212756e+001
7.680133e+002, 6.249502e+001
7.684954e+002, 6.281892e+001
7.689775e+002, 6.308301e+001
7.694597e+002, 6.319124e+001
7.699418e+002, 6.303080e+001
7.704239e+002, 6.278988e+001
7.709060e+002, 6.285381e+001
7.713881e+002, 6.341143e+001
7.718702e+002, 6.348291e+001
7.723524e+002, 6.230992e+001
7.728345e+002, 6.156725e+001
7.733166e+002, 6.237936e+001
7.737987e+002, 6.360105e+001
7.742808e+002, 6.380164e+001
7.747629e+002, 6.289394e+001
7.752451e+002, 6.205375e+001
7.757272e+002, 6.213678e+001
7.762093e+002, 6.266364e+001
7.766914e+002, 6.305579e+001
7.771735e+002, 6.328813e+001
7.776556e+002, 6.317925e+001
7.781378e+002, 6.267488e+001
7.786199e+002, 6.213465e+001
7.791020e+002, 6.185273e+001
7.795841e+002, 6.180322e+001
7.800662e+002, 6.187959e+001
7.805483e+002, 6.228230e+001
7.810305e+002, 6.242646e+001
7.815126e+002, 6.208682e+001
7.819947e+002, 6.167815e+001
7.824768e+002, 6.128722e+001
7.829589e+002, 6.099865e+001
7.834410e+002, 6.100116e+001
7.839232e+002, 6.140657e+001
7.844053e+002, 6.176040e+001
7.848874e+002, 6.178850e+001
7.853695e+002, 6.161708e+001
7.858516e+002, 6.123223e+001
7.863337e+002, 6.077667e+001
7.868159e+002, 6.078450e+001
7.872980e+002, 6.146016e+001
7.877801e+002, 6.216182e+001
7.882622e+002, 6.196217e+001
7.887443e+002, 6.090264e+001
7.892264e+002, 6.028711e+001
7.897086e+002, 6.019859e+001
7.901907e+002, 6.035070e+001
7.906728e+002, 6.097742e+001
7.911549e+002, 6.150630e+001
7.916370e+002, 6.111977e+001
7.921191e+002, 6.000224e+001
7.926013e+002, 5.949225e+001
7.930834e+002, 6.044226e+001
7.935655e+002, 6.120927e+001
7.940476e+002, 6.112262e+001
7.945297e+002, 6.058833e+001
7.950118e+002, 5.980672e+001
7.954940e+002, 5.896781e+001
7.959761e+002, 5.847363e+001
7.964582e+002, 5.856885e+001
7.969403e+002, 5.894976e+001
7.974224e+002, 5.920204e+001
7.979045e+002, 5.933861e+001
7.983867e+002, 5.943605e+001
7.988688e+002, 5.949836e+001
7.993509e+002, 5.955133e+001
7.998330e+002, 5.964606e+001
8.003151e+002, 5.967239e+001
8.007972e+002, 5.935802e+001
8.012794e+002, 5.846359e+001
8.017615e+002, 5.818370e+001
8.022436e+002, 5.912880e+001
8.027257e+002, 5.987895e+001
8.032078e+002, 5.983281e+001
8.036899e+002, 5.951348e+001
8.041721e+002, 5.954609e+001
8.046542e+002, 5.993040e+001
8.051363e+002, 6.010400e+001
8.056184e+002, 5.957047e+001
8.061005e+002, 5.892314e+001
8.065826e+002, 5.893433e+001
8.070648e+002, 5.927258e+001
8.075469e+002, 5.896972e+001
8.080290e+002, 5.796999e+001
8.085111e+002, 5.747348e+001
8.089932e+002, 5.842268e+001
8.094753e+002, 6.014561e+001
8.099575e+002, 6.075820e+001
8.104396e+002, 5.990606e+001
8.109217e+002, 5.961636e+001
8.114038e+002, 6.053652e+001
8.118859e+002, 6.110675e+001
8.123680e+002, 6.002973e+001
8.128502e+002, 5.837293e+001
8.133323e+002, 5.774858e+001
8.138144e+002, 5.837538e+001
8.142965e+002, 5.890834e+001
8.147786e+002, 5.891035e+001
8.152607e+002, 5.887403e+001
8.157429e+002, 5.915142e+001
8.162250e+002, 5.953862e+001
8.167071e+002, 5.979344e+001
8.171892e+002, 5.983424e+001
8.176713e+002, 5.956674e+001
8.181534e+002, 5.876860e+001
8.186356e+002, 5.784886e+001
8.191177e+002, 5.768866e+001
8.195998e+002, 5.819279e+001
8.200819e+002, 5.861088e+001
8.205640e+002, 5.880429e+001
8.210461e+002, 5.899682e+001
8.215283e+002, 5.940789e+001
8.220104e+002, 5.986317e+001
8.224925e+002, 5.980569e+001
8.229746e+002, 5.888347e+001
8.234567e+002, 5.823113e+001
8.239388e+002, 5.781317e+001
8.244210e+002, 5.770024e+001
8.249031e+002, 5.823059e+001
8.253852e+002, 5.891987e+001
8.258673e+002, 5.914320e+001
8.263494e+002, 5.881590e+001
8.268315e+002, 5.834466e+001
8.273137e+002, 5.773985e+001
8.277958e+002, 5.723928e+001
8.282779e+002, 5.705332e+001
8.287600e+002, 5.711707e+001
8.292421e+002, 5.741956e+001
8.297242e+002, 5.788709e+001
8.302064e+002, 5.816694e+001
8.306885e+002, 5.795980e+001
8.311706e+002, 5.746883e+001
8.316527e+002, 5.714713e+001
8.321348e+002, 5.699271e+001
8.326169e+002, 5.715330e+001
8.330991e+002, 5.777648e+001
8.335812e+002, 5.829512e+001
8.340633e+002, 5.838940e+001
8.345454e+002, 5.814919e+001
8.350275e+002, 5.772567e+001
8.355096e+002, 5.697771e+001
8.359918e+002, 5.648151e+001
8.364739e+002, 5.636780e+001
8.369560e+002, 5.635268e+001
8.374381e+002, 5.617628e+001
8.379202e+002, 5.613795e+001
8.384023e+002, 5.679246e+001
8.388845e+002, 5.805109e+001
8.393666e+002, 5.895359e+001
8.398487e+002, 5.890071e+001
8.403308e+002, 5.837596e+001
8.408129e+002, 5.764827e+001
8.412950e+002, 5.687985e+001
8.417772e+002, 5.637996e+001
8.422593e+002, 5.619591e+001
8.427414e+002, 5.629421e+001
8.432235e+002, 5.667560e+001
8.437056e+002, 5.719022e+001
8.441877e+002, 5.755116e+001
8.446699e+002, 5.775479e+001
8.451520e+002, 5.778181e+001
8.456341e+002, 5.749331e+001
8.461162e+002, 5.745043e+001
8.465983e+002, 5.814824e+001
8.470804e+002, 5.896804e+001
8.475626e+002, 5.895430e+001
8.480447e+002, 5.804926e+001
8.485268e+002, 5.733087e+001
8.490089e+002, 5.667319e+001
8.494910e+002, 5.642402e+001
8.499731e+002, 5.716639e+001
8.504553e+002, 5.798170e+001
8.509374e+002, 5.797151e+001
8.514195e+002, 5.727057e+001
8.519016e+002, 5.656147e+001
8.523837e+002, 5.609541e+001
8.528658e+002, 5.585743e+001
8.533480e+002, 5.586281e+001
8.538301e+002, 5.606955e+001
8.543122e+002, 5.653460e+001
8.547943e+002, 5.716042e+001
8.552764e+002, 5.751820e+001
8.557585e+002, 5.741922e+001
8.562407e+002, 5.709298e+001
8.567228e+002, 5.679413e+001
8.572049e+002, 5.653569e+001
8.576870e+002, 5.654366e+001
8.581691e+002, 5.695394e+001
8.586512e+002, 5.704679e+001
8.591334e+002, 5.641738e+001
8.596155e+002, 5.578447e+001
8.600976e+002, 5.589037e+001
8.605797e+002, 5.656694e+001
8.610618e+002, 5.684118e+001
8.615439e+002, 5.632554e+001
8.620261e+002, 5.606521e+001
8.625082e+002, 5.653715e+001
8.629903e+002, 5.692276e+001
8.634724e+002, 5.654325e+001
8.639545e+002, 5.582039e+001
8.644366e+002, 5.550444e+001
8.649188e+002, 5.577003e+001
8.654009e+002, 5.610242e+001
8.658830e+002, 5.615931e+001
8.663651e+002, 5.610627e+001
8.668472e+002, 5.613898e+001
8.673293e+002, 5.621523e+001
8.678115e+002, 5.626100e+001
8.682936e+002, 5.624324e+001
8.687757e+002, 5.601661e+001
8.692578e+002, 5.540289e+001
8.697399e+002, 5.472686e+001
8.702220e+002, 5.497565e+001
8.707042e+002, 5.621684e+001
8.711863e+002, 5.689260e+001
8.716684e+002, 5.679631e+001
8.721505e+002, 5.637071e+001
8.726326e+002, 5.565251e+001
8.731147e+002, 5.494897e+001
8.735969e+002, 5.481641e+001
8.740790e+002, 5.538482e+001
8.745611e+002, 5.582606e+001
8.750432e+002, 5.614110e+001
8.755253e+002, 5.633081e+001
8.760074e+002, 5.633457e+001
8.764896e+002, 5.626105e+001
8.769717e+002, 5.624524e+001
8.774538e+002, 5.623964e+001
8.779359e+002, 5.604091e+001
8.784180e+002, 5.551752e+001
8.789001e+002, 5.494590e+001
8.793823e+002, 5.437763e+001
8.798644e+002, 5.393453e+001
8.803465e+002, 5.375468e+001
8.808286e+002, 5.382096e+001
8.813107e+002, 5.410377e+001
8.817928e+002, 5.457549e+001
8.822750e+002, 5.506200e+001
8.827571e+002, 5.534698e+001
8.832392e+002, 5.551121e+001
8.837213e+002, 5.585813e+001
8.842034e+002, 5.636848e+001
8.846855e+002, 5.676866e+001
8.851677e+002, 5.703418e+001
8.856498e+002, 5.682466e+001
8.861319e+002, 5.572023e+001
8.866140e+002, 5.411100e+001
8.870961e+002, 5.334739e+001
8.875782e+002, 5.373035e+001
8.880604e+002, 5.420105e+001
8.885425e+002, 5.491060e+001
8.890246e+002, 5.548981e+001
8.895067e+002, 5.568911e+001
8.899888e+002, 5.574310e+001
8.904709e+002, 5.598835e+001
8.909531e+002, 5.643268e+001
8.914352e+002, 5.657792e+001
8.919173e+002, 5.598823e+001
8.923994e+002, 5.549686e+001
8.928815e+002, 5.548955e+001
8.933636e+002, 5.570258e+001
8.938458e+002, 5.608666e+001
8.943279e+002, 5.643747e+001
8.948100e+002, 5.623455e+001
8.952921e+002, 5.519429e+001
8.957742e+002, 5.409408e+001
8.962563e+002, 5.358346e+001
8.967385e+002, 5.354782e+001
8.972206e+002, 5.390549e+001
8.977027e+002, 5.457573e+001
8.981848e+002, 5.542550e+001
8.986669e+002, 5.638584e+001
8.991490e+002, 5.692216e+001
8.996312e+002, 5.635631e+001
9.001133e+002, 5.516511e+001
9.005954e+002, 5.545996e+001
9.010775e+002, 5.746771e+001
9.015596e+002, 5.826125e+001
9.020417e+002, 5.717876e+001
9.025239e+002, 5.565322e+001
9.030060e+002, 5.428552e+001
9.034881e+002, 5.327140e+001
9.039702e+002, 5.309186e+001
9.044523e+002, 5.403358e+001
9.049344e+002, 5.465680e+001
9.054166e+002, 5.474067e+001
9.058987e+002, 5.479135e+001
9.063808e+002, 5.492056e+001
9.068629e+002, 5.506274e+001
9.073450e+002, 5.527959e+001
9.078271e+002, 5.547313e+001
9.083093e+002, 5.526638e+001
9.087914e+002, 5.438234e+001
9.092735e+002, 5.345937e+001
9.097556e+002, 5.252348e+001
9.102377e+002, 5.189125e+001
9.107198e+002, 5.202563e+001
9.112020e+002, 5.263088e+001
9.116841e+002, 5.306285e+001
9.121662e+002, 5.315682e+001
9.126483e+002, 5.338444e+001
9.131304e+002, 5.445078e+001
9.136125e+002, 5.561292e+001
9.140947e+002, 5.541021e+001
9.145768e+002, 5.427528e+001
9.150589e+002, 5.360470e+001
9.155410e+002, 5.361350e+001
9.160231e+002, 5.379506e+001
9.165052e+002, 5.384006e+001
9.169874e+002, 5.380851e+001
9.174695e+002, 5.379956e+001
9.179516e+002, 5.381114e+001
9.184337e+002, 5.374556e+001
9.189158e+002, 5.336071e+001
9.193979e+002, 5.429029e+001
9.198801e+002, 5.799815e+001
9.203622e+002, 6.136043e+001
9.208443e+002, 6.062068e+001
9.213264e+002, 5.628068e+001
9.218085e+002, 5.369773e+001
9.222906e+002, 5.412376e+001
9.227728e+002, 5.425654e+001
9.232549e+002, 5.361635e+001
9.237370e+002, 5.303160e+001
9.242191e+002, 5.296758e+001
9.247012e+002, 5.317008e+001
9.251833e+002, 5.319482e+001
9.256655e+002, 5.297533e+001
9.261476e+002, 5.300426e+001
9.266297e+002, 5.392188e+001
9.271118e+002, 5.454034e+001
9.275939e+002, 5.382414e+001
9.280760e+002, 5.280244e+001
9.285582e+002, 5.267697e+001
9.290403e+002, 5.334036e+001
9.295224e+002, 5.400354e+001
9.300045e+002, 5.435860e+001
9.304866e+002, 5.437600e+001
9.309688e+002, 5.378149e+001
9.314509e+002, 5.298206e+001
9.319330e+002, 5.251636e+001
9.324151e+002, 5.242056e+001
9.328972e+002, 5.282928e+001
9.333793e+002, 5.371519e+001
9.338615e+002, 5.454995e+001
9.343436e+002, 5.488554e+001
9.348257e+002, 5.481850e+001
9.353078e+002, 5.450126e+001
9.357899e+002, 5.395706e+001
9.362720e+002, 5.349361e+001
9.367542e+002, 5.313985e+001
9.372363e+002, 5.295990e+001
9.377184e+002, 5.301335e+001
9.382005e+002, 5.317492e+001
9.386826e+002, 5.327136e+001
9.391647e+002, 5.330346e+001
9.396469e+002, 5.320869e+001
9.401290e+002, 5.286295e+001
9.406111e+002, 5.271142e+001
9.410932e+002, 5.307192e+001
9.415753e+002, 5.333946e+001
9.420574e+002, 5.292604e+001
9.425396e+002, 5.212786e+001
9.430217e+002, 5.175423e+001
9.435038e+002, 5.192716e+001
9.439859e+002, 5.215678e+001
9.444680e+002, 5.256413e+001
9.449501e+002, 5.282824e+001
9.454323e+002, 5.271635e+001
9.459144e+002, 5.248500e+001
9.463965e+002, 5.239008e+001
9.468786e+002, 5.243269e+001
9.473607e+002, 5.247658e+001
9.478428e+002, 5.245374e+001
9.483250e+002, 5.247387e+001
9.488071e+002, 5.266236e+001
9.492892e+002, 5.286321e+001
9.497713e+002, 5.293457e+001
9.502534e+002, 5.289963e+001
9.507355e+002, 5.277803e+001
9.512177e+002, 5.260125e+001
9.516998e+002, 5.254557e+001
9.521819e+002, 5.291201e+001
9.526640e+002, 5.325365e+001
9.531461e+002, 5.276461e+001
9.536282e+002, 5.182618e+001
9.541104e+002, 5.130245e+001
9.545925e+002, 5.128149e+001
9.550746e+002, 5.155229e+001
9.555567e+002, 5.201701e+001
9.560388e+002, 5.252462e+001
9.565209e+002, 5.286436e+001
9.570031e+002, 5.307184e+001
9.574852e+002, 5.334521e+001
9.579673e+002, 5.368507e+001
9.584494e+002, 5.395894e+001
9.589315e+002, 5.415067e+001
9.594136e+002, 5.414724e+001
9.598958e+002, 5.381728e+001
9.603779e+002, 5.333099e+001
9.608600e+002, 5.317431e+001
9.613421e+002, 5.347940e+001
9.618242e+002, 5.342291e+001
9.623063e+002, 5.289257e+001
9.627885e+002, 5.224086e+001
9.632706e+002, 5.133053e+001
9.637527e+002, 5.068531e+001
9.642348e+002, 5.104473e+001
9.647169e+002, 5.221205e+001
9.651990e+002, 5.274098e+001
9.656812e+002, 5.203062e+001
9.661633e+002, 5.159690e+001
9.666454e+002, 5.169435e+001
9.671275e+002, 5.177922e+001
9.676096e+002, 5.160531e+001
9.680917e+002, 5.130087e+001
9.685739e+002, 5.096703e+001
9.690560e+002, 5.063000e+001
9.695381e+002, 5.051221e+001
9.700202e+002, 5.069795e+001
9.705023e+002, 5.106804e+001
9.709844e+002, 5.186005e+001
9.714666e+002, 5.256715e+001
9.719487e+002, 5.266465e+001
9.724308e+002, 5.239698e+001
9.729129e+002, 5.235944e+001
9.733950e+002, 5.269903e+001
9.738771e+002, 5.286922e+001
9.743593e+002, 5.229666e+001
9.748414e+002, 5.166734e+001
9.753235e+002, 5.148302e+001
9.758056e+002, 5.168472e+001
9.762877e+002, 5.259655e+001
9.767698e+002, 5.382746e+001
9.772520e+002, 5.391108e+001
9.777341e+002, 5.211972e+001
9.782162e+002, 5.021686e+001
9.786983e+002, 5.042682e+001
9.791804e+002, 5.166545e+001
9.796625e+002, 5.170021e+001
9.801447e+002, 5.092988e+001
9.806268e+002, 5.099570e+001
9.811089e+002, 5.214561e+001
9.815910e+002, 5.317121e+001
9.820731e+002, 5.323057e+001
9.825552e+002, 5.277088e+001
9.830374e+002, 5.260862e+001
9.835195e+002, 5.268013e+001
9.840016e+002, 5.250250e+001
9.844837e+002, 5.206099e+001
9.849658e+002, 5.149099e+001
9.854479e+002, 5.078985e+001
9.859301e+002, 5.042723e+001
9.864122e+002, 5.092699e+001
9.868943e+002, 5.196816e+001
9.873764e+002, 5.235301e+001
9.878585e+002, 5.197368e+001
9.883406e+002, 5.162029e+001
9.888228e+002, 5.130140e+001
9.893049e+002, 5.111670e+001
9.897870e+002, 5.112706e+001
9.902691e+002, 5.126864e+001
9.907512e+002, 5.153870e+001
9.912333e+002, 5.189825e+001
9.917155e+002, 5.180896e+001
9.921976e+002, 5.082167e+001
9.926797e+002, 5.035756e+001
9.931618e+002, 5.095002e+001
9.936439e+002, 5.146696e+001
9.941260e+002, 5.120178e+001
9.946082e+002, 5.065597e+001
9.950903e+002, 5.056241e+001
9.955724e+002, 5.093641e+001
9.960545e+002, 5.128133e+001
9.965366e+002, 5.189680e+001
9.970187e+002, 5.202803e+001
9.975009e+002, 5.086607e+001
9.979830e+002, 4.988772e+001
9.984651e+002, 5.025053e+001
9.989472e+002, 5.130402e+001
9.994293e+002, 5.191035e+001
9.999114e+002, 5.190678e+001
1.000394e+003, 5.180060e+001
1.000876e+003, 5.152097e+001
1.001358e+003, 5.143196e+001
1.001840e+003, 5.188643e+001
1.002322e+003, 5.242749e+001
1.002804e+003, 5.283517e+001
1.003286e+003, 5.294955e+001
1.003768e+003, 5.229999e+001
1.004250e+003, 5.068788e+001
1.004733e+003, 4.969464e+001
1.005215e+003, 5.081043e+001
1.005697e+003, 5.217189e+001
1.006179e+003, 5.241094e+001
1.006661e+003, 5.204417e+001
1.007143e+003, 5.161020e+001
1.007625e+003, 5.127148e+001
1.008107e+003, 5.120448e+001
1.008590e+003, 5.150935e+001
1.009072e+003, 5.174517e+001
1.009554e+003, 5.128622e+001
1.010036e+003, 5.076622e+001
1.010518e+003, 5.112362e+001
1.011000e+003, 5.194113e+001
1.011482e+003, 5.245933e+001
1.011964e+003, 5.251453e+001
1.012446e+003, 5.210626e+001
1.012929e+003, 5.118724e+001
1.013411e+003, 5.023379e+001
1.013893e+003, 4.975108e+001
1.014375e+003, 4.967439e+001
1.014857e+003, 5.009285e+001
1.015339e+003, 5.079564e+001
1.015821e+003, 5.097258e+001
1.016303e+003, 5.052415e+001
1.016786e+003, 5.027983e+001
1.017268e+003, 5.084654e+001
1.017750e+003, 5.165493e+001
1.018232e+003, 5.166779e+001
1.018714e+003, 5.111970e+001
1.019196e+003, 5.111371e+001
1.019678e+003, 5.158370e+001
1.020160e+003, 5.153290e+001
1.020642e+003, 5.069149e+001
1.021125e+003, 4.991198e+001
1.021607e+003, 4.990496e+001
1.022089e+003, 5.030511e+001
1.022571e+003, 5.018233e+001
1.023053e+003, 4.958634e+001
1.023535e+003, 4.963451e+001
1.024017e+003, 5.040347e+001
1.024499e+003, 5.081571e+001
1.024981e+003, 5.049912e+001
1.025464e+003, 4.997605e+001
1.025946e+003, 4.968810e+001
1.026428e+003, 4.961704e+001
1.026910e+003, 4.982013e+001
1.027392e+003, 5.038884e+001
1.027874e+003, 5.024014e+001
1.028356e+003, 4.914633e+001
1.028838e+003, 4.822964e+001
1.029321e+003, 4.780907e+001
1.029803e+003, 4.794800e+001
1.030285e+003, 4.890374e+001
1.030767e+003, 5.034662e+001
1.031249e+003, 5.065806e+001
1.031731e+003, 4.929902e+001
1.032213e+003, 4.898993e+001
1.032695e+003, 5.035309e+001
1.033177e+003, 5.133656e+001
1.033660e+003, 5.106680e+001
1.034142e+003, 5.031422e+001
1.034624e+003, 4.980700e+001
1.035106e+003, 4.952476e+001
1.035588e+003, 4.936409e+001
1.036070e+003, 4.933392e+001
1.036552e+003, 4.942601e+001
1.037034e+003, 4.986452e+001
1.037516e+003, 5.002308e+001
1.037999e+003, 4.942785e+001
1.038481e+003, 4.869740e+001
1.038963e+003, 4.847364e+001
1.039445e+003, 4.871242e+001
1.039927e+003, 4.908410e+001
1.040409e+003, 5.000061e+001
1.040891e+003, 5.031369e+001
1.041373e+003, 4.927195e+001
1.041856e+003, 4.858157e+001
1.042338e+003, 4.922542e+001
1.042820e+003, 5.025931e+001
1.043302e+003, 5.082708e+001
1.043784e+003, 5.093667e+001
1.044266e+003, 5.069291e+001
1.044748e+003, 4.976599e+001
1.045230e+003, 4.904781e+001
1.045713e+003, 4.841972e+001
1.046195e+003, 4.820763e+001
1.046677e+003, 4.894395e+001
1.047159e+003, 4.987362e+001
1.047641e+003, 5.011433e+001
1.048123e+003, 4.974913e+001
1.048605e+003, 4.958061e+001
1.049087e+003, 4.991980e+001
1.049569e+003, 5.004610e+001
1.050052e+003, 4.975972e+001
1.050534e+003, 4.935479e+001
1.051016e+003, 4.873768e+001
1.051498e+003, 4.823032e+001
1.051980e+003, 4.820299e+001
1.052462e+003, 4.862724e+001
1.052944e+003, 4.922544e+001
1.053426e+003, 5.030659e+001
1.053908e+003, 5.083178e+001
1.054391e+003, 5.015055e+001
1.054873e+003, 4.933855e+001
1.055355e+003, 4.884772e+001
1.055837e+003, 4.858163e+001
1.056319e+003, 4.836293e+001
1.056801e+003, 4.822020e+001
1.057283e+003, 4.839353e+001
1.057765e+003, 4.917460e+001
1.058248e+003, 4.971054e+001
1.058730e+003, 4.951026e+001
1.059212e+003, 4.927840e+001
1.059694e+003, 4.942662e+001
1.060176e+003, 4.974392e+001
1.060658e+003, 5.005134e+001
1.061140e+003, 5.028284e+001
1.061622e+003, 5.030993e+001
1.062104e+003, 5.008482e+001
1.062587e+003, 4.969059e+001
1.063069e+003, 4.882451e+001
1.063551e+003, 4.817702e+001
1.064033e+003, 4.845411e+001
1.064515e+003, 4.895677e+001
1.064997e+003, 4.872082e+001
1.065479e+003, 4.792507e+001
1.065961e+003, 4.754368e+001
1.066443e+003, 4.788827e+001
1.066926e+003, 4.854914e+001
1.067408e+003, 4.982830e+001
1.067890e+003, 5.083907e+001
1.068372e+003, 5.092000e+001
1.068854e+003, 5.054297e+001
1.069336e+003, 5.013314e+001
1.069818e+003, 4.979243e+001
1.070300e+003, 4.960490e+001
1.070783e+003, 4.962764e+001
1.071265e+003, 4.963478e+001
1.071747e+003, 4.957827e+001
1.072229e+003, 4.941629e+001
1.072711e+003, 4.897634e+001
1.073193e+003, 4.852946e+001
1.073675e+003, 4.834820e+001
1.074157e+003, 4.842902e+001
1.074640e+003, 4.866050e+001
1.075122e+003, 4.901148e+001
1.075604e+003, 4.952129e+001
1.076086e+003, 5.070947e+001
1.076568e+003, 5.146746e+001
1.077050e+003, 5.076088e+001
1.077532e+003, 4.960431e+001
1.078014e+003, 4.897734e+001
1.078496e+003, 4.883316e+001
1.078979e+003, 4.879420e+001
1.079461e+003, 4.877001e+001
1.079943e+003, 4.870213e+001
1.080425e+003, 4.851481e+001
1.080907e+003, 4.833751e+001
1.081389e+003, 4.823803e+001
1.081871e+003, 4.818597e+001
1.082353e+003, 4.811723e+001
1.082836e+003, 4.808207e+001
1.083318e+003, 4.825909e+001
1.083800e+003, 4.868127e+001
1.084282e+003, 4.889772e+001
1.084764e+003, 4.855138e+001
1.085246e+003, 4.816034e+001
1.085728e+003, 4.791328e+001
1.086210e+003, 4.779644e+001
1.086693e+003, 4.791880e+001
1.087175e+003, 4.810897e+001
1.087657e+003, 4.798152e+001
1.088139e+003, 4.751000e+001
1.088621e+003, 4.731947e+001
1.089103e+003, 4.793553e+001
1.089585e+003, 4.849177e+001
1.090067e+003, 4.846893e+001
1.090549e+003, 4.838932e+001
1.091031e+003, 4.886929e+001
1.091514e+003, 4.944608e+001
1.091996e+003, 4.917638e+001
1.092478e+003, 4.810573e+001
1.092960e+003, 4.760172e+001
1.093442e+003, 4.857880e+001
1.093924e+003, 4.932639e+001
1.094406e+003, 4.892017e+001
1.094888e+003, 4.839364e+001
1.095371e+003, 4.840469e+001
1.095853e+003, 4.870856e+001
1.096335e+003, 4.898570e+001
1.096817e+003, 4.920359e+001
1.097299e+003, 4.947365e+001
1.097781e+003, 5.003591e+001
1.098263e+003, 5.010939e+001
1.098745e+003, 4.892872e+001
1.099228e+003, 4.781019e+001
1.099710e+003, 4.740824e+001
1.100192e+003, 4.744796e+001
1.100674e+003, 4.772480e+001
1.101156e+003, 4.814837e+001
1.101638e+003, 4.859410e+001
1.102120e+003, 4.914741e+001
1.102602e+003, 4.930054e+001
1.103084e+003, 4.871034e+001
1.103567e+003, 4.797979e+001
1.104049e+003, 4.705096e+001
1.104531e+003, 4.634144e+001
1.105013e+003, 4.631845e+001
1.105495e+003, 4.675477e+001
1.105977e+003, 4.709840e+001
1.106459e+003, 4.727670e+001
1.106941e+003, 4.741219e+001
1.107423e+003, 4.772179e+001
1.107906e+003, 4.771664e+001
1.108388e+003, 4.674837e+001
1.108870e+003, 4.595610e+001
1.109352e+003, 4.639032e+001
1.109834e+003, 4.737822e+001
1.110316e+003, 4.761671e+001
1.110798e+003, 4.698320e+001
1.111280e+003, 4.686372e+001
1.111763e+003, 4.805806e+001
1.112245e+003, 4.872911e+001
1.112727e+003, 4.821601e+001
1.113209e+003, 4.763763e+001
1.113691e+003, 4.752085e+001
1.114173e+003, 4.764875e+001
1.114655e+003, 4.785457e+001
1.115137e+003, 4.810706e+001
1.115620e+003, 4.798444e+001
1.116102e+003, 4.692582e+001
1.116584e+003, 4.651246e+001
1.117066e+003, 4.761995e+001
1.117548e+003, 4.807016e+001
1.118030e+003, 4.637160e+001
1.118512e+003, 4.451133e+001
1.118994e+003, 4.450817e+001
1.119476e+003, 4.590059e+001
1.119958e+003, 4.685729e+001
1.120441e+003, 4.738043e+001
1.120923e+003, 4.740753e+001
1.121405e+003, 4.656965e+001
1.121887e+003, 4.607873e+001
1.122369e+003, 4.645508e+001
1.122851e+003, 4.685434e+001
1.123333e+003, 4.657439e+001
1.123815e+003, 4.597064e+001
1.124298e+003, 4.585558e+001
1.124780e+003, 4.627976e+001
1.125262e+003, 4.653345e+001
1.125744e+003, 4.656811e+001
1.126226e+003, 4.657721e+001
1.126708e+003, 4.652473e+001
1.127190e+003, 4.675230e+001
1.127672e+003, 4.762061e+001
1.128155e+003, 4.840257e+001
1.128637e+003, 4.787712e+001
1.129119e+003, 4.629949e+001
1.129601e+003, 4.597425e+001
1.130083e+003, 4.705854e+001
1.130565e+003, 4.752363e+001
1.131047e+003, 4.706553e+001
1.131529e+003, 4.704116e+001
1.132011e+003, 4.807759e+001
1.132494e+003, 4.910482e+001
1.132976e+003, 4.897742e+001
1.133458e+003, 4.814400e+001
1.133940e+003, 4.792790e+001
1.134422e+003, 4.827066e+001
1.134904e+003, 4.854180e+001
1.135386e+003, 4.869216e+001
1.135868e+003, 4.818607e+001
1.136350e+003, 4.690033e+001
1.136833e+003, 4.593415e+001
1.137315e+003, 4.610114e+001
1.137797e+003, 4.677485e+001
1.138279e+003, 4.687195e+001
1.138761e+003, 4.660490e+001
1.139243e+003, 4.675086e+001
1.139725e+003, 4.721068e+001
1.140207e+003, 4.755372e+001
1.140690e+003, 4.771369e+001
1.141172e+003, 4.781162e+001
1.141654e+003, 4.790556e+001
1.142136e+003, 4.793972e+001
1.142618e+003, 4.789194e+001
1.143100e+003, 4.770499e+001
1.143582e+003, 4.697078e+001
1.144064e+003, 4.615983e+001
1.144547e+003, 4.658970e+001
1.145029e+003, 4.785146e+001
1.145511e+003, 4.824769e+001
1.145993e+003, 4.739315e+001
1.146475e+003, 4.657114e+001
1.146957e+003, 4.665412e+001
1.147439e+003, 4.711275e+001
1.147921e+003, 4.780263e+001
1.148403e+003, 4.825906e+001
1.148885e+003, 4.757322e+001
1.149368e+003, 4.639844e+001
1.149850e+003, 4.579123e+001
1.150332e+003, 4.592466e+001
1.150814e+003, 4.670118e+001
1.151296e+003, 4.826539e+001
1.151778e+003, 4.932444e+001
1.152260e+003, 4.888480e+001
1.152742e+003, 4.792458e+001
1.153225e+003, 4.658103e+001
1.153707e+003, 4.548776e+001
1.154189e+003, 4.557795e+001
1.154671e+003, 4.635851e+001
1.155153e+003, 4.649949e+001
1.155635e+003, 4.572302e+001
1.156117e+003, 4.545288e+001
1.156599e+003, 4.669551e+001
1.157082e+003, 4.771338e+001
1.157564e+003, 4.807818e+001
1.158046e+003, 4.793602e+001
1.158528e+003, 4.678943e+001
1.159010e+003, 4.556215e+001
1.159492e+003, 4.569151e+001
1.159974e+003, 4.702080e+001
1.160456e+003, 4.766283e+001
1.160938e+003, 4.693273e+001
1.161421e+003, 4.655482e+001
1.161903e+003, 4.685770e+001
1.162385e+003, 4.714581e+001
1.162867e+003, 4.725062e+001
1.163349e+003, 4.725806e+001
1.163831e+003, 4.729191e+001
1.164313e+003, 4.724087e+001
1.164795e+003, 4.677301e+001
1.165277e+003, 4.578889e+001
1.165760e+003, 4.522353e+001
1.166242e+003, 4.516545e+001
1.166724e+003, 4.524504e+001
1.167206e+003, 4.540144e+001
1.167688e+003, 4.573818e+001
1.168170e+003, 4.638382e+001
1.168652e+003, 4.701072e+001
1.169134e+003, 4.715252e+001
1.169617e+003, 4.694946e+001
1.170099e+003, 4.713525e+001
1.170581e+003, 4.771881e+001
1.171063e+003, 4.791043e+001
1.171545e+003, 4.766029e+001
1.172027e+003, 4.721589e+001
1.172509e+003, 4.664380e+001
1.172991e+003, 4.636068e+001
1.173474e+003, 4.672822e+001
1.173956e+003, 4.729987e+001
1.174438e+003, 4.723774e+001
1.174920e+003, 4.676651e+001
1.175402e+003, 4.666652e+001
1.175884e+003, 4.681118e+001
1.176366e+003, 4.663200e+001
1.176848e+003, 4.614519e+001
1.177330e+003, 4.598600e+001
1.177813e+003, 4.640266e+001
1.178295e+003, 4.668987e+001
1.178777e+003, 4.604293e+001
1.179259e+003, 4.520301e+001
1.179741e+003, 4.506550e+001
1.180223e+003, 4.534568e+001
1.180705e+003, 4.573671e+001
1.181187e+003, 4.617317e+001
1.181669e+003, 4.671596e+001
1.182152e+003, 4.727751e+001
1.182634e+003, 4.741862e+001
1.183116e+003, 4.685341e+001
1.183598e+003, 4.616713e+001
1.184080e+003, 4.560405e+001
1.184562e+003, 4.514982e+001
1.185044e+003, 4.470448e+001
1.185526e+003, 4.443809e+001
1.186009e+003, 4.453865e+001
1.186491e+003, 4.495817e+001
1.186973e+003, 4.567408e+001
1.187455e+003, 4.671992e+001
1.187937e+003, 4.730458e+001
1.188419e+003, 4.703106e+001
1.188901e+003, 4.664834e+001
1.189383e+003, 4.620401e+001
1.189865e+003, 4.579604e+001
1.190348e+003, 4.521724e+001
1.190830e+003, 4.491193e+001
1.191312e+003, 4.560325e+001
1.191794e+003, 4.700261e+001
1.192276e+003, 4.766113e+001
1.192758e+003, 4.734013e+001
1.193240e+003, 4.709512e+001
1.193722e+003, 4.697210e+001
1.194204e+003, 4.679510e+001
1.194687e+003, 4.653490e+001
1.195169e+003, 4.614547e+001
1.195651e+003, 4.552700e+001
1.196133e+003, 4.495903e+001
1.196615e+003, 4.491105e+001
1.197097e+003, 4.530557e+001
1.197579e+003, 4.568296e+001
1.198061e+003, 4.604805e+001
1.198544e+003, 4.654939e+001
1.199026e+003, 4.716694e+001
1.199508e+003, 4.726463e+001
1.199990e+003, 4.666253e+001
1.200472e+003, 4.622558e+001
1.200954e+003, 4.668005e+001
1.201436e+003, 4.747977e+001
1.201918e+003, 4.795801e+001
1.202401e+003, 4.809421e+001
1.202883e+003, 4.761172e+001
1.203365e+003, 4.683748e+001
1.203847e+003, 4.658691e+001
1.204329e+003, 4.680768e+001
1.204811e+003, 4.682130e+001
1.205293e+003, 4.638888e+001
1.205775e+003, 4.602147e+001
1.206257e+003, 4.612865e+001
1.206740e+003, 4.634140e+001
1.207222e+003, 4.651147e+001
1.207704e+003, 4.655110e+001
1.208186e+003, 4.626439e+001
1.208668e+003, 4.586369e+001
1.209150e+003, 4.555601e+001
1.209632e+003, 4.543014e+001
1.210114e+003, 4.578800e+001
1.210596e+003, 4.705988e+001
1.211079e+003, 4.760158e+001
1.211561e+003, 4.621523e+001
1.212043e+003, 4.526726e+001
1.212525e+003, 4.598065e+001
1.213007e+003, 4.679665e+001
1.213489e+003, 4.648658e+001
1.213971e+003, 4.583462e+001
1.214453e+003, 4.618829e+001
1.214936e+003, 4.745565e+001
1.215418e+003, 4.793091e+001
1.215900e+003, 4.744938e+001
1.216382e+003, 4.671395e+001
1.216864e+003, 4.561571e+001
1.217346e+003, 4.495946e+001
1.217828e+003, 4.505750e+001
1.218310e+003, 4.532739e+001
1.218792e+003, 4.531268e+001
1.219275e+003, 4.525220e+001
1.219757e+003, 4.566627e+001
1.220239e+003, 4.640966e+001
1.220721e+003, 4.692165e+001
1.221203e+003, 4.713428e+001
1.221685e+003, 4.638188e+001
1.222167e+003, 4.487395e+001
1.222649e+003, 4.419426e+001
1.223131e+003, 4.482664e+001
1.223614e+003, 4.559696e+001
1.224096e+003, 4.562527e+001
1.224578e+003, 4.538210e+001
1.225060e+003, 4.526563e+001
1.225542e+003, 4.527528e+001
1.226024e+003, 4.567057e+001
1.226506e+003, 4.603228e+001
1.226988e+003, 4.541990e+001
1.227471e+003, 4.421593e+001
1.227953e+003, 4.378738e+001
1.228435e+003, 4.453300e+001
1.228917e+003, 4.546192e+001
1.229399e+003, 4.672630e+001
1.229881e+003, 4.734138e+001
1.230363e+003, 4.634554e+001
1.230845e+003, 4.534438e+001
1.231328e+003, 4.533002e+001
1.231810e+003, 4.578306e+001
1.232292e+003, 4.625719e+001
1.232774e+003, 4.663481e+001
1.233256e+003, 4.641003e+001
1.233738e+003, 4.530780e+001
1.234220e+003, 4.480756e+001
1.234702e+003, 4.506322e+001
1.235184e+003, 4.547024e+001
1.235667e+003, 4.600395e+001
1.236149e+003, 4.633247e+001
1.236631e+003, 4.625744e+001
1.237113e+003, 4.602311e+001
1.237595e+003, 4.592493e+001
1.238077e+003, 4.588688e+001
1.238559e+003, 4.563557e+001
1.239041e+003, 4.523223e+001
1.239523e+003, 4.492850e+001
1.240006e+003, 4.476866e+001
1.240488e+003, 4.502089e+001
1.240970e+003, 4.563124e+001
1.241452e+003, 4.598464e+001
1.241934e+003, 4.577795e+001
1.242416e+003, 4.536556e+001
1.242898e+003, 4.477560e+001
1.243380e+003, 4.447992e+001
1.243863e+003, 4.509660e+001
1.244345e+003, 4.614202e+001
1.244827e+003, 4.749585e+001
1.245309e+003, 4.864605e+001
1.245791e+003, 4.869127e+001
1.246273e+003, 4.772909e+001
1.246755e+003, 4.680586e+001
1.247237e+003, 4.615406e+001
1.247719e+003, 4.566075e+001
1.248202e+003, 4.504984e+001
1.248684e+003, 4.494220e+001
1.249166e+003, 4.612781e+001
1.249648e+003, 4.716187e+001
1.250130e+003, 4.709209e+001
1.250612e+003, 4.656350e+001
1.251094e+003, 4.646815e+001
1.251576e+003, 4.669317e+001
1.252058e+003, 4.641870e+001
1.252541e+003, 4.549388e+001
1.253023e+003, 4.530168e+001
1.253505e+003, 4.597236e+001
1.253987e+003, 4.612954e+001
1.254469e+003, 4.544083e+001
1.254951e+003, 4.482835e+001
1.255433e+003, 4.482505e+001
1.255915e+003, 4.509150e+001
1.256398e+003, 4.525334e+001
1.256880e+003, 4.535319e+001
1.257362e+003, 4.545360e+001
1.257844e+003, 4.556489e+001
1.258326e+003, 4.572081e+001
1.258808e+003, 4.590064e+001
1.259290e+003, 4.610021e+001
1.259772e+003, 4.627638e+001
1.260255e+003, 4.628411e+001
1.260737e+003, 4.605761e+001
1.261219e+003, 4.571448e+001
1.261701e+003, 4.512545e+001
1.262183e+003, 4.469250e+001
1.262665e+003, 4.397595e+001
1.263147e+003, 4.415639e+001
1.263629e+003, 4.753339e+001
1.264111e+003, 5.141266e+001
1.264594e+003, 5.140453e+001
1.265076e+003, 4.823536e+001
1.265558e+003, 4.682821e+001
1.266040e+003, 4.796453e+001
1.266522e+003, 4.791125e+001
1.267004e+003, 4.614196e+001
1.267486e+003, 4.512892e+001
1.267968e+003, 4.552132e+001
1.268450e+003, 4.576512e+001
1.268933e+003, 4.500754e+001
1.269415e+003, 4.419120e+001
1.269897e+003, 4.442960e+001
1.270379e+003, 4.525424e+001
1.270861e+003, 4.560165e+001
1.271343e+003, 4.557326e+001
1.271825e+003, 4.545353e+001
1.272307e+003, 4.524001e+001
1.272790e+003, 4.478966e+001
1.273272e+003, 4.417761e+001
1.273754e+003, 4.376319e+001
1.274236e+003, 4.367658e+001
1.274718e+003, 4.372164e+001
1.275200e+003, 4.388300e+001
1.275682e+003, 4.397211e+001
1.276164e+003, 4.368410e+001
1.276646e+003, 4.349819e+001
1.277129e+003, 4.395376e+001
1.277611e+003, 4.455154e+001
1.278093e+003, 4.469622e+001
1.278575e+003, 4.447771e+001
1.279057e+003, 4.421888e+001
1.279539e+003, 4.387015e+001
1.280021e+003, 4.403900e+001
1.280503e+003, 4.492652e+001
1.280985e+003, 4.577953e+001
1.281468e+003, 4.663179e+001
1.281950e+003, 4.705658e+001
1.282432e+003, 4.685718e+001
1.282914e+003, 4.634020e+001
1.283396e+003, 4.568304e+001
1.283878e+003, 4.520088e+001
1.284360e+003, 4.573652e+001
1.284842e+003, 4.679144e+001
1.285325e+003, 4.696856e+001
1.285807e+003, 4.628090e+001
1.286289e+003, 0.000000e+000
1.286771e+003, 0.000000e+000
1.287253e+003, 0.000000e+000
1.287735e+003, 0.000000e+000
1.288217e+003, 0.000000e+000
1.288699e+003, 0.000000e+000
1.289182e+003, 0.000000e+000
1.289664e+003, 0.000000e+000
1.290146e+003, 0.000000e+000
1.290628e+003, 0.000000e+000
1.291110e+003, 0.000000e+000
1.291592e+003, 0.000000e+000
1.292074e+003, 0.000000e+000
1.292556e+003, 0.000000e+000
1.293038e+003, 0.000000e+000
1.293521e+003, 0.000000e+000
1.294003e+003, 0.000000e+000
1.294485e+003, 0.000000e+000
1.294967e+003, 0.000000e+000
1.295449e+003, 0.000000e+000
1.295931e+003, 0.000000e+000
1.296413e+003, 0.000000e+000
1.296895e+003, 0.000000e+000
1.297377e+003, 0.000000e+000
1.297860e+003, 0.000000e+000
1.298342e+003, 0.000000e+000
1.298824e+003, 0.000000e+000
1.299306e+003, 0.000000e+000
1.299788e+003, 0.000000e+000
1.300270e+003, 0.000000e+000
1.300752e+003, 0.000000e+000
1.301234e+003, 0.000000e+000
1.301717e+003, 0.000000e+000
1.302199e+003, 0.000000e+000
1.302681e+003, 0.000000e+000
1.303163e+003, 0.000000e+000
##END=



