##NAMES=Gianellaite
##RRUFFID=R130648
##IDEAL CHEMISTRY=[(N^3-^Hg^2+^_2_)_2_](S^6+^O_4_)(H_2_O)_<i>x</i>_
##LOCALITY=Perry Pit, Mariposa mine, Terlingua District, Brewster County, Texas, USA
##OWNER=RRUFF
##SOURCE=Rock Currier
##DESCRIPTION=Aggregate of granular vitreous yellow-grey to grey crystals on Fe-rich siliceous matrix
##STATUS=The identification of this mineral has been confirmed only by single crystal X-ray diffraction.
##URL=rruff.info/R130648
8.806445e+001, 1.994898e+003
8.854657e+001, 1.939611e+003
8.902869e+001, 1.920495e+003
8.951080e+001, 1.954861e+003
8.999292e+001, 2.017527e+003
9.047504e+001, 2.085413e+003
9.095715e+001, 2.153845e+003
9.143927e+001, 2.222443e+003
9.192139e+001, 2.291681e+003
9.240350e+001, 2.361387e+003
9.288562e+001, 2.430065e+003
9.336774e+001, 2.479615e+003
9.384985e+001, 2.494351e+003
9.433197e+001, 2.478255e+003
9.481409e+001, 2.468809e+003
9.529620e+001, 2.452845e+003
9.577832e+001, 2.436355e+003
9.626044e+001, 2.420916e+003
9.674255e+001, 2.404247e+003
9.722467e+001, 2.383459e+003
9.770679e+001, 2.359041e+003
9.818890e+001, 2.328111e+003
9.867102e+001, 2.287005e+003
9.915314e+001, 2.241924e+003
9.963525e+001, 2.196112e+003
1.001174e+002, 2.150619e+003
1.005995e+002, 2.106573e+003
1.010816e+002, 2.068315e+003
1.015637e+002, 2.037925e+003
1.020458e+002, 2.010987e+003
1.025280e+002, 1.987237e+003
1.030101e+002, 1.965999e+003
1.034922e+002, 1.946431e+003
1.039743e+002, 1.928064e+003
1.044564e+002, 1.910761e+003
1.049385e+002, 1.895238e+003
1.054207e+002, 1.881757e+003
1.059028e+002, 1.868994e+003
1.063849e+002, 1.857103e+003
1.068670e+002, 1.845776e+003
1.073491e+002, 1.832885e+003
1.078312e+002, 1.815428e+003
1.083134e+002, 1.793688e+003
1.087955e+002, 1.774153e+003
1.092776e+002, 1.758405e+003
1.097597e+002, 1.745038e+003
1.102418e+002, 1.732107e+003
1.107239e+002, 1.719311e+003
1.112061e+002, 1.707024e+003
1.116882e+002, 1.695424e+003
1.121703e+002, 1.684403e+003
1.126524e+002, 1.674319e+003
1.131345e+002, 1.666078e+003
1.136166e+002, 1.659479e+003
1.140988e+002, 1.651397e+003
1.145809e+002, 1.639778e+003
1.150630e+002, 1.627858e+003
1.155451e+002, 1.617232e+003
1.160272e+002, 1.608023e+003
1.165093e+002, 1.599844e+003
1.169915e+002, 1.592395e+003
1.174736e+002, 1.586123e+003
1.179557e+002, 1.579380e+003
1.184378e+002, 1.570545e+003
1.189199e+002, 1.562163e+003
1.194020e+002, 1.556007e+003
1.198842e+002, 1.552656e+003
1.203663e+002, 1.551466e+003
1.208484e+002, 1.550977e+003
1.213305e+002, 1.550736e+003
1.218126e+002, 1.551910e+003
1.222947e+002, 1.555547e+003
1.227769e+002, 1.560358e+003
1.232590e+002, 1.565216e+003
1.237411e+002, 1.569840e+003
1.242232e+002, 1.573519e+003
1.247053e+002, 1.572678e+003
1.251874e+002, 1.567722e+003
1.256696e+002, 1.559336e+003
1.261517e+002, 1.545929e+003
1.266338e+002, 1.528603e+003
1.271159e+002, 1.511396e+003
1.275980e+002, 1.496435e+003
1.280801e+002, 1.483907e+003
1.285623e+002, 1.473052e+003
1.290444e+002, 1.464413e+003
1.295265e+002, 1.457069e+003
1.300086e+002, 1.450162e+003
1.304907e+002, 1.443717e+003
1.309728e+002, 1.437705e+003
1.314550e+002, 1.432401e+003
1.319371e+002, 1.427457e+003
1.324192e+002, 1.422443e+003
1.329013e+002, 1.416916e+003
1.333834e+002, 1.411234e+003
1.338655e+002, 1.406486e+003
1.343477e+002, 1.403012e+003
1.348298e+002, 1.400096e+003
1.353119e+002, 1.397703e+003
1.357940e+002, 1.395588e+003
1.362761e+002, 1.393296e+003
1.367582e+002, 1.390312e+003
1.372404e+002, 1.386613e+003
1.377225e+002, 1.383877e+003
1.382046e+002, 1.383818e+003
1.386867e+002, 1.383276e+003
1.391688e+002, 1.380905e+003
1.396509e+002, 1.376990e+003
1.401331e+002, 1.372764e+003
1.406152e+002, 1.369452e+003
1.410973e+002, 1.367346e+003
1.415794e+002, 1.365292e+003
1.420615e+002, 1.362728e+003
1.425436e+002, 1.360599e+003
1.430258e+002, 1.359661e+003
1.435079e+002, 1.359974e+003
1.439900e+002, 1.360827e+003
1.444721e+002, 1.361275e+003
1.449542e+002, 1.361092e+003
1.454363e+002, 1.361028e+003
1.459185e+002, 1.361395e+003
1.464006e+002, 1.361768e+003
1.468827e+002, 1.361698e+003
1.473648e+002, 1.361062e+003
1.478469e+002, 1.359890e+003
1.483290e+002, 1.357998e+003
1.488112e+002, 1.355334e+003
1.492933e+002, 1.352734e+003
1.497754e+002, 1.350646e+003
1.502575e+002, 1.348875e+003
1.507396e+002, 1.346859e+003
1.512217e+002, 1.344550e+003
1.517039e+002, 1.341741e+003
1.521860e+002, 1.338154e+003
1.526681e+002, 1.333656e+003
1.531502e+002, 1.329350e+003
1.536323e+002, 1.326335e+003
1.541144e+002, 1.324686e+003
1.545966e+002, 1.322615e+003
1.550787e+002, 1.319680e+003
1.555608e+002, 1.316061e+003
1.560429e+002, 1.311690e+003
1.565250e+002, 1.306511e+003
1.570071e+002, 1.301040e+003
1.574893e+002, 1.295840e+003
1.579714e+002, 1.290719e+003
1.584535e+002, 1.286475e+003
1.589356e+002, 1.283260e+003
1.594177e+002, 1.280804e+003
1.598998e+002, 1.279000e+003
1.603820e+002, 1.277808e+003
1.608641e+002, 1.277156e+003
1.613462e+002, 1.276860e+003
1.618283e+002, 1.276603e+003
1.623104e+002, 1.277284e+003
1.627925e+002, 1.279740e+003
1.632747e+002, 1.282825e+003
1.637568e+002, 1.285893e+003
1.642389e+002, 1.288675e+003
1.647210e+002, 1.290466e+003
1.652031e+002, 1.288056e+003
1.656852e+002, 1.279211e+003
1.661674e+002, 1.268723e+003
1.666495e+002, 1.255319e+003
1.671316e+002, 1.240879e+003
1.676137e+002, 1.228656e+003
1.680958e+002, 1.220558e+003
1.685779e+002, 1.216133e+003
1.690601e+002, 1.212213e+003
1.695422e+002, 1.209113e+003
1.700243e+002, 1.206088e+003
1.705064e+002, 1.202442e+003
1.709885e+002, 1.198465e+003
1.714706e+002, 1.195339e+003
1.719528e+002, 1.194045e+003
1.724349e+002, 1.194224e+003
1.729170e+002, 1.193851e+003
1.733991e+002, 1.192827e+003
1.738812e+002, 1.191332e+003
1.743633e+002, 1.189179e+003
1.748455e+002, 1.186337e+003
1.753276e+002, 1.183901e+003
1.758097e+002, 1.182764e+003
1.762918e+002, 1.182475e+003
1.767739e+002, 1.182279e+003
1.772560e+002, 1.182245e+003
1.777382e+002, 1.182092e+003
1.782203e+002, 1.181347e+003
1.787024e+002, 1.179851e+003
1.791845e+002, 1.178304e+003
1.796666e+002, 1.176734e+003
1.801487e+002, 1.175417e+003
1.806309e+002, 1.174855e+003
1.811130e+002, 1.175578e+003
1.815951e+002, 1.177004e+003
1.820772e+002, 1.177463e+003
1.825593e+002, 1.176246e+003
1.830414e+002, 1.175197e+003
1.835236e+002, 1.175080e+003
1.840057e+002, 1.175486e+003
1.844878e+002, 1.175902e+003
1.849699e+002, 1.176132e+003
1.854520e+002, 1.176092e+003
1.859341e+002, 1.175233e+003
1.864163e+002, 1.172809e+003
1.868984e+002, 1.170308e+003
1.873805e+002, 1.167666e+003
1.878626e+002, 1.165208e+003
1.883447e+002, 1.163536e+003
1.888268e+002, 1.163208e+003
1.893090e+002, 1.164157e+003
1.897911e+002, 1.163869e+003
1.902732e+002, 1.161158e+003
1.907553e+002, 1.158431e+003
1.912374e+002, 1.156326e+003
1.917195e+002, 1.154728e+003
1.922017e+002, 1.153209e+003
1.926838e+002, 1.151434e+003
1.931659e+002, 1.149369e+003
1.936480e+002, 1.147621e+003
1.941301e+002, 1.146657e+003
1.946122e+002, 1.145496e+003
1.950944e+002, 1.143422e+003
1.955765e+002, 1.140681e+003
1.960586e+002, 1.138168e+003
1.965407e+002, 1.136642e+003
1.970228e+002, 1.136163e+003
1.975049e+002, 1.135710e+003
1.979871e+002, 1.135425e+003
1.984692e+002, 1.135036e+003
1.989513e+002, 1.134224e+003
1.994334e+002, 1.133038e+003
1.999155e+002, 1.131948e+003
2.003976e+002, 1.131255e+003
2.008798e+002, 1.131030e+003
2.013619e+002, 1.131311e+003
2.018440e+002, 1.132545e+003
2.023261e+002, 1.134012e+003
2.028082e+002, 1.135305e+003
2.032903e+002, 1.136424e+003
2.037725e+002, 1.136816e+003
2.042546e+002, 1.135396e+003
2.047367e+002, 1.132846e+003
2.052188e+002, 1.131136e+003
2.057009e+002, 1.131130e+003
2.061830e+002, 1.131950e+003
2.066652e+002, 1.132566e+003
2.071473e+002, 1.133009e+003
2.076294e+002, 1.133082e+003
2.081115e+002, 1.132208e+003
2.085936e+002, 1.130920e+003
2.090757e+002, 1.130074e+003
2.095579e+002, 1.130260e+003
2.100400e+002, 1.130969e+003
2.105221e+002, 1.131061e+003
2.110042e+002, 1.130151e+003
2.114863e+002, 1.129501e+003
2.119685e+002, 1.130140e+003
2.124506e+002, 1.131338e+003
2.129327e+002, 1.132027e+003
2.134148e+002, 1.131625e+003
2.138969e+002, 1.130400e+003
2.143790e+002, 1.129043e+003
2.148612e+002, 1.126918e+003
2.153433e+002, 1.125807e+003
2.158254e+002, 1.126996e+003
2.163075e+002, 1.129256e+003
2.167896e+002, 1.130910e+003
2.172717e+002, 1.130963e+003
2.177539e+002, 1.129739e+003
2.182360e+002, 1.128639e+003
2.187181e+002, 1.127532e+003
2.192002e+002, 1.126780e+003
2.196823e+002, 1.126684e+003
2.201644e+002, 1.126925e+003
2.206466e+002, 1.127112e+003
2.211287e+002, 1.127034e+003
2.216108e+002, 1.126682e+003
2.220929e+002, 1.125986e+003
2.225750e+002, 1.123975e+003
2.230571e+002, 1.122716e+003
2.235393e+002, 1.123050e+003
2.240214e+002, 1.124257e+003
2.245035e+002, 1.125326e+003
2.249856e+002, 1.125651e+003
2.254677e+002, 1.125340e+003
2.259498e+002, 1.125057e+003
2.264320e+002, 1.124139e+003
2.269141e+002, 1.123998e+003
2.273962e+002, 1.125804e+003
2.278783e+002, 1.128404e+003
2.283604e+002, 1.129919e+003
2.288425e+002, 1.129178e+003
2.293247e+002, 1.126676e+003
2.298068e+002, 1.125272e+003
2.302889e+002, 1.125770e+003
2.307710e+002, 1.126353e+003
2.312531e+002, 1.126773e+003
2.317352e+002, 1.127018e+003
2.322174e+002, 1.127092e+003
2.326995e+002, 1.126981e+003
2.331816e+002, 1.126722e+003
2.336637e+002, 1.126482e+003
2.341458e+002, 1.126056e+003
2.346279e+002, 1.125859e+003
2.351101e+002, 1.126024e+003
2.355922e+002, 1.126488e+003
2.360743e+002, 1.127243e+003
2.365564e+002, 1.128387e+003
2.370385e+002, 1.129641e+003
2.375206e+002, 1.129980e+003
2.380028e+002, 1.128728e+003
2.384849e+002, 1.127823e+003
2.389670e+002, 1.128124e+003
2.394491e+002, 1.129258e+003
2.399312e+002, 1.130461e+003
2.404133e+002, 1.131508e+003
2.408955e+002, 1.132284e+003
2.413776e+002, 1.132502e+003
2.418597e+002, 1.132004e+003
2.423418e+002, 1.131472e+003
2.428239e+002, 1.130954e+003
2.433060e+002, 1.130594e+003
2.437882e+002, 1.130871e+003
2.442703e+002, 1.132136e+003
2.447524e+002, 1.133866e+003
2.452345e+002, 1.135175e+003
2.457166e+002, 1.136001e+003
2.461987e+002, 1.136776e+003
2.466809e+002, 1.137981e+003
2.471630e+002, 1.139352e+003
2.476451e+002, 1.139855e+003
2.481272e+002, 1.138700e+003
2.486093e+002, 1.137278e+003
2.490914e+002, 1.137398e+003
2.495736e+002, 1.139078e+003
2.500557e+002, 1.140719e+003
2.505378e+002, 1.141164e+003
2.510199e+002, 1.140760e+003
2.515020e+002, 1.140991e+003
2.519841e+002, 1.142453e+003
2.524663e+002, 1.144199e+003
2.529484e+002, 1.145413e+003
2.534305e+002, 1.146130e+003
2.539126e+002, 1.146671e+003
2.543947e+002, 1.147165e+003
2.548768e+002, 1.147626e+003
2.553590e+002, 1.148060e+003
2.558411e+002, 1.148232e+003
2.563232e+002, 1.148752e+003
2.568053e+002, 1.150391e+003
2.572874e+002, 1.152791e+003
2.577695e+002, 1.154670e+003
2.582516e+002, 1.154841e+003
2.587338e+002, 1.153680e+003
2.592159e+002, 1.153212e+003
2.596980e+002, 1.153712e+003
2.601801e+002, 1.154648e+003
2.606622e+002, 1.155955e+003
2.611443e+002, 1.157422e+003
2.616265e+002, 1.158582e+003
2.621086e+002, 1.159028e+003
2.625907e+002, 1.158925e+003
2.630728e+002, 1.158985e+003
2.635549e+002, 1.159098e+003
2.640370e+002, 1.159582e+003
2.645192e+002, 1.160465e+003
2.650013e+002, 1.161745e+003
2.654834e+002, 1.163532e+003
2.659655e+002, 1.166168e+003
2.664476e+002, 1.169180e+003
2.669297e+002, 1.170807e+003
2.674119e+002, 1.170107e+003
2.678940e+002, 1.169490e+003
2.683761e+002, 1.169975e+003
2.688582e+002, 1.170883e+003
2.693403e+002, 1.171241e+003
2.698224e+002, 1.170455e+003
2.703046e+002, 1.169165e+003
2.707867e+002, 1.169224e+003
2.712688e+002, 1.171499e+003
2.717509e+002, 1.173645e+003
2.722330e+002, 1.175510e+003
2.727151e+002, 1.176881e+003
2.731973e+002, 1.177380e+003
2.736794e+002, 1.176831e+003
2.741615e+002, 1.175804e+003
2.746436e+002, 1.175544e+003
2.751257e+002, 1.176546e+003
2.756078e+002, 1.177357e+003
2.760900e+002, 1.177811e+003
2.765721e+002, 1.178012e+003
2.770542e+002, 1.177898e+003
2.775363e+002, 1.177487e+003
2.780184e+002, 1.177099e+003
2.785005e+002, 1.177337e+003
2.789827e+002, 1.178611e+003
2.794648e+002, 1.179596e+003
2.799469e+002, 1.180436e+003
2.804290e+002, 1.180883e+003
2.809111e+002, 1.180670e+003
2.813932e+002, 1.179800e+003
2.818754e+002, 1.178574e+003
2.823575e+002, 1.177293e+003
2.828396e+002, 1.175745e+003
2.833217e+002, 1.174806e+003
2.838038e+002, 1.174923e+003
2.842859e+002, 1.175198e+003
2.847681e+002, 1.175260e+003
2.852502e+002, 1.175030e+003
2.857323e+002, 1.174528e+003
2.862144e+002, 1.173718e+003
2.866965e+002, 1.172500e+003
2.871786e+002, 1.171558e+003
2.876608e+002, 1.171213e+003
2.881429e+002, 1.170817e+003
2.886250e+002, 1.170042e+003
2.891071e+002, 1.168974e+003
2.895892e+002, 1.167911e+003
2.900714e+002, 1.167090e+003
2.905535e+002, 1.166520e+003
2.910356e+002, 1.165956e+003
2.915177e+002, 1.165374e+003
2.919998e+002, 1.164836e+003
2.924819e+002, 1.164269e+003
2.929641e+002, 1.163766e+003
2.934462e+002, 1.163641e+003
2.939283e+002, 1.164188e+003
2.944104e+002, 1.165139e+003
2.948925e+002, 1.164660e+003
2.953746e+002, 1.161355e+003
2.958568e+002, 1.158075e+003
2.963389e+002, 1.155147e+003
2.968210e+002, 1.152469e+003
2.973031e+002, 1.149989e+003
2.977852e+002, 1.147686e+003
2.982673e+002, 1.145310e+003
2.987495e+002, 1.142144e+003
2.992316e+002, 1.136798e+003
2.997137e+002, 1.132341e+003
3.001958e+002, 1.129424e+003
3.006779e+002, 1.127168e+003
3.011600e+002, 1.124713e+003
3.016422e+002, 1.121763e+003
3.021243e+002, 1.118568e+003
3.026064e+002, 1.115608e+003
3.030885e+002, 1.113089e+003
3.035706e+002, 1.110450e+003
3.040527e+002, 1.107640e+003
3.045349e+002, 1.104764e+003
3.050170e+002, 1.101828e+003
3.054991e+002, 1.098876e+003
3.059812e+002, 1.096063e+003
3.064633e+002, 1.093552e+003
3.069454e+002, 1.091306e+003
3.074276e+002, 1.089614e+003
3.079097e+002, 1.089515e+003
3.083918e+002, 1.089021e+003
3.088739e+002, 1.086736e+003
3.093560e+002, 1.082892e+003
3.098381e+002, 1.078782e+003
3.103203e+002, 1.075405e+003
3.108024e+002, 1.072774e+003
3.112845e+002, 1.071160e+003
3.117666e+002, 1.071781e+003
3.122487e+002, 1.072022e+003
3.127308e+002, 1.070559e+003
3.132130e+002, 1.067992e+003
3.136951e+002, 1.065787e+003
3.141772e+002, 1.064949e+003
3.146593e+002, 1.065186e+003
3.151414e+002, 1.064512e+003
3.156235e+002, 1.061653e+003
3.161057e+002, 1.059330e+003
3.165878e+002, 1.058348e+003
3.170699e+002, 1.058050e+003
3.175520e+002, 1.057510e+003
3.180341e+002, 1.056307e+003
3.185162e+002, 1.054727e+003
3.189984e+002, 1.053518e+003
3.194805e+002, 1.053385e+003
3.199626e+002, 1.052694e+003
3.204447e+002, 1.051081e+003
3.209268e+002, 1.049106e+003
3.214089e+002, 1.047201e+003
3.218911e+002, 1.045509e+003
3.223732e+002, 1.044031e+003
3.228553e+002, 1.042759e+003
3.233374e+002, 1.041724e+003
3.238195e+002, 1.040881e+003
3.243016e+002, 1.040342e+003
3.247838e+002, 1.039885e+003
3.252659e+002, 1.039452e+003
3.257480e+002, 1.038987e+003
3.262301e+002, 1.038392e+003
3.267122e+002, 1.037553e+003
3.271943e+002, 1.036449e+003
3.276765e+002, 1.035261e+003
3.281586e+002, 1.033561e+003
3.286407e+002, 1.032197e+003
3.291228e+002, 1.031907e+003
3.296049e+002, 1.032211e+003
3.300870e+002, 1.031938e+003
3.305692e+002, 1.030200e+003
3.310513e+002, 1.027293e+003
3.315334e+002, 1.025540e+003
3.320155e+002, 1.026187e+003
3.324976e+002, 1.026642e+003
3.329797e+002, 1.026721e+003
3.334619e+002, 1.026352e+003
3.339440e+002, 1.025379e+003
3.344261e+002, 1.023732e+003
3.349082e+002, 1.021715e+003
3.353904e+002, 1.020013e+003
3.358725e+002, 1.018706e+003
3.363546e+002, 1.017675e+003
3.368367e+002, 1.017046e+003
3.373188e+002, 1.016591e+003
3.378009e+002, 1.016179e+003
3.382831e+002, 1.015762e+003
3.387652e+002, 1.015296e+003
3.392473e+002, 1.014726e+003
3.397294e+002, 1.014024e+003
3.402115e+002, 1.013281e+003
3.406936e+002, 1.012389e+003
3.411758e+002, 1.011547e+003
3.416579e+002, 1.010968e+003
3.421400e+002, 1.010549e+003
3.426221e+002, 1.009897e+003
3.431042e+002, 1.008510e+003
3.435863e+002, 1.006387e+003
3.440685e+002, 1.005643e+003
3.445506e+002, 1.008467e+003
3.450327e+002, 1.010492e+003
3.455148e+002, 1.010518e+003
3.459969e+002, 1.009145e+003
3.464790e+002, 1.007177e+003
3.469612e+002, 1.004937e+003
3.474433e+002, 1.002848e+003
3.479254e+002, 1.002403e+003
3.484075e+002, 1.005332e+003
3.488896e+002, 1.007078e+003
3.493717e+002, 1.006217e+003
3.498539e+002, 1.004479e+003
3.503360e+002, 1.003444e+003
3.508181e+002, 1.003572e+003
3.513002e+002, 1.004075e+003
3.517823e+002, 1.003716e+003
3.522644e+002, 1.002143e+003
3.527466e+002, 1.000869e+003
3.532287e+002, 9.998259e+002
3.537108e+002, 9.992195e+002
3.541929e+002, 9.996312e+002
3.546750e+002, 1.000767e+003
3.551571e+002, 1.001463e+003
3.556393e+002, 1.000396e+003
3.561214e+002, 9.975839e+002
3.566035e+002, 9.958547e+002
3.570856e+002, 9.961008e+002
3.575677e+002, 9.964496e+002
3.580498e+002, 9.961965e+002
3.585320e+002, 9.955842e+002
3.590141e+002, 9.950991e+002
3.594962e+002, 9.950640e+002
3.599783e+002, 9.952326e+002
3.604604e+002, 9.949203e+002
3.609425e+002, 9.939371e+002
3.614247e+002, 9.928951e+002
3.619068e+002, 9.915649e+002
3.623889e+002, 9.904664e+002
3.628710e+002, 9.903088e+002
3.633531e+002, 9.913154e+002
3.638352e+002, 9.924762e+002
3.643174e+002, 9.923571e+002
3.647995e+002, 9.907686e+002
3.652816e+002, 9.898394e+002
3.657637e+002, 9.904937e+002
3.662458e+002, 9.914406e+002
3.667279e+002, 9.919401e+002
3.672101e+002, 9.919721e+002
3.676922e+002, 9.917415e+002
3.681743e+002, 9.912191e+002
3.686564e+002, 9.905100e+002
3.691385e+002, 9.902158e+002
3.696206e+002, 9.907603e+002
3.701028e+002, 9.909216e+002
3.705849e+002, 9.894447e+002
3.710670e+002, 9.871727e+002
3.715491e+002, 9.856486e+002
3.720312e+002, 9.856436e+002
3.725133e+002, 9.863993e+002
3.729955e+002, 9.869512e+002
3.734776e+002, 9.873005e+002
3.739597e+002, 9.874114e+002
3.744418e+002, 9.872413e+002
3.749239e+002, 9.868134e+002
3.754060e+002, 9.860629e+002
3.758882e+002, 9.848557e+002
3.763703e+002, 9.838686e+002
3.768524e+002, 9.836815e+002
3.773345e+002, 9.841354e+002
3.778166e+002, 9.846514e+002
3.782987e+002, 9.852613e+002
3.787809e+002, 9.855927e+002
3.792630e+002, 9.851116e+002
3.797451e+002, 9.839200e+002
3.802272e+002, 9.826693e+002
3.807093e+002, 9.813876e+002
3.811914e+002, 9.802528e+002
3.816736e+002, 9.794775e+002
3.821557e+002, 9.790809e+002
3.826378e+002, 9.791116e+002
3.831199e+002, 9.799425e+002
3.836020e+002, 9.812452e+002
3.840841e+002, 9.816202e+002
3.845663e+002, 9.800045e+002
3.850484e+002, 9.784955e+002
3.855305e+002, 9.784833e+002
3.860126e+002, 9.795990e+002
3.864947e+002, 9.807668e+002
3.869768e+002, 9.816390e+002
3.874590e+002, 9.821288e+002
3.879411e+002, 9.818396e+002
3.884232e+002, 9.803486e+002
3.889053e+002, 9.794611e+002
3.893874e+002, 9.800599e+002
3.898695e+002, 9.811956e+002
3.903517e+002, 9.818138e+002
3.908338e+002, 9.817176e+002
3.913159e+002, 9.812626e+002
3.917980e+002, 9.807746e+002
3.922801e+002, 9.802477e+002
3.927622e+002, 9.797552e+002
3.932444e+002, 9.793466e+002
3.937265e+002, 9.789236e+002
3.942086e+002, 9.781158e+002
3.946907e+002, 9.772324e+002
3.951728e+002, 9.772036e+002
3.956549e+002, 9.786935e+002
3.961371e+002, 9.811328e+002
3.966192e+002, 9.821847e+002
3.971013e+002, 9.802853e+002
3.975834e+002, 9.789037e+002
3.980655e+002, 9.784628e+002
3.985476e+002, 9.785647e+002
3.990298e+002, 9.789499e+002
3.995119e+002, 9.794942e+002
3.999940e+002, 9.799739e+002
4.004761e+002, 9.800209e+002
4.009582e+002, 9.793470e+002
4.014403e+002, 9.792731e+002
4.019225e+002, 9.804514e+002
4.024046e+002, 9.815333e+002
4.028867e+002, 9.817472e+002
4.033688e+002, 9.813297e+002
4.038509e+002, 9.810244e+002
4.043330e+002, 9.813854e+002
4.048152e+002, 9.822391e+002
4.052973e+002, 9.825411e+002
4.057794e+002, 9.815046e+002
4.062615e+002, 9.811143e+002
4.067436e+002, 9.824421e+002
4.072257e+002, 9.841719e+002
4.077079e+002, 9.847811e+002
4.081900e+002, 9.838383e+002
4.086721e+002, 9.825150e+002
4.091542e+002, 9.824686e+002
4.096363e+002, 9.839202e+002
4.101184e+002, 9.854106e+002
4.106006e+002, 9.871494e+002
4.110827e+002, 9.885674e+002
4.115648e+002, 9.892021e+002
4.120469e+002, 9.892278e+002
4.125290e+002, 9.892457e+002
4.130111e+002, 9.896363e+002
4.134933e+002, 9.903196e+002
4.139754e+002, 9.909754e+002
4.144575e+002, 9.914598e+002
4.149396e+002, 9.923143e+002
4.154217e+002, 9.942396e+002
4.159038e+002, 9.965193e+002
4.163860e+002, 9.982516e+002
4.168681e+002, 9.990941e+002
4.173502e+002, 9.998358e+002
4.178323e+002, 1.001287e+003
4.183144e+002, 1.003364e+003
4.187965e+002, 1.005336e+003
4.192787e+002, 1.007090e+003
4.197608e+002, 1.008578e+003
4.202429e+002, 1.009547e+003
4.207250e+002, 1.010052e+003
4.212071e+002, 1.010985e+003
4.216892e+002, 1.012932e+003
4.221714e+002, 1.015350e+003
4.226535e+002, 1.017538e+003
4.231356e+002, 1.019442e+003
4.236177e+002, 1.021230e+003
4.240998e+002, 1.022889e+003
4.245819e+002, 1.024551e+003
4.250641e+002, 1.026687e+003
4.255462e+002, 1.029727e+003
4.260283e+002, 1.032693e+003
4.265104e+002, 1.035089e+003
4.269925e+002, 1.037135e+003
4.274746e+002, 1.039296e+003
4.279568e+002, 1.041768e+003
4.284389e+002, 1.044229e+003
4.289210e+002, 1.046217e+003
4.294031e+002, 1.047591e+003
4.298852e+002, 1.048823e+003
4.303673e+002, 1.049663e+003
4.308495e+002, 1.050575e+003
4.313316e+002, 1.052106e+003
4.318137e+002, 1.054084e+003
4.322958e+002, 1.055785e+003
4.327779e+002, 1.056684e+003
4.332600e+002, 1.056853e+003
4.337422e+002, 1.056880e+003
4.342243e+002, 1.056821e+003
4.347064e+002, 1.056529e+003
4.351885e+002, 1.055827e+003
4.356706e+002, 1.054948e+003
4.361527e+002, 1.054115e+003
4.366349e+002, 1.053402e+003
4.371170e+002, 1.052792e+003
4.375991e+002, 1.052212e+003
4.380812e+002, 1.051551e+003
4.385633e+002, 1.051329e+003
4.390454e+002, 1.052286e+003
4.395276e+002, 1.052984e+003
4.400097e+002, 1.052841e+003
4.404918e+002, 1.051979e+003
4.409739e+002, 1.050689e+003
4.414560e+002, 1.048995e+003
4.419381e+002, 1.047205e+003
4.424203e+002, 1.046319e+003
4.429024e+002, 1.046788e+003
4.433845e+002, 1.046985e+003
4.438666e+002, 1.046265e+003
4.443487e+002, 1.045168e+003
4.448308e+002, 1.043914e+003
4.453130e+002, 1.042550e+003
4.457951e+002, 1.041610e+003
4.462772e+002, 1.042084e+003
4.467593e+002, 1.043548e+003
4.472414e+002, 1.043585e+003
4.477235e+002, 1.041361e+003
4.482057e+002, 1.038875e+003
4.486878e+002, 1.037714e+003
4.491699e+002, 1.037452e+003
4.496520e+002, 1.037184e+003
4.501341e+002, 1.036599e+003
4.506162e+002, 1.035991e+003
4.510984e+002, 1.035627e+003
4.515805e+002, 1.035486e+003
4.520626e+002, 1.035520e+003
4.525447e+002, 1.035878e+003
4.530268e+002, 1.036159e+003
4.535089e+002, 1.035362e+003
4.539911e+002, 1.033189e+003
4.544732e+002, 1.031567e+003
4.549553e+002, 1.031700e+003
4.554374e+002, 1.032136e+003
4.559195e+002, 1.030849e+003
4.564016e+002, 1.027867e+003
4.568838e+002, 1.025573e+003
4.573659e+002, 1.026158e+003
4.578480e+002, 1.029367e+003
4.583301e+002, 1.030451e+003
4.588122e+002, 1.027816e+003
4.592943e+002, 1.025317e+003
4.597765e+002, 1.023822e+003
4.602586e+002, 1.023027e+003
4.607407e+002, 1.022630e+003
4.612228e+002, 1.022492e+003
4.617049e+002, 1.022320e+003
4.621870e+002, 1.021603e+003
4.626692e+002, 1.020015e+003
4.631513e+002, 1.018953e+003
4.636334e+002, 1.018815e+003
4.641155e+002, 1.018796e+003
4.645976e+002, 1.018791e+003
4.650797e+002, 1.018631e+003
4.655619e+002, 1.017969e+003
4.660440e+002, 1.016498e+003
4.665261e+002, 1.014616e+003
4.670082e+002, 1.013507e+003
4.674903e+002, 1.013464e+003
4.679724e+002, 1.013383e+003
4.684546e+002, 1.012945e+003
4.689367e+002, 1.012394e+003
4.694188e+002, 1.012001e+003
4.699009e+002, 1.011753e+003
4.703830e+002, 1.011217e+003
4.708651e+002, 1.009683e+003
4.713473e+002, 1.007544e+003
4.718294e+002, 1.006385e+003
4.723115e+002, 1.006569e+003
4.727936e+002, 1.006850e+003
4.732757e+002, 1.006376e+003
4.737578e+002, 1.005442e+003
4.742400e+002, 1.004590e+003
4.747221e+002, 1.003963e+003
4.752042e+002, 1.003322e+003
4.756863e+002, 1.002538e+003
4.761684e+002, 1.001613e+003
4.766505e+002, 1.000542e+003
4.771327e+002, 9.993043e+002
4.776148e+002, 9.979893e+002
4.780969e+002, 9.966057e+002
4.785790e+002, 9.951071e+002
4.790611e+002, 9.940985e+002
4.795432e+002, 9.941184e+002
4.800254e+002, 9.942101e+002
4.805075e+002, 9.938088e+002
4.809896e+002, 9.929625e+002
4.814717e+002, 9.918342e+002
4.819538e+002, 9.904626e+002
4.824359e+002, 9.890920e+002
4.829181e+002, 9.884402e+002
4.834002e+002, 9.893719e+002
4.838823e+002, 9.897680e+002
4.843644e+002, 9.892907e+002
4.848465e+002, 9.885330e+002
4.853286e+002, 9.878542e+002
4.858108e+002, 9.873145e+002
4.862929e+002, 9.868471e+002
4.867750e+002, 9.864106e+002
4.872571e+002, 9.859927e+002
4.877392e+002, 9.854529e+002
4.882213e+002, 9.844617e+002
4.887035e+002, 9.839011e+002
4.891856e+002, 9.842747e+002
4.896677e+002, 9.849826e+002
4.901498e+002, 9.854194e+002
4.906319e+002, 9.854364e+002
4.911140e+002, 9.852851e+002
4.915962e+002, 9.851198e+002
4.920783e+002, 9.849653e+002
4.925604e+002, 9.851598e+002
4.930425e+002, 9.860938e+002
4.935246e+002, 9.866716e+002
4.940067e+002, 9.855167e+002
4.944889e+002, 9.834133e+002
4.949710e+002, 9.821454e+002
4.954531e+002, 9.824910e+002
4.959352e+002, 9.833625e+002
4.964173e+002, 9.842036e+002
4.968994e+002, 9.849031e+002
4.973816e+002, 9.848837e+002
4.978637e+002, 9.837742e+002
4.983458e+002, 9.824685e+002
4.988279e+002, 9.822841e+002
4.993100e+002, 9.834366e+002
4.997921e+002, 9.847063e+002
5.002743e+002, 9.865505e+002
5.007564e+002, 9.880391e+002
5.012385e+002, 9.883056e+002
5.017206e+002, 9.876514e+002
5.022027e+002, 9.870143e+002
5.026848e+002, 9.869258e+002
5.031670e+002, 9.872050e+002
5.036491e+002, 9.872911e+002
5.041312e+002, 9.866451e+002
5.046133e+002, 9.867208e+002
5.050954e+002, 9.882532e+002
5.055775e+002, 9.898997e+002
5.060597e+002, 9.905768e+002
5.065418e+002, 9.904169e+002
5.070239e+002, 9.903883e+002
5.075060e+002, 9.912898e+002
5.079881e+002, 9.929281e+002
5.084702e+002, 9.944179e+002
5.089524e+002, 9.958026e+002
5.094345e+002, 9.969348e+002
5.099166e+002, 9.975151e+002
5.103987e+002, 9.979656e+002
5.108808e+002, 9.986773e+002
5.113629e+002, 9.997142e+002
5.118451e+002, 1.000802e+003
5.123271e+002, 1.001540e+003
5.128093e+002, 1.002175e+003
5.132914e+002, 1.003568e+003
5.137735e+002, 1.005966e+003
5.142556e+002, 1.008208e+003
5.147377e+002, 1.009305e+003
5.152198e+002, 1.009614e+003
5.157020e+002, 1.010461e+003
5.161841e+002, 1.012246e+003
5.166662e+002, 1.014036e+003
5.171483e+002, 1.015224e+003
5.176304e+002, 1.016202e+003
5.181125e+002, 1.017704e+003
5.185947e+002, 1.019902e+003
5.190768e+002, 1.022259e+003
5.195589e+002, 1.024244e+003
5.200410e+002, 1.025866e+003
5.205231e+002, 1.027051e+003
5.210052e+002, 1.026517e+003
5.214874e+002, 1.027051e+003
5.219695e+002, 1.030326e+003
5.224516e+002, 1.034956e+003
5.229337e+002, 1.039041e+003
5.234158e+002, 1.041882e+003
5.238979e+002, 1.043828e+003
5.243801e+002, 1.045086e+003
5.248622e+002, 1.045269e+003
5.253443e+002, 1.046827e+003
5.258264e+002, 1.051036e+003
5.263085e+002, 1.055360e+003
5.267906e+002, 1.058810e+003
5.272728e+002, 1.061565e+003
5.277549e+002, 1.064019e+003
5.282370e+002, 1.066250e+003
5.287191e+002, 1.068417e+003
5.292012e+002, 1.070558e+003
5.296833e+002, 1.072711e+003
5.301655e+002, 1.075505e+003
5.306476e+002, 1.079206e+003
5.311297e+002, 1.083413e+003
5.316118e+002, 1.087757e+003
5.320939e+002, 1.092228e+003
5.325760e+002, 1.096889e+003
5.330582e+002, 1.102037e+003
5.335403e+002, 1.107146e+003
5.340224e+002, 1.111484e+003
5.345045e+002, 1.115397e+003
5.349866e+002, 1.119947e+003
5.354688e+002, 1.125591e+003
5.359509e+002, 1.132004e+003
5.364330e+002, 1.138628e+003
5.369151e+002, 1.145687e+003
5.373972e+002, 1.152364e+003
5.378793e+002, 1.157892e+003
5.383615e+002, 1.163821e+003
5.388436e+002, 1.171072e+003
5.393257e+002, 1.179403e+003
5.398078e+002, 1.187992e+003
5.402899e+002, 1.196315e+003
5.407720e+002, 1.204928e+003
5.412542e+002, 1.215455e+003
5.417363e+002, 1.228581e+003
5.422184e+002, 1.241184e+003
5.427005e+002, 1.251892e+003
5.431826e+002, 1.262693e+003
5.436647e+002, 1.274647e+003
5.441469e+002, 1.287689e+003
5.446290e+002, 1.301544e+003
5.451111e+002, 1.316124e+003
5.455932e+002, 1.331386e+003
5.460753e+002, 1.347401e+003
5.465574e+002, 1.364094e+003
5.470396e+002, 1.381082e+003
5.475217e+002, 1.398046e+003
5.480038e+002, 1.415285e+003
5.484859e+002, 1.433498e+003
5.489680e+002, 1.452511e+003
5.494501e+002, 1.472546e+003
5.499323e+002, 1.493785e+003
5.504144e+002, 1.515916e+003
5.508965e+002, 1.538622e+003
5.513786e+002, 1.561967e+003
5.518607e+002, 1.586477e+003
5.523428e+002, 1.612504e+003
5.528250e+002, 1.639510e+003
5.533071e+002, 1.665988e+003
5.537892e+002, 1.690525e+003
5.542713e+002, 1.717497e+003
5.547534e+002, 1.749261e+003
5.552355e+002, 1.781078e+003
5.557177e+002, 1.809898e+003
5.561998e+002, 1.836447e+003
5.566819e+002, 1.863386e+003
5.571640e+002, 1.892310e+003
5.576461e+002, 1.922243e+003
5.581282e+002, 1.950834e+003
5.586104e+002, 1.978088e+003
5.590925e+002, 2.004482e+003
5.595746e+002, 2.030856e+003
5.600567e+002, 2.055571e+003
5.605388e+002, 2.077553e+003
5.610209e+002, 2.096797e+003
5.615031e+002, 2.113967e+003
5.619852e+002, 2.129385e+003
5.624673e+002, 2.142579e+003
5.629494e+002, 2.152683e+003
5.634315e+002, 2.159988e+003
5.639136e+002, 2.166102e+003
5.643958e+002, 2.171920e+003
5.648779e+002, 2.176170e+003
5.653600e+002, 2.176604e+003
5.658421e+002, 2.172105e+003
5.663242e+002, 2.166405e+003
5.668063e+002, 2.160216e+003
5.672885e+002, 2.152131e+003
5.677706e+002, 2.140724e+003
5.682527e+002, 2.126872e+003
5.687348e+002, 2.112792e+003
5.692169e+002, 2.099564e+003
5.696990e+002, 2.085801e+003
5.701812e+002, 2.068269e+003
5.706633e+002, 2.045774e+003
5.711454e+002, 2.024569e+003
5.716275e+002, 2.006191e+003
5.721096e+002, 1.988001e+003
5.725917e+002, 1.968613e+003
5.730739e+002, 1.948470e+003
5.735560e+002, 1.928753e+003
5.740381e+002, 1.910047e+003
5.745202e+002, 1.891543e+003
5.750023e+002, 1.872818e+003
5.754844e+002, 1.853668e+003
5.759666e+002, 1.832823e+003
5.764487e+002, 1.809403e+003
5.769308e+002, 1.785889e+003
5.774129e+002, 1.764893e+003
5.778950e+002, 1.746497e+003
5.783771e+002, 1.727898e+003
5.788593e+002, 1.708906e+003
5.793414e+002, 1.689756e+003
5.798235e+002, 1.670046e+003
5.803056e+002, 1.650358e+003
5.807877e+002, 1.631743e+003
5.812698e+002, 1.614419e+003
5.817520e+002, 1.598000e+003
5.822341e+002, 1.582199e+003
5.827162e+002, 1.567053e+003
5.831984e+002, 1.550888e+003
5.836805e+002, 1.531695e+003
5.841626e+002, 1.514074e+003
5.846447e+002, 1.500120e+003
5.851268e+002, 1.487930e+003
5.856089e+002, 1.475242e+003
5.860911e+002, 1.461438e+003
5.865732e+002, 1.447577e+003
5.870553e+002, 1.435004e+003
5.875374e+002, 1.423180e+003
5.880195e+002, 1.409879e+003
5.885016e+002, 1.394368e+003
5.889838e+002, 1.380091e+003
5.894659e+002, 1.369707e+003
5.899480e+002, 1.362102e+003
5.904301e+002, 1.353648e+003
5.909122e+002, 1.344057e+003
5.913943e+002, 1.334222e+003
5.918765e+002, 1.323826e+003
5.923586e+002, 1.313638e+003
5.928407e+002, 1.304578e+003
5.933228e+002, 1.296667e+003
5.938049e+002, 1.289242e+003
5.942870e+002, 1.281804e+003
5.947692e+002, 1.274402e+003
5.952513e+002, 1.267083e+003
5.957334e+002, 1.259548e+003
5.962155e+002, 1.252697e+003
5.966976e+002, 1.247146e+003
5.971797e+002, 1.241793e+003
5.976619e+002, 1.235711e+003
5.981440e+002, 1.229055e+003
5.986261e+002, 1.222726e+003
5.991082e+002, 1.217368e+003
5.995903e+002, 1.212559e+003
6.000724e+002, 1.207648e+003
6.005546e+002, 1.202630e+003
6.010367e+002, 1.197280e+003
6.015188e+002, 1.191486e+003
6.020009e+002, 1.185375e+003
6.024830e+002, 1.178911e+003
6.029651e+002, 1.172093e+003
6.034473e+002, 1.165574e+003
6.039294e+002, 1.159295e+003
6.044115e+002, 1.153509e+003
6.048936e+002, 1.148779e+003
6.053757e+002, 1.144621e+003
6.058578e+002, 1.140105e+003
6.063400e+002, 1.134904e+003
6.068221e+002, 1.129337e+003
6.073042e+002, 1.123849e+003
6.077863e+002, 1.118493e+003
6.082684e+002, 1.112985e+003
6.087505e+002, 1.106901e+003
6.092327e+002, 1.101232e+003
6.097148e+002, 1.096554e+003
6.101969e+002, 1.092340e+003
6.106790e+002, 1.087821e+003
6.111611e+002, 1.082785e+003
6.116432e+002, 1.077905e+003
6.121254e+002, 1.073997e+003
6.126075e+002, 1.070688e+003
6.130896e+002, 1.066776e+003
6.135717e+002, 1.062066e+003
6.140538e+002, 1.057299e+003
6.145359e+002, 1.052805e+003
6.150181e+002, 1.048629e+003
6.155002e+002, 1.044949e+003
6.159823e+002, 1.041719e+003
6.164644e+002, 1.038938e+003
6.169465e+002, 1.037248e+003
6.174286e+002, 1.035532e+003
6.179108e+002, 1.032729e+003
6.183929e+002, 1.028964e+003
6.188750e+002, 1.024903e+003
6.193571e+002, 1.020905e+003
6.198392e+002, 1.017217e+003
6.203214e+002, 1.014681e+003
6.208035e+002, 1.013917e+003
6.212856e+002, 1.012398e+003
6.217677e+002, 1.008872e+003
6.222498e+002, 1.005492e+003
6.227319e+002, 1.003647e+003
6.232141e+002, 1.002842e+003
6.236962e+002, 1.001708e+003
6.241783e+002, 9.995882e+002
6.246604e+002, 9.972263e+002
6.251425e+002, 9.953176e+002
6.256246e+002, 9.937586e+002
6.261068e+002, 9.922721e+002
6.265889e+002, 9.908152e+002
6.270710e+002, 9.892004e+002
6.275531e+002, 9.871715e+002
6.280352e+002, 9.847695e+002
6.285173e+002, 9.828055e+002
6.289995e+002, 9.813868e+002
6.294816e+002, 9.802103e+002
6.299637e+002, 9.797040e+002
6.304458e+002, 9.790995e+002
6.309279e+002, 9.772196e+002
6.314100e+002, 9.742372e+002
6.318922e+002, 9.717905e+002
6.323743e+002, 9.714030e+002
6.328564e+002, 9.724572e+002
6.333385e+002, 9.726674e+002
6.338206e+002, 9.718725e+002
6.343027e+002, 9.708423e+002
6.347849e+002, 9.695657e+002
6.352670e+002, 9.683338e+002
6.357491e+002, 9.676112e+002
6.362312e+002, 9.673024e+002
6.367133e+002, 9.664750e+002
6.371954e+002, 9.642828e+002
6.376776e+002, 9.619612e+002
6.381597e+002, 9.604814e+002
6.386418e+002, 9.596621e+002
6.391239e+002, 9.591584e+002
6.396060e+002, 9.588612e+002
6.400881e+002, 9.583717e+002
6.405703e+002, 9.570914e+002
6.410524e+002, 9.548987e+002
6.415345e+002, 9.534397e+002
6.420166e+002, 9.535885e+002
6.424987e+002, 9.534772e+002
6.429808e+002, 9.527206e+002
6.434630e+002, 9.515477e+002
6.439451e+002, 9.500956e+002
6.444272e+002, 9.484404e+002
6.449093e+002, 9.468115e+002
6.453914e+002, 9.454063e+002
6.458735e+002, 9.441533e+002
6.463557e+002, 9.428055e+002
6.468378e+002, 9.413336e+002
6.473199e+002, 9.402734e+002
6.478020e+002, 9.400004e+002
6.482841e+002, 9.400180e+002
6.487662e+002, 9.394825e+002
6.492484e+002, 9.382676e+002
6.497305e+002, 9.372090e+002
6.502126e+002, 9.366644e+002
6.506947e+002, 9.359933e+002
6.511768e+002, 9.344976e+002
6.516589e+002, 9.327140e+002
6.521411e+002, 9.317097e+002
6.526232e+002, 9.318260e+002
6.531053e+002, 9.323203e+002
6.535874e+002, 9.322331e+002
6.540695e+002, 9.315579e+002
6.545516e+002, 9.309990e+002
6.550338e+002, 9.306882e+002
6.555159e+002, 9.302350e+002
6.559980e+002, 9.294745e+002
6.564801e+002, 9.284714e+002
6.569622e+002, 9.271663e+002
6.574443e+002, 9.255029e+002
6.579265e+002, 9.240850e+002
6.584086e+002, 9.233975e+002
6.588907e+002, 9.229473e+002
6.593728e+002, 9.222133e+002
6.598549e+002, 9.212129e+002
6.603370e+002, 9.201391e+002
6.608192e+002, 9.190699e+002
6.613013e+002, 9.180633e+002
6.617834e+002, 9.172017e+002
6.622655e+002, 9.163983e+002
6.627476e+002, 9.160594e+002
6.632297e+002, 9.167495e+002
6.637119e+002, 9.172895e+002
6.641940e+002, 9.175286e+002
6.646761e+002, 9.173229e+002
6.651582e+002, 9.163762e+002
6.656403e+002, 9.146101e+002
6.661224e+002, 9.127054e+002
6.666046e+002, 9.110964e+002
6.670867e+002, 9.097932e+002
6.675688e+002, 9.088134e+002
6.680509e+002, 9.081664e+002
6.685330e+002, 9.079163e+002
6.690151e+002, 9.083219e+002
6.694973e+002, 9.088054e+002
6.699794e+002, 9.081219e+002
6.704615e+002, 9.056194e+002
6.709436e+002, 9.037165e+002
6.714257e+002, 9.027992e+002
6.719078e+002, 9.021344e+002
6.723900e+002, 9.013550e+002
6.728721e+002, 9.005583e+002
6.733542e+002, 8.998485e+002
6.738363e+002, 8.992802e+002
6.743184e+002, 8.991534e+002
6.748005e+002, 9.002843e+002
6.752827e+002, 9.024357e+002
6.757648e+002, 9.030955e+002
6.762469e+002, 9.018669e+002
6.767290e+002, 9.003417e+002
6.772111e+002, 8.992844e+002
6.776932e+002, 8.983585e+002
6.781754e+002, 8.968362e+002
6.786575e+002, 8.944969e+002
6.791396e+002, 8.927840e+002
6.796217e+002, 8.924420e+002
6.801038e+002, 8.924752e+002
6.805859e+002, 8.924189e+002
6.810681e+002, 8.921006e+002
6.815502e+002, 8.910840e+002
6.820323e+002, 8.892386e+002
6.825144e+002, 8.873430e+002
6.829965e+002, 8.865179e+002
6.834786e+002, 8.868021e+002
6.839608e+002, 8.876620e+002
6.844429e+002, 8.899238e+002
6.849250e+002, 8.912513e+002
6.854071e+002, 8.898080e+002
6.858892e+002, 8.874177e+002
6.863713e+002, 8.859690e+002
6.868535e+002, 8.856693e+002
6.873356e+002, 8.856577e+002
6.878177e+002, 8.857559e+002
6.882998e+002, 8.858164e+002
6.887819e+002, 8.856059e+002
6.892640e+002, 8.852162e+002
6.897462e+002, 8.850286e+002
6.902283e+002, 8.851968e+002
6.907104e+002, 8.853354e+002
6.911925e+002, 8.847562e+002
6.916746e+002, 8.832509e+002
6.921567e+002, 8.829847e+002
6.926389e+002, 8.856254e+002
6.931210e+002, 8.872225e+002
6.936031e+002, 8.862178e+002
6.940852e+002, 8.840941e+002
6.945673e+002, 8.820924e+002
6.950494e+002, 8.804435e+002
6.955316e+002, 8.793829e+002
6.960137e+002, 8.796313e+002
6.964958e+002, 8.801815e+002
6.969779e+002, 8.794066e+002
6.974600e+002, 8.776392e+002
6.979421e+002, 8.765598e+002
6.984243e+002, 8.768044e+002
6.989064e+002, 8.775328e+002
6.993885e+002, 8.777090e+002
6.998706e+002, 8.772863e+002
7.003527e+002, 8.769379e+002
7.008348e+002, 8.769058e+002
7.013170e+002, 8.766484e+002
7.017991e+002, 8.755507e+002
7.022812e+002, 8.745371e+002
7.027633e+002, 8.747274e+002
7.032454e+002, 8.760340e+002
7.037275e+002, 8.771023e+002
7.042097e+002, 8.768705e+002
7.046918e+002, 8.760865e+002
7.051739e+002, 8.760675e+002
7.056560e+002, 8.766326e+002
7.061381e+002, 8.764521e+002
7.066202e+002, 8.750133e+002
7.071024e+002, 8.735730e+002
7.075845e+002, 8.735383e+002
7.080666e+002, 8.748698e+002
7.085487e+002, 8.754226e+002
7.090308e+002, 8.748684e+002
7.095129e+002, 8.740020e+002
7.099951e+002, 8.722574e+002
7.104772e+002, 8.707484e+002
7.109593e+002, 8.705798e+002
7.114414e+002, 8.715879e+002
7.119235e+002, 8.727938e+002
7.124056e+002, 8.737989e+002
7.128878e+002, 8.743965e+002
7.133699e+002, 8.740541e+002
7.138520e+002, 8.729157e+002
7.143341e+002, 8.719476e+002
7.148162e+002, 8.712850e+002
7.152983e+002, 8.711175e+002
7.157805e+002, 8.718902e+002
7.162626e+002, 8.732940e+002
7.167447e+002, 8.735204e+002
7.172268e+002, 8.712435e+002
7.177089e+002, 8.697810e+002
7.181910e+002, 8.702927e+002
7.186732e+002, 8.709344e+002
7.191553e+002, 8.702137e+002
7.196374e+002, 8.685184e+002
7.201195e+002, 8.670446e+002
7.206016e+002, 8.663524e+002
7.210837e+002, 8.661827e+002
7.215659e+002, 8.663145e+002
7.220480e+002, 8.666967e+002
7.225301e+002, 8.671312e+002
7.230122e+002, 8.676542e+002
7.234943e+002, 8.677852e+002
7.239764e+002, 8.669543e+002
7.244586e+002, 8.657527e+002
7.249407e+002, 8.658129e+002
7.254228e+002, 8.680076e+002
7.259049e+002, 8.692659e+002
7.263870e+002, 8.685974e+002
7.268691e+002, 8.677830e+002
7.273513e+002, 8.679401e+002
7.278334e+002, 8.685859e+002
7.283155e+002, 8.688604e+002
7.287976e+002, 8.684743e+002
7.292797e+002, 8.676347e+002
7.297618e+002, 8.660191e+002
7.302440e+002, 8.641251e+002
7.307261e+002, 8.642159e+002
7.312082e+002, 8.665273e+002
7.316903e+002, 8.679786e+002
7.321724e+002, 8.669943e+002
7.326545e+002, 8.651146e+002
7.331367e+002, 8.646956e+002
7.336188e+002, 8.661848e+002
7.341009e+002, 8.665749e+002
7.345830e+002, 8.646865e+002
7.350651e+002, 8.631211e+002
7.355472e+002, 8.629977e+002
7.360294e+002, 8.635358e+002
7.365115e+002, 8.639144e+002
7.369936e+002, 8.639514e+002
7.374757e+002, 8.637709e+002
7.379578e+002, 8.633359e+002
7.384399e+002, 8.628629e+002
7.389221e+002, 8.629778e+002
7.394042e+002, 8.636123e+002
7.398863e+002, 8.636481e+002
7.403684e+002, 8.626911e+002
7.408505e+002, 8.615351e+002
7.413326e+002, 8.609271e+002
7.418148e+002, 8.608107e+002
7.422969e+002, 8.605394e+002
7.427790e+002, 8.597409e+002
7.432611e+002, 8.593172e+002
7.437432e+002, 8.595797e+002
7.442253e+002, 8.600836e+002
7.447075e+002, 8.606769e+002
7.451896e+002, 8.612170e+002
7.456717e+002, 8.614532e+002
7.461538e+002, 8.612499e+002
7.466359e+002, 8.607856e+002
7.471180e+002, 8.601474e+002
7.476002e+002, 8.594229e+002
7.480823e+002, 8.588622e+002
7.485644e+002, 8.584860e+002
7.490465e+002, 8.585911e+002
7.495286e+002, 8.596043e+002
7.500107e+002, 8.608331e+002
7.504929e+002, 8.605460e+002
7.509750e+002, 8.577040e+002
7.514571e+002, 8.559125e+002
7.519392e+002, 8.558521e+002
7.524213e+002, 8.559939e+002
7.529034e+002, 8.556504e+002
7.533856e+002, 8.551767e+002
7.538677e+002, 8.551575e+002
7.543498e+002, 8.557078e+002
7.548319e+002, 8.563140e+002
7.553140e+002, 8.566890e+002
7.557961e+002, 8.568301e+002
7.562783e+002, 8.565765e+002
7.567604e+002, 8.560286e+002
7.572425e+002, 8.558196e+002
7.577246e+002, 8.561932e+002
7.582067e+002, 8.566149e+002
7.586888e+002, 8.564183e+002
7.591710e+002, 8.556071e+002
7.596531e+002, 8.550994e+002
7.601352e+002, 8.548428e+002
7.606173e+002, 8.549825e+002
7.610994e+002, 8.562195e+002
7.615815e+002, 8.572604e+002
7.620637e+002, 8.567982e+002
7.625458e+002, 8.552465e+002
7.630279e+002, 8.542774e+002
7.635100e+002, 8.548091e+002
7.639921e+002, 8.556240e+002
7.644742e+002, 8.556922e+002
7.649564e+002, 8.553594e+002
7.654385e+002, 8.552216e+002
7.659206e+002, 8.553595e+002
7.664027e+002, 8.556821e+002
7.668848e+002, 8.561583e+002
7.673669e+002, 8.566664e+002
7.678491e+002, 8.569491e+002
7.683312e+002, 8.570656e+002
7.688133e+002, 8.567156e+002
7.692954e+002, 8.555353e+002
7.697775e+002, 8.543969e+002
7.702596e+002, 8.536596e+002
7.707418e+002, 8.531876e+002
7.712239e+002, 8.528804e+002
7.717060e+002, 8.527515e+002
7.721881e+002, 8.524835e+002
7.726702e+002, 8.516829e+002
7.731523e+002, 8.509414e+002
7.736345e+002, 8.508820e+002
7.741166e+002, 8.512198e+002
7.745987e+002, 8.513113e+002
7.750808e+002, 8.509979e+002
7.755629e+002, 8.506770e+002
7.760450e+002, 8.507897e+002
7.765272e+002, 8.512073e+002
7.770093e+002, 8.513132e+002
7.774914e+002, 8.510817e+002
7.779735e+002, 8.506365e+002
7.784556e+002, 8.497454e+002
7.789377e+002, 8.490496e+002
7.794199e+002, 8.493923e+002
7.799020e+002, 8.504814e+002
7.803841e+002, 8.508586e+002
7.808662e+002, 8.499188e+002
7.813483e+002, 8.490799e+002
7.818304e+002, 8.485999e+002
7.823126e+002, 8.484031e+002
7.827947e+002, 8.484639e+002
7.832768e+002, 8.487437e+002
7.837589e+002, 8.492597e+002
7.842410e+002, 8.500359e+002
7.847231e+002, 8.507161e+002
7.852053e+002, 8.508322e+002
7.856874e+002, 8.504832e+002
7.861695e+002, 8.499811e+002
7.866516e+002, 8.493316e+002
7.871337e+002, 8.488734e+002
7.876158e+002, 8.488138e+002
7.880980e+002, 8.488928e+002
7.885801e+002, 8.486834e+002
7.890622e+002, 8.481028e+002
7.895443e+002, 8.478144e+002
7.900264e+002, 8.477289e+002
7.905085e+002, 8.480484e+002
7.909907e+002, 8.494081e+002
7.914728e+002, 8.507731e+002
7.919549e+002, 8.511436e+002
7.924370e+002, 8.505618e+002
7.929191e+002, 8.497206e+002
7.934012e+002, 8.486968e+002
7.938834e+002, 8.479474e+002
7.943655e+002, 8.482166e+002
7.948476e+002, 8.490101e+002
7.953297e+002, 8.493823e+002
7.958118e+002, 8.491613e+002
7.962939e+002, 8.482559e+002
7.967761e+002, 8.465046e+002
7.972582e+002, 8.444382e+002
7.977403e+002, 8.433610e+002
7.982224e+002, 8.434228e+002
7.987045e+002, 8.438756e+002
7.991866e+002, 8.452871e+002
7.996688e+002, 8.461862e+002
8.001509e+002, 8.452872e+002
8.006330e+002, 8.438293e+002
8.011151e+002, 8.433546e+002
8.015972e+002, 8.440274e+002
8.020793e+002, 8.447391e+002
8.025615e+002, 8.451155e+002
8.030436e+002, 8.455293e+002
8.035257e+002, 8.465183e+002
8.040078e+002, 8.475613e+002
8.044899e+002, 8.476309e+002
8.049720e+002, 8.467332e+002
8.054542e+002, 8.460964e+002
8.059363e+002, 8.468111e+002
8.064184e+002, 8.481684e+002
8.069005e+002, 8.485019e+002
8.073826e+002, 8.478568e+002
8.078647e+002, 8.474338e+002
8.083469e+002, 8.475013e+002
8.088290e+002, 8.474421e+002
8.093111e+002, 8.468130e+002
8.097932e+002, 8.457400e+002
8.102753e+002, 8.445812e+002
8.107574e+002, 8.428615e+002
8.112396e+002, 8.420409e+002
8.117217e+002, 8.427240e+002
8.122038e+002, 8.436075e+002
8.126859e+002, 8.444021e+002
8.131680e+002, 8.449437e+002
8.136501e+002, 8.450276e+002
8.141323e+002, 8.446318e+002
8.146144e+002, 8.440102e+002
8.150965e+002, 8.429672e+002
8.155786e+002, 8.420584e+002
8.160607e+002, 8.422130e+002
8.165428e+002, 8.430001e+002
8.170250e+002, 8.432307e+002
8.175071e+002, 8.426552e+002
8.179892e+002, 8.418881e+002
8.184713e+002, 8.414070e+002
8.189534e+002, 8.411992e+002
8.194355e+002, 8.412621e+002
8.199177e+002, 8.416501e+002
8.203998e+002, 8.420881e+002
8.208819e+002, 8.428539e+002
8.213640e+002, 8.431409e+002
8.218461e+002, 8.420116e+002
8.223282e+002, 8.402214e+002
8.228104e+002, 8.393257e+002
8.232925e+002, 8.396437e+002
8.237746e+002, 8.397628e+002
8.242567e+002, 8.387669e+002
8.247388e+002, 8.381941e+002
8.252209e+002, 8.396664e+002
8.257031e+002, 8.417899e+002
8.261852e+002, 8.423217e+002
8.266673e+002, 8.409844e+002
8.271494e+002, 8.395803e+002
8.276315e+002, 8.396634e+002
8.281136e+002, 8.403034e+002
8.285958e+002, 8.396830e+002
8.290779e+002, 8.381299e+002
8.295600e+002, 8.373405e+002
8.300421e+002, 8.376566e+002
8.305242e+002, 8.381310e+002
8.310063e+002, 8.380568e+002
8.314885e+002, 8.376445e+002
8.319706e+002, 8.375736e+002
8.324527e+002, 8.380291e+002
8.329348e+002, 8.383193e+002
8.334169e+002, 8.384014e+002
8.338990e+002, 8.383517e+002
8.343812e+002, 8.381297e+002
8.348633e+002, 8.378392e+002
8.353454e+002, 8.374880e+002
8.358275e+002, 8.370690e+002
8.363096e+002, 8.371580e+002
8.367917e+002, 8.384709e+002
8.372739e+002, 8.397857e+002
8.377560e+002, 8.407275e+002
8.382381e+002, 8.410026e+002
8.387202e+002, 8.395857e+002
8.392023e+002, 8.368783e+002
8.396844e+002, 8.352795e+002
8.401666e+002, 8.366326e+002
8.406487e+002, 8.391595e+002
8.411308e+002, 8.396314e+002
8.416129e+002, 8.383663e+002
8.420950e+002, 8.376907e+002
8.425771e+002, 8.379108e+002
8.430593e+002, 8.378329e+002
8.435414e+002, 8.366451e+002
8.440235e+002, 8.351469e+002
8.445056e+002, 8.349171e+002
8.449877e+002, 8.363779e+002
8.454698e+002, 8.369833e+002
8.459520e+002, 8.360682e+002
8.464341e+002, 8.351678e+002
8.469162e+002, 8.348568e+002
8.473983e+002, 8.345375e+002
8.478804e+002, 8.333452e+002
8.483625e+002, 8.315406e+002
8.488447e+002, 8.306461e+002
8.493268e+002, 8.317747e+002
8.498089e+002, 8.329235e+002
8.502910e+002, 8.328007e+002
8.507731e+002, 8.322056e+002
8.512552e+002, 8.320198e+002
8.517374e+002, 8.322531e+002
8.522195e+002, 8.326150e+002
8.527016e+002, 8.329701e+002
8.531837e+002, 8.331810e+002
8.536658e+002, 8.330200e+002
8.541479e+002, 8.325521e+002
8.546301e+002, 8.320985e+002
8.551122e+002, 8.316670e+002
8.555943e+002, 8.311234e+002
8.560764e+002, 8.304020e+002
8.565585e+002, 8.296355e+002
8.570406e+002, 8.289260e+002
8.575228e+002, 8.282958e+002
8.580049e+002, 8.279808e+002
8.584870e+002, 8.282097e+002
8.589691e+002, 8.283834e+002
8.594512e+002, 8.284895e+002
8.599333e+002, 8.285059e+002
8.604155e+002, 8.284027e+002
8.608976e+002, 8.282136e+002
8.613797e+002, 8.280029e+002
8.618618e+002, 8.277947e+002
8.623439e+002, 8.275074e+002
8.628260e+002, 8.269304e+002
8.633082e+002, 8.264305e+002
8.637903e+002, 8.264793e+002
8.642724e+002, 8.267425e+002
8.647545e+002, 8.266170e+002
8.652366e+002, 8.259940e+002
8.657188e+002, 8.251945e+002
8.662009e+002, 8.244031e+002
8.666830e+002, 8.236897e+002
8.671651e+002, 8.230422e+002
8.676472e+002, 8.225408e+002
8.681293e+002, 8.229532e+002
8.686115e+002, 8.244390e+002
8.690936e+002, 8.256854e+002
8.695757e+002, 8.259293e+002
8.700578e+002, 8.253725e+002
8.705399e+002, 8.242775e+002
8.710220e+002, 8.223200e+002
8.715042e+002, 8.215314e+002
8.719863e+002, 8.228175e+002
8.724684e+002, 8.238257e+002
8.729505e+002, 8.237792e+002
8.734326e+002, 8.232032e+002
8.739147e+002, 8.223790e+002
8.743969e+002, 8.213820e+002
8.748790e+002, 8.205596e+002
8.753611e+002, 8.196942e+002
8.758432e+002, 8.194327e+002
8.763253e+002, 8.209135e+002
8.768074e+002, 8.223376e+002
8.772896e+002, 8.217772e+002
8.777717e+002, 8.199006e+002
8.782538e+002, 8.183008e+002
8.787359e+002, 8.175710e+002
8.792180e+002, 8.179691e+002
8.797001e+002, 8.210898e+002
8.801823e+002, 8.248170e+002
8.806644e+002, 8.245026e+002
8.811465e+002, 8.210756e+002
8.816286e+002, 8.188739e+002
8.821107e+002, 8.190198e+002
8.825928e+002, 8.196943e+002
8.830750e+002, 8.193098e+002
8.835571e+002, 8.182283e+002
8.840392e+002, 8.178436e+002
8.845213e+002, 8.184293e+002
8.850034e+002, 8.179335e+002
8.854855e+002, 8.154093e+002
8.859677e+002, 8.136600e+002
8.864498e+002, 8.148467e+002
8.869319e+002, 8.171263e+002
8.874140e+002, 8.171736e+002
8.878961e+002, 8.145479e+002
8.883782e+002, 8.126712e+002
8.888604e+002, 8.117917e+002
8.893425e+002, 8.114847e+002
8.898246e+002, 8.121917e+002
8.903067e+002, 8.129889e+002
8.907888e+002, 8.130527e+002
8.912709e+002, 8.124912e+002
8.917531e+002, 8.119054e+002
8.922352e+002, 8.115512e+002
8.927173e+002, 8.110628e+002
8.931994e+002, 8.097350e+002
8.936815e+002, 8.084725e+002
8.941636e+002, 8.085931e+002
8.946458e+002, 8.096740e+002
8.951279e+002, 8.105062e+002
8.956100e+002, 8.106874e+002
8.960921e+002, 8.105115e+002
8.965742e+002, 8.102731e+002
8.970563e+002, 8.098723e+002
8.975385e+002, 8.086190e+002
8.980206e+002, 8.066747e+002
8.985027e+002, 8.065785e+002
8.989848e+002, 8.089669e+002
8.994669e+002, 8.109885e+002
8.999490e+002, 8.106481e+002
9.004312e+002, 8.090378e+002
9.009133e+002, 8.087717e+002
9.013954e+002, 8.103637e+002
9.018775e+002, 8.108688e+002
9.023596e+002, 8.094661e+002
9.028417e+002, 8.083807e+002
9.033239e+002, 8.086660e+002
9.038060e+002, 8.092628e+002
9.042881e+002, 8.090480e+002
9.047702e+002, 8.081873e+002
9.052523e+002, 8.077747e+002
9.057344e+002, 8.084327e+002
9.062166e+002, 8.088258e+002
9.066987e+002, 8.085125e+002
9.071808e+002, 8.079479e+002
9.076629e+002, 8.071469e+002
9.081450e+002, 8.064441e+002
9.086271e+002, 8.064127e+002
9.091093e+002, 8.071836e+002
9.095914e+002, 8.082067e+002
9.100735e+002, 8.098428e+002
9.105556e+002, 8.109032e+002
9.110377e+002, 8.092935e+002
9.115198e+002, 8.063378e+002
9.120020e+002, 8.048452e+002
9.124841e+002, 8.051437e+002
9.129662e+002, 8.058449e+002
9.134483e+002, 8.060939e+002
9.139304e+002, 8.061339e+002
9.144125e+002, 8.064499e+002
9.148947e+002, 8.069738e+002
9.153768e+002, 8.071522e+002
9.158589e+002, 8.069608e+002
9.163410e+002, 8.064119e+002
9.168231e+002, 8.053760e+002
9.173052e+002, 8.045825e+002
9.177874e+002, 8.050240e+002
9.182695e+002, 8.064797e+002
9.187516e+002, 8.066463e+002
9.192337e+002, 8.045714e+002
9.197158e+002, 8.035056e+002
9.201979e+002, 8.040538e+002
9.206801e+002, 8.052852e+002
9.211622e+002, 8.075059e+002
9.216443e+002, 8.097477e+002
9.221264e+002, 8.101261e+002
9.226085e+002, 8.082115e+002
9.230906e+002, 8.071889e+002
9.235728e+002, 8.082159e+002
9.240549e+002, 8.093002e+002
9.245370e+002, 8.097537e+002
9.250191e+002, 8.098808e+002
9.255012e+002, 8.097713e+002
9.259833e+002, 8.096207e+002
9.264655e+002, 8.098101e+002
9.269476e+002, 8.104125e+002
9.274297e+002, 8.116635e+002
9.279118e+002, 8.145840e+002
9.283939e+002, 8.175566e+002
9.288760e+002, 8.183804e+002
9.293582e+002, 8.178417e+002
9.298403e+002, 8.178950e+002
9.303224e+002, 8.190303e+002
9.308045e+002, 8.205174e+002
9.312866e+002, 8.218835e+002
9.317687e+002, 8.230180e+002
9.322509e+002, 8.233741e+002
9.327330e+002, 8.232657e+002
9.332151e+002, 8.240219e+002
9.336972e+002, 8.258005e+002
9.341793e+002, 8.286732e+002
9.346614e+002, 8.327722e+002
9.351436e+002, 8.372697e+002
9.356257e+002, 8.408580e+002
9.361078e+002, 8.436137e+002
9.365899e+002, 8.471059e+002
9.370720e+002, 8.514564e+002
9.375541e+002, 8.559462e+002
9.380363e+002, 8.603147e+002
9.385184e+002, 8.649573e+002
9.390005e+002, 8.700886e+002
9.394826e+002, 8.757177e+002
9.399647e+002, 8.819529e+002
9.404468e+002, 8.887770e+002
9.409290e+002, 8.961905e+002
9.414111e+002, 9.039916e+002
9.418932e+002, 9.126552e+002
9.423753e+002, 9.223902e+002
9.428574e+002, 9.329911e+002
9.433395e+002, 9.443422e+002
9.438217e+002, 9.564203e+002
9.443038e+002, 9.689772e+002
9.447859e+002, 9.818164e+002
9.452680e+002, 9.954218e+002
9.457501e+002, 1.010153e+003
9.462322e+002, 1.025543e+003
9.467144e+002, 1.041160e+003
9.471965e+002, 1.057209e+003
9.476786e+002, 1.074468e+003
9.481607e+002, 1.092931e+003
9.486428e+002, 1.111219e+003
9.491249e+002, 1.128015e+003
9.496071e+002, 1.144712e+003
9.500892e+002, 1.163398e+003
9.505713e+002, 1.182506e+003
9.510534e+002, 1.199761e+003
9.515355e+002, 1.214746e+003
9.520176e+002, 1.227428e+003
9.524998e+002, 1.237805e+003
9.529819e+002, 1.246360e+003
9.534640e+002, 1.254310e+003
9.539461e+002, 1.260702e+003
9.544282e+002, 1.262498e+003
9.549103e+002, 1.259929e+003
9.553925e+002, 1.254792e+003
9.558746e+002, 1.247434e+003
9.563567e+002, 1.237855e+003
9.568388e+002, 1.226131e+003
9.573209e+002, 1.211817e+003
9.578030e+002, 1.193467e+003
9.582852e+002, 1.170784e+003
9.587673e+002, 1.147130e+003
9.592494e+002, 1.122021e+003
9.597315e+002, 1.098068e+003
9.602136e+002, 1.075912e+003
9.606957e+002, 1.055436e+003
9.611779e+002, 1.037395e+003
9.616600e+002, 1.020911e+003
9.621421e+002, 1.001429e+003
9.626242e+002, 9.756584e+002
9.631063e+002, 9.534732e+002
9.635884e+002, 9.358572e+002
9.640706e+002, 9.208321e+002
9.645527e+002, 9.086456e+002
9.650348e+002, 8.979482e+002
9.655169e+002, 8.868806e+002
9.659990e+002, 8.755780e+002
9.664811e+002, 8.665649e+002
9.669633e+002, 8.616680e+002
9.674454e+002, 8.570573e+002
9.679275e+002, 8.521479e+002
9.684096e+002, 8.469603e+002
9.688917e+002, 8.406516e+002
9.693738e+002, 8.344080e+002
9.698560e+002, 8.303793e+002
9.703381e+002, 8.289048e+002
9.708202e+002, 8.274796e+002
9.713023e+002, 8.245763e+002
9.717844e+002, 8.217181e+002
9.722665e+002, 8.201017e+002
9.727487e+002, 8.189778e+002
9.732308e+002, 8.173699e+002
9.737129e+002, 8.154330e+002
9.741950e+002, 8.139908e+002
9.746771e+002, 8.133602e+002
9.751592e+002, 8.127839e+002
9.756414e+002, 8.113953e+002
9.761235e+002, 8.098049e+002
9.766056e+002, 8.089503e+002
9.770877e+002, 8.085701e+002
9.775698e+002, 8.080405e+002
9.780519e+002, 8.072646e+002
9.785341e+002, 8.064103e+002
9.790162e+002, 8.055629e+002
9.794983e+002, 8.048684e+002
9.799804e+002, 8.046613e+002
9.804625e+002, 8.047802e+002
9.809446e+002, 8.045972e+002
9.814268e+002, 8.041223e+002
9.819089e+002, 8.036017e+002
9.823910e+002, 8.031034e+002
9.828731e+002, 8.023974e+002
9.833552e+002, 8.012501e+002
9.838373e+002, 7.999311e+002
9.843195e+002, 7.989513e+002
9.848016e+002, 7.982739e+002
9.852837e+002, 7.991576e+002
9.857658e+002, 8.021367e+002
9.862479e+002, 8.037274e+002
9.867300e+002, 8.024147e+002
9.872122e+002, 8.001623e+002
9.876943e+002, 7.988165e+002
9.881764e+002, 7.982790e+002
9.886585e+002, 7.980277e+002
9.891406e+002, 7.981180e+002
9.896227e+002, 7.983199e+002
9.901049e+002, 7.985585e+002
9.905870e+002, 7.990465e+002
9.910691e+002, 8.001057e+002
9.915512e+002, 8.012333e+002
9.920333e+002, 8.018630e+002
9.925154e+002, 8.019983e+002
9.929976e+002, 8.018381e+002
9.934797e+002, 8.010459e+002
9.939618e+002, 8.004756e+002
9.944439e+002, 8.001994e+002
9.949260e+002, 8.001207e+002
9.954081e+002, 8.000391e+002
9.958903e+002, 8.002128e+002
9.963724e+002, 8.007968e+002
9.968545e+002, 8.018285e+002
9.973366e+002, 8.040839e+002
9.978187e+002, 8.095336e+002
9.983008e+002, 8.137079e+002
9.987830e+002, 8.161511e+002
9.992651e+002, 8.161229e+002
9.997472e+002, 8.102866e+002
1.000229e+003, 8.027284e+002
1.000711e+003, 8.014313e+002
1.001194e+003, 8.077266e+002
1.001676e+003, 8.118469e+002
1.002158e+003, 8.071949e+002
1.002640e+003, 8.020236e+002
1.003122e+003, 8.011973e+002
1.003604e+003, 8.021724e+002
1.004086e+003, 8.026464e+002
1.004568e+003, 8.025090e+002
1.005050e+003, 8.022303e+002
1.005533e+003, 8.019689e+002
1.006015e+003, 8.018818e+002
1.006497e+003, 8.022390e+002
1.006979e+003, 8.026669e+002
1.007461e+003, 8.028033e+002
1.007943e+003, 8.027667e+002
1.008425e+003, 8.026567e+002
1.008907e+003, 8.025564e+002
1.009390e+003, 8.026544e+002
1.009872e+003, 8.030287e+002
1.010354e+003, 8.034974e+002
1.010836e+003, 8.040201e+002
1.011318e+003, 8.044296e+002
1.011800e+003, 8.043573e+002
1.012282e+003, 8.039715e+002
1.012764e+003, 8.035897e+002
1.013246e+003, 8.033238e+002
1.013729e+003, 8.034098e+002
1.014211e+003, 8.039799e+002
1.014693e+003, 8.047196e+002
1.015175e+003, 8.051735e+002
1.015657e+003, 8.054852e+002
1.016139e+003, 8.062911e+002
1.016621e+003, 8.073941e+002
1.017103e+003, 8.075563e+002
1.017586e+003, 8.066309e+002
1.018068e+003, 8.060784e+002
1.018550e+003, 8.068557e+002
1.019032e+003, 8.079941e+002
1.019514e+003, 8.075717e+002
1.019996e+003, 8.059561e+002
1.020478e+003, 8.059123e+002
1.020960e+003, 8.074029e+002
1.021442e+003, 8.092166e+002
1.021925e+003, 8.111351e+002
1.022407e+003, 8.122062e+002
1.022889e+003, 8.116252e+002
1.023371e+003, 8.102993e+002
1.023853e+003, 8.101438e+002
1.024335e+003, 8.111710e+002
1.024817e+003, 8.116075e+002
1.025299e+003, 8.113802e+002
1.025781e+003, 8.109943e+002
1.026264e+003, 8.104561e+002
1.026746e+003, 8.102838e+002
1.027228e+003, 8.109700e+002
1.027710e+003, 8.120857e+002
1.028192e+003, 8.125549e+002
1.028674e+003, 8.122352e+002
1.029156e+003, 8.124166e+002
1.029638e+003, 8.133035e+002
1.030120e+003, 8.140495e+002
1.030603e+003, 8.146196e+002
1.031085e+003, 8.145155e+002
1.031567e+003, 8.129152e+002
1.032049e+003, 8.107379e+002
1.032531e+003, 8.105867e+002
1.033013e+003, 8.131622e+002
1.033495e+003, 8.145873e+002
1.033977e+003, 8.143801e+002
1.034460e+003, 8.140532e+002
1.034942e+003, 8.139635e+002
1.035424e+003, 8.138903e+002
1.035906e+003, 8.136420e+002
1.036388e+003, 8.132887e+002
1.036870e+003, 8.130041e+002
1.037352e+003, 8.127262e+002
1.037834e+003, 8.127596e+002
1.038317e+003, 8.135754e+002
1.038799e+003, 8.139771e+002
1.039281e+003, 8.134637e+002
1.039763e+003, 8.126718e+002
1.040245e+003, 8.116476e+002
1.040727e+003, 8.107667e+002
1.041209e+003, 8.112659e+002
1.041691e+003, 8.139346e+002
1.042173e+003, 8.154560e+002
1.042656e+003, 8.148151e+002
1.043138e+003, 8.143297e+002
1.043620e+003, 8.145134e+002
1.044102e+003, 8.150876e+002
1.044584e+003, 8.162122e+002
1.045066e+003, 8.174967e+002
1.045548e+003, 8.178995e+002
1.046030e+003, 8.171053e+002
1.046512e+003, 8.164178e+002
1.046995e+003, 8.158300e+002
1.047477e+003, 8.155596e+002
1.047959e+003, 8.157970e+002
1.048441e+003, 8.162626e+002
1.048923e+003, 8.170125e+002
1.049405e+003, 8.177601e+002
1.049887e+003, 8.176608e+002
1.050369e+003, 8.162649e+002
1.050852e+003, 8.159150e+002
1.051334e+003, 8.185135e+002
1.051816e+003, 8.203183e+002
1.052298e+003, 8.193043e+002
1.052780e+003, 8.176671e+002
1.053262e+003, 8.171290e+002
1.053744e+003, 8.174086e+002
1.054226e+003, 8.176268e+002
1.054708e+003, 8.176436e+002
1.055191e+003, 8.175875e+002
1.055673e+003, 8.177299e+002
1.056155e+003, 8.174931e+002
1.056637e+003, 8.158474e+002
1.057119e+003, 8.144576e+002
1.057601e+003, 8.150568e+002
1.058083e+003, 8.168688e+002
1.058565e+003, 8.181935e+002
1.059047e+003, 8.187001e+002
1.059530e+003, 8.188708e+002
1.060012e+003, 8.188157e+002
1.060494e+003, 8.185087e+002
1.060976e+003, 8.175448e+002
1.061458e+003, 8.166906e+002
1.061940e+003, 8.167242e+002
1.062422e+003, 8.172926e+002
1.062904e+003, 8.177321e+002
1.063387e+003, 8.179107e+002
1.063869e+003, 8.176823e+002
1.064351e+003, 8.165682e+002
1.064833e+003, 8.155930e+002
1.065315e+003, 8.156375e+002
1.065797e+003, 8.156190e+002
1.066279e+003, 8.140206e+002
1.066761e+003, 8.119525e+002
1.067244e+003, 8.118685e+002
1.067726e+003, 8.140247e+002
1.068208e+003, 8.152571e+002
1.068690e+003, 8.132737e+002
1.069172e+003, 8.114592e+002
1.069654e+003, 8.116209e+002
1.070136e+003, 8.123033e+002
1.070618e+003, 8.126451e+002
1.071100e+003, 8.125295e+002
1.071583e+003, 8.115892e+002
1.072065e+003, 8.099775e+002
1.072547e+003, 8.092258e+002
1.073029e+003, 8.106037e+002
1.073511e+003, 8.118207e+002
1.073993e+003, 8.117279e+002
1.074475e+003, 8.111199e+002
1.074957e+003, 8.104233e+002
1.075439e+003, 8.097216e+002
1.075922e+003, 8.089064e+002
1.076404e+003, 8.080792e+002
1.076886e+003, 8.078381e+002
1.077368e+003, 8.087991e+002
1.077850e+003, 8.094766e+002
1.078332e+003, 8.089862e+002
1.078814e+003, 8.081633e+002
1.079297e+003, 8.074590e+002
1.079779e+003, 8.068924e+002
1.080261e+003, 8.064772e+002
1.080743e+003, 8.061751e+002
1.081225e+003, 8.057941e+002
1.081707e+003, 8.050635e+002
1.082189e+003, 8.049456e+002
1.082671e+003, 8.068646e+002
1.083153e+003, 8.084366e+002
1.083635e+003, 8.075640e+002
1.084118e+003, 8.058799e+002
1.084600e+003, 8.053339e+002
1.085082e+003, 8.058010e+002
1.085564e+003, 8.061949e+002
1.086046e+003, 8.062834e+002
1.086528e+003, 8.058741e+002
1.087010e+003, 8.046672e+002
1.087492e+003, 8.032098e+002
1.087975e+003, 8.011243e+002
1.088457e+003, 7.994910e+002
1.088939e+003, 7.999042e+002
1.089421e+003, 8.015473e+002
1.089903e+003, 8.022587e+002
1.090385e+003, 8.014943e+002
1.090867e+003, 8.004947e+002
1.091349e+003, 7.992709e+002
1.091832e+003, 7.985087e+002
1.092314e+003, 7.987723e+002
1.092796e+003, 7.994048e+002
1.093278e+003, 8.000311e+002
1.093760e+003, 8.005292e+002
1.094242e+003, 8.007441e+002
1.094724e+003, 8.006533e+002
1.095206e+003, 8.005325e+002
1.095688e+003, 8.002934e+002
1.096171e+003, 8.002777e+002
1.096653e+003, 8.011927e+002
1.097135e+003, 8.017612e+002
1.097617e+003, 8.006556e+002
1.098099e+003, 7.988712e+002
1.098581e+003, 7.979713e+002
1.099063e+003, 7.980411e+002
1.099545e+003, 7.979507e+002
1.100027e+003, 7.973571e+002
1.100510e+003, 7.966923e+002
1.100992e+003, 7.959778e+002
1.101474e+003, 7.953157e+002
1.101956e+003, 7.944862e+002
1.102438e+003, 7.939310e+002
1.102920e+003, 7.943673e+002
1.103402e+003, 7.955967e+002
1.103884e+003, 7.965119e+002
1.104367e+003, 7.969434e+002
1.104849e+003, 7.970430e+002
1.105331e+003, 7.963016e+002
1.105813e+003, 7.959057e+002
1.106295e+003, 7.971502e+002
1.106777e+003, 7.982186e+002
1.107259e+003, 7.968402e+002
1.107741e+003, 7.940164e+002
1.108224e+003, 7.929648e+002
1.108706e+003, 7.946771e+002
1.109188e+003, 7.951752e+002
1.109670e+003, 7.928487e+002
1.110152e+003, 7.910404e+002
1.110634e+003, 7.905498e+002
1.111116e+003, 7.907794e+002
1.111598e+003, 7.919294e+002
1.112080e+003, 7.932947e+002
1.112563e+003, 7.935145e+002
1.113045e+003, 7.924714e+002
1.113527e+003, 7.912198e+002
1.114009e+003, 7.894478e+002
1.114491e+003, 7.879692e+002
1.114973e+003, 7.868041e+002
1.115455e+003, 7.860320e+002
1.115937e+003, 7.857278e+002
1.116419e+003, 7.858314e+002
1.116902e+003, 7.866022e+002
1.117384e+003, 7.878777e+002
1.117866e+003, 7.875762e+002
1.118348e+003, 7.844775e+002
1.118830e+003, 7.826727e+002
1.119312e+003, 7.827314e+002
1.119794e+003, 7.832532e+002
1.120276e+003, 7.840312e+002
1.120759e+003, 7.846373e+002
1.121241e+003, 7.846730e+002
1.121723e+003, 7.842029e+002
1.122205e+003, 7.833685e+002
1.122687e+003, 7.818865e+002
1.123169e+003, 7.814099e+002
1.123651e+003, 7.823079e+002
1.124133e+003, 7.829736e+002
1.124615e+003, 7.830240e+002
1.125098e+003, 7.827018e+002
1.125580e+003, 7.820948e+002
1.126062e+003, 7.813826e+002
1.126544e+003, 7.809478e+002
1.127026e+003, 7.807838e+002
1.127508e+003, 7.802795e+002
1.127990e+003, 7.793115e+002
1.128472e+003, 7.792264e+002
1.128954e+003, 7.803669e+002
1.129437e+003, 7.814366e+002
1.129919e+003, 7.818439e+002
1.130401e+003, 7.816416e+002
1.130883e+003, 7.807869e+002
1.131365e+003, 7.794951e+002
1.131847e+003, 7.785173e+002
1.132329e+003, 7.778661e+002
1.132811e+003, 7.781261e+002
1.133294e+003, 7.792991e+002
1.133776e+003, 7.799384e+002
1.134258e+003, 7.795606e+002
1.134740e+003, 7.787275e+002
1.135222e+003, 7.778487e+002
1.135704e+003, 7.770756e+002
1.136186e+003, 7.766262e+002
1.136668e+003, 7.765564e+002
1.137151e+003, 7.775126e+002
1.137633e+003, 7.791243e+002
1.138115e+003, 7.793455e+002
1.138597e+003, 7.779327e+002
1.139079e+003, 7.764695e+002
1.139561e+003, 7.758324e+002
1.140043e+003, 7.755928e+002
1.140525e+003, 7.752458e+002
1.141007e+003, 7.749388e+002
1.141490e+003, 7.751135e+002
1.141972e+003, 7.754865e+002
1.142454e+003, 7.752639e+002
1.142936e+003, 7.745953e+002
1.143418e+003, 7.744659e+002
1.143900e+003, 7.751214e+002
1.144382e+003, 7.754493e+002
1.144864e+003, 7.743607e+002
1.145346e+003, 7.730631e+002
1.145829e+003, 7.727305e+002
1.146311e+003, 7.730443e+002
1.146793e+003, 7.742242e+002
1.147275e+003, 7.754725e+002
1.147757e+003, 7.750547e+002
1.148239e+003, 7.730824e+002
1.148721e+003, 7.714435e+002
1.149203e+003, 7.709152e+002
1.149686e+003, 7.711786e+002
1.150168e+003, 7.727843e+002
1.150650e+003, 7.742765e+002
1.151132e+003, 7.745006e+002
1.151614e+003, 7.740967e+002
1.152096e+003, 7.736548e+002
1.152578e+003, 7.732899e+002
1.153060e+003, 7.729234e+002
1.153542e+003, 7.725212e+002
1.154025e+003, 7.727307e+002
1.154507e+003, 7.745225e+002
1.154989e+003, 7.759070e+002
1.155471e+003, 7.758713e+002
1.155953e+003, 7.755348e+002
1.156435e+003, 7.757443e+002
1.156917e+003, 7.760287e+002
1.157399e+003, 7.754144e+002
1.157881e+003, 7.740373e+002
1.158364e+003, 7.736118e+002
1.158846e+003, 7.751833e+002
1.159328e+003, 7.760234e+002
1.159810e+003, 7.754061e+002
1.160292e+003, 7.747844e+002
1.160774e+003, 7.744470e+002
1.161256e+003, 7.744055e+002
1.161738e+003, 7.748486e+002
1.162221e+003, 7.755195e+002
1.162703e+003, 7.758405e+002
1.163185e+003, 7.758411e+002
1.163667e+003, 7.752028e+002
1.164149e+003, 7.735543e+002
1.164631e+003, 7.723226e+002
1.165113e+003, 7.716094e+002
1.165595e+003, 7.717581e+002
1.166078e+003, 7.732555e+002
1.166560e+003, 7.748867e+002
1.167042e+003, 7.750515e+002
1.167524e+003, 7.741341e+002
1.168006e+003, 7.739807e+002
1.168488e+003, 7.746211e+002
1.168970e+003, 7.751307e+002
1.169452e+003, 7.754648e+002
1.169934e+003, 7.755545e+002
1.170417e+003, 7.753745e+002
1.170899e+003, 7.751270e+002
1.171381e+003, 7.749326e+002
1.171863e+003, 7.749357e+002
1.172345e+003, 7.758517e+002
1.172827e+003, 7.770668e+002
1.173309e+003, 7.758464e+002
1.173791e+003, 7.729592e+002
1.174273e+003, 7.713768e+002
1.174756e+003, 7.713552e+002
1.175238e+003, 7.716407e+002
1.175720e+003, 7.717536e+002
1.176202e+003, 7.724078e+002
1.176684e+003, 7.747782e+002
1.177166e+003, 7.768868e+002
1.177648e+003, 7.754955e+002
1.178130e+003, 7.728065e+002
1.178613e+003, 7.718728e+002
1.179095e+003, 7.723260e+002
1.179577e+003, 7.731283e+002
1.180059e+003, 7.739837e+002
1.180541e+003, 7.749203e+002
1.181023e+003, 7.760718e+002
1.181505e+003, 7.765159e+002
1.181987e+003, 7.750823e+002
1.182469e+003, 7.734835e+002
1.182952e+003, 7.725505e+002
1.183434e+003, 7.722764e+002
1.183916e+003, 7.731699e+002
1.184398e+003, 7.744699e+002
1.184880e+003, 7.745757e+002
1.185362e+003, 7.733085e+002
1.185844e+003, 7.725222e+002
1.186326e+003, 7.733416e+002
1.186808e+003, 7.735909e+002
1.187291e+003, 7.722372e+002
1.187773e+003, 7.710521e+002
1.188255e+003, 7.708915e+002
1.188737e+003, 7.711836e+002
1.189219e+003, 7.716934e+002
1.189701e+003, 7.721317e+002
1.190183e+003, 7.714650e+002
1.190665e+003, 7.692668e+002
1.191148e+003, 7.682193e+002
1.191630e+003, 7.686689e+002
1.192112e+003, 7.693666e+002
1.192594e+003, 7.702935e+002
1.193076e+003, 7.708708e+002
1.193558e+003, 7.707336e+002
1.194040e+003, 7.702867e+002
1.194522e+003, 7.700275e+002
1.195005e+003, 7.699143e+002
1.195487e+003, 7.696677e+002
1.195969e+003, 7.693147e+002
1.196451e+003, 7.698788e+002
1.196933e+003, 7.713292e+002
1.197415e+003, 7.717514e+002
1.197897e+003, 7.706994e+002
1.198379e+003, 7.695869e+002
1.198861e+003, 7.693022e+002
1.199344e+003, 7.694447e+002
1.199826e+003, 7.696393e+002
1.200308e+003, 7.697570e+002
1.200790e+003, 7.694156e+002
1.201272e+003, 7.688391e+002
1.201754e+003, 7.684510e+002
1.202236e+003, 7.683140e+002
1.202718e+003, 7.684527e+002
1.203200e+003, 7.688492e+002
1.203683e+003, 7.693745e+002
1.204165e+003, 7.700781e+002
1.204647e+003, 7.705432e+002
1.205129e+003, 7.703088e+002
1.205611e+003, 7.698612e+002
1.206093e+003, 7.693963e+002
1.206575e+003, 7.691281e+002
1.207057e+003, 7.694963e+002
1.207540e+003, 7.702224e+002
1.208022e+003, 7.705425e+002
1.208504e+003, 7.702877e+002
1.208986e+003, 7.698157e+002
1.209468e+003, 7.689424e+002
1.209950e+003, 7.682538e+002
1.210432e+003, 7.680095e+002
1.210914e+003, 7.678154e+002
1.211396e+003, 7.673615e+002
1.211879e+003, 7.669452e+002
1.212361e+003, 7.667853e+002
1.212843e+003, 7.669424e+002
1.213325e+003, 7.677879e+002
1.213807e+003, 7.697014e+002
1.214289e+003, 7.703917e+002
1.214771e+003, 7.695744e+002
1.215253e+003, 7.686355e+002
1.215735e+003, 7.677906e+002
1.216218e+003, 7.671859e+002
1.216700e+003, 7.669469e+002
1.217182e+003, 7.667272e+002
1.217664e+003, 7.659949e+002
1.218146e+003, 7.650847e+002
1.218628e+003, 7.651749e+002
1.219110e+003, 7.660514e+002
1.219592e+003, 7.667948e+002
1.220075e+003, 7.672593e+002
1.220557e+003, 7.668711e+002
1.221039e+003, 7.656707e+002
1.221521e+003, 7.647778e+002
1.222003e+003, 7.648201e+002
1.222485e+003, 7.652014e+002
1.222967e+003, 7.653934e+002
1.223449e+003, 7.655305e+002
1.223932e+003, 7.659485e+002
1.224414e+003, 7.662684e+002
1.224896e+003, 7.658397e+002
1.225378e+003, 7.649758e+002
1.225860e+003, 7.643398e+002
1.226342e+003, 7.640345e+002
1.226824e+003, 7.637833e+002
1.227306e+003, 7.633494e+002
1.227788e+003, 7.633650e+002
1.228271e+003, 7.646525e+002
1.228753e+003, 7.656334e+002
1.229235e+003, 7.654443e+002
1.229717e+003, 7.648624e+002
1.230199e+003, 7.642799e+002
1.230681e+003, 7.638423e+002
1.231163e+003, 7.637754e+002
1.231645e+003, 7.640730e+002
1.232127e+003, 7.645525e+002
1.232610e+003, 7.654753e+002
1.233092e+003, 7.657317e+002
1.233574e+003, 7.651168e+002
1.234056e+003, 7.643261e+002
1.234538e+003, 7.634879e+002
1.235020e+003, 7.629158e+002
1.235502e+003, 7.628752e+002
1.235984e+003, 7.631171e+002
1.236467e+003, 7.632479e+002
1.236949e+003, 7.632753e+002
1.237431e+003, 7.631404e+002
1.237913e+003, 7.629216e+002
1.238395e+003, 7.631315e+002
1.238877e+003, 7.636393e+002
1.239359e+003, 7.633929e+002
1.239841e+003, 7.622494e+002
1.240323e+003, 7.616638e+002
1.240806e+003, 7.626783e+002
1.241288e+003, 7.639821e+002
1.241770e+003, 7.643308e+002
1.242252e+003, 7.643467e+002
1.242734e+003, 7.646486e+002
1.243216e+003, 7.649750e+002
1.243698e+003, 7.650199e+002
1.244180e+003, 7.647885e+002
1.244662e+003, 7.642999e+002
1.245145e+003, 7.635897e+002
1.245627e+003, 7.630085e+002
1.246109e+003, 7.629190e+002
1.246591e+003, 7.624792e+002
1.247073e+003, 7.606391e+002
1.247555e+003, 7.597007e+002
1.248037e+003, 7.613637e+002
1.248519e+003, 7.630302e+002
1.249002e+003, 7.625535e+002
1.249484e+003, 7.612372e+002
1.249966e+003, 7.616309e+002
1.250448e+003, 7.635682e+002
1.250930e+003, 7.639348e+002
1.251412e+003, 7.624951e+002
1.251894e+003, 7.622499e+002
1.252376e+003, 7.634843e+002
1.252859e+003, 7.640400e+002
1.253341e+003, 7.632660e+002
1.253823e+003, 7.621614e+002
1.254305e+003, 7.613737e+002
1.254787e+003, 7.609505e+002
1.255269e+003, 7.610191e+002
1.255751e+003, 7.614506e+002
1.256233e+003, 7.624063e+002
1.256715e+003, 7.633240e+002
1.257198e+003, 7.628217e+002
1.257680e+003, 7.614573e+002
1.258162e+003, 7.608528e+002
1.258644e+003, 7.612400e+002
1.259126e+003, 7.616585e+002
1.259608e+003, 7.617358e+002
1.260090e+003, 7.616816e+002
1.260572e+003, 7.613934e+002
1.261054e+003, 7.612672e+002
1.261537e+003, 7.618135e+002
1.262019e+003, 7.622748e+002
1.262501e+003, 7.619785e+002
1.262983e+003, 7.612771e+002
1.263465e+003, 7.606268e+002
1.263947e+003, 7.600837e+002
1.264429e+003, 7.600660e+002
1.264911e+003, 7.608010e+002
1.265394e+003, 7.612922e+002
1.265876e+003, 7.615389e+002
1.266358e+003, 7.614599e+002
1.266840e+003, 7.609864e+002
1.267322e+003, 7.604252e+002
1.267804e+003, 7.598860e+002
1.268286e+003, 7.599197e+002
1.268768e+003, 7.614946e+002
1.269250e+003, 7.635082e+002
1.269733e+003, 7.631387e+002
1.270215e+003, 7.613613e+002
1.270697e+003, 7.605120e+002
1.271179e+003, 7.604332e+002
1.271661e+003, 7.602928e+002
1.272143e+003, 7.600248e+002
1.272625e+003, 7.600438e+002
1.273107e+003, 7.605068e+002
1.273589e+003, 7.612683e+002
1.274072e+003, 7.626872e+002
1.274554e+003, 7.637598e+002
1.275036e+003, 7.640763e+002
1.275518e+003, 7.637738e+002
1.276000e+003, 7.624315e+002
1.276482e+003, 7.609053e+002
1.276964e+003, 7.602112e+002
1.277446e+003, 7.602226e+002
1.277929e+003, 7.600837e+002
1.278411e+003, 7.597558e+002
1.278893e+003, 7.596608e+002
1.279375e+003, 7.596901e+002
1.279857e+003, 7.607106e+002
1.280339e+003, 7.632762e+002
1.280821e+003, 7.640320e+002
1.281303e+003, 7.616212e+002
1.281786e+003, 7.592186e+002
1.282268e+003, 7.590827e+002
##END=



