##NAMES=Gillardite
##RRUFFID=R110068
##IDEAL CHEMISTRY=Cu^2+^_3_Ni^2+^Cl_2_(OH)_6_
##LOCALITY=132 North deposit, Widgiemooltha, Western Australia, Australia
##OWNER=RRUFF
##SOURCE=Renato & Adriana Pagano
##DESCRIPTION=Aggregates of dark green flat rhombohedra
##STATUS=The identification of this mineral has been confirmed only by single crystal X-ray diffraction.
##URL=rruff.info/R110068
9.059570e+001, 1.017454e+003
9.107782e+001, 1.015503e+003
9.155994e+001, 1.014859e+003
9.204205e+001, 1.016661e+003
9.252417e+001, 1.018988e+003
9.300629e+001, 1.022301e+003
9.348840e+001, 1.020824e+003
9.397052e+001, 1.006322e+003
9.445264e+001, 9.738005e+002
9.493475e+001, 9.335005e+002
9.541687e+001, 8.955721e+002
9.589898e+001, 8.600989e+002
9.638110e+001, 8.274471e+002
9.686321e+001, 7.978965e+002
9.734533e+001, 7.709027e+002
9.782745e+001, 7.448479e+002
9.830956e+001, 7.220742e+002
9.879168e+001, 7.031815e+002
9.927380e+001, 6.857415e+002
9.975591e+001, 6.691633e+002
1.002380e+002, 6.532836e+002
1.007201e+002, 6.380787e+002
1.012023e+002, 6.233698e+002
1.016844e+002, 6.093330e+002
1.021665e+002, 5.963079e+002
1.026486e+002, 5.837454e+002
1.031307e+002, 5.723009e+002
1.036128e+002, 5.627216e+002
1.040950e+002, 5.550093e+002
1.045771e+002, 5.485530e+002
1.050592e+002, 5.435139e+002
1.055413e+002, 5.391930e+002
1.060234e+002, 5.346363e+002
1.065055e+002, 5.291264e+002
1.069877e+002, 5.229612e+002
1.074698e+002, 5.175847e+002
1.079519e+002, 5.146121e+002
1.084340e+002, 5.102491e+002
1.089161e+002, 5.032050e+002
1.093982e+002, 4.936465e+002
1.098804e+002, 4.821522e+002
1.103625e+002, 4.685182e+002
1.108446e+002, 4.518877e+002
1.113267e+002, 4.379469e+002
1.118088e+002, 4.272816e+002
1.122909e+002, 4.184619e+002
1.127731e+002, 4.113185e+002
1.132552e+002, 4.056259e+002
1.137373e+002, 4.007751e+002
1.142194e+002, 3.959336e+002
1.147015e+002, 3.905075e+002
1.151836e+002, 3.862565e+002
1.156658e+002, 3.838031e+002
1.161479e+002, 3.821532e+002
1.166300e+002, 3.804868e+002
1.171121e+002, 3.785296e+002
1.175942e+002, 3.762178e+002
1.180763e+002, 3.732738e+002
1.185584e+002, 3.693539e+002
1.190406e+002, 3.656504e+002
1.195227e+002, 3.626094e+002
1.200048e+002, 3.600687e+002
1.204869e+002, 3.575021e+002
1.209690e+002, 3.544942e+002
1.214511e+002, 3.515342e+002
1.219333e+002, 3.494136e+002
1.224154e+002, 3.482426e+002
1.228975e+002, 3.477037e+002
1.233796e+002, 3.477724e+002
1.238617e+002, 3.485395e+002
1.243438e+002, 3.491226e+002
1.248260e+002, 3.492337e+002
1.253081e+002, 3.488826e+002
1.257902e+002, 3.479946e+002
1.262723e+002, 3.465571e+002
1.267544e+002, 3.445542e+002
1.272365e+002, 3.418755e+002
1.277187e+002, 3.380316e+002
1.282008e+002, 3.342846e+002
1.286829e+002, 3.309726e+002
1.291650e+002, 3.279673e+002
1.296471e+002, 3.251606e+002
1.301292e+002, 3.225441e+002
1.306114e+002, 3.200781e+002
1.310935e+002, 3.171537e+002
1.315756e+002, 3.132460e+002
1.320577e+002, 3.093378e+002
1.325398e+002, 3.056804e+002
1.330219e+002, 3.022281e+002
1.335041e+002, 2.988145e+002
1.339862e+002, 2.952559e+002
1.344683e+002, 2.914653e+002
1.349504e+002, 2.880851e+002
1.354325e+002, 2.855146e+002
1.359146e+002, 2.829494e+002
1.363968e+002, 2.796222e+002
1.368789e+002, 2.755839e+002
1.373610e+002, 2.718493e+002
1.378431e+002, 2.697703e+002
1.383252e+002, 2.697804e+002
1.388073e+002, 2.693109e+002
1.392895e+002, 2.676185e+002
1.397716e+002, 2.656089e+002
1.402537e+002, 2.645942e+002
1.407358e+002, 2.650925e+002
1.412179e+002, 2.656966e+002
1.417000e+002, 2.644388e+002
1.421821e+002, 2.615290e+002
1.426643e+002, 2.582702e+002
1.431464e+002, 2.550617e+002
1.436285e+002, 2.519001e+002
1.441106e+002, 2.486956e+002
1.445927e+002, 2.451736e+002
1.450748e+002, 2.419521e+002
1.455570e+002, 2.394258e+002
1.460391e+002, 2.376091e+002
1.465212e+002, 2.363560e+002
1.470033e+002, 2.357171e+002
1.474854e+002, 2.357643e+002
1.479675e+002, 2.357131e+002
1.484497e+002, 2.355197e+002
1.489318e+002, 2.351047e+002
1.494139e+002, 2.343537e+002
1.498960e+002, 2.332567e+002
1.503781e+002, 2.319558e+002
1.508602e+002, 2.307460e+002
1.513424e+002, 2.299485e+002
1.518245e+002, 2.284495e+002
1.523066e+002, 2.259379e+002
1.527887e+002, 2.229596e+002
1.532708e+002, 2.198213e+002
1.537529e+002, 2.166708e+002
1.542351e+002, 2.135709e+002
1.547172e+002, 2.106845e+002
1.551993e+002, 2.079425e+002
1.556814e+002, 2.055757e+002
1.561635e+002, 2.039630e+002
1.566456e+002, 2.026150e+002
1.571278e+002, 2.008983e+002
1.576099e+002, 1.984705e+002
1.580920e+002, 1.955684e+002
1.585741e+002, 1.932191e+002
1.590562e+002, 1.918030e+002
1.595383e+002, 1.904169e+002
1.600205e+002, 1.887154e+002
1.605026e+002, 1.868755e+002
1.609847e+002, 1.853201e+002
1.614668e+002, 1.843249e+002
1.619489e+002, 1.838097e+002
1.624310e+002, 1.833192e+002
1.629131e+002, 1.828543e+002
1.633953e+002, 1.824116e+002
1.638774e+002, 1.820977e+002
1.643595e+002, 1.818809e+002
1.648416e+002, 1.814282e+002
1.653237e+002, 1.803814e+002
1.658058e+002, 1.789758e+002
1.662880e+002, 1.777814e+002
1.667701e+002, 1.769756e+002
1.672522e+002, 1.763047e+002
1.677343e+002, 1.754599e+002
1.682164e+002, 1.743945e+002
1.686985e+002, 1.733848e+002
1.691807e+002, 1.725337e+002
1.696628e+002, 1.718496e+002
1.701449e+002, 1.714046e+002
1.706270e+002, 1.713625e+002
1.711091e+002, 1.714990e+002
1.715912e+002, 1.712940e+002
1.720734e+002, 1.706525e+002
1.725555e+002, 1.698073e+002
1.730376e+002, 1.689228e+002
1.735197e+002, 1.679214e+002
1.740018e+002, 1.666136e+002
1.744839e+002, 1.647338e+002
1.749661e+002, 1.624786e+002
1.754482e+002, 1.611100e+002
1.759303e+002, 1.615495e+002
1.764124e+002, 1.619090e+002
1.768945e+002, 1.617736e+002
1.773766e+002, 1.611969e+002
1.778588e+002, 1.602794e+002
1.783409e+002, 1.590079e+002
1.788230e+002, 1.573732e+002
1.793051e+002, 1.563895e+002
1.797872e+002, 1.567483e+002
1.802693e+002, 1.570711e+002
1.807515e+002, 1.570117e+002
1.812336e+002, 1.565737e+002
1.817157e+002, 1.558741e+002
1.821978e+002, 1.549799e+002
1.826799e+002, 1.538524e+002
1.831620e+002, 1.529215e+002
1.836441e+002, 1.522775e+002
1.841263e+002, 1.516986e+002
1.846084e+002, 1.510813e+002
1.850905e+002, 1.504249e+002
1.855726e+002, 1.497891e+002
1.860547e+002, 1.492358e+002
1.865368e+002, 1.487797e+002
1.870190e+002, 1.483118e+002
1.875011e+002, 1.478777e+002
1.879832e+002, 1.474067e+002
1.884653e+002, 1.467562e+002
1.889474e+002, 1.459303e+002
1.894296e+002, 1.452322e+002
1.899117e+002, 1.450963e+002
1.903938e+002, 1.454948e+002
1.908759e+002, 1.454834e+002
1.913580e+002, 1.446298e+002
1.918401e+002, 1.434711e+002
1.923223e+002, 1.426315e+002
1.928044e+002, 1.422222e+002
1.932865e+002, 1.419093e+002
1.937686e+002, 1.413633e+002
1.942507e+002, 1.406489e+002
1.947328e+002, 1.399435e+002
1.952150e+002, 1.392610e+002
1.956971e+002, 1.386272e+002
1.961792e+002, 1.380891e+002
1.966613e+002, 1.376538e+002
1.971434e+002, 1.373142e+002
1.976255e+002, 1.371544e+002
1.981077e+002, 1.370918e+002
1.985898e+002, 1.369075e+002
1.990719e+002, 1.363620e+002
1.995540e+002, 1.355677e+002
2.000361e+002, 1.350269e+002
2.005182e+002, 1.348684e+002
2.010004e+002, 1.348186e+002
2.014825e+002, 1.348041e+002
2.019646e+002, 1.347790e+002
2.024467e+002, 1.346339e+002
2.029288e+002, 1.342303e+002
2.034109e+002, 1.335901e+002
2.038930e+002, 1.330887e+002
2.043752e+002, 1.327228e+002
2.048573e+002, 1.325314e+002
2.053394e+002, 1.327573e+002
2.058215e+002, 1.331943e+002
2.063036e+002, 1.333767e+002
2.067857e+002, 1.328640e+002
2.072679e+002, 1.316152e+002
2.077500e+002, 1.304740e+002
2.082321e+002, 1.293021e+002
2.087142e+002, 1.283755e+002
2.091963e+002, 1.278815e+002
2.096784e+002, 1.277372e+002
2.101606e+002, 1.277295e+002
2.106427e+002, 1.276907e+002
2.111248e+002, 1.276308e+002
2.116069e+002, 1.274457e+002
2.120890e+002, 1.269616e+002
2.125711e+002, 1.265254e+002
2.130533e+002, 1.262857e+002
2.135354e+002, 1.262247e+002
2.140175e+002, 1.262482e+002
2.144996e+002, 1.262939e+002
2.149817e+002, 1.263954e+002
2.154638e+002, 1.262458e+002
2.159460e+002, 1.256781e+002
2.164281e+002, 1.250685e+002
2.169102e+002, 1.246108e+002
2.173923e+002, 1.242969e+002
2.178744e+002, 1.239780e+002
2.183565e+002, 1.234930e+002
2.188387e+002, 1.228028e+002
2.193208e+002, 1.224057e+002
2.198029e+002, 1.225808e+002
2.202850e+002, 1.227842e+002
2.207671e+002, 1.226815e+002
2.212492e+002, 1.222680e+002
2.217314e+002, 1.217329e+002
2.222135e+002, 1.212044e+002
2.226956e+002, 1.206890e+002
2.231777e+002, 1.202918e+002
2.236598e+002, 1.201039e+002
2.241419e+002, 1.199650e+002
2.246240e+002, 1.197376e+002
2.251062e+002, 1.194194e+002
2.255883e+002, 1.191388e+002
2.260704e+002, 1.190402e+002
2.265525e+002, 1.190903e+002
2.270346e+002, 1.190117e+002
2.275167e+002, 1.187010e+002
2.279989e+002, 1.183092e+002
2.284810e+002, 1.179595e+002
2.289631e+002, 1.176580e+002
2.294452e+002, 1.174000e+002
2.299273e+002, 1.172215e+002
2.304094e+002, 1.170864e+002
2.308916e+002, 1.168917e+002
2.313737e+002, 1.165225e+002
2.318558e+002, 1.161412e+002
2.323379e+002, 1.159671e+002
2.328200e+002, 1.160305e+002
2.333021e+002, 1.160879e+002
2.337843e+002, 1.159676e+002
2.342664e+002, 1.157419e+002
2.347485e+002, 1.155168e+002
2.352306e+002, 1.153511e+002
2.357127e+002, 1.151692e+002
2.361948e+002, 1.147966e+002
2.366770e+002, 1.141453e+002
2.371591e+002, 1.136645e+002
2.376412e+002, 1.137270e+002
2.381233e+002, 1.140458e+002
2.386054e+002, 1.143465e+002
2.390875e+002, 1.145806e+002
2.395697e+002, 1.147092e+002
2.400518e+002, 1.146480e+002
2.405339e+002, 1.143533e+002
2.410160e+002, 1.140040e+002
2.414981e+002, 1.136056e+002
2.419802e+002, 1.132152e+002
2.424624e+002, 1.128724e+002
2.429445e+002, 1.125774e+002
2.434266e+002, 1.123807e+002
2.439087e+002, 1.124463e+002
2.443908e+002, 1.129630e+002
2.448729e+002, 1.132132e+002
2.453550e+002, 1.127886e+002
2.458372e+002, 1.121445e+002
2.463193e+002, 1.116668e+002
2.468014e+002, 1.114896e+002
2.472835e+002, 1.114580e+002
2.477656e+002, 1.113081e+002
2.482477e+002, 1.110104e+002
2.487299e+002, 1.106559e+002
2.492120e+002, 1.102437e+002
2.496941e+002, 1.098012e+002
2.501762e+002, 1.093610e+002
2.506583e+002, 1.089301e+002
2.511404e+002, 1.084708e+002
2.516226e+002, 1.079054e+002
2.521047e+002, 1.071847e+002
2.525868e+002, 1.064733e+002
2.530689e+002, 1.055969e+002
2.535510e+002, 1.048515e+002
2.540331e+002, 1.045809e+002
2.545153e+002, 1.048210e+002
2.549974e+002, 1.051586e+002
2.554795e+002, 1.048918e+002
2.559616e+002, 1.035254e+002
2.564437e+002, 1.026364e+002
2.569258e+002, 1.025257e+002
2.574080e+002, 1.026100e+002
2.578901e+002, 1.024908e+002
2.583722e+002, 1.021068e+002
2.588543e+002, 1.016857e+002
2.593364e+002, 1.015609e+002
2.598185e+002, 1.019407e+002
2.603007e+002, 1.020866e+002
2.607828e+002, 1.019183e+002
2.612649e+002, 1.016335e+002
2.617470e+002, 1.012275e+002
2.622291e+002, 1.007701e+002
2.627112e+002, 1.005063e+002
2.631934e+002, 1.007958e+002
2.636755e+002, 1.019912e+002
2.641576e+002, 1.024045e+002
2.646397e+002, 1.015934e+002
2.651218e+002, 1.005365e+002
2.656039e+002, 9.967162e+001
2.660861e+002, 9.906898e+001
2.665682e+002, 9.864780e+001
2.670503e+002, 9.834864e+001
2.675324e+002, 9.820011e+001
2.680145e+002, 9.799686e+001
2.684966e+002, 9.776118e+001
2.689788e+002, 9.746486e+001
2.694609e+002, 9.705650e+001
2.699430e+002, 9.656472e+001
2.704251e+002, 9.607480e+001
2.709072e+002, 9.564748e+001
2.713893e+002, 9.528465e+001
2.718715e+002, 9.503186e+001
2.723536e+002, 9.507327e+001
2.728357e+002, 9.502209e+001
2.733178e+002, 9.459855e+001
2.737999e+002, 9.392832e+001
2.742820e+002, 9.337818e+001
2.747642e+002, 9.321551e+001
2.752463e+002, 9.339943e+001
2.757284e+002, 9.342892e+001
2.762105e+002, 9.324141e+001
2.766926e+002, 9.300900e+001
2.771747e+002, 9.276189e+001
2.776568e+002, 9.251192e+001
2.781389e+002, 9.227315e+001
2.786211e+002, 9.204773e+001
2.791032e+002, 9.184667e+001
2.795853e+002, 9.172398e+001
2.800674e+002, 9.171305e+001
2.805495e+002, 9.172258e+001
2.810316e+002, 9.183699e+001
2.815138e+002, 9.194497e+001
2.819959e+002, 9.179053e+001
2.824780e+002, 9.122414e+001
2.829601e+002, 9.046279e+001
2.834422e+002, 9.011475e+001
2.839243e+002, 9.049046e+001
2.844065e+002, 9.062965e+001
2.848886e+002, 9.008118e+001
2.853707e+002, 8.924641e+001
2.858528e+002, 8.877901e+001
2.863349e+002, 8.892635e+001
2.868170e+002, 8.928736e+001
2.872992e+002, 8.914867e+001
2.877813e+002, 8.835922e+001
2.882634e+002, 8.764218e+001
2.887455e+002, 8.711295e+001
2.892276e+002, 8.671484e+001
2.897097e+002, 8.640767e+001
2.901919e+002, 8.618513e+001
2.906740e+002, 8.599076e+001
2.911561e+002, 8.573524e+001
2.916382e+002, 8.539928e+001
2.921203e+002, 8.517512e+001
2.926024e+002, 8.527320e+001
2.930846e+002, 8.538338e+001
2.935667e+002, 8.511446e+001
2.940488e+002, 8.442408e+001
2.945309e+002, 8.374714e+001
2.950130e+002, 8.352180e+001
2.954951e+002, 8.375944e+001
2.959773e+002, 8.384839e+001
2.964594e+002, 8.368327e+001
2.969415e+002, 8.342313e+001
2.974236e+002, 8.313087e+001
2.979057e+002, 8.282686e+001
2.983878e+002, 8.263708e+001
2.988700e+002, 8.270469e+001
2.993521e+002, 8.297177e+001
2.998342e+002, 8.305223e+001
3.003163e+002, 8.277614e+001
3.007984e+002, 8.247168e+001
3.012805e+002, 8.235772e+001
3.017627e+002, 8.239317e+001
3.022448e+002, 8.238459e+001
3.027269e+002, 8.223558e+001
3.032090e+002, 8.196523e+001
3.036911e+002, 8.164185e+001
3.041732e+002, 8.121247e+001
3.046554e+002, 8.081852e+001
3.051375e+002, 8.053207e+001
3.056196e+002, 8.032998e+001
3.061017e+002, 8.014567e+001
3.065838e+002, 7.994473e+001
3.070659e+002, 7.976998e+001
3.075481e+002, 7.972152e+001
3.080302e+002, 7.981915e+001
3.085123e+002, 7.992415e+001
3.089944e+002, 8.006190e+001
3.094765e+002, 8.016447e+001
3.099586e+002, 8.006717e+001
3.104408e+002, 7.969410e+001
3.109229e+002, 7.926497e+001
3.114050e+002, 7.910244e+001
3.118871e+002, 7.921047e+001
3.123692e+002, 7.928194e+001
3.128513e+002, 7.919014e+001
3.133335e+002, 7.906118e+001
3.138156e+002, 7.911976e+001
3.142977e+002, 7.940945e+001
3.147798e+002, 7.958273e+001
3.152619e+002, 7.920145e+001
3.157440e+002, 7.831597e+001
3.162262e+002, 7.775980e+001
3.167083e+002, 7.782767e+001
3.171904e+002, 7.808796e+001
3.176725e+002, 7.822311e+001
3.181546e+002, 7.822063e+001
3.186367e+002, 7.814690e+001
3.191188e+002, 7.803954e+001
3.196010e+002, 7.789159e+001
3.200831e+002, 7.769488e+001
3.205652e+002, 7.734872e+001
3.210473e+002, 7.705363e+001
3.215294e+002, 7.699487e+001
3.220115e+002, 7.709858e+001
3.224937e+002, 7.708167e+001
3.229758e+002, 7.677406e+001
3.234579e+002, 7.631217e+001
3.239400e+002, 7.604810e+001
3.244221e+002, 7.601359e+001
3.249042e+002, 7.605647e+001
3.253864e+002, 7.619415e+001
3.258685e+002, 7.636319e+001
3.263506e+002, 7.642569e+001
3.268327e+002, 7.632203e+001
3.273148e+002, 7.616256e+001
3.277969e+002, 7.614326e+001
3.282791e+002, 7.630209e+001
3.287612e+002, 7.636164e+001
3.292433e+002, 7.625132e+001
3.297254e+002, 7.602444e+001
3.302075e+002, 7.568357e+001
3.306896e+002, 7.522902e+001
3.311718e+002, 7.483449e+001
3.316539e+002, 7.468196e+001
3.321360e+002, 7.479668e+001
3.326181e+002, 7.494796e+001
3.331002e+002, 7.514616e+001
3.335823e+002, 7.536469e+001
3.340645e+002, 7.562620e+001
3.345466e+002, 7.591070e+001
3.350287e+002, 7.611777e+001
3.355108e+002, 7.618221e+001
3.359929e+002, 7.610061e+001
3.364750e+002, 7.590813e+001
3.369572e+002, 7.530008e+001
3.374393e+002, 7.490551e+001
3.379214e+002, 7.518179e+001
3.384035e+002, 7.588015e+001
3.388856e+002, 7.640308e+001
3.393677e+002, 7.646579e+001
3.398499e+002, 7.620534e+001
3.403320e+002, 7.596375e+001
3.408141e+002, 7.568415e+001
3.412962e+002, 7.551711e+001
3.417783e+002, 7.567223e+001
3.422604e+002, 7.589104e+001
3.427426e+002, 7.571391e+001
3.432247e+002, 7.500881e+001
3.437068e+002, 7.428589e+001
3.441889e+002, 7.429308e+001
3.446710e+002, 7.539732e+001
3.451531e+002, 7.622238e+001
3.456353e+002, 7.656883e+001
3.461174e+002, 7.676237e+001
3.465995e+002, 7.702908e+001
3.470816e+002, 7.739346e+001
3.475637e+002, 7.779185e+001
3.480458e+002, 7.817002e+001
3.485280e+002, 7.852919e+001
3.490101e+002, 7.884801e+001
3.494922e+002, 7.905939e+001
3.499743e+002, 7.930448e+001
3.504564e+002, 7.958556e+001
3.509385e+002, 7.994418e+001
3.514207e+002, 8.050880e+001
3.519028e+002, 8.138332e+001
3.523849e+002, 8.245002e+001
3.528670e+002, 8.320346e+001
3.533491e+002, 8.330936e+001
3.538312e+002, 8.351713e+001
3.543134e+002, 8.389922e+001
3.547955e+002, 8.443545e+001
3.552776e+002, 8.513511e+001
3.557597e+002, 8.599619e+001
3.562418e+002, 8.693555e+001
3.567239e+002, 8.781808e+001
3.572061e+002, 8.859315e+001
3.576882e+002, 8.941408e+001
3.581703e+002, 9.028259e+001
3.586524e+002, 9.119117e+001
3.591345e+002, 9.204245e+001
3.596166e+002, 9.288731e+001
3.600987e+002, 9.395284e+001
3.605808e+002, 9.551365e+001
3.610630e+002, 9.764861e+001
3.615451e+002, 9.951086e+001
3.620272e+002, 1.007264e+002
3.625093e+002, 1.020696e+002
3.629914e+002, 1.039038e+002
3.634735e+002, 1.060554e+002
3.639557e+002, 1.081302e+002
3.644378e+002, 1.098862e+002
3.649199e+002, 1.114089e+002
3.654020e+002, 1.130630e+002
3.658841e+002, 1.149151e+002
3.663662e+002, 1.168204e+002
3.668484e+002, 1.189910e+002
3.673305e+002, 1.210838e+002
3.678126e+002, 1.228258e+002
3.682947e+002, 1.241083e+002
3.687768e+002, 1.249189e+002
3.692589e+002, 1.252031e+002
3.697411e+002, 1.248531e+002
3.702232e+002, 1.242382e+002
3.707053e+002, 1.235024e+002
3.711874e+002, 1.224183e+002
3.716695e+002, 1.208220e+002
3.721516e+002, 1.187362e+002
3.726338e+002, 1.162709e+002
3.731159e+002, 1.134750e+002
3.735980e+002, 1.103629e+002
3.740801e+002, 1.072279e+002
3.745622e+002, 1.040545e+002
3.750443e+002, 1.008667e+002
3.755265e+002, 9.751948e+001
3.760086e+002, 9.419097e+001
3.764907e+002, 9.118639e+001
3.769728e+002, 8.865260e+001
3.774549e+002, 8.647868e+001
3.779370e+002, 8.440769e+001
3.784192e+002, 8.241261e+001
3.789013e+002, 8.060529e+001
3.793834e+002, 7.904787e+001
3.798655e+002, 7.766578e+001
3.803476e+002, 7.644975e+001
3.808297e+002, 7.539522e+001
3.813119e+002, 7.439525e+001
3.817940e+002, 7.329650e+001
3.822761e+002, 7.210283e+001
3.827582e+002, 7.114395e+001
3.832403e+002, 7.060972e+001
3.837224e+002, 7.015439e+001
3.842046e+002, 6.943221e+001
3.846867e+002, 6.855534e+001
3.851688e+002, 6.791508e+001
3.856509e+002, 6.795213e+001
3.861330e+002, 6.833769e+001
3.866151e+002, 6.828462e+001
3.870973e+002, 6.769173e+001
3.875794e+002, 6.701991e+001
3.880615e+002, 6.635347e+001
3.885436e+002, 6.582102e+001
3.890257e+002, 6.568597e+001
3.895078e+002, 6.619288e+001
3.899900e+002, 6.674986e+001
3.904721e+002, 6.678010e+001
3.909542e+002, 6.634861e+001
3.914363e+002, 6.596336e+001
3.919184e+002, 6.578775e+001
3.924005e+002, 6.573392e+001
3.928827e+002, 6.564823e+001
3.933648e+002, 6.551381e+001
3.938469e+002, 6.551456e+001
3.943290e+002, 6.590348e+001
3.948111e+002, 6.641494e+001
3.952932e+002, 6.653175e+001
3.957754e+002, 6.614220e+001
3.962575e+002, 6.579703e+001
3.967396e+002, 6.608569e+001
3.972217e+002, 6.693327e+001
3.977038e+002, 6.739810e+001
3.981859e+002, 6.711320e+001
3.986681e+002, 6.672569e+001
3.991501e+002, 6.656286e+001
3.996323e+002, 6.663897e+001
4.001144e+002, 6.700379e+001
4.005965e+002, 6.774258e+001
4.010786e+002, 6.868847e+001
4.015607e+002, 6.934014e+001
4.020428e+002, 6.960519e+001
4.025250e+002, 6.979514e+001
4.030071e+002, 6.985235e+001
4.034892e+002, 6.991235e+001
4.039713e+002, 7.016462e+001
4.044534e+002, 7.064132e+001
4.049355e+002, 7.118287e+001
4.054177e+002, 7.160935e+001
4.058998e+002, 7.190334e+001
4.063819e+002, 7.213536e+001
4.068640e+002, 7.239816e+001
4.073461e+002, 7.252162e+001
4.078282e+002, 7.239101e+001
4.083104e+002, 7.205049e+001
4.087925e+002, 7.160242e+001
4.092746e+002, 7.109505e+001
4.097567e+002, 7.055604e+001
4.102388e+002, 7.010681e+001
4.107209e+002, 6.990899e+001
4.112031e+002, 6.959059e+001
4.116852e+002, 6.907130e+001
4.121673e+002, 6.844816e+001
4.126494e+002, 6.779923e+001
4.131315e+002, 6.715058e+001
4.136136e+002, 6.650127e+001
4.140958e+002, 6.584287e+001
4.145779e+002, 6.515582e+001
4.150600e+002, 6.452720e+001
4.155421e+002, 6.399401e+001
4.160242e+002, 6.348994e+001
4.165063e+002, 6.300269e+001
4.169885e+002, 6.252343e+001
4.174706e+002, 6.202881e+001
4.179527e+002, 6.145922e+001
4.184348e+002, 6.089970e+001
4.189169e+002, 6.069886e+001
4.193990e+002, 6.111185e+001
4.198812e+002, 6.131545e+001
4.203633e+002, 6.085217e+001
4.208454e+002, 6.018824e+001
4.213275e+002, 5.977373e+001
4.218096e+002, 5.972200e+001
4.222917e+002, 5.973857e+001
4.227739e+002, 5.945199e+001
4.232560e+002, 5.888731e+001
4.237381e+002, 5.858499e+001
4.242202e+002, 5.877423e+001
4.247023e+002, 5.904132e+001
4.251844e+002, 5.907878e+001
4.256666e+002, 5.892690e+001
4.261487e+002, 5.872674e+001
4.266308e+002, 5.850464e+001
4.271129e+002, 5.828236e+001
4.275950e+002, 5.810062e+001
4.280771e+002, 5.796088e+001
4.285593e+002, 5.781475e+001
4.290414e+002, 5.760139e+001
4.295235e+002, 5.738822e+001
4.300056e+002, 5.733184e+001
4.304877e+002, 5.753790e+001
4.309698e+002, 5.766219e+001
4.314520e+002, 5.746822e+001
4.319341e+002, 5.708313e+001
4.324162e+002, 5.674232e+001
4.328983e+002, 5.650063e+001
4.333804e+002, 5.634747e+001
4.338625e+002, 5.630024e+001
4.343447e+002, 5.638098e+001
4.348268e+002, 5.637321e+001
4.353089e+002, 5.621729e+001
4.357910e+002, 5.601535e+001
4.362731e+002, 5.581855e+001
4.367552e+002, 5.563252e+001
4.372374e+002, 5.544782e+001
4.377195e+002, 5.525155e+001
4.382016e+002, 5.506722e+001
4.386837e+002, 5.498987e+001
4.391658e+002, 5.517171e+001
4.396479e+002, 5.526589e+001
4.401301e+002, 5.518293e+001
4.406122e+002, 5.504027e+001
4.410943e+002, 5.493935e+001
4.415764e+002, 5.490499e+001
4.420585e+002, 5.491676e+001
4.425406e+002, 5.497130e+001
4.430227e+002, 5.509604e+001
4.435049e+002, 5.506472e+001
4.439870e+002, 5.465437e+001
4.444691e+002, 5.431860e+001
4.449512e+002, 5.424113e+001
4.454333e+002, 5.432543e+001
4.459154e+002, 5.441665e+001
4.463976e+002, 5.444281e+001
4.468797e+002, 5.439595e+001
4.473618e+002, 5.422790e+001
4.478439e+002, 5.386234e+001
4.483260e+002, 5.360395e+001
4.488081e+002, 5.358503e+001
4.492903e+002, 5.363490e+001
4.497724e+002, 5.362746e+001
4.502545e+002, 5.356763e+001
4.507366e+002, 5.358049e+001
4.512187e+002, 5.383390e+001
4.517008e+002, 5.425363e+001
4.521830e+002, 5.452263e+001
4.526651e+002, 5.462750e+001
4.531472e+002, 5.459685e+001
4.536293e+002, 5.431988e+001
4.541114e+002, 5.394712e+001
4.545935e+002, 5.370169e+001
4.550757e+002, 5.367274e+001
4.555578e+002, 5.369889e+001
4.560399e+002, 5.360303e+001
4.565220e+002, 5.343479e+001
4.570041e+002, 5.344341e+001
4.574862e+002, 5.376140e+001
4.579684e+002, 5.414758e+001
4.584505e+002, 5.425406e+001
4.589326e+002, 5.408564e+001
4.594147e+002, 5.396880e+001
4.598968e+002, 5.395434e+001
4.603789e+002, 5.402036e+001
4.608611e+002, 5.419636e+001
4.613432e+002, 5.445466e+001
4.618253e+002, 5.466675e+001
4.623074e+002, 5.475210e+001
4.627895e+002, 5.473426e+001
4.632716e+002, 5.471034e+001
4.637538e+002, 5.474547e+001
4.642359e+002, 5.469107e+001
4.647180e+002, 5.442125e+001
4.652001e+002, 5.411205e+001
4.656822e+002, 5.391781e+001
4.661643e+002, 5.387947e+001
4.666465e+002, 5.399823e+001
4.671286e+002, 5.430737e+001
4.676107e+002, 5.484894e+001
4.680928e+002, 5.519158e+001
4.685749e+002, 5.527755e+001
4.690570e+002, 5.521813e+001
4.695392e+002, 5.491508e+001
4.700213e+002, 5.451641e+001
4.705034e+002, 5.423498e+001
4.709855e+002, 5.416608e+001
4.714676e+002, 5.421840e+001
4.719497e+002, 5.421724e+001
4.724319e+002, 5.412481e+001
4.729140e+002, 5.414815e+001
4.733961e+002, 5.448301e+001
4.738782e+002, 5.480025e+001
4.743603e+002, 5.491131e+001
4.748424e+002, 5.483348e+001
4.753246e+002, 5.468623e+001
4.758067e+002, 5.451395e+001
4.762888e+002, 5.432917e+001
4.767709e+002, 5.414613e+001
4.772530e+002, 5.395858e+001
4.777351e+002, 5.381617e+001
4.782173e+002, 5.373505e+001
4.786994e+002, 5.372255e+001
4.791815e+002, 5.381977e+001
4.796636e+002, 5.409219e+001
4.801457e+002, 5.423883e+001
4.806278e+002, 5.392265e+001
4.811100e+002, 5.342521e+001
4.815920e+002, 5.331435e+001
4.820742e+002, 5.370226e+001
4.825563e+002, 5.418321e+001
4.830384e+002, 5.441786e+001
4.835205e+002, 5.439873e+001
4.840026e+002, 5.432361e+001
4.844847e+002, 5.406853e+001
4.849669e+002, 5.389434e+001
4.854490e+002, 5.393937e+001
4.859311e+002, 5.413038e+001
4.864132e+002, 5.431098e+001
4.868953e+002, 5.442427e+001
4.873774e+002, 5.459188e+001
4.878596e+002, 5.504797e+001
4.883417e+002, 5.603791e+001
4.888238e+002, 5.664063e+001
4.893059e+002, 5.660885e+001
4.897880e+002, 5.649412e+001
4.902701e+002, 5.652219e+001
4.907523e+002, 5.668590e+001
4.912344e+002, 5.689918e+001
4.917165e+002, 5.710629e+001
4.921986e+002, 5.733924e+001
4.926807e+002, 5.771155e+001
4.931628e+002, 5.830286e+001
4.936450e+002, 5.881075e+001
4.941271e+002, 5.897542e+001
4.946092e+002, 5.917559e+001
4.950913e+002, 5.972950e+001
4.955734e+002, 6.061971e+001
4.960555e+002, 6.150648e+001
4.965377e+002, 6.207714e+001
4.970198e+002, 6.246712e+001
4.975019e+002, 6.308187e+001
4.979840e+002, 6.398588e+001
4.984661e+002, 6.485239e+001
4.989482e+002, 6.553201e+001
4.994304e+002, 6.604874e+001
4.999125e+002, 6.644105e+001
5.003946e+002, 6.664680e+001
5.008767e+002, 6.688919e+001
5.013588e+002, 6.730064e+001
5.018409e+002, 6.781949e+001
5.023231e+002, 6.841673e+001
5.028052e+002, 6.908896e+001
5.032873e+002, 6.958674e+001
5.037694e+002, 6.965322e+001
5.042515e+002, 6.926925e+001
5.047336e+002, 6.883719e+001
5.052158e+002, 6.833447e+001
5.056979e+002, 6.781544e+001
5.061800e+002, 6.734634e+001
5.066621e+002, 6.685869e+001
5.071442e+002, 6.620389e+001
5.076263e+002, 6.533868e+001
5.081085e+002, 6.444968e+001
5.085906e+002, 6.387172e+001
5.090727e+002, 6.377378e+001
5.095548e+002, 6.337150e+001
5.100369e+002, 6.239292e+001
5.105190e+002, 6.138127e+001
5.110012e+002, 6.045382e+001
5.114833e+002, 5.965371e+001
5.119654e+002, 5.905931e+001
5.124475e+002, 5.874832e+001
5.129296e+002, 5.853043e+001
5.134117e+002, 5.800295e+001
5.138939e+002, 5.710016e+001
5.143760e+002, 5.639583e+001
5.148581e+002, 5.620248e+001
5.153402e+002, 5.605340e+001
5.158223e+002, 5.546077e+001
5.163044e+002, 5.450903e+001
5.167866e+002, 5.377662e+001
5.172687e+002, 5.366291e+001
5.177508e+002, 5.380725e+001
5.182329e+002, 5.378474e+001
5.187150e+002, 5.359212e+001
5.191971e+002, 5.328751e+001
5.196793e+002, 5.286190e+001
5.201614e+002, 5.238296e+001
5.206435e+002, 5.202871e+001
5.211256e+002, 5.185664e+001
5.216077e+002, 5.161079e+001
5.220898e+002, 5.112825e+001
5.225720e+002, 5.063946e+001
5.230541e+002, 5.037594e+001
5.235362e+002, 5.032431e+001
5.240183e+002, 5.032529e+001
5.245004e+002, 5.028469e+001
5.249825e+002, 5.017664e+001
5.254647e+002, 4.984182e+001
5.259468e+002, 4.889901e+001
5.264289e+002, 4.828864e+001
5.269110e+002, 4.830435e+001
5.273931e+002, 4.851524e+001
5.278752e+002, 4.858081e+001
5.283574e+002, 4.846081e+001
5.288395e+002, 4.832048e+001
5.293216e+002, 4.833511e+001
5.298037e+002, 4.846084e+001
5.302858e+002, 4.840385e+001
5.307679e+002, 4.807508e+001
5.312501e+002, 4.777055e+001
5.317322e+002, 4.757318e+001
5.322143e+002, 4.748775e+001
5.326964e+002, 4.757484e+001
5.331785e+002, 4.787555e+001
5.336606e+002, 4.812332e+001
5.341428e+002, 4.813587e+001
5.346249e+002, 4.797359e+001
5.351070e+002, 4.771807e+001
5.355891e+002, 4.736680e+001
5.360712e+002, 4.710512e+001
5.365533e+002, 4.713658e+001
5.370355e+002, 4.738360e+001
5.375176e+002, 4.736719e+001
5.379997e+002, 4.682630e+001
5.384818e+002, 4.636619e+001
5.389639e+002, 4.611779e+001
5.394460e+002, 4.606078e+001
5.399282e+002, 4.627018e+001
5.404103e+002, 4.671373e+001
5.408924e+002, 4.709370e+001
5.413745e+002, 4.706481e+001
5.418566e+002, 4.660968e+001
5.423387e+002, 4.634902e+001
5.428209e+002, 4.639517e+001
5.433029e+002, 4.651794e+001
5.437850e+002, 4.680939e+001
5.442672e+002, 4.708720e+001
5.447493e+002, 4.712896e+001
5.452314e+002, 4.688252e+001
5.457135e+002, 4.651811e+001
5.461956e+002, 4.615340e+001
5.466777e+002, 4.580271e+001
5.471599e+002, 4.566876e+001
5.476420e+002, 4.581803e+001
5.481241e+002, 4.606482e+001
5.486062e+002, 4.637495e+001
5.490883e+002, 4.668967e+001
5.495704e+002, 4.690504e+001
5.500526e+002, 4.697618e+001
5.505347e+002, 4.700365e+001
5.510168e+002, 4.705371e+001
5.514989e+002, 4.710512e+001
5.519810e+002, 4.707647e+001
5.524631e+002, 4.694694e+001
5.529453e+002, 4.689104e+001
5.534274e+002, 4.711288e+001
5.539095e+002, 4.761445e+001
5.543916e+002, 4.787237e+001
5.548737e+002, 4.778870e+001
5.553558e+002, 4.761874e+001
5.558380e+002, 4.726973e+001
5.563201e+002, 4.694613e+001
5.568022e+002, 4.695967e+001
5.572843e+002, 4.735807e+001
5.577664e+002, 4.783806e+001
5.582485e+002, 4.805415e+001
5.587307e+002, 4.799749e+001
5.592128e+002, 4.790103e+001
5.596949e+002, 4.771071e+001
5.601770e+002, 4.756101e+001
5.606591e+002, 4.758240e+001
5.611412e+002, 4.762684e+001
5.616234e+002, 4.749300e+001
5.621055e+002, 4.711900e+001
5.625876e+002, 4.669513e+001
5.630697e+002, 4.635420e+001
5.635518e+002, 4.609506e+001
5.640339e+002, 4.593513e+001
5.645161e+002, 4.589425e+001
5.649982e+002, 4.585268e+001
5.654803e+002, 4.568653e+001
5.659624e+002, 4.545194e+001
5.664445e+002, 4.538568e+001
5.669266e+002, 4.563785e+001
5.674088e+002, 4.584343e+001
5.678909e+002, 4.587489e+001
5.683730e+002, 4.579263e+001
5.688551e+002, 4.563058e+001
5.693372e+002, 4.541610e+001
5.698193e+002, 4.524332e+001
5.703015e+002, 4.520938e+001
5.707836e+002, 4.530576e+001
5.712657e+002, 4.536906e+001
5.717478e+002, 4.532056e+001
5.722299e+002, 4.534780e+001
5.727120e+002, 4.566768e+001
5.731942e+002, 4.595630e+001
5.736763e+002, 4.580892e+001
5.741584e+002, 4.521816e+001
5.746405e+002, 4.467172e+001
5.751226e+002, 4.468091e+001
5.756047e+002, 4.509813e+001
5.760869e+002, 4.529640e+001
5.765690e+002, 4.523207e+001
5.770511e+002, 4.512714e+001
5.775332e+002, 4.504687e+001
5.780153e+002, 4.501107e+001
5.784974e+002, 4.507397e+001
5.789796e+002, 4.528003e+001
5.794617e+002, 4.538660e+001
5.799438e+002, 4.517434e+001
5.804259e+002, 4.489089e+001
5.809080e+002, 4.485780e+001
5.813901e+002, 4.506362e+001
5.818723e+002, 4.524939e+001
5.823544e+002, 4.524426e+001
5.828365e+002, 4.511359e+001
5.833186e+002, 4.508323e+001
5.838007e+002, 4.530703e+001
5.842828e+002, 4.539467e+001
5.847650e+002, 4.530639e+001
5.852471e+002, 4.511795e+001
5.857292e+002, 4.476315e+001
5.862113e+002, 4.434316e+001
5.866934e+002, 4.412621e+001
5.871755e+002, 4.431642e+001
5.876577e+002, 4.474486e+001
5.881398e+002, 4.505846e+001
5.886219e+002, 4.526338e+001
5.891040e+002, 4.529103e+001
5.895861e+002, 4.496824e+001
5.900682e+002, 4.463465e+001
5.905504e+002, 4.463813e+001
5.910325e+002, 4.492922e+001
5.915146e+002, 4.519318e+001
5.919967e+002, 4.541519e+001
5.924788e+002, 4.550408e+001
5.929609e+002, 4.532017e+001
5.934431e+002, 4.493310e+001
5.939252e+002, 4.448675e+001
5.944073e+002, 4.401547e+001
5.948894e+002, 4.370648e+001
5.953715e+002, 4.387374e+001
5.958536e+002, 4.470044e+001
5.963358e+002, 4.516970e+001
5.968179e+002, 4.505520e+001
5.973000e+002, 4.489070e+001
5.977821e+002, 4.486431e+001
5.982642e+002, 4.490523e+001
5.987463e+002, 4.488784e+001
5.992285e+002, 4.477069e+001
5.997106e+002, 4.462776e+001
6.001927e+002, 4.454207e+001
6.006748e+002, 4.451229e+001
6.011569e+002, 4.451070e+001
6.016390e+002, 4.452873e+001
6.021212e+002, 4.459059e+001
6.026033e+002, 4.474319e+001
6.030854e+002, 4.493911e+001
6.035675e+002, 4.513464e+001
6.040496e+002, 4.538787e+001
6.045317e+002, 4.545439e+001
6.050139e+002, 4.505544e+001
6.054960e+002, 4.446264e+001
6.059781e+002, 4.403192e+001
6.064602e+002, 4.381732e+001
6.069423e+002, 4.381794e+001
6.074244e+002, 4.407552e+001
6.079066e+002, 4.450433e+001
6.083887e+002, 4.471429e+001
6.088708e+002, 4.449151e+001
6.093529e+002, 4.434761e+001
6.098350e+002, 4.435852e+001
6.103171e+002, 4.440607e+001
6.107993e+002, 4.443045e+001
6.112814e+002, 4.441612e+001
6.117635e+002, 4.434369e+001
6.122456e+002, 4.417390e+001
6.127277e+002, 4.398315e+001
6.132098e+002, 4.394073e+001
6.136920e+002, 4.405698e+001
6.141741e+002, 4.419616e+001
6.146562e+002, 4.431134e+001
6.151383e+002, 4.445861e+001
6.156204e+002, 4.480761e+001
6.161025e+002, 4.529490e+001
6.165847e+002, 4.547260e+001
6.170668e+002, 4.491903e+001
6.175489e+002, 4.435712e+001
6.180310e+002, 4.432900e+001
6.185131e+002, 4.461401e+001
6.189952e+002, 4.477023e+001
6.194774e+002, 4.466382e+001
6.199595e+002, 4.439043e+001
6.204416e+002, 4.401619e+001
6.209237e+002, 4.351015e+001
6.214058e+002, 4.336614e+001
6.218879e+002, 4.411925e+001
6.223701e+002, 4.457673e+001
6.228522e+002, 4.416355e+001
6.233343e+002, 4.352679e+001
6.238164e+002, 4.338770e+001
6.242985e+002, 4.385986e+001
6.247806e+002, 4.441640e+001
6.252628e+002, 4.468730e+001
6.257448e+002, 4.470881e+001
6.262269e+002, 4.451403e+001
6.267090e+002, 4.408157e+001
6.271912e+002, 4.369594e+001
6.276733e+002, 4.347571e+001
6.281554e+002, 4.338588e+001
6.286375e+002, 4.338568e+001
6.291196e+002, 4.349611e+001
6.296017e+002, 4.357584e+001
6.300839e+002, 4.359393e+001
6.305660e+002, 4.358410e+001
6.310481e+002, 4.356282e+001
6.315302e+002, 4.353329e+001
6.320123e+002, 4.349570e+001
6.324944e+002, 4.345023e+001
6.329766e+002, 4.340191e+001
6.334587e+002, 4.332717e+001
6.339408e+002, 4.317997e+001
6.344229e+002, 4.326155e+001
6.349050e+002, 4.382556e+001
6.353871e+002, 4.428909e+001
6.358693e+002, 4.428653e+001
6.363514e+002, 4.406884e+001
6.368335e+002, 4.406019e+001
6.373156e+002, 4.442334e+001
6.377977e+002, 4.471018e+001
6.382798e+002, 4.443967e+001
6.387620e+002, 4.392236e+001
6.392441e+002, 4.379593e+001
6.397262e+002, 4.412077e+001
6.402083e+002, 4.446216e+001
6.406904e+002, 4.453516e+001
6.411725e+002, 4.441945e+001
6.416547e+002, 4.438243e+001
6.421368e+002, 4.453999e+001
6.426189e+002, 4.460431e+001
6.431010e+002, 4.444899e+001
6.435831e+002, 4.431277e+001
6.440652e+002, 4.440770e+001
6.445474e+002, 4.464765e+001
6.450295e+002, 4.478062e+001
6.455116e+002, 4.466040e+001
6.459937e+002, 4.443945e+001
6.464758e+002, 4.435028e+001
6.469579e+002, 4.439235e+001
6.474401e+002, 4.453128e+001
6.479222e+002, 4.484998e+001
6.484043e+002, 4.507536e+001
6.488864e+002, 4.488277e+001
6.493685e+002, 4.442669e+001
6.498506e+002, 4.420400e+001
6.503328e+002, 4.442223e+001
6.508149e+002, 4.461428e+001
6.512970e+002, 4.457828e+001
6.517791e+002, 4.442834e+001
6.522612e+002, 4.426096e+001
6.527433e+002, 4.411103e+001
6.532255e+002, 4.403285e+001
6.537076e+002, 4.407014e+001
6.541897e+002, 4.420213e+001
6.546718e+002, 4.437712e+001
6.551539e+002, 4.468606e+001
6.556360e+002, 4.481443e+001
6.561182e+002, 4.446844e+001
6.566003e+002, 4.414426e+001
6.570824e+002, 4.417895e+001
6.575645e+002, 4.446912e+001
6.580466e+002, 4.466002e+001
6.585287e+002, 4.455668e+001
6.590109e+002, 4.440404e+001
6.594930e+002, 4.446233e+001
6.599751e+002, 4.465535e+001
6.604572e+002, 4.472974e+001
6.609393e+002, 4.462528e+001
6.614214e+002, 4.460920e+001
6.619036e+002, 4.498082e+001
6.623857e+002, 4.567129e+001
6.628678e+002, 4.592861e+001
6.633499e+002, 4.527409e+001
6.638320e+002, 4.481621e+001
6.643141e+002, 4.475354e+001
6.647963e+002, 4.484095e+001
6.652784e+002, 4.489498e+001
6.657605e+002, 4.491000e+001
6.662426e+002, 4.497873e+001
6.667247e+002, 4.518512e+001
6.672068e+002, 4.543380e+001
6.676890e+002, 4.554303e+001
6.681711e+002, 4.551671e+001
6.686532e+002, 4.548864e+001
6.691353e+002, 4.549053e+001
6.696174e+002, 4.549165e+001
6.700995e+002, 4.545585e+001
6.705817e+002, 4.538865e+001
6.710638e+002, 4.534935e+001
6.715459e+002, 4.541743e+001
6.720280e+002, 4.541633e+001
6.725101e+002, 4.519596e+001
6.729922e+002, 4.493404e+001
6.734744e+002, 4.482961e+001
6.739565e+002, 4.489719e+001
6.744386e+002, 4.503149e+001
6.749207e+002, 4.516886e+001
6.754028e+002, 4.528633e+001
6.758849e+002, 4.530082e+001
6.763671e+002, 4.519253e+001
6.768492e+002, 4.506030e+001
6.773313e+002, 4.484170e+001
6.778134e+002, 4.469896e+001
6.782955e+002, 4.479477e+001
6.787776e+002, 4.507209e+001
6.792598e+002, 4.533158e+001
6.797419e+002, 4.557100e+001
6.802240e+002, 4.572707e+001
6.807061e+002, 4.578826e+001
6.811882e+002, 4.573233e+001
6.816703e+002, 4.544104e+001
6.821525e+002, 4.493837e+001
6.826346e+002, 4.450750e+001
6.831167e+002, 4.438042e+001
6.835988e+002, 4.451885e+001
6.840809e+002, 4.476955e+001
6.845630e+002, 4.531866e+001
6.850452e+002, 4.557135e+001
6.855273e+002, 4.506512e+001
6.860094e+002, 4.457726e+001
6.864915e+002, 4.463530e+001
6.869736e+002, 4.509148e+001
6.874557e+002, 4.545160e+001
6.879379e+002, 4.552081e+001
6.884200e+002, 4.545205e+001
6.889021e+002, 4.526546e+001
6.893842e+002, 4.506185e+001
6.898663e+002, 4.515292e+001
6.903484e+002, 4.558537e+001
6.908306e+002, 4.596843e+001
6.913127e+002, 4.598627e+001
6.917948e+002, 4.570971e+001
6.922769e+002, 4.549186e+001
6.927590e+002, 4.531788e+001
6.932411e+002, 4.523303e+001
6.937233e+002, 4.535950e+001
6.942054e+002, 4.546093e+001
6.946875e+002, 4.530217e+001
6.951696e+002, 4.500463e+001
6.956517e+002, 4.492297e+001
6.961339e+002, 4.528531e+001
6.966160e+002, 4.568660e+001
6.970981e+002, 4.558812e+001
6.975802e+002, 4.514574e+001
6.980623e+002, 4.491320e+001
6.985444e+002, 4.497996e+001
6.990266e+002, 4.517095e+001
6.995087e+002, 4.537811e+001
6.999908e+002, 4.560644e+001
7.004729e+002, 4.587700e+001
7.009550e+002, 4.642896e+001
7.014371e+002, 4.664326e+001
7.019193e+002, 4.613525e+001
7.024014e+002, 4.563619e+001
7.028835e+002, 4.567558e+001
7.033656e+002, 4.606495e+001
7.038477e+002, 4.631480e+001
7.043298e+002, 4.620163e+001
7.048120e+002, 4.600997e+001
7.052941e+002, 4.610647e+001
7.057762e+002, 4.643445e+001
7.062583e+002, 4.674990e+001
7.067404e+002, 4.704754e+001
7.072225e+002, 4.718844e+001
7.077046e+002, 4.700863e+001
7.081867e+002, 4.668007e+001
7.086688e+002, 4.667715e+001
7.091509e+002, 4.723308e+001
7.096331e+002, 4.750092e+001
7.101152e+002, 4.707557e+001
7.105973e+002, 4.668848e+001
7.110794e+002, 4.684552e+001
7.115615e+002, 4.733088e+001
7.120436e+002, 4.772657e+001
7.125258e+002, 4.788136e+001
7.130079e+002, 4.792239e+001
7.134900e+002, 4.795096e+001
7.139721e+002, 4.798481e+001
7.144542e+002, 4.815527e+001
7.149363e+002, 4.849420e+001
7.154185e+002, 4.878736e+001
7.159006e+002, 4.894048e+001
7.163827e+002, 4.898822e+001
7.168648e+002, 4.894855e+001
7.173469e+002, 4.878191e+001
7.178290e+002, 4.876918e+001
7.183112e+002, 4.918358e+001
7.187933e+002, 4.949047e+001
7.192754e+002, 4.920705e+001
7.197575e+002, 4.873871e+001
7.202396e+002, 4.874464e+001
7.207217e+002, 4.935395e+001
7.212039e+002, 5.005428e+001
7.216860e+002, 5.030724e+001
7.221681e+002, 5.025505e+001
7.226502e+002, 5.051240e+001
7.231323e+002, 5.113786e+001
7.236144e+002, 5.158293e+001
7.240966e+002, 5.160191e+001
7.245787e+002, 5.147849e+001
7.250608e+002, 5.153536e+001
7.255429e+002, 5.176980e+001
7.260250e+002, 5.199781e+001
7.265071e+002, 5.225796e+001
7.269893e+002, 5.245440e+001
7.274714e+002, 5.251192e+001
7.279535e+002, 5.251248e+001
7.284356e+002, 5.250431e+001
7.289177e+002, 5.252419e+001
7.293998e+002, 5.267060e+001
7.298820e+002, 5.305934e+001
7.303641e+002, 5.354070e+001
7.308462e+002, 5.370947e+001
7.313283e+002, 5.354832e+001
7.318104e+002, 5.359438e+001
7.322925e+002, 5.403781e+001
7.327747e+002, 5.450362e+001
7.332568e+002, 5.466713e+001
7.337389e+002, 5.458509e+001
7.342210e+002, 5.459040e+001
7.347031e+002, 5.482862e+001
7.351852e+002, 5.492804e+001
7.356674e+002, 5.472509e+001
7.361495e+002, 5.442522e+001
7.366316e+002, 5.413776e+001
7.371137e+002, 5.390648e+001
7.375958e+002, 5.379676e+001
7.380779e+002, 5.384785e+001
7.385601e+002, 5.395691e+001
7.390422e+002, 5.400792e+001
7.395243e+002, 5.399350e+001
7.400064e+002, 5.379768e+001
7.404885e+002, 5.336117e+001
7.409706e+002, 5.298515e+001
7.414528e+002, 5.288488e+001
7.419349e+002, 5.291933e+001
7.424170e+002, 5.276606e+001
7.428991e+002, 5.237116e+001
7.433812e+002, 5.199651e+001
7.438633e+002, 5.168976e+001
7.443455e+002, 5.138079e+001
7.448276e+002, 5.088295e+001
7.453097e+002, 5.041611e+001
7.457918e+002, 5.040033e+001
7.462739e+002, 5.091342e+001
7.467560e+002, 5.146951e+001
7.472382e+002, 5.156260e+001
7.477203e+002, 5.133872e+001
7.482024e+002, 5.126538e+001
7.486845e+002, 5.134820e+001
7.491666e+002, 5.133607e+001
7.496487e+002, 5.113410e+001
7.501309e+002, 5.082927e+001
7.506130e+002, 5.048158e+001
7.510951e+002, 5.008250e+001
7.515772e+002, 4.986496e+001
7.520593e+002, 4.996441e+001
7.525414e+002, 5.005276e+001
7.530236e+002, 5.003010e+001
7.535057e+002, 4.998531e+001
7.539878e+002, 5.001268e+001
7.544699e+002, 5.010187e+001
7.549520e+002, 5.017101e+001
7.554341e+002, 5.017287e+001
7.559163e+002, 5.013420e+001
7.563984e+002, 5.005850e+001
7.568805e+002, 4.996885e+001
7.573626e+002, 5.000605e+001
7.578447e+002, 5.020462e+001
7.583268e+002, 5.033214e+001
7.588090e+002, 5.019086e+001
7.592911e+002, 4.988809e+001
7.597732e+002, 4.978845e+001
7.602553e+002, 5.007632e+001
7.607374e+002, 5.023414e+001
7.612195e+002, 5.014260e+001
7.617017e+002, 5.005773e+001
7.621838e+002, 5.014356e+001
7.626659e+002, 5.030138e+001
7.631480e+002, 5.035879e+001
7.636301e+002, 5.026564e+001
7.641122e+002, 5.014633e+001
7.645944e+002, 5.009337e+001
7.650765e+002, 5.007200e+001
7.655586e+002, 4.995136e+001
7.660407e+002, 4.978336e+001
7.665228e+002, 4.993706e+001
7.670049e+002, 5.058052e+001
7.674871e+002, 5.126119e+001
7.679692e+002, 5.136538e+001
7.684513e+002, 5.086867e+001
7.689334e+002, 5.039354e+001
7.694155e+002, 4.982880e+001
7.698976e+002, 4.946793e+001
7.703798e+002, 4.943032e+001
7.708619e+002, 4.956548e+001
7.713440e+002, 4.983689e+001
7.718261e+002, 5.019725e+001
7.723082e+002, 5.047164e+001
7.727903e+002, 5.062446e+001
7.732725e+002, 5.063981e+001
7.737546e+002, 5.035207e+001
7.742367e+002, 4.998631e+001
7.747188e+002, 4.994707e+001
7.752009e+002, 5.023903e+001
7.756830e+002, 5.052885e+001
7.761652e+002, 5.059468e+001
7.766473e+002, 5.053431e+001
7.771294e+002, 5.060614e+001
7.776115e+002, 5.085504e+001
7.780936e+002, 5.091207e+001
7.785757e+002, 5.060654e+001
7.790579e+002, 5.038205e+001
7.795400e+002, 5.057041e+001
7.800221e+002, 5.095254e+001
7.805042e+002, 5.117078e+001
7.809863e+002, 5.120253e+001
7.814684e+002, 5.114178e+001
7.819506e+002, 5.081802e+001
7.824327e+002, 5.060171e+001
7.829148e+002, 5.087800e+001
7.833969e+002, 5.137342e+001
7.838790e+002, 5.162480e+001
7.843611e+002, 5.151695e+001
7.848433e+002, 5.125121e+001
7.853254e+002, 5.094473e+001
7.858075e+002, 5.066365e+001
7.862896e+002, 5.066863e+001
7.867717e+002, 5.096500e+001
7.872538e+002, 5.114439e+001
7.877360e+002, 5.105754e+001
7.882181e+002, 5.098135e+001
7.887002e+002, 5.121564e+001
7.891823e+002, 5.170390e+001
7.896644e+002, 5.195630e+001
7.901465e+002, 5.187255e+001
7.906286e+002, 5.171029e+001
7.911107e+002, 5.132077e+001
7.915928e+002, 5.101322e+001
7.920750e+002, 5.102270e+001
7.925571e+002, 5.126330e+001
7.930392e+002, 5.155612e+001
7.935213e+002, 5.185090e+001
7.940034e+002, 5.206177e+001
7.944855e+002, 5.208984e+001
7.949677e+002, 5.199253e+001
7.954498e+002, 5.180450e+001
7.959319e+002, 5.156581e+001
7.964140e+002, 5.153418e+001
7.968961e+002, 5.183068e+001
7.973782e+002, 5.222063e+001
7.978604e+002, 5.238137e+001
7.983425e+002, 5.230455e+001
7.988246e+002, 5.219701e+001
7.993067e+002, 5.202040e+001
7.997888e+002, 5.188099e+001
8.002709e+002, 5.179280e+001
8.007531e+002, 5.176197e+001
8.012352e+002, 5.182423e+001
8.017173e+002, 5.195833e+001
8.021994e+002, 5.206559e+001
8.026815e+002, 5.212008e+001
8.031636e+002, 5.214310e+001
8.036458e+002, 5.206956e+001
8.041279e+002, 5.201813e+001
8.046100e+002, 5.218378e+001
8.050921e+002, 5.251701e+001
8.055742e+002, 5.280526e+001
8.060563e+002, 5.293437e+001
8.065385e+002, 5.293151e+001
8.070206e+002, 5.279016e+001
8.075027e+002, 5.252666e+001
8.079848e+002, 5.237921e+001
8.084669e+002, 5.237354e+001
8.089490e+002, 5.240495e+001
8.094312e+002, 5.244860e+001
8.099133e+002, 5.247581e+001
8.103954e+002, 5.242689e+001
8.108775e+002, 5.227765e+001
8.113596e+002, 5.221829e+001
8.118417e+002, 5.230872e+001
8.123239e+002, 5.241140e+001
8.128060e+002, 5.248319e+001
8.132881e+002, 5.255489e+001
8.137702e+002, 5.268324e+001
8.142523e+002, 5.284599e+001
8.147344e+002, 5.294076e+001
8.152166e+002, 5.290046e+001
8.156987e+002, 5.280746e+001
8.161808e+002, 5.264874e+001
8.166629e+002, 5.252728e+001
8.171450e+002, 5.280068e+001
8.176271e+002, 5.343987e+001
8.181093e+002, 5.382973e+001
8.185914e+002, 5.359063e+001
8.190735e+002, 5.307094e+001
8.195556e+002, 5.298234e+001
8.200377e+002, 5.343138e+001
8.205198e+002, 5.361877e+001
8.210020e+002, 5.339349e+001
8.214841e+002, 5.319444e+001
8.219662e+002, 5.326396e+001
8.224483e+002, 5.338321e+001
8.229304e+002, 5.324542e+001
8.234125e+002, 5.286393e+001
8.238947e+002, 5.269639e+001
8.243768e+002, 5.306929e+001
8.248589e+002, 5.339126e+001
8.253410e+002, 5.329774e+001
8.258231e+002, 5.309016e+001
8.263052e+002, 5.312618e+001
8.267874e+002, 5.339479e+001
8.272695e+002, 5.367432e+001
8.277516e+002, 5.385612e+001
8.282337e+002, 5.392704e+001
8.287158e+002, 5.378743e+001
8.291979e+002, 5.351306e+001
8.296801e+002, 5.345106e+001
8.301622e+002, 5.363275e+001
8.306443e+002, 5.382164e+001
8.311264e+002, 5.390474e+001
8.316085e+002, 5.391974e+001
8.320906e+002, 5.392637e+001
8.325728e+002, 5.392460e+001
8.330549e+002, 5.391151e+001
8.335370e+002, 5.387401e+001
8.340191e+002, 5.384340e+001
8.345012e+002, 5.382903e+001
8.349833e+002, 5.382185e+001
8.354655e+002, 5.383447e+001
8.359476e+002, 5.385247e+001
8.364297e+002, 5.380474e+001
8.369118e+002, 5.356208e+001
8.373939e+002, 5.342213e+001
8.378760e+002, 5.365385e+001
8.383582e+002, 5.400468e+001
8.388403e+002, 5.420103e+001
8.393224e+002, 5.423545e+001
8.398045e+002, 5.417504e+001
8.402866e+002, 5.405029e+001
8.407687e+002, 5.396579e+001
8.412509e+002, 5.412913e+001
8.417330e+002, 5.447639e+001
8.422151e+002, 5.461963e+001
8.426972e+002, 5.454229e+001
8.431793e+002, 5.441251e+001
8.436614e+002, 5.426885e+001
8.441436e+002, 5.415560e+001
8.446257e+002, 5.413066e+001
8.451078e+002, 5.419157e+001
8.455899e+002, 5.424834e+001
8.460720e+002, 5.424860e+001
8.465541e+002, 5.432207e+001
8.470363e+002, 5.462799e+001
8.475184e+002, 5.486799e+001
8.480005e+002, 5.481190e+001
8.484826e+002, 5.455352e+001
8.489647e+002, 5.429737e+001
8.494468e+002, 5.406734e+001
8.499290e+002, 5.396820e+001
8.504111e+002, 5.418578e+001
8.508932e+002, 5.445827e+001
8.513753e+002, 5.449096e+001
8.518574e+002, 5.436349e+001
8.523395e+002, 5.430679e+001
8.528217e+002, 5.438498e+001
8.533038e+002, 5.447349e+001
8.537859e+002, 5.446862e+001
8.542680e+002, 5.436436e+001
8.547501e+002, 5.403610e+001
8.552322e+002, 5.348358e+001
8.557144e+002, 5.338189e+001
8.561965e+002, 5.398512e+001
8.566786e+002, 5.451911e+001
8.571607e+002, 5.435483e+001
8.576428e+002, 5.371927e+001
8.581249e+002, 5.334087e+001
8.586071e+002, 5.333344e+001
8.590892e+002, 5.334062e+001
8.595713e+002, 5.334080e+001
8.600534e+002, 5.337954e+001
8.605355e+002, 5.354042e+001
8.610176e+002, 5.371015e+001
8.614998e+002, 5.374295e+001
8.619819e+002, 5.362722e+001
8.624640e+002, 5.348794e+001
8.629461e+002, 5.336555e+001
8.634282e+002, 5.324520e+001
8.639103e+002, 5.313847e+001
8.643925e+002, 5.301638e+001
8.648746e+002, 5.279866e+001
8.653567e+002, 5.251382e+001
8.658388e+002, 5.233070e+001
8.663209e+002, 5.235994e+001
8.668030e+002, 5.243767e+001
8.672852e+002, 5.221510e+001
8.677673e+002, 5.179594e+001
8.682494e+002, 5.182622e+001
8.687315e+002, 5.236007e+001
8.692136e+002, 5.274947e+001
8.696957e+002, 5.271992e+001
8.701779e+002, 5.244780e+001
8.706600e+002, 5.213270e+001
8.711421e+002, 5.177218e+001
8.716242e+002, 5.159655e+001
8.721063e+002, 5.184300e+001
8.725884e+002, 5.185608e+001
8.730705e+002, 5.118518e+001
8.735526e+002, 5.057142e+001
8.740347e+002, 5.061230e+001
8.745168e+002, 5.103443e+001
8.749990e+002, 5.110716e+001
8.754811e+002, 5.054157e+001
8.759632e+002, 5.015672e+001
8.764453e+002, 5.045288e+001
8.769274e+002, 5.082585e+001
8.774095e+002, 5.081573e+001
8.778917e+002, 5.056984e+001
8.783738e+002, 5.040248e+001
8.788559e+002, 5.037299e+001
8.793380e+002, 5.026417e+001
8.798201e+002, 4.979800e+001
8.803022e+002, 4.928508e+001
8.807844e+002, 4.930594e+001
8.812665e+002, 4.972490e+001
8.817486e+002, 5.009811e+001
8.822307e+002, 5.034303e+001
8.827128e+002, 5.036382e+001
8.831949e+002, 5.007363e+001
8.836771e+002, 4.963075e+001
8.841592e+002, 4.936676e+001
8.846413e+002, 4.930220e+001
8.851234e+002, 4.925438e+001
8.856055e+002, 4.921027e+001
8.860876e+002, 4.921933e+001
8.865698e+002, 4.934614e+001
8.870519e+002, 4.948503e+001
8.875340e+002, 4.956982e+001
8.880161e+002, 4.958772e+001
8.884982e+002, 4.935788e+001
8.889803e+002, 4.857207e+001
8.894625e+002, 4.796692e+001
8.899446e+002, 4.777484e+001
8.904267e+002, 4.770015e+001
8.909088e+002, 4.749031e+001
8.913909e+002, 4.725770e+001
8.918730e+002, 4.729971e+001
8.923552e+002, 4.771092e+001
8.928373e+002, 4.807829e+001
8.933194e+002, 4.819057e+001
8.938015e+002, 4.808483e+001
8.942836e+002, 4.763231e+001
8.947657e+002, 4.703881e+001
8.952479e+002, 4.674883e+001
8.957300e+002, 4.683120e+001
8.962121e+002, 4.702475e+001
8.966942e+002, 4.714644e+001
8.971763e+002, 4.722241e+001
8.976584e+002, 4.735820e+001
8.981406e+002, 4.752500e+001
8.986227e+002, 4.737026e+001
8.991048e+002, 4.682964e+001
8.995869e+002, 4.639274e+001
9.000690e+002, 4.632366e+001
9.005511e+002, 4.636865e+001
9.010333e+002, 4.611274e+001
9.015154e+002, 4.552757e+001
9.019975e+002, 4.530501e+001
9.024796e+002, 4.574945e+001
9.029617e+002, 4.598618e+001
9.034438e+002, 4.558215e+001
9.039260e+002, 4.518907e+001
9.044081e+002, 4.532658e+001
9.048902e+002, 4.580579e+001
9.053723e+002, 4.616185e+001
9.058544e+002, 4.639525e+001
9.063365e+002, 4.636122e+001
9.068187e+002, 4.583012e+001
9.073008e+002, 4.522682e+001
9.077829e+002, 4.472524e+001
9.082650e+002, 4.435522e+001
9.087471e+002, 4.411991e+001
9.092292e+002, 4.402641e+001
9.097114e+002, 4.410840e+001
9.101935e+002, 4.446341e+001
9.106756e+002, 4.487814e+001
9.111577e+002, 4.514883e+001
9.116398e+002, 4.531977e+001
9.121219e+002, 4.550122e+001
9.126041e+002, 4.567353e+001
9.130862e+002, 4.566457e+001
9.135683e+002, 4.539241e+001
9.140504e+002, 4.507558e+001
9.145325e+002, 4.501447e+001
9.150146e+002, 4.516896e+001
9.154968e+002, 4.530293e+001
9.159789e+002, 4.541512e+001
9.164610e+002, 4.557528e+001
9.169431e+002, 4.581835e+001
9.174252e+002, 4.604192e+001
9.179073e+002, 4.616651e+001
9.183895e+002, 4.620239e+001
9.188716e+002, 4.617902e+001
9.193537e+002, 4.604401e+001
9.198358e+002, 4.598132e+001
9.203179e+002, 4.599725e+001
9.208000e+002, 4.607653e+001
9.212822e+002, 4.627381e+001
9.217643e+002, 4.649195e+001
9.222464e+002, 4.656097e+001
9.227285e+002, 4.649558e+001
9.232106e+002, 4.666219e+001
9.236927e+002, 4.742842e+001
9.241749e+002, 4.800227e+001
9.246570e+002, 4.798122e+001
9.251391e+002, 4.784589e+001
9.256212e+002, 4.793315e+001
9.261033e+002, 4.821729e+001
9.265854e+002, 4.857942e+001
9.270676e+002, 4.898606e+001
9.275497e+002, 4.943459e+001
9.280318e+002, 4.995709e+001
9.285139e+002, 5.048765e+001
9.289960e+002, 5.090765e+001
9.294781e+002, 5.130908e+001
9.299603e+002, 5.193259e+001
9.304424e+002, 5.276558e+001
9.309245e+002, 5.348509e+001
9.314066e+002, 5.386245e+001
9.318887e+002, 5.415605e+001
9.323708e+002, 5.478363e+001
9.328530e+002, 5.567668e+001
9.333351e+002, 5.658750e+001
9.338172e+002, 5.749429e+001
9.342993e+002, 5.825672e+001
9.347814e+002, 5.878878e+001
9.352635e+002, 5.947108e+001
9.357457e+002, 6.078272e+001
9.362278e+002, 6.256666e+001
9.367099e+002, 6.384484e+001
9.371920e+002, 6.445743e+001
9.376741e+002, 6.527458e+001
9.381563e+002, 6.645522e+001
9.386384e+002, 6.772034e+001
9.391205e+002, 6.893581e+001
9.396026e+002, 7.014445e+001
9.400847e+002, 7.146265e+001
9.405668e+002, 7.294493e+001
9.410490e+002, 7.420005e+001
9.415311e+002, 7.510329e+001
9.420132e+002, 7.596492e+001
9.424953e+002, 7.688599e+001
9.429774e+002, 7.774759e+001
9.434595e+002, 7.848156e+001
9.439417e+002, 7.908443e+001
9.444238e+002, 7.959087e+001
9.449059e+002, 8.008543e+001
9.453880e+002, 8.018620e+001
9.458701e+002, 7.957552e+001
9.463522e+002, 7.872321e+001
9.468344e+002, 7.797574e+001
9.473165e+002, 7.716427e+001
9.477986e+002, 7.601731e+001
9.482807e+002, 7.453323e+001
9.487628e+002, 7.290163e+001
9.492449e+002, 7.117437e+001
9.497271e+002, 6.946110e+001
9.502092e+002, 6.782812e+001
9.506913e+002, 6.628833e+001
9.511734e+002, 6.492931e+001
9.516555e+002, 6.367089e+001
9.521376e+002, 6.221589e+001
9.526198e+002, 6.048181e+001
9.531019e+002, 5.873826e+001
9.535840e+002, 5.719532e+001
9.540661e+002, 5.587286e+001
9.545482e+002, 5.490730e+001
9.550303e+002, 5.423268e+001
9.555124e+002, 5.338342e+001
9.559945e+002, 5.228980e+001
9.564766e+002, 5.123104e+001
9.569587e+002, 5.034514e+001
9.574409e+002, 4.961626e+001
9.579230e+002, 4.906581e+001
9.584051e+002, 4.868308e+001
9.588872e+002, 4.803758e+001
9.593693e+002, 4.701479e+001
9.598514e+002, 4.622624e+001
9.603336e+002, 4.587262e+001
9.608157e+002, 4.561827e+001
9.612978e+002, 4.518721e+001
9.617799e+002, 4.469312e+001
9.622620e+002, 4.448333e+001
9.627441e+002, 4.473402e+001
9.632263e+002, 4.472452e+001
9.637084e+002, 4.432413e+001
9.641905e+002, 4.383811e+001
9.646726e+002, 4.318927e+001
9.651547e+002, 4.262011e+001
9.656368e+002, 4.240940e+001
9.661190e+002, 4.247544e+001
9.666011e+002, 4.242645e+001
9.670832e+002, 4.215066e+001
9.675653e+002, 4.188732e+001
9.680474e+002, 4.161112e+001
9.685295e+002, 4.144258e+001
9.690117e+002, 4.156120e+001
9.694938e+002, 4.176754e+001
9.699759e+002, 4.179794e+001
9.704580e+002, 4.163014e+001
9.709401e+002, 4.142058e+001
9.714222e+002, 4.123993e+001
9.719044e+002, 4.103188e+001
9.723865e+002, 4.071230e+001
9.728686e+002, 4.038540e+001
9.733507e+002, 4.016637e+001
9.738328e+002, 4.003514e+001
9.743149e+002, 3.995451e+001
9.747971e+002, 3.989996e+001
9.752792e+002, 3.976273e+001
9.757613e+002, 3.933175e+001
9.762434e+002, 3.891072e+001
9.767255e+002, 3.901682e+001
9.772076e+002, 3.940702e+001
9.776898e+002, 3.958405e+001
9.781719e+002, 3.949822e+001
9.786540e+002, 3.926333e+001
9.791361e+002, 3.893359e+001
9.796182e+002, 3.860765e+001
9.801003e+002, 3.842823e+001
9.805825e+002, 3.834304e+001
9.810646e+002, 3.812712e+001
9.815467e+002, 3.781832e+001
9.820288e+002, 3.777305e+001
9.825109e+002, 3.806098e+001
9.829930e+002, 3.833598e+001
9.834752e+002, 3.836685e+001
9.839573e+002, 3.827858e+001
9.844394e+002, 3.833231e+001
9.849215e+002, 3.853023e+001
9.854036e+002, 3.853465e+001
9.858857e+002, 3.831201e+001
9.863679e+002, 3.807592e+001
9.868500e+002, 3.785174e+001
9.873321e+002, 3.772894e+001
9.878142e+002, 3.781047e+001
9.882963e+002, 3.802128e+001
9.887784e+002, 3.812411e+001
9.892606e+002, 3.809096e+001
9.897427e+002, 3.804255e+001
9.902248e+002, 3.795085e+001
9.907069e+002, 3.790296e+001
9.911890e+002, 3.799709e+001
9.916711e+002, 3.806324e+001
9.921533e+002, 3.783441e+001
9.926354e+002, 3.740656e+001
9.931175e+002, 3.736925e+001
9.935996e+002, 3.812998e+001
9.940817e+002, 3.854614e+001
9.945638e+002, 3.832762e+001
9.950460e+002, 3.809258e+001
9.955281e+002, 3.823622e+001
9.960102e+002, 3.837260e+001
9.964923e+002, 3.794020e+001
9.969744e+002, 3.703222e+001
9.974565e+002, 3.648360e+001
9.979387e+002, 3.666814e+001
9.984208e+002, 3.686118e+001
9.989029e+002, 3.683829e+001
9.993850e+002, 3.681501e+001
9.998671e+002, 3.700534e+001
1.000349e+003, 3.723849e+001
1.000831e+003, 3.721437e+001
1.001313e+003, 3.692885e+001
1.001796e+003, 3.673040e+001
1.002278e+003, 3.676595e+001
1.002760e+003, 3.691674e+001
1.003242e+003, 3.729815e+001
1.003724e+003, 3.760899e+001
1.004206e+003, 3.748917e+001
1.004688e+003, 3.710411e+001
1.005170e+003, 3.678895e+001
1.005653e+003, 3.663294e+001
1.006135e+003, 3.656236e+001
1.006617e+003, 3.656670e+001
1.007099e+003, 3.658779e+001
1.007581e+003, 3.656290e+001
1.008063e+003, 3.652562e+001
1.008545e+003, 3.652623e+001
1.009027e+003, 3.655871e+001
1.009509e+003, 3.659890e+001
1.009992e+003, 3.663530e+001
1.010474e+003, 3.664426e+001
1.010956e+003, 3.658015e+001
1.011438e+003, 3.650400e+001
1.011920e+003, 3.649500e+001
1.012402e+003, 3.655019e+001
1.012884e+003, 3.672161e+001
1.013366e+003, 3.696397e+001
1.013849e+003, 3.705872e+001
1.014331e+003, 3.691261e+001
1.014813e+003, 3.666420e+001
1.015295e+003, 3.642305e+001
1.015777e+003, 3.623065e+001
1.016259e+003, 3.620794e+001
1.016741e+003, 3.633117e+001
1.017223e+003, 3.653380e+001
1.017705e+003, 3.678788e+001
1.018188e+003, 3.693359e+001
1.018670e+003, 3.688637e+001
1.019152e+003, 3.672789e+001
1.019634e+003, 3.653413e+001
1.020116e+003, 3.633718e+001
1.020598e+003, 3.633672e+001
1.021080e+003, 3.652165e+001
1.021562e+003, 3.657906e+001
1.022044e+003, 3.644926e+001
1.022527e+003, 3.628984e+001
1.023009e+003, 3.618598e+001
1.023491e+003, 3.612870e+001
1.023973e+003, 3.610331e+001
1.024455e+003, 3.611039e+001
1.024937e+003, 3.616330e+001
1.025419e+003, 3.626672e+001
1.025901e+003, 3.638177e+001
1.026384e+003, 3.651037e+001
1.026866e+003, 3.661969e+001
1.027348e+003, 3.670602e+001
1.027830e+003, 3.671721e+001
1.028312e+003, 3.650571e+001
1.028794e+003, 3.604566e+001
1.029276e+003, 3.604116e+001
1.029758e+003, 3.668357e+001
1.030240e+003, 3.709713e+001
1.030723e+003, 3.705634e+001
1.031205e+003, 3.690690e+001
1.031687e+003, 3.687557e+001
1.032169e+003, 3.687629e+001
1.032651e+003, 3.669880e+001
1.033133e+003, 3.628576e+001
1.033615e+003, 3.619446e+001
1.034097e+003, 3.660484e+001
1.034579e+003, 3.694980e+001
1.035062e+003, 3.715565e+001
1.035544e+003, 3.721782e+001
1.036026e+003, 3.705543e+001
1.036508e+003, 3.679177e+001
1.036990e+003, 3.670063e+001
1.037472e+003, 3.682867e+001
1.037954e+003, 3.686747e+001
1.038436e+003, 3.680394e+001
1.038919e+003, 3.666845e+001
1.039401e+003, 3.634974e+001
1.039883e+003, 3.608881e+001
1.040365e+003, 3.610703e+001
1.040847e+003, 3.627166e+001
1.041329e+003, 3.627460e+001
1.041811e+003, 3.605109e+001
1.042293e+003, 3.601168e+001
1.042776e+003, 3.642024e+001
1.043258e+003, 3.665380e+001
1.043740e+003, 3.644356e+001
1.044222e+003, 3.617900e+001
1.044704e+003, 3.610572e+001
1.045186e+003, 3.615820e+001
1.045668e+003, 3.619801e+001
1.046150e+003, 3.620866e+001
1.046632e+003, 3.626252e+001
1.047115e+003, 3.652617e+001
1.047597e+003, 3.661412e+001
1.048079e+003, 3.616429e+001
1.048561e+003, 3.576994e+001
1.049043e+003, 3.596625e+001
1.049525e+003, 3.646232e+001
1.050007e+003, 3.669064e+001
1.050489e+003, 3.657012e+001
1.050971e+003, 3.639375e+001
1.051454e+003, 3.615691e+001
1.051936e+003, 3.595469e+001
1.052418e+003, 3.587362e+001
1.052900e+003, 3.578027e+001
1.053382e+003, 3.548432e+001
1.053864e+003, 3.514260e+001
1.054346e+003, 3.508028e+001
1.054828e+003, 3.535001e+001
1.055311e+003, 3.556329e+001
1.055793e+003, 3.557815e+001
1.056275e+003, 3.557453e+001
1.056757e+003, 3.564317e+001
1.057239e+003, 3.568754e+001
1.057721e+003, 3.564267e+001
1.058203e+003, 3.551802e+001
1.058685e+003, 3.527206e+001
1.059167e+003, 3.490969e+001
1.059650e+003, 3.477247e+001
1.060132e+003, 3.525227e+001
1.060614e+003, 3.559724e+001
1.061096e+003, 3.539594e+001
1.061578e+003, 3.507718e+001
1.062060e+003, 3.484424e+001
1.062542e+003, 3.478096e+001
1.063024e+003, 3.511572e+001
1.063506e+003, 3.582253e+001
1.063989e+003, 3.618604e+001
1.064471e+003, 3.565789e+001
1.064953e+003, 3.515181e+001
1.065435e+003, 3.491793e+001
1.065917e+003, 3.497166e+001
1.066399e+003, 3.571044e+001
1.066881e+003, 3.655021e+001
1.067363e+003, 3.644902e+001
1.067846e+003, 3.538777e+001
1.068328e+003, 3.458290e+001
1.068810e+003, 3.462054e+001
1.069292e+003, 3.476002e+001
1.069774e+003, 3.478086e+001
1.070256e+003, 3.466782e+001
1.070738e+003, 3.421721e+001
1.071220e+003, 3.373515e+001
1.071703e+003, 3.372871e+001
1.072185e+003, 3.417120e+001
1.072667e+003, 3.448075e+001
1.073149e+003, 3.442832e+001
1.073631e+003, 3.425136e+001
1.074113e+003, 3.389148e+001
1.074595e+003, 3.362286e+001
1.075077e+003, 3.370938e+001
1.075559e+003, 3.396716e+001
1.076042e+003, 3.419542e+001
1.076524e+003, 3.434523e+001
1.077006e+003, 3.438501e+001
1.077488e+003, 3.429406e+001
1.077970e+003, 3.412655e+001
1.078452e+003, 3.377634e+001
1.078934e+003, 3.350154e+001
1.079416e+003, 3.358847e+001
1.079898e+003, 3.377099e+001
1.080380e+003, 3.364744e+001
1.080863e+003, 3.330949e+001
1.081345e+003, 3.322091e+001
1.081827e+003, 3.357857e+001
1.082309e+003, 3.391468e+001
1.082791e+003, 3.406852e+001
1.083273e+003, 3.408101e+001
1.083755e+003, 3.392567e+001
1.084237e+003, 3.368040e+001
1.084720e+003, 3.333697e+001
1.085202e+003, 3.298960e+001
1.085684e+003, 3.287097e+001
1.086166e+003, 3.306529e+001
1.086648e+003, 3.325122e+001
1.087130e+003, 3.328492e+001
1.087612e+003, 3.328594e+001
1.088094e+003, 3.331288e+001
1.088577e+003, 3.333933e+001
1.089059e+003, 3.335839e+001
1.089541e+003, 3.334994e+001
1.090023e+003, 3.325526e+001
1.090505e+003, 3.306157e+001
1.090987e+003, 3.293257e+001
1.091469e+003, 3.306568e+001
1.091951e+003, 3.309428e+001
1.092433e+003, 3.271904e+001
1.092916e+003, 3.231738e+001
1.093398e+003, 3.216342e+001
1.093880e+003, 3.220797e+001
1.094362e+003, 3.238466e+001
1.094844e+003, 3.266278e+001
1.095326e+003, 3.284842e+001
1.095808e+003, 3.290882e+001
1.096290e+003, 3.282492e+001
1.096772e+003, 3.238411e+001
1.097255e+003, 3.201896e+001
1.097737e+003, 3.202509e+001
1.098219e+003, 3.225968e+001
1.098701e+003, 3.264254e+001
1.099183e+003, 3.308368e+001
1.099665e+003, 3.316629e+001
1.100147e+003, 3.254831e+001
1.100629e+003, 3.208263e+001
1.101112e+003, 3.203801e+001
1.101594e+003, 3.213780e+001
1.102076e+003, 3.235945e+001
1.102558e+003, 3.257000e+001
1.103040e+003, 3.264912e+001
1.103522e+003, 3.259882e+001
1.104004e+003, 3.245133e+001
1.104486e+003, 3.216409e+001
1.104969e+003, 3.193072e+001
1.105451e+003, 3.177758e+001
1.105933e+003, 3.169458e+001
1.106415e+003, 3.171643e+001
1.106897e+003, 3.177135e+001
1.107379e+003, 3.176866e+001
1.107861e+003, 3.176193e+001
1.108343e+003, 3.194137e+001
1.108825e+003, 3.240857e+001
1.109307e+003, 3.255100e+001
1.109790e+003, 3.195507e+001
1.110272e+003, 3.154370e+001
1.110754e+003, 3.160775e+001
1.111236e+003, 3.179463e+001
1.111718e+003, 3.200526e+001
1.112200e+003, 3.214947e+001
1.112682e+003, 3.200642e+001
1.113164e+003, 3.154823e+001
1.113647e+003, 3.138184e+001
1.114129e+003, 3.176530e+001
1.114611e+003, 3.201137e+001
1.115093e+003, 3.197414e+001
1.115575e+003, 3.193443e+001
1.116057e+003, 3.210358e+001
1.116539e+003, 3.223931e+001
1.117021e+003, 3.197550e+001
1.117504e+003, 3.139886e+001
1.117986e+003, 3.116851e+001
1.118468e+003, 3.149554e+001
1.118950e+003, 3.165555e+001
1.119432e+003, 3.150473e+001
1.119914e+003, 3.147984e+001
1.120396e+003, 3.183258e+001
1.120878e+003, 3.216671e+001
1.121360e+003, 3.213015e+001
1.121843e+003, 3.182389e+001
1.122325e+003, 3.153493e+001
1.122807e+003, 3.125744e+001
1.123289e+003, 3.101806e+001
1.123771e+003, 3.077111e+001
1.124253e+003, 3.075342e+001
1.124735e+003, 3.111672e+001
1.125217e+003, 3.139860e+001
1.125699e+003, 3.127241e+001
1.126182e+003, 3.095916e+001
1.126664e+003, 3.082089e+001
1.127146e+003, 3.085560e+001
1.127628e+003, 3.108038e+001
1.128110e+003, 3.153974e+001
1.128592e+003, 3.177104e+001
1.129074e+003, 3.170114e+001
1.129556e+003, 3.144100e+001
1.130039e+003, 3.099233e+001
1.130521e+003, 3.068191e+001
1.131003e+003, 3.094945e+001
1.131485e+003, 3.155460e+001
1.131967e+003, 3.157433e+001
1.132449e+003, 3.105308e+001
1.132931e+003, 3.077062e+001
1.133413e+003, 3.077044e+001
1.133896e+003, 3.100288e+001
1.134378e+003, 3.145142e+001
1.134860e+003, 3.171649e+001
1.135342e+003, 3.143914e+001
1.135824e+003, 3.105165e+001
1.136306e+003, 3.152401e+001
1.136788e+003, 3.253633e+001
1.137270e+003, 3.280420e+001
1.137752e+003, 3.243981e+001
1.138234e+003, 3.199653e+001
1.138717e+003, 3.161477e+001
1.139199e+003, 3.145920e+001
1.139681e+003, 3.161455e+001
1.140163e+003, 3.175385e+001
1.140645e+003, 3.139002e+001
1.141127e+003, 3.087992e+001
1.141609e+003, 3.102029e+001
1.142091e+003, 3.146617e+001
1.142574e+003, 3.138161e+001
1.143056e+003, 3.085904e+001
1.143538e+003, 3.049789e+001
1.144020e+003, 3.048838e+001
1.144502e+003, 3.065498e+001
1.144984e+003, 3.092668e+001
1.145466e+003, 3.119575e+001
1.145948e+003, 3.140487e+001
1.146431e+003, 3.150191e+001
1.146913e+003, 3.130649e+001
1.147395e+003, 3.100096e+001
1.147877e+003, 3.093830e+001
1.148359e+003, 3.112506e+001
1.148841e+003, 3.131197e+001
1.149323e+003, 3.140521e+001
1.149805e+003, 3.141886e+001
1.150287e+003, 3.130642e+001
1.150770e+003, 3.118029e+001
1.151252e+003, 3.113247e+001
1.151734e+003, 3.110523e+001
1.152216e+003, 3.100786e+001
1.152698e+003, 3.088418e+001
1.153180e+003, 3.085028e+001
1.153662e+003, 3.093021e+001
1.154144e+003, 3.102742e+001
1.154626e+003, 3.107194e+001
1.155109e+003, 3.118302e+001
1.155591e+003, 3.154206e+001
1.156073e+003, 3.182366e+001
1.156555e+003, 3.174457e+001
1.157037e+003, 3.152236e+001
1.157519e+003, 3.145181e+001
1.158001e+003, 3.152503e+001
1.158483e+003, 3.154765e+001
1.158966e+003, 3.147746e+001
1.159448e+003, 3.140775e+001
1.159930e+003, 3.132187e+001
1.160412e+003, 3.126846e+001
1.160894e+003, 3.130091e+001
1.161376e+003, 3.132215e+001
1.161858e+003, 3.122480e+001
1.162340e+003, 3.108613e+001
1.162822e+003, 3.108044e+001
1.163305e+003, 3.122029e+001
1.163787e+003, 3.136110e+001
1.164269e+003, 3.151442e+001
1.164751e+003, 3.163710e+001
1.165233e+003, 3.173227e+001
1.165715e+003, 3.176469e+001
1.166197e+003, 3.170390e+001
1.166679e+003, 3.160810e+001
1.167161e+003, 3.154517e+001
1.167644e+003, 3.150566e+001
1.168126e+003, 3.143136e+001
1.168608e+003, 3.131738e+001
1.169090e+003, 3.135454e+001
1.169572e+003, 3.155716e+001
1.170054e+003, 3.164038e+001
1.170536e+003, 3.152305e+001
1.171018e+003, 3.144099e+001
1.171500e+003, 3.156624e+001
1.171983e+003, 3.174753e+001
1.172465e+003, 3.173636e+001
1.172947e+003, 3.158541e+001
1.173429e+003, 3.145335e+001
1.173911e+003, 3.133914e+001
1.174393e+003, 3.120187e+001
1.174875e+003, 3.106812e+001
1.175357e+003, 3.110662e+001
1.175840e+003, 3.136945e+001
1.176322e+003, 3.167832e+001
1.176804e+003, 3.193917e+001
1.177286e+003, 3.205548e+001
1.177768e+003, 3.176725e+001
1.178250e+003, 3.136111e+001
1.178732e+003, 3.129720e+001
1.179214e+003, 3.142856e+001
1.179697e+003, 3.138983e+001
1.180179e+003, 3.117426e+001
1.180661e+003, 3.105713e+001
1.181143e+003, 3.116171e+001
1.181625e+003, 3.129267e+001
1.182107e+003, 3.137037e+001
1.182589e+003, 3.138800e+001
1.183071e+003, 3.123264e+001
1.183553e+003, 3.111149e+001
1.184036e+003, 3.132816e+001
1.184518e+003, 3.168213e+001
1.185000e+003, 3.175632e+001
1.185482e+003, 3.150654e+001
1.185964e+003, 3.130058e+001
1.186446e+003, 3.117548e+001
1.186928e+003, 3.117383e+001
1.187410e+003, 3.147954e+001
1.187892e+003, 3.169018e+001
1.188375e+003, 3.150669e+001
1.188857e+003, 3.126764e+001
1.189339e+003, 3.131753e+001
1.189821e+003, 3.155027e+001
1.190303e+003, 3.165498e+001
1.190785e+003, 3.160403e+001
1.191267e+003, 3.158957e+001
1.191749e+003, 3.162610e+001
1.192232e+003, 3.165717e+001
1.192714e+003, 3.166879e+001
1.193196e+003, 3.169305e+001
1.193678e+003, 3.175586e+001
1.194160e+003, 3.180477e+001
1.194642e+003, 3.176088e+001
1.195124e+003, 3.166689e+001
1.195606e+003, 3.173665e+001
1.196089e+003, 3.195706e+001
1.196571e+003, 3.190029e+001
1.197053e+003, 3.156999e+001
1.197535e+003, 3.145741e+001
1.198017e+003, 3.167851e+001
1.198499e+003, 3.202916e+001
1.198981e+003, 3.239719e+001
1.199463e+003, 3.262651e+001
1.199945e+003, 3.244898e+001
1.200427e+003, 3.203422e+001
1.200910e+003, 3.159165e+001
1.201392e+003, 3.123040e+001
1.201874e+003, 3.125170e+001
1.202356e+003, 3.157144e+001
1.202838e+003, 3.188973e+001
1.203320e+003, 3.211428e+001
1.203802e+003, 3.228904e+001
1.204284e+003, 3.246003e+001
1.204767e+003, 3.252711e+001
1.205249e+003, 3.226659e+001
1.205731e+003, 3.202878e+001
1.206213e+003, 3.213208e+001
1.206695e+003, 3.240955e+001
1.207177e+003, 3.279365e+001
1.207659e+003, 3.313034e+001
1.208141e+003, 3.303105e+001
1.208624e+003, 3.238485e+001
1.209106e+003, 3.194180e+001
1.209588e+003, 3.204692e+001
1.210070e+003, 3.212516e+001
1.210552e+003, 3.192596e+001
1.211034e+003, 3.182819e+001
1.211516e+003, 3.219145e+001
1.211998e+003, 3.259825e+001
1.212480e+003, 3.259246e+001
1.212963e+003, 3.228871e+001
1.213445e+003, 3.212807e+001
1.213927e+003, 3.215007e+001
1.214409e+003, 3.210225e+001
1.214891e+003, 3.194409e+001
1.215373e+003, 3.188617e+001
1.215855e+003, 3.198533e+001
1.216337e+003, 3.212433e+001
1.216819e+003, 3.226418e+001
1.217302e+003, 3.228252e+001
1.217784e+003, 3.199028e+001
1.218266e+003, 3.152303e+001
1.218748e+003, 3.130198e+001
1.219230e+003, 3.128953e+001
1.219712e+003, 3.129896e+001
1.220194e+003, 3.132789e+001
1.220676e+003, 3.141762e+001
1.221159e+003, 3.158151e+001
1.221641e+003, 3.188424e+001
1.222123e+003, 3.237329e+001
1.222605e+003, 3.271196e+001
1.223087e+003, 3.242757e+001
1.223569e+003, 3.194958e+001
1.224051e+003, 3.167061e+001
1.224533e+003, 3.157299e+001
1.225016e+003, 3.175659e+001
1.225498e+003, 3.205007e+001
1.225980e+003, 3.210317e+001
1.226462e+003, 3.190462e+001
1.226944e+003, 3.181087e+001
1.227426e+003, 3.203766e+001
1.227908e+003, 3.210060e+001
1.228390e+003, 3.147076e+001
1.228872e+003, 3.112057e+001
1.229354e+003, 3.179650e+001
1.229837e+003, 3.257875e+001
1.230319e+003, 3.272917e+001
1.230801e+003, 3.249477e+001
1.231283e+003, 3.232870e+001
1.231765e+003, 3.222945e+001
1.232247e+003, 3.216400e+001
1.232729e+003, 3.217957e+001
1.233211e+003, 3.205385e+001
1.233694e+003, 3.168138e+001
1.234176e+003, 3.153263e+001
1.234658e+003, 3.178972e+001
1.235140e+003, 3.214017e+001
1.235622e+003, 3.238488e+001
1.236104e+003, 3.247676e+001
1.236586e+003, 3.226637e+001
1.237068e+003, 3.186887e+001
1.237551e+003, 3.182171e+001
1.238033e+003, 3.202814e+001
1.238515e+003, 3.202152e+001
1.238997e+003, 3.181519e+001
1.239479e+003, 3.172823e+001
1.239961e+003, 3.184245e+001
1.240443e+003, 3.199595e+001
1.240925e+003, 3.209042e+001
1.241407e+003, 3.216978e+001
1.241890e+003, 3.226381e+001
1.242372e+003, 3.237644e+001
1.242854e+003, 3.262220e+001
1.243336e+003, 3.280326e+001
1.243818e+003, 3.260198e+001
1.244300e+003, 3.216878e+001
1.244782e+003, 3.181345e+001
1.245264e+003, 3.159969e+001
1.245746e+003, 3.158015e+001
1.246229e+003, 3.195612e+001
1.246711e+003, 3.217999e+001
1.247193e+003, 3.203336e+001
1.247675e+003, 3.189033e+001
1.248157e+003, 3.180854e+001
1.248639e+003, 3.186316e+001
1.249121e+003, 3.220845e+001
1.249603e+003, 3.262407e+001
1.250085e+003, 3.268966e+001
1.250568e+003, 3.242928e+001
1.251050e+003, 3.226378e+001
1.251532e+003, 3.219600e+001
1.252014e+003, 3.220449e+001
1.252496e+003, 3.229045e+001
1.252978e+003, 3.239114e+001
1.253460e+003, 3.248695e+001
1.253942e+003, 3.242910e+001
1.254425e+003, 3.209314e+001
1.254907e+003, 3.179303e+001
1.255389e+003, 3.208984e+001
1.255871e+003, 3.263155e+001
1.256353e+003, 3.276826e+001
1.256835e+003, 3.264871e+001
1.257317e+003, 3.251546e+001
1.257799e+003, 3.238091e+001
1.258281e+003, 3.213688e+001
1.258764e+003, 3.181246e+001
1.259246e+003, 3.168194e+001
1.259728e+003, 3.190955e+001
1.260210e+003, 3.216137e+001
1.260692e+003, 3.232377e+001
1.261174e+003, 3.241925e+001
1.261656e+003, 3.246381e+001
1.262138e+003, 3.244071e+001
1.262620e+003, 3.226284e+001
1.263103e+003, 3.205119e+001
1.263585e+003, 3.201630e+001
1.264067e+003, 3.213287e+001
1.264549e+003, 3.217354e+001
1.265031e+003, 3.206219e+001
1.265513e+003, 3.217294e+001
1.265995e+003, 3.260434e+001
1.266477e+003, 3.278037e+001
1.266960e+003, 3.252843e+001
1.267442e+003, 3.231894e+001
1.267924e+003, 3.241611e+001
1.268406e+003, 3.266379e+001
1.268888e+003, 3.291590e+001
1.269370e+003, 3.311079e+001
1.269852e+003, 3.303046e+001
1.270334e+003, 3.281404e+001
1.270817e+003, 3.285455e+001
1.271299e+003, 3.305950e+001
1.271781e+003, 3.311673e+001
1.272263e+003, 3.301054e+001
1.272745e+003, 3.290341e+001
1.273227e+003, 3.285740e+001
1.273709e+003, 3.292202e+001
1.274191e+003, 3.323657e+001
1.274673e+003, 3.351643e+001
1.275156e+003, 3.362741e+001
1.275638e+003, 3.364902e+001
1.276120e+003, 3.354383e+001
1.276602e+003, 3.345026e+001
1.277084e+003, 3.360514e+001
1.277566e+003, 3.388587e+001
1.278048e+003, 3.384899e+001
1.278530e+003, 3.343169e+001
1.279012e+003, 3.329079e+001
1.279495e+003, 3.351984e+001
1.279977e+003, 3.369120e+001
1.280459e+003, 3.377058e+001
1.280941e+003, 3.335087e+001
1.281423e+003, 3.201815e+001
1.281905e+003, 3.285225e+001
1.282387e+003, 3.858638e+001
1.282869e+003, 4.631318e+001
1.283352e+003, 5.149270e+001
1.283834e+003, 5.471281e+001
1.284316e+003, 5.720274e+001
1.284798e+003, 5.896676e+001
##END=



