##NAMES=Gillardite
##RRUFFID=R110068
##IDEAL CHEMISTRY=Cu^2+^_3_Ni^2+^Cl_2_(OH)_6_
##LOCALITY=132 North deposit, Widgiemooltha, Western Australia, Australia
##OWNER=RRUFF
##SOURCE=Renato & Adriana Pagano
##DESCRIPTION=Aggregates of dark green flat rhombohedra
##STATUS=The identification of this mineral has been confirmed only by single crystal X-ray diffraction.
##URL=rruff.info/R110068
8.930109e+001, 0.000000e+000
8.978320e+001, 3.875764e+002
9.026532e+001, 3.838266e+002
9.074744e+001, 3.838460e+002
9.122955e+001, 3.894816e+002
9.171167e+001, 3.966341e+002
9.219379e+001, 4.007574e+002
9.267590e+001, 4.021944e+002
9.315802e+001, 4.010731e+002
9.364014e+001, 3.957911e+002
9.412225e+001, 3.879392e+002
9.460437e+001, 3.820862e+002
9.508649e+001, 3.805015e+002
9.556860e+001, 3.808575e+002
9.605072e+001, 3.775226e+002
9.653284e+001, 3.706174e+002
9.701495e+001, 3.631824e+002
9.749707e+001, 3.579136e+002
9.797919e+001, 3.546955e+002
9.846130e+001, 3.523735e+002
9.894342e+001, 3.507231e+002
9.942554e+001, 3.496861e+002
9.990765e+001, 3.488177e+002
1.003898e+002, 3.482837e+002
1.008719e+002, 3.475990e+002
1.013540e+002, 3.459184e+002
1.018361e+002, 3.429663e+002
1.023182e+002, 3.400713e+002
1.028004e+002, 3.375562e+002
1.032825e+002, 3.352644e+002
1.037646e+002, 3.339639e+002
1.042467e+002, 3.334710e+002
1.047288e+002, 3.339843e+002
1.052109e+002, 3.359405e+002
1.056931e+002, 3.389829e+002
1.061752e+002, 3.438080e+002
1.066573e+002, 3.510110e+002
1.071394e+002, 3.631751e+002
1.076215e+002, 3.732962e+002
1.081036e+002, 3.816978e+002
1.085858e+002, 3.882339e+002
1.090679e+002, 3.915666e+002
1.095500e+002, 3.890031e+002
1.100321e+002, 3.853524e+002
1.105142e+002, 3.831896e+002
1.109963e+002, 3.831572e+002
1.114785e+002, 3.838402e+002
1.119606e+002, 3.849686e+002
1.124427e+002, 3.865442e+002
1.129248e+002, 3.891211e+002
1.134069e+002, 3.933126e+002
1.138890e+002, 3.982224e+002
1.143712e+002, 4.031838e+002
1.148533e+002, 4.073321e+002
1.153354e+002, 4.121331e+002
1.158175e+002, 4.184539e+002
1.162996e+002, 4.265763e+002
1.167817e+002, 4.341000e+002
1.172639e+002, 4.394492e+002
1.177460e+002, 4.439756e+002
1.182281e+002, 4.493915e+002
1.187102e+002, 4.563512e+002
1.191923e+002, 4.643654e+002
1.196744e+002, 4.725935e+002
1.201566e+002, 4.804694e+002
1.206387e+002, 4.908156e+002
1.211208e+002, 5.047787e+002
1.216029e+002, 5.223658e+002
1.220850e+002, 5.435439e+002
1.225671e+002, 5.680658e+002
1.230493e+002, 5.962562e+002
1.235314e+002, 6.295085e+002
1.240135e+002, 6.698642e+002
1.244956e+002, 7.109120e+002
1.249777e+002, 7.494327e+002
1.254598e+002, 7.843301e+002
1.259420e+002, 8.106525e+002
1.264241e+002, 8.289490e+002
1.269062e+002, 8.360364e+002
1.273883e+002, 8.247199e+002
1.278704e+002, 7.893764e+002
1.283525e+002, 7.404525e+002
1.288347e+002, 6.897272e+002
1.293168e+002, 6.372831e+002
1.297989e+002, 5.886516e+002
1.302810e+002, 5.469934e+002
1.307631e+002, 5.124069e+002
1.312452e+002, 4.839591e+002
1.317274e+002, 4.628167e+002
1.322095e+002, 4.470549e+002
1.326916e+002, 4.314484e+002
1.331737e+002, 4.156831e+002
1.336558e+002, 4.016230e+002
1.341379e+002, 3.910581e+002
1.346201e+002, 3.839547e+002
1.351022e+002, 3.779976e+002
1.355843e+002, 3.727248e+002
1.360664e+002, 3.680979e+002
1.365485e+002, 3.640251e+002
1.370306e+002, 3.604821e+002
1.375128e+002, 3.575169e+002
1.379949e+002, 3.549039e+002
1.384770e+002, 3.524649e+002
1.389591e+002, 3.513041e+002
1.394412e+002, 3.524633e+002
1.399233e+002, 3.562639e+002
1.404055e+002, 3.575849e+002
1.408876e+002, 3.556479e+002
1.413697e+002, 3.519986e+002
1.418518e+002, 3.490810e+002
1.423339e+002, 3.470137e+002
1.428160e+002, 3.454165e+002
1.432982e+002, 3.441431e+002
1.437803e+002, 3.431450e+002
1.442624e+002, 3.426354e+002
1.447445e+002, 3.424781e+002
1.452266e+002, 3.428675e+002
1.457087e+002, 3.442082e+002
1.461909e+002, 3.465340e+002
1.466730e+002, 3.497904e+002
1.471551e+002, 3.541100e+002
1.476372e+002, 3.605255e+002
1.481193e+002, 3.661903e+002
1.486014e+002, 3.707096e+002
1.490836e+002, 3.744245e+002
1.495657e+002, 3.787384e+002
1.500478e+002, 3.855551e+002
1.505299e+002, 3.913521e+002
1.510120e+002, 3.946084e+002
1.514941e+002, 3.969852e+002
1.519763e+002, 3.948789e+002
1.524584e+002, 3.867568e+002
1.529405e+002, 3.734996e+002
1.534226e+002, 3.595182e+002
1.539047e+002, 3.424189e+002
1.543868e+002, 3.264362e+002
1.548690e+002, 3.138759e+002
1.553511e+002, 3.077001e+002
1.558332e+002, 3.020776e+002
1.563153e+002, 2.960217e+002
1.567974e+002, 2.896712e+002
1.572795e+002, 2.842203e+002
1.577617e+002, 2.799594e+002
1.582438e+002, 2.766767e+002
1.587259e+002, 2.742198e+002
1.592080e+002, 2.732445e+002
1.596901e+002, 2.724385e+002
1.601722e+002, 2.713696e+002
1.606544e+002, 2.700546e+002
1.611365e+002, 2.689391e+002
1.616186e+002, 2.679362e+002
1.621007e+002, 2.673100e+002
1.625828e+002, 2.672814e+002
1.630649e+002, 2.689915e+002
1.635471e+002, 2.704294e+002
1.640292e+002, 2.704873e+002
1.645113e+002, 2.691238e+002
1.649934e+002, 2.676050e+002
1.654755e+002, 2.664877e+002
1.659576e+002, 2.655851e+002
1.664398e+002, 2.646814e+002
1.669219e+002, 2.634556e+002
1.674040e+002, 2.623503e+002
1.678861e+002, 2.617430e+002
1.683682e+002, 2.616685e+002
1.688503e+002, 2.616756e+002
1.693325e+002, 2.614554e+002
1.698146e+002, 2.611283e+002
1.702967e+002, 2.608915e+002
1.707788e+002, 2.611259e+002
1.712609e+002, 2.613256e+002
1.717430e+002, 2.609638e+002
1.722252e+002, 2.599647e+002
1.727073e+002, 2.588118e+002
1.731894e+002, 2.577221e+002
1.736715e+002, 2.567510e+002
1.741536e+002, 2.560531e+002
1.746357e+002, 2.558321e+002
1.751179e+002, 2.558521e+002
1.756000e+002, 2.558895e+002
1.760821e+002, 2.559545e+002
1.765642e+002, 2.558774e+002
1.770463e+002, 2.553491e+002
1.775284e+002, 2.545043e+002
1.780106e+002, 2.537671e+002
1.784927e+002, 2.535407e+002
1.789748e+002, 2.535275e+002
1.794569e+002, 2.531852e+002
1.799390e+002, 2.524017e+002
1.804211e+002, 2.515186e+002
1.809033e+002, 2.509504e+002
1.813854e+002, 2.506408e+002
1.818675e+002, 2.503331e+002
1.823496e+002, 2.498501e+002
1.828317e+002, 2.492632e+002
1.833138e+002, 2.486743e+002
1.837960e+002, 2.480572e+002
1.842781e+002, 2.475584e+002
1.847602e+002, 2.474717e+002
1.852423e+002, 2.477562e+002
1.857244e+002, 2.480811e+002
1.862065e+002, 2.483271e+002
1.866887e+002, 2.484647e+002
1.871708e+002, 2.483754e+002
1.876529e+002, 2.480177e+002
1.881350e+002, 2.474856e+002
1.886171e+002, 2.468751e+002
1.890992e+002, 2.461849e+002
1.895814e+002, 2.455888e+002
1.900635e+002, 2.452443e+002
1.905456e+002, 2.451129e+002
1.910277e+002, 2.449823e+002
1.915098e+002, 2.448614e+002
1.919919e+002, 2.446809e+002
1.924741e+002, 2.442464e+002
1.929562e+002, 2.435488e+002
1.934383e+002, 2.428456e+002
1.939204e+002, 2.423104e+002
1.944025e+002, 2.419368e+002
1.948846e+002, 2.416329e+002
1.953668e+002, 2.414177e+002
1.958489e+002, 2.412325e+002
1.963310e+002, 2.409470e+002
1.968131e+002, 2.405592e+002
1.972952e+002, 2.400840e+002
1.977773e+002, 2.394123e+002
1.982595e+002, 2.385336e+002
1.987416e+002, 2.380417e+002
1.992237e+002, 2.381648e+002
1.997058e+002, 2.385969e+002
2.001879e+002, 2.384125e+002
2.006700e+002, 2.374910e+002
2.011522e+002, 2.364962e+002
2.016343e+002, 2.359491e+002
2.021164e+002, 2.359148e+002
2.025985e+002, 2.356485e+002
2.030806e+002, 2.349970e+002
2.035627e+002, 2.340940e+002
2.040449e+002, 2.333761e+002
2.045270e+002, 2.328724e+002
2.050091e+002, 2.324516e+002
2.054912e+002, 2.319992e+002
2.059733e+002, 2.314835e+002
2.064554e+002, 2.311534e+002
2.069376e+002, 2.311440e+002
2.074197e+002, 2.313106e+002
2.079018e+002, 2.310248e+002
2.083839e+002, 2.301132e+002
2.088660e+002, 2.291914e+002
2.093481e+002, 2.287397e+002
2.098303e+002, 2.288802e+002
2.103124e+002, 2.289320e+002
2.107945e+002, 2.287871e+002
2.112766e+002, 2.285087e+002
2.117587e+002, 2.283774e+002
2.122408e+002, 2.284901e+002
2.127230e+002, 2.285483e+002
2.132051e+002, 2.283197e+002
2.136872e+002, 2.277016e+002
2.141693e+002, 2.271297e+002
2.146514e+002, 2.266173e+002
2.151335e+002, 2.261816e+002
2.156157e+002, 2.259655e+002
2.160978e+002, 2.260584e+002
2.165799e+002, 2.261891e+002
2.170620e+002, 2.261399e+002
2.175441e+002, 2.257717e+002
2.180262e+002, 2.256448e+002
2.185084e+002, 2.259346e+002
2.189905e+002, 2.265147e+002
2.194726e+002, 2.267350e+002
2.199547e+002, 2.265084e+002
2.204368e+002, 2.260844e+002
2.209189e+002, 2.255907e+002
2.214011e+002, 2.249463e+002
2.218832e+002, 2.244545e+002
2.223653e+002, 2.241822e+002
2.228474e+002, 2.240858e+002
2.233295e+002, 2.239556e+002
2.238116e+002, 2.238011e+002
2.242938e+002, 2.236068e+002
2.247759e+002, 2.233443e+002
2.252580e+002, 2.229473e+002
2.257401e+002, 2.226501e+002
2.262222e+002, 2.225024e+002
2.267043e+002, 2.224639e+002
2.271865e+002, 2.223401e+002
2.276686e+002, 2.220154e+002
2.281507e+002, 2.217764e+002
2.286328e+002, 2.218577e+002
2.291149e+002, 2.225754e+002
2.295970e+002, 2.228741e+002
2.300792e+002, 2.226767e+002
2.305613e+002, 2.220146e+002
2.310434e+002, 2.209376e+002
2.315255e+002, 2.191292e+002
2.320076e+002, 2.173995e+002
2.324897e+002, 2.162006e+002
2.329719e+002, 2.156602e+002
2.334540e+002, 2.153871e+002
2.339361e+002, 2.154462e+002
2.344182e+002, 2.157590e+002
2.349003e+002, 2.160249e+002
2.353824e+002, 2.160991e+002
2.358646e+002, 2.163336e+002
2.363467e+002, 2.170591e+002
2.368288e+002, 2.190672e+002
2.373109e+002, 2.197061e+002
2.377930e+002, 2.182451e+002
2.382751e+002, 2.154678e+002
2.387573e+002, 2.138418e+002
2.392394e+002, 2.139290e+002
2.397215e+002, 2.143487e+002
2.402036e+002, 2.145008e+002
2.406857e+002, 2.142860e+002
2.411678e+002, 2.140199e+002
2.416500e+002, 2.137240e+002
2.421321e+002, 2.133705e+002
2.426142e+002, 2.128442e+002
2.430963e+002, 2.119367e+002
2.435784e+002, 2.111700e+002
2.440605e+002, 2.107959e+002
2.445427e+002, 2.109796e+002
2.450248e+002, 2.111427e+002
2.455069e+002, 2.113587e+002
2.459890e+002, 2.115276e+002
2.464711e+002, 2.114051e+002
2.469532e+002, 2.108412e+002
2.474354e+002, 2.102365e+002
2.479175e+002, 2.097245e+002
2.483996e+002, 2.092744e+002
2.488817e+002, 2.090439e+002
2.493638e+002, 2.091994e+002
2.498459e+002, 2.094858e+002
2.503281e+002, 2.093917e+002
2.508102e+002, 2.086651e+002
2.512923e+002, 2.080031e+002
2.517744e+002, 2.076713e+002
2.522565e+002, 2.077819e+002
2.527386e+002, 2.077686e+002
2.532208e+002, 2.076035e+002
2.537029e+002, 2.073356e+002
2.541850e+002, 2.070085e+002
2.546671e+002, 2.065203e+002
2.551492e+002, 2.061692e+002
2.556313e+002, 2.060920e+002
2.561135e+002, 2.063462e+002
2.565956e+002, 2.064492e+002
2.570777e+002, 2.063083e+002
2.575598e+002, 2.060969e+002
2.580419e+002, 2.060686e+002
2.585240e+002, 2.063227e+002
2.590062e+002, 2.065204e+002
2.594883e+002, 2.065084e+002
2.599704e+002, 2.062544e+002
2.604525e+002, 2.062979e+002
2.609346e+002, 2.067558e+002
2.614167e+002, 2.073658e+002
2.618989e+002, 2.078353e+002
2.623810e+002, 2.081329e+002
2.628631e+002, 2.083769e+002
2.633452e+002, 2.086286e+002
2.638273e+002, 2.088915e+002
2.643094e+002, 2.088563e+002
2.647916e+002, 2.083358e+002
2.652737e+002, 2.078248e+002
2.657558e+002, 2.078118e+002
2.662379e+002, 2.083958e+002
2.667200e+002, 2.091802e+002
2.672021e+002, 2.101698e+002
2.676843e+002, 2.113269e+002
2.681664e+002, 2.123259e+002
2.686485e+002, 2.131567e+002
2.691306e+002, 2.138429e+002
2.696127e+002, 2.143074e+002
2.700948e+002, 2.144332e+002
2.705770e+002, 2.148556e+002
2.710591e+002, 2.157527e+002
2.715412e+002, 2.170103e+002
2.720233e+002, 2.181171e+002
2.725054e+002, 2.190144e+002
2.729875e+002, 2.198615e+002
2.734697e+002, 2.207918e+002
2.739518e+002, 2.218449e+002
2.744339e+002, 2.227440e+002
2.749160e+002, 2.233882e+002
2.753981e+002, 2.238961e+002
2.758802e+002, 2.246883e+002
2.763624e+002, 2.258248e+002
2.768445e+002, 2.269719e+002
2.773266e+002, 2.279086e+002
2.778087e+002, 2.286225e+002
2.782908e+002, 2.293199e+002
2.787729e+002, 2.300012e+002
2.792551e+002, 2.306968e+002
2.797372e+002, 2.315691e+002
2.802193e+002, 2.326946e+002
2.807014e+002, 2.335139e+002
2.811835e+002, 2.336019e+002
2.816656e+002, 2.329714e+002
2.821478e+002, 2.325181e+002
2.826299e+002, 2.323513e+002
2.831120e+002, 2.322241e+002
2.835941e+002, 2.317707e+002
2.840762e+002, 2.309869e+002
2.845583e+002, 2.298755e+002
2.850405e+002, 2.282996e+002
2.855226e+002, 2.263166e+002
2.860047e+002, 2.244500e+002
2.864868e+002, 2.227069e+002
2.869689e+002, 2.210649e+002
2.874510e+002, 2.195251e+002
2.879332e+002, 2.180819e+002
2.884153e+002, 2.166257e+002
2.888974e+002, 2.151503e+002
2.893795e+002, 2.136431e+002
2.898616e+002, 2.120898e+002
2.903438e+002, 2.104830e+002
2.908259e+002, 2.088784e+002
2.913080e+002, 2.072523e+002
2.917901e+002, 2.056529e+002
2.922722e+002, 2.042876e+002
2.927543e+002, 2.033155e+002
2.932365e+002, 2.025942e+002
2.937186e+002, 2.018377e+002
2.942007e+002, 2.010531e+002
2.946828e+002, 2.002003e+002
2.951649e+002, 1.990321e+002
2.956470e+002, 1.977347e+002
2.961292e+002, 1.969585e+002
2.966113e+002, 1.971866e+002
2.970934e+002, 1.976833e+002
2.975755e+002, 1.970937e+002
2.980576e+002, 1.955118e+002
2.985397e+002, 1.939734e+002
2.990219e+002, 1.933672e+002
2.995040e+002, 1.933382e+002
2.999861e+002, 1.930955e+002
3.004682e+002, 1.923923e+002
3.009503e+002, 1.916288e+002
3.014324e+002, 1.913052e+002
3.019146e+002, 1.913526e+002
3.023967e+002, 1.914648e+002
3.028788e+002, 1.915183e+002
3.033609e+002, 1.915009e+002
3.038430e+002, 1.913686e+002
3.043251e+002, 1.910875e+002
3.048073e+002, 1.907967e+002
3.052894e+002, 1.905158e+002
3.057715e+002, 1.903123e+002
3.062536e+002, 1.903456e+002
3.067357e+002, 1.910512e+002
3.072178e+002, 1.918481e+002
3.077000e+002, 1.920377e+002
3.081821e+002, 1.915070e+002
3.086642e+002, 1.909279e+002
3.091463e+002, 1.907260e+002
3.096284e+002, 1.908080e+002
3.101105e+002, 1.910299e+002
3.105927e+002, 1.915701e+002
3.110748e+002, 1.920525e+002
3.115569e+002, 1.921556e+002
3.120390e+002, 1.918752e+002
3.125211e+002, 1.915756e+002
3.130032e+002, 1.913337e+002
3.134854e+002, 1.912287e+002
3.139675e+002, 1.913488e+002
3.144496e+002, 1.919834e+002
3.149317e+002, 1.926183e+002
3.154138e+002, 1.929616e+002
3.158959e+002, 1.930649e+002
3.163781e+002, 1.932473e+002
3.168602e+002, 1.937872e+002
3.173423e+002, 1.943796e+002
3.178244e+002, 1.947925e+002
3.183065e+002, 1.948447e+002
3.187886e+002, 1.948992e+002
3.192708e+002, 1.951008e+002
3.197529e+002, 1.953977e+002
3.202350e+002, 1.956449e+002
3.207171e+002, 1.955609e+002
3.211992e+002, 1.955902e+002
3.216813e+002, 1.959817e+002
3.221635e+002, 1.969223e+002
3.226456e+002, 1.978616e+002
3.231277e+002, 1.987900e+002
3.236098e+002, 1.996348e+002
3.240919e+002, 2.002785e+002
3.245740e+002, 2.005071e+002
3.250562e+002, 2.006996e+002
3.255383e+002, 2.009489e+002
3.260204e+002, 2.012475e+002
3.265025e+002, 2.016551e+002
3.269846e+002, 2.022110e+002
3.274667e+002, 2.028652e+002
3.279489e+002, 2.035745e+002
3.284310e+002, 2.046327e+002
3.289131e+002, 2.054205e+002
3.293952e+002, 2.057166e+002
3.298773e+002, 2.055043e+002
3.303594e+002, 2.055870e+002
3.308416e+002, 2.061087e+002
3.313237e+002, 2.068030e+002
3.318058e+002, 2.074873e+002
3.322879e+002, 2.081622e+002
3.327700e+002, 2.088231e+002
3.332521e+002, 2.094384e+002
3.337343e+002, 2.100379e+002
3.342164e+002, 2.107771e+002
3.346985e+002, 2.116824e+002
3.351806e+002, 2.126676e+002
3.356627e+002, 2.137184e+002
3.361448e+002, 2.148930e+002
3.366270e+002, 2.158936e+002
3.371091e+002, 2.166011e+002
3.375912e+002, 2.172028e+002
3.380733e+002, 2.181646e+002
3.385554e+002, 2.196264e+002
3.390375e+002, 2.209604e+002
3.395197e+002, 2.217521e+002
3.400018e+002, 2.219300e+002
3.404839e+002, 2.228869e+002
3.409660e+002, 2.247998e+002
3.414481e+002, 2.270643e+002
3.419302e+002, 2.287264e+002
3.424124e+002, 2.297243e+002
3.428945e+002, 2.311709e+002
3.433766e+002, 2.335765e+002
3.438587e+002, 2.366892e+002
3.443408e+002, 2.393830e+002
3.448229e+002, 2.415712e+002
3.453051e+002, 2.438421e+002
3.457872e+002, 2.467276e+002
3.462693e+002, 2.501647e+002
3.467514e+002, 2.538500e+002
3.472335e+002, 2.576529e+002
3.477156e+002, 2.617154e+002
3.481978e+002, 2.662633e+002
3.486799e+002, 2.712840e+002
3.491620e+002, 2.765986e+002
3.496441e+002, 2.818816e+002
3.501262e+002, 2.873855e+002
3.506083e+002, 2.936745e+002
3.510905e+002, 3.008886e+002
3.515726e+002, 3.088741e+002
3.520547e+002, 3.173546e+002
3.525368e+002, 3.264570e+002
3.530189e+002, 3.365652e+002
3.535010e+002, 3.483251e+002
3.539832e+002, 3.609833e+002
3.544653e+002, 3.736023e+002
3.549474e+002, 3.862431e+002
3.554295e+002, 3.990833e+002
3.559116e+002, 4.120571e+002
3.563937e+002, 4.254523e+002
3.568759e+002, 4.395039e+002
3.573580e+002, 4.547035e+002
3.578401e+002, 4.703993e+002
3.583222e+002, 4.859294e+002
3.588043e+002, 5.015401e+002
3.592864e+002, 5.178571e+002
3.597686e+002, 5.350609e+002
3.602507e+002, 5.533054e+002
3.607328e+002, 5.724774e+002
3.612149e+002, 5.925095e+002
3.616970e+002, 6.137926e+002
3.621791e+002, 6.364866e+002
3.626613e+002, 6.605384e+002
3.631434e+002, 6.858312e+002
3.636255e+002, 7.118672e+002
3.641076e+002, 7.394869e+002
3.645897e+002, 7.694620e+002
3.650718e+002, 8.016584e+002
3.655540e+002, 8.348771e+002
3.660361e+002, 8.697977e+002
3.665182e+002, 9.052866e+002
3.670003e+002, 9.399872e+002
3.674824e+002, 9.754653e+002
3.679645e+002, 1.008385e+003
3.684467e+002, 1.039180e+003
3.689288e+002, 1.067495e+003
3.694109e+002, 1.089889e+003
3.698930e+002, 1.108328e+003
3.703751e+002, 1.119385e+003
3.708572e+002, 1.120891e+003
3.713394e+002, 1.113549e+003
3.718215e+002, 1.095412e+003
3.723036e+002, 1.064636e+003
3.727857e+002, 1.022921e+003
3.732678e+002, 9.755858e+002
3.737499e+002, 9.204658e+002
3.742321e+002, 8.627432e+002
3.747142e+002, 8.045104e+002
3.751963e+002, 7.443669e+002
3.756784e+002, 6.879197e+002
3.761605e+002, 6.354344e+002
3.766426e+002, 5.867366e+002
3.771248e+002, 5.434755e+002
3.776069e+002, 5.054391e+002
3.780890e+002, 4.711543e+002
3.785711e+002, 4.405818e+002
3.790532e+002, 4.134516e+002
3.795353e+002, 3.901713e+002
3.800175e+002, 3.707980e+002
3.804996e+002, 3.539494e+002
3.809817e+002, 3.382987e+002
3.814638e+002, 3.239703e+002
3.819459e+002, 3.114877e+002
3.824280e+002, 3.012549e+002
3.829102e+002, 2.927183e+002
3.833923e+002, 2.852793e+002
3.838744e+002, 2.788427e+002
3.843565e+002, 2.730934e+002
3.848386e+002, 2.678092e+002
3.853207e+002, 2.630756e+002
3.858029e+002, 2.592755e+002
3.862850e+002, 2.564364e+002
3.867671e+002, 2.543774e+002
3.872492e+002, 2.529969e+002
3.877313e+002, 2.522374e+002
3.882134e+002, 2.520017e+002
3.886956e+002, 2.521533e+002
3.891777e+002, 2.528656e+002
3.896598e+002, 2.543737e+002
3.901419e+002, 2.566618e+002
3.906240e+002, 2.594253e+002
3.911061e+002, 2.626385e+002
3.915883e+002, 2.661955e+002
3.920704e+002, 2.699767e+002
3.925525e+002, 2.737646e+002
3.930346e+002, 2.780244e+002
3.935167e+002, 2.831660e+002
3.939988e+002, 2.890161e+002
3.944810e+002, 2.951349e+002
3.949631e+002, 3.011200e+002
3.954452e+002, 3.075327e+002
3.959273e+002, 3.147410e+002
3.964094e+002, 3.230119e+002
3.968915e+002, 3.313590e+002
3.973737e+002, 3.390364e+002
3.978558e+002, 3.468779e+002
3.983379e+002, 3.559099e+002
3.988200e+002, 3.668063e+002
3.993021e+002, 3.782890e+002
3.997842e+002, 3.900809e+002
4.002664e+002, 4.021721e+002
4.007485e+002, 4.150339e+002
4.012306e+002, 4.283153e+002
4.017127e+002, 4.425334e+002
4.021948e+002, 4.580370e+002
4.026769e+002, 4.752017e+002
4.031591e+002, 4.928863e+002
4.036412e+002, 5.114035e+002
4.041233e+002, 5.301835e+002
4.046054e+002, 5.484463e+002
4.050875e+002, 5.661370e+002
4.055696e+002, 5.829673e+002
4.060518e+002, 5.991382e+002
4.065339e+002, 6.147086e+002
4.070160e+002, 6.278986e+002
4.074981e+002, 6.388163e+002
4.079802e+002, 6.467477e+002
4.084623e+002, 6.510692e+002
4.089445e+002, 6.517697e+002
4.094266e+002, 6.480560e+002
4.099087e+002, 6.392988e+002
4.103908e+002, 6.264387e+002
4.108729e+002, 6.112807e+002
4.113550e+002, 5.937762e+002
4.118372e+002, 5.747754e+002
4.123193e+002, 5.539848e+002
4.128014e+002, 5.320339e+002
4.132835e+002, 5.100867e+002
4.137656e+002, 4.880114e+002
4.142477e+002, 4.664525e+002
4.147299e+002, 4.461847e+002
4.152120e+002, 4.270324e+002
4.156941e+002, 4.091549e+002
4.161762e+002, 3.920399e+002
4.166583e+002, 3.763506e+002
4.171404e+002, 3.629469e+002
4.176226e+002, 3.516721e+002
4.181047e+002, 3.413578e+002
4.185868e+002, 3.313233e+002
4.190689e+002, 3.218182e+002
4.195510e+002, 3.129153e+002
4.200331e+002, 3.046898e+002
4.205153e+002, 2.971075e+002
4.209974e+002, 2.905189e+002
4.214795e+002, 2.846514e+002
4.219616e+002, 2.790836e+002
4.224437e+002, 2.735487e+002
4.229258e+002, 2.683589e+002
4.234080e+002, 2.636990e+002
4.238901e+002, 2.596433e+002
4.243722e+002, 2.557399e+002
4.248543e+002, 2.518261e+002
4.253364e+002, 2.481191e+002
4.258185e+002, 2.448507e+002
4.263007e+002, 2.420770e+002
4.267828e+002, 2.396312e+002
4.272649e+002, 2.376644e+002
4.277470e+002, 2.360706e+002
4.282291e+002, 2.340333e+002
4.287112e+002, 2.313145e+002
4.291934e+002, 2.285867e+002
4.296755e+002, 2.261590e+002
4.301576e+002, 2.240740e+002
4.306397e+002, 2.221524e+002
4.311218e+002, 2.204403e+002
4.316039e+002, 2.188109e+002
4.320861e+002, 2.169912e+002
4.325682e+002, 2.149612e+002
4.330503e+002, 2.130740e+002
4.335324e+002, 2.114814e+002
4.340145e+002, 2.101066e+002
4.344966e+002, 2.087363e+002
4.349788e+002, 2.073768e+002
4.354609e+002, 2.058953e+002
4.359430e+002, 2.039277e+002
4.364251e+002, 2.017247e+002
4.369072e+002, 2.000465e+002
4.373893e+002, 1.991318e+002
4.378715e+002, 1.984797e+002
4.383536e+002, 1.975443e+002
4.388357e+002, 1.964089e+002
4.393178e+002, 1.953059e+002
4.397999e+002, 1.944510e+002
4.402820e+002, 1.936146e+002
4.407642e+002, 1.926077e+002
4.412463e+002, 1.914082e+002
4.417284e+002, 1.900901e+002
4.422105e+002, 1.884908e+002
4.426926e+002, 1.868699e+002
4.431747e+002, 1.854849e+002
4.436569e+002, 1.846696e+002
4.441390e+002, 1.837721e+002
4.446211e+002, 1.825119e+002
4.451032e+002, 1.810051e+002
4.455853e+002, 1.796283e+002
4.460674e+002, 1.785918e+002
4.465496e+002, 1.775649e+002
4.470317e+002, 1.764062e+002
4.475138e+002, 1.750337e+002
4.479959e+002, 1.737943e+002
4.484780e+002, 1.728604e+002
4.489601e+002, 1.719406e+002
4.494423e+002, 1.706932e+002
4.499244e+002, 1.688704e+002
4.504065e+002, 1.672744e+002
4.508886e+002, 1.660516e+002
4.513707e+002, 1.651499e+002
4.518528e+002, 1.642930e+002
4.523350e+002, 1.634445e+002
4.528171e+002, 1.627356e+002
4.532992e+002, 1.623105e+002
4.537813e+002, 1.621715e+002
4.542634e+002, 1.617618e+002
4.547455e+002, 1.610121e+002
4.552277e+002, 1.601530e+002
4.557098e+002, 1.594292e+002
4.561919e+002, 1.588416e+002
4.566740e+002, 1.583584e+002
4.571561e+002, 1.579825e+002
4.576382e+002, 1.577061e+002
4.581204e+002, 1.575401e+002
4.586025e+002, 1.574789e+002
4.590846e+002, 1.574884e+002
4.595667e+002, 1.575881e+002
4.600488e+002, 1.577303e+002
4.605309e+002, 1.578489e+002
4.610131e+002, 1.579289e+002
4.614952e+002, 1.580178e+002
4.619773e+002, 1.580289e+002
4.624594e+002, 1.580957e+002
4.629415e+002, 1.584153e+002
4.634236e+002, 1.593009e+002
4.639058e+002, 1.602272e+002
4.643879e+002, 1.610216e+002
4.648700e+002, 1.616673e+002
4.653521e+002, 1.621751e+002
4.658342e+002, 1.622679e+002
4.663163e+002, 1.624319e+002
4.667985e+002, 1.629507e+002
4.672806e+002, 1.640487e+002
4.677627e+002, 1.651320e+002
4.682448e+002, 1.662635e+002
4.687269e+002, 1.673321e+002
4.692090e+002, 1.681560e+002
4.696912e+002, 1.684700e+002
4.701733e+002, 1.690440e+002
4.706554e+002, 1.701124e+002
4.711375e+002, 1.716219e+002
4.716196e+002, 1.730392e+002
4.721017e+002, 1.743132e+002
4.725839e+002, 1.756405e+002
4.730660e+002, 1.772770e+002
4.735481e+002, 1.792209e+002
4.740302e+002, 1.808578e+002
4.745123e+002, 1.820882e+002
4.749944e+002, 1.831494e+002
4.754766e+002, 1.844604e+002
4.759587e+002, 1.859603e+002
4.764408e+002, 1.872502e+002
4.769229e+002, 1.881198e+002
4.774050e+002, 1.887064e+002
4.778871e+002, 1.890696e+002
4.783693e+002, 1.892562e+002
4.788514e+002, 1.896771e+002
4.793335e+002, 1.908786e+002
4.798156e+002, 1.923743e+002
4.802977e+002, 1.935194e+002
4.807798e+002, 1.940730e+002
4.812620e+002, 1.946961e+002
4.817441e+002, 1.957388e+002
4.822262e+002, 1.970978e+002
4.827083e+002, 1.986212e+002
4.831904e+002, 2.002365e+002
4.836725e+002, 2.020319e+002
4.841547e+002, 2.039595e+002
4.846368e+002, 2.060285e+002
4.851189e+002, 2.084872e+002
4.856010e+002, 2.110966e+002
4.860831e+002, 2.143442e+002
4.865652e+002, 2.184633e+002
4.870474e+002, 2.238412e+002
4.875295e+002, 2.293303e+002
4.880116e+002, 2.348946e+002
4.884937e+002, 2.405320e+002
4.889758e+002, 2.461558e+002
4.894579e+002, 2.514753e+002
4.899401e+002, 2.577567e+002
4.904222e+002, 2.655247e+002
4.909043e+002, 2.744721e+002
4.913864e+002, 2.835004e+002
4.918685e+002, 2.926087e+002
4.923506e+002, 3.020698e+002
4.928328e+002, 3.120507e+002
4.933149e+002, 3.225085e+002
4.937970e+002, 3.334601e+002
4.942791e+002, 3.449295e+002
4.947612e+002, 3.569714e+002
4.952433e+002, 3.697273e+002
4.957255e+002, 3.832388e+002
4.962076e+002, 3.977444e+002
4.966897e+002, 4.134608e+002
4.971718e+002, 4.300858e+002
4.976539e+002, 4.471504e+002
4.981360e+002, 4.646356e+002
4.986182e+002, 4.828923e+002
4.991003e+002, 5.020259e+002
4.995824e+002, 5.219596e+002
5.000645e+002, 5.423651e+002
5.005466e+002, 5.637292e+002
5.010287e+002, 5.846039e+002
5.015109e+002, 6.047886e+002
5.019930e+002, 6.242495e+002
5.024751e+002, 6.426950e+002
5.029572e+002, 6.624892e+002
5.034393e+002, 6.783396e+002
5.039214e+002, 6.897359e+002
5.044036e+002, 6.966920e+002
5.048857e+002, 6.995428e+002
5.053678e+002, 6.981124e+002
5.058499e+002, 6.928974e+002
5.063320e+002, 6.840480e+002
5.068141e+002, 6.715539e+002
5.072963e+002, 6.552900e+002
5.077784e+002, 6.343854e+002
5.082605e+002, 6.114508e+002
5.087426e+002, 5.885745e+002
5.092247e+002, 5.657284e+002
5.097068e+002, 5.423392e+002
5.101890e+002, 5.180807e+002
5.106711e+002, 4.937242e+002
5.111532e+002, 4.707680e+002
5.116353e+002, 4.490977e+002
5.121174e+002, 4.287718e+002
5.125995e+002, 4.096371e+002
5.130817e+002, 3.917176e+002
5.135638e+002, 3.752434e+002
5.140459e+002, 3.601792e+002
5.145280e+002, 3.457987e+002
5.150101e+002, 3.315000e+002
5.154922e+002, 3.176913e+002
5.159744e+002, 3.048980e+002
5.164565e+002, 2.931117e+002
5.169386e+002, 2.823675e+002
5.174207e+002, 2.729479e+002
5.179028e+002, 2.645273e+002
5.183849e+002, 2.565702e+002
5.188671e+002, 2.491021e+002
5.193492e+002, 2.419790e+002
5.198313e+002, 2.349049e+002
5.203134e+002, 2.279936e+002
5.207955e+002, 2.221078e+002
5.212776e+002, 2.176886e+002
5.217598e+002, 2.136208e+002
5.222419e+002, 2.093288e+002
5.227240e+002, 2.047173e+002
5.232061e+002, 2.002232e+002
5.236882e+002, 1.957631e+002
5.241703e+002, 1.915754e+002
5.246525e+002, 1.881280e+002
5.251346e+002, 1.853553e+002
5.256167e+002, 1.823905e+002
5.260988e+002, 1.789096e+002
5.265809e+002, 1.752619e+002
5.270630e+002, 1.720570e+002
5.275452e+002, 1.692805e+002
5.280273e+002, 1.667676e+002
5.285094e+002, 1.644317e+002
5.289915e+002, 1.622810e+002
5.294736e+002, 1.603448e+002
5.299557e+002, 1.586246e+002
5.304379e+002, 1.569124e+002
5.309200e+002, 1.549978e+002
5.314021e+002, 1.530454e+002
5.318842e+002, 1.512108e+002
5.323663e+002, 1.495862e+002
5.328484e+002, 1.480024e+002
5.333306e+002, 1.464199e+002
5.338127e+002, 1.448519e+002
5.342948e+002, 1.433703e+002
5.347769e+002, 1.420034e+002
5.352590e+002, 1.406735e+002
5.357411e+002, 1.393642e+002
5.362233e+002, 1.380821e+002
5.367054e+002, 1.368132e+002
5.371875e+002, 1.355147e+002
5.376696e+002, 1.343379e+002
5.381517e+002, 1.333978e+002
5.386339e+002, 1.327199e+002
5.391160e+002, 1.320783e+002
5.395981e+002, 1.314915e+002
5.400802e+002, 1.308667e+002
5.405623e+002, 1.300130e+002
5.410444e+002, 1.289743e+002
5.415266e+002, 1.279815e+002
5.420087e+002, 1.271217e+002
5.424908e+002, 1.263250e+002
5.429729e+002, 1.254083e+002
5.434550e+002, 1.244530e+002
5.439371e+002, 1.237536e+002
5.444193e+002, 1.237578e+002
5.449014e+002, 1.238946e+002
5.453835e+002, 1.236271e+002
5.458656e+002, 1.228867e+002
5.463477e+002, 1.222325e+002
5.468298e+002, 1.219718e+002
5.473120e+002, 1.218425e+002
5.477941e+002, 1.216319e+002
5.482762e+002, 1.212716e+002
5.487583e+002, 1.208712e+002
5.492404e+002, 1.204491e+002
5.497225e+002, 1.199882e+002
5.502047e+002, 1.194146e+002
5.506868e+002, 1.184834e+002
5.511689e+002, 1.179408e+002
5.516510e+002, 1.181495e+002
5.521331e+002, 1.189377e+002
5.526152e+002, 1.190879e+002
5.530974e+002, 1.184830e+002
5.535795e+002, 1.178300e+002
5.540616e+002, 1.176779e+002
5.545437e+002, 1.179177e+002
5.550258e+002, 1.178758e+002
5.555079e+002, 1.174896e+002
5.559901e+002, 1.170248e+002
5.564722e+002, 1.167151e+002
5.569543e+002, 1.165345e+002
5.574364e+002, 1.164257e+002
5.579185e+002, 1.163595e+002
5.584006e+002, 1.163802e+002
5.588828e+002, 1.166861e+002
5.593649e+002, 1.171042e+002
5.598470e+002, 1.172430e+002
5.603291e+002, 1.166185e+002
5.608112e+002, 1.159705e+002
5.612933e+002, 1.156246e+002
5.617755e+002, 1.155964e+002
5.622576e+002, 1.156201e+002
5.627397e+002, 1.158370e+002
5.632218e+002, 1.159473e+002
5.637039e+002, 1.157782e+002
5.641860e+002, 1.151694e+002
5.646682e+002, 1.147042e+002
5.651503e+002, 1.144312e+002
5.656324e+002, 1.142388e+002
5.661145e+002, 1.139272e+002
5.665966e+002, 1.134540e+002
5.670787e+002, 1.133056e+002
5.675609e+002, 1.137138e+002
5.680430e+002, 1.143497e+002
5.685251e+002, 1.144572e+002
5.690072e+002, 1.140920e+002
5.694893e+002, 1.136853e+002
5.699714e+002, 1.134430e+002
5.704536e+002, 1.133107e+002
5.709357e+002, 1.132189e+002
5.714178e+002, 1.131647e+002
5.718999e+002, 1.131406e+002
5.723820e+002, 1.132022e+002
5.728641e+002, 1.132563e+002
5.733463e+002, 1.132027e+002
5.738284e+002, 1.129668e+002
5.743105e+002, 1.127743e+002
5.747926e+002, 1.126187e+002
5.752747e+002, 1.125689e+002
5.757568e+002, 1.127171e+002
5.762390e+002, 1.133076e+002
5.767211e+002, 1.137834e+002
5.772032e+002, 1.140942e+002
5.776853e+002, 1.142458e+002
5.781674e+002, 1.142160e+002
5.786495e+002, 1.139324e+002
5.791317e+002, 1.136833e+002
5.796138e+002, 1.136184e+002
5.800959e+002, 1.137066e+002
5.805780e+002, 1.136321e+002
5.810601e+002, 1.133717e+002
5.815422e+002, 1.132039e+002
5.820244e+002, 1.134547e+002
5.825065e+002, 1.139722e+002
5.829886e+002, 1.143625e+002
5.834707e+002, 1.145623e+002
5.839528e+002, 1.147258e+002
5.844349e+002, 1.150705e+002
5.849171e+002, 1.154492e+002
5.853992e+002, 1.156406e+002
5.858813e+002, 1.153665e+002
5.863634e+002, 1.151059e+002
5.868455e+002, 1.150643e+002
5.873276e+002, 1.151866e+002
5.878098e+002, 1.153282e+002
5.882919e+002, 1.155120e+002
5.887740e+002, 1.156569e+002
5.892561e+002, 1.157198e+002
5.897382e+002, 1.156979e+002
5.902203e+002, 1.157263e+002
5.907025e+002, 1.157978e+002
5.911846e+002, 1.159306e+002
5.916667e+002, 1.161943e+002
5.921488e+002, 1.166141e+002
5.926309e+002, 1.167840e+002
5.931130e+002, 1.166559e+002
5.935952e+002, 1.164160e+002
5.940773e+002, 1.163335e+002
5.945594e+002, 1.163425e+002
5.950415e+002, 1.161286e+002
5.955236e+002, 1.154334e+002
5.960057e+002, 1.148308e+002
5.964879e+002, 1.151763e+002
5.969700e+002, 1.161199e+002
5.974521e+002, 1.168384e+002
5.979342e+002, 1.169015e+002
5.984163e+002, 1.166777e+002
5.988984e+002, 1.162360e+002
5.993806e+002, 1.156225e+002
5.998627e+002, 1.151892e+002
6.003448e+002, 1.150757e+002
6.008269e+002, 1.151129e+002
6.013090e+002, 1.152360e+002
6.017911e+002, 1.154743e+002
6.022733e+002, 1.156868e+002
6.027554e+002, 1.159041e+002
6.032375e+002, 1.160523e+002
6.037196e+002, 1.160568e+002
6.042017e+002, 1.159116e+002
6.046838e+002, 1.156590e+002
6.051660e+002, 1.152610e+002
6.056481e+002, 1.148532e+002
6.061302e+002, 1.147057e+002
6.066123e+002, 1.147630e+002
6.070944e+002, 1.147664e+002
6.075765e+002, 1.146039e+002
6.080587e+002, 1.143553e+002
6.085408e+002, 1.140844e+002
6.090229e+002, 1.137998e+002
6.095050e+002, 1.135238e+002
6.099871e+002, 1.133781e+002
6.104692e+002, 1.131572e+002
6.109514e+002, 1.126037e+002
6.114335e+002, 1.116641e+002
6.119156e+002, 1.111123e+002
6.123977e+002, 1.116797e+002
6.128798e+002, 1.122374e+002
6.133619e+002, 1.120719e+002
6.138441e+002, 1.106664e+002
6.143262e+002, 1.097940e+002
6.148083e+002, 1.096011e+002
6.152904e+002, 1.097327e+002
6.157725e+002, 1.097870e+002
6.162546e+002, 1.097630e+002
6.167368e+002, 1.096943e+002
6.172189e+002, 1.095885e+002
6.177010e+002, 1.094390e+002
6.181831e+002, 1.092372e+002
6.186652e+002, 1.089841e+002
6.191473e+002, 1.086783e+002
6.196295e+002, 1.083429e+002
6.201116e+002, 1.079408e+002
6.205937e+002, 1.073254e+002
6.210758e+002, 1.065676e+002
6.215579e+002, 1.060051e+002
6.220400e+002, 1.058824e+002
6.225222e+002, 1.059551e+002
6.230043e+002, 1.061418e+002
6.234864e+002, 1.064784e+002
6.239685e+002, 1.066668e+002
6.244506e+002, 1.066206e+002
6.249327e+002, 1.064667e+002
6.254149e+002, 1.062671e+002
6.258970e+002, 1.059800e+002
6.263791e+002, 1.057927e+002
6.268612e+002, 1.057512e+002
6.273433e+002, 1.057436e+002
6.278254e+002, 1.056071e+002
6.283076e+002, 1.053468e+002
6.287897e+002, 1.050555e+002
6.292718e+002, 1.047198e+002
6.297539e+002, 1.044234e+002
6.302360e+002, 1.042729e+002
6.307181e+002, 1.042709e+002
6.312003e+002, 1.044299e+002
6.316824e+002, 1.050537e+002
6.321645e+002, 1.056081e+002
6.326466e+002, 1.055492e+002
6.331287e+002, 1.049747e+002
6.336108e+002, 1.045581e+002
6.340930e+002, 1.047163e+002
6.345751e+002, 1.049323e+002
6.350572e+002, 1.049138e+002
6.355393e+002, 1.045722e+002
6.360214e+002, 1.044159e+002
6.365035e+002, 1.046164e+002
6.369857e+002, 1.047913e+002
6.374678e+002, 1.045595e+002
6.379499e+002, 1.038132e+002
6.384320e+002, 1.034975e+002
6.389141e+002, 1.037654e+002
6.393962e+002, 1.042062e+002
6.398784e+002, 1.042221e+002
6.403605e+002, 1.039180e+002
6.408426e+002, 1.037772e+002
6.413247e+002, 1.040371e+002
6.418068e+002, 1.043242e+002
6.422889e+002, 1.041003e+002
6.427711e+002, 1.035955e+002
6.432532e+002, 1.033265e+002
6.437353e+002, 1.038623e+002
6.442174e+002, 1.043658e+002
6.446995e+002, 1.043650e+002
6.451816e+002, 1.039330e+002
6.456638e+002, 1.036289e+002
6.461459e+002, 1.036222e+002
6.466280e+002, 1.036695e+002
6.471101e+002, 1.036794e+002
6.475922e+002, 1.036428e+002
6.480743e+002, 1.037503e+002
6.485565e+002, 1.040713e+002
6.490386e+002, 1.043507e+002
6.495207e+002, 1.043613e+002
6.500028e+002, 1.041312e+002
6.504849e+002, 1.038601e+002
6.509670e+002, 1.035420e+002
6.514492e+002, 1.033261e+002
6.519313e+002, 1.034684e+002
6.524134e+002, 1.038128e+002
6.528955e+002, 1.040660e+002
6.533776e+002, 1.041538e+002
6.538597e+002, 1.041493e+002
6.543419e+002, 1.040676e+002
6.548240e+002, 1.039327e+002
6.553061e+002, 1.037829e+002
6.557882e+002, 1.035176e+002
6.562703e+002, 1.033694e+002
6.567524e+002, 1.035357e+002
6.572346e+002, 1.038594e+002
6.577167e+002, 1.038270e+002
6.581988e+002, 1.032263e+002
6.586809e+002, 1.027638e+002
6.591630e+002, 1.027514e+002
6.596451e+002, 1.030815e+002
6.601273e+002, 1.030111e+002
6.606094e+002, 1.025077e+002
6.610915e+002, 1.022143e+002
6.615736e+002, 1.028947e+002
6.620557e+002, 1.039893e+002
6.625378e+002, 1.043123e+002
6.630200e+002, 1.038060e+002
6.635021e+002, 1.031899e+002
6.639842e+002, 1.028044e+002
6.644663e+002, 1.026407e+002
6.649484e+002, 1.027551e+002
6.654305e+002, 1.033130e+002
6.659127e+002, 1.036832e+002
6.663948e+002, 1.035516e+002
6.668769e+002, 1.032461e+002
6.673590e+002, 1.031126e+002
6.678411e+002, 1.032971e+002
6.683232e+002, 1.033538e+002
6.688054e+002, 1.032376e+002
6.692875e+002, 1.029946e+002
6.697696e+002, 1.026092e+002
6.702517e+002, 1.020735e+002
6.707338e+002, 1.018431e+002
6.712159e+002, 1.021706e+002
6.716981e+002, 1.027197e+002
6.721802e+002, 1.029556e+002
6.726623e+002, 1.029142e+002
6.731444e+002, 1.027335e+002
6.736265e+002, 1.023088e+002
6.741086e+002, 1.019164e+002
6.745908e+002, 1.017985e+002
6.750729e+002, 1.019224e+002
6.755550e+002, 1.020363e+002
6.760371e+002, 1.020469e+002
6.765192e+002, 1.020467e+002
6.770013e+002, 1.020986e+002
6.774835e+002, 1.022183e+002
6.779656e+002, 1.022079e+002
6.784477e+002, 1.019669e+002
6.789298e+002, 1.017777e+002
6.794119e+002, 1.018901e+002
6.798940e+002, 1.023085e+002
6.803762e+002, 1.025766e+002
6.808583e+002, 1.026761e+002
6.813404e+002, 1.026659e+002
6.818225e+002, 1.025504e+002
6.823046e+002, 1.023798e+002
6.827867e+002, 1.022592e+002
6.832689e+002, 1.022181e+002
6.837510e+002, 1.022058e+002
6.842331e+002, 1.021681e+002
6.847152e+002, 1.021449e+002
6.851973e+002, 1.021882e+002
6.856794e+002, 1.023690e+002
6.861616e+002, 1.025509e+002
6.866437e+002, 1.027295e+002
6.871258e+002, 1.028908e+002
6.876079e+002, 1.029794e+002
6.880900e+002, 1.029049e+002
6.885721e+002, 1.030113e+002
6.890543e+002, 1.034694e+002
6.895364e+002, 1.041015e+002
6.900185e+002, 1.043570e+002
6.905006e+002, 1.042439e+002
6.909827e+002, 1.040796e+002
6.914648e+002, 1.039877e+002
6.919470e+002, 1.039595e+002
6.924291e+002, 1.040297e+002
6.929112e+002, 1.041711e+002
6.933933e+002, 1.042340e+002
6.938754e+002, 1.039187e+002
6.943575e+002, 1.036704e+002
6.948397e+002, 1.038856e+002
6.953218e+002, 1.046456e+002
6.958039e+002, 1.051300e+002
6.962860e+002, 1.049742e+002
6.967681e+002, 1.047673e+002
6.972502e+002, 1.048426e+002
6.977324e+002, 1.053139e+002
6.982145e+002, 1.054522e+002
6.986966e+002, 1.051474e+002
6.991787e+002, 1.048221e+002
6.996608e+002, 1.049184e+002
7.001429e+002, 1.053655e+002
7.006251e+002, 1.058479e+002
7.011072e+002, 1.063413e+002
7.015893e+002, 1.067653e+002
7.020714e+002, 1.069674e+002
7.025535e+002, 1.070696e+002
7.030356e+002, 1.072474e+002
7.035178e+002, 1.075355e+002
7.039999e+002, 1.079265e+002
7.044820e+002, 1.085766e+002
7.049641e+002, 1.092809e+002
7.054462e+002, 1.097102e+002
7.059283e+002, 1.095322e+002
7.064105e+002, 1.095993e+002
7.068926e+002, 1.100998e+002
7.073747e+002, 1.108600e+002
7.078568e+002, 1.114347e+002
7.083389e+002, 1.118028e+002
7.088210e+002, 1.123244e+002
7.093032e+002, 1.132194e+002
7.097853e+002, 1.142537e+002
7.102674e+002, 1.148294e+002
7.107495e+002, 1.150772e+002
7.112316e+002, 1.155234e+002
7.117137e+002, 1.166995e+002
7.121959e+002, 1.179777e+002
7.126780e+002, 1.187904e+002
7.131601e+002, 1.192209e+002
7.136422e+002, 1.199218e+002
7.141243e+002, 1.213530e+002
7.146064e+002, 1.228370e+002
7.150886e+002, 1.240811e+002
7.155707e+002, 1.250851e+002
7.160528e+002, 1.261437e+002
7.165349e+002, 1.271976e+002
7.170170e+002, 1.284813e+002
7.174991e+002, 1.302486e+002
7.179813e+002, 1.324247e+002
7.184634e+002, 1.345625e+002
7.189455e+002, 1.366447e+002
7.194276e+002, 1.386736e+002
7.199097e+002, 1.405050e+002
7.203918e+002, 1.423521e+002
7.208740e+002, 1.444438e+002
7.213561e+002, 1.468289e+002
7.218382e+002, 1.494858e+002
7.223203e+002, 1.525997e+002
7.228024e+002, 1.558934e+002
7.232845e+002, 1.591607e+002
7.237667e+002, 1.624787e+002
7.242488e+002, 1.656154e+002
7.247309e+002, 1.684139e+002
7.252130e+002, 1.712355e+002
7.256951e+002, 1.745147e+002
7.261772e+002, 1.782514e+002
7.266594e+002, 1.823081e+002
7.271415e+002, 1.867001e+002
7.276236e+002, 1.910954e+002
7.281057e+002, 1.950102e+002
7.285878e+002, 1.985776e+002
7.290699e+002, 2.021690e+002
7.295521e+002, 2.058288e+002
7.300342e+002, 2.096749e+002
7.305163e+002, 2.139036e+002
7.309984e+002, 2.183544e+002
7.314805e+002, 2.227410e+002
7.319626e+002, 2.270004e+002
7.324448e+002, 2.311879e+002
7.329269e+002, 2.354379e+002
7.334090e+002, 2.396143e+002
7.338911e+002, 2.432612e+002
7.343732e+002, 2.463339e+002
7.348553e+002, 2.489583e+002
7.353375e+002, 2.512731e+002
7.358196e+002, 2.530796e+002
7.363017e+002, 2.538242e+002
7.367838e+002, 2.535593e+002
7.372659e+002, 2.526048e+002
7.377480e+002, 2.510524e+002
7.382302e+002, 2.489499e+002
7.387123e+002, 2.464191e+002
7.391944e+002, 2.433953e+002
7.396765e+002, 2.395703e+002
7.401586e+002, 2.340651e+002
7.406407e+002, 2.284363e+002
7.411229e+002, 2.234966e+002
7.416050e+002, 2.191735e+002
7.420871e+002, 2.145307e+002
7.425692e+002, 2.094612e+002
7.430513e+002, 2.042543e+002
7.435334e+002, 1.988076e+002
7.440156e+002, 1.932379e+002
7.444977e+002, 1.888733e+002
7.449798e+002, 1.856927e+002
7.454619e+002, 1.828308e+002
7.459440e+002, 1.796944e+002
7.464261e+002, 1.764923e+002
7.469083e+002, 1.734556e+002
7.473904e+002, 1.706070e+002
7.478725e+002, 1.678272e+002
7.483546e+002, 1.648641e+002
7.488367e+002, 1.621254e+002
7.493188e+002, 1.599255e+002
7.498010e+002, 1.584503e+002
7.502831e+002, 1.570381e+002
7.507652e+002, 1.557368e+002
7.512473e+002, 1.544188e+002
7.517294e+002, 1.529119e+002
7.522115e+002, 1.512328e+002
7.526937e+002, 1.497208e+002
7.531758e+002, 1.483935e+002
7.536579e+002, 1.472228e+002
7.541400e+002, 1.462581e+002
7.546221e+002, 1.454063e+002
7.551042e+002, 1.444782e+002
7.555864e+002, 1.434101e+002
7.560685e+002, 1.424248e+002
7.565506e+002, 1.416174e+002
7.570327e+002, 1.409715e+002
7.575148e+002, 1.404964e+002
7.579969e+002, 1.403473e+002
7.584791e+002, 1.401155e+002
7.589612e+002, 1.397910e+002
7.594433e+002, 1.393941e+002
7.599254e+002, 1.389707e+002
7.604075e+002, 1.385200e+002
7.608896e+002, 1.379176e+002
7.613718e+002, 1.371130e+002
7.618539e+002, 1.362468e+002
7.623360e+002, 1.352863e+002
7.628181e+002, 1.344304e+002
7.633002e+002, 1.341685e+002
7.637823e+002, 1.350505e+002
7.642645e+002, 1.358052e+002
7.647466e+002, 1.355487e+002
7.652287e+002, 1.347799e+002
7.657108e+002, 1.342459e+002
7.661929e+002, 1.342467e+002
7.666750e+002, 1.342437e+002
7.671572e+002, 1.342368e+002
7.676393e+002, 1.341729e+002
7.681214e+002, 1.338902e+002
7.686035e+002, 1.333652e+002
7.690856e+002, 1.329868e+002
7.695677e+002, 1.328766e+002
7.700499e+002, 1.329060e+002
7.705320e+002, 1.329464e+002
7.710141e+002, 1.329653e+002
7.714962e+002, 1.328807e+002
7.719783e+002, 1.325796e+002
7.724604e+002, 1.322452e+002
7.729426e+002, 1.318950e+002
7.734247e+002, 1.315866e+002
7.739068e+002, 1.314706e+002
7.743889e+002, 1.318051e+002
7.748710e+002, 1.319827e+002
7.753531e+002, 1.318776e+002
7.758353e+002, 1.315602e+002
7.763174e+002, 1.311970e+002
7.767995e+002, 1.307873e+002
7.772816e+002, 1.304274e+002
7.777637e+002, 1.301317e+002
7.782458e+002, 1.299322e+002
7.787280e+002, 1.298784e+002
7.792101e+002, 1.299672e+002
7.796922e+002, 1.301851e+002
7.801743e+002, 1.307556e+002
7.806564e+002, 1.312302e+002
7.811385e+002, 1.313008e+002
7.816207e+002, 1.310617e+002
7.821028e+002, 1.309365e+002
7.825849e+002, 1.309578e+002
7.830670e+002, 1.310978e+002
7.835491e+002, 1.314475e+002
7.840313e+002, 1.318848e+002
7.845134e+002, 1.318455e+002
7.849955e+002, 1.313195e+002
7.854776e+002, 1.308723e+002
7.859597e+002, 1.308559e+002
7.864418e+002, 1.310090e+002
7.869240e+002, 1.308459e+002
7.874061e+002, 1.304721e+002
7.878882e+002, 1.302797e+002
7.883703e+002, 1.308260e+002
7.888524e+002, 1.312608e+002
7.893345e+002, 1.310148e+002
7.898167e+002, 1.301919e+002
7.902988e+002, 1.297147e+002
7.907809e+002, 1.296223e+002
7.912630e+002, 1.298549e+002
7.917451e+002, 1.305677e+002
7.922272e+002, 1.315567e+002
7.927094e+002, 1.318612e+002
7.931915e+002, 1.315056e+002
7.936736e+002, 1.311559e+002
7.941557e+002, 1.313796e+002
7.946378e+002, 1.317080e+002
7.951199e+002, 1.313748e+002
7.956021e+002, 1.305544e+002
7.960842e+002, 1.300343e+002
7.965663e+002, 1.305572e+002
7.970484e+002, 1.310743e+002
7.975305e+002, 1.309891e+002
7.980126e+002, 1.303965e+002
7.984948e+002, 1.302160e+002
7.989769e+002, 1.306355e+002
7.994590e+002, 1.310020e+002
7.999411e+002, 1.309729e+002
8.004232e+002, 1.306945e+002
8.009053e+002, 1.308183e+002
8.013875e+002, 1.312964e+002
8.018696e+002, 1.316502e+002
8.023517e+002, 1.313473e+002
8.028338e+002, 1.309601e+002
8.033159e+002, 1.311230e+002
8.037980e+002, 1.317542e+002
8.042802e+002, 1.322988e+002
8.047623e+002, 1.324572e+002
8.052444e+002, 1.326288e+002
8.057265e+002, 1.330551e+002
8.062086e+002, 1.336648e+002
8.066907e+002, 1.337518e+002
8.071729e+002, 1.331743e+002
8.076550e+002, 1.326746e+002
8.081371e+002, 1.326574e+002
8.086192e+002, 1.329462e+002
8.091013e+002, 1.330234e+002
8.095834e+002, 1.329461e+002
8.100656e+002, 1.330383e+002
8.105477e+002, 1.337524e+002
8.110298e+002, 1.344820e+002
8.115119e+002, 1.345782e+002
8.119940e+002, 1.341824e+002
8.124761e+002, 1.344797e+002
8.129583e+002, 1.365016e+002
8.134404e+002, 1.381536e+002
8.139225e+002, 1.387505e+002
8.144046e+002, 1.384421e+002
8.148867e+002, 1.380622e+002
8.153688e+002, 1.376043e+002
8.158510e+002, 1.372684e+002
8.163331e+002, 1.371026e+002
8.168152e+002, 1.371553e+002
8.172973e+002, 1.377593e+002
8.177794e+002, 1.387218e+002
8.182615e+002, 1.392663e+002
8.187437e+002, 1.383498e+002
8.192258e+002, 1.375547e+002
8.197079e+002, 1.377487e+002
8.201900e+002, 1.388135e+002
8.206721e+002, 1.396404e+002
8.211542e+002, 1.402452e+002
8.216364e+002, 1.405558e+002
8.221185e+002, 1.403811e+002
8.226006e+002, 1.399777e+002
8.230827e+002, 1.403469e+002
8.235648e+002, 1.413842e+002
8.240469e+002, 1.422567e+002
8.245291e+002, 1.424248e+002
8.250112e+002, 1.423130e+002
8.254933e+002, 1.422257e+002
8.259754e+002, 1.421907e+002
8.264575e+002, 1.422871e+002
8.269396e+002, 1.426364e+002
8.274218e+002, 1.430181e+002
8.279039e+002, 1.434120e+002
8.283860e+002, 1.437889e+002
8.288681e+002, 1.440090e+002
8.293502e+002, 1.440384e+002
8.298323e+002, 1.441300e+002
8.303145e+002, 1.444175e+002
8.307966e+002, 1.447564e+002
8.312787e+002, 1.447909e+002
8.317608e+002, 1.446308e+002
8.322429e+002, 1.446173e+002
8.327250e+002, 1.449951e+002
8.332072e+002, 1.454737e+002
8.336893e+002, 1.460191e+002
8.341714e+002, 1.465469e+002
8.346535e+002, 1.468100e+002
8.351356e+002, 1.465813e+002
8.356177e+002, 1.465034e+002
8.360999e+002, 1.467432e+002
8.365820e+002, 1.471477e+002
8.370641e+002, 1.473865e+002
8.375462e+002, 1.474680e+002
8.380283e+002, 1.474619e+002
8.385104e+002, 1.473034e+002
8.389926e+002, 1.472259e+002
8.394747e+002, 1.475779e+002
8.399568e+002, 1.481731e+002
8.404389e+002, 1.486929e+002
8.409210e+002, 1.489726e+002
8.414031e+002, 1.492271e+002
8.418853e+002, 1.494950e+002
8.423674e+002, 1.497621e+002
8.428495e+002, 1.500208e+002
8.433316e+002, 1.502877e+002
8.438137e+002, 1.504463e+002
8.442958e+002, 1.504598e+002
8.447780e+002, 1.504036e+002
8.452601e+002, 1.503985e+002
8.457422e+002, 1.504103e+002
8.462243e+002, 1.503217e+002
8.467064e+002, 1.499959e+002
8.471885e+002, 1.498339e+002
8.476707e+002, 1.501626e+002
8.481528e+002, 1.507383e+002
8.486349e+002, 1.512999e+002
8.491170e+002, 1.521118e+002
8.495991e+002, 1.523107e+002
8.500812e+002, 1.516279e+002
8.505634e+002, 1.507395e+002
8.510455e+002, 1.504589e+002
8.515276e+002, 1.507008e+002
8.520097e+002, 1.507745e+002
8.524918e+002, 1.505685e+002
8.529739e+002, 1.503651e+002
8.534561e+002, 1.504488e+002
8.539382e+002, 1.506651e+002
8.544203e+002, 1.508426e+002
8.549024e+002, 1.509345e+002
8.553845e+002, 1.510405e+002
8.558666e+002, 1.513020e+002
8.563488e+002, 1.514692e+002
8.568309e+002, 1.513232e+002
8.573130e+002, 1.507945e+002
8.577951e+002, 1.504540e+002
8.582772e+002, 1.503089e+002
8.587593e+002, 1.503150e+002
8.592415e+002, 1.506478e+002
8.597236e+002, 1.510225e+002
8.602057e+002, 1.508134e+002
8.606878e+002, 1.499764e+002
8.611699e+002, 1.493907e+002
8.616520e+002, 1.498146e+002
8.621342e+002, 1.503440e+002
8.626163e+002, 1.503686e+002
8.630984e+002, 1.498623e+002
8.635805e+002, 1.495397e+002
8.640626e+002, 1.494244e+002
8.645447e+002, 1.494434e+002
8.650269e+002, 1.496502e+002
8.655090e+002, 1.499518e+002
8.659911e+002, 1.499941e+002
8.664732e+002, 1.498036e+002
8.669553e+002, 1.495485e+002
8.674374e+002, 1.492216e+002
8.679196e+002, 1.489629e+002
8.684017e+002, 1.489536e+002
8.688838e+002, 1.491442e+002
8.693659e+002, 1.491396e+002
8.698480e+002, 1.486420e+002
8.703301e+002, 1.483976e+002
8.708123e+002, 1.486975e+002
8.712944e+002, 1.493652e+002
8.717765e+002, 1.498820e+002
8.722586e+002, 1.502322e+002
8.727407e+002, 1.503032e+002
8.732228e+002, 1.498232e+002
8.737050e+002, 1.492873e+002
8.741871e+002, 1.491885e+002
8.746692e+002, 1.494259e+002
8.751513e+002, 1.497811e+002
8.756334e+002, 1.502718e+002
8.761155e+002, 1.507784e+002
8.765977e+002, 1.513363e+002
8.770798e+002, 1.518688e+002
8.775619e+002, 1.521841e+002
8.780440e+002, 1.522581e+002
8.785261e+002, 1.525178e+002
8.790082e+002, 1.531297e+002
8.794904e+002, 1.537423e+002
8.799725e+002, 1.537499e+002
8.804546e+002, 1.534790e+002
8.809367e+002, 1.535282e+002
8.814188e+002, 1.542276e+002
8.819009e+002, 1.548917e+002
8.823831e+002, 1.550842e+002
8.828652e+002, 1.552567e+002
8.833473e+002, 1.559320e+002
8.838294e+002, 1.574104e+002
8.843115e+002, 1.581334e+002
8.847936e+002, 1.578667e+002
8.852758e+002, 1.575308e+002
8.857579e+002, 1.582307e+002
8.862400e+002, 1.595444e+002
8.867221e+002, 1.604624e+002
8.872042e+002, 1.608369e+002
8.876863e+002, 1.612970e+002
8.881685e+002, 1.624876e+002
8.886506e+002, 1.636811e+002
8.891327e+002, 1.642356e+002
8.896148e+002, 1.639901e+002
8.900969e+002, 1.642728e+002
8.905790e+002, 1.652700e+002
8.910612e+002, 1.663149e+002
8.915433e+002, 1.670120e+002
8.920254e+002, 1.674338e+002
8.925075e+002, 1.678789e+002
8.929896e+002, 1.683212e+002
8.934717e+002, 1.685596e+002
8.939539e+002, 1.683558e+002
8.944360e+002, 1.680114e+002
8.949181e+002, 1.676627e+002
8.954002e+002, 1.673351e+002
8.958823e+002, 1.671757e+002
8.963644e+002, 1.674726e+002
8.968466e+002, 1.673674e+002
8.973287e+002, 1.664368e+002
8.978108e+002, 1.651201e+002
8.982929e+002, 1.646738e+002
8.987750e+002, 1.649665e+002
8.992571e+002, 1.651248e+002
8.997393e+002, 1.647491e+002
9.002214e+002, 1.642180e+002
9.007035e+002, 1.638501e+002
9.011856e+002, 1.635440e+002
9.016677e+002, 1.631372e+002
9.021498e+002, 1.622615e+002
9.026320e+002, 1.617695e+002
9.031141e+002, 1.618713e+002
9.035962e+002, 1.621724e+002
9.040783e+002, 1.621044e+002
9.045604e+002, 1.616999e+002
9.050425e+002, 1.614228e+002
9.055247e+002, 1.613498e+002
9.060068e+002, 1.613489e+002
9.064889e+002, 1.612227e+002
9.069710e+002, 1.611397e+002
9.074531e+002, 1.612966e+002
9.079352e+002, 1.617659e+002
9.084174e+002, 1.623500e+002
9.088995e+002, 1.632122e+002
9.093816e+002, 1.639526e+002
9.098637e+002, 1.641800e+002
9.103458e+002, 1.639001e+002
9.108279e+002, 1.643509e+002
9.113101e+002, 1.655447e+002
9.117922e+002, 1.668056e+002
9.122743e+002, 1.675099e+002
9.127564e+002, 1.681088e+002
9.132385e+002, 1.691020e+002
9.137206e+002, 1.704720e+002
9.142028e+002, 1.719340e+002
9.146849e+002, 1.734643e+002
9.151670e+002, 1.749973e+002
9.156491e+002, 1.764211e+002
9.161312e+002, 1.778501e+002
9.166133e+002, 1.797998e+002
9.170955e+002, 1.822884e+002
9.175776e+002, 1.847796e+002
9.180597e+002, 1.870408e+002
9.185418e+002, 1.893024e+002
9.190239e+002, 1.917576e+002
9.195060e+002, 1.944517e+002
9.199882e+002, 1.974289e+002
9.204703e+002, 2.009939e+002
9.209524e+002, 2.045001e+002
9.214345e+002, 2.076185e+002
9.219166e+002, 2.107665e+002
9.223987e+002, 2.143755e+002
9.228809e+002, 2.184506e+002
9.233630e+002, 2.232641e+002
9.238451e+002, 2.289639e+002
9.243272e+002, 2.348499e+002
9.248093e+002, 2.398215e+002
9.252914e+002, 2.446464e+002
9.257736e+002, 2.502304e+002
9.262557e+002, 2.567745e+002
9.267378e+002, 2.638832e+002
9.272199e+002, 2.714156e+002
9.277020e+002, 2.794583e+002
9.281841e+002, 2.880497e+002
9.286663e+002, 2.971608e+002
9.291484e+002, 3.069443e+002
9.296305e+002, 3.174830e+002
9.301126e+002, 3.286152e+002
9.305947e+002, 3.399793e+002
9.310768e+002, 3.522261e+002
9.315590e+002, 3.663226e+002
9.320411e+002, 3.821305e+002
9.325232e+002, 3.981185e+002
9.330053e+002, 4.131611e+002
9.334874e+002, 4.294956e+002
9.339695e+002, 4.478932e+002
9.344517e+002, 4.678346e+002
9.349338e+002, 4.886154e+002
9.354159e+002, 5.100710e+002
9.358980e+002, 5.325185e+002
9.363801e+002, 5.555211e+002
9.368622e+002, 5.797177e+002
9.373444e+002, 6.058027e+002
9.378265e+002, 6.330621e+002
9.383086e+002, 6.607568e+002
9.387907e+002, 6.879424e+002
9.392728e+002, 7.165801e+002
9.397549e+002, 7.476917e+002
9.402371e+002, 7.792623e+002
9.407192e+002, 8.101269e+002
9.412013e+002, 8.400977e+002
9.416834e+002, 8.716359e+002
9.421655e+002, 9.047413e+002
9.426476e+002, 9.384519e+002
9.431298e+002, 9.727542e+002
9.436119e+002, 1.006190e+003
9.440940e+002, 1.038123e+003
9.445761e+002, 1.068628e+003
9.450582e+002, 1.095468e+003
9.455403e+002, 1.118222e+003
9.460225e+002, 1.137124e+003
9.465046e+002, 1.152889e+003
9.469867e+002, 1.164615e+003
9.474688e+002, 1.168959e+003
9.479509e+002, 1.165862e+003
9.484330e+002, 1.155583e+003
9.489152e+002, 1.137633e+003
9.493973e+002, 1.113349e+003
9.498794e+002, 1.083047e+003
9.503615e+002, 1.047552e+003
9.508436e+002, 1.008179e+003
9.513257e+002, 9.637521e+002
9.518079e+002, 9.177836e+002
9.522900e+002, 8.695939e+002
9.527721e+002, 8.211921e+002
9.532542e+002, 7.748048e+002
9.537363e+002, 7.303673e+002
9.542184e+002, 6.870654e+002
9.547006e+002, 6.445367e+002
9.551827e+002, 6.047692e+002
9.556648e+002, 5.692514e+002
9.561469e+002, 5.365820e+002
9.566290e+002, 5.060558e+002
9.571111e+002, 4.775454e+002
9.575933e+002, 4.507502e+002
9.580754e+002, 4.252303e+002
9.585575e+002, 4.021092e+002
9.590396e+002, 3.824475e+002
9.595217e+002, 3.656459e+002
9.600038e+002, 3.494167e+002
9.604860e+002, 3.338432e+002
9.609681e+002, 3.193111e+002
9.614502e+002, 3.063806e+002
9.619323e+002, 2.943487e+002
9.624144e+002, 2.827238e+002
9.628965e+002, 2.718287e+002
9.633787e+002, 2.626688e+002
9.638608e+002, 2.557284e+002
9.643429e+002, 2.490290e+002
9.648250e+002, 2.422800e+002
9.653071e+002, 2.356999e+002
9.657892e+002, 2.294677e+002
9.662714e+002, 2.237392e+002
9.667535e+002, 2.189373e+002
9.672356e+002, 2.152769e+002
9.677177e+002, 2.117903e+002
9.681998e+002, 2.079666e+002
9.686819e+002, 2.041608e+002
9.691641e+002, 2.006873e+002
9.696462e+002, 1.975271e+002
9.701283e+002, 1.943942e+002
9.706104e+002, 1.912339e+002
9.710925e+002, 1.881823e+002
9.715746e+002, 1.851880e+002
9.720568e+002, 1.823849e+002
9.725389e+002, 1.801830e+002
9.730210e+002, 1.783796e+002
9.735031e+002, 1.763729e+002
9.739852e+002, 1.735817e+002
9.744673e+002, 1.709439e+002
9.749495e+002, 1.687750e+002
9.754316e+002, 1.668844e+002
9.759137e+002, 1.650900e+002
9.763958e+002, 1.634259e+002
9.768779e+002, 1.613238e+002
9.773600e+002, 1.585947e+002
9.778422e+002, 1.558567e+002
9.783243e+002, 1.539058e+002
9.788064e+002, 1.522363e+002
9.792885e+002, 1.502253e+002
9.797706e+002, 1.477030e+002
9.802527e+002, 1.451517e+002
9.807349e+002, 1.424630e+002
9.812170e+002, 1.400059e+002
9.816991e+002, 1.381249e+002
9.821812e+002, 1.367095e+002
9.826633e+002, 1.349593e+002
9.831454e+002, 1.328984e+002
9.836276e+002, 1.308130e+002
9.841097e+002, 1.287718e+002
9.845918e+002, 1.268530e+002
9.850739e+002, 1.251679e+002
9.855560e+002, 1.236617e+002
9.860381e+002, 1.222356e+002
9.865203e+002, 1.210387e+002
9.870024e+002, 1.195171e+002
9.874845e+002, 1.174402e+002
9.879666e+002, 1.153313e+002
9.884487e+002, 1.141066e+002
9.889308e+002, 1.134737e+002
9.894130e+002, 1.124833e+002
9.898951e+002, 1.109216e+002
9.903772e+002, 1.094459e+002
9.908593e+002, 1.085653e+002
9.913414e+002, 1.078169e+002
9.918235e+002, 1.068632e+002
9.923057e+002, 1.056821e+002
9.927878e+002, 1.044690e+002
9.932699e+002, 1.031790e+002
9.937520e+002, 1.020616e+002
9.942341e+002, 1.013455e+002
9.947162e+002, 1.008114e+002
9.951984e+002, 1.000566e+002
9.956805e+002, 9.917325e+001
9.961626e+002, 9.843468e+001
9.966447e+002, 9.813610e+001
9.971268e+002, 9.773162e+001
9.976089e+002, 9.700961e+001
9.980911e+002, 9.619566e+001
9.985732e+002, 9.565190e+001
9.990553e+002, 9.537227e+001
9.995374e+002, 9.493765e+001
1.000020e+003, 9.429060e+001
1.000502e+003, 9.361010e+001
1.000984e+003, 9.305637e+001
1.001466e+003, 9.256434e+001
1.001948e+003, 9.205868e+001
1.002430e+003, 9.152837e+001
1.002912e+003, 9.110278e+001
1.003394e+003, 9.085062e+001
1.003876e+003, 9.058587e+001
1.004359e+003, 9.024018e+001
1.004841e+003, 8.982166e+001
1.005323e+003, 8.933236e+001
1.005805e+003, 8.879194e+001
1.006287e+003, 8.829842e+001
1.006769e+003, 8.791946e+001
1.007251e+003, 8.755638e+001
1.007733e+003, 8.707654e+001
1.008216e+003, 8.662845e+001
1.008698e+003, 8.645337e+001
1.009180e+003, 8.668932e+001
1.009662e+003, 8.665043e+001
1.010144e+003, 8.627359e+001
1.010626e+003, 8.576277e+001
1.011108e+003, 8.518040e+001
1.011590e+003, 8.467162e+001
1.012072e+003, 8.459315e+001
1.012555e+003, 8.492735e+001
1.013037e+003, 8.499623e+001
1.013519e+003, 8.424876e+001
1.014001e+003, 8.355811e+001
1.014483e+003, 8.320675e+001
1.014965e+003, 8.311423e+001
1.015447e+003, 8.303976e+001
1.015929e+003, 8.297901e+001
1.016411e+003, 8.290187e+001
1.016894e+003, 8.284368e+001
1.017376e+003, 8.266108e+001
1.017858e+003, 8.213258e+001
1.018340e+003, 8.145041e+001
1.018822e+003, 8.084753e+001
1.019304e+003, 8.030588e+001
1.019786e+003, 7.998723e+001
1.020268e+003, 7.995753e+001
1.020751e+003, 7.997787e+001
1.021233e+003, 7.984917e+001
1.021715e+003, 7.963294e+001
1.022197e+003, 7.949666e+001
1.022679e+003, 7.943182e+001
1.023161e+003, 7.937151e+001
1.023643e+003, 7.941816e+001
1.024125e+003, 7.930681e+001
1.024607e+003, 7.880637e+001
1.025090e+003, 7.812314e+001
1.025572e+003, 7.769088e+001
1.026054e+003, 7.752328e+001
1.026536e+003, 7.737986e+001
1.027018e+003, 7.723045e+001
1.027500e+003, 7.701130e+001
1.027982e+003, 7.656225e+001
1.028464e+003, 7.605560e+001
1.028947e+003, 7.568811e+001
1.029429e+003, 7.550761e+001
1.029911e+003, 7.542240e+001
1.030393e+003, 7.550235e+001
1.030875e+003, 7.551646e+001
1.031357e+003, 7.530984e+001
1.031839e+003, 7.496591e+001
1.032321e+003, 7.479875e+001
1.032803e+003, 7.476439e+001
1.033286e+003, 7.466660e+001
1.033768e+003, 7.424121e+001
1.034250e+003, 7.392555e+001
1.034732e+003, 7.399624e+001
1.035214e+003, 7.425386e+001
1.035696e+003, 7.443730e+001
1.036178e+003, 7.457362e+001
1.036660e+003, 7.443649e+001
1.037143e+003, 7.396850e+001
1.037625e+003, 7.348338e+001
1.038107e+003, 7.327090e+001
1.038589e+003, 7.319831e+001
1.039071e+003, 7.314239e+001
1.039553e+003, 7.308462e+001
1.040035e+003, 7.293783e+001
1.040517e+003, 7.259436e+001
1.041000e+003, 7.229733e+001
1.041482e+003, 7.212341e+001
1.041964e+003, 7.203394e+001
1.042446e+003, 7.199231e+001
1.042928e+003, 7.196761e+001
1.043410e+003, 7.180627e+001
1.043892e+003, 7.139397e+001
1.044374e+003, 7.104831e+001
1.044856e+003, 7.107067e+001
1.045339e+003, 7.117881e+001
1.045821e+003, 7.110022e+001
1.046303e+003, 7.079255e+001
1.046785e+003, 7.062697e+001
1.047267e+003, 7.062613e+001
1.047749e+003, 7.057326e+001
1.048231e+003, 7.006578e+001
1.048713e+003, 6.960774e+001
1.049195e+003, 7.024654e+001
1.049677e+003, 7.149322e+001
1.050160e+003, 7.192606e+001
1.050642e+003, 7.031804e+001
1.051124e+003, 6.898410e+001
1.051606e+003, 6.817245e+001
1.052088e+003, 6.772147e+001
1.052570e+003, 6.755903e+001
1.053052e+003, 6.758492e+001
1.053534e+003, 6.736691e+001
1.054017e+003, 6.684534e+001
1.054499e+003, 6.638931e+001
1.054981e+003, 6.621977e+001
1.055463e+003, 6.620042e+001
1.055945e+003, 6.636305e+001
1.056427e+003, 6.662847e+001
1.056909e+003, 6.650051e+001
1.057391e+003, 6.594830e+001
1.057874e+003, 6.535140e+001
1.058356e+003, 6.479978e+001
1.058838e+003, 6.434603e+001
1.059320e+003, 6.401366e+001
1.059802e+003, 6.383971e+001
1.060284e+003, 6.391054e+001
1.060766e+003, 6.453303e+001
1.061248e+003, 6.466237e+001
1.061730e+003, 6.405886e+001
1.062213e+003, 6.337508e+001
1.062695e+003, 6.311368e+001
1.063177e+003, 6.314445e+001
1.063659e+003, 6.297771e+001
1.064141e+003, 6.265440e+001
1.064623e+003, 6.237834e+001
1.065105e+003, 6.228637e+001
1.065587e+003, 6.222083e+001
1.066070e+003, 6.209700e+001
1.066552e+003, 6.197247e+001
1.067034e+003, 6.196029e+001
1.067516e+003, 6.206617e+001
1.067998e+003, 6.209774e+001
1.068480e+003, 6.203342e+001
1.068962e+003, 6.188527e+001
1.069444e+003, 6.156080e+001
1.069927e+003, 6.123381e+001
1.070409e+003, 6.110290e+001
1.070891e+003, 6.118111e+001
1.071373e+003, 6.111926e+001
1.071855e+003, 6.086705e+001
1.072337e+003, 6.058057e+001
1.072819e+003, 6.026997e+001
1.073301e+003, 6.001159e+001
1.073783e+003, 6.004774e+001
1.074266e+003, 6.021593e+001
1.074748e+003, 6.013723e+001
1.075230e+003, 5.955915e+001
1.075712e+003, 5.916355e+001
1.076194e+003, 5.934375e+001
1.076676e+003, 5.951177e+001
1.077158e+003, 5.927633e+001
1.077640e+003, 5.868688e+001
1.078122e+003, 5.820800e+001
1.078604e+003, 5.784432e+001
1.079087e+003, 5.763621e+001
1.079569e+003, 5.770250e+001
1.080051e+003, 5.782887e+001
1.080533e+003, 5.796265e+001
1.081015e+003, 5.804220e+001
1.081497e+003, 5.793956e+001
1.081979e+003, 5.757415e+001
1.082461e+003, 5.746919e+001
1.082944e+003, 5.771271e+001
1.083426e+003, 5.788357e+001
1.083908e+003, 5.741738e+001
1.084390e+003, 5.675354e+001
1.084872e+003, 5.642103e+001
1.085354e+003, 5.642982e+001
1.085836e+003, 5.646413e+001
1.086318e+003, 5.645258e+001
1.086801e+003, 5.651192e+001
1.087283e+003, 5.671361e+001
1.087765e+003, 5.693152e+001
1.088247e+003, 5.695071e+001
1.088729e+003, 5.679565e+001
1.089211e+003, 5.649543e+001
1.089693e+003, 5.601400e+001
1.090175e+003, 5.560772e+001
1.090657e+003, 5.542595e+001
1.091140e+003, 5.531441e+001
1.091622e+003, 5.519492e+001
1.092104e+003, 5.507033e+001
1.092586e+003, 5.494234e+001
1.093068e+003, 5.481824e+001
1.093550e+003, 5.480137e+001
1.094032e+003, 5.507751e+001
1.094514e+003, 5.526747e+001
1.094997e+003, 5.501373e+001
1.095479e+003, 5.454478e+001
1.095961e+003, 5.416109e+001
1.096443e+003, 5.387698e+001
1.096925e+003, 5.369225e+001
1.097407e+003, 5.362427e+001
1.097889e+003, 5.353576e+001
1.098371e+003, 5.328163e+001
1.098854e+003, 5.297310e+001
1.099336e+003, 5.275145e+001
1.099818e+003, 5.260092e+001
1.100300e+003, 5.245058e+001
1.100782e+003, 5.228371e+001
1.101264e+003, 5.211304e+001
1.101746e+003, 5.193036e+001
1.102228e+003, 5.176753e+001
1.102710e+003, 5.172089e+001
1.103193e+003, 5.171853e+001
1.103675e+003, 5.153580e+001
1.104157e+003, 5.114825e+001
1.104639e+003, 5.084929e+001
1.105121e+003, 5.082687e+001
1.105603e+003, 5.085997e+001
1.106085e+003, 5.091655e+001
1.106567e+003, 5.093661e+001
1.107049e+003, 5.067247e+001
1.107531e+003, 5.016492e+001
1.108014e+003, 4.977126e+001
1.108496e+003, 4.960629e+001
1.108978e+003, 4.948615e+001
1.109460e+003, 4.924482e+001
1.109942e+003, 4.901831e+001
1.110424e+003, 4.898980e+001
1.110906e+003, 4.917827e+001
1.111388e+003, 4.897075e+001
1.111871e+003, 4.833608e+001
1.112353e+003, 4.774867e+001
1.112835e+003, 4.741518e+001
1.113317e+003, 4.728321e+001
1.113799e+003, 4.743066e+001
1.114281e+003, 4.770239e+001
1.114763e+003, 4.784249e+001
1.115245e+003, 4.779418e+001
1.115728e+003, 4.760106e+001
1.116210e+003, 4.719115e+001
1.116692e+003, 4.687987e+001
1.117174e+003, 4.692732e+001
1.117656e+003, 4.725610e+001
1.118138e+003, 4.791253e+001
1.118620e+003, 4.875977e+001
1.119102e+003, 4.926802e+001
1.119584e+003, 4.922232e+001
1.120067e+003, 4.879349e+001
1.120549e+003, 4.784556e+001
1.121031e+003, 4.678737e+001
1.121513e+003, 4.612643e+001
1.121995e+003, 4.581679e+001
1.122477e+003, 4.583788e+001
1.122959e+003, 4.616969e+001
1.123441e+003, 4.627062e+001
1.123924e+003, 4.550241e+001
1.124406e+003, 4.483601e+001
1.124888e+003, 4.470993e+001
1.125370e+003, 4.496427e+001
1.125852e+003, 4.524562e+001
1.126334e+003, 4.553599e+001
1.126816e+003, 4.558443e+001
1.127298e+003, 4.529263e+001
1.127781e+003, 4.496402e+001
1.128263e+003, 4.489439e+001
1.128745e+003, 4.482669e+001
1.129227e+003, 4.447519e+001
1.129709e+003, 4.385967e+001
1.130191e+003, 4.357290e+001
1.130673e+003, 4.363139e+001
1.131155e+003, 4.372948e+001
1.131637e+003, 4.376045e+001
1.132120e+003, 4.374523e+001
1.132602e+003, 4.367414e+001
1.133084e+003, 4.358381e+001
1.133566e+003, 4.354058e+001
1.134048e+003, 4.360342e+001
1.134530e+003, 4.351923e+001
1.135012e+003, 4.326015e+001
1.135494e+003, 4.296120e+001
1.135976e+003, 4.260187e+001
1.136458e+003, 4.232545e+001
1.136941e+003, 4.253514e+001
1.137423e+003, 4.300378e+001
1.137905e+003, 4.317787e+001
1.138387e+003, 4.257930e+001
1.138869e+003, 4.216256e+001
1.139351e+003, 4.199676e+001
1.139833e+003, 4.197469e+001
1.140315e+003, 4.208480e+001
1.140798e+003, 4.223298e+001
1.141280e+003, 4.211743e+001
1.141762e+003, 4.178593e+001
1.142244e+003, 4.160736e+001
1.142726e+003, 4.197623e+001
1.143208e+003, 4.218474e+001
1.143690e+003, 4.204567e+001
1.144172e+003, 4.171878e+001
1.144655e+003, 4.135675e+001
1.145137e+003, 4.101400e+001
1.145619e+003, 4.094420e+001
1.146101e+003, 4.118298e+001
1.146583e+003, 4.137146e+001
1.147065e+003, 4.125438e+001
1.147547e+003, 4.110413e+001
1.148029e+003, 4.105931e+001
1.148511e+003, 4.107240e+001
1.148994e+003, 4.097714e+001
1.149476e+003, 4.079341e+001
1.149958e+003, 4.071011e+001
1.150440e+003, 4.078447e+001
1.150922e+003, 4.088994e+001
1.151404e+003, 4.099157e+001
1.151886e+003, 4.103779e+001
1.152368e+003, 4.095815e+001
1.152851e+003, 4.077460e+001
1.153333e+003, 4.070702e+001
1.153815e+003, 4.075566e+001
1.154297e+003, 4.076281e+001
1.154779e+003, 4.066942e+001
1.155261e+003, 4.051275e+001
1.155743e+003, 4.024872e+001
1.156225e+003, 3.998719e+001
1.156708e+003, 3.988197e+001
1.157190e+003, 3.996286e+001
1.157672e+003, 3.996331e+001
1.158154e+003, 3.987079e+001
1.158636e+003, 3.980977e+001
1.159118e+003, 3.987877e+001
1.159600e+003, 3.998363e+001
1.160082e+003, 4.000701e+001
1.160564e+003, 3.999668e+001
1.161047e+003, 4.004375e+001
1.161529e+003, 4.024632e+001
1.162011e+003, 4.027887e+001
1.162493e+003, 4.009698e+001
1.162975e+003, 3.992800e+001
1.163457e+003, 4.003775e+001
1.163939e+003, 4.020443e+001
1.164421e+003, 4.007513e+001
1.164903e+003, 3.973609e+001
1.165385e+003, 3.945873e+001
1.165868e+003, 3.932907e+001
1.166350e+003, 3.921145e+001
1.166832e+003, 3.908289e+001
1.167314e+003, 3.900279e+001
1.167796e+003, 3.909103e+001
1.168278e+003, 3.924414e+001
1.168760e+003, 3.929413e+001
1.169242e+003, 3.923411e+001
1.169725e+003, 3.909288e+001
1.170207e+003, 3.873206e+001
1.170689e+003, 3.851722e+001
1.171171e+003, 3.853910e+001
1.171653e+003, 3.866119e+001
1.172135e+003, 3.868720e+001
1.172617e+003, 3.866673e+001
1.173099e+003, 3.876228e+001
1.173582e+003, 3.898479e+001
1.174064e+003, 3.904178e+001
1.174546e+003, 3.858236e+001
1.175028e+003, 3.826589e+001
1.175510e+003, 3.830758e+001
1.175992e+003, 3.852762e+001
1.176474e+003, 3.855811e+001
1.176956e+003, 3.846857e+001
1.177438e+003, 3.846803e+001
1.177921e+003, 3.860572e+001
1.178403e+003, 3.873742e+001
1.178885e+003, 3.882126e+001
1.179367e+003, 3.886218e+001
1.179849e+003, 3.883834e+001
1.180331e+003, 3.879012e+001
1.180813e+003, 3.888440e+001
1.181295e+003, 3.906894e+001
1.181778e+003, 3.913555e+001
1.182260e+003, 3.899805e+001
1.182742e+003, 3.884570e+001
1.183224e+003, 3.874056e+001
1.183706e+003, 3.867145e+001
1.184188e+003, 3.865431e+001
1.184670e+003, 3.866512e+001
1.185152e+003, 3.852799e+001
1.185635e+003, 3.828406e+001
1.186117e+003, 3.815218e+001
1.186599e+003, 3.829443e+001
1.187081e+003, 3.839687e+001
1.187563e+003, 3.818412e+001
1.188045e+003, 3.798042e+001
1.188527e+003, 3.805835e+001
1.189009e+003, 3.838868e+001
1.189491e+003, 3.861887e+001
1.189974e+003, 3.874902e+001
1.190456e+003, 3.877740e+001
1.190938e+003, 3.864879e+001
1.191420e+003, 3.849258e+001
1.191902e+003, 3.839193e+001
1.192384e+003, 3.827682e+001
1.192866e+003, 3.802543e+001
1.193348e+003, 3.762920e+001
1.193830e+003, 3.756794e+001
1.194313e+003, 3.781819e+001
1.194795e+003, 3.808886e+001
1.195277e+003, 3.823803e+001
1.195759e+003, 3.832518e+001
1.196241e+003, 3.835512e+001
1.196723e+003, 3.835430e+001
1.197205e+003, 3.835894e+001
1.197687e+003, 3.837030e+001
1.198169e+003, 3.832123e+001
1.198652e+003, 3.821349e+001
1.199134e+003, 3.816340e+001
1.199616e+003, 3.838821e+001
1.200098e+003, 3.854924e+001
1.200580e+003, 3.831753e+001
1.201062e+003, 3.794695e+001
1.201544e+003, 3.787319e+001
1.202026e+003, 3.810521e+001
1.202509e+003, 3.833138e+001
1.202991e+003, 3.852589e+001
1.203473e+003, 3.858286e+001
1.203955e+003, 3.821211e+001
1.204437e+003, 3.789032e+001
1.204919e+003, 3.800806e+001
1.205401e+003, 3.837965e+001
1.205883e+003, 3.863205e+001
1.206365e+003, 3.876783e+001
1.206848e+003, 3.865004e+001
1.207330e+003, 3.824149e+001
1.207812e+003, 3.791286e+001
1.208294e+003, 3.809753e+001
1.208776e+003, 3.832195e+001
1.209258e+003, 3.811566e+001
1.209740e+003, 3.770622e+001
1.210222e+003, 3.784636e+001
1.210705e+003, 3.854650e+001
1.211187e+003, 3.884910e+001
1.211669e+003, 3.854523e+001
1.212151e+003, 3.821215e+001
1.212633e+003, 3.830030e+001
1.213115e+003, 3.854582e+001
1.213597e+003, 3.880382e+001
1.214079e+003, 3.905346e+001
1.214562e+003, 3.924862e+001
1.215044e+003, 3.938929e+001
1.215526e+003, 3.946634e+001
1.216008e+003, 3.947892e+001
1.216490e+003, 3.942377e+001
1.216972e+003, 3.919035e+001
1.217454e+003, 3.898334e+001
1.217936e+003, 3.898442e+001
1.218418e+003, 3.915055e+001
1.218901e+003, 3.929885e+001
1.219383e+003, 3.942792e+001
1.219865e+003, 3.946570e+001
1.220347e+003, 3.934727e+001
1.220829e+003, 3.931282e+001
1.221311e+003, 3.969087e+001
1.221793e+003, 4.009192e+001
1.222275e+003, 4.025036e+001
1.222757e+003, 4.017622e+001
1.223240e+003, 3.985003e+001
1.223722e+003, 3.930584e+001
1.224204e+003, 3.899287e+001
1.224686e+003, 3.910961e+001
1.225168e+003, 3.934927e+001
1.225650e+003, 3.964427e+001
1.226132e+003, 3.985339e+001
1.226614e+003, 3.984523e+001
1.227096e+003, 3.965395e+001
1.227579e+003, 3.959699e+001
1.228061e+003, 3.965746e+001
1.228543e+003, 3.969220e+001
1.229025e+003, 3.966285e+001
1.229507e+003, 3.955641e+001
1.229989e+003, 3.924559e+001
1.230471e+003, 3.896104e+001
1.230953e+003, 3.889589e+001
1.231436e+003, 3.902248e+001
1.231918e+003, 3.910563e+001
1.232400e+003, 3.914596e+001
1.232882e+003, 3.914397e+001
1.233364e+003, 3.906720e+001
1.233846e+003, 3.901095e+001
1.234328e+003, 3.907935e+001
1.234810e+003, 3.912928e+001
1.235292e+003, 3.900756e+001
1.235775e+003, 3.876110e+001
1.236257e+003, 3.882636e+001
1.236739e+003, 3.914156e+001
1.237221e+003, 3.937767e+001
1.237703e+003, 3.937097e+001
1.238185e+003, 3.929491e+001
1.238667e+003, 3.918192e+001
1.239149e+003, 3.905269e+001
1.239632e+003, 3.888129e+001
1.240114e+003, 3.870215e+001
1.240596e+003, 3.876191e+001
1.241078e+003, 3.900280e+001
1.241560e+003, 3.918298e+001
1.242042e+003, 3.914518e+001
1.242524e+003, 3.909792e+001
1.243006e+003, 3.907490e+001
1.243489e+003, 3.908038e+001
1.243971e+003, 3.913850e+001
1.244453e+003, 3.922790e+001
1.244935e+003, 3.925011e+001
1.245417e+003, 3.922035e+001
1.245899e+003, 3.919495e+001
1.246381e+003, 3.923161e+001
1.246863e+003, 3.922429e+001
1.247345e+003, 3.917152e+001
1.247828e+003, 3.905754e+001
1.248310e+003, 3.880145e+001
1.248792e+003, 3.849634e+001
1.249274e+003, 3.841835e+001
1.249756e+003, 3.851589e+001
1.250238e+003, 3.859998e+001
1.250720e+003, 3.863941e+001
1.251202e+003, 3.858214e+001
1.251684e+003, 3.836881e+001
1.252167e+003, 3.819749e+001
1.252649e+003, 3.829799e+001
1.253131e+003, 3.853109e+001
1.253613e+003, 3.867656e+001
1.254095e+003, 3.871731e+001
1.254577e+003, 3.861339e+001
1.255059e+003, 3.822001e+001
1.255541e+003, 3.792495e+001
1.256023e+003, 3.774313e+001
1.256506e+003, 3.768172e+001
1.256988e+003, 3.784430e+001
1.257470e+003, 3.806518e+001
1.257952e+003, 3.809190e+001
1.258434e+003, 3.797854e+001
1.258916e+003, 3.789870e+001
1.259398e+003, 3.788359e+001
1.259880e+003, 3.789302e+001
1.260363e+003, 3.794160e+001
1.260845e+003, 3.791499e+001
1.261327e+003, 3.757234e+001
1.261809e+003, 3.722753e+001
1.262291e+003, 3.727300e+001
1.262773e+003, 3.756747e+001
1.263255e+003, 3.772981e+001
1.263737e+003, 3.775578e+001
1.264219e+003, 3.752332e+001
1.264702e+003, 3.699641e+001
1.265184e+003, 3.662655e+001
1.265666e+003, 3.696751e+001
1.266148e+003, 3.740104e+001
1.266630e+003, 3.741462e+001
1.267112e+003, 3.717986e+001
1.267594e+003, 3.710299e+001
1.268076e+003, 3.720085e+001
1.268559e+003, 3.717847e+001
1.269041e+003, 3.701781e+001
1.269523e+003, 3.683311e+001
1.270005e+003, 3.662933e+001
1.270487e+003, 3.650187e+001
1.270969e+003, 3.662863e+001
1.271451e+003, 3.679441e+001
1.271933e+003, 3.662757e+001
1.272416e+003, 3.617376e+001
1.272898e+003, 3.607562e+001
1.273380e+003, 3.634344e+001
1.273862e+003, 3.659382e+001
1.274344e+003, 3.664885e+001
1.274826e+003, 3.657991e+001
1.275308e+003, 3.634889e+001
1.275790e+003, 3.609113e+001
1.276272e+003, 3.600398e+001
1.276755e+003, 3.603331e+001
1.277237e+003, 3.594605e+001
1.277719e+003, 3.575322e+001
1.278201e+003, 3.562268e+001
1.278683e+003, 3.567138e+001
1.279165e+003, 3.573866e+001
1.279647e+003, 3.580425e+001
1.280129e+003, 3.585845e+001
1.280611e+003, 3.590304e+001
1.281094e+003, 3.592456e+001
1.281576e+003, 3.585937e+001
1.282058e+003, 3.573407e+001
1.282540e+003, 3.569794e+001
1.283022e+003, 3.595965e+001
1.283504e+003, 3.594608e+001
1.283986e+003, 3.552635e+001
1.284468e+003, 3.508181e+001
1.284950e+003, 3.502717e+001
1.285433e+003, 3.515175e+001
1.285915e+003, 3.518646e+001
1.286397e+003, 3.515464e+001
1.286879e+003, 3.521024e+001
1.287361e+003, 3.542347e+001
1.287843e+003, 3.546661e+001
1.288325e+003, 3.529194e+001
1.288807e+003, 3.510484e+001
1.289290e+003, 3.508936e+001
1.289772e+003, 3.513176e+001
1.290254e+003, 3.514708e+001
1.290736e+003, 3.514052e+001
1.291218e+003, 3.515009e+001
1.291700e+003, 3.518450e+001
1.292182e+003, 3.507397e+001
1.292664e+003, 3.480823e+001
1.293146e+003, 3.461497e+001
1.293629e+003, 3.471431e+001
1.294111e+003, 3.486537e+001
1.294593e+003, 3.496925e+001
1.295075e+003, 3.501789e+001
1.295557e+003, 3.495714e+001
1.296039e+003, 3.481300e+001
1.296521e+003, 3.487035e+001
1.297003e+003, 3.510353e+001
1.297486e+003, 3.517082e+001
1.297968e+003, 3.460680e+001
1.298450e+003, 3.426231e+001
1.298932e+003, 3.442516e+001
1.299414e+003, 3.474486e+001
1.299896e+003, 3.486530e+001
1.300378e+003, 3.482868e+001
1.300860e+003, 3.466167e+001
1.301343e+003, 3.443112e+001
1.301825e+003, 3.439066e+001
##END=



