##NAMES=Gillardite
##RRUFFID=R100074
##IDEAL CHEMISTRY=Cu^2+^_3_Ni^2+^Cl_2_(OH)_6_
##LOCALITY=132 North deposit, Widgiemooltha, Western Australia, Australia
##OWNER=RRUFF
##SOURCE=Marcus Origlieri
##DESCRIPTION=Aggregates of dark green flat rhombohedra, associated with colorless gypsum and yellowish-green massive gaspeite
##STATUS=The identification of this mineral has been confirmed by single-crystal X-ray diffraction.
##URL=rruff.info/R100074
9.059570e+001, 6.123899e+002
9.107782e+001, 6.124625e+002
9.155994e+001, 6.125183e+002
9.204205e+001, 6.138342e+002
9.252417e+001, 6.142003e+002
9.300629e+001, 6.121304e+002
9.348840e+001, 6.044317e+002
9.397052e+001, 5.888580e+002
9.445264e+001, 5.668658e+002
9.493475e+001, 5.468582e+002
9.541687e+001, 5.282460e+002
9.589898e+001, 5.116930e+002
9.638110e+001, 4.964301e+002
9.686321e+001, 4.815761e+002
9.734533e+001, 4.663725e+002
9.782745e+001, 4.504632e+002
9.830956e+001, 4.371813e+002
9.879168e+001, 4.271576e+002
9.927380e+001, 4.181219e+002
9.975591e+001, 4.095571e+002
1.002380e+002, 4.013797e+002
1.007201e+002, 3.935929e+002
1.012023e+002, 3.860684e+002
1.016844e+002, 3.789682e+002
1.021665e+002, 3.726346e+002
1.026486e+002, 3.677361e+002
1.031307e+002, 3.630522e+002
1.036128e+002, 3.571235e+002
1.040950e+002, 3.495455e+002
1.045771e+002, 3.425671e+002
1.050592e+002, 3.378416e+002
1.055413e+002, 3.345442e+002
1.060234e+002, 3.317157e+002
1.065055e+002, 3.290864e+002
1.069877e+002, 3.265933e+002
1.074698e+002, 3.240785e+002
1.079519e+002, 3.221210e+002
1.084340e+002, 3.192773e+002
1.089161e+002, 3.148158e+002
1.093982e+002, 3.090251e+002
1.098804e+002, 3.026441e+002
1.103625e+002, 2.959937e+002
1.108446e+002, 2.887390e+002
1.113267e+002, 2.831627e+002
1.118088e+002, 2.797821e+002
1.122909e+002, 2.774425e+002
1.127731e+002, 2.759722e+002
1.132552e+002, 2.751821e+002
1.137373e+002, 2.746574e+002
1.142194e+002, 2.737882e+002
1.147015e+002, 2.720182e+002
1.151836e+002, 2.709435e+002
1.156658e+002, 2.712251e+002
1.161479e+002, 2.718633e+002
1.166300e+002, 2.717373e+002
1.171121e+002, 2.704069e+002
1.175942e+002, 2.685403e+002
1.180763e+002, 2.678043e+002
1.185584e+002, 2.685716e+002
1.190406e+002, 2.693664e+002
1.195227e+002, 2.694304e+002
1.200048e+002, 2.691372e+002
1.204869e+002, 2.694884e+002
1.209690e+002, 2.708376e+002
1.214511e+002, 2.733163e+002
1.219333e+002, 2.766197e+002
1.224154e+002, 2.805913e+002
1.228975e+002, 2.856282e+002
1.233796e+002, 2.922397e+002
1.238617e+002, 3.005574e+002
1.243438e+002, 3.094308e+002
1.248260e+002, 3.194193e+002
1.253081e+002, 3.292509e+002
1.257902e+002, 3.381207e+002
1.262723e+002, 3.463668e+002
1.267544e+002, 3.526049e+002
1.272365e+002, 3.535122e+002
1.277187e+002, 3.477180e+002
1.282008e+002, 3.380669e+002
1.286829e+002, 3.242757e+002
1.291650e+002, 3.081258e+002
1.296471e+002, 2.917826e+002
1.301292e+002, 2.763880e+002
1.306114e+002, 2.619942e+002
1.310935e+002, 2.494507e+002
1.315756e+002, 2.393395e+002
1.320577e+002, 2.305903e+002
1.325398e+002, 2.234268e+002
1.330219e+002, 2.175262e+002
1.335041e+002, 2.123179e+002
1.339862e+002, 2.072652e+002
1.344683e+002, 2.022681e+002
1.349504e+002, 1.981876e+002
1.354325e+002, 1.951975e+002
1.359146e+002, 1.927650e+002
1.363968e+002, 1.906904e+002
1.368789e+002, 1.889165e+002
1.373610e+002, 1.873917e+002
1.378431e+002, 1.861350e+002
1.383252e+002, 1.852169e+002
1.388073e+002, 1.841758e+002
1.392895e+002, 1.829229e+002
1.397716e+002, 1.815555e+002
1.402537e+002, 1.802561e+002
1.407358e+002, 1.791277e+002
1.412179e+002, 1.778382e+002
1.417000e+002, 1.757448e+002
1.421821e+002, 1.729229e+002
1.426643e+002, 1.703393e+002
1.431464e+002, 1.684744e+002
1.436285e+002, 1.671878e+002
1.441106e+002, 1.659331e+002
1.445927e+002, 1.644623e+002
1.450748e+002, 1.631805e+002
1.455570e+002, 1.624344e+002
1.460391e+002, 1.622267e+002
1.465212e+002, 1.622044e+002
1.470033e+002, 1.619916e+002
1.474854e+002, 1.615313e+002
1.479675e+002, 1.614428e+002
1.484497e+002, 1.620388e+002
1.489318e+002, 1.629445e+002
1.494139e+002, 1.641128e+002
1.498960e+002, 1.655007e+002
1.503781e+002, 1.668814e+002
1.508602e+002, 1.679911e+002
1.513424e+002, 1.690807e+002
1.518245e+002, 1.692592e+002
1.523066e+002, 1.686627e+002
1.527887e+002, 1.672373e+002
1.532708e+002, 1.647439e+002
1.537529e+002, 1.611360e+002
1.542351e+002, 1.568003e+002
1.547172e+002, 1.526906e+002
1.551993e+002, 1.486194e+002
1.556814e+002, 1.451037e+002
1.561635e+002, 1.424732e+002
1.566456e+002, 1.403066e+002
1.571278e+002, 1.380696e+002
1.576099e+002, 1.354730e+002
1.580920e+002, 1.327108e+002
1.585741e+002, 1.306553e+002
1.590562e+002, 1.297340e+002
1.595383e+002, 1.289158e+002
1.600205e+002, 1.279757e+002
1.605026e+002, 1.269612e+002
1.609847e+002, 1.259768e+002
1.614668e+002, 1.250639e+002
1.619489e+002, 1.242534e+002
1.624310e+002, 1.236418e+002
1.629131e+002, 1.234291e+002
1.633953e+002, 1.232105e+002
1.638774e+002, 1.227904e+002
1.643595e+002, 1.221729e+002
1.648416e+002, 1.213771e+002
1.653237e+002, 1.202594e+002
1.658058e+002, 1.190065e+002
1.662880e+002, 1.180415e+002
1.667701e+002, 1.175234e+002
1.672522e+002, 1.172159e+002
1.677343e+002, 1.169024e+002
1.682164e+002, 1.166011e+002
1.686985e+002, 1.162100e+002
1.691807e+002, 1.156007e+002
1.696628e+002, 1.148844e+002
1.701449e+002, 1.141676e+002
1.706270e+002, 1.134249e+002
1.711091e+002, 1.127471e+002
1.715912e+002, 1.124234e+002
1.720734e+002, 1.127844e+002
1.725555e+002, 1.128772e+002
1.730376e+002, 1.122340e+002
1.735197e+002, 1.111579e+002
1.740018e+002, 1.100509e+002
1.744839e+002, 1.091193e+002
1.749661e+002, 1.083561e+002
1.754482e+002, 1.077377e+002
1.759303e+002, 1.073661e+002
1.764124e+002, 1.070427e+002
1.768945e+002, 1.067553e+002
1.773766e+002, 1.064751e+002
1.778588e+002, 1.061548e+002
1.783409e+002, 1.057431e+002
1.788230e+002, 1.052375e+002
1.793051e+002, 1.048742e+002
1.797872e+002, 1.048263e+002
1.802693e+002, 1.047486e+002
1.807515e+002, 1.045391e+002
1.812336e+002, 1.042107e+002
1.817157e+002, 1.038363e+002
1.821978e+002, 1.034884e+002
1.826799e+002, 1.031875e+002
1.831620e+002, 1.026752e+002
1.836441e+002, 1.016930e+002
1.841263e+002, 1.007745e+002
1.846084e+002, 1.002405e+002
1.850905e+002, 1.000587e+002
1.855726e+002, 9.994355e+001
1.860547e+002, 9.963065e+001
1.865368e+002, 9.908313e+001
1.870190e+002, 9.862446e+001
1.875011e+002, 9.828513e+001
1.879832e+002, 9.801173e+001
1.884653e+002, 9.781176e+001
1.889474e+002, 9.767905e+001
1.894296e+002, 9.749711e+001
1.899117e+002, 9.712539e+001
1.903938e+002, 9.656898e+001
1.908759e+002, 9.604710e+001
1.913580e+002, 9.557716e+001
1.918401e+002, 9.515794e+001
1.923223e+002, 9.481091e+001
1.928044e+002, 9.455339e+001
1.932865e+002, 9.428633e+001
1.937686e+002, 9.388097e+001
1.942507e+002, 9.337846e+001
1.947328e+002, 9.290047e+001
1.952150e+002, 9.251282e+001
1.956971e+002, 9.216817e+001
1.961792e+002, 9.175330e+001
1.966613e+002, 9.121333e+001
1.971434e+002, 9.070602e+001
1.976255e+002, 9.033009e+001
1.981077e+002, 9.006625e+001
1.985898e+002, 8.989318e+001
1.990719e+002, 8.986646e+001
1.995540e+002, 8.993757e+001
2.000361e+002, 8.989849e+001
2.005182e+002, 8.971793e+001
2.010004e+002, 8.944931e+001
2.014825e+002, 8.910444e+001
2.019646e+002, 8.870571e+001
2.024467e+002, 8.830869e+001
2.029288e+002, 8.794486e+001
2.034109e+002, 8.761366e+001
2.038930e+002, 8.731450e+001
2.043752e+002, 8.703952e+001
2.048573e+002, 8.681480e+001
2.053394e+002, 8.666039e+001
2.058215e+002, 8.656507e+001
2.063036e+002, 8.650597e+001
2.067857e+002, 8.648534e+001
2.072679e+002, 8.651048e+001
2.077500e+002, 8.643337e+001
2.082321e+002, 8.602534e+001
2.087142e+002, 8.572055e+001
2.091963e+002, 8.577884e+001
2.096784e+002, 8.608514e+001
2.101606e+002, 8.631702e+001
2.106427e+002, 8.616408e+001
2.111248e+002, 8.556832e+001
2.116069e+002, 8.511053e+001
2.120890e+002, 8.499958e+001
2.125711e+002, 8.482121e+001
2.130533e+002, 8.430514e+001
2.135354e+002, 8.354137e+001
2.140175e+002, 8.284273e+001
2.144996e+002, 8.251004e+001
2.149817e+002, 8.260877e+001
2.154638e+002, 8.263097e+001
2.159460e+002, 8.256956e+001
2.164281e+002, 8.245853e+001
2.169102e+002, 8.231326e+001
2.173923e+002, 8.213474e+001
2.178744e+002, 8.190069e+001
2.183565e+002, 8.156528e+001
2.188387e+002, 8.110145e+001
2.193208e+002, 8.087370e+001
2.198029e+002, 8.124963e+001
2.202850e+002, 8.153685e+001
2.207671e+002, 8.121037e+001
2.212492e+002, 8.030555e+001
2.217314e+002, 7.932176e+001
2.222135e+002, 7.866053e+001
2.226956e+002, 7.836069e+001
2.231777e+002, 7.817080e+001
2.236598e+002, 7.821286e+001
2.241419e+002, 7.827417e+001
2.246240e+002, 7.818163e+001
2.251062e+002, 7.793079e+001
2.255883e+002, 7.764895e+001
2.260704e+002, 7.741696e+001
2.265525e+002, 7.724377e+001
2.270346e+002, 7.713925e+001
2.275167e+002, 7.716841e+001
2.279989e+002, 7.722742e+001
2.284810e+002, 7.720742e+001
2.289631e+002, 7.710081e+001
2.294452e+002, 7.700977e+001
2.299273e+002, 7.706466e+001
2.304094e+002, 7.719128e+001
2.308916e+002, 7.718197e+001
2.313737e+002, 7.689996e+001
2.318558e+002, 7.652344e+001
2.323379e+002, 7.627638e+001
2.328200e+002, 7.618315e+001
2.333021e+002, 7.604686e+001
2.337843e+002, 7.564128e+001
2.342664e+002, 7.512758e+001
2.347485e+002, 7.476488e+001
2.352306e+002, 7.470882e+001
2.357127e+002, 7.475468e+001
2.361948e+002, 7.458506e+001
2.366770e+002, 7.413110e+001
2.371591e+002, 7.374464e+001
2.376412e+002, 7.371011e+001
2.381233e+002, 7.381217e+001
2.386054e+002, 7.380593e+001
2.390875e+002, 7.357278e+001
2.395697e+002, 7.326265e+001
2.400518e+002, 7.314841e+001
2.405339e+002, 7.331479e+001
2.410160e+002, 7.340217e+001
2.414981e+002, 7.324841e+001
2.419802e+002, 7.296188e+001
2.424624e+002, 7.259957e+001
2.429445e+002, 7.215262e+001
2.434266e+002, 7.172820e+001
2.439087e+002, 7.153125e+001
2.443908e+002, 7.163890e+001
2.448729e+002, 7.176881e+001
2.453550e+002, 7.189333e+001
2.458372e+002, 7.197938e+001
2.463193e+002, 7.200953e+001
2.468014e+002, 7.198035e+001
2.472835e+002, 7.186086e+001
2.477656e+002, 7.156339e+001
2.482477e+002, 7.097677e+001
2.487299e+002, 7.048017e+001
2.492120e+002, 7.020141e+001
2.496941e+002, 6.999143e+001
2.501762e+002, 6.972292e+001
2.506583e+002, 6.935935e+001
2.511404e+002, 6.898649e+001
2.516226e+002, 6.876933e+001
2.521047e+002, 6.883512e+001
2.525868e+002, 6.876702e+001
2.530689e+002, 6.846806e+001
2.535510e+002, 6.808561e+001
2.540331e+002, 6.772529e+001
2.545153e+002, 6.741273e+001
2.549974e+002, 6.709482e+001
2.554795e+002, 6.665695e+001
2.559616e+002, 6.593433e+001
2.564437e+002, 6.546809e+001
2.569258e+002, 6.546691e+001
2.574080e+002, 6.553128e+001
2.578901e+002, 6.535927e+001
2.583722e+002, 6.491804e+001
2.588543e+002, 6.442702e+001
2.593364e+002, 6.419217e+001
2.598185e+002, 6.433791e+001
2.603007e+002, 6.443683e+001
2.607828e+002, 6.456363e+001
2.612649e+002, 6.460062e+001
2.617470e+002, 6.434453e+001
2.622291e+002, 6.384925e+001
2.627112e+002, 6.346702e+001
2.631934e+002, 6.366323e+001
2.636755e+002, 6.475220e+001
2.641576e+002, 6.524790e+001
2.646397e+002, 6.484579e+001
2.651218e+002, 6.423180e+001
2.656039e+002, 6.373788e+001
2.660861e+002, 6.339770e+001
2.665682e+002, 6.308677e+001
2.670503e+002, 6.267299e+001
2.675324e+002, 6.212009e+001
2.680145e+002, 6.171791e+001
2.684966e+002, 6.164398e+001
2.689788e+002, 6.152888e+001
2.694609e+002, 6.108586e+001
2.699430e+002, 6.040400e+001
2.704251e+002, 5.985038e+001
2.709072e+002, 5.976328e+001
2.713893e+002, 6.016994e+001
2.718715e+002, 6.023827e+001
2.723536e+002, 5.971708e+001
2.728357e+002, 5.918212e+001
2.733178e+002, 5.886889e+001
2.737999e+002, 5.874509e+001
2.742820e+002, 5.868680e+001
2.747642e+002, 5.862208e+001
2.752463e+002, 5.854701e+001
2.757284e+002, 5.840987e+001
2.762105e+002, 5.812461e+001
2.766926e+002, 5.788398e+001
2.771747e+002, 5.778529e+001
2.776568e+002, 5.778017e+001
2.781389e+002, 5.777097e+001
2.786211e+002, 5.771415e+001
2.791032e+002, 5.760010e+001
2.795853e+002, 5.737265e+001
2.800674e+002, 5.683615e+001
2.805495e+002, 5.643544e+001
2.810316e+002, 5.636611e+001
2.815138e+002, 5.649738e+001
2.819959e+002, 5.659505e+001
2.824780e+002, 5.655454e+001
2.829601e+002, 5.643858e+001
2.834422e+002, 5.642085e+001
2.839243e+002, 5.661474e+001
2.844065e+002, 5.668375e+001
2.848886e+002, 5.642986e+001
2.853707e+002, 5.604373e+001
2.858528e+002, 5.584940e+001
2.863349e+002, 5.597445e+001
2.868170e+002, 5.618355e+001
2.872992e+002, 5.604222e+001
2.877813e+002, 5.543146e+001
2.882634e+002, 5.491398e+001
2.887455e+002, 5.460069e+001
2.892276e+002, 5.441842e+001
2.897097e+002, 5.430882e+001
2.901919e+002, 5.426195e+001
2.906740e+002, 5.421888e+001
2.911561e+002, 5.409072e+001
2.916382e+002, 5.385926e+001
2.921203e+002, 5.369463e+001
2.926024e+002, 5.370291e+001
2.930846e+002, 5.373487e+001
2.935667e+002, 5.358898e+001
2.940488e+002, 5.324439e+001
2.945309e+002, 5.295721e+001
2.950130e+002, 5.300611e+001
2.954951e+002, 5.339748e+001
2.959773e+002, 5.364393e+001
2.964594e+002, 5.375362e+001
2.969415e+002, 5.369444e+001
2.974236e+002, 5.333120e+001
2.979057e+002, 5.269857e+001
2.983878e+002, 5.214167e+001
2.988700e+002, 5.192406e+001
2.993521e+002, 5.200519e+001
2.998342e+002, 5.201245e+001
3.003163e+002, 5.189122e+001
3.007984e+002, 5.174758e+001
3.012805e+002, 5.160813e+001
3.017627e+002, 5.148680e+001
3.022448e+002, 5.146492e+001
3.027269e+002, 5.164804e+001
3.032090e+002, 5.191023e+001
3.036911e+002, 5.187282e+001
3.041732e+002, 5.133656e+001
3.046554e+002, 5.085567e+001
3.051375e+002, 5.073389e+001
3.056196e+002, 5.085981e+001
3.061017e+002, 5.095390e+001
3.065838e+002, 5.091968e+001
3.070659e+002, 5.079013e+001
3.075481e+002, 5.059432e+001
3.080302e+002, 5.028536e+001
3.085123e+002, 5.008649e+001
3.089944e+002, 5.021079e+001
3.094765e+002, 5.046383e+001
3.099586e+002, 5.048770e+001
3.104408e+002, 5.016884e+001
3.109229e+002, 4.970540e+001
3.114050e+002, 4.930500e+001
3.118871e+002, 4.894972e+001
3.123692e+002, 4.878624e+001
3.128513e+002, 4.896893e+001
3.133335e+002, 4.930119e+001
3.138156e+002, 4.957945e+001
3.142977e+002, 4.977583e+001
3.147798e+002, 4.988453e+001
3.152619e+002, 4.988964e+001
3.157440e+002, 4.978921e+001
3.162262e+002, 4.962905e+001
3.167083e+002, 4.937888e+001
3.171904e+002, 4.909359e+001
3.176725e+002, 4.878875e+001
3.181546e+002, 4.847178e+001
3.186367e+002, 4.821600e+001
3.191188e+002, 4.807814e+001
3.196010e+002, 4.804747e+001
3.200831e+002, 4.802875e+001
3.205652e+002, 4.804642e+001
3.210473e+002, 4.805165e+001
3.215294e+002, 4.801076e+001
3.220115e+002, 4.793354e+001
3.224937e+002, 4.785298e+001
3.229758e+002, 4.778414e+001
3.234579e+002, 4.772231e+001
3.239400e+002, 4.766088e+001
3.244221e+002, 4.761521e+001
3.249042e+002, 4.753973e+001
3.253864e+002, 4.740111e+001
3.258685e+002, 4.722428e+001
3.263506e+002, 4.704387e+001
3.268327e+002, 4.686272e+001
3.273148e+002, 4.670995e+001
3.277969e+002, 4.662937e+001
3.282791e+002, 4.661256e+001
3.287612e+002, 4.667871e+001
3.292433e+002, 4.698961e+001
3.297254e+002, 4.731273e+001
3.302075e+002, 4.729876e+001
3.306896e+002, 4.688734e+001
3.311718e+002, 4.646476e+001
3.316539e+002, 4.646346e+001
3.321360e+002, 4.692448e+001
3.326181e+002, 4.715283e+001
3.331002e+002, 4.699993e+001
3.335823e+002, 4.670337e+001
3.340645e+002, 4.635662e+001
3.345466e+002, 4.599540e+001
3.350287e+002, 4.574652e+001
3.355108e+002, 4.571336e+001
3.359929e+002, 4.587594e+001
3.364750e+002, 4.604084e+001
3.369572e+002, 4.633021e+001
3.374393e+002, 4.649841e+001
3.379214e+002, 4.636432e+001
3.384035e+002, 4.602733e+001
3.388856e+002, 4.572058e+001
3.393677e+002, 4.555029e+001
3.398499e+002, 4.547905e+001
3.403320e+002, 4.541018e+001
3.408141e+002, 4.530574e+001
3.412962e+002, 4.526822e+001
3.417783e+002, 4.537913e+001
3.422604e+002, 4.554549e+001
3.427426e+002, 4.565462e+001
3.432247e+002, 4.567416e+001
3.437068e+002, 4.562306e+001
3.441889e+002, 4.552031e+001
3.446710e+002, 4.534129e+001
3.451531e+002, 4.517771e+001
3.456353e+002, 4.497030e+001
3.461174e+002, 4.482147e+001
3.465995e+002, 4.484324e+001
3.470816e+002, 4.502594e+001
3.475637e+002, 4.524613e+001
3.480458e+002, 4.539619e+001
3.485280e+002, 4.547282e+001
3.490101e+002, 4.553941e+001
3.494922e+002, 4.572086e+001
3.499743e+002, 4.577240e+001
3.504564e+002, 4.544305e+001
3.509385e+002, 4.489702e+001
3.514207e+002, 4.452208e+001
3.519028e+002, 4.456002e+001
3.523849e+002, 4.490955e+001
3.528670e+002, 4.513923e+001
3.533491e+002, 4.515715e+001
3.538312e+002, 4.516992e+001
3.543134e+002, 4.519204e+001
3.547955e+002, 4.522560e+001
3.552776e+002, 4.527911e+001
3.557597e+002, 4.535440e+001
3.562418e+002, 4.543293e+001
3.567239e+002, 4.548765e+001
3.572061e+002, 4.554190e+001
3.576882e+002, 4.551271e+001
3.581703e+002, 4.526775e+001
3.586524e+002, 4.504504e+001
3.591345e+002, 4.498936e+001
3.596166e+002, 4.512111e+001
3.600987e+002, 4.540902e+001
3.605808e+002, 4.585242e+001
3.610630e+002, 4.648613e+001
3.615451e+002, 4.693089e+001
3.620272e+002, 4.703342e+001
3.625093e+002, 4.711879e+001
3.629914e+002, 4.725154e+001
3.634735e+002, 4.745077e+001
3.639557e+002, 4.772379e+001
3.644378e+002, 4.807401e+001
3.649199e+002, 4.850512e+001
3.654020e+002, 4.904546e+001
3.658841e+002, 4.991467e+001
3.663662e+002, 5.058107e+001
3.668484e+002, 5.077077e+001
3.673305e+002, 5.084486e+001
3.678126e+002, 5.122490e+001
3.682947e+002, 5.202322e+001
3.687768e+002, 5.291841e+001
3.692589e+002, 5.337711e+001
3.697411e+002, 5.319115e+001
3.702232e+002, 5.312841e+001
3.707053e+002, 5.332982e+001
3.711874e+002, 5.355578e+001
3.716695e+002, 5.379969e+001
3.721516e+002, 5.398165e+001
3.726338e+002, 5.389809e+001
3.731159e+002, 5.331307e+001
3.735980e+002, 5.224410e+001
3.740801e+002, 5.122222e+001
3.745622e+002, 5.021395e+001
3.750443e+002, 4.930377e+001
3.755265e+002, 4.858027e+001
3.760086e+002, 4.795078e+001
3.764907e+002, 4.727434e+001
3.769728e+002, 4.646603e+001
3.774549e+002, 4.560010e+001
3.779370e+002, 4.483303e+001
3.784192e+002, 4.417347e+001
3.789013e+002, 4.359217e+001
3.793834e+002, 4.307782e+001
3.798655e+002, 4.263844e+001
3.803476e+002, 4.230659e+001
3.808297e+002, 4.208715e+001
3.813119e+002, 4.190163e+001
3.817940e+002, 4.167275e+001
3.822761e+002, 4.140126e+001
3.827582e+002, 4.114241e+001
3.832403e+002, 4.091122e+001
3.837224e+002, 4.068520e+001
3.842046e+002, 4.043340e+001
3.846867e+002, 4.016974e+001
3.851688e+002, 3.993741e+001
3.856509e+002, 3.973167e+001
3.861330e+002, 3.958032e+001
3.866151e+002, 3.957682e+001
3.870973e+002, 3.976580e+001
3.875794e+002, 3.994172e+001
3.880615e+002, 3.999770e+001
3.885436e+002, 3.996248e+001
3.890257e+002, 3.984846e+001
3.895078e+002, 3.959573e+001
3.899900e+002, 3.937769e+001
3.904721e+002, 3.936757e+001
3.909542e+002, 3.954424e+001
3.914363e+002, 3.975051e+001
3.919184e+002, 3.995751e+001
3.924005e+002, 4.014437e+001
3.928827e+002, 4.030483e+001
3.933648e+002, 4.044909e+001
3.938469e+002, 4.049207e+001
3.943290e+002, 4.026929e+001
3.948111e+002, 3.996657e+001
3.952932e+002, 3.990831e+001
3.957754e+002, 4.015552e+001
3.962575e+002, 4.048224e+001
3.967396e+002, 4.069425e+001
3.972217e+002, 4.080335e+001
3.977038e+002, 4.096713e+001
3.981859e+002, 4.119419e+001
3.986681e+002, 4.147822e+001
3.991501e+002, 4.189989e+001
3.996323e+002, 4.239535e+001
4.001144e+002, 4.270126e+001
4.005965e+002, 4.262913e+001
4.010786e+002, 4.237360e+001
4.015607e+002, 4.252909e+001
4.020428e+002, 4.335215e+001
4.025250e+002, 4.406510e+001
4.030071e+002, 4.439173e+001
4.034892e+002, 4.460396e+001
4.039713e+002, 4.507178e+001
4.044534e+002, 4.586016e+001
4.049355e+002, 4.666285e+001
4.054177e+002, 4.710185e+001
4.058998e+002, 4.707203e+001
4.063819e+002, 4.717810e+001
4.068640e+002, 4.761868e+001
4.073461e+002, 4.798906e+001
4.078282e+002, 4.807875e+001
4.083104e+002, 4.793238e+001
4.087925e+002, 4.770350e+001
4.092746e+002, 4.748686e+001
4.097567e+002, 4.725965e+001
4.102388e+002, 4.691111e+001
4.107209e+002, 4.630907e+001
4.112031e+002, 4.575237e+001
4.116852e+002, 4.537910e+001
4.121673e+002, 4.499998e+001
4.126494e+002, 4.436618e+001
4.131315e+002, 4.344245e+001
4.136136e+002, 4.248937e+001
4.140958e+002, 4.190332e+001
4.145779e+002, 4.183250e+001
4.150600e+002, 4.152130e+001
4.155421e+002, 4.063287e+001
4.160242e+002, 3.981474e+001
4.165063e+002, 3.933405e+001
4.169885e+002, 3.912968e+001
4.174706e+002, 3.902724e+001
4.179527e+002, 3.893779e+001
4.184348e+002, 3.884516e+001
4.189169e+002, 3.869474e+001
4.193990e+002, 3.849126e+001
4.198812e+002, 3.821755e+001
4.203633e+002, 3.778196e+001
4.208454e+002, 3.732597e+001
4.213275e+002, 3.697407e+001
4.218096e+002, 3.675569e+001
4.222917e+002, 3.664241e+001
4.227739e+002, 3.668115e+001
4.232560e+002, 3.685698e+001
4.237381e+002, 3.684306e+001
4.242202e+002, 3.646894e+001
4.247023e+002, 3.606062e+001
4.251844e+002, 3.587403e+001
4.256666e+002, 3.586385e+001
4.261487e+002, 3.586781e+001
4.266308e+002, 3.579488e+001
4.271129e+002, 3.570753e+001
4.275950e+002, 3.570658e+001
4.280771e+002, 3.579635e+001
4.285593e+002, 3.590897e+001
4.290414e+002, 3.603833e+001
4.295235e+002, 3.615047e+001
4.300056e+002, 3.619251e+001
4.304877e+002, 3.617892e+001
4.309698e+002, 3.606258e+001
4.314520e+002, 3.572795e+001
4.319341e+002, 3.528880e+001
4.324162e+002, 3.498146e+001
4.328983e+002, 3.487355e+001
4.333804e+002, 3.484871e+001
4.338625e+002, 3.477972e+001
4.343447e+002, 3.465913e+001
4.348268e+002, 3.455144e+001
4.353089e+002, 3.443600e+001
4.357910e+002, 3.435315e+001
4.362731e+002, 3.435657e+001
4.367552e+002, 3.442160e+001
4.372374e+002, 3.446895e+001
4.377195e+002, 3.445381e+001
4.382016e+002, 3.438408e+001
4.386837e+002, 3.428923e+001
4.391658e+002, 3.407152e+001
4.396479e+002, 3.395546e+001
4.401301e+002, 3.405066e+001
4.406122e+002, 3.420088e+001
4.410943e+002, 3.428484e+001
4.415764e+002, 3.426590e+001
4.420585e+002, 3.413353e+001
4.425406e+002, 3.384117e+001
4.430227e+002, 3.333503e+001
4.435049e+002, 3.305954e+001
4.439870e+002, 3.324147e+001
4.444691e+002, 3.342325e+001
4.449512e+002, 3.347206e+001
4.454333e+002, 3.342516e+001
4.459154e+002, 3.335037e+001
4.463976e+002, 3.327702e+001
4.468797e+002, 3.322209e+001
4.473618e+002, 3.323308e+001
4.478439e+002, 3.333872e+001
4.483260e+002, 3.342430e+001
4.488081e+002, 3.351613e+001
4.492903e+002, 3.354569e+001
4.497724e+002, 3.339697e+001
4.502545e+002, 3.309805e+001
4.507366e+002, 3.287742e+001
4.512187e+002, 3.297279e+001
4.517008e+002, 3.330375e+001
4.521830e+002, 3.353036e+001
4.526651e+002, 3.363492e+001
4.531472e+002, 3.366099e+001
4.536293e+002, 3.357564e+001
4.541114e+002, 3.344111e+001
4.545935e+002, 3.334182e+001
4.550757e+002, 3.329234e+001
4.555578e+002, 3.328825e+001
4.560399e+002, 3.335593e+001
4.565220e+002, 3.347437e+001
4.570041e+002, 3.355162e+001
4.574862e+002, 3.355796e+001
4.579684e+002, 3.352194e+001
4.584505e+002, 3.345100e+001
4.589326e+002, 3.334129e+001
4.594147e+002, 3.331703e+001
4.598968e+002, 3.354709e+001
4.603789e+002, 3.376634e+001
4.608611e+002, 3.367307e+001
4.613432e+002, 3.331527e+001
4.618253e+002, 3.302610e+001
4.623074e+002, 3.302061e+001
4.627895e+002, 3.322775e+001
4.632716e+002, 3.335270e+001
4.637538e+002, 3.339442e+001
4.642359e+002, 3.336280e+001
4.647180e+002, 3.315860e+001
4.652001e+002, 3.293520e+001
4.656822e+002, 3.285688e+001
4.661643e+002, 3.295034e+001
4.666465e+002, 3.312794e+001
4.671286e+002, 3.330364e+001
4.676107e+002, 3.348393e+001
4.680928e+002, 3.360965e+001
4.685749e+002, 3.365133e+001
4.690570e+002, 3.366787e+001
4.695392e+002, 3.369038e+001
4.700213e+002, 3.369230e+001
4.705034e+002, 3.360503e+001
4.709855e+002, 3.339252e+001
4.714676e+002, 3.316880e+001
4.719497e+002, 3.316039e+001
4.724319e+002, 3.342624e+001
4.729140e+002, 3.364925e+001
4.733961e+002, 3.380196e+001
4.738782e+002, 3.388005e+001
4.743603e+002, 3.382428e+001
4.748424e+002, 3.367524e+001
4.753246e+002, 3.358540e+001
4.758067e+002, 3.369174e+001
4.762888e+002, 3.390221e+001
4.767709e+002, 3.402930e+001
4.772530e+002, 3.407253e+001
4.777351e+002, 3.402655e+001
4.782173e+002, 3.381394e+001
4.786994e+002, 3.354941e+001
4.791815e+002, 3.342294e+001
4.796636e+002, 3.347713e+001
4.801457e+002, 3.354008e+001
4.806278e+002, 3.348894e+001
4.811100e+002, 3.339781e+001
4.815920e+002, 3.341982e+001
4.820742e+002, 3.358568e+001
4.825563e+002, 3.377884e+001
4.830384e+002, 3.392246e+001
4.835205e+002, 3.400653e+001
4.840026e+002, 3.394457e+001
4.844847e+002, 3.353570e+001
4.849669e+002, 3.320732e+001
4.854490e+002, 3.314453e+001
4.859311e+002, 3.327743e+001
4.864132e+002, 3.351385e+001
4.868953e+002, 3.381759e+001
4.873774e+002, 3.410868e+001
4.878596e+002, 3.424586e+001
4.883417e+002, 3.415670e+001
4.888238e+002, 3.411139e+001
4.893059e+002, 3.411403e+001
4.897880e+002, 3.414861e+001
4.902701e+002, 3.418765e+001
4.907523e+002, 3.425298e+001
4.912344e+002, 3.440900e+001
4.917165e+002, 3.471002e+001
4.921986e+002, 3.508125e+001
4.926807e+002, 3.530022e+001
4.931628e+002, 3.529539e+001
4.936450e+002, 3.533516e+001
4.941271e+002, 3.545597e+001
4.946092e+002, 3.565479e+001
4.950913e+002, 3.594538e+001
4.955734e+002, 3.632244e+001
4.960555e+002, 3.675224e+001
4.965377e+002, 3.725133e+001
4.970198e+002, 3.777955e+001
4.975019e+002, 3.820652e+001
4.979840e+002, 3.850718e+001
4.984661e+002, 3.881388e+001
4.989482e+002, 3.919067e+001
4.994304e+002, 3.962980e+001
4.999125e+002, 4.012286e+001
5.003946e+002, 4.071753e+001
5.008767e+002, 4.125195e+001
5.013588e+002, 4.157042e+001
5.018409e+002, 4.179771e+001
5.023231e+002, 4.219779e+001
5.028052e+002, 4.282587e+001
5.032873e+002, 4.346952e+001
5.037694e+002, 4.395749e+001
5.042515e+002, 4.428670e+001
5.047336e+002, 4.435260e+001
5.052158e+002, 4.401397e+001
5.056979e+002, 4.360316e+001
5.061800e+002, 4.326315e+001
5.066621e+002, 4.291911e+001
5.071442e+002, 4.241942e+001
5.076263e+002, 4.171663e+001
5.081085e+002, 4.095461e+001
5.085906e+002, 4.037178e+001
5.090727e+002, 4.004034e+001
5.095548e+002, 3.962428e+001
5.100369e+002, 3.903082e+001
5.105190e+002, 3.844606e+001
5.110012e+002, 3.796737e+001
5.114833e+002, 3.754369e+001
5.119654e+002, 3.705226e+001
5.124475e+002, 3.640895e+001
5.129296e+002, 3.574259e+001
5.134117e+002, 3.530143e+001
5.138939e+002, 3.511075e+001
5.143760e+002, 3.493977e+001
5.148581e+002, 3.474337e+001
5.153402e+002, 3.454714e+001
5.158223e+002, 3.439807e+001
5.163044e+002, 3.428149e+001
5.167866e+002, 3.410140e+001
5.172687e+002, 3.376506e+001
5.177508e+002, 3.337265e+001
5.182329e+002, 3.300909e+001
5.187150e+002, 3.268467e+001
5.191971e+002, 3.253064e+001
5.196793e+002, 3.268769e+001
5.201614e+002, 3.295884e+001
5.206435e+002, 3.285118e+001
5.211256e+002, 3.222036e+001
5.216077e+002, 3.171733e+001
5.220898e+002, 3.153308e+001
5.225720e+002, 3.146368e+001
5.230541e+002, 3.133635e+001
5.235362e+002, 3.114590e+001
5.240183e+002, 3.097896e+001
5.245004e+002, 3.090267e+001
5.249825e+002, 3.089671e+001
5.254647e+002, 3.085334e+001
5.259468e+002, 3.073758e+001
5.264289e+002, 3.063369e+001
5.269110e+002, 3.055119e+001
5.273931e+002, 3.048089e+001
5.278752e+002, 3.042324e+001
5.283574e+002, 3.037344e+001
5.288395e+002, 3.031281e+001
5.293216e+002, 3.021012e+001
5.298037e+002, 3.008001e+001
5.302858e+002, 3.002149e+001
5.307679e+002, 3.007139e+001
5.312501e+002, 3.010783e+001
5.317322e+002, 2.999970e+001
5.322143e+002, 2.988950e+001
5.326964e+002, 2.996799e+001
5.331785e+002, 3.029649e+001
5.336606e+002, 3.057909e+001
5.341428e+002, 3.062790e+001
5.346249e+002, 3.049274e+001
5.351070e+002, 3.020596e+001
5.355891e+002, 2.975042e+001
5.360712e+002, 2.943778e+001
5.365533e+002, 2.956576e+001
5.370355e+002, 3.004850e+001
5.375176e+002, 3.032116e+001
5.379997e+002, 3.031222e+001
5.384818e+002, 3.020366e+001
5.389639e+002, 2.992032e+001
5.394460e+002, 2.962335e+001
5.399282e+002, 2.956396e+001
5.404103e+002, 2.976868e+001
5.408924e+002, 2.999469e+001
5.413745e+002, 2.997404e+001
5.418566e+002, 2.969675e+001
5.423387e+002, 2.951938e+001
5.428209e+002, 2.950118e+001
5.433029e+002, 2.952069e+001
5.437850e+002, 2.958954e+001
5.442672e+002, 2.966638e+001
5.447493e+002, 2.969995e+001
5.452314e+002, 2.967851e+001
5.457135e+002, 2.964614e+001
5.461956e+002, 2.966533e+001
5.466777e+002, 2.972798e+001
5.471599e+002, 2.972952e+001
5.476420e+002, 2.963959e+001
5.481241e+002, 2.954176e+001
5.486062e+002, 2.948342e+001
5.490883e+002, 2.945271e+001
5.495704e+002, 2.942246e+001
5.500526e+002, 2.934982e+001
5.505347e+002, 2.936001e+001
5.510168e+002, 2.965996e+001
5.514989e+002, 3.007691e+001
5.519810e+002, 3.021068e+001
5.524631e+002, 2.997269e+001
5.529453e+002, 2.964399e+001
5.534274e+002, 2.946948e+001
5.539095e+002, 2.945019e+001
5.543916e+002, 2.951334e+001
5.548737e+002, 2.980911e+001
5.553558e+002, 2.999558e+001
5.558380e+002, 2.991236e+001
5.563201e+002, 2.969892e+001
5.568022e+002, 2.949641e+001
5.572843e+002, 2.935468e+001
5.577664e+002, 2.929999e+001
5.582485e+002, 2.938955e+001
5.587307e+002, 2.963134e+001
5.592128e+002, 2.978638e+001
5.596949e+002, 2.992061e+001
5.601770e+002, 2.985512e+001
5.606591e+002, 2.931017e+001
5.611412e+002, 2.865646e+001
5.616234e+002, 2.837366e+001
5.621055e+002, 2.860470e+001
5.625876e+002, 2.897120e+001
5.630697e+002, 2.923765e+001
5.635518e+002, 2.937969e+001
5.640339e+002, 2.924191e+001
5.645161e+002, 2.873883e+001
5.649982e+002, 2.830408e+001
5.654803e+002, 2.828167e+001
5.659624e+002, 2.859118e+001
5.664445e+002, 2.882093e+001
5.669266e+002, 2.900161e+001
5.674088e+002, 2.906093e+001
5.678909e+002, 2.885395e+001
5.683730e+002, 2.856879e+001
5.688551e+002, 2.846923e+001
5.693372e+002, 2.858500e+001
5.698193e+002, 2.872777e+001
5.703015e+002, 2.872068e+001
5.707836e+002, 2.857186e+001
5.712657e+002, 2.843784e+001
5.717478e+002, 2.827287e+001
5.722299e+002, 2.818917e+001
5.727120e+002, 2.828680e+001
5.731942e+002, 2.841749e+001
5.736763e+002, 2.842683e+001
5.741584e+002, 2.830076e+001
5.746405e+002, 2.816566e+001
5.751226e+002, 2.815477e+001
5.756047e+002, 2.822922e+001
5.760869e+002, 2.821638e+001
5.765690e+002, 2.809510e+001
5.770511e+002, 2.797185e+001
5.775332e+002, 2.786340e+001
5.780153e+002, 2.780578e+001
5.784974e+002, 2.786776e+001
5.789796e+002, 2.808465e+001
5.794617e+002, 2.826581e+001
5.799438e+002, 2.831398e+001
5.804259e+002, 2.830413e+001
5.809080e+002, 2.831933e+001
5.813901e+002, 2.836416e+001
5.818723e+002, 2.841220e+001
5.823544e+002, 2.845148e+001
5.828365e+002, 2.847251e+001
5.833186e+002, 2.844072e+001
5.838007e+002, 2.828082e+001
5.842828e+002, 2.818378e+001
5.847650e+002, 2.824701e+001
5.852471e+002, 2.829114e+001
5.857292e+002, 2.815023e+001
5.862113e+002, 2.787728e+001
5.866934e+002, 2.766320e+001
5.871755e+002, 2.763508e+001
5.876577e+002, 2.772555e+001
5.881398e+002, 2.778806e+001
5.886219e+002, 2.781945e+001
5.891040e+002, 2.784137e+001
5.895861e+002, 2.783315e+001
5.900682e+002, 2.784690e+001
5.905504e+002, 2.798236e+001
5.910325e+002, 2.820676e+001
5.915146e+002, 2.829702e+001
5.919967e+002, 2.804242e+001
5.924788e+002, 2.774737e+001
5.929609e+002, 2.771375e+001
5.934431e+002, 2.785845e+001
5.939252e+002, 2.790203e+001
5.944073e+002, 2.773499e+001
5.948894e+002, 2.752468e+001
5.953715e+002, 2.751461e+001
5.958536e+002, 2.776571e+001
5.963358e+002, 2.794382e+001
5.968179e+002, 2.806540e+001
5.973000e+002, 2.810802e+001
5.977821e+002, 2.802880e+001
5.982642e+002, 2.787844e+001
5.987463e+002, 2.769349e+001
5.992285e+002, 2.749201e+001
5.997106e+002, 2.736379e+001
6.001927e+002, 2.746389e+001
6.006748e+002, 2.778162e+001
6.011569e+002, 2.801746e+001
6.016390e+002, 2.817558e+001
6.021212e+002, 2.821384e+001
6.026033e+002, 2.799286e+001
6.030854e+002, 2.766927e+001
6.035675e+002, 2.748713e+001
6.040496e+002, 2.750019e+001
6.045317e+002, 2.757718e+001
6.050139e+002, 2.772400e+001
6.054960e+002, 2.786232e+001
6.059781e+002, 2.782482e+001
6.064602e+002, 2.761695e+001
6.069423e+002, 2.747255e+001
6.074244e+002, 2.757497e+001
6.079066e+002, 2.785975e+001
6.083887e+002, 2.803671e+001
6.088708e+002, 2.805852e+001
6.093529e+002, 2.803069e+001
6.098350e+002, 2.797794e+001
6.103171e+002, 2.786267e+001
6.107993e+002, 2.756682e+001
6.112814e+002, 2.717100e+001
6.117635e+002, 2.693493e+001
6.122456e+002, 2.706129e+001
6.127277e+002, 2.738314e+001
6.132098e+002, 2.755368e+001
6.136920e+002, 2.756248e+001
6.141741e+002, 2.754613e+001
6.146562e+002, 2.751950e+001
6.151383e+002, 2.750218e+001
6.156204e+002, 2.750262e+001
6.161025e+002, 2.752345e+001
6.165847e+002, 2.759582e+001
6.170668e+002, 2.778950e+001
6.175489e+002, 2.797352e+001
6.180310e+002, 2.807348e+001
6.185131e+002, 2.810103e+001
6.189952e+002, 2.807902e+001
6.194774e+002, 2.801506e+001
6.199595e+002, 2.790834e+001
6.204416e+002, 2.773935e+001
6.209237e+002, 2.749352e+001
6.214058e+002, 2.740207e+001
6.218879e+002, 2.763476e+001
6.223701e+002, 2.781746e+001
6.228522e+002, 2.785996e+001
6.233343e+002, 2.782350e+001
6.238164e+002, 2.774500e+001
6.242985e+002, 2.764173e+001
6.247806e+002, 2.757789e+001
6.252628e+002, 2.764742e+001
6.257448e+002, 2.779058e+001
6.262269e+002, 2.784772e+001
6.267090e+002, 2.781252e+001
6.271912e+002, 2.771759e+001
6.276733e+002, 2.754105e+001
6.281554e+002, 2.734793e+001
6.286375e+002, 2.726798e+001
6.291196e+002, 2.731192e+001
6.296017e+002, 2.738293e+001
6.300839e+002, 2.749577e+001
6.305660e+002, 2.760554e+001
6.310481e+002, 2.770197e+001
6.315302e+002, 2.776842e+001
6.320123e+002, 2.775623e+001
6.324944e+002, 2.764284e+001
6.329766e+002, 2.750602e+001
6.334587e+002, 2.749212e+001
6.339408e+002, 2.763554e+001
6.344229e+002, 2.772266e+001
6.349050e+002, 2.770498e+001
6.353871e+002, 2.768933e+001
6.358693e+002, 2.772698e+001
6.363514e+002, 2.779462e+001
6.368335e+002, 2.786190e+001
6.373156e+002, 2.792609e+001
6.377977e+002, 2.796822e+001
6.382798e+002, 2.796867e+001
6.387620e+002, 2.793947e+001
6.392441e+002, 2.790357e+001
6.397262e+002, 2.786345e+001
6.402083e+002, 2.779929e+001
6.406904e+002, 2.768236e+001
6.411725e+002, 2.754991e+001
6.416547e+002, 2.752907e+001
6.421368e+002, 2.782022e+001
6.426189e+002, 2.792275e+001
6.431010e+002, 2.766563e+001
6.435831e+002, 2.737297e+001
6.440652e+002, 2.722996e+001
6.445474e+002, 2.722651e+001
6.450295e+002, 2.728251e+001
6.455116e+002, 2.735871e+001
6.459937e+002, 2.746152e+001
6.464758e+002, 2.762094e+001
6.469579e+002, 2.783614e+001
6.474401e+002, 2.800635e+001
6.479222e+002, 2.812870e+001
6.484043e+002, 2.817603e+001
6.488864e+002, 2.806930e+001
6.493685e+002, 2.786880e+001
6.498506e+002, 2.776937e+001
6.503328e+002, 2.785300e+001
6.508149e+002, 2.793516e+001
6.512970e+002, 2.790841e+001
6.517791e+002, 2.786077e+001
6.522612e+002, 2.792240e+001
6.527433e+002, 2.808855e+001
6.532255e+002, 2.823298e+001
6.537076e+002, 2.825872e+001
6.541897e+002, 2.819783e+001
6.546718e+002, 2.818166e+001
6.551539e+002, 2.827169e+001
6.556360e+002, 2.825627e+001
6.561182e+002, 2.792971e+001
6.566003e+002, 2.764218e+001
6.570824e+002, 2.757809e+001
6.575645e+002, 2.771512e+001
6.580466e+002, 2.797299e+001
6.585287e+002, 2.842577e+001
6.590109e+002, 2.882152e+001
6.594930e+002, 2.886506e+001
6.599751e+002, 2.866227e+001
6.604572e+002, 2.850085e+001
6.609393e+002, 2.844238e+001
6.614214e+002, 2.843406e+001
6.619036e+002, 2.843482e+001
6.623857e+002, 2.844425e+001
6.628678e+002, 2.845706e+001
6.633499e+002, 2.855275e+001
6.638320e+002, 2.854468e+001
6.643141e+002, 2.830790e+001
6.647963e+002, 2.804506e+001
6.652784e+002, 2.789947e+001
6.657605e+002, 2.788061e+001
6.662426e+002, 2.793842e+001
6.667247e+002, 2.804910e+001
6.672068e+002, 2.820779e+001
6.676890e+002, 2.845798e+001
6.681711e+002, 2.879293e+001
6.686532e+002, 2.895405e+001
6.691353e+002, 2.883744e+001
6.696174e+002, 2.864374e+001
6.700995e+002, 2.855581e+001
6.705817e+002, 2.856292e+001
6.710638e+002, 2.854196e+001
6.715459e+002, 2.842955e+001
6.720280e+002, 2.836429e+001
6.725101e+002, 2.843993e+001
6.729922e+002, 2.855548e+001
6.734744e+002, 2.859122e+001
6.739565e+002, 2.854280e+001
6.744386e+002, 2.850109e+001
6.749207e+002, 2.854685e+001
6.754028e+002, 2.863102e+001
6.758849e+002, 2.857927e+001
6.763671e+002, 2.835752e+001
6.768492e+002, 2.814405e+001
6.773313e+002, 2.791018e+001
6.778134e+002, 2.776850e+001
6.782955e+002, 2.787547e+001
6.787776e+002, 2.815274e+001
6.792598e+002, 2.831127e+001
6.797419e+002, 2.812964e+001
6.802240e+002, 2.801389e+001
6.807061e+002, 2.836026e+001
6.811882e+002, 2.886648e+001
6.816703e+002, 2.901580e+001
6.821525e+002, 2.874648e+001
6.826346e+002, 2.838733e+001
6.831167e+002, 2.819277e+001
6.835988e+002, 2.814925e+001
6.840809e+002, 2.820967e+001
6.845630e+002, 2.848913e+001
6.850452e+002, 2.862028e+001
6.855273e+002, 2.832984e+001
6.860094e+002, 2.807548e+001
6.864915e+002, 2.818675e+001
6.869736e+002, 2.855906e+001
6.874557e+002, 2.885409e+001
6.879379e+002, 2.894193e+001
6.884200e+002, 2.891705e+001
6.889021e+002, 2.880808e+001
6.893842e+002, 2.865863e+001
6.898663e+002, 2.858148e+001
6.903484e+002, 2.859512e+001
6.908306e+002, 2.862116e+001
6.913127e+002, 2.859682e+001
6.917948e+002, 2.853459e+001
6.922769e+002, 2.849739e+001
6.927590e+002, 2.850704e+001
6.932411e+002, 2.850774e+001
6.937233e+002, 2.843100e+001
6.942054e+002, 2.840522e+001
6.946875e+002, 2.856460e+001
6.951696e+002, 2.883705e+001
6.956517e+002, 2.903269e+001
6.961339e+002, 2.905862e+001
6.966160e+002, 2.901157e+001
6.970981e+002, 2.896369e+001
6.975802e+002, 2.893032e+001
6.980623e+002, 2.900025e+001
6.985444e+002, 2.919742e+001
6.990266e+002, 2.932579e+001
6.995087e+002, 2.921775e+001
6.999908e+002, 2.895283e+001
7.004729e+002, 2.883722e+001
7.009550e+002, 2.902182e+001
7.014371e+002, 2.912676e+001
7.019193e+002, 2.910227e+001
7.024014e+002, 2.903849e+001
7.028835e+002, 2.894623e+001
7.033656e+002, 2.886539e+001
7.038477e+002, 2.888191e+001
7.043298e+002, 2.904281e+001
7.048120e+002, 2.921708e+001
7.052941e+002, 2.919921e+001
7.057762e+002, 2.904269e+001
7.062583e+002, 2.903616e+001
7.067404e+002, 2.923032e+001
7.072225e+002, 2.941077e+001
7.077046e+002, 2.946817e+001
7.081867e+002, 2.941714e+001
7.086688e+002, 2.926842e+001
7.091509e+002, 2.890780e+001
7.096331e+002, 2.874486e+001
7.101152e+002, 2.894630e+001
7.105973e+002, 2.921551e+001
7.110794e+002, 2.939089e+001
7.115615e+002, 2.950365e+001
7.120436e+002, 2.964310e+001
7.125258e+002, 2.984110e+001
7.130079e+002, 3.002803e+001
7.134900e+002, 3.010949e+001
7.139721e+002, 3.010569e+001
7.144542e+002, 3.011350e+001
7.149363e+002, 3.012329e+001
7.154185e+002, 3.024118e+001
7.159006e+002, 3.060566e+001
7.163827e+002, 3.101116e+001
7.168648e+002, 3.104161e+001
7.173469e+002, 3.059837e+001
7.178290e+002, 3.041159e+001
7.183112e+002, 3.072748e+001
7.187933e+002, 3.111528e+001
7.192754e+002, 3.140432e+001
7.197575e+002, 3.161146e+001
7.202396e+002, 3.177491e+001
7.207217e+002, 3.190728e+001
7.212039e+002, 3.200982e+001
7.216860e+002, 3.204882e+001
7.221681e+002, 3.206678e+001
7.226502e+002, 3.226815e+001
7.231323e+002, 3.268584e+001
7.236144e+002, 3.301797e+001
7.240966e+002, 3.314144e+001
7.245787e+002, 3.318132e+001
7.250608e+002, 3.326101e+001
7.255429e+002, 3.338170e+001
7.260250e+002, 3.355817e+001
7.265071e+002, 3.382465e+001
7.269893e+002, 3.410856e+001
7.274714e+002, 3.437661e+001
7.279535e+002, 3.465332e+001
7.284356e+002, 3.498603e+001
7.289177e+002, 3.536285e+001
7.293998e+002, 3.568843e+001
7.298820e+002, 3.585682e+001
7.303641e+002, 3.599384e+001
7.308462e+002, 3.646490e+001
7.313283e+002, 3.728707e+001
7.318104e+002, 3.790805e+001
7.322925e+002, 3.818484e+001
7.327747e+002, 3.832357e+001
7.332568e+002, 3.846205e+001
7.337389e+002, 3.859911e+001
7.342210e+002, 3.872796e+001
7.347031e+002, 3.876848e+001
7.351852e+002, 3.892184e+001
7.356674e+002, 3.948130e+001
7.361495e+002, 3.996678e+001
7.366316e+002, 3.989184e+001
7.371137e+002, 3.939186e+001
7.375958e+002, 3.895003e+001
7.380779e+002, 3.881136e+001
7.385601e+002, 3.874203e+001
7.390422e+002, 3.833620e+001
7.395243e+002, 3.764357e+001
7.400064e+002, 3.715891e+001
7.404885e+002, 3.696164e+001
7.409706e+002, 3.679734e+001
7.414528e+002, 3.654264e+001
7.419349e+002, 3.622070e+001
7.424170e+002, 3.586622e+001
7.428991e+002, 3.544469e+001
7.433812e+002, 3.510959e+001
7.438633e+002, 3.494249e+001
7.443455e+002, 3.479299e+001
7.448276e+002, 3.457758e+001
7.453097e+002, 3.432927e+001
7.457918e+002, 3.409981e+001
7.462739e+002, 3.390670e+001
7.467560e+002, 3.374382e+001
7.472382e+002, 3.359118e+001
7.477203e+002, 3.346762e+001
7.482024e+002, 3.347160e+001
7.486845e+002, 3.360823e+001
7.491666e+002, 3.365397e+001
7.496487e+002, 3.352610e+001
7.501309e+002, 3.329840e+001
7.506130e+002, 3.303740e+001
7.510951e+002, 3.274060e+001
7.515772e+002, 3.247898e+001
7.520593e+002, 3.226770e+001
7.525414e+002, 3.206848e+001
7.530236e+002, 3.180476e+001
7.535057e+002, 3.159719e+001
7.539878e+002, 3.160087e+001
7.544699e+002, 3.177691e+001
7.549520e+002, 3.192838e+001
7.554341e+002, 3.193822e+001
7.559163e+002, 3.188360e+001
7.563984e+002, 3.187421e+001
7.568805e+002, 3.189529e+001
7.573626e+002, 3.189025e+001
7.578447e+002, 3.185164e+001
7.583268e+002, 3.174389e+001
7.588090e+002, 3.149887e+001
7.592911e+002, 3.120788e+001
7.597732e+002, 3.118946e+001
7.602553e+002, 3.176467e+001
7.607374e+002, 3.202552e+001
7.612195e+002, 3.177120e+001
7.617017e+002, 3.143857e+001
7.621838e+002, 3.114601e+001
7.626659e+002, 3.094381e+001
7.631480e+002, 3.090876e+001
7.636301e+002, 3.106791e+001
7.641122e+002, 3.126355e+001
7.645944e+002, 3.141547e+001
7.650765e+002, 3.151118e+001
7.655586e+002, 3.146696e+001
7.660407e+002, 3.132573e+001
7.665228e+002, 3.135998e+001
7.670049e+002, 3.168855e+001
7.674871e+002, 3.204320e+001
7.679692e+002, 3.204343e+001
7.684513e+002, 3.166732e+001
7.689334e+002, 3.149823e+001
7.694155e+002, 3.170954e+001
7.698976e+002, 3.184359e+001
7.703798e+002, 3.170671e+001
7.708619e+002, 3.153210e+001
7.713440e+002, 3.151833e+001
7.718261e+002, 3.164245e+001
7.723082e+002, 3.173325e+001
7.727903e+002, 3.171454e+001
7.732725e+002, 3.166766e+001
7.737546e+002, 3.162007e+001
7.742367e+002, 3.159363e+001
7.747188e+002, 3.165197e+001
7.752009e+002, 3.178177e+001
7.756830e+002, 3.187739e+001
7.761652e+002, 3.187185e+001
7.766473e+002, 3.177615e+001
7.771294e+002, 3.158418e+001
7.776115e+002, 3.126132e+001
7.780936e+002, 3.106923e+001
7.785757e+002, 3.102587e+001
7.790579e+002, 3.111608e+001
7.795400e+002, 3.147141e+001
7.800221e+002, 3.189651e+001
7.805042e+002, 3.203120e+001
7.809863e+002, 3.179476e+001
7.814684e+002, 3.162855e+001
7.819506e+002, 3.164057e+001
7.824327e+002, 3.175336e+001
7.829148e+002, 3.206213e+001
7.833969e+002, 3.238534e+001
7.838790e+002, 3.236685e+001
7.843611e+002, 3.195610e+001
7.848433e+002, 3.153184e+001
7.853254e+002, 3.144999e+001
7.858075e+002, 3.161590e+001
7.862896e+002, 3.178541e+001
7.867717e+002, 3.195934e+001
7.872538e+002, 3.201154e+001
7.877360e+002, 3.186477e+001
7.882181e+002, 3.173200e+001
7.887002e+002, 3.184318e+001
7.891823e+002, 3.215559e+001
7.896644e+002, 3.230113e+001
7.901465e+002, 3.204073e+001
7.906286e+002, 3.196613e+001
7.911107e+002, 3.233046e+001
7.915928e+002, 3.269951e+001
7.920750e+002, 3.276013e+001
7.925571e+002, 3.261120e+001
7.930392e+002, 3.250642e+001
7.935213e+002, 3.254020e+001
7.940034e+002, 3.259914e+001
7.944855e+002, 3.258200e+001
7.949677e+002, 3.252308e+001
7.954498e+002, 3.246765e+001
7.959319e+002, 3.242636e+001
7.964140e+002, 3.245498e+001
7.968961e+002, 3.258152e+001
7.973782e+002, 3.273529e+001
7.978604e+002, 3.282190e+001
7.983425e+002, 3.284016e+001
7.988246e+002, 3.281477e+001
7.993067e+002, 3.269215e+001
7.997888e+002, 3.262222e+001
8.002709e+002, 3.271657e+001
8.007531e+002, 3.281800e+001
8.012352e+002, 3.276324e+001
8.017173e+002, 3.259672e+001
8.021994e+002, 3.255519e+001
8.026815e+002, 3.285658e+001
8.031636e+002, 3.306733e+001
8.036458e+002, 3.278477e+001
8.041279e+002, 3.239949e+001
8.046100e+002, 3.244205e+001
8.050921e+002, 3.284866e+001
8.055742e+002, 3.319832e+001
8.060563e+002, 3.326306e+001
8.065385e+002, 3.314916e+001
8.070206e+002, 3.295097e+001
8.075027e+002, 3.268831e+001
8.079848e+002, 3.269116e+001
8.084669e+002, 3.303379e+001
8.089490e+002, 3.332629e+001
8.094312e+002, 3.338211e+001
8.099133e+002, 3.331784e+001
8.103954e+002, 3.330057e+001
8.108775e+002, 3.333908e+001
8.113596e+002, 3.336995e+001
8.118417e+002, 3.346326e+001
8.123239e+002, 3.346066e+001
8.128060e+002, 3.320421e+001
8.132881e+002, 3.291515e+001
8.137702e+002, 3.280753e+001
8.142523e+002, 3.287657e+001
8.147344e+002, 3.298297e+001
8.152166e+002, 3.305036e+001
8.156987e+002, 3.314307e+001
8.161808e+002, 3.339527e+001
8.166629e+002, 3.370514e+001
8.171450e+002, 3.381798e+001
8.176271e+002, 3.372332e+001
8.181093e+002, 3.361223e+001
8.185914e+002, 3.359150e+001
8.190735e+002, 3.362985e+001
8.195556e+002, 3.369240e+001
8.200377e+002, 3.381077e+001
8.205198e+002, 3.372375e+001
8.210020e+002, 3.325507e+001
8.214841e+002, 3.291432e+001
8.219662e+002, 3.301125e+001
8.224483e+002, 3.324690e+001
8.229304e+002, 3.326806e+001
8.234125e+002, 3.308110e+001
8.238947e+002, 3.298745e+001
8.243768e+002, 3.312287e+001
8.248589e+002, 3.327195e+001
8.253410e+002, 3.330608e+001
8.258231e+002, 3.332848e+001
8.263052e+002, 3.352496e+001
8.267874e+002, 3.383724e+001
8.272695e+002, 3.398230e+001
8.277516e+002, 3.377873e+001
8.282337e+002, 3.345246e+001
8.287158e+002, 3.332634e+001
8.291979e+002, 3.335419e+001
8.296801e+002, 3.333788e+001
8.301622e+002, 3.325979e+001
8.306443e+002, 3.319744e+001
8.311264e+002, 3.318563e+001
8.316085e+002, 3.322181e+001
8.320906e+002, 3.330948e+001
8.325728e+002, 3.345928e+001
8.330549e+002, 3.357902e+001
8.335370e+002, 3.367594e+001
8.340191e+002, 3.372870e+001
8.345012e+002, 3.371004e+001
8.349833e+002, 3.366588e+001
8.354655e+002, 3.362729e+001
8.359476e+002, 3.359667e+001
8.364297e+002, 3.357366e+001
8.369118e+002, 3.358385e+001
8.373939e+002, 3.356128e+001
8.378760e+002, 3.339426e+001
8.383582e+002, 3.322560e+001
8.388403e+002, 3.317498e+001
8.393224e+002, 3.328016e+001
8.398045e+002, 3.367086e+001
8.402866e+002, 3.441127e+001
8.407687e+002, 3.510529e+001
8.412509e+002, 3.511108e+001
8.417330e+002, 3.456028e+001
8.422151e+002, 3.423180e+001
8.426972e+002, 3.415577e+001
8.431793e+002, 3.400410e+001
8.436614e+002, 3.361264e+001
8.441436e+002, 3.324309e+001
8.446257e+002, 3.322789e+001
8.451078e+002, 3.355617e+001
8.455899e+002, 3.376453e+001
8.460720e+002, 3.372658e+001
8.465541e+002, 3.375116e+001
8.470363e+002, 3.397466e+001
8.475184e+002, 3.416304e+001
8.480005e+002, 3.414532e+001
8.484826e+002, 3.398367e+001
8.489647e+002, 3.381930e+001
8.494468e+002, 3.367232e+001
8.499290e+002, 3.359517e+001
8.504111e+002, 3.366221e+001
8.508932e+002, 3.377593e+001
8.513753e+002, 3.386286e+001
8.518574e+002, 3.390975e+001
8.523395e+002, 3.388682e+001
8.528217e+002, 3.379377e+001
8.533038e+002, 3.370334e+001
8.537859e+002, 3.369777e+001
8.542680e+002, 3.374125e+001
8.547501e+002, 3.370443e+001
8.552322e+002, 3.358746e+001
8.557144e+002, 3.353169e+001
8.561965e+002, 3.357411e+001
8.566786e+002, 3.364674e+001
8.571607e+002, 3.371301e+001
8.576428e+002, 3.376038e+001
8.581249e+002, 3.374363e+001
8.586071e+002, 3.360534e+001
8.590892e+002, 3.352751e+001
8.595713e+002, 3.363633e+001
8.600534e+002, 3.365639e+001
8.605355e+002, 3.337456e+001
8.610176e+002, 3.301645e+001
8.614998e+002, 3.288340e+001
8.619819e+002, 3.299677e+001
8.624640e+002, 3.307294e+001
8.629461e+002, 3.292397e+001
8.634282e+002, 3.278007e+001
8.639103e+002, 3.286099e+001
8.643925e+002, 3.301189e+001
8.648746e+002, 3.300602e+001
8.653567e+002, 3.283681e+001
8.658388e+002, 3.263011e+001
8.663209e+002, 3.245531e+001
8.668030e+002, 3.230947e+001
8.672852e+002, 3.215084e+001
8.677673e+002, 3.201010e+001
8.682494e+002, 3.212153e+001
8.687315e+002, 3.250977e+001
8.692136e+002, 3.273175e+001
8.696957e+002, 3.257163e+001
8.701779e+002, 3.228160e+001
8.706600e+002, 3.220493e+001
8.711421e+002, 3.234391e+001
8.716242e+002, 3.239731e+001
8.721063e+002, 3.235856e+001
8.725884e+002, 3.224547e+001
8.730705e+002, 3.190746e+001
8.735526e+002, 3.163959e+001
8.740347e+002, 3.170053e+001
8.745168e+002, 3.195886e+001
8.749990e+002, 3.208279e+001
8.754811e+002, 3.198138e+001
8.759632e+002, 3.185960e+001
8.764453e+002, 3.177925e+001
8.769274e+002, 3.171330e+001
8.774095e+002, 3.169975e+001
8.778917e+002, 3.166413e+001
8.783738e+002, 3.142258e+001
8.788559e+002, 3.097475e+001
8.793380e+002, 3.062543e+001
8.798201e+002, 3.067937e+001
8.803022e+002, 3.088868e+001
8.807844e+002, 3.078929e+001
8.812665e+002, 3.048920e+001
8.817486e+002, 3.042373e+001
8.822307e+002, 3.064875e+001
8.827128e+002, 3.086722e+001
8.831949e+002, 3.089361e+001
8.836771e+002, 3.078817e+001
8.841592e+002, 3.066218e+001
8.846413e+002, 3.050631e+001
8.851234e+002, 3.039373e+001
8.856055e+002, 3.031532e+001
8.860876e+002, 3.030825e+001
8.865698e+002, 3.044060e+001
8.870519e+002, 3.059270e+001
8.875340e+002, 3.063891e+001
8.880161e+002, 3.058151e+001
8.884982e+002, 3.046645e+001
8.889803e+002, 3.018361e+001
8.894625e+002, 3.000045e+001
8.899446e+002, 3.006786e+001
8.904267e+002, 3.014968e+001
8.909088e+002, 3.002228e+001
8.913909e+002, 2.980324e+001
8.918730e+002, 2.977026e+001
8.923552e+002, 3.000781e+001
8.928373e+002, 3.022088e+001
8.933194e+002, 3.024451e+001
8.938015e+002, 3.013082e+001
8.942836e+002, 2.984079e+001
8.947657e+002, 2.948281e+001
8.952479e+002, 2.928757e+001
8.957300e+002, 2.929157e+001
8.962121e+002, 2.937313e+001
8.966942e+002, 2.946109e+001
8.971763e+002, 2.950511e+001
8.976584e+002, 2.935743e+001
8.981406e+002, 2.904532e+001
8.986227e+002, 2.887394e+001
8.991048e+002, 2.888876e+001
8.995869e+002, 2.879693e+001
9.000690e+002, 2.841943e+001
9.005511e+002, 2.797775e+001
9.010333e+002, 2.780283e+001
9.015154e+002, 2.790526e+001
9.019975e+002, 2.804741e+001
9.024796e+002, 2.831751e+001
9.029617e+002, 2.846431e+001
9.034438e+002, 2.840558e+001
9.039260e+002, 2.824212e+001
9.044081e+002, 2.796132e+001
9.048902e+002, 2.763919e+001
9.053723e+002, 2.748315e+001
9.058544e+002, 2.756987e+001
9.063365e+002, 2.766734e+001
9.068187e+002, 2.780126e+001
9.073008e+002, 2.784363e+001
9.077829e+002, 2.764908e+001
9.082650e+002, 2.735023e+001
9.087471e+002, 2.710841e+001
9.092292e+002, 2.695979e+001
9.097114e+002, 2.688086e+001
9.101935e+002, 2.687360e+001
9.106756e+002, 2.690634e+001
9.111577e+002, 2.697574e+001
9.116398e+002, 2.705013e+001
9.121219e+002, 2.705539e+001
9.126041e+002, 2.700109e+001
9.130862e+002, 2.696768e+001
9.135683e+002, 2.699333e+001
9.140504e+002, 2.704076e+001
9.145325e+002, 2.707495e+001
9.150146e+002, 2.708785e+001
9.154968e+002, 2.699976e+001
9.159789e+002, 2.680399e+001
9.164610e+002, 2.673898e+001
9.169431e+002, 2.690085e+001
9.174252e+002, 2.702744e+001
9.179073e+002, 2.687266e+001
9.183895e+002, 2.653689e+001
9.188716e+002, 2.639784e+001
9.193537e+002, 2.657060e+001
9.198358e+002, 2.663804e+001
9.203179e+002, 2.648088e+001
9.208000e+002, 2.638780e+001
9.212822e+002, 2.654655e+001
9.217643e+002, 2.677796e+001
9.222464e+002, 2.688333e+001
9.227285e+002, 2.686439e+001
9.232106e+002, 2.685462e+001
9.236927e+002, 2.688914e+001
9.241749e+002, 2.691186e+001
9.246570e+002, 2.683222e+001
9.251391e+002, 2.680191e+001
9.256212e+002, 2.700197e+001
9.261033e+002, 2.732937e+001
9.265854e+002, 2.755987e+001
9.270676e+002, 2.762682e+001
9.275497e+002, 2.764480e+001
9.280318e+002, 2.768733e+001
9.285139e+002, 2.771881e+001
9.289960e+002, 2.764411e+001
9.294781e+002, 2.755247e+001
9.299603e+002, 2.764997e+001
9.304424e+002, 2.793633e+001
9.309245e+002, 2.819342e+001
9.314066e+002, 2.827098e+001
9.318887e+002, 2.831437e+001
9.323708e+002, 2.857845e+001
9.328530e+002, 2.900665e+001
9.333351e+002, 2.936358e+001
9.338172e+002, 2.963925e+001
9.342993e+002, 2.989480e+001
9.347814e+002, 3.014438e+001
9.352635e+002, 3.044855e+001
9.357457e+002, 3.088478e+001
9.362278e+002, 3.142560e+001
9.367099e+002, 3.190760e+001
9.371920e+002, 3.231761e+001
9.376741e+002, 3.271807e+001
9.381563e+002, 3.308074e+001
9.386384e+002, 3.351569e+001
9.391205e+002, 3.409533e+001
9.396026e+002, 3.478288e+001
9.400847e+002, 3.554845e+001
9.405668e+002, 3.643520e+001
9.410490e+002, 3.713668e+001
9.415311e+002, 3.748390e+001
9.420132e+002, 3.788735e+001
9.424953e+002, 3.843798e+001
9.429774e+002, 3.905833e+001
9.434595e+002, 3.970552e+001
9.439417e+002, 4.037484e+001
9.444238e+002, 4.107708e+001
9.449059e+002, 4.185548e+001
9.453880e+002, 4.251243e+001
9.458701e+002, 4.303341e+001
9.463522e+002, 4.335713e+001
9.468344e+002, 4.339083e+001
9.473165e+002, 4.322677e+001
9.477986e+002, 4.297091e+001
9.482807e+002, 4.264704e+001
9.487628e+002, 4.224865e+001
9.492449e+002, 4.178630e+001
9.497271e+002, 4.121040e+001
9.502092e+002, 4.044505e+001
9.506913e+002, 3.954903e+001
9.511734e+002, 3.854355e+001
9.516555e+002, 3.748790e+001
9.521376e+002, 3.653408e+001
9.526198e+002, 3.573138e+001
9.531019e+002, 3.500956e+001
9.535840e+002, 3.431115e+001
9.540661e+002, 3.362619e+001
9.545482e+002, 3.292260e+001
9.550303e+002, 3.220533e+001
9.555124e+002, 3.148220e+001
9.559945e+002, 3.075141e+001
9.564766e+002, 3.014067e+001
9.569587e+002, 2.971794e+001
9.574409e+002, 2.943843e+001
9.579230e+002, 2.925603e+001
9.584051e+002, 2.916624e+001
9.588872e+002, 2.899014e+001
9.593693e+002, 2.872320e+001
9.598514e+002, 2.837229e+001
9.603336e+002, 2.789649e+001
9.608157e+002, 2.743285e+001
9.612978e+002, 2.707555e+001
9.617799e+002, 2.681700e+001
9.622620e+002, 2.664850e+001
9.627441e+002, 2.663100e+001
9.632263e+002, 2.651370e+001
9.637084e+002, 2.615158e+001
9.641905e+002, 2.588806e+001
9.646726e+002, 2.586130e+001
9.651547e+002, 2.592880e+001
9.656368e+002, 2.602359e+001
9.661190e+002, 2.611434e+001
9.666011e+002, 2.607509e+001
9.670832e+002, 2.581393e+001
9.675653e+002, 2.557852e+001
9.680474e+002, 2.537211e+001
9.685295e+002, 2.525832e+001
9.690117e+002, 2.536299e+001
9.694938e+002, 2.553233e+001
9.699759e+002, 2.557035e+001
9.704580e+002, 2.545695e+001
9.709401e+002, 2.528233e+001
9.714222e+002, 2.500570e+001
9.719044e+002, 2.480897e+001
9.723865e+002, 2.490121e+001
9.728686e+002, 2.505744e+001
9.733507e+002, 2.504416e+001
9.738328e+002, 2.488976e+001
9.743149e+002, 2.467824e+001
9.747971e+002, 2.444894e+001
9.752792e+002, 2.428878e+001
9.757613e+002, 2.430883e+001
9.762434e+002, 2.439019e+001
9.767255e+002, 2.436389e+001
9.772076e+002, 2.428055e+001
9.776898e+002, 2.425290e+001
9.781719e+002, 2.428463e+001
9.786540e+002, 2.430535e+001
9.791361e+002, 2.428182e+001
9.796182e+002, 2.427922e+001
9.801003e+002, 2.447363e+001
9.805825e+002, 2.472113e+001
9.810646e+002, 2.439634e+001
9.815467e+002, 2.359750e+001
9.820288e+002, 2.315049e+001
9.825109e+002, 2.321934e+001
9.829930e+002, 2.341324e+001
9.834752e+002, 2.348532e+001
9.839573e+002, 2.350171e+001
9.844394e+002, 2.361539e+001
9.849215e+002, 2.382827e+001
9.854036e+002, 2.380330e+001
9.858857e+002, 2.347050e+001
9.863679e+002, 2.334412e+001
9.868500e+002, 2.362027e+001
9.873321e+002, 2.392933e+001
9.878142e+002, 2.394699e+001
9.882963e+002, 2.379126e+001
9.887784e+002, 2.386359e+001
9.892606e+002, 2.431431e+001
9.897427e+002, 2.444252e+001
9.902248e+002, 2.407683e+001
9.907069e+002, 2.371396e+001
9.911890e+002, 2.347067e+001
9.916711e+002, 2.333149e+001
9.921533e+002, 2.330684e+001
9.926354e+002, 2.337907e+001
9.931175e+002, 2.344472e+001
9.935996e+002, 2.350697e+001
9.940817e+002, 2.355678e+001
9.945638e+002, 2.361534e+001
9.950460e+002, 2.363632e+001
9.955281e+002, 2.355822e+001
9.960102e+002, 2.346393e+001
9.964923e+002, 2.346512e+001
9.969744e+002, 2.354623e+001
9.974565e+002, 2.356134e+001
9.979387e+002, 2.345348e+001
9.984208e+002, 2.332739e+001
9.989029e+002, 2.313242e+001
9.993850e+002, 2.300784e+001
9.998671e+002, 2.314622e+001
1.000349e+003, 2.335634e+001
1.000831e+003, 2.331280e+001
1.001313e+003, 2.301029e+001
1.001796e+003, 2.282594e+001
1.002278e+003, 2.299163e+001
1.002760e+003, 2.319473e+001
1.003242e+003, 2.330304e+001
1.003724e+003, 2.333844e+001
1.004206e+003, 2.328810e+001
1.004688e+003, 2.319267e+001
1.005170e+003, 2.312404e+001
1.005653e+003, 2.309774e+001
1.006135e+003, 2.306732e+001
1.006617e+003, 2.295531e+001
1.007099e+003, 2.289161e+001
1.007581e+003, 2.311512e+001
1.008063e+003, 2.339032e+001
1.008545e+003, 2.331802e+001
1.009027e+003, 2.299093e+001
1.009509e+003, 2.277147e+001
1.009992e+003, 2.278421e+001
1.010474e+003, 2.286768e+001
1.010956e+003, 2.289140e+001
1.011438e+003, 2.289182e+001
1.011920e+003, 2.290649e+001
1.012402e+003, 2.294602e+001
1.012884e+003, 2.305887e+001
1.013366e+003, 2.322831e+001
1.013849e+003, 2.337871e+001
1.014331e+003, 2.347494e+001
1.014813e+003, 2.346351e+001
1.015295e+003, 2.323802e+001
1.015777e+003, 2.289752e+001
1.016259e+003, 2.265951e+001
1.016741e+003, 2.252781e+001
1.017223e+003, 2.256513e+001
1.017705e+003, 2.276278e+001
1.018188e+003, 2.294189e+001
1.018670e+003, 2.301114e+001
1.019152e+003, 2.300727e+001
1.019634e+003, 2.296606e+001
1.020116e+003, 2.289977e+001
1.020598e+003, 2.287720e+001
1.021080e+003, 2.289581e+001
1.021562e+003, 2.286662e+001
1.022044e+003, 2.276902e+001
1.022527e+003, 2.274088e+001
1.023009e+003, 2.287739e+001
1.023491e+003, 2.304724e+001
1.023973e+003, 2.301942e+001
1.024455e+003, 2.281186e+001
1.024937e+003, 2.274370e+001
1.025419e+003, 2.283798e+001
1.025901e+003, 2.286247e+001
1.026384e+003, 2.274800e+001
1.026866e+003, 2.269018e+001
1.027348e+003, 2.283511e+001
1.027830e+003, 2.305807e+001
1.028312e+003, 2.312332e+001
1.028794e+003, 2.302431e+001
1.029276e+003, 2.293517e+001
1.029758e+003, 2.284411e+001
1.030240e+003, 2.281615e+001
1.030723e+003, 2.290990e+001
1.031205e+003, 2.295137e+001
1.031687e+003, 2.278532e+001
1.032169e+003, 2.253888e+001
1.032651e+003, 2.248100e+001
1.033133e+003, 2.264130e+001
1.033615e+003, 2.273054e+001
1.034097e+003, 2.266174e+001
1.034579e+003, 2.272342e+001
1.035062e+003, 2.308442e+001
1.035544e+003, 2.341395e+001
1.036026e+003, 2.348731e+001
1.036508e+003, 2.338171e+001
1.036990e+003, 2.323375e+001
1.037472e+003, 2.301186e+001
1.037954e+003, 2.292861e+001
1.038436e+003, 2.312165e+001
1.038919e+003, 2.323240e+001
1.039401e+003, 2.315431e+001
1.039883e+003, 2.302620e+001
1.040365e+003, 2.289878e+001
1.040847e+003, 2.279548e+001
1.041329e+003, 2.278177e+001
1.041811e+003, 2.288663e+001
1.042293e+003, 2.292761e+001
1.042776e+003, 2.288500e+001
1.043258e+003, 2.280188e+001
1.043740e+003, 2.257987e+001
1.044222e+003, 2.242577e+001
1.044704e+003, 2.255169e+001
1.045186e+003, 2.281415e+001
1.045668e+003, 2.292793e+001
1.046150e+003, 2.285571e+001
1.046632e+003, 2.277237e+001
1.047115e+003, 2.268487e+001
1.047597e+003, 2.260419e+001
1.048079e+003, 2.249908e+001
1.048561e+003, 2.243515e+001
1.049043e+003, 2.247178e+001
1.049525e+003, 2.257580e+001
1.050007e+003, 2.271522e+001
1.050489e+003, 2.290015e+001
1.050971e+003, 2.294086e+001
1.051454e+003, 2.263605e+001
1.051936e+003, 2.240674e+001
1.052418e+003, 2.248683e+001
1.052900e+003, 2.257979e+001
1.053382e+003, 2.240615e+001
1.053864e+003, 2.211420e+001
1.054346e+003, 2.198763e+001
1.054828e+003, 2.206807e+001
1.055311e+003, 2.222331e+001
1.055793e+003, 2.257763e+001
1.056275e+003, 2.278576e+001
1.056757e+003, 2.259742e+001
1.057239e+003, 2.234855e+001
1.057721e+003, 2.234386e+001
1.058203e+003, 2.243657e+001
1.058685e+003, 2.230101e+001
1.059167e+003, 2.189548e+001
1.059650e+003, 2.161622e+001
1.060132e+003, 2.166229e+001
1.060614e+003, 2.176190e+001
1.061096e+003, 2.181942e+001
1.061578e+003, 2.188428e+001
1.062060e+003, 2.207308e+001
1.062542e+003, 2.226065e+001
1.063024e+003, 2.219929e+001
1.063506e+003, 2.187245e+001
1.063989e+003, 2.159983e+001
1.064471e+003, 2.149792e+001
1.064953e+003, 2.146859e+001
1.065435e+003, 2.147785e+001
1.065917e+003, 2.153782e+001
1.066399e+003, 2.169928e+001
1.066881e+003, 2.189680e+001
1.067363e+003, 2.205724e+001
1.067846e+003, 2.215694e+001
1.068328e+003, 2.214005e+001
1.068810e+003, 2.190570e+001
1.069292e+003, 2.169168e+001
1.069774e+003, 2.160099e+001
1.070256e+003, 2.157403e+001
1.070738e+003, 2.160348e+001
1.071220e+003, 2.164600e+001
1.071703e+003, 2.164892e+001
1.072185e+003, 2.160711e+001
1.072667e+003, 2.154571e+001
1.073149e+003, 2.147055e+001
1.073631e+003, 2.138517e+001
1.074113e+003, 2.124292e+001
1.074595e+003, 2.114153e+001
1.075077e+003, 2.118744e+001
1.075559e+003, 2.129492e+001
1.076042e+003, 2.136628e+001
1.076524e+003, 2.138367e+001
1.077006e+003, 2.134918e+001
1.077488e+003, 2.125136e+001
1.077970e+003, 2.114168e+001
1.078452e+003, 2.100594e+001
1.078934e+003, 2.090781e+001
1.079416e+003, 2.091952e+001
1.079898e+003, 2.097235e+001
1.080380e+003, 2.098083e+001
1.080863e+003, 2.095044e+001
1.081345e+003, 2.094105e+001
1.081827e+003, 2.097850e+001
1.082309e+003, 2.099964e+001
1.082791e+003, 2.094543e+001
1.083273e+003, 2.090179e+001
1.083755e+003, 2.098033e+001
1.084237e+003, 2.105088e+001
1.084720e+003, 2.091298e+001
1.085202e+003, 2.065317e+001
1.085684e+003, 2.053808e+001
1.086166e+003, 2.064957e+001
1.086648e+003, 2.078156e+001
1.087130e+003, 2.092030e+001
1.087612e+003, 2.096647e+001
1.088094e+003, 2.073813e+001
1.088577e+003, 2.050698e+001
1.089059e+003, 2.062738e+001
1.089541e+003, 2.091582e+001
1.090023e+003, 2.090728e+001
1.090505e+003, 2.050512e+001
1.090987e+003, 2.021678e+001
1.091469e+003, 2.035661e+001
1.091951e+003, 2.048180e+001
1.092433e+003, 2.033161e+001
1.092916e+003, 2.016293e+001
1.093398e+003, 2.018681e+001
1.093880e+003, 2.033383e+001
1.094362e+003, 2.049951e+001
1.094844e+003, 2.065643e+001
1.095326e+003, 2.071398e+001
1.095808e+003, 2.062608e+001
1.096290e+003, 2.045986e+001
1.096772e+003, 2.007088e+001
1.097255e+003, 1.978929e+001
1.097737e+003, 1.993623e+001
1.098219e+003, 2.024830e+001
1.098701e+003, 2.034981e+001
1.099183e+003, 2.024066e+001
1.099665e+003, 2.020941e+001
1.100147e+003, 2.041596e+001
1.100629e+003, 2.050666e+001
1.101112e+003, 2.023803e+001
1.101594e+003, 2.001365e+001
1.102076e+003, 2.005188e+001
1.102558e+003, 2.021887e+001
1.103040e+003, 2.044280e+001
1.103522e+003, 2.066336e+001
1.104004e+003, 2.069657e+001
1.104486e+003, 2.044291e+001
1.104969e+003, 2.023667e+001
1.105451e+003, 2.012759e+001
1.105933e+003, 2.008716e+001
1.106415e+003, 2.020542e+001
1.106897e+003, 2.029670e+001
1.107379e+003, 2.013422e+001
1.107861e+003, 1.984629e+001
1.108343e+003, 1.977007e+001
1.108825e+003, 1.997470e+001
1.109307e+003, 2.012966e+001
1.109790e+003, 2.023320e+001
1.110272e+003, 2.024631e+001
1.110754e+003, 2.002901e+001
1.111236e+003, 1.985827e+001
1.111718e+003, 1.998026e+001
1.112200e+003, 2.021747e+001
1.112682e+003, 2.026049e+001
1.113164e+003, 2.009423e+001
1.113647e+003, 1.998859e+001
1.114129e+003, 1.998289e+001
1.114611e+003, 1.997259e+001
1.115093e+003, 1.991709e+001
1.115575e+003, 1.990634e+001
1.116057e+003, 2.006965e+001
1.116539e+003, 2.021062e+001
1.117021e+003, 2.005466e+001
1.117504e+003, 1.965594e+001
1.117986e+003, 1.941756e+001
1.118468e+003, 1.939151e+001
1.118950e+003, 1.940395e+001
1.119432e+003, 1.944664e+001
1.119914e+003, 1.955005e+001
1.120396e+003, 1.977696e+001
1.120878e+003, 1.998129e+001
1.121360e+003, 2.003480e+001
1.121843e+003, 1.997231e+001
1.122325e+003, 1.988559e+001
1.122807e+003, 1.975829e+001
1.123289e+003, 1.971883e+001
1.123771e+003, 1.980960e+001
1.124253e+003, 1.983387e+001
1.124735e+003, 1.972185e+001
1.125217e+003, 1.962704e+001
1.125699e+003, 1.966126e+001
1.126182e+003, 1.973777e+001
1.126664e+003, 1.969755e+001
1.127146e+003, 1.955059e+001
1.127628e+003, 1.948488e+001
1.128110e+003, 1.950884e+001
1.128592e+003, 1.955515e+001
1.129074e+003, 1.962730e+001
1.129556e+003, 1.959597e+001
1.130039e+003, 1.937243e+001
1.130521e+003, 1.921263e+001
1.131003e+003, 1.944929e+001
1.131485e+003, 1.992322e+001
1.131967e+003, 2.004687e+001
1.132449e+003, 1.984153e+001
1.132931e+003, 1.966920e+001
1.133413e+003, 1.955188e+001
1.133896e+003, 1.952443e+001
1.134378e+003, 1.959699e+001
1.134860e+003, 1.962030e+001
1.135342e+003, 1.946426e+001
1.135824e+003, 1.926536e+001
1.136306e+003, 1.931519e+001
1.136788e+003, 1.952912e+001
1.137270e+003, 1.954691e+001
1.137752e+003, 1.941580e+001
1.138234e+003, 1.941369e+001
1.138717e+003, 1.956823e+001
1.139199e+003, 1.967295e+001
1.139681e+003, 1.962232e+001
1.140163e+003, 1.949405e+001
1.140645e+003, 1.931357e+001
1.141127e+003, 1.917079e+001
1.141609e+003, 1.931034e+001
1.142091e+003, 1.958237e+001
1.142574e+003, 1.964075e+001
1.143056e+003, 1.950783e+001
1.143538e+003, 1.938178e+001
1.144020e+003, 1.932995e+001
1.144502e+003, 1.931724e+001
1.144984e+003, 1.930691e+001
1.145466e+003, 1.935410e+001
1.145948e+003, 1.961341e+001
1.146431e+003, 1.988527e+001
1.146913e+003, 1.988453e+001
1.147395e+003, 1.971797e+001
1.147877e+003, 1.955893e+001
1.148359e+003, 1.946594e+001
1.148841e+003, 1.949694e+001
1.149323e+003, 1.968711e+001
1.149805e+003, 1.993377e+001
1.150287e+003, 2.036144e+001
1.150770e+003, 2.060713e+001
1.151252e+003, 2.022235e+001
1.151734e+003, 1.966890e+001
1.152216e+003, 1.943692e+001
1.152698e+003, 1.946286e+001
1.153180e+003, 1.949438e+001
1.153662e+003, 1.947792e+001
1.154144e+003, 1.945135e+001
1.154626e+003, 1.936549e+001
1.155109e+003, 1.935968e+001
1.155591e+003, 1.961745e+001
1.156073e+003, 1.981803e+001
1.156555e+003, 1.967000e+001
1.157037e+003, 1.940747e+001
1.157519e+003, 1.934031e+001
1.158001e+003, 1.946345e+001
1.158483e+003, 1.959696e+001
1.158966e+003, 1.977114e+001
1.159448e+003, 1.985538e+001
1.159930e+003, 1.977856e+001
1.160412e+003, 1.969637e+001
1.160894e+003, 1.960812e+001
1.161376e+003, 1.957708e+001
1.161858e+003, 1.969829e+001
1.162340e+003, 1.988269e+001
1.162822e+003, 1.993121e+001
1.163305e+003, 1.983114e+001
1.163787e+003, 1.972091e+001
1.164269e+003, 1.954984e+001
1.164751e+003, 1.954496e+001
1.165233e+003, 1.982754e+001
1.165715e+003, 1.999539e+001
1.166197e+003, 1.981773e+001
1.166679e+003, 1.955063e+001
1.167161e+003, 1.950270e+001
1.167644e+003, 1.961240e+001
1.168126e+003, 1.962868e+001
1.168608e+003, 1.954935e+001
1.169090e+003, 1.941677e+001
1.169572e+003, 1.922904e+001
1.170054e+003, 1.914807e+001
1.170536e+003, 1.921924e+001
1.171018e+003, 1.936639e+001
1.171500e+003, 1.954647e+001
1.171983e+003, 1.970784e+001
1.172465e+003, 1.975511e+001
1.172947e+003, 1.972123e+001
1.173429e+003, 1.972024e+001
1.173911e+003, 1.973658e+001
1.174393e+003, 1.968226e+001
1.174875e+003, 1.957497e+001
1.175357e+003, 1.957826e+001
1.175840e+003, 1.974255e+001
1.176322e+003, 1.987777e+001
1.176804e+003, 1.979769e+001
1.177286e+003, 1.967949e+001
1.177768e+003, 1.979949e+001
1.178250e+003, 1.998053e+001
1.178732e+003, 1.992829e+001
1.179214e+003, 1.974768e+001
1.179697e+003, 1.968803e+001
1.180179e+003, 1.975764e+001
1.180661e+003, 1.977629e+001
1.181143e+003, 1.965773e+001
1.181625e+003, 1.957876e+001
1.182107e+003, 1.968500e+001
1.182589e+003, 1.982027e+001
1.183071e+003, 1.995288e+001
1.183553e+003, 2.000261e+001
1.184036e+003, 1.976481e+001
1.184518e+003, 1.944515e+001
1.185000e+003, 1.947770e+001
1.185482e+003, 1.989930e+001
1.185964e+003, 2.019183e+001
1.186446e+003, 2.019368e+001
1.186928e+003, 2.013249e+001
1.187410e+003, 2.004767e+001
1.187892e+003, 1.990503e+001
1.188375e+003, 1.951871e+001
1.188857e+003, 1.922332e+001
1.189339e+003, 1.944980e+001
1.189821e+003, 1.997346e+001
1.190303e+003, 2.012331e+001
1.190785e+003, 1.981926e+001
1.191267e+003, 1.960701e+001
1.191749e+003, 1.947437e+001
1.192232e+003, 1.949288e+001
1.192714e+003, 1.974947e+001
1.193196e+003, 1.992575e+001
1.193678e+003, 1.983741e+001
1.194160e+003, 1.966800e+001
1.194642e+003, 1.964592e+001
1.195124e+003, 1.972469e+001
1.195606e+003, 1.970997e+001
1.196089e+003, 1.960706e+001
1.196571e+003, 1.956695e+001
1.197053e+003, 1.959379e+001
1.197535e+003, 1.963085e+001
1.198017e+003, 1.966146e+001
1.198499e+003, 1.963976e+001
1.198981e+003, 1.953002e+001
1.199463e+003, 1.946140e+001
1.199945e+003, 1.967919e+001
1.200427e+003, 2.000135e+001
1.200910e+003, 2.002144e+001
1.201392e+003, 1.987858e+001
1.201874e+003, 1.987594e+001
1.202356e+003, 2.000532e+001
1.202838e+003, 2.016563e+001
1.203320e+003, 2.030717e+001
1.203802e+003, 2.031538e+001
1.204284e+003, 2.005586e+001
1.204767e+003, 1.985151e+001
1.205249e+003, 2.002846e+001
1.205731e+003, 2.027454e+001
1.206213e+003, 2.033414e+001
1.206695e+003, 2.030787e+001
1.207177e+003, 2.037704e+001
1.207659e+003, 2.047079e+001
1.208141e+003, 2.031320e+001
1.208624e+003, 1.982543e+001
1.209106e+003, 1.954879e+001
1.209588e+003, 1.980822e+001
1.210070e+003, 1.999867e+001
1.210552e+003, 1.988742e+001
1.211034e+003, 1.980673e+001
1.211516e+003, 2.003701e+001
1.211998e+003, 2.027648e+001
1.212480e+003, 2.018018e+001
1.212963e+003, 1.984781e+001
1.213445e+003, 1.965998e+001
1.213927e+003, 1.964048e+001
1.214409e+003, 1.964567e+001
1.214891e+003, 1.967258e+001
1.215373e+003, 1.974284e+001
1.215855e+003, 1.987235e+001
1.216337e+003, 1.999771e+001
1.216819e+003, 2.009500e+001
1.217302e+003, 2.011618e+001
1.217784e+003, 1.998578e+001
1.218266e+003, 1.976001e+001
1.218748e+003, 1.960296e+001
1.219230e+003, 1.950916e+001
1.219712e+003, 1.944870e+001
1.220194e+003, 1.942235e+001
1.220676e+003, 1.946162e+001
1.221159e+003, 1.955984e+001
1.221641e+003, 1.963389e+001
1.222123e+003, 1.963916e+001
1.222605e+003, 1.960763e+001
1.223087e+003, 1.949344e+001
1.223569e+003, 1.943803e+001
1.224051e+003, 1.972920e+001
1.224533e+003, 2.008122e+001
1.225016e+003, 2.006963e+001
1.225498e+003, 1.983592e+001
1.225980e+003, 1.970529e+001
1.226462e+003, 1.972694e+001
1.226944e+003, 1.976258e+001
1.227426e+003, 1.975322e+001
1.227908e+003, 1.978843e+001
1.228390e+003, 1.995102e+001
1.228872e+003, 2.009507e+001
1.229354e+003, 2.015726e+001
1.229837e+003, 2.017920e+001
1.230319e+003, 2.020339e+001
1.230801e+003, 2.020504e+001
1.231283e+003, 2.011803e+001
1.231765e+003, 1.994749e+001
1.232247e+003, 1.988119e+001
1.232729e+003, 1.996591e+001
1.233211e+003, 2.001445e+001
1.233694e+003, 2.001956e+001
1.234176e+003, 1.997474e+001
1.234658e+003, 1.985826e+001
1.235140e+003, 1.979108e+001
1.235622e+003, 1.987536e+001
1.236104e+003, 1.999642e+001
1.236586e+003, 1.992982e+001
1.237068e+003, 1.974591e+001
1.237551e+003, 1.976187e+001
1.238033e+003, 1.993024e+001
1.238515e+003, 2.006495e+001
1.238997e+003, 2.013809e+001
1.239479e+003, 2.012547e+001
1.239961e+003, 2.002969e+001
1.240443e+003, 1.989923e+001
1.240925e+003, 1.974403e+001
1.241407e+003, 1.967499e+001
1.241890e+003, 1.986066e+001
1.242372e+003, 2.011867e+001
1.242854e+003, 2.033978e+001
1.243336e+003, 2.047349e+001
1.243818e+003, 2.043303e+001
1.244300e+003, 2.027485e+001
1.244782e+003, 2.007241e+001
1.245264e+003, 1.985744e+001
1.245746e+003, 1.982826e+001
1.246229e+003, 2.021929e+001
1.246711e+003, 2.046030e+001
1.247193e+003, 2.037431e+001
1.247675e+003, 2.023064e+001
1.248157e+003, 1.999113e+001
1.248639e+003, 1.988778e+001
1.249121e+003, 2.017418e+001
1.249603e+003, 2.061329e+001
1.250085e+003, 2.076925e+001
1.250568e+003, 2.065918e+001
1.251050e+003, 2.059892e+001
1.251532e+003, 2.060021e+001
1.252014e+003, 2.049369e+001
1.252496e+003, 2.025924e+001
1.252978e+003, 2.013068e+001
1.253460e+003, 2.017770e+001
1.253942e+003, 2.026475e+001
1.254425e+003, 2.029664e+001
1.254907e+003, 2.033955e+001
1.255389e+003, 2.055091e+001
1.255871e+003, 2.078580e+001
1.256353e+003, 2.069833e+001
1.256835e+003, 2.047097e+001
1.257317e+003, 2.051242e+001
1.257799e+003, 2.069847e+001
1.258281e+003, 2.056992e+001
1.258764e+003, 2.011460e+001
1.259246e+003, 1.986743e+001
1.259728e+003, 2.010857e+001
1.260210e+003, 2.037828e+001
1.260692e+003, 2.046627e+001
1.261174e+003, 2.052810e+001
1.261656e+003, 2.070358e+001
1.262138e+003, 2.081456e+001
1.262620e+003, 2.063761e+001
1.263103e+003, 2.035528e+001
1.263585e+003, 2.029284e+001
1.264067e+003, 2.041377e+001
1.264549e+003, 2.038681e+001
1.265031e+003, 2.011401e+001
1.265513e+003, 2.005013e+001
1.265995e+003, 2.026545e+001
1.266477e+003, 2.036621e+001
1.266960e+003, 2.024374e+001
1.267442e+003, 2.015310e+001
1.267924e+003, 2.024198e+001
1.268406e+003, 2.037284e+001
1.268888e+003, 2.036964e+001
1.269370e+003, 2.031485e+001
1.269852e+003, 2.043527e+001
1.270334e+003, 2.064157e+001
1.270817e+003, 2.069964e+001
1.271299e+003, 2.064602e+001
1.271781e+003, 2.060771e+001
1.272263e+003, 2.060355e+001
1.272745e+003, 2.058668e+001
1.273227e+003, 2.053928e+001
1.273709e+003, 2.053222e+001
1.274191e+003, 2.066499e+001
1.274673e+003, 2.076913e+001
1.275156e+003, 2.068374e+001
1.275638e+003, 2.062909e+001
1.276120e+003, 2.080459e+001
1.276602e+003, 2.104925e+001
1.277084e+003, 2.118839e+001
1.277566e+003, 2.123407e+001
1.278048e+003, 2.125974e+001
1.278530e+003, 2.127185e+001
1.279012e+003, 2.119067e+001
1.279495e+003, 2.095033e+001
1.279977e+003, 2.087993e+001
1.280459e+003, 2.106363e+001
1.280941e+003, 2.113390e+001
1.281423e+003, 2.093926e+001
1.281905e+003, 2.077203e+001
1.282387e+003, 2.086983e+001
1.282869e+003, 2.109327e+001
1.283352e+003, 2.120343e+001
1.283834e+003, 2.125919e+001
1.284316e+003, 2.138451e+001
1.284798e+003, 2.158057e+001
##END=



