##NAMES=Glaucophane
##RRUFFID=R120002
##IDEAL CHEMISTRY=[box]Na_2_(Mg_3_Al_2_)Si_8_O_22_(OH)_2_
##LOCALITY=Cape Marmari, Grammata Bay, Syros Island, Aegean Sea, Greece
##OWNER=RRUFF
##SOURCE=Gunnar Farber
##DESCRIPTION=Dark green bladed, associated with colorless quartz
##STATUS=The identification of this mineral has been confirmed only by single crystal X-ray diffraction.
##URL=rruff.info/R120002
9.112140e+001, 0.000000e+000
9.160352e+001, 4.825997e+003
9.208563e+001, 4.681850e+003
9.256775e+001, 4.663903e+003
9.304987e+001, 4.838046e+003
9.353198e+001, 5.053103e+003
9.401410e+001, 5.208738e+003
9.449622e+001, 5.302714e+003
9.497833e+001, 5.357237e+003
9.546045e+001, 5.391585e+003
9.594257e+001, 5.406059e+003
9.642468e+001, 5.408890e+003
9.690680e+001, 5.402503e+003
9.738892e+001, 5.392324e+003
9.787103e+001, 5.379721e+003
9.835315e+001, 5.359063e+003
9.883527e+001, 5.328401e+003
9.931738e+001, 5.300899e+003
9.979950e+001, 5.279351e+003
1.002816e+002, 5.258077e+003
1.007637e+002, 5.231627e+003
1.012458e+002, 5.206093e+003
1.017280e+002, 5.187005e+003
1.022101e+002, 5.175331e+003
1.026922e+002, 5.169169e+003
1.031743e+002, 5.167112e+003
1.036564e+002, 5.168862e+003
1.041385e+002, 5.169585e+003
1.046207e+002, 5.166233e+003
1.051028e+002, 5.159890e+003
1.055849e+002, 5.154298e+003
1.060670e+002, 5.148727e+003
1.065491e+002, 5.144309e+003
1.070313e+002, 5.141990e+003
1.075134e+002, 5.141651e+003
1.079955e+002, 5.143136e+003
1.084776e+002, 5.146140e+003
1.089597e+002, 5.150356e+003
1.094418e+002, 5.156715e+003
1.099240e+002, 5.166599e+003
1.104061e+002, 5.177781e+003
1.108882e+002, 5.189022e+003
1.113703e+002, 5.199925e+003
1.118524e+002, 5.210032e+003
1.123345e+002, 5.217651e+003
1.128167e+002, 5.216552e+003
1.132988e+002, 5.221724e+003
1.137809e+002, 5.238245e+003
1.142630e+002, 5.261174e+003
1.147451e+002, 5.284385e+003
1.152272e+002, 5.303801e+003
1.157094e+002, 5.319847e+003
1.161915e+002, 5.337834e+003
1.166736e+002, 5.358214e+003
1.171557e+002, 5.379737e+003
1.176378e+002, 5.402225e+003
1.181199e+002, 5.425535e+003
1.186021e+002, 5.449686e+003
1.190842e+002, 5.475414e+003
1.195663e+002, 5.502550e+003
1.200484e+002, 5.523802e+003
1.205305e+002, 5.540288e+003
1.210126e+002, 5.550529e+003
1.214948e+002, 5.554848e+003
1.219769e+002, 5.553805e+003
1.224590e+002, 5.542011e+003
1.229411e+002, 5.506901e+003
1.234232e+002, 5.454440e+003
1.239053e+002, 5.401325e+003
1.243875e+002, 5.351966e+003
1.248696e+002, 5.306038e+003
1.253517e+002, 5.262833e+003
1.258338e+002, 5.221202e+003
1.263159e+002, 5.184339e+003
1.267980e+002, 5.153469e+003
1.272802e+002, 5.128216e+003
1.277623e+002, 5.107104e+003
1.282444e+002, 5.089334e+003
1.287265e+002, 5.075136e+003
1.292086e+002, 5.062743e+003
1.296907e+002, 5.052748e+003
1.301729e+002, 5.044133e+003
1.306550e+002, 5.037329e+003
1.311371e+002, 5.032042e+003
1.316192e+002, 5.026894e+003
1.321013e+002, 5.019946e+003
1.325834e+002, 5.010205e+003
1.330656e+002, 5.000347e+003
1.335477e+002, 4.988810e+003
1.340298e+002, 4.978123e+003
1.345119e+002, 4.970401e+003
1.349940e+002, 4.966323e+003
1.354761e+002, 4.964817e+003
1.359583e+002, 4.963539e+003
1.364404e+002, 4.961234e+003
1.369225e+002, 4.960876e+003
1.374046e+002, 4.963157e+003
1.378867e+002, 4.967397e+003
1.383688e+002, 4.973090e+003
1.388510e+002, 4.980384e+003
1.393331e+002, 4.988228e+003
1.398152e+002, 4.993110e+003
1.402973e+002, 4.994547e+003
1.407794e+002, 4.994618e+003
1.412615e+002, 4.993488e+003
1.417437e+002, 4.991429e+003
1.422258e+002, 4.989745e+003
1.427079e+002, 4.989455e+003
1.431900e+002, 4.989774e+003
1.436721e+002, 4.988813e+003
1.441542e+002, 4.984956e+003
1.446364e+002, 4.981667e+003
1.451185e+002, 4.983549e+003
1.456006e+002, 4.991691e+003
1.460827e+002, 4.998327e+003
1.465648e+002, 4.996864e+003
1.470469e+002, 4.992562e+003
1.475291e+002, 4.990961e+003
1.480112e+002, 4.994888e+003
1.484933e+002, 5.001733e+003
1.489754e+002, 5.005417e+003
1.494575e+002, 5.003939e+003
1.499396e+002, 5.002666e+003
1.504218e+002, 5.003242e+003
1.509039e+002, 5.005071e+003
1.513860e+002, 5.007466e+003
1.518681e+002, 5.010154e+003
1.523502e+002, 5.013046e+003
1.528323e+002, 5.015237e+003
1.533145e+002, 5.014361e+003
1.537966e+002, 5.015125e+003
1.542787e+002, 5.019456e+003
1.547608e+002, 5.026185e+003
1.552429e+002, 5.032771e+003
1.557250e+002, 5.036979e+003
1.562072e+002, 5.038378e+003
1.566893e+002, 5.043702e+003
1.571714e+002, 5.055037e+003
1.576535e+002, 5.067459e+003
1.581356e+002, 5.079034e+003
1.586177e+002, 5.089747e+003
1.590999e+002, 5.101029e+003
1.595820e+002, 5.114912e+003
1.600641e+002, 5.132302e+003
1.605462e+002, 5.142885e+003
1.610283e+002, 5.140058e+003
1.615104e+002, 5.135242e+003
1.619926e+002, 5.137478e+003
1.624747e+002, 5.147920e+003
1.629568e+002, 5.161151e+003
1.634389e+002, 5.172389e+003
1.639210e+002, 5.181688e+003
1.644031e+002, 5.188372e+003
1.648853e+002, 5.186937e+003
1.653674e+002, 5.184384e+003
1.658495e+002, 5.192605e+003
1.663316e+002, 5.216148e+003
1.668137e+002, 5.242786e+003
1.672958e+002, 5.260146e+003
1.677780e+002, 5.270460e+003
1.682601e+002, 5.281472e+003
1.687422e+002, 5.294872e+003
1.692243e+002, 5.311444e+003
1.697064e+002, 5.334420e+003
1.701885e+002, 5.366168e+003
1.706707e+002, 5.402546e+003
1.711528e+002, 5.438072e+003
1.716349e+002, 5.474214e+003
1.721170e+002, 5.517292e+003
1.725991e+002, 5.574044e+003
1.730812e+002, 5.645054e+003
1.735634e+002, 5.717000e+003
1.740455e+002, 5.785690e+003
1.745276e+002, 5.859079e+003
1.750097e+002, 5.942708e+003
1.754918e+002, 6.035381e+003
1.759739e+002, 6.130477e+003
1.764561e+002, 6.224132e+003
1.769382e+002, 6.324419e+003
1.774203e+002, 6.396040e+003
1.779024e+002, 6.437782e+003
1.783845e+002, 6.455893e+003
1.788666e+002, 6.452247e+003
1.793488e+002, 6.427466e+003
1.798309e+002, 6.380590e+003
1.803130e+002, 6.309177e+003
1.807951e+002, 6.202284e+003
1.812772e+002, 6.092840e+003
1.817593e+002, 5.975579e+003
1.822415e+002, 5.859726e+003
1.827236e+002, 5.751218e+003
1.832057e+002, 5.651841e+003
1.836878e+002, 5.561685e+003
1.841699e+002, 5.480978e+003
1.846520e+002, 5.411247e+003
1.851342e+002, 5.351068e+003
1.856163e+002, 5.303155e+003
1.860984e+002, 5.263919e+003
1.865805e+002, 5.230169e+003
1.870626e+002, 5.201069e+003
1.875447e+002, 5.176259e+003
1.880269e+002, 5.156228e+003
1.885090e+002, 5.141667e+003
1.889911e+002, 5.127654e+003
1.894732e+002, 5.109162e+003
1.899553e+002, 5.091123e+003
1.904374e+002, 5.083976e+003
1.909196e+002, 5.093294e+003
1.914017e+002, 5.108611e+003
1.918838e+002, 5.114433e+003
1.923659e+002, 5.110468e+003
1.928480e+002, 5.105854e+003
1.933301e+002, 5.103698e+003
1.938123e+002, 5.103972e+003
1.942944e+002, 5.106910e+003
1.947765e+002, 5.113718e+003
1.952586e+002, 5.121917e+003
1.957407e+002, 5.128962e+003
1.962228e+002, 5.134825e+003
1.967050e+002, 5.139966e+003
1.971871e+002, 5.143102e+003
1.976692e+002, 5.144508e+003
1.981513e+002, 5.150721e+003
1.986334e+002, 5.168835e+003
1.991155e+002, 5.187323e+003
1.995977e+002, 5.197436e+003
2.000798e+002, 5.199021e+003
2.005619e+002, 5.199186e+003
2.010440e+002, 5.204397e+003
2.015261e+002, 5.215093e+003
2.020082e+002, 5.228429e+003
2.024904e+002, 5.245782e+003
2.029725e+002, 5.264717e+003
2.034546e+002, 5.285052e+003
2.039367e+002, 5.306389e+003
2.044188e+002, 5.327362e+003
2.049009e+002, 5.346003e+003
2.053831e+002, 5.361454e+003
2.058652e+002, 5.377044e+003
2.063473e+002, 5.395489e+003
2.068294e+002, 5.412194e+003
2.073115e+002, 5.425553e+003
2.077936e+002, 5.434714e+003
2.082758e+002, 5.438497e+003
2.087579e+002, 5.434549e+003
2.092400e+002, 5.418837e+003
2.097221e+002, 5.403679e+003
2.102042e+002, 5.390587e+003
2.106863e+002, 5.376979e+003
2.111685e+002, 5.361668e+003
2.116506e+002, 5.344155e+003
2.121327e+002, 5.323819e+003
2.126148e+002, 5.299087e+003
2.130969e+002, 5.265748e+003
2.135790e+002, 5.237526e+003
2.140612e+002, 5.216548e+003
2.145433e+002, 5.198980e+003
2.150254e+002, 5.180941e+003
2.155075e+002, 5.161847e+003
2.159896e+002, 5.144599e+003
2.164717e+002, 5.134024e+003
2.169539e+002, 5.134774e+003
2.174360e+002, 5.131009e+003
2.179181e+002, 5.118907e+003
2.184002e+002, 5.103946e+003
2.188823e+002, 5.090458e+003
2.193644e+002, 5.079509e+003
2.198466e+002, 5.071792e+003
2.203287e+002, 5.069366e+003
2.208108e+002, 5.073406e+003
2.212929e+002, 5.075800e+003
2.217750e+002, 5.073034e+003
2.222571e+002, 5.069002e+003
2.227393e+002, 5.069172e+003
2.232214e+002, 5.075110e+003
2.237035e+002, 5.082675e+003
2.241856e+002, 5.086044e+003
2.246677e+002, 5.085558e+003
2.251498e+002, 5.086927e+003
2.256320e+002, 5.093430e+003
2.261141e+002, 5.102259e+003
2.265962e+002, 5.109292e+003
2.270783e+002, 5.114245e+003
2.275604e+002, 5.116229e+003
2.280425e+002, 5.114196e+003
2.285247e+002, 5.108690e+003
2.290068e+002, 5.100018e+003
2.294889e+002, 5.085856e+003
2.299710e+002, 5.068860e+003
2.304531e+002, 5.055361e+003
2.309352e+002, 5.047513e+003
2.314174e+002, 5.040032e+003
2.318995e+002, 5.028608e+003
2.323816e+002, 5.014334e+003
2.328637e+002, 5.000049e+003
2.333458e+002, 4.987972e+003
2.338279e+002, 4.977019e+003
2.343101e+002, 4.962999e+003
2.347922e+002, 4.944015e+003
2.352743e+002, 4.925176e+003
2.357564e+002, 4.907299e+003
2.362385e+002, 4.891583e+003
2.367206e+002, 4.880789e+003
2.372028e+002, 4.878905e+003
2.376849e+002, 4.883421e+003
2.381670e+002, 4.883368e+003
2.386491e+002, 4.876546e+003
2.391312e+002, 4.868035e+003
2.396133e+002, 4.859542e+003
2.400955e+002, 4.851120e+003
2.405776e+002, 4.842329e+003
2.410597e+002, 4.831998e+003
2.415418e+002, 4.821361e+003
2.420239e+002, 4.817196e+003
2.425060e+002, 4.825865e+003
2.429882e+002, 4.832442e+003
2.434703e+002, 4.831924e+003
2.439524e+002, 4.826879e+003
2.444345e+002, 4.820776e+003
2.449166e+002, 4.815244e+003
2.453987e+002, 4.810584e+003
2.458809e+002, 4.808336e+003
2.463630e+002, 4.808944e+003
2.468451e+002, 4.811816e+003
2.473272e+002, 4.818872e+003
2.478093e+002, 4.827392e+003
2.482914e+002, 4.833814e+003
2.487736e+002, 4.836131e+003
2.492557e+002, 4.835318e+003
2.497378e+002, 4.835398e+003
2.502199e+002, 4.838547e+003
2.507020e+002, 4.839788e+003
2.511841e+002, 4.838521e+003
2.516663e+002, 4.835068e+003
2.521484e+002, 4.828927e+003
2.526305e+002, 4.819735e+003
2.531126e+002, 4.809475e+003
2.535947e+002, 4.804296e+003
2.540768e+002, 4.811629e+003
2.545590e+002, 4.815389e+003
2.550411e+002, 4.812983e+003
2.555232e+002, 4.807207e+003
2.560053e+002, 4.801082e+003
2.564874e+002, 4.795906e+003
2.569695e+002, 4.790998e+003
2.574517e+002, 4.784709e+003
2.579338e+002, 4.773474e+003
2.584159e+002, 4.765188e+003
2.588980e+002, 4.760733e+003
2.593801e+002, 4.758847e+003
2.598622e+002, 4.759502e+003
2.603444e+002, 4.762535e+003
2.608265e+002, 4.765034e+003
2.613086e+002, 4.761345e+003
2.617907e+002, 4.745006e+003
2.622728e+002, 4.732289e+003
2.627549e+002, 4.725536e+003
2.632371e+002, 4.721370e+003
2.637192e+002, 4.716411e+003
2.642013e+002, 4.709747e+003
2.646834e+002, 4.702894e+003
2.651655e+002, 4.698065e+003
2.656476e+002, 4.695830e+003
2.661298e+002, 4.694772e+003
2.666119e+002, 4.696546e+003
2.670940e+002, 4.698581e+003
2.675761e+002, 4.698116e+003
2.680582e+002, 4.694695e+003
2.685403e+002, 4.690568e+003
2.690225e+002, 4.688669e+003
2.695046e+002, 4.689998e+003
2.699867e+002, 4.688615e+003
2.704688e+002, 4.682297e+003
2.709509e+002, 4.674556e+003
2.714330e+002, 4.668153e+003
2.719152e+002, 4.663475e+003
2.723973e+002, 4.659707e+003
2.728794e+002, 4.656067e+003
2.733615e+002, 4.652593e+003
2.738436e+002, 4.650318e+003
2.743257e+002, 4.648934e+003
2.748079e+002, 4.648940e+003
2.752900e+002, 4.651952e+003
2.757721e+002, 4.657693e+003
2.762542e+002, 4.662207e+003
2.767363e+002, 4.662346e+003
2.772184e+002, 4.658228e+003
2.777006e+002, 4.654104e+003
2.781827e+002, 4.647659e+003
2.786648e+002, 4.643070e+003
2.791469e+002, 4.645948e+003
2.796290e+002, 4.655059e+003
2.801111e+002, 4.660265e+003
2.805933e+002, 4.653402e+003
2.810754e+002, 4.638574e+003
2.815575e+002, 4.630815e+003
2.820396e+002, 4.634577e+003
2.825217e+002, 4.639917e+003
2.830038e+002, 4.640188e+003
2.834860e+002, 4.636439e+003
2.839681e+002, 4.634604e+003
2.844502e+002, 4.638948e+003
2.849323e+002, 4.645402e+003
2.854144e+002, 4.645033e+003
2.858965e+002, 4.634692e+003
2.863787e+002, 4.625489e+003
2.868608e+002, 4.624276e+003
2.873429e+002, 4.629399e+003
2.878250e+002, 4.635293e+003
2.883071e+002, 4.641201e+003
2.887892e+002, 4.645585e+003
2.892714e+002, 4.645753e+003
2.897535e+002, 4.641204e+003
2.902356e+002, 4.637174e+003
2.907177e+002, 4.636367e+003
2.911998e+002, 4.637922e+003
2.916819e+002, 4.639763e+003
2.921641e+002, 4.641787e+003
2.926462e+002, 4.643271e+003
2.931283e+002, 4.642141e+003
2.936104e+002, 4.638833e+003
2.940925e+002, 4.638416e+003
2.945746e+002, 4.645333e+003
2.950568e+002, 4.656100e+003
2.955389e+002, 4.664107e+003
2.960210e+002, 4.668677e+003
2.965031e+002, 4.670198e+003
2.969852e+002, 4.666219e+003
2.974673e+002, 4.658976e+003
2.979495e+002, 4.654945e+003
2.984316e+002, 4.660258e+003
2.989137e+002, 4.668441e+003
2.993958e+002, 4.668537e+003
2.998779e+002, 4.658631e+003
3.003600e+002, 4.648811e+003
3.008422e+002, 4.646267e+003
3.013243e+002, 4.648348e+003
3.018064e+002, 4.650981e+003
3.022885e+002, 4.653348e+003
3.027706e+002, 4.655883e+003
3.032527e+002, 4.660104e+003
3.037349e+002, 4.666333e+003
3.042170e+002, 4.669677e+003
3.046991e+002, 4.665292e+003
3.051812e+002, 4.657813e+003
3.056633e+002, 4.653479e+003
3.061454e+002, 4.653494e+003
3.066276e+002, 4.655634e+003
3.071097e+002, 4.659463e+003
3.075918e+002, 4.664735e+003
3.080739e+002, 4.666692e+003
3.085560e+002, 4.661254e+003
3.090381e+002, 4.653974e+003
3.095203e+002, 4.651785e+003
3.100024e+002, 4.655357e+003
3.104845e+002, 4.658593e+003
3.109666e+002, 4.656165e+003
3.114487e+002, 4.649421e+003
3.119308e+002, 4.645209e+003
3.124130e+002, 4.645598e+003
3.128951e+002, 4.647841e+003
3.133772e+002, 4.650130e+003
3.138593e+002, 4.652272e+003
3.143414e+002, 4.652723e+003
3.148235e+002, 4.648446e+003
3.153057e+002, 4.641985e+003
3.157878e+002, 4.641411e+003
3.162699e+002, 4.650771e+003
3.167520e+002, 4.657766e+003
3.172341e+002, 4.648679e+003
3.177162e+002, 4.630370e+003
3.181984e+002, 4.617848e+003
3.186805e+002, 4.620460e+003
3.191626e+002, 4.630175e+003
3.196447e+002, 4.633876e+003
3.201268e+002, 4.630321e+003
3.206089e+002, 4.627092e+003
3.210911e+002, 4.628890e+003
3.215732e+002, 4.633633e+003
3.220553e+002, 4.638868e+003
3.225374e+002, 4.644747e+003
3.230195e+002, 4.649996e+003
3.235016e+002, 4.653339e+003
3.239838e+002, 4.654798e+003
3.244659e+002, 4.654734e+003
3.249480e+002, 4.652091e+003
3.254301e+002, 4.648782e+003
3.259122e+002, 4.647163e+003
3.263943e+002, 4.647522e+003
3.268765e+002, 4.648611e+003
3.273586e+002, 4.648027e+003
3.278407e+002, 4.646760e+003
3.283228e+002, 4.651348e+003
3.288049e+002, 4.667037e+003
3.292870e+002, 4.683760e+003
3.297692e+002, 4.690431e+003
3.302513e+002, 4.687908e+003
3.307334e+002, 4.685118e+003
3.312155e+002, 4.687354e+003
3.316976e+002, 4.692295e+003
3.321797e+002, 4.693673e+003
3.326619e+002, 4.689256e+003
3.331440e+002, 4.685729e+003
3.336261e+002, 4.691274e+003
3.341082e+002, 4.702181e+003
3.345903e+002, 4.709569e+003
3.350724e+002, 4.706863e+003
3.355546e+002, 4.701130e+003
3.360367e+002, 4.702473e+003
3.365188e+002, 4.711625e+003
3.370009e+002, 4.720444e+003
3.374830e+002, 4.724624e+003
3.379651e+002, 4.725167e+003
3.384473e+002, 4.724064e+003
3.389294e+002, 4.721324e+003
3.394115e+002, 4.717313e+003
3.398936e+002, 4.710930e+003
3.403757e+002, 4.702754e+003
3.408578e+002, 4.697864e+003
3.413400e+002, 4.700239e+003
3.418221e+002, 4.704614e+003
3.423042e+002, 4.702810e+003
3.427863e+002, 4.694022e+003
3.432684e+002, 4.684201e+003
3.437505e+002, 4.676026e+003
3.442327e+002, 4.668961e+003
3.447148e+002, 4.662077e+003
3.451969e+002, 4.655602e+003
3.456790e+002, 4.648101e+003
3.461611e+002, 4.635013e+003
3.466432e+002, 4.617507e+003
3.471254e+002, 4.606456e+003
3.476075e+002, 4.609897e+003
3.480896e+002, 4.618782e+003
3.485717e+002, 4.622617e+003
3.490538e+002, 4.620504e+003
3.495359e+002, 4.614559e+003
3.500181e+002, 4.604037e+003
3.505002e+002, 4.590704e+003
3.509823e+002, 4.582219e+003
3.514644e+002, 4.583981e+003
3.519465e+002, 4.586480e+003
3.524286e+002, 4.581997e+003
3.529108e+002, 4.572095e+003
3.533929e+002, 4.564494e+003
3.538750e+002, 4.563729e+003
3.543571e+002, 4.566813e+003
3.548392e+002, 4.565788e+003
3.553214e+002, 4.557940e+003
3.558035e+002, 4.552579e+003
3.562856e+002, 4.554919e+003
3.567677e+002, 4.561652e+003
3.572498e+002, 4.567485e+003
3.577319e+002, 4.571180e+003
3.582141e+002, 4.572181e+003
3.586962e+002, 4.568372e+003
3.591783e+002, 4.558372e+003
3.596604e+002, 4.552485e+003
3.601425e+002, 4.556254e+003
3.606246e+002, 4.561938e+003
3.611068e+002, 4.560977e+003
3.615889e+002, 4.553069e+003
3.620710e+002, 4.546089e+003
3.625531e+002, 4.547250e+003
3.630352e+002, 4.556440e+003
3.635173e+002, 4.561501e+003
3.639995e+002, 4.558970e+003
3.644816e+002, 4.556189e+003
3.649637e+002, 4.556167e+003
3.654458e+002, 4.558646e+003
3.659279e+002, 4.562932e+003
3.664100e+002, 4.568923e+003
3.668922e+002, 4.575823e+003
3.673743e+002, 4.580853e+003
3.678564e+002, 4.579929e+003
3.683385e+002, 4.582953e+003
3.688206e+002, 4.594366e+003
3.693027e+002, 4.609015e+003
3.697849e+002, 4.621093e+003
3.702670e+002, 4.628912e+003
3.707491e+002, 4.634294e+003
3.712312e+002, 4.639507e+003
3.717133e+002, 4.644019e+003
3.721954e+002, 4.650069e+003
3.726776e+002, 4.657098e+003
3.731597e+002, 4.665936e+003
3.736418e+002, 4.678302e+003
3.741239e+002, 4.693344e+003
3.746060e+002, 4.707777e+003
3.750881e+002, 4.718766e+003
3.755703e+002, 4.726490e+003
3.760524e+002, 4.738324e+003
3.765345e+002, 4.758798e+003
3.770166e+002, 4.778200e+003
3.774987e+002, 4.793347e+003
3.779808e+002, 4.806413e+003
3.784630e+002, 4.820031e+003
3.789451e+002, 4.835398e+003
3.794272e+002, 4.853377e+003
3.799093e+002, 4.876573e+003
3.803914e+002, 4.911839e+003
3.808735e+002, 4.940885e+003
3.813557e+002, 4.959652e+003
3.818378e+002, 4.975072e+003
3.823199e+002, 4.993421e+003
3.828020e+002, 5.014963e+003
3.832841e+002, 5.034283e+003
3.837662e+002, 5.044866e+003
3.842484e+002, 5.045571e+003
3.847305e+002, 5.045630e+003
3.852126e+002, 5.047158e+003
3.856947e+002, 5.045796e+003
3.861768e+002, 5.038877e+003
3.866589e+002, 5.027971e+003
3.871411e+002, 5.016557e+003
3.876232e+002, 5.007054e+003
3.881053e+002, 4.997935e+003
3.885874e+002, 4.983599e+003
3.890695e+002, 4.961847e+003
3.895516e+002, 4.938798e+003
3.900338e+002, 4.914424e+003
3.905159e+002, 4.890269e+003
3.909980e+002, 4.867728e+003
3.914801e+002, 4.847156e+003
3.919622e+002, 4.828368e+003
3.924443e+002, 4.811929e+003
3.929265e+002, 4.798381e+003
3.934086e+002, 4.782251e+003
3.938907e+002, 4.759313e+003
3.943728e+002, 4.737116e+003
3.948549e+002, 4.721149e+003
3.953370e+002, 4.710124e+003
3.958192e+002, 4.698603e+003
3.963013e+002, 4.681526e+003
3.967834e+002, 4.661323e+003
3.972655e+002, 4.646444e+003
3.977476e+002, 4.638244e+003
3.982297e+002, 4.631958e+003
3.987119e+002, 4.625156e+003
3.991940e+002, 4.618696e+003
3.996761e+002, 4.614208e+003
4.001582e+002, 4.613011e+003
4.006403e+002, 4.611797e+003
4.011224e+002, 4.606539e+003
4.016046e+002, 4.597460e+003
4.020867e+002, 4.589482e+003
4.025688e+002, 4.584927e+003
4.030509e+002, 4.581077e+003
4.035330e+002, 4.573847e+003
4.040151e+002, 4.563096e+003
4.044973e+002, 4.554528e+003
4.049794e+002, 4.552245e+003
4.054615e+002, 4.553310e+003
4.059436e+002, 4.553276e+003
4.064257e+002, 4.551828e+003
4.069078e+002, 4.547737e+003
4.073900e+002, 4.538641e+003
4.078721e+002, 4.525666e+003
4.083542e+002, 4.514819e+003
4.088363e+002, 4.508394e+003
4.093184e+002, 4.502580e+003
4.098005e+002, 4.495114e+003
4.102827e+002, 4.486284e+003
4.107648e+002, 4.476706e+003
4.112469e+002, 4.466017e+003
4.117290e+002, 4.456008e+003
4.122111e+002, 4.451773e+003
4.126932e+002, 4.456685e+003
4.131754e+002, 4.458065e+003
4.136575e+002, 4.450392e+003
4.141396e+002, 4.439926e+003
4.146217e+002, 4.433752e+003
4.151038e+002, 4.432838e+003
4.155859e+002, 4.432493e+003
4.160681e+002, 4.427742e+003
4.165502e+002, 4.417899e+003
4.170323e+002, 4.411306e+003
4.175144e+002, 4.410789e+003
4.179965e+002, 4.409994e+003
4.184786e+002, 4.404910e+003
4.189608e+002, 4.397822e+003
4.194429e+002, 4.393551e+003
4.199250e+002, 4.394686e+003
4.204071e+002, 4.399354e+003
4.208892e+002, 4.402603e+003
4.213713e+002, 4.406665e+003
4.218535e+002, 4.405400e+003
4.223356e+002, 4.394521e+003
4.228177e+002, 4.381564e+003
4.232998e+002, 4.371843e+003
4.237819e+002, 4.366260e+003
4.242640e+002, 4.363179e+003
4.247462e+002, 4.361242e+003
4.252283e+002, 4.360554e+003
4.257104e+002, 4.359285e+003
4.261925e+002, 4.357992e+003
4.266746e+002, 4.355366e+003
4.271567e+002, 4.349340e+003
4.276389e+002, 4.342122e+003
4.281210e+002, 4.337118e+003
4.286031e+002, 4.336027e+003
4.290852e+002, 4.337630e+003
4.295673e+002, 4.340045e+003
4.300494e+002, 4.344005e+003
4.305316e+002, 4.346190e+003
4.310137e+002, 4.342921e+003
4.314958e+002, 4.339603e+003
4.319779e+002, 4.340879e+003
4.324600e+002, 4.346577e+003
4.329421e+002, 4.351082e+003
4.334243e+002, 4.349210e+003
4.339064e+002, 4.342413e+003
4.343885e+002, 4.336909e+003
4.348706e+002, 4.333133e+003
4.353527e+002, 4.330285e+003
4.358348e+002, 4.327987e+003
4.363170e+002, 4.326209e+003
4.367991e+002, 4.325108e+003
4.372812e+002, 4.325429e+003
4.377633e+002, 4.325418e+003
4.382454e+002, 4.322569e+003
4.387275e+002, 4.317424e+003
4.392097e+002, 4.314079e+003
4.396918e+002, 4.314430e+003
4.401739e+002, 4.316457e+003
4.406560e+002, 4.316671e+003
4.411381e+002, 4.314712e+003
4.416202e+002, 4.314856e+003
4.421024e+002, 4.321413e+003
4.425845e+002, 4.328980e+003
4.430666e+002, 4.330972e+003
4.435487e+002, 4.326981e+003
4.440308e+002, 4.321012e+003
4.445129e+002, 4.315580e+003
4.449951e+002, 4.310794e+003
4.454772e+002, 4.307269e+003
4.459593e+002, 4.306487e+003
4.464414e+002, 4.305083e+003
4.469235e+002, 4.300551e+003
4.474056e+002, 4.295194e+003
4.478878e+002, 4.293275e+003
4.483699e+002, 4.296152e+003
4.488520e+002, 4.300162e+003
4.493341e+002, 4.299598e+003
4.498162e+002, 4.292699e+003
4.502983e+002, 4.285955e+003
4.507805e+002, 4.277282e+003
4.512626e+002, 4.270636e+003
4.517447e+002, 4.270261e+003
4.522268e+002, 4.273799e+003
4.527089e+002, 4.275038e+003
4.531910e+002, 4.269659e+003
4.536732e+002, 4.259128e+003
4.541553e+002, 4.249333e+003
4.546374e+002, 4.238931e+003
4.551195e+002, 4.231801e+003
4.556016e+002, 4.230591e+003
4.560837e+002, 4.231106e+003
4.565659e+002, 4.229301e+003
4.570480e+002, 4.224651e+003
4.575301e+002, 4.220565e+003
4.580122e+002, 4.221469e+003
4.584943e+002, 4.227226e+003
4.589764e+002, 4.230500e+003
4.594586e+002, 4.229696e+003
4.599407e+002, 4.228383e+003
4.604228e+002, 4.227912e+003
4.609049e+002, 4.228340e+003
4.613870e+002, 4.230146e+003
4.618691e+002, 4.234655e+003
4.623513e+002, 4.238690e+003
4.628334e+002, 4.237888e+003
4.633155e+002, 4.232410e+003
4.637976e+002, 4.226285e+003
4.642797e+002, 4.220253e+003
4.647618e+002, 4.214702e+003
4.652440e+002, 4.210194e+003
4.657261e+002, 4.206723e+003
4.662082e+002, 4.203387e+003
4.666903e+002, 4.199146e+003
4.671724e+002, 4.195256e+003
4.676545e+002, 4.193355e+003
4.681367e+002, 4.193527e+003
4.686188e+002, 4.194927e+003
4.691009e+002, 4.197565e+003
4.695830e+002, 4.200817e+003
4.700651e+002, 4.201577e+003
4.705472e+002, 4.196005e+003
4.710294e+002, 4.193099e+003
4.715115e+002, 4.197741e+003
4.719936e+002, 4.205200e+003
4.724757e+002, 4.209375e+003
4.729578e+002, 4.208757e+003
4.734399e+002, 4.206289e+003
4.739221e+002, 4.205882e+003
4.744042e+002, 4.208781e+003
4.748863e+002, 4.206233e+003
4.753684e+002, 4.190530e+003
4.758505e+002, 4.178139e+003
4.763326e+002, 4.176949e+003
4.768148e+002, 4.182895e+003
4.772969e+002, 4.189087e+003
4.777790e+002, 4.192214e+003
4.782611e+002, 4.193052e+003
4.787432e+002, 4.192631e+003
4.792253e+002, 4.189603e+003
4.797075e+002, 4.189223e+003
4.801896e+002, 4.195788e+003
4.806717e+002, 4.202099e+003
4.811538e+002, 4.203196e+003
4.816359e+002, 4.200019e+003
4.821180e+002, 4.197746e+003
4.826002e+002, 4.201012e+003
4.830823e+002, 4.207372e+003
4.835644e+002, 4.209474e+003
4.840465e+002, 4.206205e+003
4.845286e+002, 4.202711e+003
4.850107e+002, 4.201013e+003
4.854929e+002, 4.200439e+003
4.859750e+002, 4.199997e+003
4.864571e+002, 4.199368e+003
4.869392e+002, 4.200053e+003
4.874213e+002, 4.204346e+003
4.879034e+002, 4.210409e+003
4.883856e+002, 4.214274e+003
4.888677e+002, 4.215331e+003
4.893498e+002, 4.214165e+003
4.898319e+002, 4.210595e+003
4.903140e+002, 4.204827e+003
4.907961e+002, 4.200348e+003
4.912783e+002, 4.197177e+003
4.917604e+002, 4.195224e+003
4.922425e+002, 4.197099e+003
4.927246e+002, 4.199685e+003
4.932067e+002, 4.195996e+003
4.936888e+002, 4.183603e+003
4.941710e+002, 4.168507e+003
4.946531e+002, 4.160348e+003
4.951352e+002, 4.162188e+003
4.956173e+002, 4.161505e+003
4.960994e+002, 4.155100e+003
4.965815e+002, 4.149646e+003
4.970637e+002, 4.149841e+003
4.975458e+002, 4.153438e+003
4.980279e+002, 4.155298e+003
4.985100e+002, 4.152473e+003
4.989921e+002, 4.146384e+003
4.994742e+002, 4.140174e+003
4.999564e+002, 4.133021e+003
5.004385e+002, 4.127868e+003
5.009206e+002, 4.125802e+003
5.014027e+002, 4.125242e+003
5.018848e+002, 4.125217e+003
5.023669e+002, 4.125797e+003
5.028491e+002, 4.127879e+003
5.033312e+002, 4.133847e+003
5.038133e+002, 4.141378e+003
5.042954e+002, 4.143715e+003
5.047775e+002, 4.140063e+003
5.052596e+002, 4.134876e+003
5.057418e+002, 4.128624e+003
5.062239e+002, 4.122937e+003
5.067060e+002, 4.120050e+003
5.071881e+002, 4.120402e+003
5.076702e+002, 4.122304e+003
5.081523e+002, 4.125812e+003
5.086345e+002, 4.130038e+003
5.091166e+002, 4.134296e+003
5.095987e+002, 4.138500e+003
5.100808e+002, 4.139825e+003
5.105629e+002, 4.134936e+003
5.110450e+002, 4.124629e+003
5.115272e+002, 4.118333e+003
5.120093e+002, 4.120082e+003
5.124914e+002, 4.120420e+003
5.129735e+002, 4.113580e+003
5.134556e+002, 4.104953e+003
5.139377e+002, 4.102522e+003
5.144199e+002, 4.108079e+003
5.149020e+002, 4.116019e+003
5.153841e+002, 4.119216e+003
5.158662e+002, 4.116869e+003
5.163483e+002, 4.115354e+003
5.168304e+002, 4.116802e+003
5.173126e+002, 4.116827e+003
5.177947e+002, 4.113076e+003
5.182768e+002, 4.107466e+003
5.187589e+002, 4.102714e+003
5.192410e+002, 4.099893e+003
5.197231e+002, 4.098282e+003
5.202053e+002, 4.096491e+003
5.206874e+002, 4.094352e+003
5.211695e+002, 4.094919e+003
5.216516e+002, 4.101729e+003
5.221337e+002, 4.107218e+003
5.226158e+002, 4.105027e+003
5.230980e+002, 4.097501e+003
5.235801e+002, 4.091339e+003
5.240622e+002, 4.089122e+003
5.245443e+002, 4.089071e+003
5.250264e+002, 4.089704e+003
5.255085e+002, 4.091001e+003
5.259907e+002, 4.093010e+003
5.264728e+002, 4.096179e+003
5.269549e+002, 4.099208e+003
5.274370e+002, 4.100118e+003
5.279191e+002, 4.098771e+003
5.284012e+002, 4.096588e+003
5.288834e+002, 4.092447e+003
5.293655e+002, 4.088609e+003
5.298476e+002, 4.087022e+003
5.303297e+002, 4.087105e+003
5.308118e+002, 4.086907e+003
5.312939e+002, 4.085327e+003
5.317761e+002, 4.083066e+003
5.322582e+002, 4.081970e+003
5.327403e+002, 4.082800e+003
5.332224e+002, 4.083327e+003
5.337045e+002, 4.083846e+003
5.341866e+002, 4.083727e+003
5.346688e+002, 4.081988e+003
5.351509e+002, 4.079184e+003
5.356330e+002, 4.077045e+003
5.361151e+002, 4.076974e+003
5.365972e+002, 4.077968e+003
5.370793e+002, 4.076969e+003
5.375615e+002, 4.073245e+003
5.380436e+002, 4.070669e+003
5.385257e+002, 4.071428e+003
5.390078e+002, 4.073066e+003
5.394899e+002, 4.073378e+003
5.399720e+002, 4.072382e+003
5.404542e+002, 4.071581e+003
5.409363e+002, 4.072979e+003
5.414184e+002, 4.074411e+003
5.419005e+002, 4.071595e+003
5.423826e+002, 4.064725e+003
5.428647e+002, 4.059970e+003
5.433469e+002, 4.061430e+003
5.438290e+002, 4.066118e+003
5.443111e+002, 4.065839e+003
5.447932e+002, 4.057585e+003
5.452753e+002, 4.052140e+003
5.457574e+002, 4.052564e+003
5.462396e+002, 4.055223e+003
5.467217e+002, 4.057282e+003
5.472038e+002, 4.058521e+003
5.476859e+002, 4.059716e+003
5.481680e+002, 4.061292e+003
5.486501e+002, 4.063505e+003
5.491323e+002, 4.067893e+003
5.496144e+002, 4.078040e+003
5.500965e+002, 4.083941e+003
5.505786e+002, 4.082973e+003
5.510607e+002, 4.079226e+003
5.515428e+002, 4.074381e+003
5.520250e+002, 4.069331e+003
5.525071e+002, 4.065909e+003
5.529892e+002, 4.065859e+003
5.534713e+002, 4.068281e+003
5.539534e+002, 4.070581e+003
5.544355e+002, 4.072658e+003
5.549177e+002, 4.075264e+003
5.553998e+002, 4.080263e+003
5.558819e+002, 4.084714e+003
5.563640e+002, 4.085014e+003
5.568461e+002, 4.080895e+003
5.573282e+002, 4.074283e+003
5.578104e+002, 4.061124e+003
5.582925e+002, 4.048629e+003
5.587746e+002, 4.047292e+003
5.592567e+002, 4.056422e+003
5.597388e+002, 4.065923e+003
5.602209e+002, 4.069887e+003
5.607031e+002, 4.069741e+003
5.611852e+002, 4.070109e+003
5.616673e+002, 4.077444e+003
5.621494e+002, 4.075734e+003
5.626315e+002, 4.054428e+003
5.631136e+002, 4.032111e+003
5.635958e+002, 4.024167e+003
5.640779e+002, 4.028544e+003
5.645600e+002, 4.032615e+003
5.650421e+002, 4.027033e+003
5.655242e+002, 4.015283e+003
5.660063e+002, 4.009763e+003
5.664885e+002, 4.013529e+003
5.669706e+002, 4.014628e+003
5.674527e+002, 4.005917e+003
5.679348e+002, 3.996866e+003
5.684169e+002, 3.995033e+003
5.688990e+002, 3.999803e+003
5.693812e+002, 4.003913e+003
5.698633e+002, 4.004374e+003
5.703454e+002, 4.001552e+003
5.708275e+002, 3.994458e+003
5.713096e+002, 3.983507e+003
5.717917e+002, 3.974141e+003
5.722739e+002, 3.968459e+003
5.727560e+002, 3.965763e+003
5.732381e+002, 3.965308e+003
5.737202e+002, 3.967897e+003
5.742023e+002, 3.969462e+003
5.746844e+002, 3.969038e+003
5.751666e+002, 3.968015e+003
5.756487e+002, 3.966913e+003
5.761308e+002, 3.966024e+003
5.766129e+002, 3.965982e+003
5.770950e+002, 3.967160e+003
5.775771e+002, 3.968792e+003
5.780593e+002, 3.968964e+003
5.785414e+002, 3.966625e+003
5.790235e+002, 3.965664e+003
5.795056e+002, 3.967445e+003
5.799877e+002, 3.969521e+003
5.804698e+002, 3.972366e+003
5.809520e+002, 3.974538e+003
5.814341e+002, 3.972551e+003
5.819162e+002, 3.963270e+003
5.823983e+002, 3.952464e+003
5.828804e+002, 3.948741e+003
5.833625e+002, 3.951356e+003
5.838447e+002, 3.952357e+003
5.843268e+002, 3.949444e+003
5.848089e+002, 3.945513e+003
5.852910e+002, 3.943395e+003
5.857731e+002, 3.942976e+003
5.862552e+002, 3.943037e+003
5.867374e+002, 3.944028e+003
5.872195e+002, 3.944930e+003
5.877016e+002, 3.945896e+003
5.881837e+002, 3.946252e+003
5.886658e+002, 3.944249e+003
5.891479e+002, 3.939520e+003
5.896301e+002, 3.934516e+003
5.901122e+002, 3.932250e+003
5.905943e+002, 3.932958e+003
5.910764e+002, 3.934187e+003
5.915585e+002, 3.937463e+003
5.920406e+002, 3.939395e+003
5.925228e+002, 3.938376e+003
5.930049e+002, 3.935952e+003
5.934870e+002, 3.933681e+003
5.939691e+002, 3.931990e+003
5.944512e+002, 3.931043e+003
5.949333e+002, 3.931846e+003
5.954155e+002, 3.933666e+003
5.958976e+002, 3.932987e+003
5.963797e+002, 3.929135e+003
5.968618e+002, 3.924878e+003
5.973439e+002, 3.921002e+003
5.978260e+002, 3.918234e+003
5.983082e+002, 3.918550e+003
5.987903e+002, 3.924445e+003
5.992724e+002, 3.927176e+003
5.997545e+002, 3.919180e+003
6.002366e+002, 3.909590e+003
6.007188e+002, 3.909471e+003
6.012009e+002, 3.918462e+003
6.016830e+002, 3.928454e+003
6.021651e+002, 3.934320e+003
6.026472e+002, 3.936244e+003
6.031293e+002, 3.934398e+003
6.036115e+002, 3.924291e+003
6.040936e+002, 3.918759e+003
6.045757e+002, 3.921531e+003
6.050578e+002, 3.926067e+003
6.055399e+002, 3.930052e+003
6.060220e+002, 3.932382e+003
6.065042e+002, 3.930919e+003
6.069863e+002, 3.922784e+003
6.074684e+002, 3.912796e+003
6.079505e+002, 3.909798e+003
6.084326e+002, 3.913577e+003
6.089147e+002, 3.915053e+003
6.093969e+002, 3.910694e+003
6.098790e+002, 3.905521e+003
6.103611e+002, 3.905813e+003
6.108432e+002, 3.911021e+003
6.113253e+002, 3.914155e+003
6.118074e+002, 3.913807e+003
6.122896e+002, 3.911942e+003
6.127717e+002, 3.908046e+003
6.132538e+002, 3.903757e+003
6.137359e+002, 3.903095e+003
6.142180e+002, 3.906806e+003
6.147001e+002, 3.909061e+003
6.151823e+002, 3.901648e+003
6.156644e+002, 3.883650e+003
6.161465e+002, 3.875279e+003
6.166286e+002, 3.886735e+003
6.171107e+002, 3.893834e+003
6.175928e+002, 3.887590e+003
6.180750e+002, 3.875917e+003
6.185571e+002, 3.866067e+003
6.190392e+002, 3.859600e+003
6.195213e+002, 3.855926e+003
6.200034e+002, 3.854983e+003
6.204855e+002, 3.856429e+003
6.209677e+002, 3.861050e+003
6.214498e+002, 3.869083e+003
6.219319e+002, 3.873072e+003
6.224140e+002, 3.867665e+003
6.228961e+002, 3.857824e+003
6.233782e+002, 3.854490e+003
6.238604e+002, 3.859853e+003
6.243425e+002, 3.863913e+003
6.248246e+002, 3.866224e+003
6.253067e+002, 3.866300e+003
6.257888e+002, 3.862019e+003
6.262709e+002, 3.855320e+003
6.267531e+002, 3.850542e+003
6.272352e+002, 3.849847e+003
6.277173e+002, 3.851611e+003
6.281994e+002, 3.853221e+003
6.286815e+002, 3.854807e+003
6.291636e+002, 3.855341e+003
6.296458e+002, 3.853585e+003
6.301279e+002, 3.852266e+003
6.306100e+002, 3.853136e+003
6.310921e+002, 3.855205e+003
6.315742e+002, 3.856587e+003
6.320563e+002, 3.856441e+003
6.325385e+002, 3.856690e+003
6.330206e+002, 3.860144e+003
6.335027e+002, 3.864629e+003
6.339848e+002, 3.865305e+003
6.344669e+002, 3.861547e+003
6.349490e+002, 3.856740e+003
6.354312e+002, 3.852777e+003
6.359133e+002, 3.850120e+003
6.363954e+002, 3.850919e+003
6.368775e+002, 3.862528e+003
6.373596e+002, 3.867599e+003
6.378417e+002, 3.859919e+003
6.383239e+002, 3.850155e+003
6.388060e+002, 3.845729e+003
6.392881e+002, 3.846223e+003
6.397702e+002, 3.847332e+003
6.402523e+002, 3.846313e+003
6.407344e+002, 3.844860e+003
6.412166e+002, 3.846995e+003
6.416987e+002, 3.852956e+003
6.421808e+002, 3.856736e+003
6.426629e+002, 3.856378e+003
6.431450e+002, 3.854833e+003
6.436271e+002, 3.854398e+003
6.441093e+002, 3.854906e+003
6.445914e+002, 3.855932e+003
6.450735e+002, 3.856370e+003
6.455556e+002, 3.858528e+003
6.460377e+002, 3.865230e+003
6.465198e+002, 3.873604e+003
6.470020e+002, 3.879066e+003
6.474841e+002, 3.881014e+003
6.479662e+002, 3.882518e+003
6.484483e+002, 3.886172e+003
6.489304e+002, 3.891847e+003
6.494125e+002, 3.899234e+003
6.498947e+002, 3.911059e+003
6.503768e+002, 3.919270e+003
6.508589e+002, 3.917864e+003
6.513410e+002, 3.916196e+003
6.518231e+002, 3.921751e+003
6.523052e+002, 3.933618e+003
6.527874e+002, 3.944831e+003
6.532695e+002, 3.951259e+003
6.537516e+002, 3.955906e+003
6.542337e+002, 3.961875e+003
6.547158e+002, 3.969139e+003
6.551979e+002, 3.977264e+003
6.556801e+002, 3.985899e+003
6.561622e+002, 3.996791e+003
6.566443e+002, 4.012510e+003
6.571264e+002, 4.033373e+003
6.576085e+002, 4.052386e+003
6.580906e+002, 4.068778e+003
6.585728e+002, 4.084557e+003
6.590549e+002, 4.100417e+003
6.595370e+002, 4.115909e+003
6.600191e+002, 4.129556e+003
6.605012e+002, 4.141907e+003
6.609833e+002, 4.156539e+003
6.614655e+002, 4.176923e+003
6.619476e+002, 4.201564e+003
6.624297e+002, 4.225992e+003
6.629118e+002, 4.250481e+003
6.633939e+002, 4.272263e+003
6.638760e+002, 4.289728e+003
6.643582e+002, 4.304884e+003
6.648403e+002, 4.319858e+003
6.653224e+002, 4.334636e+003
6.658045e+002, 4.348468e+003
6.662866e+002, 4.362615e+003
6.667687e+002, 4.374354e+003
6.672509e+002, 4.380780e+003
6.677330e+002, 4.384183e+003
6.682151e+002, 4.390021e+003
6.686972e+002, 4.398955e+003
6.691793e+002, 4.403517e+003
6.696614e+002, 4.394716e+003
6.701436e+002, 4.373739e+003
6.706257e+002, 4.358044e+003
6.711078e+002, 4.350074e+003
6.715899e+002, 4.342250e+003
6.720720e+002, 4.332728e+003
6.725541e+002, 4.322260e+003
6.730363e+002, 4.311312e+003
6.735184e+002, 4.299902e+003
6.740005e+002, 4.287789e+003
6.744826e+002, 4.275140e+003
6.749647e+002, 4.261352e+003
6.754468e+002, 4.243721e+003
6.759290e+002, 4.224322e+003
6.764111e+002, 4.210516e+003
6.768932e+002, 4.204722e+003
6.773753e+002, 4.200221e+003
6.778574e+002, 4.188978e+003
6.783395e+002, 4.170673e+003
6.788217e+002, 4.154058e+003
6.793038e+002, 4.138629e+003
6.797859e+002, 4.125755e+003
6.802680e+002, 4.119209e+003
6.807501e+002, 4.113053e+003
6.812322e+002, 4.100423e+003
6.817144e+002, 4.081824e+003
6.821965e+002, 4.065168e+003
6.826786e+002, 4.058754e+003
6.831607e+002, 4.055392e+003
6.836428e+002, 4.042379e+003
6.841249e+002, 4.020714e+003
6.846071e+002, 3.999125e+003
6.850892e+002, 3.979827e+003
6.855713e+002, 3.962643e+003
6.860534e+002, 3.947540e+003
6.865355e+002, 3.934700e+003
6.870176e+002, 3.921586e+003
6.874998e+002, 3.907093e+003
6.879819e+002, 3.893741e+003
6.884640e+002, 3.884606e+003
6.889461e+002, 3.875393e+003
6.894282e+002, 3.860056e+003
6.899103e+002, 3.839167e+003
6.903925e+002, 3.820122e+003
6.908746e+002, 3.809589e+003
6.913567e+002, 3.803875e+003
6.918388e+002, 3.793857e+003
6.923209e+002, 3.779356e+003
6.928030e+002, 3.765857e+003
6.932852e+002, 3.755375e+003
6.937673e+002, 3.745267e+003
6.942494e+002, 3.731929e+003
6.947315e+002, 3.715753e+003
6.952136e+002, 3.703003e+003
6.956957e+002, 3.695798e+003
6.961779e+002, 3.689706e+003
6.966600e+002, 3.684210e+003
6.971421e+002, 3.678450e+003
6.976242e+002, 3.670757e+003
6.981063e+002, 3.661517e+003
6.985884e+002, 3.653472e+003
6.990706e+002, 3.648958e+003
6.995527e+002, 3.646698e+003
7.000348e+002, 3.642503e+003
7.005169e+002, 3.635663e+003
7.009990e+002, 3.631851e+003
7.014811e+002, 3.634536e+003
7.019633e+002, 3.637174e+003
7.024454e+002, 3.632899e+003
7.029275e+002, 3.623823e+003
7.034096e+002, 3.616937e+003
7.038917e+002, 3.616322e+003
7.043738e+002, 3.613664e+003
7.048560e+002, 3.601820e+003
7.053381e+002, 3.588094e+003
7.058202e+002, 3.581709e+003
7.063023e+002, 3.582920e+003
7.067844e+002, 3.586085e+003
7.072665e+002, 3.587589e+003
7.077487e+002, 3.587439e+003
7.082308e+002, 3.585132e+003
7.087129e+002, 3.579882e+003
7.091950e+002, 3.576265e+003
7.096771e+002, 3.576092e+003
7.101592e+002, 3.575963e+003
7.106414e+002, 3.574218e+003
7.111235e+002, 3.570908e+003
7.116056e+002, 3.565756e+003
7.120877e+002, 3.557653e+003
7.125698e+002, 3.550280e+003
7.130519e+002, 3.545538e+003
7.135341e+002, 3.542509e+003
7.140162e+002, 3.539979e+003
7.144983e+002, 3.538062e+003
7.149804e+002, 3.538468e+003
7.154625e+002, 3.542507e+003
7.159446e+002, 3.547012e+003
7.164268e+002, 3.543837e+003
7.169089e+002, 3.529659e+003
7.173910e+002, 3.523042e+003
7.178731e+002, 3.529522e+003
7.183552e+002, 3.536729e+003
7.188373e+002, 3.539584e+003
7.193195e+002, 3.539289e+003
7.198016e+002, 3.536930e+003
7.202837e+002, 3.532178e+003
7.207658e+002, 3.528223e+003
7.212479e+002, 3.527785e+003
7.217300e+002, 3.528059e+003
7.222122e+002, 3.525048e+003
7.226943e+002, 3.519843e+003
7.231764e+002, 3.517146e+003
7.236585e+002, 3.519044e+003
7.241406e+002, 3.522548e+003
7.246227e+002, 3.523008e+003
7.251049e+002, 3.520054e+003
7.255870e+002, 3.517565e+003
7.260691e+002, 3.515637e+003
7.265512e+002, 3.514039e+003
7.270333e+002, 3.513564e+003
7.275154e+002, 3.512834e+003
7.279976e+002, 3.508847e+003
7.284797e+002, 3.501613e+003
7.289618e+002, 3.499109e+003
7.294439e+002, 3.508500e+003
7.299260e+002, 3.520772e+003
7.304081e+002, 3.528040e+003
7.308903e+002, 3.531633e+003
7.313724e+002, 3.536113e+003
7.318545e+002, 3.542569e+003
7.323366e+002, 3.546194e+003
7.328187e+002, 3.540964e+003
7.333008e+002, 3.527991e+003
7.337830e+002, 3.520837e+003
7.342651e+002, 3.522107e+003
7.347472e+002, 3.523609e+003
7.352293e+002, 3.523365e+003
7.357114e+002, 3.522950e+003
7.361935e+002, 3.523333e+003
7.366757e+002, 3.524515e+003
7.371578e+002, 3.526353e+003
7.376399e+002, 3.530359e+003
7.381220e+002, 3.532983e+003
7.386041e+002, 3.531332e+003
7.390862e+002, 3.526954e+003
7.395684e+002, 3.521423e+003
7.400505e+002, 3.515478e+003
7.405326e+002, 3.511039e+003
7.410147e+002, 3.509618e+003
7.414968e+002, 3.510363e+003
7.419789e+002, 3.510954e+003
7.424611e+002, 3.511776e+003
7.429432e+002, 3.511005e+003
7.434253e+002, 3.508604e+003
7.439074e+002, 3.504318e+003
7.443895e+002, 3.494843e+003
7.448716e+002, 3.484273e+003
7.453538e+002, 3.481404e+003
7.458359e+002, 3.490671e+003
7.463180e+002, 3.497493e+003
7.468001e+002, 3.491981e+003
7.472822e+002, 3.483244e+003
7.477643e+002, 3.481429e+003
7.482465e+002, 3.485083e+003
7.487286e+002, 3.487428e+003
7.492107e+002, 3.485381e+003
7.496928e+002, 3.479902e+003
7.501749e+002, 3.471661e+003
7.506570e+002, 3.460437e+003
7.511392e+002, 3.450517e+003
7.516213e+002, 3.440646e+003
7.521034e+002, 3.435041e+003
7.525855e+002, 3.439048e+003
7.530676e+002, 3.445669e+003
7.535497e+002, 3.445697e+003
7.540319e+002, 3.438796e+003
7.545140e+002, 3.433459e+003
7.549961e+002, 3.430681e+003
7.554782e+002, 3.431061e+003
7.559603e+002, 3.438973e+003
7.564424e+002, 3.448643e+003
7.569246e+002, 3.450010e+003
7.574067e+002, 3.441939e+003
7.578888e+002, 3.433057e+003
7.583709e+002, 3.430859e+003
7.588530e+002, 3.433374e+003
7.593351e+002, 3.433742e+003
7.598173e+002, 3.431576e+003
7.602994e+002, 3.430641e+003
7.607815e+002, 3.432007e+003
7.612636e+002, 3.434358e+003
7.617457e+002, 3.437326e+003
7.622278e+002, 3.440462e+003
7.627100e+002, 3.441688e+003
7.631921e+002, 3.439991e+003
7.636742e+002, 3.437932e+003
7.641563e+002, 3.435520e+003
7.646384e+002, 3.433483e+003
7.651205e+002, 3.432059e+003
7.656027e+002, 3.431570e+003
7.660848e+002, 3.432554e+003
7.665669e+002, 3.435264e+003
7.670490e+002, 3.439484e+003
7.675311e+002, 3.445978e+003
7.680132e+002, 3.454002e+003
7.684954e+002, 3.459566e+003
7.689775e+002, 3.462442e+003
7.694596e+002, 3.462435e+003
7.699417e+002, 3.458702e+003
7.704238e+002, 3.453063e+003
7.709059e+002, 3.448469e+003
7.713881e+002, 3.444830e+003
7.718702e+002, 3.442801e+003
7.723523e+002, 3.444323e+003
7.728344e+002, 3.445054e+003
7.733165e+002, 3.443195e+003
7.737986e+002, 3.439930e+003
7.742808e+002, 3.436260e+003
7.747629e+002, 3.432554e+003
7.752450e+002, 3.429295e+003
7.757271e+002, 3.426505e+003
7.762092e+002, 3.424665e+003
7.766913e+002, 3.424587e+003
7.771735e+002, 3.426111e+003
7.776556e+002, 3.429219e+003
7.781377e+002, 3.434022e+003
7.786198e+002, 3.437648e+003
7.791019e+002, 3.437422e+003
7.795840e+002, 3.434102e+003
7.800662e+002, 3.431536e+003
7.805483e+002, 3.430092e+003
7.810304e+002, 3.428691e+003
7.815125e+002, 3.428682e+003
7.819946e+002, 3.427268e+003
7.824767e+002, 3.421352e+003
7.829589e+002, 3.413463e+003
7.834410e+002, 3.408921e+003
7.839231e+002, 3.409785e+003
7.844052e+002, 3.409979e+003
7.848873e+002, 3.404223e+003
7.853694e+002, 3.396888e+003
7.858516e+002, 3.393153e+003
7.863337e+002, 3.392796e+003
7.868158e+002, 3.394557e+003
7.872979e+002, 3.397874e+003
7.877800e+002, 3.399884e+003
7.882621e+002, 3.396048e+003
7.887443e+002, 3.386675e+003
7.892264e+002, 3.380417e+003
7.897085e+002, 3.376706e+003
7.901906e+002, 3.378045e+003
7.906727e+002, 3.389221e+003
7.911548e+002, 3.401894e+003
7.916370e+002, 3.408812e+003
7.921191e+002, 3.410171e+003
7.926012e+002, 3.406446e+003
7.930833e+002, 3.391727e+003
7.935654e+002, 3.379348e+003
7.940475e+002, 3.376110e+003
7.945297e+002, 3.376431e+003
7.950118e+002, 3.374990e+003
7.954939e+002, 3.371453e+003
7.959760e+002, 3.367792e+003
7.964581e+002, 3.365107e+003
7.969402e+002, 3.362642e+003
7.974224e+002, 3.358812e+003
7.979045e+002, 3.353983e+003
7.983866e+002, 3.350974e+003
7.988687e+002, 3.350165e+003
7.993508e+002, 3.349955e+003
7.998329e+002, 3.349966e+003
8.003151e+002, 3.349404e+003
8.007972e+002, 3.346699e+003
8.012793e+002, 3.341256e+003
8.017614e+002, 3.335954e+003
8.022435e+002, 3.329372e+003
8.027256e+002, 3.324655e+003
8.032078e+002, 3.323738e+003
8.036899e+002, 3.324503e+003
8.041720e+002, 3.324857e+003
8.046541e+002, 3.324596e+003
8.051362e+002, 3.324677e+003
8.056183e+002, 3.326594e+003
8.061005e+002, 3.327967e+003
8.065826e+002, 3.325499e+003
8.070647e+002, 3.320781e+003
8.075468e+002, 3.316389e+003
8.080289e+002, 3.313164e+003
8.085110e+002, 3.314314e+003
8.089932e+002, 3.322954e+003
8.094753e+002, 3.334718e+003
8.099574e+002, 3.336768e+003
8.104395e+002, 3.325618e+003
8.109216e+002, 3.321033e+003
8.114037e+002, 3.328725e+003
8.118859e+002, 3.335133e+003
8.123680e+002, 3.332597e+003
8.128501e+002, 3.325068e+003
8.133322e+002, 3.316895e+003
8.138143e+002, 3.307495e+003
8.142964e+002, 3.303139e+003
8.147786e+002, 3.309333e+003
8.152607e+002, 3.316589e+003
8.157428e+002, 3.319522e+003
8.162249e+002, 3.319975e+003
8.167070e+002, 3.320770e+003
8.171891e+002, 3.322443e+003
8.176713e+002, 3.323875e+003
8.181534e+002, 3.324016e+003
8.186355e+002, 3.323659e+003
8.191176e+002, 3.324881e+003
8.195997e+002, 3.327285e+003
8.200818e+002, 3.327376e+003
8.205640e+002, 3.324244e+003
8.210461e+002, 3.321341e+003
8.215282e+002, 3.321208e+003
8.220103e+002, 3.322960e+003
8.224924e+002, 3.324182e+003
8.229745e+002, 3.326733e+003
8.234567e+002, 3.324544e+003
8.239388e+002, 3.312733e+003
8.244209e+002, 3.301821e+003
8.249030e+002, 3.294885e+003
8.253851e+002, 3.291290e+003
8.258672e+002, 3.291089e+003
8.263494e+002, 3.294145e+003
8.268315e+002, 3.296281e+003
8.273136e+002, 3.294372e+003
8.277957e+002, 3.291924e+003
8.282778e+002, 3.292676e+003
8.287599e+002, 3.294801e+003
8.292421e+002, 3.294406e+003
8.297242e+002, 3.291113e+003
8.302063e+002, 3.287806e+003
8.306884e+002, 3.286456e+003
8.311705e+002, 3.287171e+003
8.316526e+002, 3.291732e+003
8.321348e+002, 3.300395e+003
8.326169e+002, 3.303110e+003
8.330990e+002, 3.297320e+003
8.335811e+002, 3.289542e+003
8.340632e+002, 3.281882e+003
8.345453e+002, 3.275968e+003
8.350275e+002, 3.275948e+003
8.355096e+002, 3.284724e+003
8.359917e+002, 3.290672e+003
8.364738e+002, 3.294468e+003
8.369559e+002, 3.294543e+003
8.374380e+002, 3.285564e+003
8.379202e+002, 3.275501e+003
8.384023e+002, 3.274379e+003
8.388844e+002, 3.282310e+003
8.393665e+002, 3.289918e+003
8.398486e+002, 3.292872e+003
8.403307e+002, 3.292519e+003
8.408129e+002, 3.288668e+003
8.412950e+002, 3.283046e+003
8.417771e+002, 3.278583e+003
8.422592e+002, 3.275947e+003
8.427413e+002, 3.276106e+003
8.432234e+002, 3.280030e+003
8.437056e+002, 3.284885e+003
8.441877e+002, 3.283954e+003
8.446698e+002, 3.276491e+003
8.451519e+002, 3.272891e+003
8.456340e+002, 3.274816e+003
8.461161e+002, 3.276833e+003
8.465983e+002, 3.277800e+003
8.470804e+002, 3.276567e+003
8.475625e+002, 3.269589e+003
8.480446e+002, 3.256098e+003
8.485267e+002, 3.249490e+003
8.490089e+002, 3.255892e+003
8.494910e+002, 3.261995e+003
8.499731e+002, 3.263941e+003
8.504552e+002, 3.264141e+003
8.509373e+002, 3.264487e+003
8.514194e+002, 3.265212e+003
8.519016e+002, 3.266396e+003
8.523837e+002, 3.268683e+003
8.528658e+002, 3.269231e+003
8.533479e+002, 3.262188e+003
8.538300e+002, 3.253148e+003
8.543121e+002, 3.253019e+003
8.547943e+002, 3.260971e+003
8.552764e+002, 3.270285e+003
8.557585e+002, 3.278084e+003
8.562406e+002, 3.282034e+003
8.567227e+002, 3.278125e+003
8.572048e+002, 3.267120e+003
8.576870e+002, 3.258132e+003
8.581691e+002, 3.250323e+003
8.586512e+002, 3.248750e+003
8.591333e+002, 3.258229e+003
8.596154e+002, 3.268618e+003
8.600975e+002, 3.270539e+003
8.605797e+002, 3.265477e+003
8.610618e+002, 3.262254e+003
8.615439e+002, 3.261770e+003
8.620260e+002, 3.261587e+003
8.625081e+002, 3.259706e+003
8.629902e+002, 3.259848e+003
8.634724e+002, 3.268006e+003
8.639545e+002, 3.278249e+003
8.644366e+002, 3.279915e+003
8.649187e+002, 3.270642e+003
8.654008e+002, 3.260950e+003
8.658829e+002, 3.257469e+003
8.663651e+002, 3.257467e+003
8.668472e+002, 3.258724e+003
8.673293e+002, 3.260726e+003
8.678114e+002, 3.263007e+003
8.682935e+002, 3.265163e+003
8.687756e+002, 3.265191e+003
8.692578e+002, 3.261225e+003
8.697399e+002, 3.255187e+003
8.702220e+002, 3.252490e+003
8.707041e+002, 3.253404e+003
8.711862e+002, 3.250715e+003
8.716683e+002, 3.242040e+003
8.721505e+002, 3.236592e+003
8.726326e+002, 3.240985e+003
8.731147e+002, 3.249111e+003
8.735968e+002, 3.250000e+003
8.740789e+002, 3.241316e+003
8.745610e+002, 3.238005e+003
8.750432e+002, 3.245599e+003
8.755253e+002, 3.251032e+003
8.760074e+002, 3.248739e+003
8.764895e+002, 3.245224e+003
8.769716e+002, 3.247708e+003
8.774537e+002, 3.254210e+003
8.779359e+002, 3.255667e+003
8.784180e+002, 3.246787e+003
8.789001e+002, 3.237995e+003
8.793822e+002, 3.235995e+003
8.798643e+002, 3.237249e+003
8.803464e+002, 3.238654e+003
8.808286e+002, 3.239630e+003
8.813107e+002, 3.239257e+003
8.817928e+002, 3.237392e+003
8.822749e+002, 3.236535e+003
8.827570e+002, 3.240510e+003
8.832391e+002, 3.247106e+003
8.837213e+002, 3.248234e+003
8.842034e+002, 3.244346e+003
8.846855e+002, 3.243256e+003
8.851676e+002, 3.246975e+003
8.856497e+002, 3.252769e+003
8.861318e+002, 3.259701e+003
8.866140e+002, 3.265726e+003
8.870961e+002, 3.263111e+003
8.875782e+002, 3.246529e+003
8.880603e+002, 3.234945e+003
8.885424e+002, 3.230126e+003
8.890245e+002, 3.228008e+003
8.895067e+002, 3.228208e+003
8.899888e+002, 3.229438e+003
8.904709e+002, 3.230375e+003
8.909530e+002, 3.230949e+003
8.914351e+002, 3.231214e+003
8.919172e+002, 3.231314e+003
8.923994e+002, 3.230925e+003
8.928815e+002, 3.230085e+003
8.933636e+002, 3.228566e+003
8.938457e+002, 3.225484e+003
8.943278e+002, 3.221566e+003
8.948099e+002, 3.219120e+003
8.952921e+002, 3.219375e+003
8.957742e+002, 3.219288e+003
8.962563e+002, 3.215791e+003
8.967384e+002, 3.210168e+003
8.972205e+002, 3.202315e+003
8.977026e+002, 3.194164e+003
8.981848e+002, 3.194431e+003
8.986669e+002, 3.205391e+003
8.991490e+002, 3.216720e+003
8.996311e+002, 3.218188e+003
9.001132e+002, 3.212280e+003
9.005953e+002, 3.207988e+003
9.010775e+002, 3.205347e+003
9.015596e+002, 3.204529e+003
9.020417e+002, 3.206814e+003
9.025238e+002, 3.206338e+003
9.030059e+002, 3.197615e+003
9.034880e+002, 3.185939e+003
9.039702e+002, 3.182736e+003
9.044523e+002, 3.190947e+003
9.049344e+002, 3.195720e+003
9.054165e+002, 3.191975e+003
9.058986e+002, 3.191339e+003
9.063807e+002, 3.200333e+003
9.068629e+002, 3.210335e+003
9.073450e+002, 3.214407e+003
9.078271e+002, 3.212745e+003
9.083092e+002, 3.207892e+003
9.087913e+002, 3.198129e+003
9.092734e+002, 3.190141e+003
9.097556e+002, 3.187723e+003
9.102377e+002, 3.187630e+003
9.107198e+002, 3.187447e+003
9.112019e+002, 3.187169e+003
9.116840e+002, 3.187970e+003
9.121661e+002, 3.189920e+003
9.126483e+002, 3.190210e+003
9.131304e+002, 3.184767e+003
9.136125e+002, 3.177794e+003
9.140946e+002, 3.177033e+003
9.145767e+002, 3.180561e+003
9.150588e+002, 3.182305e+003
9.155410e+002, 3.181271e+003
9.160231e+002, 3.178728e+003
9.165052e+002, 3.175115e+003
9.169873e+002, 3.172527e+003
9.174694e+002, 3.176394e+003
9.179515e+002, 3.187134e+003
9.184337e+002, 3.192487e+003
9.189158e+002, 3.191819e+003
9.193979e+002, 3.188048e+003
9.198800e+002, 3.180855e+003
9.203621e+002, 3.173557e+003
9.208442e+002, 3.169991e+003
9.213264e+002, 3.169718e+003
9.218085e+002, 3.168191e+003
9.222906e+002, 3.163449e+003
9.227727e+002, 3.160685e+003
9.232548e+002, 3.161831e+003
9.237369e+002, 3.163076e+003
9.242191e+002, 3.163369e+003
9.247012e+002, 3.162327e+003
9.251833e+002, 3.158703e+003
9.256654e+002, 3.152202e+003
9.261475e+002, 3.147617e+003
9.266296e+002, 3.146968e+003
9.271118e+002, 3.147906e+003
9.275939e+002, 3.150304e+003
9.280760e+002, 3.152915e+003
9.285581e+002, 3.153814e+003
9.290402e+002, 3.153656e+003
9.295223e+002, 3.155424e+003
9.300045e+002, 3.160846e+003
9.304866e+002, 3.165625e+003
9.309687e+002, 3.165163e+003
9.314508e+002, 3.161980e+003
9.319329e+002, 3.159427e+003
9.324150e+002, 3.157698e+003
9.328972e+002, 3.156816e+003
9.333793e+002, 3.156726e+003
9.338614e+002, 3.157096e+003
9.343435e+002, 3.157864e+003
9.348256e+002, 3.158385e+003
9.353077e+002, 3.156480e+003
9.357899e+002, 3.152416e+003
9.362720e+002, 3.150190e+003
9.367541e+002, 3.150372e+003
9.372362e+002, 3.151035e+003
9.377183e+002, 3.151465e+003
9.382004e+002, 3.151165e+003
9.386826e+002, 3.149260e+003
9.391647e+002, 3.145710e+003
9.396468e+002, 3.142416e+003
9.401289e+002, 3.139599e+003
9.406110e+002, 3.136364e+003
9.410931e+002, 3.130719e+003
9.415753e+002, 3.127072e+003
9.420574e+002, 3.130263e+003
9.425395e+002, 3.137501e+003
9.430216e+002, 3.141191e+003
9.435037e+002, 3.140483e+003
9.439858e+002, 3.138826e+003
9.444680e+002, 3.137180e+003
9.449501e+002, 3.133832e+003
9.454322e+002, 3.124094e+003
9.459143e+002, 3.115236e+003
9.463964e+002, 3.116395e+003
9.468785e+002, 3.125977e+003
9.473607e+002, 3.133736e+003
9.478428e+002, 3.137177e+003
9.483249e+002, 3.136349e+003
9.488070e+002, 3.125827e+003
9.492891e+002, 3.115684e+003
9.497712e+002, 3.116837e+003
9.502534e+002, 3.125438e+003
9.507355e+002, 3.133612e+003
9.512176e+002, 3.138844e+003
9.516997e+002, 3.141488e+003
9.521818e+002, 3.141405e+003
9.526639e+002, 3.139331e+003
9.531461e+002, 3.134858e+003
9.536282e+002, 3.129554e+003
9.541103e+002, 3.127674e+003
9.545924e+002, 3.129167e+003
9.550745e+002, 3.130737e+003
9.555566e+002, 3.130775e+003
9.560388e+002, 3.129703e+003
9.565209e+002, 3.128322e+003
9.570030e+002, 3.126338e+003
9.574851e+002, 3.120449e+003
9.579672e+002, 3.110708e+003
9.584493e+002, 3.108385e+003
9.589315e+002, 3.116799e+003
9.594136e+002, 3.126970e+003
9.598957e+002, 3.132823e+003
9.603778e+002, 3.134785e+003
9.608599e+002, 3.133364e+003
9.613420e+002, 3.127462e+003
9.618242e+002, 3.123960e+003
9.623063e+002, 3.123937e+003
9.627884e+002, 3.123706e+003
9.632705e+002, 3.122353e+003
9.637526e+002, 3.119885e+003
9.642347e+002, 3.115175e+003
9.647169e+002, 3.108994e+003
9.651990e+002, 3.107032e+003
9.656811e+002, 3.113781e+003
9.661632e+002, 3.117883e+003
9.666453e+002, 3.116832e+003
9.671274e+002, 3.115998e+003
9.676096e+002, 3.120087e+003
9.680917e+002, 3.124228e+003
9.685738e+002, 3.120557e+003
9.690559e+002, 3.109198e+003
9.695380e+002, 3.101903e+003
9.700201e+002, 3.103479e+003
9.705023e+002, 3.106848e+003
9.709844e+002, 3.110929e+003
9.714665e+002, 3.114523e+003
9.719486e+002, 3.116496e+003
9.724307e+002, 3.117325e+003
9.729128e+002, 3.118234e+003
9.733950e+002, 3.119527e+003
9.738771e+002, 3.120036e+003
9.743592e+002, 3.119940e+003
9.748413e+002, 3.117892e+003
9.753234e+002, 3.110557e+003
9.758055e+002, 3.101700e+003
9.762877e+002, 3.095931e+003
9.767698e+002, 3.094199e+003
9.772519e+002, 3.097521e+003
9.777340e+002, 3.106551e+003
9.782161e+002, 3.115803e+003
9.786982e+002, 3.120056e+003
9.791804e+002, 3.120076e+003
9.796625e+002, 3.113640e+003
9.801446e+002, 3.104234e+003
9.806267e+002, 3.105427e+003
9.811088e+002, 3.118828e+003
9.815909e+002, 3.131427e+003
9.820731e+002, 3.134229e+003
9.825552e+002, 3.131569e+003
9.830373e+002, 3.132131e+003
9.835194e+002, 3.134795e+003
9.840015e+002, 3.129755e+003
9.844836e+002, 3.116773e+003
9.849658e+002, 3.107725e+003
9.854479e+002, 3.106703e+003
9.859300e+002, 3.106870e+003
9.864121e+002, 3.101170e+003
9.868942e+002, 3.092830e+003
9.873763e+002, 3.094516e+003
9.878585e+002, 3.108104e+003
9.883406e+002, 3.120202e+003
9.888227e+002, 3.131375e+003
9.893048e+002, 3.136256e+003
9.897869e+002, 3.130245e+003
9.902690e+002, 3.121237e+003
9.907512e+002, 3.118795e+003
9.912333e+002, 3.122284e+003
9.917154e+002, 3.123804e+003
9.921975e+002, 3.121693e+003
9.926796e+002, 3.121264e+003
9.931617e+002, 3.125757e+003
9.936439e+002, 3.127924e+003
9.941260e+002, 3.121392e+003
9.946081e+002, 3.112286e+003
9.950902e+002, 3.110057e+003
9.955723e+002, 3.115009e+003
9.960544e+002, 3.117788e+003
9.965366e+002, 3.118128e+003
9.970187e+002, 3.116199e+003
9.975008e+002, 3.107811e+003
9.979829e+002, 3.101469e+003
9.984650e+002, 3.104849e+003
9.989471e+002, 3.112769e+003
9.994293e+002, 3.116118e+003
9.999114e+002, 3.113538e+003
1.000393e+003, 3.110399e+003
1.000876e+003, 3.107869e+003
1.001358e+003, 3.105452e+003
1.001840e+003, 3.102563e+003
1.002322e+003, 3.100053e+003
1.002804e+003, 3.098076e+003
1.003286e+003, 3.097238e+003
1.003768e+003, 3.099357e+003
1.004250e+003, 3.105158e+003
1.004733e+003, 3.109537e+003
1.005215e+003, 3.109685e+003
1.005697e+003, 3.107484e+003
1.006179e+003, 3.102884e+003
1.006661e+003, 3.097707e+003
1.007143e+003, 3.093674e+003
1.007625e+003, 3.091289e+003
1.008107e+003, 3.090923e+003
1.008589e+003, 3.092784e+003
1.009072e+003, 3.096127e+003
1.009554e+003, 3.102911e+003
1.010036e+003, 3.108669e+003
1.010518e+003, 3.106172e+003
1.011000e+003, 3.099174e+003
1.011482e+003, 3.095539e+003
1.011964e+003, 3.095913e+003
1.012446e+003, 3.095824e+003
1.012929e+003, 3.092791e+003
1.013411e+003, 3.088655e+003
1.013893e+003, 3.083633e+003
1.014375e+003, 3.080078e+003
1.014857e+003, 3.085834e+003
1.015339e+003, 3.097367e+003
1.015821e+003, 3.100553e+003
1.016303e+003, 3.093427e+003
1.016785e+003, 3.088923e+003
1.017268e+003, 3.096590e+003
1.017750e+003, 3.106934e+003
1.018232e+003, 3.102173e+003
1.018714e+003, 3.086672e+003
1.019196e+003, 3.079007e+003
1.019678e+003, 3.078917e+003
1.020160e+003, 3.078133e+003
1.020642e+003, 3.074368e+003
1.021125e+003, 3.070418e+003
1.021607e+003, 3.068318e+003
1.022089e+003, 3.068209e+003
1.022571e+003, 3.071533e+003
1.023053e+003, 3.077956e+003
1.023535e+003, 3.080186e+003
1.024017e+003, 3.077818e+003
1.024499e+003, 3.075078e+003
1.024981e+003, 3.073250e+003
1.025464e+003, 3.071824e+003
1.025946e+003, 3.070617e+003
1.026428e+003, 3.068985e+003
1.026910e+003, 3.063541e+003
1.027392e+003, 3.053107e+003
1.027874e+003, 3.051542e+003
1.028356e+003, 3.061583e+003
1.028838e+003, 3.068918e+003
1.029321e+003, 3.067479e+003
1.029803e+003, 3.064944e+003
1.030285e+003, 3.068844e+003
1.030767e+003, 3.077969e+003
1.031249e+003, 3.087633e+003
1.031731e+003, 3.099717e+003
1.032213e+003, 3.104671e+003
1.032695e+003, 3.099900e+003
1.033177e+003, 3.093656e+003
1.033660e+003, 3.087420e+003
1.034142e+003, 3.083408e+003
1.034624e+003, 3.084343e+003
1.035106e+003, 3.089542e+003
1.035588e+003, 3.094879e+003
1.036070e+003, 3.101109e+003
1.036552e+003, 3.105643e+003
1.037034e+003, 3.107915e+003
1.037516e+003, 3.109423e+003
1.037999e+003, 3.110992e+003
1.038481e+003, 3.111716e+003
1.038963e+003, 3.109691e+003
1.039445e+003, 3.105617e+003
1.039927e+003, 3.104951e+003
1.040409e+003, 3.110552e+003
1.040891e+003, 3.114555e+003
1.041373e+003, 3.117184e+003
1.041855e+003, 3.117879e+003
1.042338e+003, 3.113883e+003
1.042820e+003, 3.109707e+003
1.043302e+003, 3.111247e+003
1.043784e+003, 3.117447e+003
1.044266e+003, 3.120063e+003
1.044748e+003, 3.117911e+003
1.045230e+003, 3.113788e+003
1.045712e+003, 3.105353e+003
1.046195e+003, 3.097988e+003
1.046677e+003, 3.093830e+003
1.047159e+003, 3.091779e+003
1.047641e+003, 3.091725e+003
1.048123e+003, 3.093000e+003
1.048605e+003, 3.091775e+003
1.049087e+003, 3.087597e+003
1.049569e+003, 3.080928e+003
1.050052e+003, 3.069639e+003
1.050534e+003, 3.058456e+003
1.051016e+003, 3.046487e+003
1.051498e+003, 3.037856e+003
1.051980e+003, 3.039712e+003
1.052462e+003, 3.049962e+003
1.052944e+003, 3.055058e+003
1.053426e+003, 3.049485e+003
1.053908e+003, 3.045032e+003
1.054391e+003, 3.045074e+003
1.054873e+003, 3.045996e+003
1.055355e+003, 3.047525e+003
1.055837e+003, 3.047867e+003
1.056319e+003, 3.043794e+003
1.056801e+003, 3.036423e+003
1.057283e+003, 3.031750e+003
1.057765e+003, 3.031287e+003
1.058248e+003, 3.033396e+003
1.058730e+003, 3.041631e+003
1.059212e+003, 3.047763e+003
1.059694e+003, 3.047412e+003
1.060176e+003, 3.042348e+003
1.060658e+003, 3.032803e+003
1.061140e+003, 3.020524e+003
1.061622e+003, 3.011231e+003
1.062104e+003, 3.007018e+003
1.062587e+003, 3.004387e+003
1.063069e+003, 3.003233e+003
1.063551e+003, 3.002032e+003
1.064033e+003, 2.998617e+003
1.064515e+003, 2.995571e+003
1.064997e+003, 2.997305e+003
1.065479e+003, 3.002304e+003
1.065961e+003, 3.004126e+003
1.066443e+003, 3.000663e+003
1.066926e+003, 2.994794e+003
1.067408e+003, 2.982714e+003
1.067890e+003, 2.974232e+003
1.068372e+003, 2.977342e+003
1.068854e+003, 2.985654e+003
1.069336e+003, 2.993816e+003
1.069818e+003, 3.000111e+003
1.070300e+003, 3.002189e+003
1.070782e+003, 2.998554e+003
1.071265e+003, 2.994804e+003
1.071747e+003, 2.994432e+003
1.072229e+003, 2.993481e+003
1.072711e+003, 2.988815e+003
1.073193e+003, 2.982889e+003
1.073675e+003, 2.978159e+003
1.074157e+003, 2.974738e+003
1.074639e+003, 2.971807e+003
1.075122e+003, 2.969047e+003
1.075604e+003, 2.967547e+003
1.076086e+003, 2.968251e+003
1.076568e+003, 2.969844e+003
1.077050e+003, 2.973391e+003
1.077532e+003, 2.975987e+003
1.078014e+003, 2.973164e+003
1.078496e+003, 2.967153e+003
1.078979e+003, 2.964362e+003
1.079461e+003, 2.966625e+003
1.079943e+003, 2.968132e+003
1.080425e+003, 2.964102e+003
1.080907e+003, 2.961231e+003
1.081389e+003, 2.964781e+003
1.081871e+003, 2.969885e+003
1.082353e+003, 2.973076e+003
1.082835e+003, 2.973667e+003
1.083318e+003, 2.969990e+003
1.083800e+003, 2.961808e+003
1.084282e+003, 2.956855e+003
1.084764e+003, 2.960967e+003
1.085246e+003, 2.965919e+003
1.085728e+003, 2.969157e+003
1.086210e+003, 2.970058e+003
1.086692e+003, 2.964529e+003
1.087175e+003, 2.957789e+003
1.087657e+003, 2.960286e+003
1.088139e+003, 2.973163e+003
1.088621e+003, 2.984325e+003
1.089103e+003, 2.990998e+003
1.089585e+003, 2.992137e+003
1.090067e+003, 2.983063e+003
1.090549e+003, 2.972438e+003
1.091031e+003, 2.964225e+003
1.091514e+003, 2.960344e+003
1.091996e+003, 2.964408e+003
1.092478e+003, 2.975768e+003
1.092960e+003, 2.986586e+003
1.093442e+003, 2.994895e+003
1.093924e+003, 3.001062e+003
1.094406e+003, 3.007784e+003
1.094888e+003, 3.009719e+003
1.095370e+003, 2.999379e+003
1.095853e+003, 2.984830e+003
1.096335e+003, 2.976490e+003
1.096817e+003, 2.974260e+003
1.097299e+003, 2.971135e+003
1.097781e+003, 2.963831e+003
1.098263e+003, 2.959322e+003
1.098745e+003, 2.961110e+003
1.099227e+003, 2.964769e+003
1.099709e+003, 2.970000e+003
1.100192e+003, 2.974406e+003
1.100674e+003, 2.974660e+003
1.101156e+003, 2.971961e+003
1.101638e+003, 2.971193e+003
1.102120e+003, 2.974516e+003
1.102602e+003, 2.974910e+003
1.103084e+003, 2.967683e+003
1.103566e+003, 2.960973e+003
1.104049e+003, 2.959548e+003
1.104531e+003, 2.958492e+003
1.105013e+003, 2.951801e+003
1.105495e+003, 2.942465e+003
1.105977e+003, 2.937776e+003
1.106459e+003, 2.938765e+003
1.106941e+003, 2.943082e+003
1.107423e+003, 2.955319e+003
1.107906e+003, 2.963909e+003
1.108388e+003, 2.963300e+003
1.108870e+003, 2.960653e+003
1.109352e+003, 2.961280e+003
1.109834e+003, 2.962829e+003
1.110316e+003, 2.960793e+003
1.110798e+003, 2.954797e+003
1.111280e+003, 2.948543e+003
1.111762e+003, 2.940637e+003
1.112245e+003, 2.935081e+003
1.112727e+003, 2.933966e+003
1.113209e+003, 2.933471e+003
1.113691e+003, 2.932822e+003
1.114173e+003, 2.931110e+003
1.114655e+003, 2.925900e+003
1.115137e+003, 2.917720e+003
1.115619e+003, 2.913668e+003
1.116102e+003, 2.914665e+003
1.116584e+003, 2.918326e+003
1.117066e+003, 2.929416e+003
1.117548e+003, 2.935821e+003
1.118030e+003, 2.929413e+003
1.118512e+003, 2.920899e+003
1.118994e+003, 2.921436e+003
1.119476e+003, 2.928206e+003
1.119958e+003, 2.929247e+003
1.120441e+003, 2.920263e+003
1.120923e+003, 2.920099e+003
1.121405e+003, 2.935598e+003
1.121887e+003, 2.944449e+003
1.122369e+003, 2.937889e+003
1.122851e+003, 2.928948e+003
1.123333e+003, 2.927322e+003
1.123815e+003, 2.929854e+003
1.124297e+003, 2.929381e+003
1.124780e+003, 2.925549e+003
1.125262e+003, 2.923561e+003
1.125744e+003, 2.923927e+003
1.126226e+003, 2.924020e+003
1.126708e+003, 2.922650e+003
1.127190e+003, 2.923872e+003
1.127672e+003, 2.930962e+003
1.128154e+003, 2.939259e+003
1.128636e+003, 2.942135e+003
1.129119e+003, 2.939878e+003
1.129601e+003, 2.933578e+003
1.130083e+003, 2.922224e+003
1.130565e+003, 2.918439e+003
1.131047e+003, 2.924301e+003
1.131529e+003, 2.930296e+003
1.132011e+003, 2.932802e+003
1.132493e+003, 2.932454e+003
1.132976e+003, 2.929399e+003
1.133458e+003, 2.924991e+003
1.133940e+003, 2.922921e+003
1.134422e+003, 2.923143e+003
1.134904e+003, 2.926610e+003
1.135386e+003, 2.932974e+003
1.135868e+003, 2.933235e+003
1.136350e+003, 2.925140e+003
1.136833e+003, 2.918826e+003
1.137315e+003, 2.921718e+003
1.137797e+003, 2.928759e+003
1.138279e+003, 2.931153e+003
1.138761e+003, 2.930671e+003
1.139243e+003, 2.934525e+003
1.139725e+003, 2.941178e+003
1.140207e+003, 2.943325e+003
1.140689e+003, 2.940403e+003
1.141172e+003, 2.937196e+003
1.141654e+003, 2.935994e+003
1.142136e+003, 2.936090e+003
1.142618e+003, 2.937396e+003
1.143100e+003, 2.938770e+003
1.143582e+003, 2.937948e+003
1.144064e+003, 2.935853e+003
1.144546e+003, 2.933685e+003
1.145029e+003, 2.932143e+003
1.145511e+003, 2.933020e+003
1.145993e+003, 2.936548e+003
1.146475e+003, 2.940475e+003
1.146957e+003, 2.943880e+003
1.147439e+003, 2.945476e+003
1.147921e+003, 2.943007e+003
1.148403e+003, 2.938830e+003
1.148885e+003, 2.934737e+003
1.149368e+003, 2.931612e+003
1.149850e+003, 2.931390e+003
1.150332e+003, 2.933454e+003
1.150814e+003, 2.934438e+003
1.151296e+003, 2.932875e+003
1.151778e+003, 2.930712e+003
1.152260e+003, 2.928096e+003
1.152742e+003, 2.926504e+003
1.153224e+003, 2.927151e+003
1.153707e+003, 2.929181e+003
1.154189e+003, 2.932755e+003
1.154671e+003, 2.936613e+003
1.155153e+003, 2.938401e+003
1.155635e+003, 2.937655e+003
1.156117e+003, 2.935254e+003
1.156599e+003, 2.929537e+003
1.157081e+003, 2.924983e+003
1.157563e+003, 2.923165e+003
1.158046e+003, 2.922722e+003
1.158528e+003, 2.923067e+003
1.159010e+003, 2.924129e+003
1.159492e+003, 2.926215e+003
1.159974e+003, 2.929129e+003
1.160456e+003, 2.931339e+003
1.160938e+003, 2.930605e+003
1.161420e+003, 2.933292e+003
1.161903e+003, 2.944350e+003
1.162385e+003, 2.952117e+003
1.162867e+003, 2.953257e+003
1.163349e+003, 2.950027e+003
1.163831e+003, 2.942183e+003
1.164313e+003, 2.932309e+003
1.164795e+003, 2.926584e+003
1.165277e+003, 2.925034e+003
1.165760e+003, 2.927689e+003
1.166242e+003, 2.936088e+003
1.166724e+003, 2.944041e+003
1.167206e+003, 2.951066e+003
1.167688e+003, 2.955958e+003
1.168170e+003, 2.957886e+003
1.168652e+003, 2.957901e+003
1.169134e+003, 2.957343e+003
1.169616e+003, 2.956051e+003
1.170099e+003, 2.952917e+003
1.170581e+003, 2.947911e+003
1.171063e+003, 2.942596e+003
1.171545e+003, 2.937023e+003
1.172027e+003, 2.936521e+003
1.172509e+003, 2.942767e+003
1.172991e+003, 2.950444e+003
1.173473e+003, 2.955629e+003
1.173956e+003, 2.959174e+003
1.174438e+003, 2.963581e+003
1.174920e+003, 2.967291e+003
1.175402e+003, 2.963309e+003
1.175884e+003, 2.954167e+003
1.176366e+003, 2.949020e+003
1.176848e+003, 2.948787e+003
1.177330e+003, 2.950237e+003
1.177813e+003, 2.951884e+003
1.178295e+003, 2.952685e+003
1.178777e+003, 2.950302e+003
1.179259e+003, 2.948721e+003
1.179741e+003, 2.953562e+003
1.180223e+003, 2.961911e+003
1.180705e+003, 2.972913e+003
1.181187e+003, 2.982724e+003
1.181669e+003, 2.982201e+003
1.182151e+003, 2.971925e+003
1.182634e+003, 2.964278e+003
1.183116e+003, 2.966148e+003
1.183598e+003, 2.966602e+003
1.184080e+003, 2.953650e+003
1.184562e+003, 2.943629e+003
1.185044e+003, 2.951967e+003
1.185526e+003, 2.965061e+003
1.186008e+003, 2.968249e+003
1.186490e+003, 2.964292e+003
1.186973e+003, 2.962604e+003
1.187455e+003, 2.964802e+003
1.187937e+003, 2.967506e+003
1.188419e+003, 2.970966e+003
1.188901e+003, 2.973521e+003
1.189383e+003, 2.975334e+003
1.189865e+003, 2.975624e+003
1.190347e+003, 2.972400e+003
1.190830e+003, 2.968698e+003
1.191312e+003, 2.968001e+003
1.191794e+003, 2.969679e+003
1.192276e+003, 2.970616e+003
1.192758e+003, 2.970634e+003
1.193240e+003, 2.970522e+003
1.193722e+003, 2.970285e+003
1.194204e+003, 2.969945e+003
1.194687e+003, 2.969549e+003
1.195169e+003, 2.968867e+003
1.195651e+003, 2.967564e+003
1.196133e+003, 2.966456e+003
1.196615e+003, 2.966951e+003
1.197097e+003, 2.968766e+003
1.197579e+003, 2.969628e+003
1.198061e+003, 2.969734e+003
1.198543e+003, 2.973741e+003
1.199026e+003, 2.981664e+003
1.199508e+003, 2.986912e+003
1.199990e+003, 2.987290e+003
1.200472e+003, 2.985224e+003
1.200954e+003, 2.982212e+003
1.201436e+003, 2.979838e+003
1.201918e+003, 2.981559e+003
1.202400e+003, 2.985023e+003
1.202883e+003, 2.984639e+003
1.203365e+003, 2.982410e+003
1.203847e+003, 2.982916e+003
1.204329e+003, 2.986610e+003
1.204811e+003, 2.993798e+003
1.205293e+003, 3.004188e+003
1.205775e+003, 3.008989e+003
1.206257e+003, 2.998029e+003
1.206740e+003, 2.985155e+003
1.207222e+003, 2.978717e+003
1.207704e+003, 2.976541e+003
1.208186e+003, 2.978741e+003
1.208668e+003, 2.982633e+003
1.209150e+003, 2.984767e+003
1.209632e+003, 2.985017e+003
1.210114e+003, 2.985102e+003
1.210596e+003, 2.985360e+003
1.211078e+003, 2.985607e+003
1.211561e+003, 2.985866e+003
1.212043e+003, 2.986012e+003
1.212525e+003, 2.985112e+003
1.213007e+003, 2.985021e+003
1.213489e+003, 2.986630e+003
1.213971e+003, 2.989989e+003
1.214453e+003, 2.996393e+003
1.214935e+003, 3.005327e+003
1.215417e+003, 3.007008e+003
1.215900e+003, 2.998456e+003
1.216382e+003, 2.994195e+003
1.216864e+003, 2.996008e+003
1.217346e+003, 2.997549e+003
1.217828e+003, 2.996722e+003
1.218310e+003, 2.995865e+003
1.218792e+003, 2.996834e+003
1.219274e+003, 2.998608e+003
1.219757e+003, 2.999016e+003
1.220239e+003, 2.998634e+003
1.220721e+003, 3.000262e+003
1.221203e+003, 3.003631e+003
1.221685e+003, 3.008703e+003
1.222167e+003, 3.014357e+003
1.222649e+003, 3.013584e+003
1.223131e+003, 3.004816e+003
1.223614e+003, 2.998779e+003
1.224096e+003, 3.004263e+003
1.224578e+003, 3.013840e+003
1.225060e+003, 3.019048e+003
1.225542e+003, 3.023995e+003
1.226024e+003, 3.037379e+003
1.226506e+003, 3.051555e+003
1.226988e+003, 3.053528e+003
1.227470e+003, 3.045050e+003
1.227953e+003, 3.035305e+003
1.228435e+003, 3.026750e+003
1.228917e+003, 3.019773e+003
1.229399e+003, 3.014313e+003
1.229881e+003, 3.010802e+003
1.230363e+003, 3.009270e+003
1.230845e+003, 3.009787e+003
1.231327e+003, 3.013460e+003
1.231810e+003, 3.018404e+003
1.232292e+003, 3.023348e+003
1.232774e+003, 3.027667e+003
1.233256e+003, 3.028660e+003
1.233738e+003, 3.025138e+003
1.234220e+003, 3.023347e+003
1.234702e+003, 3.023504e+003
1.235184e+003, 3.024858e+003
1.235667e+003, 3.027590e+003
1.236149e+003, 3.030391e+003
1.236631e+003, 3.032681e+003
1.237113e+003, 3.034397e+003
1.237595e+003, 3.035684e+003
1.238077e+003, 3.035951e+003
1.238559e+003, 3.032456e+003
1.239041e+003, 3.026274e+003
1.239523e+003, 3.022801e+003
1.240005e+003, 3.021940e+003
1.240488e+003, 3.022703e+003
1.240970e+003, 3.024302e+003
1.241452e+003, 3.023597e+003
1.241934e+003, 3.018999e+003
1.242416e+003, 3.014854e+003
1.242898e+003, 3.014224e+003
1.243380e+003, 3.017013e+003
1.243862e+003, 3.026089e+003
1.244344e+003, 3.035960e+003
1.244827e+003, 3.040544e+003
1.245309e+003, 3.041295e+003
1.245791e+003, 3.040062e+003
1.246273e+003, 3.038174e+003
1.246755e+003, 3.040121e+003
1.247237e+003, 3.049807e+003
1.247719e+003, 3.053688e+003
1.248201e+003, 3.042105e+003
1.248684e+003, 3.033653e+003
1.249166e+003, 3.036838e+003
1.249648e+003, 3.041074e+003
1.250130e+003, 3.038825e+003
1.250612e+003, 3.035999e+003
1.251094e+003, 3.041664e+003
1.251576e+003, 3.053851e+003
1.252058e+003, 3.058881e+003
1.252541e+003, 3.055180e+003
1.253023e+003, 3.056926e+003
1.253505e+003, 3.065308e+003
1.253987e+003, 3.068902e+003
1.254469e+003, 3.065000e+003
1.254951e+003, 3.057719e+003
1.255433e+003, 3.049094e+003
1.255915e+003, 3.044118e+003
1.256397e+003, 3.050525e+003
1.256880e+003, 3.062358e+003
1.257362e+003, 3.068853e+003
1.257844e+003, 3.071521e+003
1.258326e+003, 3.072360e+003
1.258808e+003, 3.072267e+003
1.259290e+003, 3.072684e+003
1.259772e+003, 3.073738e+003
1.260254e+003, 3.074468e+003
1.260737e+003, 3.074412e+003
1.261219e+003, 3.074677e+003
1.261701e+003, 3.076480e+003
1.262183e+003, 3.077917e+003
1.262665e+003, 3.074722e+003
1.263147e+003, 3.074380e+003
1.263629e+003, 3.085848e+003
1.264111e+003, 3.101273e+003
1.264594e+003, 3.109362e+003
1.265076e+003, 3.110884e+003
1.265558e+003, 3.112702e+003
1.266040e+003, 3.115905e+003
1.266522e+003, 3.114747e+003
1.267004e+003, 3.106975e+003
1.267486e+003, 3.103199e+003
1.267968e+003, 3.106354e+003
1.268450e+003, 3.109053e+003
1.268932e+003, 3.107407e+003
1.269415e+003, 3.104814e+003
1.269897e+003, 3.105614e+003
1.270379e+003, 3.107041e+003
1.270861e+003, 3.098686e+003
1.271343e+003, 3.086578e+003
1.271825e+003, 3.092441e+003
1.272307e+003, 3.110309e+003
1.272789e+003, 3.120799e+003
1.273271e+003, 3.121641e+003
1.273754e+003, 3.118920e+003
1.274236e+003, 3.115151e+003
1.274718e+003, 3.114099e+003
1.275200e+003, 3.121951e+003
1.275682e+003, 3.127740e+003
1.276164e+003, 3.120895e+003
1.276646e+003, 3.114164e+003
1.277128e+003, 3.117772e+003
1.277611e+003, 3.125795e+003
1.278093e+003, 3.132953e+003
1.278575e+003, 3.138033e+003
1.279057e+003, 3.137498e+003
1.279539e+003, 3.130170e+003
1.280021e+003, 3.128408e+003
1.280503e+003, 3.133777e+003
1.280985e+003, 3.138387e+003
1.281468e+003, 3.141997e+003
1.281950e+003, 3.146881e+003
1.282432e+003, 3.154254e+003
1.282914e+003, 3.160042e+003
1.283396e+003, 3.160463e+003
1.283878e+003, 3.159359e+003
1.284360e+003, 3.165098e+003
1.284842e+003, 3.173085e+003
1.285324e+003, 3.170919e+003
##END=



