##NAMES=Glaucophane
##RRUFFID=R050333
##IDEAL CHEMISTRY=[box]Na_2_(Mg_3_Al_2_)Si_8_O_22_(OH)_2_
##LOCALITY=Cazadero, Sonoma County, California, USA
##OWNER=RRUFF
##SOURCE=California Institute of Technology
##DESCRIPTION=Blackish-blue fibrous aggregate
##STATUS=The identification of this mineral has been confirmed by X-ray diffraction and chemical analysis
##URL=rruff.info/R050333
##MEASURED CHEMISTRY=[box](Na_1.96_Ca_0.02_[box]_0.02_)_Σ=2_(Mg_1.89_Fe^2+^_1.08_Mn_0.03_)_Σ=3_(Al_1.52_Fe^3+^_0.48_)_Σ=2_Si_8.00_O_22_(OH)_2_
92.04132, 0.0000000E+00
92.52344, 595.2957
93.00555, 590.5236
93.48767, 591.5803
93.96979, 612.3184
94.45190, 632.0089
94.93402, 647.2342
95.41614, 651.6273
95.89825, 650.0804
96.38037, 648.7220
96.86249, 646.9684
97.34460, 643.2233
97.82672, 636.3176
98.30884, 630.5408
98.79095, 627.3914
99.27307, 625.1033
99.75519, 621.4492
100.2373, 617.2269
100.7194, 612.8327
101.2015, 608.1334
101.6837, 601.9721
102.1658, 596.0743
102.6479, 591.8018
103.1300, 589.1869
103.6121, 587.2010
104.0942, 585.1249
104.5764, 583.0464
105.0585, 581.2621
105.5406, 579.8223
106.0227, 578.6904
106.5048, 577.9421
106.9869, 578.1471
107.4691, 577.5057
107.9512, 574.2929
108.4333, 569.4749
108.9154, 565.4700
109.3975, 564.6805
109.8796, 567.7253
110.3617, 569.7849
110.8439, 569.8569
111.3260, 569.7624
111.8081, 570.3320
112.2902, 571.6281
112.7723, 573.1487
113.2544, 574.1993
113.7366, 574.5745
114.2187, 574.7784
114.7008, 574.6868
115.1829, 574.4935
115.6650, 574.2568
116.1471, 573.9881
116.6293, 573.8961
117.1114, 574.6389
117.5935, 577.0329
118.0756, 578.6382
118.5577, 578.2833
119.0398, 576.6543
119.5220, 575.4731
120.0041, 575.7632
120.4862, 576.7457
120.9683, 576.7875
121.4504, 575.9091
121.9325, 574.1174
122.4147, 571.2692
122.8968, 567.3145
123.3789, 562.8615
123.8610, 557.5418
124.3431, 552.0859
124.8252, 547.1921
125.3074, 543.0504
125.7895, 539.6124
126.2716, 536.7711
126.7537, 534.5105
127.2358, 533.0314
127.7179, 532.6453
128.2001, 532.8541
128.6822, 532.9869
129.1643, 532.5963
129.6464, 531.7451
130.1285, 531.2520
130.6106, 531.3641
131.0928, 531.6348
131.5749, 532.3842
132.0570, 533.2651
132.5391, 533.5338
133.0212, 532.4274
133.5033, 529.6129
133.9855, 527.7213
134.4676, 526.8238
134.9497, 526.5668
135.4318, 526.9952
135.9139, 528.0179
136.3960, 529.1711
136.8782, 529.8870
137.3603, 530.0321
137.8424, 530.4908
138.3245, 531.7787
138.8066, 533.2242
139.2887, 533.9314
139.7709, 533.5981
140.2530, 532.9257
140.7351, 532.6873
141.2172, 532.8231
141.6993, 533.3002
142.1814, 534.4838
142.6636, 536.0914
143.1457, 537.0156
143.6278, 536.5919
144.1099, 535.8633
144.5920, 535.7100
145.0741, 536.1456
145.5563, 536.8074
146.0384, 537.3088
146.5205, 537.5838
147.0026, 538.2631
147.4847, 540.1808
147.9668, 542.0754
148.4490, 543.2462
148.9311, 543.5453
149.4132, 543.3118
149.8953, 542.8759
150.3774, 541.5784
150.8595, 541.5495
151.3417, 543.9506
151.8238, 546.8705
152.3059, 548.6871
152.7880, 548.8033
153.2701, 547.9212
153.7522, 547.8085
154.2344, 549.3878
154.7165, 550.7592
155.1986, 551.3456
155.6807, 551.8213
156.1628, 553.1307
156.6449, 555.7889
157.1271, 559.4399
157.6092, 562.6428
158.0913, 565.1382
158.5734, 567.6024
159.0555, 570.2506
159.5376, 573.0128
160.0198, 575.7880
160.5019, 578.6996
160.9840, 581.4263
161.4661, 583.0537
161.9482, 583.2826
162.4303, 582.8172
162.9125, 581.6648
163.3946, 579.8741
163.8767, 578.6809
164.3588, 578.9426
164.8409, 580.3139
165.3230, 582.2355
165.8052, 584.8812
166.2873, 587.8016
166.7694, 590.2528
167.2515, 592.0120
167.7336, 594.1141
168.2157, 597.0113
168.6979, 600.5351
169.1800, 604.6913
169.6621, 609.7548
170.1442, 615.2607
170.6263, 619.8908
171.1084, 623.2076
171.5906, 626.2569
172.0727, 629.3589
172.5548, 632.4678
173.0369, 635.4813
173.5190, 638.2806
174.0011, 640.9354
174.4833, 644.0339
174.9654, 648.0550
175.4475, 652.1052
175.9296, 656.4548
176.4117, 660.6783
176.8938, 664.3124
177.3760, 667.1729
177.8581, 669.3172
178.3402, 668.1995
178.8223, 663.4661
179.3044, 656.3320
179.7865, 646.4630
180.2687, 634.3763
180.7508, 621.0496
181.2329, 607.0633
181.7150, 592.2027
182.1971, 580.0213
182.6792, 571.1348
183.1614, 563.9514
183.6435, 557.6874
184.1256, 552.2839
184.6077, 547.9766
185.0898, 545.1220
185.5719, 543.8895
186.0540, 542.9151
186.5362, 542.0799
187.0183, 541.5500
187.5004, 541.5719
187.9825, 542.1884
188.4646, 542.9948
188.9467, 543.4517
189.4289, 543.7317
189.9110, 544.6703
190.3931, 546.9710
190.8752, 549.8868
191.3573, 552.2756
191.8394, 553.9630
192.3216, 555.3840
192.8037, 556.6138
193.2858, 557.8066
193.7679, 559.3898
194.2500, 562.0965
194.7321, 565.3978
195.2143, 567.5197
195.6964, 567.8203
196.1785, 567.8135
196.6606, 568.1353
197.1427, 568.8104
197.6248, 569.8992
198.1070, 571.4750
198.5891, 573.5167
199.0712, 575.8973
199.5533, 579.5279
200.0354, 582.4267
200.5175, 583.2604
200.9997, 582.7377
201.4818, 582.4202
201.9639, 583.5190
202.4460, 586.0548
202.9281, 588.9555
203.4102, 592.2207
203.8924, 595.8747
204.3745, 600.4385
204.8566, 605.4995
205.3387, 609.9838
205.8208, 612.8289
206.3029, 613.7764
206.7851, 615.6391
207.2672, 619.8443
207.7493, 623.5510
208.2314, 625.3491
208.7135, 625.5104
209.1956, 625.3269
209.6778, 626.0846
210.1599, 628.1119
210.6420, 628.2258
211.1241, 626.5397
211.6062, 623.2986
212.0883, 618.0430
212.5705, 611.1131
213.0526, 603.7221
213.5347, 596.9067
214.0168, 590.7639
214.4989, 584.3243
214.9810, 577.3302
215.4632, 570.2508
215.9453, 563.0969
216.4274, 555.9559
216.9095, 549.5054
217.3916, 544.4533
217.8737, 540.8704
218.3559, 537.3064
218.8380, 533.2753
219.3201, 529.5253
219.8022, 526.9553
220.2843, 525.6315
220.7664, 524.2847
221.2486, 521.4781
221.7307, 517.7106
222.2128, 515.2206
222.6949, 515.3210
223.1770, 516.3293
223.6591, 516.3810
224.1413, 515.3389
224.6234, 513.9306
225.1055, 512.3600
225.5876, 510.8068
226.0697, 509.6755
226.5518, 509.5059
227.0340, 509.5929
227.5161, 508.7769
227.9982, 506.8011
228.4803, 504.8021
228.9624, 503.4130
229.4445, 502.4166
229.9267, 501.5244
230.4088, 500.4804
230.8909, 499.6233
231.3730, 499.9234
231.8551, 502.1692
232.3372, 503.5362
232.8194, 502.0580
233.3015, 499.3828
233.7836, 497.4244
234.2657, 497.0876
234.7478, 497.7284
235.2299, 497.7948
235.7121, 496.6885
236.1942, 496.2595
236.6763, 497.7268
237.1584, 499.7735
237.6405, 500.9892
238.1227, 500.7279
238.6048, 499.4706
239.0869, 498.3852
239.5690, 497.3717
240.0511, 496.7501
240.5332, 496.8400
241.0154, 497.1663
241.4975, 497.2536
241.9796, 496.8973
242.4617, 496.2590
242.9438, 495.7154
243.4259, 495.1023
243.9081, 494.8904
244.3902, 495.2557
244.8723, 495.9335
245.3544, 496.7400
245.8365, 497.5982
246.3186, 498.4316
246.8007, 499.0638
247.2829, 499.2771
247.7650, 499.5893
248.2471, 500.2722
248.7292, 500.9308
249.2113, 501.1516
249.6934, 500.8048
250.1756, 500.1371
250.6577, 499.6387
251.1398, 499.6461
251.6219, 499.3144
252.1040, 498.3747
252.5861, 497.2561
253.0683, 496.2119
253.5504, 495.3515
254.0325, 494.8456
254.5146, 495.0404
254.9967, 496.7944
255.4788, 497.6138
255.9610, 497.1144
256.4431, 495.9260
256.9252, 494.4550
257.4073, 492.8277
257.8894, 491.1761
258.3716, 489.6650
258.8537, 488.3280
259.3358, 487.1120
259.8179, 485.9737
260.3000, 484.9788
260.7821, 484.2789
261.2643, 483.8767
261.7464, 483.4673
262.2285, 482.6730
262.7106, 481.3575
263.1927, 480.3057
263.6748, 479.6880
264.1570, 479.2354
264.6391, 478.5905
265.1212, 477.7455
265.6033, 477.2752
266.0854, 478.0492
266.5675, 480.0891
267.0497, 480.6265
267.5318, 477.9864
268.0139, 474.9402
268.4960, 473.8758
268.9781, 474.8597
269.4602, 476.1621
269.9424, 476.6240
270.4245, 476.2423
270.9066, 475.5915
271.3887, 474.3456
271.8708, 473.0891
272.3529, 472.1923
272.8351, 471.6622
273.3172, 471.5412
273.7993, 472.0868
274.2814, 473.0185
274.7635, 473.4184
275.2456, 472.8426
275.7278, 472.2104
276.2099, 472.3728
276.6920, 473.2029
277.1741, 473.5966
277.6562, 472.7610
278.1383, 471.3327
278.6204, 470.6331
279.1025, 470.7989
279.5847, 471.3765
280.0668, 472.1715
280.5489, 473.1610
281.0310, 474.2679
281.5131, 475.7603
281.9952, 477.0121
282.4774, 477.0815
282.9595, 475.7624
283.4416, 474.4958
283.9237, 474.2378
284.4058, 474.7791
284.8879, 475.2321
285.3701, 475.3144
285.8522, 475.3448
286.3343, 475.7357
286.8164, 476.4653
287.2985, 477.0567
287.7806, 477.0632
288.2628, 476.7079
288.7449, 476.7893
289.2270, 477.6525
289.7091, 478.5362
290.1912, 478.6733
290.6733, 478.2669
291.1555, 478.0558
291.6376, 478.5912
292.1197, 479.5447
292.6018, 480.1471
293.0839, 480.3095
293.5660, 480.2325
294.0482, 479.9688
294.5303, 479.5816
295.0124, 479.1567
295.4945, 478.6052
295.9766, 478.1044
296.4587, 477.9727
296.9409, 478.2413
297.4230, 478.7805
297.9051, 479.9042
298.3872, 481.1513
298.8693, 481.9400
299.3514, 482.0174
299.8336, 481.7283
300.3157, 481.3994
300.7978, 480.9663
301.2799, 480.8871
301.7620, 481.9249
302.2441, 483.0919
302.7263, 483.3522
303.2084, 482.3900
303.6905, 481.2946
304.1726, 481.3315
304.6547, 482.5601
305.1368, 483.4956
305.6190, 483.7687
306.1011, 483.6016
306.5832, 483.0938
307.0653, 482.2663
307.5474, 481.3387
308.0295, 480.4123
308.5117, 479.5029
308.9938, 478.8043
309.4759, 478.5771
309.9580, 478.2876
310.4401, 477.5909
310.9222, 476.5416
311.4044, 475.3594
311.8865, 473.9752
312.3686, 472.5265
312.8507, 471.6129
313.3328, 471.3601
313.8149, 471.4762
314.2971, 472.1304
314.7792, 472.9660
315.2613, 473.2605
315.7434, 472.3282
316.2255, 470.8859
316.7076, 470.6666
317.1898, 472.2111
317.6719, 473.4620
318.1540, 473.2692
318.6361, 472.4033
319.1182, 471.6463
319.6003, 471.2457
320.0825, 470.9697
320.5646, 470.3348
321.0467, 469.1865
321.5288, 468.6883
322.0109, 470.3009
322.4930, 472.0403
322.9752, 471.8672
323.4573, 469.4130
323.9394, 467.2426
324.4215, 468.4691
324.9036, 472.9897
325.3857, 475.8387
325.8679, 475.0853
326.3500, 473.4127
326.8321, 472.5456
327.3142, 472.4932
327.7963, 472.9120
328.2784, 473.8458
328.7606, 475.1409
329.2427, 476.0467
329.7248, 476.4467
330.2069, 476.5687
330.6890, 476.4296
331.1711, 476.1496
331.6533, 475.9846
332.1354, 476.0924
332.6175, 476.3661
333.0996, 476.6254
333.5817, 476.9077
334.0638, 477.0540
334.5460, 476.6386
335.0281, 476.1591
335.5102, 476.3823
335.9923, 477.8748
336.4744, 479.2634
336.9565, 478.6398
337.4387, 475.8708
337.9208, 473.3933
338.4029, 472.0934
338.8850, 471.3927
339.3671, 470.8514
339.8492, 470.4593
340.3314, 469.8687
340.8135, 468.6475
341.2956, 466.9139
341.7777, 465.4591
342.2598, 464.4165
342.7419, 463.7195
343.2241, 463.3575
343.7062, 463.2765
344.1883, 463.2294
344.6704, 463.4189
345.1525, 463.5103
345.6346, 462.4882
346.1168, 459.8683
346.5989, 457.5387
347.0810, 457.3590
347.5631, 458.3880
348.0452, 459.0690
348.5273, 459.0554
349.0095, 458.4876
349.4916, 457.2547
349.9737, 455.3405
350.4558, 453.7731
350.9379, 453.2074
351.4200, 453.1982
351.9022, 452.9957
352.3843, 452.5323
352.8664, 451.9786
353.3485, 451.4572
353.8306, 450.9435
354.3127, 450.2716
354.7949, 449.2293
355.2770, 448.2941
355.7591, 448.1541
356.2412, 448.7793
356.7233, 449.4303
357.2054, 449.9135
357.6876, 450.2355
358.1697, 450.3068
358.6518, 450.0642
359.1339, 449.9361
359.6160, 450.3366
360.0981, 451.1999
360.5803, 452.1378
361.0624, 453.3486
361.5445, 454.4345
362.0266, 454.8477
362.5087, 454.6973
362.9908, 454.8592
363.4730, 455.9047
363.9551, 457.5635
364.4372, 458.9229
364.9193, 459.5204
365.4014, 460.5826
365.8835, 462.9345
366.3657, 466.0667
366.8478, 469.0337
367.3299, 471.5453
367.8120, 473.6552
368.2941, 475.4072
368.7762, 476.7721
369.2584, 477.9434
369.7405, 478.4683
370.2226, 479.0807
370.7047, 480.8256
371.1868, 483.7390
371.6689, 486.4231
372.1511, 487.5067
372.6332, 486.8983
373.1153, 487.1068
373.5974, 487.9951
374.0795, 489.7334
374.5616, 493.1150
375.0438, 497.4567
375.5259, 501.0056
376.0080, 502.6657
376.4901, 503.1317
376.9722, 504.8682
377.4543, 509.4166
377.9365, 513.2170
378.4186, 515.4296
378.9007, 516.9326
379.3828, 518.5718
379.8649, 520.6075
380.3470, 522.9540
380.8292, 525.5412
381.3113, 528.6155
381.7934, 531.1777
382.2755, 532.7420
382.7576, 534.2890
383.2397, 536.8881
383.7219, 540.1013
384.2040, 542.4651
384.6861, 542.8507
385.1682, 541.3149
385.6503, 538.6272
386.1324, 533.8923
386.6146, 528.9400
387.0967, 523.7739
387.5788, 518.6984
388.0609, 514.1147
388.5430, 510.2061
389.0251, 506.6192
389.5073, 502.5070
389.9894, 497.1275
390.4715, 492.8112
390.9536, 489.8512
391.4357, 487.6783
391.9178, 486.2264
392.4000, 485.3069
392.8821, 484.3791
393.3642, 482.8863
393.8463, 480.8038
394.3284, 478.8179
394.8105, 476.8941
395.2927, 475.0993
395.7748, 473.3339
396.2569, 471.7296
396.7390, 470.5678
397.2211, 470.1098
397.7032, 469.9161
398.1854, 468.9335
398.6675, 466.8804
399.1496, 464.8858
399.6317, 462.9075
400.1138, 461.3219
400.5959, 460.5397
401.0780, 460.6206
401.5602, 461.1059
402.0423, 461.7556
402.5244, 462.5312
403.0065, 463.0231
403.4886, 463.2292
403.9707, 463.0414
404.4529, 462.2231
404.9350, 460.9771
405.4171, 459.8609
405.8992, 459.0401
406.3813, 458.5273
406.8634, 458.4576
407.3456, 458.8882
407.8277, 459.2251
408.3098, 459.1205
408.7919, 458.7628
409.2740, 458.5533
409.7561, 458.6944
410.2383, 458.5073
410.7204, 457.1133
411.2025, 455.0314
411.6846, 453.9499
412.1667, 454.5536
412.6488, 455.5004
413.1310, 455.0822
413.6131, 453.3602
414.0952, 451.5031
414.5773, 449.5011
415.0594, 447.5883
415.5415, 446.1094
416.0237, 445.0188
416.5058, 443.8179
416.9879, 442.1260
417.4700, 440.0707
417.9521, 438.3538
418.4342, 437.1055
418.9164, 435.9710
419.3985, 434.8292
419.8806, 433.7467
420.3627, 432.8489
420.8448, 432.1711
421.3269, 431.6248
421.8091, 431.1115
422.2912, 430.7657
422.7733, 430.0174
423.2554, 428.7433
423.7375, 427.2151
424.2196, 425.2159
424.7018, 423.0532
425.1839, 421.5912
425.6660, 421.5435
426.1481, 422.6452
426.6302, 423.0639
427.1123, 421.8908
427.5945, 421.1299
428.0766, 421.3856
428.5587, 421.9806
429.0408, 422.1601
429.5229, 421.7219
430.0050, 421.1299
430.4872, 421.1344
430.9693, 421.9904
431.4514, 422.3828
431.9335, 421.9096
432.4156, 421.2773
432.8977, 420.5422
433.3799, 419.8643
433.8620, 419.5858
434.3441, 420.0787
434.8262, 420.9912
435.3083, 421.2368
435.7904, 420.5565
436.2726, 419.9217
436.7547, 419.7914
437.2368, 419.8013
437.7189, 419.5510
438.2010, 418.9370
438.6831, 418.4816
439.1653, 418.8809
439.6474, 419.9170
440.1295, 420.2943
440.6116, 419.4649
441.0937, 418.6259
441.5758, 419.0553
442.0580, 420.3530
442.5401, 421.3136
443.0222, 421.3694
443.5043, 421.0983
443.9864, 421.2614
444.4685, 421.7603
444.9507, 421.6359
445.4328, 420.2645
445.9149, 418.1646
446.3970, 416.4565
446.8791, 415.0365
447.3612, 414.1673
447.8434, 414.3664
448.3255, 414.9514
448.8076, 415.0788
449.2897, 414.6115
449.7718, 413.9289
450.2539, 413.4051
450.7361, 413.0568
451.2182, 412.3833
451.7003, 410.8154
452.1824, 409.5933
452.6645, 409.5015
453.1466, 409.9852
453.6288, 410.0893
454.1109, 409.3940
454.5930, 408.2391
455.0751, 407.2769
455.5572, 406.5129
456.0393, 405.9515
456.5215, 405.6442
457.0036, 405.4565
457.4857, 405.2554
457.9678, 405.0871
458.4499, 405.1590
458.9320, 405.7251
459.4142, 406.6306
459.8963, 406.9101
460.3784, 406.0918
460.8605, 405.4836
461.3426, 405.7036
461.8247, 406.1253
462.3069, 406.0172
462.7890, 405.1996
463.2711, 404.4121
463.7532, 404.7666
464.2353, 406.1250
464.7174, 406.3188
465.1996, 404.3734
465.6817, 402.3995
466.1638, 402.1224
466.6459, 402.9761
467.1280, 403.5540
467.6101, 403.1146
468.0923, 402.4485
468.5744, 402.4345
469.0565, 403.0196
469.5386, 403.7361
470.0207, 404.5363
470.5028, 405.1972
470.9850, 405.2231
471.4671, 404.5118
471.9492, 403.9101
472.4313, 403.6901
472.9134, 403.6477
473.3955, 403.4710
473.8777, 403.1776
474.3598, 403.2001
474.8419, 403.9593
475.3240, 405.3425
475.8061, 406.1941
476.2882, 406.1819
476.7704, 406.1370
477.2525, 406.3128
477.7346, 406.5074
478.2167, 406.4757
478.6988, 406.1524
479.1809, 405.6208
479.6631, 404.8690
480.1452, 403.6884
480.6273, 403.3976
481.1094, 405.0185
481.5915, 406.4844
482.0736, 407.0635
482.5558, 407.0282
483.0379, 406.9507
483.5200, 407.1223
484.0021, 407.2933
484.4842, 406.8414
484.9663, 405.5186
485.4485, 404.7013
485.9306, 404.7199
486.4127, 405.3114
486.8948, 406.7284
487.3769, 408.7325
487.8590, 410.1405
488.3412, 409.8247
488.8233, 408.6019
489.3054, 408.1438
489.7875, 408.5546
490.2696, 408.8455
490.7517, 408.4689
491.2339, 407.6733
491.7160, 407.0655
492.1981, 406.8394
492.6802, 406.2462
493.1623, 404.4326
493.6444, 402.2592
494.1266, 401.2001
494.6087, 401.4743
495.0908, 401.9120
495.5729, 401.4536
496.0550, 400.1093
496.5371, 399.0537
497.0193, 398.2324
497.5014, 397.7112
497.9835, 397.4926
498.4656, 397.5901
498.9477, 398.2076
499.4298, 399.3613
499.9120, 400.4877
500.3941, 400.7025
500.8762, 399.7040
501.3583, 398.9930
501.8404, 398.7744
502.3225, 398.6365
502.8047, 398.3465
503.2868, 398.0476
503.7689, 398.0726
504.2510, 398.6328
504.7331, 399.3837
505.2152, 399.6774
505.6974, 399.4509
506.1795, 399.1592
506.6616, 398.7885
507.1437, 398.4856
507.6258, 398.4079
508.1079, 398.5137
508.5901, 398.5723
509.0722, 398.2207
509.5543, 397.8834
510.0364, 398.4086
510.5185, 399.7798
511.0006, 400.7535
511.4828, 400.5252
511.9649, 399.7460
512.4470, 399.9069
512.9291, 401.3675
513.4112, 402.3743
513.8933, 401.9901
514.3754, 401.2259
514.8575, 401.1430
515.3397, 401.8038
515.8218, 402.6989
516.3039, 403.4992
516.7860, 404.1828
517.2681, 404.5826
517.7502, 404.6308
518.2324, 404.4606
518.7145, 403.7439
519.1966, 403.0148
519.6787, 402.8373
520.1608, 403.2607
520.6429, 403.8613
521.1251, 404.2653
521.6072, 404.4728
522.0893, 404.3755
522.5714, 403.5258
523.0535, 403.1007
523.5356, 403.6877
524.0178, 404.7717
524.4999, 405.8247
524.9820, 406.7280
525.4641, 407.4553
525.9462, 408.0709
526.4283, 408.5145
526.9105, 408.4013
527.3926, 407.4799
527.8747, 406.6023
528.3568, 406.5501
528.8389, 407.1002
529.3210, 407.4682
529.8032, 407.4332
530.2853, 407.3680
530.7674, 407.3962
531.2495, 407.5505
531.7316, 407.9894
532.2137, 408.7660
532.6959, 409.5103
533.1780, 409.7403
533.6601, 409.3512
534.1422, 409.0837
534.6243, 408.9365
535.1064, 408.8858
535.5886, 408.7693
536.0707, 408.7867
536.5528, 409.4157
537.0349, 410.8156
537.5170, 412.3150
537.9991, 412.7491
538.4813, 411.8980
538.9634, 411.1038
539.4455, 410.1378
539.9276, 409.5761
540.4097, 409.8940
540.8918, 410.7688
541.3740, 411.5594
541.8561, 411.9974
542.3382, 412.2914
542.8203, 412.6522
543.3024, 413.0806
543.7845, 413.6324
544.2667, 414.4293
544.7488, 415.1356
545.2309, 415.1917
545.7130, 414.6924
546.1951, 414.5955
546.6772, 415.4576
547.1594, 416.3784
547.6415, 416.7218
548.1236, 416.6553
548.6057, 416.6157
549.0878, 416.7735
549.5699, 417.1017
550.0521, 417.6007
550.5342, 418.4723
551.0163, 418.8758
551.4984, 418.5121
551.9805, 418.0624
552.4626, 417.7875
552.9448, 417.6523
553.4269, 417.5663
553.9090, 417.4951
554.3911, 417.3630
554.8732, 417.0652
555.3553, 416.6116
555.8375, 415.8597
556.3196, 414.3470
556.8017, 413.0533
557.2838, 412.8613
557.7659, 413.3697
558.2480, 413.4585
558.7302, 412.6962
559.2123, 411.3920
559.6944, 409.4490
560.1765, 407.1226
560.6586, 405.8237
561.1407, 406.2696
561.6229, 406.8875
562.1050, 405.5024
562.5871, 401.6785
563.0692, 398.9785
563.5513, 398.3817
564.0334, 397.9804
564.5156, 396.8170
564.9977, 395.1626
565.4798, 393.5494
565.9619, 392.1983
566.4440, 391.0553
566.9261, 390.0414
567.4083, 389.1605
567.8904, 388.3892
568.3725, 387.8319
568.8546, 387.2781
569.3367, 386.5234
569.8188, 385.7568
570.3010, 385.3688
570.7831, 385.5705
571.2652, 385.8104
571.7473, 385.4092
572.2294, 384.4325
572.7115, 383.3520
573.1937, 382.1730
573.6758, 381.0808
574.1579, 380.0690
574.6400, 379.2578
575.1221, 379.1354
575.6042, 380.4953
576.0864, 381.7052
576.5685, 381.9728
577.0506, 381.5521
577.5327, 380.6753
578.0148, 379.4473
578.4969, 378.3653
578.9791, 378.0374
579.4612, 378.5151
579.9433, 378.4696
580.4254, 376.9698
580.9075, 376.0471
581.3896, 376.6114
581.8718, 377.6554
582.3539, 378.0181
582.8360, 377.4701
583.3181, 376.7283
583.8002, 376.5656
584.2823, 376.8776
584.7645, 376.8381
585.2466, 376.2829
585.7287, 375.8425
586.2108, 376.1138
586.6929, 376.5419
587.1750, 376.2509
587.6572, 375.0054
588.1393, 373.8012
588.6214, 373.0432
589.1035, 372.6076
589.5856, 372.4743
590.0677, 372.5793
590.5499, 372.5262
591.0320, 372.0359
591.5141, 371.2271
591.9962, 370.5436
592.4783, 369.9707
592.9604, 369.5701
593.4426, 369.7223
593.9247, 369.7378
594.4068, 368.8921
594.8889, 367.4402
595.3710, 366.3009
595.8531, 366.1255
596.3353, 366.5302
596.8174, 366.5513
597.2995, 366.0735
597.7816, 365.9118
598.2637, 366.5359
598.7458, 367.2218
599.2280, 367.4234
599.7101, 367.1673
600.1922, 366.5999
600.6743, 365.2382
601.1564, 364.0366
601.6385, 364.1317
602.1207, 365.0616
602.6028, 363.8895
603.0849, 365.2657
603.5670, 365.8646
604.0491, 365.7295
604.5313, 362.5670
605.0134, 363.3863
605.4955, 362.6543
605.9776, 361.8891
606.4597, 363.3594
606.9418, 360.8005
607.4240, 362.2992
607.9061, 362.2226
608.3882, 362.9131
608.8703, 362.0427
609.3524, 361.6959
609.8345, 362.9740
610.3167, 363.4017
610.7988, 362.4746
611.2809, 360.0915
611.7630, 358.2711
612.2451, 357.9881
612.7272, 359.8392
613.2094, 361.1244
613.6915, 360.0066
614.1736, 357.9856
614.6557, 356.9522
615.1378, 356.9607
615.6199, 357.1389
616.1021, 356.9611
616.5842, 357.0634
617.0663, 356.4721
617.5484, 356.9919
618.0305, 357.1414
618.5126, 356.8881
618.9948, 356.3297
619.4769, 355.2155
619.9590, 353.8613
620.4411, 352.9875
620.9232, 353.0199
621.4053, 353.4192
621.8875, 353.2471
622.3696, 352.5190
622.8517, 352.1266
623.3338, 352.2403
623.8159, 352.6850
624.2980, 353.5777
624.7802, 354.7127
625.2623, 355.3800
625.7444, 355.2220
626.2265, 354.9417
626.7086, 354.6744
627.1907, 354.5621
627.6729, 355.0257
628.1550, 356.0344
628.6371, 356.7500
629.1192, 356.3415
629.6013, 355.0108
630.0834, 354.4601
630.5656, 355.2011
631.0477, 355.8853
631.5298, 356.4614
632.0119, 356.8041
632.4940, 356.6527
632.9761, 356.1208
633.4583, 355.7726
633.9404, 356.1480
634.4225, 356.7271
634.9046, 356.6300
635.3867, 355.9012
635.8688, 355.0897
636.3510, 354.3091
636.8331, 353.6431
637.3152, 353.1642
637.7973, 352.8789
638.2794, 352.8906
638.7615, 353.3366
639.2437, 353.9288
639.7258, 354.7475
640.2079, 355.5590
640.6900, 355.8561
641.1721, 355.6075
641.6542, 355.6089
642.1364, 357.0283
642.6185, 359.6440
643.1006, 360.2444
643.5827, 357.6406
644.0648, 355.6488
644.5469, 356.2009
645.0291, 357.6072
645.5112, 358.3720
645.9933, 358.3913
646.4754, 358.5554
646.9575, 359.4065
647.4396, 360.4934
647.9218, 361.2881
648.4039, 361.8677
648.8860, 362.5953
649.3681, 363.6159
649.8502, 364.9047
650.3323, 366.4769
650.8145, 368.4532
651.2966, 370.1592
651.7787, 371.1860
652.2608, 372.4195
652.7429, 374.3906
653.2250, 376.5953
653.7072, 378.1874
654.1893, 379.0139
654.6714, 380.1053
655.1535, 382.7307
655.6356, 386.3926
656.1177, 389.4751
656.5999, 391.9101
657.0820, 393.8224
657.5641, 394.9048
658.0462, 395.8287
658.5283, 398.0560
659.0104, 401.8285
659.4926, 405.3216
659.9747, 408.2342
660.4568, 410.8274
660.9389, 412.9621
661.4210, 414.9590
661.9031, 417.4153
662.3853, 420.5708
662.8674, 424.0800
663.3495, 427.5174
663.8316, 430.8841
664.3137, 434.2305
664.7958, 437.6040
665.2780, 440.8575
665.7601, 444.3187
666.2422, 447.4516
666.7243, 449.5062
667.2064, 450.3322
667.6885, 450.7384
668.1707, 450.9503
668.6528, 451.0425
669.1349, 451.6044
669.6170, 452.2525
670.0991, 451.1907
670.5812, 447.4935
671.0634, 442.5663
671.5455, 438.9011
672.0276, 437.0817
672.5097, 434.3921
672.9918, 430.1051
673.4739, 425.7333
673.9561, 421.4115
674.4382, 417.4327
674.9203, 414.1189
675.4024, 411.5652
675.8845, 409.5588
676.3666, 408.2959
676.8488, 407.3723
677.3309, 405.7101
677.8130, 403.2850
678.2951, 401.2580
678.7772, 400.2277
679.2593, 399.7874
679.7415, 399.2206
680.2236, 398.5376
680.7057, 397.6605
681.1878, 396.4568
681.6699, 395.1982
682.1520, 394.0083
682.6342, 392.8334
683.1163, 391.5805
683.5984, 390.2137
684.0805, 388.8201
684.5626, 387.6694
685.0447, 386.6114
685.5269, 384.6202
686.0090, 381.4461
686.4911, 378.6621
686.9732, 377.1830
687.4553, 376.2645
687.9374, 374.7097
688.4196, 372.4927
688.9017, 370.1603
689.3838, 367.4734
689.8659, 365.0256
690.3480, 363.3597
690.8301, 362.1313
691.3123, 360.6416
691.7944, 358.7016
692.2765, 356.8495
692.7586, 355.8342
693.2407, 355.5558
693.7228, 354.5615
694.2050, 352.5523
694.6871, 350.5974
695.1692, 348.9501
695.6513, 347.6217
696.1334, 346.5955
696.6155, 345.8693
697.0977, 345.4343
697.5798, 345.7148
698.0619, 345.8791
698.5440, 345.0892
699.0261, 343.7697
699.5082, 342.8815
699.9904, 342.6735
700.4725, 342.5306
700.9546, 341.7196
701.4367, 340.3179
701.9188, 339.4919
702.4009, 339.3957
702.8831, 339.5799
703.3652, 340.5759
703.8473, 341.3262
704.3294, 340.7765
704.8115, 339.1079
705.2936, 337.6705
705.7758, 336.8600
706.2579, 336.6187
706.7400, 337.3491
707.2221, 338.5331
707.7042, 339.0624
708.1863, 338.6714
708.6685, 337.5436
709.1505, 335.6461
709.6326, 333.2415
710.1147, 332.4751
710.5969, 334.7224
711.0790, 336.0887
711.5611, 335.4507
712.0432, 334.3777
712.5253, 333.7723
713.0074, 333.5755
713.4896, 333.3968
713.9717, 333.1206
714.4538, 332.7494
714.9359, 331.9775
715.4180, 331.1705
715.9001, 331.4416
716.3823, 332.8918
716.8644, 334.0820
717.3465, 333.8937
717.8286, 332.7403
718.3107, 332.1466
718.7928, 332.3482
719.2750, 332.6786
719.7571, 333.2698
720.2392, 333.8231
720.7213, 334.4149
721.2034, 334.8067
721.6855, 334.4631
722.1677, 333.0793
722.6498, 331.6468
723.1319, 330.8780
723.6140, 330.6867
724.0961, 331.1337
724.5782, 332.1423
725.0604, 332.8380
725.5425, 332.7118
726.0246, 332.1073
726.5067, 331.7079
726.9888, 331.5310
727.4709, 331.5147
727.9531, 331.6241
728.4352, 331.9326
728.9173, 332.7035
729.3994, 333.5772
729.8815, 334.0678
730.3636, 334.0782
730.8458, 333.9677
731.3279, 334.1343
731.8100, 334.2643
732.2921, 333.5317
732.7742, 332.1450
733.2563, 331.5753
733.7385, 332.4310
734.2206, 333.7854
734.7027, 334.4465
735.1848, 334.3492
735.6669, 334.5388
736.1490, 335.3242
736.6312, 336.0041
737.1133, 336.4869
737.5954, 336.8099
738.0775, 337.0035
738.5596, 337.0725
739.0417, 336.9969
739.5239, 336.6499
740.0060, 336.2981
740.4881, 336.3126
740.9702, 336.5766
741.4523, 336.7326
741.9344, 336.7059
742.4166, 336.6196
742.8987, 336.5977
743.3808, 336.5825
743.8629, 336.2593
744.3450, 335.2362
744.8271, 334.6225
745.3093, 335.2109
745.7914, 335.4811
746.2735, 334.0730
746.7556, 331.8464
747.2377, 330.6656
747.7198, 331.2944
748.2020, 332.2807
748.6841, 332.7674
749.1662, 332.7709
749.6483, 331.9461
750.1304, 330.4903
750.6125, 329.8944
751.0947, 331.0413
751.5768, 332.7121
752.0589, 332.5863
752.5410, 330.1108
753.0231, 328.4677
753.5052, 328.1839
753.9874, 328.0525
754.4695, 327.5584
754.9516, 327.1102
755.4337, 327.2254
755.9158, 327.9384
756.3979, 328.6681
756.8801, 329.3388
757.3622, 329.7371
757.8443, 329.3592
758.3264, 328.5849
758.8085, 328.5052
759.2906, 329.3366
759.7728, 329.9729
760.2549, 329.2187
760.7370, 327.4104
761.2191, 326.7260
761.7012, 327.6064
762.1833, 328.4346
762.6655, 329.0942
763.1476, 329.4572
763.6297, 329.2402
764.1118, 328.6823
764.5939, 328.4790
765.0760, 329.0157
765.5582, 329.4256
766.0403, 328.7912
766.5224, 328.1411
767.0045, 328.9683
767.4866, 330.9479
767.9688, 332.4776
768.4509, 332.7370
768.9330, 332.3710
769.4151, 332.4882
769.8972, 333.1197
770.3793, 333.2531
770.8615, 332.5607
771.3436, 332.2303
771.8257, 333.1049
772.3078, 334.3874
772.7899, 334.8292
773.2720, 334.3554
773.7542, 334.0824
774.2363, 334.4641
774.7184, 334.7802
775.2005, 334.5596
775.6826, 334.1122
776.1647, 333.8665
776.6469, 333.8851
777.1290, 333.9970
777.6111, 334.2177
778.0932, 334.2271
778.5753, 332.9857
779.0574, 330.5584
779.5396, 328.9175
780.0217, 328.5623
780.5038, 328.5653
780.9859, 328.1632
781.4680, 328.2648
781.9501, 327.4857
782.4323, 328.5806
782.9144, 329.3001
783.3965, 329.8292
783.8786, 329.7194
784.3607, 328.2679
784.8428, 326.1313
785.3250, 324.4649
785.8071, 323.6337
786.2892, 323.0164
786.7713, 321.8246
787.2534, 320.6035
787.7355, 320.5693
788.2177, 321.5886
788.6998, 322.5775
789.1819, 323.1761
789.6640, 323.2592
790.1461, 322.5109
790.6282, 320.9396
791.1104, 320.4969
791.5925, 322.4141
792.0746, 323.3759
792.5567, 322.1064
793.0388, 320.3404
793.5209, 319.1272
794.0031, 318.4401
794.4852, 317.9783
794.9673, 317.7333
795.4494, 317.5269
795.9315, 317.1628
796.4136, 316.8219
796.8958, 316.8851
797.3779, 317.2343
797.8600, 317.2507
798.3421, 316.6019
798.8242, 315.7243
799.3063, 315.3607
799.7885, 315.5280
800.2706, 315.6801
800.7527, 315.9370
801.2348, 315.7488
801.7169, 314.4636
802.1990, 313.0124
802.6812, 312.8904
803.1633, 314.1015
803.6454, 314.8070
804.1275, 314.2577
804.6096, 313.8910
805.0917, 314.6389
805.5739, 315.5599
806.0560, 315.5840
806.5381, 314.7611
807.0202, 313.8209
807.5023, 313.0894
807.9844, 312.7427
808.4666, 313.2439
808.9487, 314.3593
809.4308, 315.1868
809.9129, 315.6205
810.3950, 315.8738
810.8771, 316.0899
811.3593, 316.1424
811.8414, 315.7189
812.3235, 314.5768
812.8056, 313.8634
813.2877, 314.1387
813.7698, 314.1374
814.2520, 313.1055
814.7341, 311.9109
815.2162, 311.4676
815.6983, 311.8085
816.1804, 312.2881
816.6625, 312.9885
817.1447, 313.3808
817.6268, 312.6307
818.1089, 311.5094
818.5910, 311.3663
819.0731, 312.2501
819.5552, 313.2256
820.0374, 313.7119
820.5195, 313.7830
821.0016, 313.4038
821.4837, 312.5446
821.9658, 312.4966
822.4479, 313.7332
822.9301, 314.4625
823.4122, 313.4550
823.8943, 311.6873
824.3764, 310.8484
824.8585, 311.0700
825.3406, 311.5334
825.8228, 312.6246
826.3049, 313.4539
826.7870, 313.8722
827.2691, 313.7796
827.7512, 312.6427
828.2333, 310.7845
828.7155, 309.7220
829.1976, 310.6581
829.6797, 311.9996
830.1618, 311.7388
830.6439, 310.5516
831.1260, 310.1270
831.6082, 310.6004
832.0903, 311.0157
832.5724, 310.7986
833.0545, 310.3454
833.5366, 310.4728
834.0187, 311.2896
834.5009, 311.9319
834.9830, 312.4297
835.4651, 312.6905
835.9472, 312.6950
836.4293, 312.4249
836.9114, 311.6893
837.3936, 310.5364
837.8757, 309.8564
838.3578, 310.2010
838.8399, 310.5244
839.3220, 310.3822
839.8041, 310.0742
840.2863, 309.9355
840.7684, 309.9236
841.2505, 309.7489
841.7326, 309.2448
842.2147, 308.7178
842.6968, 308.5855
843.1790, 308.7121
843.6611, 308.5698
844.1432, 308.1819
844.6253, 308.4307
845.1074, 309.7930
845.5895, 311.2697
846.0717, 311.4367
846.5538, 310.2840
847.0359, 309.8184
847.5180, 310.4927
848.0001, 310.9709
848.4822, 310.9543
848.9644, 310.6906
849.4465, 310.2462
849.9286, 309.6957
850.4107, 309.2250
850.8928, 308.7684
851.3749, 308.6116
851.8571, 309.3350
852.3392, 309.9750
852.8213, 309.3158
853.3034, 308.0586
853.7855, 307.8871
854.2676, 309.2438
854.7498, 310.6263
855.2319, 310.3024
855.7140, 309.1442
856.1961, 309.4067
856.6782, 310.8312
857.1603, 311.5323
857.6425, 311.0240
858.1246, 310.0316
858.6067, 309.0341
859.0888, 308.1804
859.5709, 308.1401
860.0530, 309.5283
860.5352, 310.0622
861.0173, 308.7841
861.4994, 307.8035
861.9815, 308.8216
862.4636, 310.2789
862.9457, 309.7509
863.4279, 306.9088
863.9100, 305.0882
864.3921, 306.0811
864.8742, 307.2017
865.3563, 306.7714
865.8384, 305.8346
866.3206, 305.6687
866.8027, 306.3404
867.2848, 307.2746
867.7669, 308.2451
868.2490, 308.9260
868.7311, 308.7071
869.2133, 307.8812
869.6954, 307.2112
870.1775, 306.7719
870.6596, 306.5919
871.1417, 306.6920
871.6238, 307.0146
872.1060, 307.5691
872.5881, 308.3487
873.0702, 308.4562
873.5523, 307.6955
874.0344, 306.7323
874.5165, 305.2919
874.9987, 304.1626
875.4808, 304.1548
875.9629, 304.9589
876.4450, 305.7540
876.9271, 306.8553
877.4092, 307.1627
877.8914, 305.6537
878.3735, 304.1165
878.8556, 303.5908
879.3377, 303.7885
879.8198, 304.3646
880.3019, 305.1402
880.7841, 305.4911
881.2662, 304.5378
881.7483, 303.3683
882.2304, 303.4016
882.7125, 304.2605
883.1946, 305.3385
883.6768, 306.3865
884.1589, 306.4873
884.6410, 304.9211
885.1231, 302.8930
885.6052, 303.1922
886.0873, 305.9164
886.5695, 306.9232
887.0516, 305.6960
887.5337, 304.5002
888.0158, 304.1717
888.4979, 304.2998
888.9800, 304.5509
889.4622, 304.9225
889.9443, 304.6659
890.4264, 302.6523
890.9085, 301.6452
891.3906, 302.8268
891.8727, 304.1823
892.3549, 304.3641
892.8370, 303.8353
893.3191, 303.7566
893.8012, 304.4958
894.2833, 304.6782
894.7654, 302.8381
895.2476, 300.9209
895.7297, 300.7844
896.2118, 301.6343
896.6939, 302.1826
897.1760, 302.1101
897.6581, 301.5190
898.1403, 300.3666
898.6224, 299.0721
899.1045, 298.3031
899.5866, 297.9862
900.0687, 297.7945
900.5508, 297.6951
901.0330, 297.7704
901.5151, 298.0932
901.9972, 298.4223
902.4793, 298.3881
902.9614, 297.9903
903.4435, 297.6447
903.9257, 297.4992
904.4078, 296.9640
904.8899, 295.3735
905.3720, 294.0634
905.8541, 294.3506
906.3362, 295.7137
906.8184, 296.5817
907.3005, 296.9821
907.7826, 296.7547
908.2647, 295.3635
908.7468, 293.9199
909.2289, 292.8170
909.7111, 292.0545
910.1932, 291.6423
910.6753, 291.5424
911.1574, 291.5695
911.6395, 291.8084
912.1216, 291.8755
912.6038, 291.0713
913.0859, 290.1251
913.5680, 290.3375
914.0501, 291.4418
914.5322, 292.1135
915.0143, 291.7740
915.4965, 290.9498
915.9786, 290.0634
916.4607, 289.2424
916.9428, 289.0635
917.4249, 289.4740
917.9070, 289.7698
918.3892, 289.7899
918.8713, 289.5453
919.3534, 288.9881
919.8355, 288.2752
920.3176, 287.9434
920.7997, 288.1926
921.2819, 288.0080
921.7640, 286.9370
922.2461, 286.3161
922.7282, 287.0911
923.2103, 288.2249
923.6924, 288.4132
924.1746, 287.7067
924.6567, 286.9665
925.1388, 285.5809
925.6209, 285.0723
926.1030, 286.6299
926.5851, 288.2673
927.0673, 288.6513
927.5494, 288.1322
928.0315, 287.3785
928.5136, 286.5359
928.9957, 285.9662
929.4778, 285.8772
929.9600, 286.1215
930.4421, 287.0152
930.9242, 287.9485
931.4063, 287.8041
931.8884, 286.6730
932.3705, 285.6025
932.8527, 285.1492
933.3348, 285.1896
933.8169, 285.8627
934.2990, 286.8334
934.7811, 287.0907
935.2632, 286.6857
935.7454, 286.2986
936.2275, 286.1529
936.7096, 286.0431
937.1917, 285.7782
937.6738, 285.3725
938.1559, 284.7862
938.6381, 283.9442
939.1202, 283.5715
939.6023, 283.7791
940.0844, 284.3949
940.5665, 285.6194
941.0486, 286.8075
941.5308, 286.8116
942.0129, 285.4696
942.4950, 284.7270
942.9771, 284.9750
943.4592, 285.2300
943.9413, 285.3094
944.4235, 285.3986
944.9056, 285.8376
945.3877, 286.3214
945.8698, 286.0972
946.3519, 284.8700
946.8340, 283.8718
947.3162, 283.2833
947.7983, 283.1548
948.2804, 283.8961
948.7625, 284.8629
949.2446, 285.4260
949.7267, 285.5013
950.2089, 285.1788
950.6910, 284.4014
951.1731, 283.5587
951.6552, 282.7102
952.1373, 282.1461
952.6194, 282.4107
953.1016, 283.2391
953.5837, 284.0218
954.0658, 284.5548
954.5479, 284.8418
955.0300, 284.8299
955.5121, 284.6861
955.9943, 284.7404
956.4763, 284.9335
956.9584, 284.9672
957.4406, 284.8359
957.9227, 284.9497
958.4048, 285.5151
958.8869, 286.1875
959.3690, 286.5027
959.8511, 286.5052
960.3333, 286.5780
960.8154, 286.7533
961.2975, 286.7340
961.7796, 286.4139
962.2617, 286.0504
962.7438, 285.7311
963.2260, 285.5854
963.7081, 285.9785
964.1902, 287.1432
964.6723, 287.5767
965.1544, 286.5844
965.6365, 286.0250
966.1187, 286.8468
966.6008, 287.7492
967.0829, 287.5004
967.5650, 286.5431
968.0471, 286.2726
968.5292, 287.0653
969.0114, 287.7497
969.4935, 288.1035
969.9756, 288.3971
970.4577, 288.8665
970.9398, 289.2593
971.4219, 289.1517
971.9041, 288.6629
972.3862, 288.5119
972.8683, 289.2046
973.3504, 289.6783
973.8325, 288.7774
974.3146, 287.9735
974.7968, 288.9907
975.2789, 290.9236
975.7610, 292.1484
976.2431, 292.2847
976.7252, 291.7280
977.2073, 290.2758
977.6895, 289.0557
978.1716, 289.7160
978.6537, 291.2441
979.1358, 292.0208
979.6179, 291.9839
980.1000, 291.5380
980.5822, 290.8658
981.0643, 290.1622
981.5464, 289.4446
982.0285, 289.0337
982.5106, 290.0957
982.9927, 292.2221
983.4749, 293.4533
983.9570, 293.5264
984.4391, 292.9498
984.9212, 291.9418
985.4033, 290.8936
985.8854, 290.4455
986.3676, 290.4900
986.8497, 289.9098
987.3318, 288.5752
987.8139, 288.2841
988.2960, 289.5899
988.7781, 291.0359
989.2603, 291.7514
989.7424, 291.8534
990.2245, 291.5447
990.7066, 290.7681
991.1887, 290.0165
991.6708, 289.1660
992.1530, 288.6593
992.6351, 288.8166
993.1172, 289.0119
993.5993, 288.6342
994.0814, 287.9556
994.5635, 287.8220
995.0457, 288.3917
995.5278, 289.0548
996.0099, 290.3324
996.4920, 291.0231
996.9741, 290.3953
997.4562, 289.4183
997.9384, 288.9211
998.4205, 288.7697
998.9026, 288.3557
999.3847, 287.3011
999.8668, 286.7780
1000.349, 287.6585
1000.831, 288.3674
1001.313, 287.8766
1001.795, 287.0148
1002.277, 286.7270
1002.760, 286.9924
1003.242, 287.2315
1003.724, 287.2868
1004.206, 287.2363
1004.688, 287.1588
1005.170, 286.9492
1005.652, 286.3303
1006.134, 285.6254
1006.616, 285.5128
1007.099, 285.9040
1007.581, 285.7445
1008.063, 284.2129
1008.545, 282.7237
1009.027, 282.4872
1009.509, 282.8533
1009.991, 283.1552
1010.473, 283.3944
1010.956, 283.8953
1011.438, 284.6054
1011.920, 284.6867
1012.402, 283.3106
1012.884, 281.6848
1013.366, 281.3574
1013.848, 281.8160
1014.330, 282.2843
1014.812, 282.6122
1015.295, 282.5103
1015.777, 281.9374
1016.259, 281.4147
1016.741, 281.4600
1017.223, 280.8660
1017.705, 281.1828
1018.187, 280.2360
1018.669, 279.7139
1019.151, 279.6472
1019.634, 279.6168
1020.116, 279.4684
1020.598, 279.4147
1021.080, 279.6847
1021.562, 280.1926
1022.044, 280.8671
1022.526, 281.6349
1023.008, 281.4798
1023.491, 280.2994
1023.973, 279.5297
1024.455, 279.8033
1024.937, 280.3901
1025.419, 280.3907
1025.901, 280.0519
1026.383, 280.7129
1026.865, 282.4877
1027.348, 283.4629
1027.830, 283.3857
1028.312, 282.8563
1028.794, 282.0403
1029.276, 281.2178
1029.758, 280.7101
1030.240, 280.5233
1030.722, 280.7963
1031.204, 281.6726
1031.687, 282.3958
1032.169, 282.9797
1032.651, 283.1048
1033.133, 282.3907
1033.615, 281.5302
1034.097, 281.3591
1034.579, 281.8741
1035.061, 283.0881
1035.543, 285.2109
1036.026, 287.5959
1036.508, 290.9966
1036.990, 293.1040
1037.472, 292.2186
1037.954, 290.1078
1038.436, 288.9798
1038.918, 288.8105
1039.400, 288.9124
1039.883, 289.5407
1040.365, 289.9396
1040.847, 289.3932
1041.329, 289.5171
1041.811, 291.7689
1042.293, 294.5783
1042.775, 295.7905
1043.257, 295.4516
1043.740, 295.4895
1044.222, 296.3249
1044.704, 296.8893
1045.186, 297.2533
1045.668, 297.1966
1046.150, 296.3097
1046.632, 295.1513
1047.114, 294.4979
1047.596, 294.3060
1048.078, 293.6949
1048.561, 292.3077
1049.043, 290.9249
1049.525, 289.4454
1050.007, 288.2092
1050.489, 287.3622
1050.971, 286.8497
1051.453, 286.9623
1051.935, 287.5034
1052.418, 286.9425
1052.900, 283.9356
1053.382, 281.7086
1053.864, 281.4157
1054.346, 281.4148
1054.828, 280.7929
1055.310, 280.0257
1055.792, 279.8576
1056.275, 280.1932
1056.757, 280.1324
1057.239, 279.2049
1057.721, 278.4383
1058.203, 278.2737
1058.685, 278.1570
1059.167, 277.8373
1059.649, 277.3622
1060.131, 276.7591
1060.614, 276.0663
1061.096, 275.3625
1061.578, 274.5139
1062.060, 274.0814
1062.542, 274.7074
1063.024, 275.2878
1063.506, 275.1479
1063.988, 274.6535
1064.470, 274.1413
1064.953, 273.6993
1065.435, 273.4282
1065.917, 273.3754
1066.399, 273.4120
1066.881, 273.8636
1067.363, 273.9549
1067.845, 272.9304
1068.327, 271.5337
1068.810, 270.4279
1069.292, 269.7260
1069.774, 269.4239
1070.256, 269.5352
1070.738, 269.9654
1071.220, 270.9194
1071.702, 271.8923
1072.184, 272.6585
1072.667, 273.2384
1073.149, 273.7578
1073.631, 274.0954
1074.113, 273.8243
1074.595, 272.7677
1075.077, 271.9296
1075.559, 271.9249
1076.041, 272.0669
1076.523, 272.3161
1077.005, 272.2362
1077.488, 270.8886
1077.970, 269.0222
1078.452, 268.3394
1078.934, 269.2402
1079.416, 270.4362
1079.898, 272.0328
1080.380, 272.9301
1080.862, 271.7227
1081.344, 270.3222
1081.827, 270.8217
1082.309, 272.2920
1082.791, 272.6079
1083.273, 271.4658
1083.755, 270.7870
1084.237, 272.2111
1084.719, 273.1022
1085.201, 271.3563
1085.684, 269.4100
1086.166, 269.3186
1086.648, 270.3235
1087.130, 271.2561
1087.612, 271.8561
1088.094, 272.0208
1088.576, 271.4527
1089.058, 270.9582
1089.541, 270.8057
1090.023, 270.9322
1090.505, 271.6959
1090.987, 272.4561
1091.469, 272.0254
1091.951, 270.7059
1092.433, 270.4321
1092.915, 272.2794
1093.397, 273.7866
1093.880, 273.5218
1094.362, 273.1749
1094.844, 274.0339
1095.326, 275.1060
1095.808, 275.1908
1096.290, 274.4695
1096.772, 273.8033
1097.254, 273.3510
1097.736, 273.1940
1098.219, 273.3663
1098.701, 273.8316
1099.183, 275.0148
1099.665, 276.0990
1100.147, 276.1002
1100.629, 275.5053
1101.111, 275.5333
1101.593, 276.4426
1102.076, 277.1950
1102.558, 277.8280
1103.040, 277.8449
1103.522, 276.3038
1104.004, 274.8832
1104.486, 274.9286
1104.968, 275.8083
1105.450, 276.3433
1105.932, 276.4416
1106.415, 277.0966
1106.897, 279.3303
1107.379, 280.8792
1107.861, 280.6367
1108.343, 280.3738
1108.825, 281.7744
1109.307, 283.1445
1109.789, 281.8813
1110.271, 278.3901
1110.754, 276.2119
1111.236, 276.3656
1111.718, 276.5127
1112.200, 276.6829
1112.682, 276.5138
1113.164, 275.4375
1113.646, 274.3451
1114.128, 274.1498
1114.611, 274.5939
1115.093, 274.8460
1115.575, 275.0399
1116.057, 274.5672
1116.539, 272.7846
1117.021, 271.3004
1117.503, 270.2570
1117.985, 269.8093
1118.468, 270.4337
1118.950, 271.5079
1119.432, 271.7574
1119.914, 271.0681
1120.396, 270.9724
1120.878, 272.0007
1121.360, 272.4383
1121.842, 271.7105
1122.324, 271.0953
1122.807, 271.4620
1123.289, 271.8958
1123.771, 271.0173
1124.253, 269.0966
1124.735, 268.4976
1125.217, 269.7346
1125.699, 270.4579
1126.181, 270.4338
1126.663, 270.2965
1127.146, 270.2670
1127.628, 270.1812
1128.110, 269.8736
1128.592, 269.4174
1129.074, 269.0497
1129.556, 268.7993
1130.038, 268.2049
1130.520, 267.1113
1131.003, 266.8892
1131.485, 267.9504
1131.967, 269.3588
1132.449, 270.6632
1132.931, 271.3474
1133.413, 270.3770
1133.895, 268.0364
1134.377, 266.2491
1134.859, 265.0001
1135.342, 264.2443
1135.824, 263.9697
1136.306, 263.9585
1136.788, 264.1229
1137.270, 264.2804
1137.752, 264.2179
1138.234, 264.0519
1138.716, 264.1617
1139.198, 264.4233
1139.681, 264.0594
1140.163, 263.2369
1140.645, 263.4082
1141.127, 264.8180
1141.609, 265.7373
1142.091, 264.9086
1142.573, 265.3323
1143.055, 263.4124
1143.538, 263.7800
1144.020, 262.4132
1144.502, 260.1597
1144.984, 259.6003
1145.466, 260.6145
1145.948, 260.8020
1146.430, 259.1587
1146.912, 257.4169
1147.395, 257.2108
1147.877, 257.5590
1148.359, 257.5106
1148.841, 257.2003
1149.323, 256.6566
1149.805, 256.0643
1150.287, 255.6479
1150.769, 255.5314
1151.251, 256.1467
1151.734, 258.2805
1152.216, 259.7575
1152.698, 258.5492
1153.180, 256.6992
1153.662, 255.6590
1154.144, 255.1785
1154.626, 254.9147
1155.108, 254.7669
1155.590, 254.6885
1156.073, 254.7144
1156.555, 254.5028
1157.037, 253.5924
1157.519, 252.8778
1158.001, 252.7424
1158.483, 252.9227
1158.965, 253.3681
1159.447, 253.9078
1159.930, 254.3125
1160.412, 254.5610
1160.894, 254.6414
1161.376, 254.5313
1161.858, 254.2846
1162.340, 253.9081
1162.822, 253.3829
1163.304, 252.3688
1163.786, 251.5464
1164.269, 251.7815
1164.751, 252.6695
1165.233, 252.7504
1165.715, 251.7153
1166.197, 251.2764
1166.679, 251.6853
1167.161, 251.9959
1167.643, 252.0321
1168.125, 251.9232
1168.608, 251.7670
1169.090, 251.4266
1169.572, 250.5555
1170.054, 250.8307
1170.536, 249.4389
1171.018, 250.9341
1171.500, 251.7387
1171.982, 251.6632
1172.465, 251.3163
1172.947, 250.8901
1173.429, 250.6649
1173.911, 250.9210
1174.393, 251.3164
1174.875, 251.1194
1175.357, 250.5181
1175.839, 250.2015
1176.322, 250.1495
1176.804, 250.3337
1177.286, 250.6617
1177.768, 250.6416
1178.250, 250.0630
1178.732, 249.4904
1179.214, 249.5258
1179.696, 249.7726
1180.178, 249.7589
1180.661, 249.5600
1181.143, 249.1609
1181.625, 248.7195
1182.107, 248.6265
1182.589, 248.8763
1183.071, 248.9643
1183.553, 248.5585
1184.035, 248.3381
1184.517, 248.9804
1185.000, 249.6742
1185.482, 249.8642
1185.964, 249.7930
1186.446, 249.7772
1186.928, 249.7205
1187.410, 249.2188
1187.892, 248.1893
1188.374, 247.5933
1188.857, 247.9684
1189.339, 248.3301
1189.821, 248.4386
1190.303, 248.5308
1190.785, 248.9159
1191.267, 249.1835
1191.749, 248.6263
1192.231, 247.6020
1192.714, 247.6045
1193.196, 249.1616
1193.678, 249.6469
1194.160, 248.6330
1194.642, 247.7030
1195.124, 247.1502
1195.606, 246.7446
1196.088, 246.3039
1196.570, 246.1168
1197.052, 246.7014
1197.535, 247.8020
1198.017, 248.0349
1198.499, 247.4263
1198.981, 247.2072
1199.463, 247.4370
1199.945, 247.5600
1200.427, 247.4125
1200.909, 247.0162
1201.392, 246.3550
1201.874, 245.7202
1202.356, 245.6640
1202.838, 245.8516
1203.320, 245.3782
1203.802, 244.6493
1204.284, 244.6754
1204.766, 245.3550
1205.249, 246.1235
1205.731, 246.7193
1206.213, 246.6526
1206.695, 245.3293
1207.177, 243.9575
1207.659, 243.4005
1208.141, 243.2675
1208.623, 243.3598
1209.105, 243.5663
1209.588, 243.8626
1210.070, 244.1625
1210.552, 244.2183
1211.034, 243.9333
1211.516, 243.8601
1211.998, 244.4411
1212.480, 244.7889
1212.962, 244.6818
1213.444, 244.3000
1213.927, 243.3652
1214.409, 242.5113
1214.891, 242.5810
1215.373, 243.3109
1215.855, 243.4971
1216.337, 242.9785
1216.819, 242.5903
1217.301, 242.2986
1217.784, 242.3363
1218.266, 242.8556
1218.748, 243.2087
1219.230, 243.0315
1219.712, 242.5250
1220.194, 241.8574
1220.676, 241.2050
1221.158, 241.2424
1221.641, 241.8225
1222.123, 242.2176
1222.605, 242.3805
1223.087, 242.3126
1223.569, 242.0420
1224.051, 241.6739
1224.533, 241.2528
1225.015, 241.0307
1225.497, 241.6684
1225.979, 242.2360
1226.462, 241.1300
1226.944, 239.6813
1227.426, 239.7991
1227.908, 240.9311
1228.390, 241.7140
1228.872, 241.9293
1229.354, 242.1402
1229.836, 242.6863
1230.319, 242.8117
1230.801, 241.7717
1231.283, 240.8941
1231.765, 241.0525
1232.247, 241.2888
1232.729, 240.7488
1233.211, 239.8141
1233.693, 239.1457
1234.176, 238.7464
1234.658, 238.6868
1235.140, 239.0924
1235.622, 239.4733
1236.104, 239.8289
1236.586, 240.0828
1237.068, 240.1963
1237.550, 240.2690
1238.032, 240.3597
1238.515, 240.4965
1238.997, 240.7278
1239.479, 241.0441
1239.961, 241.4793
1240.443, 241.9716
1240.925, 242.3343
1241.407, 242.4804
1241.889, 241.9514
1242.371, 240.7623
1242.854, 240.0191
1243.336, 240.5190
1243.818, 240.9605
1244.300, 239.6969
1244.782, 238.2415
1245.264, 238.1699
1245.746, 238.6914
1246.228, 239.0788
1246.711, 239.1564
1247.193, 238.6196
1247.675, 237.5274
1248.157, 236.8549
1248.639, 236.6895
1249.121, 237.2658
1249.603, 239.8185
1250.085, 241.4623
1250.568, 240.9151
1251.050, 239.6298
1251.532, 238.1484
1252.014, 236.9222
1252.496, 236.7361
1252.978, 237.5202
1253.460, 238.6826
1253.942, 240.3462
1254.424, 240.9933
1254.906, 240.5098
1255.389, 239.3422
1255.871, 237.6425
1256.353, 236.8646
1256.835, 237.9942
1257.317, 239.8362
1257.799, 241.3202
1258.281, 242.0431
1258.763, 240.3827
1259.246, 237.9686
1259.728, 238.2074
1260.210, 240.0567
1260.692, 240.4256
1261.174, 239.0361
1261.656, 237.9106
1262.138, 237.8377
1262.620, 238.1261
1263.103, 238.9260
1263.585, 239.3856
1264.067, 238.7202
1264.549, 238.0120
1265.031, 238.0857
1265.513, 238.5364
1265.995, 238.8015
1266.477, 238.8950
1266.959, 238.8779
1267.442, 238.5681
1267.924, 239.0898
1268.406, 238.8608
1268.888, 238.4106
1269.370, 239.2562
1269.852, 237.9988
1270.334, 238.9738
1270.816, 240.4739
1271.298, 240.7134
1271.781, 240.1556
1272.263, 239.4358
1272.745, 238.7986
1273.227, 239.0635
1273.709, 239.8361
1274.191, 240.1031
1274.673, 239.8406
1275.155, 239.5595
1275.638, 239.4389
1276.120, 239.4355
1276.602, 239.6341
1277.084, 239.7500
1277.566, 239.5892
1278.048, 239.3638
1278.530, 238.9628
1279.012, 238.7641
1279.495, 239.4225
1279.977, 240.4719
1280.459, 240.7315
1280.941, 240.1671
1281.423, 239.8252
1281.905, 239.6941
1282.387, 240.0464
1282.869, 241.0087
1283.351, 241.8654
1283.833, 242.4287
1284.316, 242.6885
1284.798, 242.6377
1285.280, 242.2488
1285.762, 241.5027
1286.244, 240.5139
1286.726, 0.0000000E+00
1287.208, 0.0000000E+00
1287.690, 0.0000000E+00
1288.173, 0.0000000E+00
1288.655, 0.0000000E+00
1289.137, 0.0000000E+00
1289.619, 0.0000000E+00
1290.101, 0.0000000E+00
1290.583, 0.0000000E+00
1291.065, 0.0000000E+00
1291.547, 0.0000000E+00
1292.030, 0.0000000E+00
1292.512, 0.0000000E+00
1292.994, 0.0000000E+00
1293.476, 0.0000000E+00
1293.958, 0.0000000E+00
1294.440, 0.0000000E+00
1294.922, 0.0000000E+00
1295.404, 0.0000000E+00
1295.886, 0.0000000E+00
1296.369, 0.0000000E+00
1296.851, 0.0000000E+00
1297.333, 0.0000000E+00
1297.815, 0.0000000E+00
1298.297, 0.0000000E+00
1298.779, 0.0000000E+00
1299.261, 0.0000000E+00
1299.743, 0.0000000E+00
1300.225, 0.0000000E+00
1300.708, 0.0000000E+00
1301.190, 0.0000000E+00
1301.672, 0.0000000E+00
1302.154, 0.0000000E+00
1302.636, 0.0000000E+00
1303.118, 0.0000000E+00
1303.600, 0.0000000E+00
1304.082, 0.0000000E+00
1304.565, 0.0000000E+00
1305.047, 0.0000000E+00
##END=



