##NAMES=Glaucophane
##RRUFFID=R070515
##IDEAL CHEMISTRY=[box]Na_2_(Mg_3_Al_2_)Si_8_O_22_(OH)_2_
##LOCALITY=La Beaume, near Turin, Piedmont, Italy
##OWNER=RRUFF
##SOURCE=James Shigley
##DESCRIPTION=Black, prismatic crystals in a calcite matrix
##STATUS=The identification of this mineral is confirmed by single-crystal X-ray diffraction and chemical analysis.
##URL=rruff.info/R070515
##MEASURED CHEMISTRY=([box]_0.96_Na_0.04_)_Σ=1_(Na_1.93_Ca_0.07_)_Σ=2_((Mg_1.63_Fe^2+^_1.41_)_Σ=3.04_(Al_1.00_Fe^3+^_0.96_)_Σ=1.96_)(Si_7.93_Al_0.07_)_Σ=8_O_22_((OH)_1.90_F_0.10_)_Σ=2_; OH estimated by difference and charge balance
154.4944, 455.3464
154.9765, 468.1087
155.4586, 462.1371
155.9408, 455.4761
156.4229, 454.8387
156.9050, 462.9709
157.3871, 466.7492
157.8692, 463.1770
158.3513, 455.8167
158.8335, 452.1685
159.3156, 456.3966
159.7977, 463.0822
160.2798, 469.3759
160.7619, 474.7653
161.2440, 479.7513
161.7262, 486.6148
162.2083, 494.0798
162.6904, 496.3364
163.1725, 483.6394
163.6546, 468.5963
164.1367, 461.2177
164.6189, 469.2298
165.1010, 481.1058
165.5831, 494.0400
166.0652, 507.7518
166.5473, 516.6339
167.0294, 509.6388
167.5116, 498.1765
167.9937, 495.9421
168.4758, 517.7320
168.9579, 544.0076
169.4400, 560.1460
169.9221, 564.4221
170.4043, 568.4730
170.8864, 583.4918
171.3685, 603.7444
171.8506, 618.8961
172.3327, 616.6253
172.8148, 610.2997
173.2970, 615.2958
173.7791, 636.4081
174.2612, 657.4039
174.7433, 662.2798
175.2254, 654.7875
175.7076, 645.9047
176.1897, 645.2523
176.6718, 646.2877
177.1539, 638.2993
177.6360, 615.7831
178.1181, 590.4545
178.6003, 577.4726
179.0824, 574.8919
179.5645, 571.0152
180.0466, 553.5057
180.5287, 528.7001
181.0108, 510.9376
181.4930, 505.6163
181.9751, 506.7325
182.4572, 505.2411
182.9393, 501.1894
183.4214, 496.8222
183.9035, 495.0535
184.3857, 494.8081
184.8678, 492.1070
185.3499, 482.3912
185.8320, 470.4559
186.3141, 469.7419
186.7962, 481.1648
187.2784, 494.4452
187.7605, 497.8719
188.2426, 492.7846
188.7247, 487.6093
189.2068, 485.9436
189.6889, 486.8968
190.1711, 486.7298
190.6532, 485.1320
191.1353, 483.5955
191.6174, 485.1152
192.0995, 489.4957
192.5816, 492.3821
193.0638, 490.3458
193.5459, 484.2194
194.0280, 481.0959
194.5101, 481.6897
194.9922, 484.1685
195.4743, 484.8083
195.9565, 483.3959
196.4386, 483.6639
196.9207, 489.3853
197.4028, 500.3548
197.8849, 506.6818
198.3671, 506.2682
198.8492, 502.5703
199.3313, 504.6621
199.8134, 513.7845
200.2955, 521.9422
200.7776, 521.6276
201.2598, 511.8938
201.7419, 509.7129
202.2240, 518.4269
202.7061, 535.2654
203.1882, 552.6111
203.6703, 572.1024
204.1525, 586.8098
204.6346, 589.1232
205.1167, 576.5293
205.5988, 568.8129
206.0809, 570.8101
206.5630, 580.3391
207.0452, 584.9674
207.5273, 583.9815
208.0094, 579.7595
208.4915, 574.0048
208.9736, 566.6093
209.4557, 558.2401
209.9379, 547.7670
210.4200, 535.6698
210.9021, 530.6381
211.3842, 536.3636
211.8663, 542.9534
212.3484, 538.3143
212.8306, 518.2714
213.3127, 501.3339
213.7948, 492.9869
214.2769, 493.5644
214.7590, 491.2044
215.2411, 484.7439
215.7233, 476.8450
216.2054, 471.2567
216.6875, 469.2801
217.1696, 466.0914
217.6517, 459.3893
218.1338, 448.1416
218.6160, 441.6855
219.0981, 442.4557
219.5802, 445.6717
220.0623, 443.3452
220.5444, 432.1543
221.0265, 422.6577
221.5087, 418.7661
221.9908, 422.1056
222.4729, 423.8664
222.9550, 422.9907
223.4371, 421.2558
223.9192, 422.3828
224.4014, 428.4555
224.8835, 433.4077
225.3656, 434.0316
225.8477, 427.3566
226.3298, 426.2472
226.8119, 434.6397
227.2941, 446.8641
227.7762, 449.3350
228.2583, 436.0504
228.7404, 422.8805
229.2225, 417.4741
229.7046, 424.9665
230.1868, 427.4756
230.6689, 423.1880
231.1510, 414.3195
231.6331, 406.3471
232.1152, 397.6267
232.5974, 392.3409
233.0795, 393.0360
233.5616, 403.3993
234.0437, 411.4878
234.5258, 416.9513
235.0079, 419.9776
235.4901, 421.2628
235.9722, 420.8298
236.4543, 418.6959
236.9364, 414.2440
237.4185, 404.5038
237.9006, 398.9954
238.3828, 399.3058
238.8649, 404.2768
239.3470, 409.4230
239.8291, 416.3068
240.3112, 421.2827
240.7933, 421.6875
241.2755, 414.5333
241.7576, 409.0896
242.2397, 405.8129
242.7218, 404.7133
243.2039, 406.2910
243.6860, 412.6807
244.1682, 419.0209
244.6503, 422.0574
245.1324, 420.3856
245.6145, 418.5542
246.0966, 417.3643
246.5787, 416.4967
247.0609, 413.1505
247.5430, 404.0689
248.0251, 396.6304
248.5072, 396.9751
248.9893, 411.0285
249.4714, 419.7153
249.9536, 418.4805
250.4357, 408.9324
250.9178, 405.8888
251.3999, 412.9660
251.8820, 421.9170
252.3641, 426.4853
252.8463, 424.4604
253.3284, 423.0927
253.8105, 424.2584
254.2926, 427.3780
254.7747, 426.1002
255.2568, 417.4140
255.7390, 408.2916
256.2211, 404.7095
256.7032, 410.0639
257.1853, 412.6027
257.6674, 409.0836
258.1495, 400.4123
258.6317, 397.2608
259.1138, 402.5872
259.5959, 409.2570
260.0780, 411.2023
260.5601, 406.8068
261.0422, 401.7352
261.5244, 395.8924
262.0065, 389.6149
262.4886, 387.8868
262.9707, 392.7320
263.4528, 398.9034
263.9349, 402.2336
264.4171, 402.3549
264.8992, 400.5034
265.3813, 395.9752
265.8634, 389.2509
266.3455, 385.0071
266.8276, 383.5119
267.3098, 383.9310
267.7919, 386.0865
268.2740, 390.7779
268.7561, 394.2574
269.2382, 395.7230
269.7203, 395.3494
270.2025, 393.6852
270.6846, 389.4320
271.1667, 386.6421
271.6488, 390.2264
272.1309, 402.2773
272.6130, 410.7603
273.0952, 412.5500
273.5773, 408.8009
274.0594, 407.0653
274.5415, 408.0764
275.0236, 409.1387
275.5057, 407.0089
275.9879, 400.8509
276.4700, 397.5898
276.9521, 399.4397
277.4342, 405.1794
277.9163, 408.4115
278.3984, 408.5248
278.8806, 408.2820
279.3627, 411.0327
279.8448, 417.1667
280.3269, 419.8565
280.8090, 416.1387
281.2911, 408.4762
281.7733, 407.3787
282.2554, 414.1372
282.7375, 420.9914
283.2196, 419.6423
283.7017, 410.1201
284.1838, 404.9853
284.6660, 408.3391
285.1481, 416.6743
285.6302, 418.9778
286.1123, 414.6596
286.5944, 409.5356
287.0765, 407.9966
287.5587, 409.8806
288.0408, 413.7762
288.5229, 420.7480
289.0050, 428.4305
289.4871, 430.0005
289.9692, 425.3300
290.4514, 420.5969
290.9335, 421.7425
291.4156, 427.4927
291.8977, 430.5960
292.3798, 429.0436
292.8619, 425.1492
293.3441, 422.2389
293.8262, 420.3680
294.3083, 421.5864
294.7904, 432.6497
295.2726, 448.7907
295.7547, 452.6103
296.2368, 436.4649
296.7189, 414.5539
297.2010, 411.2738
297.6831, 424.4082
298.1653, 437.9225
298.6474, 440.7947
299.1295, 436.2404
299.6116, 430.6081
300.0937, 423.9829
300.5758, 418.6905
301.0580, 419.3840
301.5401, 424.7547
302.0222, 429.1004
302.5043, 427.6742
302.9864, 423.2175
303.4685, 420.0580
303.9507, 419.0431
304.4328, 418.7409
304.9149, 417.8100
305.3970, 416.4162
305.8791, 415.0279
306.3612, 413.9227
306.8434, 412.9717
307.3255, 411.9727
307.8076, 410.8188
308.2897, 409.9389
308.7718, 410.6334
309.2539, 411.9185
309.7361, 411.6121
310.2182, 407.7018
310.7003, 402.2657
311.1824, 396.4601
311.6645, 390.0015
312.1466, 385.4223
312.6288, 385.7264
313.1109, 388.7872
313.5930, 390.9760
314.0751, 391.9042
314.5572, 390.6936
315.0393, 384.9289
315.5215, 373.4381
316.0036, 365.9120
316.4857, 368.5143
316.9678, 377.2396
317.4499, 386.8093
317.9320, 397.4240
318.4142, 406.8278
318.8963, 414.6633
319.3784, 421.0040
319.8605, 423.7231
320.3426, 418.7582
320.8247, 411.0558
321.3069, 405.7050
321.7890, 404.7274
322.2711, 405.3785
322.7532, 406.9170
323.2353, 409.3032
323.7174, 412.9338
324.1996, 421.4664
324.6817, 429.3978
325.1638, 432.3490
325.6459, 425.4971
326.1280, 418.3773
326.6101, 410.9858
327.0923, 403.6003
327.5744, 400.4890
328.0565, 404.4639
328.5386, 411.0000
329.0207, 417.4768
329.5028, 424.8228
329.9850, 430.8647
330.4671, 435.8343
330.9492, 439.5209
331.4313, 440.9229
331.9134, 439.3333
332.3955, 436.2190
332.8777, 431.8299
333.3598, 423.4420
333.8419, 419.5276
334.3240, 422.5930
334.8061, 429.8436
335.2882, 433.1614
335.7704, 430.9507
336.2525, 427.5337
336.7346, 424.5989
337.2167, 422.0958
337.6988, 420.3026
338.1809, 419.2678
338.6631, 418.8633
339.1452, 418.6782
339.6273, 418.4285
340.1094, 419.4203
340.5915, 423.5234
341.0736, 431.2556
341.5558, 432.9987
342.0379, 427.4204
342.5200, 418.8353
343.0021, 412.6851
343.4842, 409.0771
343.9663, 407.1128
344.4485, 407.4147
344.9306, 409.3650
345.4127, 408.4994
345.8948, 404.3484
346.3769, 400.1950
346.8590, 400.7618
347.3412, 405.2786
347.8233, 407.8572
348.3054, 405.8385
348.7875, 401.1486
349.2696, 398.2253
349.7517, 397.0865
350.2339, 396.5502
350.7160, 395.3937
351.1981, 394.0607
351.6802, 393.6438
352.1623, 394.3504
352.6444, 396.1818
353.1266, 400.6985
353.6087, 407.1540
354.0908, 411.0479
354.5729, 408.2989
355.0550, 401.4792
355.5371, 393.0420
356.0193, 381.1395
356.5014, 372.8217
356.9835, 376.9456
357.4656, 389.8101
357.9477, 401.7841
358.4298, 408.9051
358.9120, 412.5114
359.3941, 412.9427
359.8762, 409.4678
360.3583, 406.1475
360.8404, 405.7424
361.3225, 406.8377
361.8047, 407.1519
362.2868, 403.7034
362.7689, 401.0402
363.2510, 402.1827
363.7331, 407.9377
364.2152, 412.1930
364.6974, 411.2978
365.1795, 408.6813
365.6616, 407.8350
366.1437, 411.5182
366.6258, 414.8987
367.1079, 416.2554
367.5901, 415.5826
368.0722, 416.4333
368.5543, 420.2843
369.0364, 425.0817
369.5185, 429.4911
370.0006, 435.4853
370.4828, 438.4366
370.9649, 434.5738
371.4470, 426.5439
371.9291, 427.3755
372.4112, 444.1526
372.8933, 461.4216
373.3755, 470.5765
373.8576, 467.0529
374.3397, 467.3529
374.8218, 473.5533
375.3039, 482.5894
375.7861, 486.3908
376.2682, 481.4428
376.7503, 480.9981
377.2324, 493.9711
377.7145, 522.1014
378.1967, 536.2683
378.6788, 532.7696
379.1609, 522.9091
379.6430, 522.1863
380.1251, 531.0381
380.6072, 540.3369
381.0894, 548.1525
381.5715, 553.9849
382.0536, 554.3763
382.5357, 548.8177
383.0178, 542.8397
383.4999, 542.2566
383.9821, 545.9399
384.4642, 549.3533
384.9463, 552.7932
385.4284, 553.7610
385.9105, 545.9383
386.3926, 530.4558
386.8748, 516.1545
387.3569, 509.6595
387.8390, 508.0398
388.3211, 507.1793
388.8032, 507.1478
389.2853, 505.5702
389.7675, 498.2444
390.2496, 487.5100
390.7317, 479.2538
391.2138, 479.0993
391.6959, 480.8952
392.1780, 480.0031
392.6602, 475.7198
393.1423, 470.2180
393.6244, 461.7356
394.1065, 453.5102
394.5886, 449.5077
395.0707, 457.8913
395.5529, 464.4141
396.0350, 461.8172
396.5171, 450.0633
396.9992, 441.1330
397.4813, 440.5293
397.9634, 442.1407
398.4456, 441.7140
398.9277, 434.0828
399.4098, 429.7828
399.8919, 431.4049
400.3740, 437.5894
400.8561, 442.7219
401.3383, 447.9052
401.8204, 450.8206
402.3025, 450.0829
402.7846, 443.4474
403.2667, 438.5525
403.7488, 436.0951
404.2310, 434.9607
404.7131, 432.7068
405.1952, 427.9491
405.6773, 426.1476
406.1594, 430.8661
406.6415, 442.0751
407.1237, 447.0858
407.6058, 445.3821
408.0879, 438.7823
408.5700, 426.2043
409.0521, 407.4666
409.5342, 395.6964
410.0164, 396.6974
410.4985, 404.8230
410.9806, 404.7577
411.4627, 396.4753
411.9448, 387.8379
412.4269, 383.4920
412.9091, 383.2436
413.3912, 388.0727
413.8733, 400.3336
414.3554, 411.5459
414.8375, 409.1262
415.3196, 396.7980
415.8018, 385.6362
416.2839, 384.6416
416.7660, 386.1963
417.2481, 380.7435
417.7302, 366.9483
418.2123, 355.7759
418.6945, 356.9951
419.1766, 364.3166
419.6587, 369.7689
420.1408, 368.3735
420.6229, 366.6047
421.1050, 367.4748
421.5872, 370.7347
422.0693, 374.0262
422.5514, 380.5604
423.0335, 384.2885
423.5156, 380.9303
423.9977, 358.1228
424.4799, 344.5889
424.9620, 351.3444
425.4441, 369.6233
425.9262, 377.9261
426.4083, 366.6090
426.8904, 355.9732
427.3726, 352.5142
427.8547, 357.8425
428.3368, 363.7007
428.8189, 372.2878
429.3010, 379.2657
429.7831, 378.5460
430.2653, 367.2059
430.7474, 358.2771
431.2295, 354.9549
431.7116, 356.4160
432.1937, 358.1715
432.6758, 360.0968
433.1580, 362.9471
433.6401, 368.6406
434.1222, 376.6479
434.6043, 380.5544
435.0864, 378.4763
435.5685, 374.3502
436.0507, 375.9758
436.5328, 382.1216
437.0149, 385.2122
437.4970, 376.5765
437.9791, 363.8303
438.4612, 361.0257
438.9434, 369.1935
439.4255, 379.3224
439.9076, 386.1623
440.3897, 389.5333
440.8718, 388.9494
441.3539, 379.9141
441.8361, 371.1120
442.3182, 368.5282
442.8003, 371.1807
443.2824, 374.3993
443.7645, 377.0561
444.2466, 379.0109
444.7288, 380.2346
445.2109, 381.1118
445.6930, 380.4897
446.1751, 377.4230
446.6572, 372.8185
447.1393, 368.2277
447.6215, 360.2964
448.1036, 356.0024
448.5857, 358.3616
449.0678, 368.3645
449.5499, 375.2154
450.0320, 377.9759
450.5142, 378.4944
450.9963, 378.1547
451.4784, 376.8934
451.9605, 374.6582
452.4426, 370.2722
452.9247, 365.4538
453.4069, 365.9842
453.8890, 372.8070
454.3711, 380.3401
454.8532, 386.6032
455.3353, 391.4288
455.8174, 392.0307
456.2996, 387.6996
456.7817, 381.5264
457.2638, 376.9197
457.7459, 373.7225
458.2281, 371.2826
458.7102, 370.0723
459.1923, 369.0298
459.6744, 365.1686
460.1565, 359.0335
460.6386, 355.8988
461.1208, 363.8740
461.6029, 374.8087
462.0850, 379.0286
462.5671, 372.6442
463.0492, 364.0459
463.5313, 354.3883
464.0135, 346.1017
464.4956, 343.9078
464.9777, 354.5867
465.4598, 366.9752
465.9419, 377.1715
466.4240, 385.1006
466.9062, 389.8658
467.3883, 389.5165
467.8704, 386.9488
468.3525, 384.3718
468.8346, 380.5431
469.3167, 378.6508
469.7989, 379.8245
470.2810, 383.0445
470.7631, 384.7803
471.2452, 384.3704
471.7273, 383.7487
472.2094, 383.8720
472.6916, 384.8724
473.1737, 385.4247
473.6558, 385.5419
474.1379, 385.2404
474.6200, 383.4005
475.1021, 380.2086
475.5843, 380.5411
476.0664, 387.0633
476.5485, 397.0881
477.0306, 405.5935
477.5127, 412.5184
477.9948, 416.5759
478.4770, 413.6324
478.9591, 408.1243
479.4412, 408.2354
479.9233, 416.7431
480.4054, 424.6742
480.8875, 423.1030
481.3697, 416.2401
481.8518, 411.2159
482.3339, 410.9187
482.8160, 413.2063
483.2981, 418.2757
483.7802, 425.9278
484.2624, 431.8453
484.7445, 434.6528
485.2266, 435.5448
485.7087, 435.2584
486.1908, 433.7716
486.6729, 431.1713
487.1551, 425.7132
487.6372, 419.5735
488.1193, 417.2204
488.6014, 420.8217
489.0835, 424.5486
489.5656, 427.1326
490.0478, 428.5719
490.5299, 427.3654
491.0120, 422.7975
491.4941, 417.3701
491.9762, 413.7639
492.4583, 411.9856
492.9405, 407.3302
493.4226, 397.2325
493.9047, 387.0137
494.3868, 387.6651
494.8689, 397.8260
495.3510, 408.2740
495.8332, 415.6440
496.3153, 419.4463
496.7974, 417.8438
497.2795, 410.6852
497.7616, 402.4846
498.2437, 392.7399
498.7259, 385.2134
499.2080, 384.9704
499.6901, 401.1275
500.1722, 414.9699
500.6543, 414.9760
501.1364, 405.6759
501.6186, 399.3057
502.1007, 402.0946
502.5828, 406.1301
503.0649, 408.2718
503.5470, 407.7914
504.0291, 407.3723
504.5113, 406.9803
504.9934, 406.7567
505.4755, 406.6704
505.9576, 406.0411
506.4397, 407.1791
506.9218, 410.8239
507.4040, 416.2868
507.8861, 421.7233
508.3682, 427.3935
508.8503, 431.7478
509.3324, 433.7440
509.8145, 433.5544
510.2967, 432.4469
510.7788, 430.2979
511.2609, 428.0671
511.7430, 425.6436
512.2252, 423.8656
512.7073, 425.3690
513.1894, 432.3083
513.6715, 440.9807
514.1536, 448.3323
514.6357, 454.2642
515.1179, 458.4360
515.6000, 459.9383
516.0821, 460.1223
516.5642, 459.7624
517.0463, 458.8484
517.5284, 458.0351
518.0106, 457.9236
518.4927, 457.8452
518.9748, 457.1490
519.4569, 453.0931
519.9390, 451.5969
520.4211, 453.3553
520.9033, 458.0735
521.3854, 465.2734
521.8675, 478.0913
522.3496, 488.1713
522.8317, 491.9242
523.3138, 488.8956
523.7960, 483.5295
524.2781, 474.7228
524.7602, 466.4385
525.2423, 463.4352
525.7244, 465.3656
526.2065, 467.3600
526.6887, 467.9999
527.1708, 468.6934
527.6529, 472.9041
528.1350, 479.7250
528.6171, 485.0117
529.0992, 484.3859
529.5814, 481.9923
530.0635, 482.6927
530.5456, 486.8806
531.0277, 491.6534
531.5098, 497.5082
531.9919, 501.9722
532.4741, 502.5327
532.9562, 493.1695
533.4383, 486.3956
533.9204, 487.5083
534.4025, 493.5539
534.8846, 496.8103
535.3668, 494.3286
535.8489, 491.6014
536.3310, 490.3415
536.8131, 490.8113
537.2952, 488.9596
537.7773, 482.1779
538.2595, 477.5537
538.7416, 482.9567
539.2237, 499.8610
539.7058, 511.3280
540.1879, 514.8053
540.6700, 513.6974
541.1522, 512.4903
541.6343, 511.4493
542.1164, 512.7380
542.5985, 521.7953
543.0806, 531.8894
543.5627, 529.8343
544.0449, 516.6120
544.5270, 504.4970
545.0091, 502.2370
545.4912, 504.9797
545.9733, 507.9859
546.4554, 510.4316
546.9376, 512.7955
547.4197, 515.4351
547.9018, 518.0626
548.3839, 520.2007
548.8660, 522.0961
549.3481, 523.1282
549.8303, 522.5347
550.3124, 520.6284
550.7945, 520.4342
551.2766, 523.5964
551.7587, 525.9612
552.2408, 524.6826
552.7230, 518.6709
553.2051, 515.7123
553.6872, 516.2874
554.1693, 518.7419
554.6514, 522.1739
555.1335, 526.2632
555.6157, 527.3867
556.0978, 523.5568
556.5799, 517.6326
557.0620, 514.1396
557.5441, 512.6346
558.0262, 511.1506
558.5084, 508.8741
558.9905, 505.8806
559.4726, 501.4587
559.9547, 495.3928
560.4368, 491.1964
560.9189, 493.4963
561.4011, 496.8847
561.8832, 496.7172
562.3653, 486.0616
562.8474, 479.2805
563.3295, 482.1285
563.8116, 489.4285
564.2938, 490.8098
564.7759, 481.7459
565.2580, 474.6108
565.7401, 473.0709
566.2222, 476.8217
566.7043, 482.1704
567.1865, 489.8367
567.6686, 496.1553
568.1507, 498.2560
568.6328, 496.4836
569.1149, 492.9790
569.5970, 487.7368
570.0792, 481.5296
570.5613, 471.7437
571.0434, 461.7303
571.5255, 459.4521
572.0076, 475.3003
572.4897, 492.8588
572.9719, 499.2606
573.4540, 496.4229
573.9361, 491.2468
574.4182, 483.6328
574.9003, 476.9025
575.3824, 473.3290
575.8646, 474.0023
576.3467, 473.2913
576.8288, 467.9626
577.3109, 463.1139
577.7930, 463.1877
578.2751, 471.1574
578.7573, 476.7322
579.2394, 478.5975
579.7215, 478.0909
580.2036, 477.7916
580.6857, 477.7228
581.1678, 477.6761
581.6500, 477.8410
582.1321, 477.8935
582.6142, 476.9846
583.0963, 475.1298
583.5784, 472.3307
584.0605, 467.5370
584.5427, 462.2281
585.0248, 458.6824
585.5069, 457.5450
585.9890, 456.4333
586.4711, 453.2956
586.9532, 449.6324
587.4354, 447.2011
587.9175, 446.8760
588.3996, 447.3461
588.8817, 448.6219
589.3638, 450.5198
589.8459, 452.4336
590.3281, 454.1776
590.8102, 456.2142
591.2923, 459.2802
591.7744, 463.3828
592.2565, 463.5280
592.7386, 458.5242
593.2208, 453.6753
593.7029, 454.5819
594.1850, 460.2103
594.6671, 462.6660
595.1492, 460.2282
595.6313, 457.7119
596.1135, 463.0193
596.5956, 472.6129
597.0777, 478.6296
597.5598, 475.2407
598.0419, 469.8170
598.5240, 467.6740
599.0062, 467.8311
599.4883, 466.6615
599.9704, 460.1279
600.4525, 454.3414
600.9346, 452.7196
601.4167, 456.5840
601.8989, 458.7051
602.3810, 457.8102
602.8631, 456.3226
603.3452, 455.9992
603.8273, 457.0555
604.3094, 458.7654
604.7916, 461.9236
605.2737, 464.2892
605.7558, 460.8450
606.2379, 452.2149
606.7200, 445.5754
607.2021, 444.7649
607.6843, 446.1207
608.1664, 442.4615
608.6485, 435.0444
609.1306, 429.7892
609.6127, 432.2669
610.0948, 437.1814
610.5770, 440.5880
611.0591, 442.1385
611.5412, 442.4232
612.0233, 443.3432
612.5054, 442.0705
612.9875, 436.3193
613.4697, 416.5253
613.9518, 406.0229
614.4339, 409.0918
614.9160, 418.5411
615.3981, 422.8448
615.8802, 420.9438
616.3624, 418.1357
616.8445, 415.3082
617.3266, 412.7945
617.8087, 412.4732
618.2908, 414.1852
618.7729, 414.3424
619.2551, 406.8962
619.7372, 397.9940
620.2193, 399.2391
620.7014, 411.0952
621.1835, 423.0256
621.6656, 429.8616
622.1478, 432.2021
622.6299, 429.8267
623.1120, 419.4399
623.5941, 411.2803
624.0762, 409.0023
624.5583, 410.1115
625.0405, 410.9821
625.5226, 410.5702
626.0047, 411.6571
626.4868, 415.8997
626.9689, 421.6252
627.4510, 422.1689
627.9332, 416.5033
628.4153, 411.4681
628.8974, 411.1707
629.3795, 414.1019
629.8616, 413.9660
630.3438, 410.8051
630.8259, 408.1184
631.3080, 409.5079
631.7901, 412.7311
632.2722, 414.6841
632.7543, 414.6398
633.2365, 414.2745
633.7186, 414.1368
634.2007, 414.3371
634.6828, 415.0001
635.1649, 417.1315
635.6470, 418.5946
636.1292, 420.0001
636.6113, 420.4418
637.0934, 416.6999
637.5755, 404.8050
638.0576, 398.5936
638.5397, 404.7502
639.0219, 420.1546
639.5040, 426.4204
639.9861, 422.9055
640.4682, 420.1413
640.9503, 428.9661
641.4324, 443.2292
641.9146, 448.6804
642.3967, 444.2137
642.8788, 436.7935
643.3609, 427.5273
643.8430, 420.1933
644.3251, 419.8028
644.8073, 432.1419
645.2894, 442.8215
645.7715, 446.8296
646.2536, 446.8203
646.7357, 446.9274
647.2178, 446.3964
647.7000, 447.4816
648.1821, 450.6553
648.6642, 455.6813
649.1463, 463.0030
649.6284, 473.8458
650.1105, 480.4228
650.5927, 475.7258
651.0748, 464.1048
651.5569, 462.4897
652.0390, 470.6227
652.5211, 480.4963
653.0032, 487.6098
653.4854, 492.2040
653.9675, 493.1980
654.4496, 489.2965
654.9317, 488.8931
655.4138, 500.8327
655.8959, 516.1058
656.3781, 525.6290
656.8602, 518.7087
657.3423, 518.2102
657.8244, 528.6811
658.3065, 544.4598
658.7886, 555.3633
659.2708, 560.0446
659.7529, 564.2723
660.2350, 568.9044
660.7171, 574.4490
661.1992, 583.5075
661.6813, 595.8744
662.1635, 607.1352
662.6456, 613.7700
663.1277, 618.2405
663.6099, 624.5601
664.0920, 632.5789
664.5741, 639.4586
665.0562, 641.5940
665.5383, 643.2355
666.0204, 648.2341
666.5026, 659.1354
666.9847, 666.9362
667.4668, 669.8069
667.9489, 669.2083
668.4310, 665.2922
668.9131, 654.8759
669.3953, 650.4664
669.8774, 654.5294
670.3595, 663.0276
670.8416, 670.3042
671.3237, 676.1634
671.8058, 678.1849
672.2880, 674.1818
672.7701, 667.5461
673.2522, 665.0344
673.7343, 664.6644
674.2164, 659.4410
674.6985, 638.3617
675.1807, 617.0813
675.6628, 606.3987
676.1449, 606.2127
676.6270, 608.6734
677.1091, 616.9383
677.5912, 623.0885
678.0734, 623.1591
678.5555, 615.9383
679.0376, 608.2709
679.5197, 599.7631
680.0018, 591.7380
680.4839, 585.2162
680.9661, 580.2263
681.4482, 577.0562
681.9303, 576.3771
682.4124, 575.0806
682.8945, 568.7511
683.3766, 559.1407
683.8588, 549.7335
684.3409, 541.0311
684.8230, 533.6186
685.3051, 527.8729
685.7872, 523.5989
686.2693, 520.3204
686.7515, 519.5529
687.2336, 517.9288
687.7157, 514.9440
688.1978, 510.5378
688.6799, 503.6955
689.1620, 492.8321
689.6442, 483.8998
690.1263, 479.9717
690.6084, 480.3961
691.0905, 481.5815
691.5726, 483.5109
692.0547, 486.1056
692.5369, 492.2234
693.0190, 497.7955
693.5011, 495.4759
693.9832, 483.4888
694.4653, 472.5673
694.9474, 469.8766
695.4296, 470.2569
695.9117, 469.1138
696.3938, 464.2555
696.8759, 460.0646
697.3580, 456.0217
697.8401, 453.2400
698.3223, 453.6713
698.8044, 458.3712
699.2865, 461.7668
699.7686, 462.8148
700.2507, 462.2156
700.7328, 460.7078
701.2150, 458.5395
701.6971, 457.0980
702.1792, 457.0511
702.6613, 457.9411
703.1434, 459.3976
703.6255, 461.3925
704.1077, 463.8614
704.5898, 470.3218
705.0719, 473.9628
705.5540, 470.2740
706.0361, 458.7047
706.5182, 449.1944
707.0004, 440.2575
707.4825, 435.8362
707.9646, 439.6137
708.4467, 452.1072
708.9288, 461.3351
709.4109, 467.5036
709.8931, 469.3225
710.3752, 461.5535
710.8573, 449.0691
711.3394, 444.3471
711.8215, 450.6039
712.3036, 456.2965
712.7858, 448.4190
713.2679, 436.9757
713.7500, 433.9873
714.2321, 452.8303
714.7142, 465.3725
715.1964, 462.1984
715.6785, 451.6758
716.1606, 444.3727
716.6427, 440.2671
717.1248, 439.6175
717.6069, 443.5900
718.0891, 449.9097
718.5712, 453.1266
719.0533, 453.5056
719.5354, 453.1619
720.0175, 452.7384
720.4996, 452.3329
720.9818, 450.9564
721.4639, 449.4386
721.9460, 450.8354
722.4281, 463.2859
722.9102, 473.0005
723.3923, 469.6057
723.8745, 452.6074
724.3566, 445.8724
724.8387, 458.4068
725.3208, 470.3909
725.8029, 471.3281
726.2850, 460.6245
726.7672, 455.6428
727.2493, 456.8220
727.7314, 460.8283
728.2135, 467.5221
728.6956, 474.4628
729.1777, 474.3146
729.6599, 465.4424
730.1420, 457.6422
730.6241, 459.8973
731.1062, 466.0242
731.5883, 469.6686
732.0704, 467.9254
732.5526, 466.7218
733.0347, 467.2518
733.5168, 468.7345
733.9989, 470.7246
734.4810, 473.9137
734.9631, 474.7062
735.4453, 471.0549
735.9274, 467.5158
736.4095, 475.4876
736.8916, 492.3644
737.3737, 501.6386
737.8558, 495.3002
738.3380, 483.2374
738.8201, 472.9075
739.3022, 465.0752
739.7843, 461.5149
740.2664, 466.9549
740.7485, 472.6805
741.2307, 474.4435
741.7128, 473.4012
742.1949, 475.6013
742.6770, 483.4253
743.1591, 489.8382
743.6412, 491.9106
744.1234, 490.5269
744.6055, 491.6610
745.0876, 495.3528
745.5697, 496.6853
746.0518, 490.1799
746.5339, 480.4755
747.0161, 474.2480
747.4982, 471.6106
747.9803, 471.4014
748.4624, 475.1443
748.9445, 479.4361
749.4266, 482.3319
749.9088, 483.6162
750.3909, 483.3098
750.8730, 480.5551
751.3551, 477.3960
751.8372, 475.8159
752.3193, 476.2401
752.8015, 471.6635
753.2836, 460.4691
753.7657, 452.0863
754.2478, 461.3810
754.7299, 479.7010
755.2120, 486.6873
755.6942, 476.3019
756.1763, 466.1105
756.6584, 470.3235
757.1405, 479.7267
757.6226, 484.5710
758.1047, 476.2314
758.5869, 472.7925
759.0690, 478.8242
759.5511, 487.2697
760.0332, 487.5602
760.5153, 477.6841
760.9974, 473.7305
761.4796, 479.9464
761.9617, 489.6860
762.4438, 490.2419
762.9259, 485.2234
763.4080, 486.1075
763.8901, 502.4748
764.3723, 518.6490
764.8544, 521.7956
765.3365, 516.8524
765.8186, 513.9410
766.3007, 517.5424
766.7828, 521.0782
767.2650, 523.7151
767.7471, 525.2212
768.2292, 523.9045
768.7113, 518.6396
769.1934, 516.6229
769.6755, 521.7338
770.1577, 530.8862
770.6398, 537.1227
771.1219, 540.7369
771.6040, 543.1688
772.0861, 545.6905
772.5682, 547.0115
773.0504, 545.4055
773.5325, 541.3741
774.0146, 538.1129
774.4967, 537.2987
774.9788, 536.4904
775.4609, 534.7661
775.9431, 532.2151
776.4252, 530.4220
776.9073, 529.7730
777.3894, 528.1589
777.8715, 523.8657
778.3536, 517.6476
778.8358, 511.0837
779.3179, 504.3596
779.8000, 499.5713
780.2821, 499.2303
780.7642, 500.6050
781.2463, 502.0153
781.7285, 503.4199
782.2106, 503.0728
782.6927, 498.6197
783.1748, 494.0828
783.6569, 491.7145
784.1390, 491.9430
784.6212, 490.4047
785.1033, 486.5044
785.5854, 483.2280
786.0675, 483.3084
786.5496, 485.9755
787.0317, 489.7709
787.5139, 494.7147
787.9960, 498.0366
788.4781, 496.6340
788.9602, 493.2986
789.4423, 490.2570
789.9244, 487.4742
790.4066, 486.4709
790.8887, 490.7318
791.3708, 493.6002
791.8529, 488.1402
792.3350, 472.1078
792.8171, 463.6881
793.2993, 464.6240
793.7814, 469.5109
794.2635, 473.5036
794.7456, 476.6868
795.2277, 479.7579
795.7098, 483.3880
796.1920, 484.7241
796.6741, 478.4830
797.1562, 470.7204
797.6383, 467.8449
798.1204, 474.4296
798.6025, 481.2526
799.0847, 490.9228
799.5668, 497.8871
800.0489, 492.6670
800.5310, 474.4624
801.0131, 463.8882
801.4952, 464.9752
801.9774, 470.2988
802.4595, 470.3889
802.9416, 467.7890
803.4237, 467.3817
803.9058, 471.8011
804.3879, 476.1315
804.8701, 480.3264
805.3522, 482.2608
805.8343, 478.1088
806.3164, 460.8517
806.7985, 451.5473
807.2806, 453.7862
807.7628, 462.2395
808.2449, 469.6805
808.7270, 476.0371
809.2091, 480.2324
809.6912, 481.7654
810.1733, 481.5957
810.6555, 479.7822
811.1376, 477.2199
811.6197, 475.4393
812.1018, 476.0110
812.5839, 476.1007
813.0660, 473.5320
813.5482, 470.4743
814.0303, 470.9862
814.5124, 477.3410
814.9945, 479.8231
815.4766, 475.6205
815.9587, 469.1472
816.4409, 469.1279
816.9230, 474.0529
817.4051, 476.7767
817.8872, 473.9374
818.3693, 470.3392
818.8514, 469.6288
819.3336, 471.0057
819.8157, 473.0831
820.2978, 478.6608
820.7799, 480.6062
821.2620, 475.0132
821.7441, 467.0194
822.2263, 467.4689
822.7084, 477.9921
823.1905, 482.1819
823.6726, 473.5771
824.1547, 462.2008
824.6368, 466.3657
825.1190, 480.3477
825.6011, 490.0721
826.0832, 487.9384
826.5653, 483.2686
827.0474, 479.3391
827.5295, 476.3085
828.0117, 474.3831
828.4938, 472.8394
828.9760, 473.7467
829.4581, 477.8293
829.9402, 484.0165
830.4223, 492.1906
830.9044, 501.6635
831.3865, 504.1349
831.8687, 494.1119
832.3508, 482.2795
832.8329, 481.6216
833.3150, 487.7304
833.7971, 492.9980
834.2792, 495.5211
834.7614, 496.0115
835.2435, 492.5738
835.7256, 487.9702
836.2077, 486.5673
836.6898, 489.1472
837.1719, 491.9031
837.6541, 494.5201
838.1362, 496.3129
838.6183, 494.8264
839.1004, 491.4928
839.5825, 491.0688
840.0646, 497.5483
840.5468, 502.8613
841.0289, 500.7418
841.5110, 494.5497
841.9931, 489.3755
842.4752, 484.1176
842.9573, 483.0290
843.4395, 487.5948
843.9216, 495.2469
844.4037, 502.8878
844.8858, 510.4075
845.3679, 515.0711
845.8500, 516.4814
846.3322, 514.2791
846.8143, 503.9323
847.2964, 490.8613
847.7785, 483.8883
848.2606, 489.7390
848.7427, 495.3156
849.2249, 497.2362
849.7070, 497.1117
850.1891, 496.2536
850.6712, 493.8668
851.1533, 494.1867
851.6354, 498.0769
852.1176, 503.5894
852.5997, 509.6669
853.0818, 515.3289
853.5639, 517.1864
854.0460, 513.2698
854.5281, 510.0187
855.0103, 513.5954
855.4924, 518.9941
855.9745, 520.7285
856.4566, 514.8694
856.9387, 511.2928
857.4208, 511.0903
857.9030, 511.5795
858.3851, 510.0753
858.8672, 506.6779
859.3493, 500.7182
859.8314, 491.2488
860.3135, 486.3531
860.7957, 498.7751
861.2778, 517.3226
861.7599, 529.1618
862.2420, 530.5988
862.7241, 529.8535
863.2062, 527.7179
863.6884, 524.8245
864.1705, 520.5758
864.6526, 513.8523
865.1347, 514.0349
865.6168, 522.2239
866.0989, 531.2585
866.5811, 534.4402
867.0632, 534.1934
867.5453, 535.3311
868.0274, 538.3690
868.5095, 539.5706
868.9916, 534.3365
869.4738, 528.8030
869.9559, 527.3112
870.4380, 530.2375
870.9201, 533.7253
871.4022, 537.6839
871.8843, 542.5306
872.3665, 550.9714
872.8486, 560.5767
873.3307, 559.5970
873.8128, 548.8674
874.2949, 540.0601
874.7770, 543.5662
875.2592, 549.4290
875.7413, 549.6194
876.2234, 543.9733
876.7055, 542.3650
877.1876, 549.2108
877.6697, 554.0350
878.1519, 552.5673
878.6340, 545.9344
879.1161, 538.5992
879.5982, 530.6874
880.0803, 524.0500
880.5624, 519.3361
881.0446, 516.6891
881.5267, 516.4953
882.0088, 518.5394
882.4909, 522.0529
882.9730, 528.7175
883.4551, 534.5847
883.9373, 538.7420
884.4194, 541.4915
884.9015, 543.7064
885.3836, 545.4143
885.8657, 546.1631
886.3478, 545.3777
886.8300, 544.2786
887.3121, 544.3002
887.7942, 545.3868
888.2763, 547.4061
888.7584, 551.7911
889.2405, 555.3620
889.7227, 554.8978
890.2048, 554.0084
890.6869, 559.1689
891.1690, 573.4094
891.6511, 580.1698
892.1332, 575.8271
892.6154, 566.5821
893.0975, 560.2800
893.5796, 555.8646
894.0617, 550.0184
894.5438, 540.4084
895.0259, 534.2912
895.5081, 540.1206
895.9902, 548.5571
896.4723, 549.5851
896.9544, 538.5912
897.4365, 531.5729
897.9186, 529.2520
898.4008, 528.8188
898.8829, 526.7578
899.3650, 524.3644
899.8471, 526.5671
900.3292, 533.9155
900.8113, 541.6956
901.2935, 550.8657
901.7756, 556.0931
902.2577, 550.6950
902.7398, 531.0533
903.2219, 521.0657
903.7040, 524.4254
904.1862, 530.4963
904.6683, 533.3138
905.1504, 533.7832
905.6325, 538.8406
906.1146, 547.5941
906.5967, 551.0428
907.0789, 535.4829
907.5610, 519.1255
908.0431, 517.6866
908.5252, 529.2568
909.0073, 538.7048
909.4894, 544.8050
909.9716, 547.4097
910.4537, 545.4131
910.9358, 540.5747
911.4179, 538.7198
911.9000, 539.3659
912.3821, 537.5974
912.8643, 529.5175
913.3464, 521.1080
913.8285, 517.5610
914.3106, 517.6448
914.7927, 519.1510
915.2748, 523.4744
915.7570, 526.5198
916.2391, 527.3812
916.7212, 527.3268
917.2033, 528.2646
917.6854, 530.1216
918.1675, 531.3257
918.6497, 531.4766
919.1318, 531.6485
919.6139, 534.0275
920.0960, 536.4916
920.5781, 536.1309
921.0602, 530.9366
921.5424, 527.3712
922.0245, 525.9072
922.5066, 526.6573
922.9887, 530.6271
923.4708, 537.9141
923.9529, 542.7995
924.4351, 545.2661
924.9172, 545.7077
925.3993, 544.0053
925.8814, 540.7209
926.3635, 534.2482
926.8456, 525.1389
927.3278, 522.2520
927.8099, 538.7915
928.2920, 549.3563
928.7741, 543.0298
929.2562, 524.3766
929.7383, 516.6849
930.2205, 519.8827
930.7026, 524.4460
931.1847, 525.7312
931.6668, 526.4996
932.1489, 530.4661
932.6310, 536.3033
933.1132, 540.9475
933.5953, 542.6911
934.0774, 544.2210
934.5595, 546.4232
935.0416, 548.3384
935.5237, 548.3704
936.0059, 546.5426
936.4880, 543.8038
936.9701, 539.8849
937.4522, 537.0780
937.9343, 540.3386
938.4164, 544.9557
938.8986, 544.3046
939.3807, 534.1072
939.8628, 527.5202
940.3449, 528.5092
940.8270, 531.1447
941.3091, 531.2791
941.7913, 528.8356
942.2734, 527.7909
942.7555, 528.1534
943.2376, 530.1099
943.7197, 536.6259
944.2018, 542.8129
944.6840, 541.9130
945.1661, 534.6564
945.6482, 530.9701
946.1303, 536.4590
946.6124, 541.6700
947.0945, 543.9591
947.5767, 544.0746
948.0588, 544.9971
948.5409, 546.5551
949.0230, 546.0558
949.5051, 540.1902
949.9872, 535.1544
950.4694, 539.5617
950.9515, 548.2165
951.4336, 552.1682
951.9157, 543.9074
952.3978, 538.3367
952.8799, 536.3627
953.3621, 537.2844
953.8442, 541.0052
954.3263, 547.1289
954.8084, 553.4826
955.2905, 560.1051
955.7726, 563.7207
956.2548, 557.3593
956.7369, 549.4437
957.2190, 548.7197
957.7011, 558.0620
958.1832, 562.8807
958.6653, 560.0524
959.1475, 557.7896
959.6296, 561.4672
960.1117, 569.3029
960.5938, 573.3141
961.0759, 573.8736
961.5580, 573.6663
962.0402, 572.9502
962.5223, 573.2120
963.0044, 577.0818
963.4865, 582.7374
963.9686, 584.0602
964.4507, 578.0316
964.9329, 574.8185
965.4150, 576.9352
965.8971, 581.2776
966.3792, 581.7419
966.8613, 580.0844
967.3434, 581.1916
967.8256, 586.2460
968.3077, 594.4013
968.7898, 611.1628
969.2719, 626.9421
969.7540, 631.8046
970.2361, 622.1490
970.7183, 617.2770
971.2004, 618.0835
971.6825, 619.8642
972.1646, 617.9297
972.6467, 614.7448
973.1288, 614.3081
973.6110, 616.9291
974.0931, 623.5333
974.5752, 642.7028
975.0573, 657.0953
975.5394, 656.7804
976.0215, 646.5108
976.5037, 641.5891
976.9858, 642.4961
977.4679, 643.5300
977.9500, 642.3426
978.4321, 641.7710
978.9142, 647.8076
979.3964, 656.5411
979.8785, 661.1408
980.3606, 656.3602
980.8427, 653.2603
981.3248, 655.2056
981.8069, 657.6596
982.2891, 655.9023
982.7712, 649.9926
983.2533, 646.6387
983.7354, 646.1589
984.2175, 648.1424
984.6996, 655.7657
985.1818, 663.1344
985.6639, 663.2401
986.1460, 656.1052
986.6281, 653.0475
987.1102, 659.2785
987.5923, 661.7613
988.0745, 654.7068
988.5566, 642.4215
989.0387, 637.2452
989.5208, 637.8572
990.0029, 638.4425
990.4850, 636.8151
990.9672, 634.4647
991.4493, 631.9335
991.9314, 629.3928
992.4135, 626.9259
992.8957, 623.8392
993.3778, 623.1886
993.8599, 625.7426
994.3420, 628.6239
994.8242, 629.3900
995.3063, 628.2126
995.7884, 624.9685
996.2705, 619.7297
996.7526, 614.3169
997.2347, 607.3475
997.7169, 602.9372
998.1990, 604.3896
998.6811, 610.0654
999.1632, 611.1265
999.6453, 607.2958
1000.127, 603.0820
1000.610, 599.5407
1001.092, 597.4263
1001.574, 598.8104
1002.056, 602.0607
1002.538, 604.3073
1003.020, 604.4238
1003.502, 603.7679
1003.984, 601.5379
1004.466, 599.8224
1004.949, 601.5507
1005.431, 606.1414
1005.913, 608.1315
1006.395, 607.1752
1006.877, 606.1519
1007.359, 610.6789
1007.841, 613.0841
1008.323, 605.0353
1008.806, 586.7845
1009.288, 575.5118
1009.770, 571.5703
1010.252, 575.0501
1010.734, 589.5003
1011.216, 606.6588
1011.698, 607.8454
1012.180, 598.6942
1012.662, 594.1163
1013.145, 602.6883
1013.627, 610.4290
1014.109, 612.1727
1014.591, 610.8084
1015.073, 608.3721
1015.555, 604.4699
1016.037, 602.9588
1016.519, 604.1050
1017.002, 605.9019
1017.484, 608.6491
1017.966, 609.8627
1018.448, 605.6402
1018.930, 596.5296
1019.412, 588.8802
1019.894, 583.0177
1020.376, 580.4068
1020.858, 582.7491
1021.341, 587.2963
1021.823, 586.5634
1022.305, 582.0660
1022.787, 580.9095
1023.269, 586.9772
1023.751, 591.9138
1024.233, 585.9092
1024.715, 578.8844
1025.198, 582.2014
1025.680, 599.9947
1026.162, 609.8684
1026.644, 610.5798
1027.126, 609.0068
1027.608, 608.9442
1028.090, 610.4678
1028.572, 615.7291
1029.054, 623.2786
1029.536, 626.4677
1030.019, 617.9016
1030.501, 610.7625
1030.983, 607.8330
1031.465, 608.3877
1031.947, 612.6683
1032.429, 620.0125
1032.911, 623.1934
1033.393, 620.3428
1033.876, 615.2418
1034.358, 607.8625
1034.840, 601.8947
1035.322, 601.7645
1035.804, 609.3487
1036.286, 613.0898
1036.768, 611.2974
1037.250, 611.1929
1037.733, 619.2719
1038.215, 630.1878
1038.697, 629.9587
1039.179, 622.2874
1039.661, 618.8198
1040.143, 630.8097
1040.625, 639.6605
1041.107, 637.9850
1041.589, 632.5804
1042.072, 632.4396
1042.554, 637.5682
1043.036, 641.8063
1043.518, 644.6367
1044.000, 644.7518
1044.482, 640.0188
1044.964, 632.7650
1045.446, 623.3091
1045.928, 611.9069
1046.411, 606.4057
1046.893, 607.9978
1047.375, 613.4924
1047.857, 624.8492
1048.339, 635.4437
1048.821, 625.8389
1049.303, 604.5927
1049.785, 593.9501
1050.268, 608.6594
1050.750, 620.9374
1051.232, 620.3665
1051.714, 614.4452
1052.196, 607.2567
1052.678, 598.5192
1053.160, 595.2629
1053.642, 597.5873
1054.125, 603.9151
1054.607, 618.6753
1055.089, 632.3600
1055.571, 636.1013
1056.053, 631.5034
1056.535, 626.3682
1057.017, 621.1161
1057.499, 615.7862
1057.981, 610.0693
1058.464, 605.1267
1058.946, 602.3194
1059.428, 601.6808
1059.910, 604.4998
1060.392, 611.9848
1060.874, 615.8018
1061.356, 609.6531
1061.838, 601.9660
1062.320, 596.4619
1062.803, 592.9709
1063.285, 589.9333
1063.767, 587.4840
1064.249, 587.4999
1064.731, 591.6801
1065.213, 597.6536
1065.695, 607.9844
1066.177, 617.3255
1066.660, 615.8935
1067.142, 597.3129
1067.624, 584.6017
1068.106, 578.3483
1068.588, 578.3701
1069.070, 590.4265
1069.552, 605.8027
1070.034, 608.5134
1070.516, 599.2437
1070.999, 590.2097
1071.481, 583.6173
1071.963, 580.9145
1072.445, 583.8134
1072.927, 589.5275
1073.409, 591.7409
1073.891, 591.2385
1074.373, 592.4088
1074.855, 596.8824
1075.338, 600.1465
1075.820, 598.4453
1076.302, 594.8513
1076.784, 591.2020
1077.266, 587.5045
1077.748, 587.6456
1078.230, 592.1847
1078.713, 595.3262
1079.195, 592.3915
1079.677, 588.3002
1080.159, 590.7396
1080.641, 596.4412
1081.123, 599.0339
1081.605, 592.2425
1082.087, 589.1874
1082.569, 590.2367
1083.052, 595.0073
1083.534, 608.1076
1084.016, 623.6926
1084.498, 621.9758
1084.980, 603.8614
1085.462, 590.4649
1085.944, 598.2252
1086.426, 606.1521
1086.908, 606.0563
1087.391, 600.6392
1087.873, 594.8197
1088.355, 588.8036
1088.837, 587.1510
1089.319, 591.4267
1089.801, 597.4092
1090.283, 604.1347
1090.765, 609.0369
1091.248, 608.3627
1091.730, 601.4132
1092.212, 598.3175
1092.694, 599.6541
1093.176, 602.2612
1093.658, 605.6962
1094.140, 608.3381
1094.622, 605.7662
1095.104, 600.8156
1095.587, 599.1025
1096.069, 605.7169
1096.551, 610.3442
1097.033, 612.9539
1097.515, 612.4875
1097.997, 605.3269
1098.479, 594.2966
1098.961, 590.7488
1099.443, 594.2513
1099.926, 599.6960
1100.408, 607.2807
1100.890, 612.7762
1101.372, 612.9830
1101.854, 610.8647
1102.336, 611.9730
1102.818, 616.2018
1103.300, 619.5474
1103.783, 621.4868
1104.265, 621.7021
1104.747, 618.7634
1105.229, 614.8984
1105.711, 612.2548
1106.193, 610.8822
1106.675, 607.6854
1107.157, 601.9420
1107.640, 598.5578
1108.122, 600.5648
1108.604, 603.2653
1109.086, 599.0139
1109.568, 591.2063
1110.050, 584.7181
1110.532, 579.3170
1111.014, 579.5352
1111.496, 588.1779
1111.979, 596.8454
1112.461, 599.2603
1112.943, 597.7484
1113.425, 601.5173
1113.907, 608.0966
1114.389, 608.7847
1114.871, 588.8177
1115.353, 576.7377
1115.835, 585.3209
1116.318, 599.6389
1116.800, 601.6578
1117.282, 592.9688
1117.764, 592.1411
1118.246, 600.0430
1118.728, 604.4542
1119.210, 590.1453
1119.692, 576.5494
1120.175, 579.6425
1120.657, 592.7684
1121.139, 595.4769
1121.621, 586.5402
1122.103, 581.5515
1122.585, 584.0799
1123.067, 588.2109
1123.549, 587.6565
1124.031, 585.7763
1124.514, 586.3452
1124.996, 590.0735
1125.478, 592.5115
1125.960, 593.8038
1126.442, 592.7458
1126.924, 587.4034
1127.406, 581.7751
1127.888, 583.4271
1128.370, 589.2550
1128.853, 594.0762
1129.335, 597.1464
1129.817, 597.1946
1130.299, 592.1435
1130.781, 588.0519
1131.263, 590.0292
1131.745, 595.7030
1132.227, 597.6620
1132.710, 596.6374
1133.192, 595.2902
1133.674, 596.5797
1134.156, 595.1531
1134.638, 586.1264
1135.120, 577.4521
1135.602, 580.1635
1136.084, 592.2047
1136.567, 595.1863
1137.049, 588.6322
1137.531, 581.4003
1138.013, 578.3751
1138.495, 576.9552
1138.977, 574.7766
1139.459, 573.5085
1139.941, 578.5259
1140.423, 590.1968
1140.906, 595.3806
1141.388, 591.4345
1141.870, 586.1362
1142.352, 587.4485
1142.834, 589.4785
1143.316, 585.9170
1143.798, 577.3359
1144.280, 574.0958
1144.762, 577.3693
1145.245, 578.8259
1145.727, 575.2696
1146.209, 570.6485
1146.691, 568.5411
1147.173, 568.7540
1147.655, 571.3363
1148.137, 576.9926
1148.619, 582.7272
1149.102, 589.6359
1149.584, 592.7233
1150.066, 587.7735
1150.548, 579.3610
1151.030, 573.9541
1151.512, 571.4064
1151.994, 571.5256
1152.476, 576.9014
1152.958, 579.7997
1153.441, 578.6891
1153.923, 577.2256
1154.405, 579.2397
1154.887, 582.7643
1155.369, 581.1074
1155.851, 575.6765
1156.333, 571.9594
1156.815, 575.5051
1157.297, 576.1925
1157.780, 570.2968
1158.262, 563.4653
1158.744, 562.3801
1159.226, 566.0469
1159.708, 571.4319
1160.190, 577.9355
1160.672, 581.2140
1161.154, 571.7081
1161.637, 567.3516
1162.119, 579.7492
1162.601, 597.6949
1163.083, 599.6213
1163.565, 587.5062
1164.047, 577.1346
1164.529, 570.8901
1165.011, 566.7852
1165.494, 563.8252
1165.976, 562.3901
1166.458, 563.2454
1166.940, 565.6487
1167.422, 566.8426
1167.904, 566.8865
1168.386, 568.6161
1168.868, 573.7393
1169.350, 576.5211
1169.833, 568.7384
1170.315, 559.1621
1170.797, 555.5485
1171.279, 557.7040
1171.761, 562.1237
1172.243, 568.9755
1172.725, 573.5771
1173.207, 573.6888
1173.689, 571.8270
1174.172, 570.0740
1174.654, 567.9519
1175.136, 564.3389
1175.618, 558.4479
1176.100, 556.3672
1176.582, 558.4683
1177.064, 561.1959
1177.546, 563.0998
1178.029, 564.0352
1178.511, 562.2206
1178.993, 559.8317
1179.475, 561.4546
1179.957, 572.1980
1180.439, 572.9131
1180.921, 561.2850
1181.403, 550.6991
1181.885, 552.0637
1182.368, 559.8495
1182.850, 569.8970
1183.332, 580.2106
1183.814, 585.3545
1184.296, 582.7228
1184.778, 578.7783
1185.260, 573.3706
1185.742, 568.9019
1186.224, 567.9045
1186.707, 569.3757
1187.189, 572.4108
1187.671, 576.7125
1188.153, 581.5527
1188.635, 590.4936
1189.117, 591.3423
1189.599, 579.9735
1190.081, 566.4925
1190.564, 564.9459
1191.046, 569.2944
1191.528, 569.8714
1192.010, 566.0020
1192.492, 562.4442
1192.974, 556.7695
1193.456, 558.9019
1193.938, 573.8800
1194.421, 591.7130
1194.903, 597.5914
1195.385, 594.9195
1195.867, 588.7377
1196.349, 579.5400
1196.831, 571.5384
1197.313, 564.6268
1197.795, 560.5704
1198.277, 559.7294
1198.760, 562.3294
1199.242, 573.4157
1199.724, 587.0798
1200.206, 589.3036
1200.688, 573.7363
1201.170, 563.8932
1201.652, 566.5413
1202.134, 570.9473
1202.616, 572.7578
1203.099, 573.1307
1203.581, 574.7479
1204.063, 577.2153
1204.545, 579.9571
1205.027, 584.4530
1205.509, 583.9149
1205.991, 572.6529
1206.473, 564.7593
1206.956, 570.8984
1207.438, 584.2438
1207.920, 585.9166
1208.402, 578.7267
1208.884, 569.7941
1209.366, 557.1451
1209.848, 552.3685
1210.330, 559.9226
1210.813, 569.7747
1211.295, 575.7270
1211.777, 578.2292
1212.259, 577.0206
1212.741, 573.3687
1213.223, 571.2106
1213.705, 572.1750
1214.187, 574.9807
1214.669, 580.6304
1215.151, 585.7419
1215.634, 586.7084
1216.116, 584.9266
1216.598, 583.9638
1217.080, 583.9510
1217.562, 585.1182
1218.044, 590.4202
1218.526, 592.4938
1219.008, 589.6199
1219.491, 584.6304
1219.973, 579.0615
1220.455, 573.8767
1220.937, 572.4415
1221.419, 574.2169
1221.901, 575.8250
1222.383, 574.2997
1222.865, 575.2179
1223.348, 580.3148
1223.830, 586.3148
1224.312, 590.3532
1224.794, 592.0710
1225.276, 588.5638
1225.758, 580.9124
1226.240, 577.3746
1226.722, 588.0497
1227.204, 592.3045
1227.687, 585.1996
1228.169, 574.5125
1228.651, 569.0710
1229.133, 568.1295
1229.615, 571.6558
1230.097, 579.0912
1230.579, 584.7206
1231.061, 586.7155
1231.543, 587.5461
1232.026, 587.9171
1232.508, 586.6656
1232.990, 578.9758
1233.472, 569.7955
1233.954, 570.3046
1234.436, 581.0205
1234.918, 585.8106
1235.400, 577.6519
1235.883, 573.2009
1236.365, 577.5355
1236.847, 583.9651
1237.329, 580.7321
1237.811, 563.8342
1238.293, 575.2153
1238.775, 581.6396
1239.257, 583.3737
1239.740, 566.3695
1240.222, 573.5620
1240.704, 571.0574
1241.186, 568.1552
1241.668, 578.7532
1242.150, 564.4744
1242.632, 574.8583
1243.114, 575.3972
1243.596, 580.4420
1244.079, 575.7300
1244.561, 574.0315
1245.043, 582.0930
1245.525, 584.7502
1246.007, 578.9150
1246.489, 584.2462
1246.971, 569.6264
1247.453, 574.9316
1247.936, 576.5611
1248.418, 580.6678
1248.900, 583.7535
1249.382, 584.8962
1249.864, 583.8276
1250.346, 576.1704
1250.828, 568.7009
1251.310, 570.8177
1251.792, 583.1539
1252.275, 589.9762
1252.757, 591.0162
1253.239, 591.3441
1253.721, 592.4741
1254.203, 594.4147
1254.685, 598.3612
1255.167, 602.3152
1255.649, 605.0508
1256.131, 606.4703
1256.614, 600.3281
1257.096, 586.9304
1257.578, 578.1041
1258.060, 579.5184
1258.542, 583.7036
1259.024, 586.1611
1259.506, 588.3076
1259.988, 592.0685
1260.471, 596.9510
1260.953, 596.7560
1261.435, 592.0801
1261.917, 587.8527
1262.399, 586.5600
1262.881, 584.6459
1263.363, 576.8418
1263.845, 571.1624
1264.328, 574.1512
1264.810, 583.7350
1265.292, 588.1339
1265.774, 588.6349
1266.256, 591.6213
1266.738, 604.4468
1267.220, 607.9104
1267.702, 583.9213
1268.184, 563.4153
1268.667, 566.5615
1269.149, 585.5990
1269.631, 595.5934
1270.113, 598.2500
1270.595, 598.1397
1271.077, 595.1964
1271.559, 593.4773
1272.041, 596.0621
1272.523, 594.5871
1273.006, 579.2278
1273.488, 560.3803
1273.970, 567.4725
1274.452, 588.5980
1274.934, 598.2943
1275.416, 581.5875
1275.898, 574.0784
1276.380, 578.9714
1276.863, 585.8990
1277.345, 589.4600
1277.827, 590.9141
1278.309, 591.2242
1278.791, 591.0751
1279.273, 591.6306
1279.755, 593.1518
1280.237, 595.4823
1280.719, 599.0340
1281.202, 600.2017
1281.684, 596.1701
1282.166, 590.1534
1282.648, 581.4064
1283.130, 574.8797
1283.612, 579.1765
1284.094, 596.0670
1284.576, 601.1948
1285.058, 594.7897
1285.541, 588.3395
1286.023, 585.8471
##END=



