##NAMES=Glaucodot
##RRUFFID=R070294
##IDEAL CHEMISTRY=Co^3+^Fe^3+^(AsS)^3-^_2_
##LOCALITY=Hakansboda, Lindesberg, Västmanland, Sweden
##OWNER=RRUFF
##SOURCE=Michael Scott
##DESCRIPTION=Grey metallic associated with chalcopyrite. Crystal structure solved using this sample, reported in Yang and Downs (2008).
##STATUS=The identification of this mineral is confirmed by single-crystal X-ray diffraction and chemical analysis.
##URL=rruff.info/R070294
##MEASURED CHEMISTRY=(Co_0.52_Fe_0.47_Ni_0.01_)_Σ=1_As_1.00_S_1.00_
144.8407, 311.8115
145.3228, 316.2809
145.8049, 322.5454
146.2870, 330.5633
146.7691, 344.1431
147.2512, 354.3337
147.7334, 358.1968
148.2155, 353.6591
148.6976, 352.2962
149.1797, 356.2709
149.6618, 362.8147
150.1439, 368.2234
150.6261, 369.4767
151.1082, 372.2444
151.5903, 379.0313
152.0724, 394.3522
152.5545, 403.5750
153.0366, 399.1302
153.5188, 388.0638
154.0009, 384.2400
154.4830, 398.9642
154.9651, 414.3551
155.4472, 422.3680
155.9293, 416.7534
156.4115, 411.4182
156.8936, 410.0877
157.3757, 411.4197
157.8578, 410.7463
158.3399, 402.4717
158.8221, 394.2123
159.3042, 390.8703
159.7863, 399.1015
160.2684, 407.0571
160.7505, 409.5118
161.2326, 407.3619
161.7148, 407.3650
162.1969, 415.9968
162.6790, 426.7868
163.1611, 433.3932
163.6432, 430.9691
164.1253, 426.1209
164.6075, 421.2306
165.0896, 416.3441
165.5717, 413.4653
166.0538, 415.8987
166.5359, 420.6701
167.0180, 423.5336
167.5002, 418.9665
167.9823, 414.2000
168.4644, 415.5912
168.9465, 424.3590
169.4286, 434.0338
169.9107, 441.8156
170.3929, 447.0711
170.8750, 448.6575
171.3571, 442.4901
171.8392, 433.8369
172.3213, 428.4930
172.8034, 427.7309
173.2856, 428.6452
173.7677, 428.5154
174.2498, 427.7975
174.7319, 428.0485
175.2140, 430.6554
175.6961, 434.7132
176.1783, 439.3441
176.6604, 445.3914
177.1425, 450.0652
177.6246, 448.7850
178.1067, 442.2854
178.5888, 435.2311
179.0710, 431.0522
179.5531, 428.8783
180.0352, 426.7856
180.5173, 423.8845
180.9994, 421.3250
181.4815, 420.9546
181.9637, 422.7538
182.4458, 426.1840
182.9279, 432.3466
183.4100, 440.1974
183.8921, 445.8639
184.3742, 447.6911
184.8564, 446.8777
185.3385, 445.9520
185.8206, 444.9095
186.3027, 443.7136
186.7848, 441.2546
187.2669, 437.9926
187.7491, 437.3600
188.2312, 441.9439
188.7133, 450.1254
189.1954, 456.3193
189.6775, 460.4862
190.1596, 462.6245
190.6418, 461.9435
191.1239, 458.5149
191.6060, 455.2725
192.0881, 453.9567
192.5702, 454.2010
193.0524, 452.2568
193.5345, 447.4437
194.0166, 442.2214
194.4987, 440.4241
194.9808, 442.1765
195.4629, 445.4928
195.9451, 451.1355
196.4272, 459.0488
196.9093, 461.1574
197.3914, 455.8004
197.8735, 446.8517
198.3556, 441.5604
198.8378, 440.3485
199.3199, 440.1715
199.8020, 439.6328
200.2841, 438.7271
200.7662, 437.4266
201.2483, 435.2965
201.7305, 433.1662
202.2126, 433.6017
202.6947, 437.3530
203.1768, 440.8707
203.6589, 441.8323
204.1410, 439.8822
204.6232, 437.6346
205.1053, 434.7347
205.5874, 431.9361
206.0695, 432.7982
206.5516, 439.2617
207.0337, 444.2888
207.5159, 441.6886
207.9980, 429.2188
208.4801, 420.2281
208.9622, 417.2954
209.4443, 419.0694
209.9264, 418.6359
210.4086, 414.8847
210.8907, 411.1483
211.3728, 410.1627
211.8549, 412.6145
212.3370, 415.4423
212.8191, 418.1907
213.3013, 420.9162
213.7834, 424.6769
214.2655, 430.5385
214.7476, 435.7327
215.2297, 437.6426
215.7118, 435.3592
216.1940, 432.2123
216.6761, 428.1128
217.1582, 423.1885
217.6403, 421.0506
218.1224, 422.6974
218.6045, 425.8214
219.0867, 428.4481
219.5688, 430.8138
220.0509, 432.0757
220.5330, 432.0750
221.0151, 430.8141
221.4972, 427.8681
221.9794, 421.4257
222.4615, 415.2879
222.9436, 414.1758
223.4257, 421.6894
223.9078, 426.6272
224.3899, 424.7650
224.8721, 415.0372
225.3542, 412.7842
225.8363, 421.9677
226.3184, 434.8442
226.8005, 442.2625
227.2827, 441.9024
227.7648, 440.3806
228.2469, 439.4231
228.7290, 439.3208
229.2111, 437.1876
229.6932, 430.7591
230.1754, 424.1574
230.6575, 423.7251
231.1396, 435.2220
231.6217, 442.4943
232.1038, 438.8528
232.5859, 420.4543
233.0681, 412.4394
233.5502, 419.6450
234.0323, 433.7355
234.5144, 442.9603
234.9965, 445.8938
235.4786, 446.1205
235.9608, 443.5543
236.4429, 436.5966
236.9250, 434.8461
237.4071, 441.7294
237.8892, 451.7096
238.3713, 455.5925
238.8535, 449.5239
239.3356, 443.8182
239.8177, 442.1143
240.2998, 445.9248
240.7819, 447.8551
241.2640, 447.1787
241.7462, 445.0766
242.2283, 443.3282
242.7104, 441.0315
243.1925, 440.6373
243.6746, 443.9923
244.1567, 453.8378
244.6389, 457.4305
245.1210, 450.7942
245.6031, 440.2780
246.0852, 438.0392
246.5673, 450.1859
247.0494, 460.1493
247.5316, 460.8773
248.0137, 447.8910
248.4958, 441.1258
248.9779, 443.2133
249.4600, 450.0924
249.9421, 454.0429
250.4243, 453.3124
250.9064, 452.8768
251.3885, 455.3297
251.8706, 463.0536
252.3527, 464.9829
252.8348, 457.3873
253.3170, 446.3138
253.7991, 444.2851
254.2812, 456.5913
254.7633, 467.8383
255.2454, 471.8776
255.7275, 466.5663
256.2097, 462.0539
256.6918, 459.5502
257.1739, 457.0697
257.6560, 449.2303
258.1381, 430.3582
258.6202, 417.9065
259.1024, 420.4809
259.5845, 443.0761
260.0666, 459.9649
260.5487, 470.6025
261.0308, 475.8893
261.5129, 477.3429
261.9951, 473.9332
262.4772, 469.0938
262.9593, 463.6542
263.4414, 456.9792
263.9235, 452.4077
264.4056, 449.6749
264.8878, 449.2629
265.3699, 453.0416
265.8520, 463.2993
266.3341, 471.2681
266.8162, 472.1837
267.2983, 464.1454
267.7805, 461.8338
268.2626, 467.4673
268.7447, 476.3963
269.2268, 479.9893
269.7089, 476.5321
270.1910, 473.9059
270.6732, 476.0623
271.1553, 483.8225
271.6374, 487.4264
272.1195, 485.0009
272.6016, 481.1716
273.0837, 485.4004
273.5659, 500.1407
274.0480, 510.4683
274.5301, 508.3476
275.0122, 493.1544
275.4943, 483.9396
275.9764, 481.6538
276.4586, 483.5595
276.9407, 486.4642
277.4228, 490.5596
277.9049, 493.7539
278.3870, 495.8526
278.8691, 496.7467
279.3513, 492.2291
279.8334, 480.1018
280.3155, 468.2175
280.7976, 469.7697
281.2798, 485.4402
281.7619, 498.2569
282.2440, 500.7292
282.7261, 494.2491
283.2082, 489.5499
283.6903, 487.0685
284.1725, 484.7599
284.6546, 478.2966
285.1367, 468.0386
285.6188, 462.1926
286.1009, 465.6823
286.5830, 476.1378
287.0652, 483.9058
287.5473, 488.9228
288.0294, 491.2258
288.5115, 489.1269
288.9936, 483.2967
289.4757, 479.3808
289.9579, 479.9935
290.4400, 483.6703
290.9221, 487.4507
291.4042, 491.5411
291.8863, 493.1513
292.3684, 485.7772
292.8506, 472.2761
293.3327, 465.1886
293.8148, 471.7294
294.2969, 485.1745
294.7790, 492.4613
295.2611, 493.5962
295.7433, 492.9885
296.2254, 495.6210
296.7075, 499.7147
297.1896, 499.9195
297.6717, 492.2525
298.1538, 482.0513
298.6360, 476.8908
299.1181, 476.5816
299.6002, 479.4246
300.0823, 488.6920
300.5644, 499.6926
301.0465, 502.8861
301.5287, 491.7050
302.0108, 476.8399
302.4929, 470.2192
302.9750, 470.8602
303.4571, 473.4957
303.9392, 475.2051
304.4214, 476.5608
304.9035, 478.7424
305.3856, 483.3831
305.8677, 486.6395
306.3498, 482.6343
306.8319, 473.6238
307.3141, 467.5091
307.7962, 473.1805
308.2783, 482.1091
308.7604, 485.4493
309.2425, 479.2520
309.7246, 471.8794
310.2068, 468.5871
310.6889, 468.2694
311.1710, 467.9982
311.6531, 463.7071
312.1352, 460.5352
312.6173, 463.8707
313.0995, 477.9432
313.5816, 488.4978
314.0637, 484.1988
314.5458, 472.0381
315.0279, 465.1549
315.5100, 474.8444
315.9922, 486.4171
316.4743, 491.7688
316.9564, 488.6968
317.4385, 484.6601
317.9206, 481.2492
318.4027, 478.5410
318.8849, 476.6431
319.3670, 477.6157
319.8491, 477.6178
320.3312, 474.9200
320.8133, 468.9655
321.2954, 462.8652
321.7776, 453.8348
322.2597, 446.1936
322.7418, 444.5455
323.2239, 455.5830
323.7060, 466.6545
324.1881, 475.8709
324.6703, 483.3307
325.1524, 486.5588
325.6345, 482.3665
326.1166, 475.4218
326.5987, 469.4264
327.0808, 464.4941
327.5630, 460.3801
328.0451, 456.0443
328.5272, 451.6925
329.0093, 452.1505
329.4914, 462.0338
329.9735, 472.5167
330.4557, 477.7049
330.9378, 474.4344
331.4199, 471.3288
331.9020, 468.9929
332.3841, 467.3174
332.8662, 465.8050
333.3484, 464.5982
333.8305, 463.3602
334.3126, 462.2915
334.7947, 462.3975
335.2768, 459.0154
335.7589, 449.4790
336.2411, 437.6819
336.7232, 434.1801
337.2053, 441.5593
337.6874, 449.7675
338.1695, 454.4078
338.6516, 455.2247
339.1338, 453.9221
339.6159, 449.7254
340.0980, 444.7008
340.5801, 443.2697
341.0622, 445.9832
341.5443, 446.9171
342.0265, 441.2818
342.5086, 430.4346
342.9907, 428.2239
343.4728, 436.2831
343.9549, 446.6512
344.4370, 448.6476
344.9192, 443.1429
345.4013, 438.5315
345.8834, 438.8282
346.3655, 441.8657
346.8476, 441.1056
347.3297, 436.4012
347.8119, 432.2133
348.2940, 435.7574
348.7761, 443.6157
349.2582, 444.9129
349.7403, 432.6354
350.2225, 416.4699
350.7046, 410.3190
351.1867, 413.3072
351.6688, 419.1219
352.1509, 425.2906
352.6331, 430.8441
353.1152, 434.5180
353.5973, 436.5054
354.0794, 435.6507
354.5615, 428.1567
355.0436, 416.3766
355.5258, 407.4726
356.0079, 408.6834
356.4900, 412.6607
356.9721, 412.4669
357.4542, 405.6795
357.9363, 399.3304
358.4185, 397.6662
358.9006, 399.0760
359.3827, 400.7726
359.8648, 402.2044
360.3469, 403.2194
360.8290, 403.9495
361.3112, 404.5310
361.7933, 403.8587
362.2754, 398.7495
362.7575, 393.2599
363.2396, 391.7935
363.7217, 402.7798
364.2039, 410.4738
364.6860, 408.2775
365.1681, 395.9787
365.6502, 388.3282
366.1323, 392.3306
366.6144, 398.2184
367.0966, 399.2372
367.5787, 389.3295
368.0608, 381.7149
368.5429, 378.0331
369.0250, 377.5415
369.5071, 376.3309
369.9893, 372.2162
370.4714, 369.9067
370.9535, 372.4106
371.4356, 383.9204
371.9177, 390.5219
372.3998, 390.8870
372.8820, 386.8290
373.3641, 381.2628
373.8462, 372.0145
374.3283, 367.0353
374.8104, 372.3022
375.2925, 389.5974
375.7747, 395.3956
376.2568, 386.9781
376.7389, 372.5623
377.2210, 362.3965
377.7031, 356.5909
378.1852, 353.5026
378.6674, 352.8380
379.1495, 354.4554
379.6316, 358.5229
380.1137, 365.2933
380.5958, 371.9120
381.0779, 376.2856
381.5601, 378.3811
382.0422, 377.5006
382.5243, 372.5048
383.0064, 365.7467
383.4885, 360.9577
383.9706, 357.9409
384.4528, 355.5733
384.9349, 353.5841
385.4170, 351.5950
385.8991, 348.3607
386.3812, 342.8639
386.8633, 338.7433
387.3455, 341.3404
387.8276, 347.9914
388.3097, 352.6391
388.7918, 348.3957
389.2739, 343.3334
389.7560, 345.3696
390.2382, 355.8293
390.7203, 364.6291
391.2024, 363.4367
391.6845, 358.5640
392.1666, 357.2767
392.6487, 368.2905
393.1309, 377.4250
393.6130, 378.1158
394.0951, 370.9441
394.5772, 363.4442
395.0593, 354.1456
395.5414, 347.2520
396.0236, 345.5125
396.5057, 356.6148
396.9878, 364.2126
397.4699, 364.7964
397.9520, 360.4968
398.4341, 358.0421
398.9163, 359.1553
399.3984, 360.3309
399.8805, 360.2415
400.3626, 358.3104
400.8447, 356.7199
401.3268, 354.9020
401.8090, 353.8492
402.2911, 355.4113
402.7732, 361.0090
403.2553, 365.3808
403.7374, 366.4861
404.2195, 364.6130
404.7017, 365.5880
405.1838, 370.5001
405.6659, 375.3320
406.1480, 376.5565
406.6301, 374.1658
407.1122, 369.1136
407.5944, 359.5220
408.0765, 349.4753
408.5586, 350.9795
409.0407, 363.8070
409.5228, 376.2969
410.0049, 379.3855
410.4871, 376.0669
410.9692, 375.5115
411.4513, 379.5141
411.9334, 382.7305
412.4155, 377.8039
412.8976, 366.8800
413.3798, 356.4213
413.8619, 347.0275
414.3440, 340.7530
414.8261, 341.2706
415.3082, 348.5941
415.7903, 355.6821
416.2725, 356.9814
416.7546, 355.8887
417.2367, 356.3751
417.7188, 363.0068
418.2009, 367.7738
418.6830, 363.7975
419.1652, 354.0266
419.6473, 349.4378
420.1294, 362.1421
420.6115, 374.7325
421.0937, 376.9383
421.5758, 361.1609
422.0579, 348.3820
422.5400, 340.9536
423.0221, 338.1691
423.5042, 338.8502
423.9864, 347.7380
424.4685, 354.6471
424.9506, 356.5515
425.4327, 352.8792
425.9148, 351.3405
426.3969, 352.9799
426.8791, 355.5593
427.3612, 357.1036
427.8433, 357.2117
428.3254, 357.9344
428.8075, 361.0533
429.2896, 364.3718
429.7718, 358.1499
430.2539, 340.0648
430.7360, 324.6416
431.2181, 322.7641
431.7002, 333.3257
432.1823, 340.0874
432.6645, 341.9296
433.1466, 341.0310
433.6287, 338.4616
434.1108, 335.0219
434.5929, 334.9896
435.0750, 344.5780
435.5572, 356.7554
436.0393, 357.4194
436.5214, 347.0562
437.0035, 335.9592
437.4856, 332.2905
437.9677, 332.9344
438.4499, 333.4280
438.9320, 331.5543
439.4141, 331.1200
439.8962, 336.5604
440.3783, 345.7047
440.8604, 353.1181
441.3426, 357.6782
441.8247, 358.7619
442.3068, 354.0605
442.7889, 341.1009
443.2710, 333.1930
443.7531, 337.9437
444.2353, 347.9802
444.7174, 355.2332
445.1995, 357.8937
445.6816, 358.3342
446.1637, 354.9689
446.6458, 348.5139
447.1280, 346.6569
447.6101, 352.6840
448.0922, 359.7043
448.5743, 363.9167
449.0564, 364.4753
449.5385, 364.5987
450.0207, 364.5718
450.5028, 363.9743
450.9849, 361.6321
451.4670, 357.1436
451.9491, 352.9759
452.4312, 349.2373
452.9134, 346.3623
453.3955, 348.9707
453.8776, 357.8596
454.3597, 366.4694
454.8418, 366.7648
455.3239, 360.8075
455.8061, 357.6613
456.2882, 361.0952
456.7703, 365.4902
457.2524, 360.6413
457.7345, 348.9516
458.2166, 340.1395
458.6988, 344.4636
459.1809, 352.5198
459.6630, 353.2743
460.1451, 344.6929
460.6272, 335.6488
461.1093, 329.1147
461.5915, 326.2111
462.0736, 328.5238
462.5557, 347.2281
463.0378, 360.7878
463.5199, 356.9309
464.0020, 338.3174
464.4842, 325.2544
464.9663, 324.4919
465.4484, 328.5891
465.9305, 333.8410
466.4126, 341.2574
466.8947, 347.9675
467.3769, 355.3737
467.8590, 361.4543
468.3411, 362.3241
468.8232, 354.6135
469.3053, 348.4114
469.7874, 346.7568
470.2696, 349.3718
470.7517, 351.2912
471.2338, 352.5681
471.7159, 352.9845
472.1980, 351.7693
472.6801, 348.9820
473.1623, 347.1845
473.6444, 346.4425
474.1265, 347.3810
474.6086, 352.6703
475.0907, 361.4739
475.5728, 368.3820
476.0550, 371.4313
476.5371, 370.4408
477.0192, 362.8531
477.5013, 348.4461
477.9834, 336.0782
478.4655, 333.9995
478.9477, 337.6230
479.4298, 341.0551
479.9119, 343.0840
480.3940, 343.8705
480.8761, 341.8732
481.3582, 338.4627
481.8404, 337.6257
482.3225, 343.3071
482.8046, 349.6772
483.2867, 353.8339
483.7688, 354.5185
484.2509, 356.5078
484.7331, 364.4104
485.2152, 371.5827
485.6973, 371.3454
486.1794, 357.0686
486.6615, 346.8207
487.1436, 344.2431
487.6258, 347.6269
488.1079, 348.4747
488.5900, 345.4529
489.0721, 343.5828
489.5542, 347.4456
490.0363, 357.1604
490.5185, 359.2717
491.0006, 351.6255
491.4827, 342.3598
491.9648, 343.9984
492.4470, 354.3629
492.9291, 361.3937
493.4112, 359.3392
493.8933, 353.0279
494.3754, 348.5815
494.8575, 346.0744
495.3397, 346.2317
495.8218, 352.8368
496.3039, 360.7611
496.7860, 364.2453
497.2681, 361.9303
497.7502, 357.4693
498.2324, 349.0798
498.7145, 340.7513
499.1966, 337.7532
499.6787, 350.9650
500.1608, 360.4009
500.6429, 356.6702
501.1251, 340.8321
501.6072, 331.5218
502.0893, 334.3407
502.5714, 340.0123
503.0535, 344.3419
503.5356, 346.5886
504.0178, 349.3498
504.4999, 353.2222
504.9820, 357.0357
505.4641, 358.6747
505.9462, 357.5715
506.4283, 357.4434
506.9105, 360.4888
507.3926, 365.0609
507.8747, 364.1098
508.3568, 357.4182
508.8389, 348.8870
509.3210, 338.1654
509.8032, 327.7526
510.2853, 325.7376
510.7674, 334.6047
511.2495, 345.5366
511.7316, 350.5955
512.2137, 350.9895
512.6959, 349.1475
513.1780, 342.3285
513.6601, 336.7541
514.1422, 337.1410
514.6243, 342.8520
515.1064, 349.2594
515.5886, 357.4529
516.0707, 363.7680
516.5528, 365.5784
517.0349, 360.2967
517.5170, 355.2957
517.9991, 351.0130
518.4813, 347.5079
518.9634, 345.0112
519.4455, 344.3561
519.9276, 343.2466
520.4097, 340.9451
520.8918, 337.7600
521.3740, 335.0590
521.8561, 332.3420
522.3382, 331.7665
522.8203, 335.8185
523.3024, 344.1214
523.7845, 351.3585
524.2667, 357.7296
524.7488, 361.2124
525.2309, 356.8407
525.7130, 347.0678
526.1951, 340.5044
526.6772, 340.6936
527.1594, 344.9338
527.6415, 353.2902
528.1236, 364.0502
528.6057, 369.8058
529.0878, 359.8443
529.5699, 347.4386
530.0521, 343.5157
530.5342, 351.4507
531.0163, 358.6494
531.4984, 361.4679
531.9805, 361.4052
532.4626, 360.0864
532.9448, 355.3969
533.4269, 352.2285
533.9090, 351.0562
534.3911, 351.7923
534.8732, 354.6519
535.3553, 361.9395
535.8375, 366.9829
536.3196, 364.8521
536.8017, 354.7811
537.2838, 355.2759
537.7659, 369.3592
538.2480, 384.0497
538.7302, 383.8281
539.2123, 370.7116
539.6944, 358.2076
540.1765, 348.4232
540.6586, 342.0146
541.1407, 341.2909
541.6229, 344.9708
542.1050, 348.4107
542.5871, 348.0265
543.0692, 347.0025
543.5513, 348.7270
544.0334, 353.3302
544.5156, 357.1203
544.9977, 359.2357
545.4798, 359.3264
545.9619, 356.8667
546.4440, 348.4151
546.9261, 342.3947
547.4083, 341.1061
547.8904, 342.7559
548.3725, 343.9369
548.8546, 342.7158
549.3367, 344.4238
549.8188, 352.0637
550.3010, 364.6990
550.7831, 370.5041
551.2652, 367.7941
551.7473, 363.8684
552.2294, 364.6577
552.7115, 369.5033
553.1937, 371.7485
553.6758, 370.7301
554.1579, 367.6749
554.6400, 362.6820
555.1221, 356.7197
555.6042, 352.7421
556.0864, 353.3408
556.5685, 354.7516
557.0506, 351.7517
557.5327, 346.0249
558.0148, 343.9207
558.4969, 353.2757
558.9791, 363.6507
559.4612, 367.7828
559.9433, 363.3112
560.4254, 360.9897
560.9075, 367.0888
561.3896, 373.6887
561.8718, 373.5526
562.3539, 359.4035
562.8360, 351.1555
563.3181, 352.5877
563.8002, 359.7497
564.2823, 363.2265
564.7645, 362.4186
565.2466, 360.3279
565.7287, 356.6506
566.2108, 352.5431
566.6929, 356.0147
567.1750, 367.4484
567.6572, 377.1377
568.1393, 373.8319
568.6214, 363.3311
569.1035, 357.8094
569.5856, 360.0942
570.0677, 363.4611
570.5499, 361.3385
571.0320, 356.8199
571.5141, 354.7859
571.9962, 361.2363
572.4783, 366.3170
572.9604, 363.5797
573.4426, 355.0865
573.9247, 351.6060
574.4068, 360.7026
574.8889, 369.8341
575.3710, 373.8967
575.8531, 371.6203
576.3353, 371.0635
576.8174, 373.7749
577.2995, 375.9167
577.7816, 372.6559
578.2637, 363.2087
578.7458, 357.3286
579.2280, 357.3001
579.7101, 359.8294
580.1922, 358.7397
580.6743, 354.7007
581.1564, 351.4927
581.6385, 350.7797
582.1207, 351.9280
582.6028, 354.9565
583.0849, 359.5493
583.5670, 363.4464
584.0491, 366.3931
584.5313, 367.4120
585.0134, 364.8464
585.4955, 356.5243
585.9776, 351.0050
586.4597, 353.8665
586.9418, 359.2458
587.4240, 360.2570
587.9061, 351.2188
588.3882, 346.5253
588.8703, 349.4442
589.3524, 357.2200
589.8345, 361.8971
590.3167, 363.1350
590.7988, 362.4621
591.2809, 359.2237
591.7630, 354.4362
592.2451, 354.7174
592.7272, 360.2977
593.2094, 365.3132
593.6915, 363.9194
594.1736, 358.6860
594.6557, 354.2763
595.1378, 351.4584
595.6199, 349.7859
596.1021, 348.9786
596.5842, 349.1190
597.0663, 350.3300
597.5485, 354.1310
598.0306, 357.4299
598.5127, 360.1287
598.9948, 361.7408
599.4769, 360.0709
599.9590, 348.9434
600.4412, 341.9630
600.9233, 345.7919
601.4054, 361.6844
601.8875, 367.2515
602.3696, 358.4804
602.8517, 349.1391
603.3339, 341.7163
603.8160, 356.9143
604.2981, 365.5138
604.7802, 367.8691
605.2623, 345.2788
605.7444, 354.9007
606.2266, 351.6134
606.7087, 347.7967
607.1908, 361.9523
607.6729, 342.9902
608.1550, 356.8608
608.6371, 357.6252
609.1193, 364.3880
609.6014, 358.1618
610.0835, 355.9476
610.5656, 366.7264
611.0477, 370.3108
611.5298, 362.5894
612.0120, 369.7335
612.4941, 350.3177
612.9762, 354.2086
613.4583, 368.1552
613.9404, 361.0869
614.4225, 368.4684
614.9047, 370.3467
615.3868, 347.2147
615.8689, 367.5780
616.3510, 369.1310
616.8331, 351.3701
617.3152, 370.2430
617.7974, 355.1447
618.2795, 352.1720
618.7616, 358.3247
619.2437, 354.9645
619.7258, 366.6024
620.2079, 363.7916
620.6901, 359.6899
621.1722, 361.2218
621.6543, 346.7896
622.1364, 361.9741
622.6185, 356.9279
623.1006, 361.9379
623.5828, 369.2273
624.0649, 359.0635
624.5470, 367.3770
625.0291, 347.0367
625.5112, 350.6721
625.9933, 351.7257
626.4755, 368.1042
626.9576, 362.2878
627.4397, 360.1810
627.9218, 354.4778
628.4039, 352.4230
628.8860, 362.3938
629.3682, 375.5664
629.8503, 378.9890
630.3324, 373.7202
630.8145, 367.8640
631.2966, 366.0140
631.7787, 365.4099
632.2609, 363.9153
632.7430, 360.7058
633.2251, 358.7920
633.7072, 358.5833
634.1893, 360.0667
634.6714, 363.7700
635.1536, 372.9539
635.6357, 376.7725
636.1178, 372.7750
636.5999, 364.7949
637.0820, 359.5893
637.5641, 357.2674
638.0463, 355.6450
638.5284, 353.3418
639.0105, 351.8658
639.4926, 355.4771
639.9747, 363.3055
640.4568, 370.1858
640.9390, 374.4568
641.4211, 375.4524
641.9032, 370.2393
642.3853, 358.6718
642.8674, 351.3235
643.3495, 356.4762
643.8317, 364.6293
644.3138, 369.2368
644.7959, 367.6112
645.2780, 366.1082
645.7601, 365.0968
646.2422, 363.8933
646.7244, 361.4148
647.2065, 357.2915
647.6886, 353.7932
648.1707, 351.0819
648.6528, 349.5704
649.1349, 350.8892
649.6171, 354.6024
650.0992, 357.6657
650.5813, 359.3714
651.0634, 359.2097
651.5455, 354.6971
652.0276, 346.9137
652.5098, 341.8887
652.9919, 344.0201
653.4740, 348.9796
653.9561, 354.9792
654.4382, 362.4298
654.9203, 367.1801
655.4025, 368.0227
655.8846, 366.6062
656.3667, 363.2993
656.8488, 356.0815
657.3309, 353.6627
657.8130, 357.8957
658.2952, 352.1209
658.7773, 367.4017
659.2594, 376.0838
659.7415, 378.5218
660.2236, 356.0141
660.7057, 365.7186
661.1879, 362.5140
661.6700, 358.7800
662.1521, 373.0183
662.6342, 354.1389
663.1163, 368.0921
663.5984, 368.9392
664.0806, 375.7847
664.5627, 369.6412
665.0448, 367.5096
665.5269, 378.3711
666.0090, 382.0381
666.4911, 374.3994
666.9733, 381.6262
667.4554, 362.2931
667.9375, 366.2666
668.4196, 380.2959
668.9017, 373.3102
669.3839, 380.7745
669.8660, 382.7354
670.3481, 359.6861
670.8302, 380.1321
671.3123, 381.7678
671.7944, 364.0894
672.2766, 383.0451
672.7587, 368.0294
673.2408, 365.1394
673.7229, 371.3748
674.2050, 368.0973
674.6871, 379.8179
675.1693, 377.0898
675.6514, 373.0707
676.1335, 374.6852
676.6156, 360.3357
677.0977, 375.6029
677.5798, 370.6393
678.0620, 375.7321
678.5441, 383.1041
679.0262, 373.0230
679.5083, 381.4192
679.9904, 361.1615
680.4725, 373.0537
680.9547, 374.0817
681.4368, 375.0664
681.9189, 375.9910
682.4010, 375.2248
682.8831, 368.2726
683.3652, 360.7269
683.8474, 358.6973
684.3295, 370.0501
684.8116, 376.6046
685.2937, 371.6476
685.7758, 362.3134
686.2579, 358.1194
686.7401, 361.5680
687.2222, 362.8773
687.7043, 358.7968
688.1864, 353.0194
688.6685, 356.0873
689.1506, 354.9209
689.6328, 369.9335
690.1149, 378.3475
690.5970, 380.5174
691.0791, 357.7416
691.5612, 367.1780
692.0433, 363.7052
692.5255, 359.7031
693.0076, 373.6732
693.4897, 354.5257
693.9718, 368.2108
694.4539, 368.7898
694.9360, 375.3671
695.4182, 368.9555
695.9003, 366.5557
696.3824, 377.1491
696.8645, 380.5480
697.3466, 372.6412
697.8287, 379.5998
698.3109, 359.9985
698.7930, 363.7039
699.2751, 377.4651
699.7572, 370.2113
700.2393, 377.4074
700.7214, 379.1002
701.2036, 365.8238
701.6857, 365.6643
702.1678, 362.9028
702.6499, 362.5237
703.1320, 369.4220
703.6141, 380.0118
704.0963, 385.1674
704.5784, 381.9539
705.0605, 377.1379
705.5426, 370.9462
706.0247, 364.3206
706.5068, 362.1716
706.9890, 364.9739
707.4711, 368.1200
707.9532, 367.9194
708.4353, 366.6025
708.9174, 371.8702
709.3995, 382.8882
709.8817, 391.2335
710.3638, 389.5198
710.8459, 383.5376
711.3280, 377.3018
711.8101, 370.8688
712.2922, 367.5091
712.7744, 369.5956
713.2565, 374.0368
713.7386, 379.0914
714.2207, 386.5209
714.7028, 389.4268
715.1849, 385.9327
715.6671, 381.2220
716.1492, 382.9828
716.6313, 390.2456
717.1134, 390.6398
717.5955, 380.7435
718.0776, 367.6823
718.5598, 356.7772
719.0419, 349.5949
719.5240, 349.4419
720.0061, 364.6088
720.4882, 378.3463
720.9703, 382.5684
721.4525, 379.8536
721.9346, 376.0088
722.4167, 366.4042
722.8988, 363.2336
723.3809, 372.7977
723.8630, 390.0948
724.3452, 393.3464
724.8273, 380.6434
725.3094, 367.5929
725.7915, 361.3128
726.2736, 360.0570
726.7557, 360.0526
727.2379, 361.1909
727.7200, 362.6143
728.2021, 363.3469
728.6842, 364.4198
729.1663, 367.7072
729.6484, 373.4641
730.1306, 376.2595
730.6127, 371.7229
731.0948, 366.0939
731.5769, 362.8010
732.0590, 362.3671
732.5411, 362.0243
733.0233, 361.7916
733.5054, 361.6073
733.9875, 360.9429
734.4696, 360.0618
734.9517, 361.0293
735.4338, 364.1861
735.9160, 368.5134
736.3981, 374.7521
736.8802, 380.9345
737.3623, 384.0464
737.8444, 382.4297
738.3266, 379.3027
738.8087, 375.1160
739.2908, 370.3836
739.7729, 365.7089
740.2551, 358.9693
740.7372, 356.2699
741.2193, 359.4762
741.7014, 366.1074
742.1835, 371.7086
742.6656, 376.2607
743.1478, 378.1361
743.6299, 375.4201
744.1120, 371.5301
744.5941, 373.2078
745.0762, 378.4717
745.5583, 381.2165
746.0405, 372.9326
746.5226, 366.3915
747.0047, 371.8458
747.4868, 386.6426
747.9689, 394.5181
748.4510, 386.3422
748.9332, 380.4129
749.4153, 384.1665
749.8974, 396.2482
750.3795, 399.8431
750.8616, 393.9879
751.3438, 387.1393
751.8259, 384.5988
752.3080, 384.9996
752.7901, 385.4256
753.2722, 385.7738
753.7543, 385.6318
754.2365, 385.6848
754.7186, 384.4727
755.2007, 379.6414
755.6828, 369.6356
756.1649, 363.8233
756.6470, 366.2879
757.1292, 371.1027
757.6113, 375.3283
758.0934, 379.4404
758.5755, 380.1335
759.0576, 376.4366
759.5397, 372.5872
760.0219, 374.8807
760.5040, 380.7375
760.9861, 380.8842
761.4682, 372.8105
761.9503, 364.9479
762.4324, 364.3152
762.9146, 367.4950
763.3967, 370.5821
763.8788, 373.7138
764.3609, 374.9443
764.8430, 373.3032
765.3251, 369.9418
765.8073, 365.1439
766.2894, 357.2196
766.7715, 355.2244
767.2536, 362.0690
767.7357, 372.2627
768.2178, 377.4706
768.7000, 378.1574
769.1821, 375.5749
769.6642, 366.8032
770.1463, 360.3335
770.6284, 366.6757
771.1105, 380.1779
771.5927, 389.9139
772.0748, 391.8817
772.5569, 390.2791
773.0390, 382.9634
773.5211, 373.4173
774.0032, 371.9395
774.4854, 381.8782
774.9675, 386.7222
775.4496, 378.9136
775.9317, 365.1514
776.4138, 363.8728
776.8959, 372.8708
777.3781, 380.1003
777.8602, 374.9808
778.3423, 368.8596
778.8244, 373.9629
779.3065, 387.1450
779.7886, 394.7418
780.2708, 389.9890
780.7529, 381.3728
781.2350, 369.3715
781.7171, 355.0621
782.1992, 349.0252
782.6813, 352.4072
783.1635, 359.8011
783.6456, 371.3994
784.1277, 384.4426
784.6098, 389.6059
785.0919, 387.3345
785.5740, 382.4721
786.0562, 374.6783
786.5383, 368.1169
787.0204, 366.5988
787.5025, 370.3214
787.9846, 375.8047
788.4667, 385.2284
788.9489, 393.3412
789.4310, 398.5358
789.9131, 400.8739
790.3952, 397.2538
790.8773, 386.3964
791.3594, 375.6834
791.8416, 371.5580
792.3237, 371.7743
792.8058, 369.3792
793.2879, 364.1091
793.7700, 361.8600
794.2521, 370.9792
794.7343, 381.9762
795.2164, 386.9918
795.6985, 384.2683
796.1806, 379.0183
796.6627, 367.7554
797.1448, 358.7025
797.6270, 358.2673
798.1091, 367.8951
798.5912, 374.5867
799.0733, 378.1731
799.5554, 379.5448
800.0375, 377.1149
800.5197, 373.7208
801.0018, 376.9991
801.4839, 389.2867
801.9660, 396.6660
802.4481, 383.3778
802.9302, 366.0188
803.4124, 359.4513
803.8945, 374.2013
804.3766, 380.2534
804.8587, 373.1084
805.3408, 363.1953
805.8229, 360.0118
806.3051, 363.5208
806.7872, 368.1304
807.2693, 373.5695
807.7514, 378.9534
808.2335, 385.6050
808.7156, 390.9010
809.1978, 389.6079
809.6799, 377.8868
810.1620, 368.8918
810.6441, 370.6374
811.1262, 376.2839
811.6083, 379.3471
812.0905, 380.1883
812.5726, 375.9595
813.0547, 363.0843
813.5368, 352.0019
814.0189, 358.9196
814.5010, 380.1264
814.9832, 393.6459
815.4653, 395.3214
815.9474, 391.7233
816.4295, 385.0496
816.9116, 378.3281
817.3937, 375.8520
817.8759, 382.6326
818.3580, 385.8800
818.8401, 378.6670
819.3222, 369.6325
819.8043, 367.4866
820.2864, 374.3352
820.7686, 377.9590
821.2507, 376.4963
821.7328, 373.9240
822.2149, 375.9328
822.6970, 380.8554
823.1791, 384.2882
823.6613, 384.6470
824.1434, 385.2940
824.6255, 391.4882
825.1076, 397.7941
825.5897, 398.0599
826.0718, 379.0471
826.5540, 372.4075
827.0361, 384.3824
827.5182, 401.5224
828.0003, 407.4187
828.4824, 402.1616
828.9645, 397.1592
829.4467, 394.0200
829.9288, 391.7343
830.4109, 388.7258
830.8930, 385.9511
831.3751, 385.2004
831.8572, 388.4268
832.3394, 390.2929
832.8215, 386.2332
833.3036, 381.3936
833.7857, 381.9559
834.2678, 391.3027
834.7499, 395.8095
835.2321, 393.6594
835.7142, 388.7948
836.1963, 385.0970
836.6784, 382.7375
837.1605, 383.0150
837.6426, 386.7999
838.1248, 390.3537
838.6069, 390.7454
839.0890, 389.3293
839.5711, 387.5729
840.0532, 385.9056
840.5353, 383.3417
841.0175, 376.9538
841.4996, 372.6086
841.9817, 378.2603
842.4638, 394.5300
842.9459, 405.7195
843.4280, 410.3651
843.9102, 409.7676
844.3923, 401.6942
844.8744, 390.5027
845.3565, 382.9226
845.8386, 380.0119
846.3207, 381.5819
846.8029, 394.3840
847.2850, 407.2051
847.7671, 409.9671
848.2492, 398.4385
848.7313, 387.1849
849.2134, 374.8316
849.6956, 366.4933
850.1777, 369.7601
850.6598, 381.4179
851.1419, 390.6937
851.6240, 396.3795
852.1061, 399.1474
852.5883, 400.0067
853.0704, 397.9618
853.5525, 390.8488
854.0346, 374.7184
854.5167, 365.4793
854.9988, 365.6990
855.4810, 370.5200
855.9631, 378.8038
856.4452, 390.7294
856.9273, 393.0495
857.4094, 384.8559
857.8915, 375.3564
858.3737, 372.9824
858.8558, 373.9769
859.3379, 373.2584
859.8200, 370.0232
860.3021, 368.5237
860.7842, 371.3726
861.2664, 375.6222
861.7485, 379.4169
862.2306, 382.6033
862.7127, 388.2722
863.1948, 397.7331
863.6769, 404.1060
864.1591, 399.2786
864.6412, 388.5122
865.1233, 384.6413
865.6054, 387.6433
866.0875, 391.8204
866.5696, 394.2163
867.0518, 396.3423
867.5339, 400.3356
868.0160, 406.4530
868.4981, 406.5530
868.9802, 397.5677
869.4623, 388.9722
869.9445, 384.9476
870.4266, 385.0084
870.9087, 388.3427
871.3908, 394.5528
871.8729, 399.0268
872.3550, 397.7115
872.8372, 394.5507
873.3193, 392.4045
873.8014, 391.2742
874.2835, 390.6490
874.7656, 389.1567
875.2477, 389.9910
875.7299, 395.8328
876.2120, 404.2169
876.6941, 403.8281
877.1762, 394.6970
877.6583, 388.4487
878.1404, 391.6833
878.6226, 398.9125
879.1047, 405.5720
879.5869, 410.3667
880.0690, 410.1483
880.5511, 396.3257
881.0332, 385.8669
881.5153, 385.8245
881.9974, 391.6481
882.4796, 394.6841
882.9617, 394.7672
883.4438, 392.7728
883.9259, 388.4599
884.4080, 383.1173
884.8901, 377.0453
885.3723, 371.6801
885.8544, 370.6909
886.3365, 378.3207
886.8186, 385.6997
887.3007, 389.5831
887.7828, 390.5391
888.2650, 388.7000
888.7471, 380.5180
889.2292, 380.3498
889.7113, 392.0175
890.1934, 405.9866
890.6755, 408.7437
891.1577, 403.6024
891.6398, 401.0593
892.1219, 403.3588
892.6040, 406.9585
893.0861, 412.4967
893.5682, 416.3348
894.0504, 414.0380
894.5325, 399.7068
895.0146, 393.6852
895.4967, 399.6588
895.9788, 407.1306
896.4609, 405.6573
896.9431, 397.2560
897.4252, 395.7355
897.9073, 401.9019
898.3894, 407.2708
898.8715, 405.5375
899.3536, 400.2026
899.8358, 391.8040
900.3179, 379.7045
900.8000, 377.2155
901.2821, 393.3096
901.7642, 407.3810
902.2463, 408.8528
902.7285, 399.7778
903.2106, 396.3776
903.6927, 398.4557
904.1748, 400.3214
904.6569, 398.0793
905.1390, 394.2364
905.6212, 389.9984
906.1033, 386.0989
906.5854, 385.1508
907.0675, 390.6828
907.5496, 396.1017
908.0317, 400.3049
908.5139, 403.1366
908.9960, 404.1945
909.4781, 403.4654
909.9602, 400.4437
910.4423, 392.8490
910.9244, 386.3309
911.4066, 390.3787
911.8887, 399.9897
912.3708, 406.0043
912.8529, 401.7083
913.3350, 398.0497
913.8171, 396.6226
914.2993, 397.0397
914.7814, 399.6668
915.2635, 404.8601
915.7456, 407.2560
916.2277, 405.7607
916.7098, 402.7918
917.1920, 400.7680
917.6741, 399.2528
918.1562, 397.2943
918.6383, 394.0582
919.1204, 392.8093
919.6025, 397.4277
920.0847, 402.0059
920.5668, 402.2233
921.0489, 397.2207
921.5310, 393.8878
922.0131, 392.3042
922.4952, 391.7696
922.9774, 392.2109
923.4595, 393.1117
923.9416, 393.4546
924.4237, 393.2757
924.9058, 393.9352
925.3879, 398.6360
925.8701, 401.4594
926.3522, 399.3511
926.8343, 393.0292
927.3164, 387.6211
927.7985, 382.7776
928.2806, 381.9664
928.7628, 389.3287
929.2449, 399.2232
929.7270, 402.3984
930.2091, 400.7986
930.6912, 399.7831
931.1733, 404.1686
931.6555, 406.3322
932.1376, 402.3407
932.6197, 395.4254
933.1018, 390.6579
933.5839, 388.1268
934.0660, 386.3537
934.5482, 384.3614
935.0303, 385.2054
935.5124, 397.7000
935.9945, 414.4862
936.4766, 422.1601
936.9587, 415.2780
937.4409, 406.0775
937.9230, 392.0554
938.4051, 382.2026
938.8872, 385.0297
939.3693, 403.9273
939.8514, 415.8554
940.3336, 420.3408
940.8157, 420.1895
941.2978, 413.9659
941.7799, 406.4317
942.2620, 405.3345
942.7441, 410.7761
943.2263, 416.0012
943.7084, 419.2538
944.1905, 420.6108
944.6726, 419.0607
945.1547, 415.5320
945.6368, 417.2693
946.1190, 424.7938
946.6011, 428.7308
947.0832, 422.5878
947.5653, 413.1433
948.0474, 408.5644
948.5295, 407.8361
949.0117, 408.5971
949.4938, 412.4215
949.9759, 414.4532
950.4580, 411.9458
950.9401, 408.6256
951.4222, 411.7428
951.9044, 421.5154
952.3865, 424.7022
952.8686, 418.1256
953.3507, 409.7577
953.8328, 408.1517
954.3149, 409.7857
954.7971, 410.3420
955.2792, 408.8774
955.7613, 406.7600
956.2434, 403.7046
956.7255, 400.6712
957.2076, 397.5844
957.6898, 394.5449
958.1719, 396.1268
958.6540, 402.2726
959.1361, 408.2043
959.6182, 411.1002
960.1003, 411.9703
960.5825, 410.4337
961.0646, 407.2607
961.5467, 406.8346
962.0288, 414.5535
962.5109, 417.4975
962.9930, 410.0080
963.4752, 398.0976
963.9573, 398.6158
964.4394, 409.4519
964.9215, 417.5408
965.4036, 417.8951
965.8857, 415.5239
966.3679, 413.4534
966.8500, 411.5287
967.3321, 409.5205
967.8142, 407.3705
968.2963, 405.2838
968.7784, 403.4945
969.2606, 401.3299
969.7427, 397.6643
970.2248, 393.0604
970.7069, 388.7542
971.1890, 384.8885
971.6711, 384.3107
972.1533, 390.9638
972.6354, 399.8463
973.1175, 408.6573
973.5996, 417.1066
974.0817, 422.1187
974.5638, 423.6496
975.0460, 421.4391
975.5281, 412.5246
976.0102, 402.4257
976.4923, 407.0796
976.9744, 420.7488
977.4565, 426.5811
977.9387, 404.7820
978.4208, 388.4633
978.9029, 394.9687
979.3850, 410.8747
979.8671, 418.1562
980.3492, 415.2111
980.8314, 412.3727
981.3135, 410.5170
981.7956, 409.9773
982.2777, 411.8571
982.7598, 414.9274
983.2419, 417.9968
983.7241, 421.1875
984.2062, 421.7292
984.6883, 415.2505
985.1704, 409.5446
985.6525, 408.4025
986.1346, 411.3351
986.6168, 412.6999
987.0989, 412.5956
987.5810, 414.1143
988.0631, 422.1286
988.5452, 429.9950
989.0273, 429.9304
989.5095, 424.7493
989.9916, 421.7878
990.4737, 427.8886
990.9558, 426.6561
991.4379, 412.1038
991.9200, 395.3151
992.4022, 394.7491
992.8843, 407.3951
993.3664, 422.0560
993.8485, 437.8092
994.3306, 447.3421
994.8127, 439.3070
995.2949, 427.0546
995.7770, 423.4794
996.2591, 431.1971
996.7412, 431.8534
997.2233, 423.6053
997.7054, 414.9828
998.1876, 409.5331
998.6697, 408.0122
999.1518, 416.4069
999.6339, 431.1822
1000.116, 438.3871
1000.598, 420.3730
1001.080, 407.0738
1001.562, 413.8300
1002.044, 429.3885
1002.527, 432.6033
1003.009, 422.3312
1003.491, 416.2951
1003.973, 418.4368
1004.455, 422.7165
1004.937, 423.6803
1005.419, 422.2344
1005.901, 418.9114
1006.384, 412.8658
1006.866, 409.1130
1007.348, 408.5247
1007.830, 409.7526
1008.312, 412.8447
1008.794, 417.2019
1009.276, 419.5908
1009.758, 420.0005
1010.240, 418.5070
1010.723, 409.3628
1011.205, 404.0429
1011.687, 413.9620
1012.169, 432.9929
1012.651, 444.5375
1013.133, 447.3468
1013.615, 444.9180
1014.097, 436.5558
1014.580, 426.3322
1015.062, 417.2805
1015.544, 411.2703
1016.026, 414.3404
1016.508, 430.0768
1016.990, 439.8570
1017.472, 427.9148
1017.954, 415.6526
1018.436, 417.0185
1018.919, 431.0242
1019.401, 434.9427
1019.883, 428.7493
1020.365, 421.6007
1020.847, 416.3216
1021.329, 414.6440
1021.811, 422.5471
1022.293, 435.1249
1022.776, 440.2069
1023.258, 427.8617
1023.740, 420.9457
1024.222, 423.5327
1024.704, 429.1456
1025.186, 426.3951
1025.668, 419.0938
1026.150, 423.6030
1026.632, 443.5182
1027.115, 456.7570
1027.597, 441.4767
1028.079, 422.0853
1028.561, 415.2901
1029.043, 420.7073
1029.525, 427.4361
1030.007, 435.9687
1030.489, 440.7372
1030.972, 437.4946
1031.454, 430.9301
1031.936, 424.4051
1032.418, 419.9851
1032.900, 422.1233
1033.382, 446.8307
1033.864, 456.2679
1034.346, 439.7454
1034.828, 416.7302
1035.311, 409.9492
1035.793, 416.9279
1036.275, 421.9999
1036.757, 423.9290
1037.239, 425.1805
1037.721, 426.1414
1038.203, 428.2319
1038.685, 433.8535
1039.167, 442.2581
1039.650, 446.5216
1040.132, 446.3188
1040.614, 442.7339
1041.096, 434.5636
1041.578, 425.9850
1042.060, 424.1666
1042.542, 426.8738
1043.024, 430.2197
1043.507, 434.9915
1043.989, 436.1678
1044.471, 429.6865
1044.953, 423.1025
1045.435, 422.6563
1045.917, 427.8617
1046.399, 432.8366
1046.881, 437.4236
1047.364, 441.1674
1047.846, 445.0515
1048.328, 446.7943
1048.810, 443.8645
1049.292, 437.1862
1049.774, 431.1051
1050.256, 425.2954
1050.738, 421.3124
1051.220, 419.4003
1051.703, 419.6110
1052.185, 422.7984
1052.667, 427.9165
1053.149, 434.0952
1053.631, 442.3477
1054.113, 445.7859
1054.595, 437.4833
1055.077, 429.7662
1055.559, 429.1457
1056.042, 434.6235
1056.524, 441.1574
1057.006, 448.1409
1057.488, 450.6163
1057.970, 441.9169
1058.452, 431.9497
1058.934, 426.2163
1059.416, 423.6754
1059.899, 421.5658
1060.381, 417.8917
1060.863, 422.7289
1061.345, 438.8633
1061.827, 455.2461
1062.309, 461.3061
1062.791, 460.0393
1063.273, 453.7439
1063.755, 442.8971
1064.238, 435.4671
1064.720, 436.7779
1065.202, 437.5472
1065.684, 434.2331
1066.166, 429.1905
1066.648, 430.6331
1067.130, 436.7895
1067.612, 438.9416
1068.094, 431.8233
1068.577, 426.1050
1069.059, 429.8244
1069.541, 436.9883
1070.023, 441.8632
1070.505, 444.1372
1070.987, 445.6069
1071.469, 446.3812
1071.951, 445.5223
1072.434, 440.4601
1072.916, 434.8069
1073.398, 433.0077
1073.880, 434.2983
1074.362, 435.7976
1074.844, 437.5892
1075.326, 438.2449
1075.808, 437.0327
1076.291, 435.6192
1076.773, 436.8834
1077.255, 439.8043
1077.737, 441.8982
1078.219, 442.8770
1078.701, 441.3990
1079.183, 434.9091
1079.665, 427.4654
1080.147, 419.4764
1080.630, 412.1634
1081.112, 414.3553
1081.594, 425.6949
1082.076, 435.0884
1082.558, 437.5355
1083.040, 438.0624
1083.522, 443.7278
1084.004, 449.0608
1084.486, 445.5592
1084.969, 426.4222
1085.451, 415.8105
1085.933, 414.8575
1086.415, 418.4660
1086.897, 425.2713
1087.379, 432.8008
1087.861, 437.2325
1088.343, 438.5389
1088.826, 437.0532
1089.308, 426.8228
1089.790, 422.3639
1090.272, 427.9769
1090.754, 438.2149
1091.236, 445.2871
1091.718, 449.5635
1092.200, 452.5517
1092.682, 454.3936
1093.165, 455.7032
1093.647, 458.4937
1094.129, 459.2262
1094.611, 453.3193
1095.093, 442.6915
1095.575, 443.9170
1096.057, 457.7640
1096.539, 463.2914
1097.022, 448.2618
1097.504, 430.6465
1097.986, 431.5209
1098.468, 440.2640
1098.950, 441.6906
1099.432, 428.4515
1099.914, 421.4024
1100.396, 420.9931
1100.879, 425.6274
1101.361, 440.1225
1101.843, 456.1721
1102.325, 454.2365
1102.807, 438.9179
1103.289, 427.9664
1103.771, 431.9180
1104.253, 435.6286
1104.735, 436.5457
1105.218, 435.8955
1105.700, 433.6734
1106.182, 431.0825
1106.664, 436.0110
1107.146, 449.5247
1107.628, 459.6027
1108.110, 455.1662
1108.592, 449.0670
1109.074, 450.1780
1109.557, 455.6065
1110.039, 450.6882
1110.521, 435.1566
1111.003, 428.8003
1111.485, 440.1105
1111.967, 454.1429
1112.449, 457.9956
1112.931, 455.9790
1113.414, 452.0668
1113.896, 446.1008
1114.378, 441.5078
1114.860, 438.0083
1115.342, 437.1736
1115.824, 441.1985
1116.306, 447.3146
1116.788, 453.1074
1117.271, 457.2841
1117.753, 457.0000
1118.235, 447.3233
1118.717, 438.3680
1119.199, 429.0757
1119.681, 423.7333
1120.163, 429.8471
1120.645, 442.8432
1121.127, 448.9329
1121.609, 448.0644
1122.092, 446.0215
1122.574, 444.1200
1123.056, 443.5461
1123.538, 445.7168
1124.020, 448.5401
1124.502, 447.1521
1124.984, 442.1570
1125.466, 438.7126
1125.949, 437.8758
1126.431, 437.9199
1126.913, 437.8678
1127.395, 438.0923
1127.877, 439.3387
1128.359, 441.3055
1128.841, 441.1697
1129.323, 438.7971
1129.806, 436.8751
1130.288, 437.1597
1130.770, 436.6299
1131.252, 427.1084
1131.734, 417.3633
1132.216, 421.0691
1132.698, 446.6632
1133.180, 458.3760
1133.662, 453.5072
1134.145, 445.7866
1134.627, 442.7361
1135.109, 443.0092
1135.591, 446.3647
1136.073, 451.2460
1136.555, 453.6227
1137.037, 452.5197
1137.519, 447.5376
1138.001, 436.3746
1138.484, 426.2371
1138.966, 426.4370
1139.448, 433.0721
1139.930, 437.0616
1140.412, 438.0843
1140.894, 438.1760
1141.376, 434.9167
1141.858, 435.5608
1142.341, 444.2947
1142.823, 455.2822
1143.305, 457.1758
1143.787, 451.7516
1144.269, 446.4745
1144.751, 442.4120
1145.233, 440.5799
1145.715, 443.1249
1146.198, 446.6478
1146.680, 450.6315
1147.162, 453.8954
1147.644, 447.3806
1148.126, 432.3487
1148.608, 427.4029
1149.090, 442.9870
1149.572, 457.7526
1150.054, 451.1192
1150.536, 439.1794
1151.019, 438.9419
1151.501, 452.1841
1151.983, 453.8218
1152.465, 443.2622
1152.947, 436.1688
1153.429, 445.6461
1153.911, 457.1248
1154.393, 453.7101
1154.876, 443.5534
1155.358, 441.6169
1155.840, 452.8042
1156.322, 460.5218
1156.804, 464.8727
1157.286, 463.5382
1157.768, 445.0965
1158.250, 426.5860
1158.733, 435.9393
1159.215, 464.9867
1159.697, 480.7108
1160.179, 472.9493
1160.661, 462.6368
1161.143, 450.3101
1161.625, 441.1862
1162.107, 444.0278
1162.589, 452.7802
1163.072, 458.6521
1163.554, 460.7321
1164.036, 457.2638
1164.518, 440.7522
1165.000, 430.8514
1165.482, 433.4045
1165.964, 443.0016
1166.446, 453.5739
1166.928, 462.6787
1167.411, 463.5100
1167.893, 453.4550
1168.375, 445.2527
1168.857, 443.8630
1169.339, 444.2610
1169.821, 445.6966
1170.303, 446.8451
1170.785, 442.4406
1171.268, 434.3312
1171.750, 427.5838
1172.232, 420.9763
1172.714, 423.4881
1173.196, 452.2395
1173.678, 478.0009
1174.160, 480.2693
1174.642, 463.5253
1175.125, 456.3028
1175.607, 457.3735
1176.089, 460.4248
1176.571, 466.1122
1177.053, 468.2736
1177.535, 461.2684
1178.017, 451.5725
1178.499, 445.2363
1178.981, 442.1589
1179.464, 436.0320
1179.946, 427.2730
1180.428, 423.7962
1180.910, 436.7826
1181.392, 449.5765
1181.874, 452.1718
1182.356, 449.5447
1182.838, 449.8835
1183.320, 453.4162
1183.803, 451.6059
1184.285, 443.5716
1184.767, 437.6829
1185.249, 439.1648
1185.731, 445.8896
1186.213, 462.4494
1186.695, 482.1737
1187.177, 485.5333
1187.660, 471.3116
1188.142, 458.4972
1188.624, 449.8605
1189.106, 446.1307
1189.588, 451.3964
1190.070, 459.0437
1190.552, 463.7052
1191.034, 465.5898
1191.516, 468.5038
1191.999, 472.6801
1192.481, 476.1514
1192.963, 478.9644
1193.445, 479.0631
1193.927, 468.5724
1194.409, 458.2749
1194.891, 463.1626
1195.373, 484.4526
1195.855, 486.9872
1196.338, 468.0052
1196.820, 455.0570
1197.302, 462.2337
1197.784, 472.9497
1198.266, 466.4666
1198.748, 454.1333
1199.230, 451.5356
1199.712, 462.6356
1200.195, 466.1984
1200.677, 460.8725
1201.159, 457.7429
1201.641, 465.9101
1202.123, 475.2647
1202.605, 470.2507
1203.087, 459.8721
1203.569, 460.4448
1204.052, 482.3740
1204.534, 485.8354
1205.016, 467.5356
1205.498, 450.6545
1205.980, 455.8407
1206.462, 467.2021
1206.944, 466.6660
1207.426, 457.9759
1207.908, 449.0159
1208.391, 436.5545
1208.873, 437.3123
1209.355, 454.5192
1209.837, 471.3569
1210.319, 472.3729
1210.801, 466.0778
1211.283, 459.0741
1211.765, 452.9215
1212.247, 452.6250
1212.730, 460.8763
1213.212, 466.8395
1213.694, 469.4940
1214.176, 469.1978
1214.658, 463.6694
1215.140, 457.3107
1215.622, 455.1705
1216.104, 457.0454
1216.587, 459.7584
1217.069, 462.6461
1217.551, 468.8858
1218.033, 480.6758
1218.515, 488.6157
1218.997, 476.1616
1219.479, 458.1979
1219.961, 451.9743
1220.443, 458.3463
1220.926, 464.6367
1221.408, 470.4607
1221.890, 475.2477
1222.372, 478.8494
1222.854, 481.4038
1223.336, 483.2386
1223.818, 484.0149
1224.300, 483.5712
1224.782, 481.7345
1225.265, 476.8918
1225.747, 468.0423
1226.229, 461.0187
1226.711, 457.7498
1227.193, 456.6269
1227.675, 455.0598
1228.157, 454.9089
1228.639, 458.9901
1229.122, 468.0614
1229.604, 477.4423
1230.086, 488.2375
1230.568, 491.7018
1231.050, 481.7807
1231.532, 468.7675
1232.014, 462.8014
1232.496, 461.6546
1232.979, 463.4560
1233.461, 468.5277
1233.943, 469.5988
1234.425, 466.0846
1234.907, 464.2108
1235.389, 466.2944
1235.871, 472.3099
1236.353, 487.6539
1236.835, 504.0956
1237.318, 509.5509
1237.800, 502.3593
1238.282, 496.3337
1238.764, 491.4519
1239.246, 489.2500
1239.728, 493.4424
1240.210, 497.1391
1240.692, 493.0916
1241.175, 485.7283
1241.657, 480.8891
1242.139, 478.6670
1242.621, 480.1527
1243.103, 485.4071
1243.585, 488.5240
1244.067, 481.4984
1244.549, 475.8888
1245.031, 483.4543
1245.514, 494.9998
1245.996, 496.6215
1246.478, 486.9760
1246.960, 486.3451
1247.442, 494.4623
1247.924, 498.6216
1248.406, 484.7114
1248.888, 471.0943
1249.370, 468.9088
1249.853, 472.5999
1250.335, 474.1743
1250.817, 473.8456
1251.299, 482.4440
1251.781, 499.4489
1252.263, 510.9619
1252.745, 503.0871
1253.227, 494.0698
1253.710, 493.4518
1254.192, 494.9301
1254.674, 488.0959
1255.156, 475.2155
1255.638, 474.9090
1256.120, 487.1109
1256.602, 497.5253
1257.084, 493.5059
1257.567, 493.0724
1258.049, 505.6743
1258.531, 519.8752
1259.013, 515.7239
1259.495, 499.7040
1259.977, 499.5156
1260.459, 515.0756
1260.941, 521.2385
1261.423, 493.0754
1261.906, 472.4136
1262.388, 468.6594
1262.870, 475.9281
1263.352, 491.4183
1263.834, 509.6506
1264.316, 515.7563
1264.798, 509.4840
1265.280, 505.9482
1265.762, 516.2173
1266.245, 517.7358
1266.727, 503.7330
1267.209, 485.9784
1267.691, 478.9759
1268.173, 480.0368
1268.655, 486.8028
1269.137, 498.4782
1269.619, 506.4940
1270.102, 509.0941
1270.584, 511.0555
1271.066, 513.7328
1271.548, 514.7357
1272.030, 510.1387
1272.512, 502.7653
1272.994, 494.2541
1273.476, 485.5515
1273.958, 483.2892
1274.441, 488.8990
1274.923, 494.7032
1275.405, 499.3216
1275.887, 502.2180
1276.369, 504.4645
1276.851, 503.4586
1277.333, 492.3682
1277.815, 474.5384
1278.297, 472.3027
1278.780, 486.6227
1279.262, 496.3638
1279.744, 496.5388
1280.226, 492.1941
1280.708, 481.2590
1281.190, 473.1246
1281.672, 476.6235
1282.154, 487.9733
1282.637, 494.4711
1283.119, 496.4218
1283.601, 496.6717
1284.083, 495.9448
1284.565, 492.8757
1285.047, 482.1898
1285.529, 474.0607
1286.011, 473.5091
1286.494, 478.6457
1286.976, 487.0816
1287.458, 496.5878
1287.940, 497.2807
1288.422, 485.3561
1288.904, 479.9721
1289.386, 492.5443
1289.868, 507.9988
1290.350, 523.5732
1290.833, 536.2673
1291.315, 539.9067
1291.797, 536.0635
1292.279, 524.5081
1292.761, 502.8263
1293.243, 497.3067
1293.725, 518.3627
1294.207, 533.0542
1294.689, 528.8647
1295.172, 517.6280
1295.654, 515.2667
1296.136, 517.2373
1296.618, 517.3102
##END=



